Data from MonoPyChalIsomerACN10uM350nmA_Absorbance_14-35-32-415.txt Node
Date: Fri Jul 05 14:35:32 BST 2024
User: LASERRRRR
Spectrometer: FLMT03099
Trigger mode: 0
Integration Time (sec): 1.000000E-1
Scans to average: 1
Electric dark correction enabled: true
Nonlinearity correction enabled: false
Boxcar width: 0
XAxis mode: Wavelengths
Number of Pixels in Spectrum: 3648
>>>>>Begin Spectral Data<<<<<
179.3399	-0.0873
179.5586	-0.0873
179.7771	-0.0873
179.9957	-0
180.2143	-0
180.4329	-0.0963
180.6514	1.2206
180.8699	-0
181.0885	-0
181.307	-0.1277
181.5255	0.8808
181.744	-0.1469
181.9625	-0
182.181	-0
182.3994	-0.2389
182.6179	1
182.8363	0.2842
183.0547	-0.2628
183.2732	0.1743
183.4916	0.1203
183.71	0.1628
183.9284	0.172
184.1467	-0.143
184.3651	-0.0152
184.5835	-0.0755
184.8018	0.3987
185.0201	0.1837
185.2385	0.0038
185.4568	0.0035
185.6751	0.1483
185.8934	0.3098
186.1117	0.0633
186.3299	0.3404
186.5482	0.041
186.7664	-0.1024
186.9847	0.0897
187.2029	-0.0136
187.4211	0.1102
187.6393	0.1711
187.8575	-0.1288
188.0757	0.0782
188.2939	0.1477
188.512	0.1272
188.7302	0.1037
188.9483	0.131
189.1665	0.324
189.3846	-0
189.6027	0.0131
189.8208	0.1905
190.0389	0.0823
190.257	0.1218
190.475	0.1108
190.6931	0.1714
190.9111	0.529
191.1292	0.2625
191.3472	0.5762
191.5652	0.2798
191.7832	0.3099
192.0012	0.5862
192.2192	0.4359
192.4371	0.414
192.6551	0.5273
192.873	0.4683
193.091	0.3921
193.3089	0.9771
193.5268	0.6672
193.7447	0.5667
193.9626	0.5223
194.1805	0.5387
194.3984	0.6439
194.6162	0.6132
194.8341	0.6836
195.0519	0.6208
195.2697	0.66
195.4875	0.843
195.7054	0.4878
195.9231	0.5433
196.1409	0.5668
196.3587	0.6036
196.5765	0.5694
196.7942	0.4976
197.012	0.4967
197.2297	0.5428
197.4474	0.7967
197.6651	0.5873
197.8828	0.5751
198.1005	0.5998
198.3182	0.5933
198.5358	0.6931
198.7535	0.68
198.9711	0.5074
199.1888	0.5969
199.4064	0.6682
199.624	0.5125
199.8416	0.54
200.0592	0.4851
200.2767	0.782
200.4943	0.6429
200.7119	0.6315
200.9294	0.6685
201.1469	0.5777
201.3645	0.4924
201.582	0.6049
201.7995	0.7283
202.017	0.6528
202.2344	0.5966
202.4519	0.6764
202.6694	0.6406
202.8868	0.6094
203.1042	0.661
203.3217	0.6286
203.5391	0.6321
203.7565	0.5736
203.9739	0.6556
204.1913	0.6214
204.4086	0.7775
204.626	0.7589
204.8433	0.7069
205.0607	0.6649
205.278	0.5821
205.4953	0.6807
205.7126	0.6738
205.9299	0.6294
206.1472	0.6483
206.3644	0.6516
206.5817	0.711
206.7989	0.7768
207.0162	0.5862
207.2334	0.6857
207.4506	0.5869
207.6678	0.6628
207.885	0.6946
208.1022	0.6748
208.3194	0.6979
208.5365	0.7009
208.7537	0.6502
208.9708	0.5707
209.1879	0.6336
209.405	0.6352
209.6222	0.6318
209.8392	0.6342
210.0563	0.6211
210.2734	0.6497
210.4905	0.6415
210.7075	0.6349
210.9245	0.6239
211.1416	0.6588
211.3586	0.6054
211.5756	0.6062
211.7926	0.5948
212.0096	0.6234
212.2265	0.5773
212.4435	0.5452
212.6604	0.5713
212.8774	0.5537
213.0943	0.6265
213.3112	0.5206
213.5281	0.506
213.745	0.4989
213.9619	0.5357
214.1788	0.5071
214.3956	0.4897
214.6125	0.4588
214.8293	0.4543
215.0461	0.4956
215.2629	0.4778
215.4798	0.4507
215.6965	0.4525
215.9133	0.4297
216.1301	0.4057
216.3469	0.4274
216.5636	0.4215
216.7803	0.4176
216.9971	0.4027
217.2138	0.3792
217.4305	0.3962
217.6472	0.351
217.8639	0.3839
218.0805	0.3465
218.2972	0.3079
218.5138	0.3549
218.7305	0.321
218.9471	0.296
219.1637	0.3035
219.3803	0.3062
219.5969	0.2589
219.8135	0.2719
220.0301	0.2635
220.2466	0.2771
220.4632	0.2546
220.6797	0.2439
220.8962	0.2382
221.1127	0.2468
221.3292	0.2398
221.5457	0.2119
221.7622	0.2369
221.9787	0.2724
222.1951	0.2248
222.4116	0.2602
222.628	0.2459
222.8444	0.2489
223.0608	0.2637
223.2772	0.2658
223.4936	0.2622
223.71	0.2593
223.9264	0.277
224.1427	0.2492
224.3591	0.2337
224.5754	0.2572
224.7917	0.2706
225.008	0.2598
225.2243	0.2739
225.4406	0.2891
225.6569	0.2655
225.8732	0.2632
226.0894	0.2696
226.3057	0.257
226.5219	0.2811
226.7381	0.263
226.9543	0.2854
227.1705	0.2866
227.3867	0.2802
227.6029	0.3015
227.8191	0.3101
228.0352	0.2871
228.2513	0.3208
228.4675	0.3035
228.6836	0.2929
228.8997	0.3021
229.1158	0.3078
229.3319	0.3077
229.548	0.3212
229.764	0.326
229.9801	0.3216
230.1961	0.3294
230.4121	0.3404
230.6282	0.3395
230.8442	0.3215
231.0602	0.3413
231.2761	0.3634
231.4921	0.3212
231.7081	0.3326
231.924	0.3566
232.14	0.3741
232.3559	0.334
232.5718	0.3747
232.7877	0.3738
233.0036	0.345
233.2195	0.3618
233.4353	0.3615
233.6512	0.3601
233.867	0.3704
234.0829	0.3667
234.2987	0.3514
234.5145	0.3936
234.7303	0.3645
234.9461	0.3944
235.1619	0.3712
235.3776	0.3726
235.5934	0.3832
235.8091	0.3713
236.0249	0.3859
236.2406	0.3795
236.4563	0.3867
236.672	0.3962
236.8877	0.406
237.1034	0.4024
237.319	0.3946
237.5347	0.408
237.7503	0.4054
237.966	0.4149
238.1816	0.4073
238.3972	0.3892
238.6128	0.4065
238.8284	0.3892
239.0439	0.4214
239.2595	0.3975
239.475	0.4038
239.6906	0.3976
239.9061	0.3951
240.1216	0.4015
240.3371	0.4055
240.5526	0.3813
240.7681	0.4116
240.9836	0.371
241.199	0.3974
241.4145	0.3743
241.6299	0.3664
241.8453	0.3763
242.0607	0.3689
242.2761	0.3592
242.4915	0.3613
242.7069	0.3517
242.9223	0.3191
243.1376	0.3463
243.353	0.3333
243.5683	0.3352
243.7836	0.3312
243.9989	0.3166
244.2142	0.2823
244.4295	0.3148
244.6448	0.2987
244.86	0.2885
245.0753	0.271
245.2905	0.2871
245.5057	0.2696
245.721	0.2676
245.9362	0.2486
246.1514	0.2668
246.3665	0.242
246.5817	0.2418
246.7969	0.2506
247.012	0.247
247.2271	0.2244
247.4423	0.2381
247.6574	0.2301
247.8725	0.2195
248.0876	0.2243
248.3026	0.2268
248.5177	0.2124
248.7328	0.2233
248.9478	0.1982
249.1628	0.2147
249.3779	0.2038
249.5929	0.1912
249.8079	0.2085
250.0228	0.1875
250.2378	0.2046
250.4528	0.1964
250.6677	0.1716
250.8827	0.1828
251.0976	0.1858
251.3125	0.1878
251.5274	0.1682
251.7423	0.1672
251.9572	0.1819
252.172	0.1701
252.3869	0.1694
252.6017	0.1745
252.8166	0.1676
253.0314	0.1728
253.2462	0.1735
253.461	0.1697
253.6758	0.1583
253.8906	0.1736
254.1053	0.1695
254.3201	0.1693
254.5348	0.1682
254.7496	0.1739
254.9643	0.1664
255.179	0.1719
255.3937	0.1568
255.6083	0.1788
255.823	0.1594
256.0377	0.1687
256.2523	0.1635
256.467	0.1506
256.6816	0.1734
256.8962	0.1757
257.1108	0.1572
257.3254	0.159
257.54	0.161
257.7545	0.1647
257.9691	0.171
258.1836	0.1687
258.3981	0.1738
258.6127	0.1667
258.8272	0.1613
259.0417	0.1709
259.2561	0.1573
259.4706	0.1623
259.6851	0.1707
259.8995	0.1622
260.114	0.1572
260.3284	0.1642
260.5428	0.1569
260.7572	0.1687
260.9716	0.1783
261.186	0.1528
261.4003	0.17
261.6147	0.1494
261.829	0.1637
262.0433	0.1628
262.2577	0.163
262.472	0.1564
262.6863	0.154
262.9005	0.1683
263.1148	0.1461
263.3291	0.143
263.5433	0.1541
263.7576	0.1607
263.9718	0.1661
264.186	0.155
264.4002	0.1587
264.6144	0.1574
264.8286	0.1721
265.0427	0.1635
265.2569	0.1617
265.471	0.1597
265.6851	0.1554
265.8993	0.1583
266.1134	0.1579
266.3275	0.1616
266.5415	0.1522
266.7556	0.1577
266.9697	0.1574
267.1837	0.1624
267.3978	0.1567
267.6118	0.155
267.8258	0.1785
268.0398	0.1413
268.2538	0.1518
268.4677	0.1541
268.6817	0.1572
268.8957	0.1601
269.1096	0.139
269.3235	0.1627
269.5374	0.1388
269.7514	0.1446
269.9652	0.1374
270.1791	0.1399
270.393	0.1376
270.6068	0.1467
270.8207	0.1375
271.0345	0.1388
271.2483	0.1439
271.4622	0.1445
271.676	0.145
271.8897	0.1507
272.1035	0.1306
272.3173	0.1296
272.531	0.1373
272.7448	0.1304
272.9585	0.1147
273.1722	0.1382
273.3859	0.1253
273.5996	0.1387
273.8133	0.1323
274.0269	0.132
274.2406	0.1322
274.4542	0.1372
274.6679	0.1232
274.8815	0.1277
275.0951	0.136
275.3087	0.1423
275.5223	0.1416
275.7358	0.1362
275.9494	0.1245
276.1629	0.1283
276.3765	0.1307
276.59	0.133
276.8035	0.1314
277.017	0.1341
277.2305	0.1311
277.444	0.1333
277.6574	0.1311
277.8709	0.1414
278.0843	0.126
278.2978	0.1301
278.5112	0.1312
278.7246	0.1287
278.938	0.1279
279.1513	0.1424
279.3647	0.1397
279.5781	0.1306
279.7914	0.1492
280.0047	0.1481
280.2181	0.138
280.4314	0.1514
280.6447	0.1451
280.8579	0.1372
281.0712	0.1564
281.2845	0.1504
281.4977	0.1424
281.711	0.134
281.9242	0.14
282.1374	0.1482
282.3506	0.1421
282.5638	0.1538
282.7769	0.1506
282.9901	0.1504
283.2033	0.1504
283.4164	0.1435
283.6295	0.1457
283.8426	0.1389
284.0557	0.1452
284.2688	0.1738
284.4819	0.1541
284.695	0.1544
284.908	0.1534
285.1211	0.1544
285.3341	0.1584
285.5471	0.1487
285.7601	0.1463
285.9731	0.1472
286.1861	0.1509
286.3991	0.161
286.612	0.1552
286.825	0.1545
287.0379	0.1582
287.2508	0.1531
287.4637	0.1547
287.6766	0.1648
287.8895	0.1642
288.1024	0.1746
288.3152	0.1646
288.5281	0.1575
288.7409	0.1694
288.9538	0.1651
289.1666	0.1658
289.3794	0.1589
289.5922	0.1572
289.8049	0.1708
290.0177	0.1568
290.2304	0.1634
290.4432	0.1755
290.6559	0.1609
290.8686	0.1705
291.0813	0.1659
291.294	0.1811
291.5067	0.1746
291.7194	0.1643
291.932	0.1737
292.1447	0.1799
292.3573	0.1541
292.5699	0.1604
292.7825	0.1685
292.9951	0.1593
293.2077	0.1739
293.4203	0.1796
293.6328	0.1544
293.8454	0.1729
294.0579	0.1715
294.2704	0.1739
294.4829	0.1552
294.6954	0.163
294.9079	0.171
295.1204	0.1666
295.3328	0.1676
295.5453	0.1697
295.7577	0.1661
295.9701	0.1634
296.1825	0.1707
296.3949	0.171
296.6073	0.1662
296.8197	0.168
297.0321	0.1776
297.2444	0.166
297.4567	0.1694
297.6691	0.1655
297.8814	0.1595
298.0937	0.1586
298.306	0.1783
298.5182	0.1721
298.7305	0.169
298.9428	0.1609
299.155	0.1603
299.3672	0.1622
299.5794	0.1635
299.7916	0.1539
300.0038	0.1673
300.216	0.1833
300.4282	0.1838
300.6403	0.1671
300.8525	0.1721
301.0646	0.1686
301.2767	0.1692
301.4888	0.1613
301.7009	0.1741
301.913	0.1769
302.125	0.1719
302.3371	0.1613
302.5491	0.1645
302.7612	0.1627
302.9732	0.1826
303.1852	0.1721
303.3972	0.1581
303.6092	0.1727
303.8211	0.1525
304.0331	0.1529
304.245	0.1632
304.457	0.1586
304.6689	0.1586
304.8808	0.1645
305.0927	0.1455
305.3046	0.1531
305.5164	0.1557
305.7283	0.1592
305.9401	0.1511
306.152	0.1461
306.3638	0.1598
306.5756	0.1446
306.7874	0.1481
306.9992	0.145
307.2109	0.1493
307.4227	0.1278
307.6344	0.1436
307.8462	0.1309
308.0579	0.1342
308.2696	0.1372
308.4813	0.127
308.693	0.1221
308.9046	0.141
309.1163	0.1384
309.328	0.1228
309.5396	0.1287
309.7512	0.1255
309.9628	0.1301
310.1744	0.1176
310.386	0.1096
310.5976	0.1131
310.8091	0.1203
311.0207	0.1255
311.2322	0.1177
311.4437	0.1118
311.6552	0.1108
311.8667	0.1165
312.0782	0.1009
312.2897	0.1031
312.5012	0.107
312.7126	0.1095
312.924	0.1021
313.1355	0.1111
313.3469	0.1042
313.5583	0.1026
313.7696	0.0981
313.981	0.099
314.1924	0.0994
314.4037	0.1093
314.6151	0.1063
314.8264	0.0919
315.0377	0.0998
315.249	0.0955
315.4603	0.1051
315.6716	0.0955
315.8828	0.0867
316.0941	0.0953
316.3053	0.0908
316.5165	0.0838
316.7277	0.0855
316.9389	0.1032
317.1501	0.0826
317.3613	0.0854
317.5724	0.0723
317.7836	0.0984
317.9947	0.088
318.2058	0.096
318.417	0.0853
318.6281	0.0897
318.8391	0.0857
319.0502	0.0918
319.2613	0.0885
319.4723	0.0913
319.6834	0.086
319.8944	0.0971
320.1054	0.0968
320.3164	0.0958
320.5274	0.087
320.7383	0.0818
320.9493	0.0872
321.1602	0.1046
321.3712	0.0815
321.5821	0.0937
321.793	0.0981
322.0039	0.0821
322.2148	0.0802
322.4257	0.0926
322.6365	0.0967
322.8474	0.1028
323.0582	0.0929
323.269	0.0946
323.4798	0.0926
323.6906	0.0969
323.9014	0.0981
324.1122	0.0906
324.3229	0.0951
324.5337	0.0977
324.7444	0.081
324.9551	0.1154
325.1658	0.1013
325.3765	0.1038
325.5872	0.0994
325.7979	0.0888
326.0085	0.0965
326.2192	0.1023
326.4298	0.0918
326.6404	0.0882
326.851	0.0873
327.0616	0.0734
327.2722	0.0955
327.4828	0.1013
327.6933	0.0922
327.9039	0.1
328.1144	0.0998
328.3249	0.0974
328.5354	0.0837
328.7459	0.1094
328.9564	0.0902
329.1669	0.0984
329.3773	0.0878
329.5878	0.0979
329.7982	0.0898
330.0086	0.0936
330.219	0.108
330.4294	0.0938
330.6398	0.11
330.8502	0.0876
331.0605	0.1013
331.2708	0.0916
331.4812	0.0979
331.6915	0.1196
331.9018	0.1034
332.1121	0.0921
332.3224	0.0968
332.5326	0.0936
332.7429	0.0992
332.9531	0.109
333.1633	0.1029
333.3735	0.1023
333.5837	0.0969
333.7939	0.1026
334.0041	0.1084
334.2143	0.1056
334.4244	0.1087
334.6346	0.0837
334.8447	0.1027
335.0548	0.0975
335.2649	0.0903
335.475	0.1145
335.685	0.0992
335.8951	0.1016
336.1051	0.0935
336.3152	0.1029
336.5252	0.0966
336.7352	0.1034
336.9452	0.1203
337.1552	0.0973
337.3652	0.0937
337.5751	0.1066
337.7851	0.1134
337.995	0.0904
338.2049	0.1075
338.4148	0.0997
338.6247	0.1144
338.8346	0.0986
339.0445	0.0985
339.2543	0.09
339.4642	0.1107
339.674	0.0878
339.8838	0.1041
340.0936	0.1038
340.3034	0.1207
340.5132	0.1296
340.7229	0.1104
340.9327	0.0969
341.1424	0.1095
341.3522	0.1158
341.5619	0.1124
341.7716	0.1176
341.9813	0.1134
342.1909	0.1109
342.4006	0.118
342.6102	0.1217
342.8199	0.1135
343.0295	0.1196
343.2391	0.1162
343.4487	0.1249
343.6583	0.1152
343.8679	0.1202
344.0774	0.1106
344.287	0.116
344.4965	0.1136
344.706	0.1169
344.9155	0.1158
345.125	0.1168
345.3345	0.1196
345.544	0.1255
345.7534	0.1195
345.9629	0.1151
346.1723	0.131
346.3817	0.1186
346.5911	0.127
346.8005	0.1228
347.0099	0.1205
347.2193	0.1312
347.4286	0.1168
347.638	0.1355
347.8473	0.1349
348.0566	0.1294
348.2659	0.1279
348.4752	0.1274
348.6845	0.1259
348.8937	0.1175
349.103	0.1403
349.3122	0.127
349.5214	0.1128
349.7306	0.1224
349.9398	0.1417
350.149	0.127
350.3582	0.1288
350.5674	0.1341
350.7765	0.1371
350.9856	0.1446
351.1948	0.1377
351.4039	0.1236
351.613	0.1156
351.822	0.1403
352.0311	0.1445
352.2402	0.1423
352.4492	0.1373
352.6582	0.1431
352.8672	0.1276
353.0762	0.1374
353.2852	0.1359
353.4942	0.1316
353.7032	0.1476
353.9121	0.1359
354.1211	0.1512
354.33	0.1578
354.5389	0.1531
354.7478	0.1508
354.9567	0.1387
355.1655	0.1402
355.3744	0.1531
355.5833	0.1546
355.7921	0.1642
356.0009	0.1382
356.2097	0.1809
356.4185	0.1589
356.6273	0.1692
356.8361	0.167
357.0448	0.1399
357.2536	0.1432
357.4623	0.1533
357.671	0.1658
357.8797	0.1606
358.0884	0.1711
358.2971	0.1754
358.5057	0.1646
358.7144	0.1759
358.923	0.1695
359.1316	0.1701
359.3402	0.1547
359.5488	0.1635
359.7574	0.1516
359.966	0.1824
360.1746	0.1723
360.3831	0.1861
360.5916	0.1617
360.8002	0.1632
361.0087	0.1793
361.2172	0.1812
361.4256	0.1687
361.6341	0.1761
361.8426	0.1835
362.051	0.1946
362.2594	0.1843
362.4678	0.1852
362.6762	0.2103
362.8846	0.1872
363.093	0.1871
363.3014	0.1783
363.5097	0.1649
363.718	0.1936
363.9264	0.1837
364.1347	0.1758
364.343	0.1921
364.5513	0.2105
364.7595	0.2218
364.9678	0.1975
365.176	0.1903
365.3842	0.1896
365.5925	0.1956
365.8007	0.2098
366.0089	0.2119
366.217	0.1793
366.4252	0.2119
366.6333	0.2145
366.8415	0.203
367.0496	0.2116
367.2577	0.2171
367.4658	0.2048
367.6739	0.2243
367.882	0.2065
368.09	0.2068
368.2981	0.2255
368.5061	0.2196
368.7141	0.2082
368.9221	0.2151
369.1301	0.223
369.3381	0.219
369.5461	0.2205
369.754	0.2104
369.962	0.2333
370.1699	0.2279
370.3778	0.2323
370.5857	0.2092
370.7936	0.22
371.0015	0.2146
371.2093	0.2275
371.4172	0.2389
371.625	0.2044
371.8328	0.228
372.0406	0.236
372.2484	0.2146
372.4562	0.244
372.664	0.227
372.8717	0.2497
373.0795	0.2113
373.2872	0.2275
373.4949	0.229
373.7026	0.2252
373.9103	0.2291
374.118	0.222
374.3256	0.2403
374.5333	0.2299
374.7409	0.2264
374.9485	0.263
375.1561	0.255
375.3637	0.2583
375.5713	0.2499
375.7789	0.2439
375.9864	0.2332
376.194	0.2284
376.4015	0.2475
376.609	0.2534
376.8165	0.2551
377.024	0.2472
377.2315	0.2258
377.4389	0.237
377.6464	0.2492
377.8538	0.2582
378.0612	0.2725
378.2686	0.2612
378.476	0.2731
378.6834	0.267
378.8908	0.254
379.0981	0.2604
379.3055	0.252
379.5128	0.2655
379.7201	0.2598
379.9274	0.2505
380.1347	0.2656
380.342	0.2866
380.5492	0.2581
380.7565	0.264
380.9637	0.2587
381.1709	0.2636
381.3781	0.2539
381.5853	0.2737
381.7925	0.2666
381.9997	0.2771
382.2068	0.2832
382.4139	0.2628
382.6211	0.2633
382.8282	0.2767
383.0353	0.2682
383.2424	0.2727
383.4494	0.2779
383.6565	0.2793
383.8635	0.2574
384.0706	0.2554
384.2776	0.2845
384.4846	0.2527
384.6916	0.2753
384.8986	0.2712
385.1055	0.273
385.3125	0.2749
385.5194	0.2555
385.7263	0.2968
385.9333	0.2706
386.1402	0.2954
386.347	0.2664
386.5539	0.2578
386.7608	0.2772
386.9676	0.2749
387.1744	0.2807
387.3813	0.2643
387.5881	0.2896
387.7948	0.2478
388.0016	0.2702
388.2084	0.265
388.4151	0.2593
388.6219	0.282
388.8286	0.2714
389.0353	0.2947
389.242	0.2683
389.4487	0.2722
389.6553	0.2451
389.862	0.2441
390.0686	0.2656
390.2753	0.2633
390.4819	0.2535
390.6885	0.252
390.8951	0.2667
391.1016	0.266
391.3082	0.2578
391.5147	0.255
391.7213	0.2665
391.9278	0.2605
392.1343	0.245
392.3408	0.2594
392.5473	0.2382
392.7537	0.236
392.9602	0.2457
393.1666	0.2501
393.373	0.2419
393.5794	0.2546
393.7858	0.2487
393.9922	0.2489
394.1986	0.2466
394.4049	0.257
394.6113	0.2354
394.8176	0.2062
395.0239	0.2337
395.2302	0.237
395.4365	0.2438
395.6428	0.2407
395.8491	0.2416
396.0553	0.2297
396.2615	0.2445
396.4678	0.2224
396.674	0.216
396.8802	0.2352
397.0863	0.2487
397.2925	0.218
397.4987	0.2392
397.7048	0.2267
397.9109	0.236
398.117	0.225
398.3231	0.2369
398.5292	0.2381
398.7353	0.2357
398.9413	0.2262
399.1474	0.2234
399.3534	0.2222
399.5594	0.2095
399.7654	0.2355
399.9714	0.2496
400.1774	0.2251
400.3833	0.2144
400.5893	0.2417
400.7952	0.2456
401.0011	0.2208
401.207	0.2374
401.4129	0.2517
401.6188	0.2367
401.8247	0.2344
402.0305	0.225
402.2364	0.2266
402.4422	0.231
402.648	0.2233
402.8538	0.2326
403.0596	0.2164
403.2654	0.2411
403.4711	0.2052
403.6768	0.2346
403.8826	0.231
404.0883	0.2495
404.294	0.2269
404.4997	0.2291
404.7054	0.2448
404.911	0.2086
405.1167	0.214
405.3223	0.2519
405.5279	0.221
405.7335	0.233
405.9391	0.2299
406.1447	0.2244
406.3502	0.2706
406.5558	0.2087
406.7613	0.2245
406.9668	0.2325
407.1724	0.2332
407.3778	0.221
407.5833	0.2204
407.7888	0.2218
407.9942	0.2404
408.1997	0.2297
408.4051	0.2344
408.6105	0.2337
408.8159	0.2275
409.0213	0.2258
409.2267	0.238
409.432	0.219
409.6374	0.2345
409.8427	0.2222
410.048	0.2405
410.2533	0.2322
410.4586	0.2391
410.6639	0.2204
410.8691	0.2113
411.0744	0.2306
411.2796	0.2202
411.4848	0.2264
411.69	0.2155
411.8952	0.2446
412.1004	0.2352
412.3056	0.2388
412.5107	0.2228
412.7158	0.2331
412.921	0.2255
413.1261	0.2188
413.3312	0.2285
413.5362	0.2235
413.7413	0.2216
413.9464	0.2338
414.1514	0.2014
414.3564	0.2261
414.5614	0.1976
414.7664	0.2176
414.9714	0.215
415.1764	0.2134
415.3813	0.2346
415.5863	0.2068
415.7912	0.215
415.9961	0.2219
416.201	0.2226
416.4059	0.2155
416.6108	0.2155
416.8156	0.2214
417.0205	0.2331
417.2253	0.2105
417.4301	0.2238
417.6349	0.2024
417.8397	0.2122
418.0445	0.2476
418.2492	0.2262
418.454	0.2108
418.6587	0.208
418.8634	0.2186
419.0681	0.2096
419.2728	0.2245
419.4775	0.2147
419.6822	0.2022
419.8868	0.1999
420.0915	0.2086
420.2961	0.1936
420.5007	0.2063
420.7053	0.2214
420.9099	0.2089
421.1144	0.1911
421.319	0.1902
421.5235	0.1948
421.728	0.1999
421.9325	0.2144
422.137	0.2027
422.3415	0.1969
422.546	0.2096
422.7504	0.1933
422.9549	0.2151
423.1593	0.1914
423.3637	0.1956
423.5681	0.2039
423.7725	0.1879
423.9769	0.1902
424.1812	0.1902
424.3856	0.2005
424.5899	0.193
424.7942	0.2099
424.9985	0.1931
425.2028	0.1927
425.4071	0.2057
425.6113	0.17
425.8156	0.1969
426.0198	0.1977
426.224	0.1689
426.4282	0.1654
426.6324	0.1746
426.8366	0.1779
427.0407	0.1859
427.2449	0.1825
427.449	0.1794
427.6531	0.158
427.8572	0.1796
428.0613	0.1623
428.2654	0.162
428.4694	0.1708
428.6735	0.1721
428.8775	0.1963
429.0815	0.1711
429.2855	0.1732
429.4895	0.1754
429.6935	0.1728
429.8975	0.1492
430.1014	0.171
430.3053	0.1561
430.5093	0.1594
430.7132	0.1548
430.9171	0.1433
431.1209	0.1489
431.3248	0.1472
431.5286	0.1618
431.7325	0.1513
431.9363	0.135
432.1401	0.1512
432.3439	0.1464
432.5477	0.1196
432.7514	0.1271
432.9552	0.141
433.1589	0.1227
433.3627	0.1211
433.5664	0.1424
433.7701	0.1158
433.9737	0.1334
434.1774	0.1127
434.3811	0.127
434.5847	0.125
434.7883	0.1134
434.9919	0.1137
435.1955	0.1162
435.3991	0.134
435.6027	0.1139
435.8062	0.1139
436.0098	0.1056
436.2133	0.0992
436.4168	0.1106
436.6203	0.1024
436.8238	0.1277
437.0272	0.1013
437.2307	0.0916
437.4341	0.1038
437.6375	0.1153
437.841	0.0818
438.0443	0.1051
438.2477	0.1006
438.4511	0.0972
438.6545	0.0997
438.8578	0.0946
439.0611	0.0904
439.2644	0.0895
439.4677	0.0946
439.671	0.0756
439.8743	0.1018
440.0775	0.1132
440.2808	0.0987
440.484	0.0755
440.6872	0.0781
440.8904	0.0763
441.0936	0.0903
441.2967	0.0808
441.4999	0.0786
441.703	0.0691
441.9062	0.0686
442.1093	0.0755
442.3124	0.0643
442.5155	0.0501
442.7185	0.0743
442.9216	0.0479
443.1246	0.0795
443.3276	0.0654
443.5307	0.0542
443.7337	0.071
443.9366	0.0715
444.1396	0.0641
444.3426	0.0625
444.5455	0.0596
444.7484	0.065
444.9513	0.0559
445.1542	0.0704
445.3571	0.0478
445.56	0.0708
445.7628	0.0504
445.9657	0.0483
446.1685	0.0629
446.3713	0.0477
446.5741	0.0584
446.7769	0.0367
446.9797	0.0459
447.1824	0.0431
447.3852	0.0276
447.5879	0.0477
447.7906	0.0426
447.9933	0.0472
448.196	0.0236
448.3986	0.0306
448.6013	0.0414
448.8039	0.0094
449.0066	0.0255
449.2092	0.0406
449.4118	0.0378
449.6143	0.031
449.8169	0.0344
450.0195	0.0336
450.222	0.0054
450.4245	0.0172
450.627	0.0258
450.8295	0.0188
451.032	0.0141
451.2345	0.024
451.4369	0.0222
451.6394	0.0242
451.8418	0.0148
452.0442	0.0206
452.2466	0.0332
452.449	-0.0002
452.6513	0.0342
452.8537	0.0099
453.056	0.0081
453.2583	0.0211
453.4607	0.0094
453.663	0.0165
453.8652	0.0164
454.0675	-0.0026
454.2697	0.0173
454.472	0.0005
454.6742	0.0187
454.8764	0.025
455.0786	0.0276
455.2808	0.0012
455.4829	0.014
455.6851	0.0103
455.8872	0.0104
456.0893	0.0195
456.2915	-0.005
456.4935	0.016
456.6956	0.0107
456.8977	0.0179
457.0997	-0.0021
457.3018	-0.0084
457.5038	0.022
457.7058	-0.0007
457.9078	0.0016
458.1098	0.0099
458.3117	0.0179
458.5137	0.0106
458.7156	0.0013
458.9175	0.0029
459.1194	0.0024
459.3213	0.0051
459.5232	0.0178
459.725	0.0069
459.9269	-0.0135
460.1287	-0.0035
460.3305	0.0116
460.5323	0.0017
460.7341	0.0068
460.9359	-0.0002
461.1376	0.0001
461.3394	-0.0049
461.5411	0.0124
461.7428	0.006
461.9445	0.022
462.1462	0.0253
462.3479	0.0023
462.5495	-0.0044
462.7512	0.0054
462.9528	0.0026
463.1544	-0.0087
463.356	0.0106
463.5576	0.0073
463.7592	-0.0017
463.9607	0.0044
464.1623	0.0161
464.3638	0.0128
464.5653	-0.0174
464.7668	-0.0003
464.9683	0.0132
465.1697	0.0181
465.3712	-0.0091
465.5726	0.0005
465.7741	0.0169
465.9755	-0.0051
466.1769	-0.0033
466.3782	-0.0005
466.5796	0.0021
466.7809	0.0084
466.9823	-0.0051
467.1836	0.0024
467.3849	-0.0067
467.5862	0.0087
467.7875	-0.006
467.9887	0.0184
468.19	0.012
468.3912	-0.0112
468.5924	-0.0096
468.7936	0.0069
468.9948	0.0073
469.196	-0.001
469.3972	0.0003
469.5983	0.008
469.7994	-0.0211
470.0006	-0.0032
470.2017	-0.0143
470.4027	-0.0017
470.6038	0.013
470.8049	0.005
471.0059	-0.0185
471.2069	-0.0097
471.408	0.0009
471.6089	-0.0054
471.8099	-0.0033
472.0109	0.0113
472.2119	-0.0194
472.4128	-0.0103
472.6137	-0.0028
472.8146	-0.0262
473.0155	-0.006
473.2164	0.001
473.4173	0.0102
473.6181	0.003
473.819	0.0115
474.0198	-0.0222
474.2206	-0.0108
474.4214	-0.0089
474.6222	-0.0072
474.8229	-0.0054
475.0237	-0.0177
475.2244	-0.0157
475.4251	0.001
475.6258	-0.0127
475.8265	-0.0122
476.0272	0.005
476.2278	-0.0077
476.4285	-0.006
476.6291	-0.0144
476.8297	-0.0054
477.0303	-0.0174
477.2309	0.012
477.4315	-0.0196
477.632	-0.0047
477.8326	-0.0096
478.0331	0.0039
478.2336	-0.0061
478.4341	-0.0011
478.6346	-0.0003
478.8351	-0.0048
479.0355	-0.0066
479.236	-0.0176
479.4364	-0.0016
479.6368	-0.0013
479.8372	-0.015
480.0376	-0.0029
480.2379	-0.0201
480.4383	-0.0131
480.6386	-0.004
480.8389	-0.0006
481.0392	-0.0153
481.2395	-0.0102
481.4398	0.0026
481.6401	-0.006
481.8403	-0.0099
482.0405	-0.0048
482.2408	-0.0083
482.441	0.0039
482.6411	-0.0113
482.8413	-0.0021
483.0415	-0.0053
483.2416	-0.0127
483.4417	-0.0068
483.6419	-0.0131
483.8419	-0.0101
484.042	0.0023
484.2421	0.0019
484.4422	-0.0097
484.6422	0.0059
484.8422	-0.0085
485.0422	-0.0045
485.2422	0.0047
485.4422	-0.012
485.6422	-0.0061
485.8421	-0.0023
486.042	0.0039
486.242	-0.0115
486.4419	-0.0059
486.6417	-0.0182
486.8416	-0.0117
487.0415	-0.0086
487.2413	-0.0184
487.4411	-0.0042
487.641	-0.0192
487.8408	-0.0037
488.0405	-0.0087
488.2403	-0.0073
488.4401	-0.0011
488.6398	-0.0119
488.8395	-0.0093
489.0392	-0.001
489.2389	-0.0147
489.4386	-0.0094
489.6383	-0.0116
489.8379	0.0028
490.0376	-0.0195
490.2372	-0.0167
490.4368	-0.012
490.6364	-0.0078
490.836	-0.0189
491.0355	-0.0091
491.2351	-0.0078
491.4346	-0.014
491.6341	-0.0218
491.8336	-0.0053
492.0331	-0.0273
492.2326	-0.0157
492.432	-0.0026
492.6315	-0.0141
492.8309	-0.0237
493.0303	-0.0143
493.2297	-0.0142
493.4291	-0.0105
493.6284	0.0001
493.8278	-0.0048
494.0271	-0.0099
494.2264	-0.0116
494.4257	-0.0154
494.625	-0.0015
494.8243	-0.0246
495.0236	-0.0177
495.2228	-0.0142
495.422	-0.0055
495.6213	-0.015
495.8205	-0.0114
496.0196	-0.0092
496.2188	-0.0021
496.418	-0.0111
496.6171	-0.009
496.8162	-0.0092
497.0153	-0.0036
497.2144	-0.0097
497.4135	-0.0063
497.6126	-0.0213
497.8116	-0.0125
498.0107	-0.0079
498.2097	-0.0151
498.4087	-0.0109
498.6077	0.0017
498.8067	-0.0216
499.0056	-0.005
499.2046	-0.0066
499.4035	-0.0181
499.6024	-0.0097
499.8013	0.0008
500.0002	-0.0129
500.199	-0.0007
500.3979	-0.0103
500.5967	-0.0151
500.7956	-0.0052
500.9944	-0.0082
501.1932	-0.0183
501.3919	-0.0066
501.5907	-0.0188
501.7895	-0.0021
501.9882	-0.0128
502.1869	-0.0082
502.3856	-0.0163
502.5843	-0.0051
502.783	-0.0114
502.9816	-0.0014
503.1803	-0.0172
503.3789	-0.0082
503.5775	-0.0059
503.7761	-0.0134
503.9747	-0.0065
504.1732	-0.0125
504.3718	-0.0135
504.5703	-0.022
504.7689	-0.0138
504.9674	-0.0079
505.1658	-0.0185
505.3643	-0.0081
505.5628	-0.0119
505.7612	-0.0161
505.9597	-0.0059
506.1581	-0.0106
506.3565	-0.0024
506.5549	-0.0013
506.7532	-0.0109
506.9516	-0.0059
507.1499	0.0007
507.3482	-0.0117
507.5465	-0.0147
507.7448	-0.012
507.9431	-0.0084
508.1414	-0.0098
508.3396	-0.0069
508.5379	-0.0065
508.7361	-0.005
508.9343	-0.0005
509.1325	-0.0041
509.3306	-0.0085
509.5288	-0.0111
509.7269	-0.017
509.9251	-0.0097
510.1232	-0.0159
510.3213	-0.0021
510.5193	-0.002
510.7174	-0.0197
510.9154	-0.0209
511.1135	-0.0137
511.3115	-0.0112
511.5095	-0.0195
511.7075	-0.0095
511.9055	-0.0148
512.1034	-0.0172
512.3014	-0.0059
512.4993	-0.0159
512.6972	-0.0161
512.8951	-0.0153
513.093	-0.0019
513.2908	-0.0075
513.4887	-0.0047
513.6865	-0.0101
513.8844	-0.0206
514.0822	-0.017
514.2799	-0.0209
514.4777	-0.0129
514.6755	-0.0123
514.8732	-0.0107
515.0709	-0.0102
515.2687	-0.0021
515.4664	-0.0053
515.664	-0.0042
515.8617	-0.0159
516.0594	-0.0192
516.257	-0.015
516.4546	-0.0207
516.6522	-0.0125
516.8498	-0.0074
517.0474	-0.0012
517.2449	-0.0063
517.4425	-0.0235
517.64	-0.003
517.8375	-0.0035
518.035	-0.0057
518.2325	-0.0094
518.43	-0.0131
518.6274	-0.0051
518.8249	-0.0186
519.0223	-0.0085
519.2197	-0.0059
519.4171	-0.0067
519.6145	-0.0212
519.8118	-0.006
520.0092	-0.0071
520.2065	-0.0177
520.4038	-0.0177
520.6011	-0.0046
520.7984	-0.0104
520.9956	-0.0061
521.1929	-0.0184
521.3901	-0.0119
521.5874	-0.0096
521.7846	-0
521.9818	-0.0156
522.1789	-0.0149
522.3761	-0.0117
522.5732	-0.0165
522.7704	-0.01
522.9675	0.0026
523.1646	-0.016
523.3617	-0.0056
523.5587	-0.0061
523.7558	-0.0034
523.9528	-0.0123
524.1498	-0.0117
524.3468	-0.0114
524.5438	-0.0101
524.7408	-0.0134
524.9378	0.0021
525.1347	-0.011
525.3316	-0.0066
525.5285	-0.0114
525.7254	-0.0112
525.9223	-0.0046
526.1192	-0.0071
526.316	-0.0184
526.5129	-0.0037
526.7097	-0.0007
526.9065	-0.0181
527.1033	-0.0106
527.3	-0.0032
527.4968	-0.007
527.6935	-0.0084
527.8903	-0.0148
528.087	-0.0094
528.2837	-0.0064
528.4804	0.0005
528.677	-0.0063
528.8737	-0.0075
529.0703	-0.0029
529.2669	-0.0068
529.4635	-0.0128
529.6601	-0.0091
529.8567	-0.0057
530.0532	-0.0054
530.2498	0.0066
530.4463	-0.0013
530.6428	-0.0066
530.8393	-0.0032
531.0358	-0.0064
531.2322	-0.0074
531.4287	-0.011
531.6251	-0.0146
531.8215	0.003
532.0179	-0.0048
532.2143	0.0006
532.4107	-0.0077
532.607	-0.0095
532.8034	-0.0007
532.9997	-0.0063
533.196	-0.012
533.3923	-0.0103
533.5886	-0.004
533.7848	0.0001
533.9811	0.0016
534.1773	-0.0068
534.3735	0.002
534.5697	-0.0114
534.7659	-0.0116
534.9621	-0.0005
535.1582	-0.0033
535.3544	-0.0179
535.5505	-0.0086
535.7466	-0.0049
535.9427	-0.0077
536.1387	-0.0079
536.3348	-0.013
536.5308	-0.0031
536.7269	-0.0181
536.9229	0.0001
537.1189	-0.0013
537.3148	-0.0109
537.5108	-0.0086
537.7068	-0.007
537.9027	-0.0109
538.0986	-0.0171
538.2945	-0.0112
538.4904	-0.0118
538.6863	-0.0128
538.8821	-0.0118
539.078	-0.0051
539.2738	-0.0017
539.4696	0.0017
539.6654	-0.0063
539.8611	0.0098
540.0569	-0.0022
540.2526	-0.0047
540.4484	-0.0054
540.6441	0.0022
540.8398	-0.0041
541.0355	0.0051
541.2311	-0.0052
541.4268	-0.012
541.6224	0.0104
541.818	-0.0152
542.0136	-0.0048
542.2092	-0.0019
542.4048	0.0025
542.6003	-0.0044
542.7959	-0.0044
542.9914	-0.0082
543.1869	0.001
543.3824	-0.0036
543.5779	-0.0065
543.7734	-0.0066
543.9688	-0.0084
544.1642	-0.0075
544.3596	-0.0095
544.555	-0.0119
544.7504	-0.0071
544.9458	-0.0156
545.1411	-0.0066
545.3365	-0.0031
545.5318	-0.0066
545.7271	-0.0086
545.9224	-0.0127
546.1177	0.0083
546.3129	0.001
546.5081	-0.0071
546.7034	-0.0102
546.8986	-0.0047
547.0938	-0.0129
547.289	-0.0013
547.4841	-0.0017
547.6793	-0.0086
547.8744	-0.0133
548.0695	-0.0021
548.2646	-0.0044
548.4597	0.0001
548.6548	0.0022
548.8498	-0.0067
549.0448	0.0075
549.2399	-0.0022
549.4349	-0.0018
549.6298	-0.0172
549.8248	0.0021
550.0198	-0.0028
550.2147	-0.0111
550.4096	-0.0041
550.6045	-0.0083
550.7994	0.0021
550.9943	-0.0034
551.1892	-0.0019
551.384	0.0053
551.5788	-0.005
551.7737	-0.0053
551.9685	-0.0124
552.1632	-0.0072
552.358	-0.0048
552.5528	-0.0098
552.7475	0.001
552.9422	0.0017
553.1369	0.0014
553.3316	0.0023
553.5263	-0.0107
553.7209	0.0028
553.9156	-0.0095
554.1102	-0.0126
554.3048	-0.0105
554.4994	0.0102
554.694	-0.0121
554.8885	-0
555.0831	-0.0083
555.2776	-0.0045
555.4721	-0.0041
555.6666	-0.0063
555.8611	0.0069
556.0555	-0.0062
556.25	-0.0116
556.4444	-0.0077
556.6388	0.0023
556.8332	-0.0042
557.0276	-0.0062
557.222	-0.0019
557.4163	-0.0107
557.6107	-0.0125
557.805	0.0007
557.9993	-0.0077
558.1936	-0.0054
558.3879	0.0022
558.5821	-0.0083
558.7764	-0.0014
558.9706	0.0009
559.1648	-0.0019
559.359	-0.0087
559.5532	-0.0055
559.7473	-0.0019
559.9415	-0.0015
560.1356	-0.0042
560.3297	-0.0117
560.5238	-0.0058
560.7179	-0.0039
560.9119	-0.0118
561.106	-0.0094
561.3	-0.0103
561.494	-0.0029
561.688	-0.0067
561.882	-0.0139
562.076	-0.0075
562.2699	-0.0065
562.4639	-0.0068
562.6578	-0.0088
562.8517	-0.0041
563.0456	0.0048
563.2395	-0.0073
563.4333	-0.0057
563.6272	0.0061
563.821	-0.0078
564.0148	-0.0024
564.2086	-0.0126
564.4024	-0.0038
564.5961	-0.0059
564.7899	0.0036
564.9836	0.002
565.1773	0.0013
565.371	0.0028
565.5647	0.0001
565.7584	-0.0048
565.952	-0.0027
566.1456	-0.0034
566.3393	-0.0011
566.5329	-0.0103
566.7264	-0.007
566.92	-0.0033
567.1136	0.0058
567.3071	-0.0045
567.5006	-0.0028
567.6941	-0.0008
567.8876	0.0004
568.0811	-0.0057
568.2745	-0.0034
568.468	0.0031
568.6614	-0.0046
568.8548	-0.0135
569.0482	-0.0025
569.2416	0.0014
569.4349	-0.0007
569.6283	0.0014
569.8216	-0.0035
570.0149	-0.0092
570.2082	0.0039
570.4015	0.0011
570.5947	0.0019
570.788	0.0005
570.9812	0.0014
571.1744	-0.0054
571.3676	-0.0049
571.5608	-0.0084
571.754	-0.0025
571.9471	0.0034
572.1402	-0.0069
572.3333	-0.0043
572.5264	-0.004
572.7195	-0.0053
572.9126	-0.0023
573.1057	-0.0095
573.2987	-0.0131
573.4917	-0.0014
573.6847	-0.0065
573.8777	0.0045
574.0707	0.0086
574.2636	-0.0016
574.4566	-0.0054
574.6495	0.0017
574.8424	0.0003
575.0353	0.0016
575.2281	0.0128
575.421	0.0002
575.6138	0.0007
575.8067	-0.0077
575.9995	0.0012
576.1923	-0.0006
576.385	-0.003
576.5778	-0.005
576.7706	-0.0037
576.9633	-0.0037
577.156	0.0001
577.3487	0.0035
577.5414	0.001
577.734	-0.0062
577.9267	0.003
578.1193	-0.0069
578.3119	-0.0018
578.5045	0.0007
578.6971	0.0027
578.8897	0.0066
579.0822	-0.0019
579.2747	-0.0016
579.4673	-0.0017
579.6598	-0.0044
579.8522	-0.0039
580.0447	-0.0103
580.2372	-0.0002
580.4296	0.0015
580.622	-0.0036
580.8144	-0.0007
581.0068	-0.0024
581.1992	-0.011
581.3915	-0.0093
581.5839	-0.0053
581.7762	-0.007
581.9685	-0.0035
582.1608	0.0018
582.353	-0.0025
582.5453	-0.0011
582.7375	-0.0062
582.9298	-0.0023
583.122	-0.0042
583.3142	-0.0023
583.5063	-0.0063
583.6985	-0.0039
583.8906	-0.0011
584.0827	-0.0102
584.2749	-0.0021
584.4669	0.0018
584.659	0.0004
584.8511	-0.0064
585.0431	-0.008
585.2352	0.0005
585.4272	0.0003
585.6192	0.0013
585.8111	-0.006
586.0031	0.0007
586.195	-0.0045
586.387	0.0038
586.5789	-0.007
586.7708	-0.0028
586.9627	-0.0027
587.1545	-0.0102
587.3464	-0.0015
587.5382	-0.0025
587.73	0.0014
587.9218	0.0006
588.1136	-0.0039
588.3053	-0.0012
588.4971	-0.0072
588.6888	-0.0088
588.8805	-0.0051
589.0722	0.0017
589.2639	-0.0012
589.4556	-0.0009
589.6472	-0.003
589.8389	-0.0146
590.0305	-0.0119
590.2221	-0.0029
590.4137	-0.0114
590.6052	-0.0011
590.7968	-0.0038
590.9883	-0.0055
591.1798	-0.0067
591.3713	-0.0026
591.5628	-0.0037
591.7543	-0.0052
591.9458	-0.0065
592.1372	-0.0016
592.3286	0.0036
592.52	-0.0021
592.7114	-0.0074
592.9028	-0.0037
593.0941	-0.0042
593.2855	-0.004
593.4768	-0.0092
593.6681	-0.0051
593.8594	-0.0038
594.0506	0.0071
594.2419	0.0039
594.4331	-0.0053
594.6244	0.002
594.8156	-0.0034
595.0067	0.0014
595.1979	-0.0038
595.3891	-0.0041
595.5802	-0.0085
595.7713	-0.0024
595.9624	-0.0044
596.1535	0.0011
596.3446	-0.0015
596.5357	-0.003
596.7267	0.0072
596.9177	-0.0043
597.1087	-0.0049
597.2997	-0.0086
597.4907	0.0035
597.6817	-0.0077
597.8726	-0.0065
598.0635	-0.0079
598.2544	-0.0019
598.4453	0.0013
598.6362	-0.0065
598.827	-0.0091
599.0179	-0.004
599.2087	-0.0021
599.3995	-0.0042
599.5903	0.0018
599.7811	0.0015
599.9718	0.0004
600.1626	-0.0071
600.3533	-0.0113
600.544	-0.0043
600.7347	-0.0041
600.9254	-0.0015
601.116	-0.0162
601.3067	-0.0036
601.4973	-0.0093
601.6879	-0.0026
601.8785	-0.002
602.0691	0.0051
602.2596	-0.0044
602.4502	0.0046
602.6407	-0.0012
602.8312	-0.0009
603.0217	-0.0089
603.2122	-0.002
603.4027	-0.0051
603.5931	-0.0098
603.7835	-0.0121
603.9739	-0.0024
604.1643	-0.001
604.3547	-0.0025
604.5451	0.0001
604.7354	0.0012
604.9257	-0.0028
605.116	-0.0079
605.3063	0.003
605.4966	-0.0006
605.6869	0.0002
605.8771	0.0049
606.0673	0.005
606.2575	0.0028
606.4477	0.0086
606.6379	-0.0007
606.8281	-0.006
607.0182	-0.0005
607.2083	0.0099
607.3985	-0.0044
607.5885	0
607.7786	-0.0004
607.9687	-0.0093
608.1587	0.002
608.3488	0.0024
608.5388	0.0034
608.7288	-0.0022
608.9187	-0.0053
609.1087	-0.0059
609.2986	-0.0059
609.4886	-0.004
609.6785	0.0018
609.8684	0.0039
610.0582	0.0021
610.2481	-0.0007
610.4379	-0.0013
610.6278	-0.0023
610.8176	0.0017
611.0074	-0.0023
611.1971	-0.0089
611.3869	0.0004
611.5766	-0.0097
611.7664	0.0049
611.9561	0.0006
612.1458	0.0017
612.3354	-0.0057
612.5251	0.0048
612.7147	0.0001
612.9044	0.0015
613.094	-0.0103
613.2836	-0.0039
613.4731	-0.0056
613.6627	-0.0021
613.8522	0.0001
614.0417	0.0056
614.2313	-0
614.4207	-0.0047
614.6102	-0.0048
614.7997	-0.0047
614.9891	-0.0106
615.1785	-0.005
615.3679	-0.0084
615.5573	-0.0032
615.7467	-0.004
615.9361	0.001
616.1254	-0.0022
616.3147	0.002
616.504	0.0027
616.6933	-0.0003
616.8826	-0.0018
617.0718	-0.0014
617.2611	0.0005
617.4503	-0.0064
617.6395	-0.0056
617.8287	-0.0051
618.0179	0.0018
618.207	0.0073
618.3961	-0.0035
618.5853	-0.0029
618.7744	0.0012
618.9634	-0.0017
619.1525	0.001
619.3416	0.0017
619.5306	0.0009
619.7196	-0.0058
619.9086	-0.0056
620.0976	0.0063
620.2866	-0.009
620.4755	-0.0017
620.6645	0.0009
620.8534	0.0002
621.0423	0.003
621.2312	-0.0007
621.42	-0.0042
621.6089	-0.0024
621.7977	0.0018
621.9865	-0.0078
622.1753	0.0078
622.3641	-0.005
622.5529	0.0102
622.7416	-0.0007
622.9303	-0.0048
623.1191	0.0051
623.3078	-0.0061
623.4964	-0.005
623.6851	-0.0059
623.8737	-0.0076
624.0624	0.0008
624.251	-0.0049
624.4396	-0.0072
624.6282	-0.0083
624.8167	0.0019
625.0053	0.002
625.1938	-0.0047
625.3823	-0.0028
625.5708	-0.0057
625.7593	-0.0062
625.9477	-0.0072
626.1362	-0.0041
626.3246	-0.0027
626.513	0.0029
626.7014	0.0028
626.8898	-0.0069
627.0781	-0.0022
627.2665	-0.0086
627.4548	0.0111
627.6431	-0.0011
627.8314	0.0001
628.0197	-0.0012
628.2079	-0.0024
628.3962	-0.0042
628.5844	-0
628.7726	0
628.9608	0
629.1489	-0.0054
629.3371	-0.0001
629.5252	-0.0039
629.7134	0.0038
629.9015	0.001
630.0895	0.0059
630.2776	-0.0023
630.4657	0.0012
630.6537	-0.0036
630.8417	-0.0062
631.0297	-0.0043
631.2177	0.005
631.4057	-0.0079
631.5936	-0.0022
631.7815	-0.001
631.9695	-0.0036
632.1574	0.0024
632.3452	0.0125
632.5331	-0.0036
632.7209	-0.0062
632.9088	-0.0014
633.0966	-0.0011
633.2844	-0.0082
633.4722	-0.0045
633.6599	0.0017
633.8477	-0.0004
634.0354	-0.0017
634.2231	0.0007
634.4108	0.0048
634.5985	0.0051
634.7861	0.0061
634.9738	-0.0001
635.1614	-0.0001
635.349	-0.0005
635.5366	0.0062
635.7242	0.0041
635.9117	0.0065
636.0993	-0.0022
636.2868	0.0036
636.4743	-0.0059
636.6618	0.0083
636.8492	-0.0017
637.0367	0.0023
637.2241	-0.0069
637.4115	-0.005
637.5989	-0.0026
637.7863	-0.0052
637.9737	-0.0022
638.161	-0.0009
638.3484	-0.0072
638.5357	0.0031
638.723	-0.0069
638.9103	-0.0043
639.0975	-0.0056
639.2848	-0.0042
639.472	-0.0008
639.6592	0.0035
639.8464	0.0085
640.0336	0.0045
640.2208	-0.0048
640.4079	-0.0059
640.595	-0.0051
640.7821	-0.0014
640.9692	-0.008
641.1563	-0.0001
641.3434	-0.0035
641.5304	-0.0034
641.7174	0.0015
641.9044	-0.0035
642.0914	0.0025
642.2784	-0.0007
642.4653	-0.003
642.6523	-0.003
642.8392	-0.0024
643.0261	-0
643.213	0.0029
643.3999	-0.0025
643.5867	-0.0099
643.7735	-0.0051
643.9604	-0.0101
644.1472	-0.0014
644.3339	0.002
644.5207	-0.0027
644.7075	-0.0031
644.8942	0.002
645.0809	0.0046
645.2676	-0.0003
645.4543	-0.0019
645.6409	0.0008
645.8276	-0.0063
646.0142	-0.0012
646.2008	-0.009
646.3874	-0.0047
646.574	-0.0017
646.7605	-0.0082
646.9471	-0.0099
647.1336	-0.0109
647.3201	0.0018
647.5066	-0.0027
647.6931	0.0016
647.8795	-0.0021
648.0659	0.0011
648.2524	-0.0034
648.4388	-0.011
648.6252	-0.0042
648.8115	0.0054
648.9979	0.0009
649.1842	-0.0025
649.3705	0.003
649.5568	-0.0032
649.7431	0.0045
649.9294	-0.0063
650.1156	-0.0006
650.3018	-0.0008
650.488	0.0013
650.6742	0.0049
650.8604	-0.0066
651.0466	-0.008
651.2327	-0.0088
651.4188	-0.0062
651.6049	-0.0096
651.791	-0.0069
651.9771	0.0053
652.1632	-0.0006
652.3492	-0.0012
652.5352	-0.0027
652.7212	-0.0048
652.9072	-0.004
653.0932	-0.0034
653.2791	-0.0075
653.465	0.005
653.651	-0.0048
653.8369	-0.0032
654.0227	0.0001
654.2086	-0.0031
654.3944	0.005
654.5803	-0.0017
654.7661	0.0001
654.9519	0.0001
655.1377	-0.0078
655.3234	-0.0061
655.5092	-0.0054
655.6949	-0.0119
655.8806	-0.0055
656.0663	-0.0007
656.2519	-0.0041
656.4376	-0.0071
656.6232	0.0003
656.8088	0.0019
656.9945	-0.0072
657.18	-0.0032
657.3656	-0.0046
657.5511	-0.005
657.7367	-0.0029
657.9222	0.002
658.1077	-0.0026
658.2932	-0.001
658.4786	-0.0131
658.6641	-0.0112
658.8495	-0.002
659.0349	-0.0113
659.2203	0.0007
659.4057	0.0022
659.591	-0.0037
659.7764	-0.0039
659.9617	-0.0029
660.147	-0.0066
660.3323	-0.0045
660.5176	0.0037
660.7028	0.0016
660.888	0.0023
661.0733	-0.0003
661.2585	-0.0108
661.4436	-0.0067
661.6288	-0.009
661.8139	-0.0069
661.9991	-0.0003
662.1842	-0.006
662.3693	-0.0032
662.5544	-0.0053
662.7394	-0.0114
662.9245	-0.0058
663.1095	-0.0026
663.2945	-0.0062
663.4795	-0.002
663.6644	-0.0016
663.8494	0.0011
664.0343	0.0012
664.2193	-0.0016
664.4042	-0.0044
664.589	-0.0049
664.7739	-0.0024
664.9587	-0.0087
665.1436	-0.0039
665.3284	-0.003
665.5132	-0.0069
665.698	-0.0032
665.8827	-0.0027
666.0675	-0.0086
666.2522	-0.0072
666.4369	-0.004
666.6216	0.0003
666.8063	-0.0006
666.9909	-0.0076
667.1756	-0.0063
667.3602	-0.0054
667.5448	-0.0068
667.7294	0.0042
667.9139	-0.0028
668.0985	0.0068
668.283	-0.0044
668.4675	0.0018
668.652	0.0015
668.8365	-0.0037
669.0209	0.0059
669.2054	0.01
669.3898	-0.0046
669.5742	0.0011
669.7586	-0.0003
669.943	0.0011
670.1273	0.002
670.3117	0.0044
670.496	-0.004
670.6803	0.0066
670.8646	0.0076
671.0488	-0.0048
671.2331	0.0046
671.4173	0.0048
671.6015	-0.0025
671.7857	0.0039
671.9699	-0.0003
672.1541	0.0019
672.3382	0.0068
672.5223	0.0042
672.7064	0.007
672.8905	0.0106
673.0746	0.0023
673.2587	-0.0031
673.4427	0.0061
673.6267	0.0151
673.8107	0.0009
673.9947	0.0003
674.1787	0.0015
674.3626	-0.0004
674.5465	0.0092
674.7304	0.0022
674.9143	0.0075
675.0982	0.0095
675.2821	0.0014
675.4659	0.0024
675.6497	-0.0003
675.8335	-0.0016
676.0173	0.0053
676.2011	0.001
676.3849	-0.0068
676.5686	-0.0078
676.7523	-0.0051
676.936	-0.0101
677.1197	-0.0071
677.3034	-0.0109
677.487	0.0029
677.6706	-0.0072
677.8542	-0.0065
678.0378	-0.0015
678.2214	-0.0048
678.405	-0.007
678.5885	-0.0113
678.772	0.0002
678.9555	-0.0005
679.139	-0.0048
679.3225	-0.0004
679.5059	-0.0088
679.6894	-0.0031
679.8728	-0.0046
680.0562	-0.0151
680.2395	-0.0143
680.4229	-0.0061
680.6062	0.0005
680.7896	-0.0036
680.9729	-0.0094
681.1562	0.0004
681.3394	0.0021
681.5227	-0.0069
681.7059	-0.0001
681.8891	-0.0005
682.0723	0.0011
682.2555	0.002
682.4387	-0.0033
682.6218	-0.0001
682.805	0.0076
682.9881	0.0107
683.1712	-0.0033
683.3542	0.0011
683.5373	-0.0009
683.7203	-0.0054
683.9034	-0.0102
684.0864	-0.0066
684.2694	-0.0053
684.4523	-0.0023
684.6353	-0.0108
684.8182	-0.0036
685.0011	0.0015
685.184	0.0059
685.3669	-0.0074
685.5498	0.0066
685.7326	-0.0021
685.9154	-0.0076
686.0982	-0.0004
686.281	-0.0016
686.4638	0.0029
686.6465	-0.0084
686.8293	-0.0028
687.012	-0.0045
687.1947	-0.0056
687.3774	0.0032
687.56	-0.0133
687.7427	0.0014
687.9253	-0.0097
688.1079	-0.0063
688.2905	0.001
688.4731	-0.0112
688.6556	-0.0078
688.8382	-0.0024
689.0207	-0.0066
689.2032	-0.0093
689.3857	-0.0016
689.5681	-0.0056
689.7506	0.0018
689.933	-0.0046
690.1154	-0.0007
690.2978	-0.0052
690.4802	0.0037
690.6626	-0.0142
690.8449	-0.0061
691.0272	0.0058
691.2095	-0.0063
691.3918	-0.0022
691.5741	0.0028
691.7563	-0.0039
691.9386	0.0017
692.1208	-0.0023
692.303	0.0022
692.4852	-0.0105
692.6673	-0
692.8495	0.0039
693.0316	-0.0045
693.2137	0.0013
693.3958	0.0005
693.5778	-0.0004
693.7599	-0.0017
693.9419	-0.0008
694.1239	-0.0003
694.3059	-0.0051
694.4879	0.0069
694.6699	0.004
694.8518	0.0025
695.0337	-0.0084
695.2157	0.0034
695.3975	-0.0055
695.5794	-0.0026
695.7613	0.0049
695.9431	-0.0035
696.1249	0.0036
696.3067	0.0085
696.4885	0.0124
696.6703	-0.0027
696.852	0.0017
697.0337	0.0041
697.2154	-0.0049
697.3971	0.0022
697.5788	0.0063
697.7605	0.0037
697.9421	0.0043
698.1237	-0.0042
698.3053	0.0026
698.4869	0.0031
698.6685	-0.0002
698.85	-0.0008
699.0315	0.0157
699.213	-0.0028
699.3945	0.0021
699.576	0.0026
699.7575	0.0076
699.9389	0.0059
700.1203	-0.0042
700.3017	-0.0068
700.4831	-0.0048
700.6645	-0.0065
700.8458	-0.0001
701.0271	-0.0111
701.2084	0.0033
701.3897	-0.0098
701.571	0.0021
701.7523	-0.0109
701.9335	0.0017
702.1147	-0.0031
702.2959	-0.0012
702.4771	-0.0006
702.6583	-0.0077
702.8394	-0.0084
703.0205	-0.0008
703.2016	-0.0113
703.3827	-0.0052
703.5638	0.0078
703.7449	0.0004
703.9259	0.0099
704.1069	-0.0002
704.2879	0.0102
704.4689	0.0044
704.6499	0.0047
704.8308	0
705.0117	-0.0005
705.1927	-0.0013
705.3735	-0.0073
705.5544	-0.0073
705.7353	-0.0052
705.9161	-0.0029
706.0969	-0.0071
706.2777	-0.0069
706.4585	-0.0073
706.6393	-0.002
706.82	-0.0085
707.0007	-0.0003
707.1815	-0.0041
707.3621	-0.0007
707.5428	0.0024
707.7235	-0.0023
707.9041	0.0006
708.0847	-0.0064
708.2653	-0.0028
708.4459	-0.0134
708.6265	-0.0022
708.807	-0.008
708.9875	-0.0086
709.168	-0.0073
709.3485	-0.0127
709.529	-0.0095
709.7095	-0.0205
709.8899	-0.0113
710.0703	-0.0142
710.2507	-0.0031
710.4311	-0.0048
710.6115	-0.0081
710.7918	-0.0083
710.9721	-0.0055
711.1524	-0.0074
711.3327	0.0018
711.513	0.0027
711.6932	-0.0002
711.8735	0.0087
712.0537	-0.0008
712.2339	-0.0018
712.4141	-0
712.5942	-0.0068
712.7744	-0.0012
712.9545	-0.0069
713.1346	-0.0023
713.3147	-0.0023
713.4947	-0.0066
713.6748	-0.0083
713.8548	-0.0074
714.0348	-0.0029
714.2148	-0.0112
714.3948	0.0012
714.5748	-0.0057
714.7547	-0.0082
714.9346	0.0002
715.1145	-0.0058
715.2944	-0.0052
715.4743	-0.0064
715.6541	-0.0101
715.834	0.0014
716.0138	-0.0029
716.1936	-0.0174
716.3733	-0.0046
716.5531	0.0022
716.7328	-0.0044
716.9126	-0.0045
717.0923	-0.0012
717.2719	-0.0001
717.4516	0.0013
717.6312	0.0055
717.8109	-0.0009
717.9905	0.0065
718.1701	-0.0054
718.3496	-0.0036
718.5292	0.0057
718.7087	0
718.8882	-0.001
719.0677	0.0067
719.2472	-0.0019
719.4267	0.0114
719.6061	-0.0021
719.7856	0.0044
719.965	0.0061
720.1443	-0.009
720.3237	0.0064
720.5031	-0.0033
720.6824	0.0032
720.8617	-0.0069
721.041	-0.0026
721.2203	0.0048
721.3995	0.0037
721.5788	-0.0001
721.758	0.0034
721.9372	-0.0034
722.1164	-0.0035
722.2956	-0.0035
722.4747	-0.0109
722.6538	-0.0025
722.8329	0.0019
723.012	0.0021
723.1911	-0.0019
723.3702	-0.0045
723.5492	-0.0038
723.7282	-0.0082
723.9072	-0.0039
724.0862	-0.0069
724.2652	-0.0095
724.4441	-0.0066
724.623	0.0004
724.8019	-0.0187
724.9808	-0.0038
725.1597	-0.012
725.3385	-0.0013
725.5174	0.0008
725.6962	-0.0072
725.875	0.0047
726.0538	0.0067
726.2325	-0.0046
726.4112	0.0043
726.59	-0.0051
726.7687	-0.0065
726.9474	0.0016
727.126	0.0015
727.3047	-0.004
727.4833	0.0016
727.6619	-0.0083
727.8405	-0.0049
728.0191	-0.0074
728.1976	0.0046
728.3762	-0.0077
728.5547	-0.0008
728.7332	-0.0122
728.9116	-0.0066
729.0901	-0.0043
729.2686	-0.0158
729.447	-0.013
729.6254	-0.0062
729.8038	-0.0099
729.9821	-0.006
730.1605	-0.0076
730.3388	-0.0037
730.5171	-0.0034
730.6954	-0.0133
730.8737	0.005
731.0519	0.0042
731.2302	0.0003
731.4084	0.0122
731.5866	0.0028
731.7648	0.0018
731.9429	-0.0041
732.1211	-0.0221
732.2992	-0.0009
732.4773	-0.0089
732.6554	-0.0093
732.8335	-0.0049
733.0115	-0.0022
733.1896	0.0042
733.3676	-0.0061
733.5456	0.0005
733.7235	0.0019
733.9015	-0.004
734.0794	-0.0058
734.2574	-0.0033
734.4353	-0.0015
734.6131	-0.0028
734.791	-0.0017
734.9689	0.0079
735.1467	-0.0006
735.3245	-0.0098
735.5023	-0.008
735.68	-0.0031
735.8578	0.0088
736.0355	-0.0175
736.2132	-0.0077
736.3909	-0.0068
736.5686	-0.0092
736.7463	-0.009
736.9239	-0.0065
737.1015	-0.0077
737.2791	0.0066
737.4567	-0.0044
737.6343	-0.0081
737.8118	0.0015
737.9894	-0.0013
738.1669	-0.0045
738.3444	-0.0035
738.5218	-0.0005
738.6993	-0.0071
738.8767	-0.0054
739.0541	0.0082
739.2315	0.0007
739.4089	-0.0103
739.5863	0.0011
739.7636	-0.0052
739.9409	-0.0007
740.1182	0.0032
740.2955	-0
740.4728	-0.0015
740.65	-0.0115
740.8272	-0.0042
741.0044	-0.0031
741.1816	-0.0075
741.3588	-0.0013
741.5359	-0.0044
741.7131	-0.0149
741.8902	0.0003
742.0673	0.0004
742.2444	-0.0121
742.4214	-0.0126
742.5985	-0.003
742.7755	-0.0066
742.9525	-0.0094
743.1295	0.0025
743.3064	-0.0018
743.4834	0.0056
743.6603	-0.0057
743.8372	-0.0029
744.0141	-0.0058
744.191	-0.0017
744.3678	-0.0106
744.5446	0.0024
744.7215	0.008
744.8982	-0.0057
745.075	-0.0047
745.2518	-0.0001
745.4285	-0.0058
745.6052	-0.0124
745.7819	-0.0105
745.9586	-0.0145
746.1353	-0.0105
746.3119	-0.0109
746.4885	-0.0126
746.6651	-0.0243
746.8417	-0.0184
747.0183	-0.0148
747.1948	-0.0161
747.3714	-0.0061
747.5479	-0.0096
747.7244	-0.0175
747.9008	-0.0094
748.0773	-0.0029
748.2537	-0.0144
748.4301	-0.0042
748.6065	-0.0056
748.7829	0.002
748.9593	-0.0131
749.1356	-0.0127
749.3119	-0.001
749.4882	-0.0133
749.6645	-0.0024
749.8408	-0.0069
750.017	-0.0072
750.1933	-0.0051
750.3695	-0.0086
750.5457	0.0003
750.7218	-0.0128
750.898	-0.0074
751.0741	-0.0054
751.2502	-0.0033
751.4263	-0.0077
751.6024	-0.007
751.7784	0.0029
751.9545	-0.0108
752.1305	0.0031
752.3065	-0.0108
752.4825	-0.0062
752.6584	-0.0115
752.8344	-0.0156
753.0103	-0.0145
753.1862	-0.0152
753.3621	-0.0172
753.5379	-0.0075
753.7138	-0.002
753.8896	-0.0069
754.0654	0.0004
754.2412	-0.002
754.417	-0.0015
754.5927	-0.007
754.7685	-0.0023
754.9442	-0.0091
755.1199	0.0083
755.2956	-0.0022
755.4712	0.0124
755.6469	0.0018
755.8225	0.0012
755.9981	0.0016
756.1736	0.0082
756.3492	0.0004
756.5248	-0.0015
756.7003	-0.0009
756.8758	0.007
757.0513	0.0012
757.2267	0.001
757.4022	0.0084
757.5776	-0.0155
757.753	-0.0035
757.9284	0.0001
758.1038	0.0089
758.2791	0.0009
758.4545	-0.0188
758.6298	-0.0101
758.8051	-0.0038
758.9803	-0.0048
759.1556	-0.0025
759.3308	-0.0025
759.506	0.0039
759.6812	0.0004
759.8564	0.0064
760.0316	0.0019
760.2067	0.0115
760.3819	0.0126
760.557	0.0127
760.732	0.0027
760.9071	-0.0135
761.0821	-0.003
761.2572	0.0106
761.4322	-0.0125
761.6072	-0.0053
761.7821	-0.0154
761.9571	-0.002
762.132	-0.0002
762.3069	-0.013
762.4818	-0.0065
762.6567	-0.0012
762.8316	-0.0171
763.0064	-0.0061
763.1812	-0.0087
763.356	-0.0122
763.5308	-0.0089
763.7055	-0.0021
763.8803	-0.0095
764.055	-0.0153
764.2297	-0.0006
764.4044	-0.0145
764.579	-0.0068
764.7537	-0.0189
764.9283	-0.0039
765.1029	-0.0105
765.2775	-0.0112
765.4521	-0.0081
765.6266	-0.0132
765.8011	-0.0187
765.9756	-0.01
766.1501	0.0035
766.3246	-0.009
766.4991	-0.0167
766.6735	-0.0001
766.8479	-0.0104
767.0223	0.0035
767.1967	-0.0118
767.371	-0.0043
767.5454	-0.0064
767.7197	-0.0066
767.894	-0.0127
768.0683	-0.0167
768.2425	-0.009
768.4168	-0.0009
768.591	-0.0102
768.7652	-0.0092
768.9394	-0.0145
769.1135	-0.0018
769.2877	0.0015
769.4618	-0.0042
769.6359	-0.016
769.81	-0.0043
769.984	-0.0005
770.1581	-0.0037
770.3321	0.0068
770.5061	-0.0031
770.6801	-0.0059
770.8541	-0.0086
771.028	0.0047
771.202	-0.0151
771.3759	0.0088
771.5498	-0.0059
771.7236	-0.0009
771.8975	-0.0038
772.0713	-0.0022
772.2451	0.0047
772.4189	0.0055
772.5927	0.0067
772.7665	-0.0076
772.9402	-0.0034
773.1139	0.0018
773.2876	-0.0091
773.4613	-0.0057
773.635	-0.0095
773.8086	-0.0215
773.9822	-0.0108
774.1558	0.0067
774.3294	-0.0193
774.503	-0.0071
774.6765	0.0071
774.8501	0.002
775.0236	-0.0067
775.1971	-0
775.3705	-0.0143
775.544	-0.0013
775.7174	-0.0143
775.8908	0.0004
776.0642	-0.0016
776.2376	-0.0021
776.4109	-0.0055
776.5843	-0.0091
776.7576	0.0031
776.9309	0.0057
777.1041	0.0092
777.2774	0.0074
777.4506	-0.0156
777.6238	-0.0099
777.797	0.0142
777.9702	-0.0059
778.1434	-0.0023
778.3165	-0.0081
778.4896	-0.0089
778.6627	-0.0021
778.8358	-0.0023
779.0089	-0.0105
779.1819	-0.0082
779.3549	0.0103
779.5279	-0.0012
779.7009	-0.0026
779.8739	-0.0083
780.0468	-0.0102
780.2197	-0.0094
780.3926	-0.0046
780.5655	-0.0015
780.7384	-0.009
780.9112	-0.0079
781.0841	-0.0176
781.2569	-0.0053
781.4297	-0.0086
781.6024	-0.001
781.7752	-0.011
781.9479	-0.0098
782.1206	-0.0071
782.2933	-0.0175
782.466	0.0025
782.6386	-0.0083
782.8113	-0.0007
782.9839	-0.0068
783.1565	0.0049
783.329	0.0102
783.5016	0.0042
783.6741	0.0025
783.8466	-0.0039
784.0191	0.0099
784.1916	-0.0058
784.3641	-0.0092
784.5365	-0.0055
784.7089	-0.0119
784.8813	-0.0006
785.0537	-0.0147
785.2261	-0.0087
785.3984	-0.0199
785.5707	-0.0034
785.743	-0.0018
785.9153	-0.0093
786.0876	0.0001
786.2598	-0.0157
786.432	-0.0195
786.6042	-0.002
786.7764	-0.0103
786.9486	-0.0075
787.1207	-0.0296
787.2928	-0.0067
787.4649	-0.0053
787.637	-0
787.8091	-0.0087
787.9811	-0.0043
788.1532	-0.0257
788.3252	0.007
788.4972	-0.0232
788.6691	-0.0057
788.8411	-0.0146
789.013	-0.0242
789.1849	-0.0057
789.3568	-0.009
789.5287	-0.0192
789.7005	-0.0116
789.8723	-0.0067
790.0442	0.015
790.2159	0.0021
790.3877	-0.0052
790.5595	-0.0024
790.7312	0.0018
790.9029	-0.0005
791.0746	0.0009
791.2463	-0.0102
791.4179	0.0057
791.5896	-0.0109
791.7612	-0.0008
791.9328	0.004
792.1044	-0.0278
792.2759	-0.022
792.4474	-0.0172
792.619	0.0019
792.7905	-0.0078
792.9619	0.0064
793.1334	0.0108
793.3048	0.0025
793.4762	0.0015
793.6476	0.0121
793.819	-0.011
793.9904	0.0108
794.1617	-0.0168
794.333	-0.0086
794.5043	-0.0196
794.6756	-0.0216
794.8469	-0.0107
795.0181	-0.0018
795.1893	-0.0038
795.3605	0.0117
795.5317	-0.0057
795.7029	-0.0079
795.874	-0.006
796.0452	-0.0071
796.2163	0.0044
796.3873	0.0162
796.5584	-0.0014
796.7294	-0.0125
796.9005	0.0095
797.0715	-0.0105
797.2425	-0.0186
797.4134	-0.0006
797.5844	0.014
797.7553	-0.0231
797.9262	-0.0084
798.0971	-0.0121
798.2679	-0.0153
798.4388	-0.0229
798.6096	-0.0087
798.7804	-0.0172
798.9512	-0.0143
799.122	-0.007
799.2927	0.0015
799.4635	0.0096
799.6342	-0.0295
799.8049	-0.0108
799.9755	-0.0144
800.1462	-0.0141
800.3168	0.0019
800.4874	-0.0037
800.658	0.0114
800.8286	0.0011
800.9991	-0.0056
801.1696	0.0015
801.3402	0.0028
801.5106	-0.0097
801.6811	-0.004
801.8516	0.0106
802.022	0.0049
802.1924	-0.0208
802.3628	-0.0039
802.5332	0.0047
802.7035	0.0088
802.8739	-0.0009
803.0442	-0.0069
803.2145	0.0035
803.3847	-0.0138
803.555	-0.007
803.7252	-0.0103
803.8954	-0.0248
804.0656	-0.0047
804.2358	-0.0027
804.4059	0.0331
804.5761	-0.0058
804.7462	-0.0089
804.9163	-0.01
805.0864	-0.0155
805.2564	-0.0027
805.4264	0.0006
805.5965	0.0035
805.7665	-0.0037
805.9364	-0.0047
806.1064	0.0266
806.2763	0.0029
806.4462	0.0143
806.6161	-0.0111
806.786	0.0092
806.9559	-0.013
807.1257	-0.0086
807.2955	-0.0063
807.4653	-0.0026
807.6351	-0.0249
807.8048	-0.0026
807.9746	-0.0052
808.1443	-0.0145
808.314	-0.0041
808.4837	0.0023
808.6533	0.0045
808.8229	0.0091
808.9926	-0.0074
809.1622	-0.0043
809.3317	-0.0125
809.5013	-0.0148
809.6708	0.0041
809.8403	0.0017
810.0098	-0.0421
810.1793	-0.0157
810.3488	-0.0023
810.5182	-0.0117
810.6876	-0.0046
810.857	-0.0022
811.0264	0.0329
811.1958	-0.0047
811.3651	0.0063
811.5344	-0.0006
811.7037	-0.015
811.873	-0.0178
812.0422	-0.0045
812.2115	0.0062
812.3807	-0.0119
812.5499	0.0086
812.7191	0.0013
812.8882	0.0149
813.0574	-0.0045
813.2265	-0.0241
813.3956	0.007
813.5646	-0.0091
813.7337	-0.0174
813.9027	0.0035
814.0718	-0.0059
814.2407	-0.0038
814.4097	-0.0276
814.5787	-0.0183
814.7476	-0.0115
814.9165	-0.0037
815.0854	-0.0051
815.2543	-0.0137
815.4232	-0.0052
815.592	0.02
815.7608	0.0137
815.9296	-0.0122
816.0984	-0.0111
816.2671	-0.0287
816.4359	-0.0016
816.6046	0.004
816.7733	-0.0253
816.942	-0.0158
817.1106	-0.0075
817.2793	-0.0179
817.4479	-0.0113
817.6165	-0.0007
817.785	-0.0067
817.9536	-0.0365
818.1221	-0.0232
818.2906	-0.0273
818.4591	-0.0142
818.6276	-0.032
818.7961	-0.004
818.9645	-0.0034
819.1329	0.0016
819.3013	0.0013
819.4697	0.0218
819.638	0.0061
819.8064	-0.0158
819.9747	0.013
820.143	-0.0079
820.3113	-0.013
820.4795	0.0112
820.6477	-0.0018
820.816	0.0052
820.9842	-0.0149
821.1523	-0.0076
821.3205	0.0085
821.4886	0.0028
821.6567	0.0115
821.8248	-0.012
821.9929	-0.0021
822.1609	-0.0087
822.329	0.0082
822.497	0.0241
822.665	0.0011
822.833	-0.0039
823.0009	0.0003
823.1688	0.0136
823.3367	0.0308
823.5046	0.0147
823.6725	0.0331
823.8404	0.0003
824.0082	0.0199
824.176	0.0023
824.3438	0.0128
824.5116	-0.0293
824.6793	0.0265
824.847	-0.027
825.0147	-0.0298
825.1824	0.0399
825.3501	0.0168
825.5177	-0.0326
825.6854	-0.0158
825.853	0.0117
826.0206	-0.0241
826.1881	0.013
826.3557	-0.0333
826.5232	-0.0095
826.6907	-0.0417
826.8582	0.0044
827.0257	-0.046
827.1931	-0.0187
827.3605	-0.0125
827.528	-0.012
827.6953	-0.0113
827.8627	-0.0351
828.03	0.0273
828.1974	-0.0043
828.3647	-0.0562
828.532	0.018
828.6992	-0.0208
828.8665	-0.0354
829.0337	-0.0011
829.2009	-0.0085
829.3681	0.0118
829.5352	0.0205
829.7024	0.0107
829.8695	-0.0112
830.0366	0.0143
830.2037	-0.019
830.3707	0.0028
830.5378	-0.0128
830.7048	0.0469
830.8718	0.021
831.0388	-0.0494
831.2057	0.0139
831.3727	0.0424
831.5396	-0.0041
831.7065	-0.0098
831.8734	0.0158
832.0402	-0.0205
832.2071	0.0142
832.3739	-0.0264
832.5407	-0.0257
832.7075	-0.0203
832.8742	-0.0199
833.041	-0.0329
833.2077	0.0072
833.3744	0.0419
833.541	-0.0049
833.7077	-0.0268
833.8743	-0.006
834.0409	-0.021
834.2075	-0.0242
834.3741	-0.0305
834.5407	-0.0488
834.7072	-0.009
834.8737	-0.0472
835.0402	-0.0022
835.2067	0.0183
835.3731	0.0025
835.5395	0.005
835.706	-0.0072
835.8723	0.0078
836.0387	0.0241
836.2051	-0.0205
836.3714	-0.0116
836.5377	-0.021
836.704	-0.0058
836.8703	0.0171
837.0365	-0.0002
837.2027	-0.0294
837.3689	0.0226
837.5351	0.0074
837.7013	-0.0764
837.8674	-0.0451
838.0335	-0.0789
838.1997	0.0055
838.3657	-0.0594
838.5318	-0.0331
838.6978	0.0258
838.8639	0.029
839.0299	0.0032
839.1958	0.0093
839.3618	-0.0129
839.5277	-0.0087
839.6937	-0.0289
839.8596	-0.04
840.0254	-0.0251
840.1913	0.0262
840.3571	0.0222
840.523	-0.0631
840.6888	-0.0275
840.8545	0.0184
841.0203	0.0086
841.186	-0.0129
841.3517	0.0043
841.5174	-0.002
841.6831	-0.0398
841.8488	-0.0281
842.0144	0.0025
842.18	-0.0046
842.3456	-0.0104
842.5112	-0.0306
842.6767	-0.0232
842.8422	-0.041
843.0077	-0.0144
843.1732	-0.0579
843.3387	-0.0148
843.5042	-0.0296
843.6696	-0.0215
843.835	-0.0193
844.0004	0.0714
844.1657	0.0078
844.3311	-0.0106
844.4964	-0.0648
844.6617	-0.0314
844.827	-0.0316
844.9923	-0.0104
845.1575	-0.0109
845.3227	0.021
845.4879	-0.0114
845.6531	-0.1088
845.8183	-0.0663
845.9834	-0.0174
846.1485	-0.0347
846.3136	-0.0079
846.4787	-0.1355
846.6438	0.0093
846.8088	0.0156
846.9738	-0.0748
847.1388	-0.0101
847.3038	-0.0516
847.4687	-0.2001
847.6337	0.0869
847.7986	0.0228
847.9635	-0.0542
848.1284	-0.0294
848.2932	0.0486
848.458	0.0715
848.6228	0.0605
848.7876	0.1165
848.9524	-0.1161
849.1172	-0.1217
849.2819	0.0406
849.4466	-0.0776
849.6113	-0.0704
849.7759	-0.0162
849.9406	-0.0286
850.1052	0.022
850.2698	0.0072
850.4344	-0.0434
850.599	-0.0349
850.7635	0.0771
850.928	-0.0854
851.0925	0.091
851.257	0.0623
851.4215	0.0823
851.5859	-0.0177
851.7503	-0.0184
851.9147	-0.0197
852.0791	-0.0964
852.2434	-0.0538
852.4078	-0.0004
852.5721	0.1028
852.7364	-0.0819
852.9007	-0.2237
853.0649	-0.0574
853.2291	-0.0201
853.3934	-0.0423
853.5575	0.0558
853.7217	-0.1142
853.8859	-0.086
854.05	-0.1299
854.2141	-0.0611
854.3782	-0.0759
854.5423	-0.0788
854.7063	0.2066
854.8703	-0.0575
855.0343	-0.0132
855.1983	-0.1973
855.3623	0.0878
855.5262	-0.069
855.6901	-0.0334
855.854	0.0185
856.0179	0.0017
856.1818	0.0081
856.3456	-0.0608
856.5094	-0.0802
856.6732	0.0033
856.837	-0.0256
857.0008	0.005
857.1645	-0.0956
857.3282	-0.2067
857.4919	0.173
857.6556	0.0844
857.8192	-0.0759
857.9828	0.0196
858.1465	-0.1538
858.31	-0.202
858.4736	-0.1398
858.6372	-0.3481
858.8007	-0.1307
858.9642	0.1433
859.1277	-0.0955
859.2911	0.0225
859.4546	-0.0642
859.618	-0.3943
859.7814	0.0489
859.9448	-0.0462
860.1081	-0.0269
860.2715	0.1265
860.4348	0.5148
860.5981	-0.0863
860.7614	0.2275
860.9246	-0.1769
861.0879	0.0507
861.2511	-0.0919
861.4143	0.0653
861.5774	0.0887
861.7406	-0.2239
861.9037	0.0193
862.0668	-0.1656
862.2299	-0.0805
862.393	-0.6326
862.556	-0.0483
862.7191	-0.3664
862.8821	-0.2822
863.0451	-0.0625
863.208	0.0159
863.371	-0.0895
863.5339	-0.4453
863.6968	-0.0251
863.8597	-0
864.0225	-0.2831
864.1854	-0.053
864.3482	0.3173
864.511	0.3025
864.6737	0.0467
864.8365	0.2155
864.9992	-0.3021
865.1619	-0.6191
865.3246	-0.2481
865.4873	0.15
865.65	0.432
865.8126	0.1245
865.9752	0.0208
866.1378	0.0091
866.3004	0.9601
866.4629	0.5352
866.6254	0.6372
866.7879	-0.234
866.9504	0.8515
867.1129	-0
867.2753	0.027
867.4377	0.2385
867.6001	-0.0899
867.7625	0.0422
867.9249	-0
868.0872	-0.2362
868.2495	-0.047
868.4118	-0.1879
868.5741	-0.5624
868.7363	-0.229
868.8986	-0.3364
869.0608	-0.1632
869.223	0.1889
869.3851	-0
869.5473	0.07
869.7094	0.6254
869.8715	-0.5525
870.0336	-1.0607
870.1957	-0.3979
870.3577	-0.6704
870.5197	-0.1884
870.6817	-0.2111
870.8437	-0.1701
871.0057	-0.8205
871.1676	-0.4464
871.3295	-0
871.4914	-0.2494
871.6533	0.133
871.8151	-0.535
871.977	-0
872.1388	-0
872.3006	-0.2643
872.4623	-0
872.6241	-0.1
872.7858	-0
872.9475	-0.3081
873.1092	0.0251
873.2709	0.0416
873.4325	-0
873.5941	-0.1401
873.7557	-0
873.9173	-0
874.0789	-0.0096
874.2404	1.2355
874.4019	0.2823
874.5634	-0.1236
874.7249	0.6161
874.8863	0.171
875.0478	0.3047
875.2092	-0
875.3706	0.1479
875.5319	-0
875.6933	0.6117
875.8546	-0.4369
876.0159	-0.1433
876.1772	1.2603
876.3385	-0.3292
876.4997	0.0784
876.6609	-0.3229
876.8221	-0
876.9833	0.0688
877.1445	-0
877.3056	0.1617
877.4667	-0.0535
877.6278	0.0874
877.7889	-0.5064
877.9499	-0
878.111	0.1796
878.272	-1.1447
878.433	-0
878.5939	-0
878.7549	-0.1694
878.9158	-0
879.0767	-0
879.2376	-0
879.3984	0.1668
879.5593	-0
879.7201	0.1532
879.8809	-0.977
880.0417	-0.0843
880.2024	-0.2696
880.3632	-1.2255
880.5239	0.4019
880.6846	-0
880.8452	-2.0191
881.0059	-1.2989
881.1665	-0.0541
881.3271	0.3483
881.4877	-0
881.6483	0.0619
881.8088	-0.3938
881.9693	-0
882.1298	-0
882.2903	-0
