Data from MonoPyChalIsomerACN10uM350nmA_Absorbance_14-35-32-515.txt Node
Date: Fri Jul 05 14:35:32 BST 2024
User: LASERRRRR
Spectrometer: FLMT03099
Trigger mode: 0
Integration Time (sec): 1.000000E-1
Scans to average: 1
Electric dark correction enabled: true
Nonlinearity correction enabled: false
Boxcar width: 0
XAxis mode: Wavelengths
Number of Pixels in Spectrum: 3648
>>>>>Begin Spectral Data<<<<<
179.3399	-0.049
179.5586	-0.049
179.7771	-0.049
179.9957	0.4783
180.2143	-0
180.4329	0.0769
180.6514	-0
180.8699	-0
181.0885	-0.2058
181.307	0.1906
181.5255	-0
181.744	-0.0053
181.9625	-0
182.181	-0.7809
182.3994	0.6277
182.6179	-0
182.8363	0.2761
183.0547	-0.2839
183.2732	-0.0076
183.4916	0.8752
183.71	0.1317
183.9284	0.222
184.1467	-0.0741
184.3651	-0.1803
184.5835	0.1133
184.8018	-0.1356
185.0201	-0.0369
185.2385	-0.184
185.4568	0.5829
185.6751	0.194
185.8934	0.0728
186.1117	-0.0751
186.3299	-0.0825
186.5482	0.0094
186.7664	-0.1304
186.9847	-0.0937
187.2029	0.0596
187.4211	0.0838
187.6393	0.2418
187.8575	-0.0855
188.0757	0.0759
188.2939	0.0544
188.512	0.017
188.7302	-0.0545
188.9483	-0.2386
189.1665	0.0661
189.3846	0.2308
189.6027	0.0553
189.8208	0.0978
190.0389	0.1164
190.257	0.0642
190.475	0.0601
190.6931	0.8951
190.9111	0.3978
191.1292	0.0849
191.3472	0.6985
191.5652	0.1884
191.7832	0.3117
192.0012	0.5198
192.2192	0.4375
192.4371	0.4452
192.6551	0.192
192.873	0.3395
193.091	0.4247
193.3089	0.9085
193.5268	0.6118
193.7447	0.8168
193.9626	0.5162
194.1805	0.4546
194.3984	1.0577
194.6162	0.463
194.8341	0.6518
195.0519	0.4357
195.2697	0.7529
195.4875	0.8375
195.7054	0.8062
195.9231	0.5978
196.1409	0.6481
196.3587	0.5224
196.5765	0.6319
196.7942	0.7963
197.012	0.4919
197.2297	0.5912
197.4474	0.7676
197.6651	0.5956
197.8828	0.5375
198.1005	0.5798
198.3182	0.803
198.5358	0.6835
198.7535	0.6629
198.9711	0.4951
199.1888	0.5923
199.4064	0.8369
199.624	0.558
199.8416	0.6439
200.0592	0.6881
200.2767	0.6941
200.4943	0.7831
200.7119	0.7272
200.9294	0.7486
201.1469	0.6902
201.3645	0.4966
201.582	0.6864
201.7995	0.6551
202.017	0.5684
202.2344	0.6256
202.4519	0.7138
202.6694	0.6115
202.8868	0.6326
203.1042	0.7374
203.3217	0.7203
203.5391	0.6831
203.7565	0.5649
203.9739	0.618
204.1913	0.593
204.4086	0.5782
204.626	0.686
204.8433	0.6527
205.0607	0.6858
205.278	0.6887
205.4953	0.6657
205.7126	0.6598
205.9299	0.7191
206.1472	0.7356
206.3644	0.5577
206.5817	0.725
206.7989	0.7155
207.0162	0.7151
207.2334	0.7005
207.4506	0.6085
207.6678	0.6545
207.885	0.5972
208.1022	0.6329
208.3194	0.6501
208.5365	0.6177
208.7537	0.5851
208.9708	0.6114
209.1879	0.6451
209.405	0.7446
209.6222	0.6469
209.8392	0.6184
210.0563	0.6172
210.2734	0.6
210.4905	0.5715
210.7075	0.615
210.9245	0.5477
211.1416	0.6624
211.3586	0.5932
211.5756	0.5496
211.7926	0.6157
212.0096	0.5607
212.2265	0.5766
212.4435	0.5293
212.6604	0.6573
212.8774	0.5929
213.0943	0.6351
213.3112	0.5329
213.5281	0.5425
213.745	0.5202
213.9619	0.5123
214.1788	0.5135
214.3956	0.4609
214.6125	0.4951
214.8293	0.4378
215.0461	0.4885
215.2629	0.4502
215.4798	0.4837
215.6965	0.4406
215.9133	0.4476
216.1301	0.4452
216.3469	0.4379
216.5636	0.4458
216.7803	0.3936
216.9971	0.4243
217.2138	0.3549
217.4305	0.3686
217.6472	0.3542
217.8639	0.3884
218.0805	0.3503
218.2972	0.3054
218.5138	0.3213
218.7305	0.3092
218.9471	0.3077
219.1637	0.3148
219.3803	0.2834
219.5969	0.2728
219.8135	0.2561
220.0301	0.2764
220.2466	0.2704
220.4632	0.2461
220.6797	0.2539
220.8962	0.2471
221.1127	0.2596
221.3292	0.2829
221.5457	0.2283
221.7622	0.2253
221.9787	0.2485
222.1951	0.2389
222.4116	0.2622
222.628	0.2649
222.8444	0.2597
223.0608	0.2572
223.2772	0.241
223.4936	0.2601
223.71	0.252
223.9264	0.286
224.1427	0.2303
224.3591	0.2448
224.5754	0.2675
224.7917	0.258
225.008	0.2628
225.2243	0.2425
225.4406	0.2826
225.6569	0.2711
225.8732	0.2594
226.0894	0.2628
226.3057	0.2751
226.5219	0.2674
226.7381	0.26
226.9543	0.2849
227.1705	0.2746
227.3867	0.2863
227.6029	0.2939
227.8191	0.3051
228.0352	0.2788
228.2513	0.3087
228.4675	0.3125
228.6836	0.3128
228.8997	0.2924
229.1158	0.3084
229.3319	0.3126
229.548	0.2986
229.764	0.3376
229.9801	0.3239
230.1961	0.3582
230.4121	0.3322
230.6282	0.3478
230.8442	0.3285
231.0602	0.3495
231.2761	0.3466
231.4921	0.3404
231.7081	0.3622
231.924	0.3367
232.14	0.3617
232.3559	0.3502
232.5718	0.3611
232.7877	0.3593
233.0036	0.3346
233.2195	0.3508
233.4353	0.3358
233.6512	0.3729
233.867	0.3664
234.0829	0.3718
234.2987	0.3649
234.5145	0.365
234.7303	0.3672
234.9461	0.3884
235.1619	0.4037
235.3776	0.3761
235.5934	0.3992
235.8091	0.3706
236.0249	0.3828
236.2406	0.3953
236.4563	0.3735
236.672	0.3941
236.8877	0.4055
237.1034	0.4053
237.319	0.3976
237.5347	0.4057
237.7503	0.3943
237.966	0.4144
238.1816	0.4015
238.3972	0.3921
238.6128	0.4026
238.8284	0.4068
239.0439	0.4129
239.2595	0.3953
239.475	0.4188
239.6906	0.4219
239.9061	0.3969
240.1216	0.389
240.3371	0.387
240.5526	0.3994
240.7681	0.3984
240.9836	0.379
241.199	0.4062
241.4145	0.3884
241.6299	0.3853
241.8453	0.3601
242.0607	0.3747
242.2761	0.3592
242.4915	0.3586
242.7069	0.3662
242.9223	0.3603
243.1376	0.3341
243.353	0.3504
243.5683	0.3369
243.7836	0.3135
243.9989	0.3193
244.2142	0.3027
244.4295	0.3139
244.6448	0.3136
244.86	0.2875
245.0753	0.2721
245.2905	0.271
245.5057	0.2684
245.721	0.2721
245.9362	0.2707
246.1514	0.254
246.3665	0.2346
246.5817	0.2442
246.7969	0.2379
247.012	0.24
247.2271	0.2323
247.4423	0.2211
247.6574	0.2209
247.8725	0.219
248.0876	0.2013
248.3026	0.2206
248.5177	0.2103
248.7328	0.213
248.9478	0.2015
249.1628	0.2066
249.3779	0.2154
249.5929	0.2183
249.8079	0.2158
250.0228	0.1886
250.2378	0.1825
250.4528	0.1987
250.6677	0.1817
250.8827	0.1969
251.0976	0.1876
251.3125	0.1747
251.5274	0.1693
251.7423	0.1822
251.9572	0.1724
252.172	0.1881
252.3869	0.1798
252.6017	0.1735
252.8166	0.1615
253.0314	0.1641
253.2462	0.1634
253.461	0.1668
253.6758	0.1559
253.8906	0.175
254.1053	0.166
254.3201	0.1609
254.5348	0.1719
254.7496	0.1645
254.9643	0.1622
255.179	0.1683
255.3937	0.1623
255.6083	0.1629
255.823	0.1749
256.0377	0.1523
256.2523	0.1686
256.467	0.1582
256.6816	0.1763
256.8962	0.1678
257.1108	0.1553
257.3254	0.1682
257.54	0.167
257.7545	0.1747
257.9691	0.1745
258.1836	0.1607
258.3981	0.1625
258.6127	0.1731
258.8272	0.1623
259.0417	0.1606
259.2561	0.1636
259.4706	0.1685
259.6851	0.1685
259.8995	0.1661
260.114	0.157
260.3284	0.1617
260.5428	0.1593
260.7572	0.1531
260.9716	0.1582
261.186	0.1538
261.4003	0.1588
261.6147	0.1708
261.829	0.157
262.0433	0.16
262.2577	0.1662
262.472	0.1607
262.6863	0.1492
262.9005	0.1725
263.1148	0.1695
263.3291	0.148
263.5433	0.1652
263.7576	0.1665
263.9718	0.1553
264.186	0.1577
264.4002	0.1629
264.6144	0.1565
264.8286	0.1712
265.0427	0.1524
265.2569	0.1655
265.471	0.1454
265.6851	0.1563
265.8993	0.1676
266.1134	0.166
266.3275	0.1546
266.5415	0.1504
266.7556	0.1617
266.9697	0.1506
267.1837	0.1551
267.3978	0.1561
267.6118	0.1716
267.8258	0.1633
268.0398	0.1562
268.2538	0.1592
268.4677	0.1532
268.6817	0.1444
268.8957	0.1534
269.1096	0.1457
269.3235	0.1545
269.5374	0.152
269.7514	0.1377
269.9652	0.1377
270.1791	0.1475
270.393	0.1364
270.6068	0.1428
270.8207	0.1416
271.0345	0.1374
271.2483	0.1448
271.4622	0.129
271.676	0.1365
271.8897	0.1384
272.1035	0.1277
272.3173	0.1366
272.531	0.144
272.7448	0.133
272.9585	0.1356
273.1722	0.1466
273.3859	0.1457
273.5996	0.1227
273.8133	0.1326
274.0269	0.1245
274.2406	0.129
274.4542	0.131
274.6679	0.1201
274.8815	0.1343
275.0951	0.1427
275.3087	0.1361
275.5223	0.1355
275.7358	0.1309
275.9494	0.1338
276.1629	0.1201
276.3765	0.1245
276.59	0.1442
276.8035	0.1425
277.017	0.1262
277.2305	0.1349
277.444	0.1427
277.6574	0.126
277.8709	0.1408
278.0843	0.1304
278.2978	0.1477
278.5112	0.128
278.7246	0.1329
278.938	0.1344
279.1513	0.1454
279.3647	0.1543
279.5781	0.1264
279.7914	0.1323
280.0047	0.1349
280.2181	0.1424
280.4314	0.1393
280.6447	0.1435
280.8579	0.1385
281.0712	0.1387
281.2845	0.1399
281.4977	0.1517
281.711	0.1203
281.9242	0.138
282.1374	0.1452
282.3506	0.1339
282.5638	0.1404
282.7769	0.148
282.9901	0.1418
283.2033	0.1582
283.4164	0.1647
283.6295	0.1458
283.8426	0.146
284.0557	0.1509
284.2688	0.1538
284.4819	0.1492
284.695	0.1484
284.908	0.1587
285.1211	0.14
285.3341	0.1443
285.5471	0.1505
285.7601	0.1445
285.9731	0.1471
286.1861	0.1406
286.3991	0.1537
286.612	0.1577
286.825	0.1628
287.0379	0.1625
287.2508	0.1599
287.4637	0.1569
287.6766	0.1456
287.8895	0.1591
288.1024	0.1758
288.3152	0.1684
288.5281	0.1561
288.7409	0.1584
288.9538	0.1569
289.1666	0.1619
289.3794	0.1662
289.5922	0.1565
289.8049	0.1702
290.0177	0.1574
290.2304	0.1741
290.4432	0.1624
290.6559	0.1633
290.8686	0.1739
291.0813	0.169
291.294	0.1687
291.5067	0.1739
291.7194	0.1718
291.932	0.1674
292.1447	0.1791
292.3573	0.1637
292.5699	0.1715
292.7825	0.1809
292.9951	0.1599
293.2077	0.1723
293.4203	0.1667
293.6328	0.1544
293.8454	0.1773
294.0579	0.1632
294.2704	0.1699
294.4829	0.1556
294.6954	0.1751
294.9079	0.1746
295.1204	0.1672
295.3328	0.1678
295.5453	0.1685
295.7577	0.1747
295.9701	0.1555
296.1825	0.169
296.3949	0.1708
296.6073	0.1653
296.8197	0.1608
297.0321	0.1721
297.2444	0.1564
297.4567	0.1654
297.6691	0.1666
297.8814	0.1572
298.0937	0.1673
298.306	0.1723
298.5182	0.1608
298.7305	0.1742
298.9428	0.1567
299.155	0.1837
299.3672	0.1576
299.5794	0.1573
299.7916	0.1631
300.0038	0.1733
300.216	0.1752
300.4282	0.1743
300.6403	0.1665
300.8525	0.1682
301.0646	0.1556
301.2767	0.1647
301.4888	0.1669
301.7009	0.1727
301.913	0.169
302.125	0.17
302.3371	0.1562
302.5491	0.1662
302.7612	0.1717
302.9732	0.1607
303.1852	0.163
303.3972	0.1513
303.6092	0.1621
303.8211	0.1637
304.0331	0.1617
304.245	0.1518
304.457	0.151
304.6689	0.1552
304.8808	0.1679
305.0927	0.1505
305.3046	0.1549
305.5164	0.1709
305.7283	0.1355
305.9401	0.1643
306.152	0.1507
306.3638	0.1504
306.5756	0.1462
306.7874	0.1577
306.9992	0.1481
307.2109	0.1316
307.4227	0.1307
307.6344	0.1432
307.8462	0.134
308.0579	0.1418
308.2696	0.1323
308.4813	0.1346
308.693	0.1361
308.9046	0.1369
309.1163	0.1172
309.328	0.1358
309.5396	0.1336
309.7512	0.1256
309.9628	0.1205
310.1744	0.1149
310.386	0.12
310.5976	0.1218
310.8091	0.1189
311.0207	0.1192
311.2322	0.119
311.4437	0.1079
311.6552	0.1172
311.8667	0.1117
312.0782	0.0953
312.2897	0.1036
312.5012	0.1048
312.7126	0.0955
312.924	0.0917
313.1355	0.1065
313.3469	0.1066
313.5583	0.0999
313.7696	0.0997
313.981	0.1053
314.1924	0.0989
314.4037	0.0962
314.6151	0.1053
314.8264	0.0949
315.0377	0.0999
315.249	0.096
315.4603	0.1037
315.6716	0.0955
315.8828	0.0958
316.0941	0.0937
316.3053	0.0925
316.5165	0.0841
316.7277	0.0882
316.9389	0.098
317.1501	0.0933
317.3613	0.0918
317.5724	0.0763
317.7836	0.0886
317.9947	0.0877
318.2058	0.0914
318.417	0.0928
318.6281	0.0816
318.8391	0.09
319.0502	0.0808
319.2613	0.0988
319.4723	0.1045
319.6834	0.0901
319.8944	0.0879
320.1054	0.0877
320.3164	0.0925
320.5274	0.0784
320.7383	0.0889
320.9493	0.0914
321.1602	0.1025
321.3712	0.0843
321.5821	0.0945
321.793	0.0839
322.0039	0.0782
322.2148	0.0888
322.4257	0.0922
322.6365	0.1007
322.8474	0.0918
323.0582	0.0935
323.269	0.1065
323.4798	0.1058
323.6906	0.0871
323.9014	0.0867
324.1122	0.0996
324.3229	0.0971
324.5337	0.0992
324.7444	0.089
324.9551	0.1027
325.1658	0.1059
325.3765	0.0961
325.5872	0.1008
325.7979	0.0911
326.0085	0.0921
326.2192	0.1004
326.4298	0.0885
326.6404	0.0932
326.851	0.0883
327.0616	0.08
327.2722	0.0997
327.4828	0.0963
327.6933	0.0948
327.9039	0.1012
328.1144	0.1056
328.3249	0.0981
328.5354	0.1014
328.7459	0.102
328.9564	0.0858
329.1669	0.1033
329.3773	0.1018
329.5878	0.1012
329.7982	0.0987
330.0086	0.095
330.219	0.0893
330.4294	0.0973
330.6398	0.0871
330.8502	0.0959
331.0605	0.0964
331.2708	0.0993
331.4812	0.0976
331.6915	0.0915
331.9018	0.0991
332.1121	0.099
332.3224	0.1045
332.5326	0.117
332.7429	0.1032
332.9531	0.1178
333.1633	0.0965
333.3735	0.1036
333.5837	0.0929
333.7939	0.0967
334.0041	0.1149
334.2143	0.1022
334.4244	0.1044
334.6346	0.0865
334.8447	0.1049
335.0548	0.0943
335.2649	0.0912
335.475	0.1014
335.685	0.097
335.8951	0.1087
336.1051	0.1045
336.3152	0.1131
336.5252	0.0954
336.7352	0.1097
336.9452	0.1019
337.1552	0.1052
337.3652	0.1064
337.5751	0.1088
337.7851	0.11
337.995	0.0953
338.2049	0.1006
338.4148	0.111
338.6247	0.116
338.8346	0.0986
339.0445	0.0992
339.2543	0.1005
339.4642	0.1078
339.674	0.0963
339.8838	0.1001
340.0936	0.108
340.3034	0.1196
340.5132	0.1201
340.7229	0.1085
340.9327	0.1046
341.1424	0.1015
341.3522	0.1167
341.5619	0.108
341.7716	0.1046
341.9813	0.1072
342.1909	0.1164
342.4006	0.1205
342.6102	0.1258
342.8199	0.1106
343.0295	0.1134
343.2391	0.1135
343.4487	0.1262
343.6583	0.1067
343.8679	0.1245
344.0774	0.1234
344.287	0.1205
344.4965	0.1104
344.706	0.122
344.9155	0.1179
345.125	0.1102
345.3345	0.1342
345.544	0.1199
345.7534	0.1179
345.9629	0.1114
346.1723	0.1157
346.3817	0.1126
346.5911	0.1283
346.8005	0.1283
347.0099	0.1194
347.2193	0.1217
347.4286	0.1255
347.638	0.141
347.8473	0.129
348.0566	0.1374
348.2659	0.1296
348.4752	0.1329
348.6845	0.1231
348.8937	0.1353
349.103	0.1227
349.3122	0.1254
349.5214	0.1263
349.7306	0.1281
349.9398	0.1265
350.149	0.1366
350.3582	0.121
350.5674	0.1438
350.7765	0.1223
350.9856	0.1308
351.1948	0.1401
351.4039	0.1232
351.613	0.126
351.822	0.1292
352.0311	0.1507
352.2402	0.141
352.4492	0.1505
352.6582	0.1503
352.8672	0.1431
353.0762	0.1382
353.2852	0.1447
353.4942	0.1328
353.7032	0.1445
353.9121	0.1494
354.1211	0.15
354.33	0.1472
354.5389	0.1464
354.7478	0.1555
354.9567	0.1455
355.1655	0.1451
355.3744	0.1546
355.5833	0.1565
355.7921	0.1672
356.0009	0.1461
356.2097	0.1696
356.4185	0.1627
356.6273	0.1692
356.8361	0.1637
357.0448	0.1576
357.2536	0.1448
357.4623	0.1478
357.671	0.1635
357.8797	0.1641
358.0884	0.1679
358.2971	0.1614
358.5057	0.1693
358.7144	0.1705
358.923	0.1722
359.1316	0.1584
359.3402	0.1656
359.5488	0.1636
359.7574	0.1681
359.966	0.1706
360.1746	0.1637
360.3831	0.1804
360.5916	0.1687
360.8002	0.1689
361.0087	0.1907
361.2172	0.1806
361.4256	0.1826
361.6341	0.1867
361.8426	0.1759
362.051	0.1833
362.2594	0.176
362.4678	0.1685
362.6762	0.1956
362.8846	0.1838
363.093	0.1981
363.3014	0.1761
363.5097	0.1646
363.718	0.195
363.9264	0.1874
364.1347	0.1821
364.343	0.1848
364.5513	0.2
364.7595	0.2064
364.9678	0.1953
365.176	0.2001
365.3842	0.1951
365.5925	0.2011
365.8007	0.2033
366.0089	0.2062
366.217	0.1903
366.4252	0.2062
366.6333	0.2052
366.8415	0.198
367.0496	0.197
367.2577	0.2135
367.4658	0.2306
367.6739	0.2246
367.882	0.2085
368.09	0.1981
368.2981	0.228
368.5061	0.205
368.7141	0.2229
368.9221	0.2237
369.1301	0.2184
369.3381	0.2217
369.5461	0.1978
369.754	0.2299
369.962	0.234
370.1699	0.2104
370.3778	0.2303
370.5857	0.2179
370.7936	0.2205
371.0015	0.2268
371.2093	0.2219
371.4172	0.2312
371.625	0.2075
371.8328	0.2332
372.0406	0.2213
372.2484	0.2295
372.4562	0.2288
372.664	0.2282
372.8717	0.2432
373.0795	0.2116
373.2872	0.2242
373.4949	0.2339
373.7026	0.2274
373.9103	0.2476
374.118	0.2418
374.3256	0.2386
374.5333	0.2401
374.7409	0.2375
374.9485	0.2665
375.1561	0.2456
375.3637	0.2669
375.5713	0.254
375.7789	0.2471
375.9864	0.2492
376.194	0.2395
376.4015	0.2423
376.609	0.258
376.8165	0.2578
377.024	0.2366
377.2315	0.2447
377.4389	0.2618
377.6464	0.266
377.8538	0.2413
378.0612	0.2337
378.2686	0.2559
378.476	0.2641
378.6834	0.2725
378.8908	0.2658
379.0981	0.2609
379.3055	0.2392
379.5128	0.2665
379.7201	0.2639
379.9274	0.2653
380.1347	0.2468
380.342	0.2756
380.5492	0.2602
380.7565	0.2579
380.9637	0.2675
381.1709	0.2632
381.3781	0.2558
381.5853	0.2882
381.7925	0.2724
381.9997	0.2758
382.2068	0.2716
382.4139	0.2749
382.6211	0.2626
382.8282	0.2574
383.0353	0.2659
383.2424	0.2588
383.4494	0.2719
383.6565	0.2508
383.8635	0.2745
384.0706	0.2744
384.2776	0.267
384.4846	0.2621
384.6916	0.2717
384.8986	0.2708
385.1055	0.2713
385.3125	0.2667
385.5194	0.2544
385.7263	0.2673
385.9333	0.2674
386.1402	0.2728
386.347	0.2667
386.5539	0.2566
386.7608	0.2884
386.9676	0.2601
387.1744	0.2677
387.3813	0.2526
387.5881	0.2812
387.7948	0.2753
388.0016	0.2559
388.2084	0.2635
388.4151	0.2589
388.6219	0.2726
388.8286	0.2633
389.0353	0.2672
389.242	0.2725
389.4487	0.2638
389.6553	0.2506
389.862	0.2405
390.0686	0.2595
390.2753	0.2547
390.4819	0.268
390.6885	0.2444
390.8951	0.2658
391.1016	0.2768
391.3082	0.2579
391.5147	0.2558
391.7213	0.2564
391.9278	0.2454
392.1343	0.248
392.3408	0.2539
392.5473	0.2542
392.7537	0.2554
392.9602	0.2406
393.1666	0.252
393.373	0.2451
393.5794	0.2735
393.7858	0.2405
393.9922	0.2165
394.1986	0.2467
394.4049	0.2393
394.6113	0.2399
394.8176	0.2238
395.0239	0.2359
395.2302	0.2314
395.4365	0.2436
395.6428	0.2261
395.8491	0.2366
396.0553	0.2303
396.2615	0.246
396.4678	0.2401
396.674	0.238
396.8802	0.2309
397.0863	0.2401
397.2925	0.2142
397.4987	0.2141
397.7048	0.2171
397.9109	0.2296
398.117	0.2308
398.3231	0.2338
398.5292	0.2257
398.7353	0.2277
398.9413	0.2312
399.1474	0.2175
399.3534	0.2369
399.5594	0.225
399.7654	0.2367
399.9714	0.2476
400.1774	0.2338
400.3833	0.2258
400.5893	0.2276
400.7952	0.2154
401.0011	0.2134
401.207	0.2321
401.4129	0.2348
401.6188	0.2329
401.8247	0.2269
402.0305	0.2249
402.2364	0.2208
402.4422	0.232
402.648	0.2377
402.8538	0.2423
403.0596	0.2052
403.2654	0.2303
403.4711	0.2198
403.6768	0.2367
403.8826	0.225
404.0883	0.2311
404.294	0.2431
404.4997	0.233
404.7054	0.2116
404.911	0.2198
405.1167	0.2321
405.3223	0.2564
405.5279	0.2222
405.7335	0.2315
405.9391	0.2339
406.1447	0.229
406.3502	0.2425
406.5558	0.2116
406.7613	0.2321
406.9668	0.2571
407.1724	0.2174
407.3778	0.2165
407.5833	0.2364
407.7888	0.2242
407.9942	0.244
408.1997	0.2083
408.4051	0.2059
408.6105	0.2231
408.8159	0.2213
409.0213	0.213
409.2267	0.2455
409.432	0.24
409.6374	0.2328
409.8427	0.2157
410.048	0.2274
410.2533	0.2259
410.4586	0.2339
410.6639	0.2153
410.8691	0.2114
411.0744	0.2365
411.2796	0.2232
411.4848	0.2078
411.69	0.2259
411.8952	0.2439
412.1004	0.2221
412.3056	0.2386
412.5107	0.2006
412.7158	0.2403
412.921	0.2256
413.1261	0.2235
413.3312	0.2124
413.5362	0.2206
413.7413	0.2161
413.9464	0.2429
414.1514	0.2129
414.3564	0.2097
414.5614	0.2003
414.7664	0.2166
414.9714	0.2261
415.1764	0.2258
415.3813	0.2333
415.5863	0.2147
415.7912	0.2255
415.9961	0.2276
416.201	0.2265
416.4059	0.219
416.6108	0.2005
416.8156	0.2261
417.0205	0.2255
417.2253	0.1989
417.4301	0.2127
417.6349	0.2098
417.8397	0.2157
418.0445	0.214
418.2492	0.2088
418.454	0.1947
418.6587	0.2349
418.8634	0.226
419.0681	0.2176
419.2728	0.2121
419.4775	0.2117
419.6822	0.2003
419.8868	0.1949
420.0915	0.2185
420.2961	0.191
420.5007	0.1939
420.7053	0.2026
420.9099	0.2134
421.1144	0.2077
421.319	0.2214
421.5235	0.2159
421.728	0.2185
421.9325	0.2112
422.137	0.2092
422.3415	0.1968
422.546	0.2129
422.7504	0.2057
422.9549	0.1921
423.1593	0.1919
423.3637	0.2183
423.5681	0.2007
423.7725	0.1927
423.9769	0.1983
424.1812	0.1923
424.3856	0.1892
424.5899	0.2101
424.7942	0.1856
424.9985	0.1871
425.2028	0.1909
425.4071	0.203
425.6113	0.1726
425.8156	0.1877
426.0198	0.1855
426.224	0.183
426.4282	0.2003
426.6324	0.1848
426.8366	0.1938
427.0407	0.1747
427.2449	0.1697
427.449	0.1818
427.6531	0.156
427.8572	0.1759
428.0613	0.174
428.2654	0.1912
428.4694	0.1724
428.6735	0.1563
428.8775	0.1683
429.0815	0.1858
429.2855	0.1561
429.4895	0.1636
429.6935	0.1652
429.8975	0.172
430.1014	0.1416
430.3053	0.1449
430.5093	0.1461
430.7132	0.1426
430.9171	0.1466
431.1209	0.1673
431.3248	0.1489
431.5286	0.1439
431.7325	0.1642
431.9363	0.1377
432.1401	0.1381
432.3439	0.1432
432.5477	0.116
432.7514	0.131
432.9552	0.146
433.1589	0.1174
433.3627	0.1345
433.5664	0.1321
433.7701	0.1275
433.9737	0.1242
434.1774	0.1315
434.3811	0.1214
434.5847	0.1339
434.7883	0.1192
434.9919	0.1203
435.1955	0.118
435.3991	0.1262
435.6027	0.1227
435.8062	0.1058
436.0098	0.1174
436.2133	0.1161
436.4168	0.1157
436.6203	0.1107
436.8238	0.1004
437.0272	0.0926
437.2307	0.1096
437.4341	0.1108
437.6375	0.1138
437.841	0.0963
438.0443	0.1013
438.2477	0.1111
438.4511	0.0984
438.6545	0.1099
438.8578	0.1018
439.0611	0.0892
439.2644	0.0822
439.4677	0.0795
439.671	0.0771
439.8743	0.0947
440.0775	0.0944
440.2808	0.0847
440.484	0.0795
440.6872	0.0601
440.8904	0.0685
441.0936	0.09
441.2967	0.0797
441.4999	0.0758
441.703	0.0742
441.9062	0.0628
442.1093	0.0668
442.3124	0.071
442.5155	0.0588
442.7185	0.0532
442.9216	0.048
443.1246	0.0804
443.3276	0.053
443.5307	0.0602
443.7337	0.0742
443.9366	0.0607
444.1396	0.0658
444.3426	0.0418
444.5455	0.0545
444.7484	0.0507
444.9513	0.0534
445.1542	0.0591
445.3571	0.0698
445.56	0.0483
445.7628	0.0428
445.9657	0.0471
446.1685	0.0718
446.3713	0.0529
446.5741	0.0471
446.7769	0.0384
446.9797	0.0505
447.1824	0.0515
447.3852	0.0286
447.5879	0.0449
447.7906	0.0423
447.9933	0.0501
448.196	0.0348
448.3986	0.0263
448.6013	0.04
448.8039	0.0196
449.0066	0.0299
449.2092	0.0403
449.4118	0.0363
449.6143	0.0312
449.8169	0.0408
450.0195	0.0207
450.222	0.0133
450.4245	0.0303
450.627	0.0268
450.8295	0.0166
451.032	0.0184
451.2345	0.0273
451.4369	0.0398
451.6394	0.0168
451.8418	0.0093
452.0442	0.0078
452.2466	0.0214
452.449	0.0104
452.6513	0.0209
452.8537	0.0105
453.056	0.0195
453.2583	0.0056
453.4607	0.0273
453.663	0.0261
453.8652	0.018
454.0675	-0.009
454.2697	0.0226
454.472	0.0091
454.6742	0.008
454.8764	0.0087
455.0786	0.0291
455.2808	0.0167
455.4829	0.0253
455.6851	0.017
455.8872	0.0246
456.0893	0.0204
456.2915	0.0112
456.4935	0.0127
456.6956	0.0092
456.8977	0.0028
457.0997	0.0048
457.3018	0.0164
457.5038	0.0056
457.7058	0.0008
457.9078	-0.0025
458.1098	0.0197
458.3117	0.0054
458.5137	0.0066
458.7156	0.017
458.9175	-0.0098
459.1194	0.0163
459.3213	0.0151
459.5232	0.0071
459.725	-0.0008
459.9269	0.0128
460.1287	-0.0006
460.3305	0.0016
460.5323	0.0034
460.7341	0.0097
460.9359	0.0068
461.1376	0.0112
461.3394	-0.0038
461.5411	0.0088
461.7428	0.0012
461.9445	0.0208
462.1462	0.0102
462.3479	-0.0032
462.5495	0.0004
462.7512	0.0016
462.9528	0.0101
463.1544	-0.0155
463.356	0.0026
463.5576	-0.0002
463.7592	0.0097
463.9607	0.0102
464.1623	0.0147
464.3638	0.0202
464.5653	-0.0071
464.7668	0.0029
464.9683	0.0109
465.1697	0.0163
465.3712	0.0039
465.5726	-0.0056
465.7741	0.0021
465.9755	-0.0044
466.1769	-0.0022
466.3782	0.0067
466.5796	-0.0031
466.7809	0.0045
466.9823	-0.0124
467.1836	-0.0009
467.3849	-0.0034
467.5862	0.0054
467.7875	-0.0055
467.9887	0.0165
468.19	0.0053
468.3912	-0.0097
468.5924	-0.0153
468.7936	-0.0031
468.9948	-0.0053
469.196	0.0005
469.3972	-0.0198
469.5983	0.0079
469.7994	-0.0222
470.0006	0.0052
470.2017	-0.0005
470.4027	-0.0141
470.6038	0.0078
470.8049	-0.0119
471.0059	-0.0017
471.2069	-0.031
471.408	0.0074
471.6089	0.0148
471.8099	-0.0016
472.0109	-0.0038
472.2119	-0.0007
472.4128	-0.0226
472.6137	0.0081
472.8146	-0.0301
473.0155	-0.0035
473.2164	-0.0121
473.4173	0.0016
473.6181	-0.0003
473.819	-0.0068
474.0198	-0.001
474.2206	-0.0001
474.4214	-0.0081
474.6222	0.0021
474.8229	-0.012
475.0237	-0.0086
475.2244	-0.0102
475.4251	-0.01
475.6258	-0.0013
475.8265	-0.002
476.0272	0.0164
476.2278	-0.0036
476.4285	-0.0095
476.6291	-0.0122
476.8297	-0.0175
477.0303	-0.012
477.2309	-0.0074
477.4315	-0.0265
477.632	-0.0112
477.8326	-0.017
478.0331	-0.0042
478.2336	0.0088
478.4341	-0.0025
478.6346	-0.0092
478.8351	0.0037
479.0355	-0.0044
479.236	0.0089
479.4364	0.0065
479.6368	-0.0039
479.8372	-0.0197
480.0376	-0.009
480.2379	-0.0269
480.4383	-0.0093
480.6386	-0.0009
480.8389	0.0025
481.0392	-0.014
481.2395	-0.0073
481.4398	-0.0002
481.6401	0.0037
481.8403	0.0018
482.0405	-0.0008
482.2408	-0.0126
482.441	-0.0003
482.6411	-0.0079
482.8413	-0.0086
483.0415	-0.0059
483.2416	-0.0107
483.4417	-0.0028
483.6419	-0.0119
483.8419	-0.0128
484.042	0.0133
484.2421	-0.0073
484.4422	-0.0057
484.6422	-0.0064
484.8422	-0.0145
485.0422	-0.0231
485.2422	-0.0102
485.4422	-0.018
485.6422	-0.0164
485.8421	-0.0057
486.042	-0.01
486.242	-0.0047
486.4419	-0.0123
486.6417	-0.0104
486.8416	-0.0013
487.0415	-0.0066
487.2413	-0.0111
487.4411	-0.0017
487.641	-0.0153
487.8408	0.0149
488.0405	-0.013
488.2403	-0.0036
488.4401	-0.0065
488.6398	-0.0128
488.8395	-0.0106
489.0392	0.0012
489.2389	-0.0137
489.4386	-0.0181
489.6383	-0.005
489.8379	0.0013
490.0376	-0.02
490.2372	-0.0225
490.4368	-0.0046
490.6364	-0.0032
490.836	-0.0124
491.0355	-0.0037
491.2351	-0.0214
491.4346	-0.0094
491.6341	-0.0106
491.8336	-0.0122
492.0331	-0.0117
492.2326	-0.0124
492.432	-0.011
492.6315	-0.001
492.8309	-0.017
493.0303	-0.0018
493.2297	-0.0117
493.4291	-0.0055
493.6284	-0.01
493.8278	0.0005
494.0271	-0.0038
494.2264	0.006
494.4257	-0.0112
494.625	-0.0053
494.8243	-0.0319
495.0236	-0.0195
495.2228	-0.0164
495.422	-0.0076
495.6213	-0.0014
495.8205	-0.0122
496.0196	-0.0054
496.2188	-0.0035
496.418	-0.0113
496.6171	0.0005
496.8162	-0.0089
497.0153	0.0012
497.2144	-0.0148
497.4135	-0.0084
497.6126	-0.0181
497.8116	-0.0131
498.0107	-0.0027
498.2097	-0.0152
498.4087	-0.001
498.6077	-0.0028
498.8067	-0.0056
499.0056	-0.0004
499.2046	-0.0009
499.4035	-0.0192
499.6024	-0.0064
499.8013	-0.0043
500.0002	-0.009
500.199	-0.0026
500.3979	-0.0111
500.5967	-0.0284
500.7956	0.0008
500.9944	-0.0101
501.1932	-0.0142
501.3919	-0.0139
501.5907	-0.0216
501.7895	0.0013
501.9882	-0.0156
502.1869	-0.0067
502.3856	-0.0112
502.5843	-0.0118
502.783	-0.018
502.9816	-0.0128
503.1803	-0.0228
503.3789	-0.0105
503.5775	0.002
503.7761	-0.0211
503.9747	-0.0084
504.1732	-0.019
504.3718	-0.0001
504.5703	-0.0137
504.7689	-0.0165
504.9674	-0.0067
505.1658	-0.0222
505.3643	-0.0125
505.5628	-0.012
505.7612	-0.0026
505.9597	-0.0055
506.1581	-0.0081
506.3565	0.0016
506.5549	-0.0105
506.7532	-0.015
506.9516	-0.0156
507.1499	-0.0055
507.3482	-0.0205
507.5465	-0.0062
507.7448	-0.0085
507.9431	-0.0034
508.1414	-0.008
508.3396	-0.0079
508.5379	-0.0012
508.7361	-0.0079
508.9343	-0.0119
509.1325	-0.0037
509.3306	-0.0129
509.5288	-0.0034
509.7269	-0.0086
509.9251	0.0021
510.1232	-0.0101
510.3213	-0.0049
510.5193	-0.0056
510.7174	-0.0204
510.9154	-0.0173
511.1135	-0.0146
511.3115	-0.0074
511.5095	-0.0069
511.7075	-0.0077
511.9055	-0.0104
512.1034	-0.017
512.3014	-0.0081
512.4993	-0.0178
512.6972	-0.0081
512.8951	-0.0212
513.093	-0.005
513.2908	-0.0056
513.4887	-0.0095
513.6865	-0.0127
513.8844	-0.0106
514.0822	-0.0096
514.2799	-0.03
514.4777	-0.0061
514.6755	-0.0101
514.8732	-0.0092
515.0709	-0.0088
515.2687	-0.0132
515.4664	0.0012
515.664	-0.0122
515.8617	-0.01
516.0594	-0.0177
516.257	0.0019
516.4546	-0.0291
516.6522	-0.0045
516.8498	-0.0075
517.0474	-0.0028
517.2449	-0.0082
517.4425	-0.0183
517.64	-0.0057
517.8375	-0.0021
518.035	-0.0036
518.2325	-0.0175
518.43	-0.0101
518.6274	-0.0128
518.8249	-0.0167
519.0223	-0.0008
519.2197	-0.0005
519.4171	-0.0046
519.6145	-0.0119
519.8118	-0.0057
520.0092	-0.0104
520.2065	-0.0103
520.4038	-0.0138
520.6011	-0.0083
520.7984	-0.0161
520.9956	-0.0157
521.1929	-0.0188
521.3901	-0.0055
521.5874	-0.0025
521.7846	-0.0082
521.9818	-0.0193
522.1789	-0.0134
522.3761	-0.0121
522.5732	-0.0169
522.7704	-0.0139
522.9675	-0.0071
523.1646	-0.0293
523.3617	-0.0019
523.5587	-0.0101
523.7558	-0.004
523.9528	-0.0129
524.1498	-0.0045
524.3468	-0.0125
524.5438	-0.0038
524.7408	-0.0153
524.9378	0.0047
525.1347	-0.0137
525.3316	-0.0025
525.5285	-0.0063
525.7254	-0.0106
525.9223	-0.0109
526.1192	-0.0079
526.316	-0.0171
526.5129	0.0042
526.7097	-0.0065
526.9065	-0.0096
527.1033	-0.0061
527.3	-0.0033
527.4968	-0.0133
527.6935	-0.005
527.8903	-0.0213
528.087	-0.0058
528.2837	-0.0101
528.4804	-0.0061
528.677	-0.0095
528.8737	-0.0025
529.0703	-0.0012
529.2669	-0.0045
529.4635	-0.0067
529.6601	-0.0027
529.8567	-0.0113
530.0532	-0.0112
530.2498	0
530.4463	0.0015
530.6428	-0.0078
530.8393	0.0019
531.0358	0.0006
531.2322	-0.0049
531.4287	-0.0077
531.6251	-0.0061
531.8215	0.007
532.0179	-0.0049
532.2143	-0.004
532.4107	-0.0011
532.607	-0.014
532.8034	0.0014
532.9997	-0.0032
533.196	-0.0048
533.3923	-0.0073
533.5886	-0.0005
533.7848	-0.0096
533.9811	-0.0088
534.1773	-0.0068
534.3735	0.0059
534.5697	-0.0086
534.7659	-0.0088
534.9621	-0.0067
535.1582	-0.0123
535.3544	0.0024
535.5505	-0.0109
535.7466	-0.0075
535.9427	-0.0021
536.1387	-0.0094
536.3348	-0.0051
536.5308	-0.0068
536.7269	-0.0238
536.9229	0.0054
537.1189	-0.0071
537.3148	-0.008
537.5108	-0.0144
537.7068	-0.012
537.9027	-0.0003
538.0986	-0.0037
538.2945	-0.0159
538.4904	-0.0058
538.6863	-0.0048
538.8821	-0.0068
539.078	-0.012
539.2738	-0.0052
539.4696	-0.0045
539.6654	-0.0031
539.8611	0.0091
540.0569	-0.0096
540.2526	-0.0102
540.4484	-0.0032
540.6441	0.0068
540.8398	-0.0073
541.0355	-0.0047
541.2311	-0.0091
541.4268	-0.0101
541.6224	-0.005
541.818	-0.0104
542.0136	-0.011
542.2092	-0.0074
542.4048	0.0047
542.6003	-0.0062
542.7959	-0.0033
542.9914	-0.0113
543.1869	-0.0046
543.3824	-0.0182
543.5779	-0.0045
543.7734	-0.01
543.9688	-0.0112
544.1642	0.0012
544.3596	-0.0015
544.555	-0.0112
544.7504	-0.0014
544.9458	-0.0105
545.1411	-0.0054
545.3365	-0.0101
545.5318	-0.0067
545.7271	-0.0075
545.9224	-0.0082
546.1177	-0.0008
546.3129	-0.0023
546.5081	-0.0059
546.7034	-0.0058
546.8986	-0.0194
547.0938	-0.018
547.289	-0.005
547.4841	0.001
547.6793	0.0063
547.8744	-0.0089
548.0695	-0.0043
548.2646	-0.0112
548.4597	-0.0031
548.6548	-0.0049
548.8498	-0.0091
549.0448	0.0075
549.2399	-0.0067
549.4349	0.0048
549.6298	0.0005
549.8248	0.0009
550.0198	-0.006
550.2147	-0.0121
550.4096	-0.0085
550.6045	-0.0005
550.7994	0.0005
550.9943	0
551.1892	-0.0056
551.384	0.0036
551.5788	-0.0071
551.7737	0.0014
551.9685	-0.006
552.1632	0.0063
552.358	-0.0074
552.5528	-0.0048
552.7475	-0.0082
552.9422	-0.0079
553.1369	0.0059
553.3316	0.0048
553.5263	-0.0109
553.7209	0.0068
553.9156	-0.0052
554.1102	-0.0111
554.3048	-0.0059
554.4994	-0.002
554.694	-0.0039
554.8885	-0.0011
555.0831	-0.0022
555.2776	-0.0159
555.4721	-0.0024
555.6666	-0.0112
555.8611	-0.004
556.0555	-0.0093
556.25	-0.0011
556.4444	-0.0135
556.6388	-0.0107
556.8332	0.0016
557.0276	-0.0051
557.222	-0.0041
557.4163	-0.0041
557.6107	-0.0166
557.805	0.0065
557.9993	-0.0094
558.1936	-0.0003
558.3879	-0.0061
558.5821	0.0051
558.7764	0.0033
558.9706	-0.008
559.1648	0.0046
559.359	-0.0075
559.5532	-0.0091
559.7473	-0.0083
559.9415	0.0077
560.1356	-0.0059
560.3297	-0.0096
560.5238	-0.0045
560.7179	-0.0042
560.9119	-0.0032
561.106	-0.0124
561.3	-0.0122
561.494	-0.0081
561.688	-0.0046
561.882	-0.0174
562.076	-0.0082
562.2699	0.006
562.4639	-0.0005
562.6578	0.0036
562.8517	0.0013
563.0456	-0.0048
563.2395	-0.0034
563.4333	-0.006
563.6272	0.006
563.821	-0.0036
564.0148	-0.0011
564.2086	-0.0122
564.4024	-0.005
564.5961	-0.0003
564.7899	-0.0002
564.9836	-0.005
565.1773	-0.0014
565.371	0.0063
565.5647	0.0012
565.7584	0.0028
565.952	-0.0016
566.1456	-0.004
566.3393	-0.006
566.5329	-0.004
566.7264	-0.0004
566.92	-0.0041
567.1136	0.0034
567.3071	-0.0082
567.5006	-0.0051
567.6941	0.0094
567.8876	-0.0033
568.0811	-0.0039
568.2745	-0.0044
568.468	0.0048
568.6614	-0.0014
568.8548	-0.0012
569.0482	-0.0067
569.2416	-0.0019
569.4349	-0.0016
569.6283	0.0101
569.8216	-0.0001
570.0149	-0.0004
570.2082	0.0064
570.4015	0.002
570.5947	0.0042
570.788	-0.0047
570.9812	0.0019
571.1744	0.003
571.3676	-0.0094
571.5608	-0.0052
571.754	0.0025
571.9471	-0.0005
572.1402	0.003
572.3333	-0.0066
572.5264	-0.0102
572.7195	-0.0031
572.9126	-0.003
573.1057	-0.0041
573.2987	-0.0093
573.4917	-0.0005
573.6847	-0.0071
573.8777	0.0001
574.0707	0.002
574.2636	-0.0069
574.4566	-0.0083
574.6495	-0.0005
574.8424	-0.0067
575.0353	-0.0012
575.2281	0.0053
575.421	-0.0013
575.6138	0.0018
575.8067	-0.0031
575.9995	-0.0038
576.1923	0.0011
576.385	-0.0059
576.5778	-0.0048
576.7706	-0.0047
576.9633	-0.0008
577.156	0.0034
577.3487	-0.0014
577.5414	0.0006
577.734	-0.0063
577.9267	0.0054
578.1193	-0.011
578.3119	-0.0115
578.5045	0.0039
578.6971	-0.0036
578.8897	0.0052
579.0822	-0.0007
579.2747	-0.001
579.4673	-0.0044
579.6598	-0.0093
579.8522	-0.0066
580.0447	-0.0022
580.2372	-0.0033
580.4296	0.002
580.622	0.0005
580.8144	0.0019
581.0068	-0.0006
581.1992	-0.0121
581.3915	-0.0084
581.5839	-0.01
581.7762	-0.0079
581.9685	-0.0068
582.1608	0.0004
582.353	-0.0044
582.5453	-0.0008
582.7375	-0.0026
582.9298	-0.0015
583.122	-0.002
583.3142	0
583.5063	0.0025
583.6985	-0.0014
583.8906	-0.0016
584.0827	-0.0013
584.2749	-0.0024
584.4669	0
584.659	-0.0057
584.8511	-0.0018
585.0431	-0.0034
585.2352	-0.0001
585.4272	-0.0009
585.6192	0.0003
585.8111	-0.0033
586.0031	-0.0023
586.195	-0.0065
586.387	0.0075
586.5789	-0.0036
586.7708	0.0016
586.9627	-0.0044
587.1545	-0.0055
587.3464	0.0001
587.5382	0.0054
587.73	0.0011
587.9218	0.0041
588.1136	-0.0037
588.3053	0.0017
588.4971	-0.0055
588.6888	-0.0148
588.8805	0.0013
589.0722	0.0083
589.2639	-0.0075
589.4556	0
589.6472	-0.0055
589.8389	-0.0146
590.0305	-0.0141
590.2221	0.0009
590.4137	-0.0084
590.6052	-0.0046
590.7968	-0.0109
590.9883	-0.0042
591.1798	-0.0087
591.3713	-0.0034
591.5628	0.0001
591.7543	0.0034
591.9458	-0.0029
592.1372	0.0007
592.3286	0.0038
592.52	0.0021
592.7114	-0.0029
592.9028	-0.0079
593.0941	-0.0056
593.2855	-0.0044
593.4768	-0.0045
593.6681	-0.0138
593.8594	-0.0019
594.0506	-0.0007
594.2419	0.0098
594.4331	0.0009
594.6244	0.0029
594.8156	-0.0048
595.0067	0.0031
595.1979	0.0029
595.3891	0.0026
595.5802	-0.0058
595.7713	-0.0041
595.9624	-0.0053
596.1535	0.001
596.3446	0.0003
596.5357	-0.0035
596.7267	0.0041
596.9177	-0.0022
597.1087	-0.0094
597.2997	-0.0079
597.4907	0.0014
597.6817	-0.0072
597.8726	-0.0026
598.0635	-0.003
598.2544	0.001
598.4453	-0.0078
598.6362	-0.0038
598.827	-0.0057
599.0179	-0.0007
599.2087	0.0023
599.3995	-0.0059
599.5903	-0.0035
599.7811	0.0005
599.9718	-0.0068
600.1626	-0.0098
600.3533	-0.01
600.544	-0.0106
600.7347	-0.0069
600.9254	-0.0004
601.116	-0.0145
601.3067	-0.0076
601.4973	-0.0102
601.6879	-0.0064
601.8785	-0.0029
602.0691	0.0032
602.2596	-0.0074
602.4502	-0.001
602.6407	0.0036
602.8312	-0.0011
603.0217	-0.01
603.2122	-0.0017
603.4027	-0.0022
603.5931	-0.0057
603.7835	-0.0078
603.9739	-0.0087
604.1643	-0.0006
604.3547	-0.0045
604.5451	0.0007
604.7354	-0.0015
604.9257	0.0027
605.116	-0.0018
605.3063	-0.0028
605.4966	0.0004
605.6869	-0.0056
605.8771	0.0015
606.0673	0.0031
606.2575	0.0077
606.4477	0.0017
606.6379	-0.0009
606.8281	-0.0048
607.0182	-0.0039
607.2083	0.002
607.3985	-0.0085
607.5885	-0.0046
607.7786	-0.0047
607.9687	-0.0066
608.1587	0.0038
608.3488	-0.0028
608.5388	-0.006
608.7288	-0
608.9187	-0.0065
609.1087	-0.0084
609.2986	-0.0114
609.4886	-0.0038
609.6785	-0.0049
609.8684	0.0028
610.0582	-0.0022
610.2481	-0.0011
610.4379	-0.0022
610.6278	-0.0087
610.8176	-0.0089
611.0074	-0.0072
611.1971	-0.004
611.3869	-0.0021
611.5766	-0.0051
611.7664	0.0052
611.9561	0.0056
612.1458	0.0052
612.3354	-0.0075
612.5251	0.0027
612.7147	0.0016
612.9044	0.0055
613.094	-0.0089
613.2836	-0.0082
613.4731	-0.0031
613.6627	-0.009
613.8522	-0.0017
614.0417	0.0021
614.2313	-0.0106
614.4207	-0.0035
614.6102	-0.0032
614.7997	-0.0118
614.9891	-0.0114
615.1785	-0.0111
615.3679	-0.0105
615.5573	0.0018
615.7467	0.0013
615.9361	-0.0015
616.1254	-0.0003
616.3147	-0.0007
616.504	0.0035
616.6933	-0.0029
616.8826	0.005
617.0718	-0.0003
617.2611	-0.0015
617.4503	-0.0039
617.6395	-0.0027
617.8287	-0.0013
618.0179	-0.0038
618.207	0.0057
618.3961	-0.0044
618.5853	-0.0016
618.7744	0.0001
618.9634	0.0097
619.1525	0.0025
619.3416	-0
619.5306	0.0005
619.7196	-0.003
619.9086	-0.0072
620.0976	-0.0027
620.2866	0.0043
620.4755	0.001
620.6645	0.01
620.8534	0.0014
621.0423	0.0002
621.2312	0.0044
621.42	0.0026
621.6089	0.0007
621.7977	0.003
621.9865	-0.008
622.1753	-0.0005
622.3641	-0.0025
622.5529	0.0057
622.7416	0.0112
622.9303	-0.0036
623.1191	0.008
623.3078	-0.0016
623.4964	-0.0007
623.6851	-0.0103
623.8737	-0.0009
624.0624	0
624.251	-0.0014
624.4396	-0.0025
624.6282	-0.0075
624.8167	-0.0054
625.0053	0.0003
625.1938	-0.0007
625.3823	-0.0055
625.5708	0.0006
625.7593	-0.013
625.9477	-0.0106
626.1362	-0.0129
626.3246	-0.0021
626.513	0.0061
626.7014	0.0018
626.8898	-0.0013
627.0781	-0.0045
627.2665	-0.008
627.4548	0.0091
627.6431	0.0028
627.8314	0.0021
628.0197	0.0034
628.2079	-0.0051
628.3962	-0.0051
628.5844	-0.0019
628.7726	0.0023
628.9608	0.004
629.1489	0.003
629.3371	0.0024
629.5252	-0.0045
629.7134	0.0089
629.9015	0.0064
630.0895	0.0025
630.2776	0.0034
630.4657	0.0033
630.6537	0.0057
630.8417	-0.0093
631.0297	-0.0018
631.2177	-0.0031
631.4057	-0.0104
631.5936	-0.0044
631.7815	0.0015
631.9695	0.0005
632.1574	-0.0026
632.3452	0.0101
632.5331	-0.0016
632.7209	-0.0055
632.9088	0.0126
633.0966	0.0036
633.2844	-0.0076
633.4722	0.0009
633.6599	0.0001
633.8477	0.0067
634.0354	-0.0054
634.2231	0.0006
634.4108	-0.0011
634.5985	0.001
634.7861	0.0081
634.9738	0.0013
635.1614	0.0025
635.349	0.001
635.5366	-0.0021
635.7242	-0.0024
635.9117	-0.0004
636.0993	0.0053
636.2868	-0.0031
636.4743	-0.0051
636.6618	0.004
636.8492	-0.0064
637.0367	0.0014
637.2241	-0.008
637.4115	-0.0102
637.5989	-0.0024
637.7863	-0.0072
637.9737	-0.0061
638.161	-0.0033
638.3484	-0.0026
638.5357	0.0005
638.723	-0.0093
638.9103	-0.0013
639.0975	-0.002
639.2848	0.0019
639.472	-0.0027
639.6592	-0.0038
639.8464	0.004
640.0336	0.003
640.2208	-0.002
640.4079	-0.0069
640.595	-0.002
640.7821	-0.004
640.9692	-0.0012
641.1563	0.0008
641.3434	-0.0013
641.5304	-0.0015
641.7174	-0.0019
641.9044	-0.0035
642.0914	-0.002
642.2784	-0
642.4653	0.0015
642.6523	0.001
642.8392	-0.007
643.0261	-0.0028
643.213	-0.0011
643.3999	-0.011
643.5867	-0.003
643.7735	-0.0022
643.9604	-0.0138
644.1472	-0.003
644.3339	0.001
644.5207	-0.0001
644.7075	-0.004
644.8942	-0.0005
645.0809	0.0056
645.2676	0.0002
645.4543	0.0002
645.6409	-0.0005
645.8276	-0.0001
646.0142	0.006
646.2008	-0.0029
646.3874	-0.001
646.574	0.0002
646.7605	-0.0054
646.9471	-0.0128
647.1336	0.0002
647.3201	0.0037
647.5066	-0.0056
647.6931	0.002
647.8795	-0.0089
648.0659	0.0058
648.2524	0.0058
648.4388	0.0008
648.6252	0.0072
648.8115	-0.0025
648.9979	-0.0012
649.1842	0.0076
649.3705	0.0106
649.5568	0.0005
649.7431	0.0024
649.9294	-0.0074
650.1156	-0.0004
650.3018	-0.0028
650.488	0.0002
650.6742	0.0083
650.8604	-0.003
651.0466	-0.0091
651.2327	-0.0022
651.4188	-0.0011
651.6049	-0.0066
651.791	-0.0047
651.9771	0.0016
652.1632	-0.0036
652.3492	-0.0053
652.5352	0.0025
652.7212	-0.0067
652.9072	-0.0002
653.0932	-0.0002
653.2791	-0.002
653.465	0.0012
653.651	-0.0045
653.8369	0.0014
654.0227	-0.0041
654.2086	0.0054
654.3944	0.0015
654.5803	-0.0066
654.7661	-0.0019
654.9519	-0.004
655.1377	-0.0075
655.3234	-0.0043
655.5092	-0.0069
655.6949	-0.0066
655.8806	-0.0074
656.0663	0.0003
656.2519	-0.0035
656.4376	-0.0083
656.6232	0.0042
656.8088	-0.0049
656.9945	-0.0013
657.18	0.0029
657.3656	0.0003
657.5511	-0.0079
657.7367	-0.0063
657.9222	0.0021
658.1077	-0.0076
658.2932	0.0016
658.4786	-0.014
658.6641	-0.0033
658.8495	-0.0074
659.0349	-0.0124
659.2203	0.0054
659.4057	0.0028
659.591	-0.0051
659.7764	-0.0029
659.9617	-0.0042
660.147	-0.004
660.3323	0.0015
660.5176	0.001
660.7028	-0.0008
660.888	0.0017
661.0733	-0.0013
661.2585	-0.0073
661.4436	-0.0067
661.6288	-0.0077
661.8139	-0.001
661.9991	-0.0025
662.1842	-0.0054
662.3693	-0.003
662.5544	-0.0034
662.7394	-0.0024
662.9245	-0.0038
663.1095	-0.0001
663.2945	-0.0063
663.4795	-0.0032
663.6644	0.0085
663.8494	-0.0044
664.0343	-0.0019
664.2193	-0.0138
664.4042	-0.0017
664.589	-0.0072
664.7739	0.0007
664.9587	-0.0045
665.1436	0.0003
665.3284	-0.002
665.5132	-0.0083
665.698	0.0007
665.8827	0.0035
666.0675	-0.011
666.2522	-0.0047
666.4369	-0.0051
666.6216	0.0043
666.8063	0.0004
666.9909	-0.0057
667.1756	-0.0014
667.3602	-0.0066
667.5448	-0.007
667.7294	0.0092
667.9139	0.0043
668.0985	0.0089
668.283	0.0057
668.4675	0.0017
668.652	0.0042
668.8365	0.0009
669.0209	0.0026
669.2054	0.0068
669.3898	0.0011
669.5742	-0.0006
669.7586	0.0017
669.943	-0.0003
670.1273	0.003
670.3117	0.0004
670.496	0.0022
670.6803	0.0054
670.8646	0.0032
671.0488	-0.0047
671.2331	0.006
671.4173	0.0046
671.6015	-0.0062
671.7857	0.0006
671.9699	0.0031
672.1541	0.002
672.3382	-0.0007
672.5223	0.0037
672.7064	-0.0014
672.8905	0.0053
673.0746	0.0045
673.2587	-0.0008
673.4427	0.0056
673.6267	0.0094
673.8107	0.0105
673.9947	0.0017
674.1787	0.0049
674.3626	-0.0049
674.5465	0.0075
674.7304	0.0045
674.9143	0.0051
675.0982	0.0082
675.2821	-0.0077
675.4659	0.0058
675.6497	0.0025
675.8335	-0.0019
676.0173	-0.0032
676.2011	-0.004
676.3849	0.0033
676.5686	-0.0087
676.7523	-0.0052
676.936	-0.0093
677.1197	-0.0108
677.3034	-0.002
677.487	-0.0011
677.6706	-0.0069
677.8542	0.0068
678.0378	-0.002
678.2214	-0.0031
678.405	0.0035
678.5885	-0.0038
678.772	0.0011
678.9555	0.0009
679.139	0.0023
679.3225	0.0019
679.5059	-0.0125
679.6894	0.0004
679.8728	0.0023
680.0562	-0.0061
680.2395	-0.0035
680.4229	0.0026
680.6062	0.0068
680.7896	-0.0054
680.9729	-0.0117
681.1562	0.0037
681.3394	0.0049
681.5227	-0.0002
681.7059	0.0022
681.8891	-0.0013
682.0723	0.0108
682.2555	0.0014
682.4387	0.0036
682.6218	-0.0058
682.805	0.0072
682.9881	0.001
683.1712	-0.0007
683.3542	-0.0009
683.5373	0.0005
683.7203	-0.0035
683.9034	-0.0034
684.0864	-0.0101
684.2694	-0.0102
684.4523	0.0056
684.6353	-0.0106
684.8182	-0.0012
685.0011	-0.0064
685.184	-0.0043
685.3669	0.0034
685.5498	-0.0007
685.7326	0.0032
685.9154	-0.0059
686.0982	0.0009
686.281	0.0021
686.4638	0.0037
686.6465	-0.0076
686.8293	0.0039
687.012	-0.0017
687.1947	-0.0146
687.3774	-0.0002
687.56	-0.0037
687.7427	0.0003
687.9253	-0.0098
688.1079	-0.0022
688.2905	0.0039
688.4731	0.001
688.6556	-0.0035
688.8382	-0.0005
689.0207	0.0004
689.2032	-0.0097
689.3857	-0.0063
689.5681	-0.0003
689.7506	-0.008
689.933	-0.0112
690.1154	-0.001
690.2978	-0.0052
690.4802	-0.0037
690.6626	-0.0072
690.8449	-0.0024
691.0272	0.0038
691.2095	-0.0084
691.3918	-0.0049
691.5741	0.0015
691.7563	-0.0056
691.9386	0.0032
692.1208	-0.005
692.303	0.0014
692.4852	-0.0037
692.6673	-0.004
692.8495	-0.0029
693.0316	0.0027
693.2137	0.0025
693.3958	0.0001
693.5778	0.0021
693.7599	0.0001
693.9419	-0.0074
694.1239	0.0034
694.3059	-0.0046
694.4879	0.0007
694.6699	0.0021
694.8518	0.0029
695.0337	-0.0051
695.2157	0.002
695.3975	-0.0017
695.5794	-0.0041
695.7613	0.0047
695.9431	0.0009
696.1249	0.0022
696.3067	0.0023
696.4885	0.0076
696.6703	-0.0037
696.852	0.0096
697.0337	0.011
697.2154	0.0005
697.3971	0.0025
697.5788	-0.0048
697.7605	-0.0026
697.9421	-0.0009
698.1237	-0.0036
698.3053	-0.0008
698.4869	0.0049
698.6685	-0.0072
698.85	-0.0021
699.0315	0.0143
699.213	-0.0019
699.3945	0.0037
699.576	0.0024
699.7575	0.0074
699.9389	0.0087
700.1203	-0.0059
700.3017	-0.0058
700.4831	-0.0113
700.6645	-0.0119
700.8458	-0.0039
701.0271	-0.0041
701.2084	-0.0021
701.3897	-0.0056
701.571	0.0007
701.7523	-0.0063
701.9335	0.0006
702.1147	-0.0075
702.2959	0.0001
702.4771	-0.0022
702.6583	0.0002
702.8394	-0.0081
703.0205	0.0002
703.2016	-0.0056
703.3827	-0.0025
703.5638	0.0055
703.7449	0.0003
703.9259	0.0112
704.1069	-0.0082
704.2879	0.0032
704.4689	0.0011
704.6499	0.0054
704.8308	-0.0024
705.0117	-0.002
705.1927	0.0017
705.3735	-0.0009
705.5544	-0.0056
705.7353	-0.0046
705.9161	-0.0083
706.0969	-0.0073
706.2777	0.0002
706.4585	-0.0054
706.6393	-0.0017
706.82	-0.0045
707.0007	-0.0078
707.1815	-0.0007
707.3621	0.0053
707.5428	0.0001
707.7235	0.0011
707.9041	0.005
708.0847	-0.0081
708.2653	-0.0104
708.4459	-0.0185
708.6265	-0.0003
708.807	-0.0007
708.9875	-0.01
709.168	-0.0073
709.3485	-0.0165
709.529	-0.0038
709.7095	-0.0139
709.8899	-0.0138
710.0703	-0.0207
710.2507	-0.0088
710.4311	-0.016
710.6115	-0.0175
710.7918	-0.0094
710.9721	-0.0058
711.1524	-0.0131
711.3327	-0.0008
711.513	0.0037
711.6932	0.0098
711.8735	0.0092
712.0537	0.0008
712.2339	0.0026
712.4141	-0.0062
712.5942	0.0034
712.7744	0.0017
712.9545	-0.0014
713.1346	-0.0052
713.3147	-0.0032
713.4947	-0.0122
713.6748	-0.0008
713.8548	-0.0054
714.0348	-0.0068
714.2148	-0.008
714.3948	-0.0011
714.5748	-0.0017
714.7547	-0.0096
714.9346	-0.0006
715.1145	-0.0013
715.2944	-0.0069
715.4743	-0.0099
715.6541	-0.0104
715.834	-0.0006
716.0138	-0.0079
716.1936	-0.0094
716.3733	-0.0052
716.5531	-0.0025
716.7328	-0.0054
716.9126	-0.0076
717.0923	-0.0014
717.2719	-0.0003
717.4516	-0.0016
717.6312	-0.0007
717.8109	0.0026
717.9905	0.001
718.1701	-0.0008
718.3496	-0.0083
718.5292	-0.0035
718.7087	-0.0022
718.8882	-0.0009
719.0677	0.0106
719.2472	-0.0024
719.4267	0.0059
719.6061	0.0077
719.7856	0.0072
719.965	-0.0012
720.1443	-0.0012
720.3237	0.0104
720.5031	0.0085
720.6824	0.0017
720.8617	-0.0003
721.041	-0.0006
721.2203	0.009
721.3995	-0.0013
721.5788	0.0002
721.758	0.0092
721.9372	-0.0025
722.1164	-0.0064
722.2956	0.002
722.4747	-0.0086
722.6538	-0.0095
722.8329	0.014
723.012	0.0055
723.1911	-0.0066
723.3702	-0.0036
723.5492	0.0029
723.7282	-0.0109
723.9072	-0.0104
724.0862	-0.0124
724.2652	-0.0044
724.4441	-0.0056
724.623	-0.0061
724.8019	-0.0138
724.9808	-0.0034
725.1597	-0.0089
725.3385	-0.0028
725.5174	-0.0038
725.6962	0.008
725.875	-0.0075
726.0538	0.0054
726.2325	-0.0073
726.4112	-0.0016
726.59	-0.0021
726.7687	-0.0036
726.9474	-0.0022
727.126	-0.0018
727.3047	-0.0063
727.4833	-0.0024
727.6619	-0.0022
727.8405	-0.0069
728.0191	-0.0096
728.1976	-0.0038
728.3762	-0.002
728.5547	-0.0054
728.7332	-0.016
728.9116	0.0024
729.0901	-0.0003
729.2686	-0.02
729.447	-0.0146
729.6254	-0.0006
729.8038	-0.0071
729.9821	-0.0114
730.1605	0.0009
730.3388	-0.0006
730.5171	-0.0038
730.6954	-0.0056
730.8737	-0.0032
731.0519	0.0041
731.2302	0.0052
731.4084	0.0012
731.5866	0.002
731.7648	-0.0053
731.9429	-0.0048
732.1211	-0.0175
732.2992	-0.0081
732.4773	-0.0087
732.6554	-0.0105
732.8335	0.0016
733.0115	0.0003
733.1896	0.001
733.3676	-0.0036
733.5456	0.0039
733.7235	-0.0012
733.9015	-0.0012
734.0794	-0.0005
734.2574	0.0009
734.4353	-0.0049
734.6131	0.0064
734.791	0.0049
734.9689	0.0061
735.1467	0.0014
735.3245	-0.0134
735.5023	-0.0107
735.68	-0.0015
735.8578	0.0061
736.0355	-0.0205
736.2132	-0.0119
736.3909	-0.0047
736.5686	-0.0095
736.7463	0.0023
736.9239	-0.0108
737.1015	-0.0176
737.2791	0.0007
737.4567	0.0108
737.6343	-0.0146
737.8118	0.0005
737.9894	0.0006
738.1669	-0.0074
738.3444	-0.0061
738.5218	0.0052
738.6993	-0.004
738.8767	-0.0005
739.0541	0.0083
739.2315	-0.007
739.4089	0.0071
739.5863	0.0032
739.7636	-0.0104
739.9409	-0.0132
740.1182	0.0035
740.2955	-0.0006
740.4728	-0.0024
740.65	-0.0069
740.8272	0.002
741.0044	-0.0111
741.1816	-0.0004
741.3588	-0.0043
741.5359	0.003
741.7131	-0.0131
741.8902	-0.0079
742.0673	0.0028
742.2444	-0.0112
742.4214	-0.0079
742.5985	0.0001
742.7755	-0.0059
742.9525	-0.0113
743.1295	0.0026
743.3064	-0.0045
743.4834	0.0005
743.6603	-0.0041
743.8372	-0.0127
744.0141	-0.0006
744.191	0.0041
744.3678	-0.0043
744.5446	-0.0007
744.7215	0.0054
744.8982	-0.0058
745.075	-0.0125
745.2518	0.0041
745.4285	-0.011
745.6052	-0.0103
745.7819	-0.0137
745.9586	-0.0162
746.1353	-0.0143
746.3119	-0.0158
746.4885	-0.0199
746.6651	-0.0131
746.8417	-0.0155
747.0183	-0.0063
747.1948	-0.0155
747.3714	-0.0147
747.5479	-0.0062
747.7244	-0.0121
747.9008	-0.0021
748.0773	-0.0064
748.2537	-0.0042
748.4301	-0.0187
748.6065	-0.0107
748.7829	0.0028
748.9593	-0.0157
749.1356	-0.0026
749.3119	0.0037
749.4882	-0.015
749.6645	-0.0018
749.8408	-0.0162
750.017	-0.0128
750.1933	0.0026
750.3695	-0.0081
750.5457	-0.0015
750.7218	-0.0015
750.898	-0.0047
751.0741	-0.0108
751.2502	-0.0067
751.4263	-0.0028
751.6024	-0.005
751.7784	-0.0048
751.9545	-0.0129
752.1305	-0.0088
752.3065	-0.0085
752.4825	-0.0063
752.6584	-0.0109
752.8344	-0.0151
753.0103	-0.0177
753.1862	-0.0186
753.3621	-0.0088
753.5379	-0.0148
753.7138	-0.0071
753.8896	-0.0059
754.0654	0.0042
754.2412	-0.0016
754.417	0.0033
754.5927	-0.0123
754.7685	-0.005
754.9442	0.0014
755.1199	0.0052
755.2956	0.0047
755.4712	0.0061
755.6469	0.0088
755.8225	-0.0001
755.9981	-0.0021
756.1736	0.0056
756.3492	-0.0014
756.5248	0.0016
756.7003	-0.0009
756.8758	0.0116
757.0513	-0.0072
757.2267	-0.0008
757.4022	-0.0011
757.5776	-0.0088
757.753	-0.0019
757.9284	0.001
758.1038	0.0047
758.2791	-0.0066
758.4545	-0.0106
758.6298	-0.0033
758.8051	0.0032
758.9803	-0.0068
759.1556	-0.0041
759.3308	-0.0148
759.506	0.0088
759.6812	-0.0066
759.8564	0.0041
760.0316	-0.0005
760.2067	0.0071
760.3819	0.0098
760.557	0.0057
760.732	-0.0037
760.9071	-0.0087
761.0821	0.0034
761.2572	0.0072
761.4322	-0.0075
761.6072	0.0047
761.7821	-0.0032
761.9571	-0.0011
762.132	-0.011
762.3069	-0.02
762.4818	-0.0087
762.6567	-0.014
762.8316	-0.0013
763.0064	-0.0175
763.1812	-0.0119
763.356	-0.0175
763.5308	-0.0163
763.7055	-0.0035
763.8803	-0.0231
764.055	-0.0012
764.2297	-0.0101
764.4044	-0.0081
764.579	-0.0069
764.7537	-0.0208
764.9283	-0.005
765.1029	-0.0166
765.2775	-0.0125
765.4521	-0.0195
765.6266	-0.0107
765.8011	-0.0201
765.9756	-0.0005
766.1501	0.0019
766.3246	-0.0123
766.4991	-0.007
766.6735	-0.0007
766.8479	-0.008
767.0223	0.0027
767.1967	-0.0147
767.371	-0.0046
767.5454	-0.0096
767.7197	-0.0118
767.894	-0.007
768.0683	-0.0138
768.2425	-0.0053
768.4168	-0.0038
768.591	-0.0032
768.7652	-0.0106
768.9394	-0.0088
769.1135	-0.0111
769.2877	-0.0106
769.4618	-0.01
769.6359	-0.0147
769.81	0.0073
769.984	-0.0085
770.1581	-0.0165
770.3321	-0.0031
770.5061	-0.0031
770.6801	-0.0039
770.8541	-0.0032
771.028	0.001
771.202	-0.025
771.3759	-0.0023
771.5498	-0.0074
771.7236	-0.0061
771.8975	-0.0017
772.0713	0.0007
772.2451	-0.0043
772.4189	0
772.5927	-0.0004
772.7665	0.0054
772.9402	-0.0057
773.1139	-0.0083
773.2876	-0.0105
773.4613	-0.0069
773.635	-0.0002
773.8086	-0.0133
773.9822	-0.0072
774.1558	-0.0028
774.3294	-0.023
774.503	-0.0083
774.6765	-0.0066
774.8501	0.0019
775.0236	0.0003
775.1971	0.0037
775.3705	-0.0165
775.544	-0.0038
775.7174	-0.0126
775.8908	-0.006
776.0642	-0.0007
776.2376	-0.0102
776.4109	-0.0157
776.5843	-0.0053
776.7576	0.0035
776.9309	0.0001
777.1041	0.0005
777.2774	0.005
777.4506	-0.0066
777.6238	-0.0109
777.797	-0.0034
777.9702	0.0081
778.1434	-0.0054
778.3165	-0.008
778.4896	-0.0097
778.6627	0.0116
778.8358	-0.0021
779.0089	-0.0105
779.1819	-0.0032
779.3549	0.0137
779.5279	-0.002
779.7009	-0.0016
779.8739	0.003
780.0468	-0.0064
780.2197	-0.011
780.3926	-0.0068
780.5655	-0.0073
780.7384	-0.0021
780.9112	-0.0027
781.0841	-0.011
781.2569	-0.0021
781.4297	-0.0061
781.6024	0.0006
781.7752	0.0048
781.9479	-0.0006
782.1206	-0.0101
782.2933	-0.0236
782.466	-0.0074
782.6386	0.0045
782.8113	-0.0083
782.9839	0.0001
783.1565	0.0085
783.329	0
783.5016	-0.0071
783.6741	0.0045
783.8466	-0.0111
784.0191	-0.0012
784.1916	-0.0085
784.3641	0.0046
784.5365	0.0073
784.7089	-0.014
784.8813	-0.0065
785.0537	-0.0011
785.2261	-0.0009
785.3984	-0.0107
785.5707	-0.0037
785.743	0.0056
785.9153	-0.0214
786.0876	0.007
786.2598	-0.0046
786.432	-0.0217
786.6042	-0.0126
786.7764	-0.0122
786.9486	-0.0132
787.1207	-0.0287
787.2928	-0.0029
787.4649	-0.0008
787.637	-0.0061
787.8091	-0.0082
787.9811	-0.0055
788.1532	-0.012
788.3252	-0.0093
788.4972	-0.0065
788.6691	-0.0091
788.8411	0.0015
789.013	-0.0113
789.1849	-0.0078
789.3568	-0.0104
789.5287	-0.0219
789.7005	0.0002
789.8723	-0.0006
790.0442	-0.0108
790.2159	-0.0007
790.3877	-0.0033
790.5595	-0.023
790.7312	-0.0048
790.9029	0.0009
791.0746	-0.0121
791.2463	0.0096
791.4179	0.0048
791.5896	-0.0122
791.7612	0.0033
791.9328	-0.007
792.1044	-0.0016
792.2759	-0.02
792.4474	-0.0158
792.619	-0.0052
792.7905	-0.0001
792.9619	0.0034
793.1334	-0.0032
793.3048	0.0057
793.4762	0.0017
793.6476	0.0176
793.819	-0.0031
793.9904	-0.0036
794.1617	-0.0192
794.333	-0.0076
794.5043	-0.0156
794.6756	-0.0109
794.8469	-0.0119
795.0181	-0.0092
795.1893	0.0012
795.3605	0.0195
795.5317	-0.0044
795.7029	-0.0097
795.874	0.0034
796.0452	-0.0021
796.2163	-0.0098
796.3873	0.019
796.5584	0.0007
796.7294	-0.0077
796.9005	0.0032
797.0715	0.0019
797.2425	-0.0287
797.4134	0.0026
797.5844	-0.0036
797.7553	-0.0168
797.9262	-0.0149
798.0971	-0.0064
798.2679	-0.0199
798.4388	-0.0148
798.6096	-0.0062
798.7804	-0.0022
798.9512	0.0006
799.122	-0.0149
799.2927	-0.0032
799.4635	0.0172
799.6342	-0.0242
799.8049	-0.0186
799.9755	-0.0051
800.1462	-0.0135
800.3168	0.0102
800.4874	-0.0142
800.658	0.0052
800.8286	0.0073
800.9991	0.0161
801.1696	0.0008
801.3402	0.0111
801.5106	-0.001
801.6811	-0.0014
801.8516	0.0147
802.022	-0.0053
802.1924	0.0047
802.3628	-0.002
802.5332	0.0035
802.7035	0.0058
802.8739	-0.0094
803.0442	-0.0109
803.2145	0.0031
803.3847	-0.0282
803.555	-0.001
803.7252	-0.0117
803.8954	-0.0184
804.0656	-0.0213
804.2358	-0.0152
804.4059	-0.0021
804.5761	0.0067
804.7462	-0.0102
804.9163	0.0015
805.0864	-0.0071
805.2564	0.0016
805.4264	0.0047
805.5965	-0.0106
805.7665	0.0037
805.9364	-0.0035
806.1064	0.0164
806.2763	-0.0019
806.4462	-0.0116
806.6161	-0.0006
806.786	0.0066
806.9559	-0.019
807.1257	-0.0007
807.2955	-0.0094
807.4653	-0.011
807.6351	-0.0128
807.8048	-0.0072
807.9746	-0.0082
808.1443	-0.007
808.314	-0.0007
808.4837	-0.0121
808.6533	-0.0184
808.8229	0.0162
808.9926	-0.0245
809.1622	-0.0038
809.3317	-0.0126
809.5013	-0.002
809.6708	0.0106
809.8403	-0.0119
810.0098	-0.003
810.1793	0.0082
810.3488	0.0005
810.5182	-0.0044
810.6876	0.0036
810.857	-0.0239
811.0264	0.001
811.1958	-0.0129
811.3651	0.0037
811.5344	-0.0044
811.7037	-0.0225
811.873	-0.0149
812.0422	-0.0109
812.2115	-0.004
812.3807	-0.0157
812.5499	0.0126
812.7191	0.0027
812.8882	-0.0037
813.0574	-0.017
813.2265	-0.0112
813.3956	0.0003
813.5646	0.007
813.7337	-0.0137
813.9027	-0.0002
814.0718	0.0176
814.2407	0.0046
814.4097	-0.0254
814.5787	-0.0063
814.7476	-0.002
814.9165	-0.0161
815.0854	-0.0191
815.2543	-0.0088
815.4232	-0.0328
815.592	-0.0097
815.7608	-0.0061
815.9296	0.0092
816.0984	0.0192
816.2671	-0.0035
816.4359	-0.0039
816.6046	-0.0162
816.7733	-0.0332
816.942	-0.0327
817.1106	0.0043
817.2793	0.007
817.4479	-0.0091
817.6165	0.0013
817.785	-0.0191
817.9536	-0.0421
818.1221	-0.0142
818.2906	0.0036
818.4591	-0.0154
818.6276	-0.0335
818.7961	-0.0168
818.9645	-0.0013
819.1329	-0.002
819.3013	0.011
819.4697	0.0297
819.638	-0.002
819.8064	-0.002
819.9747	-0.0079
820.143	-0.0007
820.3113	-0.0047
820.4795	0.0018
820.6477	0.013
820.816	0.0074
820.9842	0.0084
821.1523	0.0139
821.3205	-0.0132
821.4886	-0.017
821.6567	-0.0123
821.8248	-0.001
821.9929	0.0274
822.1609	0.0049
822.329	0.0146
822.497	0.0302
822.665	-0.014
822.833	-0.017
823.0009	0.0091
823.1688	0.0099
823.3367	0.0109
823.5046	0.0133
823.6725	0.038
823.8404	0.0016
824.0082	-0.0127
824.176	0.0252
824.3438	0.0216
824.5116	0.0076
824.6793	-0.0041
824.847	-0.0322
825.0147	-0.0029
825.1824	0.0241
825.3501	0.0324
825.5177	-0.0254
825.6854	-0.0239
825.853	-0.0074
826.0206	-0.043
826.1881	0.0079
826.3557	-0.0198
826.5232	-0.0047
826.6907	-0.0058
826.8582	-0.0254
827.0257	-0.035
827.1931	-0.0133
827.3605	-0.0489
827.528	-0.0146
827.6953	-0.0146
827.8627	-0.0097
828.03	0.0055
828.1974	-0.025
828.3647	-0.0337
828.532	-0.0286
828.6992	-0.0044
828.8665	0.0015
829.0337	-0.0264
829.2009	0.0174
829.3681	0.0021
829.5352	0.0148
829.7024	-0.024
829.8695	-0.0234
830.0366	0.0594
830.2037	-0.003
830.3707	0.0312
830.5378	-0.0068
830.7048	0.0156
830.8718	0.0241
831.0388	-0.0207
831.2057	0.0125
831.3727	0.023
831.5396	-0.0112
831.7065	-0.0163
831.8734	-0.0085
832.0402	-0.0315
832.2071	0.0017
832.3739	-0.0267
832.5407	0.0006
832.7075	-0.0348
832.8742	-0.0313
833.041	-0.052
833.2077	0.0219
833.3744	0.0144
833.541	0.0117
833.7077	-0.0171
833.8743	-0.0303
834.0409	-0.0429
834.2075	-0.0246
834.3741	-0.0343
834.5407	-0.0149
834.7072	-0.0137
834.8737	-0.0213
835.0402	-0.0053
835.2067	0.0237
835.3731	0.0001
835.5395	-0.0044
835.706	-0.0158
835.8723	-0.0196
836.0387	-0.0013
836.2051	-0.015
836.3714	-0.0101
836.5377	0.0035
836.704	-0.014
836.8703	-0.0173
837.0365	-0.0192
837.2027	-0.0348
837.3689	0.0229
837.5351	-0.0029
837.7013	-0.0458
837.8674	-0.094
838.0335	-0.0183
838.1997	-0.0418
838.3657	-0.0988
838.5318	-0.0136
838.6978	0.033
838.8639	0.0068
839.0299	-0.0042
839.1958	-0.0323
839.3618	0.0087
839.5277	-0.0576
839.6937	-0.0401
839.8596	-0.0151
840.0254	0.05
840.1913	-0.0153
840.3571	0.0054
840.523	-0.0136
840.6888	0.002
840.8545	-0.0297
841.0203	-0.0352
841.186	0.0238
841.3517	0.0709
841.5174	0.0116
841.6831	0.0058
841.8488	-0.0563
842.0144	0.0363
842.18	0.0136
842.3456	-0.0445
842.5112	-0.0359
842.6767	-0.0058
842.8422	-0.057
843.0077	-0.0288
843.1732	-0.0657
843.3387	-0.0111
843.5042	-0.0516
843.6696	0.0111
843.835	-0.021
844.0004	0.023
844.1657	-0.0224
844.3311	-0.0477
844.4964	-0.0423
844.6617	-0.0131
844.827	-0.0057
844.9923	0.0421
845.1575	-0.0219
845.3227	-0.0612
845.4879	0.0161
845.6531	-0.061
845.8183	-0.0955
845.9834	-0.0593
846.1485	-0.0443
846.3136	-0.0602
846.4787	-0.1153
846.6438	0.0297
846.8088	-0.0732
846.9738	-0.0347
847.1388	0.0203
847.3038	-0.0147
847.4687	-0.2162
847.6337	0.0159
847.7986	0.0082
847.9635	-0.0379
848.1284	0.0182
848.2932	0.0544
848.458	-0.0572
848.6228	-0.0255
848.7876	0.0886
848.9524	-0.109
849.1172	-0.0953
849.2819	0.035
849.4466	-0.109
849.6113	-0.0392
849.7759	-0.0665
849.9406	-0.0695
850.1052	0.0184
850.2698	-0.1054
850.4344	-0.0721
850.599	-0.0692
850.7635	0.0254
850.928	-0.0849
851.0925	-0.0168
851.257	0.041
851.4215	-0.0118
851.5859	0.0392
851.7503	-0.0014
851.9147	0.0361
852.0791	-0.0208
852.2434	0.0235
852.4078	0.0068
852.5721	0.0934
852.7364	0.0253
852.9007	-0.2023
853.0649	0.0286
853.2291	-0.0559
853.3934	-0.0089
853.5575	0.0596
853.7217	-0.1092
853.8859	-0.2367
854.05	-0.0945
854.2141	-0.0535
854.3782	-0.0246
854.5423	-0.0603
854.7063	0.0394
854.8703	0.0594
855.0343	-0.163
855.1983	-0.1174
855.3623	0.0379
855.5262	0.0816
855.6901	-0.0046
855.854	-0.0632
856.0179	-0.0064
856.1818	0.0528
856.3456	-0.0131
856.5094	-0.1085
856.6732	-0.0084
856.837	-0.014
857.0008	-0.0553
857.1645	-0.0458
857.3282	0.0785
857.4919	-0.0621
857.6556	0.0433
857.8192	-0.0805
857.9828	0.0676
858.1465	0.0043
858.31	-0.2447
858.4736	-0.0984
858.6372	-0.2963
858.8007	-0.1181
858.9642	-0.1222
859.1277	0.1214
859.2911	0.0004
859.4546	0.0549
859.618	-0.4511
859.7814	-0.0535
859.9448	0.0047
860.1081	-0.1348
860.2715	0.1866
860.4348	0.0393
860.5981	-0.0358
860.7614	0.1058
860.9246	-0.17
861.0879	-0.1156
861.2511	0.0456
861.4143	-0.3986
861.5774	0.0731
861.7406	-0.263
861.9037	-0.0591
862.0668	-0.1686
862.2299	-0.1296
862.393	-0.4351
862.556	0.0765
862.7191	-0.3698
862.8821	-0.1995
863.0451	0.4202
863.208	0.0828
863.371	-0.0847
863.5339	-0.2821
863.6968	0.4128
863.8597	-0
864.0225	0.0442
864.1854	0.4255
864.3482	0.0947
864.511	-0.021
864.6737	-0.025
864.8365	-0.105
864.9992	-0.2716
865.1619	-0.1817
865.3246	0.4349
865.4873	0.1523
865.65	-0.5049
865.8126	0.4177
865.9752	-0.0602
866.1378	-0.2935
866.3004	-0.1093
866.4629	0.4219
866.6254	-0.4121
866.7879	0.5381
866.9504	-0.3345
867.1129	-0
867.2753	0.0939
867.4377	0.0504
867.6001	-0.3225
867.7625	0.13
867.9249	-0.6571
868.0872	-0.2243
868.2495	0.1253
868.4118	-0.2913
868.5741	-0.7349
868.7363	-0.4898
868.8986	0.1426
869.0608	-0.1779
869.223	0.4078
869.3851	-0.2274
869.5473	-0
869.7094	0.1354
869.8715	-0.2781
870.0336	-1.1903
870.1957	-0.8259
870.3577	-0
870.5197	0.0275
870.6817	-0.0561
870.8437	0.0281
871.0057	-0
871.1676	0.0036
871.3295	-0.5048
871.4914	-0.8059
871.6533	-0.1702
871.8151	-0.3721
871.977	-0
872.1388	-0
872.3006	-0.2324
872.4623	-0
872.6241	0.2027
872.7858	1.1886
872.9475	-0.2792
873.1092	-0.087
873.2709	0.4323
873.4325	-0.2673
873.5941	-0
873.7557	-0
873.9173	-0
874.0789	-0.3154
874.2404	0.5366
874.4019	-0
874.5634	-0.3361
874.7249	-0.1842
874.8863	-0
875.0478	-0.1401
875.2092	-0
875.3706	1.3263
875.5319	-0.6501
875.6933	0.3205
875.8546	-0
876.0159	0.3989
876.1772	0.3164
876.3385	-0
876.4997	0.0664
876.6609	0.6936
876.8221	-0
876.9833	0.1084
877.1445	-0
877.3056	0.0856
877.4667	0.5285
877.6278	-0
877.7889	-0
877.9499	-0
878.111	-0.245
878.272	-0
878.433	0.4113
878.5939	-0
878.7549	0.0947
878.9158	-0.7793
879.0767	-0.2489
879.2376	0.5421
879.3984	-0.2985
879.5593	-0
879.7201	-0.076
879.8809	-0.8129
880.0417	-0.143
880.2024	0.1644
880.3632	-0
880.5239	0.2056
880.6846	0.9226
880.8452	-1.8228
881.0059	-0.0414
881.1665	-0.117
881.3271	0.7205
881.4877	-0.2735
881.6483	-0.3589
881.8088	-0.3653
881.9693	-0
882.1298	-0
882.2903	-0
