Data from MonoPyChalIsomerACN10uM350nmA_Absorbance_14-35-34-515.txt Node
Date: Fri Jul 05 14:35:34 BST 2024
User: LASERRRRR
Spectrometer: FLMT03099
Trigger mode: 0
Integration Time (sec): 1.000000E-1
Scans to average: 1
Electric dark correction enabled: true
Nonlinearity correction enabled: false
Boxcar width: 0
XAxis mode: Wavelengths
Number of Pixels in Spectrum: 3648
>>>>>Begin Spectral Data<<<<<
179.3399	-0.2537
179.5586	-0.2537
179.7771	-0.2537
179.9957	-0
180.2143	0.5855
180.4329	0.9749
180.6514	0.9349
180.8699	-0
181.0885	-0.1912
181.307	0.2413
181.5255	-0.8147
181.744	-0.6882
181.9625	-0
182.181	-0.7669
182.3994	0.5636
182.6179	-0
182.8363	-0
183.0547	-0.075
183.2732	0.1495
183.4916	0.2542
183.71	0.0885
183.9284	0.1515
184.1467	0.061
184.3651	-0.0722
184.5835	-0.1092
184.8018	0.8537
185.0201	-0.0214
185.2385	0.1196
185.4568	0.305
185.6751	0.1628
185.8934	0.0327
186.1117	0.0798
186.3299	-0.0161
186.5482	0.3783
186.7664	-0.0473
186.9847	-0.0287
187.2029	0.1215
187.4211	0.0893
187.6393	0.6928
187.8575	0.1428
188.0757	0.2191
188.2939	0.0319
188.512	0.1578
188.7302	-0.1777
188.9483	-0.1606
189.1665	0.205
189.3846	0.2183
189.6027	0.277
189.8208	0.0367
190.0389	0.0575
190.257	0.0905
190.475	0.1685
190.6931	0.1848
190.9111	0.2489
191.1292	0.3202
191.3472	0.3712
191.5652	0.2515
191.7832	0.4856
192.0012	0.2578
192.2192	0.331
192.4371	0.4273
192.6551	0.4213
192.873	0.3957
193.091	0.3426
193.3089	0.4232
193.5268	0.3825
193.7447	0.4939
193.9626	0.4235
194.1805	0.5845
194.3984	0.7313
194.6162	0.4282
194.8341	0.4921
195.0519	0.6105
195.2697	0.7861
195.4875	0.8578
195.7054	0.6904
195.9231	0.4642
196.1409	0.5907
196.3587	0.6643
196.5765	0.5301
196.7942	0.683
197.012	0.5541
197.2297	0.7169
197.4474	0.6826
197.6651	0.6426
197.8828	0.4936
198.1005	0.5448
198.3182	0.7691
198.5358	0.795
198.7535	0.5215
198.9711	0.5753
199.1888	0.6707
199.4064	0.8146
199.624	0.619
199.8416	0.5863
200.0592	0.6119
200.2767	0.6327
200.4943	0.7093
200.7119	0.7321
200.9294	0.7841
201.1469	0.6214
201.3645	0.5495
201.582	0.5943
201.7995	0.5875
202.017	0.551
202.2344	0.6389
202.4519	0.6757
202.6694	0.653
202.8868	0.5875
203.1042	0.6189
203.3217	0.7367
203.5391	0.5678
203.7565	0.6402
203.9739	0.6209
204.1913	0.6413
204.4086	0.642
204.626	0.6199
204.8433	0.6433
205.0607	0.5902
205.278	0.6595
205.4953	0.6514
205.7126	0.6266
205.9299	0.7714
206.1472	0.7553
206.3644	0.6752
206.5817	0.6258
206.7989	0.6981
207.0162	0.63
207.2334	0.6952
207.4506	0.6314
207.6678	0.638
207.885	0.6469
208.1022	0.6761
208.3194	0.6556
208.5365	0.631
208.7537	0.6593
208.9708	0.5301
209.1879	0.649
209.405	0.7035
209.6222	0.7976
209.8392	0.6882
210.0563	0.6076
210.2734	0.7079
210.4905	0.6297
210.7075	0.6622
210.9245	0.616
211.1416	0.7012
211.3586	0.6141
211.5756	0.6022
211.7926	0.6212
212.0096	0.6082
212.2265	0.5457
212.4435	0.5617
212.6604	0.593
212.8774	0.5855
213.0943	0.5959
213.3112	0.5323
213.5281	0.4859
213.745	0.4739
213.9619	0.5277
214.1788	0.5095
214.3956	0.4332
214.6125	0.5175
214.8293	0.4338
215.0461	0.4722
215.2629	0.4547
215.4798	0.4457
215.6965	0.4108
215.9133	0.4493
216.1301	0.3845
216.3469	0.465
216.5636	0.4269
216.7803	0.3896
216.9971	0.4098
217.2138	0.3589
217.4305	0.3848
217.6472	0.3728
217.8639	0.3875
218.0805	0.3562
218.2972	0.3136
218.5138	0.327
218.7305	0.3195
218.9471	0.295
219.1637	0.2964
219.3803	0.2943
219.5969	0.303
219.8135	0.2344
220.0301	0.2663
220.2466	0.2564
220.4632	0.2442
220.6797	0.2519
220.8962	0.2449
221.1127	0.2553
221.3292	0.2493
221.5457	0.2443
221.7622	0.2378
221.9787	0.2795
222.1951	0.2214
222.4116	0.2799
222.628	0.2504
222.8444	0.2516
223.0608	0.2561
223.2772	0.2582
223.4936	0.2811
223.71	0.2515
223.9264	0.2588
224.1427	0.2347
224.3591	0.2399
224.5754	0.2498
224.7917	0.2455
225.008	0.2704
225.2243	0.2605
225.4406	0.2875
225.6569	0.2646
225.8732	0.271
226.0894	0.2763
226.3057	0.2655
226.5219	0.2838
226.7381	0.2767
226.9543	0.2942
227.1705	0.2719
227.3867	0.2847
227.6029	0.2844
227.8191	0.2941
228.0352	0.2995
228.2513	0.3193
228.4675	0.3194
228.6836	0.3102
228.8997	0.2901
229.1158	0.3157
229.3319	0.3189
229.548	0.3049
229.764	0.3291
229.9801	0.3291
230.1961	0.3228
230.4121	0.3424
230.6282	0.3452
230.8442	0.3177
231.0602	0.3452
231.2761	0.3373
231.4921	0.3319
231.7081	0.3524
231.924	0.3453
232.14	0.3464
232.3559	0.3458
232.5718	0.3726
232.7877	0.3516
233.0036	0.35
233.2195	0.3557
233.4353	0.3419
233.6512	0.3578
233.867	0.3657
234.0829	0.3571
234.2987	0.3694
234.5145	0.3725
234.7303	0.3689
234.9461	0.3949
235.1619	0.3738
235.3776	0.3912
235.5934	0.3993
235.8091	0.3755
236.0249	0.3886
236.2406	0.3753
236.4563	0.3651
236.672	0.3912
236.8877	0.3764
237.1034	0.4046
237.319	0.3958
237.5347	0.4245
237.7503	0.3891
237.966	0.407
238.1816	0.4075
238.3972	0.4102
238.6128	0.4014
238.8284	0.4196
239.0439	0.3886
239.2595	0.4015
239.475	0.4161
239.6906	0.4136
239.9061	0.4003
240.1216	0.3939
240.3371	0.4057
240.5526	0.3882
240.7681	0.4041
240.9836	0.3832
241.199	0.3973
241.4145	0.3835
241.6299	0.3787
241.8453	0.3923
242.0607	0.3942
242.2761	0.372
242.4915	0.3672
242.7069	0.3603
242.9223	0.3531
243.1376	0.3526
243.353	0.3476
243.5683	0.3514
243.7836	0.3176
243.9989	0.3295
244.2142	0.3034
244.4295	0.3124
244.6448	0.3127
244.86	0.2993
245.0753	0.286
245.2905	0.2763
245.5057	0.2809
245.721	0.2572
245.9362	0.2637
246.1514	0.2838
246.3665	0.2575
246.5817	0.2454
246.7969	0.2483
247.012	0.2372
247.2271	0.2396
247.4423	0.2411
247.6574	0.2391
247.8725	0.2243
248.0876	0.2174
248.3026	0.2182
248.5177	0.2208
248.7328	0.2178
248.9478	0.2037
249.1628	0.2136
249.3779	0.2189
249.5929	0.2007
249.8079	0.2207
250.0228	0.1907
250.2378	0.2115
250.4528	0.2036
250.6677	0.1877
250.8827	0.1876
251.0976	0.2047
251.3125	0.1969
251.5274	0.1744
251.7423	0.1861
251.9572	0.1791
252.172	0.186
252.3869	0.1956
252.6017	0.1735
252.8166	0.168
253.0314	0.171
253.2462	0.1653
253.461	0.1671
253.6758	0.1617
253.8906	0.1819
254.1053	0.1696
254.3201	0.1639
254.5348	0.1742
254.7496	0.1808
254.9643	0.1691
255.179	0.1722
255.3937	0.1559
255.6083	0.1695
255.823	0.1606
256.0377	0.16
256.2523	0.1656
256.467	0.1609
256.6816	0.175
256.8962	0.1678
257.1108	0.1651
257.3254	0.1735
257.54	0.163
257.7545	0.1691
257.9691	0.174
258.1836	0.1692
258.3981	0.1755
258.6127	0.18
258.8272	0.1616
259.0417	0.1583
259.2561	0.1558
259.4706	0.1657
259.6851	0.1646
259.8995	0.1595
260.114	0.1612
260.3284	0.1527
260.5428	0.1597
260.7572	0.1732
260.9716	0.1615
261.186	0.1605
261.4003	0.1675
261.6147	0.1671
261.829	0.1692
262.0433	0.1575
262.2577	0.155
262.472	0.154
262.6863	0.1568
262.9005	0.1673
263.1148	0.1538
263.3291	0.14
263.5433	0.1582
263.7576	0.1646
263.9718	0.159
264.186	0.1521
264.4002	0.1533
264.6144	0.1589
264.8286	0.1536
265.0427	0.1579
265.2569	0.1752
265.471	0.1457
265.6851	0.1632
265.8993	0.1484
266.1134	0.1618
266.3275	0.1506
266.5415	0.1455
266.7556	0.171
266.9697	0.1594
267.1837	0.1524
267.3978	0.1594
267.6118	0.1873
267.8258	0.1726
268.0398	0.149
268.2538	0.1763
268.4677	0.1638
268.6817	0.1573
268.8957	0.1575
269.1096	0.1644
269.3235	0.1691
269.5374	0.1515
269.7514	0.1396
269.9652	0.1576
270.1791	0.1553
270.393	0.1472
270.6068	0.1652
270.8207	0.1447
271.0345	0.1422
271.2483	0.1455
271.4622	0.1498
271.676	0.149
271.8897	0.1419
272.1035	0.1294
272.3173	0.138
272.531	0.142
272.7448	0.1337
272.9585	0.1382
273.1722	0.1359
273.3859	0.147
273.5996	0.1313
273.8133	0.1496
274.0269	0.1375
274.2406	0.1331
274.4542	0.1298
274.6679	0.1373
274.8815	0.1341
275.0951	0.1394
275.3087	0.1465
275.5223	0.1495
275.7358	0.1516
275.9494	0.1504
276.1629	0.1349
276.3765	0.1447
276.59	0.1423
276.8035	0.1443
277.017	0.1453
277.2305	0.1453
277.444	0.1552
277.6574	0.1435
277.8709	0.1402
278.0843	0.141
278.2978	0.1364
278.5112	0.1417
278.7246	0.1371
278.938	0.1434
279.1513	0.1473
279.3647	0.1495
279.5781	0.1495
279.7914	0.1436
280.0047	0.1609
280.2181	0.1544
280.4314	0.1487
280.6447	0.1511
280.8579	0.1521
281.0712	0.1341
281.2845	0.1478
281.4977	0.1541
281.711	0.1451
281.9242	0.1425
282.1374	0.1493
282.3506	0.1572
282.5638	0.1537
282.7769	0.1645
282.9901	0.1452
283.2033	0.1521
283.4164	0.152
283.6295	0.1477
283.8426	0.1493
284.0557	0.1584
284.2688	0.162
284.4819	0.1531
284.695	0.1505
284.908	0.1654
285.1211	0.1527
285.3341	0.1608
285.5471	0.1715
285.7601	0.1496
285.9731	0.1514
286.1861	0.1557
286.3991	0.1576
286.612	0.1643
286.825	0.1599
287.0379	0.1707
287.2508	0.1527
287.4637	0.1563
287.6766	0.1532
287.8895	0.1608
288.1024	0.173
288.3152	0.1653
288.5281	0.151
288.7409	0.1609
288.9538	0.1681
289.1666	0.1604
289.3794	0.1681
289.5922	0.1585
289.8049	0.1598
290.0177	0.1603
290.2304	0.1622
290.4432	0.1659
290.6559	0.1667
290.8686	0.1734
291.0813	0.156
291.294	0.1672
291.5067	0.175
291.7194	0.165
291.932	0.1758
292.1447	0.1628
292.3573	0.1644
292.5699	0.1688
292.7825	0.1755
292.9951	0.1631
293.2077	0.1708
293.4203	0.1722
293.6328	0.16
293.8454	0.1665
294.0579	0.1705
294.2704	0.1807
294.4829	0.1574
294.6954	0.1744
294.9079	0.1606
295.1204	0.1662
295.3328	0.1619
295.5453	0.165
295.7577	0.1662
295.9701	0.167
296.1825	0.1627
296.3949	0.1671
296.6073	0.1678
296.8197	0.1597
297.0321	0.1795
297.2444	0.1516
297.4567	0.1682
297.6691	0.1747
297.8814	0.1556
298.0937	0.1674
298.306	0.1677
298.5182	0.1589
298.7305	0.1621
298.9428	0.1535
299.155	0.1763
299.3672	0.1694
299.5794	0.1665
299.7916	0.1609
300.0038	0.1664
300.216	0.1649
300.4282	0.1728
300.6403	0.1618
300.8525	0.1726
301.0646	0.154
301.2767	0.1703
301.4888	0.1495
301.7009	0.1722
301.913	0.1667
302.125	0.1622
302.3371	0.1606
302.5491	0.1568
302.7612	0.1573
302.9732	0.1715
303.1852	0.1775
303.3972	0.1675
303.6092	0.1606
303.8211	0.1478
304.0331	0.1585
304.245	0.1647
304.457	0.1593
304.6689	0.159
304.8808	0.1711
305.0927	0.1547
305.3046	0.1606
305.5164	0.1629
305.7283	0.164
305.9401	0.1505
306.152	0.1404
306.3638	0.1569
306.5756	0.1513
306.7874	0.1531
306.9992	0.1494
307.2109	0.1359
307.4227	0.1241
307.6344	0.1358
307.8462	0.1447
308.0579	0.1392
308.2696	0.1424
308.4813	0.1323
308.693	0.14
308.9046	0.1373
309.1163	0.1317
309.328	0.1387
309.5396	0.1157
309.7512	0.1296
309.9628	0.1196
310.1744	0.1111
310.386	0.1158
310.5976	0.1153
310.8091	0.1245
311.0207	0.1093
311.2322	0.1213
311.4437	0.1092
311.6552	0.1113
311.8667	0.1111
312.0782	0.1032
312.2897	0.1079
312.5012	0.108
312.7126	0.1005
312.924	0.0996
313.1355	0.1034
313.3469	0.1119
313.5583	0.1069
313.7696	0.1074
313.981	0.1138
314.1924	0.0962
314.4037	0.0991
314.6151	0.1067
314.8264	0.1061
315.0377	0.106
315.249	0.1047
315.4603	0.1088
315.6716	0.0989
315.8828	0.0955
316.0941	0.0946
316.3053	0.0888
316.5165	0.0901
316.7277	0.0965
316.9389	0.1101
317.1501	0.0927
317.3613	0.1027
317.5724	0.0894
317.7836	0.0921
317.9947	0.0955
318.2058	0.0872
318.417	0.087
318.6281	0.0897
318.8391	0.0997
319.0502	0.0927
319.2613	0.0983
319.4723	0.0986
319.6834	0.1018
319.8944	0.0904
320.1054	0.1035
320.3164	0.0905
320.5274	0.0944
320.7383	0.0987
320.9493	0.1043
321.1602	0.0987
321.3712	0.0892
321.5821	0.0992
321.793	0.1025
322.0039	0.0905
322.2148	0.0898
322.4257	0.0931
322.6365	0.1098
322.8474	0.1143
323.0582	0.0948
323.269	0.1078
323.4798	0.1122
323.6906	0.0906
323.9014	0.1106
324.1122	0.1036
324.3229	0.1023
324.5337	0.1084
324.7444	0.0918
324.9551	0.1057
325.1658	0.0972
325.3765	0.1209
325.5872	0.0922
325.7979	0.0989
326.0085	0.103
326.2192	0.1148
326.4298	0.1078
326.6404	0.0936
326.851	0.0996
327.0616	0.0946
327.2722	0.1099
327.4828	0.1127
327.6933	0.0975
327.9039	0.1006
328.1144	0.1086
328.3249	0.1028
328.5354	0.092
328.7459	0.1048
328.9564	0.0858
329.1669	0.0994
329.3773	0.1024
329.5878	0.1167
329.7982	0.1064
330.0086	0.0906
330.219	0.1147
330.4294	0.1108
330.6398	0.1001
330.8502	0.102
331.0605	0.1153
331.2708	0.1145
331.4812	0.1067
331.6915	0.1161
331.9018	0.1061
332.1121	0.1006
332.3224	0.096
332.5326	0.1065
332.7429	0.1055
332.9531	0.1091
333.1633	0.113
333.3735	0.1057
333.5837	0.1101
333.7939	0.1032
334.0041	0.1151
334.2143	0.1145
334.4244	0.1072
334.6346	0.0749
334.8447	0.1276
335.0548	0.1065
335.2649	0.0843
335.475	0.1077
335.685	0.1179
335.8951	0.1176
336.1051	0.1138
336.3152	0.1231
336.5252	0.106
336.7352	0.1062
336.9452	0.1101
337.1552	0.1138
337.3652	0.0999
337.5751	0.1127
337.7851	0.1182
337.995	0.105
338.2049	0.1063
338.4148	0.1133
338.6247	0.1166
338.8346	0.0951
339.0445	0.103
339.2543	0.1095
339.4642	0.1107
339.674	0.1068
339.8838	0.1127
340.0936	0.1044
340.3034	0.1353
340.5132	0.116
340.7229	0.1166
340.9327	0.0992
341.1424	0.1134
341.3522	0.1286
341.5619	0.1184
341.7716	0.1179
341.9813	0.1112
342.1909	0.1229
342.4006	0.1431
342.6102	0.119
342.8199	0.1188
343.0295	0.1232
343.2391	0.1229
343.4487	0.1215
343.6583	0.126
343.8679	0.1193
344.0774	0.1239
344.287	0.1246
344.4965	0.1295
344.706	0.121
344.9155	0.1139
345.125	0.1222
345.3345	0.1309
345.544	0.1217
345.7534	0.1279
345.9629	0.1234
346.1723	0.122
346.3817	0.1222
346.5911	0.1252
346.8005	0.1396
347.0099	0.1222
347.2193	0.1387
347.4286	0.1209
347.638	0.1339
347.8473	0.1382
348.0566	0.1319
348.2659	0.135
348.4752	0.1227
348.6845	0.1307
348.8937	0.1397
349.103	0.1325
349.3122	0.1277
349.5214	0.1346
349.7306	0.1411
349.9398	0.1206
350.149	0.1409
350.3582	0.122
350.5674	0.1474
350.7765	0.1457
350.9856	0.1321
351.1948	0.1368
351.4039	0.1322
351.613	0.1301
351.822	0.1379
352.0311	0.1388
352.2402	0.144
352.4492	0.1547
352.6582	0.1556
352.8672	0.1481
353.0762	0.1601
353.2852	0.152
353.4942	0.1372
353.7032	0.1493
353.9121	0.1502
354.1211	0.1579
354.33	0.1578
354.5389	0.1504
354.7478	0.1538
354.9567	0.1387
355.1655	0.1539
355.3744	0.151
355.5833	0.1646
355.7921	0.1746
356.0009	0.1561
356.2097	0.1708
356.4185	0.1595
356.6273	0.1606
356.8361	0.1571
357.0448	0.1522
357.2536	0.1544
357.4623	0.1399
357.671	0.1567
357.8797	0.165
358.0884	0.1631
358.2971	0.1662
358.5057	0.1674
358.7144	0.1699
358.923	0.162
359.1316	0.1761
359.3402	0.1537
359.5488	0.1806
359.7574	0.1542
359.966	0.1679
360.1746	0.1934
360.3831	0.1672
360.5916	0.1674
360.8002	0.1619
361.0087	0.1771
361.2172	0.1745
361.4256	0.1707
361.6341	0.1909
361.8426	0.2061
362.051	0.1842
362.2594	0.1905
362.4678	0.1797
362.6762	0.1953
362.8846	0.1812
363.093	0.1722
363.3014	0.1755
363.5097	0.1732
363.718	0.1799
363.9264	0.1943
364.1347	0.1898
364.343	0.1915
364.5513	0.2003
364.7595	0.19
364.9678	0.1952
365.176	0.1998
365.3842	0.1961
365.5925	0.2101
365.8007	0.2149
366.0089	0.2002
366.217	0.1925
366.4252	0.212
366.6333	0.2152
366.8415	0.2022
367.0496	0.2021
367.2577	0.2191
367.4658	0.2103
367.6739	0.2148
367.882	0.2181
368.09	0.2111
368.2981	0.2142
368.5061	0.2126
368.7141	0.2093
368.9221	0.2026
369.1301	0.2213
369.3381	0.2075
369.5461	0.2142
369.754	0.2138
369.962	0.2436
370.1699	0.2176
370.3778	0.2197
370.5857	0.2116
370.7936	0.2398
371.0015	0.216
371.2093	0.2239
371.4172	0.233
371.625	0.2025
371.8328	0.216
372.0406	0.2206
372.2484	0.2254
372.4562	0.2304
372.664	0.213
372.8717	0.232
373.0795	0.2145
373.2872	0.227
373.4949	0.227
373.7026	0.2399
373.9103	0.2294
374.118	0.2421
374.3256	0.229
374.5333	0.2287
374.7409	0.2247
374.9485	0.2593
375.1561	0.2408
375.3637	0.2428
375.5713	0.2277
375.7789	0.229
375.9864	0.2583
376.194	0.2339
376.4015	0.2578
376.609	0.2577
376.8165	0.2467
377.024	0.2408
377.2315	0.2301
377.4389	0.2497
377.6464	0.2624
377.8538	0.2425
378.0612	0.2394
378.2686	0.2446
378.476	0.2526
378.6834	0.2466
378.8908	0.2557
379.0981	0.2393
379.3055	0.2415
379.5128	0.2386
379.7201	0.2624
379.9274	0.2442
380.1347	0.2602
380.342	0.2591
380.5492	0.2463
380.7565	0.2483
380.9637	0.2716
381.1709	0.2438
381.3781	0.2626
381.5853	0.2548
381.7925	0.2635
381.9997	0.2664
382.2068	0.2775
382.4139	0.2618
382.6211	0.2437
382.8282	0.2634
383.0353	0.2535
383.2424	0.2689
383.4494	0.2614
383.6565	0.2659
383.8635	0.2628
384.0706	0.2592
384.2776	0.266
384.4846	0.2566
384.6916	0.2721
384.8986	0.258
385.1055	0.2766
385.3125	0.2639
385.5194	0.2422
385.7263	0.2794
385.9333	0.2485
386.1402	0.2656
386.347	0.2759
386.5539	0.2484
386.7608	0.2581
386.9676	0.2488
387.1744	0.2499
387.3813	0.251
387.5881	0.2752
387.7948	0.268
388.0016	0.2537
388.2084	0.2514
388.4151	0.2545
388.6219	0.2639
388.8286	0.2683
389.0353	0.264
389.242	0.2741
389.4487	0.2454
389.6553	0.246
389.862	0.2301
390.0686	0.2476
390.2753	0.2728
390.4819	0.2489
390.6885	0.2571
390.8951	0.2475
391.1016	0.2366
391.3082	0.2605
391.5147	0.2549
391.7213	0.2316
391.9278	0.2414
392.1343	0.2529
392.3408	0.2519
392.5473	0.2216
392.7537	0.2261
392.9602	0.2357
393.1666	0.2445
393.373	0.231
393.5794	0.245
393.7858	0.2324
393.9922	0.2279
394.1986	0.2379
394.4049	0.2374
394.6113	0.2163
394.8176	0.2018
395.0239	0.2205
395.2302	0.2399
395.4365	0.2107
395.6428	0.2298
395.8491	0.2318
396.0553	0.2267
396.2615	0.2301
396.4678	0.2219
396.674	0.2205
396.8802	0.2207
397.0863	0.2423
397.2925	0.2076
397.4987	0.2159
397.7048	0.2237
397.9109	0.2261
398.117	0.2177
398.3231	0.2098
398.5292	0.2164
398.7353	0.2396
398.9413	0.2253
399.1474	0.2207
399.3534	0.218
399.5594	0.2191
399.7654	0.2426
399.9714	0.2371
400.1774	0.2182
400.3833	0.213
400.5893	0.2179
400.7952	0.2304
401.0011	0.2244
401.207	0.221
401.4129	0.2111
401.6188	0.2204
401.8247	0.2268
402.0305	0.2069
402.2364	0.2198
402.4422	0.2295
402.648	0.2386
402.8538	0.2498
403.0596	0.2044
403.2654	0.2335
403.4711	0.216
403.6768	0.2211
403.8826	0.2192
404.0883	0.2286
404.294	0.218
404.4997	0.2238
404.7054	0.2306
404.911	0.2085
405.1167	0.2306
405.3223	0.2379
405.5279	0.2264
405.7335	0.2243
405.9391	0.23
406.1447	0.216
406.3502	0.2376
406.5558	0.2165
406.7613	0.2277
406.9668	0.2182
407.1724	0.2101
407.3778	0.2319
407.5833	0.2208
407.7888	0.2172
407.9942	0.2341
408.1997	0.2051
408.4051	0.2122
408.6105	0.225
408.8159	0.2009
409.0213	0.1965
409.2267	0.227
409.432	0.2263
409.6374	0.2229
409.8427	0.218
410.048	0.2326
410.2533	0.2044
410.4586	0.2128
410.6639	0.2007
410.8691	0.2093
411.0744	0.2253
411.2796	0.2157
411.4848	0.216
411.69	0.2147
411.8952	0.2254
412.1004	0.2068
412.3056	0.2121
412.5107	0.2125
412.7158	0.2096
412.921	0.2254
413.1261	0.2229
413.3312	0.2021
413.5362	0.2148
413.7413	0.2124
413.9464	0.2066
414.1514	0.2132
414.3564	0.2056
414.5614	0.1915
414.7664	0.2132
414.9714	0.2096
415.1764	0.2093
415.3813	0.2224
415.5863	0.2219
415.7912	0.2055
415.9961	0.2203
416.201	0.2011
416.4059	0.2297
416.6108	0.204
416.8156	0.2084
417.0205	0.2162
417.2253	0.1908
417.4301	0.2094
417.6349	0.2009
417.8397	0.208
418.0445	0.1978
418.2492	0.211
418.454	0.2092
418.6587	0.1995
418.8634	0.2125
419.0681	0.188
419.2728	0.2222
419.4775	0.2034
419.6822	0.1905
419.8868	0.1978
420.0915	0.1903
420.2961	0.2054
420.5007	0.1991
420.7053	0.2207
420.9099	0.2082
421.1144	0.199
421.319	0.1839
421.5235	0.2068
421.728	0.2061
421.9325	0.1948
422.137	0.2133
422.3415	0.206
422.546	0.198
422.7504	0.2156
422.9549	0.189
423.1593	0.2058
423.3637	0.2005
423.5681	0.1869
423.7725	0.183
423.9769	0.1777
424.1812	0.1723
424.3856	0.1688
424.5899	0.1954
424.7942	0.1801
424.9985	0.1942
425.2028	0.1597
425.4071	0.1962
425.6113	0.1797
425.8156	0.1787
426.0198	0.1874
426.224	0.1717
426.4282	0.1629
426.6324	0.1732
426.8366	0.178
427.0407	0.1756
427.2449	0.1731
427.449	0.1673
427.6531	0.1488
427.8572	0.1563
428.0613	0.1572
428.2654	0.1587
428.4694	0.1591
428.6735	0.1662
428.8775	0.1765
429.0815	0.1693
429.2855	0.1505
429.4895	0.167
429.6935	0.1745
429.8975	0.1612
430.1014	0.1397
430.3053	0.1422
430.5093	0.1564
430.7132	0.1571
430.9171	0.1433
431.1209	0.1625
431.3248	0.1551
431.5286	0.1492
431.7325	0.1532
431.9363	0.1258
432.1401	0.146
432.3439	0.1463
432.5477	0.1196
432.7514	0.1311
432.9552	0.141
433.1589	0.1144
433.3627	0.1182
433.5664	0.1324
433.7701	0.132
433.9737	0.1101
434.1774	0.109
434.3811	0.1137
434.5847	0.1271
434.7883	0.1166
434.9919	0.1164
435.1955	0.1134
435.3991	0.1111
435.6027	0.1194
435.8062	0.1076
436.0098	0.0944
436.2133	0.0905
436.4168	0.1191
436.6203	0.0997
436.8238	0.1072
437.0272	0.1139
437.2307	0.1066
437.4341	0.0989
437.6375	0.1021
437.841	0.1019
438.0443	0.1052
438.2477	0.0874
438.4511	0.0746
438.6545	0.0938
438.8578	0.1017
439.0611	0.1006
439.2644	0.0859
439.4677	0.0794
439.671	0.0895
439.8743	0.0878
440.0775	0.0968
440.2808	0.074
440.484	0.0658
440.6872	0.0746
440.8904	0.0695
441.0936	0.08
441.2967	0.0754
441.4999	0.081
441.703	0.0673
441.9062	0.0598
442.1093	0.069
442.3124	0.0671
442.5155	0.0598
442.7185	0.068
442.9216	0.042
443.1246	0.0718
443.3276	0.0644
443.5307	0.0596
443.7337	0.0722
443.9366	0.0557
444.1396	0.0541
444.3426	0.0597
444.5455	0.0694
444.7484	0.0496
444.9513	0.0549
445.1542	0.0573
445.3571	0.0511
445.56	0.0403
445.7628	0.0418
445.9657	0.0441
446.1685	0.0431
446.3713	0.045
446.5741	0.0462
446.7769	0.0339
446.9797	0.0581
447.1824	0.044
447.3852	0.039
447.5879	0.0497
447.7906	0.0426
447.9933	0.0487
448.196	0.034
448.3986	0.0317
448.6013	0.0382
448.8039	0.0173
449.0066	0.0242
449.2092	0.0487
449.4118	0.0376
449.6143	0.0273
449.8169	0.0413
450.0195	0.0295
450.222	0.0221
450.4245	0.0289
450.627	0.0317
450.8295	0.0412
451.032	0.0305
451.2345	0.0358
451.4369	0.037
451.6394	0.0288
451.8418	0.0127
452.0442	0.019
452.2466	0.0427
452.449	0.0029
452.6513	0.0339
452.8537	0.0077
453.056	0.0126
453.2583	0.0216
453.4607	0.0112
453.663	0.0132
453.8652	0.028
454.0675	0.0092
454.2697	0.0326
454.472	0.0044
454.6742	0.0251
454.8764	0.0187
455.0786	0.0225
455.2808	0.0157
455.4829	0.0175
455.6851	0.0308
455.8872	0.0161
456.0893	0.0332
456.2915	-0.0023
456.4935	0.0211
456.6956	0.0084
456.8977	0.0294
457.0997	0.0184
457.3018	-0.0009
457.5038	0.0098
457.7058	-0.0022
457.9078	-0.0001
458.1098	0.0108
458.3117	0.0125
458.5137	0.012
458.7156	0.002
458.9175	-0.0004
459.1194	-0.0057
459.3213	-0.0012
459.5232	-0.0056
459.725	0.0053
459.9269	-0.0053
460.1287	-0.0042
460.3305	0.0122
460.5323	0.0104
460.7341	0.0045
460.9359	0.0085
461.1376	0.0092
461.3394	0.0047
461.5411	0.0079
461.7428	-0.0064
461.9445	0.017
462.1462	0.0282
462.3479	0.0132
462.5495	0.0096
462.7512	0.0153
462.9528	-0.0057
463.1544	0.0009
463.356	0.0034
463.5576	0.0092
463.7592	-0.0148
463.9607	0.0029
464.1623	0.0201
464.3638	0.0265
464.5653	-0.0219
464.7668	0.0004
464.9683	0.0113
465.1697	0.0146
465.3712	0.0035
465.5726	-0.0063
465.7741	0.0056
465.9755	-0.0047
466.1769	-0.0017
466.3782	-0.001
466.5796	-0.0049
466.7809	-0.0018
466.9823	-0.0086
467.1836	0.0076
467.3849	-0.0205
467.5862	0.0102
467.7875	-0.0068
467.9887	0.0187
468.19	0.0103
468.3912	-0.0084
468.5924	-0.0084
468.7936	-0.0098
468.9948	0.0096
469.196	0.0055
469.3972	-0.0125
469.5983	-0.0019
469.7994	-0.0042
470.0006	-0.0055
470.2017	-0.0272
470.4027	-0.007
470.6038	0.0078
470.8049	-0.0085
471.0059	-0.0016
471.2069	-0.0225
471.408	0.0113
471.6089	-0.0002
471.8099	-0.0042
472.0109	0.0004
472.2119	-0.0185
472.4128	-0.025
472.6137	0.0022
472.8146	-0.0095
473.0155	0.005
473.2164	-0.0059
473.4173	-0.0031
473.6181	0.008
473.819	-0.0042
474.0198	-0.0099
474.2206	-0.0075
474.4214	-0.014
474.6222	-0.0025
474.8229	-0.0065
475.0237	-0.0245
475.2244	-0.0089
475.4251	0.0023
475.6258	-0.0051
475.8265	-0.0049
476.0272	0.008
476.2278	0.0071
476.4285	-0.0079
476.6291	-0.0117
476.8297	-0.0118
477.0303	-0.0034
477.2309	-0.006
477.4315	-0.0043
477.632	-0.008
477.8326	-0.004
478.0331	-0.0043
478.2336	0.0024
478.4341	0.0001
478.6346	-0.013
478.8351	-0.0035
479.0355	0.0068
479.236	-0.0015
479.4364	-0.0014
479.6368	-0.0152
479.8372	-0.016
480.0376	0.0013
480.2379	-0.0199
480.4383	-0.01
480.6386	0.006
480.8389	0.0002
481.0392	-0.0083
481.2395	-0.0109
481.4398	0.0098
481.6401	0.0031
481.8403	0.0043
482.0405	-0.0051
482.2408	-0.0031
482.441	0.0169
482.6411	0.0019
482.8413	0.0018
483.0415	-0.0028
483.2416	-0.008
483.4417	-0.0034
483.6419	-0.0034
483.8419	-0.0061
484.042	0.0048
484.2421	-0.0014
484.4422	0.0004
484.6422	-0.0056
484.8422	-0.0127
485.0422	-0.0111
485.2422	0.0014
485.4422	-0.011
485.6422	-0
485.8421	-0.0046
486.042	-0.0005
486.242	-0.01
486.4419	-0.0111
486.6417	-0.0052
486.8416	-0.0068
487.0415	-0.011
487.2413	-0.0116
487.4411	-0.0009
487.641	-0.0182
487.8408	-0.0003
488.0405	-0.0059
488.2403	-0.0072
488.4401	0.0053
488.6398	-0.0057
488.8395	-0.0115
489.0392	0.0058
489.2389	-0.0125
489.4386	-0.0103
489.6383	-0.0005
489.8379	0.0021
490.0376	-0.0046
490.2372	-0.0177
490.4368	-0.0043
490.6364	-0.0004
490.836	-0.0185
491.0355	-0.0059
491.2351	-0.0031
491.4346	-0.0102
491.6341	-0.009
491.8336	-0.0005
492.0331	-0.0219
492.2326	-0.006
492.432	0.0087
492.6315	-0.0047
492.8309	-0.0137
493.0303	-0.0196
493.2297	-0.012
493.4291	-0.0066
493.6284	-0.003
493.8278	-0.0024
494.0271	0.0059
494.2264	0.0083
494.4257	-0.0059
494.625	-0.0097
494.8243	-0.0154
495.0236	-0.0027
495.2228	-0.0166
495.422	0.0065
495.6213	0.0099
495.8205	-0.0066
496.0196	0.0033
496.2188	-0.0049
496.418	-0.0099
496.6171	-0.0052
496.8162	-0.009
497.0153	0.0011
497.2144	-0.0067
497.4135	0.0027
497.6126	-0.0117
497.8116	-0.0068
498.0107	0.0001
498.2097	-0.0123
498.4087	-0.009
498.6077	-0.0008
498.8067	-0.0166
499.0056	0.0103
499.2046	-0.0046
499.4035	-0.0188
499.6024	-0.0089
499.8013	0.007
500.0002	-0.0131
500.199	-0.0004
500.3979	-0.0067
500.5967	-0.0215
500.7956	-0.0053
500.9944	-0.0034
501.1932	-0.0133
501.3919	-0.009
501.5907	-0.0144
501.7895	-0.007
501.9882	-0.0043
502.1869	0.0002
502.3856	-0.0163
502.5843	-0.0044
502.783	-0.0127
502.9816	-0.0057
503.1803	-0.0155
503.3789	-0.0105
503.5775	0.0021
503.7761	-0.011
503.9747	-0
504.1732	-0.0075
504.3718	-0.001
504.5703	-0.0075
504.7689	-0.0152
504.9674	-0.0063
505.1658	-0.0144
505.3643	-0.0172
505.5628	-0.012
505.7612	-0.0094
505.9597	0
506.1581	-0.0119
506.3565	-0.0006
506.5549	-0.0102
506.7532	-0.0185
506.9516	-0.0025
507.1499	-0.0047
507.3482	-0.0166
507.5465	-0.0101
507.7448	-0.0072
507.9431	0.0001
508.1414	0.0011
508.3396	-0.0012
508.5379	-0.0069
508.7361	-0.0071
508.9343	-0.0037
509.1325	-0.01
509.3306	-0.0048
509.5288	-0.0073
509.7269	-0.0114
509.9251	-0.005
510.1232	-0.0096
510.3213	0.0009
510.5193	-0.0015
510.7174	-0.0062
510.9154	-0.0085
511.1135	-0.0074
511.3115	-0.0058
511.5095	-0.008
511.7075	0.0014
511.9055	-0.0097
512.1034	-0.0148
512.3014	0.006
512.4993	-0.0021
512.6972	-0.0088
512.8951	-0.0162
513.093	0.0017
513.2908	-0.0004
513.4887	0.0064
513.6865	-0.0076
513.8844	-0.0125
514.0822	-0.002
514.2799	-0.0026
514.4777	-0.0172
514.6755	-0.0158
514.8732	-0.0085
515.0709	-0.0098
515.2687	-0.0027
515.4664	0.0047
515.664	-0.0021
515.8617	-0.0121
516.0594	-0.0179
516.257	-0.0008
516.4546	-0.0178
516.6522	0.0013
516.8498	-0.0062
517.0474	0.0034
517.2449	-0.003
517.4425	-0.0101
517.64	-0.0033
517.8375	0.0057
518.035	-0.0157
518.2325	-0.0086
518.43	-0.0014
518.6274	-0.0124
518.8249	-0.012
519.0223	-0.0035
519.2197	-0.007
519.4171	-0.0029
519.6145	-0.0126
519.8118	-0.0019
520.0092	-0.0064
520.2065	-0.0079
520.4038	-0.0179
520.6011	-0.0084
520.7984	-0.0103
520.9956	-0.006
521.1929	-0.0078
521.3901	-0.0009
521.5874	-0.0103
521.7846	0.0043
521.9818	-0.0114
522.1789	-0.0106
522.3761	-0.0115
522.5732	-0.006
522.7704	-0.0124
522.9675	-0.0052
523.1646	-0.0096
523.3617	-0.0123
523.5587	-0.0004
523.7558	-0.0005
523.9528	-0.0022
524.1498	-0.002
524.3468	-0.0101
524.5438	-0.0011
524.7408	-0.0074
524.9378	-0.0002
525.1347	-0.0049
525.3316	-0.0003
525.5285	-0.0015
525.7254	-0.0046
525.9223	-0.0032
526.1192	-0.002
526.316	-0.0152
526.5129	0.0079
526.7097	0.003
526.9065	-0.0013
527.1033	-0.0191
527.3	-0.0015
527.4968	0.0012
527.6935	-0.0064
527.8903	-0.0112
528.087	-0.0073
528.2837	-0.0114
528.4804	0.0003
528.677	-0.0109
528.8737	0.0031
529.0703	-0.0024
529.2669	-0.0047
529.4635	-0.0064
529.6601	-0.0033
529.8567	-0.011
530.0532	-0.0085
530.2498	0.006
530.4463	0.0039
530.6428	0.0027
530.8393	0.0067
531.0358	-0.0049
531.2322	-0.0111
531.4287	-0.0054
531.6251	-0.0068
531.8215	0.0082
532.0179	-0.005
532.2143	0.0024
532.4107	-0.0094
532.607	0.001
532.8034	0.002
532.9997	-0.0065
533.196	-0.0114
533.3923	-0.0132
533.5886	-0.0098
533.7848	-0.004
533.9811	-0.0066
534.1773	-0.0048
534.3735	0.0115
534.5697	0.0005
534.7659	-0.0002
534.9621	0.0032
535.1582	-0.0079
535.3544	-0.0087
535.5505	-0.0132
535.7466	0
535.9427	-0.0133
536.1387	-0.0069
536.3348	-0.0063
536.5308	0.0011
536.7269	-0.0127
536.9229	-0
537.1189	0.0034
537.3148	-0.0032
537.5108	-0.0102
537.7068	-0.0084
537.9027	-0.0022
538.0986	-0.0032
538.2945	-0.0048
538.4904	-0.015
538.6863	-0.0051
538.8821	-0.0054
539.078	0.0015
539.2738	-0.0003
539.4696	-0.0088
539.6654	0.0031
539.8611	0.0076
540.0569	-0.0029
540.2526	-0.0092
540.4484	0.0015
540.6441	0.0032
540.8398	-0.0069
541.0355	-0.0011
541.2311	0.01
541.4268	-0.0178
541.6224	0.0102
541.818	0.005
542.0136	-0.0113
542.2092	0.0032
542.4048	0.0031
542.6003	0.0025
542.7959	-0.0045
542.9914	-0.0025
543.1869	0.0001
543.3824	0.0002
543.5779	-0.0088
543.7734	0.0008
543.9688	-0.0085
544.1642	0.003
544.3596	-0.0006
544.555	-0.0018
544.7504	0.001
544.9458	-0.003
545.1411	-0.0041
545.3365	-0.0031
545.5318	-0.0018
545.7271	0.0003
545.9224	-0.0102
546.1177	-0.0026
546.3129	-0.0026
546.5081	-0.008
546.7034	-0.0048
546.8986	-0.012
547.0938	-0.0079
547.289	-0.009
547.4841	-0.0072
547.6793	0.0053
547.8744	0.0006
548.0695	-0.0008
548.2646	0.0001
548.4597	0.0054
548.6548	0.0003
548.8498	0.004
549.0448	0.0054
549.2399	0.0049
549.4349	0.0032
549.6298	-0.0052
549.8248	-0.0069
550.0198	-0.0001
550.2147	-0.006
550.4096	-0.003
550.6045	-0.0015
550.7994	0.0052
550.9943	0.0019
551.1892	-0.0046
551.384	0.0075
551.5788	-0.0063
551.7737	0.0022
551.9685	-0.0025
552.1632	0.0057
552.358	-0.0047
552.5528	0.0014
552.7475	-0.0086
552.9422	0.0021
553.1369	0.0047
553.3316	0.0002
553.5263	-0.0141
553.7209	0.0089
553.9156	-0.0124
554.1102	-0.004
554.3048	-0.0074
554.4994	-0.0024
554.694	0.0043
554.8885	-0.0022
555.0831	-0.0005
555.2776	-0.0024
555.4721	-0.0005
555.6666	0.0027
555.8611	0.0054
556.0555	-0.0026
556.25	-0.0044
556.4444	-0.0129
556.6388	-0.0021
556.8332	0.0016
557.0276	-0.0078
557.222	-0.0008
557.4163	0.0021
557.6107	-0.0198
557.805	0.0092
557.9993	-0.0072
558.1936	-0.0021
558.3879	-0.0026
558.5821	0.0086
558.7764	-0.0052
558.9706	0.0078
559.1648	0.0106
559.359	-0.0026
559.5532	-0.0093
559.7473	0.003
559.9415	-0.0058
560.1356	-0.0034
560.3297	-0.0098
560.5238	-0.0039
560.7179	-0.0045
560.9119	-0.0123
561.106	0
561.3	-0.0047
561.494	-0.0029
561.688	-0.008
561.882	-0.0093
562.076	-0.0009
562.2699	0.0002
562.4639	-0.0047
562.6578	-0.0053
562.8517	-0.0052
563.0456	0.0027
563.2395	0.0012
563.4333	-0.0016
563.6272	0.0102
563.821	-0.0068
564.0148	0.013
564.2086	-0.0042
564.4024	0.0008
564.5961	-0.0075
564.7899	0.0118
564.9836	-0.0038
565.1773	0.0031
565.371	0.0111
565.5647	0.0058
565.7584	0.0015
565.952	-0.0014
566.1456	-0.0044
566.3393	-0.0011
566.5329	-0.0054
566.7264	-0.0013
566.92	-0.0072
567.1136	0.0097
567.3071	-0.006
567.5006	0.0079
567.6941	0.0007
567.8876	0.0013
568.0811	-0.0019
568.2745	0.0025
568.468	0.007
568.6614	-0.0015
568.8548	-0.0011
569.0482	0.0032
569.2416	0.0036
569.4349	0.0016
569.6283	0.0161
569.8216	-0.0017
570.0149	-0.0046
570.2082	0.0036
570.4015	0.0015
570.5947	0.0055
570.788	0.0054
570.9812	0.012
571.1744	0.0009
571.3676	-0.0118
571.5608	-0.0034
571.754	0.0002
571.9471	-0.0044
572.1402	-0.0055
572.3333	0.0024
572.5264	-0.0097
572.7195	-0.0046
572.9126	0.0026
573.1057	-0.0018
573.2987	-0.0022
573.4917	0.0022
573.6847	-0.0034
573.8777	0.01
574.0707	0.0079
574.2636	-0.0063
574.4566	-0.0001
574.6495	0.0008
574.8424	0.0012
575.0353	0.0014
575.2281	0.0114
575.421	-0.0035
575.6138	-0.0004
575.8067	-0.0042
575.9995	0.0023
576.1923	0.0069
576.385	0.0019
576.5778	0.0006
576.7706	0.0036
576.9633	0.0045
577.156	0.0046
577.3487	0.0003
577.5414	0.0009
577.734	-0.0029
577.9267	0.0048
578.1193	-0.0042
578.3119	-0.0033
578.5045	0.0005
578.6971	-0.0029
578.8897	0.0037
579.0822	0.0003
579.2747	0.0006
579.4673	0.0041
579.6598	-0.0049
579.8522	-0.0044
580.0447	-0.0024
580.2372	-0.0016
580.4296	0.0026
580.622	0.0011
580.8144	0.0063
581.0068	-0.0054
581.1992	-0.0107
581.3915	-0.0032
581.5839	-0.0069
581.7762	-0.0023
581.9685	-0.0017
582.1608	0.0038
582.353	0.0004
582.5453	0.0009
582.7375	0.0012
582.9298	-0.0004
583.122	-0
583.3142	0.0028
583.5063	0.0027
583.6985	-0.0024
583.8906	0.0029
584.0827	0.002
584.2749	-0.0011
584.4669	0.001
584.659	0.0035
584.8511	-0.0002
585.0431	-0.0014
585.2352	-0.0012
585.4272	-0.0006
585.6192	-0.0013
585.8111	-0.0046
586.0031	-0.0022
586.195	0.0032
586.387	0.0002
586.5789	-0.0036
586.7708	-0.0005
586.9627	-0.0013
587.1545	-0.0015
587.3464	0.0047
587.5382	0.0018
587.73	0.0053
587.9218	0.0076
588.1136	0.0023
588.3053	0.0026
588.4971	-0.0004
588.6888	-0.0129
588.8805	0.0022
589.0722	0.0002
589.2639	0.0024
589.4556	-0.0012
589.6472	-0.0001
589.8389	-0.0147
590.0305	-0.0078
590.2221	-0.0019
590.4137	-0.0042
590.6052	0.0106
590.7968	-0.0007
590.9883	-0.0022
591.1798	0.0014
591.3713	-0.0039
591.5628	0.0037
591.7543	0.0051
591.9458	0.0013
592.1372	-0.004
592.3286	0.0072
592.52	0.0083
592.7114	0
592.9028	-0.0073
593.0941	0.0056
593.2855	0.0034
593.4768	-0.0017
593.6681	-0.0035
593.8594	-0.0018
594.0506	-0.0078
594.2419	0.0083
594.4331	0.0054
594.6244	0.0037
594.8156	-0.0082
595.0067	0.0032
595.1979	-0.0001
595.3891	0.0001
595.5802	0.0019
595.7713	-0.0046
595.9624	-0.0011
596.1535	0.007
596.3446	-0.0022
596.5357	0.0017
596.7267	0.0054
596.9177	0.0062
597.1087	-0.003
597.2997	-0.0065
597.4907	0.0029
597.6817	-0.0042
597.8726	-0.0016
598.0635	-0.0017
598.2544	-0.0005
598.4453	0.0028
598.6362	-0.0028
598.827	-0.001
599.0179	0.0017
599.2087	0.0085
599.3995	0.006
599.5903	-0.0024
599.7811	0.0033
599.9718	-0.0005
600.1626	-0.0043
600.3533	-0.0069
600.544	-0.0007
600.7347	-0.0029
600.9254	0.0049
601.116	-0.0074
601.3067	-0.0018
601.4973	0.0001
601.6879	0.0104
601.8785	-0.0078
602.0691	-0.0013
602.2596	0.0022
602.4502	0.0042
602.6407	0.0036
602.8312	0.0016
603.0217	-0.0128
603.2122	0.0014
603.4027	-0.0047
603.5931	-0.006
603.7835	-0.0057
603.9739	-0.0011
604.1643	-0.008
604.3547	-0.0024
604.5451	-0.0025
604.7354	0
604.9257	0.0002
605.116	0.0007
605.3063	0.0036
605.4966	0.0087
605.6869	0.0007
605.8771	0.0066
606.0673	0.0051
606.2575	0.0138
606.4477	0.008
606.6379	0.0075
606.8281	-0.0032
607.0182	0.0001
607.2083	0.0126
607.3985	-0.0026
607.5885	0.0029
607.7786	-0.0004
607.9687	-0.0028
608.1587	0.0042
608.3488	0.0038
608.5388	-0.0003
608.7288	-0.0015
608.9187	-0.0067
609.1087	-0.0096
609.2986	-0.0058
609.4886	-0.0016
609.6785	-0.0004
609.8684	0.0057
610.0582	-0.0015
610.2481	0.0044
610.4379	-0.0024
610.6278	0.0008
610.8176	0.0044
611.0074	0.0032
611.1971	-0.0034
611.3869	-0.005
611.5766	-0.0085
611.7664	0.0109
611.9561	0.0097
612.1458	0.0027
612.3354	-0.0043
612.5251	0.0029
612.7147	0.0028
612.9044	0.0097
613.094	-0.0045
613.2836	0.0005
613.4731	-0.0025
613.6627	-0.0071
613.8522	0.0031
614.0417	-0.0001
614.2313	-0.0038
614.4207	0.0003
614.6102	0.0009
614.7997	0.001
614.9891	-0.0065
615.1785	0.001
615.3679	-0.0016
615.5573	0.0063
615.7467	-0.0029
615.9361	-0.0075
616.1254	0.0043
616.3147	-0.0024
616.504	0.0028
616.6933	-0.0001
616.8826	0.005
617.0718	0.0018
617.2611	0.0047
617.4503	0.0003
617.6395	0.0062
617.8287	-0.0016
618.0179	0.0021
618.207	0.0053
618.3961	0.0028
618.5853	-0.0028
618.7744	0.0044
618.9634	0.0014
619.1525	0.0014
619.3416	0.0033
619.5306	0.0029
619.7196	0.0028
619.9086	-0.0033
620.0976	0.0003
620.2866	-0.0001
620.4755	-0.0009
620.6645	0.0067
620.8534	0.0109
621.0423	0.005
621.2312	0.0081
621.42	-0.0004
621.6089	-0.0007
621.7977	-0.0009
621.9865	-0.0049
622.1753	0.0062
622.3641	-0.0024
622.5529	0.009
622.7416	0.0097
622.9303	-0.0028
623.1191	0.0039
623.3078	-0.0017
623.4964	0.002
623.6851	-0.002
623.8737	0.0002
624.0624	0.0076
624.251	-0.0037
624.4396	-0.0055
624.6282	-0.0065
624.8167	0.004
625.0053	-0.0007
625.1938	0.0069
625.3823	-0.0089
625.5708	-0.0011
625.7593	-0.0092
625.9477	-0.0039
626.1362	-0.0081
626.3246	-0.0064
626.513	0.0032
626.7014	0.0004
626.8898	-0.0035
627.0781	0.0008
627.2665	0.0034
627.4548	0.0041
627.6431	0.0086
627.8314	-0.0017
628.0197	0.0071
628.2079	-0.0002
628.3962	-0.0079
628.5844	0.01
628.7726	0.0062
628.9608	0.0024
629.1489	-0.004
629.3371	0.0044
629.5252	-0.0003
629.7134	0.0095
629.9015	0.0049
630.0895	-0.0036
630.2776	0.0035
630.4657	0.0013
630.6537	0.0032
630.8417	-0.0039
631.0297	-0.002
631.2177	0.0011
631.4057	-0.0052
631.5936	-0.0062
631.7815	-0.0018
631.9695	-0.004
632.1574	0.0004
632.3452	0.01
632.5331	0.0039
632.7209	0.0021
632.9088	0.0083
633.0966	0.0063
633.2844	-0.0034
633.4722	-0.0047
633.6599	0.0101
633.8477	0.004
634.0354	-0.0033
634.2231	-0.0026
634.4108	0.0048
634.5985	0.0116
634.7861	0.0002
634.9738	0
635.1614	0.0041
635.349	-0.0004
635.5366	0.0018
635.7242	-0.0016
635.9117	0.0061
636.0993	-0.0039
636.2868	0.0152
636.4743	0.0027
636.6618	0.013
636.8492	0.0086
637.0367	0.0017
637.2241	-0.0028
637.4115	-0.0003
637.5989	-0.0022
637.7863	-0.0019
637.9737	-0.0001
638.161	0.0008
638.3484	-0.0004
638.5357	0.0099
638.723	-0.0003
638.9103	0.003
639.0975	0.0028
639.2848	-0.0009
639.472	-0.0015
639.6592	0.0068
639.8464	0.0049
640.0336	0.0055
640.2208	0.0003
640.4079	-0.0022
640.595	0.0018
640.7821	-0.0009
640.9692	0.0015
641.1563	0.0044
641.3434	0.0016
641.5304	-0.0005
641.7174	-0.0019
641.9044	-0.0024
642.0914	-0.0034
642.2784	-0.0007
642.4653	0.004
642.6523	-0.0065
642.8392	-0.0008
643.0261	0.0072
643.213	0.0026
643.3999	-0.0085
643.5867	-0.0054
643.7735	0.0014
643.9604	-0.009
644.1472	0.0014
644.3339	0.0041
644.5207	0.0053
644.7075	0.0038
644.8942	0.0063
645.0809	0.0069
645.2676	0.0039
645.4543	0.0027
645.6409	0.0058
645.8276	0.0076
646.0142	0.0113
646.2008	0.0056
646.3874	-0.0032
646.574	0.0011
646.7605	-0.0052
646.9471	-0.017
647.1336	-0.0021
647.3201	0.0007
647.5066	-0.0037
647.6931	0.0049
647.8795	0.0024
648.0659	0.0033
648.2524	0.0068
648.4388	0.0003
648.6252	0.0046
648.8115	0.0052
648.9979	0.0016
649.1842	-0.0008
649.3705	0.0085
649.5568	0.0071
649.7431	0.0097
649.9294	0.0009
650.1156	0.008
650.3018	0.001
650.488	0.0017
650.6742	0.0055
650.8604	0.0018
651.0466	-0.0017
651.2327	0.0009
651.4188	0.0017
651.6049	-0.0014
651.791	-0.0022
651.9771	0
652.1632	-0
652.3492	-0.0041
652.5352	0.0036
652.7212	0.0005
652.9072	0.0042
653.0932	0.0051
653.2791	-0.003
653.465	0.0033
653.651	-0.0043
653.8369	-0.0014
654.0227	0.0011
654.2086	0.0046
654.3944	0.0088
654.5803	0.0016
654.7661	-0.0004
654.9519	0.0064
655.1377	-0.001
655.3234	0.0008
655.5092	-0.0049
655.6949	-0.0059
655.8806	-0.0059
656.0663	-0.001
656.2519	-0.001
656.4376	-0.0052
656.6232	0.0056
656.8088	0.0025
656.9945	-0.0041
657.18	-0.0001
657.3656	0.0017
657.5511	0
657.7367	-0.0038
657.9222	0.0051
658.1077	-0.0017
658.2932	-0.0002
658.4786	-0.0065
658.6641	-0.0084
658.8495	-0.0069
659.0349	-0.0009
659.2203	-0.0022
659.4057	-0.0008
659.591	-0.0006
659.7764	0.0025
659.9617	0.0013
660.147	-0.0021
660.3323	0.0005
660.5176	0.0064
660.7028	0.0091
660.888	0.0029
661.0733	0.0017
661.2585	-0.0053
661.4436	0.0003
661.6288	-0.0089
661.8139	0.0039
661.9991	0.0008
662.1842	0.0015
662.3693	-0.0004
662.5544	-0.0069
662.7394	-0.0004
662.9245	-0.0019
663.1095	0.0023
663.2945	-0.0066
663.4795	0.0014
663.6644	-0.0005
663.8494	0.0028
664.0343	0.0029
664.2193	-0.0042
664.4042	0.0027
664.589	0.0014
664.7739	-0.003
664.9587	-0.0086
665.1436	-0.0013
665.3284	-0.0062
665.5132	-0.0022
665.698	-0.0056
665.8827	-0.0001
666.0675	-0.0018
666.2522	-0.0077
666.4369	0.0007
666.6216	0.0016
666.8063	0.003
666.9909	-0.0002
667.1756	-0.0076
667.3602	0.0008
667.5448	-0.0015
667.7294	0.008
667.9139	0.0005
668.0985	0.0113
668.283	0.0018
668.4675	0.0016
668.652	-0.0027
668.8365	0.0016
669.0209	0.0089
669.2054	0.0108
669.3898	0.0033
669.5742	0.0042
669.7586	0.0062
669.943	0.0074
670.1273	0.0026
670.3117	0.0018
670.496	0.0093
670.6803	0.0115
670.8646	0.0061
671.0488	0.0002
671.2331	0.004
671.4173	0.0074
671.6015	-0.0093
671.7857	0.0014
671.9699	0.0042
672.1541	0.0068
672.3382	0.0062
672.5223	0.0068
672.7064	0.0065
672.8905	0.0074
673.0746	0.004
673.2587	-0.0034
673.4427	0.0027
673.6267	0.0104
673.8107	0.012
673.9947	0.003
674.1787	0.0071
674.3626	0.0023
674.5465	0.0082
674.7304	0.0005
674.9143	0.0016
675.0982	0.0142
675.2821	-0.0036
675.4659	0.009
675.6497	0.004
675.8335	0.0027
676.0173	0.0003
676.2011	0.0046
676.3849	0.0001
676.5686	-0.0008
676.7523	0.0006
676.936	-0.0037
677.1197	-0.0023
677.3034	-0.005
677.487	0.0025
677.6706	-0.0044
677.8542	-0.0008
678.0378	-0.0008
678.2214	-0.0027
678.405	-0.0018
678.5885	-0.0057
678.772	-0.0014
678.9555	-0.0075
679.139	-0.0082
679.3225	0.0005
679.5059	-0.0014
679.6894	0.0057
679.8728	-0.0027
680.0562	-0.0086
680.2395	-0.0022
680.4229	-0.0034
680.6062	0.0076
680.7896	0.0022
680.9729	-0.0036
681.1562	0.0099
681.3394	0.0043
681.5227	-0.0043
681.7059	-0.0014
681.8891	0.0002
682.0723	0.0131
682.2555	0.011
682.4387	0.0002
682.6218	0.0022
682.805	0.01
682.9881	0.0019
683.1712	0.0047
683.3542	0.0024
683.5373	0.0097
683.7203	-0.0088
683.9034	0.0029
684.0864	-0.0078
684.2694	-0.0028
684.4523	0.0023
684.6353	-0.0067
684.8182	0.006
685.0011	-0.0078
685.184	-0.0014
685.3669	-0.0022
685.5498	-0.0008
685.7326	-0.0057
685.9154	-0.0096
686.0982	-0.0014
686.281	0.0097
686.4638	-0.0065
686.6465	-0.004
686.8293	-0.0033
687.012	-0.0025
687.1947	-0.008
687.3774	0.0021
687.56	-0.0098
687.7427	0.0011
687.9253	-0.0089
688.1079	0.0013
688.2905	0.0055
688.4731	-0.0002
688.6556	-0.0045
688.8382	-0.0016
689.0207	-0.0028
689.2032	-0.0123
689.3857	-0.0045
689.5681	-0.0038
689.7506	0.0012
689.933	-0.0015
690.1154	0.0032
690.2978	0.0033
690.4802	0.0064
690.6626	-0.0045
690.8449	-0.0074
691.0272	0.0052
691.2095	-0.015
691.3918	-0.0055
691.5741	0.0104
691.7563	0.0009
691.9386	0.0014
692.1208	-0.0002
692.303	-0.0007
692.4852	-0
692.6673	0.003
692.8495	0.003
693.0316	-0.001
693.2137	0.0055
693.3958	-0.0001
693.5778	-0.0001
693.7599	0.0046
693.9419	0.0006
694.1239	0.0083
694.3059	-0.0054
694.4879	0.0044
694.6699	0.0047
694.8518	0.0006
695.0337	0.0004
695.2157	0.0083
695.3975	0.0034
695.5794	0.0022
695.7613	0.0001
695.9431	0.0023
696.1249	0.0037
696.3067	0.0017
696.4885	0.0121
696.6703	-0.005
696.852	0.0076
697.0337	0.0102
697.2154	0.0029
697.3971	0.0089
697.5788	-0.0018
697.7605	-0.0013
697.9421	0.0094
698.1237	-0.0016
698.3053	0.0017
698.4869	0.0016
698.6685	-0.0068
698.85	0.0039
699.0315	0.0077
699.213	0.0044
699.3945	0.0037
699.576	0.0114
699.7575	0.0123
699.9389	0.0131
700.1203	-0.0072
700.3017	-0.0057
700.4831	-0.0047
700.6645	-0.0055
700.8458	0.0001
701.0271	-0.0026
701.2084	0.007
701.3897	0.004
701.571	0.0029
701.7523	-0.001
701.9335	0.0021
702.1147	0.0071
702.2959	0.0009
702.4771	0.0062
702.6583	0.0007
702.8394	-0.0063
703.0205	0.0013
703.2016	-0.0026
703.3827	0.0031
703.5638	0.0148
703.7449	0.0145
703.9259	0.0119
704.1069	-0.0007
704.2879	0.0077
704.4689	0.0016
704.6499	-0.0014
704.8308	-0.0009
705.0117	0.0025
705.1927	0.0085
705.3735	-0.0003
705.5544	-0.0043
705.7353	-0.0032
705.9161	-0.0114
706.0969	-0.0086
706.2777	0.0043
706.4585	0.0015
706.6393	-0.0004
706.82	-0.0023
707.0007	0.0072
707.1815	0.006
707.3621	0.0079
707.5428	-0.0027
707.7235	0.0086
707.9041	0.0032
708.0847	-0.0023
708.2653	-0.0029
708.4459	-0.0173
708.6265	-0.0028
708.807	-0.0057
708.9875	0.0012
709.168	-0.0051
709.3485	-0.0056
709.529	-0.0054
709.7095	-0.007
709.8899	-0.0073
710.0703	-0.0182
710.2507	-0.0076
710.4311	-0.0028
710.6115	-0.0183
710.7918	-0.0055
710.9721	-0.0037
711.1524	-0.0101
711.3327	-0.0004
711.513	0.0058
711.6932	0.0063
711.8735	0.0156
712.0537	0.0038
712.2339	0.0064
712.4141	-0.0026
712.5942	-0.0001
712.7744	0.0028
712.9545	-0.0115
713.1346	-0.0105
713.3147	-0.0034
713.4947	-0.0095
713.6748	-0.0041
713.8548	-0.0038
714.0348	-0.0013
714.2148	-0.004
714.3948	0.0011
714.5748	-0.0076
714.7547	-0.0016
714.9346	0.0051
715.1145	-0.0077
715.2944	-0.0035
715.4743	-0.0016
715.6541	-0.0071
715.834	0.0021
716.0138	-0.0081
716.1936	-0.0139
716.3733	0.0003
716.5531	-0.0011
716.7328	-0.0057
716.9126	-0.002
717.0923	0.0101
717.2719	0.0021
717.4516	0.0038
717.6312	0.006
717.8109	0.0035
717.9905	0.0118
718.1701	0.0087
718.3496	0.001
718.5292	0.0015
718.7087	0.0092
718.8882	0.0068
719.0677	0.0141
719.2472	0.0007
719.4267	0.0017
719.6061	0.0033
719.7856	-0.0019
719.965	0.0054
720.1443	-0.0019
720.3237	0.0112
720.5031	0.0049
720.6824	0.0083
720.8617	-0
721.041	0.003
721.2203	0.012
721.3995	0.0016
721.5788	0.0042
721.758	0.0014
721.9372	0.0019
722.1164	0.0002
722.2956	0.0033
722.4747	-0.0028
722.6538	-0.0007
722.8329	0.0019
723.012	0.0028
723.1911	-0.0054
723.3702	-0.002
723.5492	0.0023
723.7282	-0.0034
723.9072	-0.0062
724.0862	-0.0071
724.2652	-0.0043
724.4441	-0.0004
724.623	-0.0043
724.8019	-0.0033
724.9808	-0.0017
725.1597	-0.013
725.3385	0.0002
725.5174	0.0024
725.6962	0.003
725.875	-0.0028
726.0538	0.0035
726.2325	-0.0004
726.4112	-0.0002
726.59	0.0006
726.7687	0.0016
726.9474	0.008
727.126	-0.0017
727.3047	-0.0028
727.4833	-0.0015
727.6619	0.0023
727.8405	-0.0134
728.0191	-0.006
728.1976	0.003
728.3762	0.0004
728.5547	-0.0033
728.7332	-0.0073
728.9116	0.0028
729.0901	-0.0034
729.2686	-0.0104
729.447	-0.0039
729.6254	-0.0052
729.8038	0.0018
729.9821	-0.0122
730.1605	-0.0029
730.3388	-0.0008
730.5171	-0.0076
730.6954	-0.0091
730.8737	0.0055
731.0519	-0.0021
731.2302	-0.0027
731.4084	0.0032
731.5866	0.0042
731.7648	-0.0074
731.9429	0.0051
732.1211	-0.0095
732.2992	-0.004
732.4773	-0.0014
732.6554	-0.0119
732.8335	-0.0017
733.0115	-0.0005
733.1896	0.0053
733.3676	-0.0072
733.5456	0.0014
733.7235	0.0051
733.9015	0.0008
734.0794	-0.0076
734.2574	0.0036
734.4353	-0.0023
734.6131	0.0072
734.791	0.0057
734.9689	-0.0087
735.1467	0.0035
735.3245	-0.0089
735.5023	0.0002
735.68	-0.0012
735.8578	0.0083
736.0355	-0.0117
736.2132	-0.0043
736.3909	0.0054
736.5686	-0.0095
736.7463	0.0041
736.9239	-0.0095
737.1015	-0.0015
737.2791	0.0011
737.4567	0.0005
737.6343	-0.0031
737.8118	0.0017
737.9894	0.0098
738.1669	-0.0085
738.3444	0.0001
738.5218	0.005
738.6993	-0.0037
738.8767	-0.0073
739.0541	0.0087
739.2315	-0.0091
739.4089	0.0007
739.5863	0.0108
739.7636	-0.0029
739.9409	-0.0038
740.1182	0.0087
740.2955	0.0081
740.4728	0.0025
740.65	0.0002
740.8272	-0.0009
741.0044	-0.0058
741.1816	0.0021
741.3588	-0.005
741.5359	-0.0033
741.7131	-0.0069
741.8902	-0.0033
742.0673	-0.0011
742.2444	-0.0066
742.4214	-0.0105
742.5985	0.0001
742.7755	-0.0065
742.9525	-0.014
743.1295	0.0085
743.3064	-0.0005
743.4834	0.0038
743.6603	-0.0107
743.8372	-0.0028
744.0141	0.0074
744.191	0.0041
744.3678	0.0005
744.5446	0.0019
744.7215	0.0102
744.8982	-0.0075
745.075	-0.0168
745.2518	-0.0061
745.4285	-0.0053
745.6052	-0.0106
745.7819	-0.0143
745.9586	-0.0122
746.1353	-0.0105
746.3119	-0.0191
746.4885	-0.0125
746.6651	-0.0102
746.8417	-0.01
747.0183	-0.0088
747.1948	-0.0112
747.3714	-0.0081
747.5479	-0.0108
747.7244	-0.0046
747.9008	-0.0057
748.0773	-0.0091
748.2537	-0.007
748.4301	-0.0192
748.6065	-0.0044
748.7829	-0.0015
748.9593	-0.0041
749.1356	-0.0074
749.3119	0.0049
749.4882	-0.017
749.6645	0.0017
749.8408	-0.0094
750.017	-0.0101
750.1933	0.0001
750.3695	-0.0078
750.5457	0.0053
750.7218	-0.0003
750.898	0.003
751.0741	-0.0059
751.2502	-0.0002
751.4263	-0.0104
751.6024	-0.0052
751.7784	-0.0011
751.9545	-0.0117
752.1305	-0.0079
752.3065	-0.006
752.4825	0.0062
752.6584	0.003
752.8344	-0.0084
753.0103	-0.0213
753.1862	-0.0071
753.3621	-0.0066
753.5379	-0.0023
753.7138	-0.0033
753.8896	-0.0015
754.0654	0.0009
754.2412	0.0114
754.417	0.0006
754.5927	0.0004
754.7685	-0.001
754.9442	0.0016
755.1199	0.0091
755.2956	0.0056
755.4712	0.0056
755.6469	0.005
755.8225	-0.0005
755.9981	0.0057
756.1736	0.0092
756.3492	0.0079
756.5248	0.0019
756.7003	0.0021
756.8758	0.0183
757.0513	-0.0037
757.2267	0.0012
757.4022	0.007
757.5776	-0.0059
757.753	0.0109
757.9284	-0.0053
758.1038	0.0012
758.2791	-0.0027
758.4545	-0.0093
758.6298	-0.003
758.8051	0.0011
758.9803	-0.0115
759.1556	-0.0092
759.3308	-0.0006
759.506	0.0101
759.6812	0.0058
759.8564	0.0111
760.0316	0.0052
760.2067	0.0071
760.3819	0.0023
760.557	0.0144
760.732	0.0082
760.9071	-0.0104
761.0821	0.0022
761.2572	0.0143
761.4322	0.0015
761.6072	-0.0031
761.7821	-0.0112
761.9571	0.0052
762.132	-0.0016
762.3069	-0.0139
762.4818	-0.0017
762.6567	-0.0059
762.8316	-0.003
763.0064	-0.0102
763.1812	-0.0031
763.356	-0.0115
763.5308	-0.0009
763.7055	-0.0029
763.8803	-0.0094
764.055	-0.0083
764.2297	-0.0064
764.4044	-0.0105
764.579	-0.0114
764.7537	-0.0117
764.9283	-0.0031
765.1029	-0.007
765.2775	-0.0114
765.4521	-0.0109
765.6266	-0.0067
765.8011	-0.0049
765.9756	-0.0063
766.1501	0.0022
766.3246	0.0004
766.4991	-0.0067
766.6735	0.0012
766.8479	-0.0034
767.0223	0.0053
767.1967	-0.0004
767.371	0.005
767.5454	-0.01
767.7197	-0.0024
767.894	-0.0079
768.0683	-0.0062
768.2425	-0.0065
768.4168	-0.0012
768.591	-0.0057
768.7652	-0.0152
768.9394	-0.0025
769.1135	-0.0039
769.2877	-0.0021
769.4618	-0.0112
769.6359	0.0015
769.81	0.0026
769.984	-0.005
770.1581	-0.0095
770.3321	-0.009
770.5061	-0.0013
770.6801	-0.0045
770.8541	0.0095
771.028	0.0021
771.202	-0.0126
771.3759	0.0075
771.5498	-0.0032
771.7236	0.0061
771.8975	0.0021
772.0713	0.007
772.2451	-0.0002
772.4189	0.0012
772.5927	0.0058
772.7665	-0.0033
772.9402	0.0027
773.1139	-0.0092
773.2876	-0.0077
773.4613	0.0003
773.635	-0.0006
773.8086	-0.0161
773.9822	-0.009
774.1558	0.0041
774.3294	-0.0134
774.503	0.0027
774.6765	-0.0024
774.8501	0.0017
775.0236	-0.0027
775.1971	0.0002
775.3705	-0.011
775.544	0.0055
775.7174	-0.013
775.8908	-0.0069
776.0642	-0.0056
776.2376	0.012
776.4109	-0.0061
776.5843	-0.0047
776.7576	0.0033
776.9309	0.0091
777.1041	-0.0004
777.2774	0.0047
777.4506	-0.0092
777.6238	-0.0071
777.797	0.0071
777.9702	-0.015
778.1434	-0.0028
778.3165	-0.0178
778.4896	-0.01
778.6627	0.0099
778.8358	0.0014
779.0089	-0.0104
779.1819	0.0001
779.3549	0.007
779.5279	0.0069
779.7009	0.0021
779.8739	-0.0145
780.0468	0.0014
780.2197	-0.0008
780.3926	-0.0143
780.5655	0.0021
780.7384	-0.0054
780.9112	0.0014
781.0841	-0.0171
781.2569	-0.0081
781.4297	0.0009
781.6024	0.001
781.7752	0.0012
781.9479	-0.0068
782.1206	-0.0107
782.2933	-0.0088
782.466	-0.0001
782.6386	-0.0098
782.8113	-0.0114
782.9839	0.004
783.1565	0.0079
783.329	0.0011
783.5016	0.0133
783.6741	0.0163
783.8466	0.0006
784.0191	0.0087
784.1916	0.0043
784.3641	-0.0039
784.5365	0.0078
784.7089	0.0021
784.8813	-0.0066
785.0537	-0.0001
785.2261	-0.0059
785.3984	-0.0233
785.5707	-0.0056
785.743	-0.0018
785.9153	-0.0035
786.0876	0.0087
786.2598	-0.0041
786.432	-0.0092
786.6042	0.0076
786.7764	-0.0132
786.9486	-0.0078
787.1207	-0.013
787.2928	0.006
787.4649	0.0034
787.637	-0.0024
787.8091	-0.0065
787.9811	-0.0091
788.1532	-0.0033
788.3252	-0.0048
788.4972	-0.0133
788.6691	-0.0092
788.8411	0.0066
789.013	-0.0227
789.1849	-0.0036
789.3568	-0.001
789.5287	-0.0005
789.7005	-0.0019
789.8723	-0.0075
790.0442	0.011
790.2159	0.0046
790.3877	0.0008
790.5595	-0.0205
790.7312	-0.0035
790.9029	-0.0048
791.0746	-0.0063
791.2463	-0.0002
791.4179	0.0125
791.5896	-0.007
791.7612	-0.0123
791.9328	-0.0018
792.1044	-0.0127
792.2759	-0.0145
792.4474	-0.0069
792.619	0.0044
792.7905	-0.0148
792.9619	-0.0045
793.1334	0.0157
793.3048	0.0172
793.4762	-0.002
793.6476	0.0016
793.819	-0.0037
793.9904	0.0014
794.1617	-0.0079
794.333	-0.0002
794.5043	-0.0113
794.6756	-0.0023
794.8469	0.0043
795.0181	0.006
795.1893	-0.0133
795.3605	0.0194
795.5317	0.0013
795.7029	-0.0084
795.874	-0.0028
796.0452	-0.0064
796.2163	-0.0024
796.3873	-0.0049
796.5584	-0.0062
796.7294	-0.0036
796.9005	0.023
797.0715	-0.0037
797.2425	-0.0038
797.4134	-0.003
797.5844	-0.0037
797.7553	-0.0196
797.9262	-0.0025
798.0971	-0.0188
798.2679	-0.0075
798.4388	-0.0074
798.6096	0.0051
798.7804	0.0012
798.9512	0.0021
799.122	-0.0069
799.2927	-0.0107
799.4635	0.0005
799.6342	-0.0215
799.8049	-0.0206
799.9755	-0.0034
800.1462	-0.0011
800.3168	0.004
800.4874	0.0109
800.658	0.0243
800.8286	-0.0107
800.9991	-0.0007
801.1696	0.0046
801.3402	0.0077
801.5106	-0.0019
801.6811	0.0047
801.8516	0.0164
802.022	0.0009
802.1924	0.0028
802.3628	-0.0007
802.5332	0.0221
802.7035	0.0151
802.8739	0.0003
803.0442	-0.0183
803.2145	-0.0017
803.3847	-0.01
803.555	0.0113
803.7252	-0.0133
803.8954	-0.013
804.0656	-0.0124
804.2358	0.0003
804.4059	0.0161
804.5761	-0.0037
804.7462	0.0114
804.9163	-0.0132
805.0864	-0.0073
805.2564	-0.0218
805.4264	0.0072
805.5965	-0.0087
805.7665	0.0132
805.9364	0.0069
806.1064	0.0262
806.2763	0.0059
806.4462	0.0188
806.6161	-0.0112
806.786	0.0001
806.9559	-0.0157
807.1257	0.002
807.2955	0.0058
807.4653	-0.014
807.6351	0.0085
807.8048	0.0084
807.9746	-0.0076
808.1443	0.0003
808.314	0.0018
808.4837	-0.0092
808.6533	-0.0178
808.8229	0.0066
808.9926	-0.0036
809.1622	-0.0094
809.3317	-0.0147
809.5013	-0.0004
809.6708	0.011
809.8403	0.0154
810.0098	-0.0052
810.1793	0.0024
810.3488	0.0057
810.5182	-0.0315
810.6876	0.0119
810.857	-0.026
811.0264	0.0144
811.1958	0.0037
811.3651	0.0051
811.5344	-0.02
811.7037	-0.0118
811.873	0.0144
812.0422	-0.0041
812.2115	-0.0081
812.3807	-0.0232
812.5499	0.0183
812.7191	0.0129
812.8882	-0.0223
813.0574	-0.0172
813.2265	-0.0077
813.3956	0.0028
813.5646	-0.0064
813.7337	-0.0364
813.9027	0.002
814.0718	0.0188
814.2407	0.0227
814.4097	-0.0155
814.5787	-0.0077
814.7476	-0.0187
814.9165	0.0052
815.0854	-0.0138
815.2543	-0.0215
815.4232	-0.0135
815.592	-0.0143
815.7608	-0.001
815.9296	0.001
816.0984	-0.0074
816.2671	-0.0218
816.4359	-0.0147
816.6046	0.0055
816.7733	-0.0119
816.942	-0.0302
817.1106	-0.0055
817.2793	-0.0042
817.4479	-0.0077
817.6165	0.0054
817.785	-0.0008
817.9536	-0.0336
818.1221	-0.005
818.2906	-0.003
818.4591	-0.0076
818.6276	-0.0102
818.7961	-0.0087
818.9645	0.0005
819.1329	-0.0018
819.3013	0.0213
819.4697	0.0187
819.638	-0.0022
819.8064	0.0229
819.9747	0.0107
820.143	-0.0038
820.3113	-0.0067
820.4795	0.0137
820.6477	-0.0174
820.816	0.0044
820.9842	0.0045
821.1523	-0.0055
821.3205	-0.0273
821.4886	0.013
821.6567	-0.0087
821.8248	0.0233
821.9929	0.0124
822.1609	0.0391
822.329	0.0181
822.497	0.0126
822.665	0.0078
822.833	-0.004
823.0009	0.0085
823.1688	0.0101
823.3367	0.0307
823.5046	0.0033
823.6725	0.0148
823.8404	-0.0206
824.0082	0.0218
824.176	-0.0161
824.3438	-0.0081
824.5116	-0.0254
824.6793	0.0291
824.847	-0.0386
825.0147	0.0132
825.1824	-0.001
825.3501	0.0267
825.5177	0.0097
825.6854	-0.0257
825.853	-0.0162
826.0206	-0.0144
826.1881	0.008
826.3557	-0.0137
826.5232	0.002
826.6907	-0.0247
826.8582	-0.002
827.0257	-0.0352
827.1931	-0.0209
827.3605	-0.0144
827.528	0.0101
827.6953	-0.0158
827.8627	-0.0158
828.03	0.0379
828.1974	-0.0213
828.3647	-0.0373
828.532	-0.0344
828.6992	-0.0167
828.8665	-0.004
829.0337	-0.0489
829.2009	0.0254
829.3681	-0.0013
829.5352	0.0064
829.7024	-0.0343
829.8695	0.0198
830.0366	0.0526
830.2037	0.0013
830.3707	0.0118
830.5378	0.004
830.7048	0.0169
830.8718	-0.0215
831.0388	-0.0177
831.2057	0.0051
831.3727	0.0383
831.5396	-0.023
831.7065	-0.0133
831.8734	0.0299
832.0402	-0.0085
832.2071	0.0223
832.3739	-0.0464
832.5407	0.0045
832.7075	-0.0264
832.8742	-0.0046
833.041	-0.0523
833.2077	-0.0021
833.3744	0.0271
833.541	-0.011
833.7077	-0.0162
833.8743	-0.017
834.0409	-0.0217
834.2075	0.0125
834.3741	-0.0225
834.5407	-0.0268
834.7072	0.0205
834.8737	-0.0273
835.0402	-0.0389
835.2067	0.0207
835.3731	0.0326
835.5395	0.0061
835.706	0.0208
835.8723	0.0301
836.0387	-0.0017
836.2051	0.0102
836.3714	0.0031
836.5377	-0.0024
836.704	-0.0424
836.8703	-0.0366
837.0365	-0.0507
837.2027	-0.0034
837.3689	-0.0019
837.5351	0.0164
837.7013	-0.026
837.8674	-0.0585
838.0335	-0.0155
838.1997	0.0095
838.3657	-0.0813
838.5318	-0.0299
838.6978	0.0233
838.8639	0.0163
839.0299	-0.0391
839.1958	-0.0195
839.3618	0.0082
839.5277	-0.0318
839.6937	-0.0268
839.8596	-0.0199
840.0254	0.0122
840.1913	-0.0118
840.3571	0.0174
840.523	-0.0074
840.6888	-0.0525
840.8545	0.0182
841.0203	-0.0308
841.186	-0.0412
841.3517	0.0349
841.5174	-0.0175
841.6831	-0.0391
841.8488	-0.0399
842.0144	0.023
842.18	0.0241
842.3456	-0.007
842.5112	-0.0184
842.6767	-0.0044
842.8422	-0.0432
843.0077	-0.0235
843.1732	0.0136
843.3387	-0.0487
843.5042	-0.0396
843.6696	0.0587
843.835	-0.0112
844.0004	0.0328
844.1657	-0.0153
844.3311	-0.0564
844.4964	-0.0136
844.6617	-0.0388
844.827	-0.0591
844.9923	0.0181
845.1575	0.0151
845.3227	-0.012
845.4879	-0.0214
845.6531	-0.0942
845.8183	-0.0098
845.9834	-0.0031
846.1485	-0.0134
846.3136	-0.03
846.4787	-0.1266
846.6438	0.0634
846.8088	-0.0023
846.9738	-0.0848
847.1388	-0.024
847.3038	0.0008
847.4687	-0.1624
847.6337	0.0138
847.7986	-0.0137
847.9635	-0.0109
848.1284	0.0767
848.2932	0.0804
848.458	-0.0798
848.6228	0.0063
848.7876	0.0724
848.9524	-0.048
849.1172	-0.0534
849.2819	0.0077
849.4466	-0.1213
849.6113	-0.1374
849.7759	-0.0186
849.9406	-0.0644
850.1052	0.0761
850.2698	-0.0911
850.4344	-0.0796
850.599	-0.0321
850.7635	0.0545
850.928	0.0544
851.0925	-0.0324
851.257	0.0117
851.4215	0.0053
851.5859	-0.1289
851.7503	0.1143
851.9147	-0.037
852.0791	-0.031
852.2434	-0.0047
852.4078	0.0247
852.5721	0.0708
852.7364	-0.0286
852.9007	-0.1381
853.0649	-0.0276
853.2291	-0.0416
853.3934	0.0082
853.5575	0.0786
853.7217	-0.0952
853.8859	-0.2087
854.05	-0.1185
854.2141	-0.1004
854.3782	0.01
854.5423	-0.0265
854.7063	0.0717
854.8703	-0.0229
855.0343	0.0447
855.1983	-0.0794
855.3623	0.0472
855.5262	0.0154
855.6901	0.0187
855.854	0.0266
856.0179	0.0382
856.1818	0.038
856.3456	0.0155
856.5094	-0.1145
856.6732	-0.1308
856.837	0.0282
857.0008	-0.0179
857.1645	-0.0134
857.3282	0.0196
857.4919	0.1488
857.6556	0.0274
857.8192	-0.1059
857.9828	0.0218
858.1465	-0.0097
858.31	-0.0999
858.4736	-0.077
858.6372	-0.1496
858.8007	-0.1165
858.9642	-0.0655
859.1277	-0.193
859.2911	-0.0893
859.4546	-0.0648
859.618	-0.2842
859.7814	-0.1385
859.9448	-0.0065
860.1081	0.0134
860.2715	0.0251
860.4348	-0.2886
860.5981	-0.0207
860.7614	0.1766
860.9246	-0.1934
861.0879	-0.4635
861.2511	0.0437
861.4143	-0.2921
861.5774	0.1732
861.7406	-0.0035
861.9037	-0.1253
862.0668	-0.1188
862.2299	-0.0699
862.393	-0.4782
862.556	-0.0711
862.7191	-0.0798
862.8821	-0.0229
863.0451	-0.024
863.208	-0.0639
863.371	-0.1385
863.5339	-0.0057
863.6968	-0.0576
863.8597	-0.0779
864.0225	-0.0477
864.1854	-0.1786
864.3482	-0
864.511	-0.0022
864.6737	0.2564
864.8365	0.1773
864.9992	-0.6145
865.1619	-0.503
865.3246	-0.2165
865.4873	0.084
865.65	0.7807
865.8126	0.255
865.9752	0.6103
866.1378	-0.2246
866.3004	-0
866.4629	0.263
866.6254	0.4047
866.7879	-0
866.9504	-0
867.1129	-0
867.2753	0.1153
867.4377	0.2011
867.6001	-0.3193
867.7625	0.0975
867.9249	-0.5746
868.0872	-0.0605
868.2495	-0.0845
868.4118	0.0078
868.5741	0.4162
868.7363	-0.3781
868.8986	-0.056
869.0608	0.1497
869.223	0.2106
869.3851	-0
869.5473	-0
869.7094	0.2952
869.8715	1.2613
870.0336	-0.413
870.1957	-0.52
870.3577	-0.6576
870.5197	0.0222
870.6817	-0.5174
870.8437	-0.0033
871.0057	-0
871.1676	0.2539
871.3295	-0.0765
871.4914	-0
871.6533	-0.3406
871.8151	-0.4874
871.977	-0
872.1388	-0
872.3006	-0
872.4623	-0
872.6241	0.1691
872.7858	-0
872.9475	-0.4019
873.1092	-0.244
873.2709	-0.0532
873.4325	0.4792
873.5941	-0.3262
873.7557	-0
873.9173	-0
874.0789	-0
874.2404	-0.5188
874.4019	-0.0988
874.5634	-0.2197
874.7249	-0.1817
874.8863	-0
875.0478	0.526
875.2092	-0
875.3706	0.3514
875.5319	-0.7874
875.6933	-0
875.8546	-0
876.0159	-0
876.1772	-0.0498
876.3385	-0
876.4997	0.0284
876.6609	-0.1676
876.8221	-0
876.9833	0.6335
877.1445	-0
877.3056	-0.1342
877.4667	-0
877.6278	0.2812
877.7889	-0.4472
877.9499	-0
878.111	-0
878.272	-0
878.433	-0
878.5939	-0
878.7549	-0.0917
878.9158	-0.7287
879.0767	0.2616
879.2376	-0
879.3984	0.441
879.5593	-0
879.7201	0.4226
879.8809	-0.3286
880.0417	-0
880.2024	0.299
880.3632	-0
880.5239	0.4139
880.6846	0.1076
880.8452	-2.5682
881.0059	-0
881.1665	-0.2404
881.3271	0.2558
881.4877	-0
881.6483	-0.5305
881.8088	-0.4644
881.9693	-0
882.1298	-0
882.2903	-0
