Data from MonoPyChalIsomerACN10uM350nmA_Absorbance_14-35-36-818.txt Node
Date: Fri Jul 05 14:35:36 BST 2024
User: LASERRRRR
Spectrometer: FLMT03099
Trigger mode: 0
Integration Time (sec): 1.000000E-1
Scans to average: 1
Electric dark correction enabled: true
Nonlinearity correction enabled: false
Boxcar width: 0
XAxis mode: Wavelengths
Number of Pixels in Spectrum: 3648
>>>>>Begin Spectral Data<<<<<
179.3399	-0.2698
179.5586	-0.2698
179.7771	-0.2698
179.9957	0.1719
180.2143	-0
180.4329	-0.3389
180.6514	-0
180.8699	-0
181.0885	0.1508
181.307	0.5652
181.5255	-0
181.744	-0
181.9625	-0
182.181	-0.8925
182.3994	-0
182.6179	-0
182.8363	-0.2117
183.0547	-0.1875
183.2732	0.2866
183.4916	-0.0247
183.71	-0.0068
183.9284	-0.0075
184.1467	0.1412
184.3651	0.0627
184.5835	-0.0337
184.8018	0.4359
185.0201	0.1655
185.2385	0.0386
185.4568	-0.0128
185.6751	0.0913
185.8934	0.2433
186.1117	0.0654
186.3299	0.0853
186.5482	0.0102
186.7664	-0.1333
186.9847	0.0011
187.2029	0.0175
187.4211	0.1599
187.6393	-0.0978
187.8575	-0.1439
188.0757	0.0596
188.2939	0.1458
188.512	-0.2249
188.7302	-0.2194
188.9483	-0.1617
189.1665	0.0038
189.3846	-0.0094
189.6027	0.0043
189.8208	0.239
190.0389	0.0771
190.257	0.174
190.475	0.1086
190.6931	0.2038
190.9111	0.2632
191.1292	0.1824
191.3472	0.3654
191.5652	0.2126
191.7832	0.2334
192.0012	0.5001
192.2192	0.4198
192.4371	0.3626
192.6551	0.3017
192.873	0.4748
193.091	0.6064
193.3089	0.4275
193.5268	0.3582
193.7447	0.5007
193.9626	0.4346
194.1805	0.5029
194.3984	0.6585
194.6162	0.5115
194.8341	0.4728
195.0519	0.5124
195.2697	0.747
195.4875	0.5214
195.7054	0.6266
195.9231	0.4943
196.1409	0.8061
196.3587	0.4172
196.5765	0.5449
196.7942	0.6629
197.012	0.5565
197.2297	0.4865
197.4474	0.6346
197.6651	0.4694
197.8828	0.505
198.1005	0.7077
198.3182	0.6084
198.5358	0.7541
198.7535	0.4909
198.9711	0.5333
199.1888	0.5983
199.4064	0.7397
199.624	0.544
199.8416	0.5194
200.0592	0.5938
200.2767	0.4998
200.4943	0.7356
200.7119	0.596
200.9294	0.6437
201.1469	0.5493
201.3645	0.5174
201.582	0.6489
201.7995	0.7161
202.017	0.6429
202.2344	0.5843
202.4519	0.7416
202.6694	0.5861
202.8868	0.6897
203.1042	0.7199
203.3217	0.6865
203.5391	0.7284
203.7565	0.5578
203.9739	0.7266
204.1913	0.6204
204.4086	0.6285
204.626	0.6023
204.8433	0.5755
205.0607	0.5647
205.278	0.6307
205.4953	0.6706
205.7126	0.6339
205.9299	0.7029
206.1472	0.6988
206.3644	0.7318
206.5817	0.7557
206.7989	0.6214
207.0162	0.6181
207.2334	0.6789
207.4506	0.5951
207.6678	0.621
207.885	0.7016
208.1022	0.6884
208.3194	0.6229
208.5365	0.6519
208.7537	0.6019
208.9708	0.555
209.1879	0.5972
209.405	0.6735
209.6222	0.6439
209.8392	0.6827
210.0563	0.5807
210.2734	0.6613
210.4905	0.6629
210.7075	0.6416
210.9245	0.5674
211.1416	0.6317
211.3586	0.6022
211.5756	0.5337
211.7926	0.611
212.0096	0.6253
212.2265	0.5392
212.4435	0.553
212.6604	0.5927
212.8774	0.6357
213.0943	0.5465
213.3112	0.533
213.5281	0.5029
213.745	0.4634
213.9619	0.5106
214.1788	0.5101
214.3956	0.4935
214.6125	0.4181
214.8293	0.469
215.0461	0.4862
215.2629	0.4267
215.4798	0.4449
215.6965	0.4245
215.9133	0.4583
216.1301	0.4115
216.3469	0.3971
216.5636	0.433
216.7803	0.3979
216.9971	0.4314
217.2138	0.3875
217.4305	0.3335
217.6472	0.3366
217.8639	0.3573
218.0805	0.3356
218.2972	0.3365
218.5138	0.3259
218.7305	0.3221
218.9471	0.2992
219.1637	0.2924
219.3803	0.267
219.5969	0.2925
219.8135	0.2502
220.0301	0.2764
220.2466	0.2773
220.4632	0.2818
220.6797	0.2226
220.8962	0.2377
221.1127	0.2618
221.3292	0.2683
221.5457	0.2531
221.7622	0.2273
221.9787	0.256
222.1951	0.2214
222.4116	0.2522
222.628	0.2397
222.8444	0.2472
223.0608	0.267
223.2772	0.2357
223.4936	0.2507
223.71	0.2487
223.9264	0.2728
224.1427	0.2446
224.3591	0.2515
224.5754	0.2737
224.7917	0.2477
225.008	0.2547
225.2243	0.2627
225.4406	0.2809
225.6569	0.2657
225.8732	0.2501
226.0894	0.2487
226.3057	0.2719
226.5219	0.2849
226.7381	0.2584
226.9543	0.2757
227.1705	0.2839
227.3867	0.2795
227.6029	0.3005
227.8191	0.2864
228.0352	0.277
228.2513	0.3028
228.4675	0.3072
228.6836	0.3026
228.8997	0.3045
229.1158	0.3091
229.3319	0.3051
229.548	0.3244
229.764	0.3362
229.9801	0.3271
230.1961	0.3158
230.4121	0.3417
230.6282	0.3452
230.8442	0.3162
231.0602	0.3658
231.2761	0.3668
231.4921	0.3396
231.7081	0.3295
231.924	0.3502
232.14	0.362
232.3559	0.3603
232.5718	0.3742
232.7877	0.3648
233.0036	0.3305
233.2195	0.3594
233.4353	0.3663
233.6512	0.3591
233.867	0.3615
234.0829	0.3461
234.2987	0.3666
234.5145	0.3872
234.7303	0.3643
234.9461	0.4052
235.1619	0.3631
235.3776	0.3643
235.5934	0.378
235.8091	0.3669
236.0249	0.3806
236.2406	0.3747
236.4563	0.3823
236.672	0.3909
236.8877	0.3828
237.1034	0.3743
237.319	0.3902
237.5347	0.4041
237.7503	0.3842
237.966	0.4067
238.1816	0.4026
238.3972	0.4118
238.6128	0.3889
238.8284	0.4185
239.0439	0.4002
239.2595	0.3956
239.475	0.4152
239.6906	0.3921
239.9061	0.3898
240.1216	0.3843
240.3371	0.3916
240.5526	0.3982
240.7681	0.401
240.9836	0.3896
241.199	0.4062
241.4145	0.3798
241.6299	0.3737
241.8453	0.3792
242.0607	0.3797
242.2761	0.3557
242.4915	0.3582
242.7069	0.3739
242.9223	0.351
243.1376	0.3427
243.353	0.3432
243.5683	0.34
243.7836	0.3248
243.9989	0.3295
244.2142	0.3075
244.4295	0.3251
244.6448	0.3114
244.86	0.2951
245.0753	0.3003
245.2905	0.2846
245.5057	0.2876
245.721	0.2728
245.9362	0.2675
246.1514	0.2673
246.3665	0.2569
246.5817	0.2575
246.7969	0.2518
247.012	0.2384
247.2271	0.2317
247.4423	0.2374
247.6574	0.2384
247.8725	0.226
248.0876	0.2223
248.3026	0.2183
248.5177	0.2276
248.7328	0.2114
248.9478	0.2046
249.1628	0.2008
249.3779	0.2159
249.5929	0.2029
249.8079	0.2144
250.0228	0.203
250.2378	0.205
250.4528	0.1978
250.6677	0.1948
250.8827	0.1979
251.0976	0.1978
251.3125	0.1792
251.5274	0.1679
251.7423	0.1831
251.9572	0.1856
252.172	0.1747
252.3869	0.1788
252.6017	0.1772
252.8166	0.1699
253.0314	0.1613
253.2462	0.1657
253.461	0.1787
253.6758	0.1837
253.8906	0.1717
254.1053	0.17
254.3201	0.1676
254.5348	0.1805
254.7496	0.1889
254.9643	0.1704
255.179	0.1675
255.3937	0.1617
255.6083	0.1762
255.823	0.1633
256.0377	0.1661
256.2523	0.1647
256.467	0.1551
256.6816	0.1822
256.8962	0.1559
257.1108	0.1631
257.3254	0.1709
257.54	0.1454
257.7545	0.1678
257.9691	0.1769
258.1836	0.1768
258.3981	0.1767
258.6127	0.1697
258.8272	0.1565
259.0417	0.1729
259.2561	0.164
259.4706	0.1669
259.6851	0.1689
259.8995	0.1586
260.114	0.1594
260.3284	0.1629
260.5428	0.1649
260.7572	0.1722
260.9716	0.1713
261.186	0.1503
261.4003	0.1647
261.6147	0.1809
261.829	0.1663
262.0433	0.1603
262.2577	0.16
262.472	0.1697
262.6863	0.1639
262.9005	0.1632
263.1148	0.1648
263.3291	0.146
263.5433	0.1635
263.7576	0.1655
263.9718	0.1729
264.186	0.1587
264.4002	0.1667
264.6144	0.1537
264.8286	0.1715
265.0427	0.1531
265.2569	0.156
265.471	0.1726
265.6851	0.1525
265.8993	0.1544
266.1134	0.1669
266.3275	0.1543
266.5415	0.1537
266.7556	0.1576
266.9697	0.1724
267.1837	0.1534
267.3978	0.1693
267.6118	0.1656
267.8258	0.1764
268.0398	0.1517
268.2538	0.1455
268.4677	0.1744
268.6817	0.1559
268.8957	0.1516
269.1096	0.1539
269.3235	0.1596
269.5374	0.1629
269.7514	0.1485
269.9652	0.1651
270.1791	0.1492
270.393	0.1519
270.6068	0.1491
270.8207	0.1415
271.0345	0.1441
271.2483	0.1536
271.4622	0.1479
271.676	0.1456
271.8897	0.1296
272.1035	0.1336
272.3173	0.142
272.531	0.1476
272.7448	0.1403
272.9585	0.1412
273.1722	0.1442
273.3859	0.1477
273.5996	0.1398
273.8133	0.1487
274.0269	0.141
274.2406	0.1355
274.4542	0.1379
274.6679	0.1385
274.8815	0.1488
275.0951	0.15
275.3087	0.1576
275.5223	0.1391
275.7358	0.1545
275.9494	0.151
276.1629	0.1343
276.3765	0.1357
276.59	0.1599
276.8035	0.1528
277.017	0.1372
277.2305	0.1361
277.444	0.1473
277.6574	0.1486
277.8709	0.1375
278.0843	0.1337
278.2978	0.1412
278.5112	0.1367
278.7246	0.1488
278.938	0.1469
279.1513	0.1493
279.3647	0.1547
279.5781	0.1371
279.7914	0.1553
280.0047	0.1494
280.2181	0.1522
280.4314	0.1597
280.6447	0.1449
280.8579	0.1483
281.0712	0.1626
281.2845	0.1637
281.4977	0.1435
281.711	0.1428
281.9242	0.1482
282.1374	0.1538
282.3506	0.1393
282.5638	0.1594
282.7769	0.1509
282.9901	0.1564
283.2033	0.1647
283.4164	0.1621
283.6295	0.1455
283.8426	0.1441
284.0557	0.1563
284.2688	0.1668
284.4819	0.1592
284.695	0.16
284.908	0.1626
285.1211	0.1534
285.3341	0.1562
285.5471	0.1685
285.7601	0.1651
285.9731	0.1517
286.1861	0.1523
286.3991	0.1676
286.612	0.1678
286.825	0.1671
287.0379	0.1728
287.2508	0.1607
287.4637	0.1522
287.6766	0.1525
287.8895	0.1588
288.1024	0.1783
288.3152	0.1683
288.5281	0.1562
288.7409	0.1693
288.9538	0.1624
289.1666	0.1673
289.3794	0.1525
289.5922	0.1617
289.8049	0.1619
290.0177	0.1612
290.2304	0.163
290.4432	0.1613
290.6559	0.1634
290.8686	0.1676
291.0813	0.1621
291.294	0.1563
291.5067	0.1653
291.7194	0.1711
291.932	0.1681
292.1447	0.1674
292.3573	0.1506
292.5699	0.1545
292.7825	0.1596
292.9951	0.1607
293.2077	0.1601
293.4203	0.1697
293.6328	0.1508
293.8454	0.1699
294.0579	0.1619
294.2704	0.1648
294.4829	0.1594
294.6954	0.1618
294.9079	0.1703
295.1204	0.1638
295.3328	0.1651
295.5453	0.1652
295.7577	0.1617
295.9701	0.1514
296.1825	0.1668
296.3949	0.1699
296.6073	0.157
296.8197	0.1485
297.0321	0.1781
297.2444	0.1498
297.4567	0.159
297.6691	0.1679
297.8814	0.1555
298.0937	0.1671
298.306	0.1673
298.5182	0.1595
298.7305	0.1715
298.9428	0.1575
299.155	0.168
299.3672	0.1587
299.5794	0.162
299.7916	0.1636
300.0038	0.171
300.216	0.174
300.4282	0.1701
300.6403	0.1673
300.8525	0.1711
301.0646	0.152
301.2767	0.1746
301.4888	0.1597
301.7009	0.1657
301.913	0.16
302.125	0.1646
302.3371	0.1506
302.5491	0.165
302.7612	0.1633
302.9732	0.1691
303.1852	0.1614
303.3972	0.1665
303.6092	0.1567
303.8211	0.1612
304.0331	0.1487
304.245	0.1495
304.457	0.1467
304.6689	0.1581
304.8808	0.1633
305.0927	0.1522
305.3046	0.1485
305.5164	0.1654
305.7283	0.1478
305.9401	0.1537
306.152	0.1473
306.3638	0.1437
306.5756	0.15
306.7874	0.1454
306.9992	0.145
307.2109	0.1434
307.4227	0.134
307.6344	0.144
307.8462	0.133
308.0579	0.1365
308.2696	0.1347
308.4813	0.1328
308.693	0.1279
308.9046	0.1413
309.1163	0.1279
309.328	0.1366
309.5396	0.1233
309.7512	0.1234
309.9628	0.1235
310.1744	0.1256
310.386	0.1177
310.5976	0.1224
310.8091	0.1257
311.0207	0.1215
311.2322	0.1242
311.4437	0.1126
311.6552	0.0996
311.8667	0.1202
312.0782	0.0973
312.2897	0.1121
312.5012	0.116
312.7126	0.1026
312.924	0.109
313.1355	0.1109
313.3469	0.1122
313.5583	0.1102
313.7696	0.1049
313.981	0.1135
314.1924	0.1037
314.4037	0.1039
314.6151	0.1138
314.8264	0.1082
315.0377	0.1051
315.249	0.1084
315.4603	0.1143
315.6716	0.1027
315.8828	0.0966
316.0941	0.094
316.3053	0.0957
316.5165	0.1038
316.7277	0.0883
316.9389	0.1094
317.1501	0.1043
317.3613	0.0916
317.5724	0.0824
317.7836	0.0853
317.9947	0.0933
318.2058	0.0956
318.417	0.0995
318.6281	0.0935
318.8391	0.091
319.0502	0.0952
319.2613	0.0972
319.4723	0.0947
319.6834	0.0989
319.8944	0.0913
320.1054	0.1069
320.3164	0.1016
320.5274	0.095
320.7383	0.0951
320.9493	0.0859
321.1602	0.106
321.3712	0.0922
321.5821	0.1011
321.793	0.0996
322.0039	0.0932
322.2148	0.1017
322.4257	0.1035
322.6365	0.1058
322.8474	0.0957
323.0582	0.0938
323.269	0.0956
323.4798	0.1075
323.6906	0.0953
323.9014	0.104
324.1122	0.1016
324.3229	0.1037
324.5337	0.1034
324.7444	0.092
324.9551	0.1055
325.1658	0.102
325.3765	0.1077
325.5872	0.1146
325.7979	0.097
326.0085	0.0935
326.2192	0.1049
326.4298	0.1106
326.6404	0.0971
326.851	0.0912
327.0616	0.0965
327.2722	0.1019
327.4828	0.1148
327.6933	0.097
327.9039	0.1099
328.1144	0.1073
328.3249	0.1101
328.5354	0.1008
328.7459	0.1026
328.9564	0.0976
329.1669	0.1083
329.3773	0.1018
329.5878	0.0902
329.7982	0.1041
330.0086	0.0962
330.219	0.1076
330.4294	0.1078
330.6398	0.1007
330.8502	0.0973
331.0605	0.1121
331.2708	0.1077
331.4812	0.1152
331.6915	0.1138
331.9018	0.1129
332.1121	0.1009
332.3224	0.1047
332.5326	0.1109
332.7429	0.1129
332.9531	0.1083
333.1633	0.1065
333.3735	0.1125
333.5837	0.1041
333.7939	0.1003
334.0041	0.1203
334.2143	0.1163
334.4244	0.1088
334.6346	0.0942
334.8447	0.1207
335.0548	0.1082
335.2649	0.0976
335.475	0.1199
335.685	0.0965
335.8951	0.1124
336.1051	0.1337
336.3152	0.1144
336.5252	0.1072
336.7352	0.1137
336.9452	0.1166
337.1552	0.1043
337.3652	0.1122
337.5751	0.103
337.7851	0.1164
337.995	0.0999
338.2049	0.117
338.4148	0.1109
338.6247	0.118
338.8346	0.1103
339.0445	0.098
339.2543	0.1196
339.4642	0.1129
339.674	0.1029
339.8838	0.1179
340.0936	0.1139
340.3034	0.1151
340.5132	0.1226
340.7229	0.1177
340.9327	0.1147
341.1424	0.1269
341.3522	0.1292
341.5619	0.1173
341.7716	0.1239
341.9813	0.1257
342.1909	0.1179
342.4006	0.1259
342.6102	0.1307
342.8199	0.1195
343.0295	0.1269
343.2391	0.1223
343.4487	0.1344
343.6583	0.1262
343.8679	0.1317
344.0774	0.1236
344.287	0.132
344.4965	0.1247
344.706	0.1238
344.9155	0.1217
345.125	0.1316
345.3345	0.1271
345.544	0.1232
345.7534	0.1336
345.9629	0.1257
346.1723	0.1272
346.3817	0.1304
346.5911	0.1311
346.8005	0.1348
347.0099	0.1324
347.2193	0.1323
347.4286	0.1331
347.638	0.1326
347.8473	0.1346
348.0566	0.1294
348.2659	0.14
348.4752	0.1368
348.6845	0.1304
348.8937	0.1329
349.103	0.1369
349.3122	0.1219
349.5214	0.1347
349.7306	0.131
349.9398	0.135
350.149	0.1248
350.3582	0.1355
350.5674	0.151
350.7765	0.1462
350.9856	0.1465
351.1948	0.1432
351.4039	0.1276
351.613	0.1293
351.822	0.1504
352.0311	0.1457
352.2402	0.1427
352.4492	0.1436
352.6582	0.1506
352.8672	0.1502
353.0762	0.1511
353.2852	0.1526
353.4942	0.1487
353.7032	0.1582
353.9121	0.1544
354.1211	0.1419
354.33	0.1536
354.5389	0.1551
354.7478	0.1557
354.9567	0.1484
355.1655	0.135
355.3744	0.1546
355.5833	0.1665
355.7921	0.1643
356.0009	0.1549
356.2097	0.1669
356.4185	0.1586
356.6273	0.1594
356.8361	0.1637
357.0448	0.153
357.2536	0.1631
357.4623	0.1624
357.671	0.1679
357.8797	0.1622
358.0884	0.1616
358.2971	0.156
358.5057	0.167
358.7144	0.1667
358.923	0.1717
359.1316	0.1726
359.3402	0.1707
359.5488	0.1815
359.7574	0.1642
359.966	0.1754
360.1746	0.1775
360.3831	0.1732
360.5916	0.1679
360.8002	0.1584
361.0087	0.1879
361.2172	0.1704
361.4256	0.1756
361.6341	0.1963
361.8426	0.1714
362.051	0.1775
362.2594	0.1918
362.4678	0.1773
362.6762	0.1978
362.8846	0.1977
363.093	0.1878
363.3014	0.1786
363.5097	0.1721
363.718	0.1859
363.9264	0.193
364.1347	0.1761
364.343	0.1913
364.5513	0.195
364.7595	0.2051
364.9678	0.1875
365.176	0.1964
365.3842	0.1919
365.5925	0.195
365.8007	0.1902
366.0089	0.1987
366.217	0.1752
366.4252	0.216
366.6333	0.2028
366.8415	0.2085
367.0496	0.2041
367.2577	0.1937
367.4658	0.213
367.6739	0.2094
367.882	0.215
368.09	0.2017
368.2981	0.2088
368.5061	0.2056
368.7141	0.2044
368.9221	0.2116
369.1301	0.1991
369.3381	0.1941
369.5461	0.2144
369.754	0.2173
369.962	0.2218
370.1699	0.2256
370.3778	0.2168
370.5857	0.2069
370.7936	0.2196
371.0015	0.2157
371.2093	0.2162
371.4172	0.2213
371.625	0.2103
371.8328	0.197
372.0406	0.2172
372.2484	0.2131
372.4562	0.2235
372.664	0.2034
372.8717	0.2258
373.0795	0.2188
373.2872	0.224
373.4949	0.2212
373.7026	0.2227
373.9103	0.2235
374.118	0.2303
374.3256	0.2222
374.5333	0.2223
374.7409	0.2125
374.9485	0.234
375.1561	0.2377
375.3637	0.2593
375.5713	0.24
375.7789	0.2495
375.9864	0.2291
376.194	0.2162
376.4015	0.2373
376.609	0.2343
376.8165	0.2372
377.024	0.2377
377.2315	0.2285
377.4389	0.2478
377.6464	0.2524
377.8538	0.2255
378.0612	0.2432
378.2686	0.2549
378.476	0.2524
378.6834	0.227
378.8908	0.2508
379.0981	0.2584
379.3055	0.2648
379.5128	0.2324
379.7201	0.2535
379.9274	0.2338
380.1347	0.2522
380.342	0.2659
380.5492	0.2418
380.7565	0.2432
380.9637	0.2384
381.1709	0.2433
381.3781	0.2319
381.5853	0.2773
381.7925	0.2501
381.9997	0.2666
382.2068	0.2693
382.4139	0.2477
382.6211	0.2507
382.8282	0.2448
383.0353	0.2645
383.2424	0.2564
383.4494	0.2476
383.6565	0.2417
383.8635	0.2534
384.0706	0.2436
384.2776	0.2587
384.4846	0.2603
384.6916	0.2655
384.8986	0.2517
385.1055	0.2692
385.3125	0.2504
385.5194	0.24
385.7263	0.2649
385.9333	0.256
386.1402	0.2521
386.347	0.2478
386.5539	0.2407
386.7608	0.2761
386.9676	0.2604
387.1744	0.2525
387.3813	0.2442
387.5881	0.2562
387.7948	0.2555
388.0016	0.2569
388.2084	0.2401
388.4151	0.2481
388.6219	0.2653
388.8286	0.24
389.0353	0.2702
389.242	0.255
389.4487	0.2523
389.6553	0.2517
389.862	0.2023
390.0686	0.2385
390.2753	0.2552
390.4819	0.2486
390.6885	0.2321
390.8951	0.2381
391.1016	0.2398
391.3082	0.2353
391.5147	0.236
391.7213	0.2348
391.9278	0.2196
392.1343	0.2374
392.3408	0.2296
392.5473	0.2416
392.7537	0.2486
392.9602	0.2214
393.1666	0.2257
393.373	0.2299
393.5794	0.2472
393.7858	0.2207
393.9922	0.22
394.1986	0.2544
394.4049	0.2272
394.6113	0.2257
394.8176	0.2013
395.0239	0.2193
395.2302	0.2241
395.4365	0.2229
395.6428	0.2235
395.8491	0.2027
396.0553	0.2216
396.2615	0.2191
396.4678	0.2212
396.674	0.211
396.8802	0.2233
397.0863	0.2161
397.2925	0.2131
397.4987	0.2064
397.7048	0.2076
397.9109	0.2264
398.117	0.2173
398.3231	0.2148
398.5292	0.2127
398.7353	0.2111
398.9413	0.2227
399.1474	0.2096
399.3534	0.21
399.5594	0.2115
399.7654	0.2215
399.9714	0.2086
400.1774	0.2109
400.3833	0.2143
400.5893	0.2185
400.7952	0.2011
401.0011	0.2168
401.207	0.2195
401.4129	0.2073
401.6188	0.2385
401.8247	0.2231
402.0305	0.2154
402.2364	0.2244
402.4422	0.2202
402.648	0.2416
402.8538	0.2296
403.0596	0.2018
403.2654	0.2147
403.4711	0.2155
403.6768	0.2061
403.8826	0.2085
404.0883	0.212
404.294	0.2209
404.4997	0.2077
404.7054	0.2202
404.911	0.204
405.1167	0.2002
405.3223	0.2293
405.5279	0.2204
405.7335	0.2174
405.9391	0.2242
406.1447	0.2024
406.3502	0.2366
406.5558	0.2114
406.7613	0.1989
406.9668	0.2217
407.1724	0.2054
407.3778	0.2003
407.5833	0.2108
407.7888	0.1956
407.9942	0.221
408.1997	0.2072
408.4051	0.2033
408.6105	0.214
408.8159	0.2067
409.0213	0.2074
409.2267	0.2267
409.432	0.1997
409.6374	0.2261
409.8427	0.2143
410.048	0.2203
410.2533	0.2099
410.4586	0.21
410.6639	0.2029
410.8691	0.1983
411.0744	0.1992
411.2796	0.1905
411.4848	0.2091
411.69	0.2083
411.8952	0.2314
412.1004	0.2009
412.3056	0.2123
412.5107	0.2103
412.7158	0.2188
412.921	0.2284
413.1261	0.2152
413.3312	0.1984
413.5362	0.1988
413.7413	0.2124
413.9464	0.2038
414.1514	0.2058
414.3564	0.2033
414.5614	0.2079
414.7664	0.2141
414.9714	0.1967
415.1764	0.1931
415.3813	0.2017
415.5863	0.2211
415.7912	0.2193
415.9961	0.21
416.201	0.2056
416.4059	0.2044
416.6108	0.1959
416.8156	0.2161
417.0205	0.1856
417.2253	0.1817
417.4301	0.2109
417.6349	0.1927
417.8397	0.1862
418.0445	0.1907
418.2492	0.2146
418.454	0.1845
418.6587	0.1816
418.8634	0.2038
419.0681	0.2079
419.2728	0.1926
419.4775	0.1853
419.6822	0.1986
419.8868	0.1599
420.0915	0.1971
420.2961	0.1679
420.5007	0.199
420.7053	0.1928
420.9099	0.1998
421.1144	0.1939
421.319	0.1833
421.5235	0.1909
421.728	0.2065
421.9325	0.1922
422.137	0.203
422.3415	0.1865
422.546	0.1952
422.7504	0.1797
422.9549	0.1852
423.1593	0.2085
423.3637	0.1886
423.5681	0.1729
423.7725	0.1814
423.9769	0.1684
424.1812	0.1714
424.3856	0.1651
424.5899	0.1751
424.7942	0.1884
424.9985	0.1834
425.2028	0.1612
425.4071	0.1774
425.6113	0.1575
425.8156	0.1829
426.0198	0.1923
426.224	0.1562
426.4282	0.1611
426.6324	0.1633
426.8366	0.1624
427.0407	0.1642
427.2449	0.1738
427.449	0.1695
427.6531	0.159
427.8572	0.134
428.0613	0.1471
428.2654	0.1707
428.4694	0.1621
428.6735	0.1538
428.8775	0.1616
429.0815	0.162
429.2855	0.1541
429.4895	0.1675
429.6935	0.1503
429.8975	0.1466
430.1014	0.1283
430.3053	0.1415
430.5093	0.1475
430.7132	0.1344
430.9171	0.1313
431.1209	0.1332
431.3248	0.1491
431.5286	0.136
431.7325	0.146
431.9363	0.1302
432.1401	0.1311
432.3439	0.1218
432.5477	0.1243
432.7514	0.1132
432.9552	0.1276
433.1589	0.1107
433.3627	0.1166
433.5664	0.1267
433.7701	0.1244
433.9737	0.1218
434.1774	0.0907
434.3811	0.1084
434.5847	0.1372
434.7883	0.1209
434.9919	0.1148
435.1955	0.1161
435.3991	0.1094
435.6027	0.115
435.8062	0.1066
436.0098	0.0957
436.2133	0.1114
436.4168	0.0948
436.6203	0.0813
436.8238	0.1123
437.0272	0.0963
437.2307	0.0937
437.4341	0.103
437.6375	0.0884
437.841	0.0991
438.0443	0.1065
438.2477	0.0848
438.4511	0.0862
438.6545	0.0805
438.8578	0.0936
439.0611	0.0886
439.2644	0.0908
439.4677	0.0769
439.671	0.0628
439.8743	0.068
440.0775	0.089
440.2808	0.0767
440.484	0.0724
440.6872	0.0679
440.8904	0.0773
441.0936	0.0935
441.2967	0.0765
441.4999	0.0697
441.703	0.0639
441.9062	0.0527
442.1093	0.0554
442.3124	0.0756
442.5155	0.0502
442.7185	0.0668
442.9216	0.0457
443.1246	0.066
443.3276	0.0625
443.5307	0.0661
443.7337	0.0594
443.9366	0.0634
444.1396	0.0482
444.3426	0.0445
444.5455	0.0444
444.7484	0.0574
444.9513	0.0518
445.1542	0.0537
445.3571	0.0589
445.56	0.044
445.7628	0.0281
445.9657	0.0383
446.1685	0.0523
446.3713	0.0583
446.5741	0.0488
446.7769	0.0315
446.9797	0.0475
447.1824	0.0509
447.3852	0.0442
447.5879	0.0394
447.7906	0.0492
447.9933	0.0527
448.196	0.0303
448.3986	0.0333
448.6013	0.0197
448.8039	0.0168
449.0066	0.0282
449.2092	0.0443
449.4118	0.0442
449.6143	0.0289
449.8169	0.0488
450.0195	0.0195
450.222	0.0077
450.4245	0.017
450.627	0.042
450.8295	0.0308
451.032	0.0252
451.2345	0.0159
451.4369	0.0311
451.6394	0.0307
451.8418	0.0118
452.0442	0.0192
452.2466	0.0488
452.449	0.0203
452.6513	0.0286
452.8537	0.0049
453.056	0.0174
453.2583	0.0265
453.4607	0.03
453.663	0.018
453.8652	0.0264
454.0675	0.007
454.2697	0.0213
454.472	0.0152
454.6742	0.0258
454.8764	0.0161
455.0786	0.0193
455.2808	0.0107
455.4829	0.0217
455.6851	0.032
455.8872	0.0157
456.0893	0.0225
456.2915	-0.0073
456.4935	0.0221
456.6956	0.0101
456.8977	0.0062
457.0997	0.0104
457.3018	0.0007
457.5038	0.0168
457.7058	0.0067
457.9078	0.0061
458.1098	0.0111
458.3117	0.0157
458.5137	0.0074
458.7156	0.0187
458.9175	0.0063
459.1194	0.0071
459.3213	0.0179
459.5232	0.0048
459.725	-0.0082
459.9269	0.004
460.1287	-0.0036
460.3305	0.0094
460.5323	0.0188
460.7341	0.0108
460.9359	0.0155
461.1376	0.0126
461.3394	0.0114
461.5411	0.0089
461.7428	0.0025
461.9445	0.0138
462.1462	0.0262
462.3479	0.007
462.5495	-0.0008
462.7512	0.0021
462.9528	-0.0003
463.1544	-0.0037
463.356	0.0114
463.5576	0.0134
463.7592	-0.0155
463.9607	0.0089
464.1623	0.01
464.3638	0.0228
464.5653	-0.0126
464.7668	0.0115
464.9683	0.0214
465.1697	0.0153
465.3712	0.0002
465.5726	-0.0065
465.7741	0.0072
465.9755	-0.0062
466.1769	0.0053
466.3782	0.02
466.5796	-0.0114
466.7809	0.0117
466.9823	-0.0111
467.1836	-0.0033
467.3849	-0.0029
467.5862	0.007
467.7875	-0.0077
467.9887	0.0139
468.19	0.0106
468.3912	-0.0032
468.5924	-0.0051
468.7936	-0.0073
468.9948	0.0099
469.196	0.0017
469.3972	-0.0086
469.5983	0.0025
469.7994	-0.0097
470.0006	-0.008
470.2017	-0.0066
470.4027	0.0002
470.6038	-0.0126
470.8049	-0.0194
471.0059	-0.0084
471.2069	-0.0239
471.408	0.003
471.6089	0.0002
471.8099	0.0019
472.0109	0.003
472.2119	-0.0036
472.4128	-0.0241
472.6137	0.0086
472.8146	-0.0048
473.0155	0.0017
473.2164	0.0032
473.4173	0.0127
473.6181	-0.0001
473.819	-0.0099
474.0198	0.0041
474.2206	-0.0062
474.4214	-0.0038
474.6222	0.0065
474.8229	-0.0039
475.0237	-0.0217
475.2244	-0.0058
475.4251	-0.0075
475.6258	0.0011
475.8265	-0.0039
476.0272	0.0114
476.2278	0.0098
476.4285	-0.0107
476.6291	0.0009
476.8297	-0.0127
477.0303	-0.0108
477.2309	-0.0049
477.4315	-0.0051
477.632	-0.0113
477.8326	0.0052
478.0331	-0.006
478.2336	-0.0023
478.4341	-0.0062
478.6346	-0.0124
478.8351	-0.0012
479.0355	0.0075
479.236	-0.0075
479.4364	0.0016
479.6368	-0.0113
479.8372	-0.0094
480.0376	-0.0025
480.2379	-0.0116
480.4383	-0.0021
480.6386	0.0009
480.8389	-0.0053
481.0392	-0.0076
481.2395	-0.0085
481.4398	0.0064
481.6401	0.0013
481.8403	-0.0061
482.0405	-0.0142
482.2408	-0.0039
482.441	0.0126
482.6411	-0.0038
482.8413	0.0011
483.0415	-0.0142
483.2416	0.0079
483.4417	0.0031
483.6419	-0.001
483.8419	-0.0037
484.042	0.0069
484.2421	-0.0035
484.4422	-0.0032
484.6422	-0.0007
484.8422	-0.0126
485.0422	-0.0123
485.2422	-0.0023
485.4422	-0.0057
485.6422	-0.0068
485.8421	-0.0135
486.042	0.0047
486.242	-0.0003
486.4419	-0.0037
486.6417	-0.0125
486.8416	-0.0044
487.0415	-0.004
487.2413	-0.016
487.4411	-0.0023
487.641	-0.015
487.8408	0.0001
488.0405	-0.0031
488.2403	0.0005
488.4401	0.0005
488.6398	-0.0051
488.8395	-0.0157
489.0392	0.0065
489.2389	-0.0094
489.4386	-0.0064
489.6383	-0.0054
489.8379	-0.0008
490.0376	-0.0084
490.2372	-0.0171
490.4368	-0.0102
490.6364	-0.0005
490.836	-0.0089
491.0355	0.0058
491.2351	-0.0103
491.4346	0.0055
491.6341	-0.0096
491.8336	0.0101
492.0331	-0.0073
492.2326	-0.0131
492.432	-0.0087
492.6315	-0.0074
492.8309	-0.0197
493.0303	-0.0022
493.2297	-0.0081
493.4291	0.0022
493.6284	-0.0084
493.8278	-0.009
494.0271	0.0087
494.2264	0.0085
494.4257	-0.0154
494.625	-0.0055
494.8243	-0.0218
495.0236	-0.0144
495.2228	-0.007
495.422	0.0018
495.6213	0
495.8205	-0.0047
496.0196	0.0001
496.2188	0.0055
496.418	-0.007
496.6171	-0.007
496.8162	-0.004
497.0153	0.0087
497.2144	-0.0073
497.4135	0.0026
497.6126	-0.0134
497.8116	-0.0038
498.0107	-0.0047
498.2097	-0.0102
498.4087	-0.0142
498.6077	-0.0018
498.8067	-0.0158
499.0056	0.0035
499.2046	-0.0067
499.4035	-0.021
499.6024	0
499.8013	-0.0056
500.0002	-0.027
500.199	-0.0081
500.3979	-0.0107
500.5967	-0.0152
500.7956	-0.0061
500.9944	-0.0074
501.1932	-0.0053
501.3919	-0.0077
501.5907	-0.0092
501.7895	-0.0004
501.9882	-0.0043
502.1869	0
502.3856	-0.0127
502.5843	-0.0091
502.783	-0.003
502.9816	-0.0024
503.1803	-0.0067
503.3789	-0.0163
503.5775	0.0018
503.7761	-0.0096
503.9747	-0.0032
504.1732	-0.0052
504.3718	0.0001
504.5703	0.0042
504.7689	-0.0091
504.9674	-0.0046
505.1658	-0.0171
505.3643	-0.0112
505.5628	-0.0047
505.7612	-0.0189
505.9597	0.0055
506.1581	-0.0061
506.3565	0.0032
506.5549	-0.0044
506.7532	-0.0127
506.9516	-0.0014
507.1499	0.0091
507.3482	-0.014
507.5465	-0.0143
507.7448	-0.0056
507.9431	-0.009
508.1414	-0.0021
508.3396	-0.0004
508.5379	-0.0041
508.7361	-0.0077
508.9343	0.0014
509.1325	0.0042
509.3306	-0.0001
509.5288	-0.0103
509.7269	-0.0027
509.9251	0.0014
510.1232	-0.0126
510.3213	-0.0022
510.5193	0.0007
510.7174	-0.0208
510.9154	-0.0145
511.1135	-0.0062
511.3115	-0.0028
511.5095	-0.0032
511.7075	0.0013
511.9055	0.0006
512.1034	-0.0114
512.3014	-0.0027
512.4993	-0.0056
512.6972	-0.0084
512.8951	-0.0171
513.093	-0.0024
513.2908	-0.0057
513.4887	-0.0127
513.6865	-0.0056
513.8844	-0.0057
514.0822	-0.0099
514.2799	-0.0123
514.4777	-0.0119
514.6755	-0.01
514.8732	-0.0113
515.0709	-0.0079
515.2687	-0.0099
515.4664	0.0038
515.664	-0.0084
515.8617	-0.011
516.0594	-0.0171
516.257	-0.0005
516.4546	-0.0186
516.6522	-0.0016
516.8498	-0.0019
517.0474	0.0037
517.2449	-0.0011
517.4425	-0.0136
517.64	-0.0124
517.8375	0.0069
518.035	0.0001
518.2325	-0.0058
518.43	-0.009
518.6274	-0.011
518.8249	-0.0138
519.0223	-0.0038
519.2197	-0.0008
519.4171	-0.0096
519.6145	-0.0073
519.8118	0.0038
520.0092	0.0017
520.2065	-0.0117
520.4038	-0.0112
520.6011	-0.0083
520.7984	-0.008
520.9956	0.0018
521.1929	-0.0103
521.3901	-0.0103
521.5874	-0.003
521.7846	-0.0005
521.9818	-0.0077
522.1789	-0.0131
522.3761	-0.0047
522.5732	-0.0102
522.7704	-0.0103
522.9675	-0.0142
523.1646	-0.0082
523.3617	0.0039
523.5587	-0.006
523.7558	0.0006
523.9528	-0.0048
524.1498	0.0051
524.3468	-0.0037
524.5438	-0.002
524.7408	-0.0057
524.9378	-0.0054
525.1347	-0.0071
525.3316	-0.0086
525.5285	-0.0093
525.7254	-0.0067
525.9223	0.0017
526.1192	-0.0092
526.316	-0.005
526.5129	0.0063
526.7097	-0.0067
526.9065	-0.0079
527.1033	-0.0113
527.3	0.007
527.4968	-0.0009
527.6935	0.0037
527.8903	-0.0127
528.087	-0.01
528.2837	-0.0064
528.4804	-0.0065
528.677	-0.0035
528.8737	0.0115
529.0703	0.0057
529.2669	-0.0007
529.4635	-0.0034
529.6601	0.0073
529.8567	-0.008
530.0532	-0.0086
530.2498	0.0006
530.4463	0.0035
530.6428	-0.0019
530.8393	-0.001
531.0358	-0.0038
531.2322	0.0037
531.4287	-0.0064
531.6251	0.0029
531.8215	0.0044
532.0179	0.0034
532.2143	0.0037
532.4107	-0.0004
532.607	-0.0047
532.8034	-0.0031
532.9997	0.0005
533.196	-0.0009
533.3923	-0.0025
533.5886	-0.0049
533.7848	-0.012
533.9811	0.006
534.1773	0.005
534.3735	0.0019
534.5697	-0.003
534.7659	0.0068
534.9621	0.0031
535.1582	-0.0001
535.3544	-0.0049
535.5505	0.0025
535.7466	-0.0023
535.9427	-0.007
536.1387	-0.0008
536.3348	-0.008
536.5308	0.0023
536.7269	-0.0179
536.9229	-0.0028
537.1189	-0.002
537.3148	0.008
537.5108	-0.003
537.7068	-0.0008
537.9027	-0.0038
538.0986	-0.0075
538.2945	-0.0152
538.4904	-0.0101
538.6863	-0.0089
538.8821	-0.0033
539.078	-0.0054
539.2738	0.001
539.4696	-0.0084
539.6654	-0.0016
539.8611	0.0165
540.0569	0.0012
540.2526	-0.0071
540.4484	-0.0008
540.6441	0.0112
540.8398	0.0034
541.0355	0.0026
541.2311	-0.0021
541.4268	-0.0102
541.6224	-0.0032
541.818	-0.0001
542.0136	-0.0118
542.2092	-0.0041
542.4048	0.009
542.6003	0.0033
542.7959	0.0001
542.9914	-0.0002
543.1869	-0.0008
543.3824	0.0011
543.5779	-0.004
543.7734	-0.0006
543.9688	-0.0016
544.1642	0.0005
544.3596	0.0032
544.555	-0.0003
544.7504	0.0016
544.9458	-0.0039
545.1411	-0.0052
545.3365	-0.0064
545.5318	-0.0082
545.7271	-0.0001
545.9224	-0.0072
546.1177	-0.0038
546.3129	0.0034
546.5081	-0.0046
546.7034	-0.0024
546.8986	-0.007
547.0938	-0.0046
547.289	0.0038
547.4841	0.0012
547.6793	0.0012
547.8744	0.0002
548.0695	0.0044
548.2646	-0.0055
548.4597	0.0003
548.6548	0.0015
548.8498	-0.0019
549.0448	-0.0001
549.2399	-0.0062
549.4349	0.0081
549.6298	-0.0067
549.8248	0.0022
550.0198	-0.0094
550.2147	-0.011
550.4096	-0.008
550.6045	-0.003
550.7994	0.0011
550.9943	0.0018
551.1892	0.0038
551.384	0.0039
551.5788	-0.0128
551.7737	0.001
551.9685	-0.0051
552.1632	0.0049
552.358	-0.0012
552.5528	0.0055
552.7475	-0.0067
552.9422	0.0028
553.1369	-0.0018
553.3316	0.0048
553.5263	-0.0044
553.7209	0.0042
553.9156	-0.0061
554.1102	-0.0079
554.3048	-0.0043
554.4994	0.0051
554.694	-0.0055
554.8885	0.0052
555.0831	-0.0024
555.2776	-0.0083
555.4721	0.0006
555.6666	-0.0029
555.8611	0.0037
556.0555	-0.004
556.25	-0.0027
556.4444	-0.0142
556.6388	-0.0025
556.8332	-0.0026
557.0276	-0.0042
557.222	-0.0079
557.4163	0.0012
557.6107	-0.0157
557.805	0.0001
557.9993	-0.003
558.1936	0.0004
558.3879	0.0062
558.5821	-0.0033
558.7764	-0.0019
558.9706	-0.0041
559.1648	-0.0003
559.359	-0.0083
559.5532	-0.0076
559.7473	-0.0082
559.9415	0.0105
560.1356	-0.0039
560.3297	-0.0111
560.5238	-0.0062
560.7179	-0.0011
560.9119	-0.0038
561.106	-0.0048
561.3	-0.0097
561.494	-0.0102
561.688	0.0012
561.882	-0.0066
562.076	-0.0097
562.2699	0.0048
562.4639	-0.0046
562.6578	0.0027
562.8517	-0.0055
563.0456	0.001
563.2395	-0.0049
563.4333	-0.0027
563.6272	-0.0016
563.821	-0.0003
564.0148	0.0061
564.2086	-0.0119
564.4024	-0.004
564.5961	-0.0017
564.7899	-0.0011
564.9836	-0.0039
565.1773	0.0042
565.371	0.0045
565.5647	0.0071
565.7584	0.0001
565.952	0.0036
566.1456	0.0027
566.3393	-0.0012
566.5329	-0.0032
566.7264	-0.0015
566.92	-0.0043
567.1136	0.0022
567.3071	-0.0078
567.5006	0.0004
567.6941	0.0003
567.8876	0.0019
568.0811	-0.0024
568.2745	0.0019
568.468	0.0089
568.6614	0.0014
568.8548	0.0074
569.0482	-0.002
569.2416	0.0031
569.4349	-0.0077
569.6283	0.0059
569.8216	-0.0035
570.0149	-0.0007
570.2082	0.0102
570.4015	0.0043
570.5947	0.0049
570.788	0.0063
570.9812	0.0107
571.1744	-0.0051
571.3676	-0.0042
571.5608	-0.0037
571.754	0.0064
571.9471	0.001
572.1402	0.0062
572.3333	-0.0025
572.5264	-0.0032
572.7195	0.001
572.9126	0.002
573.1057	0.0022
573.2987	0.0045
573.4917	0.0051
573.6847	-0.0032
573.8777	0.0097
574.0707	0.0057
574.2636	-0.0045
574.4566	0.0003
574.6495	0.0081
574.8424	-0.0025
575.0353	0.0003
575.2281	0.0083
575.421	0.0036
575.6138	0.0016
575.8067	-0.0037
575.9995	0.004
576.1923	0.0034
576.385	0.0039
576.5778	-0.0011
576.7706	-0.0029
576.9633	0.0001
577.156	0.0021
577.3487	-0.0005
577.5414	-0.0035
577.734	-0.007
577.9267	0.0065
578.1193	-0.0086
578.3119	-0.0032
578.5045	0.003
578.6971	0.0058
578.8897	0.0051
579.0822	0.0039
579.2747	0.0033
579.4673	-0.0034
579.6598	-0.0048
579.8522	-0.0019
580.0447	-0.0025
580.2372	0.0018
580.4296	0.0016
580.622	0
580.8144	0.004
581.0068	-0.0037
581.1992	-0.0112
581.3915	-0.0103
581.5839	-0.0079
581.7762	-0.0086
581.9685	0.0016
582.1608	0.0033
582.353	-0.007
582.5453	0.0063
582.7375	0.001
582.9298	0.0085
583.122	-0.0011
583.3142	-0.0016
583.5063	-0.0015
583.6985	-0.0084
583.8906	0.0021
584.0827	-0.0027
584.2749	-0.0022
584.4669	0.0042
584.659	-0.0002
584.8511	0.0001
585.0431	0.0027
585.2352	0.0063
585.4272	-0.0039
585.6192	0.0081
585.8111	0.0037
586.0031	-0.0017
586.195	0.0024
586.387	0.0052
586.5789	0.0025
586.7708	0.0011
586.9627	0.002
587.1545	-0.0029
587.3464	0.008
587.5382	0.0034
587.73	0.0061
587.9218	0.0056
588.1136	-0.0016
588.3053	0.0047
588.4971	-0.0037
588.6888	-0.0107
588.8805	-0.0003
589.0722	-0.0008
589.2639	0
589.4556	-0.0029
589.6472	-0
589.8389	-0.0102
590.0305	-0.0068
590.2221	-0.0061
590.4137	0.0013
590.6052	0.0181
590.7968	0.0004
590.9883	-0.0004
591.1798	0.0007
591.3713	-0.0011
591.5628	0.006
591.7543	0.0102
591.9458	-0.0018
592.1372	0.0073
592.3286	0.0093
592.52	0.0085
592.7114	-0.0034
592.9028	0.0018
593.0941	0.0007
593.2855	0.003
593.4768	-0.0024
593.6681	-0.0077
593.8594	-0.0064
594.0506	0.0035
594.2419	0.0066
594.4331	0.0055
594.6244	0.0061
594.8156	-0.0065
595.0067	-0.0004
595.1979	0.0006
595.3891	-0.0054
595.5802	-0.0061
595.7713	-0.0031
595.9624	-0.0035
596.1535	0.0026
596.3446	-0.0023
596.5357	-0.0052
596.7267	0.0044
596.9177	0.0024
597.1087	-0.0049
597.2997	-0.0077
597.4907	0.0079
597.6817	-0.0027
597.8726	0.0023
598.0635	-0.0056
598.2544	0.0011
598.4453	-0.0006
598.6362	-0.0047
598.827	-0.0002
599.0179	0.0011
599.2087	0.0002
599.3995	0.0001
599.5903	0.0052
599.7811	-0.0038
599.9718	0.003
600.1626	-0.0032
600.3533	-0.0026
600.544	0.0004
600.7347	-0.0002
600.9254	0.0009
601.116	-0.0093
601.3067	0.0001
601.4973	-0.0089
601.6879	0.0024
601.8785	-0.0075
602.0691	-0.0014
602.2596	0.0047
602.4502	-0.0005
602.6407	0.0031
602.8312	0.0015
603.0217	-0.016
603.2122	0.0055
603.4027	-0.0036
603.5931	-0.0019
603.7835	-0.0003
603.9739	-0.0031
604.1643	-0.0027
604.3547	0.001
604.5451	0.0035
604.7354	0.0005
604.9257	0.0044
605.116	-0.0038
605.3063	0.0047
605.4966	0.0036
605.6869	0.0035
605.8771	0.0012
606.0673	0.0092
606.2575	0.0049
606.4477	0.0102
606.6379	-0.0001
606.8281	-0.0017
607.0182	0.0033
607.2083	0.0129
607.3985	0.0023
607.5885	0.0012
607.7786	0.0066
607.9687	0.0004
608.1587	0.0059
608.3488	-0.0016
608.5388	0.004
608.7288	-0.0014
608.9187	0.0003
609.1087	0.0004
609.2986	-0.005
609.4886	0.0029
609.6785	-0.0015
609.8684	0.0048
610.0582	0.0039
610.2481	0.0059
610.4379	-0.0047
610.6278	0.0007
610.8176	-0.0051
611.0074	-0.0004
611.1971	-0.0023
611.3869	-0.0077
611.5766	-0.0043
611.7664	0.0098
611.9561	0.004
612.1458	0.0059
612.3354	-0.0008
612.5251	0.0091
612.7147	0.0012
612.9044	0.0094
613.094	-0.0033
613.2836	-0.0021
613.4731	-0.0069
613.6627	-0.0012
613.8522	0.0088
614.0417	0.0087
614.2313	-0.0013
614.4207	-0.0005
614.6102	-0.003
614.7997	0.0057
614.9891	-0.0037
615.1785	0.0088
615.3679	-0.0011
615.5573	0.0045
615.7467	0.0028
615.9361	-0.0017
616.1254	-0.003
616.3147	0.0075
616.504	0.0095
616.6933	0.0082
616.8826	0.0082
617.0718	0.0096
617.2611	0.002
617.4503	-0.0012
617.6395	-0.0039
617.8287	-0.0013
618.0179	-0.0011
618.207	0.0061
618.3961	-0.0021
618.5853	0.0012
618.7744	0.0008
618.9634	0.0073
619.1525	-0
619.3416	0.0022
619.5306	0.0063
619.7196	0.0033
619.9086	0.0063
620.0976	0.0014
620.2866	-0.0037
620.4755	0.0028
620.6645	0.005
620.8534	0.0045
621.0423	0.0081
621.2312	0.0015
621.42	-0.0003
621.6089	0.0044
621.7977	0.0091
621.9865	-0.0047
622.1753	0.0039
622.3641	0.0057
622.5529	0.0124
622.7416	0.0135
622.9303	-0.0008
623.1191	0.0072
623.3078	-0.0041
623.4964	0.005
623.6851	0.0083
623.8737	0.0007
624.0624	0.0038
624.251	-0.002
624.4396	-0.0019
624.6282	-0.0072
624.8167	-0.0013
625.0053	0.003
625.1938	0.003
625.3823	0.0044
625.5708	0.0007
625.7593	-0.0028
625.9477	-0.0078
626.1362	-0.0067
626.3246	-0.0058
626.513	0.0007
626.7014	0.0047
626.8898	-0.0049
627.0781	0.0029
627.2665	0.0003
627.4548	0.005
627.6431	0.0051
627.8314	0.0011
628.0197	0.0055
628.2079	-0.0061
628.3962	-0.0051
628.5844	0.0069
628.7726	0.0128
628.9608	0.004
629.1489	0.0036
629.3371	0.0064
629.5252	-0.0025
629.7134	0.0019
629.9015	0.0042
630.0895	0.0049
630.2776	0.0092
630.4657	-0.0039
630.6537	0.0007
630.8417	0.0013
631.0297	-0.0022
631.2177	0.0014
631.4057	-0.0067
631.5936	0.005
631.7815	-0.0006
631.9695	-0.001
632.1574	0.007
632.3452	0.0077
632.5331	0.0015
632.7209	-0.0031
632.9088	0.0135
633.0966	0.013
633.2844	-0.005
633.4722	-0.0032
633.6599	0.0002
633.8477	0.0013
634.0354	0.002
634.2231	0.0008
634.4108	-0.0009
634.5985	0.0093
634.7861	0.0048
634.9738	0.0026
635.1614	0.0031
635.349	0.0055
635.5366	0.0039
635.7242	-0.0016
635.9117	0.0104
636.0993	0.0038
636.2868	0.0065
636.4743	-0.0031
636.6618	0.0099
636.8492	0.0082
637.0367	0.006
637.2241	0.004
637.4115	-0.0037
637.5989	-0.0028
637.7863	0.0053
637.9737	0.0055
638.161	-0.0014
638.3484	0.0046
638.5357	0.0018
638.723	0.0002
638.9103	0.0061
639.0975	0.0035
639.2848	0.0061
639.472	-0.0014
639.6592	0.0123
639.8464	0.0002
640.0336	0.0045
640.2208	-0
640.4079	-0.0033
640.595	0.0019
640.7821	0.0001
640.9692	-0.0013
641.1563	0.0026
641.3434	0.0033
641.5304	-0.004
641.7174	0.0032
641.9044	0.0011
642.0914	0.0106
642.2784	0.0037
642.4653	0.007
642.6523	-0.002
642.8392	-0.0006
643.0261	0.0055
643.213	0.0018
643.3999	-0.0054
643.5867	0.0005
643.7735	-0.0031
643.9604	-0.0067
644.1472	0.0025
644.3339	0.0092
644.5207	0.0033
644.7075	-0.0049
644.8942	-0.0001
645.0809	0.0079
645.2676	0.0094
645.4543	0.0062
645.6409	0.0062
645.8276	0.0057
646.0142	0.0016
646.2008	-0.0055
646.3874	-0.0042
646.574	0.0038
646.7605	-0.0065
646.9471	-0.012
647.1336	-0.0043
647.3201	0.0062
647.5066	-0.0014
647.6931	0.0059
647.8795	0.0025
648.0659	0.0062
648.2524	0.0048
648.4388	0.0063
648.6252	-0.0026
648.8115	0.006
648.9979	0.0031
649.1842	0.0058
649.3705	0.008
649.5568	0.0069
649.7431	0.0095
649.9294	-0.0027
650.1156	-0.0004
650.3018	-0.0074
650.488	0.0103
650.6742	0.0048
650.8604	-0.0004
651.0466	-0.0015
651.2327	-0.0025
651.4188	-0.0016
651.6049	-0.0056
651.791	-0.0008
651.9771	0.006
652.1632	0.0023
652.3492	-0.0043
652.5352	-0.0011
652.7212	-0.0042
652.9072	0.0052
653.0932	0.0011
653.2791	-0.0028
653.465	0.0045
653.651	-0.0077
653.8369	-0.0024
654.0227	0.0004
654.2086	0.0092
654.3944	0.0045
654.5803	-0.0001
654.7661	-0.0002
654.9519	0
655.1377	-0.0089
655.3234	-0.0052
655.5092	-0.0008
655.6949	-0.0048
655.8806	-0.0018
656.0663	0.0014
656.2519	-0.0032
656.4376	-0.0024
656.6232	0.0069
656.8088	0.0011
656.9945	-0.0022
657.18	0.0028
657.3656	0.0047
657.5511	-0.0072
657.7367	-0.0008
657.9222	0.003
658.1077	0.0031
658.2932	0.0053
658.4786	-0.0084
658.6641	-0.0023
658.8495	-0.0015
659.0349	-0.0101
659.2203	0.0078
659.4057	0.0039
659.591	0.004
659.7764	-0.0008
659.9617	0.0028
660.147	-0.0002
660.3323	-0.0015
660.5176	-0.002
660.7028	0.0043
660.888	0.0064
661.0733	0.0064
661.2585	-0.0003
661.4436	0.0002
661.6288	-0.0075
661.8139	-0.0046
661.9991	0.0027
662.1842	-0.0017
662.3693	-0.0011
662.5544	-0.0025
662.7394	-0.0015
662.9245	-0.0006
663.1095	-0.004
663.2945	0.0037
663.4795	-0.0096
663.6644	0.0037
663.8494	0.0009
664.0343	-0.0003
664.2193	-0.012
664.4042	0.0023
664.589	-0.0038
664.7739	-0.0005
664.9587	-0.0062
665.1436	0.0049
665.3284	0.0025
665.5132	-0.0011
665.698	-0.0019
665.8827	0.0048
666.0675	0.0007
666.2522	-0.0062
666.4369	0.0022
666.6216	0.0088
666.8063	-0.0061
666.9909	0.0037
667.1756	-0.0053
667.3602	-0.0007
667.5448	0.0016
667.7294	0.0085
667.9139	0.0064
668.0985	0.0133
668.283	0.004
668.4675	0.0096
668.652	0.0029
668.8365	0.0085
669.0209	0.0068
669.2054	0.0093
669.3898	0.0041
669.5742	0.0019
669.7586	0.003
669.943	0.0073
670.1273	0.0065
670.3117	0.0024
670.496	0.0081
670.6803	0.0122
670.8646	0.0041
671.0488	-0.0006
671.2331	0.0038
671.4173	-0.0004
671.6015	-0.0011
671.7857	0.0058
671.9699	0.0062
672.1541	0.0014
672.3382	-0.0042
672.5223	0.0043
672.7064	0.0047
672.8905	0.0084
673.0746	0.0081
673.2587	-0.0039
673.4427	0.0043
673.6267	0.0081
673.8107	0.0102
673.9947	0.0015
674.1787	0.0038
674.3626	-0.0004
674.5465	0.0046
674.7304	0.0025
674.9143	0.0038
675.0982	0.0062
675.2821	-0.0017
675.4659	0.0063
675.6497	0.0048
675.8335	-0.0055
676.0173	-0.0038
676.2011	0.0014
676.3849	0.0063
676.5686	-0.0024
676.7523	-0.0009
676.936	-0.0056
677.1197	-0.0018
677.3034	-0.0105
677.487	-0.003
677.6706	-0.0027
677.8542	0.0023
678.0378	-0.0016
678.2214	-0.0007
678.405	-0.002
678.5885	-0.0081
678.772	0.0007
678.9555	-0.005
679.139	-0.0041
679.3225	-0.0055
679.5059	-0.0021
679.6894	0.008
679.8728	-0.0032
680.0562	-0.0102
680.2395	-0.0043
680.4229	-0.0043
680.6062	0.0041
680.7896	0.0037
680.9729	-0.0067
681.1562	-0.0047
681.3394	0.0013
681.5227	-0.0031
681.7059	0.0035
681.8891	0.0042
682.0723	0.008
682.2555	0.0065
682.4387	0.0017
682.6218	-0
682.805	0.0127
682.9881	0.0108
683.1712	0.0077
683.3542	-0.0012
683.5373	0.0064
683.7203	-0.0062
683.9034	0.0005
684.0864	-0.0072
684.2694	-0.0059
684.4523	0.002
684.6353	-0.0022
684.8182	0.0048
685.0011	-0.0052
685.184	-0.0006
685.3669	-0.0042
685.5498	0.0033
685.7326	0.001
685.9154	-0.0061
686.0982	0.0117
686.281	0.0085
686.4638	0.0008
686.6465	-0.006
686.8293	-0.0031
687.012	-0.0019
687.1947	-0.0051
687.3774	-0.002
687.56	-0.0023
687.7427	0.0033
687.9253	-0.0063
688.1079	0.0019
688.2905	0.0071
688.4731	0.0026
688.6556	-0.0056
688.8382	0.0018
689.0207	0.0033
689.2032	-0.0004
689.3857	-0.0039
689.5681	-0.0003
689.7506	-0.008
689.933	-0.0025
690.1154	0.0008
690.2978	-0.0013
690.4802	0.0069
690.6626	-0.001
690.8449	-0.0038
691.0272	0.0089
691.2095	-0.0031
691.3918	0.0028
691.5741	-0.0001
691.7563	0.0044
691.9386	0.0003
692.1208	0.004
692.303	0.0106
692.4852	-0.0036
692.6673	0.0025
692.8495	-0.0029
693.0316	0.0033
693.2137	0.001
693.3958	0.0061
693.5778	0.0032
693.7599	-0.0036
693.9419	0.0008
694.1239	0.0055
694.3059	-0.0022
694.4879	0.0024
694.6699	0.0087
694.8518	0.0013
695.0337	-0.003
695.2157	0.0049
695.3975	0.0016
695.5794	0.0032
695.7613	0.0038
695.9431	0.0027
696.1249	0.0108
696.3067	0.009
696.4885	0.0156
696.6703	0.0006
696.852	0.0111
697.0337	0.0007
697.2154	0.0079
697.3971	0.0063
697.5788	0.0058
697.7605	0.0059
697.9421	0.0084
698.1237	-0.0029
698.3053	-0.003
698.4869	-0.0021
698.6685	-0.0077
698.85	0.0079
699.0315	0.0065
699.213	0
699.3945	0.0067
699.576	0.0091
699.7575	0.0037
699.9389	0.0023
700.1203	-0.0042
700.3017	-0.0042
700.4831	-0.0074
700.6645	-0.007
700.8458	0.0089
701.0271	-0.0035
701.2084	0.0043
701.3897	-0.0014
701.571	0.007
701.7523	-0.0054
701.9335	-0.0015
702.1147	0.0001
702.2959	0.0023
702.4771	-0.0003
702.6583	0.0019
702.8394	-0.0033
703.0205	0.0013
703.2016	-0.0047
703.3827	-0.0013
703.5638	0.0173
703.7449	0.0009
703.9259	0.0101
704.1069	-0.0006
704.2879	-0.0009
704.4689	0.0089
704.6499	0.0008
704.8308	-0.0013
705.0117	-0
705.1927	0.0012
705.3735	0.0028
705.5544	-0.001
705.7353	-0.0055
705.9161	-0.0031
706.0969	-0.0079
706.2777	-0.0034
706.4585	0.0005
706.6393	0.0008
706.82	-0.0031
707.0007	0.0023
707.1815	0
707.3621	0.0057
707.5428	-0.0032
707.7235	0.0067
707.9041	0.0075
708.0847	-0.0105
708.2653	-0.0092
708.4459	-0.0118
708.6265	0.0014
708.807	0.0022
708.9875	-0.0002
709.168	-0.0024
709.3485	-0.001
709.529	-0.0052
709.7095	-0.0115
709.8899	-0.0014
710.0703	-0.0044
710.2507	-0.0062
710.4311	-0.0047
710.6115	-0.0114
710.7918	-0.0126
710.9721	-0.0076
711.1524	-0.0005
711.3327	-0.0003
711.513	0.0083
711.6932	0.0141
711.8735	0.0125
712.0537	0.013
712.2339	0.0073
712.4141	-0.0057
712.5942	-0.0045
712.7744	0.0033
712.9545	-0.0051
713.1346	0.0017
713.3147	0.0013
713.4947	-0.0071
713.6748	-0.0034
713.8548	-0.005
714.0348	-0.0052
714.2148	-0.0019
714.3948	0.0092
714.5748	0.0004
714.7547	-0.0018
714.9346	0.003
715.1145	-0.0009
715.2944	-0.0069
715.4743	0.0046
715.6541	0
715.834	0.0071
716.0138	-0.0009
716.1936	-0.0082
716.3733	-0.0102
716.5531	0.0047
716.7328	-0.0009
716.9126	0.0001
717.0923	0.0102
717.2719	-0.0005
717.4516	0.0116
717.6312	0.0031
717.8109	0.0004
717.9905	0.0071
718.1701	0.0008
718.3496	-0.0028
718.5292	0.0078
718.7087	0.0042
718.8882	0.0124
719.0677	0.0025
719.2472	-0.0017
719.4267	0.0055
719.6061	-0.0006
719.7856	0.0087
719.965	0.0085
720.1443	-0.0049
720.3237	0.0179
720.5031	0.0026
720.6824	0.0079
720.8617	0.0031
721.041	0.0008
721.2203	0.0139
721.3995	0.0018
721.5788	0.0028
721.758	0.007
721.9372	0.0002
722.1164	0.005
722.2956	-0.0072
722.4747	-0.0015
722.6538	-0.0006
722.8329	0.0185
723.012	0.0009
723.1911	-0.0053
723.3702	0.0016
723.5492	0.008
723.7282	-0.0083
723.9072	-0.0089
724.0862	-0.0031
724.2652	-0.0078
724.4441	-0.0024
724.623	-0.0025
724.8019	0.0005
724.9808	-0.0045
725.1597	-0.0104
725.3385	0.0032
725.5174	-0.0027
725.6962	-0.0046
725.875	0.0039
726.0538	0.0043
726.2325	0.0061
726.4112	-0.002
726.59	0.0053
726.7687	-0.0064
726.9474	0.0043
727.126	0.0008
727.3047	-0.0019
727.4833	-0.0019
727.6619	-0.0011
727.8405	-0.0035
728.0191	-0.0044
728.1976	0.0044
728.3762	0.0046
728.5547	0.0038
728.7332	-0.0112
728.9116	-0.0053
729.0901	0.0008
729.2686	-0.0152
729.447	-0.0037
729.6254	-0.0026
729.8038	0.0004
729.9821	-0.0027
730.1605	-0.0009
730.3388	0.0012
730.5171	0.0045
730.6954	-0.0018
730.8737	-0.0008
731.0519	0.0031
731.2302	0.0022
731.4084	0.0129
731.5866	0.0033
731.7648	0.0001
731.9429	0.001
732.1211	-0.0144
732.2992	-0.0017
732.4773	-0.002
732.6554	-0.0004
732.8335	-0.0018
733.0115	0.0037
733.1896	0.0101
733.3676	-0.007
733.5456	-0.0025
733.7235	0.0028
733.9015	0.005
734.0794	-0.0003
734.2574	0.0011
734.4353	-0.0035
734.6131	0.0154
734.791	0.0019
734.9689	0.0015
735.1467	-0.0006
735.3245	-0.0058
735.5023	-0.0007
735.68	-0.0009
735.8578	-0.0007
736.0355	-0.0181
736.2132	-0.0046
736.3909	-0.0057
736.5686	-0.0087
736.7463	0.0064
736.9239	0.0025
737.1015	0.0033
737.2791	0.0009
737.4567	0.0075
737.6343	-0.0036
737.8118	0.0024
737.9894	0.0141
738.1669	-0.0047
738.3444	-0.0041
738.5218	0.0025
738.6993	0.0029
738.8767	-0.0014
739.0541	0.0086
739.2315	-0.0041
739.4089	-0.0003
739.5863	0.0089
739.7636	-0.0039
739.9409	0.0051
740.1182	-0.001
740.2955	0.005
740.4728	0.0023
740.65	-0.0039
740.8272	-0.0035
741.0044	-0.0025
741.1816	-0.0032
741.3588	0.0069
741.5359	-0.0008
741.7131	-0.0084
741.8902	-0.0038
742.0673	0.0059
742.2444	-0.0071
742.4214	-0.0007
742.5985	0.0015
742.7755	0.0037
742.9525	-0.0118
743.1295	0.0053
743.3064	0.0005
743.4834	0.0026
743.6603	0.0026
743.8372	-0.0051
744.0141	-0.0013
744.191	0.0027
744.3678	-0.0073
744.5446	-0.0042
744.7215	0.006
744.8982	-0.0055
745.075	-0.0126
745.2518	-0.0015
745.4285	-0.0072
745.6052	-0.0113
745.7819	-0.0023
745.9586	-0.0101
746.1353	-0.008
746.3119	-0.0124
746.4885	-0.0135
746.6651	-0.0187
746.8417	-0.0131
747.0183	-0.0026
747.1948	-0.0227
747.3714	-0.0044
747.5479	-0.0017
747.7244	-0.0144
747.9008	0.0016
748.0773	-0.0083
748.2537	-0.0059
748.4301	-0.0142
748.6065	0.0056
748.7829	-0.0018
748.9593	-0.0051
749.1356	0.0008
749.3119	-0.0041
749.4882	-0.0165
749.6645	0.0073
749.8408	-0.0119
750.017	-0.008
750.1933	-0.0026
750.3695	-0.0131
750.5457	-0.0023
750.7218	-0.0011
750.898	0.0053
751.0741	-0.0079
751.2502	-0.008
751.4263	-0.0015
751.6024	-0.0028
751.7784	-0.0023
751.9545	-0.0055
752.1305	-0.0051
752.3065	-0.0094
752.4825	0.0012
752.6584	-0.0096
752.8344	-0.0075
753.0103	-0.0126
753.1862	-0.0152
753.3621	-0.0052
753.5379	-0.0042
753.7138	-0.0013
753.8896	-0.0015
754.0654	-0.0002
754.2412	0.0058
754.417	0.0003
754.5927	-0.0051
754.7685	-0.0068
754.9442	0.0022
755.1199	0.0089
755.2956	-0.0064
755.4712	0.0126
755.6469	-0.0029
755.8225	-0.0068
755.9981	-0.0081
756.1736	0.0113
756.3492	0.0038
756.5248	0.008
756.7003	0.0111
756.8758	0.0211
757.0513	-0.0085
757.2267	0.0035
757.4022	0.0093
757.5776	-0.0086
757.753	-0.0036
757.9284	-0.0004
758.1038	0.0031
758.2791	0.0034
758.4545	-0.0114
758.6298	-0.0039
758.8051	-0.0004
758.9803	-0.0027
759.1556	0.0021
759.3308	-0.0016
759.506	0.0066
759.6812	-0.0002
759.8564	0.0073
760.0316	-0.0019
760.2067	0.0112
760.3819	0.0083
760.557	0.0116
760.732	0.004
760.9071	-0.0091
761.0821	0.0042
761.2572	0.009
761.4322	-0.0092
761.6072	-0.007
761.7821	-0.012
761.9571	0.0047
762.132	-0.0014
762.3069	-0.0134
762.4818	-0.0056
762.6567	-0.0067
762.8316	-0.0024
763.0064	-0.004
763.1812	-0.0123
763.356	-0.0073
763.5308	-0.0066
763.7055	-0.0063
763.8803	-0.0093
764.055	0.0023
764.2297	-0.0058
764.4044	-0.011
764.579	-0.0069
764.7537	-0.013
764.9283	-0.0036
765.1029	-0.011
765.2775	-0.0098
765.4521	-0.0133
765.6266	-0.013
765.8011	-0.0024
765.9756	-0.0063
766.1501	0.0002
766.3246	0.0024
766.4991	-0.009
766.6735	0.0011
766.8479	-0.0196
767.0223	-0.0063
767.1967	-0.0028
767.371	-0.0019
767.5454	-0.0148
767.7197	-0.0013
767.894	-0.0055
768.0683	-0.0221
768.2425	0.0027
768.4168	0.0124
768.591	-0.004
768.7652	-0.0004
768.9394	-0.0101
769.1135	-0.0064
769.2877	0.0058
769.4618	-0.0093
769.6359	-0.0018
769.81	0.0006
769.984	-0.0058
770.1581	-0.013
770.3321	0.0031
770.5061	-0.0014
770.6801	-0.0068
770.8541	-0.0021
771.028	0.0113
771.202	-0.0068
771.3759	0.0078
771.5498	0.0037
771.7236	0.0001
771.8975	-0.0052
772.0713	-0.0024
772.2451	0.0129
772.4189	0.0051
772.5927	0.0112
772.7665	0.0021
772.9402	-0.0027
773.1139	-0.0011
773.2876	-0.0046
773.4613	-0.0058
773.635	0.0091
773.8086	-0.016
773.9822	-0.01
774.1558	-0.0004
774.3294	-0.0197
774.503	-0.0022
774.6765	0.0026
774.8501	0.0115
775.0236	0.0081
775.1971	-0.0047
775.3705	-0.0089
775.544	0.0122
775.7174	-0.0082
775.8908	-0.0036
776.0642	-0.0078
776.2376	-0.0087
776.4109	-0.0153
776.5843	-0.0029
776.7576	-0.0044
776.9309	0.0012
777.1041	0.0011
777.2774	0.0054
777.4506	-0.0052
777.6238	0.0015
777.797	0.0042
777.9702	-0.0044
778.1434	-0.009
778.3165	-0.0195
778.4896	-0.0134
778.6627	0.0123
778.8358	0.0026
779.0089	-0.0116
779.1819	-0.0097
779.3549	0.0082
779.5279	0.0097
779.7009	0.0046
779.8739	-0.0099
780.0468	0.0038
780.2197	-0.0017
780.3926	-0.0077
780.5655	-0.0126
780.7384	-0.0004
780.9112	-0.0003
781.0841	-0.017
781.2569	-0.0033
781.4297	-0.0043
781.6024	-0.0034
781.7752	0.0044
781.9479	-0.0205
782.1206	-0.0067
782.2933	-0.0144
782.466	-0.0001
782.6386	0.004
782.8113	0.0024
782.9839	-0.0005
783.1565	0.0074
783.329	-0.0063
783.5016	0
783.6741	-0.0048
783.8466	0.0034
784.0191	0.017
784.1916	-0.0022
784.3641	0.0043
784.5365	0.0099
784.7089	-0.0037
784.8813	-0.0065
785.0537	0.0058
785.2261	-0.0038
785.3984	-0.0145
785.5707	-0.0058
785.743	-0.003
785.9153	0.003
786.0876	-0.0149
786.2598	-0.007
786.432	-0.0194
786.6042	0.0036
786.7764	-0.0173
786.9486	0.0073
787.1207	-0.0156
787.2928	0.0122
787.4649	0.0024
787.637	0.0002
787.8091	0.0024
787.9811	-0.0045
788.1532	-0.0042
788.3252	0.0009
788.4972	-0.0059
788.6691	-0.0014
788.8411	0.0025
789.013	-0.011
789.1849	0.0033
789.3568	-0.0092
789.5287	-0.0092
789.7005	-0.0094
789.8723	-0.0082
790.0442	0.0125
790.2159	0.0025
790.3877	-0.0013
790.5595	-0.0122
790.7312	-0.0057
790.9029	0.0045
791.0746	-0.0018
791.2463	-0.0121
791.4179	0.0118
791.5896	-0.0219
791.7612	0.0032
791.9328	0.0088
792.1044	-0.0054
792.2759	-0.01
792.4474	0.004
792.619	-0.0012
792.7905	-0.0028
792.9619	0.0069
793.1334	0.0202
793.3048	0.0105
793.4762	0.0051
793.6476	-0.0068
793.819	-0.0108
793.9904	0.0044
794.1617	-0.0022
794.333	-0.0065
794.5043	-0.0081
794.6756	-0.0069
794.8469	0.003
795.0181	0.0014
795.1893	-0.0013
795.3605	-0.0076
795.5317	0.0099
795.7029	0.012
795.874	0.0017
796.0452	-0.0037
796.2163	0.0121
796.3873	0.0147
796.5584	-0.0014
796.7294	0.0067
796.9005	0.0175
797.0715	0.0013
797.2425	-0.0065
797.4134	-0.0125
797.5844	-0.0113
797.7553	-0.0164
797.9262	-0.0092
798.0971	-0.0167
798.2679	-0.0112
798.4388	-0.0241
798.6096	-0.0028
798.7804	-0.0144
798.9512	-0.0171
799.122	-0.0005
799.2927	-0.0013
799.4635	0.0052
799.6342	-0.034
799.8049	-0.0075
799.9755	-0.0054
800.1462	-0.0144
800.3168	0.0108
800.4874	-0.0061
800.658	0.0078
800.8286	-0.0023
800.9991	0.003
801.1696	0.0014
801.3402	0.0278
801.5106	-0.0165
801.6811	-0.0086
801.8516	0.0189
802.022	0.0023
802.1924	0.0071
802.3628	-0.0048
802.5332	0.0167
802.7035	0.0321
802.8739	0.0092
803.0442	-0.011
803.2145	-0.0067
803.3847	-0.0222
803.555	0.0154
803.7252	-0.022
803.8954	-0.0262
804.0656	-0.0257
804.2358	-0.0088
804.4059	0.0024
804.5761	-0.0029
804.7462	-0.0004
804.9163	-0.006
805.0864	-0.0161
805.2564	-0.006
805.4264	0.0116
805.5965	-0.0044
805.7665	-0.0006
805.9364	0.0116
806.1064	0.0188
806.2763	-0.0017
806.4462	0.0199
806.6161	0.0163
806.786	-0.0032
806.9559	-0.01
807.1257	-0.003
807.2955	0.0106
807.4653	-0.0033
807.6351	-0.0253
807.8048	0.0012
807.9746	0.0276
808.1443	0.0024
808.314	-0.0038
808.4837	-0.0014
808.6533	-0.0056
808.8229	0.022
808.9926	-0.0039
809.1622	0.0139
809.3317	0.002
809.5013	0.0038
809.6708	0.0074
809.8403	0.0093
810.0098	-0.007
810.1793	0.0006
810.3488	-0.0091
810.5182	-0.0244
810.6876	0.0062
810.857	-0.0187
811.0264	0.0116
811.1958	0.0097
811.3651	0.0085
811.5344	0.0135
811.7037	-0.0023
811.873	-0.0045
812.0422	0.0022
812.2115	-0.0058
812.3807	-0.0164
812.5499	0.0157
812.7191	-0.0165
812.8882	-0.0122
813.0574	-0.0013
813.2265	-0.0165
813.3956	-0.0101
813.5646	0.0045
813.7337	-0.0142
813.9027	-0.0088
814.0718	0.0291
814.2407	0.0275
814.4097	-0.0101
814.5787	-0.0298
814.7476	-0.0008
814.9165	0.0051
815.0854	-0.0159
815.2543	-0.0216
815.4232	-0.0243
815.592	-0.0034
815.7608	0.0027
815.9296	-0.0046
816.0984	0.0027
816.2671	-0.0087
816.4359	-0.0047
816.6046	-0.0104
816.7733	0.0016
816.942	-0.0314
817.1106	-0.008
817.2793	-0.0213
817.4479	-0.0304
817.6165	0.0195
817.785	-0.0006
817.9536	-0.0223
818.1221	-0.0091
818.2906	-0.0125
818.4591	-0.0112
818.6276	-0.0274
818.7961	0.0034
818.9645	-0.0216
819.1329	-0.0059
819.3013	0.0083
819.4697	0.0173
819.638	0.0056
819.8064	0.0008
819.9747	0.0128
820.143	0.0077
820.3113	-0.0043
820.4795	0.0093
820.6477	0.0039
820.816	0.0071
820.9842	0.0052
821.1523	0.0088
821.3205	0.0015
821.4886	0.0152
821.6567	-0.0077
821.8248	0.0015
821.9929	0.0039
822.1609	0.0123
822.329	-0.0006
822.497	-0.0003
822.665	-0.0204
822.833	-0.0087
823.0009	-0.0025
823.1688	0.0104
823.3367	0.0074
823.5046	0.0059
823.6725	0.0173
823.8404	0.0049
824.0082	0.0021
824.176	-0.0248
824.3438	0.0037
824.5116	0.0099
824.6793	-0.0019
824.847	0.0118
825.0147	-0.0054
825.1824	0.0334
825.3501	0.0274
825.5177	-0.022
825.6854	-0.0029
825.853	-0.0069
826.0206	-0.0512
826.1881	0.0154
826.3557	-0.0448
826.5232	0.0178
826.6907	-0.0324
826.8582	-0.018
827.0257	-0.0332
827.1931	-0.0012
827.3605	-0.0303
827.528	-0.0118
827.6953	-0.0359
827.8627	-0.0091
828.03	0.0382
828.1974	-0.0267
828.3647	-0.0283
828.532	-0.0304
828.6992	-0.029
828.8665	-0.0121
829.0337	-0.0069
829.2009	0.0382
829.3681	-0.006
829.5352	0.011
829.7024	-0.0121
829.8695	-0.0296
830.0366	0.0471
830.2037	0.0351
830.3707	0.0126
830.5378	0.0001
830.7048	-0.0063
830.8718	0.0018
831.0388	-0.0362
831.2057	0.0033
831.3727	0.0275
831.5396	-0.0311
831.7065	-0.0304
831.8734	0.024
832.0402	-0.0439
832.2071	-0.0181
832.3739	-0.0135
832.5407	-0.0116
832.7075	-0.0283
832.8742	-0.0301
833.041	-0.0519
833.2077	-0.0011
833.3744	-0.0051
833.541	-0.0222
833.7077	-0.0109
833.8743	-0.0178
834.0409	0.0069
834.2075	-0.0299
834.3741	-0.0348
834.5407	-0.0311
834.7072	-0.003
834.8737	-0.0224
835.0402	-0.0291
835.2067	0.0365
835.3731	0.0028
835.5395	0.0151
835.706	0.0214
835.8723	-0.0429
836.0387	0.0063
836.2051	-0.0222
836.3714	0.0009
836.5377	0.0135
836.704	-0.0288
836.8703	0.0033
837.0365	-0.0163
837.2027	0.0063
837.3689	-0.0358
837.5351	-0.0131
837.7013	-0.0325
837.8674	-0.0766
838.0335	-0.0311
838.1997	-0.0304
838.3657	-0.0246
838.5318	-0.0448
838.6978	-0.0077
838.8639	0.0325
839.0299	-0.0346
839.1958	-0.0068
839.3618	-0.0074
839.5277	-0.0149
839.6937	0.0145
839.8596	-0.0262
840.0254	-0.0104
840.1913	0.0355
840.3571	0.0329
840.523	-0.036
840.6888	-0.0026
840.8545	-0.0268
841.0203	0.0181
841.186	0.0002
841.3517	0.0308
841.5174	0.0108
841.6831	-0.028
841.8488	0.0093
842.0144	-0.0281
842.18	0.0353
842.3456	-0.0081
842.5112	-0.0176
842.6767	-0.0498
842.8422	-0.0549
843.0077	-0.0218
843.1732	-0.045
843.3387	-0.054
843.5042	-0.0067
843.6696	0.0175
843.835	-0.0136
844.0004	0.0463
844.1657	0.0145
844.3311	-0.0212
844.4964	-0.0516
844.6617	-0.0411
844.827	-0.0396
844.9923	0.006
845.1575	0.0415
845.3227	-0.0134
845.4879	-0.0683
845.6531	-0.032
845.8183	-0.0702
845.9834	-0.024
846.1485	0.008
846.3136	-0.0753
846.4787	-0.1079
846.6438	0.039
846.8088	0.0035
846.9738	-0.0555
847.1388	0.0341
847.3038	-0.059
847.4687	-0.0933
847.6337	0.0736
847.7986	-0.0242
847.9635	-0.0562
848.1284	-0.021
848.2932	0.0066
848.458	-0.0941
848.6228	0.0411
848.7876	0.0103
848.9524	-0.0709
849.1172	-0.0523
849.2819	-0.0306
849.4466	-0.1131
849.6113	-0.0468
849.7759	-0.0679
849.9406	-0.0483
850.1052	0.0213
850.2698	-0.0838
850.4344	-0.0111
850.599	-0.0496
850.7635	0.0698
850.928	-0.0635
851.0925	0.0181
851.257	0.0223
851.4215	-0.026
851.5859	-0.1128
851.7503	0.0273
851.9147	-0.0374
852.0791	-0.1011
852.2434	-0.0306
852.4078	0.0532
852.5721	-0.0216
852.7364	-0.0861
852.9007	-0.1972
853.0649	-0.0531
853.2291	0.0594
853.3934	-0.1518
853.5575	0.0006
853.7217	-0.0753
853.8859	0.0673
854.05	-0.0072
854.2141	-0.1441
854.3782	-0.0021
854.5423	-0.1289
854.7063	0.0542
854.8703	-0.0415
855.0343	-0.0847
855.1983	-0.2612
855.3623	0.0662
855.5262	0.0204
855.6901	-0.0323
855.854	-0.0217
856.0179	0.1256
856.1818	-0.0248
856.3456	-0.071
856.5094	-0.1754
856.6732	-0.1349
856.837	-0.085
857.0008	0.0579
857.1645	-0.1472
857.3282	-0.158
857.4919	0.105
857.6556	0.0177
857.8192	-0.0153
857.9828	0.0211
858.1465	-0.0506
858.31	-0.1904
858.4736	-0.2266
858.6372	-0.1869
858.8007	-0.2872
858.9642	-0.1352
859.1277	0.0512
859.2911	0.0105
859.4546	-0.0106
859.618	-0.4473
859.7814	-0.1061
859.9448	-0.1722
860.1081	-0.1922
860.2715	0.1531
860.4348	0.0617
860.5981	0.0619
860.7614	0.2632
860.9246	-0.2588
861.0879	-0.1334
861.2511	-0.0203
861.4143	-0.1911
861.5774	0.3277
861.7406	-0.2624
861.9037	-0.1047
862.0668	-0.094
862.2299	-0.3475
862.393	-0.5841
862.556	-0.1124
862.7191	-0.0823
862.8821	-0.4146
863.0451	-0.0967
863.208	0.0737
863.371	-0.0207
863.5339	-0.15
863.6968	0.1825
863.8597	-0.2811
864.0225	-0.2253
864.1854	-0.2144
864.3482	0.3565
864.511	0.033
864.6737	0.1053
864.8365	-0.0982
864.9992	-0.5908
865.1619	-0.5281
865.3246	-0.0635
865.4873	0.1263
865.65	-0.1929
865.8126	-0.0839
865.9752	-0.004
866.1378	-0.2119
866.3004	0.2918
866.4629	0.0641
866.6254	0.1869
866.7879	0.1244
866.9504	0.2845
867.1129	-0
867.2753	0.3324
867.4377	-0.1019
867.6001	-0.4793
867.7625	0.5403
867.9249	-0.6184
868.0872	0.2546
868.2495	0.0808
868.4118	0.3736
868.5741	-0.4937
868.7363	0.2366
868.8986	-0.3526
869.0608	-0.1063
869.223	0.3285
869.3851	-0.0686
869.5473	-0
869.7094	0.1297
869.8715	-0
870.0336	-0
870.1957	-0.454
870.3577	-1.3504
870.5197	0.2245
870.6817	-0.4519
870.8437	-0.2929
871.0057	-0
871.1676	-0.0309
871.3295	-0.456
871.4914	-0.166
871.6533	-0.5321
871.8151	-0.5901
871.977	-0
872.1388	-0
872.3006	-0
872.4623	-0.0068
872.6241	0.1916
872.7858	0.6675
872.9475	0.5705
873.1092	-0.0735
873.2709	-0
873.4325	-0.2014
873.5941	-0.7644
873.7557	-0
873.9173	-0.5545
874.0789	-0.8028
874.2404	-0
874.4019	0.2446
874.5634	0.8419
874.7249	-0.2397
874.8863	-0.0784
875.0478	0.1471
875.2092	0.1952
875.3706	0.1147
875.5319	-0
875.6933	-0.0741
875.8546	-0.2727
876.0159	-0
876.1772	-0
876.3385	-0
876.4997	0.1903
876.6609	-0.2384
876.8221	-0
876.9833	0.5507
877.1445	-0
877.3056	-0.0748
877.4667	-0.3554
877.6278	-0
877.7889	-0.6497
877.9499	-0
878.111	-0
878.272	-0
878.433	-0
878.5939	-0
878.7549	-0.3104
878.9158	-0.6276
879.0767	-0
879.2376	-0
879.3984	0.0488
879.5593	-0
879.7201	-0.113
879.8809	-0.7631
880.0417	1.2187
880.2024	-0.0211
880.3632	-0
880.5239	-0.0109
880.6846	-0
880.8452	-2.6808
881.0059	-0
881.1665	0.0618
881.3271	0.2337
881.4877	-0
881.6483	-0.3105
881.8088	-0.4999
881.9693	-0
882.1298	-0
882.2903	-0
