Data from MonoPyChalIsomerACN10uM350nmA_Absorbance_14-35-38-015.txt Node
Date: Fri Jul 05 14:35:38 BST 2024
User: LASERRRRR
Spectrometer: FLMT03099
Trigger mode: 0
Integration Time (sec): 1.000000E-1
Scans to average: 1
Electric dark correction enabled: true
Nonlinearity correction enabled: false
Boxcar width: 0
XAxis mode: Wavelengths
Number of Pixels in Spectrum: 3648
>>>>>Begin Spectral Data<<<<<
179.3399	-0.2882
179.5586	-0.2882
179.7771	-0.2882
179.9957	-0
180.2143	-0.1742
180.4329	-0.177
180.6514	0.5308
180.8699	-0
181.0885	-0.3652
181.307	-0.0182
181.5255	-0.4921
181.744	-0.5302
181.9625	-0
182.181	0.415
182.3994	-0.0471
182.6179	-0
182.8363	-0.135
183.0547	-0.3914
183.2732	0.0526
183.4916	0.1356
183.71	0.0599
183.9284	0.0878
184.1467	-0.0347
184.3651	-0.0689
184.5835	0.0975
184.8018	0.1589
185.0201	0.1188
185.2385	-0.0602
185.4568	0.3034
185.6751	0.051
185.8934	0.1402
186.1117	0.1068
186.3299	-0.0504
186.5482	-0.0611
186.7664	0.122
186.9847	-0.0164
187.2029	0.072
187.4211	0.0444
187.6393	0.2829
187.8575	-0.0379
188.0757	0.3854
188.2939	0.0402
188.512	0.102
188.7302	-0.1113
188.9483	0.079
189.1665	0.2729
189.3846	1.6128
189.6027	0.0846
189.8208	0.1675
190.0389	0.1615
190.257	0.3667
190.475	0.1534
190.6931	0.2309
190.9111	0.291
191.1292	0.2809
191.3472	0.4245
191.5652	0.3684
191.7832	0.2204
192.0012	0.4807
192.2192	0.285
192.4371	0.5838
192.6551	0.2058
192.873	0.2664
193.091	0.4033
193.3089	0.4701
193.5268	0.4022
193.7447	0.7576
193.9626	0.3581
194.1805	0.5727
194.3984	0.7823
194.6162	0.6499
194.8341	0.484
195.0519	0.5091
195.2697	0.7547
195.4875	0.6942
195.7054	0.5883
195.9231	0.7041
196.1409	0.4779
196.3587	0.6316
196.5765	0.5747
196.7942	0.529
197.012	0.5535
197.2297	0.5999
197.4474	0.672
197.6651	0.5238
197.8828	0.5227
198.1005	0.5539
198.3182	0.5854
198.5358	0.6737
198.7535	0.7214
198.9711	0.5724
199.1888	0.6573
199.4064	0.7283
199.624	0.55
199.8416	0.5644
200.0592	0.5884
200.2767	0.7051
200.4943	0.6278
200.7119	0.7751
200.9294	0.583
201.1469	0.5344
201.3645	0.5533
201.582	0.5698
201.7995	0.6558
202.017	0.5643
202.2344	0.5867
202.4519	0.7325
202.6694	0.5493
202.8868	0.6107
203.1042	0.6232
203.3217	0.7007
203.5391	0.6081
203.7565	0.5402
203.9739	0.6459
204.1913	0.6087
204.4086	0.553
204.626	0.7294
204.8433	0.6899
205.0607	0.6683
205.278	0.6437
205.4953	0.6301
205.7126	0.6708
205.9299	0.7345
206.1472	0.6686
206.3644	0.6189
206.5817	0.6045
206.7989	0.686
207.0162	0.6134
207.2334	0.6969
207.4506	0.658
207.6678	0.5763
207.885	0.6256
208.1022	0.6723
208.3194	0.582
208.5365	0.6165
208.7537	0.6371
208.9708	0.5805
209.1879	0.633
209.405	0.6956
209.6222	0.6624
209.8392	0.6335
210.0563	0.6576
210.2734	0.6905
210.4905	0.6691
210.7075	0.6479
210.9245	0.631
211.1416	0.6798
211.3586	0.5837
211.5756	0.5781
211.7926	0.5792
212.0096	0.5609
212.2265	0.5848
212.4435	0.5197
212.6604	0.572
212.8774	0.5898
213.0943	0.5361
213.3112	0.5368
213.5281	0.4707
213.745	0.4844
213.9619	0.5134
214.1788	0.4922
214.3956	0.4518
214.6125	0.4788
214.8293	0.4577
215.0461	0.4879
215.2629	0.4401
215.4798	0.4552
215.6965	0.4182
215.9133	0.4478
216.1301	0.4256
216.3469	0.3763
216.5636	0.4109
216.7803	0.3841
216.9971	0.3872
217.2138	0.3732
217.4305	0.3533
217.6472	0.3376
217.8639	0.363
218.0805	0.3447
218.2972	0.2891
218.5138	0.3196
218.7305	0.3054
218.9471	0.3052
219.1637	0.2728
219.3803	0.2855
219.5969	0.3082
219.8135	0.2441
220.0301	0.258
220.2466	0.2693
220.4632	0.2635
220.6797	0.2403
220.8962	0.2136
221.1127	0.2403
221.3292	0.264
221.5457	0.2251
221.7622	0.2129
221.9787	0.2613
222.1951	0.2506
222.4116	0.2636
222.628	0.2596
222.8444	0.2637
223.0608	0.2354
223.2772	0.2387
223.4936	0.262
223.71	0.2341
223.9264	0.2691
224.1427	0.2473
224.3591	0.2657
224.5754	0.2771
224.7917	0.2645
225.008	0.2656
225.2243	0.2712
225.4406	0.2953
225.6569	0.256
225.8732	0.2744
226.0894	0.2435
226.3057	0.2566
226.5219	0.2849
226.7381	0.2693
226.9543	0.2802
227.1705	0.2882
227.3867	0.2682
227.6029	0.2982
227.8191	0.294
228.0352	0.2829
228.2513	0.3082
228.4675	0.3182
228.6836	0.3112
228.8997	0.2958
229.1158	0.3063
229.3319	0.3174
229.548	0.3105
229.764	0.3087
229.9801	0.3201
230.1961	0.3312
230.4121	0.3356
230.6282	0.3323
230.8442	0.3294
231.0602	0.3647
231.2761	0.3546
231.4921	0.3371
231.7081	0.3586
231.924	0.3354
232.14	0.3576
232.3559	0.3397
232.5718	0.3511
232.7877	0.3547
233.0036	0.3449
233.2195	0.3694
233.4353	0.3488
233.6512	0.3548
233.867	0.3621
234.0829	0.3573
234.2987	0.3565
234.5145	0.3724
234.7303	0.3649
234.9461	0.3863
235.1619	0.3811
235.3776	0.3826
235.5934	0.3932
235.8091	0.3656
236.0249	0.3715
236.2406	0.383
236.4563	0.3863
236.672	0.3977
236.8877	0.402
237.1034	0.3995
237.319	0.3694
237.5347	0.4047
237.7503	0.4061
237.966	0.4091
238.1816	0.424
238.3972	0.3837
238.6128	0.3902
238.8284	0.4155
239.0439	0.4114
239.2595	0.3951
239.475	0.409
239.6906	0.4168
239.9061	0.399
240.1216	0.3994
240.3371	0.413
240.5526	0.3822
240.7681	0.399
240.9836	0.3761
241.199	0.4127
241.4145	0.3842
241.6299	0.398
241.8453	0.3877
242.0607	0.3863
242.2761	0.3542
242.4915	0.3632
242.7069	0.3683
242.9223	0.3562
243.1376	0.3384
243.353	0.333
243.5683	0.3503
243.7836	0.3269
243.9989	0.3287
244.2142	0.3061
244.4295	0.3143
244.6448	0.3102
244.86	0.3127
245.0753	0.2866
245.2905	0.2884
245.5057	0.2852
245.721	0.2691
245.9362	0.2576
246.1514	0.2681
246.3665	0.2537
246.5817	0.2623
246.7969	0.2583
247.012	0.2439
247.2271	0.2443
247.4423	0.2547
247.6574	0.252
247.8725	0.224
248.0876	0.2148
248.3026	0.2249
248.5177	0.2232
248.7328	0.2207
248.9478	0.2013
249.1628	0.2168
249.3779	0.221
249.5929	0.2032
249.8079	0.2289
250.0228	0.2
250.2378	0.1929
250.4528	0.2108
250.6677	0.1974
250.8827	0.192
251.0976	0.196
251.3125	0.1917
251.5274	0.178
251.7423	0.181
251.9572	0.1887
252.172	0.1764
252.3869	0.1966
252.6017	0.1779
252.8166	0.1726
253.0314	0.1676
253.2462	0.1641
253.461	0.1757
253.6758	0.1713
253.8906	0.178
254.1053	0.1631
254.3201	0.1734
254.5348	0.183
254.7496	0.1859
254.9643	0.1776
255.179	0.1706
255.3937	0.1672
255.6083	0.1672
255.823	0.1624
256.0377	0.1568
256.2523	0.1817
256.467	0.1545
256.6816	0.169
256.8962	0.1603
257.1108	0.168
257.3254	0.1782
257.54	0.1581
257.7545	0.1671
257.9691	0.1693
258.1836	0.1666
258.3981	0.1687
258.6127	0.1708
258.8272	0.1617
259.0417	0.1588
259.2561	0.1527
259.4706	0.1501
259.6851	0.1707
259.8995	0.1604
260.114	0.1621
260.3284	0.1635
260.5428	0.1524
260.7572	0.1591
260.9716	0.1641
261.186	0.1666
261.4003	0.1588
261.6147	0.1634
261.829	0.1659
262.0433	0.1649
262.2577	0.1546
262.472	0.1663
262.6863	0.1702
262.9005	0.1604
263.1148	0.1785
263.3291	0.1498
263.5433	0.1686
263.7576	0.1615
263.9718	0.1581
264.186	0.1544
264.4002	0.1625
264.6144	0.1668
264.8286	0.17
265.0427	0.1528
265.2569	0.1635
265.471	0.1578
265.6851	0.1441
265.8993	0.1657
266.1134	0.1503
266.3275	0.1535
266.5415	0.1562
266.7556	0.1692
266.9697	0.1672
267.1837	0.1647
267.3978	0.155
267.6118	0.157
267.8258	0.1649
268.0398	0.1564
268.2538	0.1687
268.4677	0.1694
268.6817	0.1596
268.8957	0.1561
269.1096	0.1562
269.3235	0.1587
269.5374	0.1587
269.7514	0.1478
269.9652	0.1426
270.1791	0.1499
270.393	0.1623
270.6068	0.1556
270.8207	0.1517
271.0345	0.1505
271.2483	0.1464
271.4622	0.1489
271.676	0.1476
271.8897	0.1399
272.1035	0.1382
272.3173	0.1404
272.531	0.1452
272.7448	0.157
272.9585	0.1403
273.1722	0.1446
273.3859	0.1424
273.5996	0.1229
273.8133	0.1473
274.0269	0.145
274.2406	0.1405
274.4542	0.1483
274.6679	0.1312
274.8815	0.1517
275.0951	0.1445
275.3087	0.1494
275.5223	0.1521
275.7358	0.1453
275.9494	0.1563
276.1629	0.1396
276.3765	0.1453
276.59	0.1495
276.8035	0.1413
277.017	0.1625
277.2305	0.1418
277.444	0.1455
277.6574	0.1499
277.8709	0.1479
278.0843	0.1484
278.2978	0.1467
278.5112	0.1511
278.7246	0.1443
278.938	0.1452
279.1513	0.1491
279.3647	0.1591
279.5781	0.129
279.7914	0.15
280.0047	0.1576
280.2181	0.1569
280.4314	0.1592
280.6447	0.14
280.8579	0.1598
281.0712	0.1541
281.2845	0.144
281.4977	0.1628
281.711	0.1489
281.9242	0.1549
282.1374	0.1511
282.3506	0.1395
282.5638	0.1495
282.7769	0.1544
282.9901	0.1547
283.2033	0.1575
283.4164	0.1682
283.6295	0.1356
283.8426	0.1349
284.0557	0.1549
284.2688	0.1603
284.4819	0.1609
284.695	0.1559
284.908	0.1549
285.1211	0.1469
285.3341	0.1615
285.5471	0.1511
285.7601	0.1543
285.9731	0.1551
286.1861	0.1507
286.3991	0.1651
286.612	0.1684
286.825	0.1569
287.0379	0.1677
287.2508	0.1644
287.4637	0.1729
287.6766	0.154
287.8895	0.1716
288.1024	0.1782
288.3152	0.1729
288.5281	0.1558
288.7409	0.1639
288.9538	0.1647
289.1666	0.1587
289.3794	0.1668
289.5922	0.1645
289.8049	0.1572
290.0177	0.1562
290.2304	0.1645
290.4432	0.1637
290.6559	0.1556
290.8686	0.1603
291.0813	0.157
291.294	0.1705
291.5067	0.1738
291.7194	0.1607
291.932	0.1839
292.1447	0.1624
292.3573	0.1637
292.5699	0.1638
292.7825	0.1775
292.9951	0.1519
293.2077	0.1617
293.4203	0.1555
293.6328	0.149
293.8454	0.181
294.0579	0.1602
294.2704	0.1667
294.4829	0.1533
294.6954	0.1643
294.9079	0.168
295.1204	0.1468
295.3328	0.1542
295.5453	0.1571
295.7577	0.1692
295.9701	0.1615
296.1825	0.1619
296.3949	0.1619
296.6073	0.155
296.8197	0.1596
297.0321	0.1696
297.2444	0.1533
297.4567	0.1639
297.6691	0.1611
297.8814	0.1529
298.0937	0.1652
298.306	0.1691
298.5182	0.1677
298.7305	0.1589
298.9428	0.1538
299.155	0.1658
299.3672	0.1692
299.5794	0.1551
299.7916	0.1628
300.0038	0.172
300.216	0.1661
300.4282	0.174
300.6403	0.1539
300.8525	0.1734
301.0646	0.1575
301.2767	0.1577
301.4888	0.1687
301.7009	0.1687
301.913	0.1528
302.125	0.1677
302.3371	0.1687
302.5491	0.1597
302.7612	0.1715
302.9732	0.1598
303.1852	0.1686
303.3972	0.1675
303.6092	0.152
303.8211	0.155
304.0331	0.1569
304.245	0.1392
304.457	0.1614
304.6689	0.1532
304.8808	0.1629
305.0927	0.1521
305.3046	0.1579
305.5164	0.1641
305.7283	0.1393
305.9401	0.1578
306.152	0.1448
306.3638	0.1497
306.5756	0.1464
306.7874	0.1521
306.9992	0.144
307.2109	0.1482
307.4227	0.1387
307.6344	0.1323
307.8462	0.1303
308.0579	0.1426
308.2696	0.1387
308.4813	0.138
308.693	0.1292
308.9046	0.1355
309.1163	0.1356
309.328	0.1304
309.5396	0.1267
309.7512	0.1229
309.9628	0.12
310.1744	0.1155
310.386	0.1207
310.5976	0.1172
310.8091	0.1195
311.0207	0.1161
311.2322	0.1191
311.4437	0.1067
311.6552	0.1139
311.8667	0.1122
312.0782	0.1037
312.2897	0.1144
312.5012	0.1139
312.7126	0.1063
312.924	0.0979
313.1355	0.1135
313.3469	0.1092
313.5583	0.1089
313.7696	0.1112
313.981	0.1114
314.1924	0.103
314.4037	0.1053
314.6151	0.1148
314.8264	0.0954
315.0377	0.0995
315.249	0.1087
315.4603	0.1107
315.6716	0.1089
315.8828	0.0944
316.0941	0.0968
316.3053	0.0933
316.5165	0.095
316.7277	0.0943
316.9389	0.1154
317.1501	0.0879
317.3613	0.1007
317.5724	0.0842
317.7836	0.1105
317.9947	0.102
318.2058	0.0992
318.417	0.0948
318.6281	0.0962
318.8391	0.0947
319.0502	0.0989
319.2613	0.1018
319.4723	0.1072
319.6834	0.1071
319.8944	0.0892
320.1054	0.0931
320.3164	0.1044
320.5274	0.0981
320.7383	0.0916
320.9493	0.1009
321.1602	0.1017
321.3712	0.0961
321.5821	0.1051
321.793	0.1009
322.0039	0.0995
322.2148	0.0863
322.4257	0.0964
322.6365	0.1099
322.8474	0.1022
323.0582	0.1039
323.269	0.1097
323.4798	0.1035
323.6906	0.1059
323.9014	0.1119
324.1122	0.0993
324.3229	0.0983
324.5337	0.103
324.7444	0.1006
324.9551	0.1223
325.1658	0.1011
325.3765	0.1039
325.5872	0.1031
325.7979	0.0988
326.0085	0.107
326.2192	0.1054
326.4298	0.1148
326.6404	0.0996
326.851	0.0951
327.0616	0.0915
327.2722	0.1112
327.4828	0.1097
327.6933	0.0977
327.9039	0.1127
328.1144	0.1123
328.3249	0.104
328.5354	0.0963
328.7459	0.103
328.9564	0.0946
329.1669	0.1097
329.3773	0.1088
329.5878	0.1046
329.7982	0.1093
330.0086	0.0971
330.219	0.1057
330.4294	0.1092
330.6398	0.097
330.8502	0.1104
331.0605	0.1097
331.2708	0.1048
331.4812	0.1193
331.6915	0.112
331.9018	0.1005
332.1121	0.1014
332.3224	0.1049
332.5326	0.1105
332.7429	0.1045
332.9531	0.1201
333.1633	0.1058
333.3735	0.1069
333.5837	0.1085
333.7939	0.1075
334.0041	0.1307
334.2143	0.1127
334.4244	0.1179
334.6346	0.0928
334.8447	0.1208
335.0548	0.1008
335.2649	0.0964
335.475	0.1168
335.685	0.0936
335.8951	0.117
336.1051	0.1039
336.3152	0.1194
336.5252	0.1127
336.7352	0.1104
336.9452	0.1152
337.1552	0.1219
337.3652	0.1177
337.5751	0.1146
337.7851	0.1178
337.995	0.1054
338.2049	0.1173
338.4148	0.115
338.6247	0.1175
338.8346	0.129
339.0445	0.1106
339.2543	0.1143
339.4642	0.1197
339.674	0.1085
339.8838	0.1135
340.0936	0.1081
340.3034	0.1258
340.5132	0.107
340.7229	0.1128
340.9327	0.1191
341.1424	0.1052
341.3522	0.1283
341.5619	0.1208
341.7716	0.1154
341.9813	0.1193
342.1909	0.1173
342.4006	0.1277
342.6102	0.1373
342.8199	0.1217
343.0295	0.1343
343.2391	0.1308
343.4487	0.1318
343.6583	0.1156
343.8679	0.1285
344.0774	0.1287
344.287	0.1262
344.4965	0.1183
344.706	0.1281
344.9155	0.1366
345.125	0.118
345.3345	0.1235
345.544	0.1339
345.7534	0.1298
345.9629	0.1235
346.1723	0.1215
346.3817	0.1224
346.5911	0.1399
346.8005	0.1402
347.0099	0.1313
347.2193	0.1317
347.4286	0.1246
347.638	0.1221
347.8473	0.1432
348.0566	0.1453
348.2659	0.1443
348.4752	0.1349
348.6845	0.1218
348.8937	0.1302
349.103	0.1517
349.3122	0.1334
349.5214	0.1287
349.7306	0.1318
349.9398	0.1346
350.149	0.1478
350.3582	0.1345
350.5674	0.1461
350.7765	0.1491
350.9856	0.139
351.1948	0.1472
351.4039	0.1342
351.613	0.1389
351.822	0.1422
352.0311	0.1527
352.2402	0.1372
352.4492	0.153
352.6582	0.1432
352.8672	0.136
353.0762	0.1505
353.2852	0.1445
353.4942	0.1362
353.7032	0.145
353.9121	0.1535
354.1211	0.1496
354.33	0.1476
354.5389	0.1479
354.7478	0.1489
354.9567	0.1544
355.1655	0.1489
355.3744	0.1466
355.5833	0.1531
355.7921	0.1696
356.0009	0.1463
356.2097	0.1737
356.4185	0.1724
356.6273	0.1538
356.8361	0.1688
357.0448	0.1423
357.2536	0.1442
357.4623	0.1606
357.671	0.1613
357.8797	0.1739
358.0884	0.1657
358.2971	0.1562
358.5057	0.1632
358.7144	0.1728
358.923	0.1636
359.1316	0.1734
359.3402	0.1754
359.5488	0.169
359.7574	0.1693
359.966	0.1865
360.1746	0.1801
360.3831	0.1651
360.5916	0.1694
360.8002	0.1553
361.0087	0.1921
361.2172	0.1697
361.4256	0.1821
361.6341	0.2031
361.8426	0.1822
362.051	0.1829
362.2594	0.1853
362.4678	0.1751
362.6762	0.1951
362.8846	0.1815
363.093	0.1856
363.3014	0.1812
363.5097	0.1776
363.718	0.1996
363.9264	0.1932
364.1347	0.1916
364.343	0.1924
364.5513	0.2015
364.7595	0.1996
364.9678	0.1877
365.176	0.2046
365.3842	0.187
365.5925	0.2038
365.8007	0.2107
366.0089	0.1893
366.217	0.1914
366.4252	0.1929
366.6333	0.2343
366.8415	0.2049
367.0496	0.1891
367.2577	0.2264
367.4658	0.211
367.6739	0.2121
367.882	0.2205
368.09	0.2009
368.2981	0.2161
368.5061	0.2009
368.7141	0.2196
368.9221	0.2047
369.1301	0.2296
369.3381	0.2013
369.5461	0.2144
369.754	0.2078
369.962	0.2288
370.1699	0.2048
370.3778	0.2101
370.5857	0.2024
370.7936	0.218
371.0015	0.2266
371.2093	0.2262
371.4172	0.231
371.625	0.2124
371.8328	0.229
372.0406	0.2284
372.2484	0.2333
372.4562	0.227
372.664	0.2226
372.8717	0.2264
373.0795	0.2112
373.2872	0.2257
373.4949	0.2197
373.7026	0.2293
373.9103	0.2207
374.118	0.2236
374.3256	0.226
374.5333	0.2269
374.7409	0.2129
374.9485	0.2446
375.1561	0.2195
375.3637	0.2463
375.5713	0.2279
375.7789	0.2375
375.9864	0.2237
376.194	0.2341
376.4015	0.2397
376.609	0.2586
376.8165	0.2332
377.024	0.2305
377.2315	0.2077
377.4389	0.2309
377.6464	0.2482
377.8538	0.2325
378.0612	0.237
378.2686	0.2418
378.476	0.2498
378.6834	0.2476
378.8908	0.2544
379.0981	0.2485
379.3055	0.2465
379.5128	0.2461
379.7201	0.237
379.9274	0.2257
380.1347	0.2562
380.342	0.2611
380.5492	0.2314
380.7565	0.2641
380.9637	0.2426
381.1709	0.2556
381.3781	0.2479
381.5853	0.2637
381.7925	0.26
381.9997	0.2458
382.2068	0.2629
382.4139	0.2598
382.6211	0.2389
382.8282	0.2322
383.0353	0.254
383.2424	0.2514
383.4494	0.2671
383.6565	0.2346
383.8635	0.2386
384.0706	0.2587
384.2776	0.2601
384.4846	0.2487
384.6916	0.2646
384.8986	0.2492
385.1055	0.2712
385.3125	0.2631
385.5194	0.246
385.7263	0.2623
385.9333	0.249
386.1402	0.2531
386.347	0.2591
386.5539	0.256
386.7608	0.2619
386.9676	0.242
387.1744	0.2485
387.3813	0.2365
387.5881	0.2505
387.7948	0.2401
388.0016	0.2396
388.2084	0.245
388.4151	0.2463
388.6219	0.2471
388.8286	0.247
389.0353	0.2666
389.242	0.2657
389.4487	0.2523
389.6553	0.2309
389.862	0.23
390.0686	0.218
390.2753	0.2538
390.4819	0.2568
390.6885	0.235
390.8951	0.2561
391.1016	0.2264
391.3082	0.2406
391.5147	0.2418
391.7213	0.2207
391.9278	0.2241
392.1343	0.2341
392.3408	0.2276
392.5473	0.2354
392.7537	0.2351
392.9602	0.2302
393.1666	0.2453
393.373	0.2422
393.5794	0.2495
393.7858	0.2328
393.9922	0.2177
394.1986	0.2252
394.4049	0.2257
394.6113	0.2148
394.8176	0.2123
395.0239	0.2071
395.2302	0.2199
395.4365	0.2118
395.6428	0.2239
395.8491	0.2171
396.0553	0.2175
396.2615	0.2056
396.4678	0.2153
396.674	0.1954
396.8802	0.2166
397.0863	0.2211
397.2925	0.2116
397.4987	0.211
397.7048	0.2142
397.9109	0.2094
398.117	0.2071
398.3231	0.2027
398.5292	0.2246
398.7353	0.2225
398.9413	0.2132
399.1474	0.233
399.3534	0.2169
399.5594	0.2059
399.7654	0.2256
399.9714	0.2266
400.1774	0.2018
400.3833	0.1929
400.5893	0.2155
400.7952	0.2205
401.0011	0.2269
401.207	0.2153
401.4129	0.2145
401.6188	0.2166
401.8247	0.2084
402.0305	0.208
402.2364	0.2126
402.4422	0.2202
402.648	0.214
402.8538	0.2242
403.0596	0.2084
403.2654	0.2347
403.4711	0.2129
403.6768	0.2201
403.8826	0.2387
404.0883	0.2241
404.294	0.2234
404.4997	0.2007
404.7054	0.2117
404.911	0.2172
405.1167	0.2126
405.3223	0.228
405.5279	0.2211
405.7335	0.2236
405.9391	0.2342
406.1447	0.2084
406.3502	0.2219
406.5558	0.1988
406.7613	0.2098
406.9668	0.212
407.1724	0.2229
407.3778	0.2055
407.5833	0.2086
407.7888	0.2086
407.9942	0.2193
408.1997	0.1966
408.4051	0.205
408.6105	0.2234
408.8159	0.1896
409.0213	0.2025
409.2267	0.2068
409.432	0.1978
409.6374	0.2195
409.8427	0.1952
410.048	0.2144
410.2533	0.222
410.4586	0.2076
410.6639	0.1986
410.8691	0.1973
411.0744	0.2017
411.2796	0.1842
411.4848	0.1917
411.69	0.1999
411.8952	0.2253
412.1004	0.2014
412.3056	0.2007
412.5107	0.2076
412.7158	0.2269
412.921	0.2125
413.1261	0.2291
413.3312	0.1975
413.5362	0.1924
413.7413	0.1967
413.9464	0.1908
414.1514	0.2096
414.3564	0.2231
414.5614	0.1975
414.7664	0.2038
414.9714	0.2093
415.1764	0.1922
415.3813	0.2012
415.5863	0.1911
415.7912	0.1974
415.9961	0.2056
416.201	0.2049
416.4059	0.2036
416.6108	0.2095
416.8156	0.2146
417.0205	0.2084
417.2253	0.2002
417.4301	0.205
417.6349	0.1869
417.8397	0.187
418.0445	0.1828
418.2492	0.2128
418.454	0.1976
418.6587	0.1966
418.8634	0.1875
419.0681	0.178
419.2728	0.1868
419.4775	0.1922
419.6822	0.1801
419.8868	0.1831
420.0915	0.21
420.2961	0.1861
420.5007	0.1693
420.7053	0.2192
420.9099	0.2059
421.1144	0.1998
421.319	0.1837
421.5235	0.1998
421.728	0.1887
421.9325	0.2041
422.137	0.2015
422.3415	0.1863
422.546	0.1888
422.7504	0.1833
422.9549	0.1904
423.1593	0.1832
423.3637	0.1856
423.5681	0.1893
423.7725	0.1812
423.9769	0.1717
424.1812	0.1755
424.3856	0.1869
424.5899	0.1694
424.7942	0.1843
424.9985	0.1821
425.2028	0.1678
425.4071	0.1897
425.6113	0.1537
425.8156	0.1717
426.0198	0.1837
426.224	0.1632
426.4282	0.1786
426.6324	0.1637
426.8366	0.161
427.0407	0.1624
427.2449	0.1562
427.449	0.1647
427.6531	0.1417
427.8572	0.1556
428.0613	0.148
428.2654	0.1642
428.4694	0.1736
428.6735	0.1559
428.8775	0.1563
429.0815	0.1635
429.2855	0.1444
429.4895	0.1582
429.6935	0.1526
429.8975	0.1632
430.1014	0.145
430.3053	0.1373
430.5093	0.143
430.7132	0.1329
430.9171	0.135
431.1209	0.143
431.3248	0.1473
431.5286	0.1496
431.7325	0.1293
431.9363	0.1311
432.1401	0.1432
432.3439	0.1376
432.5477	0.1009
432.7514	0.1086
432.9552	0.1178
433.1589	0.1255
433.3627	0.1012
433.5664	0.1226
433.7701	0.1251
433.9737	0.1135
434.1774	0.1077
434.3811	0.0975
434.5847	0.1158
434.7883	0.1159
434.9919	0.1148
435.1955	0.1092
435.3991	0.1038
435.6027	0.1136
435.8062	0.1074
436.0098	0.1165
436.2133	0.1015
436.4168	0.1091
436.6203	0.0954
436.8238	0.095
437.0272	0.1061
437.2307	0.0925
437.4341	0.104
437.6375	0.0944
437.841	0.0837
438.0443	0.0946
438.2477	0.0975
438.4511	0.0842
438.6545	0.0969
438.8578	0.0917
439.0611	0.0766
439.2644	0.1046
439.4677	0.076
439.671	0.0793
439.8743	0.0911
440.0775	0.083
440.2808	0.0783
440.484	0.0647
440.6872	0.0615
440.8904	0.0694
441.0936	0.0912
441.2967	0.0638
441.4999	0.0715
441.703	0.0772
441.9062	0.0592
442.1093	0.0606
442.3124	0.0726
442.5155	0.0567
442.7185	0.0539
442.9216	0.0474
443.1246	0.0659
443.3276	0.0515
443.5307	0.0586
443.7337	0.0623
443.9366	0.057
444.1396	0.059
444.3426	0.059
444.5455	0.0633
444.7484	0.0475
444.9513	0.0529
445.1542	0.0508
445.3571	0.0381
445.56	0.0382
445.7628	0.0425
445.9657	0.0482
446.1685	0.0602
446.3713	0.0443
446.5741	0.0365
446.7769	0.029
446.9797	0.0492
447.1824	0.0544
447.3852	0.0348
447.5879	0.0487
447.7906	0.0501
447.9933	0.0368
448.196	0.0256
448.3986	0.0298
448.6013	0.0366
448.8039	0.03
449.0066	0.0278
449.2092	0.0387
449.4118	0.0453
449.6143	0.0359
449.8169	0.0243
450.0195	0.0193
450.222	0.0183
450.4245	0.0178
450.627	0.0197
450.8295	0.0207
451.032	0.0116
451.2345	0.0239
451.4369	0.0326
451.6394	0.0219
451.8418	0.0154
452.0442	0.0138
452.2466	0.0297
452.449	-0.0047
452.6513	0.0119
452.8537	0.0137
453.056	0.0055
453.2583	0.0196
453.4607	0.0165
453.663	0.0256
453.8652	0.0316
454.0675	0.007
454.2697	0.0284
454.472	0.0212
454.6742	0.0274
454.8764	0.0158
455.0786	0.0177
455.2808	0.0273
455.4829	0.0126
455.6851	0.0134
455.8872	0.03
456.0893	0.0318
456.2915	0.0043
456.4935	0.0309
456.6956	0.0089
456.8977	0.0213
457.0997	0.0076
457.3018	-0.0008
457.5038	0.0134
457.7058	0.0055
457.9078	0.009
458.1098	0.0191
458.3117	0.0118
458.5137	0.0128
458.7156	0.0317
458.9175	-0.0104
459.1194	0.0058
459.3213	0.0083
459.5232	-0.0034
459.725	-0.0056
459.9269	0.0005
460.1287	-0.0037
460.3305	-0.0009
460.5323	0.0032
460.7341	0.0072
460.9359	0.0007
461.1376	0.0129
461.3394	0.0163
461.5411	0.0063
461.7428	0.008
461.9445	0.0095
462.1462	0.027
462.3479	0.0004
462.5495	0.0071
462.7512	0.0056
462.9528	0.0071
463.1544	-0.0096
463.356	0.0026
463.5576	-0.0049
463.7592	-0.0092
463.9607	0.0077
464.1623	0.0178
464.3638	0.0143
464.5653	0.0037
464.7668	-0.0012
464.9683	0.0081
465.1697	0.027
465.3712	-0.0042
465.5726	0.0008
465.7741	0.0044
465.9755	-0.0065
466.1769	-0.0016
466.3782	-0.0082
466.5796	-0.0066
466.7809	0.0125
466.9823	0.0013
467.1836	-0.0028
467.3849	-0.0009
467.5862	0.0072
467.7875	0.0161
467.9887	0.0113
468.19	0.006
468.3912	-0.0091
468.5924	-0.0065
468.7936	-0.0039
468.9948	-0.0065
469.196	0.0111
469.3972	-0.0072
469.5983	0.0001
469.7994	-0.0136
470.0006	0.0046
470.2017	-0.0101
470.4027	-0.0051
470.6038	0.0031
470.8049	-0.029
471.0059	-0.0069
471.2069	-0.0266
471.408	0.0205
471.6089	0.0038
471.8099	-0.0057
472.0109	0.0082
472.2119	-0.0212
472.4128	-0.0184
472.6137	0.0049
472.8146	-0.0056
473.0155	-0.0059
473.2164	-0.0028
473.4173	0.0103
473.6181	0.011
473.819	0.0071
474.0198	0.0057
474.2206	-0.005
474.4214	0.0089
474.6222	0.001
474.8229	-0.0092
475.0237	-0.0211
475.2244	-0.0035
475.4251	0.0074
475.6258	0.0017
475.8265	-0.0035
476.0272	0.0084
476.2278	-0.0012
476.4285	0.0003
476.6291	-0.0198
476.8297	-0.0113
477.0303	-0.0158
477.2309	-0.0064
477.4315	-0.0175
477.632	-0.0052
477.8326	-0.0023
478.0331	-0.0116
478.2336	0.007
478.4341	-0.013
478.6346	-0.0099
478.8351	-0.0038
479.0355	0.0029
479.236	-0.0072
479.4364	-0.003
479.6368	0.0016
479.8372	-0.0049
480.0376	-0.0107
480.2379	-0.0138
480.4383	-0.0116
480.6386	0.0021
480.8389	-0.0004
481.0392	-0.0129
481.2395	-0.0058
481.4398	0.0101
481.6401	0.0071
481.8403	0.0035
482.0405	0
482.2408	-0.0049
482.441	0.0007
482.6411	-0.0095
482.8413	-0.0028
483.0415	-0.0061
483.2416	-0.0027
483.4417	-0.0032
483.6419	-0.0063
483.8419	-0.0092
484.042	0.02
484.2421	0.0071
484.4422	-0.0077
484.6422	-0.0071
484.8422	-0.0017
485.0422	-0.0178
485.2422	0.0059
485.4422	-0.0137
485.6422	-0.0097
485.8421	-0.006
486.042	-0.0042
486.242	-0.0025
486.4419	-0.0048
486.6417	-0.0003
486.8416	-0.0039
487.0415	-0.002
487.2413	-0.0032
487.4411	-0.014
487.641	-0.009
487.8408	0.0016
488.0405	-0.0119
488.2403	-0.0076
488.4401	0.0035
488.6398	0.0022
488.8395	-0.008
489.0392	0.0002
489.2389	-0.0155
489.4386	-0.0102
489.6383	-0.0103
489.8379	-0.0091
490.0376	-0.0009
490.2372	-0.0073
490.4368	-0.0064
490.6364	-0.0065
490.836	-0.0118
491.0355	-0.0033
491.2351	-0.007
491.4346	0.002
491.6341	-0.0103
491.8336	-0.0053
492.0331	-0.0152
492.2326	-0.0139
492.432	0.002
492.6315	-0.0026
492.8309	-0.0129
493.0303	-0.0171
493.2297	-0.0041
493.4291	-0.0016
493.6284	-0.0019
493.8278	0.0036
494.0271	-0.0056
494.2264	0.0112
494.4257	-0.0079
494.625	0.001
494.8243	-0.011
495.0236	-0.012
495.2228	-0.0104
495.422	-0.0021
495.6213	-0.0064
495.8205	0.0001
496.0196	-0.0102
496.2188	0.0055
496.418	-0.0211
496.6171	-0.0055
496.8162	-0.0062
497.0153	0.0078
497.2144	0.0008
497.4135	-0.0014
497.6126	-0.0201
497.8116	-0.0041
498.0107	-0.002
498.2097	-0.0041
498.4087	-0.009
498.6077	-0.0025
498.8067	-0.0073
499.0056	0.0039
499.2046	-0.0055
499.4035	-0.0164
499.6024	-0.01
499.8013	-0.0022
500.0002	-0.0099
500.199	0.003
500.3979	-0.0088
500.5967	-0.0208
500.7956	-0.0003
500.9944	0.0044
501.1932	-0.0047
501.3919	-0.011
501.5907	-0.0152
501.7895	-0.0039
501.9882	-0.0084
502.1869	-0.005
502.3856	-0.009
502.5843	-0.006
502.783	0.0007
502.9816	-0.0031
503.1803	-0.013
503.3789	-0.0069
503.5775	0.0108
503.7761	-0.0096
503.9747	0.0022
504.1732	-0.0141
504.3718	-0.0009
504.5703	-0.0061
504.7689	-0.0098
504.9674	-0.0054
505.1658	-0.002
505.3643	-0.0051
505.5628	0.0026
505.7612	-0.0103
505.9597	0.0046
506.1581	-0.0023
506.3565	0.0037
506.5549	-0.0031
506.7532	-0.0116
506.9516	0.0016
507.1499	0.005
507.3482	-0.0075
507.5465	-0.0076
507.7448	-0.014
507.9431	-0.0046
508.1414	0.0067
508.3396	-0.0065
508.5379	-0.0072
508.7361	-0.0066
508.9343	-0.0012
509.1325	-0.0026
509.3306	-0.0085
509.5288	-0.0043
509.7269	-0.0055
509.9251	0.0008
510.1232	-0.0161
510.3213	0.0032
510.5193	-0.0119
510.7174	-0.0099
510.9154	-0.0146
511.1135	-0.0052
511.3115	-0.0111
511.5095	0.0005
511.7075	-0.0119
511.9055	0.0017
512.1034	-0.0154
512.3014	-0.0051
512.4993	0.0034
512.6972	-0.0139
512.8951	-0.0171
513.093	-0.0016
513.2908	0.0057
513.4887	0.0027
513.6865	-0.0068
513.8844	-0.0069
514.0822	-0.0123
514.2799	-0.0072
514.4777	-0.0146
514.6755	-0.0032
514.8732	-0.0177
515.0709	-0.0055
515.2687	-0.0144
515.4664	0.0048
515.664	-0.0097
515.8617	0.0011
516.0594	-0.0135
516.257	-0.0011
516.4546	-0.0137
516.6522	0
516.8498	-0.0043
517.0474	-0.0004
517.2449	0.0048
517.4425	-0.0091
517.64	0.0016
517.8375	0.0032
518.035	0.0009
518.2325	-0.0075
518.43	0.0015
518.6274	-0.0086
518.8249	-0.0144
519.0223	0.003
519.2197	-0.0058
519.4171	-0.0034
519.6145	-0.0138
519.8118	-0.006
520.0092	-0.0041
520.2065	0.0002
520.4038	-0.0163
520.6011	-0.0051
520.7984	-0.0132
520.9956	-0.0072
521.1929	-0.0097
521.3901	-0.007
521.5874	-0.0058
521.7846	-0.0056
521.9818	-0.0164
522.1789	-0.0007
522.3761	-0.0028
522.5732	0.0001
522.7704	-0.005
522.9675	-0.0051
523.1646	-0.017
523.3617	-0.0071
523.5587	-0.002
523.7558	-0.0065
523.9528	-0.0122
524.1498	0.0027
524.3468	-0.0052
524.5438	-0.0101
524.7408	-0.0027
524.9378	0.0033
525.1347	-0.0038
525.3316	0.0006
525.5285	-0.0048
525.7254	-0.0022
525.9223	0.0004
526.1192	-0.0075
526.316	-0.0189
526.5129	-0.0038
526.7097	0.002
526.9065	-0.0013
527.1033	-0.0046
527.3	0.0016
527.4968	0.0048
527.6935	-0.0008
527.8903	-0.0097
528.087	-0.0115
528.2837	-0.007
528.4804	-0.0081
528.677	-0.0116
528.8737	0.0049
529.0703	0
529.2669	-0.0048
529.4635	-0.001
529.6601	0.0031
529.8567	0.0031
530.0532	-0.0009
530.2498	0.0089
530.4463	0.0072
530.6428	0.0017
530.8393	0.0055
531.0358	-0.0074
531.2322	-0.006
531.4287	-0.0042
531.6251	-0.0124
531.8215	0.0128
532.0179	0.0022
532.2143	0.0042
532.4107	0.0002
532.607	-0.002
532.8034	0.0017
532.9997	0.0033
533.196	-0.0053
533.3923	-0.0055
533.5886	0.0047
533.7848	0.0048
533.9811	0.0021
534.1773	-0.0023
534.3735	-0.0002
534.5697	-0.001
534.7659	0.0007
534.9621	-0.0007
535.1582	-0.0079
535.3544	-0.0094
535.5505	-0.0065
535.7466	-0.0042
535.9427	-0.0018
536.1387	-0.0085
536.3348	-0.0101
536.5308	0.0043
536.7269	-0.0137
536.9229	-0.0017
537.1189	-0.0003
537.3148	0.0007
537.5108	-0.0032
537.7068	-0.0077
537.9027	0.0013
538.0986	-0.0003
538.2945	-0.0064
538.4904	-0.0011
538.6863	-0.0076
538.8821	-0.0046
539.078	0.0003
539.2738	0.0025
539.4696	-0.0008
539.6654	0.0034
539.8611	0.0133
540.0569	0.0008
540.2526	0.003
540.4484	-0.0054
540.6441	0.0056
540.8398	0.0031
541.0355	0.0037
541.2311	-0.0006
541.4268	-0.0015
541.6224	0.0018
541.818	0.0031
542.0136	-0.0007
542.2092	-0.0072
542.4048	-0.004
542.6003	0.003
542.7959	-0.0027
542.9914	-0.0029
543.1869	0.0065
543.3824	-0.0073
543.5779	-0.0037
543.7734	0.0009
543.9688	-0.0004
544.1642	-0.005
544.3596	0.0004
544.555	-0.0014
544.7504	-0.0004
544.9458	-0.0098
545.1411	-0.006
545.3365	0.0052
545.5318	-0.0024
545.7271	-0.0029
545.9224	-0.0078
546.1177	-0.0042
546.3129	-0.0001
546.5081	-0.0138
546.7034	-0.0054
546.8986	-0.0099
547.0938	-0.0075
547.289	-0.0085
547.4841	-0.0052
547.6793	0.0078
547.8744	-0.0107
548.0695	0.0001
548.2646	-0.0148
548.4597	0.0049
548.6548	-0.0071
548.8498	0.0064
549.0448	0.0103
549.2399	0.0008
549.4349	0.0074
549.6298	0.0013
549.8248	0.0039
550.0198	-0.0081
550.2147	-0.0019
550.4096	-0.0091
550.6045	0.0016
550.7994	0.0088
550.9943	-0.0093
551.1892	-0.0028
551.384	0.0093
551.5788	-0.0092
551.7737	-0.0002
551.9685	-0.0019
552.1632	0.0021
552.358	-0.0087
552.5528	-0.0006
552.7475	-0.0044
552.9422	0.0052
553.1369	0.0067
553.3316	0.0128
553.5263	-0.0108
553.7209	-0.0039
553.9156	-0.0025
554.1102	-0.0062
554.3048	-0.012
554.4994	0.01
554.694	-0.0085
554.8885	0.0063
555.0831	-0.0018
555.2776	-0.0077
555.4721	-0.0104
555.6666	-0.0052
555.8611	0.0078
556.0555	-0.0028
556.25	-0.0015
556.4444	-0.0113
556.6388	-0.005
556.8332	0.0046
557.0276	0.0029
557.222	-0.0066
557.4163	-0.0055
557.6107	-0.0097
557.805	-0
557.9993	-0.0025
558.1936	0.0013
558.3879	0.0008
558.5821	0.0061
558.7764	-0.0047
558.9706	-0.0009
559.1648	-0.0046
559.359	-0.0124
559.5532	-0.0067
559.7473	0.0029
559.9415	-0.0005
560.1356	0.0026
560.3297	-0.0055
560.5238	-0.0017
560.7179	-0.0041
560.9119	-0.0015
561.106	-0.0099
561.3	-0.0081
561.494	-0.0059
561.688	-0.0015
561.882	-0.0082
562.076	-0.0127
562.2699	0.0006
562.4639	0.0019
562.6578	-0.0062
562.8517	-0.0005
563.0456	0.0004
563.2395	-0.003
563.4333	-0.0002
563.6272	0.0065
563.821	-0.005
564.0148	0.0048
564.2086	-0.0079
564.4024	-0.0011
564.5961	-0.0042
564.7899	0.0083
564.9836	-0.0012
565.1773	0.0025
565.371	0.008
565.5647	0.0087
565.7584	0.0049
565.952	0.0054
566.1456	-0.0005
566.3393	0.0004
566.5329	-0.0073
566.7264	-0.0078
566.92	0.0017
567.1136	-0.0027
567.3071	-0.0031
567.5006	0.0066
567.6941	0.0028
567.8876	0.0016
568.0811	-0.0045
568.2745	-0.0026
568.468	0.0026
568.6614	-0.0011
568.8548	0.0025
569.0482	-0.0001
569.2416	0.0039
569.4349	0.0007
569.6283	0.0052
569.8216	0.0019
570.0149	-0.0068
570.2082	0.0113
570.4015	0.0044
570.5947	0.0059
570.788	0.0066
570.9812	0.013
571.1744	0.0065
571.3676	-0.004
571.5608	-0.0012
571.754	0.0073
571.9471	-0.0016
572.1402	-0.0023
572.3333	-0.0027
572.5264	-0.004
572.7195	-0.0023
572.9126	0.0019
573.1057	-0.0003
573.2987	-0.0031
573.4917	0.0006
573.6847	-0.0113
573.8777	0.0016
574.0707	0.0034
574.2636	-0.0009
574.4566	-0.0049
574.6495	0.0024
574.8424	-0.0062
575.0353	-0.0074
575.2281	0.0068
575.421	-0.0001
575.6138	0.0003
575.8067	0.0057
575.9995	0.001
576.1923	0.01
576.385	-0.0015
576.5778	0.0047
576.7706	-0.0017
576.9633	0.0023
577.156	0.0109
577.3487	0.0018
577.5414	-0.0015
577.734	-0.0005
577.9267	0.0068
578.1193	-0.0112
578.3119	-0.0015
578.5045	0.002
578.6971	0.0013
578.8897	0.0031
579.0822	0.0018
579.2747	-0.0006
579.4673	-0.0001
579.6598	-0.002
579.8522	-0.0064
580.0447	-0.008
580.2372	-0.0054
580.4296	0.0018
580.622	0.0001
580.8144	0.0017
581.0068	-0.0001
581.1992	-0.0122
581.3915	-0.0013
581.5839	-0.0037
581.7762	-0.0071
581.9685	-0.0018
582.1608	0.006
582.353	0.0003
582.5453	0.0051
582.7375	0.0064
582.9298	0.0029
583.122	0.0031
583.3142	0.0036
583.5063	0.0022
583.6985	0.0002
583.8906	-0.0045
584.0827	-0.0077
584.2749	0.0022
584.4669	0.0041
584.659	0.001
584.8511	-0.0014
585.0431	0.0021
585.2352	0.0019
585.4272	-0.0031
585.6192	0.0045
585.8111	-0.0022
586.0031	-0.0022
586.195	-0.0021
586.387	0.0085
586.5789	-0.0009
586.7708	-0.0037
586.9627	0.0017
587.1545	-0.0091
587.3464	0.0083
587.5382	0.0042
587.73	0.0064
587.9218	0.0074
588.1136	-0.0037
588.3053	0.0105
588.4971	0.0006
588.6888	-0.0093
588.8805	-0.001
589.0722	0.0023
589.2639	0.0039
589.4556	0.0001
589.6472	-0.0083
589.8389	-0.0033
590.0305	-0.0063
590.2221	0.0012
590.4137	-0.0058
590.6052	0.005
590.7968	0.0018
590.9883	0.0052
591.1798	0.0013
591.3713	-0.0013
591.5628	0.0075
591.7543	0.0065
591.9458	-0.0017
592.1372	0.0062
592.3286	0.0102
592.52	0.007
592.7114	0.004
592.9028	-0.0044
593.0941	0.0017
593.2855	0.0041
593.4768	-0.0104
593.6681	-0.0067
593.8594	-0.0041
594.0506	0.0013
594.2419	0.0118
594.4331	0.0083
594.6244	0.0103
594.8156	-0.0019
595.0067	-0.0015
595.1979	0.0096
595.3891	0.0017
595.5802	-0.0028
595.7713	0.0014
595.9624	0.002
596.1535	0.0095
596.3446	-0.0056
596.5357	-0.0002
596.7267	0.0034
596.9177	0.002
597.1087	-0.0006
597.2997	-0.003
597.4907	0.0044
597.6817	-0.0044
597.8726	-0.0014
598.0635	-0.0027
598.2544	-0.0038
598.4453	-0.002
598.6362	-0.0025
598.827	-0.0054
599.0179	0.0072
599.2087	0.0082
599.3995	-0.0024
599.5903	0.0002
599.7811	0.002
599.9718	0.0006
600.1626	-0.0029
600.3533	-0.0022
600.544	-0.0015
600.7347	-0.0012
600.9254	-0.0002
601.116	-0.0113
601.3067	0.0002
601.4973	-0.0032
601.6879	0.0051
601.8785	-0.0021
602.0691	-0.0042
602.2596	0.006
602.4502	0.0082
602.6407	0.0079
602.8312	0.0045
603.0217	-0.0071
603.2122	-0.0038
603.4027	0.0016
603.5931	0.0017
603.7835	-0.0038
603.9739	0.0015
604.1643	0.0003
604.3547	0.0001
604.5451	0.0045
604.7354	-0.0011
604.9257	0.0063
605.116	-0.0089
605.3063	0.0084
605.4966	0.0035
605.6869	0.0051
605.8771	0.0036
606.0673	0.0028
606.2575	0.0057
606.4477	0.0104
606.6379	0.0029
606.8281	-0.0016
607.0182	0.0043
607.2083	0.01
607.3985	-0.0055
607.5885	0.004
607.7786	0.0033
607.9687	0.0026
608.1587	0.0114
608.3488	0.0076
608.5388	-0.0005
608.7288	-0.0068
608.9187	-0.0049
609.1087	-0.0017
609.2986	-0.0038
609.4886	-0.003
609.6785	0.005
609.8684	0.0041
610.0582	0.0021
610.2481	0.0046
610.4379	0.0006
610.6278	-0.0018
610.8176	0.0069
611.0074	-0.0015
611.1971	0.0039
611.3869	-0.0027
611.5766	-0.0058
611.7664	0.01
611.9561	0.0065
612.1458	0.0055
612.3354	-0.0009
612.5251	-0.0004
612.7147	0.0043
612.9044	0.0101
613.094	-0.0095
613.2836	0.0077
613.4731	0.0002
613.6627	-0.0042
613.8522	-0.0021
614.0417	0.001
614.2313	-0.0043
614.4207	-0.0029
614.6102	-0.0023
614.7997	-0.0044
614.9891	-0.0061
615.1785	0.0027
615.3679	-0.005
615.5573	0.0095
615.7467	0
615.9361	-0.0003
616.1254	0.0005
616.3147	0.0053
616.504	0.0041
616.6933	0.0061
616.8826	0.0055
617.0718	0.0055
617.2611	0.0057
617.4503	-0.002
617.6395	0.0001
617.8287	0.0056
618.0179	0.0038
618.207	0.0034
618.3961	-0.0013
618.5853	-0.001
618.7744	0.0084
618.9634	0.0072
619.1525	0.0078
619.3416	0.0005
619.5306	0.0124
619.7196	0.005
619.9086	0.0009
620.0976	0.0026
620.2866	0.0011
620.4755	0.0002
620.6645	0.0014
620.8534	0.0103
621.0423	0.0057
621.2312	0.0082
621.42	-0.005
621.6089	0.004
621.7977	0.0073
621.9865	-0.0025
622.1753	0.0073
622.3641	0.0013
622.5529	0.0074
622.7416	0.0117
622.9303	0.0017
623.1191	0.0018
623.3078	-0.0029
623.4964	-0.0033
623.6851	0.0009
623.8737	-0.0043
624.0624	0.007
624.251	-0.0036
624.4396	-0.0038
624.6282	-0.0002
624.8167	0.0043
625.0053	0.0015
625.1938	0.0051
625.3823	0.0082
625.5708	-0.0044
625.7593	-0.0021
625.9477	-0.007
626.1362	-0.0011
626.3246	0.0006
626.513	0.0072
626.7014	0.0055
626.8898	-0.0013
627.0781	0.0071
627.2665	-0.0026
627.4548	0.0111
627.6431	0.009
627.8314	0.0045
628.0197	0.0019
628.2079	-0.0046
628.3962	-0.004
628.5844	0.0114
628.7726	0.0069
628.9608	0.0025
629.1489	-0.0008
629.3371	0.0018
629.5252	0.0014
629.7134	0.0153
629.9015	0.0001
630.0895	0.0009
630.2776	0.0072
630.4657	-0.0016
630.6537	-0.0012
630.8417	-0.005
631.0297	0.0009
631.2177	-0.0021
631.4057	-0.009
631.5936	0.0051
631.7815	-0.0004
631.9695	0.0028
632.1574	0.0041
632.3452	0.0102
632.5331	0.0024
632.7209	-0.002
632.9088	0.0054
633.0966	0.0074
633.2844	-0.0029
633.4722	-0.0002
633.6599	0.0096
633.8477	0.0029
634.0354	-0.0024
634.2231	0.0034
634.4108	-0.0008
634.5985	0.007
634.7861	0.0114
634.9738	0.0029
635.1614	0.0059
635.349	0.0085
635.5366	-0.0027
635.7242	0.0043
635.9117	0.0089
636.0993	-0.0002
636.2868	0.0057
636.4743	-0.0018
636.6618	0.0147
636.8492	0.0078
637.0367	0.0041
637.2241	-0.0007
637.4115	-0.0003
637.5989	0.0017
637.7863	-0.0024
637.9737	0.0024
638.161	0.0048
638.3484	-0.0008
638.5357	0.0047
638.723	0.0018
638.9103	0.0035
639.0975	0.0026
639.2848	0.0081
639.472	0.0059
639.6592	0.0039
639.8464	0.0098
640.0336	0.0054
640.2208	0.0035
640.4079	0.0011
640.595	0.0006
640.7821	-0.0019
640.9692	0.0013
641.1563	0.0025
641.3434	-0.0006
641.5304	-0.0048
641.7174	0.0017
641.9044	0.003
642.0914	-0.0008
642.2784	0.0023
642.4653	0.0092
642.6523	0.0089
642.8392	0.004
643.0261	0.0014
643.213	0.0046
643.3999	-0.0038
643.5867	-0.004
643.7735	-0.002
643.9604	-0.0014
644.1472	-0.0026
644.3339	0.0046
644.5207	-0.0008
644.7075	-0.0027
644.8942	0.0083
645.0809	0.0016
645.2676	0.0156
645.4543	0.0054
645.6409	0.0065
645.8276	0.0045
646.0142	0.0018
646.2008	-0.0053
646.3874	-0.0032
646.574	0.0056
646.7605	-0.0066
646.9471	-0.0155
647.1336	-0.0088
647.3201	-0.0039
647.5066	-0.0058
647.6931	0.0081
647.8795	-0.0032
648.0659	0.0063
648.2524	0.01
648.4388	-0.0006
648.6252	-0.0021
648.8115	-0.0012
648.9979	-0.0008
649.1842	0.0037
649.3705	0.0089
649.5568	0.0015
649.7431	0.0044
649.9294	0.0005
650.1156	0.0059
650.3018	-0.0079
650.488	0.0129
650.6742	0.0078
650.8604	0.0091
651.0466	-0.0035
651.2327	-0.0023
651.4188	0.0038
651.6049	-0.0019
651.791	0.0006
651.9771	0.0009
652.1632	0.0004
652.3492	-0.0037
652.5352	0.001
652.7212	-0.004
652.9072	0.0094
653.0932	-0.0014
653.2791	-0.0014
653.465	0.0041
653.651	-0.0049
653.8369	0.0015
654.0227	-0.0034
654.2086	0.0037
654.3944	0.0068
654.5803	-0.0009
654.7661	0.0009
654.9519	0.0012
655.1377	-0.0035
655.3234	0.0024
655.5092	-0.0039
655.6949	-0.0046
655.8806	-0.004
656.0663	0.0006
656.2519	0.0008
656.4376	-0.0015
656.6232	0.0011
656.8088	0.0007
656.9945	0.0014
657.18	0.0033
657.3656	-0.0047
657.5511	-0.0067
657.7367	-0.0031
657.9222	0.0058
658.1077	-0.0024
658.2932	0.0045
658.4786	-0.0033
658.6641	-0.0005
658.8495	-0.0028
659.0349	-0.0053
659.2203	0.0064
659.4057	-0.002
659.591	-0.0061
659.7764	-0.0073
659.9617	0.0009
660.147	-0.0019
660.3323	0.0064
660.5176	0.0075
660.7028	0.0035
660.888	0.0066
661.0733	0.0042
661.2585	-0.0081
661.4436	-0.0002
661.6288	-0.0037
661.8139	-0.0043
661.9991	0.0043
662.1842	0.0006
662.3693	0.0001
662.5544	-0.0048
662.7394	0.0078
662.9245	0.0006
663.1095	-0.0018
663.2945	-0.0035
663.4795	-0.0027
663.6644	0.0086
663.8494	0.005
664.0343	0.004
664.2193	-0.0092
664.4042	0.002
664.589	-0.0012
664.7739	-0.0013
664.9587	-0.0039
665.1436	-0.002
665.3284	0.0029
665.5132	-0.0088
665.698	0.0009
665.8827	0.005
666.0675	-0.0018
666.2522	-0.0053
666.4369	0.0004
666.6216	0.0044
666.8063	0.0014
666.9909	0.0026
667.1756	-0.0019
667.3602	0.0028
667.5448	0.002
667.7294	0.0067
667.9139	0.0069
668.0985	0.0095
668.283	0.0043
668.4675	-0.0063
668.652	0.0114
668.8365	0.0058
669.0209	0.0088
669.2054	0.0076
669.3898	0.0023
669.5742	0.0048
669.7586	0.0038
669.943	0.0044
670.1273	0.0116
670.3117	0.0029
670.496	0.005
670.6803	0.0121
670.8646	0.0055
671.0488	-0.0035
671.2331	0.0045
671.4173	0.0032
671.6015	-0.0035
671.7857	-0.0006
671.9699	0.0053
672.1541	0.004
672.3382	-0.0034
672.5223	0.0046
672.7064	0.0049
672.8905	0.007
673.0746	-0.0002
673.2587	0.0023
673.4427	-0.0007
673.6267	0.0044
673.8107	0.0043
673.9947	0.0059
674.1787	0.001
674.3626	-0.0079
674.5465	0.0075
674.7304	0.0023
674.9143	0.0096
675.0982	0.0126
675.2821	-0.0011
675.4659	0.0127
675.6497	0.0044
675.8335	-0.0038
676.0173	-0.0043
676.2011	-0.0034
676.3849	0.0017
676.5686	-0.0051
676.7523	-0.004
676.936	-0.0005
677.1197	-0.0024
677.3034	-0.0088
677.487	0.0028
677.6706	0.0017
677.8542	0.0007
678.0378	0.009
678.2214	0.0032
678.405	-0.0014
678.5885	-0.0109
678.772	0.0023
678.9555	-0.0005
679.139	-0.004
679.3225	0.0058
679.5059	-0.0083
679.6894	0.0035
679.8728	-0.0063
680.0562	-0.0059
680.2395	-0.0099
680.4229	-0.0016
680.6062	0.003
680.7896	0.0035
680.9729	-0.0059
681.1562	0.0074
681.3394	0.0053
681.5227	0.0004
681.7059	0.0037
681.8891	0.0021
682.0723	0.0091
682.2555	0.004
682.4387	0.0021
682.6218	0.001
682.805	0.0062
682.9881	0.0071
683.1712	0.0028
683.3542	-0.0007
683.5373	0.0021
683.7203	-0.0027
683.9034	0.0036
684.0864	-0.011
684.2694	-0.0006
684.4523	0.0034
684.6353	-0.0064
684.8182	0.0011
685.0011	-0.0141
685.184	0.0031
685.3669	0.0005
685.5498	0.0031
685.7326	0.0012
685.9154	-0.0072
686.0982	0.0106
686.281	0.0061
686.4638	0.0022
686.6465	0.003
686.8293	0.0005
687.012	-0.0011
687.1947	-0.0164
687.3774	0.0036
687.56	-0.0058
687.7427	0.0015
687.9253	-0.0065
688.1079	-0.0001
688.2905	0.0095
688.4731	0.0032
688.6556	-0.0011
688.8382	-0.0078
689.0207	0.0002
689.2032	-0.005
689.3857	-0.0063
689.5681	-0.0005
689.7506	-0.003
689.933	-0.001
690.1154	-0.0044
690.2978	0.003
690.4802	0.001
690.6626	-0.0087
690.8449	-0.001
691.0272	0.0086
691.2095	-0.0059
691.3918	-0.0075
691.5741	0.0021
691.7563	-0.0027
691.9386	0.006
692.1208	0.006
692.303	0.0007
692.4852	0.0004
692.6673	0.002
692.8495	0.001
693.0316	0.0028
693.2137	-0.0022
693.3958	0.0101
693.5778	0.0031
693.7599	-0.0018
693.9419	0.0001
694.1239	0.0037
694.3059	-0.0017
694.4879	0.0095
694.6699	0.0032
694.8518	0.0118
695.0337	-0.0021
695.2157	0.0076
695.3975	0.0012
695.5794	0.0064
695.7613	0.0085
695.9431	0.0051
696.1249	0.0057
696.3067	0.0083
696.4885	0.0093
696.6703	0.0003
696.852	0.008
697.0337	0.0117
697.2154	0.0011
697.3971	0.0088
697.5788	0.0026
697.7605	0.0043
697.9421	0.0065
698.1237	0.0014
698.3053	-0.0023
698.4869	-0.0008
698.6685	-0.0021
698.85	0.0064
699.0315	0.006
699.213	-0.0045
699.3945	0.0089
699.576	0.0139
699.7575	0.0078
699.9389	0.0077
700.1203	0.0033
700.3017	-0.0079
700.4831	-0.0025
700.6645	-0.0021
700.8458	0.0054
701.0271	-0.0077
701.2084	0.0047
701.3897	-0.0021
701.571	0.0089
701.7523	-0.0058
701.9335	0.0041
702.1147	-0.0007
702.2959	0.0039
702.4771	0.0021
702.6583	0.0051
702.8394	-0.0057
703.0205	0.0003
703.2016	-0.0037
703.3827	-0.0006
703.5638	0.0139
703.7449	0.003
703.9259	0.0135
704.1069	-0.0026
704.2879	0.0058
704.4689	0.0006
704.6499	0.002
704.8308	-0.0033
705.0117	0.0042
705.1927	0.0067
705.3735	-0.0066
705.5544	-0.0061
705.7353	0.001
705.9161	0.0006
706.0969	-0.0136
706.2777	0.0018
706.4585	-0.0021
706.6393	-0.002
706.82	-0.001
707.0007	0.0037
707.1815	0.0051
707.3621	0.0084
707.5428	-0.002
707.7235	0.0098
707.9041	0.0007
708.0847	-0.0139
708.2653	-0.0076
708.4459	-0.0131
708.6265	-0.0004
708.807	-0.0019
708.9875	-0.0027
709.168	-0.0003
709.3485	-0.0033
709.529	-0.0084
709.7095	-0.0165
709.8899	0.0033
710.0703	-0.0186
710.2507	-0.0045
710.4311	-0.0065
710.6115	-0.015
710.7918	-0.0085
710.9721	0.0031
711.1524	0.0017
711.3327	-0.0031
711.513	0.0062
711.6932	0.0032
711.8735	0.0068
712.0537	0.014
712.2339	0.0019
712.4141	-0.0046
712.5942	-0.001
712.7744	0.003
712.9545	-0.0055
713.1346	-0.0006
713.3147	-0.0018
713.4947	-0.0049
713.6748	-0.0035
713.8548	-0.005
714.0348	-0.0033
714.2148	0.0031
714.3948	0.0052
714.5748	0.0018
714.7547	0.0004
714.9346	-0.004
715.1145	-0
715.2944	-0.0078
715.4743	0.0027
715.6541	-0.0044
715.834	0.0103
716.0138	-0.0022
716.1936	-0.0099
716.3733	-0.0058
716.5531	0.0083
716.7328	0.0057
716.9126	-0.0035
717.0923	0.0015
717.2719	0.0028
717.4516	0.0124
717.6312	0.0061
717.8109	-0.0035
717.9905	0.0066
718.1701	-0.0076
718.3496	-0.0027
718.5292	0.0055
718.7087	0.0052
718.8882	0.0015
719.0677	0.0073
719.2472	0.0024
719.4267	0.0027
719.6061	0.001
719.7856	0.0033
719.965	0.0134
720.1443	-0.0021
720.3237	0.0136
720.5031	0.0113
720.6824	0.0091
720.8617	-0.0018
721.041	0.0003
721.2203	0.0159
721.3995	0.0005
721.5788	0.0007
721.758	0.0033
721.9372	0.0097
722.1164	-0.0057
722.2956	0.0112
722.4747	0.0016
722.6538	-0
722.8329	0.0157
723.012	0.006
723.1911	0.0027
723.3702	0.0002
723.5492	0.0034
723.7282	-0.003
723.9072	-0.0058
724.0862	-0.0091
724.2652	-0.0042
724.4441	-0.0004
724.623	0.0017
724.8019	-0.0036
724.9808	-0.003
725.1597	-0.0093
725.3385	0.0066
725.5174	-0.001
725.6962	0.0035
725.875	-0.0021
726.0538	0.0064
726.2325	-0.007
726.4112	-0.0016
726.59	0.006
726.7687	0.0021
726.9474	-0.0018
727.126	0.0053
727.3047	0.0007
727.4833	0.0054
727.6619	-0.0021
727.8405	-0.0007
728.0191	-0.0021
728.1976	0.0098
728.3762	0.0007
728.5547	0.0012
728.7332	-0.0076
728.9116	-0.0006
729.0901	0.0003
729.2686	-0.0091
729.447	-0.0011
729.6254	-0.0093
729.8038	0.0014
729.9821	-0.0059
730.1605	-0.0105
730.3388	0.0003
730.5171	0.005
730.6954	-0.0035
730.8737	0.0079
731.0519	0.001
731.2302	0.0024
731.4084	0.0067
731.5866	0.0062
731.7648	0.0022
731.9429	-0.0042
732.1211	-0.0079
732.2992	-0.0073
732.4773	-0.0076
732.6554	-0.0077
732.8335	-0.0033
733.0115	-0.0039
733.1896	0.0085
733.3676	0.0019
733.5456	0.0048
733.7235	0.0027
733.9015	-0.0005
734.0794	0.0042
734.2574	0.0011
734.4353	0.0022
734.6131	0.011
734.791	0.0053
734.9689	0.0049
735.1467	0.0072
735.3245	-0.0124
735.5023	-0.004
735.68	-0.0056
735.8578	0.0058
736.0355	-0.0129
736.2132	-0.0105
736.3909	0.0002
736.5686	-0.0097
736.7463	0.0116
736.9239	-0.0102
737.1015	-0.0035
737.2791	0.0014
737.4567	0.0044
737.6343	-0.0037
737.8118	0.0046
737.9894	0.0081
738.1669	-0.0074
738.3444	-0.0012
738.5218	0.0076
738.6993	0.0001
738.8767	-0.0037
739.0541	0.0048
739.2315	-0.0148
739.4089	0.0042
739.5863	0.0012
739.7636	-0.0003
739.9409	0.0013
740.1182	-0.0014
740.2955	0.0052
740.4728	-0.0023
740.65	-0.0119
740.8272	0.0021
741.0044	-0.0011
741.1816	0.0013
741.3588	0.0012
741.5359	0.007
741.7131	-0.0163
741.8902	0.0004
742.0673	-0.0074
742.2444	-0.0085
742.4214	-0.0033
742.5985	-0.0102
742.7755	-0.009
742.9525	-0.0096
743.1295	0.0002
743.3064	-0.0026
743.4834	0.0062
743.6603	-0.0042
743.8372	-0.0075
744.0141	0.0083
744.191	0.0089
744.3678	-0.0089
744.5446	-0.0015
744.7215	0.0032
744.8982	-0.0033
745.075	-0.0202
745.2518	0.0011
745.4285	-0.0018
745.6052	-0.0094
745.7819	-0.0062
745.9586	-0.0062
746.1353	-0.0088
746.3119	-0.0105
746.4885	-0.0152
746.6651	-0.0126
746.8417	-0.0026
747.0183	-0.0111
747.1948	-0.0142
747.3714	-0.0067
747.5479	-0.0046
747.7244	-0.0151
747.9008	-0.0028
748.0773	-0.0006
748.2537	-0.0123
748.4301	-0.0112
748.6065	-0.0019
748.7829	-0.003
748.9593	-0.0113
749.1356	-0.006
749.3119	-0.0026
749.4882	-0.0109
749.6645	-0.0032
749.8408	-0.0116
750.017	0.0032
750.1933	-0.0021
750.3695	-0.0069
750.5457	0.0085
750.7218	0.0043
750.898	0.0091
751.0741	-0.0084
751.2502	-0.008
751.4263	-0.0042
751.6024	-0.0016
751.7784	-0.0044
751.9545	-0.0053
752.1305	-0.0022
752.3065	-0.0119
752.4825	0.0022
752.6584	-0.007
752.8344	-0.0126
753.0103	-0.0076
753.1862	-0.013
753.3621	-0.0097
753.5379	-0.0034
753.7138	0.0009
753.8896	0.005
754.0654	-0.0018
754.2412	0.004
754.417	0.0018
754.5927	-0.0078
754.7685	-0.0041
754.9442	0.0037
755.1199	0.0182
755.2956	0.0018
755.4712	0.0048
755.6469	0.0031
755.8225	0.0054
755.9981	0.0073
756.1736	0.0061
756.3492	0.0058
756.5248	0.0069
756.7003	0.0031
756.8758	0.0096
757.0513	-0.0141
757.2267	-0.0015
757.4022	0.0094
757.5776	-0.0087
757.753	0.0011
757.9284	-0.001
758.1038	0.0129
758.2791	0.0014
758.4545	-0.0186
758.6298	-0.0065
758.8051	-0.0074
758.9803	-0.0051
759.1556	-0.0043
759.3308	-0.0061
759.506	-0.003
759.6812	-0.0018
759.8564	0.0068
760.0316	0.0068
760.2067	0.0043
760.3819	0.0017
760.557	0.0071
760.732	0.0094
760.9071	0.0029
761.0821	0.0019
761.2572	0.0108
761.4322	0.0017
761.6072	-0.0024
761.7821	-0.0076
761.9571	-0.0026
762.132	-0.0073
762.3069	-0.0051
762.4818	0.003
762.6567	0.0004
762.8316	-0.0037
763.0064	-0.0005
763.1812	-0.0043
763.356	-0.0108
763.5308	-0.0023
763.7055	0.0065
763.8803	-0.0047
764.055	0.0009
764.2297	-0.0109
764.4044	-0.0081
764.579	-0.0199
764.7537	-0.0123
764.9283	-0.0024
765.1029	-0.0097
765.2775	-0.0197
765.4521	-0.015
765.6266	-0.0163
765.8011	-0.0094
765.9756	-0.0058
766.1501	-0.0085
766.3246	-0.005
766.4991	-0.0053
766.6735	0.0069
766.8479	-0.016
767.0223	0.0035
767.1967	-0.0033
767.371	-0.0054
767.5454	-0.0088
767.7197	-0.0036
767.894	-0.009
768.0683	-0.0185
768.2425	-0.0065
768.4168	0.0061
768.591	0.0006
768.7652	-0.0028
768.9394	-0.0107
769.1135	-0.0002
769.2877	0.0042
769.4618	-0.0049
769.6359	-0.0078
769.81	0.0004
769.984	-0.0129
770.1581	-0.0089
770.3321	-0.0031
770.5061	0.0021
770.6801	-0.0077
770.8541	-0.001
771.028	0.0029
771.202	-0.0035
771.3759	-0.0047
771.5498	-0.0119
771.7236	-0.0019
771.8975	0.0062
772.0713	0.0007
772.2451	-0.0026
772.4189	-0.0013
772.5927	0.0012
772.7665	-0.0059
772.9402	-0.005
773.1139	-0.0028
773.2876	-0.0072
773.4613	0.0039
773.635	-0.0057
773.8086	-0.0091
773.9822	0.0043
774.1558	0.0031
774.3294	-0.0123
774.503	-0.0035
774.6765	0.0065
774.8501	0.0058
775.0236	0.0054
775.1971	0.0057
775.3705	0.0005
775.544	-0.0032
775.7174	-0.0063
775.8908	-0.0038
776.0642	-0.007
776.2376	-0.0013
776.4109	-0.0145
776.5843	-0.0027
776.7576	0.0002
776.9309	0.0116
777.1041	-0.0029
777.2774	0.0045
777.4506	-0.0081
777.6238	-0.0019
777.797	0.0043
777.9702	0.0101
778.1434	-0.0077
778.3165	-0.018
778.4896	-0.012
778.6627	0.0003
778.8358	0.0024
779.0089	-0.0095
779.1819	-0.0132
779.3549	0.0108
779.5279	0.0006
779.7009	0.0018
779.8739	-0.0063
780.0468	-0.0077
780.2197	-0.0033
780.3926	-0.0182
780.5655	-0.0142
780.7384	-0.0087
780.9112	-0.0131
781.0841	-0.0127
781.2569	-0.0016
781.4297	-0.0031
781.6024	0.005
781.7752	0.0011
781.9479	-0.006
782.1206	-0.0079
782.2933	-0.0178
782.466	-0.001
782.6386	-0.0051
782.8113	-0.0011
782.9839	0.0069
783.1565	0.0103
783.329	0.0034
783.5016	0.0144
783.6741	-0.0016
783.8466	-0.0033
784.0191	0.0173
784.1916	-0.0033
784.3641	0.0053
784.5365	-0.0008
784.7089	0.001
784.8813	-0.0164
785.0537	-0.0037
785.2261	-0.0065
785.3984	-0.0225
785.5707	-0.0001
785.743	0
785.9153	-0.019
786.0876	0
786.2598	-0.0125
786.432	-0.0156
786.6042	-0.0038
786.7764	-0.0132
786.9486	0.0046
787.1207	-0.0224
787.2928	0.0103
787.4649	-0.0033
787.637	-0.0075
787.8091	-0.0039
787.9811	-0.0207
788.1532	-0.0125
788.3252	0.0177
788.4972	-0.007
788.6691	-0.0072
788.8411	-0.002
789.013	-0.0156
789.1849	0.012
789.3568	-0.0124
789.5287	0.0043
789.7005	-0.0081
789.8723	-0.0007
790.0442	0.0015
790.2159	-0.0048
790.3877	-0.0024
790.5595	-0.0006
790.7312	-0.0036
790.9029	0.0049
791.0746	0.0028
791.2463	-0.0037
791.4179	0.0019
791.5896	-0.0063
791.7612	-0.0043
791.9328	0.0134
792.1044	-0.014
792.2759	-0.0173
792.4474	-0.0047
792.619	-0.0034
792.7905	0.0033
792.9619	0.0065
793.1334	0.0077
793.3048	0.0211
793.4762	0.0125
793.6476	-0.008
793.819	-0.0028
793.9904	0.0005
794.1617	-0.0093
794.333	-0.004
794.5043	-0.0063
794.6756	-0.0024
794.8469	0.003
795.0181	0.01
795.1893	-0.0014
795.3605	0.0209
795.5317	-0.01
795.7029	-0.0011
795.874	-0.0006
796.0452	0.0011
796.2163	-0.0039
796.3873	0.0095
796.5584	0.0102
796.7294	0.0061
796.9005	0.0105
797.0715	-0.0051
797.2425	-0.0181
797.4134	0.0024
797.5844	0.0049
797.7553	-0.0081
797.9262	-0.0005
798.0971	-0.0073
798.2679	-0.0075
798.4388	-0.0327
798.6096	-0.003
798.7804	0.0031
798.9512	-0.0081
799.122	-0.0052
799.2927	-0.003
799.4635	0.0004
799.6342	-0.012
799.8049	-0.0011
799.9755	-0.0066
800.1462	-0.0011
800.3168	-0.0047
800.4874	-0.0066
800.658	0.0123
800.8286	0.0182
800.9991	0.0081
801.1696	0.0115
801.3402	0.0183
801.5106	-0.0001
801.6811	0.0077
801.8516	0.0035
802.022	0.0111
802.1924	0.0036
802.3628	0.0058
802.5332	-0.003
802.7035	0.0114
802.8739	0.0009
803.0442	-0.0017
803.2145	0.008
803.3847	-0.0306
803.555	-0.0079
803.7252	-0.0172
803.8954	-0.0104
804.0656	-0.0261
804.2358	-0.0014
804.4059	-0.0006
804.5761	-0.0051
804.7462	0.0001
804.9163	-0.0075
805.0864	-0.0171
805.2564	-0.0013
805.4264	0.0171
805.5965	-0.0162
805.7665	-0.005
805.9364	0.0057
806.1064	0.0208
806.2763	0.0122
806.4462	0.0277
806.6161	0.0141
806.786	0.0042
806.9559	0.0014
807.1257	-0.0059
807.2955	0.0078
807.4653	-0.0031
807.6351	-0.0088
807.8048	0.0008
807.9746	0.0055
808.1443	-0.0043
808.314	-0.0021
808.4837	0.006
808.6533	0.002
808.8229	-0.0004
808.9926	0.0006
809.1622	0.0056
809.3317	-0.0087
809.5013	0.0036
809.6708	0.0127
809.8403	0.0103
810.0098	0.0093
810.1793	-0.0104
810.3488	0.011
810.5182	-0.0226
810.6876	0.0106
810.857	-0.0151
811.0264	0.0216
811.1958	0.0063
811.3651	0.0043
811.5344	-0.007
811.7037	-0.0349
811.873	-0.0213
812.0422	-0.0088
812.2115	-0.0085
812.3807	-0.0153
812.5499	0.0191
812.7191	0.0009
812.8882	-0.0013
813.0574	-0.0124
813.2265	0.0089
813.3956	0.0028
813.5646	-0.0111
813.7337	-0.0209
813.9027	0.0091
814.0718	0.0079
814.2407	0.0101
814.4097	-0.0013
814.5787	-0.0246
814.7476	-0.0149
814.9165	0.0128
815.0854	-0.0075
815.2543	-0.0191
815.4232	-0.0056
815.592	0.0097
815.7608	0.0028
815.9296	-0.0174
816.0984	0.0042
816.2671	-0.0136
816.4359	-0.0174
816.6046	-0.0147
816.7733	-0.0057
816.942	-0.012
817.1106	0.0108
817.2793	-0.0076
817.4479	0.0106
817.6165	-0.0117
817.785	-0.0083
817.9536	-0.0169
818.1221	-0.0249
818.2906	-0.0116
818.4591	-0.0118
818.6276	-0.0255
818.7961	-0.0126
818.9645	-0.0058
819.1329	-0.0156
819.3013	0.0114
819.4697	0.003
819.638	-0.0094
819.8064	0.008
819.9747	0.0121
820.143	0.0088
820.3113	-0.0135
820.4795	0.0129
820.6477	0.0001
820.816	0.0104
820.9842	0.0023
821.1523	-0.0067
821.3205	0.0087
821.4886	0.0045
821.6567	0.0217
821.8248	0.0096
821.9929	0.017
822.1609	0.0233
822.329	0.0066
822.497	0.0202
822.665	0.0085
822.833	0.0071
823.0009	-0.0073
823.1688	0.0073
823.3367	0.0063
823.5046	0.011
823.6725	0.02
823.8404	-0.0077
824.0082	0.0124
824.176	0.022
824.3438	0.0213
824.5116	-0.0078
824.6793	-0.0056
824.847	-0.0093
825.0147	-0.0154
825.1824	0.0093
825.3501	0.0179
825.5177	-0.0099
825.6854	-0.0033
825.853	0.0133
826.0206	-0.0445
826.1881	0.0071
826.3557	-0.0322
826.5232	-0.0169
826.6907	-0.041
826.8582	-0.0061
827.0257	-0.0378
827.1931	0.002
827.3605	-0.021
827.528	-0.0072
827.6953	-0.0084
827.8627	-0.0248
828.03	0.024
828.1974	-0.0119
828.3647	-0.012
828.532	-0.0215
828.6992	-0.0106
828.8665	0.0002
829.0337	0.0078
829.2009	0.0164
829.3681	-0.0129
829.5352	0.0198
829.7024	-0.0299
829.8695	-0.0301
830.0366	0.0337
830.2037	0.0237
830.3707	0.0183
830.5378	-0.013
830.7048	0.033
830.8718	-0.0148
831.0388	-0.0403
831.2057	-0.0009
831.3727	0.0275
831.5396	-0.0395
831.7065	-0.0178
831.8734	0.0084
832.0402	-0.0347
832.2071	-0.0191
832.3739	-0.0277
832.5407	0.0026
832.7075	-0.0358
832.8742	-0.0035
833.041	-0.0512
833.2077	-0.0166
833.3744	0.0232
833.541	0.0087
833.7077	-0.0477
833.8743	0.0075
834.0409	-0.0142
834.2075	-0.0141
834.3741	0.0146
834.5407	0.0158
834.7072	0.0073
834.8737	-0.023
835.0402	-0.0111
835.2067	-0.0029
835.3731	0.0289
835.5395	-0.0087
835.706	0.0296
835.8723	-0.0132
836.0387	0.0511
836.2051	-0.03
836.3714	0.012
836.5377	-0.0039
836.704	-0.0314
836.8703	-0.0059
837.0365	-0.0442
837.2027	-0.0318
837.3689	-0.0111
837.5351	0.0147
837.7013	-0.0585
837.8674	-0.0285
838.0335	-0.0132
838.1997	-0.0094
838.3657	-0.0512
838.5318	-0.0421
838.6978	-0.0048
838.8639	0.0294
839.0299	-0.0281
839.1958	-0.0098
839.3618	-0.014
839.5277	-0.0491
839.6937	-0.0071
839.8596	-0.042
840.0254	0.0103
840.1913	-0.0262
840.3571	0.0154
840.523	-0.0495
840.6888	-0.0016
840.8545	-0.0313
841.0203	-0.0041
841.186	-0.014
841.3517	0.0205
841.5174	-0.0243
841.6831	-0.0537
841.8488	0.0094
842.0144	0.0003
842.18	0.0287
842.3456	0.0166
842.5112	0.0044
842.6767	-0.0678
842.8422	-0.0226
843.0077	-0.0247
843.1732	-0.0428
843.3387	-0.0529
843.5042	-0.0201
843.6696	-0.0196
843.835	-0.0486
844.0004	0.0697
844.1657	0.0283
844.3311	-0.0497
844.4964	-0.048
844.6617	-0.0339
844.827	-0.0233
844.9923	-0.0175
845.1575	-0.002
845.3227	-0.0351
845.4879	0.0095
845.6531	-0.0115
845.8183	-0.1005
845.9834	-0.0008
846.1485	-0.025
846.3136	-0.017
846.4787	-0.0645
846.6438	0.0523
846.8088	-0.0179
846.9738	-0.0741
847.1388	-0.0009
847.3038	-0.0085
847.4687	-0.126
847.6337	-0.0344
847.7986	-0.0126
847.9635	-0.001
848.1284	0.039
848.2932	0.1029
848.458	-0.0478
848.6228	0.0075
848.7876	0.0705
848.9524	-0.008
849.1172	-0.1262
849.2819	0.0047
849.4466	-0.1086
849.6113	-0.1377
849.7759	0.0539
849.9406	-0.013
850.1052	0.0161
850.2698	-0.0375
850.4344	-0.026
850.599	-0.0433
850.7635	0.0684
850.928	0.0221
851.0925	0.0203
851.257	0.1157
851.4215	-0.0343
851.5859	-0.0587
851.7503	0.0831
851.9147	-0.0011
852.0791	-0.038
852.2434	-0.0914
852.4078	0.0056
852.5721	0.084
852.7364	-0.0402
852.9007	-0.211
853.0649	-0.0388
853.2291	-0.1147
853.3934	0.0149
853.5575	-0.0042
853.7217	-0.1043
853.8859	-0.0226
854.05	-0.0982
854.2141	-0.0069
854.3782	-0.149
854.5423	-0.0753
854.7063	0.0772
854.8703	-0.0337
855.0343	-0.124
855.1983	-0.2071
855.3623	0.1034
855.5262	-0.0283
855.6901	-0.0952
855.854	-0.0095
856.0179	0.0189
856.1818	0.235
856.3456	-0.0932
856.5094	-0.1589
856.6732	-0.1078
856.837	-0.1023
857.0008	0.0917
857.1645	0.0701
857.3282	0.1289
857.4919	0.0412
857.6556	0.0355
857.8192	-0.0367
857.9828	0.0213
858.1465	-0.0362
858.31	-0.0286
858.4736	-0.1516
858.6372	-0.0679
858.8007	-0.2683
858.9642	0.0986
859.1277	-0.0374
859.2911	0.0663
859.4546	0.0723
859.618	-0.4841
859.7814	0.0511
859.9448	-0.0991
860.1081	0.0464
860.2715	0.0498
860.4348	-0.3169
860.5981	0.195
860.7614	0.153
860.9246	-0.082
861.0879	0.3588
861.2511	-0.0593
861.4143	-0.334
861.5774	0.1275
861.7406	-0.1717
861.9037	-0.0368
862.0668	0.2597
862.2299	0.1376
862.393	-0.5533
862.556	0.0274
862.7191	-0.0301
862.8821	-0.2939
863.0451	0.0483
863.208	0.0643
863.371	-0.0288
863.5339	-0.2806
863.6968	0.0486
863.8597	0.0523
864.0225	-0.0891
864.1854	-0.1913
864.3482	-0
864.511	-0.0029
864.6737	0.1231
864.8365	0.29
864.9992	-0.4882
865.1619	-0.5495
865.3246	0.1608
865.4873	-0.0626
865.65	-0.0796
865.8126	-0.1659
865.9752	0.2065
866.1378	-0.3216
866.3004	0.1546
866.4629	0.3662
866.6254	-0
866.7879	-0
866.9504	0.0085
867.1129	-0
867.2753	-0.135
867.4377	0.1029
867.6001	0.7498
867.7625	0.2393
867.9249	-0.577
868.0872	-0.131
868.2495	0.0601
868.4118	-0.3881
868.5741	-0.5258
868.7363	-0.258
868.8986	-0.0993
869.0608	-0.213
869.223	-0.0082
869.3851	-0
869.5473	-0
869.7094	0.0555
869.8715	-0.6035
870.0336	-0
870.1957	1.0864
870.3577	-0
870.5197	0.2405
870.6817	-0.5121
870.8437	0.0911
871.0057	-0
871.1676	0.1725
871.3295	-0.4953
871.4914	-0
871.6533	-0.2339
871.8151	-0.3806
871.977	-0
872.1388	-0
872.3006	0.4886
872.4623	0.5798
872.6241	-0.1932
872.7858	0.1683
872.9475	0.2458
873.1092	-0.1173
873.2709	0.8302
873.4325	-0.1426
873.5941	-0.3293
873.7557	0.2795
873.9173	-0
874.0789	-0.7362
874.2404	0.5921
874.4019	0.8676
874.5634	-0.2286
874.7249	-0.27
874.8863	0.0636
875.0478	-0.0073
875.2092	-0
875.3706	0.1422
875.5319	-0.6454
875.6933	-0
875.8546	-0
876.0159	-0
876.1772	-0
876.3385	-0
876.4997	0.2413
876.6609	-0.5456
876.8221	-0
876.9833	0.6422
877.1445	0.0801
877.3056	0.1497
877.4667	0.242
877.6278	-0.1496
877.7889	-0.7768
877.9499	-0
878.111	-0
878.272	-0
878.433	-0
878.5939	-0
878.7549	-0.3216
878.9158	0.1296
879.0767	-0
879.2376	0.8662
879.3984	0.491
879.5593	-0
879.7201	0.0693
879.8809	-0.7624
880.0417	1.2601
880.2024	0.5534
880.3632	-0
880.5239	-0.1183
880.6846	-0
880.8452	-2.3201
881.0059	-1.7243
881.1665	2.3324
881.3271	0.2927
881.4877	-0
881.6483	-0.1779
881.8088	0.0069
881.9693	-0
882.1298	-0
882.2903	-0
