Data from MonoPyChalIsomerACN10uM350nmA_Absorbance_14-35-34-915.txt Node
Date: Fri Jul 05 14:35:34 BST 2024
User: LASERRRRR
Spectrometer: FLMT03099
Trigger mode: 0
Integration Time (sec): 1.000000E-1
Scans to average: 1
Electric dark correction enabled: true
Nonlinearity correction enabled: false
Boxcar width: 0
XAxis mode: Wavelengths
Number of Pixels in Spectrum: 3648
>>>>>Begin Spectral Data<<<<<
179.3399	-0.2179
179.5586	-0.2179
179.7771	-0.2179
179.9957	0.3084
180.2143	-0
180.4329	0.3465
180.6514	-0
180.8699	-0
181.0885	-0.0525
181.307	0.3731
181.5255	-0
181.744	-0
181.9625	-0
182.181	-0.5295
182.3994	0.5498
182.6179	-0
182.8363	0.12
183.0547	-0.3697
183.2732	-0.0605
183.4916	0.151
183.71	0.0998
183.9284	0.0401
184.1467	-0.0009
184.3651	0.0659
184.5835	-0.0227
184.8018	-0.0122
185.0201	0.0041
185.2385	-0.1202
185.4568	0.4417
185.6751	0.3664
185.8934	0.3418
186.1117	-0.0225
186.3299	0.1015
186.5482	0.1163
186.7664	0.0659
186.9847	-0.1091
187.2029	-0.0498
187.4211	-0.0758
187.6393	-0.0459
187.8575	-0.1239
188.0757	0.2882
188.2939	0.1119
188.512	-0.017
188.7302	-0.0808
188.9483	0.0906
189.1665	-0.0243
189.3846	-0.301
189.6027	0.0278
189.8208	0.1004
190.0389	0.1117
190.257	0.1423
190.475	0.2618
190.6931	0.1484
190.9111	0.5818
191.1292	0.3279
191.3472	0.4433
191.5652	0.3662
191.7832	0.3326
192.0012	0.4287
192.2192	0.3959
192.4371	0.6018
192.6551	0.4398
192.873	0.6616
193.091	0.5765
193.3089	0.2936
193.5268	0.4002
193.7447	0.6262
193.9626	0.3961
194.1805	0.4495
194.3984	0.5902
194.6162	0.4583
194.8341	0.5327
195.0519	0.4863
195.2697	0.6377
195.4875	0.512
195.7054	0.5625
195.9231	0.7564
196.1409	0.6232
196.3587	0.6123
196.5765	0.5938
196.7942	0.661
197.012	0.48
197.2297	0.459
197.4474	0.7722
197.6651	0.5104
197.8828	0.6572
198.1005	0.5621
198.3182	0.6614
198.5358	0.6719
198.7535	0.6692
198.9711	0.5054
199.1888	0.6526
199.4064	0.7186
199.624	0.678
199.8416	0.579
200.0592	0.8036
200.2767	0.6426
200.4943	0.79
200.7119	0.6485
200.9294	0.7131
201.1469	0.5087
201.3645	0.6002
201.582	0.5202
201.7995	0.7393
202.017	0.5319
202.2344	0.625
202.4519	0.6187
202.6694	0.646
202.8868	0.6274
203.1042	0.6612
203.3217	0.7107
203.5391	0.616
203.7565	0.6236
203.9739	0.5899
204.1913	0.5689
204.4086	0.5873
204.626	0.6244
204.8433	0.648
205.0607	0.5692
205.278	0.6134
205.4953	0.5596
205.7126	0.5629
205.9299	0.775
206.1472	0.656
206.3644	0.6289
206.5817	0.6618
206.7989	0.6376
207.0162	0.7066
207.2334	0.7167
207.4506	0.6402
207.6678	0.5712
207.885	0.6752
208.1022	0.6308
208.3194	0.6358
208.5365	0.6649
208.7537	0.6199
208.9708	0.5388
209.1879	0.6155
209.405	0.6588
209.6222	0.6649
209.8392	0.6166
210.0563	0.6489
210.2734	0.6607
210.4905	0.7018
210.7075	0.5897
210.9245	0.5715
211.1416	0.742
211.3586	0.5571
211.5756	0.5845
211.7926	0.5512
212.0096	0.5967
212.2265	0.5226
212.4435	0.5686
212.6604	0.5909
212.8774	0.6075
213.0943	0.6017
213.3112	0.5516
213.5281	0.5289
213.745	0.4931
213.9619	0.5011
214.1788	0.4761
214.3956	0.4584
214.6125	0.4696
214.8293	0.4448
215.0461	0.4891
215.2629	0.4398
215.4798	0.4726
215.6965	0.411
215.9133	0.4378
216.1301	0.4026
216.3469	0.4384
216.5636	0.4118
216.7803	0.4032
216.9971	0.3974
217.2138	0.4003
217.4305	0.3583
217.6472	0.3652
217.8639	0.3823
218.0805	0.3559
218.2972	0.3084
218.5138	0.3167
218.7305	0.317
218.9471	0.2939
219.1637	0.2636
219.3803	0.2579
219.5969	0.2696
219.8135	0.2501
220.0301	0.273
220.2466	0.2884
220.4632	0.2564
220.6797	0.2585
220.8962	0.2359
221.1127	0.2599
221.3292	0.2505
221.5457	0.2455
221.7622	0.2405
221.9787	0.2446
222.1951	0.2221
222.4116	0.2422
222.628	0.2582
222.8444	0.2464
223.0608	0.2543
223.2772	0.2491
223.4936	0.2572
223.71	0.248
223.9264	0.3003
224.1427	0.2279
224.3591	0.2538
224.5754	0.268
224.7917	0.2688
225.008	0.2578
225.2243	0.255
225.4406	0.2976
225.6569	0.2728
225.8732	0.2627
226.0894	0.259
226.3057	0.2729
226.5219	0.2805
226.7381	0.2633
226.9543	0.2834
227.1705	0.2793
227.3867	0.2883
227.6029	0.2992
227.8191	0.3156
228.0352	0.294
228.2513	0.3313
228.4675	0.3058
228.6836	0.3176
228.8997	0.314
229.1158	0.3014
229.3319	0.3003
229.548	0.309
229.764	0.3201
229.9801	0.323
230.1961	0.3207
230.4121	0.3329
230.6282	0.3387
230.8442	0.3135
231.0602	0.354
231.2761	0.3678
231.4921	0.3417
231.7081	0.3508
231.924	0.3385
232.14	0.3478
232.3559	0.3456
232.5718	0.3604
232.7877	0.3644
233.0036	0.3408
233.2195	0.3531
233.4353	0.3541
233.6512	0.3606
233.867	0.3427
234.0829	0.3497
234.2987	0.3686
234.5145	0.3731
234.7303	0.3501
234.9461	0.3785
235.1619	0.3829
235.3776	0.3803
235.5934	0.3832
235.8091	0.3874
236.0249	0.3781
236.2406	0.392
236.4563	0.3827
236.672	0.3987
236.8877	0.3946
237.1034	0.3915
237.319	0.4016
237.5347	0.4018
237.7503	0.4035
237.966	0.4018
238.1816	0.4122
238.3972	0.4103
238.6128	0.4031
238.8284	0.3864
239.0439	0.4087
239.2595	0.4084
239.475	0.4073
239.6906	0.4292
239.9061	0.3994
240.1216	0.3947
240.3371	0.4069
240.5526	0.3856
240.7681	0.4271
240.9836	0.3933
241.199	0.4033
241.4145	0.3809
241.6299	0.3788
241.8453	0.3666
242.0607	0.3847
242.2761	0.3556
242.4915	0.3636
242.7069	0.3693
242.9223	0.3413
243.1376	0.3536
243.353	0.3483
243.5683	0.3411
243.7836	0.3249
243.9989	0.3203
244.2142	0.3096
244.4295	0.3034
244.6448	0.3117
244.86	0.2984
245.0753	0.284
245.2905	0.288
245.5057	0.2795
245.721	0.2647
245.9362	0.2597
246.1514	0.2824
246.3665	0.2612
246.5817	0.2553
246.7969	0.2429
247.012	0.2466
247.2271	0.2318
247.4423	0.2373
247.6574	0.2396
247.8725	0.2292
248.0876	0.2316
248.3026	0.2258
248.5177	0.2193
248.7328	0.2195
248.9478	0.2051
249.1628	0.2249
249.3779	0.2293
249.5929	0.192
249.8079	0.2123
250.0228	0.2023
250.2378	0.2098
250.4528	0.201
250.6677	0.1772
250.8827	0.1923
251.0976	0.2003
251.3125	0.199
251.5274	0.175
251.7423	0.1907
251.9572	0.1869
252.172	0.1861
252.3869	0.173
252.6017	0.1736
252.8166	0.1698
253.0314	0.1716
253.2462	0.1574
253.461	0.1822
253.6758	0.1732
253.8906	0.18
254.1053	0.1602
254.3201	0.1709
254.5348	0.1827
254.7496	0.1659
254.9643	0.1701
255.179	0.1767
255.3937	0.1669
255.6083	0.1767
255.823	0.1676
256.0377	0.1615
256.2523	0.1705
256.467	0.1506
256.6816	0.1798
256.8962	0.1647
257.1108	0.1496
257.3254	0.1722
257.54	0.1573
257.7545	0.1581
257.9691	0.1652
258.1836	0.1561
258.3981	0.1805
258.6127	0.1639
258.8272	0.173
259.0417	0.1666
259.2561	0.1655
259.4706	0.1565
259.6851	0.1591
259.8995	0.1653
260.114	0.1668
260.3284	0.1804
260.5428	0.1697
260.7572	0.175
260.9716	0.1687
261.186	0.1589
261.4003	0.1708
261.6147	0.1709
261.829	0.1597
262.0433	0.1613
262.2577	0.1661
262.472	0.1649
262.6863	0.1467
262.9005	0.1724
263.1148	0.1574
263.3291	0.1575
263.5433	0.1669
263.7576	0.1528
263.9718	0.1654
264.186	0.1542
264.4002	0.1601
264.6144	0.1605
264.8286	0.1628
265.0427	0.1605
265.2569	0.1622
265.471	0.166
265.6851	0.1555
265.8993	0.157
266.1134	0.1566
266.3275	0.1692
266.5415	0.1514
266.7556	0.1608
266.9697	0.1533
267.1837	0.1618
267.3978	0.1695
267.6118	0.1667
267.8258	0.1622
268.0398	0.1562
268.2538	0.1707
268.4677	0.1536
268.6817	0.1477
268.8957	0.1668
269.1096	0.1567
269.3235	0.1666
269.5374	0.1467
269.7514	0.1502
269.9652	0.1542
270.1791	0.138
270.393	0.1574
270.6068	0.1476
270.8207	0.1435
271.0345	0.1411
271.2483	0.146
271.4622	0.1534
271.676	0.1443
271.8897	0.1476
272.1035	0.1403
272.3173	0.1335
272.531	0.1435
272.7448	0.144
272.9585	0.1302
273.1722	0.1496
273.3859	0.1508
273.5996	0.131
273.8133	0.1425
274.0269	0.1415
274.2406	0.1405
274.4542	0.1411
274.6679	0.1321
274.8815	0.1315
275.0951	0.1437
275.3087	0.1555
275.5223	0.1499
275.7358	0.1382
275.9494	0.1458
276.1629	0.1403
276.3765	0.1364
276.59	0.1497
276.8035	0.1496
277.017	0.1425
277.2305	0.1312
277.444	0.1504
277.6574	0.1447
277.8709	0.1397
278.0843	0.1374
278.2978	0.1437
278.5112	0.1353
278.7246	0.1465
278.938	0.1393
279.1513	0.1548
279.3647	0.1473
279.5781	0.1371
279.7914	0.144
280.0047	0.1634
280.2181	0.1569
280.4314	0.1492
280.6447	0.1454
280.8579	0.153
281.0712	0.1573
281.2845	0.152
281.4977	0.1493
281.711	0.1303
281.9242	0.144
282.1374	0.1533
282.3506	0.1472
282.5638	0.1514
282.7769	0.1572
282.9901	0.1598
283.2033	0.1494
283.4164	0.1616
283.6295	0.1492
283.8426	0.1502
284.0557	0.1629
284.2688	0.1609
284.4819	0.1565
284.695	0.1569
284.908	0.1639
285.1211	0.147
285.3341	0.1615
285.5471	0.1572
285.7601	0.1595
285.9731	0.1596
286.1861	0.1524
286.3991	0.1674
286.612	0.1649
286.825	0.1507
287.0379	0.154
287.2508	0.1619
287.4637	0.1662
287.6766	0.1549
287.8895	0.1585
288.1024	0.1781
288.3152	0.1657
288.5281	0.1614
288.7409	0.1642
288.9538	0.1621
289.1666	0.1544
289.3794	0.169
289.5922	0.1576
289.8049	0.1697
290.0177	0.1571
290.2304	0.1624
290.4432	0.1655
290.6559	0.1682
290.8686	0.1731
291.0813	0.1632
291.294	0.1708
291.5067	0.1732
291.7194	0.16
291.932	0.1722
292.1447	0.1713
292.3573	0.1599
292.5699	0.1752
292.7825	0.1616
292.9951	0.1642
293.2077	0.158
293.4203	0.1736
293.6328	0.1592
293.8454	0.1752
294.0579	0.1583
294.2704	0.167
294.4829	0.171
294.6954	0.1678
294.9079	0.1633
295.1204	0.1641
295.3328	0.1609
295.5453	0.1671
295.7577	0.1641
295.9701	0.1623
296.1825	0.1592
296.3949	0.1628
296.6073	0.158
296.8197	0.1676
297.0321	0.1705
297.2444	0.157
297.4567	0.1554
297.6691	0.1654
297.8814	0.1631
298.0937	0.1643
298.306	0.1626
298.5182	0.1686
298.7305	0.1771
298.9428	0.1612
299.155	0.1636
299.3672	0.1576
299.5794	0.1629
299.7916	0.1687
300.0038	0.1706
300.216	0.1734
300.4282	0.1688
300.6403	0.1655
300.8525	0.1829
301.0646	0.1697
301.2767	0.1776
301.4888	0.1668
301.7009	0.1732
301.913	0.1595
302.125	0.1761
302.3371	0.1593
302.5491	0.1654
302.7612	0.1722
302.9732	0.1696
303.1852	0.1656
303.3972	0.1651
303.6092	0.1567
303.8211	0.1532
304.0331	0.1534
304.245	0.1564
304.457	0.1572
304.6689	0.1459
304.8808	0.157
305.0927	0.1545
305.3046	0.1461
305.5164	0.169
305.7283	0.1527
305.9401	0.153
306.152	0.1555
306.3638	0.1527
306.5756	0.1467
306.7874	0.1502
306.9992	0.1541
307.2109	0.1447
307.4227	0.1348
307.6344	0.1426
307.8462	0.1261
308.0579	0.1352
308.2696	0.1348
308.4813	0.1286
308.693	0.1379
308.9046	0.1454
309.1163	0.1313
309.328	0.1273
309.5396	0.1219
309.7512	0.1352
309.9628	0.1208
310.1744	0.1255
310.386	0.1266
310.5976	0.1104
310.8091	0.1253
311.0207	0.1162
311.2322	0.1272
311.4437	0.1097
311.6552	0.1184
311.8667	0.1232
312.0782	0.1066
312.2897	0.1085
312.5012	0.1183
312.7126	0.1091
312.924	0.1016
313.1355	0.1158
313.3469	0.113
313.5583	0.1138
313.7696	0.106
313.981	0.104
314.1924	0.1037
314.4037	0.1029
314.6151	0.1047
314.8264	0.1035
315.0377	0.0973
315.249	0.1064
315.4603	0.1173
315.6716	0.0911
315.8828	0.0927
316.0941	0.1006
316.3053	0.088
316.5165	0.0926
316.7277	0.0963
316.9389	0.1053
317.1501	0.0941
317.3613	0.0948
317.5724	0.0853
317.7836	0.0911
317.9947	0.0973
318.2058	0.0974
318.417	0.0884
318.6281	0.1017
318.8391	0.0985
319.0502	0.0879
319.2613	0.0927
319.4723	0.112
319.6834	0.1041
319.8944	0.0849
320.1054	0.1049
320.3164	0.0921
320.5274	0.1015
320.7383	0.094
320.9493	0.1049
321.1602	0.1071
321.3712	0.0957
321.5821	0.1043
321.793	0.1007
322.0039	0.0888
322.2148	0.0923
322.4257	0.099
322.6365	0.1104
322.8474	0.0989
323.0582	0.0912
323.269	0.1066
323.4798	0.1078
323.6906	0.099
323.9014	0.1061
324.1122	0.1015
324.3229	0.1004
324.5337	0.0996
324.7444	0.0936
324.9551	0.1093
325.1658	0.1085
325.3765	0.1052
325.5872	0.1053
325.7979	0.0988
326.0085	0.1104
326.2192	0.107
326.4298	0.1102
326.6404	0.0896
326.851	0.0948
327.0616	0.1027
327.2722	0.107
327.4828	0.1128
327.6933	0.1098
327.9039	0.1059
328.1144	0.111
328.3249	0.1061
328.5354	0.0971
328.7459	0.1094
328.9564	0.0965
329.1669	0.111
329.3773	0.0956
329.5878	0.0983
329.7982	0.1144
330.0086	0.099
330.219	0.1022
330.4294	0.1057
330.6398	0.0969
330.8502	0.1028
331.0605	0.1036
331.2708	0.1028
331.4812	0.1171
331.6915	0.1177
331.9018	0.1095
332.1121	0.1021
332.3224	0.108
332.5326	0.1128
332.7429	0.1132
332.9531	0.1148
333.1633	0.1094
333.3735	0.1074
333.5837	0.1036
333.7939	0.1128
334.0041	0.113
334.2143	0.1068
334.4244	0.1122
334.6346	0.0926
334.8447	0.1042
335.0548	0.1025
335.2649	0.1006
335.475	0.1179
335.685	0.0988
335.8951	0.1222
336.1051	0.1063
336.3152	0.1151
336.5252	0.1048
336.7352	0.1199
336.9452	0.1198
337.1552	0.1149
337.3652	0.1005
337.5751	0.1009
337.7851	0.1064
337.995	0.1036
338.2049	0.126
338.4148	0.1071
338.6247	0.1274
338.8346	0.1099
339.0445	0.0956
339.2543	0.107
339.4642	0.106
339.674	0.1095
339.8838	0.1165
340.0936	0.1024
340.3034	0.1294
340.5132	0.1243
340.7229	0.1054
340.9327	0.1205
341.1424	0.1186
341.3522	0.125
341.5619	0.1196
341.7716	0.114
341.9813	0.123
342.1909	0.1046
342.4006	0.1232
342.6102	0.1212
342.8199	0.1224
343.0295	0.1255
343.2391	0.1282
343.4487	0.1328
343.6583	0.1163
343.8679	0.1182
344.0774	0.1247
344.287	0.1375
344.4965	0.1108
344.706	0.1281
344.9155	0.1308
345.125	0.1369
345.3345	0.1418
345.544	0.1159
345.7534	0.1285
345.9629	0.115
346.1723	0.1346
346.3817	0.1257
346.5911	0.1309
346.8005	0.1277
347.0099	0.1219
347.2193	0.1356
347.4286	0.1252
347.638	0.1256
347.8473	0.126
348.0566	0.1423
348.2659	0.1401
348.4752	0.1287
348.6845	0.1308
348.8937	0.1236
349.103	0.1341
349.3122	0.1261
349.5214	0.1274
349.7306	0.1314
349.9398	0.1253
350.149	0.1399
350.3582	0.124
350.5674	0.1498
350.7765	0.1327
350.9856	0.1406
351.1948	0.1485
351.4039	0.1332
351.613	0.1354
351.822	0.1385
352.0311	0.1494
352.2402	0.1427
352.4492	0.164
352.6582	0.1439
352.8672	0.1436
353.0762	0.1397
353.2852	0.1482
353.4942	0.1444
353.7032	0.1522
353.9121	0.1413
354.1211	0.1625
354.33	0.1523
354.5389	0.1534
354.7478	0.1621
354.9567	0.1419
355.1655	0.1337
355.3744	0.1508
355.5833	0.1588
355.7921	0.1839
356.0009	0.1541
356.2097	0.1807
356.4185	0.1628
356.6273	0.1712
356.8361	0.1609
357.0448	0.1547
357.2536	0.1538
357.4623	0.1601
357.671	0.1576
357.8797	0.1696
358.0884	0.1646
358.2971	0.1656
358.5057	0.1592
358.7144	0.1692
358.923	0.1578
359.1316	0.1598
359.3402	0.1675
359.5488	0.1704
359.7574	0.164
359.966	0.1891
360.1746	0.169
360.3831	0.1907
360.5916	0.1614
360.8002	0.1634
361.0087	0.1926
361.2172	0.1974
361.4256	0.1786
361.6341	0.2006
361.8426	0.1791
362.051	0.1829
362.2594	0.1863
362.4678	0.1703
362.6762	0.2098
362.8846	0.1919
363.093	0.1853
363.3014	0.1954
363.5097	0.1722
363.718	0.1938
363.9264	0.1801
364.1347	0.1877
364.343	0.198
364.5513	0.2105
364.7595	0.1999
364.9678	0.1854
365.176	0.1953
365.3842	0.2033
365.5925	0.1951
365.8007	0.2021
366.0089	0.1949
366.217	0.186
366.4252	0.2063
366.6333	0.2228
366.8415	0.2095
367.0496	0.1894
367.2577	0.2133
367.4658	0.2178
367.6739	0.2093
367.882	0.2092
368.09	0.1969
368.2981	0.2146
368.5061	0.2048
368.7141	0.2135
368.9221	0.2274
369.1301	0.2192
369.3381	0.2139
369.5461	0.2016
369.754	0.202
369.962	0.2316
370.1699	0.2133
370.3778	0.2445
370.5857	0.2013
370.7936	0.22
371.0015	0.2253
371.2093	0.2331
371.4172	0.2261
371.625	0.2115
371.8328	0.2155
372.0406	0.2198
372.2484	0.2236
372.4562	0.2357
372.664	0.2393
372.8717	0.2278
373.0795	0.2015
373.2872	0.2323
373.4949	0.2145
373.7026	0.2234
373.9103	0.2333
374.118	0.2446
374.3256	0.2198
374.5333	0.2301
374.7409	0.226
374.9485	0.2316
375.1561	0.2376
375.3637	0.2426
375.5713	0.2354
375.7789	0.2217
375.9864	0.2243
376.194	0.2357
376.4015	0.2572
376.609	0.2513
376.8165	0.2323
377.024	0.2389
377.2315	0.2451
377.4389	0.2349
377.6464	0.2439
377.8538	0.2492
378.0612	0.2358
378.2686	0.2563
378.476	0.2564
378.6834	0.2505
378.8908	0.2574
379.0981	0.2488
379.3055	0.2589
379.5128	0.2356
379.7201	0.2493
379.9274	0.2408
380.1347	0.254
380.342	0.2672
380.5492	0.2294
380.7565	0.2495
380.9637	0.262
381.1709	0.2657
381.3781	0.2482
381.5853	0.2634
381.7925	0.2631
381.9997	0.2618
382.2068	0.2506
382.4139	0.2776
382.6211	0.2506
382.8282	0.2587
383.0353	0.2656
383.2424	0.267
383.4494	0.2637
383.6565	0.2665
383.8635	0.2603
384.0706	0.2658
384.2776	0.267
384.4846	0.2427
384.6916	0.2695
384.8986	0.2613
385.1055	0.2627
385.3125	0.2664
385.5194	0.2487
385.7263	0.2721
385.9333	0.2752
386.1402	0.2751
386.347	0.2552
386.5539	0.2459
386.7608	0.2658
386.9676	0.2549
387.1744	0.2592
387.3813	0.2475
387.5881	0.2644
387.7948	0.2384
388.0016	0.2589
388.2084	0.2686
388.4151	0.2565
388.6219	0.2725
388.8286	0.2656
389.0353	0.2595
389.242	0.2603
389.4487	0.2524
389.6553	0.2439
389.862	0.2297
390.0686	0.2462
390.2753	0.2621
390.4819	0.266
390.6885	0.24
390.8951	0.2643
391.1016	0.2481
391.3082	0.2276
391.5147	0.238
391.7213	0.2564
391.9278	0.2408
392.1343	0.2389
392.3408	0.241
392.5473	0.238
392.7537	0.2214
392.9602	0.2472
393.1666	0.2401
393.373	0.2516
393.5794	0.2556
393.7858	0.2267
393.9922	0.2176
394.1986	0.2594
394.4049	0.2366
394.6113	0.2405
394.8176	0.2195
395.0239	0.2283
395.2302	0.2224
395.4365	0.2272
395.6428	0.2285
395.8491	0.2203
396.0553	0.2295
396.2615	0.225
396.4678	0.2301
396.674	0.188
396.8802	0.2219
397.0863	0.2329
397.2925	0.2077
397.4987	0.2188
397.7048	0.2309
397.9109	0.2124
398.117	0.2131
398.3231	0.2099
398.5292	0.236
398.7353	0.2198
398.9413	0.2175
399.1474	0.2166
399.3534	0.2142
399.5594	0.2174
399.7654	0.2353
399.9714	0.2369
400.1774	0.2279
400.3833	0.2279
400.5893	0.2191
400.7952	0.2067
401.0011	0.2354
401.207	0.2468
401.4129	0.217
401.6188	0.2338
401.8247	0.2235
402.0305	0.19
402.2364	0.2247
402.4422	0.2224
402.648	0.2283
402.8538	0.2418
403.0596	0.2172
403.2654	0.2213
403.4711	0.2214
403.6768	0.2238
403.8826	0.2353
404.0883	0.231
404.294	0.2163
404.4997	0.2253
404.7054	0.2263
404.911	0.2171
405.1167	0.2156
405.3223	0.2357
405.5279	0.2152
405.7335	0.2221
405.9391	0.2301
406.1447	0.2165
406.3502	0.2335
406.5558	0.2128
406.7613	0.2223
406.9668	0.2276
407.1724	0.2319
407.3778	0.2239
407.5833	0.2117
407.7888	0.2188
407.9942	0.2221
408.1997	0.2167
408.4051	0.2059
408.6105	0.2283
408.8159	0.2019
409.0213	0.204
409.2267	0.2183
409.432	0.2013
409.6374	0.2315
409.8427	0.2132
410.048	0.2304
410.2533	0.208
410.4586	0.2162
410.6639	0.1773
410.8691	0.2089
411.0744	0.2023
411.2796	0.1831
411.4848	0.2296
411.69	0.2163
411.8952	0.2305
412.1004	0.1968
412.3056	0.2338
412.5107	0.1841
412.7158	0.2173
412.921	0.2218
413.1261	0.2166
413.3312	0.1979
413.5362	0.2146
413.7413	0.2206
413.9464	0.2018
414.1514	0.2235
414.3564	0.2144
414.5614	0.2019
414.7664	0.2212
414.9714	0.2153
415.1764	0.2127
415.3813	0.2123
415.5863	0.2096
415.7912	0.1973
415.9961	0.2181
416.201	0.2163
416.4059	0.2192
416.6108	0.2038
416.8156	0.2028
417.0205	0.2027
417.2253	0.204
417.4301	0.1982
417.6349	0.1899
417.8397	0.207
418.0445	0.2214
418.2492	0.2016
418.454	0.1959
418.6587	0.1972
418.8634	0.1985
419.0681	0.2038
419.2728	0.1997
419.4775	0.194
419.6822	0.1899
419.8868	0.1699
420.0915	0.1876
420.2961	0.1922
420.5007	0.1857
420.7053	0.1843
420.9099	0.21
421.1144	0.1997
421.319	0.1775
421.5235	0.2034
421.728	0.2023
421.9325	0.2081
422.137	0.2159
422.3415	0.1883
422.546	0.1896
422.7504	0.1907
422.9549	0.1954
423.1593	0.1914
423.3637	0.1876
423.5681	0.1802
423.7725	0.1758
423.9769	0.1957
424.1812	0.1789
424.3856	0.1811
424.5899	0.1855
424.7942	0.1927
424.9985	0.1878
425.2028	0.1851
425.4071	0.1912
425.6113	0.1633
425.8156	0.1799
426.0198	0.1826
426.224	0.1756
426.4282	0.1695
426.6324	0.1737
426.8366	0.1705
427.0407	0.1574
427.2449	0.1749
427.449	0.187
427.6531	0.1644
427.8572	0.1587
428.0613	0.1662
428.2654	0.1652
428.4694	0.1583
428.6735	0.1577
428.8775	0.164
429.0815	0.1532
429.2855	0.1425
429.4895	0.1719
429.6935	0.1632
429.8975	0.1725
430.1014	0.1399
430.3053	0.1519
430.5093	0.1468
430.7132	0.1395
430.9171	0.1364
431.1209	0.1606
431.3248	0.1369
431.5286	0.1597
431.7325	0.1498
431.9363	0.1385
432.1401	0.1486
432.3439	0.1377
432.5477	0.1123
432.7514	0.1236
432.9552	0.1347
433.1589	0.1304
433.3627	0.1242
433.5664	0.1418
433.7701	0.1191
433.9737	0.1284
434.1774	0.1058
434.3811	0.1222
434.5847	0.1329
434.7883	0.1218
434.9919	0.1371
435.1955	0.1156
435.3991	0.1175
435.6027	0.1302
435.8062	0.0957
436.0098	0.1029
436.2133	0.1161
436.4168	0.0838
436.6203	0.0993
436.8238	0.109
437.0272	0.1158
437.2307	0.0928
437.4341	0.1016
437.6375	0.0987
437.841	0.0996
438.0443	0.1049
438.2477	0.1157
438.4511	0.0797
438.6545	0.1046
438.8578	0.096
439.0611	0.0792
439.2644	0.0812
439.4677	0.068
439.671	0.0826
439.8743	0.0826
440.0775	0.0863
440.2808	0.086
440.484	0.0817
440.6872	0.0694
440.8904	0.0619
441.0936	0.0904
441.2967	0.0742
441.4999	0.0655
441.703	0.0742
441.9062	0.0654
442.1093	0.0893
442.3124	0.079
442.5155	0.0449
442.7185	0.0669
442.9216	0.0493
443.1246	0.0823
443.3276	0.0602
443.5307	0.0568
443.7337	0.0603
443.9366	0.0584
444.1396	0.0638
444.3426	0.0519
444.5455	0.0616
444.7484	0.0514
444.9513	0.0491
445.1542	0.062
445.3571	0.0561
445.56	0.051
445.7628	0.0334
445.9657	0.0418
446.1685	0.0519
446.3713	0.0532
446.5741	0.0406
446.7769	0.0455
446.9797	0.0469
447.1824	0.0481
447.3852	0.0557
447.5879	0.0534
447.7906	0.0467
447.9933	0.0349
448.196	0.0311
448.3986	0.0251
448.6013	0.0556
448.8039	0.0253
449.0066	0.0255
449.2092	0.0459
449.4118	0.0371
449.6143	0.0301
449.8169	0.0284
450.0195	0.0153
450.222	0.0136
450.4245	0.0193
450.627	0.0514
450.8295	0.028
451.032	0.0319
451.2345	0.0323
451.4369	0.0273
451.6394	0.0286
451.8418	-0.0081
452.0442	0.0117
452.2466	0.0283
452.449	0.015
452.6513	0.0013
452.8537	0.0112
453.056	0.0032
453.2583	0.0265
453.4607	0.0197
453.663	0.0272
453.8652	0.0287
454.0675	0.0015
454.2697	0.0177
454.472	-0.0027
454.6742	0.0217
454.8764	0.0173
455.0786	-0.0002
455.2808	0.0208
455.4829	0.0158
455.6851	0.0298
455.8872	0.0256
456.0893	0.0267
456.2915	0.0129
456.4935	0.0198
456.6956	0.0047
456.8977	0.0101
457.0997	0.0067
457.3018	-0.0015
457.5038	0.0169
457.7058	0.0027
457.9078	0.0047
458.1098	0.0214
458.3117	0.025
458.5137	0.0244
458.7156	0.0087
458.9175	0.0018
459.1194	0.014
459.3213	0.0021
459.5232	-0.0039
459.725	-0.002
459.9269	0.0086
460.1287	0.0105
460.3305	-0.0076
460.5323	0.0118
460.7341	0.0164
460.9359	0.002
461.1376	0.0217
461.3394	-0.0005
461.5411	0.0142
461.7428	0.0019
461.9445	0.0246
462.1462	0.0189
462.3479	-0.0009
462.5495	-0.0052
462.7512	0.0166
462.9528	0.0108
463.1544	-0.0219
463.356	0.0139
463.5576	0.0091
463.7592	0.0088
463.9607	0.0052
464.1623	0.0174
464.3638	0.0118
464.5653	-0.0082
464.7668	0.0155
464.9683	0.0004
465.1697	0.0015
465.3712	-0.0048
465.5726	-0.0139
465.7741	-0.0032
465.9755	0.0031
466.1769	0.0071
466.3782	0.0092
466.5796	-0.0202
466.7809	0.0285
466.9823	-0.0024
467.1836	0.007
467.3849	-0.0104
467.5862	0.0126
467.7875	-0.0045
467.9887	0.0117
468.19	0.0079
468.3912	-0.0113
468.5924	-0.0059
468.7936	0.0081
468.9948	0.011
469.196	-0.0052
469.3972	-0.0155
469.5983	0.0198
469.7994	-0.0059
470.0006	-0.0118
470.2017	-0.0143
470.4027	0.0033
470.6038	0.0122
470.8049	-0.0081
471.0059	0.0011
471.2069	-0.0163
471.408	0.0184
471.6089	0.0074
471.8099	-0.0053
472.0109	-0.0043
472.2119	-0.0063
472.4128	-0.0015
472.6137	0.0042
472.8146	-0.0119
473.0155	-0.0154
473.2164	-0.006
473.4173	0.0153
473.6181	0.0013
473.819	0.0096
474.0198	-0.0069
474.2206	-0.0005
474.4214	-0.0017
474.6222	-0.0068
474.8229	-0.0197
475.0237	-0.0082
475.2244	-0.0145
475.4251	-0.0039
475.6258	-0.0018
475.8265	0.0009
476.0272	0.0019
476.2278	-0.0119
476.4285	-0.0057
476.6291	-0.0002
476.8297	0.0074
477.0303	-0.007
477.2309	-0.0056
477.4315	-0.0154
477.632	-0.0036
477.8326	-0.002
478.0331	0.0042
478.2336	0.0025
478.4341	-0.0119
478.6346	0.0087
478.8351	-0.0051
479.0355	0.001
479.236	-0.0227
479.4364	-0.0046
479.6368	-0.0024
479.8372	-0.0081
480.0376	-0.0031
480.2379	-0.0131
480.4383	-0.0157
480.6386	-0.0003
480.8389	0.0099
481.0392	-0.0109
481.2395	-0.0058
481.4398	0.0024
481.6401	-0.0009
481.8403	-0.0222
482.0405	-0.0057
482.2408	0.0053
482.441	0.0096
482.6411	-0.0073
482.8413	-0.0017
483.0415	-0.0128
483.2416	-0.0138
483.4417	-0.0103
483.6419	0.0004
483.8419	-0.0019
484.042	0.0049
484.2421	0.0044
484.4422	0.003
484.6422	-0.0043
484.8422	-0.0117
485.0422	-0.0106
485.2422	0.0085
485.4422	-0.0058
485.6422	-0.0165
485.8421	0.005
486.042	0.011
486.242	-0.0015
486.4419	-0.0104
486.6417	-0.0039
486.8416	-0.0057
487.0415	-0.0085
487.2413	-0.0033
487.4411	-0.0089
487.641	-0.0094
487.8408	-0.008
488.0405	-0.004
488.2403	-0.004
488.4401	0.0091
488.6398	-0.0145
488.8395	-0.0074
489.0392	0.002
489.2389	-0.0093
489.4386	-0.0042
489.6383	-0.0022
489.8379	0.0051
490.0376	-0.0117
490.2372	-0.0117
490.4368	-0.0136
490.6364	-0.0021
490.836	-0.0131
491.0355	0.0022
491.2351	-0.0065
491.4346	-0.0019
491.6341	-0.0124
491.8336	0.0007
492.0331	-0.0153
492.2326	-0.0178
492.432	0.0029
492.6315	-0.0119
492.8309	-0.0097
493.0303	0.0018
493.2297	-0.0078
493.4291	-0.0048
493.6284	-0.0025
493.8278	0.0054
494.0271	0.0075
494.2264	0.0161
494.4257	-0.0155
494.625	-0.0102
494.8243	-0.02
495.0236	-0.0087
495.2228	-0.0089
495.422	-0.0088
495.6213	-0.0093
495.8205	-0.0115
496.0196	0.0031
496.2188	-0.0017
496.418	-0.0127
496.6171	-0.0077
496.8162	-0.0152
497.0153	0.0052
497.2144	-0.0119
497.4135	-0.0076
497.6126	-0.0155
497.8116	-0.0126
498.0107	-0.0016
498.2097	-0.0179
498.4087	-0.0026
498.6077	-0.0034
498.8067	-0.0073
499.0056	-0.0009
499.2046	-0.0012
499.4035	-0.0234
499.6024	-0.0091
499.8013	-0.0041
500.0002	-0.0088
500.199	-0.0025
500.3979	-0.0114
500.5967	-0.014
500.7956	-0.0073
500.9944	-0.0061
501.1932	-0.0059
501.3919	-0.007
501.5907	-0.0166
501.7895	-0.006
501.9882	-0.0105
502.1869	0.0018
502.3856	0.001
502.5843	-0.0099
502.783	0.0026
502.9816	-0.0079
503.1803	-0.0256
503.3789	-0.0049
503.5775	0.0054
503.7761	-0.0055
503.9747	0.0067
504.1732	-0.0082
504.3718	-0.0022
504.5703	-0.0061
504.7689	-0.0114
504.9674	-0.0092
505.1658	-0.0008
505.3643	-0.0068
505.5628	-0.0097
505.7612	-0.0063
505.9597	0.004
506.1581	-0.0053
506.3565	0.0001
506.5549	-0.0054
506.7532	-0.0188
506.9516	-0.0098
507.1499	-0.0034
507.3482	-0.0056
507.5465	-0.0078
507.7448	-0.0039
507.9431	-0.009
508.1414	-0.0063
508.3396	-0.0085
508.5379	-0.0029
508.7361	-0.0118
508.9343	-0.0004
509.1325	-0.0008
509.3306	-0.0087
509.5288	-0.0071
509.7269	-0.0016
509.9251	-0.0016
510.1232	-0.0198
510.3213	0.0001
510.5193	0.0021
510.7174	-0.0068
510.9154	-0.0114
511.1135	0.0012
511.3115	-0.0006
511.5095	-0.0085
511.7075	-0.0139
511.9055	-0.0009
512.1034	-0.0122
512.3014	0.0029
512.4993	0.0028
512.6972	-0.0058
512.8951	-0.0164
513.093	-0.003
513.2908	-0.0032
513.4887	0.0031
513.6865	-0.0082
513.8844	-0.0069
514.0822	-0.0106
514.2799	-0.0134
514.4777	-0.011
514.6755	-0.016
514.8732	-0.0091
515.0709	-0.0048
515.2687	-0.0049
515.4664	-0.0006
515.664	-0.0086
515.8617	-0.0093
516.0594	-0.013
516.257	-0.0036
516.4546	-0.0202
516.6522	0.0143
516.8498	-0.0065
517.0474	0.0101
517.2449	-0.004
517.4425	-0.0076
517.64	-0.0042
517.8375	0.003
518.035	-0.0019
518.2325	-0.008
518.43	-0.0006
518.6274	-0.0111
518.8249	-0.0181
519.0223	0.0015
519.2197	-0.0033
519.4171	-0.0099
519.6145	-0.0181
519.8118	0.0002
520.0092	-0.0016
520.2065	-0.008
520.4038	-0.0148
520.6011	-0.0134
520.7984	-0.0078
520.9956	-0.0035
521.1929	-0.0193
521.3901	-0.0055
521.5874	0.0002
521.7846	0.002
521.9818	-0.0118
522.1789	-0.0146
522.3761	-0.0097
522.5732	-0.0117
522.7704	-0.006
522.9675	-0.0086
523.1646	-0.011
523.3617	-0.0049
523.5587	0.0111
523.7558	-0.0025
523.9528	-0.0142
524.1498	-0.0019
524.3468	-0.0046
524.5438	-0.0113
524.7408	0.0015
524.9378	0.0021
525.1347	-0.0089
525.3316	0.0063
525.5285	-0.011
525.7254	-0.0071
525.9223	0.0041
526.1192	-0.0025
526.316	0.0026
526.5129	0.0001
526.7097	-0.0047
526.9065	-0.0055
527.1033	-0.0144
527.3	-0.0045
527.4968	-0.0058
527.6935	-0.0125
527.8903	-0.0145
528.087	-0.0045
528.2837	-0.0064
528.4804	0.0047
528.677	-0.0094
528.8737	0.0005
529.0703	0.0088
529.2669	-0.0111
529.4635	-0.0085
529.6601	-0.0048
529.8567	0.0023
530.0532	-0.0144
530.2498	0.005
530.4463	0.0062
530.6428	-0.0151
530.8393	0.0072
531.0358	0.004
531.2322	-0.0005
531.4287	-0.0021
531.6251	-0.0084
531.8215	0.0053
532.0179	0.0041
532.2143	0.0058
532.4107	-0.0123
532.607	-0.004
532.8034	0.0001
532.9997	-0.0014
533.196	-0.0086
533.3923	-0.0039
533.5886	-0
533.7848	-0.0053
533.9811	0.0002
534.1773	0.0031
534.3735	0.003
534.5697	-0.0081
534.7659	-0.0051
534.9621	0.0043
535.1582	-0.0112
535.3544	-0.0036
535.5505	-0.0078
535.7466	-0.012
535.9427	-0.0062
536.1387	-0.0083
536.3348	-0.0031
536.5308	-0.0024
536.7269	-0.0087
536.9229	-0.0008
537.1189	-0.0045
537.3148	0.0032
537.5108	-0.014
537.7068	-0.0077
537.9027	0.0021
538.0986	-0.005
538.2945	-0.0069
538.4904	-0.0125
538.6863	-0
538.8821	-0.0016
539.078	-0.0043
539.2738	0.0009
539.4696	-0.0091
539.6654	0.0005
539.8611	0.0097
540.0569	-0.007
540.2526	-0.0046
540.4484	0.0023
540.6441	0.003
540.8398	-0.0022
541.0355	0.0043
541.2311	-0.0007
541.4268	-0.0129
541.6224	0.003
541.818	0.0029
542.0136	-0.0123
542.2092	-0.0031
542.4048	0.0008
542.6003	-0.0002
542.7959	-0.0029
542.9914	-0
543.1869	0.0009
543.3824	-0.0019
543.5779	-0.0008
543.7734	-0.0019
543.9688	-0.011
544.1642	0.0017
544.3596	-0.0019
544.555	-0.0023
544.7504	0.0008
544.9458	-0.0051
545.1411	-0.0037
545.3365	-0.0048
545.5318	-0.0112
545.7271	-0.0073
545.9224	-0.0083
546.1177	-0.0015
546.3129	0.0074
546.5081	-0.0124
546.7034	0.0007
546.8986	-0.0047
547.0938	-0.0161
547.289	0.0014
547.4841	-0.004
547.6793	0.0004
547.8744	-0.0058
548.0695	0.0021
548.2646	-0.0082
548.4597	0.0055
548.6548	0.0082
548.8498	0.0026
549.0448	0.0025
549.2399	0.0001
549.4349	0.0074
549.6298	-0.0019
549.8248	-0.0031
550.0198	0.0028
550.2147	-0.0055
550.4096	-0.0134
550.6045	-0.0053
550.7994	-0.0073
550.9943	0.0011
551.1892	-0.009
551.384	0.0029
551.5788	-0.01
551.7737	0.0068
551.9685	0.0009
552.1632	-0.0018
552.358	-0.0037
552.5528	0.008
552.7475	-0.0001
552.9422	0.0001
553.1369	0.0014
553.3316	0.0039
553.5263	-0.0155
553.7209	0.0046
553.9156	0.0006
554.1102	-0.0007
554.3048	-0.0065
554.4994	-0.0027
554.694	-0.0012
554.8885	-0.0015
555.0831	-0.0119
555.2776	-0.0023
555.4721	-0.0002
555.6666	-0.0152
555.8611	0.0105
556.0555	0.0047
556.25	-0.0015
556.4444	-0.0077
556.6388	0.002
556.8332	0.0031
557.0276	-0.0013
557.222	0.0034
557.4163	-0.0002
557.6107	0.0007
557.805	0.0033
557.9993	-0.0005
558.1936	-0.0021
558.3879	0.0013
558.5821	0.0069
558.7764	-0.0092
558.9706	-0.0021
559.1648	-0.0015
559.359	-0.0042
559.5532	-0.0017
559.7473	-0.0028
559.9415	0.003
560.1356	-0.0025
560.3297	-0.0016
560.5238	-0.0022
560.7179	-0.0024
560.9119	-0.0078
561.106	-0.0135
561.3	-0.0107
561.494	-0.0009
561.688	-0.001
561.882	-0.0013
562.076	-0.0015
562.2699	0.0007
562.4639	-0.0024
562.6578	-0.0036
562.8517	-0.0019
563.0456	-0.0041
563.2395	0.0061
563.4333	-0.0023
563.6272	-0.0005
563.821	-0.0037
564.0148	0.0042
564.2086	-0.008
564.4024	-0.0002
564.5961	-0.0132
564.7899	0.0018
564.9836	-0.0029
565.1773	-0.0044
565.371	0.0068
565.5647	0.0031
565.7584	0.0021
565.952	0.0048
566.1456	0.0018
566.3393	0.0016
566.5329	0.0004
566.7264	0.0019
566.92	-0.0068
567.1136	0.0031
567.3071	-0.0042
567.5006	0.0013
567.6941	0.0081
567.8876	-0.0036
568.0811	-0.0003
568.2745	0.0088
568.468	0.0046
568.6614	0.0068
568.8548	-0.0035
569.0482	-0.0105
569.2416	-0.0037
569.4349	0.0007
569.6283	0.0113
569.8216	-0.0026
570.0149	-0.0055
570.2082	0.003
570.4015	0.0082
570.5947	0.008
570.788	-0.0001
570.9812	0.0087
571.1744	0.0015
571.3676	-0.0066
571.5608	-0.0036
571.754	0.0008
571.9471	-0.0002
572.1402	-0.0022
572.3333	-0.0091
572.5264	-0.0039
572.7195	-0.0044
572.9126	0.0041
573.1057	0.0018
573.2987	-0.0004
573.4917	0.0045
573.6847	-0.0058
573.8777	0.0129
574.0707	0.0073
574.2636	-0.0021
574.4566	0.0017
574.6495	0.0023
574.8424	0.0029
575.0353	-0.0036
575.2281	0.0078
575.421	0.0044
575.6138	0.008
575.8067	-0.0038
575.9995	-0.0006
576.1923	0.0092
576.385	0.0018
576.5778	-0.0044
576.7706	0.0044
576.9633	0.0038
577.156	0.0036
577.3487	0.002
577.5414	-0.0004
577.734	-0.0003
577.9267	0.0058
578.1193	-0.0088
578.3119	0.003
578.5045	0.0005
578.6971	0.0005
578.8897	0.0059
579.0822	0.0017
579.2747	0.0055
579.4673	-0.0005
579.6598	-0.0044
579.8522	0.0003
580.0447	-0.0063
580.2372	-0.0055
580.4296	0.0044
580.622	-0.0027
580.8144	-0.0026
581.0068	-0.0035
581.1992	-0.0034
581.3915	-0.0067
581.5839	-0.0071
581.7762	-0.0105
581.9685	-0.0017
582.1608	0.0059
582.353	0.0001
582.5453	0.0086
582.7375	0.0096
582.9298	0.0022
583.122	0.0026
583.3142	0.0052
583.5063	0.0033
583.6985	0.0016
583.8906	-0.0016
584.0827	0.0013
584.2749	0.0013
584.4669	0.0039
584.659	0.0012
584.8511	-0.003
585.0431	0.0015
585.2352	0.0036
585.4272	0.0069
585.6192	0.0072
585.8111	0.0055
586.0031	0.0037
586.195	-0.002
586.387	-0.0001
586.5789	0
586.7708	0.0028
586.9627	0.0036
587.1545	-0.0008
587.3464	0.0007
587.5382	0.006
587.73	0.0033
587.9218	0.0093
588.1136	0.0049
588.3053	-0.0022
588.4971	-0.001
588.6888	-0.0088
588.8805	-0.0032
589.0722	0.0008
589.2639	-0.0025
589.4556	-0.0079
589.6472	-0.0052
589.8389	-0.0033
590.0305	-0.0081
590.2221	-0.0002
590.4137	-0.0058
590.6052	0.0101
590.7968	0.0016
590.9883	0.0056
591.1798	-0.0008
591.3713	0.0025
591.5628	0.0011
591.7543	0.0027
591.9458	0.0007
592.1372	-0.0007
592.3286	0.0017
592.52	0.006
592.7114	-0.0043
592.9028	0.0043
593.0941	-0.0056
593.2855	0.0054
593.4768	-0.0075
593.6681	-0.006
593.8594	0.0002
594.0506	0.0011
594.2419	0.0083
594.4331	0.0028
594.6244	0.0037
594.8156	-0.0039
595.0067	-0.0017
595.1979	0.0053
595.3891	0.0007
595.5802	-0.0012
595.7713	-0.001
595.9624	-0.0037
596.1535	0.0081
596.3446	0.0033
596.5357	-0.0033
596.7267	0.0075
596.9177	0.0039
597.1087	-0.0051
597.2997	-0.0034
597.4907	0.0007
597.6817	-0.0004
597.8726	0.0003
598.0635	-0.0013
598.2544	-0.0026
598.4453	-0.0044
598.6362	-0.0022
598.827	-0.0028
599.0179	0.007
599.2087	0.0005
599.3995	0.0043
599.5903	-0.0018
599.7811	0.0064
599.9718	0.0006
600.1626	-0.0081
600.3533	-0.003
600.544	-0.0012
600.7347	-0.0044
600.9254	-0.0017
601.116	-0.0097
601.3067	-0.0065
601.4973	-0.005
601.6879	0.002
601.8785	-0.0035
602.0691	0.0006
602.2596	0.0026
602.4502	0.0009
602.6407	0.0095
602.8312	0.002
603.0217	-0.0052
603.2122	-0.0068
603.4027	0.0002
603.5931	-0.0039
603.7835	-0.0018
603.9739	-0.0075
604.1643	-0.0038
604.3547	-0.0001
604.5451	0.0086
604.7354	0.0024
604.9257	0.0047
605.116	-0.0047
605.3063	0.0058
605.4966	0.0018
605.6869	0.0013
605.8771	0.0122
606.0673	0.0096
606.2575	0.0067
606.4477	0.0094
606.6379	0.0029
606.8281	0.0024
607.0182	0.0036
607.2083	0.0072
607.3985	-0.0001
607.5885	0.0057
607.7786	0.0025
607.9687	-0.0056
608.1587	-0.0006
608.3488	0.0016
608.5388	-0.0018
608.7288	-0.0007
608.9187	-0.0045
609.1087	-0.0041
609.2986	-0.0065
609.4886	-0.0016
609.6785	0.0138
609.8684	0.0014
610.0582	0.0039
610.2481	-0.002
610.4379	-0.0016
610.6278	-0.0007
610.8176	0.0028
611.0074	-0.002
611.1971	-0.0058
611.3869	0.002
611.5766	-0.0026
611.7664	0.0055
611.9561	0.0103
612.1458	0.0095
612.3354	-0.0048
612.5251	-0.0029
612.7147	0.0116
612.9044	0.009
613.094	-0.0031
613.2836	-0.005
613.4731	-0.0014
613.6627	-0.0032
613.8522	0.0015
614.0417	0.0013
614.2313	-0.0033
614.4207	-0.0085
614.6102	0.0002
614.7997	-0.0062
614.9891	-0.0091
615.1785	0.0037
615.3679	-0.0062
615.5573	0.0091
615.7467	-0.0032
615.9361	0.0047
616.1254	0.0038
616.3147	-0.0001
616.504	0.0024
616.6933	0.0056
616.8826	0.0102
617.0718	0.0071
617.2611	0.0031
617.4503	-0.0027
617.6395	0.0019
617.8287	-0.0063
618.0179	0.0025
618.207	0.0063
618.3961	0.004
618.5853	-0.0021
618.7744	0.0023
618.9634	0.0018
619.1525	0.0008
619.3416	-0.0024
619.5306	0.0076
619.7196	0.0045
619.9086	-0.0053
620.0976	0.0047
620.2866	-0.0009
620.4755	0.0075
620.6645	-0.0001
620.8534	0.0019
621.0423	0.0025
621.2312	0.0055
621.42	0.0016
621.6089	-0.0016
621.7977	0.0094
621.9865	-0.0059
622.1753	0.003
622.3641	0.0019
622.5529	0.0149
622.7416	0.0099
622.9303	0.0071
623.1191	0.0055
623.3078	-0.0009
623.4964	-0.0031
623.6851	-0.001
623.8737	-0.0033
624.0624	0.0003
624.251	-0.006
624.4396	0.0019
624.6282	-0.0029
624.8167	0.0008
625.0053	0.0018
625.1938	0.0003
625.3823	0.0006
625.5708	-0.005
625.7593	-0.0021
625.9477	-0.0052
626.1362	-0.0002
626.3246	-0.0021
626.513	0.0022
626.7014	0.0072
626.8898	0.0011
627.0781	0.0005
627.2665	-0.0004
627.4548	0.0091
627.6431	0.0034
627.8314	0.0046
628.0197	0.0087
628.2079	0.0024
628.3962	-0.0018
628.5844	-0.0001
628.7726	0.0044
628.9608	0.0063
629.1489	0.0018
629.3371	0.0032
629.5252	0.0023
629.7134	0.0161
629.9015	0.0009
630.0895	-0.0008
630.2776	0.0102
630.4657	0.0025
630.6537	0.0099
630.8417	0.001
631.0297	0.002
631.2177	0.0032
631.4057	-0.0056
631.5936	-0.0002
631.7815	-0.0033
631.9695	0.0021
632.1574	0.0103
632.3452	0.0163
632.5331	0.004
632.7209	0.0046
632.9088	0.0077
633.0966	0.0092
633.2844	-0.0017
633.4722	-0.0009
633.6599	0.0123
633.8477	0.0033
634.0354	0.0047
634.2231	0.0043
634.4108	0.0073
634.5985	0.0091
634.7861	0.0096
634.9738	-0.0005
635.1614	0.0052
635.349	0.0057
635.5366	-0.0003
635.7242	0.005
635.9117	0.0087
636.0993	0.0047
636.2868	0.011
636.4743	-0.0021
636.6618	0.009
636.8492	0.0043
637.0367	0.0046
637.2241	-0.0027
637.4115	-0.0024
637.5989	-0.0007
637.7863	-0.0042
637.9737	-0.0021
638.161	-0.0008
638.3484	0.0008
638.5357	0.0071
638.723	-0.0011
638.9103	0.0028
639.0975	0.0011
639.2848	0.0003
639.472	0.0031
639.6592	0.0029
639.8464	0.0028
640.0336	0.0048
640.2208	-0.0058
640.4079	-0.006
640.595	-0.0001
640.7821	0.0024
640.9692	-0.003
641.1563	0.0031
641.3434	0.0016
641.5304	0.006
641.7174	-0.0011
641.9044	0.0073
642.0914	0.0012
642.2784	-0.0031
642.4653	0.0067
642.6523	-0.0015
642.8392	0.0028
643.0261	-0.0019
643.213	0.0048
643.3999	-0.0022
643.5867	-0.004
643.7735	-0.004
643.9604	-0.007
644.1472	0.001
644.3339	0.0082
644.5207	0.0042
644.7075	0.0001
644.8942	0.0069
645.0809	0.0028
645.2676	0.0125
645.4543	0.0068
645.6409	-0.0006
645.8276	0.0025
646.0142	0.0098
646.2008	0.0006
646.3874	-0.0039
646.574	-0.0032
646.7605	-0.008
646.9471	-0.0119
647.1336	0.0058
647.3201	0.0058
647.5066	-0.0042
647.6931	0.0093
647.8795	-0.0038
648.0659	0.0105
648.2524	0.0096
648.4388	-0.0032
648.6252	-0.0023
648.8115	0.0034
648.9979	-0.0001
649.1842	0.0082
649.3705	0.004
649.5568	0.0064
649.7431	0.0051
649.9294	0.0022
650.1156	0.0093
650.3018	-0.0009
650.488	0.0081
650.6742	0.002
650.8604	-0.0023
651.0466	-0.0013
651.2327	-0.0043
651.4188	0.003
651.6049	-0.0003
651.791	0.0024
651.9771	0.0017
652.1632	0.0077
652.3492	0.0048
652.5352	0.0058
652.7212	0.0032
652.9072	0.007
653.0932	0.0011
653.2791	-0.0046
653.465	0.0027
653.651	-0.0001
653.8369	-0.0026
654.0227	-0.0021
654.2086	0.0019
654.3944	0.0054
654.5803	-0.0006
654.7661	0.0012
654.9519	0.0047
655.1377	-0.0019
655.3234	-0.0004
655.5092	-0.0025
655.6949	-0.005
655.8806	-0.0029
656.0663	-0.0024
656.2519	0.0002
656.4376	-0.0056
656.6232	0.007
656.8088	0.0003
656.9945	0.0014
657.18	0.0009
657.3656	0.0005
657.5511	-0.0015
657.7367	-0.004
657.9222	0.0033
658.1077	-0.0039
658.2932	0.0023
658.4786	-0.0121
658.6641	-0.0094
658.8495	-0.0063
659.0349	-0.0047
659.2203	0.0064
659.4057	0.0054
659.591	0.001
659.7764	-0.0029
659.9617	-0.003
660.147	-0.0017
660.3323	0.0058
660.5176	0.0048
660.7028	0.0069
660.888	0.0052
661.0733	0.0094
661.2585	-0.0016
661.4436	0.0001
661.6288	-0.0043
661.8139	0.0007
661.9991	0.0013
662.1842	-0.0087
662.3693	-0.0018
662.5544	-0.0041
662.7394	-0.006
662.9245	-0.003
663.1095	0.0043
663.2945	0.0012
663.4795	0.0005
663.6644	0.0044
663.8494	-0.0043
664.0343	0.0053
664.2193	-0.0044
664.4042	0.001
664.589	-0.0058
664.7739	0.0016
664.9587	-0.0032
665.1436	0.0016
665.3284	0.0053
665.5132	-0.0067
665.698	-0.002
665.8827	-0.004
666.0675	0.0008
666.2522	-0.005
666.4369	0.0014
666.6216	0.0052
666.8063	-0.0024
666.9909	0.0031
667.1756	-0.0082
667.3602	0.0025
667.5448	-0.0002
667.7294	0.0081
667.9139	0.0007
668.0985	0.0209
668.283	-0.0007
668.4675	0.0051
668.652	0.0037
668.8365	0.0067
669.0209	0.0062
669.2054	0.0107
669.3898	-0.0061
669.5742	0.0031
669.7586	0.0083
669.943	0.0049
670.1273	0.0054
670.3117	0.0065
670.496	0.0068
670.6803	0.0072
670.8646	0.0048
671.0488	-0.0023
671.2331	0.0043
671.4173	0.0027
671.6015	0.0011
671.7857	0.0017
671.9699	0.0008
672.1541	0.007
672.3382	0.0053
672.5223	0.0046
672.7064	0.0061
672.8905	0.01
673.0746	0.0038
673.2587	-0.0069
673.4427	0.0015
673.6267	0.0104
673.8107	0.0073
673.9947	0.0101
674.1787	0.007
674.3626	-0.0014
674.5465	0.0075
674.7304	0.0115
674.9143	0.0098
675.0982	0.0102
675.2821	-0.0014
675.4659	0.0179
675.6497	0.0038
675.8335	0.0024
676.0173	-0.0013
676.2011	0.0046
676.3849	-0.0017
676.5686	-0.0057
676.7523	-0.0022
676.936	-0.0026
677.1197	-0.0008
677.3034	-0.0081
677.487	0.006
677.6706	0.0034
677.8542	-0.0021
678.0378	-0.0029
678.2214	-0.0029
678.405	-0.0043
678.5885	-0.0104
678.772	-0.0022
678.9555	-0.0048
679.139	-0.001
679.3225	0.0001
679.5059	0.0009
679.6894	0.0016
679.8728	-0.0017
680.0562	-0.0053
680.2395	-0.0051
680.4229	0.0008
680.6062	0.0085
680.7896	-0.0053
680.9729	-0.0054
681.1562	0.0093
681.3394	0.0055
681.5227	-0.0025
681.7059	0.0049
681.8891	0.0054
682.0723	0.0089
682.2555	0.0076
682.4387	-0.0008
682.6218	-0.0022
682.805	0.0054
682.9881	0.0071
683.1712	0.0039
683.3542	-0.0009
683.5373	0.0108
683.7203	-0.0059
683.9034	-0.0008
684.0864	-0.0034
684.2694	-0.008
684.4523	0.0026
684.6353	-0.0053
684.8182	0.0045
685.0011	-0.0113
685.184	0.003
685.3669	-0.0017
685.5498	-0.0018
685.7326	-0.0002
685.9154	-0.0083
686.0982	0.0082
686.281	0.006
686.4638	0.0024
686.6465	0.0031
686.8293	-0.002
687.012	0.0036
687.1947	-0.0065
687.3774	-0.0048
687.56	-0.0037
687.7427	0.0035
687.9253	-0.0107
688.1079	-0.0037
688.2905	0.0096
688.4731	0.0045
688.6556	-0.005
688.8382	0.0082
689.0207	-0.0039
689.2032	-0.0066
689.3857	-0.0084
689.5681	0.0037
689.7506	-0.0067
689.933	-0.0009
690.1154	0.0017
690.2978	0.0036
690.4802	0.0034
690.6626	-0.0094
690.8449	0.0005
691.0272	0.0109
691.2095	-0.0014
691.3918	0.0021
691.5741	0.001
691.7563	0.0037
691.9386	-0.0029
692.1208	0.0016
692.303	-0.0008
692.4852	0.0073
692.6673	0.0048
692.8495	0.0003
693.0316	-0.0004
693.2137	0.0041
693.3958	0.0069
693.5778	0.0036
693.7599	0.0031
693.9419	0.0051
694.1239	0.0053
694.3059	-0.0034
694.4879	0.0185
694.6699	0.0027
694.8518	0.0111
695.0337	-0.0002
695.2157	0.0038
695.3975	-0.0003
695.5794	0.0075
695.7613	0.0089
695.9431	0.0031
696.1249	0.0123
696.3067	0.0072
696.4885	0.0144
696.6703	-0.0049
696.852	0.0041
697.0337	0.0142
697.2154	0.0085
697.3971	0.0051
697.5788	0.0071
697.7605	-0.0014
697.9421	0.0103
698.1237	-0.0013
698.3053	0.0028
698.4869	-0.0002
698.6685	-0.0055
698.85	0.0034
699.0315	0.0145
699.213	-0.0001
699.3945	0.0044
699.576	0.0087
699.7575	0.0084
699.9389	0.0075
700.1203	-0.0044
700.3017	-0.0055
700.4831	-0.0087
700.6645	-0.0018
700.8458	0.0065
701.0271	-0.0083
701.2084	0.0139
701.3897	-0.0027
701.571	0.0076
701.7523	-0.007
701.9335	-0.0015
702.1147	0.0071
702.2959	-0.0012
702.4771	0.0052
702.6583	0.0022
702.8394	-0.0062
703.0205	0.0024
703.2016	-0.0082
703.3827	-0.0001
703.5638	0.0037
703.7449	0.0042
703.9259	0.0171
704.1069	0.0021
704.2879	0.0042
704.4689	0.006
704.6499	-0.0019
704.8308	0.0023
705.0117	0.0048
705.1927	0.0009
705.3735	0.0044
705.5544	0.0019
705.7353	-0.0002
705.9161	-0.0048
706.0969	-0.0036
706.2777	0.0059
706.4585	-0.0091
706.6393	0.0023
706.82	0.0014
707.0007	-0.0038
707.1815	0.0022
707.3621	0.0122
707.5428	0.0014
707.7235	0.0046
707.9041	0.0001
708.0847	-0.0014
708.2653	-0.0064
708.4459	-0.0106
708.6265	0.0022
708.807	-0.0055
708.9875	0.0009
709.168	-0.0007
709.3485	-0.0023
709.529	-0.0054
709.7095	-0.0206
709.8899	-0.0026
710.0703	-0.0086
710.2507	0.0022
710.4311	-0.0133
710.6115	-0.0077
710.7918	-0.0064
710.9721	0.0027
711.1524	-0.002
711.3327	0.0018
711.513	0.0047
711.6932	0.0038
711.8735	0.0178
712.0537	0.0067
712.2339	0.0045
712.4141	-0.0007
712.5942	-0.0033
712.7744	-0.0034
712.9545	-0.0054
713.1346	0.004
713.3147	0.0035
713.4947	-0.0028
713.6748	-0.0002
713.8548	0.0025
714.0348	0.0025
714.2148	-0.0056
714.3948	0.0037
714.5748	0.0038
714.7547	-0.0041
714.9346	0.0019
715.1145	0.0041
715.2944	-0.0072
715.4743	0.0026
715.6541	-0.0042
715.834	0.0072
716.0138	0.0002
716.1936	-0.0106
716.3733	-0.004
716.5531	0.0073
716.7328	-0.0065
716.9126	-0.003
717.0923	0.0062
717.2719	0.0033
717.4516	0.0045
717.6312	0.0059
717.8109	0.0025
717.9905	0.0083
718.1701	0.0013
718.3496	-0.0077
718.5292	0.0075
718.7087	0.0036
718.8882	0.0063
719.0677	0.0116
719.2472	0.009
719.4267	0.0002
719.6061	0.0094
719.7856	0.0005
719.965	0.0072
720.1443	-0.0072
720.3237	0.0124
720.5031	0.0019
720.6824	0.0049
720.8617	-0.0007
721.041	0.0049
721.2203	0.0119
721.3995	0.0013
721.5788	0.0049
721.758	0.0016
721.9372	-0.0028
722.1164	-0.0036
722.2956	0.0045
722.4747	0.0011
722.6538	0.004
722.8329	0.0099
723.012	0.003
723.1911	0.0024
723.3702	-0.0044
723.5492	0.005
723.7282	-0.0017
723.9072	-0.0025
724.0862	-0.0048
724.2652	0.0019
724.4441	-0.0006
724.623	0.0032
724.8019	0.0035
724.9808	-0.002
725.1597	-0.0147
725.3385	0.0071
725.5174	-0.0033
725.6962	0.007
725.875	0.0009
726.0538	0.0007
726.2325	0.0028
726.4112	0.0118
726.59	0.0016
726.7687	-0.0063
726.9474	0.0052
727.126	0.0003
727.3047	0.0045
727.4833	0.0044
727.6619	-0.0025
727.8405	-0.0095
728.0191	-0.0032
728.1976	0.0038
728.3762	0.0057
728.5547	-0.0047
728.7332	-0.0102
728.9116	-0.0054
729.0901	-0.0069
729.2686	-0.0099
729.447	-0.0059
729.6254	0.0022
729.8038	-0.0021
729.9821	-0.013
730.1605	0.0022
730.3388	-0.0002
730.5171	0.0029
730.6954	0.0013
730.8737	0.0018
731.0519	0.0044
731.2302	-0.0014
731.4084	0.0181
731.5866	0.0017
731.7648	0.0012
731.9429	-0.0001
732.1211	-0.0166
732.2992	0.0003
732.4773	-0.0086
732.6554	-0.0125
732.8335	-0.0037
733.0115	-0.0028
733.1896	0.01
733.3676	-0.006
733.5456	0.0095
733.7235	0.0023
733.9015	0.0008
734.0794	0.0006
734.2574	0.0035
734.4353	-0.0031
734.6131	0.0055
734.791	0.0057
734.9689	-0.0021
735.1467	0.0098
735.3245	-0.0036
735.5023	0.0014
735.68	0.0049
735.8578	0.0032
736.0355	-0.0192
736.2132	-0.0087
736.3909	-0.0031
736.5686	-0.0122
736.7463	-0.0006
736.9239	-0.003
737.1015	-0.0043
737.2791	-0.0004
737.4567	0.0002
737.6343	-0.0042
737.8118	-0.0037
737.9894	0.0065
738.1669	-0.0041
738.3444	-0.006
738.5218	0.0085
738.6993	0.0051
738.8767	-0.001
739.0541	0.0081
739.2315	-0.0091
739.4089	-0.0063
739.5863	0.0013
739.7636	-0.0026
739.9409	0.0015
740.1182	0.0124
740.2955	0.0064
740.4728	-0.0069
740.65	0.0105
740.8272	-0.0067
741.0044	-0.0042
741.1816	-0.0034
741.3588	-0.0055
741.5359	0.0021
741.7131	-0.0146
741.8902	0.0066
742.0673	0.002
742.2444	-0.0028
742.4214	-0.0024
742.5985	-0.0021
742.7755	-0.0015
742.9525	-0.0179
743.1295	-0.0046
743.3064	-0.0028
743.4834	0.0119
743.6603	-0.0089
743.8372	-0.0005
744.0141	0.0038
744.191	0.0073
744.3678	0.0066
744.5446	-0.0005
744.7215	0.0124
744.8982	-0.0039
745.075	-0.0039
745.2518	-0.0034
745.4285	0.0016
745.6052	-0.0131
745.7819	-0.008
745.9586	0.0008
746.1353	-0.0083
746.3119	-0.0162
746.4885	-0.0124
746.6651	-0.0122
746.8417	-0.0102
747.0183	-0.0083
747.1948	-0.0092
747.3714	-0.0061
747.5479	-0.0086
747.7244	-0.0089
747.9008	0.0058
748.0773	-0.0063
748.2537	-0.0071
748.4301	-0.0111
748.6065	-0.0131
748.7829	0.0029
748.9593	-0.0067
749.1356	-0.0032
749.3119	0.0021
749.4882	-0.007
749.6645	-0.0064
749.8408	-0.0011
750.017	-0.006
750.1933	0.0092
750.3695	-0.0104
750.5457	0.0031
750.7218	-0.0051
750.898	0.0042
751.0741	-0.0051
751.2502	-0.0046
751.4263	-0.0092
751.6024	0.0012
751.7784	-0.0014
751.9545	-0.0105
752.1305	0.0001
752.3065	-0.005
752.4825	0.0014
752.6584	-0.0072
752.8344	-0.0055
753.0103	-0.0046
753.1862	-0.0044
753.3621	-0.0008
753.5379	-0.008
753.7138	-0.002
753.8896	0.0076
754.0654	-0.0014
754.2412	-0.007
754.417	0.0089
754.5927	-0.0095
754.7685	0.0013
754.9442	0.0026
755.1199	0.0049
755.2956	-0.0019
755.4712	0.004
755.6469	0.0059
755.8225	0.0026
755.9981	0.0003
756.1736	0.0016
756.3492	0.0053
756.5248	0.0039
756.7003	0.003
756.8758	0.0143
757.0513	-0.0052
757.2267	-0.0021
757.4022	0.0089
757.5776	-0.0043
757.753	0.0083
757.9284	-0.0062
758.1038	-0.002
758.2791	-0.0002
758.4545	-0.024
758.6298	-0.0086
758.8051	-0.0009
758.9803	-0.006
759.1556	-0.0059
759.3308	-0.0031
759.506	0.0141
759.6812	0.0008
759.8564	0.0058
760.0316	0.0024
760.2067	0.0089
760.3819	0.0128
760.557	0.0122
760.732	0.008
760.9071	-0.0099
761.0821	0.0063
761.2572	0.0101
761.4322	0.0011
761.6072	0.0003
761.7821	-0.0085
761.9571	0.0058
762.132	-0.0001
762.3069	-0.0027
762.4818	-0.0105
762.6567	-0.0007
762.8316	-0.0012
763.0064	-0.0062
763.1812	-0.0117
763.356	-0.0046
763.5308	0.0042
763.7055	-0.0014
763.8803	-0.0005
764.055	-0.008
764.2297	0.0002
764.4044	-0.013
764.579	-0.0134
764.7537	-0.0196
764.9283	0.0026
765.1029	-0.0126
765.2775	-0.0111
765.4521	-0.0111
765.6266	-0.0123
765.8011	-0.0028
765.9756	-0.0078
766.1501	0.0033
766.3246	-0.0137
766.4991	-0.0092
766.6735	0.0099
766.8479	-0.0175
767.0223	0.0068
767.1967	-0.0012
767.371	-0.0056
767.5454	-0.0086
767.7197	-0.0052
767.894	-0.0073
768.0683	-0.0085
768.2425	-0.0057
768.4168	0.0031
768.591	-0.002
768.7652	-0.0122
768.9394	-0.0003
769.1135	0.0012
769.2877	0.0089
769.4618	-0.0036
769.6359	-0.014
769.81	-0.0012
769.984	-0.0059
770.1581	-0.0065
770.3321	-0.0069
770.5061	-0.0034
770.6801	0.0027
770.8541	-0.0018
771.028	0.0017
771.202	-0.0063
771.3759	0.0038
771.5498	-0.0002
771.7236	-0.0004
771.8975	0.0054
772.0713	0.0041
772.2451	0.0006
772.4189	0.0026
772.5927	0.0078
772.7665	-0.0038
772.9402	-0.0099
773.1139	-0
773.2876	-0.0024
773.4613	0.0034
773.635	-0.0123
773.8086	-0.02
773.9822	-0.0087
774.1558	-0.003
774.3294	-0.0204
774.503	-0.0005
774.6765	0.0047
774.8501	0.0088
775.0236	-0.001
775.1971	0.0042
775.3705	-0.0113
775.544	-0.0054
775.7174	-0.01
775.8908	-0.0005
776.0642	-0.0168
776.2376	-0.0036
776.4109	-0.0234
776.5843	-0.0034
776.7576	-0.0006
776.9309	0.0081
777.1041	0.0108
777.2774	0.0109
777.4506	-0.0065
777.6238	0.0016
777.797	-0.0023
777.9702	-0.0098
778.1434	-0.0084
778.3165	-0.0136
778.4896	-0.001
778.6627	0.0073
778.8358	-0.0091
779.0089	-0.0007
779.1819	-0.0139
779.3549	0.0046
779.5279	-0.0047
779.7009	-0.0028
779.8739	-0.0003
780.0468	-0.0012
780.2197	-0.003
780.3926	-0.0093
780.5655	-0.0095
780.7384	-0.005
780.9112	-0.0061
781.0841	-0.0103
781.2569	-0.003
781.4297	0.0018
781.6024	0.0102
781.7752	-0.0075
781.9479	0.0131
782.1206	-0.0032
782.2933	-0.0084
782.466	0.0162
782.6386	-0.005
782.8113	-0.0005
782.9839	0.013
783.1565	-0.0028
783.329	-0
783.5016	0.0004
783.6741	0.005
783.8466	0.0043
784.0191	0.0089
784.1916	0.0085
784.3641	-0.0034
784.5365	0.0135
784.7089	0.006
784.8813	-0.0026
785.0537	-0.0034
785.2261	0.0062
785.3984	0.0069
785.5707	-0.0122
785.743	-0.0045
785.9153	-0.0121
786.0876	0.0019
786.2598	-0.0054
786.432	-0.0173
786.6042	0.0022
786.7764	-0.023
786.9486	-0.0156
787.1207	-0.0162
787.2928	0.0004
787.4649	-0.0057
787.637	-0.0003
787.8091	-0.001
787.9811	-0.0226
788.1532	0.0052
788.3252	0.0029
788.4972	-0.0208
788.6691	-0.0123
788.8411	-0.0055
789.013	-0.0071
789.1849	0.0028
789.3568	-0.0126
789.5287	-0.0011
789.7005	0.0018
789.8723	-0.0011
790.0442	0.0207
790.2159	-0.0046
790.3877	0.0055
790.5595	-0.007
790.7312	0.0045
790.9029	-0.0006
791.0746	-0.0073
791.2463	-0.007
791.4179	0.004
791.5896	-0.0145
791.7612	0.0036
791.9328	0.0026
792.1044	-0.0134
792.2759	-0.018
792.4474	-0.0146
792.619	-0.0074
792.7905	0.0113
792.9619	0.0014
793.1334	0.0104
793.3048	0.0122
793.4762	0.002
793.6476	0.0067
793.819	-0.0024
793.9904	0.011
794.1617	-0.0031
794.333	-0.0083
794.5043	-0.0142
794.6756	0.0075
794.8469	0.0005
795.0181	-0.0076
795.1893	-0.0092
795.3605	0.0147
795.5317	-0.0007
795.7029	-0.006
795.874	0.0003
796.0452	-0.0054
796.2163	-0.0049
796.3873	0.0128
796.5584	0.0135
796.7294	-0.0004
796.9005	0.0161
797.0715	0.0026
797.2425	-0.0086
797.4134	-0.0078
797.5844	0.0014
797.7553	-0.0161
797.9262	0.0103
798.0971	-0.0186
798.2679	-0.0074
798.4388	-0.018
798.6096	-0.0274
798.7804	0.0024
798.9512	-0.0183
799.122	-0.0125
799.2927	0.0017
799.4635	0.012
799.6342	-0.0137
799.8049	-0.0218
799.9755	-0.0065
800.1462	0.0044
800.3168	0.0111
800.4874	-0.0031
800.658	0.0196
800.8286	0.0013
800.9991	0.0145
801.1696	0.0078
801.3402	0.0259
801.5106	-0.0015
801.6811	0.007
801.8516	0.0207
802.022	0.0093
802.1924	0.0164
802.3628	0.0259
802.5332	0.0068
802.7035	0.014
802.8739	-0.0024
803.0442	-0.0077
803.2145	0.0052
803.3847	-0.0211
803.555	0.0086
803.7252	-0.0169
803.8954	-0.0176
804.0656	-0.0136
804.2358	-0.0054
804.4059	0.0087
804.5761	-0.006
804.7462	-0.0197
804.9163	0.0048
805.0864	-0.0164
805.2564	-0.017
805.4264	0.0293
805.5965	-0.0104
805.7665	0.0051
805.9364	0.0063
806.1064	0.0131
806.2763	0.003
806.4462	0.0246
806.6161	0.0041
806.786	0.0046
806.9559	0.0004
807.1257	-0.0028
807.2955	0.0004
807.4653	0.0016
807.6351	-0.0048
807.8048	0.0056
807.9746	0.0156
808.1443	-0.001
808.314	-0.0039
808.4837	0.0021
808.6533	-0.0045
808.8229	0.0086
808.9926	0.0112
809.1622	0.0109
809.3317	-0.0125
809.5013	0.0037
809.6708	0.0151
809.8403	0.0102
810.0098	0.001
810.1793	0.0175
810.3488	-0.0013
810.5182	-0.0272
810.6876	-0.0193
810.857	-0.0129
811.0264	0.0214
811.1958	-0.0044
811.3651	0.0005
811.5344	0.0031
811.7037	-0.016
811.873	-0.0091
812.0422	0.009
812.2115	0.0021
812.3807	0.0089
812.5499	-0.0017
812.7191	0.0026
812.8882	-0.0135
813.0574	-0.0208
813.2265	0.0038
813.3956	-0.0022
813.5646	0.0016
813.7337	-0.0129
813.9027	-0.0068
814.0718	0.0072
814.2407	0.0035
814.4097	-0.0132
814.5787	-0.0093
814.7476	-0.0162
814.9165	0.007
815.0854	-0.0328
815.2543	-0.0145
815.4232	-0.0163
815.592	-0.0029
815.7608	-0.014
815.9296	0.0035
816.0984	0.0079
816.2671	-0.0191
816.4359	-0.0084
816.6046	-0.0029
816.7733	-0.0241
816.942	-0.0251
817.1106	-0.009
817.2793	-0.0115
817.4479	-0.0058
817.6165	-0.0088
817.785	-0.0026
817.9536	-0.0078
818.1221	-0.0017
818.2906	-0.0351
818.4591	-0.0202
818.6276	-0.0221
818.7961	-0.005
818.9645	0.0083
819.1329	0.0128
819.3013	0.0133
819.4697	-0.0054
819.638	0.0178
819.8064	0.0085
819.9747	0.0055
820.143	-0.0232
820.3113	-0.0015
820.4795	0.0145
820.6477	0.0182
820.816	0.0314
820.9842	0.0183
821.1523	-0.0104
821.3205	-0.0004
821.4886	0.0165
821.6567	-0.0033
821.8248	0.0119
821.9929	0.0097
822.1609	-0.0238
822.329	0.0064
822.497	0.0271
822.665	0.0169
822.833	-0.0058
823.0009	0.0029
823.1688	-0.009
823.3367	0.0011
823.5046	-0.0069
823.6725	0.0237
823.8404	0.0067
824.0082	0.0098
824.176	0.0148
824.3438	-0.0001
824.5116	-0.0055
824.6793	0.0222
824.847	-0.0111
825.0147	0.0129
825.1824	0.024
825.3501	0.0226
825.5177	-0.0213
825.6854	-0.0115
825.853	-0.0116
826.0206	-0.0228
826.1881	-0.0239
826.3557	-0.008
826.5232	0.0065
826.6907	-0.0538
826.8582	0.0017
827.0257	-0.0173
827.1931	-0.0108
827.3605	-0.0138
827.528	0.0046
827.6953	-0.0369
827.8627	-0.0219
828.03	0.026
828.1974	-0.002
828.3647	-0.0242
828.532	-0.0035
828.6992	-0.0236
828.8665	0.0155
829.0337	0.0127
829.2009	0.0136
829.3681	-0.0041
829.5352	0.026
829.7024	-0.0081
829.8695	-0.0023
830.0366	0.0268
830.2037	-0.0036
830.3707	0.0129
830.5378	-0.0122
830.7048	-0.006
830.8718	-0.0228
831.0388	-0.0075
831.2057	0.014
831.3727	0.0642
831.5396	0.0039
831.7065	-0.0274
831.8734	0.0026
832.0402	-0.0333
832.2071	0.0125
832.3739	-0.0067
832.5407	0.0083
832.7075	-0.0279
832.8742	-0.0421
833.041	-0.0371
833.2077	-0.0092
833.3744	0.0229
833.541	0.0184
833.7077	-0.025
833.8743	-0.0317
834.0409	0.0148
834.2075	-0.0307
834.3741	0.0162
834.5407	-0.0058
834.7072	-0.0138
834.8737	-0.0351
835.0402	-0.0107
835.2067	-0.0038
835.3731	0.0072
835.5395	-0.0164
835.706	0.0137
835.8723	0.0382
836.0387	0.0136
836.2051	-0.0124
836.3714	0.0385
836.5377	0.0261
836.704	-0.0183
836.8703	0.0196
837.0365	-0.0145
837.2027	0.0044
837.3689	0.0123
837.5351	-0.0443
837.7013	-0.0749
837.8674	0.0043
838.0335	-0.0471
838.1997	-0.0137
838.3657	-0.0578
838.5318	-0.0221
838.6978	0.0183
838.8639	0.0518
839.0299	-0.0333
839.1958	0.0094
839.3618	0.0147
839.5277	-0.0218
839.6937	-0.0258
839.8596	-0.0082
840.0254	0.0298
840.1913	-0.0123
840.3571	0.0195
840.523	-0.0071
840.6888	-0.0265
840.8545	-0.0281
841.0203	-0.0045
841.186	-0.0069
841.3517	0.0531
841.5174	-0.001
841.6831	-0.0448
841.8488	-0.0064
842.0144	-0.0276
842.18	0.0378
842.3456	0.0289
842.5112	-0.0022
842.6767	0.0356
842.8422	-0.0361
843.0077	-0.0328
843.1732	-0.0768
843.3387	-0.0244
843.5042	0.0466
843.6696	-0.0248
843.835	0.0031
844.0004	0.059
844.1657	0.0141
844.3311	-0.0028
844.4964	-0.0521
844.6617	-0.0002
844.827	-0.0577
844.9923	-0.0092
845.1575	-0.0188
845.3227	-0.0399
845.4879	-0.0337
845.6531	-0.0784
845.8183	-0.0957
845.9834	0.0137
846.1485	-0.0306
846.3136	-0.0746
846.4787	-0.0757
846.6438	0.091
846.8088	-0.0406
846.9738	-0.0903
847.1388	0.0365
847.3038	-0.0281
847.4687	-0.094
847.6337	0.0037
847.7986	-0.0443
847.9635	-0.0793
848.1284	0.0473
848.2932	0.0961
848.458	-0.0961
848.6228	-0.0219
848.7876	0.0697
848.9524	-0.0122
849.1172	-0.0158
849.2819	0.0438
849.4466	-0.0483
849.6113	-0.1006
849.7759	-0.0854
849.9406	-0.0625
850.1052	-0.0128
850.2698	0.0035
850.4344	-0.0741
850.599	-0.1059
850.7635	0.055
850.928	-0.0207
851.0925	-0.0578
851.257	-0.0108
851.4215	-0.0294
851.5859	-0.0217
851.7503	0.0218
851.9147	-0.0365
852.0791	-0.1415
852.2434	-0.017
852.4078	0.0201
852.5721	-0.0192
852.7364	-0.0934
852.9007	-0.2052
853.0649	-0.0379
853.2291	0.0122
853.3934	0.0357
853.5575	-0.0786
853.7217	-0.1076
853.8859	-0.036
854.05	-0.0057
854.2141	0.0048
854.3782	-0.1479
854.5423	-0.0518
854.7063	0.0553
854.8703	-0.0763
855.0343	-0.07
855.1983	-0.2104
855.3623	0.0272
855.5262	0.1151
855.6901	-0.0148
855.854	-0.0225
856.0179	0.1185
856.1818	0.2634
856.3456	-0.0204
856.5094	-0.0972
856.6732	-0.0737
856.837	0.0218
857.0008	0.0316
857.1645	-0.0354
857.3282	-0.2608
857.4919	0.0059
857.6556	0.0245
857.8192	-0.105
857.9828	-0.0199
858.1465	-0.0271
858.31	-0.1568
858.4736	-0.0634
858.6372	-0.1368
858.8007	-0.0661
858.9642	0.3622
859.1277	-0.0609
859.2911	0.3472
859.4546	0.026
859.618	-0.4826
859.7814	-0.0745
859.9448	-0.0687
860.1081	-0.0363
860.2715	0.2401
860.4348	0.2699
860.5981	-0.0147
860.7614	0.1128
860.9246	-0.1389
861.0879	0.3137
861.2511	0.038
861.4143	-0.2904
861.5774	0.4246
861.7406	-0.2062
861.9037	-0.0387
862.0668	-0.112
862.2299	-0.08
862.393	-0.5346
862.556	0.0301
862.7191	-0.0667
862.8821	-0.2296
863.0451	0.3889
863.208	0.2026
863.371	-0.0096
863.5339	-0.1026
863.6968	0.035
863.8597	-0.1989
864.0225	-0.1541
864.1854	-0.0832
864.3482	-0.3779
864.511	0.0217
864.6737	0.2371
864.8365	-0.0159
864.9992	-0.3374
865.1619	-0.5083
865.3246	-0.0926
865.4873	-0.0689
865.65	0.1865
865.8126	0.115
865.9752	0.1852
866.1378	-0.352
866.3004	-0
866.4629	0.3896
866.6254	-0.3459
866.7879	0.0081
866.9504	-0.4217
867.1129	-0
867.2753	0.0748
867.4377	0.1056
867.6001	-0.2847
867.7625	0.2976
867.9249	0.5441
868.0872	-0.1935
868.2495	0.0499
868.4118	-0.2162
868.5741	0.1151
868.7363	0.4949
868.8986	-0.3355
869.0608	-0.1683
869.223	0.1252
869.3851	-0
869.5473	-0
869.7094	0.2985
869.8715	-0.5096
870.0336	-0.9031
870.1957	-0.301
870.3577	-0
870.5197	-0.0655
870.6817	-0.3495
870.8437	0.4278
871.0057	-0
871.1676	-0.0839
871.3295	-0.2367
871.4914	-0.6711
871.6533	-0.1812
871.8151	-0.6196
871.977	-0
872.1388	-0
872.3006	0.6824
872.4623	-0
872.6241	0.0338
872.7858	1.9845
872.9475	-0.3265
873.1092	1.3688
873.2709	-0
873.4325	-0.3478
873.5941	0.2463
873.7557	-0
873.9173	-0
874.0789	-0
874.2404	-0.3836
874.4019	-0.1617
874.5634	-0.2748
874.7249	0.2063
874.8863	0.1892
875.0478	-0
875.2092	-0
875.3706	0.3369
875.5319	-0
875.6933	-0.0335
875.8546	-0.1698
876.0159	-0
876.1772	0.1662
876.3385	-0.1934
876.4997	0.0939
876.6609	0.6678
876.8221	-0
876.9833	0.99
877.1445	-0
877.3056	0.0627
877.4667	-0.412
877.6278	-0.064
877.7889	-0.6214
877.9499	-0.8188
878.111	-0.6548
878.272	-0
878.433	-0
878.5939	-0
878.7549	-0.058
878.9158	-0.9432
879.0767	0.4894
879.2376	-0
879.3984	0.1126
879.5593	-0
879.7201	0.0909
879.8809	0.4843
880.0417	-0.1681
880.2024	0.0365
880.3632	-0
880.5239	0.601
880.6846	-0
880.8452	-2.2455
881.0059	-1.2742
881.1665	0.1449
881.3271	0.7432
881.4877	-0
881.6483	-0.4641
881.8088	-0.3402
881.9693	0.4908
882.1298	0.4908
882.2903	0.4908
