Data from MonoPyChalIsomerACN10uM350nmA_Absorbance_14-35-32-015.txt Node
Date: Fri Jul 05 14:35:32 BST 2024
User: LASERRRRR
Spectrometer: FLMT03099
Trigger mode: 0
Integration Time (sec): 1.000000E-1
Scans to average: 1
Electric dark correction enabled: true
Nonlinearity correction enabled: false
Boxcar width: 0
XAxis mode: Wavelengths
Number of Pixels in Spectrum: 3648
>>>>>Begin Spectral Data<<<<<
179.3399	-0.0056
179.5586	-0.0056
179.7771	-0.0056
179.9957	-0.1398
180.2143	1.0414
180.4329	0.0236
180.6514	-0
180.8699	-0
181.0885	-0
181.307	-0.0046
181.5255	-0
181.744	-0
181.9625	0.9345
182.181	-0
182.3994	0.1601
182.6179	-0
182.8363	0.1285
183.0547	0.19
183.2732	0.229
183.4916	-0.0285
183.71	0.0424
183.9284	0.104
184.1467	-0.1888
184.3651	-0.1114
184.5835	0.0153
184.8018	0.1196
185.0201	0.082
185.2385	-0.0602
185.4568	0.2759
185.6751	0.0446
185.8934	0.0567
186.1117	0.0615
186.3299	0.1579
186.5482	-0.0288
186.7664	-0.0125
186.9847	-0.0336
187.2029	-0.0054
187.4211	0.1209
187.6393	0.0464
187.8575	0.002
188.0757	0.3516
188.2939	0.4049
188.512	0.4363
188.7302	-0.0784
188.9483	0.2018
189.1665	0.2042
189.3846	0.1564
189.6027	0.1673
189.8208	0.2065
190.0389	0.0915
190.257	0.0548
190.475	0.0965
190.6931	0.2774
190.9111	0.3854
191.1292	0.2042
191.3472	0.446
191.5652	0.3555
191.7832	0.3024
192.0012	0.8167
192.2192	0.2623
192.4371	0.501
192.6551	0.3147
192.873	0.5519
193.091	0.4448
193.3089	0.7186
193.5268	0.7574
193.7447	0.6342
193.9626	0.4924
194.1805	0.6553
194.3984	1.2026
194.6162	0.7849
194.8341	0.4952
195.0519	0.5019
195.2697	0.6634
195.4875	0.6713
195.7054	0.6644
195.9231	0.5751
196.1409	0.6255
196.3587	0.7524
196.5765	0.4696
196.7942	0.5794
197.012	0.6244
197.2297	0.6864
197.4474	0.6969
197.6651	0.5425
197.8828	0.5944
198.1005	0.6129
198.3182	0.6444
198.5358	0.6772
198.7535	0.626
198.9711	0.5021
199.1888	0.6449
199.4064	0.6568
199.624	0.6287
199.8416	0.5489
200.0592	0.6114
200.2767	0.7844
200.4943	0.5111
200.7119	0.735
200.9294	0.6703
201.1469	0.5674
201.3645	0.5922
201.582	0.6038
201.7995	0.5948
202.017	0.7572
202.2344	0.6213
202.4519	0.8131
202.6694	0.6319
202.8868	0.6378
203.1042	0.7202
203.3217	0.8442
203.5391	0.5841
203.7565	0.598
203.9739	0.7456
204.1913	0.5716
204.4086	0.664
204.626	0.6476
204.8433	0.6429
205.0607	0.5395
205.278	0.6821
205.4953	0.6575
205.7126	0.64
205.9299	0.7246
206.1472	0.6745
206.3644	0.5977
206.5817	0.7707
206.7989	0.6653
207.0162	0.7363
207.2334	0.6656
207.4506	0.6295
207.6678	0.6514
207.885	0.6556
208.1022	0.6776
208.3194	0.7152
208.5365	0.6657
208.7537	0.5695
208.9708	0.574
209.1879	0.7144
209.405	0.6511
209.6222	0.7206
209.8392	0.6031
210.0563	0.5904
210.2734	0.6506
210.4905	0.5768
210.7075	0.6433
210.9245	0.6059
211.1416	0.6944
211.3586	0.6205
211.5756	0.5554
211.7926	0.5691
212.0096	0.6305
212.2265	0.5413
212.4435	0.5648
212.6604	0.5756
212.8774	0.5658
213.0943	0.5756
213.3112	0.5034
213.5281	0.5165
213.745	0.5133
213.9619	0.5134
214.1788	0.4392
214.3956	0.4828
214.6125	0.4722
214.8293	0.4503
215.0461	0.4271
215.2629	0.4637
215.4798	0.4511
215.6965	0.4138
215.9133	0.4437
216.1301	0.4128
216.3469	0.4355
216.5636	0.4243
216.7803	0.3901
216.9971	0.4073
217.2138	0.4103
217.4305	0.3892
217.6472	0.3675
217.8639	0.3766
218.0805	0.3346
218.2972	0.3515
218.5138	0.3125
218.7305	0.3217
218.9471	0.3052
219.1637	0.2985
219.3803	0.281
219.5969	0.277
219.8135	0.2596
220.0301	0.2627
220.2466	0.2886
220.4632	0.2701
220.6797	0.2314
220.8962	0.269
221.1127	0.2782
221.3292	0.237
221.5457	0.2383
221.7622	0.2325
221.9787	0.2629
222.1951	0.2437
222.4116	0.2739
222.628	0.2574
222.8444	0.2573
223.0608	0.252
223.2772	0.2594
223.4936	0.2513
223.71	0.2475
223.9264	0.2621
224.1427	0.2491
224.3591	0.2416
224.5754	0.2712
224.7917	0.2669
225.008	0.2559
225.2243	0.2467
225.4406	0.2737
225.6569	0.2628
225.8732	0.2684
226.0894	0.262
226.3057	0.2595
226.5219	0.2863
226.7381	0.2514
226.9543	0.2824
227.1705	0.2882
227.3867	0.2801
227.6029	0.2948
227.8191	0.2943
228.0352	0.2827
228.2513	0.3118
228.4675	0.3053
228.6836	0.2934
228.8997	0.2851
229.1158	0.3258
229.3319	0.3243
229.548	0.3084
229.764	0.322
229.9801	0.312
230.1961	0.3378
230.4121	0.3489
230.6282	0.3359
230.8442	0.3247
231.0602	0.3603
231.2761	0.3473
231.4921	0.3379
231.7081	0.3529
231.924	0.3539
232.14	0.3706
232.3559	0.3315
232.5718	0.3608
232.7877	0.3523
233.0036	0.3457
233.2195	0.3389
233.4353	0.3625
233.6512	0.358
233.867	0.3546
234.0829	0.3571
234.2987	0.3557
234.5145	0.3752
234.7303	0.3721
234.9461	0.372
235.1619	0.3716
235.3776	0.364
235.5934	0.3666
235.8091	0.3653
236.0249	0.3941
236.2406	0.3887
236.4563	0.3794
236.672	0.3936
236.8877	0.4148
237.1034	0.4062
237.319	0.3806
237.5347	0.3983
237.7503	0.3944
237.966	0.4102
238.1816	0.4126
238.3972	0.429
238.6128	0.3977
238.8284	0.4163
239.0439	0.392
239.2595	0.3931
239.475	0.4064
239.6906	0.4128
239.9061	0.4078
240.1216	0.4027
240.3371	0.4128
240.5526	0.3979
240.7681	0.4053
240.9836	0.3656
241.199	0.397
241.4145	0.3832
241.6299	0.3924
241.8453	0.3681
242.0607	0.3788
242.2761	0.336
242.4915	0.3714
242.7069	0.3687
242.9223	0.3382
243.1376	0.3393
243.353	0.329
243.5683	0.3332
243.7836	0.317
243.9989	0.3149
244.2142	0.2859
244.4295	0.3149
244.6448	0.3037
244.86	0.2821
245.0753	0.283
245.2905	0.285
245.5057	0.263
245.721	0.2641
245.9362	0.2439
246.1514	0.2666
246.3665	0.2476
246.5817	0.2597
246.7969	0.2493
247.012	0.2261
247.2271	0.2258
247.4423	0.237
247.6574	0.2203
247.8725	0.2143
248.0876	0.2155
248.3026	0.2134
248.5177	0.2132
248.7328	0.2142
248.9478	0.2072
249.1628	0.2013
249.3779	0.2031
249.5929	0.1951
249.8079	0.2047
250.0228	0.1952
250.2378	0.1869
250.4528	0.1917
250.6677	0.1834
250.8827	0.1827
251.0976	0.1857
251.3125	0.1818
251.5274	0.1665
251.7423	0.1734
251.9572	0.1739
252.172	0.1804
252.3869	0.1712
252.6017	0.1698
252.8166	0.1648
253.0314	0.1668
253.2462	0.171
253.461	0.1702
253.6758	0.1624
253.8906	0.1718
254.1053	0.1629
254.3201	0.1644
254.5348	0.1724
254.7496	0.1826
254.9643	0.1696
255.179	0.1723
255.3937	0.1699
255.6083	0.1807
255.823	0.1713
256.0377	0.1531
256.2523	0.1492
256.467	0.15
256.6816	0.169
256.8962	0.1609
257.1108	0.1494
257.3254	0.1682
257.54	0.1498
257.7545	0.1564
257.9691	0.165
258.1836	0.1582
258.3981	0.1658
258.6127	0.1679
258.8272	0.1589
259.0417	0.1542
259.2561	0.1618
259.4706	0.1442
259.6851	0.1699
259.8995	0.1582
260.114	0.1603
260.3284	0.1594
260.5428	0.1435
260.7572	0.1599
260.9716	0.173
261.186	0.1641
261.4003	0.1575
261.6147	0.163
261.829	0.162
262.0433	0.16
262.2577	0.1478
262.472	0.1692
262.6863	0.1552
262.9005	0.1613
263.1148	0.1573
263.3291	0.1408
263.5433	0.1475
263.7576	0.1686
263.9718	0.1524
264.186	0.1508
264.4002	0.1463
264.6144	0.149
264.8286	0.1651
265.0427	0.1443
265.2569	0.1468
265.471	0.145
265.6851	0.1554
265.8993	0.1534
266.1134	0.1485
266.3275	0.153
266.5415	0.1437
266.7556	0.1671
266.9697	0.1541
267.1837	0.1593
267.3978	0.1573
267.6118	0.1584
267.8258	0.1653
268.0398	0.162
268.2538	0.1629
268.4677	0.1543
268.6817	0.1417
268.8957	0.1661
269.1096	0.1549
269.3235	0.1575
269.5374	0.1532
269.7514	0.1413
269.9652	0.144
270.1791	0.1494
270.393	0.1399
270.6068	0.1455
270.8207	0.1338
271.0345	0.1401
271.2483	0.1376
271.4622	0.1424
271.676	0.1379
271.8897	0.1366
272.1035	0.1323
272.3173	0.1379
272.531	0.1416
272.7448	0.1401
272.9585	0.1305
273.1722	0.1422
273.3859	0.1492
273.5996	0.1301
273.8133	0.1352
274.0269	0.1285
274.2406	0.1215
274.4542	0.1316
274.6679	0.118
274.8815	0.1375
275.0951	0.1385
275.3087	0.1426
275.5223	0.1369
275.7358	0.1358
275.9494	0.1301
276.1629	0.1274
276.3765	0.1312
276.59	0.1439
276.8035	0.1348
277.017	0.1348
277.2305	0.1321
277.444	0.1354
277.6574	0.1225
277.8709	0.1357
278.0843	0.1241
278.2978	0.1406
278.5112	0.1343
278.7246	0.1308
278.938	0.1234
279.1513	0.1369
279.3647	0.1393
279.5781	0.1318
279.7914	0.141
280.0047	0.145
280.2181	0.1378
280.4314	0.1479
280.6447	0.1326
280.8579	0.1444
281.0712	0.1432
281.2845	0.1514
281.4977	0.1318
281.711	0.1278
281.9242	0.1324
282.1374	0.1428
282.3506	0.1351
282.5638	0.1494
282.7769	0.1421
282.9901	0.1484
283.2033	0.1555
283.4164	0.1527
283.6295	0.1402
283.8426	0.1484
284.0557	0.1443
284.2688	0.1543
284.4819	0.1627
284.695	0.1518
284.908	0.1549
285.1211	0.1541
285.3341	0.1531
285.5471	0.1625
285.7601	0.143
285.9731	0.1491
286.1861	0.1446
286.3991	0.1637
286.612	0.1629
286.825	0.1506
287.0379	0.1636
287.2508	0.152
287.4637	0.1615
287.6766	0.1488
287.8895	0.1491
288.1024	0.1785
288.3152	0.1668
288.5281	0.1479
288.7409	0.1575
288.9538	0.1547
289.1666	0.1629
289.3794	0.1581
289.5922	0.1648
289.8049	0.1665
290.0177	0.155
290.2304	0.1716
290.4432	0.1683
290.6559	0.1571
290.8686	0.1765
291.0813	0.1625
291.294	0.1553
291.5067	0.1859
291.7194	0.1617
291.932	0.176
292.1447	0.168
292.3573	0.159
292.5699	0.1662
292.7825	0.1665
292.9951	0.1601
293.2077	0.1633
293.4203	0.1671
293.6328	0.1597
293.8454	0.1724
294.0579	0.1736
294.2704	0.1746
294.4829	0.1595
294.6954	0.1799
294.9079	0.1693
295.1204	0.1658
295.3328	0.1662
295.5453	0.1799
295.7577	0.1756
295.9701	0.159
296.1825	0.1664
296.3949	0.1654
296.6073	0.1771
296.8197	0.1636
297.0321	0.1739
297.2444	0.1539
297.4567	0.1616
297.6691	0.1656
297.8814	0.1595
298.0937	0.166
298.306	0.1689
298.5182	0.164
298.7305	0.1614
298.9428	0.1688
299.155	0.1693
299.3672	0.1584
299.5794	0.1557
299.7916	0.1649
300.0038	0.174
300.216	0.166
300.4282	0.171
300.6403	0.1598
300.8525	0.1743
301.0646	0.1597
301.2767	0.1793
301.4888	0.1715
301.7009	0.1685
301.913	0.1649
302.125	0.1592
302.3371	0.1669
302.5491	0.164
302.7612	0.1726
302.9732	0.1777
303.1852	0.1652
303.3972	0.1586
303.6092	0.1622
303.8211	0.1654
304.0331	0.1483
304.245	0.1579
304.457	0.1611
304.6689	0.1543
304.8808	0.1687
305.0927	0.1489
305.3046	0.1513
305.5164	0.1671
305.7283	0.1404
305.9401	0.1424
306.152	0.1545
306.3638	0.1606
306.5756	0.1417
306.7874	0.1539
306.9992	0.1478
307.2109	0.1364
307.4227	0.1336
307.6344	0.1426
307.8462	0.1397
308.0579	0.1427
308.2696	0.1377
308.4813	0.1262
308.693	0.1315
308.9046	0.1294
309.1163	0.1118
309.328	0.1275
309.5396	0.123
309.7512	0.1198
309.9628	0.1219
310.1744	0.1252
310.386	0.1176
310.5976	0.1157
310.8091	0.1191
311.0207	0.1141
311.2322	0.1178
311.4437	0.105
311.6552	0.104
311.8667	0.1194
312.0782	0.1001
312.2897	0.0952
312.5012	0.1034
312.7126	0.0986
312.924	0.0921
313.1355	0.1121
313.3469	0.1019
313.5583	0.1009
313.7696	0.0962
313.981	0.1062
314.1924	0.0874
314.4037	0.0962
314.6151	0.1061
314.8264	0.0904
315.0377	0.1007
315.249	0.102
315.4603	0.1067
315.6716	0.1039
315.8828	0.0907
316.0941	0.0892
316.3053	0.0888
316.5165	0.0825
316.7277	0.0866
316.9389	0.0995
317.1501	0.0892
317.3613	0.0932
317.5724	0.0801
317.7836	0.0824
317.9947	0.0797
318.2058	0.0947
318.417	0.0868
318.6281	0.0817
318.8391	0.0867
319.0502	0.0806
319.2613	0.0859
319.4723	0.0962
319.6834	0.0961
319.8944	0.0907
320.1054	0.0971
320.3164	0.0897
320.5274	0.0974
320.7383	0.0925
320.9493	0.0881
321.1602	0.0991
321.3712	0.0847
321.5821	0.095
321.793	0.0931
322.0039	0.0822
322.2148	0.0864
322.4257	0.0932
322.6365	0.1006
322.8474	0.0941
323.0582	0.0874
323.269	0.1015
323.4798	0.0832
323.6906	0.0944
323.9014	0.0934
324.1122	0.1028
324.3229	0.0897
324.5337	0.088
324.7444	0.0821
324.9551	0.105
325.1658	0.1027
325.3765	0.0936
325.5872	0.0938
325.7979	0.0896
326.0085	0.0944
326.2192	0.1015
326.4298	0.0972
326.6404	0.091
326.851	0.0799
327.0616	0.084
327.2722	0.0939
327.4828	0.0991
327.6933	0.0896
327.9039	0.096
328.1144	0.1069
328.3249	0.1017
328.5354	0.0969
328.7459	0.0868
328.9564	0.0808
329.1669	0.0958
329.3773	0.1023
329.5878	0.0967
329.7982	0.0902
330.0086	0.0877
330.219	0.0948
330.4294	0.0955
330.6398	0.0877
330.8502	0.0859
331.0605	0.1034
331.2708	0.0946
331.4812	0.1028
331.6915	0.1012
331.9018	0.1044
332.1121	0.1019
332.3224	0.1057
332.5326	0.0977
332.7429	0.1077
332.9531	0.1101
333.1633	0.1026
333.3735	0.0973
333.5837	0.0952
333.7939	0.0887
334.0041	0.1093
334.2143	0.113
334.4244	0.0994
334.6346	0.0874
334.8447	0.1071
335.0548	0.0893
335.2649	0.0857
335.475	0.1077
335.685	0.0999
335.8951	0.1048
336.1051	0.1038
336.3152	0.1063
336.5252	0.0863
336.7352	0.1033
336.9452	0.1015
337.1552	0.1164
337.3652	0.0977
337.5751	0.0948
337.7851	0.0989
337.995	0.0885
338.2049	0.1046
338.4148	0.1072
338.6247	0.1091
338.8346	0.0953
339.0445	0.1004
339.2543	0.1
339.4642	0.1035
339.674	0.0975
339.8838	0.1074
340.0936	0.0998
340.3034	0.1035
340.5132	0.1133
340.7229	0.1075
340.9327	0.0964
341.1424	0.0964
341.3522	0.1145
341.5619	0.1036
341.7716	0.1141
341.9813	0.1097
342.1909	0.0972
342.4006	0.1116
342.6102	0.1166
342.8199	0.117
343.0295	0.1149
343.2391	0.1112
343.4487	0.1213
343.6583	0.1056
343.8679	0.1124
344.0774	0.1132
344.287	0.1197
344.4965	0.1082
344.706	0.1215
344.9155	0.1201
345.125	0.1067
345.3345	0.125
345.544	0.1141
345.7534	0.1175
345.9629	0.1168
346.1723	0.1233
346.3817	0.1223
346.5911	0.1185
346.8005	0.116
347.0099	0.1168
347.2193	0.1341
347.4286	0.1122
347.638	0.1307
347.8473	0.1242
348.0566	0.1342
348.2659	0.1326
348.4752	0.1239
348.6845	0.1241
348.8937	0.1249
349.103	0.1358
349.3122	0.1099
349.5214	0.1349
349.7306	0.1371
349.9398	0.1242
350.149	0.1307
350.3582	0.134
350.5674	0.1396
350.7765	0.1266
350.9856	0.1233
351.1948	0.1375
351.4039	0.1237
351.613	0.138
351.822	0.1413
352.0311	0.1359
352.2402	0.1327
352.4492	0.1476
352.6582	0.1375
352.8672	0.1351
353.0762	0.1459
353.2852	0.1487
353.4942	0.1219
353.7032	0.1429
353.9121	0.1393
354.1211	0.1453
354.33	0.1405
354.5389	0.1529
354.7478	0.1404
354.9567	0.1405
355.1655	0.1317
355.3744	0.1542
355.5833	0.153
355.7921	0.1656
356.0009	0.1444
356.2097	0.1654
356.4185	0.1688
356.6273	0.1541
356.8361	0.1709
357.0448	0.1501
357.2536	0.1476
357.4623	0.1515
357.671	0.1688
357.8797	0.1564
358.0884	0.1645
358.2971	0.1667
358.5057	0.1637
358.7144	0.1688
358.923	0.1764
359.1316	0.1569
359.3402	0.1726
359.5488	0.1647
359.7574	0.1617
359.966	0.1775
360.1746	0.1736
360.3831	0.1673
360.5916	0.1704
360.8002	0.154
361.0087	0.1713
361.2172	0.176
361.4256	0.1722
361.6341	0.1875
361.8426	0.1928
362.051	0.1826
362.2594	0.1768
362.4678	0.1906
362.6762	0.1895
362.8846	0.1813
363.093	0.1754
363.3014	0.1883
363.5097	0.1694
363.718	0.1874
363.9264	0.1986
364.1347	0.1798
364.343	0.1872
364.5513	0.2011
364.7595	0.2021
364.9678	0.2039
365.176	0.2114
365.3842	0.203
365.5925	0.2019
365.8007	0.1999
366.0089	0.2019
366.217	0.1855
366.4252	0.2174
366.6333	0.2129
366.8415	0.2089
367.0496	0.1835
367.2577	0.221
367.4658	0.2238
367.6739	0.2209
367.882	0.2113
368.09	0.2143
368.2981	0.2151
368.5061	0.1996
368.7141	0.2144
368.9221	0.2257
369.1301	0.2241
369.3381	0.2126
369.5461	0.2146
369.754	0.2187
369.962	0.2196
370.1699	0.2258
370.3778	0.2406
370.5857	0.2093
370.7936	0.2301
371.0015	0.2331
371.2093	0.239
371.4172	0.2358
371.625	0.2211
371.8328	0.2206
372.0406	0.2324
372.2484	0.2239
372.4562	0.232
372.664	0.2423
372.8717	0.236
373.0795	0.2089
373.2872	0.2166
373.4949	0.2362
373.7026	0.226
373.9103	0.2379
374.118	0.2504
374.3256	0.2497
374.5333	0.221
374.7409	0.2394
374.9485	0.2428
375.1561	0.2597
375.3637	0.2447
375.5713	0.2443
375.7789	0.2341
375.9864	0.2278
376.194	0.2427
376.4015	0.2561
376.609	0.2606
376.8165	0.2364
377.024	0.2473
377.2315	0.2425
377.4389	0.2505
377.6464	0.2768
377.8538	0.2599
378.0612	0.2285
378.2686	0.249
378.476	0.2646
378.6834	0.2617
378.8908	0.2613
379.0981	0.2586
379.3055	0.2473
379.5128	0.2689
379.7201	0.2653
379.9274	0.2541
380.1347	0.2661
380.342	0.2794
380.5492	0.2449
380.7565	0.2637
380.9637	0.284
381.1709	0.2831
381.3781	0.2598
381.5853	0.2861
381.7925	0.267
381.9997	0.2793
382.2068	0.2812
382.4139	0.2659
382.6211	0.2668
382.8282	0.279
383.0353	0.2619
383.2424	0.2669
383.4494	0.2865
383.6565	0.2614
383.8635	0.2708
384.0706	0.2777
384.2776	0.2764
384.4846	0.2598
384.6916	0.2594
384.8986	0.2708
385.1055	0.2629
385.3125	0.2663
385.5194	0.2405
385.7263	0.2869
385.9333	0.2821
386.1402	0.2521
386.347	0.2756
386.5539	0.2494
386.7608	0.2848
386.9676	0.2622
387.1744	0.2732
387.3813	0.2632
387.5881	0.2797
387.7948	0.2768
388.0016	0.2899
388.2084	0.2797
388.4151	0.2666
388.6219	0.2814
388.8286	0.27
389.0353	0.2827
389.242	0.2879
389.4487	0.2591
389.6553	0.2657
389.862	0.2349
390.0686	0.2566
390.2753	0.2703
390.4819	0.2794
390.6885	0.2608
390.8951	0.2661
391.1016	0.2559
391.3082	0.2517
391.5147	0.2602
391.7213	0.2532
391.9278	0.2475
392.1343	0.2554
392.3408	0.257
392.5473	0.2499
392.7537	0.2406
392.9602	0.2449
393.1666	0.266
393.373	0.2607
393.5794	0.2392
393.7858	0.2598
393.9922	0.2181
394.1986	0.234
394.4049	0.2468
394.6113	0.2275
394.8176	0.2299
395.0239	0.2281
395.2302	0.2225
395.4365	0.232
395.6428	0.232
395.8491	0.2265
396.0553	0.2395
396.2615	0.2488
396.4678	0.2435
396.674	0.2135
396.8802	0.237
397.0863	0.2431
397.2925	0.2174
397.4987	0.2159
397.7048	0.2213
397.9109	0.2292
398.117	0.2231
398.3231	0.2231
398.5292	0.2414
398.7353	0.2425
398.9413	0.2352
399.1474	0.2233
399.3534	0.2195
399.5594	0.2382
399.7654	0.2341
399.9714	0.2382
400.1774	0.2388
400.3833	0.2256
400.5893	0.2295
400.7952	0.2325
401.0011	0.2267
401.207	0.2338
401.4129	0.2252
401.6188	0.2444
401.8247	0.2299
402.0305	0.2175
402.2364	0.2251
402.4422	0.2498
402.648	0.237
402.8538	0.2392
403.0596	0.2374
403.2654	0.2347
403.4711	0.2237
403.6768	0.237
403.8826	0.2431
404.0883	0.2297
404.294	0.2296
404.4997	0.2271
404.7054	0.2362
404.911	0.2408
405.1167	0.234
405.3223	0.2623
405.5279	0.2326
405.7335	0.2525
405.9391	0.2354
406.1447	0.2303
406.3502	0.2479
406.5558	0.2255
406.7613	0.2489
406.9668	0.2321
407.1724	0.2177
407.3778	0.2261
407.5833	0.2368
407.7888	0.2215
407.9942	0.2403
408.1997	0.2323
408.4051	0.2238
408.6105	0.2544
408.8159	0.2216
409.0213	0.2181
409.2267	0.2361
409.432	0.2167
409.6374	0.2311
409.8427	0.2117
410.048	0.2244
410.2533	0.2158
410.4586	0.2382
410.6639	0.2275
410.8691	0.2159
411.0744	0.2221
411.2796	0.2123
411.4848	0.2183
411.69	0.2239
411.8952	0.2461
412.1004	0.2099
412.3056	0.2336
412.5107	0.2122
412.7158	0.2361
412.921	0.2334
413.1261	0.2243
413.3312	0.2395
413.5362	0.2214
413.7413	0.2391
413.9464	0.2251
414.1514	0.2334
414.3564	0.2219
414.5614	0.2114
414.7664	0.2172
414.9714	0.2259
415.1764	0.2311
415.3813	0.2256
415.5863	0.2315
415.7912	0.2293
415.9961	0.2358
416.201	0.2207
416.4059	0.2307
416.6108	0.21
416.8156	0.2309
417.0205	0.2198
417.2253	0.2044
417.4301	0.2199
417.6349	0.2241
417.8397	0.2221
418.0445	0.2265
418.2492	0.2317
418.454	0.2199
418.6587	0.2235
418.8634	0.2169
419.0681	0.2063
419.2728	0.2138
419.4775	0.2044
419.6822	0.2006
419.8868	0.1878
420.0915	0.2078
420.2961	0.2046
420.5007	0.216
420.7053	0.2218
420.9099	0.23
421.1144	0.2126
421.319	0.193
421.5235	0.2222
421.728	0.1985
421.9325	0.2024
422.137	0.209
422.3415	0.2003
422.546	0.1866
422.7504	0.206
422.9549	0.2048
423.1593	0.2236
423.3637	0.2125
423.5681	0.2172
423.7725	0.1962
423.9769	0.2003
424.1812	0.1974
424.3856	0.1909
424.5899	0.2103
424.7942	0.2074
424.9985	0.2015
425.2028	0.1808
425.4071	0.2102
425.6113	0.1876
425.8156	0.1926
426.0198	0.1983
426.224	0.1679
426.4282	0.1812
426.6324	0.1875
426.8366	0.1845
427.0407	0.1719
427.2449	0.1817
427.449	0.1746
427.6531	0.1713
427.8572	0.1681
428.0613	0.18
428.2654	0.179
428.4694	0.1736
428.6735	0.1673
428.8775	0.1891
429.0815	0.1707
429.2855	0.1638
429.4895	0.1757
429.6935	0.1627
429.8975	0.1814
430.1014	0.1566
430.3053	0.1672
430.5093	0.1612
430.7132	0.1627
430.9171	0.1676
431.1209	0.1623
431.3248	0.1557
431.5286	0.1511
431.7325	0.1618
431.9363	0.1494
432.1401	0.1552
432.3439	0.1419
432.5477	0.1226
432.7514	0.1404
432.9552	0.1352
433.1589	0.1325
433.3627	0.1269
433.5664	0.1411
433.7701	0.1307
433.9737	0.1252
434.1774	0.1221
434.3811	0.121
434.5847	0.1322
434.7883	0.1318
434.9919	0.1223
435.1955	0.1193
435.3991	0.1117
435.6027	0.1162
435.8062	0.1057
436.0098	0.1328
436.2133	0.1039
436.4168	0.1248
436.6203	0.0888
436.8238	0.1077
437.0272	0.1024
437.2307	0.0997
437.4341	0.0963
437.6375	0.1192
437.841	0.0902
438.0443	0.0895
438.2477	0.1047
438.4511	0.0992
438.6545	0.1036
438.8578	0.1135
439.0611	0.0791
439.2644	0.1007
439.4677	0.0656
439.671	0.0749
439.8743	0.0917
440.0775	0.1054
440.2808	0.0849
440.484	0.0782
440.6872	0.0649
440.8904	0.0789
441.0936	0.0892
441.2967	0.0723
441.4999	0.09
441.703	0.0787
441.9062	0.0596
442.1093	0.0783
442.3124	0.0823
442.5155	0.0635
442.7185	0.0612
442.9216	0.0385
443.1246	0.066
443.3276	0.0703
443.5307	0.0663
443.7337	0.0559
443.9366	0.0661
444.1396	0.0579
444.3426	0.0541
444.5455	0.0564
444.7484	0.0534
444.9513	0.0445
445.1542	0.0737
445.3571	0.0537
445.56	0.0411
445.7628	0.0425
445.9657	0.0632
446.1685	0.0666
446.3713	0.0531
446.5741	0.0371
446.7769	0.042
446.9797	0.0298
447.1824	0.0452
447.3852	0.0413
447.5879	0.0512
447.7906	0.0512
447.9933	0.0353
448.196	0.0238
448.3986	0.0386
448.6013	0.0371
448.8039	0.0196
449.0066	0.0281
449.2092	0.0307
449.4118	0.0318
449.6143	0.0386
449.8169	0.026
450.0195	0.0295
450.222	0.0109
450.4245	0.0124
450.627	0.0313
450.8295	0.0353
451.032	0.0381
451.2345	0.0306
451.4369	0.0273
451.6394	0.021
451.8418	0.0161
452.0442	0.0162
452.2466	0.0316
452.449	0.0082
452.6513	0.0209
452.8537	0.0135
453.056	0.0091
453.2583	0.0242
453.4607	0.0069
453.663	0.0128
453.8652	0.0386
454.0675	-0.0075
454.2697	0.013
454.472	-0.006
454.6742	0.0061
454.8764	0.004
455.0786	0.0214
455.2808	0.0307
455.4829	0.0189
455.6851	0.0082
455.8872	0.0293
456.0893	0.0168
456.2915	0.0073
456.4935	0.009
456.6956	0.007
456.8977	0.0082
457.0997	-0.0011
457.3018	-0.0105
457.5038	0.0221
457.7058	0.0137
457.9078	-0.0029
458.1098	0.0019
458.3117	0.0086
458.5137	0.0125
458.7156	0.0189
458.9175	-0.007
459.1194	0.0081
459.3213	0.0057
459.5232	-0.005
459.725	-0.0056
459.9269	0.0005
460.1287	-0.009
460.3305	0.0149
460.5323	0.0125
460.7341	0.0086
460.9359	0.0053
461.1376	0.0064
461.3394	-0.0065
461.5411	0.0104
461.7428	0.0061
461.9445	0.0121
462.1462	0.0025
462.3479	0.002
462.5495	-0.0128
462.7512	0.0113
462.9528	-0.0095
463.1544	-0.0074
463.356	0.0021
463.5576	0.015
463.7592	-0.0004
463.9607	0.0088
464.1623	0.0089
464.3638	0.032
464.5653	-0.0135
464.7668	-0.0021
464.9683	-0.0019
465.1697	0.0072
465.3712	-0.0091
465.5726	-0.0062
465.7741	0.0083
465.9755	-0.0064
466.1769	-0.0006
466.3782	-0.0048
466.5796	-0.0121
466.7809	0.0125
466.9823	0.0013
467.1836	0.007
467.3849	-0.0084
467.5862	0.0024
467.7875	-0.0061
467.9887	0.0043
468.19	-0.0078
468.3912	-0.0046
468.5924	-0.0065
468.7936	0.0007
468.9948	0.004
469.196	0.0077
469.3972	-0.0043
469.5983	0.0013
469.7994	-0.0193
470.0006	-0.0083
470.2017	-0.0013
470.4027	-0.0132
470.6038	0.0006
470.8049	-0.0165
471.0059	-0.0092
471.2069	-0.02
471.408	0.0091
471.6089	0.0009
471.8099	-0.0004
472.0109	0.0123
472.2119	-0.0034
472.4128	-0.0145
472.6137	-0.0003
472.8146	-0.0292
473.0155	-0.0048
473.2164	0.0032
473.4173	0.0008
473.6181	0.0071
473.819	0.0002
474.0198	-0.0105
474.2206	-0.004
474.4214	-0.0033
474.6222	-0.0009
474.8229	-0.0146
475.0237	-0.0084
475.2244	-0.0131
475.4251	-0.0051
475.6258	-0.004
475.8265	-0.0045
476.0272	0.0015
476.2278	-0.0035
476.4285	-0.0126
476.6291	-0.0038
476.8297	-0.0096
477.0303	-0.0142
477.2309	0.0003
477.4315	-0.0223
477.632	-0.002
477.8326	-0.0089
478.0331	-0.0062
478.2336	0.0013
478.4341	-0.0066
478.6346	-0.0119
478.8351	-0.0017
479.0355	-0.0044
479.236	-0.0164
479.4364	0.0129
479.6368	-0.0036
479.8372	-0.0133
480.0376	0.0025
480.2379	-0.0121
480.4383	-0.0118
480.6386	0.006
480.8389	0.0048
481.0392	-0.0066
481.2395	-0.014
481.4398	0.0054
481.6401	-0.0018
481.8403	-0.0081
482.0405	-0.0165
482.2408	0.001
482.441	0.0095
482.6411	-0.0008
482.8413	-0.0031
483.0415	-0.0048
483.2416	-0.0198
483.4417	-0.0034
483.6419	-0.011
483.8419	0.0043
484.042	0.0121
484.2421	0.0003
484.4422	0.0071
484.6422	0.0008
484.8422	-0.0038
485.0422	-0.0066
485.2422	0.0022
485.4422	-0.0068
485.6422	-0.0146
485.8421	-0.0098
486.042	-0.0109
486.242	-0.0035
486.4419	-0.0161
486.6417	-0.0146
486.8416	-0.0108
487.0415	-0.0064
487.2413	-0.0036
487.4411	-0.0005
487.641	-0.0136
487.8408	0.0032
488.0405	-0.0053
488.2403	-0.0006
488.4401	0.0047
488.6398	-0.008
488.8395	-0.0013
489.0392	-0.0052
489.2389	-0.0126
489.4386	-0.0076
489.6383	-0.0012
489.8379	-0.0006
490.0376	-0.0066
490.2372	-0.0099
490.4368	-0.0124
490.6364	-0.0168
490.836	-0.0089
491.0355	0.0008
491.2351	-0.0082
491.4346	-0.0071
491.6341	-0.017
491.8336	-0.0058
492.0331	-0.0195
492.2326	-0.0087
492.432	0.0054
492.6315	-0.0114
492.8309	-0.0216
493.0303	-0.0069
493.2297	-0.0215
493.4291	-0.0105
493.6284	-0.0124
493.8278	-0.0043
494.0271	-0.0001
494.2264	-0.0021
494.4257	-0.0134
494.625	0.0023
494.8243	-0.0151
495.0236	-0.0097
495.2228	-0.007
495.422	-0.0027
495.6213	-0.0057
495.8205	-0.0059
496.0196	-0.0091
496.2188	0.0027
496.418	-0.0076
496.6171	-0.0063
496.8162	-0.0169
497.0153	0.0047
497.2144	-0.004
497.4135	-0.0051
497.6126	-0.0105
497.8116	-0.0067
498.0107	-0.0019
498.2097	-0.0081
498.4087	-0.0074
498.6077	-0.0039
498.8067	-0.0044
499.0056	-0.0116
499.2046	-0.0124
499.4035	-0.0153
499.6024	-0.0064
499.8013	-0.0072
500.0002	-0.0155
500.199	-0.0041
500.3979	-0.011
500.5967	-0.02
500.7956	-0.0049
500.9944	-0.0032
501.1932	-0.0052
501.3919	-0.0005
501.5907	-0.0104
501.7895	-0.0107
501.9882	-0.0125
502.1869	-0.0135
502.3856	-0.009
502.5843	-0.0132
502.783	-0.0044
502.9816	0.0005
503.1803	-0.0094
503.3789	-0.0097
503.5775	0.0012
503.7761	-0.0129
503.9747	-0.0063
504.1732	-0.0096
504.3718	-0.0084
504.5703	-0.0073
504.7689	-0.0172
504.9674	-0.0046
505.1658	-0.0234
505.3643	-0.0065
505.5628	-0.0074
505.7612	-0.0067
505.9597	0.0001
506.1581	-0.0049
506.3565	-0.0043
506.5549	-0.0106
506.7532	-0.0172
506.9516	-0.0097
507.1499	0.0004
507.3482	-0.0151
507.5465	-0.0046
507.7448	0.0013
507.9431	-0.0106
508.1414	-0.0081
508.3396	0
508.5379	-0.0063
508.7361	-0.0051
508.9343	-0.0078
509.1325	0.0074
509.3306	-0.0092
509.5288	-0.001
509.7269	-0.0151
509.9251	-0.0012
510.1232	-0.0115
510.3213	-0.0021
510.5193	0.0019
510.7174	-0.0079
510.9154	-0.0096
511.1135	-0.006
511.3115	-0.0052
511.5095	-0.0041
511.7075	-0.009
511.9055	-0.0044
512.1034	-0.0063
512.3014	0.0009
512.4993	0.0031
512.6972	-0.0245
512.8951	-0.0212
513.093	0.0016
513.2908	-0.0065
513.4887	-0.0074
513.6865	-0.0059
513.8844	-0.016
514.0822	-0.0097
514.2799	-0.0154
514.4777	-0.0026
514.6755	-0.0044
514.8732	0.0009
515.0709	-0.0055
515.2687	-0.0075
515.4664	0.005
515.664	-0.01
515.8617	-0.0073
516.0594	-0.0143
516.257	0.0008
516.4546	-0.0141
516.6522	0.003
516.8498	-0.013
517.0474	0.0032
517.2449	-0.0027
517.4425	-0.0163
517.64	-0.0102
517.8375	0.0023
518.035	-0.0064
518.2325	-0.0104
518.43	-0.0068
518.6274	-0.0134
518.8249	-0.0146
519.0223	-0.0014
519.2197	-0.0102
519.4171	-0.0063
519.6145	-0.0106
519.8118	0.0039
520.0092	-0.0135
520.2065	-0.023
520.4038	-0.0158
520.6011	-0.0003
520.7984	-0.0164
520.9956	-0.0158
521.1929	-0.0083
521.3901	-0.0028
521.5874	-0.0044
521.7846	-0.005
521.9818	-0.0095
522.1789	-0.0166
522.3761	-0.0002
522.5732	-0.004
522.7704	-0.0048
522.9675	0.0029
523.1646	-0.007
523.3617	-0.0052
523.5587	-0.004
523.7558	-0.0079
523.9528	-0.0088
524.1498	0.0038
524.3468	-0.008
524.5438	-0.008
524.7408	-0.006
524.9378	0.0083
525.1347	0.0038
525.3316	0.0105
525.5285	-0.0138
525.7254	-0.0199
525.9223	0.0011
526.1192	-0.0094
526.316	-0.0156
526.5129	0.0035
526.7097	0.002
526.9065	-0.0096
527.1033	-0.0113
527.3	0.0009
527.4968	-0.0031
527.6935	0.0039
527.8903	-0.0065
528.087	0.0019
528.2837	0.0017
528.4804	-0.0075
528.677	-0.0052
528.8737	0.0051
529.0703	0.0009
529.2669	-0.0072
529.4635	-0.0076
529.6601	0.0018
529.8567	-0.0132
530.0532	-0.009
530.2498	0.0058
530.4463	0.0079
530.6428	-0.0116
530.8393	0.0085
531.0358	-0.0151
531.2322	0.0047
531.4287	-0.008
531.6251	-0.0048
531.8215	0.0031
532.0179	-0.0069
532.2143	0.0053
532.4107	-0.0013
532.607	-0.0015
532.8034	-0.0006
532.9997	-0.0076
533.196	-0.0051
533.3923	-0.0078
533.5886	-0.0049
533.7848	-0.0034
533.9811	-0.0036
534.1773	-0.0048
534.3735	-0.0024
534.5697	-0.0008
534.7659	-0.0096
534.9621	0.0026
535.1582	-0.0172
535.3544	-0.0051
535.5505	-0.0089
535.7466	-0.0051
535.9427	-0.0048
536.1387	-0.0118
536.3348	-0.0049
536.5308	0.001
536.7269	-0.0149
536.9229	0.0003
537.1189	-0.0058
537.3148	0.0005
537.5108	-0.0099
537.7068	-0.0007
537.9027	0.0008
538.0986	-0.0062
538.2945	-0.0189
538.4904	-0.0105
538.6863	-0.0026
538.8821	-0.0066
539.078	-0.011
539.2738	-0.0072
539.4696	-0.0071
539.6654	0.0042
539.8611	0.0098
540.0569	-0.0049
540.2526	-0.0105
540.4484	-0.0029
540.6441	-0.001
540.8398	-0.0071
541.0355	0.003
541.2311	-0.0045
541.4268	-0.0104
541.6224	-0.0009
541.818	-0.0023
542.0136	-0.0115
542.2092	-0.0018
542.4048	0.0036
542.6003	-0.003
542.7959	-0.0081
542.9914	-0.0104
543.1869	-0.0073
543.3824	-0.0109
543.5779	-0.0141
543.7734	-0.0077
543.9688	-0.0104
544.1642	-0.0048
544.3596	-0.0087
544.555	-0.005
544.7504	-0.0036
544.9458	-0.0078
545.1411	-0.0104
545.3365	-0.0092
545.5318	-0.0028
545.7271	-0.0043
545.9224	-0.0081
546.1177	-0.0096
546.3129	0.0014
546.5081	0.0003
546.7034	-0.0025
546.8986	-0.0046
547.0938	-0.0148
547.289	-0.0033
547.4841	0.0004
547.6793	0.0031
547.8744	-0.0065
548.0695	-0.0097
548.2646	-0.011
548.4597	0.003
548.6548	-0.0006
548.8498	-0.0078
549.0448	0.0062
549.2399	-0.0025
549.4349	0.0093
549.6298	-0.0037
549.8248	-0.0045
550.0198	-0.0085
550.2147	0.0016
550.4096	-0.0128
550.6045	-0.0028
550.7994	0.0016
550.9943	0.0042
551.1892	0.0027
551.384	-0.0047
551.5788	-0.0143
551.7737	0.005
551.9685	-0.004
552.1632	-0.0019
552.358	-0.0076
552.5528	0.0052
552.7475	-0.0041
552.9422	-0.0011
553.1369	-0.0046
553.3316	0.0027
553.5263	-0.0116
553.7209	0.0064
553.9156	-0.0076
554.1102	-0.0055
554.3048	-0.0029
554.4994	0.0017
554.694	0.0028
554.8885	0.0012
555.0831	-0.0144
555.2776	-0.0112
555.4721	-0.0116
555.6666	-0.0037
555.8611	0.0025
556.0555	-0.0098
556.25	0.0019
556.4444	-0.0095
556.6388	-0.0051
556.8332	-0.0014
557.0276	-0.0052
557.222	-0.005
557.4163	-0.0055
557.6107	-0.0115
557.805	-0.0025
557.9993	-0.0074
558.1936	0.0014
558.3879	-0.002
558.5821	-0.0022
558.7764	-0.0044
558.9706	-0.008
559.1648	0.0064
559.359	-0.0033
559.5532	-0.0065
559.7473	-0.0042
559.9415	0.0035
560.1356	-0.0008
560.3297	-0.009
560.5238	-0.0071
560.7179	-0.0118
560.9119	-0.0028
561.106	-0.0154
561.3	-0.0161
561.494	-0.0022
561.688	-0.0086
561.882	-0.0173
562.076	-0.0102
562.2699	-0.001
562.4639	-0.0048
562.6578	-0.0051
562.8517	-0.0028
563.0456	-0.005
563.2395	-0.0003
563.4333	-0.0101
563.6272	-0.0003
563.821	-0.0131
564.0148	-0.013
564.2086	-0.0109
564.4024	-0.0139
564.5961	-0.0087
564.7899	0.0066
564.9836	0.0013
565.1773	0.0018
565.371	-0.0039
565.5647	0.0056
565.7584	-0.0028
565.952	-0.0003
566.1456	-0.0001
566.3393	-0.0071
566.5329	-0.0068
566.7264	-0.008
566.92	-0.0101
567.1136	0.0099
567.3071	-0.0048
567.5006	-0.0021
567.6941	0.0035
567.8876	-0.003
568.0811	-0.005
568.2745	-0.001
568.468	0.0012
568.6614	-0.0063
568.8548	0.0056
569.0482	0.0006
569.2416	-0.0028
569.4349	-0.0048
569.6283	-0.003
569.8216	-0.0058
570.0149	-0.005
570.2082	0.0086
570.4015	0.0021
570.5947	0.0028
570.788	0.0059
570.9812	0.0027
571.1744	-0.0045
571.3676	-0.0091
571.5608	-0.0056
571.754	-0.0082
571.9471	0.0011
572.1402	0.0002
572.3333	-0.0096
572.5264	-0.0041
572.7195	0.0021
572.9126	-0.0034
573.1057	-0.0022
573.2987	-0.001
573.4917	0.0045
573.6847	-0.007
573.8777	0.0077
574.0707	0.0093
574.2636	-0.0075
574.4566	-0.009
574.6495	-0.0025
574.8424	0.0002
575.0353	-0.004
575.2281	0.0068
575.421	-0.0057
575.6138	-0.0001
575.8067	-0.0015
575.9995	-0.0027
576.1923	0.0002
576.385	-0.0084
576.5778	0.0005
576.7706	-0.0057
576.9633	0.0023
577.156	0.007
577.3487	-0.0024
577.5414	-0.0046
577.734	-0.011
577.9267	0.0012
578.1193	-0.0153
578.3119	-0.0084
578.5045	-0.0018
578.6971	-0.0039
578.8897	-0.0001
579.0822	-0.004
579.2747	-0.0002
579.4673	-0.0029
579.6598	-0.0033
579.8522	-0.0032
580.0447	-0.0058
580.2372	-0.0032
580.4296	0.0058
580.622	-0.0029
580.8144	-0.0031
581.0068	-0.0064
581.1992	-0.0133
581.3915	-0.0051
581.5839	-0.0123
581.7762	-0.0088
581.9685	-0.0077
582.1608	-0.0026
582.353	-0.0015
582.5453	0.0005
582.7375	0.0047
582.9298	0.0007
583.122	0.0004
583.3142	-0.0002
583.5063	0.0012
583.6985	-0.006
583.8906	-0.0004
584.0827	0.0004
584.2749	0.0011
584.4669	-0.0015
584.659	0.0009
584.8511	-0.0013
585.0431	-0.0081
585.2352	0.0003
585.4272	-0.0087
585.6192	-0.0016
585.8111	-0.007
586.0031	-0.006
586.195	-0.01
586.387	0.0088
586.5789	-0.0064
586.7708	-0.0061
586.9627	-0.0024
587.1545	-0.0087
587.3464	0.0053
587.5382	-0.0007
587.73	-0.0048
587.9218	-0.0035
588.1136	-0.0021
588.3053	0.0008
588.4971	-0.0028
588.6888	-0.0116
588.8805	-0.0063
589.0722	0.0041
589.2639	-0.0066
589.4556	-0.0046
589.6472	-0.007
589.8389	-0.0091
590.0305	-0.0128
590.2221	-0.0001
590.4137	-0.0067
590.6052	-0.0052
590.7968	-0.0044
590.9883	-0.005
591.1798	-0.0052
591.3713	-0.0069
591.5628	0.0014
591.7543	-0.0028
591.9458	-0.0041
592.1372	-0.0024
592.3286	0.0034
592.52	-0.0013
592.7114	-0.0049
592.9028	-0.0005
593.0941	-0.0029
593.2855	-0.0012
593.4768	-0.0066
593.6681	-0.008
593.8594	0.0001
594.0506	-0.0001
594.2419	0.0089
594.4331	-0.0035
594.6244	0.0058
594.8156	-0.0111
595.0067	-0.0022
595.1979	-0.0035
595.3891	-0.0011
595.5802	-0.0058
595.7713	-0.0111
595.9624	-0.0068
596.1535	0.0032
596.3446	-0.0029
596.5357	-0.0138
596.7267	0.0035
596.9177	-0.0069
597.1087	-0.011
597.2997	-0.0053
597.4907	-0.002
597.6817	-0.006
597.8726	-0.0067
598.0635	-0.0098
598.2544	-0.0014
598.4453	0.0009
598.6362	-0.0068
598.827	-0.0119
599.0179	0.0045
599.2087	-0.002
599.3995	-0.0038
599.5903	0.0016
599.7811	0.0004
599.9718	-0.005
600.1626	-0.0041
600.3533	-0.0058
600.544	-0.001
600.7347	-0.0061
600.9254	-0.0067
601.116	-0.0126
601.3067	-0.0139
601.4973	-0.0123
601.6879	0.0012
601.8785	-0.0053
602.0691	0.0045
602.2596	-0.007
602.4502	0.0043
602.6407	-0.005
602.8312	0.0027
603.0217	-0.0112
603.2122	-0.0012
603.4027	-0.0044
603.5931	-0.0004
603.7835	-0.0113
603.9739	-0.0043
604.1643	-0.0046
604.3547	-0.0047
604.5451	0.0043
604.7354	-0.0063
604.9257	-0.0035
605.116	-0.0017
605.3063	0.0038
605.4966	-0.0014
605.6869	-0.0034
605.8771	-0.0034
606.0673	0.0058
606.2575	0.0068
606.4477	0.0066
606.6379	-0.0033
606.8281	0.0002
607.0182	-0.0082
607.2083	0.0046
607.3985	-0.0069
607.5885	-0.0058
607.7786	-0.0026
607.9687	-0.0068
608.1587	0.0022
608.3488	0.0072
608.5388	-0.0014
608.7288	-0.0053
608.9187	-0.0066
609.1087	-0.0072
609.2986	-0.0069
609.4886	-0.0046
609.6785	-0.0056
609.8684	0.0013
610.0582	0.0037
610.2481	-0.0035
610.4379	-0.0031
610.6278	-0.0067
610.8176	-0.0014
611.0074	-0.0055
611.1971	-0.0075
611.3869	0.0003
611.5766	-0.0088
611.7664	0.0018
611.9561	0.0029
612.1458	0.0006
612.3354	-0.0066
612.5251	0.0032
612.7147	0.0044
612.9044	0.0008
613.094	-0.01
613.2836	-0.001
613.4731	-0.0063
613.6627	-0.0095
613.8522	-0.0002
614.0417	0.0009
614.2313	-0.008
614.4207	-0.0075
614.6102	-0.006
614.7997	-0.0089
614.9891	-0.0106
615.1785	-0.0054
615.3679	-0.0065
615.5573	0.0039
615.7467	-0.0038
615.9361	-0.0062
616.1254	-0.0064
616.3147	-0.0053
616.504	0.0014
616.6933	0.0015
616.8826	0.0048
617.0718	0.0026
617.2611	0.0036
617.4503	-0.0105
617.6395	-0.0047
617.8287	-0.005
618.0179	-0.0005
618.207	0.0007
618.3961	0.0004
618.5853	-0.0024
618.7744	0.0027
618.9634	-0.0011
619.1525	-0.0008
619.3416	0.004
619.5306	0.002
619.7196	0.0011
619.9086	-0.0031
620.0976	0.0006
620.2866	-0.0066
620.4755	0.0058
620.6645	0.0033
620.8534	0.0012
621.0423	0.0045
621.2312	0.0034
621.42	0.0002
621.6089	0.004
621.7977	0.004
621.9865	-0.0061
622.1753	0.0073
622.3641	-0.0037
622.5529	0.0047
622.7416	0.007
622.9303	0.002
623.1191	0.0052
623.3078	-0.0017
623.4964	0.0073
623.6851	-0.0066
623.8737	-0.0019
624.0624	0.0049
624.251	-0.0054
624.4396	-0.0001
624.6282	-0.0087
624.8167	-0.0034
625.0053	-0.0018
625.1938	0.0019
625.3823	-0.0016
625.5708	-0.0083
625.7593	-0.007
625.9477	-0.0091
626.1362	-0.0096
626.3246	-0.0054
626.513	0.0035
626.7014	-0.0037
626.8898	-0.0088
627.0781	0.0005
627.2665	-0.0079
627.4548	0.0011
627.6431	0.0046
627.8314	0.0044
628.0197	0.0031
628.2079	-0.003
628.3962	-0.0085
628.5844	0.0076
628.7726	0.0071
628.9608	-0.0035
629.1489	-0.003
629.3371	0.0043
629.5252	-0.0094
629.7134	0.0066
629.9015	-0.0026
630.0895	0.0031
630.2776	0.0046
630.4657	-0.0044
630.6537	0.0021
630.8417	-0.0038
631.0297	-0.0073
631.2177	-0.0103
631.4057	-0.0045
631.5936	-0.0067
631.7815	-0.0002
631.9695	-0.0062
632.1574	0.0043
632.3452	0.0012
632.5331	0.0018
632.7209	-0.0006
632.9088	0.0085
633.0966	0.0048
633.2844	-0.0045
633.4722	-0.0013
633.6599	0.0013
633.8477	-0.005
634.0354	-0.008
634.2231	0.0031
634.4108	-0.0007
634.5985	-0.0007
634.7861	-0.0053
634.9738	0.0023
635.1614	0.0024
635.349	-0.0004
635.5366	0.0019
635.7242	-0.0018
635.9117	0.0042
636.0993	-0.0007
636.2868	0.0086
636.4743	-0.0005
636.6618	0.0097
636.8492	-0.0009
637.0367	-0.0018
637.2241	-0.0111
637.4115	-0.0081
637.5989	-0.0087
637.7863	-0.0034
637.9737	-0.0013
638.161	0.0055
638.3484	-0.0064
638.5357	0.0039
638.723	-0.0104
638.9103	-0.0007
639.0975	-0.0006
639.2848	-0.0037
639.472	-0.0021
639.6592	-0.0017
639.8464	0.0027
640.0336	-0.0001
640.2208	-0.0041
640.4079	-0.0003
640.595	-0.002
640.7821	-0.0002
640.9692	-0.0083
641.1563	-0.004
641.3434	0.0043
641.5304	-0.0044
641.7174	-0.0025
641.9044	-0.0081
642.0914	-0.0012
642.2784	0.0023
642.4653	0.0034
642.6523	0.0003
642.8392	-0.0047
643.0261	-0.0007
643.213	-0.0009
643.3999	-0.0001
643.5867	-0.0099
643.7735	-0.0046
643.9604	-0.0144
644.1472	-0.0016
644.3339	0.0044
644.5207	-0.0049
644.7075	-0.0054
644.8942	-0
645.0809	0.0068
645.2676	0.0008
645.4543	0.0028
645.6409	0.0014
645.8276	-0.0039
646.0142	-0.0021
646.2008	-0.014
646.3874	-0.0023
646.574	-0.0042
646.7605	-0.0115
646.9471	-0.0155
647.1336	0.0025
647.3201	-0.0035
647.5066	-0.0042
647.6931	0.0071
647.8795	-0.0036
648.0659	0.0006
648.2524	0.0049
648.4388	-0.0046
648.6252	0.0004
648.8115	-0.0047
648.9979	0.0021
649.1842	-0.0021
649.3705	0.0081
649.5568	0.0003
649.7431	0.0008
649.9294	-0.0046
650.1156	0.0077
650.3018	-0.0062
650.488	-0.0026
650.6742	0.0086
650.8604	-0.0037
651.0466	-0.0071
651.2327	-0.0028
651.4188	-0.0023
651.6049	-0.0123
651.791	-0.0097
651.9771	-0.0016
652.1632	-0.0033
652.3492	-0.0052
652.5352	-0.0015
652.7212	-0.0031
652.9072	0.0005
653.0932	0.0014
653.2791	-0.0047
653.465	0.0002
653.651	-0.0042
653.8369	-0.0086
654.0227	-0.0054
654.2086	-0.0024
654.3944	0.004
654.5803	0.006
654.7661	-0.0012
654.9519	0.0004
655.1377	-0.0057
655.3234	-0.0027
655.5092	-0.0074
655.6949	-0.0086
655.8806	-0.0087
656.0663	-0.0042
656.2519	-0.0052
656.4376	-0.0069
656.6232	0.0001
656.8088	-0.0066
656.9945	-0.0087
657.18	-0.0052
657.3656	-0.0024
657.5511	0.0008
657.7367	-0.0054
657.9222	-0.001
658.1077	0.0011
658.2932	-0.0017
658.4786	-0.0078
658.6641	-0.0094
658.8495	-0.0019
659.0349	-0.0097
659.2203	-0.0001
659.4057	-0.0044
659.591	0.002
659.7764	-0.0014
659.9617	0.0006
660.147	-0.0048
660.3323	0.0005
660.5176	0.0023
660.7028	-0.0041
660.888	-0.0032
661.0733	0.0017
661.2585	-0.012
661.4436	-0.0011
661.6288	-0.004
661.8139	-0.0094
661.9991	0.0006
662.1842	-0.0063
662.3693	-0.0005
662.5544	-0.0059
662.7394	-0.0053
662.9245	-0.0032
663.1095	-0.0066
663.2945	-0.0018
663.4795	-0.0069
663.6644	0.0016
663.8494	0.0018
664.0343	0.0035
664.2193	-0.0082
664.4042	-0.0037
664.589	-0.0075
664.7739	-0.0073
664.9587	-0.0053
665.1436	0.003
665.3284	0.0036
665.5132	-0.0057
665.698	-0.0049
665.8827	-0.0026
666.0675	-0.0105
666.2522	-0.0102
666.4369	-0.0007
666.6216	-0.0034
666.8063	0.0028
666.9909	-0.0039
667.1756	-0.0108
667.3602	0.0019
667.5448	-0.0054
667.7294	0.0058
667.9139	-0.0013
668.0985	0.0145
668.283	0.0015
668.4675	-0.0025
668.652	-0.0023
668.8365	-0.0002
669.0209	0.0055
669.2054	0.0074
669.3898	-0.0027
669.5742	0.0038
669.7586	0.0004
669.943	0.0034
670.1273	-0.0018
670.3117	0.0005
670.496	-0.0009
670.6803	0.0075
670.8646	0.0007
671.0488	-0.0061
671.2331	-0.0012
671.4173	0.0006
671.6015	0.0015
671.7857	0.0013
671.9699	0.0077
672.1541	-0.0028
672.3382	0.0024
672.5223	0.0042
672.7064	-0.0011
672.8905	0.009
673.0746	-0.0005
673.2587	-0.0022
673.4427	0.0032
673.6267	0.0077
673.8107	0.0131
673.9947	0.0023
674.1787	0.0004
674.3626	-0.0015
674.5465	-0.0041
674.7304	0.0069
674.9143	0.0038
675.0982	0.0128
675.2821	-0.0096
675.4659	0.0045
675.6497	0.0006
675.8335	-0.005
676.0173	0.001
676.2011	-0.0025
676.3849	-0.0079
676.5686	-0.0073
676.7523	-0.0048
676.936	-0.0126
677.1197	-0.0131
677.3034	-0.0099
677.487	-0.005
677.6706	-0.0075
677.8542	0.0011
678.0378	-0.0089
678.2214	-0.0014
678.405	0.0004
678.5885	-0.0115
678.772	-0.0094
678.9555	0.0027
679.139	-0.0041
679.3225	0.0016
679.5059	-0.0048
679.6894	-0.0055
679.8728	0.0022
680.0562	-0.0067
680.2395	-0.0103
680.4229	-0.0046
680.6062	0.0075
680.7896	-0.0012
680.9729	-0.0117
681.1562	-0.0001
681.3394	-0.002
681.5227	-0.0097
681.7059	0.0045
681.8891	0.0015
682.0723	0.0067
682.2555	0.0011
682.4387	-0.0042
682.6218	0.001
682.805	0.0003
682.9881	0.0035
683.1712	0.0005
683.3542	0.0032
683.5373	0.005
683.7203	-0.0071
683.9034	0.0027
684.0864	-0.0126
684.2694	-0.0051
684.4523	0.0008
684.6353	-0.0093
684.8182	-0.0018
685.0011	-0.0083
685.184	-0.0006
685.3669	-0.0024
685.5498	-0.0032
685.7326	0.0038
685.9154	-0.0051
686.0982	-0.0002
686.281	0.0081
686.4638	-0.0027
686.6465	-0.0116
686.8293	-0.0063
687.012	0.0016
687.1947	-0.0096
687.3774	-0.0008
687.56	-0.0051
687.7427	-0.0011
687.9253	-0.0059
688.1079	0.0056
688.2905	-0.0013
688.4731	-0.0005
688.6556	-0.0036
688.8382	-0.0107
689.0207	-0.0062
689.2032	-0.0113
689.3857	-0.0107
689.5681	0.0001
689.7506	-0.009
689.933	-0.002
690.1154	-0.0038
690.2978	-0.0027
690.4802	0.0012
690.6626	-0.0106
690.8449	-0.0044
691.0272	0.0025
691.2095	-0.0079
691.3918	-0.0096
691.5741	-0.0036
691.7563	-0.001
691.9386	0.0003
692.1208	-0.0017
692.303	-0.0073
692.4852	-0.0025
692.6673	-0.0005
692.8495	0.0004
693.0316	-0.0008
693.2137	-0.0066
693.3958	0.0022
693.5778	-0.0016
693.7599	-0.0093
693.9419	-0.0081
694.1239	-0.0022
694.3059	-0.0048
694.4879	0.0034
694.6699	0.0039
694.8518	0.0002
695.0337	-0.0061
695.2157	0.0022
695.3975	-0.0013
695.5794	-0.0022
695.7613	0.003
695.9431	-0.0052
696.1249	0.0026
696.3067	-0.0014
696.4885	0.007
696.6703	-0.0016
696.852	0.0016
697.0337	0.0059
697.2154	0.0002
697.3971	0.0053
697.5788	-0.0001
697.7605	0.0035
697.9421	0.0098
698.1237	-0.0054
698.3053	-0.0049
698.4869	-0.0036
698.6685	-0.0071
698.85	-0.0052
699.0315	0.0092
699.213	0.0022
699.3945	0.0075
699.576	0.0036
699.7575	0.0013
699.9389	0.0043
700.1203	0.0015
700.3017	-0.0088
700.4831	-0.0188
700.6645	-0.0045
700.8458	0.004
701.0271	-0.0066
701.2084	-0.0015
701.3897	-0.0051
701.571	0.0062
701.7523	-0.0092
701.9335	-0.0048
702.1147	-0.002
702.2959	-0.005
702.4771	-0.003
702.6583	-0.0051
702.8394	-0.0043
703.0205	0.005
703.2016	-0.0026
703.3827	-0.0028
703.5638	0.004
703.7449	-0.0017
703.9259	0.0084
704.1069	0.0005
704.2879	0.002
704.4689	-0.0016
704.6499	0.0059
704.8308	-0.001
705.0117	-0.0009
705.1927	-0.0022
705.3735	-0.0095
705.5544	-0.011
705.7353	-0.0058
705.9161	-0.0086
706.0969	-0.0049
706.2777	-0.0048
706.4585	-0.0102
706.6393	-0.0036
706.82	-0.0081
707.0007	-0.0043
707.1815	-0.003
707.3621	0.0041
707.5428	-0.0057
707.7235	0
707.9041	-0.0039
708.0847	-0.0132
708.2653	-0.0062
708.4459	-0.0121
708.6265	-0.004
708.807	-0.0052
708.9875	-0.0076
709.168	-0.0104
709.3485	-0.0092
709.529	-0.002
709.7095	-0.0157
709.8899	-0.0084
710.0703	-0.0164
710.2507	-0.0078
710.4311	-0.0119
710.6115	-0.0176
710.7918	-0.0169
710.9721	-0.0061
711.1524	-0.0013
711.3327	-0.0064
711.513	0.004
711.6932	-0.0025
711.8735	0.0091
712.0537	0.005
712.2339	-0.0041
712.4141	-0.0102
712.5942	-0.0083
712.7744	-0.0026
712.9545	-0.0062
713.1346	-0.0098
713.3147	-0.0051
713.4947	-0.0089
713.6748	-0.008
713.8548	-0.0086
714.0348	-0.0053
714.2148	-0.0077
714.3948	0.0052
714.5748	-0.0079
714.7547	-0.0049
714.9346	0.0029
715.1145	-0.0064
715.2944	-0.0067
715.4743	-0.0003
715.6541	-0.0075
715.834	0.0041
716.0138	-0.0048
716.1936	-0.0111
716.3733	-0.0105
716.5531	-0.0027
716.7328	-0.0047
716.9126	0.003
717.0923	0.0008
717.2719	0.0006
717.4516	0.0003
717.6312	0.0042
717.8109	-0.0065
717.9905	0.0042
718.1701	-0.0087
718.3496	-0.0056
718.5292	0.0054
718.7087	0.0018
718.8882	-0.0049
719.0677	0.0087
719.2472	0.0028
719.4267	-0.0041
719.6061	0.0019
719.7856	0.0045
719.965	0.0036
720.1443	-0.0023
720.3237	0.0147
720.5031	0.0029
720.6824	0.0062
720.8617	-0.0083
721.041	-0.0077
721.2203	0.0026
721.3995	0.0066
721.5788	-0.0057
721.758	0.0002
721.9372	-0.0046
722.1164	-0.0023
722.2956	0.0016
722.4747	-0.0015
722.6538	-0.0108
722.8329	-0.0017
723.012	-0.0037
723.1911	-0.0063
723.3702	0.0014
723.5492	-0.0012
723.7282	-0.0089
723.9072	-0.0087
724.0862	-0.0031
724.2652	-0.0086
724.4441	-0.0026
724.623	-0.0114
724.8019	-0.0065
724.9808	-0.0053
725.1597	-0.0089
725.3385	-0.0044
725.5174	-0.0065
725.6962	-0.0054
725.875	-0.0061
726.0538	0.0047
726.2325	-0.0128
726.4112	-0.0065
726.59	0.001
726.7687	-0.0093
726.9474	0.0052
727.126	-0
727.3047	-0.0076
727.4833	-0.0091
727.6619	-0.0065
727.8405	-0.0058
728.0191	-0.0063
728.1976	0.0066
728.3762	-0.0017
728.5547	0.0049
728.7332	-0.0075
728.9116	-0.0026
729.0901	-0.0104
729.2686	-0.0121
729.447	-0.0139
729.6254	-0.0123
729.8038	-0.0081
729.9821	-0.0187
730.1605	0.0009
730.3388	-0.0083
730.5171	0.0034
730.6954	-0.0112
730.8737	-0.0008
731.0519	-0.0037
731.2302	-0.0045
731.4084	0.0055
731.5866	-0.0069
731.7648	-0.002
731.9429	0.0014
732.1211	-0.0121
732.2992	-0.0136
732.4773	-0.0064
732.6554	-0.0096
732.8335	0.0046
733.0115	0.0063
733.1896	-0.0005
733.3676	-0.0024
733.5456	-0.0032
733.7235	0.0004
733.9015	-0.0036
734.0794	0.0024
734.2574	0.0031
734.4353	-0.0003
734.6131	0.0022
734.791	-0.0145
734.9689	-0.0061
735.1467	-0.0036
735.3245	-0.0097
735.5023	-0.009
735.68	0.0016
735.8578	-0.0014
736.0355	-0.0115
736.2132	-0.0021
736.3909	-0.0082
736.5686	-0.0098
736.7463	0.0028
736.9239	-0.0093
737.1015	-0.0064
737.2791	0.0046
737.4567	-0.0151
737.6343	-0.0068
737.8118	0.0058
737.9894	-0.0039
738.1669	-0.0079
738.3444	-0.0069
738.5218	-0.0036
738.6993	-0.0055
738.8767	-0.008
739.0541	0.0033
739.2315	-0.0048
739.4089	0.0026
739.5863	0.0059
739.7636	-0.0073
739.9409	-0.0066
740.1182	0.0015
740.2955	0.0022
740.4728	0.0028
740.65	-0.0085
740.8272	-0.0143
741.0044	-0.005
741.1816	-0.001
741.3588	-0.0072
741.5359	0.0005
741.7131	-0.0143
741.8902	-0.0056
742.0673	-0.0088
742.2444	-0.0137
742.4214	-0.0105
742.5985	-0.0048
742.7755	-0.007
742.9525	-0.0126
743.1295	-0.0065
743.3064	-0.0025
743.4834	0.0016
743.6603	-0.0019
743.8372	-0.0062
744.0141	-0.0008
744.191	0.0018
744.3678	-0.0108
744.5446	-0.0008
744.7215	-0.0015
744.8982	-0.0039
745.075	-0.0106
745.2518	-0.0081
745.4285	-0.0055
745.6052	-0.0064
745.7819	-0.0136
745.9586	-0.0184
746.1353	-0.004
746.3119	-0.0172
746.4885	-0.0138
746.6651	-0.0158
746.8417	-0.0176
747.0183	-0.0143
747.1948	-0.0102
747.3714	-0.0083
747.5479	0.0041
747.7244	-0.0173
747.9008	-0.0008
748.0773	0
748.2537	-0.0075
748.4301	-0.0124
748.6065	-0.0029
748.7829	0.0027
748.9593	-0.0101
749.1356	-0.0102
749.3119	0.001
749.4882	-0.0161
749.6645	0.0047
749.8408	-0.0065
750.017	-0.0053
750.1933	-0.0042
750.3695	-0.0145
750.5457	-0.0026
750.7218	-0.011
750.898	-0.0031
751.0741	-0.0102
751.2502	-0.0045
751.4263	-0.012
751.6024	-0.006
751.7784	-0.0126
751.9545	-0.0081
752.1305	-0.0074
752.3065	-0.014
752.4825	-0.0048
752.6584	-0.0182
752.8344	-0.0119
753.0103	-0.0113
753.1862	-0.0183
753.3621	-0.0096
753.5379	-0.0092
753.7138	-0.0031
753.8896	-0.006
754.0654	-0.0029
754.2412	-0.0024
754.417	-0.0076
754.5927	-0.012
754.7685	-0.0028
754.9442	-0.0022
755.1199	0.0061
755.2956	0.0012
755.4712	0.003
755.6469	-0.0024
755.8225	0.0041
755.9981	-0.0039
756.1736	0.0104
756.3492	0.0093
756.5248	-0.0012
756.7003	0.0076
756.8758	0.0025
757.0513	-0.0078
757.2267	-0.0036
757.4022	0.0072
757.5776	-0.0082
757.753	-0.0035
757.9284	0.0012
758.1038	0.0052
758.2791	-0.0055
758.4545	-0.0201
758.6298	-0.0052
758.8051	-0.0108
758.9803	-0.0063
759.1556	-0.0015
759.3308	-0.0082
759.506	-0.0044
759.6812	-0.0025
759.8564	0.0003
760.0316	-0.0038
760.2067	0.0026
760.3819	0.01
760.557	0.0176
760.732	0.0068
760.9071	-0.0077
761.0821	0.0107
761.2572	0.0087
761.4322	-0.0046
761.6072	-0.0029
761.7821	-0.0123
761.9571	0.0019
762.132	-0.0008
762.3069	-0.0105
762.4818	-0.0107
762.6567	-0.0108
762.8316	-0.0069
763.0064	-0.0085
763.1812	-0.0092
763.356	-0.0149
763.5308	-0.0128
763.7055	-0.0042
763.8803	-0.0078
764.055	-0.0089
764.2297	-0.0118
764.4044	-0.0143
764.579	-0.011
764.7537	-0.0217
764.9283	-0.0073
765.1029	-0.0121
765.2775	-0.0158
765.4521	-0.0171
765.6266	-0.0101
765.8011	-0.0141
765.9756	-0.0077
766.1501	-0.0007
766.3246	-0.0047
766.4991	-0.0079
766.6735	-0.0068
766.8479	-0.0097
767.0223	-0.0065
767.1967	-0.0011
767.371	0.0007
767.5454	-0.0071
767.7197	-0.0098
767.894	-0.0132
768.0683	-0.025
768.2425	-0.0061
768.4168	0.0033
768.591	-0.0047
768.7652	-0.0048
768.9394	-0.0092
769.1135	-0.0083
769.2877	0.0132
769.4618	-0.0108
769.6359	-0.0045
769.81	0.0036
769.984	-0.0063
770.1581	-0.0108
770.3321	-0.0089
770.5061	-0.0153
770.6801	-0.0052
770.8541	0
771.028	-0.0043
771.202	-0.0211
771.3759	-0.0003
771.5498	-0.0144
771.7236	-0.0025
771.8975	-0.0107
772.0713	-0.0044
772.2451	-0.0037
772.4189	-0.0034
772.5927	0.0073
772.7665	-0.0092
772.9402	-0.0024
773.1139	-0.004
773.2876	-0.0059
773.4613	-0.0015
773.635	-0.0047
773.8086	-0.0235
773.9822	-0.0146
774.1558	-0.0076
774.3294	-0.0223
774.503	-0.0021
774.6765	-0.011
774.8501	-0.0006
775.0236	0.0035
775.1971	-0.004
775.3705	-0.0124
775.544	-0.0019
775.7174	-0.0133
775.8908	-0.0116
776.0642	-0.005
776.2376	-0.0035
776.4109	-0.005
776.5843	-0.0046
776.7576	-0.0042
776.9309	0.0008
777.1041	0.0071
777.2774	0.0065
777.4506	-0.0151
777.6238	0.0003
777.797	-0.0062
777.9702	-0.0037
778.1434	-0.0013
778.3165	-0.0115
778.4896	-0.0078
778.6627	-0.0024
778.8358	0.0028
779.0089	-0.0209
779.1819	-0.0165
779.3549	0.0081
779.5279	0.0006
779.7009	-0.0015
779.8739	-0.0098
780.0468	-0.0011
780.2197	-0.0013
780.3926	-0.0103
780.5655	0
780.7384	-0.0123
780.9112	-0.0172
781.0841	-0.0094
781.2569	-0.0038
781.4297	-0.0101
781.6024	-0.0044
781.7752	-0.0073
781.9479	-0.012
782.1206	-0.0023
782.2933	-0.0253
782.466	0.0025
782.6386	-0.0068
782.8113	-0.0051
782.9839	-0.0067
783.1565	0.006
783.329	0.0096
783.5016	0.0057
783.6741	0.0092
783.8466	-0.0053
784.0191	0.0021
784.1916	-0.0004
784.3641	-0.0083
784.5365	0.0037
784.7089	0.0007
784.8813	-0.0041
785.0537	-0.0103
785.2261	-0.0091
785.3984	-0.0166
785.5707	-0.0063
785.743	-0.0029
785.9153	-0.0139
786.0876	-0.0028
786.2598	-0.0104
786.432	-0.0103
786.6042	-0.017
786.7764	-0.0162
786.9486	-0.0141
787.1207	-0.0204
787.2928	0.0006
787.4649	-0.0137
787.637	0.0044
787.8091	-0.0114
787.9811	-0.0179
788.1532	-0.0173
788.3252	0.0036
788.4972	-0.0226
788.6691	-0.0103
788.8411	-0.0013
789.013	-0.0263
789.1849	0.002
789.3568	-0.0161
789.5287	-0.0148
789.7005	0
789.8723	0.0015
790.0442	0.0103
790.2159	-0.0057
790.3877	-0.0004
790.5595	-0.0143
790.7312	-0.0092
790.9029	-0.0053
791.0746	-0.0075
791.2463	-0.003
791.4179	-0.0009
791.5896	-0.0113
791.7612	-0.0046
791.9328	0.0069
792.1044	-0.004
792.2759	-0.0287
792.4474	-0.0039
792.619	0.0026
792.7905	0.009
792.9619	-0.0011
793.1334	0.001
793.3048	0.0078
793.4762	-0.0055
793.6476	-0.0032
793.819	-0.0154
793.9904	-0.0042
794.1617	-0.0239
794.333	-0.0178
794.5043	-0.0104
794.6756	-0.0054
794.8469	-0.0063
795.0181	-0.0051
795.1893	-0.009
795.3605	0.002
795.5317	-0.0073
795.7029	-0.0168
795.874	-0.0065
796.0452	0.0011
796.2163	-0.0077
796.3873	-0.0032
796.5584	-0.0036
796.7294	-0.0184
796.9005	0.0001
797.0715	0.0018
797.2425	-0.0147
797.4134	-0.0041
797.5844	0.0001
797.7553	-0.02
797.9262	-0.0039
798.0971	-0.0126
798.2679	-0.0125
798.4388	-0.0191
798.6096	-0.0159
798.7804	-0.0205
798.9512	-0.0137
799.122	-0.0176
799.2927	-0.0011
799.4635	0.0017
799.6342	-0.0362
799.8049	0.004
799.9755	-0.0118
800.1462	0.0012
800.3168	0.0084
800.4874	-0.0036
800.658	0.0057
800.8286	0.0125
800.9991	0.0039
801.1696	-0.0105
801.3402	0.0047
801.5106	0.0077
801.6811	0.0051
801.8516	0.0327
802.022	0.0123
802.1924	-0.001
802.3628	0.0021
802.5332	0.0029
802.7035	0.0037
802.8739	-0.0202
803.0442	-0.0193
803.2145	-0.0016
803.3847	-0.009
803.555	-0.0067
803.7252	-0.0309
803.8954	-0.0145
804.0656	-0.0107
804.2358	-0.0111
804.4059	-0.0097
804.5761	0.0092
804.7462	-0.0049
804.9163	-0.0047
805.0864	-0.0108
805.2564	-0.0165
805.4264	-0.0017
805.5965	-0.0262
805.7665	-0.0088
805.9364	-0.0039
806.1064	0.016
806.2763	-0.0078
806.4462	-0.0031
806.6161	-0.0165
806.786	-0.0051
806.9559	0.0019
807.1257	-0.0114
807.2955	-0.0119
807.4653	-0.0125
807.6351	-0.0164
807.8048	0.0027
807.9746	-0.0166
808.1443	-0.0085
808.314	-0.0068
808.4837	-0.0011
808.6533	-0.0006
808.8229	0.0163
808.9926	-0.0111
809.1622	0.0078
809.3317	-0.0164
809.5013	-0.0129
809.6708	0.0109
809.8403	0.0021
810.0098	-0.0195
810.1793	-0.0141
810.3488	0.0074
810.5182	-0.0421
810.6876	-0.0042
810.857	-0.0293
811.0264	0.006
811.1958	-0.0096
811.3651	0.0115
811.5344	-0.0085
811.7037	-0.0046
811.873	-0.0156
812.0422	-0.001
812.2115	-0.0023
812.3807	0.0004
812.5499	0.0104
812.7191	0.0052
812.8882	-0.0086
813.0574	-0.0057
813.2265	-0.0088
813.3956	-0.0236
813.5646	0.0018
813.7337	-0.0181
813.9027	-0.0198
814.0718	0.0182
814.2407	-0.0063
814.4097	-0.0021
814.5787	-0.0418
814.7476	-0.0058
814.9165	0.0043
815.0854	-0.0142
815.2543	-0.0048
815.4232	-0.0077
815.592	-0.0051
815.7608	-0.0072
815.9296	-0.0112
816.0984	-0.0177
816.2671	-0.0184
816.4359	-0.028
816.6046	-0.0254
816.7733	-0.0353
816.942	-0.0302
817.1106	-0.005
817.2793	-0.0113
817.4479	0.0141
817.6165	-0.0063
817.785	0.0017
817.9536	-0.026
818.1221	-0.0147
818.2906	-0.0187
818.4591	0.0004
818.6276	-0.0402
818.7961	-0.0218
818.9645	0.0061
819.1329	-0.0166
819.3013	-0.0036
819.4697	0.0124
819.638	-0.0164
819.8064	-0.0139
819.9747	-0.0112
820.143	-0.0165
820.3113	-0.0114
820.4795	-0.0016
820.6477	0.005
820.816	0.0068
820.9842	0.0081
821.1523	-0.0109
821.3205	-0.0193
821.4886	0.0037
821.6567	0.0033
821.8248	0.0127
821.9929	0.0032
822.1609	0.0112
822.329	0.0214
822.497	0.0065
822.665	-0.0042
822.833	-0.0225
823.0009	-0.0002
823.1688	-0.0051
823.3367	-0.0052
823.5046	0.0153
823.6725	0.0102
823.8404	-0.0318
824.0082	0.0161
824.176	0.0065
824.3438	-0.0026
824.5116	-0.0151
824.6793	-0.0035
824.847	-0.0189
825.0147	-0.0104
825.1824	-0.0023
825.3501	0.0113
825.5177	-0.0397
825.6854	-0.0155
825.853	-0.0211
826.0206	-0.0373
826.1881	-0.0071
826.3557	-0.0387
826.5232	0.0019
826.6907	-0.0222
826.8582	-0.0358
827.0257	-0.0162
827.1931	-0.021
827.3605	-0.0349
827.528	-0.0017
827.6953	-0.0308
827.8627	-0.0095
828.03	0.0149
828.1974	-0.0232
828.3647	-0.0283
828.532	-0.0191
828.6992	-0.0385
828.8665	-0.0013
829.0337	-0.0093
829.2009	0.0296
829.3681	-0.0114
829.5352	0.003
829.7024	-0.0389
829.8695	-0.0312
830.0366	0.0337
830.2037	-0.0109
830.3707	0.0071
830.5378	0.0029
830.7048	0.0377
830.8718	-0.0226
831.0388	-0.0361
831.2057	0.0254
831.3727	-0.0035
831.5396	-0.011
831.7065	-0.0027
831.8734	0.0111
832.0402	-0.0363
832.2071	-0.0004
832.3739	-0.0157
832.5407	0.0002
832.7075	-0.0066
832.8742	-0.0323
833.041	-0.0319
833.2077	0.0057
833.3744	0.0214
833.541	-0.034
833.7077	-0.0311
833.8743	-0.0374
834.0409	-0.0224
834.2075	-0.0117
834.3741	-0.0364
834.5407	-0.0227
834.7072	-0.0275
834.8737	-0.0463
835.0402	-0.0117
835.2067	0.0052
835.3731	-0.0236
835.5395	-0.0093
835.706	0.0174
835.8723	-0.0181
836.0387	0.0376
836.2051	-0.0254
836.3714	-0.0159
836.5377	0.0058
836.704	-0.0274
836.8703	0.0096
837.0365	-0.0442
837.2027	-0.0197
837.3689	-0.017
837.5351	-0.0195
837.7013	-0.0636
837.8674	-0.0454
838.0335	-0.0389
838.1997	-0.0149
838.3657	-0.0336
838.5318	-0.0012
838.6978	0.0082
838.8639	0.0161
839.0299	-0.0585
839.1958	-0.0113
839.3618	-0.0065
839.5277	-0.0239
839.6937	-0.0238
839.8596	-0.0261
840.0254	0.0137
840.1913	0.018
840.3571	0.0182
840.523	0.0228
840.6888	-0.0053
840.8545	-0.0375
841.0203	-0.0669
841.186	-0.0006
841.3517	0.0436
841.5174	-0.0185
841.6831	-0.0668
841.8488	0.0187
842.0144	-0.0185
842.18	0.0184
842.3456	-0.027
842.5112	-0.0504
842.6767	-0.0007
842.8422	-0.0123
843.0077	-0.0324
843.1732	-0.0289
843.3387	-0.0418
843.5042	-0.0397
843.6696	-0.0173
843.835	0.0058
844.0004	-0.015
844.1657	0.0605
844.3311	-0.026
844.4964	-0.0456
844.6617	0.0268
844.827	-0.0255
844.9923	0.0015
845.1575	-0.0032
845.3227	0.0027
845.4879	0.0283
845.6531	-0.0417
845.8183	-0.0529
845.9834	-0.0424
846.1485	-0.0083
846.3136	-0.0555
846.4787	-0.079
846.6438	0.0591
846.8088	-0.0484
846.9738	-0.0344
847.1388	-0.0065
847.3038	-0.033
847.4687	-0.0804
847.6337	-0.0416
847.7986	0.0293
847.9635	0.0094
848.1284	-0.0036
848.2932	0.0727
848.458	-0.0095
848.6228	0.0412
848.7876	0.0326
848.9524	-0.0437
849.1172	-0.0249
849.2819	-0.0344
849.4466	-0.1158
849.6113	-0.0821
849.7759	-0.107
849.9406	-0.045
850.1052	0.0296
850.2698	-0.0562
850.4344	-0.0297
850.599	-0.1039
850.7635	0.0896
850.928	-0.0615
851.0925	0.0388
851.257	-0.0252
851.4215	0.0517
851.5859	-0.049
851.7503	0.0242
851.9147	-0.006
852.0791	-0.0314
852.2434	-0.0709
852.4078	0.0745
852.5721	0.0537
852.7364	-0.0758
852.9007	-0.1649
853.0649	0.0086
853.2291	-0.0351
853.3934	-0.1248
853.5575	0.035
853.7217	-0.0751
853.8859	-0.0772
854.05	-0.1754
854.2141	-0.0946
854.3782	-0.1449
854.5423	-0.0709
854.7063	0.0452
854.8703	0.0295
855.0343	-0.0947
855.1983	-0.1606
855.3623	-0.0069
855.5262	0.0177
855.6901	-0.0455
855.854	-0.0235
856.0179	0.0165
856.1818	0.1024
856.3456	-0.0736
856.5094	-0.1568
856.6732	-0.083
856.837	-0.0132
857.0008	0.0518
857.1645	-0.0742
857.3282	-0.1727
857.4919	0.2107
857.6556	-0.0187
857.8192	0.0111
857.9828	0.0619
858.1465	0.0424
858.31	-0.0793
858.4736	-0.1271
858.6372	-0.2378
858.8007	-0.1171
858.9642	-0.0816
859.1277	-0.032
859.2911	0.3847
859.4546	-0.0578
859.618	-0.3922
859.7814	-0.0467
859.9448	-0.0239
860.1081	-0.1099
860.2715	0.0796
860.4348	-0.2549
860.5981	-0.06
860.7614	0.1399
860.9246	-0.0051
861.0879	-0.1682
861.2511	-0.0457
861.4143	-0.2104
861.5774	-0.0195
861.7406	-0.0698
861.9037	0.0611
862.0668	-0.1296
862.2299	-0.2919
862.393	-0.3413
862.556	-0.0843
862.7191	-0.228
862.8821	-0.2268
863.0451	-0.0401
863.208	0.079
863.371	0.0488
863.5339	-0.1652
863.6968	0.0377
863.8597	-0.2025
864.0225	0.0393
864.1854	-0.1971
864.3482	0.4852
864.511	0.2653
864.6737	0.0224
864.8365	0.0025
864.9992	-0.5704
865.1619	-0
865.3246	0.0509
865.4873	0.0324
865.65	-0.3049
865.8126	0.0442
865.9752	0.3497
866.1378	0.029
866.3004	0.0987
866.4629	0.2082
866.6254	0.5613
866.7879	0.0333
866.9504	1.3139
867.1129	-0
867.2753	0.2157
867.4377	0.4757
867.6001	-0.1322
867.7625	-0.0442
867.9249	-0.5479
868.0872	-0.0692
868.2495	0.0601
868.4118	-0.1718
868.5741	-0.5364
868.7363	-0.0771
868.8986	-0.3299
869.0608	-0.1184
869.223	0.1286
869.3851	-0
869.5473	-0
869.7094	0.2648
869.8715	-0
870.0336	-0.7286
870.1957	-0.1641
870.3577	-1.5372
870.5197	-0.118
870.6817	-0.3719
870.8437	-0.149
871.0057	-0.6349
871.1676	-0
871.3295	-0.2297
871.4914	-0
871.6533	-0.3476
871.8151	-0.1686
871.977	-0
872.1388	-0
872.3006	-0
872.4623	-0.2013
872.6241	0.6359
872.7858	0.2562
872.9475	-0.2562
873.1092	-0.1481
873.2709	1.0193
873.4325	0.7802
873.5941	-0
873.7557	-0.1586
873.9173	-0
874.0789	-0.0604
874.2404	-0
874.4019	0.0312
874.5634	-0.1725
874.7249	-0.1033
874.8863	0.0267
875.0478	0.0386
875.2092	-0
875.3706	0.9608
875.5319	-0.664
875.6933	0.6454
875.8546	0.083
876.0159	-0
876.1772	-0
876.3385	-0.6449
876.4997	0.002
876.6609	-0.2956
876.8221	-0.0504
876.9833	-0
877.1445	-0
877.3056	-0.0793
877.4667	-0
877.6278	0.6314
877.7889	0.1276
877.9499	-0
878.111	-0.9665
878.272	-0
878.433	-0
878.5939	0.5268
878.7549	0.3587
878.9158	-0.3599
879.0767	-0.3047
879.2376	-0
879.3984	0.2909
879.5593	-0
879.7201	-0.414
879.8809	-0.5222
880.0417	-0
880.2024	0.7115
880.3632	-0.6569
880.5239	0.3236
880.6846	0.5875
880.8452	-2.5832
881.0059	-1.7243
881.1665	-0.1374
881.3271	-0
881.4877	-0.219
881.6483	-0.8242
881.8088	1.0624
881.9693	-0
882.1298	-0
882.2903	-0
