Data from MonoPyChalIsomerACN10uM350nmA_Absorbance_14-35-40-115.txt Node
Date: Fri Jul 05 14:35:40 BST 2024
User: LASERRRRR
Spectrometer: FLMT03099
Trigger mode: 0
Integration Time (sec): 1.000000E-1
Scans to average: 1
Electric dark correction enabled: true
Nonlinearity correction enabled: false
Boxcar width: 0
XAxis mode: Wavelengths
Number of Pixels in Spectrum: 3648
>>>>>Begin Spectral Data<<<<<
179.3399	-0.0138
179.5586	-0.0138
179.7771	-0.0138
179.9957	-0
180.2143	-0
180.4329	-0.0811
180.6514	2.081
180.8699	-0
181.0885	-0.0259
181.307	0.2578
181.5255	0.3757
181.744	-0.5913
181.9625	-0
182.181	-0
182.3994	0.0773
182.6179	-0
182.8363	-0
183.0547	-0.201
183.2732	-0.11
183.4916	0.0711
183.71	-0.0757
183.9284	0.1124
184.1467	-0.1144
184.3651	-0.1417
184.5835	0.1484
184.8018	-0.0122
185.0201	0.2938
185.2385	-0.1712
185.4568	0.2216
185.6751	-0.1424
185.8934	0.1585
186.1117	-0.026
186.3299	0.0454
186.5482	-0.0782
186.7664	-0.0627
186.9847	-0.1332
187.2029	0.044
187.4211	-0.0889
187.6393	0.0263
187.8575	0.2275
188.0757	0.0926
188.2939	0.0187
188.512	0.1616
188.7302	-0.071
188.9483	0.0985
189.1665	0.0908
189.3846	-0.2172
189.6027	0.039
189.8208	0.3933
190.0389	0.1117
190.257	0.1382
190.475	0.3406
190.6931	0.2449
190.9111	0.3614
191.1292	0.2835
191.3472	0.2696
191.5652	0.1877
191.7832	0.201
192.0012	0.3954
192.2192	0.2423
192.4371	0.4867
192.6551	0.4754
192.873	0.293
193.091	0.3215
193.3089	0.3667
193.5268	0.5903
193.7447	0.4836
193.9626	0.4773
194.1805	0.4788
194.3984	0.6386
194.6162	0.6893
194.8341	0.5626
195.0519	0.6075
195.2697	0.4929
195.4875	0.6913
195.7054	0.4658
195.9231	0.5092
196.1409	0.4998
196.3587	0.5646
196.5765	0.5938
196.7942	0.4823
197.012	0.6341
197.2297	0.684
197.4474	0.5828
197.6651	0.6399
197.8828	0.5422
198.1005	0.5272
198.3182	0.5179
198.5358	0.8204
198.7535	0.5957
198.9711	0.482
199.1888	0.5382
199.4064	0.5828
199.624	0.5543
199.8416	0.5022
200.0592	0.527
200.2767	0.625
200.4943	0.7377
200.7119	0.5875
200.9294	0.6569
201.1469	0.5027
201.3645	0.5481
201.582	0.564
201.7995	0.6201
202.017	0.6587
202.2344	0.5375
202.4519	0.6903
202.6694	0.6182
202.8868	0.6631
203.1042	0.7246
203.3217	0.5963
203.5391	0.6541
203.7565	0.5756
203.9739	0.6857
204.1913	0.5365
204.4086	0.574
204.626	0.6445
204.8433	0.7024
205.0607	0.6458
205.278	0.6175
205.4953	0.5074
205.7126	0.637
205.9299	0.8033
206.1472	0.6266
206.3644	0.5985
206.5817	0.6503
206.7989	0.6928
207.0162	0.5819
207.2334	0.6
207.4506	0.6352
207.6678	0.6301
207.885	0.5765
208.1022	0.6876
208.3194	0.7124
208.5365	0.6035
208.7537	0.6156
208.9708	0.5734
209.1879	0.5896
209.405	0.652
209.6222	0.6632
209.8392	0.6195
210.0563	0.6052
210.2734	0.5837
210.4905	0.5811
210.7075	0.6335
210.9245	0.5506
211.1416	0.7018
211.3586	0.6387
211.5756	0.5953
211.7926	0.5855
212.0096	0.5604
212.2265	0.5109
212.4435	0.5664
212.6604	0.5666
212.8774	0.5497
213.0943	0.573
213.3112	0.5336
213.5281	0.5097
213.745	0.4807
213.9619	0.502
214.1788	0.454
214.3956	0.4694
214.6125	0.4423
214.8293	0.4362
215.0461	0.4671
215.2629	0.4528
215.4798	0.4747
215.6965	0.4197
215.9133	0.4392
216.1301	0.4107
216.3469	0.43
216.5636	0.4148
216.7803	0.3934
216.9971	0.3916
217.2138	0.3635
217.4305	0.4091
217.6472	0.3393
217.8639	0.354
218.0805	0.3294
218.2972	0.3044
218.5138	0.3217
218.7305	0.3061
218.9471	0.312
219.1637	0.275
219.3803	0.2829
219.5969	0.2685
219.8135	0.2497
220.0301	0.2822
220.2466	0.2729
220.4632	0.2482
220.6797	0.2146
220.8962	0.2257
221.1127	0.2382
221.3292	0.2596
221.5457	0.2468
221.7622	0.2174
221.9787	0.2575
222.1951	0.2429
222.4116	0.2625
222.628	0.2319
222.8444	0.2603
223.0608	0.244
223.2772	0.2406
223.4936	0.2475
223.71	0.2336
223.9264	0.2665
224.1427	0.2571
224.3591	0.2225
224.5754	0.265
224.7917	0.2632
225.008	0.2406
225.2243	0.2343
225.4406	0.2744
225.6569	0.2579
225.8732	0.2544
226.0894	0.2627
226.3057	0.2411
226.5219	0.2973
226.7381	0.258
226.9543	0.266
227.1705	0.2787
227.3867	0.2607
227.6029	0.2966
227.8191	0.2833
228.0352	0.2879
228.2513	0.2916
228.4675	0.3077
228.6836	0.2781
228.8997	0.2796
229.1158	0.3084
229.3319	0.3022
229.548	0.3148
229.764	0.3215
229.9801	0.3327
230.1961	0.3108
230.4121	0.3315
230.6282	0.3268
230.8442	0.2967
231.0602	0.3488
231.2761	0.3399
231.4921	0.3448
231.7081	0.3388
231.924	0.3501
232.14	0.3425
232.3559	0.3188
232.5718	0.3585
232.7877	0.3334
233.0036	0.3384
233.2195	0.3656
233.4353	0.3563
233.6512	0.3488
233.867	0.3566
234.0829	0.3711
234.2987	0.3522
234.5145	0.361
234.7303	0.3717
234.9461	0.3791
235.1619	0.382
235.3776	0.3721
235.5934	0.3852
235.8091	0.3545
236.0249	0.3719
236.2406	0.3723
236.4563	0.3649
236.672	0.4085
236.8877	0.4043
237.1034	0.3745
237.319	0.3898
237.5347	0.3966
237.7503	0.4027
237.966	0.3874
238.1816	0.4111
238.3972	0.3977
238.6128	0.3952
238.8284	0.3952
239.0439	0.3924
239.2595	0.3802
239.475	0.4062
239.6906	0.3984
239.9061	0.4037
240.1216	0.3784
240.3371	0.4137
240.5526	0.4049
240.7681	0.3979
240.9836	0.3883
241.199	0.3921
241.4145	0.3792
241.6299	0.3669
241.8453	0.3793
242.0607	0.3779
242.2761	0.3563
242.4915	0.3654
242.7069	0.3677
242.9223	0.366
243.1376	0.3361
243.353	0.3499
243.5683	0.3409
243.7836	0.3187
243.9989	0.3166
244.2142	0.307
244.4295	0.3097
244.6448	0.2997
244.86	0.3024
245.0753	0.2747
245.2905	0.286
245.5057	0.2894
245.721	0.2642
245.9362	0.2723
246.1514	0.2706
246.3665	0.257
246.5817	0.2505
246.7969	0.2516
247.012	0.2445
247.2271	0.2331
247.4423	0.2478
247.6574	0.2417
247.8725	0.224
248.0876	0.2267
248.3026	0.2181
248.5177	0.2259
248.7328	0.2035
248.9478	0.2148
249.1628	0.2199
249.3779	0.2243
249.5929	0.1963
249.8079	0.2099
250.0228	0.1965
250.2378	0.1941
250.4528	0.1987
250.6677	0.1916
250.8827	0.1932
251.0976	0.1926
251.3125	0.19
251.5274	0.1699
251.7423	0.1845
251.9572	0.1845
252.172	0.1807
252.3869	0.1844
252.6017	0.1736
252.8166	0.1569
253.0314	0.1715
253.2462	0.1738
253.461	0.1724
253.6758	0.1689
253.8906	0.1766
254.1053	0.1699
254.3201	0.171
254.5348	0.1876
254.7496	0.1736
254.9643	0.1629
255.179	0.1722
255.3937	0.1603
255.6083	0.1705
255.823	0.1733
256.0377	0.1631
256.2523	0.1669
256.467	0.1556
256.6816	0.1731
256.8962	0.1762
257.1108	0.1555
257.3254	0.17
257.54	0.1544
257.7545	0.1657
257.9691	0.1715
258.1836	0.1648
258.3981	0.1758
258.6127	0.1731
258.8272	0.1545
259.0417	0.1665
259.2561	0.1679
259.4706	0.1718
259.6851	0.1617
259.8995	0.1604
260.114	0.1699
260.3284	0.1751
260.5428	0.1557
260.7572	0.1644
260.9716	0.165
261.186	0.156
261.4003	0.1544
261.6147	0.1739
261.829	0.1583
262.0433	0.1703
262.2577	0.1627
262.472	0.1578
262.6863	0.1657
262.9005	0.1575
263.1148	0.1604
263.3291	0.157
263.5433	0.1586
263.7576	0.1556
263.9718	0.1573
264.186	0.1572
264.4002	0.1428
264.6144	0.1663
264.8286	0.166
265.0427	0.1612
265.2569	0.1667
265.471	0.1539
265.6851	0.1531
265.8993	0.1442
266.1134	0.1553
266.3275	0.1563
266.5415	0.1586
266.7556	0.1706
266.9697	0.1664
267.1837	0.1681
267.3978	0.157
267.6118	0.1656
267.8258	0.1736
268.0398	0.1563
268.2538	0.1633
268.4677	0.149
268.6817	0.1522
268.8957	0.1644
269.1096	0.1685
269.3235	0.1639
269.5374	0.1543
269.7514	0.1565
269.9652	0.1448
270.1791	0.1499
270.393	0.1423
270.6068	0.1521
270.8207	0.1405
271.0345	0.1532
271.2483	0.1546
271.4622	0.1451
271.676	0.1464
271.8897	0.1458
272.1035	0.1373
272.3173	0.141
272.531	0.142
272.7448	0.1465
272.9585	0.1459
273.1722	0.1485
273.3859	0.1517
273.5996	0.1434
273.8133	0.1466
274.0269	0.1355
274.2406	0.1367
274.4542	0.1531
274.6679	0.1302
274.8815	0.1456
275.0951	0.1475
275.3087	0.1423
275.5223	0.1483
275.7358	0.1547
275.9494	0.1443
276.1629	0.1456
276.3765	0.1511
276.59	0.1508
276.8035	0.1439
277.017	0.1501
277.2305	0.1364
277.444	0.1513
277.6574	0.1372
277.8709	0.1475
278.0843	0.1417
278.2978	0.1468
278.5112	0.1352
278.7246	0.1441
278.938	0.1587
279.1513	0.1548
279.3647	0.1542
279.5781	0.1423
279.7914	0.156
280.0047	0.1585
280.2181	0.1516
280.4314	0.1571
280.6447	0.1512
280.8579	0.1553
281.0712	0.1585
281.2845	0.1571
281.4977	0.152
281.711	0.1407
281.9242	0.1489
282.1374	0.1581
282.3506	0.1416
282.5638	0.1467
282.7769	0.1601
282.9901	0.1512
283.2033	0.1698
283.4164	0.165
283.6295	0.146
283.8426	0.1468
284.0557	0.1499
284.2688	0.1613
284.4819	0.1631
284.695	0.1617
284.908	0.1601
285.1211	0.1409
285.3341	0.1558
285.5471	0.148
285.7601	0.1584
285.9731	0.1494
286.1861	0.1455
286.3991	0.1638
286.612	0.1656
286.825	0.1566
287.0379	0.1565
287.2508	0.1598
287.4637	0.1593
287.6766	0.146
287.8895	0.1519
288.1024	0.1684
288.3152	0.1609
288.5281	0.152
288.7409	0.1723
288.9538	0.1537
289.1666	0.1621
289.3794	0.157
289.5922	0.1519
289.8049	0.1623
290.0177	0.1478
290.2304	0.1628
290.4432	0.1667
290.6559	0.1676
290.8686	0.1627
291.0813	0.1491
291.294	0.1541
291.5067	0.1792
291.7194	0.176
291.932	0.165
292.1447	0.1607
292.3573	0.1541
292.5699	0.1655
292.7825	0.1613
292.9951	0.1518
293.2077	0.1628
293.4203	0.1578
293.6328	0.1566
293.8454	0.1679
294.0579	0.1665
294.2704	0.1545
294.4829	0.1618
294.6954	0.1646
294.9079	0.1633
295.1204	0.1661
295.3328	0.1576
295.5453	0.16
295.7577	0.1682
295.9701	0.158
296.1825	0.1668
296.3949	0.1588
296.6073	0.1494
296.8197	0.1565
297.0321	0.1729
297.2444	0.1454
297.4567	0.153
297.6691	0.1647
297.8814	0.1498
298.0937	0.1594
298.306	0.1683
298.5182	0.1668
298.7305	0.1666
298.9428	0.1531
299.155	0.1606
299.3672	0.162
299.5794	0.1489
299.7916	0.1568
300.0038	0.1633
300.216	0.1563
300.4282	0.1671
300.6403	0.162
300.8525	0.1631
301.0646	0.1607
301.2767	0.1756
301.4888	0.1628
301.7009	0.1573
301.913	0.1632
302.125	0.1616
302.3371	0.1484
302.5491	0.1668
302.7612	0.1657
302.9732	0.1638
303.1852	0.1548
303.3972	0.1681
303.6092	0.1459
303.8211	0.15
304.0331	0.149
304.245	0.157
304.457	0.1442
304.6689	0.1583
304.8808	0.1623
305.0927	0.1524
305.3046	0.1595
305.5164	0.163
305.7283	0.1488
305.9401	0.1412
306.152	0.147
306.3638	0.1463
306.5756	0.1456
306.7874	0.1524
306.9992	0.1471
307.2109	0.1291
307.4227	0.1204
307.6344	0.1321
307.8462	0.1334
308.0579	0.1353
308.2696	0.1255
308.4813	0.1306
308.693	0.123
308.9046	0.1325
309.1163	0.115
309.328	0.1292
309.5396	0.1216
309.7512	0.1181
309.9628	0.1139
310.1744	0.1289
310.386	0.1048
310.5976	0.1168
310.8091	0.1221
311.0207	0.131
311.2322	0.1181
311.4437	0.1078
311.6552	0.1186
311.8667	0.1132
312.0782	0.0955
312.2897	0.0976
312.5012	0.1103
312.7126	0.0996
312.924	0.1045
313.1355	0.1117
313.3469	0.0993
313.5583	0.0976
313.7696	0.1034
313.981	0.1069
314.1924	0.1005
314.4037	0.0969
314.6151	0.1099
314.8264	0.0938
315.0377	0.103
315.249	0.1085
315.4603	0.1035
315.6716	0.0917
315.8828	0.0959
316.0941	0.1026
316.3053	0.1028
316.5165	0.0958
316.7277	0.089
316.9389	0.1089
317.1501	0.0922
317.3613	0.0913
317.5724	0.0834
317.7836	0.0944
317.9947	0.0968
318.2058	0.0999
318.417	0.0932
318.6281	0.0825
318.8391	0.0946
319.0502	0.0911
319.2613	0.1003
319.4723	0.0981
319.6834	0.0977
319.8944	0.0946
320.1054	0.1026
320.3164	0.105
320.5274	0.088
320.7383	0.0905
320.9493	0.1016
321.1602	0.1044
321.3712	0.0861
321.5821	0.1109
321.793	0.0965
322.0039	0.0895
322.2148	0.0994
322.4257	0.104
322.6365	0.1121
322.8474	0.1117
323.0582	0.0963
323.269	0.0956
323.4798	0.1071
323.6906	0.0988
323.9014	0.104
324.1122	0.1064
324.3229	0.0893
324.5337	0.0976
324.7444	0.0933
324.9551	0.1094
325.1658	0.1023
325.3765	0.108
325.5872	0.1092
325.7979	0.097
326.0085	0.1032
326.2192	0.1095
326.4298	0.1112
326.6404	0.0968
326.851	0.0984
327.0616	0.0909
327.2722	0.107
327.4828	0.1012
327.6933	0.1003
327.9039	0.12
328.1144	0.1125
328.3249	0.1143
328.5354	0.0938
328.7459	0.0956
328.9564	0.0976
329.1669	0.101
329.3773	0.1032
329.5878	0.1025
329.7982	0.0967
330.0086	0.1047
330.219	0.1054
330.4294	0.1049
330.6398	0.0983
330.8502	0.0918
331.0605	0.1173
331.2708	0.1112
331.4812	0.1021
331.6915	0.1052
331.9018	0.1108
332.1121	0.098
332.3224	0.1007
332.5326	0.1102
332.7429	0.112
332.9531	0.1274
333.1633	0.1186
333.3735	0.1125
333.5837	0.1088
333.7939	0.1126
334.0041	0.1166
334.2143	0.1171
334.4244	0.1044
334.6346	0.0892
334.8447	0.109
335.0548	0.1035
335.2649	0.092
335.475	0.1072
335.685	0.1127
335.8951	0.1234
336.1051	0.0989
336.3152	0.1125
336.5252	0.1047
336.7352	0.1048
336.9452	0.1217
337.1552	0.1156
337.3652	0.1011
337.5751	0.1033
337.7851	0.1104
337.995	0.0938
338.2049	0.1227
338.4148	0.1144
338.6247	0.1059
338.8346	0.1045
339.0445	0.0969
339.2543	0.1011
339.4642	0.1201
339.674	0.111
339.8838	0.11
340.0936	0.1145
340.3034	0.1202
340.5132	0.1202
340.7229	0.1044
340.9327	0.1188
341.1424	0.1263
341.3522	0.1244
341.5619	0.1209
341.7716	0.1177
341.9813	0.1148
342.1909	0.1194
342.4006	0.1327
342.6102	0.1184
342.8199	0.12
343.0295	0.132
343.2391	0.1336
343.4487	0.1213
343.6583	0.1268
343.8679	0.1265
344.0774	0.1338
344.287	0.1239
344.4965	0.122
344.706	0.1251
344.9155	0.1244
345.125	0.1161
345.3345	0.1273
345.544	0.1245
345.7534	0.1225
345.9629	0.1191
346.1723	0.119
346.3817	0.1219
346.5911	0.1218
346.8005	0.1292
347.0099	0.1277
347.2193	0.1326
347.4286	0.1154
347.638	0.1272
347.8473	0.1359
348.0566	0.1325
348.2659	0.1433
348.4752	0.1278
348.6845	0.128
348.8937	0.128
349.103	0.1393
349.3122	0.1216
349.5214	0.1308
349.7306	0.1288
349.9398	0.1249
350.149	0.1431
350.3582	0.1369
350.5674	0.1529
350.7765	0.1523
350.9856	0.1406
351.1948	0.135
351.4039	0.1191
351.613	0.1381
351.822	0.1384
352.0311	0.1484
352.2402	0.1295
352.4492	0.1539
352.6582	0.1585
352.8672	0.1443
353.0762	0.1504
353.2852	0.1469
353.4942	0.1352
353.7032	0.1443
353.9121	0.1475
354.1211	0.1531
354.33	0.149
354.5389	0.1528
354.7478	0.1481
354.9567	0.1508
355.1655	0.1457
355.3744	0.1579
355.5833	0.168
355.7921	0.162
356.0009	0.1627
356.2097	0.1724
356.4185	0.1591
356.6273	0.1567
356.8361	0.1572
357.0448	0.1481
357.2536	0.145
357.4623	0.1542
357.671	0.1609
357.8797	0.1613
358.0884	0.1515
358.2971	0.1689
358.5057	0.1788
358.7144	0.178
358.923	0.1692
359.1316	0.1684
359.3402	0.1576
359.5488	0.1796
359.7574	0.1729
359.966	0.184
360.1746	0.1718
360.3831	0.1774
360.5916	0.175
360.8002	0.1537
361.0087	0.1788
361.2172	0.1829
361.4256	0.1665
361.6341	0.1933
361.8426	0.186
362.051	0.1804
362.2594	0.1712
362.4678	0.1745
362.6762	0.1965
362.8846	0.1748
363.093	0.1762
363.3014	0.1776
363.5097	0.1685
363.718	0.172
363.9264	0.1792
364.1347	0.1812
364.343	0.1864
364.5513	0.1928
364.7595	0.195
364.9678	0.1907
365.176	0.1953
365.3842	0.1832
365.5925	0.1943
365.8007	0.2019
366.0089	0.1861
366.217	0.1755
366.4252	0.1988
366.6333	0.2064
366.8415	0.2041
367.0496	0.1801
367.2577	0.1929
367.4658	0.2156
367.6739	0.2168
367.882	0.2001
368.09	0.2055
368.2981	0.2059
368.5061	0.187
368.7141	0.2031
368.9221	0.2055
369.1301	0.2046
369.3381	0.1978
369.5461	0.2
369.754	0.2025
369.962	0.2131
370.1699	0.2181
370.3778	0.21
370.5857	0.2117
370.7936	0.2077
371.0015	0.217
371.2093	0.2116
371.4172	0.232
371.625	0.2137
371.8328	0.2276
372.0406	0.2116
372.2484	0.2007
372.4562	0.2197
372.664	0.2124
372.8717	0.2169
373.0795	0.1969
373.2872	0.2265
373.4949	0.216
373.7026	0.2039
373.9103	0.2226
374.118	0.2224
374.3256	0.2198
374.5333	0.216
374.7409	0.2233
374.9485	0.2328
375.1561	0.2249
375.3637	0.2288
375.5713	0.2151
375.7789	0.2161
375.9864	0.226
376.194	0.2271
376.4015	0.2491
376.609	0.2226
376.8165	0.2386
377.024	0.222
377.2315	0.2137
377.4389	0.2359
377.6464	0.2448
377.8538	0.2421
378.0612	0.238
378.2686	0.233
378.476	0.2422
378.6834	0.2428
378.8908	0.2421
379.0981	0.234
379.3055	0.2336
379.5128	0.2407
379.7201	0.2367
379.9274	0.2425
380.1347	0.2412
380.342	0.2596
380.5492	0.2439
380.7565	0.2514
380.9637	0.2473
381.1709	0.234
381.3781	0.2498
381.5853	0.2553
381.7925	0.244
381.9997	0.2511
382.2068	0.2429
382.4139	0.25
382.6211	0.2609
382.8282	0.2441
383.0353	0.2408
383.2424	0.2346
383.4494	0.2603
383.6565	0.2556
383.8635	0.2385
384.0706	0.2367
384.2776	0.2438
384.4846	0.2356
384.6916	0.2609
384.8986	0.2388
385.1055	0.257
385.3125	0.2583
385.5194	0.2349
385.7263	0.2633
385.9333	0.2469
386.1402	0.2385
386.347	0.2512
386.5539	0.2378
386.7608	0.2626
386.9676	0.2462
387.1744	0.2488
387.3813	0.2458
387.5881	0.2445
387.7948	0.2494
388.0016	0.2308
388.2084	0.2358
388.4151	0.2312
388.6219	0.2452
388.8286	0.2309
389.0353	0.2414
389.242	0.2522
389.4487	0.2412
389.6553	0.2378
389.862	0.22
390.0686	0.2453
390.2753	0.2518
390.4819	0.2299
390.6885	0.2346
390.8951	0.2293
391.1016	0.2183
391.3082	0.2276
391.5147	0.2288
391.7213	0.2263
391.9278	0.2227
392.1343	0.2236
392.3408	0.2301
392.5473	0.2285
392.7537	0.2285
392.9602	0.2258
393.1666	0.2201
393.373	0.2201
393.5794	0.2369
393.7858	0.2176
393.9922	0.2212
394.1986	0.2315
394.4049	0.2154
394.6113	0.204
394.8176	0.2021
395.0239	0.216
395.2302	0.2041
395.4365	0.2054
395.6428	0.2205
395.8491	0.2033
396.0553	0.2219
396.2615	0.1825
396.4678	0.2056
396.674	0.2067
396.8802	0.1943
397.0863	0.2412
397.2925	0.2013
397.4987	0.1926
397.7048	0.2003
397.9109	0.2067
398.117	0.1935
398.3231	0.2141
398.5292	0.2113
398.7353	0.2077
398.9413	0.2085
399.1474	0.1991
399.3534	0.2003
399.5594	0.1867
399.7654	0.2229
399.9714	0.2263
400.1774	0.2146
400.3833	0.1967
400.5893	0.2156
400.7952	0.2012
401.0011	0.2095
401.207	0.218
401.4129	0.191
401.6188	0.1981
401.8247	0.2069
402.0305	0.1898
402.2364	0.1896
402.4422	0.2224
402.648	0.2053
402.8538	0.2246
403.0596	0.1965
403.2654	0.2037
403.4711	0.2012
403.6768	0.2133
403.8826	0.1996
404.0883	0.2142
404.294	0.2068
404.4997	0.2194
404.7054	0.1963
404.911	0.19
405.1167	0.2114
405.3223	0.2338
405.5279	0.2295
405.7335	0.2081
405.9391	0.2229
406.1447	0.2069
406.3502	0.2139
406.5558	0.1998
406.7613	0.2123
406.9668	0.2229
407.1724	0.1986
407.3778	0.2014
407.5833	0.2053
407.7888	0.2011
407.9942	0.2206
408.1997	0.2087
408.4051	0.2037
408.6105	0.21
408.8159	0.1996
409.0213	0.1792
409.2267	0.2121
409.432	0.1681
409.6374	0.2189
409.8427	0.1967
410.048	0.1937
410.2533	0.1955
410.4586	0.1999
410.6639	0.1826
410.8691	0.1948
411.0744	0.1991
411.2796	0.1875
411.4848	0.1832
411.69	0.1971
411.8952	0.2222
412.1004	0.1925
412.3056	0.2006
412.5107	0.192
412.7158	0.205
412.921	0.1936
413.1261	0.1955
413.3312	0.1873
413.5362	0.1895
413.7413	0.2029
413.9464	0.1884
414.1514	0.2175
414.3564	0.2012
414.5614	0.1935
414.7664	0.2049
414.9714	0.1842
415.1764	0.194
415.3813	0.2034
415.5863	0.191
415.7912	0.201
415.9961	0.2025
416.201	0.2014
416.4059	0.1987
416.6108	0.1981
416.8156	0.2015
417.0205	0.1938
417.2253	0.1883
417.4301	0.2056
417.6349	0.1836
417.8397	0.1936
418.0445	0.1984
418.2492	0.1848
418.454	0.1867
418.6587	0.1822
418.8634	0.1802
419.0681	0.1709
419.2728	0.2007
419.4775	0.1802
419.6822	0.1755
419.8868	0.1587
420.0915	0.184
420.2961	0.1772
420.5007	0.1749
420.7053	0.2099
420.9099	0.179
421.1144	0.1879
421.319	0.17
421.5235	0.1797
421.728	0.1859
421.9325	0.1798
422.137	0.1801
422.3415	0.1872
422.546	0.1722
422.7504	0.1702
422.9549	0.1836
423.1593	0.1744
423.3637	0.1719
423.5681	0.1833
423.7725	0.1617
423.9769	0.1637
424.1812	0.1649
424.3856	0.1743
424.5899	0.1855
424.7942	0.1608
424.9985	0.1711
425.2028	0.1748
425.4071	0.1836
425.6113	0.1547
425.8156	0.1587
426.0198	0.161
426.224	0.1692
426.4282	0.1545
426.6324	0.1562
426.8366	0.1488
427.0407	0.1511
427.2449	0.1394
427.449	0.1664
427.6531	0.1311
427.8572	0.1502
428.0613	0.1472
428.2654	0.1412
428.4694	0.1483
428.6735	0.1571
428.8775	0.1465
429.0815	0.1499
429.2855	0.1294
429.4895	0.1381
429.6935	0.1515
429.8975	0.1391
430.1014	0.1379
430.3053	0.1248
430.5093	0.1341
430.7132	0.1325
430.9171	0.1257
431.1209	0.1301
431.3248	0.1341
431.5286	0.1321
431.7325	0.1273
431.9363	0.1117
432.1401	0.1279
432.3439	0.1147
432.5477	0.1066
432.7514	0.1089
432.9552	0.1196
433.1589	0.1125
433.3627	0.11
433.5664	0.1185
433.7701	0.1173
433.9737	0.1042
434.1774	0.106
434.3811	0.1041
434.5847	0.118
434.7883	0.1109
434.9919	0.1078
435.1955	0.1007
435.3991	0.0999
435.6027	0.1077
435.8062	0.114
436.0098	0.098
436.2133	0.1125
436.4168	0.1056
436.6203	0.0836
436.8238	0.0873
437.0272	0.094
437.2307	0.092
437.4341	0.0868
437.6375	0.0763
437.841	0.0773
438.0443	0.0937
438.2477	0.0814
438.4511	0.0822
438.6545	0.0802
438.8578	0.0874
439.0611	0.0734
439.2644	0.0837
439.4677	0.071
439.671	0.0571
439.8743	0.0805
440.0775	0.0859
440.2808	0.0716
440.484	0.045
440.6872	0.0501
440.8904	0.064
441.0936	0.0929
441.2967	0.0714
441.4999	0.0589
441.703	0.0764
441.9062	0.0604
442.1093	0.0699
442.3124	0.066
442.5155	0.0473
442.7185	0.0582
442.9216	0.0529
443.1246	0.0489
443.3276	0.0582
443.5307	0.0618
443.7337	0.0651
443.9366	0.0465
444.1396	0.0496
444.3426	0.0571
444.5455	0.049
444.7484	0.0346
444.9513	0.0363
445.1542	0.0538
445.3571	0.035
445.56	0.0468
445.7628	0.0369
445.9657	0.0445
446.1685	0.0438
446.3713	0.0337
446.5741	0.0411
446.7769	0.0338
446.9797	0.0406
447.1824	0.0413
447.3852	0.0256
447.5879	0.0423
447.7906	0.0363
447.9933	0.0287
448.196	0.025
448.3986	0.0279
448.6013	0.0237
448.8039	0.0025
449.0066	0.0272
449.2092	0.0358
449.4118	0.0351
449.6143	0.0311
449.8169	0.025
450.0195	0.0175
450.222	-0.002
450.4245	0.0204
450.627	0.0332
450.8295	0.0291
451.032	0.0148
451.2345	0.0168
451.4369	0.0241
451.6394	0.0155
451.8418	0.0005
452.0442	-0.0014
452.2466	0.0414
452.449	0.0043
452.6513	0.0136
452.8537	0.001
453.056	-0.0044
453.2583	0.0211
453.4607	0.0145
453.663	0.0099
453.8652	0.0268
454.0675	0.0052
454.2697	0.0181
454.472	0.0116
454.6742	0.0083
454.8764	0.0152
455.0786	0.0203
455.2808	0.016
455.4829	0.0172
455.6851	0.0173
455.8872	0.0146
456.0893	0.0183
456.2915	0.0054
456.4935	0.0181
456.6956	0.0033
456.8977	0.0122
457.0997	-0.0139
457.3018	-0.0012
457.5038	0.0096
457.7058	0.0001
457.9078	0.0072
458.1098	0.0127
458.3117	0.0138
458.5137	0.0054
458.7156	0.0044
458.9175	0.0013
459.1194	0.0086
459.3213	0.006
459.5232	-0.0017
459.725	-0.0197
459.9269	0.0053
460.1287	-0.008
460.3305	-0.0003
460.5323	-0.0008
460.7341	-0.0022
460.9359	-0.0046
461.1376	0.0209
461.3394	-0.0107
461.5411	0.004
461.7428	0.0017
461.9445	0.002
462.1462	0.0267
462.3479	0.0026
462.5495	-0.0021
462.7512	0.0068
462.9528	-0.0096
463.1544	-0.0056
463.356	0.0027
463.5576	-0.0022
463.7592	-0.0126
463.9607	-0.0064
464.1623	0.0211
464.3638	0.0078
464.5653	-0.0177
464.7668	-0.0035
464.9683	0.0117
465.1697	0.0229
465.3712	-0.0023
465.5726	-0.0088
465.7741	-0.0054
465.9755	-0.0107
466.1769	-0.0063
466.3782	0.0065
466.5796	-0.0007
466.7809	-0.0013
466.9823	-0.0161
467.1836	-0.0008
467.3849	-0.0028
467.5862	0.0009
467.7875	-0.0039
467.9887	0.0062
468.19	-0.0111
468.3912	-0.0131
468.5924	-0
468.7936	-0.0052
468.9948	0.0065
469.196	0.0019
469.3972	-0.007
469.5983	0.0041
469.7994	-0.0025
470.0006	0.0013
470.2017	-0.0168
470.4027	-0.0071
470.6038	-0.0017
470.8049	-0.0217
471.0059	-0.0015
471.2069	-0.0364
471.408	0.0008
471.6089	0.0039
471.8099	0.0016
472.0109	0.0083
472.2119	-0.0151
472.4128	-0.0126
472.6137	0.0001
472.8146	-0.0225
473.0155	0.0003
473.2164	0.0031
473.4173	0.0101
473.6181	0.0022
473.819	0.0023
474.0198	-0.0177
474.2206	-0.0093
474.4214	-0.0098
474.6222	-0.0137
474.8229	-0.0164
475.0237	-0.0207
475.2244	-0.0125
475.4251	-0.0107
475.6258	-0.0016
475.8265	-0.0034
476.0272	0.0062
476.2278	-0.0077
476.4285	-0.0106
476.6291	-0.0049
476.8297	-0.0172
477.0303	-0.0147
477.2309	-0.005
477.4315	-0.0064
477.632	-0.0037
477.8326	-0.0093
478.0331	-0.0003
478.2336	-0.0043
478.4341	-0.0171
478.6346	-0.0147
478.8351	-0.0064
479.0355	0.0014
479.236	-0.0075
479.4364	0.0056
479.6368	-0.0019
479.8372	-0.0108
480.0376	-0.0062
480.2379	-0.0272
480.4383	-0.0102
480.6386	0.0003
480.8389	-0.0043
481.0392	-0.0201
481.2395	-0.018
481.4398	0.0079
481.6401	0.0011
481.8403	0.0008
482.0405	-0.0145
482.2408	-0.0099
482.441	0.0087
482.6411	-0.0216
482.8413	-0.0057
483.0415	-0.0064
483.2416	-0.0049
483.4417	-0.005
483.6419	-0.0089
483.8419	-0.0056
484.042	0.0066
484.2421	0.0038
484.4422	-0.0127
484.6422	-0.0097
484.8422	-0.0021
485.0422	-0.018
485.2422	-0.0064
485.4422	-0.0168
485.6422	-0.0156
485.8421	-0.0053
486.042	-0.0019
486.242	-0.0107
486.4419	-0.0086
486.6417	-0.0081
486.8416	-0.0067
487.0415	-0.0004
487.2413	-0.0115
487.4411	-0.0059
487.641	-0.0153
487.8408	0.0011
488.0405	-0.0167
488.2403	-0.0124
488.4401	0.0065
488.6398	-0.0071
488.8395	-0.0089
489.0392	-0.0043
489.2389	-0.011
489.4386	-0.002
489.6383	-0.0019
489.8379	-0.0036
490.0376	-0.0054
490.2372	-0.0106
490.4368	-0.0088
490.6364	-0.009
490.836	-0.0153
491.0355	-0.0092
491.2351	-0.0066
491.4346	-0.0122
491.6341	-0.0155
491.8336	-0.0017
492.0331	-0.0083
492.2326	-0.006
492.432	-0.0066
492.6315	-0.0132
492.8309	-0.0234
493.0303	-0.0065
493.2297	-0.0123
493.4291	-0.009
493.6284	-0.0066
493.8278	-0.0092
494.0271	-0.0052
494.2264	0.0019
494.4257	-0.0136
494.625	-0.0027
494.8243	-0.0218
495.0236	-0.0073
495.2228	-0.0156
495.422	0.0029
495.6213	-0.0007
495.8205	0.0001
496.0196	-0.0016
496.2188	-0.0013
496.418	-0.0195
496.6171	-0.009
496.8162	-0.013
497.0153	-0.008
497.2144	-0.0054
497.4135	-0.0091
497.6126	-0.0179
497.8116	-0.0151
498.0107	0.002
498.2097	-0.0202
498.4087	-0.0011
498.6077	-0.0092
498.8067	-0.0135
499.0056	0.0048
499.2046	0.0003
499.4035	-0.0157
499.6024	-0.0161
499.8013	-0.0028
500.0002	-0.0201
500.199	-0.0094
500.3979	-0.013
500.5967	-0.0206
500.7956	-0.0013
500.9944	-0.0044
501.1932	-0.0148
501.3919	-0.0077
501.5907	-0.001
501.7895	-0.0012
501.9882	-0.013
502.1869	0.0031
502.3856	-0.0097
502.5843	-0.0144
502.783	-0.013
502.9816	-0.0169
503.1803	-0.0205
503.3789	-0.0104
503.5775	-0.0035
503.7761	-0.0121
503.9747	-0.0031
504.1732	-0.0175
504.3718	-0.0039
504.5703	-0.014
504.7689	-0.0142
504.9674	-0.0144
505.1658	-0.0134
505.3643	-0.0124
505.5628	-0.0151
505.7612	-0.0145
505.9597	-0.005
506.1581	-0.0095
506.3565	-0.0058
506.5549	-0.0069
506.7532	-0.0157
506.9516	-0.0069
507.1499	-0.0028
507.3482	-0.0132
507.5465	-0.0123
507.7448	-0.0019
507.9431	-0.0172
508.1414	-0.004
508.3396	-0.0067
508.5379	-0.0077
508.7361	-0.0114
508.9343	-0.0092
509.1325	0.0006
509.3306	-0.0143
509.5288	-0.011
509.7269	-0.0038
509.9251	-0.0123
510.1232	-0.016
510.3213	-0.0084
510.5193	0.0002
510.7174	-0.0088
510.9154	-0.0113
511.1135	-0.0091
511.3115	-0.0129
511.5095	-0.0031
511.7075	-0.0091
511.9055	-0.0068
512.1034	-0.0159
512.3014	0.0013
512.4993	-0.0013
512.6972	-0.0029
512.8951	-0.0114
513.093	0.0004
513.2908	-0.003
513.4887	-0.0028
513.6865	-0.0175
513.8844	-0.0175
514.0822	-0.0144
514.2799	-0.017
514.4777	-0.01
514.6755	-0.0166
514.8732	-0.0114
515.0709	-0.0088
515.2687	-0.0104
515.4664	-0.0063
515.664	-0.012
515.8617	-0.0088
516.0594	-0.0118
516.257	-0.0082
516.4546	-0.0174
516.6522	-0.0003
516.8498	-0.005
517.0474	-0.0035
517.2449	0.0025
517.4425	-0.0188
517.64	-0.0128
517.8375	0.0012
518.035	-0.0086
518.2325	-0.0137
518.43	0.0009
518.6274	-0.0059
518.8249	-0.0294
519.0223	-0.0056
519.2197	-0.0142
519.4171	-0.0081
519.6145	-0.0134
519.8118	0.003
520.0092	-0.0078
520.2065	-0.0132
520.4038	-0.0258
520.6011	-0.005
520.7984	-0.0081
520.9956	-0.0186
521.1929	-0.0101
521.3901	-0.006
521.5874	-0.0065
521.7846	0.0045
521.9818	-0.0164
522.1789	-0.0116
522.3761	0.0011
522.5732	-0.0038
522.7704	-0.0127
522.9675	-0.009
523.1646	-0.0128
523.3617	0.0006
523.5587	-0.0074
523.7558	0.0017
523.9528	-0.0196
524.1498	-0.0052
524.3468	-0.0089
524.5438	-0.0031
524.7408	0.003
524.9378	0.0074
525.1347	-0.0042
525.3316	-0.0096
525.5285	-0.0175
525.7254	-0.0134
525.9223	-0.0063
526.1192	-0.004
526.316	-0.0129
526.5129	-0.0036
526.7097	0.0006
526.9065	-0.0098
527.1033	-0.0145
527.3	-0.0092
527.4968	-0.0047
527.6935	-0.0043
527.8903	-0.0098
528.087	-0.0071
528.2837	-0.0032
528.4804	-0.0049
528.677	-0.0088
528.8737	-0.0013
529.0703	0.002
529.2669	-0.0119
529.4635	-0.0063
529.6601	-0.0078
529.8567	-0.0087
530.0532	-0.0087
530.2498	0.0071
530.4463	-0.004
530.6428	-0.004
530.8393	0.0052
531.0358	-0.0089
531.2322	-0.0063
531.4287	-0.0076
531.6251	-0.0071
531.8215	-0.0012
532.0179	-0.0073
532.2143	0.0044
532.4107	-0.0063
532.607	-0.0176
532.8034	0.0036
532.9997	-0.0028
533.196	-0.0007
533.3923	-0.0074
533.5886	0.0002
533.7848	0.0011
533.9811	-0.0032
534.1773	0.0011
534.3735	-0.0036
534.5697	0.0028
534.7659	-0.0044
534.9621	0.0096
535.1582	-0.0102
535.3544	0.0015
535.5505	-0.0121
535.7466	-0.0176
535.9427	-0.007
536.1387	-0.0049
536.3348	-0.0063
536.5308	0.0062
536.7269	-0.016
536.9229	0.0078
537.1189	-0.0094
537.3148	-0.0118
537.5108	-0.0131
537.7068	-0.0157
537.9027	0.0024
538.0986	-0.0031
538.2945	-0.0085
538.4904	-0.0129
538.6863	-0.0137
538.8821	-0.0034
539.078	-0.0121
539.2738	-0.0069
539.4696	-0.0032
539.6654	-0.0033
539.8611	0.0126
540.0569	-0.007
540.2526	-0.0122
540.4484	-0.0016
540.6441	0.004
540.8398	-0.0013
541.0355	-0.0036
541.2311	-0.0085
541.4268	-0.0178
541.6224	-0.003
541.818	-0.0003
542.0136	-0.0111
542.2092	-0.0064
542.4048	-0.0034
542.6003	-0.0023
542.7959	-0.0105
542.9914	-0.002
543.1869	-0.0036
543.3824	-0.004
543.5779	-0.0092
543.7734	-0.0046
543.9688	-0.0112
544.1642	-0.0002
544.3596	-0.0048
544.555	-0.0146
544.7504	0.0026
544.9458	-0.0149
545.1411	-0.0012
545.3365	-0.0033
545.5318	-0.0071
545.7271	-0.0093
545.9224	-0.0062
546.1177	-0.0033
546.3129	0.001
546.5081	-0.0117
546.7034	-0.009
546.8986	-0.004
547.0938	-0.007
547.289	-0.0116
547.4841	-0.0019
547.6793	0.0034
547.8744	-0.0143
548.0695	-0.0007
548.2646	-0.0112
548.4597	0.0003
548.6548	-0.0037
548.8498	-0.0029
549.0448	0.0021
549.2399	-0.0094
549.4349	0.0023
549.6298	-0.0116
549.8248	0.0021
550.0198	-0.0171
550.2147	-0.0113
550.4096	-0.0048
550.6045	-0.0032
550.7994	-0.0026
550.9943	-0.0012
551.1892	0.0054
551.384	0.0077
551.5788	-0.0213
551.7737	-0.0048
551.9685	-0.0024
552.1632	-0.0002
552.358	-0.0096
552.5528	0.0025
552.7475	-0.0076
552.9422	0.0029
553.1369	-0.0061
553.3316	0.0045
553.5263	-0.0114
553.7209	-0.0012
553.9156	-0.0073
554.1102	-0.0115
554.3048	-0.0102
554.4994	0.0004
554.694	-0.0068
554.8885	0.0009
555.0831	-0.0098
555.2776	-0.0085
555.4721	-0.007
555.6666	-0.0048
555.8611	0.0039
556.0555	0.003
556.25	-0.007
556.4444	-0.0109
556.6388	-0.0043
556.8332	-0.0021
557.0276	-0.0035
557.222	-0.0101
557.4163	-0.0054
557.6107	-0.0068
557.805	-0.0044
557.9993	-0.0081
558.1936	-0.0033
558.3879	0.0015
558.5821	-0.0043
558.7764	-0.0017
558.9706	-0.0039
559.1648	0.0016
559.359	-0.0045
559.5532	-0.0064
559.7473	0.01
559.9415	-0.0109
560.1356	-0.0098
560.3297	-0.0166
560.5238	-0.006
560.7179	-0.0064
560.9119	-0.0084
561.106	-0.0119
561.3	-0.0097
561.494	-0.0021
561.688	-0.0067
561.882	-0.007
562.076	-0.0085
562.2699	-0.0009
562.4639	-0.0044
562.6578	-0.0142
562.8517	-0.0039
563.0456	-0.0017
563.2395	-0.0021
563.4333	0.0003
563.6272	0.0051
563.821	-0.0007
564.0148	-0.0016
564.2086	-0.0073
564.4024	-0.0011
564.5961	-0.0105
564.7899	-0.003
564.9836	-0.0047
565.1773	-0.007
565.371	0.007
565.5647	0.0025
565.7584	0.0088
565.952	0.0066
566.1456	-0.0066
566.3393	-0.0108
566.5329	-0.0083
566.7264	-0.0011
566.92	-0.0043
567.1136	0.0045
567.3071	-0.0053
567.5006	-0.0039
567.6941	0.0073
567.8876	-0.0052
568.0811	-0.0013
568.2745	0.0039
568.468	0.0084
568.6614	0.0029
568.8548	0.0002
569.0482	-0.0013
569.2416	-0.0007
569.4349	0.0027
569.6283	0.0016
569.8216	-0.0052
570.0149	-0.006
570.2082	0.001
570.4015	0.0017
570.5947	0.0053
570.788	0.0064
570.9812	0.0021
571.1744	-0.0064
571.3676	-0.0072
571.5608	-0.0062
571.754	-0.0028
571.9471	-0.0029
572.1402	-0.0079
572.3333	-0.0081
572.5264	-0.0066
572.7195	-0.0033
572.9126	-0.0019
573.1057	-0.0035
573.2987	-0.0061
573.4917	0.0009
573.6847	-0.0134
573.8777	-0.0002
574.0707	0.0077
574.2636	-0.0062
574.4566	-0.0053
574.6495	0.0022
574.8424	-0.0053
575.0353	-0.0085
575.2281	0.0101
575.421	-0.002
575.6138	-0.0027
575.8067	0.0008
575.9995	-0.0038
576.1923	0.0043
576.385	-0.0007
576.5778	-0.0024
576.7706	-0.003
576.9633	0.004
577.156	0.0009
577.3487	-0.0006
577.5414	-0.001
577.734	-0.0033
577.9267	0.0061
578.1193	-0.0082
578.3119	-0.0024
578.5045	0.002
578.6971	0
578.8897	0.0039
579.0822	-0.003
579.2747	-0.0033
579.4673	-0.0052
579.6598	-0.0072
579.8522	-0.0012
580.0447	-0.0048
580.2372	-0.0007
580.4296	0.0001
580.622	0.0011
580.8144	-0.0005
581.0068	-0.0086
581.1992	-0.0138
581.3915	-0.0048
581.5839	-0.0054
581.7762	-0.0084
581.9685	-0.0053
582.1608	-0.0015
582.353	-0.0004
582.5453	-0.0029
582.7375	-0.0025
582.9298	-0.0002
583.122	-0.0044
583.3142	-0.0022
583.5063	0.0024
583.6985	-0.0051
583.8906	0.0017
584.0827	-0.0094
584.2749	0.0031
584.4669	-0.0048
584.659	-0.0022
584.8511	-0.0078
585.0431	-0.0015
585.2352	0.0004
585.4272	-0.0072
585.6192	0.0005
585.8111	-0.0018
586.0031	-0.0062
586.195	-0.0047
586.387	0.0041
586.5789	0.0019
586.7708	-0.0038
586.9627	0.0023
587.1545	-0.0041
587.3464	-0.006
587.5382	0.0028
587.73	-0.003
587.9218	0.0033
588.1136	-0.0037
588.3053	0.0029
588.4971	-0.0076
588.6888	-0.0109
588.8805	-0.0037
589.0722	0.0008
589.2639	-0.007
589.4556	-0.0005
589.6472	-0.0033
589.8389	-0.0058
590.0305	-0.0074
590.2221	-0.0037
590.4137	-0.0077
590.6052	0.0045
590.7968	-0.0047
590.9883	-0.0039
591.1798	-0.0015
591.3713	0.0002
591.5628	-0.0043
591.7543	-0
591.9458	-0.0025
592.1372	0.0024
592.3286	0.0066
592.52	0.0092
592.7114	-0.006
592.9028	-0.0048
593.0941	-0.0019
593.2855	0.0018
593.4768	-0.0086
593.6681	-0.0078
593.8594	-0.0066
594.0506	-0.0042
594.2419	-0.0021
594.4331	0.003
594.6244	0.0013
594.8156	-0.0132
595.0067	0.008
595.1979	0.0015
595.3891	-0.0038
595.5802	-0.0082
595.7713	-0.0038
595.9624	-0.0016
596.1535	0.0059
596.3446	-0.0021
596.5357	-0.0055
596.7267	0.0104
596.9177	-0.0021
597.1087	-0.0028
597.2997	-0.0086
597.4907	0.0021
597.6817	-0.0096
597.8726	-0.0069
598.0635	-0.0089
598.2544	-0.0037
598.4453	-0.0044
598.6362	-0.0104
598.827	-0.0052
599.0179	0.0043
599.2087	0.0005
599.3995	-0.0037
599.5903	-0.0027
599.7811	-0.0029
599.9718	-0.0031
600.1626	-0.0023
600.3533	-0.0112
600.544	-0.002
600.7347	-0.0102
600.9254	0.0014
601.116	-0.0109
601.3067	-0.0062
601.4973	-0.0017
601.6879	0.0024
601.8785	-0.0089
602.0691	0.0012
602.2596	0.0005
602.4502	-0.0006
602.6407	-0.0003
602.8312	0.0003
603.0217	-0.0162
603.2122	0
603.4027	-0.0057
603.5931	0.0026
603.7835	-0.0047
603.9739	-0.0026
604.1643	0.0012
604.3547	0.0022
604.5451	-0.0013
604.7354	-0.0029
604.9257	0.0046
605.116	-0.0067
605.3063	0.0023
605.4966	0.003
605.6869	-0.0011
605.8771	0.0027
606.0673	-0.0005
606.2575	0.0042
606.4477	0.0105
606.6379	0.0037
606.8281	-0.0003
607.0182	-0.0031
607.2083	0.0103
607.3985	-0.0081
607.5885	0.0012
607.7786	0.0047
607.9687	-0.0066
608.1587	0.0017
608.3488	-0.0015
608.5388	-0.0014
608.7288	-0.0012
608.9187	-0.0029
609.1087	-0.0014
609.2986	-0.008
609.4886	-0.0052
609.6785	-0.0072
609.8684	0.0033
610.0582	-0.0005
610.2481	-0.0035
610.4379	-0.0047
610.6278	-0.0068
610.8176	-0.0013
611.0074	-0.0037
611.1971	0.0002
611.3869	-0.0017
611.5766	-0.0076
611.7664	0.0078
611.9561	0.0038
612.1458	-0.0007
612.3354	-0.0076
612.5251	0.0015
612.7147	0.0024
612.9044	0.0106
613.094	-0.0009
613.2836	-0.0042
613.4731	-0.0039
613.6627	-0.0022
613.8522	0.0063
614.0417	0.0058
614.2313	-0.0064
614.4207	-0.0051
614.6102	-0.0026
614.7997	-0.005
614.9891	-0.0055
615.1785	0.0025
615.3679	-0.0053
615.5573	-0.0016
615.7467	-0.004
615.9361	-0.0051
616.1254	-0.0026
616.3147	0.0028
616.504	0.0019
616.6933	-0.0007
616.8826	0.0004
617.0718	0.0004
617.2611	0.0006
617.4503	-0.0069
617.6395	0.0027
617.8287	-0.0046
618.0179	-0.0011
618.207	0.0089
618.3961	0.0003
618.5853	-0.0002
618.7744	0.0033
618.9634	0.003
619.1525	0.0043
619.3416	0.005
619.5306	0.0041
619.7196	-0.0016
619.9086	-0.0055
620.0976	0.0056
620.2866	-0.0015
620.4755	-0.005
620.6645	0.0047
620.8534	0.007
621.0423	0.0035
621.2312	0.0039
621.42	-0.0009
621.6089	-0.0024
621.7977	0.001
621.9865	-0.01
622.1753	0.0041
622.3641	-0.0049
622.5529	0.0116
622.7416	0.0047
622.9303	-0.0042
623.1191	0.0085
623.3078	-0.0073
623.4964	0.0033
623.6851	-0.0025
623.8737	-0.0056
624.0624	0.0025
624.251	-0.0096
624.4396	-0.0006
624.6282	-0.0077
624.8167	-0.0063
625.0053	0.0055
625.1938	-0.0025
625.3823	0.0022
625.5708	0.0034
625.7593	-0.0138
625.9477	-0.0052
626.1362	-0.0012
626.3246	-0.0099
626.513	0.0008
626.7014	0.0007
626.8898	-0.0016
627.0781	-0.0044
627.2665	-0.0063
627.4548	0.0101
627.6431	0.0013
627.8314	-0.0008
628.0197	0.0028
628.2079	-0.0086
628.3962	-0.0051
628.5844	0.0004
628.7726	0.0108
628.9608	0.0011
629.1489	0.0013
629.3371	0.0045
629.5252	-0.0037
629.7134	0.0106
629.9015	-0.002
630.0895	-0.0015
630.2776	0.0036
630.4657	0.0012
630.6537	-0.002
630.8417	0.0018
631.0297	-0.0027
631.2177	-0.0061
631.4057	-0.0038
631.5936	-0.0094
631.7815	-0.0019
631.9695	0.0011
632.1574	0.0011
632.3452	0.0067
632.5331	-0.0014
632.7209	-0.0008
632.9088	0.0077
633.0966	0.0026
633.2844	-0.0031
633.4722	0.0021
633.6599	0.0099
633.8477	-0.0077
634.0354	0.0028
634.2231	-0.0059
634.4108	0.0008
634.5985	0.0043
634.7861	-0.0056
634.9738	0.0042
635.1614	-0.0075
635.349	0.0013
635.5366	0.0084
635.7242	0.0089
635.9117	0.0075
636.0993	-0.0072
636.2868	0.0059
636.4743	-0.0034
636.6618	0.0118
636.8492	-0.0041
637.0367	-0.001
637.2241	-0.0037
637.4115	-0.0021
637.5989	-0.0003
637.7863	-0.0023
637.9737	-0.0089
638.161	-0.0053
638.3484	-0.0053
638.5357	0.0006
638.723	-0.0062
638.9103	-0.0025
639.0975	0.0048
639.2848	-0.003
639.472	-0.002
639.6592	0.0017
639.8464	0.0055
640.0336	0.0051
640.2208	-0.0046
640.4079	0.0037
640.595	-0.0034
640.7821	-0.0036
640.9692	-0.0004
641.1563	-0.0007
641.3434	-0.0018
641.5304	-0.0049
641.7174	-0.0004
641.9044	-0.0041
642.0914	0.0037
642.2784	0.0059
642.4653	0.0016
642.6523	-0.0054
642.8392	-0.0059
643.0261	-0.0015
643.213	0.0001
643.3999	-0.0065
643.5867	-0.0098
643.7735	0.0003
643.9604	-0.0065
644.1472	-0.0026
644.3339	0.0083
644.5207	0.0059
644.7075	-0.0006
644.8942	0.0039
645.0809	0.0039
645.2676	0.0053
645.4543	0.0055
645.6409	-0.0006
645.8276	0.0002
646.0142	0.003
646.2008	-0.0072
646.3874	-0.0067
646.574	-0.0009
646.7605	-0.0053
646.9471	-0.013
647.1336	0.003
647.3201	0.0013
647.5066	-0.0075
647.6931	0.0045
647.8795	-0.0042
648.0659	0.0016
648.2524	0.0041
648.4388	0.0023
648.6252	0.0004
648.8115	0.0021
648.9979	0.0001
649.1842	0.0024
649.3705	0.0041
649.5568	0.0055
649.7431	0.0049
649.9294	-0.0024
650.1156	0.0047
650.3018	-0.0085
650.488	-0.0007
650.6742	0.0036
650.8604	0.0031
651.0466	-0.0082
651.2327	-0.0013
651.4188	-0.0037
651.6049	0.0006
651.791	-0.0112
651.9771	-0.006
652.1632	0.0066
652.3492	-0.0039
652.5352	-0.0055
652.7212	-0.0051
652.9072	-0.0023
653.0932	-0.0003
653.2791	-0.0085
653.465	-0.0022
653.651	-0.0092
653.8369	-0.0012
654.0227	0.0008
654.2086	0.0045
654.3944	0.0021
654.5803	-0.0005
654.7661	-0.002
654.9519	-0.0007
655.1377	-0.0053
655.3234	-0.0059
655.5092	-0.0038
655.6949	-0.0063
655.8806	-0.0084
656.0663	-0.0016
656.2519	-0.001
656.4376	-0.0077
656.6232	0.0065
656.8088	-0.0008
656.9945	-0.002
657.18	0.0001
657.3656	-0.0036
657.5511	-0.0012
657.7367	-0.0071
657.9222	0.0069
658.1077	-0.0054
658.2932	-0.0013
658.4786	-0.0117
658.6641	-0.006
658.8495	-0.0037
659.0349	-0.0079
659.2203	0.0003
659.4057	-0.0028
659.591	0.0027
659.7764	-0.0002
659.9617	-0.0023
660.147	-0.0019
660.3323	0.0001
660.5176	0.0034
660.7028	0.0036
660.888	0.0085
661.0733	0.0056
661.2585	-0.0051
661.4436	-0.0046
661.6288	-0.0095
661.8139	-0.0053
661.9991	-0.0001
662.1842	-0.0047
662.3693	0.0013
662.5544	-0.0031
662.7394	-0.0005
662.9245	-0.0107
663.1095	-0.0014
663.2945	-0.003
663.4795	0.001
663.6644	0.0011
663.8494	0.0038
664.0343	0.0056
664.2193	-0.0088
664.4042	-0.0029
664.589	0.0023
664.7739	-0.0052
664.9587	-0.0023
665.1436	-0.0014
665.3284	0.0021
665.5132	-0.0043
665.698	-0.0066
665.8827	0.0062
666.0675	-0.0099
666.2522	-0.0106
666.4369	0.0011
666.6216	0.0035
666.8063	-0.0031
666.9909	0.0024
667.1756	0.0001
667.3602	0.0055
667.5448	-0.0043
667.7294	0.0024
667.9139	0.0031
668.0985	0.0156
668.283	0.0007
668.4675	0.0011
668.652	-0.0034
668.8365	0.0009
669.0209	0.0081
669.2054	0.0096
669.3898	0.0002
669.5742	0.0021
669.7586	0.0052
669.943	0.006
670.1273	0.0055
670.3117	0.0022
670.496	0.0021
670.6803	0.0016
670.8646	-0.0012
671.0488	-0.0038
671.2331	0.0039
671.4173	0.0047
671.6015	0.0011
671.7857	0.0045
671.9699	-0.0021
672.1541	0.0066
672.3382	0.0022
672.5223	0.0048
672.7064	0.0024
672.8905	0.0071
673.0746	0.0008
673.2587	-0.0027
673.4427	0.0021
673.6267	0.0083
673.8107	0.006
673.9947	0.002
674.1787	0.0014
674.3626	-0.0007
674.5465	0.0073
674.7304	0.0003
674.9143	0.0046
675.0982	0.0115
675.2821	-0.0072
675.4659	0.0062
675.6497	-0
675.8335	-0.0022
676.0173	0.0024
676.2011	0.0015
676.3849	0.0017
676.5686	-0.0143
676.7523	0.0007
676.936	-0.006
677.1197	-0.0085
677.3034	-0.0066
677.487	-0.0004
677.6706	-0.0063
677.8542	0.0012
678.0378	-0.0033
678.2214	-0.0026
678.405	-0.0007
678.5885	-0.0064
678.772	-0.0044
678.9555	-0.0088
679.139	-0.003
679.3225	-0.0011
679.5059	-0.0066
679.6894	-0.0018
679.8728	-0.0054
680.0562	-0.0123
680.2395	-0.0082
680.4229	-0.0035
680.6062	-0.0035
680.7896	-0.0008
680.9729	-0.0068
681.1562	0.0019
681.3394	0.0026
681.5227	0.0012
681.7059	-0.0033
681.8891	-0.0002
682.0723	0.0035
682.2555	0.0071
682.4387	-0.0006
682.6218	-0.0061
682.805	0.0126
682.9881	0.0079
683.1712	-0.0003
683.3542	0.0021
683.5373	0.0018
683.7203	-0.0126
683.9034	-0.0034
684.0864	-0.0068
684.2694	-0.0041
684.4523	0.0053
684.6353	-0.0128
684.8182	-0.0061
685.0011	-0.0114
685.184	0.0037
685.3669	0.0007
685.5498	-0.0024
685.7326	-0.0008
685.9154	-0.0039
686.0982	0.0051
686.281	0.0102
686.4638	0.0023
686.6465	-0.007
686.8293	-0.0016
687.012	-0.0016
687.1947	-0.0133
687.3774	-0.0002
687.56	-0.0079
687.7427	-0.0009
687.9253	-0.0084
688.1079	-0.0082
688.2905	0.0001
688.4731	-0.0002
688.6556	0.0014
688.8382	-0.0017
689.0207	0.0022
689.2032	-0.0093
689.3857	-0.012
689.5681	0.0001
689.7506	-0.0033
689.933	-0.0126
690.1154	0.003
690.2978	-0.0038
690.4802	0.0049
690.6626	-0.0006
690.8449	-0.0027
691.0272	0.0068
691.2095	-0.005
691.3918	-0.0023
691.5741	-0.0017
691.7563	-0.0016
691.9386	-0.0032
692.1208	-0.0036
692.303	0.0005
692.4852	0.0004
692.6673	-0.0008
692.8495	0.0049
693.0316	0.0059
693.2137	0.0013
693.3958	0.0129
693.5778	0.0028
693.7599	-0.0045
693.9419	0.0004
694.1239	-0.0007
694.3059	-0.0051
694.4879	0.005
694.6699	0.0076
694.8518	0.0003
695.0337	-0.0035
695.2157	0.0093
695.3975	0.0026
695.5794	0.0003
695.7613	0.0056
695.9431	-0.0014
696.1249	0.0042
696.3067	0.0036
696.4885	0.015
696.6703	-0.0043
696.852	-0.0005
697.0337	0.0072
697.2154	-0.0039
697.3971	-0.0022
697.5788	0.0008
697.7605	-0.0037
697.9421	-0
698.1237	0.0005
698.3053	0.0012
698.4869	0.0003
698.6685	-0.002
698.85	0.0019
699.0315	0.014
699.213	0.001
699.3945	0.0062
699.576	0.0021
699.7575	0.0037
699.9389	0.0043
700.1203	-0.0038
700.3017	-0.0041
700.4831	-0.0068
700.6645	-0.0085
700.8458	0.0033
701.0271	-0.0049
701.2084	0.0039
701.3897	-0.0022
701.571	0.0057
701.7523	-0.0117
701.9335	-0.0038
702.1147	0.0013
702.2959	-0.0016
702.4771	-0.0047
702.6583	0.0024
702.8394	-0.0086
703.0205	0.0069
703.2016	-0.0047
703.3827	-0.0032
703.5638	0.0069
703.7449	-0.0052
703.9259	0.0048
704.1069	-0.0055
704.2879	0.0025
704.4689	0.0132
704.6499	-0.0052
704.8308	-0.0041
705.0117	0.0012
705.1927	0.0024
705.3735	-0.0035
705.5544	-0.0059
705.7353	-0.0039
705.9161	-0.0076
706.0969	-0.0116
706.2777	0.001
706.4585	-0.0069
706.6393	0.0024
706.82	-0.0062
707.0007	-0.004
707.1815	-0.001
707.3621	0.0125
707.5428	0.0035
707.7235	-0.0001
707.9041	0.0031
708.0847	-0.0178
708.2653	-0.0061
708.4459	-0.0138
708.6265	0.0027
708.807	-0.0087
708.9875	-0.004
709.168	-0.0125
709.3485	-0.0066
709.529	-0.0143
709.7095	-0.0162
709.8899	0.0011
710.0703	-0.0115
710.2507	-0.0091
710.4311	-0.0058
710.6115	-0.014
710.7918	-0.0109
710.9721	-0.0015
711.1524	-0.0108
711.3327	-0.0051
711.513	-0.0026
711.6932	0.0036
711.8735	0.0154
712.0537	0.002
712.2339	0.0038
712.4141	-0.002
712.5942	-0.0015
712.7744	-0.0104
712.9545	-0.001
713.1346	-0.0073
713.3147	-0.0085
713.4947	-0.0087
713.6748	-0.0033
713.8548	-0.0085
714.0348	-0.0056
714.2148	-0.0139
714.3948	0.006
714.5748	-0.0097
714.7547	0.0011
714.9346	0.0012
715.1145	-0.0087
715.2944	-0.008
715.4743	0.0004
715.6541	-0.0084
715.834	-0.0024
716.0138	-0.0095
716.1936	-0.0141
716.3733	-0.0046
716.5531	0.0035
716.7328	-0.0078
716.9126	0.0001
717.0923	0.0074
717.2719	0.0028
717.4516	0.0059
717.6312	0.0013
717.8109	-0.0013
717.9905	-0.003
718.1701	-0.0038
718.3496	-0.0028
718.5292	-0.0005
718.7087	0.0043
718.8882	0.0047
719.0677	0.0074
719.2472	-0.0033
719.4267	-0.0087
719.6061	-0.0004
719.7856	0.0069
719.965	0.0093
720.1443	-0.0019
720.3237	0.0085
720.5031	-0.0015
720.6824	0.0091
720.8617	-0.0008
721.041	-0.0008
721.2203	0.0019
721.3995	0.0031
721.5788	0.0036
721.758	0.0023
721.9372	-0.0044
722.1164	0.0026
722.2956	-0.0005
722.4747	-0.0019
722.6538	-0.0067
722.8329	0.0009
723.012	-0.0038
723.1911	-0.008
723.3702	-0.0088
723.5492	-0.0049
723.7282	-0.0028
723.9072	-0.0103
724.0862	-0.0149
724.2652	-0.0135
724.4441	-0.0027
724.623	-0.0029
724.8019	-0.0099
724.9808	-0.0079
725.1597	-0.0085
725.3385	0.0046
725.5174	0.0017
725.6962	-0.0086
725.875	-0.0015
726.0538	0.0112
726.2325	-0.0042
726.4112	0.0057
726.59	-0.0055
726.7687	-0.0055
726.9474	-0.0035
727.126	0.0001
727.3047	-0.0079
727.4833	0.0014
727.6619	-0.0035
727.8405	-0.0112
728.0191	-0.0009
728.1976	0.0044
728.3762	0.0001
728.5547	-0.0046
728.7332	-0.0156
728.9116	0.0022
729.0901	-0.0091
729.2686	-0.0092
729.447	-0.0126
729.6254	-0.0026
729.8038	-0.0028
729.9821	-0.016
730.1605	0.0016
730.3388	-0.0022
730.5171	-0.0033
730.6954	-0.0033
730.8737	-0.0038
731.0519	0.002
731.2302	-0.0009
731.4084	0.0042
731.5866	0.0067
731.7648	-0.0019
731.9429	0.0002
732.1211	-0.014
732.2992	-0.0075
732.4773	-0.0123
732.6554	-0.009
732.8335	-0.0088
733.0115	0.0024
733.1896	-0.0024
733.3676	-0.0081
733.5456	0.0071
733.7235	0.0053
733.9015	0.0001
734.0794	0.0016
734.2574	0.0015
734.4353	-0.0032
734.6131	0.0066
734.791	-0.0028
734.9689	-0.001
735.1467	0.0043
735.3245	-0.0067
735.5023	-0.0069
735.68	-0.0078
735.8578	0.0056
736.0355	-0.02
736.2132	-0.0127
736.3909	-0.0054
736.5686	-0.0135
736.7463	-0.0051
736.9239	-0.0036
737.1015	-0.0029
737.2791	0.0053
737.4567	0.0009
737.6343	-0.0002
737.8118	0.0029
737.9894	0.0025
738.1669	-0.0072
738.3444	-0.0028
738.5218	0.0014
738.6993	-0.0004
738.8767	-0.0023
739.0541	0.0085
739.2315	-0.0098
739.4089	-0.0032
739.5863	0.0014
739.7636	-0.0043
739.9409	0.0022
740.1182	0.0137
740.2955	0.0101
740.4728	0.0085
740.65	0.0006
740.8272	-0.0076
741.0044	-0.0041
741.1816	0.0001
741.3588	-0.002
741.5359	-0.0035
741.7131	-0.007
741.8902	-0.0002
742.0673	-0.0047
742.2444	-0.0064
742.4214	0.0017
742.5985	-0.0047
742.7755	-0.0109
742.9525	-0.0184
743.1295	-0.0023
743.3064	0.0009
743.4834	0.001
743.6603	-0.007
743.8372	-0.007
744.0141	-0.0014
744.191	0.0017
744.3678	-0.001
744.5446	0.0029
744.7215	-0.0025
744.8982	-0.0083
745.075	-0.0107
745.2518	-0.0087
745.4285	-0.0079
745.6052	-0.0145
745.7819	-0.0058
745.9586	-0.0182
746.1353	-0.0115
746.3119	-0.0147
746.4885	-0.0141
746.6651	-0.0122
746.8417	-0.013
747.0183	-0.0123
747.1948	-0.0115
747.3714	-0.0134
747.5479	-0.0147
747.7244	-0.014
747.9008	-0.0024
748.0773	-0.0087
748.2537	-0.0108
748.4301	-0.0178
748.6065	-0.0038
748.7829	-0.0059
748.9593	-0.0141
749.1356	-0.0037
749.3119	-0.0074
749.4882	-0.0072
749.6645	0.0029
749.8408	-0.0124
750.017	-0.0053
750.1933	-0.0016
750.3695	-0.0058
750.5457	0.0075
750.7218	-0.0046
750.898	-0.0038
751.0741	-0.013
751.2502	-0.0014
751.4263	-0.0124
751.6024	-0.0023
751.7784	-0.0025
751.9545	-0.007
752.1305	-0.0077
752.3065	-0.0075
752.4825	-0.0001
752.6584	-0.0092
752.8344	-0.0105
753.0103	-0.0114
753.1862	-0.012
753.3621	-0.0102
753.5379	-0.0128
753.7138	-0.0038
753.8896	-0.0108
754.0654	-0.0031
754.2412	0.0079
754.417	0.0034
754.5927	-0.0192
754.7685	-0.0025
754.9442	-0.003
755.1199	0.0046
755.2956	-0.01
755.4712	0.0078
755.6469	0.0006
755.8225	0.0013
755.9981	0.0047
756.1736	0.0038
756.3492	0.0007
756.5248	0.007
756.7003	0.0141
756.8758	0.0059
757.0513	-0.0103
757.2267	0.0026
757.4022	0.0069
757.5776	-0.0057
757.753	-0.0032
757.9284	0.0022
758.1038	-0.0024
758.2791	0.0043
758.4545	-0.0166
758.6298	0.0054
758.8051	-0.0052
758.9803	-0.005
759.1556	-0.0079
759.3308	-0.0036
759.506	0.0058
759.6812	0.0015
759.8564	0.0044
760.0316	-0.0015
760.2067	0.01
760.3819	0.0111
760.557	0.0228
760.732	0.0066
760.9071	-0.0077
761.0821	-0.0007
761.2572	0.0016
761.4322	-0.0045
761.6072	0.0005
761.7821	0.0043
761.9571	0.0058
762.132	-0.0072
762.3069	-0.0123
762.4818	-0.0123
762.6567	-0.0165
762.8316	-0.0071
763.0064	-0.0026
763.1812	-0.0049
763.356	-0.0208
763.5308	-0.0048
763.7055	-0.0068
763.8803	-0.0048
764.055	0.0013
764.2297	-0.0036
764.4044	-0.0112
764.579	-0.0093
764.7537	-0.0125
764.9283	-0.0027
765.1029	-0.0078
765.2775	-0.0072
765.4521	-0.0103
765.6266	-0.0112
765.8011	-0.0138
765.9756	-0.004
766.1501	0.0097
766.3246	-0.0132
766.4991	-0.0078
766.6735	-0.0069
766.8479	-0.0142
767.0223	0.0067
767.1967	-0.0154
767.371	-0.0038
767.5454	-0.0082
767.7197	-0.0008
767.894	-0.0112
768.0683	-0.0161
768.2425	-0.0017
768.4168	0.0042
768.591	-0.0073
768.7652	-0.016
768.9394	-0.006
769.1135	-0.0026
769.2877	-0.0003
769.4618	-0.005
769.6359	-0.0033
769.81	-0.0034
769.984	-0.004
770.1581	-0.0071
770.3321	-0.0054
770.5061	-0.0033
770.6801	0.0033
770.8541	-0.0026
771.028	0.0011
771.202	-0.0052
771.3759	0.0026
771.5498	-0.0009
771.7236	0.0005
771.8975	-0.0054
772.0713	-0.0091
772.2451	0.004
772.4189	0.0053
772.5927	-0.0001
772.7665	-0.0036
772.9402	0.0035
773.1139	-0.0007
773.2876	-0.0121
773.4613	0.0057
773.635	0.0022
773.8086	-0.0131
773.9822	-0.0069
774.1558	-0.0003
774.3294	-0.0169
774.503	-0.0167
774.6765	-0.0075
774.8501	-0.0017
775.0236	0.0158
775.1971	0.0068
775.3705	-0.0104
775.544	0.001
775.7174	-0.0116
775.8908	-0.0042
776.0642	-0.0038
776.2376	-0.012
776.4109	-0.0098
776.5843	-0.0103
776.7576	0.0035
776.9309	0.0055
777.1041	-0.0022
777.2774	0.0046
777.4506	-0.0007
777.6238	-0.0086
777.797	-0.0185
777.9702	0.0048
778.1434	-0.0119
778.3165	-0.0109
778.4896	-0.0086
778.6627	0.002
778.8358	-0.013
779.0089	-0.0173
779.1819	-0.0009
779.3549	0.0024
779.5279	-0.0041
779.7009	-0.0064
779.8739	-0.0132
780.0468	-0.0043
780.2197	-0.0057
780.3926	-0.0119
780.5655	-0.0108
780.7384	-0.0174
780.9112	-0.0093
781.0841	-0.0221
781.2569	-0.0044
781.4297	0.0057
781.6024	-0.0012
781.7752	-0.0084
781.9479	0.002
782.1206	0.002
782.2933	-0.0224
782.466	-0.0056
782.6386	0.0005
782.8113	0.0022
782.9839	-0.0009
783.1565	0.0154
783.329	-0.0034
783.5016	0.0082
783.6741	0.0129
783.8466	-0.0073
784.0191	0.0088
784.1916	0.0129
784.3641	0.0086
784.5365	-0.0011
784.7089	-0.006
784.8813	-0.0032
785.0537	-0.0125
785.2261	-0.0075
785.3984	-0.013
785.5707	-0.0118
785.743	-0.0018
785.9153	-0.0152
786.0876	-0.0077
786.2598	-0.0141
786.432	-0.0332
786.6042	-0.0077
786.7764	-0.0153
786.9486	-0.0051
787.1207	-0.0179
787.2928	-0.0018
787.4649	0.0021
787.637	0.0047
787.8091	-0.011
787.9811	-0.0184
788.1532	-0.0062
788.3252	-0.0009
788.4972	-0.0193
788.6691	-0.0111
788.8411	-0.0013
789.013	-0.0222
789.1849	0.0013
789.3568	-0.0168
789.5287	-0.0214
789.7005	-0.0098
789.8723	-0.0138
790.0442	0.0114
790.2159	0.0044
790.3877	0.0045
790.5595	-0.0086
790.7312	-0.003
790.9029	-0.0017
791.0746	-0.0126
791.2463	0.0025
791.4179	-0.0149
791.5896	-0.0053
791.7612	-0.0039
791.9328	-0.0145
792.1044	-0.0159
792.2759	-0.0226
792.4474	-0.0013
792.619	0.0038
792.7905	-0.0064
792.9619	-0.0043
793.1334	-0.002
793.3048	0.0103
793.4762	-0.0009
793.6476	0.0126
793.819	0.0011
793.9904	0.0067
794.1617	-0.02
794.333	-0.0036
794.5043	-0.0167
794.6756	-0.002
794.8469	-0.0063
795.0181	-0.0041
795.1893	-0.0091
795.3605	0.0103
795.5317	-0.0081
795.7029	-0.0067
795.874	0.0003
796.0452	-0.0105
796.2163	-0.0039
796.3873	0.0026
796.5584	-0.0044
796.7294	-0.0113
796.9005	0.0042
797.0715	-0.0085
797.2425	-0.0173
797.4134	0.0073
797.5844	-0.0002
797.7553	-0.0261
797.9262	-0.0137
798.0971	-0.001
798.2679	-0.0203
798.4388	-0.03
798.6096	0.0025
798.7804	-0.013
798.9512	0.0011
799.122	-0.007
799.2927	-0.0016
799.4635	0.0068
799.6342	-0.0324
799.8049	-0.0104
799.9755	-0.0024
800.1462	0.0027
800.3168	-0.0113
800.4874	-0.0098
800.658	0.0172
800.8286	0.0056
800.9991	0.008
801.1696	-0.003
801.3402	0.0126
801.5106	-0.0041
801.6811	-0.0065
801.8516	0.0026
802.022	0.0043
802.1924	0.0134
802.3628	0.0104
802.5332	0.0107
802.7035	0.0131
802.8739	-0.0095
803.0442	-0.0168
803.2145	0.007
803.3847	-0.0146
803.555	-0.0049
803.7252	-0.0281
803.8954	-0.0138
804.0656	-0.0209
804.2358	-0.02
804.4059	0.0169
804.5761	-0.0041
804.7462	0.0073
804.9163	-0.0138
805.0864	-0.0034
805.2564	-0.0014
805.4264	-0.002
805.5965	-0.0148
805.7665	-0
805.9364	0.0143
806.1064	0.0133
806.2763	-0.0017
806.4462	0.0325
806.6161	-0.005
806.786	0.0074
806.9559	-0.0125
807.1257	-0.0138
807.2955	-0.014
807.4653	-0.0155
807.6351	-0.0048
807.8048	-0.0033
807.9746	-0.0017
808.1443	-0.0191
808.314	-0.0179
808.4837	-0.0153
808.6533	-0.009
808.8229	0.0011
808.9926	-0.0161
809.1622	-0
809.3317	-0.0182
809.5013	-0.0057
809.6708	-0.0056
809.8403	0.0107
810.0098	-0.0053
810.1793	-0.0053
810.3488	0.0078
810.5182	-0.0173
810.6876	-0.0056
810.857	-0.0194
811.0264	0.0005
811.1958	0.0046
811.3651	-0.0055
811.5344	-0.0048
811.7037	-0.0065
811.873	0.0038
812.0422	-0.0019
812.2115	-0.0065
812.3807	-0.0113
812.5499	0.0187
812.7191	-0.0019
812.8882	-0.0241
813.0574	-0.0192
813.2265	-0.0118
813.3956	-0.0097
813.5646	0.0064
813.7337	-0.0403
813.9027	-0.0163
814.0718	0.0117
814.2407	0.0161
814.4097	-0.0186
814.5787	-0.0396
814.7476	-0.0189
814.9165	-0.0048
815.0854	-0.0157
815.2543	-0.02
815.4232	-0.0275
815.592	0.0028
815.7608	-0.0163
815.9296	-0.0059
816.0984	-0.0062
816.2671	-0.0157
816.4359	-0.0326
816.6046	-0.0007
816.7733	-0.0055
816.942	-0.0257
817.1106	0.0177
817.2793	0.0072
817.4479	0.003
817.6165	-0.0103
817.785	0.0022
817.9536	-0.0049
818.1221	-0.0096
818.2906	-0.017
818.4591	-0.0211
818.6276	-0.016
818.7961	-0.0266
818.9645	-0.0118
819.1329	-0.0086
819.3013	0.003
819.4697	0.0051
819.638	-0.0159
819.8064	-0.0028
819.9747	0.0087
820.143	-0.0075
820.3113	-0.0363
820.4795	0.0073
820.6477	-0.0079
820.816	-0.006
820.9842	-0.0093
821.1523	-0.0118
821.3205	-0.0046
821.4886	-0.0083
821.6567	0.0035
821.8248	-0.0133
821.9929	0.0154
822.1609	-0.0199
822.329	0.0178
822.497	-0.0049
822.665	-0.0005
822.833	-0.0317
823.0009	-0.0027
823.1688	0.0018
823.3367	0.0061
823.5046	0.0252
823.6725	0.0096
823.8404	0.0043
824.0082	0.005
824.176	-0.0106
824.3438	-0.0005
824.5116	-0.0034
824.6793	-0.0106
824.847	-0.0135
825.0147	-0.0197
825.1824	-0.005
825.3501	0.021
825.5177	0.0013
825.6854	-0.0044
825.853	-0.0087
826.0206	-0.0422
826.1881	-0.0022
826.3557	-0.0433
826.5232	-0.0108
826.6907	-0.0404
826.8582	-0.0234
827.0257	-0.0364
827.1931	-0.0263
827.3605	-0.0203
827.528	0.0199
827.6953	-0.0314
827.8627	-0.0093
828.03	-0.003
828.1974	-0.0167
828.3647	-0.0242
828.532	-0.0227
828.6992	-0.0137
828.8665	-0.0128
829.0337	-0.013
829.2009	0.0095
829.3681	-0.0156
829.5352	0.0391
829.7024	-0.007
829.8695	-0.0283
830.0366	0.0293
830.2037	-0.0087
830.3707	0.0348
830.5378	0.0031
830.7048	-0.014
830.8718	-0.0239
831.0388	-0.0395
831.2057	-0.0017
831.3727	0.0218
831.5396	-0.0085
831.7065	-0.0247
831.8734	-0.0071
832.0402	-0.0393
832.2071	-0.0321
832.3739	-0.016
832.5407	-0.0267
832.7075	-0.0519
832.8742	-0.0193
833.041	-0.0592
833.2077	-0.0068
833.3744	-0.0135
833.541	-0.0155
833.7077	-0.0081
833.8743	-0.0298
834.0409	0.0042
834.2075	-0.0144
834.3741	-0.049
834.5407	-0.0236
834.7072	-0.0337
834.8737	-0.032
835.0402	-0.0417
835.2067	0.0138
835.3731	0.0106
835.5395	-0.0207
835.706	-0.0282
835.8723	-0.0333
836.0387	0.0328
836.2051	-0.0609
836.3714	-0.0136
836.5377	-0.0216
836.704	-0.0575
836.8703	-0.0256
837.0365	-0.0074
837.2027	-0.0279
837.3689	0.0022
837.5351	-0.0083
837.7013	-0.0281
837.8674	-0.0597
838.0335	-0.0607
838.1997	-0.0593
838.3657	-0.0332
838.5318	-0.0235
838.6978	0.0086
838.8639	0.0089
839.0299	-0.0497
839.1958	-0.0468
839.3618	-0.0169
839.5277	0.0111
839.6937	-0.0059
839.8596	-0.0316
840.0254	-0.0124
840.1913	0.0201
840.3571	-0.0148
840.523	-0.0337
840.6888	-0.0387
840.8545	-0.0344
841.0203	-0.0036
841.186	-0.0299
841.3517	-0.001
841.5174	0.0334
841.6831	-0.038
841.8488	-0.0169
842.0144	-0.0259
842.18	-0.0326
842.3456	-0.0067
842.5112	-0.0463
842.6767	-0.0847
842.8422	-0.0544
843.0077	-0.0515
843.1732	-0.0619
843.3387	-0.0927
843.5042	-0.006
843.6696	-0.0405
843.835	-0.0129
844.0004	-0.0444
844.1657	0.0049
844.3311	-0.0739
844.4964	-0.0845
844.6617	-0.0365
844.827	-0.0337
844.9923	-0.0508
845.1575	-0.0002
845.3227	-0.0013
845.4879	0.0078
845.6531	-0.0519
845.8183	-0.1164
845.9834	-0.0137
846.1485	-0.0193
846.3136	-0.081
846.4787	-0.0848
846.6438	0.078
846.8088	-0.0018
846.9738	-0.0444
847.1388	-0.0715
847.3038	-0.0475
847.4687	-0.1201
847.6337	-0.0002
847.7986	-0.0197
847.9635	-0.0104
848.1284	-0.0318
848.2932	0.0385
848.458	-0.0087
848.6228	-0.0098
848.7876	0.1094
848.9524	-0.0759
849.1172	-0.1068
849.2819	-0.014
849.4466	-0.0929
849.6113	-0.0437
849.7759	-0.0312
849.9406	-0.0898
850.1052	0.0456
850.2698	-0.062
850.4344	-0.0658
850.599	-0.0739
850.7635	0.0458
850.928	-0.0606
851.0925	-0.0661
851.257	0.0141
851.4215	0.0043
851.5859	-0.0802
851.7503	-0.0197
851.9147	0.0097
852.0791	-0.0885
852.2434	-0.0435
852.4078	0.0451
852.5721	0.0332
852.7364	-0.0967
852.9007	-0.2367
853.0649	-0.1014
853.2291	-0.0799
853.3934	-0.1081
853.5575	-0.0828
853.7217	-0.1408
853.8859	-0.1681
854.05	-0.149
854.2141	-0.1448
854.3782	-0.1056
854.5423	-0.1258
854.7063	0.1002
854.8703	-0.0645
855.0343	-0.0727
855.1983	-0.1494
855.3623	-0.0297
855.5262	0.0279
855.6901	-0.1077
855.854	-0.0003
856.0179	-0.024
856.1818	-0.0063
856.3456	-0.1386
856.5094	-0.1451
856.6732	-0.1521
856.837	-0.0455
857.0008	-0.0277
857.1645	-0.0651
857.3282	-0.1402
857.4919	-0.0372
857.6556	-0.1568
857.8192	0.0668
857.9828	-0.0661
858.1465	-0.1724
858.31	-0.3239
858.4736	-0.1253
858.6372	-0.3268
858.8007	-0.2056
858.9642	-0.0681
859.1277	-0.1803
859.2911	-0.0487
859.4546	-0.0665
859.618	-0.4454
859.7814	-0.1201
859.9448	-0.0612
860.1081	-0.1319
860.2715	0.1166
860.4348	0.2699
860.5981	-0.1948
860.7614	-0.0505
860.9246	-0.1099
861.0879	-0.2526
861.2511	0.0803
861.4143	-0.2006
861.5774	0.2372
861.7406	-0.2482
861.9037	-0.0803
862.0668	-0.1652
862.2299	-0.109
862.393	-0.7761
862.556	-0.213
862.7191	-0.376
862.8821	-0.3784
863.0451	-0.0621
863.208	0.0667
863.371	-0.0707
863.5339	-0.2199
863.6968	-0.0731
863.8597	-0.24
864.0225	-0.0127
864.1854	0.0169
864.3482	0.0487
864.511	0.031
864.6737	-0.2451
864.8365	-0.2935
864.9992	-0.648
865.1619	0.1803
865.3246	-0.2555
865.4873	0.1171
865.65	-0.3912
865.8126	-0.2044
865.9752	-0.0707
866.1378	-0.0884
866.3004	0.0414
866.4629	0.2177
866.6254	0.0255
866.7879	-0.1111
866.9504	-0
867.1129	-0
867.2753	0.1277
867.4377	0.054
867.6001	-0.5717
867.7625	0.1773
867.9249	-0.7631
868.0872	-0.2923
868.2495	0.0301
868.4118	-0.338
868.5741	-0.4869
868.7363	-0.301
868.8986	-0.4837
869.0608	-0.2205
869.223	0.654
869.3851	-0
869.5473	-0
869.7094	0.1269
869.8715	-0.6252
870.0336	-0
870.1957	-0.6492
870.3577	-0.7648
870.5197	-0.0729
870.6817	0.524
870.8437	-0.2002
871.0057	-0
871.1676	-0.5649
871.3295	-0.301
871.4914	-0
871.6533	-0.362
871.8151	-0.2874
871.977	-0
872.1388	-0
872.3006	-0
872.4623	-0
872.6241	-0.0716
872.7858	0.2943
872.9475	-0.3075
873.1092	-0.1995
873.2709	-0.1994
873.4325	-0.0907
873.5941	-0.191
873.7557	-0
873.9173	-0
874.0789	-0.618
874.2404	-0.2358
874.4019	0.7851
874.5634	0.1656
874.7249	-0.1348
874.8863	-0.3909
875.0478	0.3066
875.2092	-0
875.3706	0.1928
875.5319	-0.6905
875.6933	-0
875.8546	-0.1698
876.0159	-0
876.1772	1.0339
876.3385	-0
876.4997	0.1591
876.6609	-0.6512
876.8221	-0
876.9833	-0
877.1445	-0
877.3056	-0.0127
877.4667	-0.6063
877.6278	-0
877.7889	-0.9262
877.9499	-0
878.111	-0.8225
878.272	-0
878.433	-0
878.5939	-0
878.7549	-0.0138
878.9158	-0.9031
879.0767	-0
879.2376	1.9269
879.3984	-0
879.5593	-0
879.7201	-0.2568
879.8809	-0.2059
880.0417	-0.6068
880.2024	-0.2344
880.3632	-1.1009
880.5239	-0
880.6846	0.4425
880.8452	-2.4346
881.0059	-0
881.1665	-0
881.3271	-0.1019
881.4877	-0
881.6483	-0.7575
881.8088	-0.2906
881.9693	-0
882.1298	-0
882.2903	-0
