Data from MonoPyChalIsomerACN10uM350nmA_Absorbance_14-35-36-214.txt Node
Date: Fri Jul 05 14:35:36 BST 2024
User: LASERRRRR
Spectrometer: FLMT03099
Trigger mode: 0
Integration Time (sec): 1.000000E-1
Scans to average: 1
Electric dark correction enabled: true
Nonlinearity correction enabled: false
Boxcar width: 0
XAxis mode: Wavelengths
Number of Pixels in Spectrum: 3648
>>>>>Begin Spectral Data<<<<<
179.3399	-0.4198
179.5586	-0.4198
179.7771	-0.4198
179.9957	0.096
180.2143	0.6435
180.4329	0.0375
180.6514	0.2045
180.8699	-0
181.0885	-0.0293
181.307	-0.0643
181.5255	-0
181.744	-0.7084
181.9625	-0.5931
182.181	-0
182.3994	0.132
182.6179	0.4275
182.8363	-0.0137
183.0547	-0.3552
183.2732	-0.0116
183.4916	0.0884
183.71	0.2895
183.9284	-0.041
184.1467	0.1041
184.3651	-0.1708
184.5835	-0.1444
184.8018	0.0888
185.0201	-0.0713
185.2385	-0.0995
185.4568	0.138
185.6751	-0.1021
185.8934	0.3959
186.1117	-0.018
186.3299	0.1167
186.5482	0.0186
186.7664	-0.161
186.9847	-0.1117
187.2029	0.0559
187.4211	0.0651
187.6393	0.1148
187.8575	0.1646
188.0757	0.2467
188.2939	0.2228
188.512	0.301
188.7302	-0.0387
188.9483	0.4009
189.1665	0.1982
189.3846	0.3272
189.6027	0.1415
189.8208	0.1232
190.0389	0.0978
190.257	0.0342
190.475	0.5886
190.6931	0.2029
190.9111	0.2317
191.1292	0.0405
191.3472	0.3424
191.5652	0.3461
191.7832	0.1736
192.0012	0.6237
192.2192	0.4282
192.4371	0.6584
192.6551	0.3445
192.873	0.3268
193.091	0.3116
193.3089	0.5513
193.5268	0.4182
193.7447	0.6275
193.9626	0.5423
194.1805	0.4671
194.3984	0.8972
194.6162	0.515
194.8341	0.5864
195.0519	0.4975
195.2697	0.7387
195.4875	1.1298
195.7054	0.6441
195.9231	0.6019
196.1409	0.653
196.3587	0.6133
196.5765	0.5947
196.7942	0.5709
197.012	0.4752
197.2297	0.7749
197.4474	0.5958
197.6651	0.5171
197.8828	0.5145
198.1005	0.6157
198.3182	0.6822
198.5358	0.6871
198.7535	0.5526
198.9711	0.6144
199.1888	0.6503
199.4064	0.7897
199.624	0.621
199.8416	0.5851
200.0592	0.5962
200.2767	0.6585
200.4943	0.7457
200.7119	0.6849
200.9294	0.6104
201.1469	0.6152
201.3645	0.5654
201.582	0.6032
201.7995	0.6319
202.017	0.702
202.2344	0.5037
202.4519	0.61
202.6694	0.6626
202.8868	0.6491
203.1042	0.7022
203.3217	0.6752
203.5391	0.5773
203.7565	0.6572
203.9739	0.7422
204.1913	0.6301
204.4086	0.6727
204.626	0.7492
204.8433	0.6984
205.0607	0.5541
205.278	0.6608
205.4953	0.657
205.7126	0.6724
205.9299	0.6934
206.1472	0.6964
206.3644	0.5955
206.5817	0.6682
206.7989	0.6504
207.0162	0.6178
207.2334	0.739
207.4506	0.6917
207.6678	0.6063
207.885	0.594
208.1022	0.6701
208.3194	0.6968
208.5365	0.6483
208.7537	0.6602
208.9708	0.5921
209.1879	0.6204
209.405	0.6627
209.6222	0.7105
209.8392	0.5822
210.0563	0.6414
210.2734	0.7195
210.4905	0.6448
210.7075	0.6164
210.9245	0.5606
211.1416	0.6891
211.3586	0.6033
211.5756	0.6336
211.7926	0.5999
212.0096	0.5981
212.2265	0.537
212.4435	0.6064
212.6604	0.585
212.8774	0.6393
213.0943	0.5976
213.3112	0.5728
213.5281	0.4923
213.745	0.531
213.9619	0.5004
214.1788	0.4635
214.3956	0.4455
214.6125	0.4459
214.8293	0.4742
215.0461	0.4719
215.2629	0.4636
215.4798	0.4815
215.6965	0.3864
215.9133	0.4561
216.1301	0.4146
216.3469	0.4176
216.5636	0.4048
216.7803	0.4115
216.9971	0.3982
217.2138	0.3805
217.4305	0.3724
217.6472	0.3299
217.8639	0.3819
218.0805	0.356
218.2972	0.3216
218.5138	0.3119
218.7305	0.3023
218.9471	0.2936
219.1637	0.2962
219.3803	0.2912
219.5969	0.2785
219.8135	0.2389
220.0301	0.2819
220.2466	0.2636
220.4632	0.2554
220.6797	0.2375
220.8962	0.2383
221.1127	0.2524
221.3292	0.2526
221.5457	0.2355
221.7622	0.2526
221.9787	0.2648
222.1951	0.2439
222.4116	0.2716
222.628	0.2487
222.8444	0.2336
223.0608	0.2307
223.2772	0.2578
223.4936	0.2248
223.71	0.2343
223.9264	0.2518
224.1427	0.2566
224.3591	0.2588
224.5754	0.26
224.7917	0.2488
225.008	0.2661
225.2243	0.2478
225.4406	0.2774
225.6569	0.2764
225.8732	0.2597
226.0894	0.2631
226.3057	0.2404
226.5219	0.2756
226.7381	0.298
226.9543	0.2749
227.1705	0.2757
227.3867	0.2648
227.6029	0.2933
227.8191	0.2807
228.0352	0.2938
228.2513	0.2982
228.4675	0.3201
228.6836	0.3028
228.8997	0.2941
229.1158	0.3237
229.3319	0.3137
229.548	0.3218
229.764	0.3191
229.9801	0.3178
230.1961	0.3357
230.4121	0.3275
230.6282	0.3333
230.8442	0.3056
231.0602	0.335
231.2761	0.356
231.4921	0.3423
231.7081	0.3691
231.924	0.3292
232.14	0.3503
232.3559	0.3502
232.5718	0.3636
232.7877	0.3639
233.0036	0.3281
233.2195	0.3572
233.4353	0.3563
233.6512	0.3643
233.867	0.3462
234.0829	0.3613
234.2987	0.3631
234.5145	0.377
234.7303	0.3587
234.9461	0.3816
235.1619	0.3796
235.3776	0.381
235.5934	0.3714
235.8091	0.3789
236.0249	0.3675
236.2406	0.3796
236.4563	0.3788
236.672	0.3831
236.8877	0.3755
237.1034	0.3915
237.319	0.406
237.5347	0.3953
237.7503	0.4127
237.966	0.4169
238.1816	0.4184
238.3972	0.4009
238.6128	0.3875
238.8284	0.4234
239.0439	0.4308
239.2595	0.4019
239.475	0.3963
239.6906	0.4076
239.9061	0.403
240.1216	0.387
240.3371	0.4101
240.5526	0.3899
240.7681	0.4298
240.9836	0.3783
241.199	0.3862
241.4145	0.3689
241.6299	0.3941
241.8453	0.3719
242.0607	0.3833
242.2761	0.3548
242.4915	0.3643
242.7069	0.373
242.9223	0.3469
243.1376	0.3597
243.353	0.3583
243.5683	0.3423
243.7836	0.3229
243.9989	0.328
244.2142	0.3017
244.4295	0.3201
244.6448	0.3128
244.86	0.2968
245.0753	0.294
245.2905	0.2938
245.5057	0.2815
245.721	0.2663
245.9362	0.2825
246.1514	0.2643
246.3665	0.2598
246.5817	0.2484
246.7969	0.2402
247.012	0.2428
247.2271	0.2459
247.4423	0.2338
247.6574	0.2497
247.8725	0.2356
248.0876	0.2209
248.3026	0.2185
248.5177	0.2186
248.7328	0.2251
248.9478	0.2113
249.1628	0.2212
249.3779	0.2259
249.5929	0.1891
249.8079	0.2074
250.0228	0.2136
250.2378	0.2057
250.4528	0.2003
250.6677	0.1839
250.8827	0.1995
251.0976	0.1968
251.3125	0.2008
251.5274	0.17
251.7423	0.1754
251.9572	0.1891
252.172	0.18
252.3869	0.1812
252.6017	0.1896
252.8166	0.1652
253.0314	0.1695
253.2462	0.1739
253.461	0.1901
253.6758	0.165
253.8906	0.1765
254.1053	0.1634
254.3201	0.1629
254.5348	0.1852
254.7496	0.175
254.9643	0.1668
255.179	0.1652
255.3937	0.1663
255.6083	0.1687
255.823	0.1677
256.0377	0.1644
256.2523	0.1714
256.467	0.1637
256.6816	0.175
256.8962	0.1721
257.1108	0.1559
257.3254	0.1672
257.54	0.1611
257.7545	0.1662
257.9691	0.1728
258.1836	0.1719
258.3981	0.1695
258.6127	0.1688
258.8272	0.1619
259.0417	0.1548
259.2561	0.1654
259.4706	0.1781
259.6851	0.1644
259.8995	0.1681
260.114	0.1663
260.3284	0.1645
260.5428	0.1636
260.7572	0.1678
260.9716	0.1644
261.186	0.169
261.4003	0.1631
261.6147	0.1613
261.829	0.1569
262.0433	0.156
262.2577	0.1686
262.472	0.1652
262.6863	0.1496
262.9005	0.1611
263.1148	0.1662
263.3291	0.1456
263.5433	0.1538
263.7576	0.1633
263.9718	0.1634
264.186	0.1618
264.4002	0.1667
264.6144	0.1641
264.8286	0.1768
265.0427	0.1461
265.2569	0.1497
265.471	0.1711
265.6851	0.1503
265.8993	0.1606
266.1134	0.1594
266.3275	0.1535
266.5415	0.1657
266.7556	0.1555
266.9697	0.1733
267.1837	0.1592
267.3978	0.1654
267.6118	0.1727
267.8258	0.1698
268.0398	0.1463
268.2538	0.164
268.4677	0.1675
268.6817	0.1595
268.8957	0.1679
269.1096	0.1643
269.3235	0.1606
269.5374	0.1633
269.7514	0.1545
269.9652	0.1433
270.1791	0.1566
270.393	0.1444
270.6068	0.1581
270.8207	0.1526
271.0345	0.1492
271.2483	0.1551
271.4622	0.1431
271.676	0.1556
271.8897	0.1387
272.1035	0.1395
272.3173	0.1424
272.531	0.1414
272.7448	0.1532
272.9585	0.1334
273.1722	0.1461
273.3859	0.152
273.5996	0.1419
273.8133	0.1489
274.0269	0.1344
274.2406	0.1383
274.4542	0.1396
274.6679	0.137
274.8815	0.1469
275.0951	0.1456
275.3087	0.1653
275.5223	0.158
275.7358	0.1414
275.9494	0.1445
276.1629	0.136
276.3765	0.1463
276.59	0.1545
276.8035	0.143
277.017	0.1485
277.2305	0.1333
277.444	0.1473
277.6574	0.1451
277.8709	0.1508
278.0843	0.1345
278.2978	0.1503
278.5112	0.1372
278.7246	0.141
278.938	0.1484
279.1513	0.1476
279.3647	0.1589
279.5781	0.1406
279.7914	0.1483
280.0047	0.1452
280.2181	0.1531
280.4314	0.1513
280.6447	0.1454
280.8579	0.148
281.0712	0.1528
281.2845	0.1621
281.4977	0.1434
281.711	0.1517
281.9242	0.1682
282.1374	0.1673
282.3506	0.1447
282.5638	0.1649
282.7769	0.1469
282.9901	0.1525
283.2033	0.1625
283.4164	0.1561
283.6295	0.1351
283.8426	0.1508
284.0557	0.1585
284.2688	0.1712
284.4819	0.1652
284.695	0.1562
284.908	0.1593
285.1211	0.1525
285.3341	0.163
285.5471	0.1568
285.7601	0.1512
285.9731	0.1505
286.1861	0.152
286.3991	0.1586
286.612	0.1695
286.825	0.1529
287.0379	0.1728
287.2508	0.1641
287.4637	0.1536
287.6766	0.1592
287.8895	0.1614
288.1024	0.1758
288.3152	0.1677
288.5281	0.1679
288.7409	0.1602
288.9538	0.1626
289.1666	0.166
289.3794	0.1632
289.5922	0.1467
289.8049	0.1564
290.0177	0.1513
290.2304	0.1697
290.4432	0.164
290.6559	0.1609
290.8686	0.1762
291.0813	0.1641
291.294	0.1702
291.5067	0.1728
291.7194	0.1674
291.932	0.1814
292.1447	0.1751
292.3573	0.1544
292.5699	0.1622
292.7825	0.1685
292.9951	0.1647
293.2077	0.1656
293.4203	0.1631
293.6328	0.1508
293.8454	0.1778
294.0579	0.1719
294.2704	0.1614
294.4829	0.1609
294.6954	0.1706
294.9079	0.1657
295.1204	0.163
295.3328	0.1633
295.5453	0.1601
295.7577	0.1677
295.9701	0.1525
296.1825	0.1668
296.3949	0.1684
296.6073	0.1645
296.8197	0.1615
297.0321	0.1784
297.2444	0.1604
297.4567	0.1682
297.6691	0.1707
297.8814	0.1609
298.0937	0.1646
298.306	0.1753
298.5182	0.1704
298.7305	0.1734
298.9428	0.1554
299.155	0.1643
299.3672	0.1708
299.5794	0.1482
299.7916	0.163
300.0038	0.1725
300.216	0.167
300.4282	0.1643
300.6403	0.1541
300.8525	0.1587
301.0646	0.1452
301.2767	0.1737
301.4888	0.1621
301.7009	0.166
301.913	0.1659
302.125	0.1693
302.3371	0.1566
302.5491	0.1609
302.7612	0.1636
302.9732	0.172
303.1852	0.1626
303.3972	0.17
303.6092	0.1596
303.8211	0.1529
304.0331	0.1598
304.245	0.1483
304.457	0.15
304.6689	0.1597
304.8808	0.1717
305.0927	0.1638
305.3046	0.1514
305.5164	0.1584
305.7283	0.1487
305.9401	0.1499
306.152	0.1583
306.3638	0.1565
306.5756	0.1411
306.7874	0.1507
306.9992	0.1437
307.2109	0.1433
307.4227	0.1343
307.6344	0.139
307.8462	0.148
308.0579	0.1401
308.2696	0.1347
308.4813	0.1178
308.693	0.1314
308.9046	0.1414
309.1163	0.1348
309.328	0.1133
309.5396	0.1336
309.7512	0.1214
309.9628	0.1264
310.1744	0.1259
310.386	0.122
310.5976	0.1182
310.8091	0.1246
311.0207	0.1165
311.2322	0.1197
311.4437	0.1096
311.6552	0.1014
311.8667	0.1143
312.0782	0.0932
312.2897	0.0958
312.5012	0.1127
312.7126	0.1041
312.924	0.1056
313.1355	0.1149
313.3469	0.1155
313.5583	0.1173
313.7696	0.104
313.981	0.1089
314.1924	0.0989
314.4037	0.1056
314.6151	0.1048
314.8264	0.0983
315.0377	0.0998
315.249	0.0943
315.4603	0.116
315.6716	0.1056
315.8828	0.0917
316.0941	0.0965
316.3053	0.098
316.5165	0.0873
316.7277	0.1039
316.9389	0.1021
317.1501	0.0915
317.3613	0.0994
317.5724	0.0829
317.7836	0.1017
317.9947	0.1018
318.2058	0.1068
318.417	0.0877
318.6281	0.0922
318.8391	0.0949
319.0502	0.0873
319.2613	0.0924
319.4723	0.1148
319.6834	0.1108
319.8944	0.0797
320.1054	0.1022
320.3164	0.0905
320.5274	0.0942
320.7383	0.0907
320.9493	0.1047
321.1602	0.1148
321.3712	0.0953
321.5821	0.098
321.793	0.1082
322.0039	0.0944
322.2148	0.0931
322.4257	0.1024
322.6365	0.1063
322.8474	0.1139
323.0582	0.0961
323.269	0.1116
323.4798	0.1079
323.6906	0.1018
323.9014	0.0929
324.1122	0.1016
324.3229	0.099
324.5337	0.1041
324.7444	0.0932
324.9551	0.1071
325.1658	0.1064
325.3765	0.1029
325.5872	0.1103
325.7979	0.1008
326.0085	0.1077
326.2192	0.1025
326.4298	0.101
326.6404	0.1087
326.851	0.0891
327.0616	0.1043
327.2722	0.1107
327.4828	0.119
327.6933	0.1036
327.9039	0.1174
328.1144	0.1113
328.3249	0.1156
328.5354	0.0981
328.7459	0.1069
328.9564	0.095
329.1669	0.1025
329.3773	0.1074
329.5878	0.1088
329.7982	0.1024
330.0086	0.1028
330.219	0.0981
330.4294	0.0956
330.6398	0.1
330.8502	0.0926
331.0605	0.113
331.2708	0.1132
331.4812	0.1142
331.6915	0.1015
331.9018	0.1076
332.1121	0.0992
332.3224	0.1161
332.5326	0.1066
332.7429	0.1029
332.9531	0.1136
333.1633	0.1293
333.3735	0.1094
333.5837	0.1035
333.7939	0.104
334.0041	0.1076
334.2143	0.1253
334.4244	0.1026
334.6346	0.0835
334.8447	0.1263
335.0548	0.112
335.2649	0.0941
335.475	0.1233
335.685	0.1048
335.8951	0.1138
336.1051	0.1109
336.3152	0.1117
336.5252	0.1097
336.7352	0.1165
336.9452	0.1104
337.1552	0.1194
337.3652	0.1178
337.5751	0.1071
337.7851	0.1169
337.995	0.0969
338.2049	0.1127
338.4148	0.1054
338.6247	0.1169
338.8346	0.1114
339.0445	0.1081
339.2543	0.112
339.4642	0.1108
339.674	0.1091
339.8838	0.1142
340.0936	0.1083
340.3034	0.1388
340.5132	0.1175
340.7229	0.1164
340.9327	0.1159
341.1424	0.1036
341.3522	0.1335
341.5619	0.127
341.7716	0.1152
341.9813	0.1227
342.1909	0.1166
342.4006	0.1361
342.6102	0.1395
342.8199	0.1341
343.0295	0.1236
343.2391	0.1301
343.4487	0.1285
343.6583	0.1252
343.8679	0.1173
344.0774	0.1244
344.287	0.1254
344.4965	0.125
344.706	0.1352
344.9155	0.1247
345.125	0.1249
345.3345	0.1301
345.544	0.1319
345.7534	0.1352
345.9629	0.1164
346.1723	0.1216
346.3817	0.1344
346.5911	0.1209
346.8005	0.1344
347.0099	0.1307
347.2193	0.1335
347.4286	0.1288
347.638	0.1465
347.8473	0.1306
348.0566	0.1484
348.2659	0.134
348.4752	0.132
348.6845	0.133
348.8937	0.1351
349.103	0.1415
349.3122	0.1229
349.5214	0.1218
349.7306	0.1398
349.9398	0.1251
350.149	0.1458
350.3582	0.1317
350.5674	0.1346
350.7765	0.135
350.9856	0.1302
351.1948	0.1482
351.4039	0.1252
351.613	0.1342
351.822	0.1468
352.0311	0.1484
352.2402	0.1467
352.4492	0.1541
352.6582	0.1424
352.8672	0.1471
353.0762	0.1542
353.2852	0.1485
353.4942	0.1342
353.7032	0.1591
353.9121	0.1544
354.1211	0.1502
354.33	0.1566
354.5389	0.1606
354.7478	0.1473
354.9567	0.1619
355.1655	0.1389
355.3744	0.1596
355.5833	0.1549
355.7921	0.1585
356.0009	0.1634
356.2097	0.1748
356.4185	0.1843
356.6273	0.1702
356.8361	0.163
357.0448	0.1611
357.2536	0.156
357.4623	0.1642
357.671	0.1611
357.8797	0.1703
358.0884	0.1589
358.2971	0.1527
358.5057	0.1682
358.7144	0.1768
358.923	0.1671
359.1316	0.1767
359.3402	0.1615
359.5488	0.1756
359.7574	0.1605
359.966	0.1798
360.1746	0.1719
360.3831	0.1754
360.5916	0.1776
360.8002	0.1787
361.0087	0.1858
361.2172	0.1843
361.4256	0.1797
361.6341	0.1966
361.8426	0.1775
362.051	0.1796
362.2594	0.1798
362.4678	0.1744
362.6762	0.2035
362.8846	0.1979
363.093	0.1857
363.3014	0.1962
363.5097	0.1834
363.718	0.1811
363.9264	0.1915
364.1347	0.192
364.343	0.1825
364.5513	0.1971
364.7595	0.2049
364.9678	0.1942
365.176	0.1869
365.3842	0.1932
365.5925	0.2005
365.8007	0.1971
366.0089	0.2131
366.217	0.1999
366.4252	0.2119
366.6333	0.2093
366.8415	0.2122
367.0496	0.192
367.2577	0.2145
367.4658	0.2177
367.6739	0.2081
367.882	0.2075
368.09	0.2045
368.2981	0.2141
368.5061	0.2052
368.7141	0.2129
368.9221	0.2139
369.1301	0.2129
369.3381	0.2043
369.5461	0.2068
369.754	0.2271
369.962	0.2357
370.1699	0.2161
370.3778	0.2151
370.5857	0.2146
370.7936	0.2162
371.0015	0.2167
371.2093	0.2253
371.4172	0.2284
371.625	0.2134
371.8328	0.2291
372.0406	0.2151
372.2484	0.2198
372.4562	0.2493
372.664	0.2194
372.8717	0.2304
373.0795	0.198
373.2872	0.2248
373.4949	0.2128
373.7026	0.2475
373.9103	0.2279
374.118	0.2253
374.3256	0.2291
374.5333	0.2324
374.7409	0.2046
374.9485	0.2357
375.1561	0.2337
375.3637	0.2498
375.5713	0.2322
375.7789	0.2218
375.9864	0.239
376.194	0.213
376.4015	0.2443
376.609	0.2451
376.8165	0.2434
377.024	0.2237
377.2315	0.2225
377.4389	0.2325
377.6464	0.2457
377.8538	0.237
378.0612	0.2316
378.2686	0.2553
378.476	0.2536
378.6834	0.2531
378.8908	0.2545
379.0981	0.2413
379.3055	0.2583
379.5128	0.2412
379.7201	0.2357
379.9274	0.239
380.1347	0.2536
380.342	0.2658
380.5492	0.257
380.7565	0.251
380.9637	0.2588
381.1709	0.2413
381.3781	0.2577
381.5853	0.2611
381.7925	0.2565
381.9997	0.2594
382.2068	0.2704
382.4139	0.2599
382.6211	0.257
382.8282	0.2753
383.0353	0.2502
383.2424	0.2544
383.4494	0.2504
383.6565	0.2437
383.8635	0.263
384.0706	0.2494
384.2776	0.2624
384.4846	0.2501
384.6916	0.257
384.8986	0.2553
385.1055	0.2476
385.3125	0.2665
385.5194	0.2374
385.7263	0.2409
385.9333	0.2363
386.1402	0.2609
386.347	0.2576
386.5539	0.2454
386.7608	0.2683
386.9676	0.2275
387.1744	0.2411
387.3813	0.2468
387.5881	0.2559
387.7948	0.2509
388.0016	0.251
388.2084	0.2584
388.4151	0.247
388.6219	0.2576
388.8286	0.2414
389.0353	0.2551
389.242	0.2545
389.4487	0.2322
389.6553	0.2342
389.862	0.2272
390.0686	0.2458
390.2753	0.2544
390.4819	0.2436
390.6885	0.2506
390.8951	0.2325
391.1016	0.2382
391.3082	0.229
391.5147	0.2358
391.7213	0.2327
391.9278	0.231
392.1343	0.2321
392.3408	0.2471
392.5473	0.2396
392.7537	0.225
392.9602	0.2421
393.1666	0.2288
393.373	0.2255
393.5794	0.2376
393.7858	0.2207
393.9922	0.2354
394.1986	0.2494
394.4049	0.2229
394.6113	0.2288
394.8176	0.2002
395.0239	0.2154
395.2302	0.2078
395.4365	0.2259
395.6428	0.2106
395.8491	0.2079
396.0553	0.2186
396.2615	0.2074
396.4678	0.2313
396.674	0.1915
396.8802	0.2136
397.0863	0.232
397.2925	0.2295
397.4987	0.2064
397.7048	0.215
397.9109	0.2057
398.117	0.2148
398.3231	0.2208
398.5292	0.2193
398.7353	0.2299
398.9413	0.2073
399.1474	0.2191
399.3534	0.2064
399.5594	0.2085
399.7654	0.2201
399.9714	0.2294
400.1774	0.2192
400.3833	0.2113
400.5893	0.1973
400.7952	0.2124
401.0011	0.206
401.207	0.2185
401.4129	0.2185
401.6188	0.2189
401.8247	0.213
402.0305	0.2037
402.2364	0.2
402.4422	0.2213
402.648	0.2134
402.8538	0.2138
403.0596	0.1985
403.2654	0.2033
403.4711	0.2093
403.6768	0.2157
403.8826	0.2105
404.0883	0.2217
404.294	0.2259
404.4997	0.2116
404.7054	0.2108
404.911	0.1935
405.1167	0.2121
405.3223	0.2241
405.5279	0.2286
405.7335	0.2238
405.9391	0.237
406.1447	0.2132
406.3502	0.2385
406.5558	0.2006
406.7613	0.2234
406.9668	0.2022
407.1724	0.2083
407.3778	0.2173
407.5833	0.2112
407.7888	0.2029
407.9942	0.2245
408.1997	0.2118
408.4051	0.2081
408.6105	0.2276
408.8159	0.2122
409.0213	0.209
409.2267	0.221
409.432	0.2131
409.6374	0.2323
409.8427	0.1786
410.048	0.2126
410.2533	0.2155
410.4586	0.1985
410.6639	0.1943
410.8691	0.1885
411.0744	0.1972
411.2796	0.2219
411.4848	0.2111
411.69	0.2161
411.8952	0.2171
412.1004	0.1894
412.3056	0.2286
412.5107	0.1953
412.7158	0.2046
412.921	0.2025
413.1261	0.2092
413.3312	0.193
413.5362	0.1921
413.7413	0.1921
413.9464	0.2048
414.1514	0.2111
414.3564	0.2027
414.5614	0.1974
414.7664	0.2045
414.9714	0.2169
415.1764	0.2097
415.3813	0.2124
415.5863	0.2084
415.7912	0.2221
415.9961	0.209
416.201	0.2119
416.4059	0.1988
416.6108	0.1909
416.8156	0.2324
417.0205	0.1953
417.2253	0.1999
417.4301	0.225
417.6349	0.1926
417.8397	0.1855
418.0445	0.193
418.2492	0.219
418.454	0.1865
418.6587	0.1886
418.8634	0.1993
419.0681	0.1879
419.2728	0.2097
419.4775	0.1948
419.6822	0.1951
419.8868	0.1761
420.0915	0.1944
420.2961	0.2002
420.5007	0.1941
420.7053	0.1983
420.9099	0.1937
421.1144	0.2083
421.319	0.1779
421.5235	0.1812
421.728	0.1957
421.9325	0.194
422.137	0.2162
422.3415	0.1745
422.546	0.1894
422.7504	0.1881
422.9549	0.1931
423.1593	0.1917
423.3637	0.1825
423.5681	0.1831
423.7725	0.1946
423.9769	0.1605
424.1812	0.1754
424.3856	0.171
424.5899	0.1744
424.7942	0.1724
424.9985	0.1836
425.2028	0.1706
425.4071	0.1894
425.6113	0.1731
425.8156	0.1833
426.0198	0.1909
426.224	0.1573
426.4282	0.1509
426.6324	0.1671
426.8366	0.1782
427.0407	0.1714
427.2449	0.177
427.449	0.1638
427.6531	0.1508
427.8572	0.1734
428.0613	0.1578
428.2654	0.1787
428.4694	0.1693
428.6735	0.1721
428.8775	0.176
429.0815	0.1662
429.2855	0.1477
429.4895	0.1667
429.6935	0.1595
429.8975	0.161
430.1014	0.1446
430.3053	0.137
430.5093	0.1452
430.7132	0.1358
430.9171	0.1423
431.1209	0.1461
431.3248	0.1311
431.5286	0.1354
431.7325	0.1442
431.9363	0.1265
432.1401	0.1329
432.3439	0.126
432.5477	0.1165
432.7514	0.1239
432.9552	0.136
433.1589	0.105
433.3627	0.1218
433.5664	0.1041
433.7701	0.1114
433.9737	0.1098
434.1774	0.1167
434.3811	0.1027
434.5847	0.109
434.7883	0.1073
434.9919	0.1093
435.1955	0.1142
435.3991	0.1038
435.6027	0.1155
435.8062	0.1096
436.0098	0.111
436.2133	0.1161
436.4168	0.0911
436.6203	0.0937
436.8238	0.1121
437.0272	0.0868
437.2307	0.0917
437.4341	0.1033
437.6375	0.112
437.841	0.0911
438.0443	0.0917
438.2477	0.101
438.4511	0.1018
438.6545	0.0774
438.8578	0.0926
439.0611	0.0934
439.2644	0.07
439.4677	0.0761
439.671	0.0813
439.8743	0.0772
440.0775	0.0796
440.2808	0.0824
440.484	0.0738
440.6872	0.0583
440.8904	0.073
441.0936	0.0829
441.2967	0.0766
441.4999	0.0887
441.703	0.0646
441.9062	0.0677
442.1093	0.0592
442.3124	0.0752
442.5155	0.0646
442.7185	0.0556
442.9216	0.0437
443.1246	0.0554
443.3276	0.0551
443.5307	0.057
443.7337	0.0629
443.9366	0.0634
444.1396	0.0562
444.3426	0.0693
444.5455	0.0523
444.7484	0.0514
444.9513	0.0543
445.1542	0.05
445.3571	0.0439
445.56	0.045
445.7628	0.0514
445.9657	0.0605
446.1685	0.0526
446.3713	0.0416
446.5741	0.0416
446.7769	0.0358
446.9797	0.0399
447.1824	0.0517
447.3852	0.0352
447.5879	0.0474
447.7906	0.0471
447.9933	0.0347
448.196	0.0209
448.3986	0.0375
448.6013	0.0382
448.8039	0.0188
449.0066	0.022
449.2092	0.0463
449.4118	0.0273
449.6143	0.0322
449.8169	0.0386
450.0195	0.0275
450.222	0.0068
450.4245	0.0277
450.627	0.0371
450.8295	0.0292
451.032	0.0173
451.2345	0.031
451.4369	0.027
451.6394	0.0273
451.8418	0.001
452.0442	0.0117
452.2466	0.0257
452.449	-0.0109
452.6513	0.0284
452.8537	0.0078
453.056	0.0114
453.2583	0.0254
453.4607	0.0054
453.663	0.0178
453.8652	0.0319
454.0675	0.0012
454.2697	0.0204
454.472	0.0137
454.6742	0.0274
454.8764	0.0087
455.0786	0.0398
455.2808	0.0194
455.4829	0.0222
455.6851	0.042
455.8872	0.0209
456.0893	0.0209
456.2915	0.0014
456.4935	0.0216
456.6956	-0.0013
456.8977	0.0158
457.0997	0.0112
457.3018	-0.0095
457.5038	0.0113
457.7058	-0.003
457.9078	0.0013
458.1098	0.0121
458.3117	0.0119
458.5137	0.0074
458.7156	0.0151
458.9175	0.009
459.1194	0.0158
459.3213	0.0113
459.5232	0.0035
459.725	0.0015
459.9269	0.005
460.1287	0.0072
460.3305	0.0053
460.5323	0.0094
460.7341	0.0191
460.9359	-0.0006
461.1376	0.0193
461.3394	-0.0033
461.5411	0.0128
461.7428	-0.0002
461.9445	0.0162
462.1462	0.0297
462.3479	0.0027
462.5495	0.0156
462.7512	0.0067
462.9528	-0.0092
463.1544	-0.0054
463.356	-0.0082
463.5576	0.0052
463.7592	0
463.9607	0.0032
464.1623	0.0057
464.3638	0.0233
464.5653	0.008
464.7668	-0.0001
464.9683	0.0159
465.1697	0.01
465.3712	-0.0085
465.5726	-0.0011
465.7741	-0.0022
465.9755	0.0045
466.1769	-0.0021
466.3782	0.0033
466.5796	-0.004
466.7809	0.0028
466.9823	-0.0146
467.1836	0.0068
467.3849	-0.0055
467.5862	-0.0003
467.7875	0.0033
467.9887	0.0054
468.19	-0.0092
468.3912	0.0029
468.5924	0.0029
468.7936	-0.0011
468.9948	0.0112
469.196	0
469.3972	-0.0138
469.5983	0.0075
469.7994	-0.0023
470.0006	0.0035
470.2017	-0.005
470.4027	-0.0005
470.6038	0.0014
470.8049	-0.0164
471.0059	-0.0073
471.2069	-0.0239
471.408	0.0129
471.6089	0.0121
471.8099	0.001
472.0109	-0.0031
472.2119	-0.0099
472.4128	-0.0187
472.6137	0.0095
472.8146	-0.0154
473.0155	-0.0046
473.2164	0.0047
473.4173	0.005
473.6181	0.0065
473.819	0.0106
474.0198	-0.006
474.2206	-0.0173
474.4214	-0.0021
474.6222	-0.006
474.8229	-0.0062
475.0237	-0.0155
475.2244	-0.011
475.4251	0.0042
475.6258	-0.0054
475.8265	0.0041
476.0272	-0.0007
476.2278	-0.0052
476.4285	-0.0023
476.6291	-0.0092
476.8297	0.0003
477.0303	-0.0009
477.2309	0.0003
477.4315	-0.0211
477.632	-0.0157
477.8326	-0.0092
478.0331	0.0104
478.2336	0.0037
478.4341	-0.0019
478.6346	-0.0136
478.8351	-0.001
479.0355	-0.003
479.236	-0.0027
479.4364	-0.0044
479.6368	-0.0032
479.8372	-0.0193
480.0376	0.0021
480.2379	-0.0241
480.4383	-0.0062
480.6386	0.0077
480.8389	0.0025
481.0392	-0.0007
481.2395	-0.0067
481.4398	0.0048
481.6401	-0.0031
481.8403	-0.0126
482.0405	-0.0099
482.2408	-0.0117
482.441	0.0047
482.6411	-0.0008
482.8413	-0.0025
483.0415	-0.0132
483.2416	-0.0084
483.4417	-0.0008
483.6419	-0.0098
483.8419	-0.0004
484.042	0.0066
484.2421	0.0027
484.4422	0.0009
484.6422	-0.005
484.8422	0.0021
485.0422	-0.0098
485.2422	0.0164
485.4422	-0.0189
485.6422	-0.0122
485.8421	-0.0055
486.042	0.002
486.242	0.0064
486.4419	-0.0092
486.6417	-0.0095
486.8416	0.0011
487.0415	-0.007
487.2413	-0.0028
487.4411	0.0007
487.641	-0.0082
487.8408	-0.0015
488.0405	-0.0097
488.2403	-0.0081
488.4401	0.0059
488.6398	-0.0049
488.8395	-0.0044
489.0392	-0.0049
489.2389	-0.0105
489.4386	-0.0041
489.6383	0.0007
489.8379	0.0016
490.0376	-0.0078
490.2372	-0.0166
490.4368	-0.0163
490.6364	-0.0095
490.836	-0.0035
491.0355	-0.0076
491.2351	-0.0029
491.4346	0.0067
491.6341	-0.013
491.8336	-0.0003
492.0331	-0.0064
492.2326	-0.007
492.432	-0.0031
492.6315	-0.0069
492.8309	-0.0161
493.0303	-0.0086
493.2297	-0.0042
493.4291	-0.0088
493.6284	-0.0057
493.8278	-0.0003
494.0271	0.0079
494.2264	0.0102
494.4257	-0.0161
494.625	0.0026
494.8243	-0.018
495.0236	-0.0125
495.2228	-0.0158
495.422	0.0011
495.6213	0.0017
495.8205	-0.0094
496.0196	0.0006
496.2188	-0.0021
496.418	-0.0019
496.6171	-0.0119
496.8162	-0.0016
497.0153	-0.0075
497.2144	-0.0044
497.4135	-0.0085
497.6126	-0.0094
497.8116	-0.0081
498.0107	0.0027
498.2097	-0.0006
498.4087	-0.015
498.6077	0.0026
498.8067	-0.0101
499.0056	0.0075
499.2046	-0.0121
499.4035	-0.0086
499.6024	-0.0117
499.8013	0.0088
500.0002	-0.0047
500.199	-0.0088
500.3979	-0.0037
500.5967	-0.0099
500.7956	-0.0027
500.9944	-0.0031
501.1932	0.0019
501.3919	-0.003
501.5907	-0.0095
501.7895	-0.0061
501.9882	-0.0173
502.1869	-0.0071
502.3856	-0.0025
502.5843	-0.0062
502.783	-0.0045
502.9816	-0.0031
503.1803	-0.0177
503.3789	-0.0032
503.5775	0.0036
503.7761	-0.0133
503.9747	-0.0125
504.1732	-0.0072
504.3718	-0.011
504.5703	-0.0007
504.7689	-0.0093
504.9674	-0.0093
505.1658	-0.0161
505.3643	-0.0056
505.5628	-0.012
505.7612	-0.0055
505.9597	-0.001
506.1581	-0.0033
506.3565	0.003
506.5549	-0.0036
506.7532	-0.0121
506.9516	-0.0072
507.1499	-0.0136
507.3482	-0.0097
507.5465	-0.009
507.7448	0.0004
507.9431	0.0004
508.1414	0.0024
508.3396	-0.0059
508.5379	0.0023
508.7361	-0.0075
508.9343	-0.0023
509.1325	0.0021
509.3306	-0.0036
509.5288	-0.0008
509.7269	-0.0028
509.9251	-0.006
510.1232	-0.0026
510.3213	-0.0013
510.5193	0.0032
510.7174	-0.0045
510.9154	-0.0161
511.1135	0.0021
511.3115	-0.0049
511.5095	-0.0086
511.7075	-0.011
511.9055	-0.0114
512.1034	-0.0073
512.3014	-0.0002
512.4993	0.0028
512.6972	-0.0103
512.8951	-0.0212
513.093	0.0008
513.2908	-0.0046
513.4887	0.003
513.6865	-0.0111
513.8844	-0.0043
514.0822	-0.0043
514.2799	-0.0151
514.4777	-0.0099
514.6755	-0.0021
514.8732	-0.0219
515.0709	-0.0083
515.2687	0.0012
515.4664	0.0077
515.664	-0.0053
515.8617	-0.0098
516.0594	-0.0088
516.257	0.0018
516.4546	-0.0146
516.6522	-0.0014
516.8498	-0.0045
517.0474	-0.0082
517.2449	0.0093
517.4425	-0.0147
517.64	-0.0018
517.8375	0.0159
518.035	-0.0098
518.2325	-0.0131
518.43	-0.0153
518.6274	-0.009
518.8249	-0.0074
519.0223	0.0086
519.2197	-0.01
519.4171	-0.0131
519.6145	-0.0177
519.8118	0.003
520.0092	-0.0011
520.2065	-0.0094
520.4038	-0.0058
520.6011	0.005
520.7984	-0.0135
520.9956	-0.006
521.1929	-0.0163
521.3901	-0.0032
521.5874	-0.0042
521.7846	-0.0017
521.9818	-0.0039
522.1789	-0.008
522.3761	-0.0047
522.5732	0.0041
522.7704	-0.0094
522.9675	0.0052
523.1646	-0.0073
523.3617	-0.0074
523.5587	-0.0017
523.7558	0.002
523.9528	-0.0029
524.1498	-0.0026
524.3468	-0.0049
524.5438	-0.0072
524.7408	-0.0102
524.9378	0.0019
525.1347	0.0079
525.3316	0.0012
525.5285	-0.0103
525.7254	-0.0046
525.9223	-0.0111
526.1192	0.0069
526.316	-0.0117
526.5129	-0.0012
526.7097	-0.0059
526.9065	0
527.1033	-0.0136
527.3	-0.0028
527.4968	-0.0057
527.6935	-0.0018
527.8903	-0.0208
528.087	-0.0049
528.2837	-0.007
528.4804	-0.0035
528.677	-0.0068
528.8737	-0.0009
529.0703	0.0043
529.2669	-0.0032
529.4635	0.0006
529.6601	-0.0029
529.8567	-0.0028
530.0532	-0.0052
530.2498	0.0012
530.4463	0.0047
530.6428	-0.0053
530.8393	0.002
531.0358	-0.0041
531.2322	-0.0103
531.4287	-0.0003
531.6251	-0.0168
531.8215	0.005
532.0179	0.002
532.2143	0.0072
532.4107	-0.0114
532.607	-0.0034
532.8034	0.0018
532.9997	-0.002
533.196	-0.0072
533.3923	-0.0057
533.5886	0.0033
533.7848	-0.0074
533.9811	-0.0027
534.1773	0.0055
534.3735	0.0066
534.5697	0.0005
534.7659	-0.0039
534.9621	0.0115
535.1582	-0.0094
535.3544	-0.009
535.5505	-0.0053
535.7466	-0.0077
535.9427	-0.0023
536.1387	-0.0102
536.3348	-0.0033
536.5308	0.0031
536.7269	-0.0155
536.9229	0.0007
537.1189	-0.005
537.3148	0.0014
537.5108	-0.0113
537.7068	-0.0056
537.9027	-0.004
538.0986	-0.0034
538.2945	-0.006
538.4904	-0.0093
538.6863	-0.01
538.8821	-0.0037
539.078	-0.0036
539.2738	0.0048
539.4696	0.0037
539.6654	-0.0057
539.8611	0.0166
540.0569	0
540.2526	-0.0134
540.4484	-0.007
540.6441	0.0075
540.8398	0.0011
541.0355	0.0034
541.2311	-0.0059
541.4268	-0.016
541.6224	0.0064
541.818	0.0069
542.0136	0.0052
542.2092	-0.0005
542.4048	0.0091
542.6003	-0.0011
542.7959	0.0019
542.9914	0.0006
543.1869	-0.0033
543.3824	-0.0005
543.5779	0.0014
543.7734	-0.0064
543.9688	-0.0087
544.1642	0.0023
544.3596	0.0062
544.555	-0.0029
544.7504	0.0044
544.9458	-0.0013
545.1411	-0.0065
545.3365	-0.0054
545.5318	0.0024
545.7271	0.0086
545.9224	0.0006
546.1177	-0.0022
546.3129	0.0028
546.5081	-0.0084
546.7034	0.0004
546.8986	-0.0008
547.0938	-0.0094
547.289	-0.005
547.4841	-0.0016
547.6793	0.0101
547.8744	-0.0047
548.0695	0.0106
548.2646	-0.0046
548.4597	0.0034
548.6548	-0.0026
548.8498	0.0049
549.0448	0.0054
549.2399	-0.0035
549.4349	0.0052
549.6298	0.0014
549.8248	0.0013
550.0198	-0.0029
550.2147	-0.0063
550.4096	-0.0076
550.6045	-0.0064
550.7994	0.0026
550.9943	-0.008
551.1892	0.0046
551.384	0.0036
551.5788	-0.0086
551.7737	0.0019
551.9685	-0.0027
552.1632	0.0002
552.358	-0.0047
552.5528	-0.0012
552.7475	-0.004
552.9422	-0.0023
553.1369	0.0016
553.3316	0.0078
553.5263	-0.0103
553.7209	0.0025
553.9156	-0.008
554.1102	-0.0041
554.3048	-0.0104
554.4994	0.0076
554.694	-0.0051
554.8885	0.0032
555.0831	-0.0026
555.2776	-0.0006
555.4721	-0.0008
555.6666	-0.0006
555.8611	0.0121
556.0555	0.0029
556.25	0.0012
556.4444	-0.0145
556.6388	0.0087
556.8332	0.0061
557.0276	-0.0034
557.222	-0.0015
557.4163	-0.0031
557.6107	-0.004
557.805	0.0032
557.9993	-0.005
558.1936	-0.0022
558.3879	-0.0012
558.5821	0.0007
558.7764	-0.0029
558.9706	0.0078
559.1648	0.0098
559.359	-0.0031
559.5532	-0.0018
559.7473	-0.0031
559.9415	0.0031
560.1356	-0.0055
560.3297	-0.0115
560.5238	-0.0104
560.7179	0.0003
560.9119	-0.0085
561.106	-0.0083
561.3	-0.0031
561.494	-0.0022
561.688	-0.0026
561.882	-0.0056
562.076	-0.0076
562.2699	-0.0004
562.4639	0.0003
562.6578	-0.0017
562.8517	0.0005
563.0456	0.0018
563.2395	0.0032
563.4333	0.0024
563.6272	0.0055
563.821	0.0017
564.0148	-0.0025
564.2086	-0.0072
564.4024	-0.0048
564.5961	0.0011
564.7899	0.006
564.9836	0.0025
565.1773	0.0064
565.371	0.0041
565.5647	0.0028
565.7584	0.0013
565.952	-0.0025
566.1456	-0.0015
566.3393	-0.0019
566.5329	-0.001
566.7264	-0.0017
566.92	-0.0057
567.1136	0.0024
567.3071	-0.0003
567.5006	-0.0016
567.6941	0.0074
567.8876	0.0012
568.0811	-0.0086
568.2745	0.0049
568.468	0.0008
568.6614	-0.0004
568.8548	0.0012
569.0482	-0.0001
569.2416	0.0021
569.4349	0.0049
569.6283	0.0093
569.8216	0.0006
570.0149	-0.0018
570.2082	0.0076
570.4015	0.0108
570.5947	0.0024
570.788	0.0112
570.9812	0.0059
571.1744	0.0008
571.3676	-0.0111
571.5608	0.0042
571.754	0.0037
571.9471	0.0034
572.1402	-0.0004
572.3333	-0.0017
572.5264	-0.0058
572.7195	-0.0047
572.9126	-0.0006
573.1057	-0.0032
573.2987	0.0029
573.4917	0.0019
573.6847	-0.0037
573.8777	0.0083
574.0707	0.0023
574.2636	-0.0031
574.4566	-0.0042
574.6495	0.0018
574.8424	0.0001
575.0353	0.0025
575.2281	0.0089
575.421	0.0021
575.6138	0.0093
575.8067	-0.0055
575.9995	-0.0016
576.1923	0.0081
576.385	0.0021
576.5778	-0.0004
576.7706	0.0014
576.9633	0.0052
577.156	0.0037
577.3487	0.0012
577.5414	0.0014
577.734	-0.0013
577.9267	-0.0027
578.1193	-0.0026
578.3119	-0.0006
578.5045	0.0006
578.6971	0.0051
578.8897	0.0039
579.0822	-0.0005
579.2747	0.007
579.4673	-0.0016
579.6598	-0.007
579.8522	0.0027
580.0447	0.003
580.2372	0.0006
580.4296	0.0017
580.622	0.0016
580.8144	0.0013
581.0068	0.0014
581.1992	-0.0104
581.3915	-0.0061
581.5839	-0.0073
581.7762	-0.0036
581.9685	0.006
582.1608	0.0083
582.353	-0.0019
582.5453	-0.0016
582.7375	0.0007
582.9298	0.0018
583.122	0.0037
583.3142	-0.0002
583.5063	-0.0002
583.6985	0.0035
583.8906	-0.0035
584.0827	-0.0016
584.2749	0.0027
584.4669	0.0034
584.659	0.0013
584.8511	0.0061
585.0431	-0.0066
585.2352	0.0024
585.4272	0.0062
585.6192	0.0062
585.8111	-0.0073
586.0031	-0.0022
586.195	-0.0007
586.387	0.0079
586.5789	0.003
586.7708	0.0041
586.9627	0.0041
587.1545	-0.0015
587.3464	0.0064
587.5382	0.0059
587.73	0.0033
587.9218	0.0044
588.1136	0.0036
588.3053	0.0016
588.4971	-0.0038
588.6888	-0.0053
588.8805	0.0005
589.0722	0.0024
589.2639	0.0005
589.4556	0.002
589.6472	-0.0005
589.8389	-0.0052
590.0305	-0.0131
590.2221	0.0071
590.4137	-0.0033
590.6052	0.0091
590.7968	-0.0013
590.9883	0.0038
591.1798	-0.0053
591.3713	0.0012
591.5628	0.0046
591.7543	0.0014
591.9458	0.0068
592.1372	0.0089
592.3286	0.0071
592.52	0.0101
592.7114	-0.0049
592.9028	-0.0024
593.0941	0.008
593.2855	0.0009
593.4768	0.0003
593.6681	-0.0021
593.8594	0.0011
594.0506	0.0049
594.2419	0.0133
594.4331	0.0023
594.6244	0.0075
594.8156	-0.0049
595.0067	0.0057
595.1979	-0.0006
595.3891	0.0025
595.5802	-0.0004
595.7713	-0.004
595.9624	-0.0021
596.1535	0.0068
596.3446	-0.0008
596.5357	0.0029
596.7267	0.0097
596.9177	-0.0039
597.1087	-0.0002
597.2997	-0.0016
597.4907	0.0012
597.6817	-0.0046
597.8726	0.0054
598.0635	-0.0028
598.2544	-0.0076
598.4453	-0.0018
598.6362	-0.0036
598.827	0.0002
599.0179	0.0018
599.2087	0.0014
599.3995	0.0048
599.5903	-0.0016
599.7811	0.0031
599.9718	-0.0017
600.1626	-0.0066
600.3533	-0.0057
600.544	0.0003
600.7347	-0.0045
600.9254	-0.0014
601.116	-0.0113
601.3067	-0.0035
601.4973	-0.0036
601.6879	-0.002
601.8785	-0.0023
602.0691	0.0018
602.2596	0.0019
602.4502	0.0031
602.6407	0.004
602.8312	0.0043
603.0217	-0.0022
603.2122	0.0001
603.4027	0.0009
603.5931	0.0007
603.7835	0.0029
603.9739	0.0027
604.1643	-0.0069
604.3547	-0.0054
604.5451	-0
604.7354	-0.0004
604.9257	0.0022
605.116	-0.0042
605.3063	0.0034
605.4966	0.0088
605.6869	-0.0001
605.8771	0.011
606.0673	0.012
606.2575	0.0141
606.4477	0.0114
606.6379	0.0022
606.8281	-0.0003
607.0182	-0.0023
607.2083	0.0069
607.3985	-0.0012
607.5885	0.0012
607.7786	0.0013
607.9687	-0.0014
608.1587	0.0013
608.3488	0.005
608.5388	0.0089
608.7288	0.0006
608.9187	-0.0055
609.1087	-0.0019
609.2986	-0.0011
609.4886	-0.001
609.6785	-0.0027
609.8684	0.004
610.0582	0.0046
610.2481	0.0031
610.4379	0.0001
610.6278	-0.0008
610.8176	-0.0041
611.0074	-0.0051
611.1971	-0.0044
611.3869	0.0047
611.5766	-0.0058
611.7664	0.0023
611.9561	0.0065
612.1458	0.0069
612.3354	-0.004
612.5251	-0.0011
612.7147	-0.0004
612.9044	0.008
613.094	0.0007
613.2836	0.0023
613.4731	-0.0077
613.6627	0.0028
613.8522	-0.0002
614.0417	0.0039
614.2313	-0.0034
614.4207	-0.0073
614.6102	-0.0023
614.7997	-0.0015
614.9891	-0.0114
615.1785	0.0022
615.3679	-0.0067
615.5573	0.0145
615.7467	-0.0063
615.9361	0.0052
616.1254	0.0002
616.3147	0.0084
616.504	0.0049
616.6933	0.0079
616.8826	0.0113
617.0718	0.008
617.2611	0.003
617.4503	-0.0021
617.6395	-0.0021
617.8287	0.0034
618.0179	-0.0051
618.207	0.0064
618.3961	0.002
618.5853	-0.0001
618.7744	0.0045
618.9634	0.004
619.1525	0.0059
619.3416	0.0058
619.5306	0.0109
619.7196	0.0068
619.9086	-0.0078
620.0976	0.0026
620.2866	-0.0023
620.4755	0.0085
620.6645	0.004
620.8534	0.0051
621.0423	0.0064
621.2312	0.0034
621.42	0.004
621.6089	-0.0016
621.7977	-0.0015
621.9865	-0.0022
622.1753	0.004
622.3641	0.0074
622.5529	0.0157
622.7416	0.0072
622.9303	0.0016
623.1191	0.0041
623.3078	0.0033
623.4964	0.0023
623.6851	-0.0024
623.8737	0.0009
624.0624	0.0055
624.251	-0.0014
624.4396	0.0019
624.6282	-0.01
624.8167	-0.0018
625.0053	0.0017
625.1938	0.0037
625.3823	0.0021
625.5708	-0.0003
625.7593	-0.0046
625.9477	-0.0002
626.1362	-0.0074
626.3246	-0.0036
626.513	0.0048
626.7014	0.0061
626.8898	0.0025
627.0781	0.0067
627.2665	0
627.4548	0.0058
627.6431	0.0069
627.8314	0.0021
628.0197	0.0128
628.2079	-0.0064
628.3962	-0.005
628.5844	0.0054
628.7726	0.0071
628.9608	0.0117
629.1489	0.0071
629.3371	0.0044
629.5252	0.0035
629.7134	0.0095
629.9015	0.0032
630.0895	0.0028
630.2776	0.0097
630.4657	0.0086
630.6537	0.0003
630.8417	0.0031
631.0297	-0.0021
631.2177	-0.0055
631.4057	-0.0049
631.5936	-0.0015
631.7815	0.0043
631.9695	-0.0018
632.1574	0.0044
632.3452	0.0132
632.5331	0.0105
632.7209	-0.0031
632.9088	0.0105
633.0966	0.0094
633.2844	0.0031
633.4722	0.0029
633.6599	0.0077
633.8477	0.0037
634.0354	0.0028
634.2231	0.0032
634.4108	0.0044
634.5985	0.0041
634.7861	0.0034
634.9738	0.0056
635.1614	0.0061
635.349	0.01
635.5366	-0
635.7242	-0.0012
635.9117	0.0065
636.0993	0.0051
636.2868	0.0063
636.4743	0.0043
636.6618	0.011
636.8492	0.0053
637.0367	0.0024
637.2241	0.0007
637.4115	0.0022
637.5989	-0.0038
637.7863	0.001
637.9737	0.0004
638.161	-0.0002
638.3484	0.003
638.5357	0.008
638.723	-0.0064
638.9103	0.0051
639.0975	0.0021
639.2848	0.005
639.472	0.0013
639.6592	0.0067
639.8464	0.0024
640.0336	0.0068
640.2208	0.0016
640.4079	-0.0018
640.595	-0.0011
640.7821	-0.0009
640.9692	0.0057
641.1563	-0.0013
641.3434	0.0078
641.5304	-0.0007
641.7174	0.0004
641.9044	0.006
642.0914	0.0007
642.2784	0.0051
642.4653	0.0013
642.6523	-0.0018
642.8392	0.0007
643.0261	-0.0007
643.213	-0.0052
643.3999	-0.0023
643.5867	-0.0017
643.7735	0
643.9604	-0.0015
644.1472	0.0011
644.3339	0.0021
644.5207	0.0013
644.7075	0.0034
644.8942	0.0029
645.0809	0.017
645.2676	0.0048
645.4543	0.0028
645.6409	0.0117
645.8276	0.0062
646.0142	0.0043
646.2008	0.0007
646.3874	-0.0048
646.574	0.0018
646.7605	-0.0029
646.9471	-0.0133
647.1336	0.0007
647.3201	0.003
647.5066	0.0065
647.6931	0.0046
647.8795	0.0029
648.0659	0.0055
648.2524	0.0072
648.4388	-0.0035
648.6252	-0.0012
648.8115	0.0014
648.9979	0.0049
649.1842	-0.0012
649.3705	0.0097
649.5568	0.0043
649.7431	0.0074
649.9294	0.0025
650.1156	0.002
650.3018	-0.0096
650.488	0.0073
650.6742	0.0045
650.8604	0.0036
651.0466	-0.0009
651.2327	-0.0032
651.4188	0.0016
651.6049	-0.0021
651.791	0.0011
651.9771	0.0021
652.1632	0.0019
652.3492	-0.0011
652.5352	0.0027
652.7212	0.0003
652.9072	0.0058
653.0932	0.0018
653.2791	-0.0031
653.465	0.0066
653.651	0.0008
653.8369	-0.001
654.0227	-0.0027
654.2086	0.009
654.3944	0.0075
654.5803	0.0052
654.7661	0.0036
654.9519	0.0008
655.1377	-0.002
655.3234	-0.0028
655.5092	-0.0057
655.6949	-0.0033
655.8806	-0.0042
656.0663	0.0002
656.2519	0.0008
656.4376	0.0047
656.6232	0.0012
656.8088	0.0028
656.9945	0.0053
657.18	0
657.3656	0.0019
657.5511	-0.0009
657.7367	0.0037
657.9222	0.0059
658.1077	-0.0006
658.2932	0.0091
658.4786	-0.0056
658.6641	-0.0021
658.8495	-0.0057
659.0349	-0.0009
659.2203	0.0055
659.4057	0.0038
659.591	0.0038
659.7764	-0.0088
659.9617	-0.0013
660.147	-0.0053
660.3323	0.0019
660.5176	0.0166
660.7028	0.0059
660.888	0.0009
661.0733	-0.0018
661.2585	-0.0105
661.4436	0.0018
661.6288	0.0024
661.8139	-0.0039
661.9991	0.0059
662.1842	-0.0042
662.3693	-0.002
662.5544	-0.0061
662.7394	0.0004
662.9245	-0.0022
663.1095	-0.0039
663.2945	-0.0009
663.4795	-0.0041
663.6644	0.008
663.8494	0.0097
664.0343	0.0034
664.2193	-0.0049
664.4042	-0.0026
664.589	-0.0025
664.7739	0.0026
664.9587	0.0004
665.1436	-0.0023
665.3284	0.0008
665.5132	0.0003
665.698	0.0053
665.8827	0.0083
666.0675	0.0012
666.2522	-0.0077
666.4369	-0.0034
666.6216	0.0019
666.8063	0.001
666.9909	-0.0046
667.1756	-0.0039
667.3602	0.0011
667.5448	0.0022
667.7294	0.0024
667.9139	0.0026
668.0985	0.0123
668.283	0.0035
668.4675	0.0047
668.652	0.0012
668.8365	-0.0015
669.0209	0.0124
669.2054	0.0093
669.3898	-0.0029
669.5742	-0.0012
669.7586	0.0043
669.943	0.0069
670.1273	0.0088
670.3117	0.0059
670.496	0.006
670.6803	0.0112
670.8646	0.0001
671.0488	0.0047
671.2331	0.0084
671.4173	0.0093
671.6015	-0.0016
671.7857	0.0027
671.9699	0.0049
672.1541	0.0049
672.3382	0.0117
672.5223	0.0035
672.7064	0.0057
672.8905	0.0068
673.0746	0.0065
673.2587	-0.0006
673.4427	0.0032
673.6267	0.0061
673.8107	0.0026
673.9947	0.0092
674.1787	0.0048
674.3626	0.005
674.5465	0.007
674.7304	0.0072
674.9143	0.0043
675.0982	0.0108
675.2821	-0.006
675.4659	0.0097
675.6497	0.0084
675.8335	0.0062
676.0173	0.0018
676.2011	0.0019
676.3849	0.0026
676.5686	-0.0053
676.7523	-0.0019
676.936	-0.0033
677.1197	0.0003
677.3034	-0.0031
677.487	0.0058
677.6706	0.0016
677.8542	0.0033
678.0378	-0.003
678.2214	-0.0001
678.405	0.0006
678.5885	-0.0056
678.772	0.0029
678.9555	-0.0025
679.139	-0.0007
679.3225	0.0003
679.5059	-0.0077
679.6894	0.0051
679.8728	0.0039
680.0562	-0.0071
680.2395	-0.0015
680.4229	0.0002
680.6062	0.0097
680.7896	0.01
680.9729	-0.0023
681.1562	0.005
681.3394	0.0022
681.5227	-0.0051
681.7059	-0.0008
681.8891	0.0046
682.0723	0.0109
682.2555	0.0026
682.4387	-0.0049
682.6218	0.0042
682.805	0.012
682.9881	0.0069
683.1712	0.0052
683.3542	0.005
683.5373	0.0073
683.7203	-0.0072
683.9034	0.0059
684.0864	-0.0042
684.2694	-0.0024
684.4523	0.0013
684.6353	-0.0065
684.8182	-0.0038
685.0011	-0.0033
685.184	0.0056
685.3669	0.006
685.5498	-0.0006
685.7326	0.0015
685.9154	-0.0023
686.0982	0.0016
686.281	0.0031
686.4638	0.0022
686.6465	0.0006
686.8293	-0.0025
687.012	0.0032
687.1947	-0.0119
687.3774	-0.0002
687.56	-0.0018
687.7427	0.0036
687.9253	-0.0032
688.1079	0.0007
688.2905	0.009
688.4731	0.0051
688.6556	-0
688.8382	-0.0021
689.0207	0.0052
689.2032	-0.0119
689.3857	-0.0071
689.5681	0.0051
689.7506	0.0057
689.933	0.0047
690.1154	-0.0009
690.2978	0.0008
690.4802	0.0049
690.6626	-0.0068
690.8449	0.0005
691.0272	0.0038
691.2095	0.0004
691.3918	-0.0044
691.5741	0.0025
691.7563	-0.0006
691.9386	0.0033
692.1208	0.0055
692.303	0.0014
692.4852	0.0035
692.6673	0.0093
692.8495	0.002
693.0316	0.006
693.2137	0.0027
693.3958	0.005
693.5778	0.0018
693.7599	0.0061
693.9419	-0.0051
694.1239	0.0002
694.3059	-0.0021
694.4879	0.0088
694.6699	0.0083
694.8518	0.0099
695.0337	0.0013
695.2157	0.0113
695.3975	0.0112
695.5794	0.0102
695.7613	0.0095
695.9431	-0.0001
696.1249	0.012
696.3067	0.0078
696.4885	0.0141
696.6703	0.0021
696.852	0.0051
697.0337	0.0096
697.2154	0.0067
697.3971	0.0089
697.5788	0.0037
697.7605	0.0069
697.9421	0.0058
698.1237	0.0016
698.3053	0.0028
698.4869	-0.0024
698.6685	-0.0005
698.85	0.0062
699.0315	0.0084
699.213	0.0009
699.3945	0.0033
699.576	0.0063
699.7575	0.0043
699.9389	0.0024
700.1203	0.0042
700.3017	-0.008
700.4831	-0.0064
700.6645	-0.0052
700.8458	0.0043
701.0271	-0.0018
701.2084	0.0039
701.3897	-0.0032
701.571	0.0124
701.7523	-0.0037
701.9335	0.0008
702.1147	0.0007
702.2959	0.0026
702.4771	0.0016
702.6583	0.0032
702.8394	-0.0046
703.0205	0.0024
703.2016	-0.0038
703.3827	-0.0043
703.5638	0.011
703.7449	0.0071
703.9259	0.014
704.1069	-0.0021
704.2879	0.0063
704.4689	0.008
704.6499	0.0034
704.8308	-0.0011
705.0117	0.0093
705.1927	0.0053
705.3735	-0.0031
705.5544	-0.0052
705.7353	-0.0056
705.9161	-0.0061
706.0969	-0.0007
706.2777	0.0008
706.4585	-0.0004
706.6393	0.0085
706.82	0.003
707.0007	0.0037
707.1815	0.0042
707.3621	0.0111
707.5428	0.0042
707.7235	0.0075
707.9041	0.0079
708.0847	-0.0104
708.2653	-0.0074
708.4459	-0.0125
708.6265	0.0009
708.807	-0.0031
708.9875	-0.0051
709.168	0.0033
709.3485	-0.0019
709.529	0.0011
709.7095	-0.0119
709.8899	-0.003
710.0703	-0.0124
710.2507	0.0031
710.4311	0.0025
710.6115	-0.007
710.7918	-0.0023
710.9721	-0.0001
711.1524	-0.0077
711.3327	0.0026
711.513	0.0057
711.6932	0.0029
711.8735	0.013
712.0537	0.011
712.2339	0.0097
712.4141	0.0054
712.5942	-0.0037
712.7744	0.0078
712.9545	-0.0095
713.1346	-0.0068
713.3147	0.0038
713.4947	-0.0001
713.6748	-0.0006
713.8548	-0.0021
714.0348	-0.0027
714.2148	0.005
714.3948	0.0049
714.5748	-0.0011
714.7547	0.0041
714.9346	0.0035
715.1145	-0.004
715.2944	-0.003
715.4743	0.0016
715.6541	0.0018
715.834	0.0052
716.0138	-0.0065
716.1936	-0.0076
716.3733	-0.0001
716.5531	0.0016
716.7328	-0.0024
716.9126	-0.0023
717.0923	0.0097
717.2719	0.0011
717.4516	0.0053
717.6312	0.0092
717.8109	0.0074
717.9905	0.0069
718.1701	0.0012
718.3496	-0.0043
718.5292	0.003
718.7087	0.0029
718.8882	0.004
719.0677	0.0088
719.2472	0.005
719.4267	-0.0036
719.6061	0.0036
719.7856	0.0033
719.965	0.002
720.1443	0.0014
720.3237	0.0138
720.5031	0.0058
720.6824	0.0091
720.8617	-0.0034
721.041	0
721.2203	-0.0004
721.3995	0.0056
721.5788	0.0055
721.758	0.0033
721.9372	0.0021
722.1164	-0.0003
722.2956	0.0043
722.4747	0.0023
722.6538	-0.0015
722.8329	0.0087
723.012	0.0044
723.1911	0.0013
723.3702	0.0016
723.5492	0.0086
723.7282	-0.0059
723.9072	0.0019
724.0862	-0.0161
724.2652	-0.014
724.4441	0.0017
724.623	0.0036
724.8019	0.002
724.9808	0.002
725.1597	-0.0076
725.3385	0.0042
725.5174	0.0033
725.6962	-0.0018
725.875	0.0021
726.0538	-0.0027
726.2325	0.0054
726.4112	0.0049
726.59	0.0052
726.7687	-0.0052
726.9474	0.0045
727.126	0.009
727.3047	-0.0028
727.4833	-0.0001
727.6619	0.0018
727.8405	-0.0076
728.0191	0.0006
728.1976	0.0074
728.3762	-0.0053
728.5547	0.0045
728.7332	-0.0105
728.9116	-0.005
729.0901	0.0036
729.2686	-0.0054
729.447	-0.0058
729.6254	-0.0043
729.8038	-0.0068
729.9821	-0.0098
730.1605	-0.0008
730.3388	-0.0021
730.5171	-0.0033
730.6954	-0.0007
730.8737	0.0087
731.0519	0.0117
731.2302	0.0037
731.4084	0.0096
731.5866	0.0121
731.7648	0.0046
731.9429	-0.0019
732.1211	-0.012
732.2992	-0.0046
732.4773	-0.0042
732.6554	-0.0028
732.8335	0.0031
733.0115	0.0037
733.1896	0.0049
733.3676	0.0021
733.5456	0.0007
733.7235	0
733.9015	-0.0026
734.0794	0.0075
734.2574	-0.005
734.4353	-0.0042
734.6131	0.0122
734.791	-0.0023
734.9689	-0.0021
735.1467	0.0029
735.3245	-0.0088
735.5023	-0.0047
735.68	-0.0001
735.8578	0.0062
736.0355	-0.017
736.2132	-0.0063
736.3909	-0.0126
736.5686	-0.0093
736.7463	0.009
736.9239	-0.0052
737.1015	-0.0017
737.2791	0.0048
737.4567	0.0054
737.6343	-0.012
737.8118	0.0024
737.9894	0.0091
738.1669	-0.0004
738.3444	0.0052
738.5218	0.0058
738.6993	-0.0011
738.8767	0.0012
739.0541	0.0134
739.2315	-0.0063
739.4089	0.0025
739.5863	0.0069
739.7636	-0.0016
739.9409	0.0019
740.1182	0.0089
740.2955	0.0101
740.4728	0.0007
740.65	-0.0092
740.8272	-0.0035
741.0044	-0.0053
741.1816	0.0014
741.3588	-0.002
741.5359	-0.0008
741.7131	-0.0077
741.8902	0.002
742.0673	0.0029
742.2444	-0.0091
742.4214	-0.0068
742.5985	-0.0037
742.7755	-0.0011
742.9525	-0.01
743.1295	0.002
743.3064	0.0033
743.4834	0.0092
743.6603	-0.0018
743.8372	-0.0034
744.0141	0.0034
744.191	0.0086
744.3678	0.0013
744.5446	0.0105
744.7215	0.0037
744.8982	-0.0017
745.075	-0.0133
745.2518	0.0099
745.4285	0.0012
745.6052	-0.0077
745.7819	-0.0048
745.9586	-0.0084
746.1353	-0.0081
746.3119	-0.0157
746.4885	-0.0087
746.6651	-0.016
746.8417	-0.0054
747.0183	-0.0102
747.1948	-0.0135
747.3714	-0.0082
747.5479	-0.0015
747.7244	-0.0061
747.9008	-0.0028
748.0773	-0.0039
748.2537	-0.0089
748.4301	-0.009
748.6065	0.002
748.7829	-0.0029
748.9593	-0.0022
749.1356	-0.0051
749.3119	0.0001
749.4882	-0.0124
749.6645	0.0027
749.8408	-0.0052
750.017	0.0007
750.1933	-0.0045
750.3695	-0.011
750.5457	0.0093
750.7218	0.0049
750.898	0.01
751.0741	0.0021
751.2502	0.0032
751.4263	-0.0083
751.6024	-0.0099
751.7784	-0.0133
751.9545	-0.0051
752.1305	-0.0094
752.3065	-0.0078
752.4825	-0.0026
752.6584	-0.0093
752.8344	-0.0012
753.0103	-0.0078
753.1862	-0.007
753.3621	-0.0046
753.5379	-0.0093
753.7138	0.0046
753.8896	-0.0057
754.0654	0.0053
754.2412	0.0053
754.417	0.004
754.5927	-0.0019
754.7685	-0.0047
754.9442	-0.0023
755.1199	0.0089
755.2956	-0.0002
755.4712	0.0104
755.6469	0.0089
755.8225	0.0063
755.9981	0.0012
756.1736	0.0002
756.3492	0.0103
756.5248	0.0037
756.7003	0.0118
756.8758	0.0115
757.0513	-0.0055
757.2267	0.0032
757.4022	0.0029
757.5776	-0.0071
757.753	-0.0021
757.9284	-0.0024
758.1038	0.0123
758.2791	0.0033
758.4545	-0.0093
758.6298	-0.0066
758.8051	-0.0048
758.9803	-0.0079
759.1556	-0.009
759.3308	-0.0059
759.506	0.0111
759.6812	0.0013
759.8564	0.003
760.0316	0.0046
760.2067	0.0129
760.3819	0.0075
760.557	0.0073
760.732	0.0071
760.9071	-0.0044
761.0821	0.008
761.2572	0.0055
761.4322	0.002
761.6072	0.0045
761.7821	0.0002
761.9571	-0.0007
762.132	-0.0094
762.3069	-0.0045
762.4818	-0.0086
762.6567	-0.004
762.8316	-0.0049
763.0064	-0.0087
763.1812	-0.0045
763.356	-0.02
763.5308	-0.0041
763.7055	0.0003
763.8803	-0.0001
764.055	-0.0011
764.2297	-0.0001
764.4044	-0.0124
764.579	-0.0049
764.7537	-0.0206
764.9283	0.0001
765.1029	-0.0109
765.2775	-0.0084
765.4521	-0.0138
765.6266	-0.0109
765.8011	-0.0152
765.9756	-0.0116
766.1501	-0.0067
766.3246	-0.0048
766.4991	-0.0014
766.6735	0.001
766.8479	-0.0074
767.0223	0.0035
767.1967	-0.0057
767.371	-0.0007
767.5454	-0.0058
767.7197	-0.0166
767.894	-0.0056
768.0683	-0.0089
768.2425	-0.0001
768.4168	-0.0044
768.591	-0.0027
768.7652	-0.0052
768.9394	-0.005
769.1135	0.0053
769.2877	0.0047
769.4618	-0.0125
769.6359	0.0011
769.81	0.0009
769.984	0.0079
770.1581	-0.005
770.3321	-0.0016
770.5061	-0.0061
770.6801	-0.0032
770.8541	-0.0021
771.028	0.0055
771.202	-0.0019
771.3759	-0.0002
771.5498	-0.0111
771.7236	-0.0095
771.8975	-0.0022
772.0713	-0.0013
772.2451	0.0052
772.4189	0.006
772.5927	0.0097
772.7665	-0.0046
772.9402	-0.0035
773.1139	-0.0034
773.2876	-0.0126
773.4613	-0.0001
773.635	0.0062
773.8086	-0.0205
773.9822	-0.008
774.1558	0.0027
774.3294	-0.0165
774.503	-0.0082
774.6765	-0.0023
774.8501	0.0013
775.0236	-0.0001
775.1971	0.0052
775.3705	-0.0129
775.544	0.0026
775.7174	-0.0092
775.8908	-0.009
776.0642	-0.0034
776.2376	0.0001
776.4109	-0.0204
776.5843	0.0004
776.7576	-0.0008
776.9309	0.0146
777.1041	0.0092
777.2774	0.0092
777.4506	0.0024
777.6238	0.0011
777.797	0.0017
777.9702	0.0101
778.1434	-0.0116
778.3165	-0.0171
778.4896	-0.0045
778.6627	0.0021
778.8358	-0.0001
779.0089	0
779.1819	-0.0051
779.3549	0.0019
779.5279	0.0096
779.7009	0.0038
779.8739	-0.0062
780.0468	0.0027
780.2197	-0.008
780.3926	-0.0057
780.5655	-0.0002
780.7384	-0.0087
780.9112	-0.0034
781.0841	-0.015
781.2569	-0.0052
781.4297	0.0088
781.6024	0.0087
781.7752	0.0124
781.9479	0.0071
782.1206	-0.0036
782.2933	-0.0225
782.466	0.0064
782.6386	0.0048
782.8113	-0.0036
782.9839	-0.0115
783.1565	-0.0001
783.329	-0.0018
783.5016	0.0065
783.6741	0.0048
783.8466	-0.009
784.0191	0.0186
784.1916	-0.0027
784.3641	0.0024
784.5365	-0.0021
784.7089	-0.0057
784.8813	-0.0063
785.0537	0.0138
785.2261	-0.0073
785.3984	-0.0168
785.5707	-0.0012
785.743	-0.0126
785.9153	-0.007
786.0876	-0.0043
786.2598	-0.014
786.432	-0.0177
786.6042	0.0001
786.7764	-0.0132
786.9486	-0.0015
787.1207	-0.0125
787.2928	-0.0015
787.4649	-0.0036
787.637	0.0079
787.8091	-0.0095
787.9811	0.0019
788.1532	-0.0028
788.3252	0.0139
788.4972	-0.0049
788.6691	0.0033
788.8411	-0.0054
789.013	-0.0049
789.1849	-0.0058
789.3568	0.0057
789.5287	-0.0024
789.7005	-0.0153
789.8723	-0.0028
790.0442	0.0078
790.2159	0.0092
790.3877	-0.0068
790.5595	-0.0064
790.7312	0.0079
790.9029	-0.0001
791.0746	-0.0059
791.2463	-0.0026
791.4179	-0.0153
791.5896	-0.0043
791.7612	0.0061
791.9328	0.0003
792.1044	0.0079
792.2759	-0.0183
792.4474	-0.004
792.619	-0.0008
792.7905	0.0031
792.9619	0.0021
793.1334	0.016
793.3048	0.0107
793.4762	0.0052
793.6476	-0.0039
793.819	-0.0099
793.9904	0.0058
794.1617	-0.0158
794.333	-0.0069
794.5043	-0.006
794.6756	-0.0029
794.8469	-0.0003
795.0181	0.0051
795.1893	0.0079
795.3605	0.0145
795.5317	0.0014
795.7029	-0.0017
795.874	0.0009
796.0452	-0.0171
796.2163	-0.0149
796.3873	0.0111
796.5584	0.0089
796.7294	0.0039
796.9005	-0.0003
797.0715	0.0072
797.2425	-0.0138
797.4134	-0.0047
797.5844	0.0091
797.7553	-0.0144
797.9262	0.0002
798.0971	0.0021
798.2679	-0.0143
798.4388	-0.0211
798.6096	-0.0083
798.7804	-0.0002
798.9512	-0.0024
799.122	-0.0023
799.2927	-0.0078
799.4635	0.0061
799.6342	-0.0191
799.8049	-0.0063
799.9755	-0.0195
800.1462	-0.0137
800.3168	0.0002
800.4874	0.0045
800.658	0.0279
800.8286	0.0149
800.9991	0.0108
801.1696	0.0099
801.3402	0.0178
801.5106	0.0064
801.6811	0.003
801.8516	0.0117
802.022	-0.0077
802.1924	-0.017
802.3628	-0.0034
802.5332	-0.003
802.7035	-0.0006
802.8739	-0.0004
803.0442	0.0017
803.2145	0.0121
803.3847	-0.0114
803.555	0.0139
803.7252	-0.0143
803.8954	-0.015
804.0656	-0.0053
804.2358	-0.0124
804.4059	0.0074
804.5761	0.0131
804.7462	-0.0091
804.9163	-0.026
805.0864	-0.0224
805.2564	-0.0013
805.4264	-0.0011
805.5965	0.0086
805.7665	0.0102
805.9364	-0.0088
806.1064	0.0294
806.2763	0.0063
806.4462	0.0247
806.6161	-0.0083
806.786	0.0073
806.9559	-0.0065
807.1257	-0.0071
807.2955	-0.0146
807.4653	0.0014
807.6351	-0.0052
807.8048	0.0043
807.9746	0.0218
808.1443	0.0023
808.314	-0.0165
808.4837	-0.0134
808.6533	-0.0038
808.8229	0.0116
808.9926	0.0015
809.1622	0.0201
809.3317	-0.0122
809.5013	0.0192
809.6708	0.0136
809.8403	0.004
810.0098	-0.0045
810.1793	0.0186
810.3488	0.0028
810.5182	-0.0381
810.6876	-0.0077
810.857	-0.0121
811.0264	0.0022
811.1958	0.0101
811.3651	-0.0091
811.5344	0.0016
811.7037	0.0005
811.873	0.0016
812.0422	-0.0005
812.2115	0.0016
812.3807	-0.02
812.5499	0.0011
812.7191	0.0215
812.8882	-0.0156
813.0574	-0.0044
813.2265	-0.0194
813.3956	-0.0051
813.5646	0.0022
813.7337	-0.0235
813.9027	0.0113
814.0718	0.0112
814.2407	0.0065
814.4097	-0.0156
814.5787	-0.0196
814.7476	-0.0109
814.9165	-0.0061
815.0854	-0.0067
815.2543	-0.0082
815.4232	-0.0243
815.592	0.0144
815.7608	0.0006
815.9296	-0.0029
816.0984	-0.0138
816.2671	-0.0139
816.4359	-0.0183
816.6046	-0.0129
816.7733	0.013
816.942	-0.0151
817.1106	0.0015
817.2793	-0.0178
817.4479	0.0006
817.6165	0.0253
817.785	0.0029
817.9536	-0.0107
818.1221	-0.0083
818.2906	0.0091
818.4591	-0.0182
818.6276	-0.0077
818.7961	-0.0193
818.9645	0.0274
819.1329	-0.0056
819.3013	0.0131
819.4697	0.0233
819.638	0.0017
819.8064	0.0249
819.9747	-0.0055
820.143	-0.0064
820.3113	-0.0199
820.4795	-0.011
820.6477	0.0101
820.816	-0.0086
820.9842	-0.0064
821.1523	-0.0025
821.3205	-0.0163
821.4886	-0.0228
821.6567	0.0047
821.8248	-0.0014
821.9929	0.0201
822.1609	0.0038
822.329	0.004
822.497	-0.0021
822.665	-0.0027
822.833	0.0016
823.0009	-0.003
823.1688	0.0268
823.3367	0.0293
823.5046	0.0074
823.6725	0.0192
823.8404	-0.0097
824.0082	0.0059
824.176	0.0169
824.3438	0.0208
824.5116	-0.0136
824.6793	0.0083
824.847	-0.0122
825.0147	0
825.1824	0.0164
825.3501	0.0129
825.5177	-0.0161
825.6854	0.0087
825.853	0.0298
826.0206	-0.0438
826.1881	0.0136
826.3557	-0.018
826.5232	0.0075
826.6907	-0.0329
826.8582	-0.0133
827.0257	-0.0233
827.1931	-0.0207
827.3605	-0.0044
827.528	-0.0087
827.6953	-0.0263
827.8627	-0.0124
828.03	0.0381
828.1974	-0.0437
828.3647	-0.0122
828.532	0.0015
828.6992	-0.0281
828.8665	0.0024
829.0337	-0.008
829.2009	-0.0074
829.3681	0.0047
829.5352	0.0439
829.7024	-0.0168
829.8695	-0.0083
830.0366	0.0397
830.2037	0.0114
830.3707	0.0302
830.5378	-0.0244
830.7048	-0.0037
830.8718	-0.0037
831.0388	-0.0341
831.2057	-0.0037
831.3727	0.009
831.5396	-0.0005
831.7065	-0.0261
831.8734	0.0177
832.0402	0.0006
832.2071	-0.0005
832.3739	-0.0205
832.5407	0.0055
832.7075	-0.0433
832.8742	-0.0191
833.041	-0.0561
833.2077	-0.0254
833.3744	0.0441
833.541	0.0073
833.7077	-0.0018
833.8743	-0.0154
834.0409	-0.0132
834.2075	-0.0335
834.3741	0.0107
834.5407	0.0143
834.7072	0.0392
834.8737	-0.044
835.0402	-0.0323
835.2067	0.0481
835.3731	0.0094
835.5395	-0.0169
835.706	0.024
835.8723	-0.0224
836.0387	0.0173
836.2051	-0.0372
836.3714	-0.0147
836.5377	0.0091
836.704	-0.016
836.8703	0.0174
837.0365	0.0327
837.2027	0.0062
837.3689	0.0016
837.5351	-0.0338
837.7013	-0.0689
837.8674	-0.0479
838.0335	-0.0305
838.1997	0.015
838.3657	-0.0435
838.5318	-0.0247
838.6978	0.0253
838.8639	0.0588
839.0299	-0.0218
839.1958	0.0072
839.3618	-0.0076
839.5277	-0.0329
839.6937	0.0659
839.8596	-0.0194
840.0254	0.0204
840.1913	0.0084
840.3571	0.008
840.523	-0.0541
840.6888	0.0134
840.8545	-0.0215
841.0203	0.0054
841.186	0.0229
841.3517	0.0394
841.5174	-0.012
841.6831	-0.0514
841.8488	-0.0244
842.0144	0.0423
842.18	0.0108
842.3456	0.0134
842.5112	0.0166
842.6767	0.0011
842.8422	-0.0607
843.0077	0.0222
843.1732	-0.0647
843.3387	-0.0542
843.5042	-0.0557
843.6696	0.0025
843.835	0.0023
844.0004	0.0313
844.1657	0.0248
844.3311	-0.0465
844.4964	-0.0518
844.6617	0.0206
844.827	-0.0068
844.9923	0.0421
845.1575	0.0122
845.3227	-0.0068
845.4879	-0.0044
845.6531	-0.0737
845.8183	-0.0944
845.9834	-0.0146
846.1485	-0.055
846.3136	-0.0797
846.4787	-0.1271
846.6438	0.052
846.8088	-0.0257
846.9738	-0.1005
847.1388	-0.0402
847.3038	-0.0347
847.4687	-0.0863
847.6337	-0.0323
847.7986	-0.0155
847.9635	-0.0577
848.1284	0.0507
848.2932	0.0256
848.458	0.0036
848.6228	0.0393
848.7876	0.0383
848.9524	-0.0298
849.1172	-0.133
849.2819	-0.0269
849.4466	-0.1119
849.6113	-0.0605
849.7759	-0.0156
849.9406	-0.0084
850.1052	0.0279
850.2698	-0.0166
850.4344	0.0917
850.599	-0.0821
850.7635	0.1278
850.928	-0.095
851.0925	0.03
851.257	-0.0436
851.4215	0.0281
851.5859	0.044
851.7503	0.0336
851.9147	-0.016
852.0791	-0.1052
852.2434	-0.0184
852.4078	0.0721
852.5721	0.0663
852.7364	-0.1076
852.9007	-0.2274
853.0649	-0.0787
853.2291	0.0078
853.3934	-0.031
853.5575	0.0289
853.7217	-0.1462
853.8859	-0.0037
854.05	-0.0705
854.2141	-0.0759
854.3782	-0.0961
854.5423	-0.1074
854.7063	0.1069
854.8703	-0.0134
855.0343	-0.1408
855.1983	-0.1488
855.3623	0.0463
855.5262	-0.0844
855.6901	-0.0818
855.854	-0.006
856.0179	0.0993
856.1818	0.1127
856.3456	-0.0627
856.5094	-0.0918
856.6732	0.0373
856.837	-0.0825
857.0008	0.0117
857.1645	-0.0592
857.3282	-0.2749
857.4919	0.0807
857.6556	-0.0157
857.8192	0.0103
857.9828	-0.0506
858.1465	-0.0512
858.31	-0.2593
858.4736	-0.2066
858.6372	-0.3331
858.8007	-0.2233
858.9642	-0.0974
859.1277	-0.1169
859.2911	-0.0221
859.4546	0.0422
859.618	-0.5216
859.7814	-0.0822
859.9448	-0.0751
860.1081	-0.0399
860.2715	0.1042
860.4348	-0.0431
860.5981	-0.194
860.7614	0.1519
860.9246	-0.2637
861.0879	-0.2958
861.2511	0.108
861.4143	-0.1343
861.5774	0.0074
861.7406	-0.2966
861.9037	0.0932
862.0668	-0.2237
862.2299	-0.1349
862.393	-0.7392
862.556	-0.1169
862.7191	-0.054
862.8821	-0.1071
863.0451	-0.0414
863.208	0.166
863.371	-0.13
863.5339	-0.2701
863.6968	0.0527
863.8597	0.8755
864.0225	-0.1317
864.1854	-0.2098
864.3482	-0
864.511	0.2881
864.6737	-0.0989
864.8365	0.048
864.9992	-0.4736
865.1619	-0.6579
865.3246	0.0159
865.4873	0.064
865.65	-0.357
865.8126	0.1074
865.9752	-0.0832
866.1378	-0.1146
866.3004	0.0452
866.4629	0.4219
866.6254	-0.1466
866.7879	0.1352
866.9504	-0.4096
867.1129	-0
867.2753	-0.0064
867.4377	0.1353
867.6001	0.09
867.7625	0.2363
867.9249	-0.0916
868.0872	0.1679
868.2495	-0.0055
868.4118	-0.4141
868.5741	-0.4211
868.7363	-0.1488
868.8986	-0.2333
869.0608	-0.2242
869.223	0.1474
869.3851	0.1932
869.5473	-0
869.7094	0.1943
869.8715	-0.5068
870.0336	-0
870.1957	-0.9175
870.3577	-1.3694
870.5197	-0.1921
870.6817	-0.194
870.8437	-0.2507
871.0057	-0
871.1676	-0.5736
871.3295	-0.1401
871.4914	-0
871.6533	-0.2581
871.8151	-0.5324
871.977	-0
872.1388	-0
872.3006	0.0322
872.4623	-0
872.6241	0.2453
872.7858	0.3289
872.9475	-0.0485
873.1092	0.112
873.2709	-0.3715
873.4325	-0.1079
873.5941	-0.5328
873.7557	-0
873.9173	-0
874.0789	-0.7914
874.2404	-0
874.4019	-0.1851
874.5634	-0.4113
874.7249	0.0196
874.8863	-0
875.0478	0.1766
875.2092	-0
875.3706	0.021
875.5319	-0.6501
875.6933	-0
875.8546	0.104
876.0159	-0.0628
876.1772	0.4218
876.3385	-0
876.4997	0.8076
876.6609	-0.1879
876.8221	-0
876.9833	0.4781
877.1445	-0
877.3056	-0.1613
877.4667	-0.6171
877.6278	0.301
877.7889	-0.6821
877.9499	-0
878.111	-0.7793
878.272	-0
878.433	0.1751
878.5939	-0
878.7549	-0.0109
878.9158	-1.0117
879.0767	-0
879.2376	-0
879.3984	0.6195
879.5593	-0
879.7201	-0.3055
879.8809	-0.5254
880.0417	2.2601
880.2024	0.0136
880.3632	-0
880.5239	0.5592
880.6846	1.0446
880.8452	-2.4224
881.0059	-0
881.1665	0.326
881.3271	-0.1182
881.4877	-0
881.6483	-0.2969
881.8088	-0.374
881.9693	-0
882.1298	-0
882.2903	-0
