Data from MonoPyChalIsomerACN10uM350nmA_Absorbance_14-35-35-815.txt Node
Date: Fri Jul 05 14:35:35 BST 2024
User: LASERRRRR
Spectrometer: FLMT03099
Trigger mode: 0
Integration Time (sec): 1.000000E-1
Scans to average: 1
Electric dark correction enabled: true
Nonlinearity correction enabled: false
Boxcar width: 0
XAxis mode: Wavelengths
Number of Pixels in Spectrum: 3648
>>>>>Begin Spectral Data<<<<<
179.3399	-0.2591
179.5586	-0.2591
179.7771	-0.2591
179.9957	-0.0925
180.2143	-0.447
180.4329	0.2841
180.6514	-0
180.8699	-0
181.0885	-0
181.307	-0.18
181.5255	-0.5441
181.744	-0.3672
181.9625	-0
182.181	-0.5144
182.3994	1.2953
182.6179	-0.0996
182.8363	-0.2554
183.0547	-0.0547
183.2732	0.214
183.4916	0.0093
183.71	0.0865
183.9284	0.1551
184.1467	-0.1175
184.3651	0.1205
184.5835	-0.1603
184.8018	0.103
185.0201	-0.0588
185.2385	-0.1669
185.4568	0.1787
185.6751	0.112
185.8934	0.3691
186.1117	0.0647
186.3299	0.0802
186.5482	0.0786
186.7664	-0.2279
186.9847	-0.043
187.2029	0.1112
187.4211	-0.0214
187.6393	0.1288
187.8575	0.1646
188.0757	0.4201
188.2939	0.0513
188.512	0.1417
188.7302	-0.0279
188.9483	0.2095
189.1665	0.2333
189.3846	-0.0905
189.6027	0.1093
189.8208	0.1232
190.0389	0.0181
190.257	0.3448
190.475	0.2342
190.6931	0.2241
190.9111	0.5525
191.1292	0.0783
191.3472	0.6431
191.5652	0.1771
191.7832	0.5424
192.0012	0.7606
192.2192	0.5036
192.4371	0.5891
192.6551	0.2888
192.873	0.4966
193.091	0.3565
193.3089	0.6082
193.5268	0.592
193.7447	0.4377
193.9626	0.3475
194.1805	0.4713
194.3984	0.6696
194.6162	0.589
194.8341	0.5215
195.0519	0.5228
195.2697	0.7829
195.4875	0.7424
195.7054	0.7149
195.9231	0.6272
196.1409	0.6889
196.3587	0.7018
196.5765	0.681
196.7942	0.6715
197.012	0.5274
197.2297	0.5688
197.4474	0.7558
197.6651	0.5712
197.8828	0.641
198.1005	0.659
198.3182	0.6624
198.5358	0.6871
198.7535	0.6523
198.9711	0.5214
199.1888	0.7136
199.4064	0.7431
199.624	0.6907
199.8416	0.6407
200.0592	0.6742
200.2767	0.5872
200.4943	0.5385
200.7119	0.7857
200.9294	0.6238
201.1469	0.5446
201.3645	0.6125
201.582	0.7116
201.7995	0.6376
202.017	0.5614
202.2344	0.6505
202.4519	0.5831
202.6694	0.6906
202.8868	0.5489
203.1042	0.705
203.3217	0.6517
203.5391	0.6548
203.7565	0.5723
203.9739	0.5923
204.1913	0.622
204.4086	0.6261
204.626	0.7262
204.8433	0.6445
205.0607	0.6505
205.278	0.6887
205.4953	0.6136
205.7126	0.6336
205.9299	0.7096
206.1472	0.6182
206.3644	0.6464
206.5817	0.7388
206.7989	0.7197
207.0162	0.6531
207.2334	0.6307
207.4506	0.6541
207.6678	0.6634
207.885	0.6815
208.1022	0.6808
208.3194	0.5967
208.5365	0.6303
208.7537	0.7187
208.9708	0.6044
209.1879	0.6833
209.405	0.7261
209.6222	0.7144
209.8392	0.5971
210.0563	0.6477
210.2734	0.6705
210.4905	0.6292
210.7075	0.6164
210.9245	0.5424
211.1416	0.6956
211.3586	0.5895
211.5756	0.598
211.7926	0.5568
212.0096	0.6017
212.2265	0.5914
212.4435	0.5323
212.6604	0.5657
212.8774	0.5918
213.0943	0.5922
213.3112	0.5432
213.5281	0.4984
213.745	0.4942
213.9619	0.4907
214.1788	0.4723
214.3956	0.4768
214.6125	0.4619
214.8293	0.4479
215.0461	0.4797
215.2629	0.4759
215.4798	0.4635
215.6965	0.425
215.9133	0.4394
216.1301	0.4121
216.3469	0.4314
216.5636	0.457
216.7803	0.4021
216.9971	0.3999
217.2138	0.372
217.4305	0.3691
217.6472	0.3341
217.8639	0.3895
218.0805	0.3492
218.2972	0.3441
218.5138	0.3032
218.7305	0.3163
218.9471	0.3086
219.1637	0.2839
219.3803	0.2611
219.5969	0.2697
219.8135	0.248
220.0301	0.2793
220.2466	0.2567
220.4632	0.2612
220.6797	0.2416
220.8962	0.2397
221.1127	0.2807
221.3292	0.2646
221.5457	0.2375
221.7622	0.2289
221.9787	0.2406
222.1951	0.2328
222.4116	0.2565
222.628	0.2561
222.8444	0.2597
223.0608	0.2443
223.2772	0.238
223.4936	0.2723
223.71	0.2462
223.9264	0.2596
224.1427	0.2469
224.3591	0.2315
224.5754	0.2861
224.7917	0.2589
225.008	0.2575
225.2243	0.2528
225.4406	0.2934
225.6569	0.2841
225.8732	0.2706
226.0894	0.2543
226.3057	0.2585
226.5219	0.2911
226.7381	0.2718
226.9543	0.2932
227.1705	0.2824
227.3867	0.2863
227.6029	0.2857
227.8191	0.3031
228.0352	0.2966
228.2513	0.3093
228.4675	0.3192
228.6836	0.2984
228.8997	0.2813
229.1158	0.2959
229.3319	0.3142
229.548	0.3102
229.764	0.3239
229.9801	0.3217
230.1961	0.3025
230.4121	0.3369
230.6282	0.3513
230.8442	0.3216
231.0602	0.3544
231.2761	0.358
231.4921	0.3423
231.7081	0.3462
231.924	0.3302
232.14	0.3793
232.3559	0.3421
232.5718	0.3566
232.7877	0.3753
233.0036	0.3467
233.2195	0.3561
233.4353	0.3632
233.6512	0.3488
233.867	0.3719
234.0829	0.3682
234.2987	0.3674
234.5145	0.3759
234.7303	0.3627
234.9461	0.3862
235.1619	0.3668
235.3776	0.3834
235.5934	0.3652
235.8091	0.3706
236.0249	0.367
236.2406	0.3788
236.4563	0.382
236.672	0.4015
236.8877	0.4058
237.1034	0.3848
237.319	0.3883
237.5347	0.4199
237.7503	0.38
237.966	0.4024
238.1816	0.4007
238.3972	0.409
238.6128	0.394
238.8284	0.4047
239.0439	0.4072
239.2595	0.409
239.475	0.4028
239.6906	0.4031
239.9061	0.4068
240.1216	0.4055
240.3371	0.4204
240.5526	0.3987
240.7681	0.4229
240.9836	0.3849
241.199	0.4164
241.4145	0.3891
241.6299	0.3806
241.8453	0.3715
242.0607	0.3688
242.2761	0.3579
242.4915	0.3801
242.7069	0.3732
242.9223	0.3557
243.1376	0.3586
243.353	0.3418
243.5683	0.3595
243.7836	0.3292
243.9989	0.3375
244.2142	0.306
244.4295	0.3086
244.6448	0.3199
244.86	0.3127
245.0753	0.2796
245.2905	0.2867
245.5057	0.2826
245.721	0.276
245.9362	0.272
246.1514	0.2712
246.3665	0.2554
246.5817	0.2554
246.7969	0.2604
247.012	0.2484
247.2271	0.2439
247.4423	0.2537
247.6574	0.2447
247.8725	0.2354
248.0876	0.2313
248.3026	0.2305
248.5177	0.2031
248.7328	0.2154
248.9478	0.2133
249.1628	0.2212
249.3779	0.2211
249.5929	0.2092
249.8079	0.2123
250.0228	0.2054
250.2378	0.201
250.4528	0.2198
250.6677	0.1895
250.8827	0.2038
251.0976	0.1911
251.3125	0.1885
251.5274	0.1801
251.7423	0.1829
251.9572	0.1868
252.172	0.1779
252.3869	0.1809
252.6017	0.1698
252.8166	0.1735
253.0314	0.1794
253.2462	0.1699
253.461	0.1697
253.6758	0.1745
253.8906	0.1782
254.1053	0.1735
254.3201	0.1644
254.5348	0.1748
254.7496	0.1704
254.9643	0.1701
255.179	0.1729
255.3937	0.1673
255.6083	0.185
255.823	0.1778
256.0377	0.1636
256.2523	0.1771
256.467	0.1497
256.6816	0.1707
256.8962	0.1691
257.1108	0.1582
257.3254	0.1755
257.54	0.1614
257.7545	0.1821
257.9691	0.1799
258.1836	0.1659
258.3981	0.178
258.6127	0.1704
258.8272	0.1611
259.0417	0.1597
259.2561	0.1609
259.4706	0.1695
259.6851	0.1705
259.8995	0.16
260.114	0.155
260.3284	0.1575
260.5428	0.1547
260.7572	0.1686
260.9716	0.1699
261.186	0.1655
261.4003	0.1731
261.6147	0.1691
261.829	0.1605
262.0433	0.1613
262.2577	0.1693
262.472	0.1666
262.6863	0.1582
262.9005	0.1523
263.1148	0.1716
263.3291	0.1397
263.5433	0.1675
263.7576	0.1639
263.9718	0.1658
264.186	0.1648
264.4002	0.161
264.6144	0.1651
264.8286	0.1646
265.0427	0.1669
265.2569	0.1554
265.471	0.164
265.6851	0.1655
265.8993	0.1626
266.1134	0.1637
266.3275	0.1667
266.5415	0.1591
266.7556	0.175
266.9697	0.1533
267.1837	0.1517
267.3978	0.1616
267.6118	0.1736
267.8258	0.1803
268.0398	0.1494
268.2538	0.1684
268.4677	0.1592
268.6817	0.1538
268.8957	0.1739
269.1096	0.1618
269.3235	0.1635
269.5374	0.1544
269.7514	0.15
269.9652	0.1579
270.1791	0.1486
270.393	0.1545
270.6068	0.1502
270.8207	0.1541
271.0345	0.1459
271.2483	0.1602
271.4622	0.1468
271.676	0.1627
271.8897	0.1305
272.1035	0.1266
272.3173	0.1483
272.531	0.1451
272.7448	0.1437
272.9585	0.1405
273.1722	0.1477
273.3859	0.1472
273.5996	0.1445
273.8133	0.1394
274.0269	0.1399
274.2406	0.1383
274.4542	0.139
274.6679	0.1278
274.8815	0.1491
275.0951	0.1466
275.3087	0.1581
275.5223	0.1564
275.7358	0.1444
275.9494	0.1449
276.1629	0.1299
276.3765	0.1517
276.59	0.1409
276.8035	0.1509
277.017	0.1562
277.2305	0.1439
277.444	0.1435
277.6574	0.134
277.8709	0.1581
278.0843	0.1357
278.2978	0.1461
278.5112	0.1355
278.7246	0.1363
278.938	0.1594
279.1513	0.1482
279.3647	0.1593
279.5781	0.1434
279.7914	0.1497
280.0047	0.1513
280.2181	0.1541
280.4314	0.1558
280.6447	0.1527
280.8579	0.1538
281.0712	0.1627
281.2845	0.1668
281.4977	0.1498
281.711	0.1465
281.9242	0.1528
282.1374	0.1684
282.3506	0.1556
282.5638	0.1576
282.7769	0.1569
282.9901	0.1498
283.2033	0.1644
283.4164	0.1633
283.6295	0.1474
283.8426	0.1465
284.0557	0.1558
284.2688	0.1594
284.4819	0.1659
284.695	0.1662
284.908	0.1693
285.1211	0.1535
285.3341	0.1606
285.5471	0.1674
285.7601	0.1632
285.9731	0.1599
286.1861	0.1524
286.3991	0.1746
286.612	0.1628
286.825	0.1754
287.0379	0.1722
287.2508	0.1548
287.4637	0.1562
287.6766	0.1592
287.8895	0.1596
288.1024	0.1861
288.3152	0.186
288.5281	0.1704
288.7409	0.1645
288.9538	0.1688
289.1666	0.1652
289.3794	0.1639
289.5922	0.1685
289.8049	0.17
290.0177	0.1558
290.2304	0.1723
290.4432	0.1684
290.6559	0.1723
290.8686	0.1613
291.0813	0.1719
291.294	0.1677
291.5067	0.1706
291.7194	0.1585
291.932	0.1775
292.1447	0.1611
292.3573	0.1644
292.5699	0.1678
292.7825	0.17
292.9951	0.1603
293.2077	0.1724
293.4203	0.1777
293.6328	0.1499
293.8454	0.1681
294.0579	0.174
294.2704	0.1624
294.4829	0.1646
294.6954	0.1673
294.9079	0.1708
295.1204	0.16
295.3328	0.1624
295.5453	0.1732
295.7577	0.1647
295.9701	0.155
296.1825	0.1677
296.3949	0.163
296.6073	0.1648
296.8197	0.1554
297.0321	0.1787
297.2444	0.1608
297.4567	0.1704
297.6691	0.1529
297.8814	0.1575
298.0937	0.1607
298.306	0.1723
298.5182	0.1712
298.7305	0.1662
298.9428	0.1589
299.155	0.1687
299.3672	0.16
299.5794	0.1692
299.7916	0.1611
300.0038	0.1683
300.216	0.1646
300.4282	0.1711
300.6403	0.1533
300.8525	0.1623
301.0646	0.1548
301.2767	0.1653
301.4888	0.1548
301.7009	0.1658
301.913	0.1654
302.125	0.1648
302.3371	0.1572
302.5491	0.1606
302.7612	0.17
302.9732	0.171
303.1852	0.1601
303.3972	0.16
303.6092	0.1648
303.8211	0.1526
304.0331	0.1575
304.245	0.1545
304.457	0.1535
304.6689	0.1547
304.8808	0.1793
305.0927	0.1659
305.3046	0.1573
305.5164	0.1612
305.7283	0.1383
305.9401	0.146
306.152	0.1511
306.3638	0.1545
306.5756	0.1554
306.7874	0.1525
306.9992	0.1464
307.2109	0.1417
307.4227	0.1312
307.6344	0.151
307.8462	0.1383
308.0579	0.1284
308.2696	0.1307
308.4813	0.1268
308.693	0.1402
308.9046	0.1396
309.1163	0.1276
309.328	0.1251
309.5396	0.1326
309.7512	0.1244
309.9628	0.1231
310.1744	0.125
310.386	0.1321
310.5976	0.1123
310.8091	0.1228
311.0207	0.1173
311.2322	0.1186
311.4437	0.1201
311.6552	0.1068
311.8667	0.1185
312.0782	0.1057
312.2897	0.1073
312.5012	0.1195
312.7126	0.1045
312.924	0.1028
313.1355	0.1159
313.3469	0.1079
313.5583	0.1106
313.7696	0.1156
313.981	0.1029
314.1924	0.1086
314.4037	0.1025
314.6151	0.1052
314.8264	0.0978
315.0377	0.1017
315.249	0.1085
315.4603	0.111
315.6716	0.0962
315.8828	0.0908
316.0941	0.0963
316.3053	0.0905
316.5165	0.1026
316.7277	0.087
316.9389	0.1074
317.1501	0.0983
317.3613	0.1016
317.5724	0.0896
317.7836	0.1027
317.9947	0.1025
318.2058	0.0964
318.417	0.0864
318.6281	0.0986
318.8391	0.0983
319.0502	0.0975
319.2613	0.1042
319.4723	0.1099
319.6834	0.1013
319.8944	0.1003
320.1054	0.1074
320.3164	0.107
320.5274	0.0983
320.7383	0.0968
320.9493	0.0961
321.1602	0.1159
321.3712	0.0961
321.5821	0.1095
321.793	0.0952
322.0039	0.0997
322.2148	0.1006
322.4257	0.0963
322.6365	0.1064
322.8474	0.1079
323.0582	0.0963
323.269	0.0961
323.4798	0.1084
323.6906	0.1046
323.9014	0.1037
324.1122	0.1002
324.3229	0.1004
324.5337	0.0966
324.7444	0.0899
324.9551	0.1128
325.1658	0.1037
325.3765	0.1036
325.5872	0.1051
325.7979	0.0979
326.0085	0.1065
326.2192	0.1105
326.4298	0.1101
326.6404	0.0995
326.851	0.1013
327.0616	0.0977
327.2722	0.1042
327.4828	0.1106
327.6933	0.0981
327.9039	0.1139
328.1144	0.1131
328.3249	0.1099
328.5354	0.105
328.7459	0.0978
328.9564	0.0967
329.1669	0.1106
329.3773	0.099
329.5878	0.1097
329.7982	0.0978
330.0086	0.1147
330.219	0.1013
330.4294	0.1017
330.6398	0.1135
330.8502	0.0922
331.0605	0.1081
331.2708	0.1036
331.4812	0.115
331.6915	0.0982
331.9018	0.11
332.1121	0.1041
332.3224	0.0984
332.5326	0.1215
332.7429	0.0968
332.9531	0.1127
333.1633	0.1165
333.3735	0.0998
333.5837	0.1139
333.7939	0.0964
334.0041	0.1247
334.2143	0.1258
334.4244	0.1078
334.6346	0.0957
334.8447	0.12
335.0548	0.1032
335.2649	0.0949
335.475	0.1091
335.685	0.1135
335.8951	0.1245
336.1051	0.1117
336.3152	0.121
336.5252	0.1089
336.7352	0.1153
336.9452	0.1191
337.1552	0.1096
337.3652	0.1052
337.5751	0.1064
337.7851	0.1252
337.995	0.0988
338.2049	0.122
338.4148	0.1121
338.6247	0.1153
338.8346	0.1101
339.0445	0.109
339.2543	0.1056
339.4642	0.1108
339.674	0.1082
339.8838	0.1153
340.0936	0.1079
340.3034	0.1254
340.5132	0.1383
340.7229	0.1167
340.9327	0.1231
341.1424	0.1062
341.3522	0.1234
341.5619	0.1186
341.7716	0.1226
341.9813	0.1243
342.1909	0.1221
342.4006	0.1349
342.6102	0.1269
342.8199	0.1326
343.0295	0.1403
343.2391	0.1298
343.4487	0.1325
343.6583	0.1063
343.8679	0.1234
344.0774	0.1144
344.287	0.1305
344.4965	0.1219
344.706	0.1195
344.9155	0.1318
345.125	0.1326
345.3345	0.1395
345.544	0.1297
345.7534	0.1315
345.9629	0.1277
346.1723	0.1326
346.3817	0.1274
346.5911	0.1232
346.8005	0.1301
347.0099	0.1372
347.2193	0.1176
347.4286	0.1338
347.638	0.1369
347.8473	0.1358
348.0566	0.1337
348.2659	0.1396
348.4752	0.1364
348.6845	0.1273
348.8937	0.1331
349.103	0.1427
349.3122	0.1243
349.5214	0.1408
349.7306	0.1372
349.9398	0.1465
350.149	0.1336
350.3582	0.1358
350.5674	0.1416
350.7765	0.1376
350.9856	0.1449
351.1948	0.1425
351.4039	0.1282
351.613	0.1351
351.822	0.1434
352.0311	0.1357
352.2402	0.1513
352.4492	0.1549
352.6582	0.1532
352.8672	0.1468
353.0762	0.1586
353.2852	0.1413
353.4942	0.1444
353.7032	0.1648
353.9121	0.1581
354.1211	0.1458
354.33	0.1588
354.5389	0.1568
354.7478	0.1457
354.9567	0.1537
355.1655	0.1416
355.3744	0.148
355.5833	0.1649
355.7921	0.1805
356.0009	0.1587
356.2097	0.1677
356.4185	0.1598
356.6273	0.1554
356.8361	0.1608
357.0448	0.1596
357.2536	0.1609
357.4623	0.1598
357.671	0.153
357.8797	0.1638
358.0884	0.1801
358.2971	0.1658
358.5057	0.1752
358.7144	0.1634
358.923	0.172
359.1316	0.1625
359.3402	0.1607
359.5488	0.1839
359.7574	0.1729
359.966	0.1791
360.1746	0.1756
360.3831	0.1705
360.5916	0.1685
360.8002	0.1712
361.0087	0.1865
361.2172	0.1785
361.4256	0.1675
361.6341	0.1917
361.8426	0.1922
362.051	0.1826
362.2594	0.176
362.4678	0.1726
362.6762	0.206
362.8846	0.2006
363.093	0.1795
363.3014	0.1817
363.5097	0.1693
363.718	0.1829
363.9264	0.1847
364.1347	0.1968
364.343	0.1968
364.5513	0.1954
364.7595	0.1992
364.9678	0.2027
365.176	0.2008
365.3842	0.1926
365.5925	0.2043
365.8007	0.2022
366.0089	0.1975
366.217	0.2066
366.4252	0.2028
366.6333	0.2136
366.8415	0.2027
367.0496	0.1951
367.2577	0.2156
367.4658	0.2228
367.6739	0.2117
367.882	0.2267
368.09	0.2112
368.2981	0.2101
368.5061	0.2005
368.7141	0.2231
368.9221	0.2162
369.1301	0.2245
369.3381	0.2227
369.5461	0.2055
369.754	0.2221
369.962	0.2352
370.1699	0.2237
370.3778	0.2163
370.5857	0.2093
370.7936	0.2106
371.0015	0.2163
371.2093	0.2157
371.4172	0.218
371.625	0.2216
371.8328	0.2262
372.0406	0.2253
372.2484	0.2159
372.4562	0.2232
372.664	0.2241
372.8717	0.2293
373.0795	0.2086
373.2872	0.224
373.4949	0.2232
373.7026	0.2157
373.9103	0.2323
374.118	0.2322
374.3256	0.2421
374.5333	0.2392
374.7409	0.2417
374.9485	0.254
375.1561	0.2432
375.3637	0.2467
375.5713	0.2419
375.7789	0.2381
375.9864	0.2359
376.194	0.2415
376.4015	0.2353
376.609	0.2597
376.8165	0.2357
377.024	0.2338
377.2315	0.2454
377.4389	0.2432
377.6464	0.261
377.8538	0.2508
378.0612	0.2445
378.2686	0.2454
378.476	0.2499
378.6834	0.2449
378.8908	0.2568
379.0981	0.2644
379.3055	0.2496
379.5128	0.2535
379.7201	0.2446
379.9274	0.2405
380.1347	0.2595
380.342	0.2661
380.5492	0.2446
380.7565	0.2526
380.9637	0.2647
381.1709	0.2411
381.3781	0.2526
381.5853	0.2547
381.7925	0.2521
381.9997	0.2567
382.2068	0.2688
382.4139	0.2658
382.6211	0.256
382.8282	0.2571
383.0353	0.2548
383.2424	0.2622
383.4494	0.2592
383.6565	0.2673
383.8635	0.2508
384.0706	0.2548
384.2776	0.2626
384.4846	0.2453
384.6916	0.2551
384.8986	0.2558
385.1055	0.2679
385.3125	0.2591
385.5194	0.2438
385.7263	0.2724
385.9333	0.2694
386.1402	0.2609
386.347	0.2646
386.5539	0.2385
386.7608	0.2855
386.9676	0.2516
387.1744	0.2547
387.3813	0.2511
387.5881	0.2596
387.7948	0.2497
388.0016	0.2604
388.2084	0.2425
388.4151	0.2383
388.6219	0.262
388.8286	0.2538
389.0353	0.2581
389.242	0.2486
389.4487	0.2434
389.6553	0.2452
389.862	0.226
390.0686	0.2337
390.2753	0.258
390.4819	0.2486
390.6885	0.2363
390.8951	0.2412
391.1016	0.2386
391.3082	0.2185
391.5147	0.2441
391.7213	0.2543
391.9278	0.2356
392.1343	0.2365
392.3408	0.239
392.5473	0.2338
392.7537	0.2217
392.9602	0.2333
393.1666	0.2376
393.373	0.2285
393.5794	0.2543
393.7858	0.2255
393.9922	0.2158
394.1986	0.2383
394.4049	0.2242
394.6113	0.2326
394.8176	0.2188
395.0239	0.2304
395.2302	0.2174
395.4365	0.2275
395.6428	0.2029
395.8491	0.2152
396.0553	0.2333
396.2615	0.2248
396.4678	0.215
396.674	0.217
396.8802	0.2362
397.0863	0.2381
397.2925	0.2219
397.4987	0.2127
397.7048	0.2245
397.9109	0.233
398.117	0.2117
398.3231	0.2086
398.5292	0.2243
398.7353	0.229
398.9413	0.2088
399.1474	0.2245
399.3534	0.2168
399.5594	0.2038
399.7654	0.2182
399.9714	0.2359
400.1774	0.2075
400.3833	0.2099
400.5893	0.2308
400.7952	0.2159
401.0011	0.219
401.207	0.2387
401.4129	0.22
401.6188	0.2136
401.8247	0.2031
402.0305	0.2037
402.2364	0.2
402.4422	0.2147
402.648	0.2306
402.8538	0.2325
403.0596	0.2071
403.2654	0.2282
403.4711	0.2071
403.6768	0.211
403.8826	0.2292
404.0883	0.2383
404.294	0.2173
404.4997	0.2206
404.7054	0.2141
404.911	0.2317
405.1167	0.2034
405.3223	0.2313
405.5279	0.2104
405.7335	0.2185
405.9391	0.2234
406.1447	0.2055
406.3502	0.2247
406.5558	0.2145
406.7613	0.2299
406.9668	0.2258
407.1724	0.2047
407.3778	0.1961
407.5833	0.2175
407.7888	0.2155
407.9942	0.2207
408.1997	0.231
408.4051	0.2089
408.6105	0.2073
408.8159	0.2013
409.0213	0.2085
409.2267	0.2162
409.432	0.2129
409.6374	0.2273
409.8427	0.2066
410.048	0.2082
410.2533	0.2243
410.4586	0.2046
410.6639	0.1893
410.8691	0.2141
411.0744	0.2031
411.2796	0.1912
411.4848	0.2066
411.69	0.2184
411.8952	0.2147
412.1004	0.1951
412.3056	0.219
412.5107	0.2068
412.7158	0.22
412.921	0.2051
413.1261	0.2325
413.3312	0.2256
413.5362	0.2112
413.7413	0.2123
413.9464	0.2129
414.1514	0.218
414.3564	0.1996
414.5614	0.1979
414.7664	0.2159
414.9714	0.2211
415.1764	0.206
415.3813	0.2242
415.5863	0.202
415.7912	0.2071
415.9961	0.2137
416.201	0.2229
416.4059	0.2038
416.6108	0.207
416.8156	0.2166
417.0205	0.1976
417.2253	0.2043
417.4301	0.2093
417.6349	0.2162
417.8397	0.1941
418.0445	0.2109
418.2492	0.2011
418.454	0.2009
418.6587	0.2273
418.8634	0.199
419.0681	0.1819
419.2728	0.1882
419.4775	0.1817
419.6822	0.1902
419.8868	0.1797
420.0915	0.1845
420.2961	0.1973
420.5007	0.188
420.7053	0.2081
420.9099	0.1969
421.1144	0.2012
421.319	0.1853
421.5235	0.1849
421.728	0.1985
421.9325	0.2053
422.137	0.1915
422.3415	0.1949
422.546	0.2001
422.7504	0.1797
422.9549	0.1872
423.1593	0.1969
423.3637	0.1875
423.5681	0.1893
423.7725	0.1789
423.9769	0.1731
424.1812	0.1894
424.3856	0.1703
424.5899	0.198
424.7942	0.1843
424.9985	0.1811
425.2028	0.179
425.4071	0.1982
425.6113	0.1634
425.8156	0.182
426.0198	0.1742
426.224	0.155
426.4282	0.1723
426.6324	0.1619
426.8366	0.1673
427.0407	0.1656
427.2449	0.1725
427.449	0.1863
427.6531	0.1432
427.8572	0.1592
428.0613	0.1614
428.2654	0.1714
428.4694	0.1584
428.6735	0.1513
428.8775	0.1666
429.0815	0.1681
429.2855	0.1408
429.4895	0.1766
429.6935	0.1446
429.8975	0.1547
430.1014	0.1573
430.3053	0.1337
430.5093	0.1488
430.7132	0.1401
430.9171	0.1402
431.1209	0.1388
431.3248	0.1336
431.5286	0.1413
431.7325	0.1321
431.9363	0.1232
432.1401	0.1508
432.3439	0.1423
432.5477	0.1135
432.7514	0.1304
432.9552	0.1407
433.1589	0.1172
433.3627	0.1264
433.5664	0.13
433.7701	0.1328
433.9737	0.1282
434.1774	0.1119
434.3811	0.1271
434.5847	0.1181
434.7883	0.1104
434.9919	0.1052
435.1955	0.1201
435.3991	0.1135
435.6027	0.114
435.8062	0.1159
436.0098	0.1062
436.2133	0.1009
436.4168	0.0989
436.6203	0.1066
436.8238	0.1041
437.0272	0.1016
437.2307	0.1197
437.4341	0.0936
437.6375	0.0955
437.841	0.0867
438.0443	0.0858
438.2477	0.1025
438.4511	0.0854
438.6545	0.0801
438.8578	0.0968
439.0611	0.0932
439.2644	0.0664
439.4677	0.0948
439.671	0.0811
439.8743	0.0938
440.0775	0.093
440.2808	0.0726
440.484	0.0603
440.6872	0.0558
440.8904	0.0737
441.0936	0.0785
441.2967	0.0794
441.4999	0.0751
441.703	0.0655
441.9062	0.0746
442.1093	0.0714
442.3124	0.0681
442.5155	0.0611
442.7185	0.0647
442.9216	0.0486
443.1246	0.0953
443.3276	0.0656
443.5307	0.0726
443.7337	0.066
443.9366	0.058
444.1396	0.062
444.3426	0.0541
444.5455	0.0499
444.7484	0.0445
444.9513	0.0513
445.1542	0.0628
445.3571	0.0438
445.56	0.0554
445.7628	0.0467
445.9657	0.0459
446.1685	0.0534
446.3713	0.0485
446.5741	0.0526
446.7769	0.0431
446.9797	0.047
447.1824	0.0586
447.3852	0.0372
447.5879	0.0451
447.7906	0.0406
447.9933	0.0419
448.196	0.0348
448.3986	0.0379
448.6013	0.026
448.8039	0.029
449.0066	0.021
449.2092	0.047
449.4118	0.044
449.6143	0.0264
449.8169	0.0443
450.0195	0.0266
450.222	0.0053
450.4245	0.0236
450.627	0.0371
450.8295	0.0242
451.032	0.0218
451.2345	0.0255
451.4369	0.0324
451.6394	0.0249
451.8418	0.0205
452.0442	0.0108
452.2466	0.0366
452.449	0.007
452.6513	0.0233
452.8537	0.0134
453.056	0.0209
453.2583	0.0233
453.4607	0.0117
453.663	0.0257
453.8652	0.0165
454.0675	0.0157
454.2697	0.0224
454.472	0.0049
454.6742	0.0364
454.8764	0.0183
455.0786	0.0221
455.2808	0.0175
455.4829	0.0114
455.6851	0.0225
455.8872	0.049
456.0893	0.014
456.2915	0.001
456.4935	0.0168
456.6956	0.0135
456.8977	0.0102
457.0997	0.0114
457.3018	-0.0037
457.5038	0.0204
457.7058	-0.0006
457.9078	0.0106
458.1098	0.0172
458.3117	0.0219
458.5137	0.0083
458.7156	0.0082
458.9175	0.003
459.1194	0.0132
459.3213	0.011
459.5232	0.0097
459.725	0.0014
459.9269	-0.0041
460.1287	-0.0067
460.3305	0.0093
460.5323	0.0006
460.7341	0.0003
460.9359	0.007
461.1376	0.0183
461.3394	-0.0006
461.5411	0.0046
461.7428	0.0039
461.9445	0.0306
462.1462	0.0099
462.3479	0.009
462.5495	0.0167
462.7512	0.0026
462.9528	0.0019
463.1544	-0.0031
463.356	0.0156
463.5576	0.005
463.7592	-0.007
463.9607	0.0032
464.1623	0.0168
464.3638	0.0281
464.5653	-0.0027
464.7668	0.0085
464.9683	0.0123
465.1697	0.0229
465.3712	0.0029
465.5726	-0.0109
465.7741	0.0013
465.9755	-0.0015
466.1769	0.0157
466.3782	0.003
466.5796	0.0034
466.7809	0.0108
466.9823	0.0024
467.1836	0.0027
467.3849	0.0007
467.5862	0.0146
467.7875	-0.0008
467.9887	0.0148
468.19	-0.0027
468.3912	0.0023
468.5924	0.0049
468.7936	0.0056
468.9948	0.0075
469.196	0.0039
469.3972	-0.009
469.5983	0.0029
469.7994	-0.0083
470.0006	-0.0021
470.2017	-0.0042
470.4027	0.0042
470.6038	0.0029
470.8049	-0.0079
471.0059	-0.003
471.2069	-0.0102
471.408	0.0048
471.6089	0.0101
471.8099	0.0141
472.0109	0.0089
472.2119	-0.0054
472.4128	-0.0132
472.6137	0.0188
472.8146	-0.022
473.0155	0.0039
473.2164	-0.0045
473.4173	0.0029
473.6181	0.0037
473.819	0.0051
474.0198	-0.0058
474.2206	0.0012
474.4214	0.0124
474.6222	0.0062
474.8229	0.0018
475.0237	-0.0086
475.2244	-0.0106
475.4251	0.0016
475.6258	0.0033
475.8265	-0.0001
476.0272	0.0154
476.2278	-0.0154
476.4285	-0.011
476.6291	-0.0165
476.8297	0.0056
477.0303	0.0018
477.2309	-0.0016
477.4315	-0.0137
477.632	-0.0116
477.8326	0.0059
478.0331	0.0018
478.2336	0.0154
478.4341	-0.0007
478.6346	0.0062
478.8351	0.0051
479.0355	0.0067
479.236	0.0162
479.4364	-0.0002
479.6368	-0.0095
479.8372	-0.0076
480.0376	0.0023
480.2379	-0.0298
480.4383	-0.0063
480.6386	-0.0002
480.8389	0.0042
481.0392	-0.0079
481.2395	-0.0012
481.4398	-0.0022
481.6401	0.0072
481.8403	0.0035
482.0405	0.0067
482.2408	0.0053
482.441	0.009
482.6411	-0.0151
482.8413	0.0007
483.0415	-0.0124
483.2416	-0.0107
483.4417	0.0033
483.6419	-0.003
483.8419	-0.0001
484.042	0.0055
484.2421	0.0095
484.4422	-0.0009
484.6422	-0.0053
484.8422	0.0127
485.0422	-0.0124
485.2422	0.0005
485.4422	-0.0059
485.6422	-0.0104
485.8421	0.0023
486.042	0.0035
486.242	-0.0062
486.4419	-0.0064
486.6417	-0.0122
486.8416	-0.0004
487.0415	-0.0013
487.2413	-0.0062
487.4411	-0.0074
487.641	-0.0123
487.8408	0.0107
488.0405	-0.0104
488.2403	-0.0054
488.4401	0.0016
488.6398	-0.003
488.8395	-0.0093
489.0392	0.0004
489.2389	-0.0065
489.4386	-0.0047
489.6383	-0.0096
489.8379	-0.0013
490.0376	-0.0088
490.2372	-0.0067
490.4368	-0.0211
490.6364	0.003
490.836	-0.0072
491.0355	0.0019
491.2351	-0.0017
491.4346	-0.0049
491.6341	-0.015
491.8336	0.0026
492.0331	-0.0142
492.2326	-0.0148
492.432	-0.0098
492.6315	0.0053
492.8309	-0.0094
493.0303	-0.0044
493.2297	-0.0054
493.4291	-0.0047
493.6284	-0.005
493.8278	-0.0025
494.0271	0.0065
494.2264	0.0014
494.4257	-0.0125
494.625	-0.0108
494.8243	-0.009
495.0236	-0.0141
495.2228	-0.0144
495.422	-0.0001
495.6213	-0.0045
495.8205	-0.004
496.0196	0.0002
496.2188	0.0065
496.418	-0.0111
496.6171	0.0001
496.8162	-0.0075
497.0153	0.0073
497.2144	-0.0155
497.4135	0.0019
497.6126	-0.0113
497.8116	-0.0104
498.0107	0.0017
498.2097	-0.0066
498.4087	-0.0057
498.6077	-0.0117
498.8067	-0.0052
499.0056	0.0037
499.2046	-0.0109
499.4035	-0.0124
499.6024	-0.0112
499.8013	-0.0021
500.0002	-0.01
500.199	0.0108
500.3979	-0.0045
500.5967	-0.0201
500.7956	-0.0008
500.9944	0.0013
501.1932	-0.0072
501.3919	-0.0071
501.5907	-0.0148
501.7895	0.0025
501.9882	-0.0107
502.1869	-0.0055
502.3856	-0.0033
502.5843	-0.0076
502.783	-0.0017
502.9816	0.0001
503.1803	-0.003
503.3789	-0.0129
503.5775	0.0045
503.7761	0.0034
503.9747	-0.0083
504.1732	-0.0115
504.3718	-0.0007
504.5703	-0.0069
504.7689	-0.0193
504.9674	-0.0051
505.1658	-0.0077
505.3643	0.0018
505.5628	-0.0079
505.7612	-0.0051
505.9597	0.0147
506.1581	-0.0028
506.3565	0.0089
506.5549	-0.0077
506.7532	-0.0169
506.9516	-0.0024
507.1499	-0.0113
507.3482	-0.0045
507.5465	-0.014
507.7448	0.0021
507.9431	-0.0038
508.1414	-0.0092
508.3396	0.0012
508.5379	-0.0095
508.7361	-0.0155
508.9343	-0.0022
509.1325	-0.0072
509.3306	0.0022
509.5288	-0.0067
509.7269	-0.0108
509.9251	-0.0099
510.1232	-0.0097
510.3213	0.0047
510.5193	-0.0042
510.7174	-0.0113
510.9154	-0.0013
511.1135	-0.0083
511.3115	0.0036
511.5095	-0.0032
511.7075	-0.0072
511.9055	-0.0047
512.1034	-0.0126
512.3014	-0.004
512.4993	-0.0028
512.6972	-0.0078
512.8951	-0.0095
513.093	-0.0089
513.2908	0.0033
513.4887	-0.0001
513.6865	0.0048
513.8844	-0.0094
514.0822	-0.0121
514.2799	-0.0186
514.4777	-0.0041
514.6755	0
514.8732	-0.0039
515.0709	-0.0016
515.2687	-0.0047
515.4664	0.0038
515.664	-0.0032
515.8617	-0.0011
516.0594	-0.0086
516.257	0.0009
516.4546	-0.0165
516.6522	0.0055
516.8498	-0.0041
517.0474	-0.001
517.2449	0.0005
517.4425	-0.0058
517.64	-0.0036
517.8375	-0.0013
518.035	0.0072
518.2325	-0.002
518.43	-0.0079
518.6274	-0.0079
518.8249	-0.014
519.0223	0.0072
519.2197	-0.0046
519.4171	-0.0013
519.6145	0.0021
519.8118	0.0074
520.0092	0.0017
520.2065	-0.0021
520.4038	-0.0192
520.6011	-0.0025
520.7984	-0.0151
520.9956	-0.0039
521.1929	-0.008
521.3901	0.0029
521.5874	-0.008
521.7846	0.0012
521.9818	-0.0108
522.1789	-0.0019
522.3761	-0.0087
522.5732	-0.0133
522.7704	-0.0144
522.9675	-0.0077
523.1646	-0.0117
523.3617	0.0041
523.5587	0.0005
523.7558	-0.0073
523.9528	-0.0015
524.1498	-0.0002
524.3468	-0.0057
524.5438	-0.0101
524.7408	-0.0012
524.9378	0.0028
525.1347	0.0019
525.3316	0.0075
525.5285	-0.0071
525.7254	-0.0091
525.9223	-0.002
526.1192	-0.0081
526.316	-0.0068
526.5129	0.01
526.7097	-0.0034
526.9065	-0.0034
527.1033	-0.0004
527.3	0.0052
527.4968	-0.0152
527.6935	0.0022
527.8903	-0.0085
528.087	0.0031
528.2837	-0.0008
528.4804	-0.0005
528.677	-0.0007
528.8737	0.0093
529.0703	0.0045
529.2669	-0.0012
529.4635	-0.0077
529.6601	0.0012
529.8567	-0.0035
530.0532	-0.0114
530.2498	-0.0012
530.4463	0.0061
530.6428	-0.0022
530.8393	0.0109
531.0358	-0.0085
531.2322	-0.0005
531.4287	-0.0059
531.6251	-0.0129
531.8215	0.0053
532.0179	0.0012
532.2143	0.0072
532.4107	-0.0045
532.607	-0.0048
532.8034	0.0013
532.9997	0.0066
533.196	-0.0054
533.3923	-0.0029
533.5886	0.0099
533.7848	0.0042
533.9811	-0.0024
534.1773	-0.0009
534.3735	0.0029
534.5697	-0.0015
534.7659	0.0003
534.9621	-0.002
535.1582	-0.014
535.3544	0
535.5505	-0.0057
535.7466	-0.0041
535.9427	-0.0028
536.1387	-0.0042
536.3348	-0.0135
536.5308	0.0018
536.7269	-0.0201
536.9229	0.0054
537.1189	0.0007
537.3148	-0.0052
537.5108	-0.0077
537.7068	0.0041
537.9027	-0.0066
538.0986	-0.0036
538.2945	-0.0044
538.4904	-0.011
538.6863	-0.0078
538.8821	-0.0024
539.078	-0.0062
539.2738	0.0068
539.4696	-0.0022
539.6654	-0.0002
539.8611	0.0083
540.0569	0.0079
540.2526	-0.0052
540.4484	0.0024
540.6441	-0.001
540.8398	-0.001
541.0355	0.0038
541.2311	-0.0019
541.4268	-0.0081
541.6224	0.0014
541.818	-0.0056
542.0136	-0.002
542.2092	0.0028
542.4048	0.0031
542.6003	0.0013
542.7959	0.0052
542.9914	-0.0004
543.1869	-0.0014
543.3824	0.0024
543.5779	-0.0057
543.7734	-0.0004
543.9688	-0.0005
544.1642	0.0098
544.3596	-0.0055
544.555	-0.004
544.7504	-0.0011
544.9458	-0.0166
545.1411	-0.0097
545.3365	-0.0081
545.5318	0.0005
545.7271	-0.0053
545.9224	-0.002
546.1177	0.0056
546.3129	0.0047
546.5081	-0.005
546.7034	0.0075
546.8986	0
547.0938	-0.003
547.289	-0.012
547.4841	-0.0043
547.6793	0.0065
547.8744	-0.016
548.0695	0.0043
548.2646	-0.0046
548.4597	0.0054
548.6548	0.0041
548.8498	-0.0028
549.0448	0.0026
549.2399	0.0023
549.4349	0.0116
549.6298	0.0009
549.8248	-0.0015
550.0198	0.0042
550.2147	-0.0114
550.4096	-0.0072
550.6045	-0.0094
550.7994	0.0022
550.9943	-0.0008
551.1892	-0.0072
551.384	0.007
551.5788	0.0015
551.7737	0.0036
551.9685	0.0039
552.1632	0.0036
552.358	-0.005
552.5528	0.0013
552.7475	-0.0017
552.9422	0.0071
553.1369	-0.0011
553.3316	0.0095
553.5263	-0.0111
553.7209	0.0067
553.9156	0.0017
554.1102	-0.0024
554.3048	-0.0091
554.4994	0.0034
554.694	-0.0123
554.8885	0.0046
555.0831	-0.0092
555.2776	-0.003
555.4721	-0.0003
555.6666	-0.0087
555.8611	0.007
556.0555	0.0023
556.25	0.0012
556.4444	-0.0053
556.6388	0.0067
556.8332	-0.0055
557.0276	-0.0011
557.222	0.002
557.4163	0.0024
557.6107	-0.0087
557.805	0.0029
557.9993	0.0001
558.1936	-0.0004
558.3879	0.0046
558.5821	-0.0044
558.7764	0.0023
558.9706	0.0008
559.1648	0.0031
559.359	-0.0015
559.5532	-0.0079
559.7473	-0.0097
559.9415	-0.0015
560.1356	-0.0068
560.3297	-0.0067
560.5238	-0.0024
560.7179	-0.0001
560.9119	-0.0105
561.106	-0.0077
561.3	-0.0091
561.494	-0.0045
561.688	-0.0011
561.882	-0.0079
562.076	-0.0035
562.2699	0.0147
562.4639	0.0019
562.6578	0.0056
562.8517	-0.006
563.0456	-0.0026
563.2395	-0.0024
563.4333	0.0017
563.6272	0.008
563.821	0.0013
564.0148	0.0045
564.2086	-0.0079
564.4024	-0.0054
564.5961	-0.0038
564.7899	0.0033
564.9836	-0.0094
565.1773	0.011
565.371	0.0109
565.5647	0.0056
565.7584	-0.0032
565.952	-0.0008
566.1456	0.0041
566.3393	-0.0062
566.5329	0.0003
566.7264	-0.0004
566.92	-0.0022
567.1136	0.004
567.3071	0.0005
567.5006	0.0056
567.6941	0.0039
567.8876	0.0017
568.0811	-0.005
568.2745	0.0006
568.468	0.0045
568.6614	0.0053
568.8548	-0.0008
569.0482	0.004
569.2416	0.0073
569.4349	0.0038
569.6283	0.0047
569.8216	0.0003
570.0149	-0.0031
570.2082	0.0057
570.4015	0.013
570.5947	0.0007
570.788	0.0078
570.9812	0.0072
571.1744	0.0035
571.3676	0.0022
571.5608	0.0017
571.754	-0.0015
571.9471	0.0037
572.1402	0.0026
572.3333	0.0011
572.5264	-0.0052
572.7195	0.0009
572.9126	0.0031
573.1057	0.0048
573.2987	-0.0016
573.4917	0.004
573.6847	-0.0086
573.8777	0.007
574.0707	0.0095
574.2636	-0.0019
574.4566	0.0001
574.6495	-0.0022
574.8424	-0.0011
575.0353	0.001
575.2281	0.0073
575.421	0.0036
575.6138	0.0074
575.8067	-0.0001
575.9995	0.0073
576.1923	0.0066
576.385	-0.0027
576.5778	0.0044
576.7706	0.0005
576.9633	0.0043
577.156	0.0076
577.3487	0.0053
577.5414	0.0023
577.734	-0.0011
577.9267	0.0067
578.1193	-0.0085
578.3119	0.0047
578.5045	0.0066
578.6971	0.0055
578.8897	0.0021
579.0822	-0.0059
579.2747	-0.0011
579.4673	-0.0046
579.6598	-0.0041
579.8522	0.0027
580.0447	-0.0071
580.2372	0.0029
580.4296	-0.001
580.622	-0.0033
580.8144	0.0023
581.0068	0.0002
581.1992	-0.0105
581.3915	-0.0012
581.5839	-0.0067
581.7762	-0.0102
581.9685	0.0018
582.1608	0.0042
582.353	-0.0074
582.5453	-0.0006
582.7375	0.005
582.9298	0.0051
583.122	0.0065
583.3142	-0.0002
583.5063	0.0078
583.6985	0.0025
583.8906	-0.0014
584.0827	-0.0023
584.2749	0.0071
584.4669	0.0028
584.659	0.0051
584.8511	0.0027
585.0431	-0.0037
585.2352	0.003
585.4272	-0.0078
585.6192	0.0073
585.8111	0.0044
586.0031	0.0013
586.195	0.0025
586.387	0.0023
586.5789	0.0038
586.7708	-0.0039
586.9627	-0.0025
587.1545	0.002
587.3464	0.0038
587.5382	0.0077
587.73	0.0024
587.9218	0.0075
588.1136	0.005
588.3053	0.0024
588.4971	0.0034
588.6888	-0.0124
588.8805	-0.0017
589.0722	-0.0015
589.2639	-0.0002
589.4556	0.0016
589.6472	0.0014
589.8389	-0.0001
590.0305	-0.0041
590.2221	0.0065
590.4137	-0.0025
590.6052	0.0045
590.7968	0.0013
590.9883	0.0034
591.1798	0.0008
591.3713	-0.0004
591.5628	0.0066
591.7543	-0
591.9458	0.003
592.1372	0.0043
592.3286	0.0053
592.52	0.004
592.7114	-0.0051
592.9028	-0.0019
593.0941	0.0014
593.2855	-0
593.4768	-0.0011
593.6681	-0.0036
593.8594	-0.0076
594.0506	0.0015
594.2419	0.0132
594.4331	0.0006
594.6244	0.0061
594.8156	-0.0056
595.0067	0.0023
595.1979	0.0027
595.3891	0.0024
595.5802	-0.0038
595.7713	-0.0081
595.9624	-0.001
596.1535	0.0028
596.3446	0.0011
596.5357	0.0084
596.7267	0.0052
596.9177	-0.0041
597.1087	-0.0024
597.2997	-0.0045
597.4907	0.0068
597.6817	-0.0019
597.8726	0.0025
598.0635	-0.0047
598.2544	0.0004
598.4453	-0.0012
598.6362	-0.0023
598.827	-0.0025
599.0179	0.0072
599.2087	0.0036
599.3995	0.0038
599.5903	0.0028
599.7811	0.0041
599.9718	-0.0016
600.1626	-0.0066
600.3533	-0.0064
600.544	0.0026
600.7347	-0.0077
600.9254	0.0005
601.116	-0.0098
601.3067	-0.0037
601.4973	-0.0011
601.6879	0.0025
601.8785	-0.0034
602.0691	0.0029
602.2596	0.0071
602.4502	0.0049
602.6407	0.0124
602.8312	0.0013
603.0217	-0.0061
603.2122	0.0008
603.4027	-0.0036
603.5931	-0.0036
603.7835	-0.0041
603.9739	-0.0052
604.1643	0.0008
604.3547	0.0041
604.5451	0.0108
604.7354	-0.0004
604.9257	0.0032
605.116	-0.0046
605.3063	0.0025
605.4966	0.0067
605.6869	0.0148
605.8771	0.0113
606.0673	0.0101
606.2575	0.0085
606.4477	0.0062
606.6379	0.008
606.8281	-0.0003
607.0182	0.0045
607.2083	0.0128
607.3985	0.0029
607.5885	-0.0029
607.7786	0.0042
607.9687	-0.0025
608.1587	0.0049
608.3488	0.0079
608.5388	-0.0002
608.7288	0.0013
608.9187	0.0004
609.1087	0.0018
609.2986	-0.0052
609.4886	-0.0004
609.6785	0.003
609.8684	0.0069
610.0582	0.0063
610.2481	-0.0008
610.4379	-0.0013
610.6278	0.0007
610.8176	-0.0028
611.0074	-0.0034
611.1971	0.0024
611.3869	-0.0039
611.5766	-0.0044
611.7664	0.0124
611.9561	0.0042
612.1458	0.0076
612.3354	-0.0076
612.5251	0.0024
612.7147	0.0041
612.9044	0.0089
613.094	-0.0073
613.2836	0.004
613.4731	0.0023
613.6627	0.0049
613.8522	0.0036
614.0417	0.0085
614.2313	-0.0056
614.4207	-0.0056
614.6102	-0.0005
614.7997	-0.0043
614.9891	0.0001
615.1785	0.003
615.3679	0.0024
615.5573	0.0082
615.7467	-0.0024
615.9361	0.0036
616.1254	0.0027
616.3147	0.0054
616.504	0.0065
616.6933	0.0033
616.8826	0.0088
617.0718	0.0021
617.2611	0.0065
617.4503	-0.0043
617.6395	-0.0012
617.8287	0.0025
618.0179	-0.0003
618.207	0.0092
618.3961	0.01
618.5853	0.0022
618.7744	0.0095
618.9634	0.0092
619.1525	-0.002
619.3416	0.0067
619.5306	0.0012
619.7196	0.0015
619.9086	-0.0046
620.0976	0.0042
620.2866	0.0007
620.4755	0.0055
620.6645	0.0055
620.8534	0.006
621.0423	0.0081
621.2312	0.0065
621.42	0.0021
621.6089	-0.0012
621.7977	0.0072
621.9865	-0.0056
622.1753	0.0018
622.3641	0.004
622.5529	0.0092
622.7416	0.0047
622.9303	-0.0061
623.1191	0.0047
623.3078	-0.0028
623.4964	0.004
623.6851	-0.003
623.8737	-0.002
624.0624	0.0061
624.251	-0.0008
624.4396	-0.0009
624.6282	-0.0066
624.8167	-0.0033
625.0053	0.0095
625.1938	0.0057
625.3823	0.0008
625.5708	0.001
625.7593	-0.0039
625.9477	-0.0007
626.1362	-0.0033
626.3246	0.0023
626.513	0.0024
626.7014	0.0113
626.8898	0.0043
627.0781	0.0001
627.2665	0.0005
627.4548	0.0057
627.6431	-0.0006
627.8314	0.0103
628.0197	0.0053
628.2079	-0.0078
628.3962	-0.0046
628.5844	0.007
628.7726	0.008
628.9608	0.0127
629.1489	0.0042
629.3371	0.0035
629.5252	-0.0022
629.7134	0.0048
629.9015	0.0006
630.0895	0.0048
630.2776	0.0047
630.4657	-0.0032
630.6537	0.0049
630.8417	0.0071
631.0297	-0.0048
631.2177	-0.0003
631.4057	-0.0119
631.5936	0.0002
631.7815	-0.0052
631.9695	0.0033
632.1574	0.0082
632.3452	0.0068
632.5331	0.0046
632.7209	0.0046
632.9088	0.0109
633.0966	0.0068
633.2844	-0.0017
633.4722	0.0042
633.6599	0.0068
633.8477	0.0108
634.0354	0.0004
634.2231	0.0013
634.4108	0.0026
634.5985	0.0063
634.7861	0.0052
634.9738	0.0122
635.1614	0.0071
635.349	0.0075
635.5366	0.0015
635.7242	-0.0005
635.9117	0.0111
636.0993	0.0057
636.2868	0.0035
636.4743	0.001
636.6618	0.0166
636.8492	0.0041
637.0367	0.0103
637.2241	0.0089
637.4115	-0.0034
637.5989	0.0007
637.7863	0.0008
637.9737	0.0013
638.161	0.0041
638.3484	-0.0039
638.5357	0.0034
638.723	-0.0049
638.9103	0.0069
639.0975	0.0011
639.2848	0.0036
639.472	0.0005
639.6592	-0.0005
639.8464	0.0125
640.0336	0.0076
640.2208	-0.0015
640.4079	-0.0001
640.595	0.0066
640.7821	-0.0009
640.9692	0.0025
641.1563	0.0032
641.3434	0.0036
641.5304	-0.0007
641.7174	-0.0003
641.9044	0.0036
642.0914	0.0039
642.2784	0.0019
642.4653	0.0048
642.6523	0.0035
642.8392	0.0055
643.0261	-0.0013
643.213	0.0046
643.3999	-0.0029
643.5867	-0.0097
643.7735	0.0001
643.9604	-0.006
644.1472	0.0055
644.3339	0.0041
644.5207	0.0018
644.7075	-0.0023
644.8942	0.0112
645.0809	0.0087
645.2676	0.0063
645.4543	0.0019
645.6409	0.013
645.8276	0.0041
646.0142	0.0051
646.2008	-0.0003
646.3874	-0.0003
646.574	-0.0004
646.7605	-0.0023
646.9471	-0.0126
647.1336	0.0032
647.3201	0.0124
647.5066	-0.0012
647.6931	0.0058
647.8795	-0.0009
648.0659	0.0064
648.2524	0.0083
648.4388	-0.0037
648.6252	-0.0026
648.8115	0.0087
648.9979	-0.0024
649.1842	0.0056
649.3705	0.0046
649.5568	0.0041
649.7431	0.0016
649.9294	0.0027
650.1156	0.0061
650.3018	-0.0054
650.488	0.0074
650.6742	0.0055
650.8604	0.0047
651.0466	0.0039
651.2327	-0.0013
651.4188	-0.0014
651.6049	-0.0006
651.791	-0.0046
651.9771	0.0064
652.1632	0.005
652.3492	0.0056
652.5352	-0.0067
652.7212	-0.0003
652.9072	0.0026
653.0932	0.0025
653.2791	-0.0037
653.465	0.0011
653.651	-0.0006
653.8369	0.0044
654.0227	0.0033
654.2086	0.0026
654.3944	0.0084
654.5803	0.005
654.7661	-0.0005
654.9519	0.0021
655.1377	-0.0027
655.3234	0.0026
655.5092	-0.0056
655.6949	-0.0048
655.8806	-0.0009
656.0663	0.0036
656.2519	-0.001
656.4376	0.0004
656.6232	0.0066
656.8088	0.0013
656.9945	0.0022
657.18	0.0012
657.3656	0.0071
657.5511	0.0048
657.7367	-0.0003
657.9222	0.0028
658.1077	0.0116
658.2932	-0.0047
658.4786	-0.0154
658.6641	-0.0086
658.8495	-0.0001
659.0349	-0.0028
659.2203	0.0049
659.4057	0.003
659.591	-0.0027
659.7764	-0.0056
659.9617	-0.0046
660.147	0.0028
660.3323	-0.0025
660.5176	0.0138
660.7028	0.0082
660.888	0.0031
661.0733	-0.0024
661.2585	-0.0045
661.4436	0.0042
661.6288	-0.0087
661.8139	0.0007
661.9991	0.0054
662.1842	0.0029
662.3693	0.0028
662.5544	-0.0016
662.7394	-0.0052
662.9245	-0.0054
663.1095	0.0014
663.2945	-0.0003
663.4795	-0.0037
663.6644	0.0061
663.8494	0.0079
664.0343	0.003
664.2193	-0.0105
664.4042	0.0069
664.589	-0.0046
664.7739	-0.0001
664.9587	-0.0033
665.1436	-0.0024
665.3284	0.006
665.5132	0.0003
665.698	0.0001
665.8827	0.0044
666.0675	-0.0035
666.2522	-0.0028
666.4369	0.002
666.6216	0.0062
666.8063	0.0043
666.9909	0.0003
667.1756	-0.0023
667.3602	0.0034
667.5448	-0.0001
667.7294	0.0034
667.9139	0.0069
668.0985	0.0136
668.283	0.0053
668.4675	0.0037
668.652	0.0004
668.8365	0.0014
669.0209	0.0113
669.2054	0.0071
669.3898	0.0029
669.5742	0.0023
669.7586	0.0044
669.943	0.0064
670.1273	0.0042
670.3117	0.0053
670.496	0.009
670.6803	0.017
670.8646	0.0092
671.0488	-0.0053
671.2331	0.0101
671.4173	-0.0007
671.6015	0.0022
671.7857	0.0077
671.9699	-0.0049
672.1541	0.0035
672.3382	0.0084
672.5223	0.0062
672.7064	0.003
672.8905	0.0133
673.0746	0.0077
673.2587	0.0014
673.4427	0.0051
673.6267	0.006
673.8107	0.0061
673.9947	0.0039
674.1787	0.0057
674.3626	-0.0064
674.5465	0.0027
674.7304	0.0099
674.9143	0.0049
675.0982	0.0093
675.2821	-0.0048
675.4659	0.0104
675.6497	0.0047
675.8335	-0.0008
676.0173	0.008
676.2011	0.0015
676.3849	0.0027
676.5686	0.0001
676.7523	-0.0009
676.936	-0.0007
677.1197	-0.0056
677.3034	-0.0065
677.487	0.0022
677.6706	0.0013
677.8542	0.0056
678.0378	-0.0012
678.2214	0.0028
678.405	-0.0007
678.5885	-0.0038
678.772	-0.0053
678.9555	-0.003
679.139	-0.0014
679.3225	-0.0033
679.5059	0.0052
679.6894	0.0006
679.8728	0.0007
680.0562	-0.0039
680.2395	-0.0057
680.4229	0.0013
680.6062	0.0118
680.7896	0.0008
680.9729	-0.0012
681.1562	0.001
681.3394	-0.0033
681.5227	0.0006
681.7059	0.0046
681.8891	0.0056
682.0723	0.0117
682.2555	0.0104
682.4387	0.0061
682.6218	-0.0057
682.805	0.0064
682.9881	0.0048
683.1712	0.0073
683.3542	0.0014
683.5373	0.0054
683.7203	-0.004
683.9034	-0.002
684.0864	-0.0077
684.2694	-0.0011
684.4523	0.0019
684.6353	-0.0077
684.8182	0.0021
685.0011	-0.0047
685.184	-0
685.3669	-0.0043
685.5498	0.0008
685.7326	0.0044
685.9154	-0.0045
686.0982	-0.0031
686.281	0.0079
686.4638	0.0039
686.6465	0
686.8293	-0.0044
687.012	0.0066
687.1947	-0.0076
687.3774	0.0007
687.56	-0.0068
687.7427	0.0061
687.9253	-0.0045
688.1079	0.0043
688.2905	0.0035
688.4731	0.0118
688.6556	-0.002
688.8382	0.0021
689.0207	0.0001
689.2032	-0.0003
689.3857	-0.0044
689.5681	0.0038
689.7506	0.0003
689.933	-0.001
690.1154	0.0037
690.2978	0.0028
690.4802	0.0069
690.6626	-0.0032
690.8449	-0.0002
691.0272	0.0023
691.2095	-0.0045
691.3918	-0.0035
691.5741	0.0078
691.7563	-0.0042
691.9386	-0.0029
692.1208	0.001
692.303	-0.0004
692.4852	0.0032
692.6673	0.0056
692.8495	0.0047
693.0316	0.0005
693.2137	0.0056
693.3958	0.0028
693.5778	0.0026
693.7599	0.0025
693.9419	0.0016
694.1239	0.0015
694.3059	-0.0041
694.4879	0.0142
694.6699	0.0056
694.8518	0.0055
695.0337	-0.0003
695.2157	0.0119
695.3975	0.009
695.5794	0.006
695.7613	0.0107
695.9431	0.0049
696.1249	0.0123
696.3067	0.0089
696.4885	0.0153
696.6703	0.001
696.852	0.0092
697.0337	0.0043
697.2154	0.0085
697.3971	0.0072
697.5788	0.0019
697.7605	0.0003
697.9421	0.0058
698.1237	-0.0014
698.3053	0.0005
698.4869	0.0002
698.6685	-0.0036
698.85	0.0016
699.0315	0.0122
699.213	-0.0024
699.3945	-0.0016
699.576	0.0056
699.7575	0.0075
699.9389	0.0113
700.1203	-0.0021
700.3017	-0.0119
700.4831	-0.0108
700.6645	0.0007
700.8458	0.0064
701.0271	-0.0055
701.2084	0.0028
701.3897	-0.0066
701.571	0.0016
701.7523	-0.0086
701.9335	-0.0003
702.1147	0.0042
702.2959	0.0062
702.4771	-0.0009
702.6583	0.0024
702.8394	-0.001
703.0205	0.0111
703.2016	0.001
703.3827	0.0057
703.5638	0.0108
703.7449	-0.0016
703.9259	0.0142
704.1069	-0.0006
704.2879	0.0046
704.4689	0.0051
704.6499	-0.0007
704.8308	0.0063
705.0117	-0.0063
705.1927	-0.0029
705.3735	0.0005
705.5544	-0.0047
705.7353	0.0064
705.9161	-0.0006
706.0969	-0.0067
706.2777	-0.0035
706.4585	0.0056
706.6393	-0.0009
706.82	-0.0009
707.0007	0.0001
707.1815	0.0071
707.3621	0.0069
707.5428	0.0031
707.7235	0.0021
707.9041	0.0029
708.0847	-0.013
708.2653	-0.0037
708.4459	-0.0061
708.6265	-0.0023
708.807	-0.0011
708.9875	0.0028
709.168	-0.0048
709.3485	-0.0056
709.529	-0.0061
709.7095	-0.0041
709.8899	0.0055
710.0703	-0.0072
710.2507	-0.0015
710.4311	-0.0074
710.6115	-0.0158
710.7918	-0.0005
710.9721	0
711.1524	-0.0072
711.3327	0.0041
711.513	-0.0014
711.6932	0.0091
711.8735	0.0081
712.0537	0.0053
712.2339	0.0006
712.4141	0.0007
712.5942	0.0048
712.7744	0.0055
712.9545	-0.0066
713.1346	-0.0039
713.3147	0.0053
713.4947	-0.0005
713.6748	0.0008
713.8548	-0.0013
714.0348	0.0025
714.2148	-0.0054
714.3948	0.0041
714.5748	-0.001
714.7547	0.0069
714.9346	0.0069
715.1145	0.0034
715.2944	-0.0064
715.4743	-0.0038
715.6541	-0.0038
715.834	0.0054
716.0138	0.0018
716.1936	-0.0086
716.3733	0.0029
716.5531	0.007
716.7328	-0.0029
716.9126	0.0042
717.0923	0.0123
717.2719	0.0028
717.4516	0.01
717.6312	0.0042
717.8109	0.0024
717.9905	0.0115
718.1701	-0.0053
718.3496	-0.0068
718.5292	0.0059
718.7087	0.0074
718.8882	0.0063
719.0677	0.0108
719.2472	-0.0044
719.4267	0.0042
719.6061	0
719.7856	0.0119
719.965	0.0063
720.1443	0.0007
720.3237	0.0145
720.5031	0.0031
720.6824	0.0093
720.8617	-0.0063
721.041	0.0036
721.2203	0.0111
721.3995	0.0138
721.5788	0.0027
721.758	0.0079
721.9372	-0.004
722.1164	-0.0012
722.2956	0.0035
722.4747	-0.002
722.6538	0.0038
722.8329	0.0014
723.012	0.0044
723.1911	0.0084
723.3702	-0.0005
723.5492	0.0051
723.7282	-0.0003
723.9072	-0.0034
724.0862	-0.0064
724.2652	-0.0075
724.4441	0.0042
724.623	-0.0008
724.8019	-0.0085
724.9808	-0.0015
725.1597	-0.0056
725.3385	0.0068
725.5174	-0.002
725.6962	0.0042
725.875	-0.0011
726.0538	-0.0002
726.2325	0.0062
726.4112	0.0039
726.59	-0.0021
726.7687	-0.0013
726.9474	0.0121
727.126	0.002
727.3047	-0.0066
727.4833	0.005
727.6619	-0.0061
727.8405	-0.0011
728.0191	-0.0061
728.1976	0.0076
728.3762	-0.0028
728.5547	-0.0032
728.7332	-0.0094
728.9116	-0.0009
729.0901	-0.003
729.2686	-0.0137
729.447	-0.0058
729.6254	0.006
729.8038	-0.0017
729.9821	-0.0106
730.1605	-0.0095
730.3388	0.0009
730.5171	-0.0031
730.6954	-0.0042
730.8737	0.0038
731.0519	0.0142
731.2302	0.0066
731.4084	0.006
731.5866	0.0037
731.7648	-0.0057
731.9429	-0.0007
732.1211	-0.0105
732.2992	-0.0036
732.4773	0.0005
732.6554	-0.0039
732.8335	-0.0093
733.0115	0.0018
733.1896	-0.0008
733.3676	-0.0092
733.5456	0.0062
733.7235	0.0148
733.9015	-0.0025
734.0794	0.0061
734.2574	-0.0015
734.4353	0.0031
734.6131	0.0014
734.791	0.0097
734.9689	0.0082
735.1467	0.0001
735.3245	-0.0019
735.5023	-0.0047
735.68	-0.0019
735.8578	0.0067
736.0355	-0.0211
736.2132	-0.0084
736.3909	0.0037
736.5686	-0.0012
736.7463	0.0009
736.9239	-0.0019
737.1015	0.002
737.2791	0.0083
737.4567	0.0094
737.6343	0.0006
737.8118	-0.0026
737.9894	0.0084
738.1669	-0.0077
738.3444	-0.0097
738.5218	0.0081
738.6993	-0.0124
738.8767	0.0017
739.0541	0.0071
739.2315	-0.0095
739.4089	0.0025
739.5863	0.0021
739.7636	0.0024
739.9409	-0.0037
740.1182	0.0146
740.2955	-0.0008
740.4728	-0.001
740.65	-0.0032
740.8272	0.0023
741.0044	-0.0061
741.1816	-0.0024
741.3588	-0.005
741.5359	0.0094
741.7131	-0.0064
741.8902	-0.0004
742.0673	-0.001
742.2444	-0.0082
742.4214	-0.0012
742.5985	0.0005
742.7755	-0.0015
742.9525	-0.0117
743.1295	-0.0004
743.3064	0.0025
743.4834	0.0023
743.6603	0.002
743.8372	-0.0008
744.0141	0.0056
744.191	0.0067
744.3678	-0.0032
744.5446	0.0074
744.7215	0.0035
744.8982	-0.0078
745.075	-0.0062
745.2518	0.0012
745.4285	-0.0027
745.6052	0.0061
745.7819	-0.0001
745.9586	-0.0083
746.1353	-0.0046
746.3119	-0.0118
746.4885	-0.0086
746.6651	-0.0087
746.8417	-0.007
747.0183	-0.0143
747.1948	-0.0138
747.3714	-0.0059
747.5479	-0.001
747.7244	-0.0119
747.9008	0.0025
748.0773	0.0002
748.2537	-0.0041
748.4301	-0.0163
748.6065	-0.0072
748.7829	0.0022
748.9593	-0.0113
749.1356	-0.0121
749.3119	0.013
749.4882	-0.0073
749.6645	0.0019
749.8408	-0.0119
750.017	-0.0079
750.1933	0.0013
750.3695	-0.0105
750.5457	0.0103
750.7218	0.0012
750.898	0.0038
751.0741	-0.0039
751.2502	0.0033
751.4263	-0.0062
751.6024	0.0035
751.7784	-0.0024
751.9545	-0.0046
752.1305	-0.0015
752.3065	-0.0068
752.4825	-0.0009
752.6584	-0.0035
752.8344	-0.0157
753.0103	-0.0102
753.1862	-0.0021
753.3621	0.0011
753.5379	-0.0037
753.7138	-0.0059
753.8896	-0.0032
754.0654	0.0057
754.2412	0.0029
754.417	0.0053
754.5927	-0.0045
754.7685	0.0035
754.9442	-0.0062
755.1199	0.0121
755.2956	-0.0027
755.4712	0.0095
755.6469	0.0052
755.8225	0.0042
755.9981	0.0058
756.1736	0.0097
756.3492	0.0004
756.5248	0.0064
756.7003	0.007
756.8758	0.0166
757.0513	-0.0037
757.2267	-0.0018
757.4022	0.0062
757.5776	-0.0065
757.753	0.0074
757.9284	0.0012
758.1038	0.0059
758.2791	0.0029
758.4545	-0.014
758.6298	-0.0054
758.8051	-0.0024
758.9803	-0.0087
759.1556	-0.0027
759.3308	-0.0122
759.506	0.006
759.6812	0.0065
759.8564	0.0029
760.0316	-0.001
760.2067	0.0101
760.3819	0.0118
760.557	0.0172
760.732	0.0002
760.9071	0.0031
761.0821	0.0082
761.2572	0.0136
761.4322	-0.0039
761.6072	0.005
761.7821	-0.0092
761.9571	0.0029
762.132	-0.0055
762.3069	-0.0001
762.4818	-0.003
762.6567	-0.0066
762.8316	0.0007
763.0064	-0.0052
763.1812	-0.0031
763.356	-0.0132
763.5308	-0.0092
763.7055	0.0009
763.8803	-0.0007
764.055	-0.0058
764.2297	0.0003
764.4044	-0.0109
764.579	-0.0074
764.7537	-0.0128
764.9283	-0.0002
765.1029	-0.0246
765.2775	-0.0098
765.4521	-0.0131
765.6266	-0.0124
765.8011	-0.0138
765.9756	-0.0078
766.1501	0.0025
766.3246	-0.0039
766.4991	-0.0039
766.6735	-0.0039
766.8479	-0.0147
767.0223	0.0075
767.1967	-0.0058
767.371	-0.0007
767.5454	-0.0126
767.7197	-0.0023
767.894	-0.0053
768.0683	-0.0093
768.2425	-0.0116
768.4168	0.0042
768.591	-0.003
768.7652	-0.0071
768.9394	-0.0068
769.1135	-0.0009
769.2877	0.0133
769.4618	-0.0098
769.6359	-0.01
769.81	-0.0028
769.984	-0.0068
770.1581	-0.0149
770.3321	-0.0008
770.5061	-0.0127
770.6801	-0.0059
770.8541	-0.0037
771.028	0.0031
771.202	-0.0159
771.3759	0.0095
771.5498	-0.0072
771.7236	-0.0057
771.8975	-0.001
772.0713	0.0084
772.2451	-0.0017
772.4189	0.0011
772.5927	0.002
772.7665	0.0111
772.9402	-0.0015
773.1139	-0.0023
773.2876	-0.0019
773.4613	-0.0036
773.635	-0.0001
773.8086	-0.0121
773.9822	-0.0019
774.1558	0.0043
774.3294	-0.0158
774.503	0.0042
774.6765	0.002
774.8501	0.0011
775.0236	0.0011
775.1971	0.0031
775.3705	-0.0236
775.544	0.0034
775.7174	-0.006
775.8908	0.0017
776.0642	-0.0112
776.2376	-0.0061
776.4109	-0.0046
776.5843	0.0014
776.7576	0.0049
776.9309	0.0125
777.1041	0.0116
777.2774	0.0036
777.4506	-0.0042
777.6238	-0.0107
777.797	0.011
777.9702	-0.0104
778.1434	-0.0014
778.3165	-0.011
778.4896	-0.0008
778.6627	-0.0016
778.8358	-0.01
779.0089	-0.0079
779.1819	-0.0147
779.3549	0.0074
779.5279	-0.0014
779.7009	0.0061
779.8739	0.0036
780.0468	-0.0075
780.2197	0.0049
780.3926	-0.0047
780.5655	-0.0047
780.7384	-0.0018
780.9112	-0.0067
781.0841	-0.0134
781.2569	-0.0023
781.4297	-0.002
781.6024	0.004
781.7752	0.0035
781.9479	0.0071
782.1206	-0.0065
782.2933	-0.0155
782.466	-0.008
782.6386	-0.0036
782.8113	0.0032
782.9839	0.0084
783.1565	0.0113
783.329	0.0008
783.5016	0.0034
783.6741	0.0019
783.8466	0.0036
784.0191	0.0141
784.1916	-0.0031
784.3641	-0.0056
784.5365	0.0038
784.7089	-0.0077
784.8813	-0.0003
785.0537	-0.0015
785.2261	-0.0003
785.3984	-0.0063
785.5707	-0.0063
785.743	0.007
785.9153	0.0004
786.0876	0.0096
786.2598	-0.0089
786.432	-0.0138
786.6042	0.0095
786.7764	-0.0102
786.9486	0.0033
787.1207	-0.0156
787.2928	0.0119
787.4649	0.0112
787.637	0.0022
787.8091	-0.0061
787.9811	0.0004
788.1532	-0.009
788.3252	0.0111
788.4972	-0.0123
788.6691	-0.0066
788.8411	-0.0006
789.013	-0.017
789.1849	0.0055
789.3568	-0.0046
789.5287	0.0112
789.7005	-0.0121
789.8723	0.0072
790.0442	0.0181
790.2159	-0.0032
790.3877	0.0038
790.5595	-0.0153
790.7312	0.0121
790.9029	-0.006
791.0746	-0.0055
791.2463	0.0052
791.4179	0.0017
791.5896	-0.0119
791.7612	0.0052
791.9328	0.0067
792.1044	-0.005
792.2759	-0.0115
792.4474	-0.0019
792.619	0.0011
792.7905	0.0139
792.9619	-0.0017
793.1334	-0.0003
793.3048	0.0139
793.4762	0.0077
793.6476	-0.0003
793.819	-0.0061
793.9904	0.0145
794.1617	-0.0105
794.333	-0.0098
794.5043	-0.0068
794.6756	-0.0056
794.8469	-0.0077
795.0181	-0.0111
795.1893	0.0018
795.3605	0.005
795.5317	-0.0025
795.7029	-0.0032
795.874	0.0058
796.0452	-0.0007
796.2163	0.0007
796.3873	0.0019
796.5584	-0.004
796.7294	0.0014
796.9005	0.0149
797.0715	0.0053
797.2425	-0.0115
797.4134	-0.0052
797.5844	0.0093
797.7553	-0.0128
797.9262	-0.0005
798.0971	-0.0093
798.2679	-0.0092
798.4388	-0.0295
798.6096	0.0015
798.7804	0.0182
798.9512	0.0028
799.122	0.0069
799.2927	-0.01
799.4635	0.0124
799.6342	-0.0144
799.8049	-0.0126
799.9755	-0.0105
800.1462	0.0114
800.3168	0.0043
800.4874	-0.0124
800.658	0.014
800.8286	0.0016
800.9991	-0.009
801.1696	0.0008
801.3402	0.0097
801.5106	-0.0092
801.6811	0.0094
801.8516	0.008
802.022	-0.0053
802.1924	0.007
802.3628	0.0136
802.5332	0.0054
802.7035	0.0134
802.8739	-0.0044
803.0442	-0.0117
803.2145	0.0128
803.3847	-0.0037
803.555	0.0034
803.7252	-0.0096
803.8954	-0.012
804.0656	-0.0033
804.2358	-0.0039
804.4059	-0.0069
804.5761	-0.0011
804.7462	0.0122
804.9163	0.0099
805.0864	-0.0144
805.2564	-0.0027
805.4264	0.0071
805.5965	0.0036
805.7665	0.012
805.9364	0.0113
806.1064	0.0214
806.2763	0.0054
806.4462	0.0205
806.6161	-0.0004
806.786	0.0169
806.9559	-0.0009
807.1257	-0.0035
807.2955	0.0133
807.4653	-0.0112
807.6351	-0.026
807.8048	-0.0147
807.9746	-0.0026
808.1443	0.0035
808.314	-0.0162
808.4837	0.001
808.6533	0.0036
808.8229	0.0031
808.9926	0.0126
809.1622	0.0029
809.3317	-0.0169
809.5013	-0.004
809.6708	0.0343
809.8403	0.0118
810.0098	0.0028
810.1793	0.0056
810.3488	0.0043
810.5182	-0.0224
810.6876	0.0082
810.857	-0.0042
811.0264	0.0205
811.1958	0.0154
811.3651	0.0136
811.5344	-0.0081
811.7037	-0.0235
811.873	-0.004
812.0422	0.0144
812.2115	-0.0005
812.3807	-0.011
812.5499	0.0118
812.7191	0.0128
812.8882	-0.0117
813.0574	-0.0252
813.2265	0.0014
813.3956	-0.0122
813.5646	-0.0027
813.7337	-0.0303
813.9027	0.0033
814.0718	0.0081
814.2407	0.0142
814.4097	0.0014
814.5787	-0.0188
814.7476	0.0121
814.9165	0.0039
815.0854	-0.0116
815.2543	-0.0144
815.4232	-0.0018
815.592	0.0067
815.7608	0
815.9296	0.0092
816.0984	-0.0032
816.2671	0.0084
816.4359	-0.0024
816.6046	-0.0141
816.7733	-0.0202
816.942	-0.0053
817.1106	0.0101
817.2793	0.0111
817.4479	-0.0103
817.6165	0.0428
817.785	-0.01
817.9536	-0.0189
818.1221	-0.0045
818.2906	-0.0013
818.4591	0.0076
818.6276	-0.0172
818.7961	-0.0146
818.9645	0.0074
819.1329	-0.0063
819.3013	0.0096
819.4697	-0.0012
819.638	-0.0041
819.8064	0.0052
819.9747	0.0109
820.143	0.008
820.3113	-0.0065
820.4795	-0.0052
820.6477	0.0042
820.816	0.0121
820.9842	0.0222
821.1523	0.0022
821.3205	-0.0053
821.4886	0.0177
821.6567	-0.0133
821.8248	0.0184
821.9929	0.018
822.1609	-0.0003
822.329	0.0105
822.497	0.0136
822.665	-0.0231
822.833	-0.0031
823.0009	-0.0067
823.1688	0.0012
823.3367	0.0156
823.5046	-0.0045
823.6725	0.0305
823.8404	-0.0051
824.0082	0.0008
824.176	0.014
824.3438	0.0085
824.5116	-0.0176
824.6793	0.0151
824.847	-0.0069
825.0147	-0.0134
825.1824	0.0096
825.3501	-0.0051
825.5177	-0.0079
825.6854	-0.0085
825.853	-0.0082
826.0206	-0.0244
826.1881	0.0114
826.3557	-0.044
826.5232	0.0026
826.6907	-0.0399
826.8582	-0.0339
827.0257	-0.0185
827.1931	0.0041
827.3605	-0.0098
827.528	-0.0083
827.6953	-0.0155
827.8627	-0.0128
828.03	0.0395
828.1974	-0.0386
828.3647	-0.0279
828.532	-0.0121
828.6992	-0.0193
828.8665	0
829.0337	-0.0095
829.2009	0.0273
829.3681	-0.0218
829.5352	0.0192
829.7024	-0.0079
829.8695	-0.0159
830.0366	0.016
830.2037	-0.0055
830.3707	0.0151
830.5378	-0.0264
830.7048	-0.0263
830.8718	0.0105
831.0388	-0.0096
831.2057	0.0344
831.3727	-0.0015
831.5396	-0.0128
831.7065	0.0058
831.8734	-0.0085
832.0402	-0.0214
832.2071	-0.0149
832.3739	-0.0216
832.5407	-0.0181
832.7075	-0.0201
832.8742	-0.018
833.041	-0.0424
833.2077	-0.0271
833.3744	-0.0041
833.541	-0.013
833.7077	-0.0528
833.8743	-0.0173
834.0409	-0.0167
834.2075	0.0188
834.3741	0.0013
834.5407	-0.0174
834.7072	-0.0324
834.8737	-0.02
835.0402	-0.0342
835.2067	0.0019
835.3731	-0.0225
835.5395	0.0052
835.706	0.0099
835.8723	0.0073
836.0387	0.0124
836.2051	-0.0062
836.3714	0.0076
836.5377	0.0434
836.704	-0.0105
836.8703	0.019
837.0365	0.0119
837.2027	-0.0133
837.3689	0.0165
837.5351	-0.0022
837.7013	-0.0782
837.8674	-0.0464
838.0335	-0.0216
838.1997	-0.0425
838.3657	-0.0379
838.5318	-0.024
838.6978	0.0132
838.8639	0.019
839.0299	-0.0059
839.1958	-0.0258
839.3618	-0.0126
839.5277	-0.0531
839.6937	0.023
839.8596	-0.0693
840.0254	-0.013
840.1913	0.0126
840.3571	0.0967
840.523	-0.0019
840.6888	-0.0298
840.8545	-0.0169
841.0203	0.0443
841.186	0.0266
841.3517	0.011
841.5174	-0.0171
841.6831	-0.022
841.8488	0.0138
842.0144	0.0131
842.18	0.0117
842.3456	-0.0201
842.5112	-0.0648
842.6767	-0.0321
842.8422	-0.0735
843.0077	-0.0111
843.1732	-0.0335
843.3387	-0.0389
843.5042	-0.0171
843.6696	-0.0595
843.835	0.0234
844.0004	0.0483
844.1657	-0.0029
844.3311	-0.0659
844.4964	-0.0655
844.6617	-0.0473
844.827	0.0314
844.9923	-0.0145
845.1575	0.0654
845.3227	-0.0011
845.4879	0.0401
845.6531	-0.0703
845.8183	-0.059
845.9834	0.042
846.1485	-0.0191
846.3136	-0.041
846.4787	-0.087
846.6438	0.044
846.8088	-0.0732
846.9738	-0.0936
847.1388	0.0072
847.3038	-0.0773
847.4687	-0.123
847.6337	-0.0012
847.7986	0.0041
847.9635	-0.0433
848.1284	0.0523
848.2932	0.0509
848.458	-0.0389
848.6228	0.0229
848.7876	0.0685
848.9524	0.0141
849.1172	-0.0825
849.2819	-0.0512
849.4466	-0.1534
849.6113	-0.0879
849.7759	-0.0156
849.9406	-0.0621
850.1052	0.122
850.2698	-0.0499
850.4344	-0.0819
850.599	-0.0707
850.7635	0.1028
850.928	-0.0242
851.0925	0.0341
851.257	0.0429
851.4215	0.0314
851.5859	-0.0456
851.7503	0.0126
851.9147	0.0433
852.0791	-0.1341
852.2434	-0.0414
852.4078	-0.0015
852.5721	0.0533
852.7364	-0.048
852.9007	-0.1976
853.0649	0.0797
853.2291	0.0259
853.3934	-0.0948
853.5575	0.1864
853.7217	-0.0494
853.8859	-0.1917
854.05	-0.1428
854.2141	0.1089
854.3782	0.0546
854.5423	-0.0603
854.7063	0.0466
854.8703	0.0755
855.0343	-0.0388
855.1983	-0.1174
855.3623	0.1028
855.5262	-0.0798
855.6901	-0.1455
855.854	0.0257
856.0179	0.0749
856.1818	0.0561
856.3456	0.07
856.5094	-0.1085
856.6732	-0.2097
856.837	-0.12
857.0008	0.0294
857.1645	-0.0403
857.3282	-0.2384
857.4919	0.1425
857.6556	0.03
857.8192	0.0309
857.9828	0.0419
858.1465	-0.0074
858.31	-0.1448
858.4736	-0.0867
858.6372	-0.3503
858.8007	-0.2172
858.9642	-0.0749
859.1277	-0.1033
859.2911	0.0704
859.4546	-0.0458
859.618	-0.359
859.7814	-0.0564
859.9448	-0.033
860.1081	-0.09
860.2715	0.0106
860.4348	-0.0513
860.5981	-0.0528
860.7614	0.1303
860.9246	-0.064
861.0879	-0.3123
861.2511	-0.0408
861.4143	-0.305
861.5774	0.041
861.7406	-0.1534
861.9037	-0.0486
862.0668	-0.0673
862.2299	-0.1019
862.393	-0.499
862.556	-0.0332
862.7191	-0.1381
862.8821	-0.1874
863.0451	0.1126
863.208	0.1911
863.371	0.0526
863.5339	-0.1824
863.6968	0.1252
863.8597	0.4032
864.0225	-0.0806
864.1854	-0.096
864.3482	1.0693
864.511	0.157
864.6737	0.1965
864.8365	0.0397
864.9992	0.19
865.1619	-0.0226
865.3246	0.0801
865.4873	0.1666
865.65	-0.1639
865.8126	-0.183
865.9752	-0.0207
866.1378	-0.2132
866.3004	0.0773
866.4629	0.1704
866.6254	-0.1369
866.7879	-0.1587
866.9504	-0
867.1129	-0
867.2753	0.1694
867.4377	0.2883
867.6001	-0.3225
867.7625	0.561
867.9249	-0
868.0872	0.1197
868.2495	-0.0172
868.4118	-0.4483
868.5741	-0.4074
868.7363	1.4301
868.8986	0.301
869.0608	-0.1779
869.223	0.0478
869.3851	-0
869.5473	-0
869.7094	0.301
869.8715	-0.1474
870.0336	-0
870.1957	-0.3369
870.3577	-0
870.5197	0.0184
870.6817	-0.2663
870.8437	-0.2034
871.0057	-0
871.1676	-0.3369
871.3295	-0.1224
871.4914	-0
871.6533	-0.3123
871.8151	-0.072
871.977	-0
872.1388	-0
872.3006	-0
872.4623	-0
872.6241	0.1283
872.7858	-0.1561
872.9475	0.0424
873.1092	-0.1093
873.2709	-0.0992
873.4325	-0.2468
873.5941	0.4369
873.7557	0.0942
873.9173	-0
874.0789	-0.4157
874.2404	-0
874.4019	0.2327
874.5634	-0.2152
874.7249	-0.0904
874.8863	0.3603
875.0478	-0.0514
875.2092	-0
875.3706	0.3423
875.5319	-0.6685
875.6933	-0
875.8546	0.3243
876.0159	-0
876.1772	-0.1727
876.3385	-0
876.4997	0.1356
876.6609	-0.7
876.8221	-0.0764
876.9833	-0
877.1445	-0
877.3056	-0.0112
877.4667	0.0021
877.6278	-0
877.7889	-0
877.9499	-0
878.111	-0
878.272	-0
878.433	-0
878.5939	-0
878.7549	0.1099
878.9158	-0.4932
879.0767	-0
879.2376	-0
879.3984	-0
879.5593	-0
879.7201	-0.076
879.8809	-0.4092
880.0417	-0.2355
880.2024	-0.0675
880.3632	-0
880.5239	0.0069
880.6846	-0
880.8452	-2.3918
881.0059	-0
881.1665	-0
881.3271	0.301
881.4877	-0
881.6483	-0.7071
881.8088	-0.5613
881.9693	-0
882.1298	-0
882.2903	-0
