Data from D4ACN5uM420nmA_Absorbance_14-37-07-571.txt Node
Date: Fri Feb 21 14:37:07 GMT 2025
User: LASERRRRR
Spectrometer: FLMT03099
Trigger mode: 0
Integration Time (sec): 1.500000E-2
Scans to average: 1
Electric dark correction enabled: true
Nonlinearity correction enabled: false
Boxcar width: 0
XAxis mode: Wavelengths
Number of Pixels in Spectrum: 3648
>>>>>Begin Spectral Data<<<<<
179.3399	-0
179.5586	-0
179.7771	-0
179.9957	0.0048
180.2143	-0
180.4329	-0
180.6514	-0.0997
180.8699	-0.1411
181.0885	-0.0686
181.307	0.1304
181.5255	-0
181.744	-0.2778
181.9625	0.5196
182.181	-0
182.3994	-0.6114
182.6179	-0
182.8363	-0
183.0547	0.6878
183.2732	0.2096
183.4916	0.2706
183.71	0.242
183.9284	0.1383
184.1467	0.2228
184.3651	0.097
184.5835	0.3843
184.8018	0.0448
185.0201	0.1079
185.2385	-0.011
185.4568	0.0143
185.6751	0.1971
185.8934	0.1823
186.1117	0.0196
186.3299	0.2274
186.5482	0.0923
186.7664	0.3142
186.9847	-0.0828
187.2029	0.8889
187.4211	0.0123
187.6393	0.2364
187.8575	0.5859
188.0757	0.2631
188.2939	0.096
188.512	0.1103
188.7302	0.1979
188.9483	-0
189.1665	0.8875
189.3846	0.1225
189.6027	0.3205
189.8208	0.6363
190.0389	0.2393
190.257	0.1626
190.475	0.0251
190.6931	0.1293
190.9111	0.0647
191.1292	0.1184
191.3472	0.0031
191.5652	0.0624
191.7832	0.0994
192.0012	0.127
192.2192	0.2068
192.4371	0.2083
192.6551	0.1248
192.873	0.1566
193.091	0.0889
193.3089	0.1125
193.5268	0.3142
193.7447	0.1299
193.9626	0.3724
194.1805	0.2524
194.3984	0.235
194.6162	0.2833
194.8341	0.2728
195.0519	0.1572
195.2697	0.2541
195.4875	0.3309
195.7054	0.1976
195.9231	0.251
196.1409	0.2963
196.3587	0.3051
196.5765	0.2976
196.7942	0.2061
197.012	0.3155
197.2297	0.3242
197.4474	0.3724
197.6651	0.2803
197.8828	0.3094
198.1005	0.3874
198.3182	0.3444
198.5358	0.3581
198.7535	0.3472
198.9711	0.3615
199.1888	0.3505
199.4064	0.4116
199.624	0.3835
199.8416	0.3516
200.0592	0.3644
200.2767	0.4047
200.4943	0.4075
200.7119	0.416
200.9294	0.419
201.1469	0.4365
201.3645	0.4724
201.582	0.3797
201.7995	0.4222
202.017	0.3868
202.2344	0.4066
202.4519	0.346
202.6694	0.4011
202.8868	0.4014
203.1042	0.4019
203.3217	0.358
203.5391	0.3842
203.7565	0.3329
203.9739	0.3452
204.1913	0.3678
204.4086	0.3717
204.626	0.3737
204.8433	0.3332
205.0607	0.3755
205.278	0.3429
205.4953	0.3401
205.7126	0.3298
205.9299	0.3184
206.1472	0.312
206.3644	0.3178
206.5817	0.3358
206.7989	0.324
207.0162	0.311
207.2334	0.3417
207.4506	0.3082
207.6678	0.3021
207.885	0.3056
208.1022	0.2935
208.3194	0.2882
208.5365	0.2905
208.7537	0.2963
208.9708	0.3081
209.1879	0.2909
209.405	0.284
209.6222	0.2636
209.8392	0.2923
210.0563	0.2956
210.2734	0.2552
210.4905	0.2625
210.7075	0.259
210.9245	0.2712
211.1416	0.2602
211.3586	0.2651
211.5756	0.26
211.7926	0.2594
212.0096	0.2793
212.2265	0.2577
212.4435	0.2479
212.6604	0.256
212.8774	0.2389
213.0943	0.2507
213.3112	0.2459
213.5281	0.2347
213.745	0.2267
213.9619	0.2545
214.1788	0.2499
214.3956	0.24
214.6125	0.2692
214.8293	0.254
215.0461	0.2655
215.2629	0.2467
215.4798	0.2477
215.6965	0.264
215.9133	0.2404
216.1301	0.2494
216.3469	0.2457
216.5636	0.2552
216.7803	0.2463
216.9971	0.2458
217.2138	0.2362
217.4305	0.2459
217.6472	0.2562
217.8639	0.2416
218.0805	0.253
218.2972	0.244
218.5138	0.2533
218.7305	0.2713
218.9471	0.2384
219.1637	0.2644
219.3803	0.2478
219.5969	0.2375
219.8135	0.2543
220.0301	0.2586
220.2466	0.2594
220.4632	0.2363
220.6797	0.2559
220.8962	0.2576
221.1127	0.2761
221.3292	0.2814
221.5457	0.2797
221.7622	0.2738
221.9787	0.2854
222.1951	0.2647
222.4116	0.2752
222.628	0.2898
222.8444	0.2762
223.0608	0.286
223.2772	0.2808
223.4936	0.2873
223.71	0.275
223.9264	0.2936
224.1427	0.2827
224.3591	0.2823
224.5754	0.291
224.7917	0.2802
225.008	0.2872
225.2243	0.3082
225.4406	0.2991
225.6569	0.2996
225.8732	0.295
226.0894	0.3057
226.3057	0.3111
226.5219	0.3168
226.7381	0.3182
226.9543	0.3174
227.1705	0.3164
227.3867	0.3195
227.6029	0.3064
227.8191	0.3412
228.0352	0.3519
228.2513	0.3506
228.4675	0.3446
228.6836	0.3431
228.8997	0.3347
229.1158	0.3519
229.3319	0.3585
229.548	0.3595
229.764	0.3585
229.9801	0.3763
230.1961	0.3685
230.4121	0.37
230.6282	0.3806
230.8442	0.381
231.0602	0.3972
231.2761	0.3896
231.4921	0.39
231.7081	0.4015
231.924	0.4042
232.14	0.4028
232.3559	0.4073
232.5718	0.4239
232.7877	0.4058
233.0036	0.4112
233.2195	0.4249
233.4353	0.4232
233.6512	0.4175
233.867	0.4138
234.0829	0.4227
234.2987	0.437
234.5145	0.4278
234.7303	0.4304
234.9461	0.4427
235.1619	0.4356
235.3776	0.4431
235.5934	0.4261
235.8091	0.449
236.0249	0.4518
236.2406	0.4529
236.4563	0.4522
236.672	0.4425
236.8877	0.4559
237.1034	0.4538
237.319	0.4508
237.5347	0.4496
237.7503	0.445
237.966	0.4679
238.1816	0.456
238.3972	0.4635
238.6128	0.4717
238.8284	0.461
239.0439	0.4644
239.2595	0.4688
239.475	0.4612
239.6906	0.4557
239.9061	0.4679
240.1216	0.4701
240.3371	0.4654
240.5526	0.472
240.7681	0.4713
240.9836	0.4559
241.199	0.4595
241.4145	0.4506
241.6299	0.4573
241.8453	0.4332
242.0607	0.4382
242.2761	0.4394
242.4915	0.4331
242.7069	0.4227
242.9223	0.4241
243.1376	0.4154
243.353	0.4072
243.5683	0.401
243.7836	0.3955
243.9989	0.3915
244.2142	0.3782
244.4295	0.37
244.6448	0.368
244.86	0.3552
245.0753	0.3472
245.2905	0.3493
245.5057	0.3414
245.721	0.3439
245.9362	0.3362
246.1514	0.3223
246.3665	0.3182
246.5817	0.3071
246.7969	0.3013
247.012	0.2957
247.2271	0.3009
247.4423	0.2866
247.6574	0.2781
247.8725	0.2754
248.0876	0.2733
248.3026	0.2636
248.5177	0.2551
248.7328	0.2599
248.9478	0.2538
249.1628	0.25
249.3779	0.2464
249.5929	0.2436
249.8079	0.2443
250.0228	0.2338
250.2378	0.237
250.4528	0.2322
250.6677	0.2243
250.8827	0.2206
251.0976	0.217
251.3125	0.2219
251.5274	0.2141
251.7423	0.2111
251.9572	0.215
252.172	0.2051
252.3869	0.2116
252.6017	0.2073
252.8166	0.2028
253.0314	0.1977
253.2462	0.2038
253.461	0.2057
253.6758	0.1948
253.8906	0.1976
254.1053	0.1979
254.3201	0.1974
254.5348	0.1891
254.7496	0.1886
254.9643	0.1914
255.179	0.1937
255.3937	0.1925
255.6083	0.191
255.823	0.1899
256.0377	0.187
256.2523	0.1913
256.467	0.1932
256.6816	0.1848
256.8962	0.1858
257.1108	0.1859
257.3254	0.1794
257.54	0.1803
257.7545	0.1882
257.9691	0.1858
258.1836	0.1825
258.3981	0.1861
258.6127	0.1761
258.8272	0.1856
259.0417	0.1779
259.2561	0.1776
259.4706	0.1805
259.6851	0.1806
259.8995	0.1794
260.114	0.1849
260.3284	0.1745
260.5428	0.1891
260.7572	0.1785
260.9716	0.1807
261.186	0.1786
261.4003	0.1795
261.6147	0.182
261.829	0.1838
262.0433	0.186
262.2577	0.1789
262.472	0.183
262.6863	0.1882
262.9005	0.18
263.1148	0.1847
263.3291	0.177
263.5433	0.1848
263.7576	0.1763
263.9718	0.1847
264.186	0.1837
264.4002	0.1886
264.6144	0.1922
264.8286	0.185
265.0427	0.1908
265.2569	0.1893
265.471	0.1845
265.6851	0.1835
265.8993	0.1844
266.1134	0.184
266.3275	0.19
266.5415	0.1876
266.7556	0.1916
266.9697	0.1845
267.1837	0.184
267.3978	0.1897
267.6118	0.1791
267.8258	0.187
268.0398	0.1916
268.2538	0.1847
268.4677	0.1817
268.6817	0.186
268.8957	0.176
269.1096	0.1756
269.3235	0.1798
269.5374	0.18
269.7514	0.1798
269.9652	0.176
270.1791	0.1785
270.393	0.1835
270.6068	0.1769
270.8207	0.1791
271.0345	0.1723
271.2483	0.1724
271.4622	0.1808
271.676	0.1738
271.8897	0.1846
272.1035	0.1816
272.3173	0.184
272.531	0.1778
272.7448	0.1751
272.9585	0.1739
273.1722	0.1748
273.3859	0.1795
273.5996	0.1806
273.8133	0.1764
274.0269	0.1739
274.2406	0.1796
274.4542	0.1769
274.6679	0.1839
274.8815	0.19
275.0951	0.1833
275.3087	0.181
275.5223	0.1809
275.7358	0.1848
275.9494	0.181
276.1629	0.1862
276.3765	0.1857
276.59	0.1793
276.8035	0.1828
277.017	0.191
277.2305	0.1886
277.444	0.1843
277.6574	0.1886
277.8709	0.1917
278.0843	0.1862
278.2978	0.1871
278.5112	0.189
278.7246	0.1882
278.938	0.1853
279.1513	0.1894
279.3647	0.191
279.5781	0.1873
279.7914	0.1849
280.0047	0.1895
280.2181	0.1867
280.4314	0.1882
280.6447	0.1895
280.8579	0.1808
281.0712	0.1886
281.2845	0.1869
281.4977	0.1874
281.711	0.1842
281.9242	0.1869
282.1374	0.1863
282.3506	0.1888
282.5638	0.1834
282.7769	0.189
282.9901	0.1882
283.2033	0.1902
283.4164	0.1882
283.6295	0.1856
283.8426	0.1874
284.0557	0.1914
284.2688	0.1888
284.4819	0.1826
284.695	0.1929
284.908	0.1829
285.1211	0.1896
285.3341	0.1826
285.5471	0.1896
285.7601	0.191
285.9731	0.1909
286.1861	0.1918
286.3991	0.1959
286.612	0.1888
286.825	0.1924
287.0379	0.1883
287.2508	0.1942
287.4637	0.1926
287.6766	0.1929
287.8895	0.1932
288.1024	0.1962
288.3152	0.1929
288.5281	0.1945
288.7409	0.1921
288.9538	0.1937
289.1666	0.1945
289.3794	0.1921
289.5922	0.1913
289.8049	0.1941
290.0177	0.2009
290.2304	0.1876
290.4432	0.2015
290.6559	0.1993
290.8686	0.1984
291.0813	0.1947
291.294	0.1923
291.5067	0.1983
291.7194	0.1914
291.932	0.1922
292.1447	0.198
292.3573	0.1944
292.5699	0.1988
292.7825	0.1943
292.9951	0.1987
293.2077	0.1972
293.4203	0.1983
293.6328	0.1967
293.8454	0.1972
294.0579	0.1974
294.2704	0.2047
294.4829	0.1902
294.6954	0.2002
294.9079	0.1964
295.1204	0.1935
295.3328	0.2033
295.5453	0.2046
295.7577	0.195
295.9701	0.1937
296.1825	0.1932
296.3949	0.1918
296.6073	0.1944
296.8197	0.1955
297.0321	0.2054
297.2444	0.1932
297.4567	0.2001
297.6691	0.1952
297.8814	0.1978
298.0937	0.1927
298.306	0.1957
298.5182	0.1989
298.7305	0.1981
298.9428	0.1962
299.155	0.1925
299.3672	0.1946
299.5794	0.2017
299.7916	0.1988
300.0038	0.1905
300.216	0.1964
300.4282	0.192
300.6403	0.2
300.8525	0.1954
301.0646	0.1955
301.2767	0.1973
301.4888	0.1927
301.7009	0.1958
301.913	0.1972
302.125	0.194
302.3371	0.194
302.5491	0.2028
302.7612	0.2011
302.9732	0.2041
303.1852	0.1962
303.3972	0.1911
303.6092	0.1994
303.8211	0.2
304.0331	0.1974
304.245	0.1917
304.457	0.1966
304.6689	0.1943
304.8808	0.1919
305.0927	0.197
305.3046	0.1966
305.5164	0.1867
305.7283	0.186
305.9401	0.1843
306.152	0.1919
306.3638	0.1867
306.5756	0.188
306.7874	0.176
306.9992	0.181
307.2109	0.1804
307.4227	0.1792
307.6344	0.1832
307.8462	0.1744
308.0579	0.174
308.2696	0.1698
308.4813	0.1743
308.693	0.1676
308.9046	0.1692
309.1163	0.1629
309.328	0.1667
309.5396	0.1643
309.7512	0.1599
309.9628	0.1586
310.1744	0.1564
310.386	0.153
310.5976	0.1523
310.8091	0.1566
311.0207	0.1562
311.2322	0.1501
311.4437	0.1456
311.6552	0.1484
311.8667	0.1481
312.0782	0.143
312.2897	0.1502
312.5012	0.1446
312.7126	0.1427
312.924	0.1431
313.1355	0.1454
313.3469	0.1458
313.5583	0.1338
313.7696	0.1358
313.981	0.1427
314.1924	0.1361
314.4037	0.1407
314.6151	0.1363
314.8264	0.1407
315.0377	0.1344
315.249	0.1413
315.4603	0.1321
315.6716	0.1345
315.8828	0.1309
316.0941	0.1305
316.3053	0.1335
316.5165	0.1388
316.7277	0.1317
316.9389	0.1346
317.1501	0.1328
317.3613	0.1301
317.5724	0.129
317.7836	0.1262
317.9947	0.125
318.2058	0.1327
318.417	0.1294
318.6281	0.1248
318.8391	0.1339
319.0502	0.1341
319.2613	0.1311
319.4723	0.126
319.6834	0.1324
319.8944	0.1296
320.1054	0.1335
320.3164	0.1238
320.5274	0.1295
320.7383	0.1332
320.9493	0.1262
321.1602	0.1314
321.3712	0.1281
321.5821	0.128
321.793	0.1379
322.0039	0.1281
322.2148	0.1279
322.4257	0.1257
322.6365	0.1255
322.8474	0.1359
323.0582	0.1336
323.269	0.1277
323.4798	0.1309
323.6906	0.1269
323.9014	0.1287
324.1122	0.1246
324.3229	0.1316
324.5337	0.1334
324.7444	0.1331
324.9551	0.1371
325.1658	0.1297
325.3765	0.1349
325.5872	0.1352
325.7979	0.1348
326.0085	0.1267
326.2192	0.1295
326.4298	0.1366
326.6404	0.1332
326.851	0.1367
327.0616	0.1319
327.2722	0.1381
327.4828	0.1352
327.6933	0.1406
327.9039	0.136
328.1144	0.1287
328.3249	0.1395
328.5354	0.1342
328.7459	0.1389
328.9564	0.1342
329.1669	0.1409
329.3773	0.1375
329.5878	0.1363
329.7982	0.144
330.0086	0.1409
330.219	0.1352
330.4294	0.1389
330.6398	0.1374
330.8502	0.143
331.0605	0.1381
331.2708	0.1402
331.4812	0.1337
331.6915	0.1418
331.9018	0.1371
332.1121	0.1494
332.3224	0.1358
332.5326	0.1409
332.7429	0.1432
332.9531	0.1443
333.1633	0.1352
333.3735	0.1336
333.5837	0.1434
333.7939	0.1402
334.0041	0.1463
334.2143	0.14
334.4244	0.1504
334.6346	0.1479
334.8447	0.143
335.0548	0.1485
335.2649	0.1481
335.475	0.146
335.685	0.1467
335.8951	0.1423
336.1051	0.1451
336.3152	0.1463
336.5252	0.1449
336.7352	0.1462
336.9452	0.1424
337.1552	0.1467
337.3652	0.1415
337.5751	0.1433
337.7851	0.1443
337.995	0.1498
338.2049	0.1468
338.4148	0.1468
338.6247	0.1526
338.8346	0.1458
339.0445	0.1493
339.2543	0.1477
339.4642	0.1506
339.674	0.1466
339.8838	0.146
340.0936	0.1469
340.3034	0.1443
340.5132	0.1492
340.7229	0.1514
340.9327	0.1618
341.1424	0.1463
341.3522	0.1469
341.5619	0.1558
341.7716	0.1578
341.9813	0.1549
342.1909	0.1565
342.4006	0.1557
342.6102	0.1547
342.8199	0.1594
343.0295	0.1489
343.2391	0.1613
343.4487	0.1505
343.6583	0.1617
343.8679	0.1581
344.0774	0.1585
344.287	0.1603
344.4965	0.1637
344.706	0.1614
344.9155	0.1572
345.125	0.1594
345.3345	0.1679
345.544	0.1686
345.7534	0.1663
345.9629	0.1672
346.1723	0.166
346.3817	0.1637
346.5911	0.1682
346.8005	0.1695
347.0099	0.1682
347.2193	0.1678
347.4286	0.18
347.638	0.1778
347.8473	0.1762
348.0566	0.17
348.2659	0.173
348.4752	0.1773
348.6845	0.1718
348.8937	0.1736
349.103	0.1747
349.3122	0.1741
349.5214	0.1764
349.7306	0.1864
349.9398	0.1808
350.149	0.1726
350.3582	0.1714
350.5674	0.1794
350.7765	0.1854
350.9856	0.1804
351.1948	0.1784
351.4039	0.1865
351.613	0.1823
351.822	0.1937
352.0311	0.1843
352.2402	0.1869
352.4492	0.1881
352.6582	0.184
352.8672	0.1892
353.0762	0.1883
353.2852	0.1837
353.4942	0.1927
353.7032	0.185
353.9121	0.1868
354.1211	0.1897
354.33	0.1909
354.5389	0.1864
354.7478	0.1838
354.9567	0.1924
355.1655	0.1935
355.3744	0.1867
355.5833	0.1868
355.7921	0.1967
356.0009	0.1931
356.2097	0.1883
356.4185	0.1878
356.6273	0.1902
356.8361	0.1909
357.0448	0.1894
357.2536	0.1969
357.4623	0.1974
357.671	0.1987
357.8797	0.2012
358.0884	0.1924
358.2971	0.1959
358.5057	0.1988
358.7144	0.1968
358.923	0.2032
359.1316	0.2038
359.3402	0.2008
359.5488	0.2069
359.7574	0.2145
359.966	0.2161
360.1746	0.2007
360.3831	0.2057
360.5916	0.2092
360.8002	0.2178
361.0087	0.2074
361.2172	0.2153
361.4256	0.2098
361.6341	0.2123
361.8426	0.2127
362.051	0.2219
362.2594	0.2093
362.4678	0.2174
362.6762	0.2169
362.8846	0.2175
363.093	0.2245
363.3014	0.2253
363.5097	0.2218
363.718	0.2287
363.9264	0.2183
364.1347	0.224
364.343	0.2278
364.5513	0.2203
364.7595	0.2313
364.9678	0.2235
365.176	0.232
365.3842	0.2371
365.5925	0.2295
365.8007	0.2294
366.0089	0.2315
366.217	0.2313
366.4252	0.2349
366.6333	0.2413
366.8415	0.2408
367.0496	0.2382
367.2577	0.2358
367.4658	0.2317
367.6739	0.2375
367.882	0.2462
368.09	0.239
368.2981	0.2398
368.5061	0.2511
368.7141	0.248
368.9221	0.249
369.1301	0.2495
369.3381	0.2582
369.5461	0.2558
369.754	0.2479
369.962	0.2529
370.1699	0.2604
370.3778	0.2563
370.5857	0.2549
370.7936	0.2508
371.0015	0.2568
371.2093	0.252
371.4172	0.2503
371.625	0.255
371.8328	0.2587
372.0406	0.263
372.2484	0.2588
372.4562	0.2679
372.664	0.2595
372.8717	0.2583
373.0795	0.2704
373.2872	0.2644
373.4949	0.2655
373.7026	0.2673
373.9103	0.2608
374.118	0.2664
374.3256	0.2741
374.5333	0.2686
374.7409	0.2673
374.9485	0.2691
375.1561	0.2804
375.3637	0.2743
375.5713	0.2753
375.7789	0.2796
375.9864	0.2717
376.194	0.2821
376.4015	0.2765
376.609	0.2703
376.8165	0.2825
377.024	0.2921
377.2315	0.2843
377.4389	0.273
377.6464	0.2906
377.8538	0.2859
378.0612	0.2796
378.2686	0.2776
378.476	0.294
378.6834	0.2831
378.8908	0.286
379.0981	0.2866
379.3055	0.2833
379.5128	0.288
379.7201	0.2886
379.9274	0.2884
380.1347	0.2936
380.342	0.2925
380.5492	0.2889
380.7565	0.2865
380.9637	0.289
381.1709	0.294
381.3781	0.2991
381.5853	0.2882
381.7925	0.2935
381.9997	0.2987
382.2068	0.302
382.4139	0.2954
382.6211	0.2996
382.8282	0.3033
383.0353	0.3008
383.2424	0.2964
383.4494	0.3075
383.6565	0.3014
383.8635	0.2959
384.0706	0.3064
384.2776	0.2966
384.4846	0.313
384.6916	0.2974
384.8986	0.3127
385.1055	0.3064
385.3125	0.3018
385.5194	0.3116
385.7263	0.3044
385.9333	0.3053
386.1402	0.302
386.347	0.309
386.5539	0.3098
386.7608	0.2989
386.9676	0.2996
387.1744	0.2999
387.3813	0.3067
387.5881	0.2979
387.7948	0.3075
388.0016	0.3167
388.2084	0.2947
388.4151	0.3078
388.6219	0.304
388.8286	0.304
389.0353	0.3071
389.242	0.3025
389.4487	0.2993
389.6553	0.2858
389.862	0.2953
390.0686	0.3035
390.2753	0.2922
390.4819	0.3033
390.6885	0.2965
390.8951	0.293
391.1016	0.3031
391.3082	0.2997
391.5147	0.2873
391.7213	0.2871
391.9278	0.283
392.1343	0.2918
392.3408	0.2833
392.5473	0.2894
392.7537	0.2812
392.9602	0.2832
393.1666	0.2839
393.373	0.2841
393.5794	0.2776
393.7858	0.2844
393.9922	0.2789
394.1986	0.2814
394.4049	0.2834
394.6113	0.2787
394.8176	0.2783
395.0239	0.2742
395.2302	0.2745
395.4365	0.2716
395.6428	0.2599
395.8491	0.2704
396.0553	0.2715
396.2615	0.2684
396.4678	0.2702
396.674	0.2624
396.8802	0.261
397.0863	0.2709
397.2925	0.2701
397.4987	0.2592
397.7048	0.2678
397.9109	0.256
398.117	0.2693
398.3231	0.2655
398.5292	0.2543
398.7353	0.2637
398.9413	0.2572
399.1474	0.2592
399.3534	0.2594
399.5594	0.2603
399.7654	0.2548
399.9714	0.2553
400.1774	0.2523
400.3833	0.2609
400.5893	0.2636
400.7952	0.2646
401.0011	0.2511
401.207	0.2615
401.4129	0.2562
401.6188	0.2549
401.8247	0.2613
402.0305	0.2558
402.2364	0.2647
402.4422	0.2593
402.648	0.2579
402.8538	0.2541
403.0596	0.2625
403.2654	0.2577
403.4711	0.2534
403.6768	0.248
403.8826	0.2599
404.0883	0.2559
404.294	0.2653
404.4997	0.2533
404.7054	0.2666
404.911	0.2538
405.1167	0.2565
405.3223	0.2512
405.5279	0.264
405.7335	0.2564
405.9391	0.2511
406.1447	0.2625
406.3502	0.2491
406.5558	0.2523
406.7613	0.2607
406.9668	0.2555
407.1724	0.2588
407.3778	0.263
407.5833	0.2528
407.7888	0.2537
407.9942	0.2546
408.1997	0.2543
408.4051	0.2629
408.6105	0.2503
408.8159	0.2628
409.0213	0.2558
409.2267	0.2599
409.432	0.2575
409.6374	0.2501
409.8427	0.2545
410.048	0.2695
410.2533	0.2639
410.4586	0.2465
410.6639	0.2614
410.8691	0.2491
411.0744	0.2495
411.2796	0.2636
411.4848	0.2579
411.69	0.2443
411.8952	0.2611
412.1004	0.2551
412.3056	0.2537
412.5107	0.2533
412.7158	0.2672
412.921	0.2535
413.1261	0.2546
413.3312	0.2529
413.5362	0.2638
413.7413	0.2609
413.9464	0.2479
414.1514	0.2523
414.3564	0.2458
414.5614	0.248
414.7664	0.2483
414.9714	0.2425
415.1764	0.2519
415.3813	0.2509
415.5863	0.2552
415.7912	0.2477
415.9961	0.2541
416.201	0.2591
416.4059	0.2529
416.6108	0.2443
416.8156	0.2463
417.0205	0.2394
417.2253	0.2359
417.4301	0.2526
417.6349	0.2493
417.8397	0.2474
418.0445	0.2413
418.2492	0.2463
418.454	0.2435
418.6587	0.2454
418.8634	0.2463
419.0681	0.2525
419.2728	0.248
419.4775	0.2532
419.6822	0.2361
419.8868	0.2415
420.0915	0.2333
420.2961	0.2356
420.5007	0.2387
420.7053	0.2309
420.9099	0.2408
421.1144	0.2393
421.319	0.2399
421.5235	0.2324
421.728	0.2448
421.9325	0.2359
422.137	0.2283
422.3415	0.2268
422.546	0.2219
422.7504	0.2312
422.9549	0.2332
423.1593	0.2313
423.3637	0.2329
423.5681	0.2324
423.7725	0.2286
423.9769	0.2252
424.1812	0.2168
424.3856	0.2224
424.5899	0.2251
424.7942	0.2256
424.9985	0.2183
425.2028	0.2262
425.4071	0.2265
425.6113	0.2229
425.8156	0.207
426.0198	0.2193
426.224	0.2149
426.4282	0.203
426.6324	0.2089
426.8366	0.2024
427.0407	0.22
427.2449	0.2204
427.449	0.2012
427.6531	0.2163
427.8572	0.2121
428.0613	0.2184
428.2654	0.2124
428.4694	0.2014
428.6735	0.2064
428.8775	0.2006
429.0815	0.1985
429.2855	0.2013
429.4895	0.1979
429.6935	0.1929
429.8975	0.1939
430.1014	0.1975
430.3053	0.2041
430.5093	0.1861
430.7132	0.1885
430.9171	0.1829
431.1209	0.1874
431.3248	0.1751
431.5286	0.1784
431.7325	0.1851
431.9363	0.185
432.1401	0.1688
432.3439	0.1766
432.5477	0.1719
432.7514	0.174
432.9552	0.1713
433.1589	0.164
433.3627	0.1765
433.5664	0.1605
433.7701	0.1706
433.9737	0.1618
434.1774	0.1558
434.3811	0.1638
434.5847	0.1562
434.7883	0.1581
434.9919	0.1509
435.1955	0.1594
435.3991	0.1542
435.6027	0.1479
435.8062	0.1658
436.0098	0.1482
436.2133	0.1471
436.4168	0.1414
436.6203	0.1339
436.8238	0.1444
437.0272	0.1427
437.2307	0.1291
437.4341	0.1411
437.6375	0.1346
437.841	0.1285
438.0443	0.1368
438.2477	0.1256
438.4511	0.1251
438.6545	0.1257
438.8578	0.1245
439.0611	0.1285
439.2644	0.1123
439.4677	0.1195
439.671	0.1157
439.8743	0.1187
440.0775	0.1144
440.2808	0.1169
440.484	0.1057
440.6872	0.1148
440.8904	0.0929
441.0936	0.1057
441.2967	0.0942
441.4999	0.1002
441.703	0.1056
441.9062	0.1025
442.1093	0.1135
442.3124	0.0907
442.5155	0.093
442.7185	0.0925
442.9216	0.0966
443.1246	0.0957
443.3276	0.0905
443.5307	0.0823
443.7337	0.0959
443.9366	0.0859
444.1396	0.0815
444.3426	0.0847
444.5455	0.0869
444.7484	0.0776
444.9513	0.0844
445.1542	0.0813
445.3571	0.0738
445.56	0.0695
445.7628	0.0722
445.9657	0.0765
446.1685	0.081
446.3713	0.0746
446.5741	0.0766
446.7769	0.0754
446.9797	0.0689
447.1824	0.0661
447.3852	0.0602
447.5879	0.0662
447.7906	0.059
447.9933	0.0687
448.196	0.0602
448.3986	0.0552
448.6013	0.0482
448.8039	0.0611
449.0066	0.0698
449.2092	0.0647
449.4118	0.0551
449.6143	0.0554
449.8169	0.0599
450.0195	0.0555
450.222	0.0479
450.4245	0.0506
450.627	0.0549
450.8295	0.0451
451.032	0.0564
451.2345	0.0425
451.4369	0.042
451.6394	0.0449
451.8418	0.0566
452.0442	0.046
452.2466	0.0358
452.449	0.0529
452.6513	0.0394
452.8537	0.0309
453.056	0.0447
453.2583	0.0307
453.4607	0.0373
453.663	0.0346
453.8652	0.0363
454.0675	0.0461
454.2697	0.0404
454.472	0.0309
454.6742	0.0385
454.8764	0.0395
455.0786	0.0338
455.2808	0.0268
455.4829	0.0315
455.6851	0.0368
455.8872	0.0213
456.0893	0.0327
456.2915	0.0311
456.4935	0.0348
456.6956	0.0233
456.8977	0.03
457.0997	0.0394
457.3018	0.0244
457.5038	0.0299
457.7058	0.0316
457.9078	0.0242
458.1098	0.031
458.3117	0.0337
458.5137	0.0158
458.7156	0.0305
458.9175	0.0239
459.1194	0.0223
459.3213	0.0166
459.5232	0.0238
459.725	0.0275
459.9269	0.0248
460.1287	0.0209
460.3305	0.0206
460.5323	0.0172
460.7341	0.0289
460.9359	0.0189
461.1376	0.0244
461.3394	0.0263
461.5411	0.0205
461.7428	0.0232
461.9445	0.0208
462.1462	0.0112
462.3479	0.0162
462.5495	0.0237
462.7512	0.0254
462.9528	0.0216
463.1544	0.0207
463.356	0.0146
463.5576	0.0256
463.7592	0.0234
463.9607	0.0153
464.1623	0.011
464.3638	0.0107
464.5653	0.0219
464.7668	0.0233
464.9683	0.0177
465.1697	0.0169
465.3712	0.0101
465.5726	0.0055
465.7741	0.0264
465.9755	0.0144
466.1769	0.016
466.3782	0.0152
466.5796	0.0124
466.7809	0.0192
466.9823	0.0118
467.1836	0.0136
467.3849	0.0109
467.5862	0.002
467.7875	0.0143
467.9887	0.0117
468.19	0.014
468.3912	0.0205
468.5924	0.0099
468.7936	0.0181
468.9948	0.0045
469.196	0.0142
469.3972	0.0069
469.5983	0.0052
469.7994	0.01
470.0006	0.0067
470.2017	0.0088
470.4027	0.0231
470.6038	0.0065
470.8049	0.0084
471.0059	0.015
471.2069	0.0084
471.408	0.0133
471.6089	0.0196
471.8099	0.0053
472.0109	0.0151
472.2119	0.0235
472.4128	0.0079
472.6137	0.0093
472.8146	0.0086
473.0155	0.0219
473.2164	0.0202
473.4173	0.011
473.6181	0.0072
473.819	0.0114
474.0198	0.0052
474.2206	-0.0027
474.4214	0.0137
474.6222	-0.0058
474.8229	0.0044
475.0237	0.011
475.2244	0.0099
475.4251	0.0071
475.6258	0.0019
475.8265	0.0102
476.0272	0.0018
476.2278	0.0089
476.4285	0.0099
476.6291	0.0066
476.8297	0.0113
477.0303	-0.0006
477.2309	0.0024
477.4315	0.0092
477.632	0.0031
477.8326	0.0072
478.0331	0.0045
478.2336	0.0046
478.4341	0.0074
478.6346	0.0053
478.8351	0.0064
479.0355	0.01
479.236	0.0151
479.4364	0.0045
479.6368	0.0006
479.8372	0.0049
480.0376	0.0094
480.2379	0.0058
480.4383	0.0188
480.6386	0.0004
480.8389	0.0006
481.0392	0.0086
481.2395	0.0103
481.4398	0.0092
481.6401	0.01
481.8403	0.0076
482.0405	0.0132
482.2408	0.0075
482.441	0.0111
482.6411	0.0013
482.8413	0.0063
483.0415	0.0093
483.2416	0.0001
483.4417	0.0076
483.6419	0.0017
483.8419	0.0032
484.042	0.004
484.2421	-0.0008
484.4422	0.0008
484.6422	0.0097
484.8422	0.0084
485.0422	0.0046
485.2422	0.007
485.4422	0.0056
485.6422	0.0044
485.8421	0.0066
486.042	0.0149
486.242	0.0027
486.4419	0.0081
486.6417	0.0051
486.8416	0.0059
487.0415	0.0031
487.2413	0.0023
487.4411	0.0096
487.641	-0.0042
487.8408	0.0106
488.0405	0.0086
488.2403	0.0007
488.4401	0.0067
488.6398	0.001
488.8395	0.0074
489.0392	0.0049
489.2389	0.005
489.4386	-0.002
489.6383	0.0067
489.8379	-0.0025
490.0376	0.004
490.2372	-0.0008
490.4368	0.0003
490.6364	-0.005
490.836	-0.0056
491.0355	0.0032
491.2351	-0.0026
491.4346	0.0003
491.6341	-0.0023
491.8336	0.0022
492.0331	0.0038
492.2326	0.0028
492.432	0.0051
492.6315	0.0082
492.8309	0
493.0303	0.0066
493.2297	0.0053
493.4291	-0.0032
493.6284	0.012
493.8278	-0.0004
494.0271	0.0006
494.2264	-0.0042
494.4257	0.0084
494.625	-0.0007
494.8243	-0.0035
495.0236	-0.0003
495.2228	0.0114
495.422	0.0057
495.6213	-0.0011
495.8205	-0.002
496.0196	0.001
496.2188	-0.001
496.418	0.0044
496.6171	0.001
496.8162	0.0069
497.0153	0.0018
497.2144	0.0024
497.4135	-0.0044
497.6126	0.0006
497.8116	-0.0051
498.0107	0.0024
498.2097	0.0009
498.4087	-0.0005
498.6077	-0.0047
498.8067	0.0027
499.0056	-0.0087
499.2046	0.003
499.4035	0.0005
499.6024	-0.0068
499.8013	0.0043
500.0002	0.0019
500.199	0.0123
500.3979	-0.0072
500.5967	-0.0028
500.7956	-0.0004
500.9944	-0.0017
501.1932	0.0054
501.3919	0.005
501.5907	0.0011
501.7895	-0.0041
501.9882	-0.0005
502.1869	0.0055
502.3856	0.0029
502.5843	0.0022
502.783	0.0005
502.9816	0.0006
503.1803	0.0018
503.3789	0.008
503.5775	-0.0006
503.7761	-0.0072
503.9747	0.0071
504.1732	-0.0106
504.3718	0.0078
504.5703	0.0007
504.7689	-0.0072
504.9674	0.0021
505.1658	-0.0028
505.3643	0.0017
505.5628	0.0046
505.7612	0.0083
505.9597	-0.0064
506.1581	-0.0048
506.3565	-0.0038
506.5549	-0.0046
506.7532	-0.011
506.9516	-0.0029
507.1499	0.002
507.3482	0.0019
507.5465	0.0015
507.7448	0.0007
507.9431	0.0102
508.1414	-0.0051
508.3396	0.0037
508.5379	-0.0076
508.7361	-0.0027
508.9343	0.0084
509.1325	0.0082
509.3306	-0.0084
509.5288	-0.0095
509.7269	0.0012
509.9251	0.0042
510.1232	0.0002
510.3213	0.0031
510.5193	-0
510.7174	-0.0047
510.9154	0.0092
511.1135	-0.0033
511.3115	-0.0036
511.5095	0.0009
511.7075	-0.0068
511.9055	0.0039
512.1034	-0.0083
512.3014	-0.0032
512.4993	-0.0021
512.6972	-0.0024
512.8951	-0.0028
513.093	0.0028
513.2908	0.0113
513.4887	-0.0056
513.6865	0.001
513.8844	0.0023
514.0822	-0.0014
514.2799	-0.0123
514.4777	-0.0081
514.6755	-0.0014
514.8732	-0.0153
515.0709	-0.0006
515.2687	-0.0031
515.4664	0.0079
515.664	0.0069
515.8617	-0.0072
516.0594	0.0022
516.257	-0.0008
516.4546	0.0102
516.6522	0.0012
516.8498	0
517.0474	-0.0004
517.2449	-0.0111
517.4425	-0.0003
517.64	-0.0014
517.8375	0.0124
518.035	-0.0078
518.2325	-0.0096
518.43	-0.0044
518.6274	-0.0042
518.8249	-0.0074
519.0223	-0.0021
519.2197	-0.0058
519.4171	-0.0113
519.6145	0.0026
519.8118	-0.0062
520.0092	-0.0099
520.2065	0.0043
520.4038	-0.0079
520.6011	-0.0079
520.7984	0.0049
520.9956	0.0023
521.1929	0.0019
521.3901	-0.0047
521.5874	-0.001
521.7846	-0.0109
521.9818	-0.0044
522.1789	-0.0052
522.3761	0.0097
522.5732	-0.0026
522.7704	-0.0026
522.9675	-0.0123
523.1646	-0.0057
523.3617	0.0035
523.5587	-0.0038
523.7558	0
523.9528	0.0073
524.1498	-0.0085
524.3468	-0.0099
524.5438	0.0001
524.7408	-0.0079
524.9378	0.0063
525.1347	0.0011
525.3316	-0.0034
525.5285	-0.0081
525.7254	0.0023
525.9223	0.0012
526.1192	-0.0092
526.316	-0.0062
526.5129	-0.0006
526.7097	-0.0066
526.9065	-0.0016
527.1033	-0.0047
527.3	-0.0013
527.4968	0.0066
527.6935	-0.0116
527.8903	-0.0057
528.087	-0.0017
528.2837	0.0035
528.4804	-0.0061
528.677	-0.0021
528.8737	-0.0026
529.0703	-0.009
529.2669	0.0089
529.4635	-0.0022
529.6601	-0.0079
529.8567	-0.0116
530.0532	0.0006
530.2498	0.0002
530.4463	-0.0031
530.6428	0.0062
530.8393	0.0071
531.0358	-0.0031
531.2322	-0.0106
531.4287	-0.007
531.6251	-0.0168
531.8215	-0.0106
532.0179	-0.0023
532.2143	-0.0009
532.4107	0.0054
532.607	0.0016
532.8034	-0.0037
532.9997	-0.0062
533.196	-0.0092
533.3923	0.0086
533.5886	0.0017
533.7848	0.0028
533.9811	-0.0001
534.1773	-0.0064
534.3735	0.0048
534.5697	-0.0003
534.7659	0.0151
534.9621	-0.0044
535.1582	0.0035
535.3544	0.0066
535.5505	0.0042
535.7466	0.001
535.9427	0.0035
536.1387	-0.0013
536.3348	0.0057
536.5308	-0.0005
536.7269	-0.0068
536.9229	0.0006
537.1189	-0.0005
537.3148	-0.0035
537.5108	0.0076
537.7068	0.0083
537.9027	-0.0113
538.0986	0.0039
538.2945	-0.0053
538.4904	-0.0121
538.6863	0.0058
538.8821	0.0068
539.078	-0.0025
539.2738	0.0025
539.4696	-0.0005
539.6654	-0.0002
539.8611	0.0035
540.0569	-0.0007
540.2526	0.0061
540.4484	-0.0072
540.6441	0.0003
540.8398	0.0036
541.0355	-0.0086
541.2311	-0.004
541.4268	0.0073
541.6224	0.0108
541.818	-0.0015
542.0136	0.003
542.2092	0.0006
542.4048	0.0045
542.6003	-0.0056
542.7959	-0.0001
542.9914	-0.0014
543.1869	0.0069
543.3824	-0.0029
543.5779	0.0087
543.7734	0.0141
543.9688	-0.0012
544.1642	0.0019
544.3596	0.0001
544.555	0.0056
544.7504	0.0004
544.9458	0.0022
545.1411	-0.003
545.3365	-0.0021
545.5318	0.0103
545.7271	0.0033
545.9224	0.0019
546.1177	0.0073
546.3129	-0.0019
546.5081	-0.0063
546.7034	-0.0002
546.8986	-0.0026
547.0938	0.0005
547.289	0.006
547.4841	0.0098
547.6793	0.0017
547.8744	0.0053
548.0695	-0.0008
548.2646	0.0014
548.4597	-0.0059
548.6548	0.0082
548.8498	0.0065
549.0448	0.0009
549.2399	0.0134
549.4349	0.002
549.6298	0.0075
549.8248	-0.0054
550.0198	0.0055
550.2147	0.0032
550.4096	-0.003
550.6045	0.0044
550.7994	0.0003
550.9943	0.0073
551.1892	-0.0158
551.384	0.01
551.5788	0.0038
551.7737	0.0088
551.9685	-0.0043
552.1632	-0.0035
552.358	-0.0003
552.5528	0.0061
552.7475	0.0056
552.9422	0.0122
553.1369	0.0046
553.3316	0.0034
553.5263	0.0164
553.7209	0.0097
553.9156	0.0023
554.1102	0.0042
554.3048	-0.0057
554.4994	-0.0001
554.694	0.0005
554.8885	0.0055
555.0831	0.0056
555.2776	0.0014
555.4721	0.0085
555.6666	0.0057
555.8611	0.0083
556.0555	0.0048
556.25	0.0058
556.4444	-0.0032
556.6388	0.0095
556.8332	0.002
557.0276	0.0058
557.222	0.0018
557.4163	0.0064
557.6107	0.0024
557.805	-0.01
557.9993	0.0051
558.1936	-0.0013
558.3879	0.0062
558.5821	0.0004
558.7764	-0.0023
558.9706	0.0015
559.1648	0.0047
559.359	-0.0051
559.5532	-0.0094
559.7473	-0.0005
559.9415	0.001
560.1356	0.0133
560.3297	-0.0049
560.5238	-0.0001
560.7179	-0.0041
560.9119	0.0015
561.106	0.0015
561.3	0.0054
561.494	-0.0167
561.688	0.0006
561.882	0.0001
562.076	-0.0001
562.2699	0.012
562.4639	0.0089
562.6578	0.0118
562.8517	-0.0039
563.0456	0.004
563.2395	0.0145
563.4333	0.0049
563.6272	-0.0004
563.821	0.0009
564.0148	-0.0006
564.2086	0.0015
564.4024	0.0067
564.5961	0.0133
564.7899	0.009
564.9836	0.004
565.1773	0.011
565.371	0.0068
565.5647	0.0044
565.7584	0.0071
565.952	0.0094
566.1456	0.0045
566.3393	0.0111
566.5329	0.0054
566.7264	0.007
566.92	0.0029
567.1136	-0.0024
567.3071	-0.0022
567.5006	0.0046
567.6941	0.0018
567.8876	0.003
568.0811	0.0236
568.2745	0.0054
568.468	0.0041
568.6614	0.0108
568.8548	0.01
569.0482	0.0014
569.2416	0.0095
569.4349	0.0015
569.6283	0.0036
569.8216	0.0028
570.0149	0.0022
570.2082	0.0117
570.4015	0.0059
570.5947	0.0116
570.788	0.012
570.9812	0.0017
571.1744	0.0082
571.3676	0.0051
571.5608	0.0037
571.754	0.0157
571.9471	0.0104
572.1402	0.0072
572.3333	0.0122
572.5264	0.0048
572.7195	0.0066
572.9126	0.0065
573.1057	0.0094
573.2987	0.007
573.4917	0.0064
573.6847	0.0029
573.8777	0.0088
574.0707	0.0088
574.2636	0.0088
574.4566	0.008
574.6495	0.007
574.8424	0.0113
575.0353	0.0106
575.2281	0.0157
575.421	0.0048
575.6138	0.0046
575.8067	0.0131
575.9995	0.0054
576.1923	0.0088
576.385	0.0077
576.5778	0.0095
576.7706	0.007
576.9633	0.0092
577.156	-0.0001
577.3487	0.0059
577.5414	0.0061
577.734	0.0049
577.9267	0.0104
578.1193	0.0112
578.3119	0.0041
578.5045	0.0099
578.6971	0.0026
578.8897	0.0059
579.0822	0.0081
579.2747	0.0067
579.4673	0.003
579.6598	0.0106
579.8522	0.0082
580.0447	0.0133
580.2372	0.0129
580.4296	0.0119
580.622	0.0051
580.8144	0.0081
581.0068	0.0072
581.1992	0.0074
581.3915	0
581.5839	0.0065
581.7762	0.0052
581.9685	0.008
582.1608	0.0031
582.353	0.0073
582.5453	0.0124
582.7375	0.0105
582.9298	0.004
583.122	0.0053
583.3142	0.0142
583.5063	0.0058
583.6985	0.003
583.8906	0.0081
584.0827	0.0063
584.2749	0.0046
584.4669	0.0051
584.659	0.0111
584.8511	0.0121
585.0431	0.0118
585.2352	0.0101
585.4272	0.0096
585.6192	0.0102
585.8111	0.0093
586.0031	0.0069
586.195	0.0021
586.387	0.0068
586.5789	0.0093
586.7708	0.0102
586.9627	0.0112
587.1545	0.0071
587.3464	0.0123
587.5382	0.0076
587.73	0.0099
587.9218	0.0069
588.1136	0.0028
588.3053	0.0064
588.4971	0.0083
588.6888	0.0099
588.8805	0.0029
589.0722	0.0098
589.2639	0.0073
589.4556	0.0118
589.6472	0.0134
589.8389	0.0079
590.0305	0.0003
590.2221	0.0125
590.4137	0.0085
590.6052	0.0053
590.7968	0.0087
590.9883	0.007
591.1798	0.0035
591.3713	0.0087
591.5628	0.0077
591.7543	0.0098
591.9458	0.006
592.1372	0.0052
592.3286	0.0073
592.52	0.01
592.7114	0.0022
592.9028	0.0154
593.0941	0.0062
593.2855	0.0038
593.4768	0.0131
593.6681	0.0135
593.8594	0.0069
594.0506	0.0018
594.2419	0.011
594.4331	0.007
594.6244	-0.0033
594.8156	0.001
595.0067	0.0052
595.1979	0.0019
595.3891	0.0094
595.5802	0.0116
595.7713	0.011
595.9624	0.0172
596.1535	0.0089
596.3446	0.0069
596.5357	0.0063
596.7267	0.0055
596.9177	0.0063
597.1087	0.0026
597.2997	0.0046
597.4907	0.0016
597.6817	0.0108
597.8726	0.007
598.0635	0.0047
598.2544	0.0154
598.4453	0.0045
598.6362	0.0074
598.827	0.0079
599.0179	0.0074
599.2087	0.015
599.3995	0.0088
599.5903	0.0079
599.7811	0.0143
599.9718	0.0037
600.1626	0.0044
600.3533	0.0069
600.544	0.0053
600.7347	0.0052
600.9254	0.0098
601.116	0.001
601.3067	0.0064
601.4973	0.013
601.6879	0.0098
601.8785	0.011
602.0691	0.0067
602.2596	0.0082
602.4502	0.0132
602.6407	0.0048
602.8312	0.0061
603.0217	0.0052
603.2122	0.0042
603.4027	0.0097
603.5931	0.0022
603.7835	0.0106
603.9739	0.0042
604.1643	0.0097
604.3547	0.0103
604.5451	0.0103
604.7354	-0.003
604.9257	0.0022
605.116	0.0037
605.3063	0.0069
605.4966	0.0046
605.6869	0.014
605.8771	0.0095
606.0673	0.0081
606.2575	0.0044
606.4477	0.0122
606.6379	-0.0004
606.8281	0.004
607.0182	0.0055
607.2083	0.0065
607.3985	0.0047
607.5885	0.009
607.7786	0.0105
607.9687	0.0113
608.1587	0.0097
608.3488	0.0064
608.5388	0.0009
608.7288	-0.0021
608.9187	0.0054
609.1087	0.004
609.2986	0.0136
609.4886	0.006
609.6785	0.0109
609.8684	0.0061
610.0582	0.0044
610.2481	0.0067
610.4379	0.0154
610.6278	0.0028
610.8176	0.0161
611.0074	0.0051
611.1971	0.0041
611.3869	0.0089
611.5766	-0.0011
611.7664	0.0117
611.9561	0.0093
612.1458	0.0115
612.3354	0.0053
612.5251	0.0042
612.7147	0.0169
612.9044	0.0037
613.094	0.0073
613.2836	0.0013
613.4731	0.0014
613.6627	0.0142
613.8522	0.0164
614.0417	0.0073
614.2313	0.0062
614.4207	0.0106
614.6102	0.0105
614.7997	0.0114
614.9891	0.0096
615.1785	0.0011
615.3679	0.0111
615.5573	0.0124
615.7467	0.0052
615.9361	0.0072
616.1254	0.0124
616.3147	0.0098
616.504	0.0057
616.6933	0.0096
616.8826	0.01
617.0718	0.0046
617.2611	0.0047
617.4503	0.0034
617.6395	0.0104
617.8287	0.0054
618.0179	0.0084
618.207	0.0131
618.3961	0.0005
618.5853	0.0019
618.7744	0.013
618.9634	0.017
619.1525	0.0081
619.3416	0.0045
619.5306	0.0154
619.7196	0.0129
619.9086	0.003
620.0976	-0.0038
620.2866	0.0064
620.4755	0.0065
620.6645	0.0108
620.8534	0.0099
621.0423	0.0009
621.2312	-0.0017
621.42	0.0061
621.6089	0.0037
621.7977	0.0157
621.9865	0.0075
622.1753	0.0094
622.3641	0.0035
622.5529	-0.0062
622.7416	0.0024
622.9303	0.0077
623.1191	0.0021
623.3078	0.0054
623.4964	0.0028
623.6851	0.0096
623.8737	0.0005
624.0624	-0.0079
624.251	-0.0007
624.4396	0.0033
624.6282	0.0148
624.8167	0.0056
625.0053	0.0116
625.1938	0.0043
625.3823	0.0061
625.5708	0.0049
625.7593	0.0104
625.9477	0.0097
626.1362	0.0027
626.3246	0.0103
626.513	0.0116
626.7014	0.0077
626.8898	0.0103
627.0781	0.0085
627.2665	0.0136
627.4548	-0.0016
627.6431	0.0067
627.8314	0.0188
628.0197	0.0112
628.2079	-0.0056
628.3962	0.007
628.5844	0.0046
628.7726	0.0064
628.9608	0.0028
629.1489	0.0018
629.3371	-0.0006
629.5252	0.0059
629.7134	0.0002
629.9015	0.0209
630.0895	-0.0148
630.2776	0.0183
630.4657	0.0192
630.6537	0.0021
630.8417	-0.0116
631.0297	0.0004
631.2177	0.0019
631.4057	-0.0041
631.5936	0.0083
631.7815	0.0019
631.9695	0.0158
632.1574	0.018
632.3452	0.0092
632.5331	-0.0027
632.7209	0.0198
632.9088	-0.0006
633.0966	0.0285
633.2844	0.0038
633.4722	0.0198
633.6599	0.0109
633.8477	0.0084
634.0354	0.0244
634.2231	0.0051
634.4108	-0.0022
634.5985	0.0138
634.7861	0.0039
634.9738	-0.0033
635.1614	0.0037
635.349	-0.0024
635.5366	0.0021
635.7242	0.0102
635.9117	0.0015
636.0993	0.0084
636.2868	0.0049
636.4743	0.0027
636.6618	0.0015
636.8492	0.0272
637.0367	-0.0037
637.2241	0.0069
637.4115	0.0262
637.5989	0.0044
637.7863	0.0238
637.9737	-0.0067
638.161	0.0231
638.3484	-0.0056
638.5357	-0.0031
638.723	0.0175
638.9103	-0.0152
639.0975	-0.0076
639.2848	0.0226
639.472	0.0124
639.6592	-0.0123
639.8464	0.0145
640.0336	0.0132
640.2208	0.0018
640.4079	-0.0048
640.595	-0.0095
640.7821	0.0336
640.9692	0.0095
641.1563	0.0082
641.3434	-0.0005
641.5304	0.0037
641.7174	0.0146
641.9044	0.0101
642.0914	0.016
642.2784	-0.0018
642.4653	-0.006
642.6523	0.0206
642.8392	-0.0048
643.0261	0.0213
643.213	0.0133
643.3999	0.0294
643.5867	0.0008
643.7735	0.0023
643.9604	0.0203
644.1472	0.0118
644.3339	0.0022
644.5207	-0.0011
644.7075	0.0136
644.8942	0.0055
645.0809	0.0032
645.2676	-0.0162
645.4543	-0.0097
645.6409	0.0203
645.8276	0.0086
646.0142	-0.0069
646.2008	0.0031
646.3874	-0.0007
646.574	0.0117
646.7605	0.0043
646.9471	0.0054
647.1336	-0.0153
647.3201	0.0006
647.5066	0.0007
647.6931	-0.005
647.8795	0.017
648.0659	-0.0043
648.2524	0.0075
648.4388	0.0151
648.6252	0.0125
648.8115	0.0054
648.9979	0.0084
649.1842	0.0051
649.3705	0.0205
649.5568	-0.0042
649.7431	0.0009
649.9294	0.0033
650.1156	-0.0067
650.3018	0.024
650.488	0.0104
650.6742	0.0117
650.8604	0.0108
651.0466	-0.0007
651.2327	0.0029
651.4188	0.0124
651.6049	0.0089
651.791	0.0179
651.9771	0.0059
652.1632	0.0105
652.3492	0.0094
652.5352	0.0134
652.7212	-0.0058
652.9072	-0.008
653.0932	0.0026
653.2791	0.0151
653.465	0.0017
653.651	-0.0022
653.8369	0.008
654.0227	-0.0113
654.2086	0.0082
654.3944	0.0087
654.5803	0.0036
654.7661	-0.0031
654.9519	-0.0015
655.1377	0
655.3234	0
655.5092	0
655.6949	0
655.8806	0
656.0663	0
656.2519	0
656.4376	0
656.6232	0
656.8088	0
656.9945	0
657.18	0
657.3656	0
657.5511	0
657.7367	0
657.9222	0
658.1077	0
658.2932	0
658.4786	0
658.6641	0
658.8495	0
659.0349	0
659.2203	0
659.4057	0.006
659.591	0.2854
659.7764	0.0313
659.9617	0.0187
660.147	0.0078
660.3323	0.0072
660.5176	0.0102
660.7028	0.0124
660.888	0.0253
661.0733	0.0328
661.2585	0.0035
661.4436	0.0089
661.6288	0.0231
661.8139	-0.0111
661.9991	-0.0148
662.1842	0.0041
662.3693	-0.0014
662.5544	0.0289
662.7394	0.0342
662.9245	-0.0113
663.1095	-0.0002
663.2945	-0.0288
663.4795	-0.0051
663.6644	-0.002
663.8494	0.0203
664.0343	0.0122
664.2193	0.0022
664.4042	0.011
664.589	0.0155
664.7739	0.0038
664.9587	-0.0056
665.1436	0.0013
665.3284	-0.0027
665.5132	-0.0156
665.698	0.0291
665.8827	0.0167
666.0675	-0.0208
666.2522	0.0243
666.4369	-0.0044
666.6216	0.0045
666.8063	0.0142
666.9909	0.0121
667.1756	-0.0158
667.3602	-0.0038
667.5448	0.0014
667.7294	0.0131
667.9139	-0.0009
668.0985	0.027
668.283	0.0046
668.4675	0.0118
668.652	0.0342
668.8365	0.0041
669.0209	-0.0056
669.2054	0.0124
669.3898	0.0055
669.5742	0.0266
669.7586	0.0028
669.943	0.0258
670.1273	0.0001
670.3117	0.0201
670.496	0.0069
670.6803	0.0144
670.8646	-0.0151
671.0488	0.0122
671.2331	-0.0117
671.4173	0.0115
671.6015	0.0049
671.7857	0.0094
671.9699	0.0089
672.1541	0.0107
672.3382	0.0008
672.5223	0.0111
672.7064	-0.0112
672.8905	0.0154
673.0746	0.0041
673.2587	0.0258
673.4427	0.0142
673.6267	0.0171
673.8107	0.0074
673.9947	0.0018
674.1787	0.0001
674.3626	0.0286
674.5465	0.0242
674.7304	-0.0028
674.9143	-0.0047
675.0982	0.0057
675.2821	-0.0011
675.4659	-0.0136
675.6497	0.0027
675.8335	0.011
676.0173	-0.0147
676.2011	-0.0008
676.3849	0.0388
676.5686	0.0008
676.7523	-0.0042
676.936	0.0064
677.1197	-0.0021
677.3034	0.037
677.487	0.0121
677.6706	0.0016
677.8542	-0.0066
678.0378	0.0051
678.2214	0.0045
678.405	0.0221
678.5885	0.0227
678.772	0.0286
678.9555	-0.0033
679.139	0.0237
679.3225	0.0023
679.5059	0.0142
679.6894	0.0024
679.8728	0.0015
680.0562	0.0146
680.2395	0.0027
680.4229	0.0041
680.6062	0.0019
680.7896	-0.0036
680.9729	0.0164
681.1562	0.0017
681.3394	0.0181
681.5227	0.0117
681.7059	0.0188
681.8891	0.0057
682.0723	0.0004
682.2555	0.0073
682.4387	0.0349
682.6218	0.0265
682.805	0.0041
682.9881	0.017
683.1712	0.0123
683.3542	0.0233
683.5373	-0.0118
683.7203	0.0099
683.9034	-0.0096
684.0864	0.0095
684.2694	-0.0078
684.4523	0.0062
684.6353	-0.0076
684.8182	0.0097
685.0011	0.0093
685.184	0.0071
685.3669	0.0215
685.5498	0.006
685.7326	0.0001
685.9154	-0.0062
686.0982	0.0136
686.281	0.0066
686.4638	0.003
686.6465	-0.0034
686.8293	-0.0111
687.012	0.0027
687.1947	0.0157
687.3774	0.0163
687.56	-0.0164
687.7427	0.0086
687.9253	0.0001
688.1079	-0.0075
688.2905	-0.0121
688.4731	0.0275
688.6556	0.0149
688.8382	-0.0222
689.0207	0.0172
689.2032	0.0325
689.3857	-0.018
689.5681	-0.0076
689.7506	0.0281
689.933	-0.0087
690.1154	0.0004
690.2978	0.0009
690.4802	0.0114
690.6626	0.0118
690.8449	0.0156
691.0272	-0.0016
691.2095	-0.0143
691.3918	0.0145
691.5741	0.0048
691.7563	0.0202
691.9386	0.036
692.1208	0.0011
692.303	0.0113
692.4852	0.0039
692.6673	0.0022
692.8495	-0.0218
693.0316	0.0032
693.2137	0.0206
693.3958	0.0106
693.5778	0.0218
693.7599	-0.0002
693.9419	0.0085
694.1239	-0.0033
694.3059	0.0221
694.4879	0.0086
694.6699	0.0038
694.8518	0.0246
695.0337	0.0172
695.2157	0.0421
695.3975	0.0023
695.5794	-0.0087
695.7613	0.0229
695.9431	-0.0172
696.1249	0.0193
696.3067	0.0109
696.4885	0.0222
696.6703	-0.0051
696.852	0.0064
697.0337	0.006
697.2154	0.0038
697.3971	0.0154
697.5788	0.024
697.7605	-0.0014
697.9421	0.0228
698.1237	0.0268
698.3053	0.0171
698.4869	0.0044
698.6685	-0.0134
698.85	0.0127
699.0315	-0.0294
699.213	0.0224
699.3945	0.0032
699.576	0.0199
699.7575	0.0256
699.9389	0.0221
700.1203	-0.0113
700.3017	0.0121
700.4831	0.0201
700.6645	0.015
700.8458	0.0029
701.0271	0.0465
701.2084	-0.0041
701.3897	0.0176
701.571	-0.0018
701.7523	-0.0023
701.9335	0.0214
702.1147	0.0286
702.2959	0.0163
702.4771	0.0218
702.6583	0.0168
702.8394	-0.0194
703.0205	0.0051
703.2016	0.0023
703.3827	0.0044
703.5638	-0.0014
703.7449	0.0219
703.9259	0.0289
704.1069	-0.0234
704.2879	0.0222
704.4689	-0.006
704.6499	0.0221
704.8308	0.0289
705.0117	0.0441
705.1927	0.0271
705.3735	0.0099
705.5544	0.0143
705.7353	0.0065
705.9161	-0.0167
706.0969	0.0077
706.2777	0.0184
706.4585	-0.0114
706.6393	0.0115
706.82	0.0223
707.0007	0.0087
707.1815	0.0047
707.3621	0.0515
707.5428	0.0069
707.7235	-0.0031
707.9041	-0.0058
708.0847	-0.0046
708.2653	0.032
708.4459	0.0252
708.6265	0.0127
708.807	0.0078
708.9875	-0.0132
709.168	0.0033
709.3485	0.0144
709.529	0.0044
709.7095	-0.0064
709.8899	0.0037
710.0703	0.0323
710.2507	0.014
710.4311	-0.0116
710.6115	0.0191
710.7918	0.0185
710.9721	0.0096
711.1524	0.0148
711.3327	-0.0077
711.513	-0.007
711.6932	-0.0011
711.8735	0.0521
712.0537	-0.0171
712.2339	0.0116
712.4141	0.0208
712.5942	-0.005
712.7744	0.0442
712.9545	0.002
713.1346	0.0236
713.3147	0.0086
713.4947	-0.0097
713.6748	-0.0033
713.8548	0.0322
714.0348	0.0145
714.2148	0.0131
714.3948	0.0266
714.5748	0.0317
714.7547	0.0207
714.9346	0.0261
715.1145	-0.0039
715.2944	0.0001
715.4743	0.0171
715.6541	-0.0079
715.834	0.0307
716.0138	0.0327
716.1936	-0.0226
716.3733	0.0176
716.5531	-0.003
716.7328	0.0149
716.9126	0.0129
717.0923	-0.0178
717.2719	-0.0062
717.4516	0.0216
717.6312	0.0126
717.8109	0.0342
717.9905	0.0057
718.1701	0.012
718.3496	-0.0123
718.5292	0.0089
718.7087	0.0005
718.8882	0.0025
719.0677	0.0031
719.2472	0.0078
719.4267	-0.0032
719.6061	0.0036
719.7856	0.0126
719.965	-0.0127
720.1443	0.0017
720.3237	0.0109
720.5031	0.0028
720.6824	0.0036
720.8617	0.0039
721.041	0.0326
721.2203	-0.0027
721.3995	0.0137
721.5788	-0.0014
721.758	0.0073
721.9372	-0.0023
722.1164	0.0221
722.2956	0.0032
722.4747	0.0235
722.6538	0.0064
722.8329	0.0341
723.012	0.0192
723.1911	0.01
723.3702	0.0029
723.5492	0.0066
723.7282	0.0006
723.9072	0.0287
724.0862	0.0105
724.2652	0.0154
724.4441	0.0104
724.623	0.0216
724.8019	0.0132
724.9808	0.0272
725.1597	0.0094
725.3385	0.0111
725.5174	0.0167
725.6962	0.0193
725.875	0.019
726.0538	0.0196
726.2325	0.0058
726.4112	-0.027
726.59	-0.0132
726.7687	-0.0145
726.9474	0.0095
727.126	-0.0044
727.3047	-0.0069
727.4833	0.0031
727.6619	0.0048
727.8405	0.0201
728.0191	0.0239
728.1976	0.0297
728.3762	0.0188
728.5547	0.0164
728.7332	0.005
728.9116	0.0206
729.0901	0.0084
729.2686	0.0061
729.447	0.0052
729.6254	0.0151
729.8038	-0.0033
729.9821	-0.0068
730.1605	0.0046
730.3388	-0.0178
730.5171	0.0257
730.6954	0.0016
730.8737	0.0178
731.0519	0.0156
731.2302	0.0135
731.4084	0.0079
731.5866	0.0053
731.7648	-0.0035
731.9429	0.0338
732.1211	-0.0014
732.2992	0.0229
732.4773	0.0163
732.6554	0.0035
732.8335	0.0225
733.0115	0.0041
733.1896	-0.0036
733.3676	0.0043
733.5456	0.0019
733.7235	-0.0024
733.9015	0.0082
734.0794	-0.015
734.2574	-0.0161
734.4353	0.0225
734.6131	-0.0032
734.791	0.0092
734.9689	-0.0117
735.1467	-0.0065
735.3245	0.0249
735.5023	-0.0013
735.68	0.0162
735.8578	0.023
736.0355	-0.0004
736.2132	0.0184
736.3909	0.0266
736.5686	0.0045
736.7463	-0.0204
736.9239	0.0165
737.1015	0.0209
737.2791	0.0297
737.4567	0.0171
737.6343	0.0304
737.8118	0.0338
737.9894	0.0086
738.1669	0.0048
738.3444	0.0328
738.5218	-0.0011
738.6993	-0.006
738.8767	0.0115
739.0541	0.0013
739.2315	-0.0127
739.4089	0.008
739.5863	0.0062
739.7636	0.005
739.9409	0.0119
740.1182	0.0146
740.2955	0.0052
740.4728	0.0067
740.65	-0.0145
740.8272	0.036
741.0044	0.0055
741.1816	0.0096
741.3588	-0.0276
741.5359	0.0165
741.7131	0.0041
741.8902	0.0006
742.0673	-0.0173
742.2444	0.0057
742.4214	0.027
742.5985	0.0052
742.7755	0.0019
742.9525	-0.0223
743.1295	-0.02
743.3064	0.0011
743.4834	0.0007
743.6603	0.0224
743.8372	-0.0255
744.0141	0.0247
744.191	0.0125
744.3678	-0.0236
744.5446	0.0011
744.7215	-0.013
744.8982	0.0286
745.075	0.0433
745.2518	0.0121
745.4285	0.0372
745.6052	-0.0375
745.7819	0.0044
745.9586	0.0074
746.1353	-0.0251
746.3119	0.0054
746.4885	0.0371
746.6651	0.0204
746.8417	-0.0049
747.0183	0.0018
747.1948	0.0137
747.3714	0.0323
747.5479	0.0359
747.7244	-0.0186
747.9008	0.032
748.0773	0.0202
748.2537	0.0431
748.4301	0.0293
748.6065	-0.0083
748.7829	-0.0347
748.9593	-0.0044
749.1356	0.0144
749.3119	0.0124
749.4882	0.0007
749.6645	0.0198
749.8408	0.0166
750.017	0.037
750.1933	-0.0142
750.3695	0.0253
750.5457	0.0049
750.7218	-0.0005
750.898	-0.018
751.0741	-0.0075
751.2502	0.0187
751.4263	0.0068
751.6024	0.0079
751.7784	-0.0096
751.9545	-0.0079
752.1305	0.012
752.3065	0.0017
752.4825	0.0295
752.6584	0.0242
752.8344	-0.0032
753.0103	-0.0116
753.1862	0.0289
753.3621	-0.0125
753.5379	-0.0012
753.7138	0.0128
753.8896	0.0155
754.0654	-0.0086
754.2412	0.0354
754.417	0.012
754.5927	-0.0019
754.7685	0.012
754.9442	0.0115
755.1199	0.0167
755.2956	0.0167
755.4712	0.0052
755.6469	-0.0016
755.8225	0.0271
755.9981	0.0189
756.1736	0.0138
756.3492	0.0109
756.5248	0.0418
756.7003	0.0014
756.8758	0.0182
757.0513	-0.0073
757.2267	0.0176
757.4022	-0.0023
757.5776	0.0089
757.753	0.0186
757.9284	0.0176
758.1038	0.0237
758.2791	0.0121
758.4545	0.0115
758.6298	0.0017
758.8051	0.0156
758.9803	0.009
759.1556	-0.006
759.3308	0.0035
759.506	0.007
759.6812	0.0242
759.8564	-0.0107
760.0316	-0.0012
760.2067	0.0215
760.3819	0.0134
760.557	0.0039
760.732	0.0096
760.9071	0.0001
761.0821	-0.0221
761.2572	0.0141
761.4322	0.0307
761.6072	0.0164
761.7821	-0.0265
761.9571	0.0055
762.132	0.0192
762.3069	0.0338
762.4818	0.0346
762.6567	-0.0039
762.8316	0.0306
763.0064	0.0312
763.1812	0.009
763.356	-0.0161
763.5308	0.0117
763.7055	0.0121
763.8803	0.0231
764.055	0.0011
764.2297	-0.0138
764.4044	-0.0063
764.579	0.0019
764.7537	0.0076
764.9283	0.0157
765.1029	0.0039
765.2775	0.0088
765.4521	0.0203
765.6266	0.0099
765.8011	0.0049
765.9756	0.0137
766.1501	0.0217
766.3246	-0.0057
766.4991	0.0233
766.6735	0.0331
766.8479	0.0099
767.0223	0.004
767.1967	0.0373
767.371	0.0306
767.5454	0.0373
767.7197	0.0721
767.894	0.0062
768.0683	0.0121
768.2425	0.0029
768.4168	0.0366
768.591	0.0082
768.7652	0.0285
768.9394	-0.0048
769.1135	-0.0169
769.2877	0.0043
769.4618	0.057
769.6359	0.0128
769.81	-0.0023
769.984	0.0016
770.1581	0.0185
770.3321	0.0333
770.5061	-0.0098
770.6801	0.0178
770.8541	0.0209
771.028	0.0176
771.202	0.0284
771.3759	0.0398
771.5498	0.0103
771.7236	0.0024
771.8975	0.0513
772.0713	0.0136
772.2451	0.0125
772.4189	0.0414
772.5927	-0.008
772.7665	-0.0038
772.9402	0.0044
773.1139	-0.0096
773.2876	0.0035
773.4613	0.0228
773.635	0.0234
773.8086	0.0245
773.9822	0.041
774.1558	0.0632
774.3294	-0.0099
774.503	0.0326
774.6765	0.0439
774.8501	-0.0011
775.0236	0.0548
775.1971	-0.0433
775.3705	0.0113
775.544	-0.0147
775.7174	0.0423
775.8908	0.0181
776.0642	0.0231
776.2376	0.0104
776.4109	-0.0359
776.5843	0.0201
776.7576	0.0411
776.9309	0.0563
777.1041	-0.0197
777.2774	0.0365
777.4506	0.0304
777.6238	0.0228
777.797	0.0182
777.9702	-0.0011
778.1434	0.009
778.3165	-0.0004
778.4896	0.0051
778.6627	0.0295
778.8358	0.0185
779.0089	0.0087
779.1819	0.016
779.3549	0.0228
779.5279	-0.0024
779.7009	0.023
779.8739	0.0544
780.0468	0.0325
780.2197	0.0049
780.3926	-0.0089
780.5655	0.0089
780.7384	0.0333
780.9112	0.0456
781.0841	0.01
781.2569	-0.0016
781.4297	-0.0003
781.6024	0.0293
781.7752	0.0474
781.9479	0.0398
782.1206	0.0114
782.2933	0.0338
782.466	0.0351
782.6386	-0.0049
782.8113	0.0359
782.9839	0.0357
783.1565	0.0641
783.329	0.0043
783.5016	0.0053
783.6741	-0.004
783.8466	0.0236
784.0191	0.0366
784.1916	-0.0309
784.3641	-0.0094
784.5365	0.0205
784.7089	-0.0249
784.8813	0.0666
785.0537	0.0149
785.2261	0.0325
785.3984	0.0128
785.5707	0.0277
785.743	0.0538
785.9153	-0.0552
786.0876	0.0041
786.2598	0.0108
786.432	0.0161
786.6042	0.0588
786.7764	-0.0169
786.9486	-0.0053
787.1207	0.0198
787.2928	0.0417
787.4649	0.0147
787.637	0.0288
787.8091	0.0324
787.9811	0.0448
788.1532	-0.0032
788.3252	0.0049
788.4972	0.0119
788.6691	0.0097
788.8411	0.0224
789.013	0.0155
789.1849	0.0206
789.3568	0.0082
789.5287	0.0734
789.7005	-0.0155
789.8723	0.0294
790.0442	-0.0201
790.2159	-0.0058
790.3877	0.0403
790.5595	0.0119
790.7312	0.0023
790.9029	-0.0148
791.0746	0.0201
791.2463	-0.0212
791.4179	0.0298
791.5896	0.0373
791.7612	0.049
791.9328	-0.0094
792.1044	0.0096
792.2759	-0.0608
792.4474	-0.0167
792.619	0.0298
792.7905	0.0536
792.9619	0.0293
793.1334	0.0473
793.3048	0.0671
793.4762	0.0054
793.6476	-0.0251
793.819	-0.0031
793.9904	-0.0022
794.1617	-0.0145
794.333	-0.0273
794.5043	0.0077
794.6756	-0.0084
794.8469	0.0132
795.0181	0.0261
795.1893	0.0595
795.3605	-0.0059
795.5317	0.0437
795.7029	-0.0081
795.874	-0.0153
796.0452	0.0408
796.2163	0.0485
796.3873	0.0684
796.5584	0.0855
796.7294	0.0266
796.9005	0.0109
797.0715	0.056
797.2425	0.0938
797.4134	0.0359
797.5844	0.0079
797.7553	-0.0394
797.9262	0.0669
798.0971	0.0664
798.2679	-0.0092
798.4388	0.0405
798.6096	0.0073
798.7804	0.0577
798.9512	-0.0145
799.122	-0.0245
799.2927	-0.0141
799.4635	-0.0446
799.6342	0.0491
799.8049	0.0434
799.9755	-0.0914
800.1462	-0.0311
800.3168	0.0152
800.4874	-0.0201
800.658	0.0043
800.8286	0.0428
800.9991	0.0069
801.1696	-0.0152
801.3402	-0.1057
801.5106	-0.0239
801.6811	0.0416
801.8516	0.0774
802.022	0.036
802.1924	-0.0523
802.3628	0.0187
802.5332	0.0975
802.7035	0.0803
802.8739	-0.0221
803.0442	0.0082
803.2145	0.0715
803.3847	0.0021
803.555	0.0848
803.7252	0.0078
803.8954	0.0777
804.0656	0.0335
804.2358	0.0231
804.4059	0.0514
804.5761	0.0572
804.7462	-0.0147
804.9163	-0.0328
805.0864	-0.0744
805.2564	-0.0197
805.4264	0.0039
805.5965	0.0434
805.7665	0.002
805.9364	0.0068
806.1064	0.0421
806.2763	0.0296
806.4462	0.0078
806.6161	0.0504
806.786	0.0044
806.9559	0.0233
807.1257	0.0543
807.2955	0.0072
807.4653	-0.0032
807.6351	0.0482
807.8048	-0.0143
807.9746	0.049
808.1443	0.0045
808.314	0.0883
808.4837	0.0948
808.6533	0.0132
808.8229	0.0089
808.9926	0.0601
809.1622	-0.0213
809.3317	-0.0528
809.5013	-0.0084
809.6708	0.0123
809.8403	-0.0216
810.0098	-0.0891
810.1793	0.1124
810.3488	-0.0381
810.5182	0.1195
810.6876	0.0205
810.857	-0.0434
811.0264	-0.1079
811.1958	0.0344
811.3651	0.0055
811.5344	0.145
811.7037	0.1397
811.873	0.0674
812.0422	-0.0692
812.2115	0.0297
812.3807	0.1035
812.5499	-0.0316
812.7191	-0.015
812.8882	-0.0576
813.0574	-0.1011
813.2265	-0.0072
813.3956	0.0377
813.5646	0.0193
813.7337	0.0042
813.9027	0.0069
814.0718	0.0449
814.2407	0.0816
814.4097	0.044
814.5787	0.052
814.7476	0.0449
814.9165	0.0659
815.0854	-0.0251
815.2543	0.0055
815.4232	0.1506
815.592	0.0488
815.7608	-0.0626
815.9296	0.0608
816.0984	-0.0127
816.2671	-0.214
816.4359	0.2334
816.6046	0.0166
816.7733	-0.0567
816.942	0.0285
817.1106	0.0868
817.2793	-0.0508
817.4479	0.0402
817.6165	0.085
817.785	0.088
817.9536	-0.0627
818.1221	-0.0075
818.2906	-0.0785
818.4591	0.0427
818.6276	0.0132
818.7961	-0.0854
818.9645	-0.0042
819.1329	0.0274
819.3013	-0.0775
819.4697	-0.0959
819.638	0.1383
819.8064	-0.0685
819.9747	0.0213
820.143	0.0175
820.3113	0.0689
820.4795	-0.0178
820.6477	0.0547
820.816	0.0639
820.9842	0.0334
821.1523	0.0125
821.3205	-0.0633
821.4886	-0.0214
821.6567	0.0205
821.8248	0.1541
821.9929	-0.086
822.1609	0.0662
822.329	0.007
822.497	0.0288
822.665	0.0382
822.833	0.0325
823.0009	0.0228
823.1688	0.0804
823.3367	-0.1431
823.5046	-0.023
823.6725	-0.085
823.8404	0.0691
824.0082	-0.1155
824.176	-0.1638
824.3438	0.0937
824.5116	-0.0329
824.6793	0.1567
824.847	-0.137
825.0147	0.1507
825.1824	-0.0123
825.3501	-0.0806
825.5177	-0.0092
825.6854	-0.184
825.853	-0.0483
826.0206	0.0591
826.1881	0.1369
826.3557	0.1427
826.5232	0.1431
826.6907	0.1255
826.8582	0.1024
827.0257	0.0424
827.1931	0.0354
827.3605	-0.0248
827.528	0.0399
827.6953	-0.2415
827.8627	-0.1357
828.03	0.0744
828.1974	-0.0729
828.3647	0.0557
828.532	0.0782
828.6992	0.092
828.8665	-0.166
829.0337	0.2288
829.2009	-0.0254
829.3681	-0.0721
829.5352	-0.3338
829.7024	0.0239
829.8695	0.0712
830.0366	0.1227
830.2037	-0.0426
830.3707	0.0571
830.5378	-0.131
830.7048	-0.1599
830.8718	0.0146
831.0388	-0.0981
831.2057	-0.052
831.3727	-0.2125
831.5396	-0.008
831.7065	-0.8382
831.8734	0.6317
832.0402	0.3076
832.2071	-0
832.3739	-0.2527
832.5407	-2.0487
832.7075	-0.3694
832.8742	0.1011
833.041	-0.0033
833.2077	0.4314
833.3744	-0.0186
833.541	0.1633
833.7077	0.0213
833.8743	0.023
834.0409	0.0714
834.2075	0.2389
834.3741	-0.1309
834.5407	0.0087
834.7072	0.1891
834.8737	0.0787
835.0402	0.1149
835.2067	0.0297
835.3731	0.1561
835.5395	-0.0948
835.706	-0.3015
835.8723	-0.1554
836.0387	0.2065
836.2051	0.8687
836.3714	-0.1424
836.5377	0.0536
836.704	0.2004
836.8703	-0.0338
837.0365	-0.4266
837.2027	0.0814
837.3689	0.1313
837.5351	0.6742
837.7013	-0.3703
837.8674	-0.5066
838.0335	-0.1616
838.1997	0.124
838.3657	0.0735
838.5318	-0
838.6978	0.3022
838.8639	-0.4887
839.0299	0.0936
839.1958	0.0252
839.3618	0.3021
839.5277	0.0352
839.6937	-0.0171
839.8596	-0.0568
840.0254	0.0569
840.1913	-0.1042
840.3571	-0.2811
840.523	-0
840.6888	0.2661
840.8545	0.4437
841.0203	0.0712
841.186	0.1966
841.3517	-0.2083
841.5174	0.4659
841.6831	-0.169
841.8488	0.1077
842.0144	1.297
842.18	0.5312
842.3456	-0.494
842.5112	-0.8377
842.6767	0.1669
842.8422	0.1586
843.0077	0.1109
843.1732	-0.4664
843.3387	-0.1329
843.5042	-0
843.6696	-0.0246
843.835	-0.0204
844.0004	-0.2112
844.1657	-0.9837
844.3311	-0
844.4964	-0.5749
844.6617	0.2803
844.827	-0
844.9923	0.2021
845.1575	-0.2257
845.3227	-0.2813
845.4879	-0.0116
845.6531	0.4666
845.8183	-0.1236
845.9834	-0
846.1485	0.3875
846.3136	-0.0709
846.4787	0.0261
846.6438	-0.3016
846.8088	-0
846.9738	1.2632
847.1388	0.0774
847.3038	0.483
847.4687	0.3983
847.6337	-0.2598
847.7986	-0.1299
847.9635	-0.1643
848.1284	-0
848.2932	2.347
848.458	-0
848.6228	-0
848.7876	-0
848.9524	-0.5321
849.1172	-2.1545
849.2819	-0
849.4466	2.4569
849.6113	0.0831
849.7759	-0
849.9406	0.1175
850.1052	-1.0113
850.2698	-0.1864
850.4344	-0
850.599	-0
850.7635	0.4932
850.928	0.2177
851.0925	0.0526
851.257	0.5965
851.4215	0.6251
851.5859	0.181
851.7503	-0
851.9147	-0.5625
852.0791	-0.1608
852.2434	0.6401
852.4078	-0
852.5721	1.0491
852.7364	0.1836
852.9007	0.0397
853.0649	-0
853.2291	0.0744
853.3934	-0
853.5575	-0.0188
853.7217	0.2247
853.8859	-0.6498
854.05	-0.174
854.2141	-0
854.3782	0.2247
854.5423	-0
854.7063	0.2329
854.8703	-0.005
855.0343	-0.0759
855.1983	0.1665
855.3623	0.029
855.5262	-0
855.6901	0.4038
855.854	-0.0536
856.0179	-0.1305
856.1818	-0
856.3456	0.49
856.5094	0.2135
856.6732	-0
856.837	-1.0388
857.0008	0.3053
857.1645	0.3257
857.3282	-0.1206
857.4919	0.2642
857.6556	0.5249
857.8192	-0.0179
857.9828	0.0517
858.1465	-0.0565
858.31	0.039
858.4736	-0.2553
858.6372	-0.2394
858.8007	-0
858.9642	0.7903
859.1277	0.3783
859.2911	-0.1738
859.4546	-1.0569
859.618	0.0193
859.7814	-0.1705
859.9448	-0
860.1081	-0
860.2715	-0
860.4348	-0.0085
860.5981	0.1007
860.7614	-0.7507
860.9246	0.0908
861.0879	-0
861.2511	-0
861.4143	-0.9646
861.5774	-0.2352
861.7406	-0.3403
861.9037	-0
862.0668	-0.8606
862.2299	-0
862.393	-0
862.556	-0
862.7191	-0.1547
862.8821	0.2335
863.0451	-0.0806
863.208	-0.3663
863.371	-0.4511
863.5339	0.5394
863.6968	0.173
863.8597	-0.1921
864.0225	-0.1813
864.1854	-0.447
864.3482	-0.3837
864.511	0.3917
864.6737	0.2983
864.8365	0.1242
864.9992	-0
865.1619	0.5643
865.3246	-1.8388
865.4873	-0.6419
865.65	0.1314
865.8126	0.1856
865.9752	0.0633
866.1378	-0.2047
866.3004	0.0051
866.4629	-1.9604
866.6254	-0
866.7879	0.8016
866.9504	-0
867.1129	-0
867.2753	-0.3382
867.4377	-0.0246
867.6001	-0.1804
867.7625	0.0149
867.9249	0.7254
868.0872	0.4454
868.2495	-0
868.4118	-0
868.5741	0.1378
868.7363	-0.5719
868.8986	-0
869.0608	-0
869.223	0.2727
869.3851	-0
869.5473	-0.0759
869.7094	-0
869.8715	-1.0611
870.0336	-0.0036
870.1957	-0.0404
870.3577	-0.1078
870.5197	-0.0787
870.6817	-0.2327
870.8437	1.2937
871.0057	-0.1559
871.1676	0.4963
871.3295	-0
871.4914	-0
871.6533	0.0221
871.8151	0.499
871.977	1.0958
872.1388	-0
872.3006	-0.0224
872.4623	0.0983
872.6241	-0.0484
872.7858	0.4748
872.9475	0.3986
873.1092	-0.0069
873.2709	0.6341
873.4325	-1.9438
873.5941	-0
873.7557	-0
873.9173	0.02
874.0789	0.163
874.2404	-0
874.4019	-0.0552
874.5634	-0
874.7249	0.0688
874.8863	-0
875.0478	-0.2448
875.2092	0.725
875.3706	0.4534
875.5319	-0.3487
875.6933	-0.0856
875.8546	-0
876.0159	0.9568
876.1772	-0
876.3385	-0
876.4997	-0
876.6609	-0
876.8221	1.2401
876.9833	-0
877.1445	0.3093
877.3056	-0
877.4667	-0.7394
877.6278	0.8977
877.7889	-0
877.9499	-0
878.111	-0.2715
878.272	-0
878.433	-0.1492
878.5939	0.7623
878.7549	0.6635
878.9158	0.2252
879.0767	-0
879.2376	0.4714
879.3984	0.4833
879.5593	0.2891
879.7201	-1.3563
879.8809	-0
880.0417	-0.2796
880.2024	-0.1437
880.3632	-0.6625
880.5239	0.2886
880.6846	0.3053
880.8452	0.0653
881.0059	0.06
881.1665	0.328
881.3271	0.1638
881.4877	0.7292
881.6483	-0.8801
881.8088	-0
881.9693	-0
882.1298	-0
882.2903	-0
