Data from D4ACN5uM420nmA_Absorbance_14-37-07-662.txt Node
Date: Fri Feb 21 14:37:07 GMT 2025
User: LASERRRRR
Spectrometer: FLMT03099
Trigger mode: 0
Integration Time (sec): 1.500000E-2
Scans to average: 1
Electric dark correction enabled: true
Nonlinearity correction enabled: false
Boxcar width: 0
XAxis mode: Wavelengths
Number of Pixels in Spectrum: 3648
>>>>>Begin Spectral Data<<<<<
179.3399	-0
179.5586	-0
179.7771	-0
179.9957	-0.1858
180.2143	-0
180.4329	0.5878
180.6514	-0
180.8699	-0
181.0885	-0.3862
181.307	-0
181.5255	0.4272
181.744	-0
181.9625	0.3109
182.181	0.4081
182.3994	0.333
182.6179	-0
182.8363	-0
183.0547	0.5681
183.2732	0.0146
183.4916	0.2726
183.71	0.379
183.9284	0.0977
184.1467	0.1802
184.3651	0.244
184.5835	0.1167
184.8018	-0.0574
185.0201	0.3201
185.2385	0.2002
185.4568	-0.0354
185.6751	0.2024
185.8934	0.1372
186.1117	-0.2643
186.3299	0.033
186.5482	0.4585
186.7664	0.0289
186.9847	-0.0578
187.2029	0.1542
187.4211	0.0446
187.6393	0.3099
187.8575	0.1921
188.0757	0.7785
188.2939	-0.0089
188.512	0.3872
188.7302	0.2107
188.9483	0.3714
189.1665	0.2379
189.3846	0.0533
189.6027	0.1118
189.8208	0.0766
190.0389	0.0744
190.257	0.0391
190.475	-0.085
190.6931	0.0311
190.9111	0.1645
191.1292	0.092
191.3472	0.1394
191.5652	0.1734
191.7832	0.0765
192.0012	0.2641
192.2192	0.1053
192.4371	0.1174
192.6551	0.0964
192.873	0.1003
193.091	0.1032
193.3089	0.3179
193.5268	0.2478
193.7447	0.1881
193.9626	0.1434
194.1805	0.1416
194.3984	0.1895
194.6162	0.2376
194.8341	0.3411
195.0519	0.2252
195.2697	0.2297
195.4875	0.272
195.7054	0.2596
195.9231	0.2371
196.1409	0.2968
196.3587	0.2929
196.5765	0.2505
196.7942	0.2555
197.012	0.3132
197.2297	0.3388
197.4474	0.3936
197.6651	0.2919
197.8828	0.3043
198.1005	0.3933
198.3182	0.3341
198.5358	0.3321
198.7535	0.3735
198.9711	0.3733
199.1888	0.3397
199.4064	0.4334
199.624	0.376
199.8416	0.3682
200.0592	0.3506
200.2767	0.3877
200.4943	0.4317
200.7119	0.3498
200.9294	0.368
201.1469	0.3884
201.3645	0.4127
201.582	0.412
201.7995	0.3747
202.017	0.4066
202.2344	0.3964
202.4519	0.3649
202.6694	0.4005
202.8868	0.3648
203.1042	0.4225
203.3217	0.3999
203.5391	0.3573
203.7565	0.3715
203.9739	0.3699
204.1913	0.3526
204.4086	0.3426
204.626	0.3562
204.8433	0.3535
205.0607	0.3389
205.278	0.2954
205.4953	0.3366
205.7126	0.3402
205.9299	0.326
206.1472	0.3559
206.3644	0.3165
206.5817	0.2981
206.7989	0.3522
207.0162	0.2928
207.2334	0.3437
207.4506	0.2849
207.6678	0.3014
207.885	0.3108
208.1022	0.3008
208.3194	0.3004
208.5365	0.2931
208.7537	0.2737
208.9708	0.3014
209.1879	0.2981
209.405	0.2712
209.6222	0.2662
209.8392	0.3054
210.0563	0.2899
210.2734	0.2433
210.4905	0.275
210.7075	0.265
210.9245	0.2616
211.1416	0.2713
211.3586	0.2779
211.5756	0.263
211.7926	0.2762
212.0096	0.2404
212.2265	0.268
212.4435	0.2556
212.6604	0.2495
212.8774	0.2319
213.0943	0.253
213.3112	0.2462
213.5281	0.2338
213.745	0.2321
213.9619	0.2303
214.1788	0.2534
214.3956	0.2492
214.6125	0.2608
214.8293	0.2297
215.0461	0.2521
215.2629	0.2532
215.4798	0.2443
215.6965	0.2339
215.9133	0.2287
216.1301	0.249
216.3469	0.244
216.5636	0.2416
216.7803	0.2606
216.9971	0.2575
217.2138	0.2483
217.4305	0.2427
217.6472	0.2456
217.8639	0.2374
218.0805	0.2653
218.2972	0.2457
218.5138	0.2534
218.7305	0.2632
218.9471	0.2398
219.1637	0.258
219.3803	0.2534
219.5969	0.2458
219.8135	0.2551
220.0301	0.2538
220.2466	0.2527
220.4632	0.2521
220.6797	0.2646
220.8962	0.2583
221.1127	0.2707
221.3292	0.269
221.5457	0.2707
221.7622	0.2618
221.9787	0.2857
222.1951	0.2734
222.4116	0.2747
222.628	0.2844
222.8444	0.2802
223.0608	0.2674
223.2772	0.2914
223.4936	0.2837
223.71	0.2877
223.9264	0.2922
224.1427	0.293
224.3591	0.2879
224.5754	0.2924
224.7917	0.2903
225.008	0.2974
225.2243	0.2964
225.4406	0.2889
225.6569	0.3073
225.8732	0.3137
226.0894	0.3119
226.3057	0.3093
226.5219	0.3104
226.7381	0.3295
226.9543	0.304
227.1705	0.3185
227.3867	0.3227
227.6029	0.3268
227.8191	0.3357
228.0352	0.3543
228.2513	0.3468
228.4675	0.3386
228.6836	0.346
228.8997	0.3361
229.1158	0.3609
229.3319	0.3483
229.548	0.3568
229.764	0.3505
229.9801	0.3641
230.1961	0.3693
230.4121	0.3713
230.6282	0.381
230.8442	0.3826
231.0602	0.3839
231.2761	0.3923
231.4921	0.3943
231.7081	0.391
231.924	0.395
232.14	0.4063
232.3559	0.4078
232.5718	0.4048
232.7877	0.4125
233.0036	0.4042
233.2195	0.4138
233.4353	0.4194
233.6512	0.427
233.867	0.4196
234.0829	0.4314
234.2987	0.4321
234.5145	0.427
234.7303	0.4351
234.9461	0.4362
235.1619	0.4349
235.3776	0.4275
235.5934	0.4413
235.8091	0.4485
236.0249	0.4534
236.2406	0.448
236.4563	0.4519
236.672	0.4428
236.8877	0.4504
237.1034	0.4502
237.319	0.4628
237.5347	0.4605
237.7503	0.4509
237.966	0.4657
238.1816	0.4497
238.3972	0.4629
238.6128	0.4666
238.8284	0.4633
239.0439	0.4645
239.2595	0.4652
239.475	0.4637
239.6906	0.4695
239.9061	0.4643
240.1216	0.4599
240.3371	0.4624
240.5526	0.4684
240.7681	0.4648
240.9836	0.4578
241.199	0.4627
241.4145	0.4525
241.6299	0.4625
241.8453	0.4517
242.0607	0.4273
242.2761	0.443
242.4915	0.4264
242.7069	0.4211
242.9223	0.4242
243.1376	0.4118
243.353	0.4041
243.5683	0.4071
243.7836	0.3894
243.9989	0.3873
244.2142	0.3819
244.4295	0.3679
244.6448	0.3672
244.86	0.3586
245.0753	0.351
245.2905	0.3425
245.5057	0.3385
245.721	0.3374
245.9362	0.3319
246.1514	0.3237
246.3665	0.3103
246.5817	0.3061
246.7969	0.3056
247.012	0.2962
247.2271	0.288
247.4423	0.2894
247.6574	0.2885
247.8725	0.2788
248.0876	0.2722
248.3026	0.2674
248.5177	0.2628
248.7328	0.2575
248.9478	0.2568
249.1628	0.2461
249.3779	0.2478
249.5929	0.2395
249.8079	0.2401
250.0228	0.2353
250.2378	0.2299
250.4528	0.2327
250.6677	0.2226
250.8827	0.2201
251.0976	0.2161
251.3125	0.2217
251.5274	0.2152
251.7423	0.2129
251.9572	0.2086
252.172	0.2167
252.3869	0.2097
252.6017	0.2038
252.8166	0.2026
253.0314	0.2019
253.2462	0.2037
253.461	0.1955
253.6758	0.1941
253.8906	0.1972
254.1053	0.1939
254.3201	0.2025
254.5348	0.1897
254.7496	0.1889
254.9643	0.1959
255.179	0.1888
255.3937	0.1951
255.6083	0.1967
255.823	0.1908
256.0377	0.1887
256.2523	0.1916
256.467	0.1869
256.6816	0.1836
256.8962	0.1903
257.1108	0.1834
257.3254	0.1839
257.54	0.1841
257.7545	0.1923
257.9691	0.1744
258.1836	0.1805
258.3981	0.1825
258.6127	0.1793
258.8272	0.1844
259.0417	0.1789
259.2561	0.1828
259.4706	0.1756
259.6851	0.1809
259.8995	0.1858
260.114	0.1863
260.3284	0.1714
260.5428	0.1855
260.7572	0.1815
260.9716	0.1816
261.186	0.1774
261.4003	0.1769
261.6147	0.1756
261.829	0.1794
262.0433	0.1866
262.2577	0.1809
262.472	0.1801
262.6863	0.1837
262.9005	0.185
263.1148	0.181
263.3291	0.1844
263.5433	0.1839
263.7576	0.1818
263.9718	0.1812
264.186	0.1877
264.4002	0.1865
264.6144	0.1896
264.8286	0.1864
265.0427	0.1916
265.2569	0.1909
265.471	0.1864
265.6851	0.1921
265.8993	0.1853
266.1134	0.1885
266.3275	0.1856
266.5415	0.1823
266.7556	0.1916
266.9697	0.1852
267.1837	0.1863
267.3978	0.1891
267.6118	0.1787
267.8258	0.1874
268.0398	0.1882
268.2538	0.1894
268.4677	0.1813
268.6817	0.1829
268.8957	0.1798
269.1096	0.1778
269.3235	0.1748
269.5374	0.1828
269.7514	0.1817
269.9652	0.1843
270.1791	0.1826
270.393	0.1824
270.6068	0.1792
270.8207	0.1795
271.0345	0.174
271.2483	0.1779
271.4622	0.1805
271.676	0.1773
271.8897	0.179
272.1035	0.185
272.3173	0.1794
272.531	0.1781
272.7448	0.1791
272.9585	0.1705
273.1722	0.1773
273.3859	0.1765
273.5996	0.1805
273.8133	0.1811
274.0269	0.1738
274.2406	0.1769
274.4542	0.1769
274.6679	0.1838
274.8815	0.185
275.0951	0.1892
275.3087	0.1902
275.5223	0.1821
275.7358	0.1813
275.9494	0.185
276.1629	0.1902
276.3765	0.1832
276.59	0.1853
276.8035	0.1863
277.017	0.1895
277.2305	0.1874
277.444	0.1899
277.6574	0.1874
277.8709	0.1939
278.0843	0.1918
278.2978	0.1908
278.5112	0.1862
278.7246	0.1895
278.938	0.1835
279.1513	0.1903
279.3647	0.1879
279.5781	0.1878
279.7914	0.1927
280.0047	0.1897
280.2181	0.1851
280.4314	0.1859
280.6447	0.1925
280.8579	0.1865
281.0712	0.1864
281.2845	0.1856
281.4977	0.1822
281.711	0.1816
281.9242	0.1846
282.1374	0.1915
282.3506	0.1901
282.5638	0.187
282.7769	0.1855
282.9901	0.1899
283.2033	0.1856
283.4164	0.1841
283.6295	0.1893
283.8426	0.1838
284.0557	0.1887
284.2688	0.1885
284.4819	0.1903
284.695	0.193
284.908	0.1915
285.1211	0.1901
285.3341	0.1881
285.5471	0.1926
285.7601	0.1915
285.9731	0.1886
286.1861	0.1945
286.3991	0.1942
286.612	0.1942
286.825	0.1929
287.0379	0.1875
287.2508	0.1962
287.4637	0.1963
287.6766	0.1924
287.8895	0.1953
288.1024	0.2
288.3152	0.1992
288.5281	0.1912
288.7409	0.1959
288.9538	0.1955
289.1666	0.1946
289.3794	0.1891
289.5922	0.1894
289.8049	0.197
290.0177	0.1952
290.2304	0.1929
290.4432	0.1941
290.6559	0.1959
290.8686	0.1997
291.0813	0.193
291.294	0.1951
291.5067	0.1943
291.7194	0.1963
291.932	0.1949
292.1447	0.1956
292.3573	0.1917
292.5699	0.2005
292.7825	0.1967
292.9951	0.1956
293.2077	0.1986
293.4203	0.1959
293.6328	0.1914
293.8454	0.1963
294.0579	0.1918
294.2704	0.2026
294.4829	0.1969
294.6954	0.1988
294.9079	0.192
295.1204	0.1932
295.3328	0.1994
295.5453	0.1999
295.7577	0.199
295.9701	0.1956
296.1825	0.1982
296.3949	0.1977
296.6073	0.1944
296.8197	0.1974
297.0321	0.2003
297.2444	0.1926
297.4567	0.1931
297.6691	0.1966
297.8814	0.1942
298.0937	0.2004
298.306	0.1999
298.5182	0.1968
298.7305	0.1965
298.9428	0.196
299.155	0.1946
299.3672	0.1969
299.5794	0.1963
299.7916	0.197
300.0038	0.1918
300.216	0.195
300.4282	0.1961
300.6403	0.1975
300.8525	0.1951
301.0646	0.1975
301.2767	0.1967
301.4888	0.1938
301.7009	0.201
301.913	0.1993
302.125	0.1911
302.3371	0.1978
302.5491	0.1981
302.7612	0.2035
302.9732	0.1993
303.1852	0.1944
303.3972	0.1948
303.6092	0.194
303.8211	0.1949
304.0331	0.1908
304.245	0.1884
304.457	0.1912
304.6689	0.1932
304.8808	0.1911
305.0927	0.1913
305.3046	0.189
305.5164	0.188
305.7283	0.1865
305.9401	0.1698
306.152	0.1818
306.3638	0.1849
306.5756	0.1858
306.7874	0.1803
306.9992	0.1803
307.2109	0.1753
307.4227	0.1767
307.6344	0.1719
307.8462	0.1746
308.0579	0.1811
308.2696	0.177
308.4813	0.1704
308.693	0.1666
308.9046	0.1717
309.1163	0.1666
309.328	0.1591
309.5396	0.1601
309.7512	0.161
309.9628	0.1593
310.1744	0.1549
310.386	0.1467
310.5976	0.1528
310.8091	0.1586
311.0207	0.151
311.2322	0.1501
311.4437	0.1476
311.6552	0.1506
311.8667	0.1516
312.0782	0.1451
312.2897	0.1467
312.5012	0.1461
312.7126	0.1369
312.924	0.1419
313.1355	0.1384
313.3469	0.1438
313.5583	0.1402
313.7696	0.1369
313.981	0.1454
314.1924	0.1327
314.4037	0.137
314.6151	0.1333
314.8264	0.1409
315.0377	0.1378
315.249	0.1362
315.4603	0.1275
315.6716	0.1393
315.8828	0.1355
316.0941	0.1334
316.3053	0.1328
316.5165	0.1374
316.7277	0.1279
316.9389	0.1334
317.1501	0.1307
317.3613	0.1339
317.5724	0.1306
317.7836	0.129
317.9947	0.1348
318.2058	0.1283
318.417	0.1316
318.6281	0.1258
318.8391	0.1336
319.0502	0.1306
319.2613	0.128
319.4723	0.1282
319.6834	0.1315
319.8944	0.1281
320.1054	0.1294
320.3164	0.1229
320.5274	0.1296
320.7383	0.1323
320.9493	0.1255
321.1602	0.1308
321.3712	0.1335
321.5821	0.1269
321.793	0.1327
322.0039	0.1312
322.2148	0.131
322.4257	0.1284
322.6365	0.1277
322.8474	0.1345
323.0582	0.1372
323.269	0.1348
323.4798	0.1306
323.6906	0.1306
323.9014	0.1256
324.1122	0.1286
324.3229	0.1375
324.5337	0.1397
324.7444	0.1379
324.9551	0.1342
325.1658	0.1271
325.3765	0.1295
325.5872	0.136
325.7979	0.137
326.0085	0.132
326.2192	0.1333
326.4298	0.1393
326.6404	0.137
326.851	0.1306
327.0616	0.1422
327.2722	0.1351
327.4828	0.1319
327.6933	0.14
327.9039	0.1403
328.1144	0.1409
328.3249	0.1362
328.5354	0.141
328.7459	0.1383
328.9564	0.1396
329.1669	0.1418
329.3773	0.1406
329.5878	0.1367
329.7982	0.1358
330.0086	0.1409
330.219	0.1401
330.4294	0.1404
330.6398	0.1422
330.8502	0.141
331.0605	0.1399
331.2708	0.1349
331.4812	0.134
331.6915	0.1484
331.9018	0.1409
332.1121	0.1517
332.3224	0.14
332.5326	0.1353
332.7429	0.1451
332.9531	0.1427
333.1633	0.1394
333.3735	0.1392
333.5837	0.1409
333.7939	0.1467
334.0041	0.1474
334.2143	0.1403
334.4244	0.1455
334.6346	0.1419
334.8447	0.1412
335.0548	0.1457
335.2649	0.148
335.475	0.1491
335.685	0.1464
335.8951	0.1397
336.1051	0.1452
336.3152	0.1489
336.5252	0.1486
336.7352	0.1453
336.9452	0.1488
337.1552	0.1479
337.3652	0.1464
337.5751	0.1429
337.7851	0.1506
337.995	0.1486
338.2049	0.1451
338.4148	0.1481
338.6247	0.1526
338.8346	0.1464
339.0445	0.1532
339.2543	0.1446
339.4642	0.149
339.674	0.1445
339.8838	0.1515
340.0936	0.1474
340.3034	0.1496
340.5132	0.1456
340.7229	0.1521
340.9327	0.1581
341.1424	0.1468
341.3522	0.1465
341.5619	0.1517
341.7716	0.1566
341.9813	0.1604
342.1909	0.1514
342.4006	0.1581
342.6102	0.1549
342.8199	0.1533
343.0295	0.149
343.2391	0.1551
343.4487	0.1591
343.6583	0.1684
343.8679	0.1582
344.0774	0.1559
344.287	0.1567
344.4965	0.1669
344.706	0.1677
344.9155	0.1575
345.125	0.1639
345.3345	0.1682
345.544	0.1697
345.7534	0.1647
345.9629	0.1604
346.1723	0.1696
346.3817	0.1681
346.5911	0.1751
346.8005	0.1676
347.0099	0.1659
347.2193	0.1782
347.4286	0.1712
347.638	0.1773
347.8473	0.1708
348.0566	0.1776
348.2659	0.1793
348.4752	0.177
348.6845	0.1673
348.8937	0.1722
349.103	0.1765
349.3122	0.177
349.5214	0.1783
349.7306	0.1787
349.9398	0.1824
350.149	0.1741
350.3582	0.181
350.5674	0.1824
350.7765	0.1856
350.9856	0.176
351.1948	0.18
351.4039	0.1864
351.613	0.1797
351.822	0.1861
352.0311	0.1773
352.2402	0.1836
352.4492	0.1824
352.6582	0.1867
352.8672	0.1841
353.0762	0.1921
353.2852	0.186
353.4942	0.1839
353.7032	0.1797
353.9121	0.1791
354.1211	0.1877
354.33	0.185
354.5389	0.1826
354.7478	0.1856
354.9567	0.1849
355.1655	0.1921
355.3744	0.192
355.5833	0.1907
355.7921	0.1936
356.0009	0.192
356.2097	0.1892
356.4185	0.1934
356.6273	0.1915
356.8361	0.193
357.0448	0.1919
357.2536	0.1898
357.4623	0.1888
357.671	0.1979
357.8797	0.199
358.0884	0.192
358.2971	0.1951
358.5057	0.1999
358.7144	0.1991
358.923	0.2045
359.1316	0.2053
359.3402	0.2009
359.5488	0.2016
359.7574	0.2048
359.966	0.201
360.1746	0.2043
360.3831	0.2033
360.5916	0.2081
360.8002	0.2133
361.0087	0.2046
361.2172	0.2189
361.4256	0.2104
361.6341	0.2105
361.8426	0.212
362.051	0.2125
362.2594	0.2064
362.4678	0.2169
362.6762	0.2224
362.8846	0.2166
363.093	0.2173
363.3014	0.2185
363.5097	0.2152
363.718	0.2336
363.9264	0.2259
364.1347	0.22
364.343	0.2307
364.5513	0.2291
364.7595	0.233
364.9678	0.2264
365.176	0.2299
365.3842	0.2243
365.5925	0.2286
365.8007	0.229
366.0089	0.2391
366.217	0.2357
366.4252	0.2341
366.6333	0.2365
366.8415	0.2404
367.0496	0.233
367.2577	0.2403
367.4658	0.2345
367.6739	0.237
367.882	0.2484
368.09	0.2365
368.2981	0.2412
368.5061	0.2406
368.7141	0.2376
368.9221	0.2601
369.1301	0.2481
369.3381	0.2495
369.5461	0.2413
369.754	0.2521
369.962	0.2556
370.1699	0.2531
370.3778	0.2591
370.5857	0.2495
370.7936	0.2518
371.0015	0.2536
371.2093	0.2475
371.4172	0.2488
371.625	0.2529
371.8328	0.2569
372.0406	0.2615
372.2484	0.2556
372.4562	0.2619
372.664	0.2616
372.8717	0.2597
373.0795	0.2649
373.2872	0.2786
373.4949	0.2673
373.7026	0.2593
373.9103	0.2682
374.118	0.2671
374.3256	0.2708
374.5333	0.268
374.7409	0.275
374.9485	0.2679
375.1561	0.2698
375.3637	0.2663
375.5713	0.2777
375.7789	0.266
375.9864	0.2717
376.194	0.2792
376.4015	0.2753
376.609	0.2745
376.8165	0.2804
377.024	0.2767
377.2315	0.2747
377.4389	0.2821
377.6464	0.2909
377.8538	0.275
378.0612	0.295
378.2686	0.2715
378.476	0.2874
378.6834	0.2877
378.8908	0.2843
379.0981	0.2919
379.3055	0.289
379.5128	0.2789
379.7201	0.2813
379.9274	0.2861
380.1347	0.2836
380.342	0.2987
380.5492	0.2859
380.7565	0.2887
380.9637	0.2834
381.1709	0.2838
381.3781	0.2948
381.5853	0.2945
381.7925	0.2891
381.9997	0.2955
382.2068	0.2984
382.4139	0.2903
382.6211	0.2985
382.8282	0.3043
383.0353	0.3003
383.2424	0.2903
383.4494	0.3012
383.6565	0.2951
383.8635	0.2986
384.0706	0.3034
384.2776	0.3011
384.4846	0.3063
384.6916	0.3023
384.8986	0.3052
385.1055	0.3116
385.3125	0.2989
385.5194	0.3054
385.7263	0.3027
385.9333	0.3102
386.1402	0.2958
386.347	0.2991
386.5539	0.3005
386.7608	0.2976
386.9676	0.3031
387.1744	0.3026
387.3813	0.3027
387.5881	0.2949
387.7948	0.3105
388.0016	0.3115
388.2084	0.303
388.4151	0.3021
388.6219	0.2896
388.8286	0.2952
389.0353	0.3004
389.242	0.3047
389.4487	0.3003
389.6553	0.2864
389.862	0.2925
390.0686	0.3006
390.2753	0.3003
390.4819	0.2937
390.6885	0.2917
390.8951	0.299
391.1016	0.2977
391.3082	0.288
391.5147	0.2916
391.7213	0.2888
391.9278	0.285
392.1343	0.2962
392.3408	0.2862
392.5473	0.2825
392.7537	0.2716
392.9602	0.2776
393.1666	0.2825
393.373	0.28
393.5794	0.2775
393.7858	0.2833
393.9922	0.2694
394.1986	0.2773
394.4049	0.2724
394.6113	0.2715
394.8176	0.2724
395.0239	0.2643
395.2302	0.2751
395.4365	0.2768
395.6428	0.2756
395.8491	0.2638
396.0553	0.2659
396.2615	0.2734
396.4678	0.2687
396.674	0.2552
396.8802	0.2652
397.0863	0.2654
397.2925	0.2628
397.4987	0.2642
397.7048	0.2615
397.9109	0.2512
398.117	0.2611
398.3231	0.2566
398.5292	0.2521
398.7353	0.2476
398.9413	0.2556
399.1474	0.2689
399.3534	0.2502
399.5594	0.2636
399.7654	0.2559
399.9714	0.2589
400.1774	0.2532
400.3833	0.2563
400.5893	0.2532
400.7952	0.2665
401.0011	0.2554
401.207	0.2563
401.4129	0.2596
401.6188	0.2607
401.8247	0.2673
402.0305	0.2524
402.2364	0.2562
402.4422	0.2625
402.648	0.2593
402.8538	0.2584
403.0596	0.2446
403.2654	0.2583
403.4711	0.2525
403.6768	0.2516
403.8826	0.256
404.0883	0.255
404.294	0.2536
404.4997	0.2518
404.7054	0.2605
404.911	0.257
405.1167	0.2534
405.3223	0.2483
405.5279	0.2564
405.7335	0.2608
405.9391	0.2491
406.1447	0.2523
406.3502	0.264
406.5558	0.2413
406.7613	0.2511
406.9668	0.2465
407.1724	0.2504
407.3778	0.2519
407.5833	0.2461
407.7888	0.2648
407.9942	0.2558
408.1997	0.2569
408.4051	0.261
408.6105	0.2516
408.8159	0.2518
409.0213	0.2607
409.2267	0.258
409.432	0.2536
409.6374	0.2582
409.8427	0.2517
410.048	0.2517
410.2533	0.2606
410.4586	0.2541
410.6639	0.2511
410.8691	0.2438
411.0744	0.2445
411.2796	0.2511
411.4848	0.2584
411.69	0.2452
411.8952	0.2552
412.1004	0.2544
412.3056	0.2449
412.5107	0.2457
412.7158	0.2626
412.921	0.2545
413.1261	0.2449
413.3312	0.2539
413.5362	0.2546
413.7413	0.2502
413.9464	0.2504
414.1514	0.2433
414.3564	0.2398
414.5614	0.2503
414.7664	0.2356
414.9714	0.237
415.1764	0.2616
415.3813	0.2367
415.5863	0.2558
415.7912	0.2402
415.9961	0.2478
416.201	0.2572
416.4059	0.2467
416.6108	0.246
416.8156	0.2366
417.0205	0.2508
417.2253	0.2538
417.4301	0.2522
417.6349	0.2464
417.8397	0.2374
418.0445	0.2362
418.2492	0.2562
418.454	0.2444
418.6587	0.2332
418.8634	0.2436
419.0681	0.2487
419.2728	0.2447
419.4775	0.2507
419.6822	0.2395
419.8868	0.2334
420.0915	0.2333
420.2961	0.226
420.5007	0.2403
420.7053	0.239
420.9099	0.2349
421.1144	0.2368
421.319	0.2279
421.5235	0.2229
421.728	0.2336
421.9325	0.235
422.137	0.2333
422.3415	0.2283
422.546	0.2187
422.7504	0.2285
422.9549	0.2309
423.1593	0.2248
423.3637	0.2308
423.5681	0.2232
423.7725	0.2247
423.9769	0.2296
424.1812	0.2166
424.3856	0.2079
424.5899	0.2047
424.7942	0.2219
424.9985	0.2151
425.2028	0.2361
425.4071	0.2255
425.6113	0.2194
425.8156	0.2148
426.0198	0.2243
426.224	0.2177
426.4282	0.2068
426.6324	0.2093
426.8366	0.2044
427.0407	0.2091
427.2449	0.2032
427.449	0.2046
427.6531	0.2108
427.8572	0.2132
428.0613	0.2126
428.2654	0.2061
428.4694	0.1943
428.6735	0.2035
428.8775	0.2017
429.0815	0.2048
429.2855	0.1912
429.4895	0.195
429.6935	0.1955
429.8975	0.1857
430.1014	0.1894
430.3053	0.1988
430.5093	0.1883
430.7132	0.1792
430.9171	0.1843
431.1209	0.19
431.3248	0.1739
431.5286	0.1781
431.7325	0.1977
431.9363	0.1775
432.1401	0.1812
432.3439	0.1801
432.5477	0.1613
432.7514	0.168
432.9552	0.1684
433.1589	0.1551
433.3627	0.1713
433.5664	0.162
433.7701	0.1692
433.9737	0.1714
434.1774	0.1658
434.3811	0.1617
434.5847	0.1611
434.7883	0.1506
434.9919	0.1408
435.1955	0.1596
435.3991	0.1563
435.6027	0.1436
435.8062	0.1587
436.0098	0.1368
436.2133	0.1415
436.4168	0.1481
436.6203	0.1413
436.8238	0.1393
437.0272	0.1308
437.2307	0.1292
437.4341	0.1385
437.6375	0.1352
437.841	0.1203
438.0443	0.1326
438.2477	0.1209
438.4511	0.1157
438.6545	0.1363
438.8578	0.1224
439.0611	0.1271
439.2644	0.1243
439.4677	0.1332
439.671	0.1087
439.8743	0.1174
440.0775	0.1139
440.2808	0.1059
440.484	0.1142
440.6872	0.1095
440.8904	0.103
441.0936	0.1091
441.2967	0.0954
441.4999	0.1033
441.703	0.0923
441.9062	0.1053
442.1093	0.105
442.3124	0.0978
442.5155	0.1025
442.7185	0.0866
442.9216	0.0878
443.1246	0.0896
443.3276	0.0948
443.5307	0.0843
443.7337	0.0943
443.9366	0.0842
444.1396	0.0803
444.3426	0.081
444.5455	0.0848
444.7484	0.0787
444.9513	0.0764
445.1542	0.0851
445.3571	0.0817
445.56	0.072
445.7628	0.0787
445.9657	0.0838
446.1685	0.0811
446.3713	0.0685
446.5741	0.0721
446.7769	0.0696
446.9797	0.0705
447.1824	0.0669
447.3852	0.0499
447.5879	0.0685
447.7906	0.0565
447.9933	0.068
448.196	0.0625
448.3986	0.0559
448.6013	0.0523
448.8039	0.065
449.0066	0.063
449.2092	0.0601
449.4118	0.0523
449.6143	0.0541
449.8169	0.0546
450.0195	0.0592
450.222	0.0585
450.4245	0.0567
450.627	0.0553
450.8295	0.0517
451.032	0.0459
451.2345	0.0409
451.4369	0.0472
451.6394	0.0493
451.8418	0.0479
452.0442	0.0535
452.2466	0.0303
452.449	0.0465
452.6513	0.036
452.8537	0.0398
453.056	0.0446
453.2583	0.0368
453.4607	0.025
453.663	0.0307
453.8652	0.0384
454.0675	0.0406
454.2697	0.0291
454.472	0.0308
454.6742	0.0419
454.8764	0.0377
455.0786	0.0376
455.2808	0.0275
455.4829	0.0354
455.6851	0.036
455.8872	0.021
456.0893	0.0359
456.2915	0.0321
456.4935	0.0421
456.6956	0.0206
456.8977	0.0236
457.0997	0.0266
457.3018	0.0223
457.5038	0.0374
457.7058	0.0342
457.9078	0.0309
458.1098	0.0314
458.3117	0.0252
458.5137	0.0138
458.7156	0.0332
458.9175	0.0293
459.1194	0.031
459.3213	0.0223
459.5232	0.0344
459.725	0.0257
459.9269	0.0226
460.1287	0.0272
460.3305	0.0289
460.5323	0.0302
460.7341	0.0246
460.9359	0.0113
461.1376	0.0197
461.3394	0.0223
461.5411	0.0278
461.7428	0.0264
461.9445	0.016
462.1462	0.0176
462.3479	0.0154
462.5495	0.0262
462.7512	0.0223
462.9528	0.0168
463.1544	0.0177
463.356	0.0164
463.5576	0.0279
463.7592	0.0254
463.9607	0.017
464.1623	0.0211
464.3638	0.0128
464.5653	0.0222
464.7668	0.0127
464.9683	0.0213
465.1697	0.0154
465.3712	0.0129
465.5726	0.0148
465.7741	0.027
465.9755	0.0212
466.1769	0.0052
466.3782	0.0088
466.5796	0.0197
466.7809	0.0209
466.9823	0.0093
467.1836	0.0116
467.3849	0.0166
467.5862	-0.0008
467.7875	0.0069
467.9887	0.0074
468.19	0.0074
468.3912	0.0166
468.5924	0.0111
468.7936	0.0174
468.9948	0.0085
469.196	0.0102
469.3972	0.0145
469.5983	0.0056
469.7994	0.0212
470.0006	0.017
470.2017	0.0148
470.4027	0.0322
470.6038	0.0093
470.8049	0.0093
471.0059	0.0163
471.2069	0.0234
471.408	0.0202
471.6089	0.0155
471.8099	0.0133
472.0109	0.0201
472.2119	0.0208
472.4128	0.0106
472.6137	0.0138
472.8146	0.0131
473.0155	0.0184
473.2164	0.0147
473.4173	0.0003
473.6181	0.0065
473.819	0.0031
474.0198	0.0186
474.2206	-0.0013
474.4214	0.0069
474.6222	0.0018
474.8229	0.0082
475.0237	0.019
475.2244	0.0042
475.4251	0.008
475.6258	0.0119
475.8265	0.0171
476.0272	0.0051
476.2278	0.0119
476.4285	0.0097
476.6291	0.0107
476.8297	0.01
477.0303	-0.0041
477.2309	0.0096
477.4315	0.0142
477.632	0.0075
477.8326	0.0176
478.0331	0.0137
478.2336	0.009
478.4341	0.0152
478.6346	0.0039
478.8351	0.0101
479.0355	0.0147
479.236	0.0125
479.4364	0.0093
479.6368	0.0117
479.8372	0.0143
480.0376	0.0082
480.2379	0.0131
480.4383	0.0198
480.6386	-0.0001
480.8389	0.013
481.0392	0.0069
481.2395	0.0077
481.4398	0.0107
481.6401	0.0147
481.8403	0.0096
482.0405	0.0123
482.2408	0.0035
482.441	0.0121
482.6411	0.0092
482.8413	0.007
483.0415	0.015
483.2416	0.0099
483.4417	0.0133
483.6419	0.0017
483.8419	0.0046
484.042	0.008
484.2421	0.0106
484.4422	0.0095
484.6422	0.0129
484.8422	0.0089
485.0422	0.0062
485.2422	0.0039
485.4422	0.006
485.6422	0.0051
485.8421	0.0089
486.042	0.016
486.242	0.0044
486.4419	0.01
486.6417	0.0086
486.8416	0.0088
487.0415	0.0068
487.2413	0.0068
487.4411	0.0125
487.641	0.0079
487.8408	0.0164
488.0405	0.0116
488.2403	0.0094
488.4401	0.0058
488.6398	0.0091
488.8395	0.0073
489.0392	0.0119
489.2389	0.0165
489.4386	0.0056
489.6383	0.0076
489.8379	0.0059
490.0376	0.008
490.2372	0.002
490.4368	0.0117
490.6364	0.0088
490.836	0.0025
491.0355	0.005
491.2351	0.0085
491.4346	0.0044
491.6341	0.0009
491.8336	0.0143
492.0331	0.0068
492.2326	0.0044
492.432	0.0093
492.6315	0.0088
492.8309	0.0093
493.0303	0.0038
493.2297	0.0089
493.4291	0.0041
493.6284	0.0109
493.8278	0.0065
494.0271	0.0084
494.2264	0.0032
494.4257	0.0045
494.625	0.0056
494.8243	0.0033
495.0236	0.0156
495.2228	0.0148
495.422	0.0057
495.6213	0.0099
495.8205	0.017
496.0196	0.0127
496.2188	0.0081
496.418	0.0085
496.6171	0.0023
496.8162	0.0124
497.0153	0.017
497.2144	0.0039
497.4135	0.014
497.6126	0.0149
497.8116	0.0107
498.0107	0.0127
498.2097	0.0047
498.4087	0.0077
498.6077	-0.0017
498.8067	0.0082
499.0056	0.0081
499.2046	0.0142
499.4035	0.008
499.6024	0.0111
499.8013	0.0179
500.0002	0.0107
500.199	0.0143
500.3979	0.0025
500.5967	0.007
500.7956	0.0196
500.9944	0.0078
501.1932	0.0107
501.3919	0.0077
501.5907	0.0141
501.7895	0.0017
501.9882	0.0134
502.1869	0.0143
502.3856	0.0069
502.5843	0.0098
502.783	0.0099
502.9816	0.0145
503.1803	0.0054
503.3789	0.0119
503.5775	0.0046
503.7761	0.0075
503.9747	0.0154
504.1732	0.0059
504.3718	0.0161
504.5703	0.0056
504.7689	0.0016
504.9674	0.0095
505.1658	0.0068
505.3643	0.0149
505.5628	0.0059
505.7612	0.0093
505.9597	-0.004
506.1581	0.0016
506.3565	0.0078
506.5549	0.0076
506.7532	0.0035
506.9516	0.0134
507.1499	0.0044
507.3482	-0.0008
507.5465	0.0118
507.7448	0.0074
507.9431	0.0152
508.1414	0.0075
508.3396	0.0086
508.5379	0.0046
508.7361	0.0075
508.9343	0.0128
509.1325	0.0156
509.3306	0.0076
509.5288	0.0034
509.7269	0.0076
509.9251	0.0141
510.1232	0.0139
510.3213	0.0111
510.5193	0.0004
510.7174	0.0118
510.9154	0.0154
511.1135	0.0041
511.3115	0.0041
511.5095	0.0043
511.7075	0.0111
511.9055	0.0111
512.1034	0.014
512.3014	0.0067
512.4993	0.01
512.6972	0.0016
512.8951	0.0052
513.093	0.0143
513.2908	0.0232
513.4887	0.0011
513.6865	0.006
513.8844	0.0129
514.0822	0.0126
514.2799	0.0093
514.4777	0.005
514.6755	-0.0047
514.8732	0.014
515.0709	0.0051
515.2687	0.0107
515.4664	0.015
515.664	0.0205
515.8617	0.015
516.0594	0.0133
516.257	0.0089
516.4546	0.0171
516.6522	0.0044
516.8498	0.013
517.0474	0.0081
517.2449	0.0173
517.4425	0.0117
517.64	0.01
517.8375	0.007
518.035	0.0063
518.2325	0.008
518.43	0.005
518.6274	0.0072
518.8249	0.0059
519.0223	0.0173
519.2197	0.009
519.4171	0.005
519.6145	0.0122
519.8118	-0.0061
520.0092	-0.0037
520.2065	0.013
520.4038	0.0007
520.6011	0.0156
520.7984	0.0095
520.9956	0.0132
521.1929	0.0104
521.3901	0.0167
521.5874	0.0233
521.7846	0.0009
521.9818	0.0066
522.1789	0.0003
522.3761	0.027
522.5732	0.0137
522.7704	-0.0018
522.9675	0.0058
523.1646	0.0049
523.3617	0.0121
523.5587	0.0061
523.7558	0.0088
523.9528	0.0087
524.1498	0.005
524.3468	0.0111
524.5438	0.0072
524.7408	0.0086
524.9378	0.0167
525.1347	0.016
525.3316	0.007
525.5285	0.0029
525.7254	0.0115
525.9223	0.0221
526.1192	0.0168
526.316	0.0193
526.5129	0.0004
526.7097	0.008
526.9065	0.0112
527.1033	0.0128
527.3	0.0077
527.4968	0.0119
527.6935	0.0004
527.8903	0.0005
528.087	0.0135
528.2837	0.0168
528.4804	0.0043
528.677	0.0213
528.8737	0.0031
529.0703	-0.0062
529.2669	0.0166
529.4635	0.0048
529.6601	-0.0006
529.8567	0.0058
530.0532	0.0104
530.2498	0.0056
530.4463	0.0007
530.6428	0.0161
530.8393	0.0107
531.0358	0.005
531.2322	-0.0058
531.4287	0.0039
531.6251	0.0051
531.8215	0.0099
532.0179	0.0068
532.2143	0.0124
532.4107	0.0161
532.607	-0.0036
532.8034	0.0085
532.9997	-0.0054
533.196	0.008
533.3923	0.0163
533.5886	0.0205
533.7848	0.0077
533.9811	0.0058
534.1773	0.01
534.3735	0.0147
534.5697	0.0086
534.7659	0.0108
534.9621	0.008
535.1582	0.0114
535.3544	0.0029
535.5505	0.0114
535.7466	0.0135
535.9427	0.007
536.1387	0.009
536.3348	0.0121
536.5308	0.006
536.7269	0.0084
536.9229	0.0111
537.1189	0.0136
537.3148	0.014
537.5108	0.0116
537.7068	0.0141
537.9027	-0.0042
538.0986	0.0142
538.2945	0.0057
538.4904	0.0034
538.6863	0.0074
538.8821	0.0093
539.078	0.0121
539.2738	0.007
539.4696	-0.0119
539.6654	0.0093
539.8611	0.0093
540.0569	0.0064
540.2526	0.0176
540.4484	-0.0042
540.6441	0.0062
540.8398	0.0111
541.0355	0.005
541.2311	0.0044
541.4268	0.0151
541.6224	0.0146
541.818	0.0204
542.0136	0.0168
542.2092	0.0082
542.4048	0.0084
542.6003	0.0088
542.7959	0.0126
542.9914	0.0079
543.1869	0.0098
543.3824	0.0135
543.5779	0.0142
543.7734	0.0152
543.9688	0.011
544.1642	0.0124
544.3596	0.0154
544.555	0.0052
544.7504	0.0108
544.9458	0.012
545.1411	0.0045
545.3365	0.0084
545.5318	0.0046
545.7271	0.011
545.9224	0.0046
546.1177	0.0056
546.3129	0.0058
546.5081	0.0017
546.7034	0.018
546.8986	0.0048
547.0938	0.0131
547.289	0.015
547.4841	0.0155
547.6793	0.0041
547.8744	0.0204
548.0695	-0.0009
548.2646	0.011
548.4597	0.0116
548.6548	0.0147
548.8498	0.005
549.0448	-0.0002
549.2399	0.0161
549.4349	0.0097
549.6298	0.0141
549.8248	0.0044
550.0198	0.0096
550.2147	0.013
550.4096	-0.0032
550.6045	0.0162
550.7994	0.0064
550.9943	0.009
551.1892	-0.0064
551.384	0.0131
551.5788	0.0057
551.7737	0.0068
551.9685	0.0108
552.1632	0.0082
552.358	0.0145
552.5528	0.0066
552.7475	0.0137
552.9422	0.0125
553.1369	0.0122
553.3316	0.0134
553.5263	0.0132
553.7209	0.0072
553.9156	0.0075
554.1102	0.0056
554.3048	0.0013
554.4994	0.0049
554.694	0.0121
554.8885	0.0165
555.0831	0.0182
555.2776	0.0106
555.4721	0.0071
555.6666	0.0139
555.8611	0.0113
556.0555	0.0088
556.25	0.0094
556.4444	0.0034
556.6388	0.0044
556.8332	0.007
557.0276	0.0073
557.222	0.0093
557.4163	0.0057
557.6107	0.0025
557.805	0.0093
557.9993	0.0103
558.1936	0.0127
558.3879	0.0143
558.5821	0.0006
558.7764	0.0034
558.9706	0.0074
559.1648	0.0007
559.359	0.0085
559.5532	0.0039
559.7473	0.0088
559.9415	0.0174
560.1356	0.0201
560.3297	-0.0021
560.5238	0.0023
560.7179	0.0117
560.9119	-0.0011
561.106	0.0002
561.3	0.0018
561.494	0.0068
561.688	0.0068
561.882	0.0089
562.076	0.0133
562.2699	0.0102
562.4639	0.0239
562.6578	0.0147
562.8517	0.0074
563.0456	0.0069
563.2395	0.0169
563.4333	0.0089
563.6272	-0.0005
563.821	0.0102
564.0148	0.0106
564.2086	0.0092
564.4024	0.017
564.5961	0.0099
564.7899	0.0146
564.9836	0.0076
565.1773	0.0158
565.371	0.0082
565.5647	0.0133
565.7584	0.0149
565.952	0.0032
566.1456	0.0028
566.3393	0.0039
566.5329	0.0114
566.7264	0.0132
566.92	0.0027
567.1136	0.0075
567.3071	0.005
567.5006	0.0217
567.6941	0.0131
567.8876	0.0129
568.0811	0.0248
568.2745	0.0039
568.468	0.0064
568.6614	0.0191
568.8548	0.009
569.0482	0.0097
569.2416	0.01
569.4349	0.0054
569.6283	0.0085
569.8216	0.0107
570.0149	0.0092
570.2082	0.0129
570.4015	0.0096
570.5947	0.0098
570.788	0.0103
570.9812	0.007
571.1744	0.0061
571.3676	0.0107
571.5608	0.0058
571.754	0.0162
571.9471	0.0097
572.1402	0.0102
572.3333	0.0103
572.5264	0.0081
572.7195	0.0072
572.9126	0.0066
573.1057	0.0099
573.2987	0.0054
573.4917	0.0076
573.6847	0.0064
573.8777	0.0125
574.0707	0.009
574.2636	0.0073
574.4566	0.0032
574.6495	0.0027
574.8424	0.0095
575.0353	0.0136
575.2281	0.0149
575.421	0.0056
575.6138	0.0057
575.8067	0.0087
575.9995	0.0076
576.1923	0.0083
576.385	0.0072
576.5778	0.0116
576.7706	0.0087
576.9633	0.0091
577.156	0.0027
577.3487	0.0052
577.5414	0.0072
577.734	0.0075
577.9267	0.0108
578.1193	0.0104
578.3119	0.0037
578.5045	0.0078
578.6971	0.0037
578.8897	0.0062
579.0822	0.013
579.2747	0.0056
579.4673	0.0081
579.6598	0.0105
579.8522	0.0048
580.0447	0.0072
580.2372	0.0126
580.4296	0.0122
580.622	0.0079
580.8144	0.0081
581.0068	0.0071
581.1992	0.0042
581.3915	0.0003
581.5839	0.01
581.7762	0.0082
581.9685	0.0072
582.1608	0.0031
582.353	0.0056
582.5453	0.0093
582.7375	0.0132
582.9298	0.0076
583.122	0.0025
583.3142	0.0135
583.5063	0.0063
583.6985	0.0033
583.8906	0.0068
584.0827	0.0102
584.2749	0.007
584.4669	0.0085
584.659	0.0066
584.8511	0.0076
585.0431	0.0085
585.2352	0.0072
585.4272	0.0107
585.6192	0.0062
585.8111	0.0038
586.0031	0.0033
586.195	0.0059
586.387	0.0072
586.5789	0.0088
586.7708	0.0104
586.9627	0.0102
587.1545	0.0103
587.3464	0.0097
587.5382	0.0078
587.73	0.0115
587.9218	0.0046
588.1136	0.0071
588.3053	0.0081
588.4971	0.0074
588.6888	0.0072
588.8805	0.008
589.0722	0.0178
589.2639	0.0097
589.4556	0.0103
589.6472	0.0106
589.8389	0.012
590.0305	0.0046
590.2221	0.0133
590.4137	0.002
590.6052	0.0102
590.7968	0.0126
590.9883	0.01
591.1798	0.0098
591.3713	0.0071
591.5628	0.0105
591.7543	0.008
591.9458	-0.0009
592.1372	0.0104
592.3286	0.003
592.52	0.0077
592.7114	0.0074
592.9028	0.0118
593.0941	0.007
593.2855	0.009
593.4768	0.016
593.6681	0.01
593.8594	0.0144
594.0506	0.0093
594.2419	0.011
594.4331	0.0048
594.6244	0.0092
594.8156	0.0011
595.0067	0.0038
595.1979	0.0128
595.3891	0.0085
595.5802	0.0104
595.7713	0.0099
595.9624	0.0173
596.1535	0.004
596.3446	0.0036
596.5357	0.0156
596.7267	0.0084
596.9177	0.0058
597.1087	0.0015
597.2997	0.0118
597.4907	0.0016
597.6817	0.0082
597.8726	0.0124
598.0635	0.0041
598.2544	0.0079
598.4453	0.0072
598.6362	0.0084
598.827	0.0116
599.0179	0.0086
599.2087	0.0126
599.3995	0.0105
599.5903	0.012
599.7811	0.0148
599.9718	0.0073
600.1626	0.009
600.3533	0.0106
600.544	0.0102
600.7347	0.011
600.9254	0.0182
601.116	0.0082
601.3067	0.0093
601.4973	0.0077
601.6879	0.0075
601.8785	0.0092
602.0691	0.002
602.2596	0.0088
602.4502	0.0071
602.6407	0.0104
602.8312	0.0069
603.0217	0.0136
603.2122	0.0078
603.4027	0.0111
603.5931	0.0097
603.7835	0.0142
603.9739	0.0021
604.1643	0.0107
604.3547	0.0131
604.5451	0.0074
604.7354	-0.0004
604.9257	0.0047
605.116	0.0026
605.3063	0.0045
605.4966	0.0023
605.6869	0.0164
605.8771	0.0103
606.0673	0.0062
606.2575	0.0066
606.4477	0.0195
606.6379	0.0065
606.8281	0.005
607.0182	0.0058
607.2083	0.0144
607.3985	0.0087
607.5885	0.0076
607.7786	0.0068
607.9687	0.0144
608.1587	0.0133
608.3488	0.0064
608.5388	0.0057
608.7288	0.0018
608.9187	0.0062
609.1087	0.0092
609.2986	0.0126
609.4886	0.004
609.6785	0.0031
609.8684	0.0017
610.0582	0.0078
610.2481	0.0038
610.4379	0.0069
610.6278	0.0105
610.8176	0.0122
611.0074	0.0111
611.1971	0.0045
611.3869	0.0109
611.5766	0.0081
611.7664	0.0139
611.9561	0.0117
612.1458	0.0045
612.3354	0.0065
612.5251	-0.0008
612.7147	0.012
612.9044	0.002
613.094	0.0121
613.2836	0.0055
613.4731	0.0049
613.6627	0.0115
613.8522	0.0094
614.0417	0.016
614.2313	0.0048
614.4207	0.0091
614.6102	0.0106
614.7997	0.0162
614.9891	0.0157
615.1785	0.003
615.3679	0.0077
615.5573	0.0093
615.7467	0.0013
615.9361	0.012
616.1254	0.0128
616.3147	0.0057
616.504	0.0053
616.6933	0.0028
616.8826	0.0029
617.0718	0.0153
617.2611	0.0014
617.4503	0.0048
617.6395	0.0107
617.8287	0.0183
618.0179	-0.0022
618.207	0.0118
618.3961	0.001
618.5853	-0.0021
618.7744	0.0078
618.9634	0.0164
619.1525	0.0115
619.3416	-0.0017
619.5306	0.0162
619.7196	0.0141
619.9086	0.0093
620.0976	-0.0008
620.2866	0.0133
620.4755	0.0093
620.6645	0.0173
620.8534	0.0118
621.0423	0.0015
621.2312	0.0057
621.42	0.0062
621.6089	0.0062
621.7977	0.0008
621.9865	0.0053
622.1753	0.0033
622.3641	-0.005
622.5529	0.0081
622.7416	0.0107
622.9303	0.0094
623.1191	0.0095
623.3078	0.0122
623.4964	0.0021
623.6851	0.0055
623.8737	0.0053
624.0624	0.005
624.251	0.0112
624.4396	0.0121
624.6282	0.015
624.8167	0.0053
625.0053	0.007
625.1938	0.0126
625.3823	0.0094
625.5708	0.0036
625.7593	0.0079
625.9477	0.0034
626.1362	-0.0049
626.3246	0.0028
626.513	0.0061
626.7014	0.0156
626.8898	0.0086
627.0781	0.0074
627.2665	0.0126
627.4548	0.0007
627.6431	0.0071
627.8314	0.016
628.0197	0.0023
628.2079	0.0073
628.3962	0.0051
628.5844	0.0044
628.7726	0.0073
628.9608	-0.004
629.1489	0.0111
629.3371	-0.0028
629.5252	0.0099
629.7134	0.0029
629.9015	0.0081
630.0895	-0.0077
630.2776	0.0102
630.4657	0.0297
630.6537	0.008
630.8417	-0.002
631.0297	0.0145
631.2177	-0.0006
631.4057	0.0066
631.5936	0.0122
631.7815	0.0197
631.9695	0.0237
632.1574	0.0227
632.3452	-0.0024
632.5331	0.0137
632.7209	0.0043
632.9088	0.0031
633.0966	0.0207
633.2844	0.0129
633.4722	0.0109
633.6599	0.0166
633.8477	0.0172
634.0354	0.0145
634.2231	0.002
634.4108	0.008
634.5985	0.0182
634.7861	-0.0064
634.9738	0.0041
635.1614	0.0199
635.349	-0.0054
635.5366	0.0102
635.7242	0.0053
635.9117	0.0127
636.0993	0.0213
636.2868	-0.0009
636.4743	0.02
636.6618	-0.0156
636.8492	0.0179
637.0367	-0.0002
637.2241	0.007
637.4115	0.0233
637.5989	-0.0048
637.7863	0.0254
637.9737	0.0092
638.161	0.0182
638.3484	0.0041
638.5357	0.0047
638.723	0.024
638.9103	-0.017
639.0975	0.013
639.2848	0.0154
639.472	0.0221
639.6592	0.0005
639.8464	0.0097
640.0336	-0.0061
640.2208	0.0152
640.4079	0.0025
640.595	0.0057
640.7821	0.0195
640.9692	-0.0034
641.1563	0.0128
641.3434	0.0084
641.5304	0.0273
641.7174	-0.0003
641.9044	0.0174
642.0914	0.0168
642.2784	-0.0032
642.4653	-0.01
642.6523	0.0186
642.8392	-0.0102
643.0261	0.0242
643.213	0.0102
643.3999	0.0087
643.5867	0.0174
643.7735	-0.0049
643.9604	0.0249
644.1472	0.0119
644.3339	0.0166
644.5207	-0.0077
644.7075	-0.0051
644.8942	-0.0167
645.0809	0.0004
645.2676	-0.004
645.4543	-0.0068
645.6409	0.0247
645.8276	0.016
646.0142	0.0029
646.2008	-0.0172
646.3874	-0.0031
646.574	0.0074
646.7605	0.0186
646.9471	0.0111
647.1336	-0.0116
647.3201	0.0254
647.5066	0.0077
647.6931	-0.0055
647.8795	0.0172
648.0659	0.0043
648.2524	0.0223
648.4388	0.0156
648.6252	0.014
648.8115	0.0142
648.9979	0.0037
649.1842	0.014
649.3705	0.0118
649.5568	-0.0007
649.7431	0.0066
649.9294	0.0077
650.1156	-0.0097
650.3018	0.0085
650.488	0.0163
650.6742	0.0184
650.8604	0.017
651.0466	-0.0164
651.2327	0.0108
651.4188	0.0139
651.6049	0.0221
651.791	-0.0027
651.9771	0.0039
652.1632	0.0173
652.3492	0.0222
652.5352	0.025
652.7212	0.013
652.9072	-0.0053
653.0932	0.0209
653.2791	0.0077
653.465	0.0215
653.651	0.007
653.8369	0.0012
654.0227	0.0023
654.2086	0.0113
654.3944	0.0093
654.5803	0.0043
654.7661	0.0077
654.9519	0.0028
655.1377	-0
655.3234	-0
655.5092	-0
655.6949	-0
655.8806	-0
656.0663	-0
656.2519	-0
656.4376	-0
656.6232	-0
656.8088	-0
656.9945	-0
657.18	-0
657.3656	-0
657.5511	-0
657.7367	-0
657.9222	-0
658.1077	-0
658.2932	-0
658.4786	-0
658.6641	-0
658.8495	-0
659.0349	-0
659.2203	-0
659.4057	0.0143
659.591	0.2887
659.7764	0.0274
659.9617	0.0157
660.147	0.008
660.3323	0.0072
660.5176	0.0154
660.7028	0.0013
660.888	0.0066
661.0733	0.0253
661.2585	-0.0042
661.4436	0.0135
661.6288	0.0152
661.8139	0.0088
661.9991	0.0017
662.1842	-0.0032
662.3693	0.0132
662.5544	0.0147
662.7394	-0.0032
662.9245	0.0144
663.1095	-0.0149
663.2945	-0.0023
663.4795	-0.0224
663.6644	0.0106
663.8494	0.0228
664.0343	0.0129
664.2193	-0.0037
664.4042	0.0046
664.589	0.0091
664.7739	0.0116
664.9587	0.0041
665.1436	-0.0057
665.3284	-0.0036
665.5132	-0.0121
665.698	0.0222
665.8827	0.0209
666.0675	-0.0085
666.2522	0.0189
666.4369	0.0192
666.6216	0.0067
666.8063	-0.0125
666.9909	0.0016
667.1756	-0.0163
667.3602	0.0082
667.5448	-0.0062
667.7294	0.007
667.9139	-0.0046
668.0985	-0.0111
668.283	0.0016
668.4675	0.0198
668.652	0.0292
668.8365	-0.0054
669.0209	0.0077
669.2054	0.0157
669.3898	0.03
669.5742	0.019
669.7586	0.0394
669.943	0.0036
670.1273	-0.0079
670.3117	0.0151
670.496	0.009
670.6803	0.0106
670.8646	-0.0056
671.0488	0.0383
671.2331	-0.0127
671.4173	0.0127
671.6015	0.007
671.7857	0.0105
671.9699	0.0205
672.1541	-0.0009
672.3382	0.0048
672.5223	0.0047
672.7064	0.0057
672.8905	0.0055
673.0746	-0.0041
673.2587	0.0156
673.4427	0.0149
673.6267	0.0102
673.8107	0.0198
673.9947	0.0207
674.1787	0.015
674.3626	0.0056
674.5465	0.0297
674.7304	-0.0001
674.9143	0.0169
675.0982	-0.001
675.2821	0.0145
675.4659	-0.005
675.6497	0.0088
675.8335	0.0008
676.0173	-0.0022
676.2011	0.0191
676.3849	0.0088
676.5686	0.0263
676.7523	-0.004
676.936	0.0074
677.1197	-0.0136
677.3034	0.0295
677.487	0.0175
677.6706	0.0164
677.8542	0.0006
678.0378	0.0116
678.2214	0.0018
678.405	0.0337
678.5885	0.0055
678.772	0.0162
678.9555	0.0064
679.139	0.0179
679.3225	0.0112
679.5059	-0.0086
679.6894	0.0077
679.8728	-0.0122
680.0562	0.009
680.2395	0.0133
680.4229	0.0024
680.6062	0.0081
680.7896	-0.0083
680.9729	0.0142
681.1562	0.0174
681.3394	0.0049
681.5227	0.0009
681.7059	0.013
681.8891	-0.0041
682.0723	0.0211
682.2555	-0.0007
682.4387	-0.0017
682.6218	0.0104
682.805	-0.0015
682.9881	0.0182
683.1712	-0.0003
683.3542	0.0259
683.5373	-0.0145
683.7203	0.0013
683.9034	0.0057
684.0864	0.0087
684.2694	0.0021
684.4523	0.0039
684.6353	-0.0015
684.8182	-0.0084
685.0011	0.0164
685.184	0.0141
685.3669	0.0273
685.5498	0.0074
685.7326	-0.0055
685.9154	0.0149
686.0982	0.0247
686.281	-0.0033
686.4638	0.0048
686.6465	0.0037
686.8293	-0.0124
687.012	0.01
687.1947	-0.0003
687.3774	0.0012
687.56	0.0046
687.7427	-0.0115
687.9253	-0.0113
688.1079	0.0143
688.2905	-0.0031
688.4731	0.0057
688.6556	-0.012
688.8382	-0.0216
689.0207	0.0007
689.2032	0.0091
689.3857	0.0109
689.5681	0.0097
689.7506	0.0161
689.933	-0.0152
690.1154	0.0036
690.2978	-0.0124
690.4802	0.0285
690.6626	-0.0028
690.8449	0.0062
691.0272	-0.0036
691.2095	0.0017
691.3918	0.0081
691.5741	0.0171
691.7563	0.0115
691.9386	0.0288
692.1208	-0.0001
692.303	0.0032
692.4852	0.0042
692.6673	0.0127
692.8495	0.0038
693.0316	-0.0025
693.2137	0.005
693.3958	-0.0014
693.5778	0.0109
693.7599	-0.0034
693.9419	-0.0056
694.1239	0.0177
694.3059	0.0202
694.4879	-0.0066
694.6699	-0.0046
694.8518	0.008
695.0337	0.0204
695.2157	0.035
695.3975	0.0128
695.5794	-0.0129
695.7613	0.0214
695.9431	-0.0254
696.1249	0.0037
696.3067	-0.0022
696.4885	0.0177
696.6703	0.0087
696.852	0.0088
697.0337	0.0223
697.2154	0.0124
697.3971	0.0043
697.5788	0.0159
697.7605	-0.001
697.9421	0.0346
698.1237	0.0219
698.3053	-0.0014
698.4869	-0.0049
698.6685	0.0065
698.85	0.0171
699.0315	-0.0038
699.213	0.0135
699.3945	0.0009
699.576	0.025
699.7575	-0.0005
699.9389	0.0161
700.1203	0.0071
700.3017	0.0086
700.4831	0.0278
700.6645	0.035
700.8458	0.0019
701.0271	0.0353
701.2084	0.0022
701.3897	0.004
701.571	-0.0142
701.7523	0.043
701.9335	0.0364
702.1147	0.0011
702.2959	0.0036
702.4771	0.0074
702.6583	-0.0026
702.8394	-0.0124
703.0205	0.0191
703.2016	-0.0222
703.3827	0.012
703.5638	-0.0139
703.7449	0.0288
703.9259	0.0172
704.1069	-0.0229
704.2879	0.0126
704.4689	0.0025
704.6499	0.0142
704.8308	-0.0075
705.0117	-0.0092
705.1927	0.0267
705.3735	0.0291
705.5544	0.0412
705.7353	-0.0254
705.9161	-0.0137
706.0969	0.0037
706.2777	0.0074
706.4585	0.0011
706.6393	0.0237
706.82	0.0126
707.0007	-0.0119
707.1815	-0.0049
707.3621	0.029
707.5428	0.0015
707.7235	0.0089
707.9041	0.0224
708.0847	0.0118
708.2653	0.02
708.4459	0.0126
708.6265	-0.0271
708.807	0.0093
708.9875	0.0032
709.168	0.0139
709.3485	0.011
709.529	0.0132
709.7095	-0.0183
709.8899	0.0095
710.0703	0.008
710.2507	-0.0114
710.4311	-0.0134
710.6115	0.009
710.7918	0.019
710.9721	-0.0201
711.1524	0.0142
711.3327	-0.0009
711.513	0.0108
711.6932	0.0264
711.8735	0.0351
712.0537	-0.0054
712.2339	-0.0025
712.4141	0.0089
712.5942	-0.0012
712.7744	0.0157
712.9545	0.0148
713.1346	0.0082
713.3147	-0.0134
713.4947	-0.002
713.6748	0.0122
713.8548	0.0267
714.0348	0.0162
714.2148	0.0287
714.3948	0.0147
714.5748	0.0117
714.7547	0.0268
714.9346	0.0127
715.1145	-0.0132
715.2944	-0.0253
715.4743	0.0133
715.6541	-0.0019
715.834	0.0185
716.0138	0.0178
716.1936	-0.0107
716.3733	-0.0198
716.5531	-0.005
716.7328	0.004
716.9126	0.0126
717.0923	-0.0217
717.2719	0.0026
717.4516	0.003
717.6312	-0.0049
717.8109	0.0082
717.9905	0.0355
718.1701	-0.0012
718.3496	-0.0033
718.5292	-0.0116
718.7087	0.0174
718.8882	0.0181
719.0677	0.0106
719.2472	-0.0087
719.4267	0.0092
719.6061	-0.0343
719.7856	0.0435
719.965	0.0096
720.1443	-0.006
720.3237	0.0082
720.5031	0.0087
720.6824	0.0149
720.8617	-0.0068
721.041	0.0204
721.2203	-0.021
721.3995	-0.0069
721.5788	0.0351
721.758	-0.01
721.9372	0.0142
722.1164	-0.0044
722.2956	0.0078
722.4747	0.0223
722.6538	0.0034
722.8329	0.0301
723.012	0.0194
723.1911	0.0176
723.3702	-0.006
723.5492	-0.0132
723.7282	-0.0284
723.9072	0.0097
724.0862	-0.012
724.2652	0.0232
724.4441	0.0085
724.623	-0.005
724.8019	0.0159
724.9808	0.012
725.1597	-0.0079
725.3385	0.0238
725.5174	-0.0028
725.6962	0.0102
725.875	0.012
726.0538	0.0326
726.2325	0.0171
726.4112	-0.0248
726.59	-0.0104
726.7687	-0.0167
726.9474	0.0039
727.126	0.0224
727.3047	-0.0118
727.4833	0.0109
727.6619	-0.019
727.8405	-0.0018
728.0191	0.0469
728.1976	0.0049
728.3762	0.0082
728.5547	0.0158
728.7332	0.0089
728.9116	0.0232
729.0901	0.0175
729.2686	0.0127
729.447	0.0024
729.6254	0.0178
729.8038	0.0192
729.9821	0.0024
730.1605	0.027
730.3388	0.0135
730.5171	0.0137
730.6954	0.0032
730.8737	-0.0022
731.0519	-0.0051
731.2302	0.0114
731.4084	0.0038
731.5866	0.0143
731.7648	0.0108
731.9429	0.0532
732.1211	-0.0022
732.2992	0.0025
732.4773	0.003
732.6554	-0.0071
732.8335	0.0229
733.0115	0.0251
733.1896	-0.0083
733.3676	0.03
733.5456	-0.0077
733.7235	0.0006
733.9015	0.0224
734.0794	-0.0003
734.2574	-0.01
734.4353	0.0271
734.6131	-0.01
734.791	-0.0054
734.9689	0.0028
735.1467	0.0021
735.3245	0.0163
735.5023	0.0064
735.68	0.009
735.8578	0.0158
736.0355	0.0164
736.2132	0.0004
736.3909	0.0028
736.5686	0.004
736.7463	-0.0363
736.9239	0.0294
737.1015	-0.0086
737.2791	0.018
737.4567	0.0175
737.6343	-0.0033
737.8118	0.0443
737.9894	0.0062
738.1669	0.0012
738.3444	0.0314
738.5218	-0.0013
738.6993	0.0183
738.8767	0.0022
739.0541	-0.0043
739.2315	0.0015
739.4089	0.0225
739.5863	0.018
739.7636	0.0193
739.9409	-0.0016
740.1182	-0.0055
740.2955	0.0214
740.4728	0.0064
740.65	-0.0393
740.8272	0.0043
741.0044	-0.0101
741.1816	0.0333
741.3588	-0.0284
741.5359	-0.0076
741.7131	-0.0015
741.8902	0.0129
742.0673	-0.0281
742.2444	0.0185
742.4214	0.0284
742.5985	-0.0169
742.7755	0.0095
742.9525	-0.004
743.1295	-0.0077
743.3064	-0.0102
743.4834	0.0139
743.6603	0.0475
743.8372	-0.0427
744.0141	0.0263
744.191	-0.0057
744.3678	-0.0267
744.5446	-0.0015
744.7215	-0.0001
744.8982	-0.0061
745.075	0.0495
745.2518	0.0279
745.4285	0.002
745.6052	-0.0165
745.7819	-0.0057
745.9586	0.0307
746.1353	-0.0176
746.3119	0.0186
746.4885	0.0206
746.6651	0.0103
746.8417	0.0041
747.0183	0.0306
747.1948	0.0139
747.3714	0.0294
747.5479	0.0039
747.7244	-0.0002
747.9008	-0.0208
748.0773	0.0221
748.2537	0.0138
748.4301	0.0325
748.6065	-0.0353
748.7829	-0.0157
748.9593	0.0026
749.1356	0.0149
749.3119	0.0086
749.4882	0.0303
749.6645	0.0069
749.8408	0.0047
750.017	0.0263
750.1933	-0.0277
750.3695	-0.0017
750.5457	-0.0021
750.7218	-0.0007
750.898	-0.0217
751.0741	0.0151
751.2502	0.0156
751.4263	0.0043
751.6024	0.0015
751.7784	-0.0008
751.9545	-0.0031
752.1305	0.016
752.3065	0.0085
752.4825	0.0091
752.6584	0.0062
752.8344	-0.002
753.0103	0.0002
753.1862	-0.0132
753.3621	-0.0066
753.5379	0.0002
753.7138	0.0067
753.8896	-0.0074
754.0654	0.0148
754.2412	-0.0036
754.417	0.0237
754.5927	0.0169
754.7685	0.0037
754.9442	0.0128
755.1199	0.0247
755.2956	0.0171
755.4712	-0.0039
755.6469	-0.0145
755.8225	0.0155
755.9981	0.0182
756.1736	0.0193
756.3492	0.0019
756.5248	0.0102
756.7003	0.0039
756.8758	0.0189
757.0513	-0.0066
757.2267	0.0117
757.4022	-0.0046
757.5776	0.007
757.753	0.0319
757.9284	-0.0077
758.1038	-0.0009
758.2791	0.003
758.4545	-0.0132
758.6298	0.0045
758.8051	0.0029
758.9803	0.0054
759.1556	0.011
759.3308	0.0226
759.506	0.0113
759.6812	0.0006
759.8564	-0.0063
760.0316	0.0084
760.2067	0.0144
760.3819	-0.0009
760.557	0.0149
760.732	-0.0019
760.9071	0.0257
761.0821	-0.0164
761.2572	0.0041
761.4322	0.0171
761.6072	0.0126
761.7821	-0.0227
761.9571	0.0096
762.132	0.0006
762.3069	0.0221
762.4818	0.0095
762.6567	0.0231
762.8316	0.0154
763.0064	0.0141
763.1812	0.024
763.356	-0.0053
763.5308	0.0202
763.7055	0.0015
763.8803	0.0053
764.055	-0.0141
764.2297	0.0006
764.4044	0.0013
764.579	0.0057
764.7537	0.0084
764.9283	0.0192
765.1029	0.0061
765.2775	0.0232
765.4521	0.0151
765.6266	0.0113
765.8011	0.0304
765.9756	0.0079
766.1501	-0.0027
766.3246	0.0198
766.4991	0.02
766.6735	0.0353
766.8479	0.0073
767.0223	0.0109
767.1967	-0.0211
767.371	0.0034
767.5454	0.0283
767.7197	0.0285
767.894	0.0003
768.0683	0.0292
768.2425	0.0105
768.4168	0.01
768.591	0.0192
768.7652	0.0094
768.9394	-0.0042
769.1135	-0.0087
769.2877	0.0007
769.4618	0.0297
769.6359	-0.0014
769.81	0.02
769.984	0.001
770.1581	0.0139
770.3321	0.0516
770.5061	-0.0145
770.6801	-0.0177
770.8541	0.0026
771.028	0.0438
771.202	0.012
771.3759	0.0116
771.5498	0.0152
771.7236	0.0139
771.8975	0.0344
772.0713	-0.0181
772.2451	-0.0098
772.4189	0.0197
772.5927	-0.0261
772.7665	0.0336
772.9402	0.0153
773.1139	-0.0111
773.2876	-0.0227
773.4613	0.035
773.635	0.0482
773.8086	0.0072
773.9822	0.0101
774.1558	0.0144
774.3294	0.0344
774.503	-0.0016
774.6765	0.054
774.8501	-0.009
775.0236	0.0265
775.1971	-0.0276
775.3705	0.0221
775.544	-0.0153
775.7174	0.0147
775.8908	0.0023
776.0642	0.0357
776.2376	-0.0101
776.4109	0.0573
776.5843	0.0032
776.7576	0.0294
776.9309	0.0193
777.1041	-0.016
777.2774	-0.0019
777.4506	0.0335
777.6238	-0.0175
777.797	0.0112
777.9702	0.0261
778.1434	-0.0045
778.3165	0.0035
778.4896	-0.0509
778.6627	0.0056
778.8358	-0.0194
779.0089	-0.032
779.1819	0.0107
779.3549	0.026
779.5279	-0.0105
779.7009	0.0654
779.8739	0.0368
780.0468	0.0005
780.2197	0.0004
780.3926	-0.0086
780.5655	0.0215
780.7384	-0.0038
780.9112	0.0224
781.0841	-0.0043
781.2569	0.0173
781.4297	0.0095
781.6024	0.0076
781.7752	0.0637
781.9479	0.0342
782.1206	-0.0049
782.2933	0.0049
782.466	0.0347
782.6386	-0.0064
782.8113	0.0086
782.9839	-0.0083
783.1565	0.0265
783.329	0.0163
783.5016	0.005
783.6741	-0.011
783.8466	0.0128
784.0191	-0.003
784.1916	-0.0195
784.3641	-0.0149
784.5365	-0.0025
784.7089	-0.0028
784.8813	0.0738
785.0537	0.0444
785.2261	-0.0155
785.3984	-0.0145
785.5707	0.0155
785.743	0.0401
785.9153	0.008
786.0876	-0.0137
786.2598	-0.0333
786.432	0.0234
786.6042	0.051
786.7764	-0.025
786.9486	-0.0091
787.1207	0.055
787.2928	0.0189
787.4649	-0.013
787.637	0.0148
787.8091	0.0021
787.9811	0.0167
788.1532	0.0221
788.3252	-0.0139
788.4972	-0.0007
788.6691	0.0135
788.8411	-0.0038
789.013	0.017
789.1849	-0.0453
789.3568	0.0077
789.5287	0.0072
789.7005	-0.0561
789.8723	-0.071
790.0442	-0.0282
790.2159	0.0007
790.3877	0.0234
790.5595	0.0198
790.7312	-0.0265
790.9029	-0.0357
791.0746	-0.0104
791.2463	-0.067
791.4179	0.0147
791.5896	0.0066
791.7612	0.0471
791.9328	0.0046
792.1044	0.029
792.2759	-0.0078
792.4474	-0.0274
792.619	0.0053
792.7905	0.0389
792.9619	0.0112
793.1334	0.0554
793.3048	0.0255
793.4762	-0.016
793.6476	-0.053
793.819	0.0202
793.9904	-0.0232
794.1617	-0.0296
794.333	0.0145
794.5043	0.0463
794.6756	0.0253
794.8469	0.0204
795.0181	0.0036
795.1893	-0.0033
795.3605	0.0387
795.5317	0.0259
795.7029	-0.0396
795.874	0.0139
796.0452	-0.0123
796.2163	0.0489
796.3873	0.0688
796.5584	0.0027
796.7294	-0.0151
796.9005	-0.0219
797.0715	0.0026
797.2425	0.0413
797.4134	0.063
797.5844	0.0264
797.7553	-0.0692
797.9262	0.0432
798.0971	0.0342
798.2679	0.031
798.4388	0.0099
798.6096	-0.0152
798.7804	0.0094
798.9512	-0.022
799.122	-0.0337
799.2927	0.0836
799.4635	-0.06
799.6342	-0.0427
799.8049	0.1136
799.9755	-0.0481
800.1462	0.0037
800.3168	-0.0044
800.4874	-0.0748
800.658	0.0313
800.8286	0.0136
800.9991	0.0026
801.1696	0.001
801.3402	-0.0278
801.5106	-0.0192
801.6811	0.0048
801.8516	0.116
802.022	-0.0062
802.1924	-0.0644
802.3628	0.0194
802.5332	-0.0047
802.7035	0.034
802.8739	0.0421
803.0442	0.0343
803.2145	0.0423
803.3847	-0.0375
803.555	0.0563
803.7252	-0.0768
803.8954	-0.0245
804.0656	-0.0283
804.2358	0.0374
804.4059	0.0168
804.5761	-0.0281
804.7462	0.0604
804.9163	-0.0352
805.0864	0.0319
805.2564	0.0148
805.4264	-0.0338
805.5965	0.0423
805.7665	0.0493
805.9364	-0.0348
806.1064	0.04
806.2763	0.0209
806.4462	0.0025
806.6161	0.0517
806.786	-0.0265
806.9559	0.0206
807.1257	0.0151
807.2955	-0.0553
807.4653	0.0104
807.6351	0.0082
807.8048	-0.0099
807.9746	0.0495
808.1443	0.0091
808.314	0.0102
808.4837	0.1
808.6533	0.0508
808.8229	0.0341
808.9926	-0.0058
809.1622	0.0427
809.3317	-0.076
809.5013	-0.0712
809.6708	0.0322
809.8403	0.0142
810.0098	0.0212
810.1793	0.0056
810.3488	-0.0548
810.5182	0.1553
810.6876	0.0131
810.857	0.0458
811.0264	-0.0912
811.1958	0.0498
811.3651	-0.0681
811.5344	0.0076
811.7037	-0.0364
811.873	-0.0121
812.0422	-0.1459
812.2115	-0.0256
812.3807	-0.1317
812.5499	-0.0497
812.7191	-0.1074
812.8882	-0.0567
813.0574	-0.0286
813.2265	0.03
813.3956	-0.0535
813.5646	0.0084
813.7337	0.0084
813.9027	-0.0877
814.0718	0.0439
814.2407	-0.0085
814.4097	0.0065
814.5787	0.0861
814.7476	-0.0105
814.9165	-0.002
815.0854	-0.0505
815.2543	0.0619
815.4232	0.1262
815.592	-0.0181
815.7608	0.0151
815.9296	0.0161
816.0984	-0.0508
816.2671	-0.2463
816.4359	0.1109
816.6046	-0.1058
816.7733	-0.0764
816.942	-0.0941
817.1106	0.0501
817.2793	-0.0447
817.4479	-0.0214
817.6165	0.0243
817.785	0.0917
817.9536	-0.0855
818.1221	-0.0602
818.2906	-0.0143
818.4591	0.0436
818.6276	0.1459
818.7961	-0.0197
818.9645	-0.0084
819.1329	0.4365
819.3013	-0.0074
819.4697	0.0688
819.638	0.2074
819.8064	-0.0234
819.9747	0.1058
820.143	-0.1361
820.3113	0.1167
820.4795	0.0359
820.6477	0.1114
820.816	0.0393
820.9842	0.0391
821.1523	-0.0031
821.3205	0.0095
821.4886	-0.0128
821.6567	0.0638
821.8248	0.0594
821.9929	-0.164
822.1609	-0.0364
822.329	0.073
822.497	0.0485
822.665	0.0359
822.833	-0.0704
823.0009	-0.1037
823.1688	0.103
823.3367	-0.1497
823.5046	-0.0063
823.6725	0.1544
823.8404	-0.0469
824.0082	-0.0381
824.176	-0.1341
824.3438	0.1572
824.5116	-0.0798
824.6793	0.0018
824.847	-0.1356
825.0147	-0.0178
825.1824	-0.021
825.3501	0.0806
825.5177	-0.0627
825.6854	-0.0793
825.853	0.0313
826.0206	-0.0048
826.1881	-0.0426
826.3557	0.0717
826.5232	0.1589
826.6907	0.0411
826.8582	-0.0648
827.0257	0.2309
827.1931	0.1644
827.3605	0.0872
827.528	-0.0904
827.6953	-0.2492
827.8627	-0.0163
828.03	0.0844
828.1974	0.0159
828.3647	0.0128
828.532	-0.0198
828.6992	0.1492
828.8665	-0.1546
829.0337	-0.0474
829.2009	-0.0129
829.3681	-0.0317
829.5352	-0.2165
829.7024	-0.1508
829.8695	-0.0709
830.0366	0.0724
830.2037	0.0816
830.3707	0.0727
830.5378	-0.0728
830.7048	-0.1808
830.8718	0.0735
831.0388	0.0796
831.2057	0.0703
831.3727	-0.0191
831.5396	-0.0297
831.7065	-0.9325
831.8734	0.5433
832.0402	0.0382
832.2071	-0.793
832.3739	-0.0369
832.5407	-1.5109
832.7075	-0.033
832.8742	0.3235
833.041	-0.0065
833.2077	0.1115
833.3744	0.1251
833.541	-0.1254
833.7077	-0.0203
833.8743	-0.0336
834.0409	0.1018
834.2075	0.0657
834.3741	-0.1395
834.5407	-0.0673
834.7072	0.063
834.8737	0.1695
835.0402	0.5125
835.2067	-0.1957
835.3731	-0.1104
835.5395	-0.0629
835.706	0.1533
835.8723	0.104
836.0387	0.065
836.2051	0.2116
836.3714	-0.1358
836.5377	0.3963
836.704	-0.0279
836.8703	-0.1738
837.0365	-0.8437
837.2027	0.0566
837.3689	0.0464
837.5351	-0.0291
837.7013	-0.2687
837.8674	-0.1768
838.0335	0.1446
838.1997	0.0848
838.3657	0.2585
838.5318	-0.6399
838.6978	-0.0319
838.8639	-0.5499
839.0299	-0.1205
839.1958	0.052
839.3618	0.5166
839.5277	-0.0384
839.6937	-0.2318
839.8596	-0.2943
840.0254	-0.0192
840.1913	-0.4601
840.3571	0.0382
840.523	-1.1644
840.6888	0.1682
840.8545	-0.4688
841.0203	0.269
841.186	0.0281
841.3517	-0.1236
841.5174	0.1933
841.6831	-0.1005
841.8488	-0.0272
842.0144	0.1733
842.18	0.189
842.3456	-0.2604
842.5112	-0
842.6767	-0.0745
842.8422	-0
843.0077	0.3422
843.1732	-0.0273
843.3387	0.2138
843.5042	-0
843.6696	-0.3759
843.835	-0.2995
844.0004	-0.1963
844.1657	-1.1606
844.3311	0.1963
844.4964	-0.8582
844.6617	0.4983
844.827	-0
844.9923	0.3096
845.1575	0.193
845.3227	-0.4849
845.4879	-0.1647
845.6531	0.2015
845.8183	0.7273
845.9834	-0
846.1485	0.0653
846.3136	-0.4114
846.4787	-0
846.6438	0.6731
846.8088	0.1782
846.9738	-1.0101
847.1388	0.3882
847.3038	0.0498
847.4687	0.3917
847.6337	-0.2037
847.7986	-0.195
847.9635	-0.3155
848.1284	0.2106
848.2932	0.2275
848.458	-0
848.6228	0.3896
848.7876	0.1844
848.9524	1.1708
849.1172	-1.8013
849.2819	-0.5125
849.4466	0.063
849.6113	-0.0338
849.7759	-0
849.9406	0.1782
850.1052	-1.1412
850.2698	-0
850.4344	-0.8096
850.599	-0.2158
850.7635	0.1368
850.928	0.1695
851.0925	0.9607
851.257	-0
851.4215	1.2029
851.5859	0.1638
851.7503	-0
851.9147	-0.3666
852.0791	0.0235
852.2434	0.1081
852.4078	2.2672
852.5721	-0.012
852.7364	0.1287
852.9007	-0.2681
853.0649	-0
853.2291	0.0063
853.3934	-0
853.5575	0.8029
853.7217	0.4286
853.8859	-0
854.05	-0.4444
854.2141	0.2849
854.3782	0.4116
854.5423	-0.2979
854.7063	0.0158
854.8703	0.0534
855.0343	-0.1406
855.1983	-0.0173
855.3623	-0.0028
855.5262	-0
855.6901	0.3244
855.854	0.1955
856.0179	-0.1495
856.1818	0.0065
856.3456	0.3829
856.5094	0.0938
856.6732	-0.7813
856.837	-0.7897
857.0008	-0.5704
857.1645	-0.4317
857.3282	-0.5679
857.4919	-0.0026
857.6556	0.1689
857.8192	-0.2013
857.9828	-0.1205
858.1465	-0.0169
858.31	-0
858.4736	-0.7463
858.6372	-0.4462
858.8007	-0.2529
858.9642	-0.0019
859.1277	-0
859.2911	-0.6702
859.4546	-0
859.618	-0.1093
859.7814	-0
859.9448	0.9371
860.1081	-0
860.2715	-0.9258
860.4348	-0.2136
860.5981	0.2198
860.7614	0.2918
860.9246	0.166
861.0879	0.6362
861.2511	-0
861.4143	-0.8428
861.5774	-0.3722
861.7406	0.4356
861.9037	-0.1165
862.0668	-0.638
862.2299	-0.0479
862.393	-0
862.556	0.1136
862.7191	0.2425
862.8821	0.4205
863.0451	0.1785
863.208	-0.5428
863.371	0.4688
863.5339	0.2233
863.6968	1.6461
863.8597	-0.2374
864.0225	0.1117
864.1854	0.2374
864.3482	-1.1431
864.511	0.1785
864.6737	-0.1752
864.8365	-0.143
864.9992	0.17
865.1619	-0.5391
865.3246	-1.0864
865.4873	-0.5961
865.65	0.1364
865.8126	0.1925
865.9752	-0.3247
866.1378	-0.2519
866.3004	-0.2059
866.4629	-0.699
866.6254	-0.2567
866.7879	-0.1001
866.9504	2.0969
867.1129	0.324
867.2753	0.0422
867.4377	-0.1111
867.6001	0.6064
867.7625	0.0671
867.9249	-0.1502
868.0872	0.1569
868.2495	0.4864
868.4118	-0
868.5741	0.1616
868.7363	-0
868.8986	-0.4742
869.0608	-0.5184
869.223	-0.0688
869.3851	0.8354
869.5473	0.0516
869.7094	-0
869.8715	-0.9216
870.0336	0.0321
870.1957	-0
870.3577	1.2801
870.5197	0.1728
870.6817	-0.2196
870.8437	-0.0058
871.0057	0.1405
871.1676	0.0447
871.3295	0.4413
871.4914	-0
871.6533	-0
871.8151	0.3144
871.977	0.3528
872.1388	-0
872.3006	-0
872.4623	-0
872.6241	-0
872.7858	-0.0933
872.9475	-0
873.1092	-0.1208
873.2709	0.1717
873.4325	-1.2304
873.5941	-0
873.7557	1.5088
873.9173	0.1303
874.0789	-0.0446
874.2404	-0
874.4019	-0.0728
874.5634	-0
874.7249	-0
874.8863	-0
875.0478	-0.4261
875.2092	0.199
875.3706	0.4453
875.5319	0.473
875.6933	-0
875.8546	-0.3402
876.0159	-0.0101
876.1772	0.3886
876.3385	-0
876.4997	0.7274
876.6609	-0
876.8221	1.1644
876.9833	0.2684
877.1445	0.2247
877.3056	-1.155
877.4667	-0
877.6278	0.0803
877.7889	0.1813
877.9499	-0
878.111	-0.3792
878.272	-0.3504
878.433	-0
878.5939	-0.3941
878.7549	-0
878.9158	0.5466
879.0767	-0
879.2376	-0.5984
879.3984	0.2006
879.5593	-0.1677
879.7201	-1.4359
879.8809	1.2575
880.0417	-0.3503
880.2024	0.0448
880.3632	-0.0473
880.5239	-0
880.6846	-0.5565
880.8452	-0.2401
881.0059	-0.664
881.1665	-0.0938
881.3271	-0
881.4877	0.0148
881.6483	-0.6329
881.8088	-0
881.9693	-0
882.1298	-0
882.2903	-0
