Data from D4ACN5uM420nmA_Absorbance_14-37-09-101.txt Node
Date: Fri Feb 21 14:37:09 GMT 2025
User: LASERRRRR
Spectrometer: FLMT03099
Trigger mode: 0
Integration Time (sec): 1.500000E-2
Scans to average: 1
Electric dark correction enabled: true
Nonlinearity correction enabled: false
Boxcar width: 0
XAxis mode: Wavelengths
Number of Pixels in Spectrum: 3648
>>>>>Begin Spectral Data<<<<<
179.3399	-0.0453
179.5586	-0.0453
179.7771	-0.0453
179.9957	-0.2957
180.2143	-1.6036
180.4329	-0.1912
180.6514	-0
180.8699	-0.2737
181.0885	-0.2609
181.307	-0
181.5255	0.7789
181.744	-0.4229
181.9625	0.9252
182.181	-0
182.3994	-0.5926
182.6179	-0.2188
182.8363	-0
183.0547	-0.0892
183.2732	0.0551
183.4916	0.4415
183.71	0.2027
183.9284	-0.0869
184.1467	0.1507
184.3651	-0.0666
184.5835	0.1726
184.8018	0.0159
185.0201	0.3865
185.2385	0.2225
185.4568	0.297
185.6751	0.1412
185.8934	0.4436
186.1117	-0.0582
186.3299	0.17
186.5482	0.1189
186.7664	0.1555
186.9847	0.1235
187.2029	0.0795
187.4211	0.1263
187.6393	0.0135
187.8575	0.3472
188.0757	0.7469
188.2939	0.1516
188.512	0.125
188.7302	0.0593
188.9483	0.3872
189.1665	1.2468
189.3846	0.1857
189.6027	0.0735
189.8208	0.4558
190.0389	0.2017
190.257	0.0737
190.475	0.125
190.6931	0.1148
190.9111	0.1378
191.1292	0.0789
191.3472	0.0476
191.5652	0.346
191.7832	0.2837
192.0012	0.258
192.2192	0.1617
192.4371	0.1665
192.6551	0.0721
192.873	0.1796
193.091	0.1404
193.3089	0.1585
193.5268	0.2085
193.7447	0.1036
193.9626	0.1916
194.1805	0.2474
194.3984	0.212
194.6162	0.2082
194.8341	0.2435
195.0519	0.2099
195.2697	0.2051
195.4875	0.2136
195.7054	0.3671
195.9231	0.2363
196.1409	0.3309
196.3587	0.2828
196.5765	0.2783
196.7942	0.2967
197.012	0.2791
197.2297	0.3198
197.4474	0.3197
197.6651	0.3669
197.8828	0.3857
198.1005	0.4126
198.3182	0.3727
198.5358	0.376
198.7535	0.3437
198.9711	0.3797
199.1888	0.3112
199.4064	0.359
199.624	0.3926
199.8416	0.3465
200.0592	0.3949
200.2767	0.3582
200.4943	0.442
200.7119	0.4048
200.9294	0.4228
201.1469	0.41
201.3645	0.4058
201.582	0.3612
201.7995	0.4025
202.017	0.411
202.2344	0.4032
202.4519	0.3771
202.6694	0.3646
202.8868	0.3794
203.1042	0.3937
203.3217	0.4166
203.5391	0.4095
203.7565	0.3434
203.9739	0.3879
204.1913	0.3155
204.4086	0.3423
204.626	0.3382
204.8433	0.356
205.0607	0.3796
205.278	0.3719
205.4953	0.3306
205.7126	0.3563
205.9299	0.3183
206.1472	0.3031
206.3644	0.3559
206.5817	0.3306
206.7989	0.3519
207.0162	0.3316
207.2334	0.3293
207.4506	0.3157
207.6678	0.2962
207.885	0.2997
208.1022	0.316
208.3194	0.2741
208.5365	0.3183
208.7537	0.2914
208.9708	0.2722
209.1879	0.2868
209.405	0.276
209.6222	0.2615
209.8392	0.2961
210.0563	0.267
210.2734	0.2652
210.4905	0.2696
210.7075	0.2661
210.9245	0.2564
211.1416	0.2571
211.3586	0.2737
211.5756	0.2328
211.7926	0.2541
212.0096	0.2587
212.2265	0.2571
212.4435	0.2555
212.6604	0.2234
212.8774	0.2216
213.0943	0.2376
213.3112	0.2421
213.5281	0.2498
213.745	0.2082
213.9619	0.2404
214.1788	0.2568
214.3956	0.2399
214.6125	0.2334
214.8293	0.2527
215.0461	0.241
215.2629	0.2521
215.4798	0.2246
215.6965	0.2377
215.9133	0.2197
216.1301	0.2309
216.3469	0.223
216.5636	0.23
216.7803	0.2458
216.9971	0.2364
217.2138	0.2501
217.4305	0.2513
217.6472	0.2395
217.8639	0.2412
218.0805	0.2427
218.2972	0.2254
218.5138	0.2409
218.7305	0.2511
218.9471	0.246
219.1637	0.2594
219.3803	0.2385
219.5969	0.2341
219.8135	0.2607
220.0301	0.2546
220.2466	0.2604
220.4632	0.2432
220.6797	0.2454
220.8962	0.2597
221.1127	0.2482
221.3292	0.2476
221.5457	0.2744
221.7622	0.2487
221.9787	0.2788
222.1951	0.259
222.4116	0.2614
222.628	0.2761
222.8444	0.2708
223.0608	0.2654
223.2772	0.2808
223.4936	0.2734
223.71	0.2822
223.9264	0.2958
224.1427	0.2727
224.3591	0.2755
224.5754	0.2842
224.7917	0.2877
225.008	0.2945
225.2243	0.295
225.4406	0.2883
225.6569	0.3058
225.8732	0.3012
226.0894	0.3045
226.3057	0.3086
226.5219	0.3072
226.7381	0.3086
226.9543	0.3093
227.1705	0.3017
227.3867	0.3118
227.6029	0.3205
227.8191	0.3334
228.0352	0.3452
228.2513	0.3451
228.4675	0.3406
228.6836	0.3423
228.8997	0.3455
229.1158	0.3525
229.3319	0.3709
229.548	0.3422
229.764	0.3571
229.9801	0.3623
230.1961	0.3772
230.4121	0.3725
230.6282	0.3777
230.8442	0.3847
231.0602	0.3846
231.2761	0.3851
231.4921	0.3888
231.7081	0.4049
231.924	0.4041
232.14	0.4067
232.3559	0.4107
232.5718	0.4121
232.7877	0.4193
233.0036	0.4023
233.2195	0.4213
233.4353	0.4236
233.6512	0.4186
233.867	0.4323
234.0829	0.4255
234.2987	0.4237
234.5145	0.4245
234.7303	0.4348
234.9461	0.4407
235.1619	0.4455
235.3776	0.423
235.5934	0.437
235.8091	0.4468
236.0249	0.4553
236.2406	0.438
236.4563	0.4551
236.672	0.4365
236.8877	0.4399
237.1034	0.4382
237.319	0.4464
237.5347	0.4476
237.7503	0.4514
237.966	0.4638
238.1816	0.4529
238.3972	0.454
238.6128	0.4525
238.8284	0.4694
239.0439	0.4676
239.2595	0.4735
239.475	0.4609
239.6906	0.4635
239.9061	0.4576
240.1216	0.4657
240.3371	0.4627
240.5526	0.4675
240.7681	0.4715
240.9836	0.4621
241.199	0.4566
241.4145	0.4609
241.6299	0.4544
241.8453	0.4352
242.0607	0.4496
242.2761	0.4432
242.4915	0.4437
242.7069	0.4314
242.9223	0.4323
243.1376	0.4249
243.353	0.4139
243.5683	0.4049
243.7836	0.4057
243.9989	0.388
244.2142	0.3846
244.4295	0.3841
244.6448	0.3746
244.86	0.3678
245.0753	0.3627
245.2905	0.3489
245.5057	0.3504
245.721	0.3468
245.9362	0.3407
246.1514	0.3269
246.3665	0.3222
246.5817	0.3093
246.7969	0.3062
247.012	0.3017
247.2271	0.3023
247.4423	0.3014
247.6574	0.2876
247.8725	0.2892
248.0876	0.277
248.3026	0.2712
248.5177	0.2688
248.7328	0.2654
248.9478	0.2568
249.1628	0.2544
249.3779	0.2485
249.5929	0.2459
249.8079	0.2446
250.0228	0.2377
250.2378	0.238
250.4528	0.2348
250.6677	0.2266
250.8827	0.2201
251.0976	0.2223
251.3125	0.2224
251.5274	0.2168
251.7423	0.2091
251.9572	0.2143
252.172	0.2098
252.3869	0.2075
252.6017	0.2025
252.8166	0.2058
253.0314	0.2034
253.2462	0.2018
253.461	0.1921
253.6758	0.1939
253.8906	0.1928
254.1053	0.1968
254.3201	0.1947
254.5348	0.1926
254.7496	0.188
254.9643	0.1968
255.179	0.1894
255.3937	0.1945
255.6083	0.1951
255.823	0.1854
256.0377	0.1859
256.2523	0.1879
256.467	0.1894
256.6816	0.1819
256.8962	0.1863
257.1108	0.1867
257.3254	0.1852
257.54	0.1762
257.7545	0.1871
257.9691	0.1825
258.1836	0.18
258.3981	0.1833
258.6127	0.1788
258.8272	0.188
259.0417	0.1798
259.2561	0.1817
259.4706	0.1869
259.6851	0.1763
259.8995	0.1773
260.114	0.1779
260.3284	0.1831
260.5428	0.1822
260.7572	0.179
260.9716	0.1911
261.186	0.1797
261.4003	0.1819
261.6147	0.1783
261.829	0.1816
262.0433	0.1805
262.2577	0.1818
262.472	0.1826
262.6863	0.1873
262.9005	0.1837
263.1148	0.1864
263.3291	0.1841
263.5433	0.1911
263.7576	0.1914
263.9718	0.1861
264.186	0.19
264.4002	0.1887
264.6144	0.1955
264.8286	0.1964
265.0427	0.19
265.2569	0.1938
265.471	0.1906
265.6851	0.1955
265.8993	0.1879
266.1134	0.1931
266.3275	0.1918
266.5415	0.1919
266.7556	0.1938
266.9697	0.1943
267.1837	0.1983
267.3978	0.1976
267.6118	0.1937
267.8258	0.1967
268.0398	0.1974
268.2538	0.1999
268.4677	0.1922
268.6817	0.194
268.8957	0.1872
269.1096	0.1907
269.3235	0.1931
269.5374	0.194
269.7514	0.1977
269.9652	0.1898
270.1791	0.1869
270.393	0.189
270.6068	0.1904
270.8207	0.1886
271.0345	0.1911
271.2483	0.1867
271.4622	0.1936
271.676	0.1915
271.8897	0.1959
272.1035	0.1977
272.3173	0.1915
272.531	0.1908
272.7448	0.1903
272.9585	0.191
273.1722	0.1916
273.3859	0.1907
273.5996	0.1976
273.8133	0.1936
274.0269	0.1896
274.2406	0.1978
274.4542	0.1977
274.6679	0.1978
274.8815	0.2003
275.0951	0.2051
275.3087	0.2048
275.5223	0.1967
275.7358	0.2045
275.9494	0.2017
276.1629	0.2087
276.3765	0.2091
276.59	0.2022
276.8035	0.2
277.017	0.2105
277.2305	0.2112
277.444	0.2087
277.6574	0.2118
277.8709	0.2162
278.0843	0.2126
278.2978	0.2114
278.5112	0.2091
278.7246	0.2069
278.938	0.2019
279.1513	0.2099
279.3647	0.2065
279.5781	0.2002
279.7914	0.2051
280.0047	0.2133
280.2181	0.2018
280.4314	0.201
280.6447	0.2131
280.8579	0.1959
281.0712	0.1994
281.2845	0.2028
281.4977	0.1985
281.711	0.1934
281.9242	0.1953
282.1374	0.1939
282.3506	0.1992
282.5638	0.1978
282.7769	0.1853
282.9901	0.1908
283.2033	0.1923
283.4164	0.1919
283.6295	0.1959
283.8426	0.1884
284.0557	0.1923
284.2688	0.191
284.4819	0.1901
284.695	0.1999
284.908	0.1851
285.1211	0.1935
285.3341	0.1886
285.5471	0.1973
285.7601	0.1918
285.9731	0.1871
286.1861	0.1874
286.3991	0.1902
286.612	0.1861
286.825	0.1908
287.0379	0.1908
287.2508	0.186
287.4637	0.1907
287.6766	0.1908
287.8895	0.1873
288.1024	0.1917
288.3152	0.1915
288.5281	0.1863
288.7409	0.196
288.9538	0.1922
289.1666	0.1862
289.3794	0.1875
289.5922	0.1852
289.8049	0.1923
290.0177	0.1874
290.2304	0.1859
290.4432	0.1923
290.6559	0.1899
290.8686	0.1887
291.0813	0.1869
291.294	0.1884
291.5067	0.1863
291.7194	0.1898
291.932	0.1854
292.1447	0.1895
292.3573	0.1859
292.5699	0.1925
292.7825	0.1817
292.9951	0.1877
293.2077	0.1853
293.4203	0.1859
293.6328	0.1863
293.8454	0.1866
294.0579	0.1866
294.2704	0.1958
294.4829	0.1876
294.6954	0.1844
294.9079	0.1852
295.1204	0.1784
295.3328	0.19
295.5453	0.186
295.7577	0.1873
295.9701	0.1847
296.1825	0.1852
296.3949	0.1869
296.6073	0.1875
296.8197	0.1846
297.0321	0.1857
297.2444	0.183
297.4567	0.1896
297.6691	0.1871
297.8814	0.1871
298.0937	0.186
298.306	0.1832
298.5182	0.1918
298.7305	0.1866
298.9428	0.1903
299.155	0.1846
299.3672	0.1825
299.5794	0.1867
299.7916	0.1853
300.0038	0.1828
300.216	0.1869
300.4282	0.1916
300.6403	0.19
300.8525	0.1921
301.0646	0.1841
301.2767	0.1876
301.4888	0.1891
301.7009	0.1897
301.913	0.1904
302.125	0.1845
302.3371	0.1843
302.5491	0.1954
302.7612	0.1917
302.9732	0.1917
303.1852	0.1881
303.3972	0.188
303.6092	0.1898
303.8211	0.1849
304.0331	0.1909
304.245	0.1881
304.457	0.1925
304.6689	0.1876
304.8808	0.1837
305.0927	0.1863
305.3046	0.1796
305.5164	0.1819
305.7283	0.1777
305.9401	0.1676
306.152	0.1797
306.3638	0.1769
306.5756	0.1802
306.7874	0.1769
306.9992	0.1737
307.2109	0.1743
307.4227	0.1714
307.6344	0.1775
307.8462	0.169
308.0579	0.1783
308.2696	0.1694
308.4813	0.1684
308.693	0.1633
308.9046	0.1673
309.1163	0.1679
309.328	0.1627
309.5396	0.1604
309.7512	0.1586
309.9628	0.1608
310.1744	0.1608
310.386	0.1572
310.5976	0.1558
310.8091	0.1598
311.0207	0.1602
311.2322	0.1526
311.4437	0.1559
311.6552	0.1513
311.8667	0.1528
312.0782	0.1514
312.2897	0.1517
312.5012	0.1462
312.7126	0.1477
312.924	0.1515
313.1355	0.1467
313.3469	0.1452
313.5583	0.1489
313.7696	0.1483
313.981	0.1458
314.1924	0.1471
314.4037	0.1455
314.6151	0.1452
314.8264	0.1498
315.0377	0.1445
315.249	0.1377
315.4603	0.1373
315.6716	0.1451
315.8828	0.1457
316.0941	0.1442
316.3053	0.1392
316.5165	0.1412
316.7277	0.1432
316.9389	0.1417
317.1501	0.1426
317.3613	0.1396
317.5724	0.1419
317.7836	0.1385
317.9947	0.1369
318.2058	0.1348
318.417	0.1416
318.6281	0.1415
318.8391	0.1464
319.0502	0.1399
319.2613	0.1408
319.4723	0.1406
319.6834	0.1474
319.8944	0.1367
320.1054	0.1365
320.3164	0.14
320.5274	0.1389
320.7383	0.1377
320.9493	0.1411
321.1602	0.1397
321.3712	0.1366
321.5821	0.1339
321.793	0.1423
322.0039	0.1431
322.2148	0.1393
322.4257	0.1361
322.6365	0.1374
322.8474	0.1433
323.0582	0.1425
323.269	0.1472
323.4798	0.1435
323.6906	0.1369
323.9014	0.1329
324.1122	0.1358
324.3229	0.1467
324.5337	0.1435
324.7444	0.1462
324.9551	0.1456
325.1658	0.1384
325.3765	0.1439
325.5872	0.1471
325.7979	0.1475
326.0085	0.1427
326.2192	0.1451
326.4298	0.1447
326.6404	0.1516
326.851	0.142
327.0616	0.1482
327.2722	0.1462
327.4828	0.1471
327.6933	0.1555
327.9039	0.1465
328.1144	0.1538
328.3249	0.1556
328.5354	0.1584
328.7459	0.1498
328.9564	0.1564
329.1669	0.1569
329.3773	0.1503
329.5878	0.1475
329.7982	0.1555
330.0086	0.1582
330.219	0.1469
330.4294	0.1593
330.6398	0.1568
330.8502	0.1609
331.0605	0.1564
331.2708	0.1562
331.4812	0.1574
331.6915	0.1639
331.9018	0.1573
332.1121	0.1624
332.3224	0.1573
332.5326	0.1548
332.7429	0.1573
332.9531	0.1572
333.1633	0.1508
333.3735	0.1548
333.5837	0.1595
333.7939	0.1549
334.0041	0.1604
334.2143	0.1542
334.4244	0.1676
334.6346	0.1544
334.8447	0.1541
335.0548	0.1623
335.2649	0.1584
335.475	0.1606
335.685	0.1613
335.8951	0.1489
336.1051	0.1559
336.3152	0.1624
336.5252	0.1516
336.7352	0.156
336.9452	0.1579
337.1552	0.1578
337.3652	0.1529
337.5751	0.1567
337.7851	0.1551
337.995	0.1523
338.2049	0.1547
338.4148	0.156
338.6247	0.1489
338.8346	0.156
339.0445	0.1516
339.2543	0.1554
339.4642	0.1521
339.674	0.1524
339.8838	0.1571
340.0936	0.157
340.3034	0.1605
340.5132	0.1536
340.7229	0.1572
340.9327	0.1696
341.1424	0.1559
341.3522	0.1547
341.5619	0.1562
341.7716	0.1592
341.9813	0.1619
342.1909	0.1631
342.4006	0.1705
342.6102	0.1691
342.8199	0.1639
343.0295	0.1633
343.2391	0.1627
343.4487	0.1646
343.6583	0.1706
343.8679	0.1693
344.0774	0.1637
344.287	0.175
344.4965	0.1743
344.706	0.1722
344.9155	0.1691
345.125	0.1744
345.3345	0.1822
345.544	0.1749
345.7534	0.1793
345.9629	0.1828
346.1723	0.1853
346.3817	0.171
346.5911	0.1841
346.8005	0.1844
347.0099	0.1813
347.2193	0.1842
347.4286	0.1923
347.638	0.1856
347.8473	0.1878
348.0566	0.1841
348.2659	0.1845
348.4752	0.1864
348.6845	0.1886
348.8937	0.1888
349.103	0.1858
349.3122	0.1867
349.5214	0.1907
349.7306	0.1879
349.9398	0.1859
350.149	0.1888
350.3582	0.1914
350.5674	0.1889
350.7765	0.1934
350.9856	0.1873
351.1948	0.1841
351.4039	0.1946
351.613	0.1881
351.822	0.1972
352.0311	0.1956
352.2402	0.1922
352.4492	0.1913
352.6582	0.1923
352.8672	0.1896
353.0762	0.1901
353.2852	0.1968
353.4942	0.1934
353.7032	0.1829
353.9121	0.1827
354.1211	0.1906
354.33	0.1928
354.5389	0.19
354.7478	0.186
354.9567	0.1904
355.1655	0.189
355.3744	0.1816
355.5833	0.1881
355.7921	0.1852
356.0009	0.1934
356.2097	0.1786
356.4185	0.1898
356.6273	0.1921
356.8361	0.1972
357.0448	0.1938
357.2536	0.1906
357.4623	0.1867
357.671	0.1942
357.8797	0.1899
358.0884	0.1828
358.2971	0.1836
358.5057	0.194
358.7144	0.1908
358.923	0.1974
359.1316	0.2038
359.3402	0.1978
359.5488	0.1884
359.7574	0.1935
359.966	0.1884
360.1746	0.1949
360.3831	0.1986
360.5916	0.1953
360.8002	0.2007
361.0087	0.1897
361.2172	0.2044
361.4256	0.2004
361.6341	0.2041
361.8426	0.2046
362.051	0.1979
362.2594	0.1923
362.4678	0.2088
362.6762	0.2021
362.8846	0.1997
363.093	0.213
363.3014	0.2059
363.5097	0.2
363.718	0.2151
363.9264	0.203
364.1347	0.2093
364.343	0.2069
364.5513	0.2123
364.7595	0.2146
364.9678	0.205
365.176	0.214
365.3842	0.2162
365.5925	0.2076
365.8007	0.2143
366.0089	0.2138
366.217	0.213
366.4252	0.2211
366.6333	0.2149
366.8415	0.2184
367.0496	0.2177
367.2577	0.2138
367.4658	0.212
367.6739	0.2146
367.882	0.2185
368.09	0.2117
368.2981	0.2214
368.5061	0.2211
368.7141	0.2111
368.9221	0.2337
369.1301	0.2274
369.3381	0.2266
369.5461	0.2257
369.754	0.2279
369.962	0.2261
370.1699	0.2346
370.3778	0.2369
370.5857	0.2302
370.7936	0.2271
371.0015	0.2248
371.2093	0.2302
371.4172	0.2271
371.625	0.2322
371.8328	0.2304
372.0406	0.2342
372.2484	0.2265
372.4562	0.2404
372.664	0.2299
372.8717	0.2361
373.0795	0.2342
373.2872	0.2447
373.4949	0.2397
373.7026	0.2381
373.9103	0.2335
374.118	0.2416
374.3256	0.2405
374.5333	0.2348
374.7409	0.242
374.9485	0.2394
375.1561	0.2421
375.3637	0.2415
375.5713	0.2435
375.7789	0.2424
375.9864	0.247
376.194	0.2471
376.4015	0.2448
376.609	0.2443
376.8165	0.2512
377.024	0.2513
377.2315	0.2509
377.4389	0.2414
377.6464	0.2538
377.8538	0.2437
378.0612	0.2423
378.2686	0.2527
378.476	0.2549
378.6834	0.2602
378.8908	0.2532
379.0981	0.2534
379.3055	0.2578
379.5128	0.2483
379.7201	0.2518
379.9274	0.2634
380.1347	0.2502
380.342	0.2579
380.5492	0.2593
380.7565	0.2593
380.9637	0.2511
381.1709	0.2513
381.3781	0.2606
381.5853	0.2598
381.7925	0.254
381.9997	0.2641
382.2068	0.2604
382.4139	0.2561
382.6211	0.2597
382.8282	0.2718
383.0353	0.2653
383.2424	0.2634
383.4494	0.2562
383.6565	0.2686
383.8635	0.2744
384.0706	0.2605
384.2776	0.2554
384.4846	0.2576
384.6916	0.2617
384.8986	0.2691
385.1055	0.2733
385.3125	0.2696
385.5194	0.2628
385.7263	0.2605
385.9333	0.2735
386.1402	0.2579
386.347	0.2639
386.5539	0.2637
386.7608	0.2608
386.9676	0.2706
387.1744	0.2553
387.3813	0.2649
387.5881	0.2568
387.7948	0.2732
388.0016	0.2666
388.2084	0.2609
388.4151	0.2745
388.6219	0.2554
388.8286	0.2546
389.0353	0.261
389.242	0.2562
389.4487	0.2578
389.6553	0.2483
389.862	0.2513
390.0686	0.2634
390.2753	0.2572
390.4819	0.2556
390.6885	0.2571
390.8951	0.2544
391.1016	0.2577
391.3082	0.2557
391.5147	0.2466
391.7213	0.2472
391.9278	0.2465
392.1343	0.251
392.3408	0.2419
392.5473	0.2442
392.7537	0.2517
392.9602	0.2456
393.1666	0.2386
393.373	0.2433
393.5794	0.2374
393.7858	0.2521
393.9922	0.2341
394.1986	0.2325
394.4049	0.2445
394.6113	0.2336
394.8176	0.243
395.0239	0.2346
395.2302	0.2395
395.4365	0.2442
395.6428	0.2428
395.8491	0.2351
396.0553	0.2262
396.2615	0.2422
396.4678	0.237
396.674	0.2263
396.8802	0.2272
397.0863	0.237
397.2925	0.2316
397.4987	0.222
397.7048	0.2286
397.9109	0.2299
398.117	0.2228
398.3231	0.2393
398.5292	0.2138
398.7353	0.223
398.9413	0.2267
399.1474	0.224
399.3534	0.2297
399.5594	0.2286
399.7654	0.227
399.9714	0.2301
400.1774	0.2141
400.3833	0.2185
400.5893	0.2263
400.7952	0.2329
401.0011	0.2153
401.207	0.2214
401.4129	0.2253
401.6188	0.2212
401.8247	0.2253
402.0305	0.2174
402.2364	0.224
402.4422	0.2252
402.648	0.2288
402.8538	0.2208
403.0596	0.2215
403.2654	0.2104
403.4711	0.2243
403.6768	0.2138
403.8826	0.2222
404.0883	0.2277
404.294	0.2235
404.4997	0.2282
404.7054	0.2174
404.911	0.2212
405.1167	0.2252
405.3223	0.2103
405.5279	0.222
405.7335	0.2201
405.9391	0.218
406.1447	0.2201
406.3502	0.2175
406.5558	0.2224
406.7613	0.2181
406.9668	0.2146
407.1724	0.2144
407.3778	0.2215
407.5833	0.2165
407.7888	0.2185
407.9942	0.2209
408.1997	0.2235
408.4051	0.2264
408.6105	0.2248
408.8159	0.222
409.0213	0.216
409.2267	0.2215
409.432	0.2266
409.6374	0.2249
409.8427	0.226
410.048	0.2201
410.2533	0.2205
410.4586	0.2117
410.6639	0.2246
410.8691	0.2149
411.0744	0.217
411.2796	0.2273
411.4848	0.2202
411.69	0.2135
411.8952	0.2229
412.1004	0.2182
412.3056	0.214
412.5107	0.2059
412.7158	0.2271
412.921	0.2213
413.1261	0.213
413.3312	0.218
413.5362	0.2237
413.7413	0.214
413.9464	0.2053
414.1514	0.2128
414.3564	0.2011
414.5614	0.215
414.7664	0.2084
414.9714	0.2183
415.1764	0.2198
415.3813	0.2054
415.5863	0.2134
415.7912	0.2062
415.9961	0.2056
416.201	0.2209
416.4059	0.2164
416.6108	0.2219
416.8156	0.2119
417.0205	0.2134
417.2253	0.2115
417.4301	0.2251
417.6349	0.2033
417.8397	0.2085
418.0445	0.2068
418.2492	0.2097
418.454	0.2083
418.6587	0.2096
418.8634	0.2176
419.0681	0.2143
419.2728	0.2104
419.4775	0.2137
419.6822	0.2048
419.8868	0.2116
420.0915	0.211
420.2961	0.1996
420.5007	0.2119
420.7053	0.2066
420.9099	0.1998
421.1144	0.2021
421.319	0.1973
421.5235	0.1944
421.728	0.1994
421.9325	0.1997
422.137	0.1927
422.3415	0.19
422.546	0.1985
422.7504	0.1931
422.9549	0.2043
423.1593	0.1956
423.3637	0.192
423.5681	0.1993
423.7725	0.193
423.9769	0.1882
424.1812	0.1903
424.3856	0.1852
424.5899	0.1907
424.7942	0.19
424.9985	0.19
425.2028	0.1908
425.4071	0.1842
425.6113	0.1943
425.8156	0.1847
426.0198	0.1783
426.224	0.1902
426.4282	0.1776
426.6324	0.1801
426.8366	0.1794
427.0407	0.1869
427.2449	0.1746
427.449	0.1809
427.6531	0.1815
427.8572	0.1808
428.0613	0.185
428.2654	0.1714
428.4694	0.1648
428.6735	0.1703
428.8775	0.1675
429.0815	0.1707
429.2855	0.1624
429.4895	0.1621
429.6935	0.1651
429.8975	0.1568
430.1014	0.1707
430.3053	0.1635
430.5093	0.1594
430.7132	0.1575
430.9171	0.1676
431.1209	0.1595
431.3248	0.1486
431.5286	0.1571
431.7325	0.1564
431.9363	0.1462
432.1401	0.1524
432.3439	0.1563
432.5477	0.1439
432.7514	0.1431
432.9552	0.1458
433.1589	0.1326
433.3627	0.1501
433.5664	0.1357
433.7701	0.1359
433.9737	0.1426
434.1774	0.1401
434.3811	0.131
434.5847	0.1377
434.7883	0.1309
434.9919	0.13
435.1955	0.1492
435.3991	0.1343
435.6027	0.1276
435.8062	0.1436
436.0098	0.126
436.2133	0.1313
436.4168	0.1106
436.6203	0.1237
436.8238	0.1222
437.0272	0.1197
437.2307	0.1134
437.4341	0.1174
437.6375	0.1166
437.841	0.1018
438.0443	0.1133
438.2477	0.1062
438.4511	0.1015
438.6545	0.1121
438.8578	0.1012
439.0611	0.1133
439.2644	0.1072
439.4677	0.1053
439.671	0.0958
439.8743	0.1001
440.0775	0.0949
440.2808	0.0993
440.484	0.0954
440.6872	0.0983
440.8904	0.0835
441.0936	0.0983
441.2967	0.0818
441.4999	0.079
441.703	0.0926
441.9062	0.0899
442.1093	0.091
442.3124	0.0872
442.5155	0.0804
442.7185	0.0818
442.9216	0.0755
443.1246	0.0763
443.3276	0.0868
443.5307	0.0692
443.7337	0.0759
443.9366	0.0667
444.1396	0.0658
444.3426	0.077
444.5455	0.0761
444.7484	0.0649
444.9513	0.0648
445.1542	0.0713
445.3571	0.0704
445.56	0.0634
445.7628	0.066
445.9657	0.0733
446.1685	0.0664
446.3713	0.0675
446.5741	0.0661
446.7769	0.0582
446.9797	0.0643
447.1824	0.0611
447.3852	0.0512
447.5879	0.0519
447.7906	0.0493
447.9933	0.0554
448.196	0.0455
448.3986	0.0598
448.6013	0.05
448.8039	0.0565
449.0066	0.0525
449.2092	0.0529
449.4118	0.0463
449.6143	0.0535
449.8169	0.0455
450.0195	0.0414
450.222	0.0438
450.4245	0.0476
450.627	0.0445
450.8295	0.0384
451.032	0.0414
451.2345	0.0437
451.4369	0.0368
451.6394	0.0356
451.8418	0.0475
452.0442	0.043
452.2466	0.0321
452.449	0.0395
452.6513	0.0326
452.8537	0.0284
453.056	0.0358
453.2583	0.0329
453.4607	0.0307
453.663	0.0373
453.8652	0.0242
454.0675	0.0407
454.2697	0.0256
454.472	0.0287
454.6742	0.0367
454.8764	0.0365
455.0786	0.0261
455.2808	0.0185
455.4829	0.0301
455.6851	0.0255
455.8872	0.0165
456.0893	0.0332
456.2915	0.0274
456.4935	0.0353
456.6956	0.0272
456.8977	0.0198
457.0997	0.0266
457.3018	0.029
457.5038	0.0302
457.7058	0.0273
457.9078	0.0255
458.1098	0.0254
458.3117	0.029
458.5137	0.0152
458.7156	0.0281
458.9175	0.0247
459.1194	0.0334
459.3213	0.0187
459.5232	0.0234
459.725	0.0276
459.9269	0.0254
460.1287	0.0127
460.3305	0.0308
460.5323	0.0214
460.7341	0.0206
460.9359	0.0115
461.1376	0.0158
461.3394	0.024
461.5411	0.0251
461.7428	0.0238
461.9445	0.0131
462.1462	0.0233
462.3479	0.0182
462.5495	0.0208
462.7512	0.032
462.9528	0.0186
463.1544	0.0181
463.356	0.002
463.5576	0.0141
463.7592	0.0167
463.9607	0.0153
464.1623	0.0121
464.3638	0.0123
464.5653	0.0172
464.7668	0.0197
464.9683	0.0196
465.1697	0.0095
465.3712	0.0096
465.5726	0.0101
465.7741	0.0169
465.9755	0.0191
466.1769	0.012
466.3782	0.013
466.5796	0.0139
466.7809	0.0195
466.9823	0.0153
467.1836	0.0129
467.3849	0.018
467.5862	-0.002
467.7875	0.0093
467.9887	0.0159
468.19	0.0091
468.3912	0.0197
468.5924	0.013
468.7936	0.0136
468.9948	0.0108
469.196	0.0041
469.3972	0.0043
469.5983	0.0106
469.7994	0.018
470.0006	0.0144
470.2017	0.0109
470.4027	0.0291
470.6038	0.0067
470.8049	0.0107
471.0059	0.0178
471.2069	0.0086
471.408	0.0164
471.6089	0.0084
471.8099	0.0086
472.0109	0.0066
472.2119	0.0235
472.4128	0.013
472.6137	0.0156
472.8146	0.0159
473.0155	0.0146
473.2164	0.0114
473.4173	0.0003
473.6181	-0.001
473.819	0.0056
474.0198	0.0014
474.2206	0.0015
474.4214	0.0085
474.6222	-0.0016
474.8229	0.0141
475.0237	0.0193
475.2244	0.0126
475.4251	0.0114
475.6258	0.0011
475.8265	0.0122
476.0272	0.0004
476.2278	0.0132
476.4285	0.0115
476.6291	0.0041
476.8297	0.0095
477.0303	0.0058
477.2309	0.0081
477.4315	0.0108
477.632	0.0054
477.8326	0.01
478.0331	0.0207
478.2336	-0.002
478.4341	0.0137
478.6346	0.0075
478.8351	0.009
479.0355	0.0129
479.236	0.0203
479.4364	0.0121
479.6368	0.0127
479.8372	0.0138
480.0376	0.0139
480.2379	0.012
480.4383	0.0157
480.6386	0.0007
480.8389	0.0073
481.0392	-0.0008
481.2395	0.0122
481.4398	0.0108
481.6401	0.0131
481.8403	0.0071
482.0405	0.009
482.2408	0.0135
482.441	0.0074
482.6411	0.0068
482.8413	0.0075
483.0415	0.0203
483.2416	0.0143
483.4417	0.0133
483.6419	-0.0008
483.8419	0.009
484.042	0.0072
484.2421	0.0083
484.4422	0.0079
484.6422	0.004
484.8422	0.0087
485.0422	0.007
485.2422	0.0071
485.4422	0.0061
485.6422	0.0075
485.8421	0.0098
486.042	0.0159
486.242	0.003
486.4419	0.0109
486.6417	0.0049
486.8416	0.0105
487.0415	0.0061
487.2413	0.0069
487.4411	0.012
487.641	0.0067
487.8408	0.008
488.0405	0.0204
488.2403	0.0102
488.4401	0.0093
488.6398	0.0188
488.8395	0.0033
489.0392	0.015
489.2389	0.0153
489.4386	0.0091
489.6383	0.012
489.8379	0.0072
490.0376	0.0123
490.2372	0.0127
490.4368	0.0112
490.6364	-0.0028
490.836	0.007
491.0355	-0.0007
491.2351	0.0006
491.4346	0.0052
491.6341	0.0047
491.8336	0.0123
492.0331	0.0037
492.2326	0.0103
492.432	0.0132
492.6315	0.0143
492.8309	0.011
493.0303	0.01
493.2297	0.0116
493.4291	0.0046
493.6284	0.0123
493.8278	0.0084
494.0271	0.0102
494.2264	0.0047
494.4257	0.0148
494.625	0.0058
494.8243	0.0055
495.0236	0.0074
495.2228	0.0124
495.422	0.0157
495.6213	0.0116
495.8205	0.0122
496.0196	0.0099
496.2188	0.0058
496.418	0.0133
496.6171	0.0009
496.8162	0.0176
497.0153	0.0109
497.2144	0.0088
497.4135	0.0102
497.6126	0.0069
497.8116	0.0095
498.0107	0.01
498.2097	0.0068
498.4087	0.0071
498.6077	0.0004
498.8067	0.0107
499.0056	0.0155
499.2046	0.0139
499.4035	0.0068
499.6024	-0.0021
499.8013	0.0111
500.0002	0.0112
500.199	0.0115
500.3979	0.0036
500.5967	0.005
500.7956	0.0163
500.9944	0.0092
501.1932	0.0184
501.3919	0.0139
501.5907	0.0226
501.7895	0.0064
501.9882	0.0085
502.1869	0.019
502.3856	0.0103
502.5843	0.0105
502.783	0.0073
502.9816	0.0121
503.1803	0.0063
503.3789	0.0159
503.5775	0.0078
503.7761	0.0052
503.9747	0.0136
504.1732	0.0063
504.3718	0.0231
504.5703	0.0033
504.7689	0.0018
504.9674	0.0043
505.1658	0.0021
505.3643	0.0164
505.5628	0.0117
505.7612	0.0127
505.9597	-0.0003
506.1581	0.001
506.3565	0.0091
506.5549	0.0105
506.7532	0.0007
506.9516	0.0133
507.1499	-0.0012
507.3482	0.0099
507.5465	0.0088
507.7448	0.013
507.9431	0.0127
508.1414	0.0078
508.3396	0.013
508.5379	0.0125
508.7361	0.0138
508.9343	0.0069
509.1325	0.0233
509.3306	0.0047
509.5288	-0.0022
509.7269	0.0171
509.9251	0.0127
510.1232	0.0063
510.3213	0.0086
510.5193	0.0057
510.7174	0.0104
510.9154	0.0122
511.1135	0.0013
511.3115	0.0054
511.5095	0.007
511.7075	0.0082
511.9055	0.0095
512.1034	0.002
512.3014	0.0043
512.4993	0.0119
512.6972	0.0079
512.8951	0.0146
513.093	0.007
513.2908	0.014
513.4887	0.0069
513.6865	0.0123
513.8844	0.0153
514.0822	0.0017
514.2799	0.0077
514.4777	0.0037
514.6755	0.0068
514.8732	0.0054
515.0709	0.0061
515.2687	0.0014
515.4664	0.0215
515.664	0.0122
515.8617	0.0112
516.0594	0.0094
516.257	0.0138
516.4546	0.0247
516.6522	0.0111
516.8498	0.0129
517.0474	0.0132
517.2449	0.0151
517.4425	0.0125
517.64	0.0126
517.8375	0.0101
518.035	0.0087
518.2325	0.0026
518.43	0.0088
518.6274	0.0017
518.8249	-0.0038
519.0223	0.0252
519.2197	0.0097
519.4171	0.0077
519.6145	0.0163
519.8118	-0.0056
520.0092	0.0012
520.2065	0.0214
520.4038	0.0018
520.6011	0.0152
520.7984	0.0055
520.9956	0.014
521.1929	0.0063
521.3901	0.0155
521.5874	0.0116
521.7846	0.0031
521.9818	0.0164
522.1789	0.0066
522.3761	0.022
522.5732	0.0038
522.7704	0.0015
522.9675	-0.0026
523.1646	0.0088
523.3617	0.0154
523.5587	0.0022
523.7558	0.0115
523.9528	0.0037
524.1498	0.0031
524.3468	0.0103
524.5438	0.007
524.7408	0.0034
524.9378	0.0175
525.1347	0.0118
525.3316	0.0037
525.5285	0.0056
525.7254	0.0097
525.9223	0.0188
526.1192	0.0057
526.316	0.0161
526.5129	0.0153
526.7097	0.0097
526.9065	0.0116
527.1033	0.0091
527.3	0.0019
527.4968	0.015
527.6935	0.0023
527.8903	-0.0034
528.087	0.0085
528.2837	0.0157
528.4804	0.0082
528.677	0.0064
528.8737	0.0056
529.0703	0.0013
529.2669	0.013
529.4635	0.0009
529.6601	0.0093
529.8567	0.011
530.0532	0.0011
530.2498	0.0094
530.4463	-0.0039
530.6428	0.0181
530.8393	0.0166
531.0358	0.0183
531.2322	0.0137
531.4287	0.001
531.6251	0.0025
531.8215	-0.0005
532.0179	0.0062
532.2143	0.0171
532.4107	0.0111
532.607	0.0038
532.8034	-0.0065
532.9997	0.0051
533.196	0.0073
533.3923	0.0123
533.5886	0.011
533.7848	0.0147
533.9811	0.0121
534.1773	0.0098
534.3735	0.0107
534.5697	0.0052
534.7659	0.0132
534.9621	0.0045
535.1582	0.0085
535.3544	0.0141
535.5505	0.0105
535.7466	0.0058
535.9427	0.0087
536.1387	-0.0042
536.3348	0.0154
536.5308	0.0052
536.7269	0.001
536.9229	0.0176
537.1189	0.0126
537.3148	0.0071
537.5108	0.0105
537.7068	0.0144
537.9027	-0.0023
538.0986	0.008
538.2945	0.0104
538.4904	0.0022
538.6863	0.0042
538.8821	0.02
539.078	0.0035
539.2738	0.008
539.4696	0.0077
539.6654	0.0055
539.8611	0.0127
540.0569	0.0024
540.2526	0.0129
540.4484	0.0011
540.6441	0.0019
540.8398	0.0109
541.0355	-0.004
541.2311	0.0072
541.4268	0.0134
541.6224	0.0204
541.818	0.0134
542.0136	0.0051
542.2092	0.0153
542.4048	0.0038
542.6003	0.0092
542.7959	0.0152
542.9914	0.0143
543.1869	0.006
543.3824	0.0102
543.5779	0.0104
543.7734	0.0153
543.9688	0.0069
544.1642	-0.0001
544.3596	0.0095
544.555	0.0045
544.7504	0.0138
544.9458	0.0098
545.1411	0.0046
545.3365	0.0051
545.5318	0.0117
545.7271	0.012
545.9224	0.0124
546.1177	0.0151
546.3129	0.0043
546.5081	0.0053
546.7034	0.0059
546.8986	0.0009
547.0938	0.0205
547.289	0.0136
547.4841	0.0075
547.6793	0.0093
547.8744	0.0082
548.0695	0.0034
548.2646	0.0152
548.4597	0.0062
548.6548	0.0249
548.8498	0.0093
549.0448	0.0105
549.2399	0.0187
549.4349	0.0018
549.6298	0.006
549.8248	0.0067
550.0198	0.0065
550.2147	0.021
550.4096	0.0101
550.6045	0.0109
550.7994	0.0135
550.9943	0.0103
551.1892	-0.0032
551.384	0.0117
551.5788	0.0078
551.7737	0.0074
551.9685	0.0039
552.1632	0.0089
552.358	0.002
552.5528	0.0181
552.7475	0.013
552.9422	0.0083
553.1369	0.0119
553.3316	0.0116
553.5263	0.0147
553.7209	-0.0015
553.9156	0.0069
554.1102	0.0113
554.3048	0.0063
554.4994	0.0096
554.694	0.0167
554.8885	0.0092
555.0831	0.0141
555.2776	0.014
555.4721	0.0088
555.6666	0.0117
555.8611	0.0155
556.0555	0.0103
556.25	0.0139
556.4444	0.007
556.6388	0.0058
556.8332	0.0092
557.0276	0.0057
557.222	0.0058
557.4163	0.0097
557.6107	0.0009
557.805	0.0029
557.9993	0.0039
558.1936	0.0035
558.3879	0.0052
558.5821	0.0036
558.7764	-0.0057
558.9706	-0.0008
559.1648	0.0126
559.359	0.0031
559.5532	0.006
559.7473	0.0013
559.9415	0.0126
560.1356	0.0208
560.3297	-0.0022
560.5238	0.0137
560.7179	0.0116
560.9119	0.001
561.106	0.0092
561.3	0.0052
561.494	0.002
561.688	0.0081
561.882	0.0057
562.076	-0.0007
562.2699	0.016
562.4639	0.0111
562.6578	0.0146
562.8517	0.0066
563.0456	0.0014
563.2395	0.0161
563.4333	0.0078
563.6272	0.0012
563.821	0.0093
564.0148	0.0046
564.2086	0.011
564.4024	0.0165
564.5961	0.008
564.7899	0.0256
564.9836	0.0094
565.1773	0.0108
565.371	0.0118
565.5647	0.0143
565.7584	0.0191
565.952	0.0018
566.1456	0.0061
566.3393	0.0083
566.5329	0.0009
566.7264	0.0048
566.92	0.0082
567.1136	0.0055
567.3071	0.008
567.5006	0.0112
567.6941	0.0041
567.8876	0.0074
568.0811	0.0243
568.2745	0.0047
568.468	0.0116
568.6614	0.0068
568.8548	0.0054
569.0482	0.0096
569.2416	0.0087
569.4349	0.0063
569.6283	0.0054
569.8216	0.0082
570.0149	0.0074
570.2082	0.0132
570.4015	0.0109
570.5947	0.0071
570.788	0.0132
570.9812	0.0051
571.1744	0.0097
571.3676	0.0018
571.5608	0.0043
571.754	0.0139
571.9471	0.0138
572.1402	0.0059
572.3333	0.008
572.5264	0.007
572.7195	0.0076
572.9126	0.008
573.1057	0.0106
573.2987	0.0064
573.4917	0.0111
573.6847	0.0055
573.8777	0.0122
574.0707	0.0078
574.2636	0.0076
574.4566	0.0065
574.6495	0.0035
574.8424	0.0096
575.0353	0.0105
575.2281	0.0121
575.421	0.0067
575.6138	0.0058
575.8067	0.0094
575.9995	0.0073
576.1923	0.0128
576.385	0.0071
576.5778	0.0143
576.7706	0.0062
576.9633	0.0072
577.156	0.0002
577.3487	0.0094
577.5414	0.0042
577.734	0.0067
577.9267	0.0062
578.1193	0.0119
578.3119	0.0023
578.5045	0.0084
578.6971	0.0051
578.8897	0.0064
579.0822	0.0115
579.2747	0.0057
579.4673	0.0094
579.6598	0.0092
579.8522	0.0083
580.0447	0.0113
580.2372	0.0131
580.4296	0.0128
580.622	0.0043
580.8144	0.0078
581.0068	0.0074
581.1992	0.0095
581.3915	0.0003
581.5839	0.0084
581.7762	0.0095
581.9685	0.0074
582.1608	0.0081
582.353	0.0108
582.5453	0.0096
582.7375	0.0099
582.9298	0.0027
583.122	0.0089
583.3142	0.0088
583.5063	0.0087
583.6985	0.0066
583.8906	0.0012
584.0827	0.013
584.2749	0.0079
584.4669	0.0072
584.659	0.0102
584.8511	0.0113
585.0431	0.0133
585.2352	0.0082
585.4272	0.0047
585.6192	0.0121
585.8111	0.0055
586.0031	0.0062
586.195	0.0048
586.387	0.0065
586.5789	0.0094
586.7708	0.0064
586.9627	0.0091
587.1545	0.0031
587.3464	0.0104
587.5382	0.0033
587.73	0.0134
587.9218	0.0092
588.1136	0.0073
588.3053	0.0069
588.4971	0.0095
588.6888	0.0081
588.8805	0.0026
589.0722	0.0162
589.2639	0.008
589.4556	0.0116
589.6472	0.0121
589.8389	0.0137
590.0305	0.0071
590.2221	0.016
590.4137	0.0075
590.6052	0.0106
590.7968	0.0075
590.9883	0.0074
591.1798	0.0104
591.3713	0.009
591.5628	0.0081
591.7543	0.0055
591.9458	0.0064
592.1372	0.0087
592.3286	0.0089
592.52	0.0052
592.7114	0.0114
592.9028	0.0146
593.0941	0.0088
593.2855	0.0078
593.4768	0.0122
593.6681	0.0078
593.8594	0.0152
594.0506	0.0064
594.2419	0.0098
594.4331	0.0104
594.6244	0.0028
594.8156	0.0111
595.0067	0.0029
595.1979	0.0034
595.3891	0.0095
595.5802	0.013
595.7713	0.0055
595.9624	0.0183
596.1535	0.0091
596.3446	0.0048
596.5357	0.0092
596.7267	0.0067
596.9177	0.0057
597.1087	0.0028
597.2997	0.0071
597.4907	0.0056
597.6817	0.0085
597.8726	0.007
598.0635	0.0033
598.2544	0.0063
598.4453	0.0063
598.6362	0.0069
598.827	0.0041
599.0179	0.0107
599.2087	0.0106
599.3995	0.011
599.5903	0.008
599.7811	0.0119
599.9718	0.0056
600.1626	0.003
600.3533	0.0052
600.544	0.0104
600.7347	0.0083
600.9254	0.0106
601.116	0.007
601.3067	0.0042
601.4973	0.0138
601.6879	0.0082
601.8785	0.009
602.0691	0.0049
602.2596	0.0108
602.4502	0.0104
602.6407	0.0113
602.8312	0.0079
603.0217	0.0086
603.2122	0.0077
603.4027	0.0066
603.5931	0.0077
603.7835	0.0034
603.9739	0.0076
604.1643	0.0099
604.3547	0.0112
604.5451	0.0128
604.7354	0.005
604.9257	0.0037
605.116	0.0026
605.3063	0.0081
605.4966	0.0017
605.6869	0.0152
605.8771	0.0079
606.0673	0.0084
606.2575	0.0013
606.4477	0.0112
606.6379	0.0036
606.8281	0.0027
607.0182	0.0075
607.2083	0.0057
607.3985	0.0103
607.5885	0.0111
607.7786	0.0038
607.9687	0.0102
608.1587	0.0087
608.3488	0.0075
608.5388	0.0058
608.7288	0.002
608.9187	0.0062
609.1087	0.0106
609.2986	0.0116
609.4886	0.0048
609.6785	0.0028
609.8684	0.0081
610.0582	0.0027
610.2481	0.004
610.4379	0.0076
610.6278	0.0113
610.8176	0.0096
611.0074	0.0058
611.1971	0.0045
611.3869	0.0067
611.5766	0.0049
611.7664	0.0141
611.9561	0.008
612.1458	0.011
612.3354	0.0089
612.5251	0.0093
612.7147	0.0135
612.9044	0.0043
613.094	0.0046
613.2836	0.0053
613.4731	0.0049
613.6627	0.0084
613.8522	0.0087
614.0417	0.0076
614.2313	0.0039
614.4207	0.0114
614.6102	0.0147
614.7997	0.0149
614.9891	0.0074
615.1785	-0.0017
615.3679	0.0104
615.5573	0.0036
615.7467	0.001
615.9361	0.0076
616.1254	0.0117
616.3147	0.009
616.504	0.0118
616.6933	0.0088
616.8826	0.0087
617.0718	0.0053
617.2611	0.0036
617.4503	-0.004
617.6395	0.0103
617.8287	0.0133
618.0179	0.0043
618.207	0.0143
618.3961	-0.0021
618.5853	0.0088
618.7744	0.0153
618.9634	0.0139
619.1525	0.0095
619.3416	0.0021
619.5306	0.0136
619.7196	0.0148
619.9086	0.0014
620.0976	0.0018
620.2866	0.0121
620.4755	0.001
620.6645	0.0117
620.8534	0.0072
621.0423	0.0006
621.2312	0.002
621.42	0.014
621.6089	0.0102
621.7977	0.0164
621.9865	-0.0025
622.1753	-0.0033
622.3641	0.0037
622.5529	0.0045
622.7416	0.0064
622.9303	0.0053
623.1191	0.0045
623.3078	0.0133
623.4964	0.007
623.6851	0.0036
623.8737	0.0038
624.0624	0.0041
624.251	0.0061
624.4396	-0.0004
624.6282	0.0122
624.8167	0.0086
625.0053	0.0164
625.1938	0.0148
625.3823	0.0087
625.5708	0.0045
625.7593	0.0021
625.9477	0.0163
626.1362	0.0079
626.3246	0.017
626.513	0.0143
626.7014	0.017
626.8898	0.0041
627.0781	0.0076
627.2665	0.0088
627.4548	0.0011
627.6431	0.0082
627.8314	0.0211
628.0197	0.0085
628.2079	0.0057
628.3962	0.014
628.5844	0.0101
628.7726	0.0111
628.9608	0.0096
629.1489	0.0207
629.3371	0.0015
629.5252	0.006
629.7134	0.0059
629.9015	0.0129
630.0895	-0.0014
630.2776	0.0076
630.4657	-0.0024
630.6537	0.0216
630.8417	0.0018
631.0297	-0.0012
631.2177	0.0053
631.4057	0.0094
631.5936	0.0013
631.7815	0.0027
631.9695	0.0087
632.1574	0.0208
632.3452	0.0191
632.5331	-0.0008
632.7209	0.0131
632.9088	-0.001
633.0966	0.0231
633.2844	0.0218
633.4722	0.0077
633.6599	0.0256
633.8477	0.0123
634.0354	0.0171
634.2231	-0.0049
634.4108	0.003
634.5985	0.008
634.7861	0.0114
634.9738	0.0051
635.1614	0.0096
635.349	0.0168
635.5366	0.0141
635.7242	-0.0019
635.9117	0.0254
636.0993	0.0091
636.2868	0.0064
636.4743	0.0097
636.6618	0.0041
636.8492	0.0245
637.0367	0.0081
637.2241	0.0166
637.4115	0.0384
637.5989	-0.0019
637.7863	0.0191
637.9737	0.0173
638.161	0.0012
638.3484	-0.0194
638.5357	0.0095
638.723	0.0032
638.9103	-0.0057
639.0975	0.0036
639.2848	0.0195
639.472	0.0344
639.6592	0.002
639.8464	-0.009
640.0336	0.0054
640.2208	0.0028
640.4079	0.0022
640.595	0.0029
640.7821	0.0077
640.9692	0.0118
641.1563	0.0177
641.3434	-0.0008
641.5304	0.0124
641.7174	0.0033
641.9044	0.0117
642.0914	0.0265
642.2784	0.0143
642.4653	-0.0006
642.6523	0.0266
642.8392	0.0011
643.0261	0.0113
643.213	0.0139
643.3999	0.0181
643.5867	0.0073
643.7735	0.0091
643.9604	0.0144
644.1472	0.0139
644.3339	-0.0052
644.5207	-0.0018
644.7075	-0.0063
644.8942	0.0076
645.0809	0.0144
645.2676	0.0022
645.4543	-0.0052
645.6409	0.0417
645.8276	0.0111
646.0142	0
646.2008	-0.0062
646.3874	-0.006
646.574	-0.0087
646.7605	0.0071
646.9471	0.0144
647.1336	-0.0137
647.3201	0.0127
647.5066	0.0092
647.6931	0.0101
647.8795	0.003
648.0659	0.0096
648.2524	0.0165
648.4388	0.0092
648.6252	0.0244
648.8115	-0.0036
648.9979	0.0165
649.1842	0.0058
649.3705	0.0189
649.5568	-0.0106
649.7431	0.0052
649.9294	0.0021
650.1156	-0.0117
650.3018	0.0252
650.488	0.0111
650.6742	0.0069
650.8604	0.0083
651.0466	0.0005
651.2327	0.0112
651.4188	0.0062
651.6049	0.0173
651.791	0.0073
651.9771	0.0025
652.1632	0.0072
652.3492	0.0008
652.5352	0.0199
652.7212	0.0004
652.9072	0.0047
653.0932	0.002
653.2791	0.0092
653.465	0.0171
653.651	0.0105
653.8369	0.0118
654.0227	-0.0048
654.2086	0.0208
654.3944	0.0132
654.5803	0.0123
654.7661	0.0019
654.9519	-0.0012
655.1377	0.0001
655.3234	0.0001
655.5092	0.0001
655.6949	0.0001
655.8806	0.0001
656.0663	0.0001
656.2519	0.0001
656.4376	0.0001
656.6232	0.0001
656.8088	0.0001
656.9945	0.0001
657.18	0.0001
657.3656	0.0001
657.5511	0.0001
657.7367	0.0001
657.9222	0.0001
658.1077	0.0001
658.2932	0.0001
658.4786	0.0001
658.6641	0.0001
658.8495	0.0001
659.0349	0.0001
659.2203	0.0001
659.4057	0.006
659.591	0.2556
659.7764	0.0221
659.9617	0.0115
660.147	-0.0011
660.3323	-0.0006
660.5176	0.0169
660.7028	-0.0013
660.888	0.0051
661.0733	0.0012
661.2585	-0.0007
661.4436	0.0054
661.6288	0.0144
661.8139	0.0003
661.9991	-0.0178
662.1842	-0.0096
662.3693	-0.0035
662.5544	0.0106
662.7394	0.0136
662.9245	0.0092
663.1095	0.0046
663.2945	-0.0002
663.4795	-0.016
663.6644	0.0032
663.8494	-0.0007
664.0343	0.0062
664.2193	-0.0052
664.4042	0.0228
664.589	0.0062
664.7739	-0.0026
664.9587	-0.0019
665.1436	-0.012
665.3284	-0.0059
665.5132	-0.0151
665.698	0.0232
665.8827	0.0071
666.0675	-0.0185
666.2522	0.0016
666.4369	0.0207
666.6216	0.009
666.8063	0.0128
666.9909	-0.0203
667.1756	-0.0022
667.3602	-0.0074
667.5448	0.0066
667.7294	0.0062
667.9139	-0.0126
668.0985	-0.0063
668.283	-0.0267
668.4675	0.0252
668.652	0.0098
668.8365	-0.0039
669.0209	0.0023
669.2054	-0.0137
669.3898	-0.0025
669.5742	0.0194
669.7586	0.0222
669.943	0.0093
670.1273	-0.0087
670.3117	0.021
670.496	0.0171
670.6803	0.0123
670.8646	-0.0106
671.0488	0.011
671.2331	-0.0107
671.4173	-0.0005
671.6015	0.0096
671.7857	-0.0119
671.9699	0.0144
672.1541	-0.0074
672.3382	0.003
672.5223	0.0108
672.7064	0.0049
672.8905	0.0041
673.0746	0.0336
673.2587	0.0107
673.4427	0.0008
673.6267	0.0126
673.8107	0.0144
673.9947	0.0203
674.1787	0.0133
674.3626	0.02
674.5465	-0.0047
674.7304	-0.0045
674.9143	0.0088
675.0982	-0.0024
675.2821	0.0153
675.4659	0.0116
675.6497	-0.0026
675.8335	-0.0041
676.0173	-0.0003
676.2011	0.0152
676.3849	-0.0127
676.5686	0.0193
676.7523	0.0318
676.936	-0.0093
677.1197	-0.0263
677.3034	0.02
677.487	0.02
677.6706	0.0138
677.8542	-0.0011
678.0378	0.0084
678.2214	-0.005
678.405	0.0033
678.5885	0.0029
678.772	0.0066
678.9555	-0.0004
679.139	0.0082
679.3225	0.0036
679.5059	-0.0002
679.6894	0.0129
679.8728	-0.0002
680.0562	0.0058
680.2395	-0.0093
680.4229	-0.0005
680.6062	0.0099
680.7896	-0.0106
680.9729	0.0009
681.1562	0.0146
681.3394	0.0014
681.5227	0.0017
681.7059	0.0073
681.8891	-0.0079
682.0723	0.0006
682.2555	-0.0024
682.4387	0.0001
682.6218	-0.004
682.805	-0.0008
682.9881	0.0269
683.1712	0.0016
683.3542	0
683.5373	0.009
683.7203	-0.0072
683.9034	0.0074
684.0864	0.0061
684.2694	-0.0021
684.4523	0.0116
684.6353	0.0192
684.8182	-0.0059
685.0011	0.0237
685.184	-0.0001
685.3669	0.0136
685.5498	0.0007
685.7326	-0.0022
685.9154	-0.008
686.0982	0.0133
686.281	-0.0081
686.4638	-0.0002
686.6465	0.0203
686.8293	0.0009
687.012	0.0116
687.1947	-0.0008
687.3774	0
687.56	-0.0062
687.7427	0.0112
687.9253	-0.0092
688.1079	0.0054
688.2905	-0.0003
688.4731	0.026
688.6556	0.0029
688.8382	-0.0279
689.0207	0.0232
689.2032	0.0115
689.3857	0.0024
689.5681	-0.0146
689.7506	0.0295
689.933	-0.0201
690.1154	0.0159
690.2978	0.0196
690.4802	0.0258
690.6626	0.0021
690.8449	0.0061
691.0272	-0.0086
691.2095	-0.016
691.3918	-0.0011
691.5741	0.0149
691.7563	0.0257
691.9386	0.0131
692.1208	-0.0046
692.303	-0.0099
692.4852	0.0099
692.6673	0.0031
692.8495	-0.0036
693.0316	0.0352
693.2137	0.0254
693.3958	0.0183
693.5778	0.0075
693.7599	-0.0164
693.9419	-0.016
694.1239	0.0111
694.3059	0.0164
694.4879	0.0262
694.6699	0.0066
694.8518	0.0079
695.0337	0.0132
695.2157	0.0213
695.3975	-0.0066
695.5794	-0.0131
695.7613	-0.0136
695.9431	-0.0112
696.1249	-0.0021
696.3067	0.0006
696.4885	0.0119
696.6703	0.0043
696.852	-0.006
697.0337	0.029
697.2154	-0.0034
697.3971	0.0138
697.5788	0.0195
697.7605	-0.0144
697.9421	0.0199
698.1237	0.0141
698.3053	-0.0031
698.4869	-0.0133
698.6685	-0.0035
698.85	0.0268
699.0315	-0.0159
699.213	-0.0003
699.3945	-0.0003
699.576	0.0086
699.7575	0.0048
699.9389	-0.0149
700.1203	0.0089
700.3017	-0.0108
700.4831	0.0276
700.6645	0.043
700.8458	-0.0151
701.0271	0.0289
701.2084	-0.0019
701.3897	0.0061
701.571	-0.0026
701.7523	0.0173
701.9335	0.0312
702.1147	0.0199
702.2959	-0.003
702.4771	-0.0014
702.6583	0.0178
702.8394	-0.0233
703.0205	0.0189
703.2016	-0.0064
703.3827	-0.0061
703.5638	0.0062
703.7449	0.0214
703.9259	0.0041
704.1069	-0.0056
704.2879	0.0144
704.4689	-0.0021
704.6499	0.0149
704.8308	0.0181
705.0117	-0.0085
705.1927	0.0344
705.3735	-0.0196
705.5544	0.0078
705.7353	-0.0003
705.9161	-0.0344
706.0969	0.01
706.2777	0.0043
706.4585	0.0114
706.6393	0.0232
706.82	0.0241
707.0007	0.0062
707.1815	-0.0039
707.3621	0.0294
707.5428	0.0149
707.7235	0.0101
707.9041	0.0105
708.0847	0.0045
708.2653	0.025
708.4459	0.0015
708.6265	-0.0049
708.807	-0.0105
708.9875	0.0078
709.168	0.0008
709.3485	0.0122
709.529	0.0025
709.7095	0.0032
709.8899	0.0043
710.0703	0.0243
710.2507	0.0197
710.4311	0.0014
710.6115	0.0345
710.7918	0.0004
710.9721	0.0113
711.1524	-0.024
711.3327	0.002
711.513	-0.0217
711.6932	0.009
711.8735	0.011
712.0537	-0.006
712.2339	0.0194
712.4141	0.0192
712.5942	0.0108
712.7744	0.0027
712.9545	0.0055
713.1346	0.0265
713.3147	-0.0025
713.4947	-0.0057
713.6748	0.0059
713.8548	0.0073
714.0348	0.0333
714.2148	0.0188
714.3948	-0.0005
714.5748	0.0301
714.7547	0.0122
714.9346	0.0135
715.1145	0.0201
715.2944	-0.0255
715.4743	0.0135
715.6541	0.0198
715.834	0.0119
716.0138	-0.0284
716.1936	0.0125
716.3733	-0.0019
716.5531	-0.0079
716.7328	0.0159
716.9126	0.0123
717.0923	-0.0488
717.2719	0.0292
717.4516	-0.005
717.6312	0.0036
717.8109	0.0361
717.9905	0.0071
718.1701	-0.0061
718.3496	0.008
718.5292	0.0004
718.7087	-0.0084
718.8882	-0.0033
719.0677	0.0165
719.2472	0.0059
719.4267	0.0132
719.6061	-0.0237
719.7856	0.024
719.965	-0.014
720.1443	0.0076
720.3237	0.0016
720.5031	0.0078
720.6824	-0.0171
720.8617	0.0012
721.041	0.0329
721.2203	-0.0322
721.3995	-0.0098
721.5788	-0.0038
721.758	0.0026
721.9372	-0.0039
722.1164	0.0189
722.2956	0.0001
722.4747	0.0089
722.6538	0.0014
722.8329	0.0207
723.012	0.0035
723.1911	0.0281
723.3702	0.0391
723.5492	-0.0042
723.7282	0.0221
723.9072	-0.0008
724.0862	0.0188
724.2652	0.0149
724.4441	-0.0179
724.623	0.0184
724.8019	-0.0112
724.9808	0.0018
725.1597	0.0245
725.3385	0.0076
725.5174	0.0004
725.6962	0.0035
725.875	0.0173
726.0538	0.0056
726.2325	0.0215
726.4112	-0.0092
726.59	-0.0102
726.7687	-0.0564
726.9474	-0.006
727.126	0.0139
727.3047	0.0194
727.4833	-0.0003
727.6619	-0.0032
727.8405	-0.0104
728.0191	0.0191
728.1976	0.0267
728.3762	0.0176
728.5547	-0.0057
728.7332	0.0304
728.9116	-0.0016
729.0901	0.0138
729.2686	-0.0102
729.447	0.0042
729.6254	0.0035
729.8038	0.0253
729.9821	0.0001
730.1605	0.015
730.3388	0.0045
730.5171	0.028
730.6954	-0.0019
730.8737	0.0094
731.0519	-0.0065
731.2302	0.0172
731.4084	-0.0002
731.5866	-0.0131
731.7648	0.0061
731.9429	0.0166
732.1211	-0.0131
732.2992	-0.0136
732.4773	-0.0042
732.6554	0.006
732.8335	0.042
733.0115	0.02
733.1896	-0.0076
733.3676	0.0112
733.5456	-0.0043
733.7235	0.0081
733.9015	0.0013
734.0794	-0.0081
734.2574	-0.0157
734.4353	0.0248
734.6131	-0.0096
734.791	0.0181
734.9689	0.0195
735.1467	-0.0093
735.3245	0.0349
735.5023	0.0186
735.68	0.005
735.8578	0.0104
736.0355	0.0054
736.2132	-0.0007
736.3909	0.0157
736.5686	-0.0024
736.7463	-0.0047
736.9239	0.0216
737.1015	-0.0049
737.2791	0.0242
737.4567	0.0095
737.6343	0.0087
737.8118	0.0086
737.9894	-0.0131
738.1669	0.0119
738.3444	0.0421
738.5218	0.013
738.6993	0.002
738.8767	0.0008
739.0541	0.0076
739.2315	0.0127
739.4089	0.0151
739.5863	0.0126
739.7636	-0.0047
739.9409	0.0015
740.1182	0.0246
740.2955	0.0123
740.4728	-0.0268
740.65	-0.0096
740.8272	-0.0091
741.0044	-0.0015
741.1816	0.0117
741.3588	-0.0164
741.5359	-0.0223
741.7131	0.005
741.8902	0.0063
742.0673	-0.0016
742.2444	0.0289
742.4214	0.0081
742.5985	0.0188
742.7755	0.0097
742.9525	-0.021
743.1295	-0.0039
743.3064	-0.0394
743.4834	0.0111
743.6603	0.0428
743.8372	-0.03
744.0141	0.0138
744.191	0.0067
744.3678	-0.0278
744.5446	-0.0202
744.7215	0.0104
744.8982	0.016
745.075	0.0381
745.2518	0.0005
745.4285	0.0395
745.6052	-0.0339
745.7819	0.0052
745.9586	0.0266
746.1353	0.0109
746.3119	0.013
746.4885	0.0257
746.6651	0.0114
746.8417	-0.0233
747.0183	0.0558
747.1948	0.0035
747.3714	0.0393
747.5479	0.0213
747.7244	-0.0122
747.9008	0.0063
748.0773	0.007
748.2537	0.0113
748.4301	0.0391
748.6065	0.0055
748.7829	-0.0405
748.9593	-0.0182
749.1356	0.0151
749.3119	0.0055
749.4882	0.0075
749.6645	-0.0027
749.8408	0.0031
750.017	0.0105
750.1933	-0.0116
750.3695	0.0225
750.5457	0.0069
750.7218	0.0029
750.898	-0.0288
751.0741	0.016
751.2502	0.0063
751.4263	0.0016
751.6024	0.0305
751.7784	-0.0027
751.9545	-0.0054
752.1305	0.0119
752.3065	-0.0019
752.4825	0.0065
752.6584	0.0148
752.8344	0.0086
753.0103	-0.0265
753.1862	0.0039
753.3621	0.005
753.5379	-0.0023
753.7138	-0.0053
753.8896	0.01
754.0654	0.0161
754.2412	0.0155
754.417	0.0126
754.5927	-0.0023
754.7685	-0.0022
754.9442	0.0206
755.1199	0.0142
755.2956	0.0057
755.4712	0.0094
755.6469	-0.0133
755.8225	0.0037
755.9981	0.0138
756.1736	0.008
756.3492	-0.0081
756.5248	0.008
756.7003	0.002
756.8758	-0.001
757.0513	0.027
757.2267	0.0192
757.4022	0.008
757.5776	0.0099
757.753	0.0056
757.9284	-0.0097
758.1038	0.0327
758.2791	0.0084
758.4545	0.0056
758.6298	0.0114
758.8051	0.002
758.9803	0.0111
759.1556	0.0081
759.3308	-0.0013
759.506	0.0054
759.6812	0.0085
759.8564	-0.0085
760.0316	-0.0032
760.2067	0.034
760.3819	-0.001
760.557	-0.0157
760.732	0.0133
760.9071	0.0148
761.0821	0.0046
761.2572	0.0023
761.4322	-0.019
761.6072	-0.0013
761.7821	-0.0135
761.9571	0.0217
762.132	-0.0034
762.3069	0.0268
762.4818	0.0085
762.6567	0.0168
762.8316	0.0324
763.0064	0.024
763.1812	0.0082
763.356	-0.0134
763.5308	0.0238
763.7055	0.012
763.8803	-0.0036
764.055	0.0011
764.2297	0.0003
764.4044	0.0011
764.579	0.0147
764.7537	0.0071
764.9283	0.0081
765.1029	0.0227
765.2775	0.0103
765.4521	0.0051
765.6266	-0.0204
765.8011	-0.0033
765.9756	0.0088
766.1501	-0.0099
766.3246	0.0176
766.4991	-0.0004
766.6735	0.0629
766.8479	0.0114
767.0223	0.0196
767.1967	0.0024
767.371	0.0255
767.5454	0.0251
767.7197	0.0287
767.894	0.0074
768.0683	0.0051
768.2425	0.0111
768.4168	-0.0039
768.591	0.0209
768.7652	-0.0169
768.9394	-0.0311
769.1135	-0.0144
769.2877	0.0141
769.4618	0.0265
769.6359	-0.0282
769.81	0.025
769.984	0.0023
770.1581	-0.0025
770.3321	0.0105
770.5061	0.0113
770.6801	0.0129
770.8541	0.0018
771.028	0.0439
771.202	0.0321
771.3759	-0.0091
771.5498	0.0094
771.7236	-0.0004
771.8975	0.0033
772.0713	0.0368
772.2451	-0.0232
772.4189	0.0225
772.5927	-0.005
772.7665	0.0112
772.9402	0.0038
773.1139	0.0216
773.2876	-0.0343
773.4613	0.0041
773.635	0.0604
773.8086	0.0173
773.9822	0.0442
774.1558	0.0411
774.3294	0.0042
774.503	-0.0122
774.6765	0.043
774.8501	-0.0321
775.0236	0.0437
775.1971	-0.0014
775.3705	0.0512
775.544	0.0098
775.7174	0.0324
775.8908	-0.0068
776.0642	0.0143
776.2376	0.0232
776.4109	-0.0167
776.5843	0.0072
776.7576	-0.0007
776.9309	0.0233
777.1041	-0.0717
777.2774	-0.0185
777.4506	-0.0067
777.6238	-0.0137
777.797	-0.0041
777.9702	0.023
778.1434	-0.028
778.3165	-0.0382
778.4896	-0.0441
778.6627	0.0227
778.8358	-0.0068
779.0089	-0.0029
779.1819	0.0232
779.3549	0.0095
779.5279	-0.0306
779.7009	0.0577
779.8739	0.0151
780.0468	-0.011
780.2197	0.0171
780.3926	0.0107
780.5655	-0.0129
780.7384	-0.0121
780.9112	0.0544
781.0841	0.0109
781.2569	-0.0124
781.4297	0.0258
781.6024	0.0273
781.7752	0.0516
781.9479	0.0302
782.1206	0.0097
782.2933	0.0127
782.466	-0.0094
782.6386	-0.02
782.8113	-0.0016
782.9839	0.0042
783.1565	-0.0166
783.329	-0.0153
783.5016	0.0187
783.6741	0.0246
783.8466	0.0341
784.0191	-0.0073
784.1916	-0.0384
784.3641	-0.0674
784.5365	-0.0378
784.7089	-0.0472
784.8813	0.068
785.0537	0.035
785.2261	0.0053
785.3984	-0.0175
785.5707	-0.0101
785.743	0.0332
785.9153	-0.0236
786.0876	-0.0089
786.2598	-0.0167
786.432	-0.0181
786.6042	0.0492
786.7764	-0.0171
786.9486	-0.0081
787.1207	0.0395
787.2928	0.0639
787.4649	0.0021
787.637	-0.0127
787.8091	0.0457
787.9811	0.0244
788.1532	0.0206
788.3252	0.0013
788.4972	-0.0032
788.6691	0.0048
788.8411	0.0049
789.013	-0.0266
789.1849	0.003
789.3568	-0.0199
789.5287	0.0502
789.7005	-0.0129
789.8723	-0.0191
790.0442	0.0485
790.2159	-0.011
790.3877	0.0137
790.5595	0.0531
790.7312	-0.0058
790.9029	-0.008
791.0746	0.0175
791.2463	-0.0705
791.4179	-0.0343
791.5896	0.0234
791.7612	0.0613
791.9328	-0.047
792.1044	-0.0209
792.2759	-0.0789
792.4474	0.0735
792.619	0.0013
792.7905	0.0521
792.9619	0.0225
793.1334	0.0362
793.3048	0.0659
793.4762	0.0397
793.6476	-0.0505
793.819	-0.0338
793.9904	-0.0119
794.1617	0.0007
794.333	-0.0062
794.5043	0.0165
794.6756	0.0071
794.8469	0.0239
795.0181	0.0135
795.1893	0.0358
795.3605	0.0081
795.5317	-0.0062
795.7029	-0.0483
795.874	0.0382
796.0452	-0.035
796.2163	0.0328
796.3873	0.1198
796.5584	-0.0186
796.7294	-0.0201
796.9005	0.0482
797.0715	0.0521
797.2425	0.0344
797.4134	0.0895
797.5844	0.0297
797.7553	-0.0719
797.9262	0.097
798.0971	0.0291
798.2679	-0.0425
798.4388	0.0257
798.6096	0.0169
798.7804	0.0101
798.9512	0.0522
799.122	-0.0124
799.2927	0.0223
799.4635	-0.0381
799.6342	-0.0192
799.8049	0.0714
799.9755	0.0118
800.1462	0.0099
800.3168	-0.0216
800.4874	-0.0829
800.658	0.0523
800.8286	-0.015
800.9991	-0.0473
801.1696	-0.0518
801.3402	-0.0784
801.5106	0.054
801.6811	0.0203
801.8516	0.0149
802.022	-0.0393
802.1924	0.0195
802.3628	-0.0074
802.5332	0.0702
802.7035	0.0247
802.8739	-0.0696
803.0442	0.0022
803.2145	0.0379
803.3847	0.0128
803.555	0.0989
803.7252	-0.0154
803.8954	-0.042
804.0656	-0.0304
804.2358	0.0003
804.4059	0.0274
804.5761	0.0526
804.7462	-0.0049
804.9163	0.1065
805.0864	0.0038
805.2564	0.0297
805.4264	0.031
805.5965	0.0959
805.7665	-0.0306
805.9364	0.0113
806.1064	-0.0021
806.2763	0.0185
806.4462	0.0259
806.6161	0.0019
806.786	-0.0232
806.9559	0.0696
807.1257	-0.0177
807.2955	-0.0303
807.4653	-0.0022
807.6351	0.0718
807.8048	0.0113
807.9746	-0.0513
808.1443	-0.0684
808.314	0.012
808.4837	0.0823
808.6533	0.0098
808.8229	0.0579
808.9926	0.0327
809.1622	0.0783
809.3317	-0.0133
809.5013	-0.0331
809.6708	0.0313
809.8403	-0.0428
810.0098	-0.012
810.1793	-0.03
810.3488	0.0428
810.5182	0.2369
810.6876	0.0121
810.857	0.0595
811.0264	-0.0584
811.1958	0.0867
811.3651	0.0637
811.5344	0.0234
811.7037	0.1143
811.873	0.0691
812.0422	-0.036
812.2115	0.0368
812.3807	-0.0186
812.5499	-0.0439
812.7191	-0.1402
812.8882	-0.0581
813.0574	0.0004
813.2265	0.0681
813.3956	0.035
813.5646	0.0771
813.7337	-0.005
813.9027	-0.0197
814.0718	0.0116
814.2407	0.0442
814.4097	0.0689
814.5787	0.1023
814.7476	0.0661
814.9165	0.0551
815.0854	-0.0679
815.2543	-0.0246
815.4232	0.0288
815.592	0.1217
815.7608	-0.0267
815.9296	-0.0078
816.0984	-0.0677
816.2671	-0.2298
816.4359	0.1028
816.6046	-0.0203
816.7733	-0.1466
816.942	-0.0049
817.1106	-0.0019
817.2793	-0.111
817.4479	-0.002
817.6165	0.0582
817.785	0.0794
817.9536	-0.0739
818.1221	-0.0178
818.2906	-0.1265
818.4591	0.097
818.6276	0.023
818.7961	-0.0089
818.9645	-0.0046
819.1329	0.2414
819.3013	0.0769
819.4697	0.0292
819.638	0.0742
819.8064	-0.0187
819.9747	0.0207
820.143	-0.1288
820.3113	-0.0821
820.4795	0.0404
820.6477	-0.0065
820.816	0.0767
820.9842	0.0631
821.1523	-0.0222
821.3205	0.0318
821.4886	0.0107
821.6567	-0.0623
821.8248	0.1144
821.9929	-0.0986
822.1609	0.0735
822.329	0.0095
822.497	0.0104
822.665	0.063
822.833	0.0006
823.0009	-0.02
823.1688	-0.0474
823.3367	-0.2065
823.5046	0.0944
823.6725	-0.1039
823.8404	0.0517
824.0082	0.0006
824.176	-0.1016
824.3438	0.028
824.5116	-0.1192
824.6793	0.176
824.847	-0.1377
825.0147	0.0292
825.1824	0.3468
825.3501	-0.0772
825.5177	-0.096
825.6854	-0.1248
825.853	-0.1178
826.0206	0.0343
826.1881	-0.041
826.3557	0.1274
826.5232	0.1319
826.6907	0.086
826.8582	0.0702
827.0257	0.3068
827.1931	0.006
827.3605	-0.0731
827.528	-0.1049
827.6953	0.0008
827.8627	0.0006
828.03	-0.0021
828.1974	-0.0618
828.3647	0.1143
828.532	0.0662
828.6992	0.1203
828.8665	-0.2876
829.0337	0.0925
829.2009	-0.1534
829.3681	-0.0182
829.5352	-0.2532
829.7024	0.1505
829.8695	0.1029
830.0366	0.4496
830.2037	0.0282
830.3707	0.1729
830.5378	0.3223
830.7048	-0.154
830.8718	0.6148
831.0388	-0.0148
831.2057	-0.1665
831.3727	-0.3101
831.5396	0.2584
831.7065	-1.0033
831.8734	0.215
832.0402	0.1313
832.2071	-0.4193
832.3739	0.0019
832.5407	-1.5847
832.7075	-0.4064
832.8742	0.4961
833.041	0.0366
833.2077	0.2496
833.3744	-0.042
833.541	-0.013
833.7077	-0.1232
833.8743	0.1378
834.0409	0.0109
834.2075	0.0763
834.3741	-0.0328
834.5407	0.0633
834.7072	-0.0959
834.8737	0.5299
835.0402	0.3113
835.2067	-0.1442
835.3731	-0.0734
835.5395	-0.0175
835.706	0.0336
835.8723	-0.0276
836.0387	1.1088
836.2051	0.3413
836.3714	0.2541
836.5377	-0.1573
836.704	0.1146
836.8703	-0.2055
837.0365	-0.6033
837.2027	0.3675
837.3689	0.6016
837.5351	0.0451
837.7013	-0.1958
837.8674	-0.1854
838.0335	-0.0094
838.1997	-0.0917
838.3657	-0
838.5318	-0.2102
838.6978	0.2203
838.8639	0.1103
839.0299	0.0011
839.1958	0.2093
839.3618	0.3541
839.5277	-0.1867
839.6937	0.1218
839.8596	-0.3024
840.0254	0.0553
840.1913	-0.3032
840.3571	0.7691
840.523	-0
840.6888	0.2421
840.8545	-0.4637
841.0203	0.1094
841.186	0.1833
841.3517	-0.4015
841.5174	0.5292
841.6831	0.2277
841.8488	-0.0828
842.0144	0.152
842.18	0.0891
842.3456	-0.5478
842.5112	-0.5956
842.6767	0.0547
842.8422	-0.0457
843.0077	-0.102
843.1732	0.0982
843.3387	0.4555
843.5042	0.7467
843.6696	-0
843.835	0.0281
844.0004	-0.2972
844.1657	-0.6077
844.3311	-0
844.4964	-0.6394
844.6617	0.1085
844.827	-0
844.9923	0.3146
845.1575	-0
845.3227	-0.1898
845.4879	-0.1065
845.6531	0.3893
845.8183	0.1162
845.9834	0.5839
846.1485	0.0563
846.3136	-0.3194
846.4787	-0
846.6438	-0.2535
846.8088	0.4513
846.9738	-0
847.1388	0.0627
847.3038	0.1619
847.4687	-0
847.6337	-0.4134
847.7986	-0.234
847.9635	-0.0676
848.1284	-0
848.2932	0.3573
848.458	-0
848.6228	-0.0643
848.7876	-0
848.9524	-0.6409
849.1172	-2.0939
849.2819	-0
849.4466	1.1211
849.6113	0.541
849.7759	0.5983
849.9406	0.0118
850.1052	-1.2835
850.2698	-0.4799
850.4344	-0.094
850.599	0.1687
850.7635	-0.0396
850.928	0.4715
851.0925	-0
851.257	0.8679
851.4215	-0.1812
851.5859	0.2119
851.7503	-0
851.9147	-0
852.0791	0.2821
852.2434	0.2062
852.4078	-0
852.5721	-0
852.7364	0.197
852.9007	0.2902
853.0649	-0
853.2291	0.1711
853.3934	-0
853.5575	-0.1989
853.7217	1.3562
853.8859	-0.2163
854.05	-0.4985
854.2141	0.2512
854.3782	0.0203
854.5423	-0.5063
854.7063	0.4273
854.8703	0.1031
855.0343	-0.1248
855.1983	-0.0062
855.3623	-0.1227
855.5262	-0
855.6901	0.0458
855.854	0.0785
856.0179	-0.1765
856.1818	-0
856.3456	0.7389
856.5094	-0
856.6732	-0.5553
856.837	-0.9929
857.0008	-0
857.1645	1.1406
857.3282	-0.3729
857.4919	0.6874
857.6556	-0.5502
857.8192	-0.0692
857.9828	-0.0708
858.1465	0.0881
858.31	1.0886
858.4736	-0.6863
858.6372	-0.442
858.8007	-0.0568
858.9642	1.3448
859.1277	-0
859.2911	-0.0726
859.4546	-0
859.618	0.156
859.7814	-0
859.9448	-0
860.1081	0.194
860.2715	-1.5441
860.4348	0.2609
860.5981	0.8012
860.7614	-0.2243
860.9246	-0.1311
861.0879	0.3711
861.2511	0.2329
861.4143	-0
861.5774	-0.0925
861.7406	-0
861.9037	-0
862.0668	-0.6894
862.2299	0.2408
862.393	-0.0982
862.556	-0.1515
862.7191	0.8094
862.8821	0.2322
863.0451	-0.0726
863.208	-0.1155
863.371	0.0085
863.5339	0.2326
863.6968	-0
863.8597	-0.5739
864.0225	-0.1401
864.1854	-0.0041
864.3482	-1.0564
864.511	-0.2538
864.6737	-0
864.8365	-0.1645
864.9992	0.256
865.1619	-0.2292
865.3246	-1.9777
865.4873	-0.5078
865.65	1.9777
865.8126	0.6428
865.9752	-0.2265
866.1378	0.299
866.3004	-0.2465
866.4629	-1.6877
866.6254	-0.4975
866.7879	-0.3891
866.9504	-0
867.1129	-0.4092
867.2753	-0.3185
867.4377	-0.027
867.6001	-0.5603
867.7625	-0.1539
867.9249	-0
868.0872	-0.1396
868.2495	-0
868.4118	-0
868.5741	-0.4882
868.7363	-0
868.8986	-0.3667
869.0608	-0
869.223	-0.5696
869.3851	0.458
869.5473	0.0468
869.7094	-0
869.8715	-0.3159
870.0336	0.0851
870.1957	-0.7115
870.3577	0.2342
870.5197	0.0133
870.6817	-0.6787
870.8437	-0.2944
871.0057	0.1484
871.1676	0.0642
871.3295	-0
871.4914	-0
871.6533	-0
871.8151	0.5723
871.977	-0
872.1388	-0
872.3006	-0.4615
872.4623	0.2848
872.6241	0.7273
872.7858	-0.0637
872.9475	-0.2354
873.1092	-0.0086
873.2709	2.2755
873.4325	-1.8616
873.5941	-0.7657
873.7557	0.377
873.9173	-0.0529
874.0789	0.2065
874.2404	-0
874.4019	0.4427
874.5634	-0
874.7249	0.9374
874.8863	-0
875.0478	-0.2823
875.2092	-0
875.3706	0.0534
875.5319	0.0041
875.6933	-0
875.8546	-0
876.0159	0.2287
876.1772	0.1742
876.3385	-0
876.4997	-0
876.6609	-0.096
876.8221	-0
876.9833	-0.1624
877.1445	0.4592
877.3056	-0
877.4667	-0.5662
877.6278	-0
877.7889	-0.3332
877.9499	-0
878.111	-0.258
878.272	-0.1579
878.433	-0
878.5939	1.7709
878.7549	-0.0389
878.9158	-0
879.0767	-0.2169
879.2376	-0
879.3984	1.3846
879.5593	0.7422
879.7201	-0.9678
879.8809	-0.1309
880.0417	-0.2455
880.2024	-0
880.3632	-0.5837
880.5239	-0.1578
880.6846	0.0634
880.8452	-0.1252
881.0059	-0
881.1665	-0.0457
881.3271	0.0874
881.4877	1.3121
881.6483	-1.1829
881.8088	-0
881.9693	-0
882.1298	-0
882.2903	-0
