Data from D4ACN5uM420nmA_Absorbance_14-37-10-167.txt Node
Date: Fri Feb 21 14:37:10 GMT 2025
User: LASERRRRR
Spectrometer: FLMT03099
Trigger mode: 0
Integration Time (sec): 1.500000E-2
Scans to average: 1
Electric dark correction enabled: true
Nonlinearity correction enabled: false
Boxcar width: 0
XAxis mode: Wavelengths
Number of Pixels in Spectrum: 3648
>>>>>Begin Spectral Data<<<<<
179.3399	0.2032
179.5586	0.2032
179.7771	0.2032
179.9957	-0.2761
180.2143	-0
180.4329	-0.013
180.6514	-0
180.8699	-0
181.0885	-0
181.307	1.1718
181.5255	-0.0422
181.744	-0
181.9625	0.4824
182.181	-0
182.3994	-0.6808
182.6179	0.6217
182.8363	-0
183.0547	0.0144
183.2732	-0.0273
183.4916	0.3591
183.71	0.2706
183.9284	0.0158
184.1467	0.0878
184.3651	0.2684
184.5835	0.1515
184.8018	0.3013
185.0201	0.2001
185.2385	0.4843
185.4568	-0.0165
185.6751	0.1576
185.8934	0.1234
186.1117	0.0412
186.3299	0.5322
186.5482	0.3344
186.7664	0.0923
186.9847	-0.1213
187.2029	0.2648
187.4211	-0.0799
187.6393	-0.01
187.8575	0.3204
188.0757	0.5244
188.2939	0.0889
188.512	0.156
188.7302	0.2588
188.9483	0.5203
189.1665	0.6437
189.3846	0.4018
189.6027	0.102
189.8208	0.054
190.0389	0.1201
190.257	0.0293
190.475	0.0842
190.6931	0.0914
190.9111	0.269
191.1292	0.2602
191.3472	0.0937
191.5652	0.2054
191.7832	0.1675
192.0012	0.0344
192.2192	0.2386
192.4371	0.1006
192.6551	0.2161
192.873	0.1453
193.091	0.1248
193.3089	0.2878
193.5268	0.2455
193.7447	0.2547
193.9626	0.0902
194.1805	0.1852
194.3984	0.2256
194.6162	0.2095
194.8341	0.3078
195.0519	0.2499
195.2697	0.2189
195.4875	0.3737
195.7054	0.2338
195.9231	0.3285
196.1409	0.357
196.3587	0.3292
196.5765	0.3646
196.7942	0.3904
197.012	0.3349
197.2297	0.2553
197.4474	0.419
197.6651	0.2772
197.8828	0.3059
198.1005	0.4934
198.3182	0.38
198.5358	0.3598
198.7535	0.3831
198.9711	0.4186
199.1888	0.4006
199.4064	0.3712
199.624	0.3969
199.8416	0.3725
200.0592	0.4352
200.2767	0.3899
200.4943	0.4224
200.7119	0.4124
200.9294	0.4144
201.1469	0.3976
201.3645	0.4233
201.582	0.3833
201.7995	0.3783
202.017	0.3751
202.2344	0.4128
202.4519	0.3754
202.6694	0.3885
202.8868	0.4067
203.1042	0.4648
203.3217	0.4225
203.5391	0.4186
203.7565	0.3591
203.9739	0.3621
204.1913	0.3415
204.4086	0.3354
204.626	0.3635
204.8433	0.3716
205.0607	0.3902
205.278	0.3159
205.4953	0.3351
205.7126	0.3382
205.9299	0.3201
206.1472	0.3128
206.3644	0.3681
206.5817	0.3259
206.7989	0.3488
207.0162	0.329
207.2334	0.3579
207.4506	0.3054
207.6678	0.2869
207.885	0.3037
208.1022	0.3101
208.3194	0.2888
208.5365	0.3074
208.7537	0.2765
208.9708	0.3153
209.1879	0.2914
209.405	0.2737
209.6222	0.2806
209.8392	0.2882
210.0563	0.2832
210.2734	0.2767
210.4905	0.2804
210.7075	0.2531
210.9245	0.2582
211.1416	0.2914
211.3586	0.2387
211.5756	0.2473
211.7926	0.2429
212.0096	0.2682
212.2265	0.2473
212.4435	0.2326
212.6604	0.2464
212.8774	0.2346
213.0943	0.2552
213.3112	0.2368
213.5281	0.2476
213.745	0.2145
213.9619	0.2523
214.1788	0.2508
214.3956	0.2271
214.6125	0.2484
214.8293	0.2522
215.0461	0.2385
215.2629	0.2394
215.4798	0.2298
215.6965	0.2399
215.9133	0.2023
216.1301	0.2288
216.3469	0.2504
216.5636	0.2472
216.7803	0.2206
216.9971	0.2443
217.2138	0.2355
217.4305	0.2368
217.6472	0.2431
217.8639	0.2405
218.0805	0.2255
218.2972	0.2294
218.5138	0.2457
218.7305	0.2526
218.9471	0.2332
219.1637	0.2574
219.3803	0.2627
219.5969	0.2471
219.8135	0.2596
220.0301	0.2527
220.2466	0.2543
220.4632	0.24
220.6797	0.2408
220.8962	0.2499
221.1127	0.2564
221.3292	0.2555
221.5457	0.26
221.7622	0.2511
221.9787	0.2723
222.1951	0.2622
222.4116	0.2675
222.628	0.2757
222.8444	0.2682
223.0608	0.2763
223.2772	0.271
223.4936	0.2806
223.71	0.2761
223.9264	0.2712
224.1427	0.2731
224.3591	0.2822
224.5754	0.2913
224.7917	0.2815
225.008	0.2903
225.2243	0.3135
225.4406	0.2871
225.6569	0.3023
225.8732	0.299
226.0894	0.3059
226.3057	0.308
226.5219	0.3199
226.7381	0.3204
226.9543	0.307
227.1705	0.3159
227.3867	0.3184
227.6029	0.3307
227.8191	0.3293
228.0352	0.3348
228.2513	0.3392
228.4675	0.3523
228.6836	0.3411
228.8997	0.3468
229.1158	0.3442
229.3319	0.3524
229.548	0.3515
229.764	0.3516
229.9801	0.3742
230.1961	0.3757
230.4121	0.3756
230.6282	0.3897
230.8442	0.3807
231.0602	0.3919
231.2761	0.386
231.4921	0.3889
231.7081	0.4003
231.924	0.3966
232.14	0.4033
232.3559	0.4099
232.5718	0.4167
232.7877	0.4214
233.0036	0.4231
233.2195	0.4264
233.4353	0.4226
233.6512	0.4187
233.867	0.4244
234.0829	0.4292
234.2987	0.4254
234.5145	0.4384
234.7303	0.4351
234.9461	0.446
235.1619	0.442
235.3776	0.4433
235.5934	0.4311
235.8091	0.4446
236.0249	0.4442
236.2406	0.4552
236.4563	0.4605
236.672	0.4482
236.8877	0.4525
237.1034	0.4603
237.319	0.4545
237.5347	0.4382
237.7503	0.4469
237.966	0.4614
238.1816	0.4537
238.3972	0.4637
238.6128	0.4638
238.8284	0.4579
239.0439	0.4668
239.2595	0.4675
239.475	0.4563
239.6906	0.4644
239.9061	0.4571
240.1216	0.4659
240.3371	0.4699
240.5526	0.4701
240.7681	0.4739
240.9836	0.4635
241.199	0.4641
241.4145	0.4688
241.6299	0.4558
241.8453	0.4488
242.0607	0.4396
242.2761	0.4464
242.4915	0.4411
242.7069	0.4374
242.9223	0.4449
243.1376	0.4233
243.353	0.4217
243.5683	0.4218
243.7836	0.4091
243.9989	0.3965
244.2142	0.3905
244.4295	0.3898
244.6448	0.3867
244.86	0.3661
245.0753	0.3635
245.2905	0.3662
245.5057	0.3461
245.721	0.3548
245.9362	0.3511
246.1514	0.3419
246.3665	0.3232
246.5817	0.3183
246.7969	0.3103
247.012	0.3067
247.2271	0.3084
247.4423	0.2934
247.6574	0.2966
247.8725	0.2823
248.0876	0.2841
248.3026	0.2848
248.5177	0.2647
248.7328	0.2592
248.9478	0.2629
249.1628	0.2564
249.3779	0.2491
249.5929	0.2532
249.8079	0.2467
250.0228	0.2366
250.2378	0.2418
250.4528	0.2312
250.6677	0.2291
250.8827	0.2213
251.0976	0.2237
251.3125	0.2155
251.5274	0.2168
251.7423	0.2216
251.9572	0.21
252.172	0.2098
252.3869	0.2089
252.6017	0.2018
252.8166	0.2066
253.0314	0.2059
253.2462	0.202
253.461	0.2003
253.6758	0.2017
253.8906	0.1962
254.1053	0.2008
254.3201	0.1968
254.5348	0.1897
254.7496	0.1868
254.9643	0.1934
255.179	0.1896
255.3937	0.1944
255.6083	0.1945
255.823	0.1908
256.0377	0.1894
256.2523	0.1918
256.467	0.1923
256.6816	0.1823
256.8962	0.1853
257.1108	0.1873
257.3254	0.1872
257.54	0.1809
257.7545	0.191
257.9691	0.1882
258.1836	0.1848
258.3981	0.1889
258.6127	0.1788
258.8272	0.1883
259.0417	0.1841
259.2561	0.1884
259.4706	0.1832
259.6851	0.1821
259.8995	0.1842
260.114	0.1828
260.3284	0.1789
260.5428	0.1821
260.7572	0.1833
260.9716	0.1899
261.186	0.1897
261.4003	0.1878
261.6147	0.1867
261.829	0.1865
262.0433	0.1809
262.2577	0.1868
262.472	0.1848
262.6863	0.1943
262.9005	0.1876
263.1148	0.1873
263.3291	0.1899
263.5433	0.1955
263.7576	0.1883
263.9718	0.1958
264.186	0.1918
264.4002	0.1924
264.6144	0.201
264.8286	0.1981
265.0427	0.1993
265.2569	0.1981
265.471	0.2031
265.6851	0.2008
265.8993	0.2011
266.1134	0.2049
266.3275	0.2003
266.5415	0.2026
266.7556	0.2081
266.9697	0.2068
267.1837	0.2025
267.3978	0.2046
267.6118	0.1976
267.8258	0.2033
268.0398	0.2056
268.2538	0.2058
268.4677	0.2022
268.6817	0.2016
268.8957	0.1935
269.1096	0.194
269.3235	0.2039
269.5374	0.2064
269.7514	0.2026
269.9652	0.2035
270.1791	0.1925
270.393	0.1981
270.6068	0.2023
270.8207	0.1936
271.0345	0.1972
271.2483	0.1911
271.4622	0.1998
271.676	0.197
271.8897	0.1952
272.1035	0.2037
272.3173	0.1996
272.531	0.2002
272.7448	0.2009
272.9585	0.1994
273.1722	0.1965
273.3859	0.1998
273.5996	0.2028
273.8133	0.2063
274.0269	0.1992
274.2406	0.2062
274.4542	0.2074
274.6679	0.2111
274.8815	0.2109
275.0951	0.2183
275.3087	0.2176
275.5223	0.2116
275.7358	0.2175
275.9494	0.2212
276.1629	0.2169
276.3765	0.2124
276.59	0.2164
276.8035	0.2128
277.017	0.2283
277.2305	0.2244
277.444	0.2196
277.6574	0.2291
277.8709	0.2331
278.0843	0.2252
278.2978	0.2195
278.5112	0.225
278.7246	0.2207
278.938	0.2182
279.1513	0.2217
279.3647	0.2194
279.5781	0.2155
279.7914	0.2143
280.0047	0.2158
280.2181	0.2161
280.4314	0.2105
280.6447	0.2167
280.8579	0.2066
281.0712	0.2013
281.2845	0.2053
281.4977	0.2066
281.711	0.2001
281.9242	0.2055
282.1374	0.2023
282.3506	0.205
282.5638	0.2056
282.7769	0.194
282.9901	0.1976
283.2033	0.1968
283.4164	0.1933
283.6295	0.2006
283.8426	0.1915
284.0557	0.1983
284.2688	0.1967
284.4819	0.1934
284.695	0.2004
284.908	0.1923
285.1211	0.1962
285.3341	0.1924
285.5471	0.1899
285.7601	0.1915
285.9731	0.1961
286.1861	0.1958
286.3991	0.1959
286.612	0.1922
286.825	0.1885
287.0379	0.1901
287.2508	0.1896
287.4637	0.1921
287.6766	0.1881
287.8895	0.1832
288.1024	0.1919
288.3152	0.1948
288.5281	0.1866
288.7409	0.1878
288.9538	0.1914
289.1666	0.1888
289.3794	0.1803
289.5922	0.18
289.8049	0.1852
290.0177	0.1897
290.2304	0.184
290.4432	0.1863
290.6559	0.1829
290.8686	0.1865
291.0813	0.1842
291.294	0.1794
291.5067	0.1831
291.7194	0.1852
291.932	0.183
292.1447	0.1849
292.3573	0.1831
292.5699	0.1858
292.7825	0.1788
292.9951	0.1856
293.2077	0.1792
293.4203	0.1874
293.6328	0.1836
293.8454	0.1821
294.0579	0.1818
294.2704	0.1878
294.4829	0.183
294.6954	0.1829
294.9079	0.1822
295.1204	0.1782
295.3328	0.186
295.5453	0.1856
295.7577	0.187
295.9701	0.1829
296.1825	0.1874
296.3949	0.1767
296.6073	0.175
296.8197	0.184
297.0321	0.1827
297.2444	0.1766
297.4567	0.1819
297.6691	0.1843
297.8814	0.1835
298.0937	0.1773
298.306	0.1845
298.5182	0.1849
298.7305	0.1852
298.9428	0.1787
299.155	0.1797
299.3672	0.18
299.5794	0.1854
299.7916	0.185
300.0038	0.1763
300.216	0.1866
300.4282	0.175
300.6403	0.1905
300.8525	0.1874
301.0646	0.1863
301.2767	0.1857
301.4888	0.1821
301.7009	0.1888
301.913	0.1851
302.125	0.1858
302.3371	0.1874
302.5491	0.1826
302.7612	0.1894
302.9732	0.1909
303.1852	0.187
303.3972	0.1869
303.6092	0.1889
303.8211	0.1837
304.0331	0.185
304.245	0.1836
304.457	0.1804
304.6689	0.1848
304.8808	0.1845
305.0927	0.1903
305.3046	0.1793
305.5164	0.1756
305.7283	0.176
305.9401	0.1741
306.152	0.1837
306.3638	0.1794
306.5756	0.1781
306.7874	0.1728
306.9992	0.1703
307.2109	0.1728
307.4227	0.1706
307.6344	0.176
307.8462	0.1709
308.0579	0.1729
308.2696	0.1721
308.4813	0.1697
308.693	0.1702
308.9046	0.1744
309.1163	0.1662
309.328	0.1611
309.5396	0.1614
309.7512	0.1615
309.9628	0.1647
310.1744	0.1576
310.386	0.1555
310.5976	0.1604
310.8091	0.1607
311.0207	0.1574
311.2322	0.1498
311.4437	0.1564
311.6552	0.1567
311.8667	0.1575
312.0782	0.1549
312.2897	0.1522
312.5012	0.1531
312.7126	0.1457
312.924	0.1513
313.1355	0.1507
313.3469	0.1527
313.5583	0.1547
313.7696	0.1468
313.981	0.1555
314.1924	0.1475
314.4037	0.1487
314.6151	0.1462
314.8264	0.1528
315.0377	0.1487
315.249	0.1513
315.4603	0.1463
315.6716	0.1516
315.8828	0.152
316.0941	0.1497
316.3053	0.1457
316.5165	0.1482
316.7277	0.1446
316.9389	0.1524
317.1501	0.1472
317.3613	0.1415
317.5724	0.1461
317.7836	0.1412
317.9947	0.1436
318.2058	0.1452
318.417	0.1456
318.6281	0.1443
318.8391	0.1484
319.0502	0.1435
319.2613	0.1438
319.4723	0.14
319.6834	0.1468
319.8944	0.1477
320.1054	0.1447
320.3164	0.1421
320.5274	0.1456
320.7383	0.1488
320.9493	0.1449
321.1602	0.1461
321.3712	0.1446
321.5821	0.1439
321.793	0.1564
322.0039	0.15
322.2148	0.1484
322.4257	0.1467
322.6365	0.1409
322.8474	0.1488
323.0582	0.1476
323.269	0.1468
323.4798	0.1517
323.6906	0.1462
323.9014	0.1458
324.1122	0.1474
324.3229	0.1527
324.5337	0.148
324.7444	0.1508
324.9551	0.1484
325.1658	0.1494
325.3765	0.152
325.5872	0.1538
325.7979	0.1494
326.0085	0.1521
326.2192	0.147
326.4298	0.1582
326.6404	0.1579
326.851	0.1493
327.0616	0.1565
327.2722	0.1617
327.4828	0.162
327.6933	0.1707
327.9039	0.1587
328.1144	0.156
328.3249	0.1634
328.5354	0.1588
328.7459	0.1606
328.9564	0.1659
329.1669	0.1606
329.3773	0.1666
329.5878	0.1674
329.7982	0.1661
330.0086	0.1689
330.219	0.1598
330.4294	0.1635
330.6398	0.1671
330.8502	0.1711
331.0605	0.1658
331.2708	0.1689
331.4812	0.1671
331.6915	0.1687
331.9018	0.1697
332.1121	0.1724
332.3224	0.1696
332.5326	0.1654
332.7429	0.1652
332.9531	0.1699
333.1633	0.167
333.3735	0.1609
333.5837	0.167
333.7939	0.1692
334.0041	0.1676
334.2143	0.1672
334.4244	0.1723
334.6346	0.1702
334.8447	0.1591
335.0548	0.1669
335.2649	0.1621
335.475	0.1634
335.685	0.1599
335.8951	0.1619
336.1051	0.1679
336.3152	0.1702
336.5252	0.1577
336.7352	0.1613
336.9452	0.1605
337.1552	0.1618
337.3652	0.1576
337.5751	0.1651
337.7851	0.1649
337.995	0.1609
338.2049	0.1591
338.4148	0.1596
338.6247	0.1552
338.8346	0.158
339.0445	0.1638
339.2543	0.1553
339.4642	0.1616
339.674	0.1592
339.8838	0.1601
340.0936	0.1606
340.3034	0.1564
340.5132	0.1506
340.7229	0.1645
340.9327	0.1685
341.1424	0.1649
341.3522	0.1576
341.5619	0.1661
341.7716	0.1722
341.9813	0.1697
342.1909	0.172
342.4006	0.1734
342.6102	0.1709
342.8199	0.1735
343.0295	0.1699
343.2391	0.1709
343.4487	0.1743
343.6583	0.1865
343.8679	0.1726
344.0774	0.1799
344.287	0.1739
344.4965	0.1785
344.706	0.1792
344.9155	0.185
345.125	0.1726
345.3345	0.1863
345.544	0.1833
345.7534	0.1837
345.9629	0.1899
346.1723	0.1917
346.3817	0.1823
346.5911	0.1889
346.8005	0.1956
347.0099	0.1865
347.2193	0.1998
347.4286	0.2035
347.638	0.197
347.8473	0.1964
348.0566	0.1948
348.2659	0.1978
348.4752	0.193
348.6845	0.1912
348.8937	0.1955
349.103	0.2016
349.3122	0.2025
349.5214	0.2014
349.7306	0.2001
349.9398	0.1968
350.149	0.1979
350.3582	0.201
350.5674	0.2029
350.7765	0.2045
350.9856	0.1938
351.1948	0.1975
351.4039	0.2011
351.613	0.2039
351.822	0.2052
352.0311	0.19
352.2402	0.1994
352.4492	0.1973
352.6582	0.2016
352.8672	0.1981
353.0762	0.1965
353.2852	0.1996
353.4942	0.2007
353.7032	0.1932
353.9121	0.1909
354.1211	0.2033
354.33	0.197
354.5389	0.1906
354.7478	0.1891
354.9567	0.1826
355.1655	0.1925
355.3744	0.1839
355.5833	0.1919
355.7921	0.1998
356.0009	0.1928
356.2097	0.1811
356.4185	0.1921
356.6273	0.1831
356.8361	0.1867
357.0448	0.1836
357.2536	0.1941
357.4623	0.1912
357.671	0.1889
357.8797	0.1881
358.0884	0.182
358.2971	0.1891
358.5057	0.1939
358.7144	0.1891
358.923	0.1967
359.1316	0.1845
359.3402	0.1843
359.5488	0.1866
359.7574	0.197
359.966	0.1905
360.1746	0.1908
360.3831	0.1906
360.5916	0.1939
360.8002	0.199
361.0087	0.1922
361.2172	0.1964
361.4256	0.1869
361.6341	0.2034
361.8426	0.1936
362.051	0.1888
362.2594	0.1945
362.4678	0.1949
362.6762	0.1966
362.8846	0.1924
363.093	0.1918
363.3014	0.2029
363.5097	0.2009
363.718	0.2073
363.9264	0.2027
364.1347	0.1968
364.343	0.1976
364.5513	0.2084
364.7595	0.2028
364.9678	0.1965
365.176	0.209
365.3842	0.2007
365.5925	0.1981
365.8007	0.2001
366.0089	0.213
366.217	0.2081
366.4252	0.2027
366.6333	0.2027
366.8415	0.2141
367.0496	0.2058
367.2577	0.204
367.4658	0.2023
367.6739	0.2025
367.882	0.2049
368.09	0.2049
368.2981	0.2166
368.5061	0.2105
368.7141	0.2056
368.9221	0.2183
369.1301	0.2142
369.3381	0.2111
369.5461	0.2096
369.754	0.2126
369.962	0.2125
370.1699	0.227
370.3778	0.2205
370.5857	0.2129
370.7936	0.2229
371.0015	0.2172
371.2093	0.2142
371.4172	0.213
371.625	0.2204
371.8328	0.2087
372.0406	0.2265
372.2484	0.2188
372.4562	0.2236
372.664	0.2201
372.8717	0.2139
373.0795	0.2259
373.2872	0.2225
373.4949	0.219
373.7026	0.2262
373.9103	0.2212
374.118	0.2276
374.3256	0.2275
374.5333	0.2281
374.7409	0.2284
374.9485	0.2279
375.1561	0.2282
375.3637	0.2269
375.5713	0.2302
375.7789	0.2226
375.9864	0.2349
376.194	0.2406
376.4015	0.2344
376.609	0.2322
376.8165	0.2383
377.024	0.24
377.2315	0.2329
377.4389	0.2323
377.6464	0.2407
377.8538	0.2339
378.0612	0.2332
378.2686	0.2298
378.476	0.2379
378.6834	0.2279
378.8908	0.2464
379.0981	0.2342
379.3055	0.2404
379.5128	0.2278
379.7201	0.2397
379.9274	0.241
380.1347	0.2378
380.342	0.2453
380.5492	0.2384
380.7565	0.2287
380.9637	0.2446
381.1709	0.2406
381.3781	0.24
381.5853	0.2425
381.7925	0.2371
381.9997	0.2545
382.2068	0.2367
382.4139	0.2427
382.6211	0.2328
382.8282	0.2506
383.0353	0.2506
383.2424	0.2434
383.4494	0.2428
383.6565	0.2438
383.8635	0.2362
384.0706	0.256
384.2776	0.2415
384.4846	0.2449
384.6916	0.2433
384.8986	0.2487
385.1055	0.2557
385.3125	0.246
385.5194	0.2503
385.7263	0.2442
385.9333	0.257
386.1402	0.2486
386.347	0.2411
386.5539	0.251
386.7608	0.2417
386.9676	0.248
387.1744	0.2444
387.3813	0.2452
387.5881	0.238
387.7948	0.2473
388.0016	0.2522
388.2084	0.2427
388.4151	0.2376
388.6219	0.243
388.8286	0.2425
389.0353	0.2461
389.242	0.2414
389.4487	0.2412
389.6553	0.2348
389.862	0.2362
390.0686	0.2485
390.2753	0.2388
390.4819	0.2374
390.6885	0.2439
390.8951	0.2328
391.1016	0.2443
391.3082	0.2367
391.5147	0.2342
391.7213	0.2295
391.9278	0.2318
392.1343	0.2359
392.3408	0.2335
392.5473	0.2328
392.7537	0.2308
392.9602	0.2205
393.1666	0.2281
393.373	0.2282
393.5794	0.2197
393.7858	0.2318
393.9922	0.2278
394.1986	0.2297
394.4049	0.2191
394.6113	0.2182
394.8176	0.2216
395.0239	0.2205
395.2302	0.2171
395.4365	0.2248
395.6428	0.2176
395.8491	0.2173
396.0553	0.2088
396.2615	0.2153
396.4678	0.2151
396.674	0.2052
396.8802	0.2128
397.0863	0.2076
397.2925	0.2103
397.4987	0.2115
397.7048	0.2176
397.9109	0.1992
398.117	0.21
398.3231	0.2094
398.5292	0.1927
398.7353	0.2098
398.9413	0.205
399.1474	0.2139
399.3534	0.215
399.5594	0.2122
399.7654	0.2068
399.9714	0.2071
400.1774	0.2036
400.3833	0.2127
400.5893	0.2074
400.7952	0.216
401.0011	0.2054
401.207	0.2108
401.4129	0.2083
401.6188	0.2046
401.8247	0.205
402.0305	0.2006
402.2364	0.2072
402.4422	0.2119
402.648	0.2069
402.8538	0.2008
403.0596	0.1958
403.2654	0.2027
403.4711	0.1959
403.6768	0.197
403.8826	0.205
404.0883	0.2069
404.294	0.2012
404.4997	0.2072
404.7054	0.2063
404.911	0.2111
405.1167	0.2012
405.3223	0.2028
405.5279	0.2068
405.7335	0.2081
405.9391	0.2063
406.1447	0.2059
406.3502	0.2044
406.5558	0.199
406.7613	0.1958
406.9668	0.2127
407.1724	0.2028
407.3778	0.2082
407.5833	0.1997
407.7888	0.202
407.9942	0.2032
408.1997	0.2076
408.4051	0.1996
408.6105	0.2099
408.8159	0.2044
409.0213	0.1967
409.2267	0.2083
409.432	0.2032
409.6374	0.1971
409.8427	0.2049
410.048	0.1999
410.2533	0.2078
410.4586	0.2028
410.6639	0.2024
410.8691	0.1934
411.0744	0.2011
411.2796	0.2043
411.4848	0.204
411.69	0.1989
411.8952	0.2106
412.1004	0.1931
412.3056	0.192
412.5107	0.2061
412.7158	0.2087
412.921	0.2022
413.1261	0.2031
413.3312	0.1971
413.5362	0.2092
413.7413	0.2026
413.9464	0.1916
414.1514	0.2014
414.3564	0.1942
414.5614	0.1972
414.7664	0.1944
414.9714	0.198
415.1764	0.1991
415.3813	0.2001
415.5863	0.2065
415.7912	0.1989
415.9961	0.1937
416.201	0.2066
416.4059	0.1993
416.6108	0.1988
416.8156	0.1977
417.0205	0.1979
417.2253	0.1968
417.4301	0.2001
417.6349	0.1954
417.8397	0.1916
418.0445	0.1921
418.2492	0.1833
418.454	0.1879
418.6587	0.1962
418.8634	0.196
419.0681	0.1952
419.2728	0.1944
419.4775	0.2054
419.6822	0.1896
419.8868	0.184
420.0915	0.1887
420.2961	0.1802
420.5007	0.183
420.7053	0.1858
420.9099	0.1842
421.1144	0.1797
421.319	0.1891
421.5235	0.1816
421.728	0.1854
421.9325	0.1861
422.137	0.1859
422.3415	0.1804
422.546	0.1838
422.7504	0.1772
422.9549	0.1874
423.1593	0.176
423.3637	0.1876
423.5681	0.1754
423.7725	0.1804
423.9769	0.1882
424.1812	0.1698
424.3856	0.1755
424.5899	0.1765
424.7942	0.1762
424.9985	0.179
425.2028	0.1783
425.4071	0.1761
425.6113	0.1845
425.8156	0.1698
426.0198	0.1764
426.224	0.1732
426.4282	0.1628
426.6324	0.1629
426.8366	0.1645
427.0407	0.1659
427.2449	0.1674
427.449	0.1677
427.6531	0.1815
427.8572	0.1654
428.0613	0.1759
428.2654	0.1591
428.4694	0.1545
428.6735	0.1598
428.8775	0.1578
429.0815	0.1522
429.2855	0.1611
429.4895	0.1612
429.6935	0.158
429.8975	0.149
430.1014	0.1497
430.3053	0.1552
430.5093	0.1494
430.7132	0.1459
430.9171	0.1445
431.1209	0.152
431.3248	0.1283
431.5286	0.1373
431.7325	0.1431
431.9363	0.1382
432.1401	0.1395
432.3439	0.1442
432.5477	0.1326
432.7514	0.1264
432.9552	0.1308
433.1589	0.1348
433.3627	0.1403
433.5664	0.1264
433.7701	0.1359
433.9737	0.1294
434.1774	0.1253
434.3811	0.1186
434.5847	0.128
434.7883	0.1243
434.9919	0.1154
435.1955	0.1284
435.3991	0.1187
435.6027	0.1157
435.8062	0.1315
436.0098	0.1107
436.2133	0.1099
436.4168	0.1162
436.6203	0.1169
436.8238	0.1146
437.0272	0.1115
437.2307	0.1102
437.4341	0.1056
437.6375	0.1107
437.841	0.0988
438.0443	0.1094
438.2477	0.0965
438.4511	0.0937
438.6545	0.1068
438.8578	0.0979
439.0611	0.0936
439.2644	0.0978
439.4677	0.094
439.671	0.0882
439.8743	0.094
440.0775	0.0929
440.2808	0.083
440.484	0.0854
440.6872	0.0973
440.8904	0.0784
441.0936	0.0908
441.2967	0.077
441.4999	0.0738
441.703	0.0782
441.9062	0.0885
442.1093	0.0909
442.3124	0.0824
442.5155	0.0812
442.7185	0.0727
442.9216	0.0741
443.1246	0.0761
443.3276	0.0714
443.5307	0.0643
443.7337	0.0791
443.9366	0.0619
444.1396	0.0706
444.3426	0.0654
444.5455	0.0624
444.7484	0.0667
444.9513	0.0669
445.1542	0.0645
445.3571	0.0595
445.56	0.0544
445.7628	0.0601
445.9657	0.0649
446.1685	0.0691
446.3713	0.0673
446.5741	0.0644
446.7769	0.0646
446.9797	0.0542
447.1824	0.0602
447.3852	0.0431
447.5879	0.0516
447.7906	0.0491
447.9933	0.0404
448.196	0.0415
448.3986	0.0446
448.6013	0.0441
448.8039	0.054
449.0066	0.0568
449.2092	0.0535
449.4118	0.0481
449.6143	0.0492
449.8169	0.044
450.0195	0.0477
450.222	0.049
450.4245	0.0438
450.627	0.0418
450.8295	0.0425
451.032	0.0355
451.2345	0.0377
451.4369	0.0384
451.6394	0.0419
451.8418	0.04
452.0442	0.0443
452.2466	0.0281
452.449	0.0413
452.6513	0.026
452.8537	0.0302
453.056	0.0257
453.2583	0.0273
453.4607	0.0241
453.663	0.0296
453.8652	0.0231
454.0675	0.0346
454.2697	0.0288
454.472	0.0257
454.6742	0.0376
454.8764	0.037
455.0786	0.0295
455.2808	0.0245
455.4829	0.0339
455.6851	0.0273
455.8872	0.021
456.0893	0.0295
456.2915	0.0196
456.4935	0.0393
456.6956	0.0213
456.8977	0.0252
457.0997	0.0354
457.3018	0.0253
457.5038	0.0325
457.7058	0.0316
457.9078	0.0178
458.1098	0.0271
458.3117	0.0239
458.5137	0.0144
458.7156	0.0278
458.9175	0.0219
459.1194	0.0219
459.3213	0.0189
459.5232	0.0281
459.725	0.0257
459.9269	0.0247
460.1287	0.0228
460.3305	0.0248
460.5323	0.0176
460.7341	0.0127
460.9359	0.0117
461.1376	0.0166
461.3394	0.0198
461.5411	0.0275
461.7428	0.0245
461.9445	0.0171
462.1462	0.0195
462.3479	0.0125
462.5495	0.0244
462.7512	0.0217
462.9528	0.0215
463.1544	0.0191
463.356	0.0123
463.5576	0.0317
463.7592	0.0197
463.9607	0.0117
464.1623	0.0141
464.3638	0.0107
464.5653	0.0255
464.7668	0.0219
464.9683	0.0179
465.1697	0.0171
465.3712	0.012
465.5726	0.0138
465.7741	0.0198
465.9755	0.0179
466.1769	0.0113
466.3782	0.011
466.5796	0.014
466.7809	0.0154
466.9823	0.022
467.1836	0.0144
467.3849	0.0097
467.5862	0.0044
467.7875	0.0088
467.9887	0.0138
468.19	0.0055
468.3912	0.0233
468.5924	0.0075
468.7936	0.0154
468.9948	0.0065
469.196	0.011
469.3972	0.0075
469.5983	0.0122
469.7994	0.0219
470.0006	0.0143
470.2017	0.0169
470.4027	0.025
470.6038	0.0219
470.8049	0.0095
471.0059	0.0199
471.2069	0.0152
471.408	0.0139
471.6089	0.0171
471.8099	0.0172
472.0109	0.0136
472.2119	0.0269
472.4128	0.0057
472.6137	0.0184
472.8146	0.0182
473.0155	0.019
473.2164	0.0088
473.4173	0.005
473.6181	0.0046
473.819	0.0139
474.0198	0.0099
474.2206	0.0062
474.4214	0.0161
474.6222	-0.0011
474.8229	0.0114
475.0237	0.0209
475.2244	0.0137
475.4251	0.0156
475.6258	0.0057
475.8265	0.0254
476.0272	0.0051
476.2278	0.0092
476.4285	0.0176
476.6291	0.0198
476.8297	0.0163
477.0303	0.0001
477.2309	0.0114
477.4315	0.0148
477.632	0.0093
477.8326	0.0142
478.0331	0.0166
478.2336	0.012
478.4341	0.0145
478.6346	0.0069
478.8351	0.0075
479.0355	0.008
479.236	0.0153
479.4364	0.0056
479.6368	0.0111
479.8372	0.0118
480.0376	0.0144
480.2379	0.0153
480.4383	0.0113
480.6386	0.0049
480.8389	0.0068
481.0392	0.0114
481.2395	0.0169
481.4398	0.0129
481.6401	0.0142
481.8403	0.0123
482.0405	0.0109
482.2408	0.0121
482.441	0.0175
482.6411	0.0103
482.8413	0.0041
483.0415	0.0125
483.2416	0.01
483.4417	0.005
483.6419	0.0082
483.8419	0.0103
484.042	0.0124
484.2421	0.0041
484.4422	0.0114
484.6422	0.0105
484.8422	0.0131
485.0422	0.0094
485.2422	0.0049
485.4422	0.0079
485.6422	0.0093
485.8421	0.0086
486.042	0.0174
486.242	0.0091
486.4419	0.0098
486.6417	0.0075
486.8416	0.007
487.0415	0.0085
487.2413	-0.0014
487.4411	0.0123
487.641	0.005
487.8408	0.0138
488.0405	0.0165
488.2403	0.0031
488.4401	0.0091
488.6398	0.0218
488.8395	0.0075
489.0392	0.01
489.2389	0.004
489.4386	-0.0003
489.6383	0.0132
489.8379	0.0011
490.0376	0.0037
490.2372	0.0069
490.4368	0.0083
490.6364	0.0061
490.836	0.0085
491.0355	0.0031
491.2351	0.0133
491.4346	0.0025
491.6341	0.0074
491.8336	0.0154
492.0331	0.0116
492.2326	0.0091
492.432	0.0156
492.6315	0.0158
492.8309	0.0104
493.0303	0.0074
493.2297	0.0125
493.4291	0.0073
493.6284	0.0209
493.8278	0.0085
494.0271	0.0098
494.2264	0.001
494.4257	0.0114
494.625	0.0079
494.8243	0.0055
495.0236	0.0116
495.2228	0.0179
495.422	0.0109
495.6213	0.0108
495.8205	0.0124
496.0196	0.0025
496.2188	0.0141
496.418	0.0108
496.6171	0.0072
496.8162	0.0101
497.0153	0.009
497.2144	0.0153
497.4135	0.0077
497.6126	0.012
497.8116	0.0055
498.0107	0.0183
498.2097	0.0076
498.4087	0.0049
498.6077	0.0015
498.8067	0.0165
499.0056	0.0092
499.2046	0.016
499.4035	0.0071
499.6024	0.0005
499.8013	0.0165
500.0002	0.0126
500.199	0.0108
500.3979	0.0053
500.5967	0.0115
500.7956	0.0157
500.9944	0.013
501.1932	0.0157
501.3919	0.0232
501.5907	0.0142
501.7895	0.0144
501.9882	0.0086
502.1869	0.0141
502.3856	0.0034
502.5843	0.0112
502.783	0.0131
502.9816	0.0178
503.1803	0.0134
503.3789	0.0106
503.5775	0.0112
503.7761	-0.0024
503.9747	0.0131
504.1732	0.005
504.3718	0.0183
504.5703	0.015
504.7689	-0.0007
504.9674	0.0084
505.1658	0.0058
505.3643	0.0069
505.5628	0.022
505.7612	0.0149
505.9597	0.0055
506.1581	0.0141
506.3565	0.0122
506.5549	0.0051
506.7532	0.0023
506.9516	0.0105
507.1499	0.012
507.3482	0.0088
507.5465	0.0111
507.7448	0.0118
507.9431	0.015
508.1414	0.0075
508.3396	0.0108
508.5379	0.0075
508.7361	0.0078
508.9343	0.0165
509.1325	0.0082
509.3306	0.0136
509.5288	0.0054
509.7269	0.0068
509.9251	0.0161
510.1232	0.0113
510.3213	0.013
510.5193	0.0042
510.7174	0.0055
510.9154	0.0113
511.1135	0.0088
511.3115	0.0057
511.5095	0.0154
511.7075	0.0164
511.9055	0.0039
512.1034	0.0137
512.3014	0.0045
512.4993	0.0069
512.6972	0.0105
512.8951	0.0081
513.093	0.0125
513.2908	0.0199
513.4887	0.0096
513.6865	0.0114
513.8844	0.0138
514.0822	0.0171
514.2799	0.0086
514.4777	0.0078
514.6755	0.0118
514.8732	0.0087
515.0709	0.0064
515.2687	0.0057
515.4664	0.0112
515.664	0.016
515.8617	0.0092
516.0594	0.0139
516.257	0.0126
516.4546	0.0215
516.6522	0.0133
516.8498	0.0167
517.0474	0.0112
517.2449	0.0043
517.4425	0.0061
517.64	0.0121
517.8375	0.0177
518.035	0.01
518.2325	-0.0025
518.43	0.009
518.6274	0.0071
518.8249	0.01
519.0223	0.0176
519.2197	0.0174
519.4171	0.007
519.6145	0.0186
519.8118	0.0018
520.0092	0.0064
520.2065	0.0165
520.4038	0.0055
520.6011	0.0202
520.7984	0.0166
520.9956	0.0118
521.1929	0.0113
521.3901	0.0104
521.5874	0.0106
521.7846	-0.0067
521.9818	0.0047
522.1789	0.0015
522.3761	0.0248
522.5732	0.0103
522.7704	0.0042
522.9675	0.006
523.1646	-0.0081
523.3617	0.026
523.5587	0.0131
523.7558	0.0111
523.9528	0.0107
524.1498	0.0055
524.3468	0.0095
524.5438	0.0115
524.7408	0.007
524.9378	0.0197
525.1347	0.015
525.3316	0.0171
525.5285	0.0066
525.7254	0.0088
525.9223	0.0171
526.1192	0.0094
526.316	0.0132
526.5129	0.01
526.7097	0.0068
526.9065	0.0125
527.1033	0.0116
527.3	0.011
527.4968	0.0148
527.6935	0.0003
527.8903	0.0211
528.087	0.0122
528.2837	0.0065
528.4804	0.009
528.677	0.0054
528.8737	0.0149
529.0703	0.0056
529.2669	0.0174
529.4635	0.0075
529.6601	-0.0044
529.8567	0.0066
530.0532	0.0247
530.2498	0.0072
530.4463	0.0018
530.6428	0.0151
530.8393	0.0166
531.0358	0.0053
531.2322	0.0048
531.4287	0.0083
531.6251	0.0078
531.8215	-0.0029
532.0179	0.0186
532.2143	0.0107
532.4107	0.0182
532.607	0.0105
532.8034	0.0074
532.9997	0.0008
533.196	0.0036
533.3923	0.017
533.5886	0.0119
533.7848	0.0073
533.9811	0.0128
534.1773	0.0129
534.3735	0.0108
534.5697	0.0113
534.7659	0.0204
534.9621	0.0091
535.1582	0.0064
535.3544	0.0183
535.5505	0.0138
535.7466	0.0093
535.9427	0.0101
536.1387	0.0032
536.3348	0.0117
536.5308	0.0109
536.7269	0.0073
536.9229	0.0104
537.1189	0.0193
537.3148	0.0047
537.5108	0.0127
537.7068	0.0138
537.9027	-0.0008
538.0986	0.0033
538.2945	0.0053
538.4904	0.0069
538.6863	0.0101
538.8821	0.0147
539.078	0.01
539.2738	0.0062
539.4696	0.0016
539.6654	0.0096
539.8611	0.0078
540.0569	0.02
540.2526	0.0211
540.4484	0.0004
540.6441	0.0039
540.8398	0.0129
541.0355	0.003
541.2311	0.0138
541.4268	0.0219
541.6224	0.0168
541.818	0.0136
542.0136	0.0129
542.2092	0.0106
542.4048	0.016
542.6003	0.0041
542.7959	0.0173
542.9914	0.0082
543.1869	0.0083
543.3824	0.0127
543.5779	0.0145
543.7734	0.0244
543.9688	0.0222
544.1642	0.0072
544.3596	0.0142
544.555	0.0123
544.7504	0.022
544.9458	0.0119
545.1411	0.005
545.3365	0.0135
545.5318	0.0038
545.7271	0.0138
545.9224	0.0094
546.1177	0.0151
546.3129	0.0059
546.5081	0.0075
546.7034	0.0113
546.8986	0.0093
547.0938	0.023
547.289	0.0175
547.4841	0.0127
547.6793	0.0052
547.8744	0.0107
548.0695	0.0046
548.2646	0.0089
548.4597	0.0064
548.6548	0.0111
548.8498	0.0144
549.0448	0.0056
549.2399	0.0233
549.4349	0.0116
549.6298	0.0139
549.8248	0.0078
550.0198	0.0162
550.2147	0.0031
550.4096	0.0073
550.6045	0.014
550.7994	0.0068
550.9943	0.0128
551.1892	-0.0068
551.384	0.0134
551.5788	0.0112
551.7737	0.0167
551.9685	0.0077
552.1632	0.0086
552.358	0.01
552.5528	0.0161
552.7475	0.0142
552.9422	0.0154
553.1369	0.0231
553.3316	0.0111
553.5263	0.0141
553.7209	-0
553.9156	0.01
554.1102	0.0015
554.3048	-0.001
554.4994	0.005
554.694	0.0155
554.8885	0.0002
555.0831	0.0126
555.2776	0.0034
555.4721	0.0177
555.6666	0.0121
555.8611	0.0153
556.0555	-0.0015
556.25	0.0203
556.4444	0.0065
556.6388	0.0071
556.8332	0.0089
557.0276	0.0088
557.222	0.0101
557.4163	0.0142
557.6107	0.0071
557.805	-0.0007
557.9993	0.0186
558.1936	-0.0008
558.3879	0.013
558.5821	0.0157
558.7764	0.0087
558.9706	0.0142
559.1648	0.0179
559.359	0.0004
559.5532	-0.001
559.7473	0.0065
559.9415	0.0033
560.1356	0.0217
560.3297	0.0007
560.5238	0.015
560.7179	-0.0045
560.9119	0.0138
561.106	0.0006
561.3	0.0042
561.494	0.0044
561.688	-0.0007
561.882	0.0002
562.076	0.0045
562.2699	0.0135
562.4639	0.0196
562.6578	0.0106
562.8517	0.0074
563.0456	0.0109
563.2395	0.0108
563.4333	0.0155
563.6272	0.0096
563.821	-0.0006
564.0148	0.0111
564.2086	0.0031
564.4024	0.0219
564.5961	0.0141
564.7899	0.0217
564.9836	0.0125
565.1773	0.0146
565.371	0.011
565.5647	-0
565.7584	0.0218
565.952	0.0126
566.1456	0.0116
566.3393	0.0116
566.5329	0.0037
566.7264	0.0064
566.92	0.0085
567.1136	0.0021
567.3071	-0.0035
567.5006	0.0142
567.6941	0.0046
567.8876	0.008
568.0811	0.0215
568.2745	0.0071
568.468	0.0066
568.6614	0.011
568.8548	0.0104
569.0482	0.013
569.2416	0.0138
569.4349	0.0098
569.6283	0.0082
569.8216	0.0103
570.0149	0.0095
570.2082	0.0108
570.4015	0.0133
570.5947	0.0083
570.788	0.0072
570.9812	0.0036
571.1744	0.0102
571.3676	0.0067
571.5608	0.0116
571.754	0.0128
571.9471	0.0079
572.1402	0.0067
572.3333	0.0118
572.5264	0.0071
572.7195	0.0042
572.9126	0.0051
573.1057	0.0127
573.2987	0.007
573.4917	0.0064
573.6847	0.0067
573.8777	0.0138
574.0707	0.0099
574.2636	0.0045
574.4566	0.0091
574.6495	-0.0007
574.8424	0.0098
575.0353	0.0101
575.2281	0.016
575.421	0.0037
575.6138	0.0073
575.8067	0.0074
575.9995	0.0076
576.1923	0.0086
576.385	0.0092
576.5778	0.0134
576.7706	0.0091
576.9633	0.0106
577.156	0.0007
577.3487	0.0036
577.5414	0.0075
577.734	0.0067
577.9267	0.0079
578.1193	0.0121
578.3119	0.0092
578.5045	0.0093
578.6971	0.0115
578.8897	0.0031
579.0822	0.0096
579.2747	0.0055
579.4673	0.0101
579.6598	0.0111
579.8522	0.0122
580.0447	0.0137
580.2372	0.0135
580.4296	0.0107
580.622	0.0052
580.8144	0.0107
581.0068	0.0077
581.1992	0.0084
581.3915	0.0023
581.5839	0.0055
581.7762	0.0064
581.9685	0.0079
582.1608	0.0068
582.353	0.0046
582.5453	0.0127
582.7375	0.0114
582.9298	0.0078
583.122	0.0079
583.3142	0.0144
583.5063	0.0074
583.6985	0.0051
583.8906	0.0033
584.0827	0.0114
584.2749	0.0042
584.4669	0.0116
584.659	0.0124
584.8511	0.0153
585.0431	0.0097
585.2352	0.0072
585.4272	0.0082
585.6192	0.0108
585.8111	0.0058
586.0031	0.0055
586.195	0.0069
586.387	0.0065
586.5789	0.0132
586.7708	0.0116
586.9627	0.0049
587.1545	0.0086
587.3464	0.0096
587.5382	0.0085
587.73	0.0101
587.9218	0.0064
588.1136	-0.0001
588.3053	0.0098
588.4971	0.0124
588.6888	0.009
588.8805	0.0085
589.0722	0.0081
589.2639	0.0071
589.4556	0.0097
589.6472	0.0159
589.8389	0.0046
590.0305	0.0069
590.2221	0.008
590.4137	0.0053
590.6052	0.0016
590.7968	0.0092
590.9883	0.0072
591.1798	0.0045
591.3713	0.0051
591.5628	0.0109
591.7543	0.0033
591.9458	0.0092
592.1372	0.0122
592.3286	0.006
592.52	0.0094
592.7114	0.0052
592.9028	0.0121
593.0941	0.0075
593.2855	0.0061
593.4768	0.0134
593.6681	0.0111
593.8594	0.0131
594.0506	0.0007
594.2419	0.0122
594.4331	0.0111
594.6244	-0.0011
594.8156	0.0097
595.0067	0.0048
595.1979	0.0028
595.3891	0.0044
595.5802	0.017
595.7713	0.0096
595.9624	0.0077
596.1535	0.0098
596.3446	0.0099
596.5357	0.0118
596.7267	0.0137
596.9177	-0.001
597.1087	0.0064
597.2997	0.0105
597.4907	0.0028
597.6817	0.0061
597.8726	0.0101
598.0635	0.0037
598.2544	0.0073
598.4453	0.0104
598.6362	0.0054
598.827	0.0028
599.0179	0.0082
599.2087	0.0138
599.3995	0.0083
599.5903	0.0094
599.7811	0.0172
599.9718	0.007
600.1626	0.005
600.3533	0.0094
600.544	0.013
600.7347	0.007
600.9254	0.0186
601.116	0.0086
601.3067	0.0062
601.4973	0.0091
601.6879	0.0068
601.8785	0.016
602.0691	0.0061
602.2596	0.0122
602.4502	0.007
602.6407	0.0109
602.8312	0.009
603.0217	0.0065
603.2122	0.0117
603.4027	0.0093
603.5931	0.0013
603.7835	0.0109
603.9739	0.0061
604.1643	0.0143
604.3547	0.0154
604.5451	0.0108
604.7354	0.0056
604.9257	0.0067
605.116	0.0041
605.3063	0.0122
605.4966	0.0073
605.6869	0.0094
605.8771	0.0107
606.0673	0.0053
606.2575	0.0054
606.4477	0.014
606.6379	0.0022
606.8281	0.0104
607.0182	0.0064
607.2083	0.0101
607.3985	0.0077
607.5885	0.0054
607.7786	0.0098
607.9687	0.0158
608.1587	0.0149
608.3488	0.0068
608.5388	0.0078
608.7288	0.01
608.9187	0.01
609.1087	0.0091
609.2986	0.0122
609.4886	0.0108
609.6785	0.0083
609.8684	0.0025
610.0582	0.0049
610.2481	0.0026
610.4379	0.0129
610.6278	0.0116
610.8176	0.0138
611.0074	0.0142
611.1971	0.0064
611.3869	0.0126
611.5766	0.0039
611.7664	0.0127
611.9561	0.0128
612.1458	0.0114
612.3354	0.0089
612.5251	0.011
612.7147	0.0132
612.9044	0.0032
613.094	0.0082
613.2836	0.0086
613.4731	0.0037
613.6627	0.012
613.8522	0.0102
614.0417	0.0105
614.2313	0.0051
614.4207	0.0106
614.6102	0.0108
614.7997	0.0164
614.9891	0.0084
615.1785	0.0048
615.3679	0.0082
615.5573	0.0054
615.7467	0.0056
615.9361	0.0019
616.1254	0.0142
616.3147	0.0081
616.504	0.0086
616.6933	0.0084
616.8826	0.0059
617.0718	0.0099
617.2611	0.0033
617.4503	0.001
617.6395	0.0044
617.8287	0.0231
618.0179	0.0168
618.207	0.0139
618.3961	0.0041
618.5853	0.0029
618.7744	0.0032
618.9634	0.0175
619.1525	0.0066
619.3416	0.0042
619.5306	0.0158
619.7196	0.0092
619.9086	0.0077
620.0976	-0.0012
620.2866	0.0178
620.4755	-0.0037
620.6645	0.0063
620.8534	0.008
621.0423	0.0093
621.2312	0.0069
621.42	0.0057
621.6089	0.0076
621.7977	0.0129
621.9865	0.0181
622.1753	0.0052
622.3641	-0.0009
622.5529	0.0039
622.7416	0.0046
622.9303	0.0111
623.1191	0.0155
623.3078	0.005
623.4964	0.009
623.6851	0.0091
623.8737	0.0117
624.0624	-0.0039
624.251	0.0061
624.4396	0.0028
624.6282	0.0151
624.8167	0.0122
625.0053	0.02
625.1938	0.006
625.3823	0.0093
625.5708	0.002
625.7593	0.0027
625.9477	-0.0008
626.1362	0.0004
626.3246	0.0101
626.513	0.0144
626.7014	0.0158
626.8898	0.0115
627.0781	0.0078
627.2665	0.0109
627.4548	-0.0021
627.6431	0.0159
627.8314	0.0121
628.0197	0.0157
628.2079	-0.0014
628.3962	0.0198
628.5844	0.0168
628.7726	0.0004
628.9608	0.0027
629.1489	0.0085
629.3371	0.0065
629.5252	0.0093
629.7134	0.0033
629.9015	0.019
630.0895	-0.0053
630.2776	0.0085
630.4657	0.023
630.6537	0.008
630.8417	-0.006
631.0297	-0.0048
631.2177	0.0182
631.4057	0.0061
631.5936	0.0114
631.7815	0.0042
631.9695	0.0349
632.1574	0.025
632.3452	0.0012
632.5331	0.0061
632.7209	0.0177
632.9088	0.0117
633.0966	0.0217
633.2844	0.0073
633.4722	0.0148
633.6599	0.0284
633.8477	0.006
634.0354	0.0259
634.2231	0.0118
634.4108	0.0237
634.5985	0.0284
634.7861	0.0234
634.9738	0.0052
635.1614	0.011
635.349	0.0021
635.5366	0.011
635.7242	-0.0013
635.9117	0.0098
636.0993	0.0018
636.2868	0.001
636.4743	0.0162
636.6618	0.0018
636.8492	0.0101
637.0367	0.0021
637.2241	0.0015
637.4115	0.0358
637.5989	0.0066
637.7863	0.0247
637.9737	0.0167
638.161	0.0201
638.3484	-0.0022
638.5357	0.0044
638.723	0.0177
638.9103	-0.0067
639.0975	0.0054
639.2848	0.0154
639.472	0.0293
639.6592	-0.0002
639.8464	0.0092
640.0336	0.0206
640.2208	-0.0064
640.4079	-0.0016
640.595	-0.0047
640.7821	0.0173
640.9692	-0
641.1563	0.0132
641.3434	0.0206
641.5304	0.0182
641.7174	0.0095
641.9044	0.0085
642.0914	0.0241
642.2784	0.0117
642.4653	-0.0025
642.6523	0.0133
642.8392	0.0062
643.0261	0.0314
643.213	0.0205
643.3999	0.0235
643.5867	0.0158
643.7735	-0.0022
643.9604	0.0085
644.1472	0.0221
644.3339	0.0079
644.5207	0.0099
644.7075	0.005
644.8942	-0.0148
645.0809	0.0227
645.2676	0.0004
645.4543	0.0009
645.6409	0.0181
645.8276	0.0398
646.0142	0.0065
646.2008	0.0195
646.3874	0.0058
646.574	0.0069
646.7605	0.0108
646.9471	-0.0053
647.1336	0.0097
647.3201	0.0081
647.5066	0.0011
647.6931	0.0149
647.8795	0.0132
648.0659	0.0106
648.2524	0.0045
648.4388	0.0074
648.6252	0.0094
648.8115	0.0077
648.9979	0.0228
649.1842	0.0129
649.3705	0.0189
649.5568	-0.01
649.7431	-0.0206
649.9294	-0.0079
650.1156	-0.0158
650.3018	0.0172
650.488	0.0192
650.6742	0.0298
650.8604	0.0145
651.0466	0.0059
651.2327	0.0104
651.4188	0.0065
651.6049	0.02
651.791	0.0041
651.9771	-0.0007
652.1632	0.0131
652.3492	0.0095
652.5352	0.0289
652.7212	0.0177
652.9072	0.0094
653.0932	0.0045
653.2791	0.0067
653.465	0.0211
653.651	0.0091
653.8369	0.0096
654.0227	-0.0072
654.2086	-0.0036
654.3944	0.0131
654.5803	0.0127
654.7661	0.0019
654.9519	0.0025
655.1377	0.0001
655.3234	0.0001
655.5092	0.0001
655.6949	0.0001
655.8806	0.0001
656.0663	0.0001
656.2519	0.0001
656.4376	0.0001
656.6232	0.0001
656.8088	0.0001
656.9945	0.0001
657.18	0.0001
657.3656	0.0001
657.5511	0.0001
657.7367	0.0001
657.9222	0.0001
658.1077	0.0001
658.2932	0.0001
658.4786	0.0001
658.6641	0.0001
658.8495	0.0001
659.0349	0.0001
659.2203	0.0001
659.4057	0.0104
659.591	0.2788
659.7764	0.0412
659.9617	0.0219
660.147	0.0222
660.3323	0.021
660.5176	0.0155
660.7028	-0.0081
660.888	0.0235
661.0733	0.0148
661.2585	0.0104
661.4436	0.0312
661.6288	0.0263
661.8139	0.0068
661.9991	-0.0049
662.1842	0.0112
662.3693	0.0078
662.5544	0.04
662.7394	0.0106
662.9245	0.0033
663.1095	-0.0107
663.2945	-0.0084
663.4795	0.0021
663.6644	-0.0061
663.8494	-0.0029
664.0343	0.0246
664.2193	0.0155
664.4042	0.0044
664.589	0.0059
664.7739	0.0172
664.9587	-0
665.1436	-0.003
665.3284	0.0142
665.5132	-0.0189
665.698	0.0096
665.8827	0.0174
666.0675	-0.0109
666.2522	0.0284
666.4369	0.0072
666.6216	0.033
666.8063	0.0123
666.9909	0.0016
667.1756	-0.0108
667.3602	0.016
667.5448	-0.0046
667.7294	0.0172
667.9139	0.0031
668.0985	0.0054
668.283	0.0072
668.4675	0.0357
668.652	0.0238
668.8365	0.0179
669.0209	0.0214
669.2054	0.0096
669.3898	-0.0097
669.5742	0.0491
669.7586	0.0269
669.943	0.0101
670.1273	0.005
670.3117	0.0368
670.496	0.0213
670.6803	-0.0039
670.8646	0.0024
671.0488	0.0295
671.2331	-0.0144
671.4173	0.0072
671.6015	0.0106
671.7857	0.0158
671.9699	0.0225
672.1541	0.0145
672.3382	0.0109
672.5223	0.0149
672.7064	0.0093
672.8905	0.0111
673.0746	0.022
673.2587	0.0298
673.4427	0.0208
673.6267	0.0136
673.8107	0.0213
673.9947	0.0382
674.1787	0.0064
674.3626	-0.001
674.5465	0.0261
674.7304	0.0088
674.9143	-0.0093
675.0982	0.0087
675.2821	0.0224
675.4659	0.0173
675.6497	0.0148
675.8335	0.018
676.0173	0.004
676.2011	0.0267
676.3849	0.028
676.5686	0.0205
676.7523	0.0147
676.936	0.0011
677.1197	0.0027
677.3034	0.0359
677.487	0.0032
677.6706	0.0092
677.8542	0.0162
678.0378	0.0071
678.2214	0.0048
678.405	-0.0046
678.5885	0.0289
678.772	0.0253
678.9555	-0.0083
679.139	0.0267
679.3225	0.0194
679.5059	0.0139
679.6894	0.0204
679.8728	0.0035
680.0562	0.0064
680.2395	-0.0068
680.4229	-0.0047
680.6062	0.012
680.7896	-0.0099
680.9729	0.026
681.1562	0.0233
681.3394	0.005
681.5227	0.0047
681.7059	0.0154
681.8891	0.0221
682.0723	0.0041
682.2555	0.0094
682.4387	0.0068
682.6218	0.024
682.805	0.0148
682.9881	0.0191
683.1712	0.014
683.3542	0.0226
683.5373	0.0042
683.7203	0.0044
683.9034	0.0067
684.0864	0.0142
684.2694	0.0085
684.4523	0.0123
684.6353	0.0039
684.8182	0.0146
685.0011	0.0064
685.184	0.0116
685.3669	0.0308
685.5498	0.0061
685.7326	0.0013
685.9154	-0.0089
686.0982	0.0313
686.281	0.0099
686.4638	0.0054
686.6465	0.0012
686.8293	-0.0002
687.012	0.0167
687.1947	0.0185
687.3774	0.0193
687.56	-0.0082
687.7427	0.0031
687.9253	-0.0175
688.1079	0.0047
688.2905	-0.0052
688.4731	0.0187
688.6556	0.0008
688.8382	-0.0105
689.0207	-0.0073
689.2032	0.0135
689.3857	0.0286
689.5681	0.0126
689.7506	0.0196
689.933	-0.0007
690.1154	0.0103
690.2978	0.0061
690.4802	0.0162
690.6626	0.0073
690.8449	0.0166
691.0272	-0.0073
691.2095	-0.0031
691.3918	-0.0003
691.5741	0.0313
691.7563	0.0158
691.9386	0.0034
692.1208	0.0079
692.303	-0.0063
692.4852	0.0322
692.6673	-0.023
692.8495	0.0014
693.0316	0.0133
693.2137	0.0283
693.3958	0.0191
693.5778	0.0216
693.7599	-0.0033
693.9419	0.0108
694.1239	0.0278
694.3059	0.0045
694.4879	0.0078
694.6699	0.0108
694.8518	0.0236
695.0337	0.0126
695.2157	0.0317
695.3975	0.0015
695.5794	-0.014
695.7613	0.0096
695.9431	0.0063
696.1249	0.0423
696.3067	-0.0147
696.4885	0.0286
696.6703	0.0107
696.852	0.0075
697.0337	0.0256
697.2154	0.0066
697.3971	0.0262
697.5788	0.0175
697.7605	0.005
697.9421	0.0224
698.1237	0.0184
698.3053	0.0058
698.4869	0.0263
698.6685	0.0002
698.85	0.0151
699.0315	-0.0102
699.213	0.0225
699.3945	-0.0011
699.576	0.0215
699.7575	0.0155
699.9389	0.0066
700.1203	-0.0005
700.3017	0.0188
700.4831	0.0137
700.6645	0.0408
700.8458	0.0079
701.0271	0.03
701.2084	0.0228
701.3897	0.028
701.571	0.0018
701.7523	0.0288
701.9335	0.0173
702.1147	0.0216
702.2959	-0.0004
702.4771	0.0056
702.6583	0.0115
702.8394	-0.0243
703.0205	0.0137
703.2016	0.0054
703.3827	-0.0118
703.5638	-0.002
703.7449	0.0249
703.9259	0.0191
704.1069	-0.0005
704.2879	0.0043
704.4689	-0.0252
704.6499	0.0355
704.8308	0.0051
705.0117	0.0393
705.1927	0.0226
705.3735	0.0241
705.5544	0.0076
705.7353	-0.0108
705.9161	-0.0331
706.0969	0.0288
706.2777	0.0053
706.4585	-0.0048
706.6393	0.0098
706.82	0.0163
707.0007	-0
707.1815	0.0033
707.3621	0.0341
707.5428	0.0222
707.7235	0.0112
707.9041	0.0192
708.0847	0.0094
708.2653	0.0409
708.4459	0.0087
708.6265	-0.0197
708.807	0.0168
708.9875	-0.0026
709.168	0.0224
709.3485	0.0318
709.529	0.0372
709.7095	0.0143
709.8899	0.0279
710.0703	0.0261
710.2507	0.0125
710.4311	-0.0111
710.6115	0.0257
710.7918	0.0266
710.9721	-0.0035
711.1524	0.01
711.3327	-0.0071
711.513	0.0254
711.6932	0.0076
711.8735	0.0178
712.0537	0.009
712.2339	-0.0088
712.4141	0.035
712.5942	-0.0066
712.7744	0.0275
712.9545	0.009
713.1346	0.0316
713.3147	0.0315
713.4947	0.0066
713.6748	0.018
713.8548	0.0208
714.0348	0.0165
714.2148	0.0344
714.3948	0.0166
714.5748	0.0241
714.7547	0.0412
714.9346	0.0164
715.1145	-0.0034
715.2944	-0.0256
715.4743	0.0177
715.6541	0.0055
715.834	0.0268
716.0138	0.0578
716.1936	0.0184
716.3733	0.0183
716.5531	0.0141
716.7328	0.0152
716.9126	-0.0061
717.0923	-0.0128
717.2719	-0.0217
717.4516	0.0136
717.6312	0.0099
717.8109	0.0368
717.9905	0.0174
718.1701	0.0256
718.3496	0.0119
718.5292	0.0007
718.7087	0.0277
718.8882	0.0196
719.0677	-0.0019
719.2472	-0.0044
719.4267	0.0007
719.6061	-0.0222
719.7856	0.0401
719.965	0.0197
720.1443	0.0171
720.3237	0.0087
720.5031	0.021
720.6824	-0.002
720.8617	-0.0126
721.041	0.0443
721.2203	0.0016
721.3995	0.0092
721.5788	0.0011
721.758	0.0008
721.9372	0.0168
722.1164	0.0161
722.2956	0.0156
722.4747	0.0293
722.6538	0.0188
722.8329	0.0418
723.012	0.0098
723.1911	0.0111
723.3702	0.0174
723.5492	0.0237
723.7282	-0.0182
723.9072	-0.0026
724.0862	0.0343
724.2652	-0.0056
724.4441	0.0057
724.623	0.0199
724.8019	0.0122
724.9808	0.0252
725.1597	0.0169
725.3385	0.0068
725.5174	0.0232
725.6962	0.011
725.875	0.0165
726.0538	0.0234
726.2325	0.0298
726.4112	-0.0198
726.59	-0.0081
726.7687	-0.0034
726.9474	0.0266
727.126	0.0053
727.3047	-0.0024
727.4833	0.0011
727.6619	-0.0214
727.8405	0.0128
728.0191	0.0277
728.1976	0.01
728.3762	0.0213
728.5547	0.0117
728.7332	0.0207
728.9116	0.0054
729.0901	0.0169
729.2686	0.0179
729.447	0.0138
729.6254	0.0124
729.8038	0.0022
729.9821	-0.0134
730.1605	0.0296
730.3388	-0.0019
730.5171	0.0362
730.6954	-0.0057
730.8737	0.0145
731.0519	-0.0043
731.2302	0.04
731.4084	0.0036
731.5866	0.0031
731.7648	0.0081
731.9429	0.0309
732.1211	-0.0137
732.2992	-0.0151
732.4773	-0.0034
732.6554	-0.012
732.8335	0.0282
733.0115	0.0131
733.1896	0.0078
733.3676	0.0248
733.5456	0.0152
733.7235	-0.0147
733.9015	0.007
734.0794	0.0032
734.2574	-0.0157
734.4353	0.0141
734.6131	-0.0017
734.791	-0.007
734.9689	0.0168
735.1467	-0.0139
735.3245	0.0262
735.5023	0.0021
735.68	0.0019
735.8578	0.0175
736.0355	0.0195
736.2132	0.0026
736.3909	0.0203
736.5686	0.0222
736.7463	-0.0064
736.9239	0.0241
737.1015	0.0101
737.2791	0.008
737.4567	0.0145
737.6343	0.0079
737.8118	0.0205
737.9894	-0.0077
738.1669	-0.0148
738.3444	0.0364
738.5218	-0.021
738.6993	0.0141
738.8767	0.0121
739.0541	-0.0067
739.2315	0.0021
739.4089	0.0372
739.5863	0.0109
739.7636	0.0186
739.9409	0.0155
740.1182	0.0026
740.2955	0.021
740.4728	0.0078
740.65	-0.0197
740.8272	0.0294
741.0044	-0.0022
741.1816	0.0212
741.3588	-0.0065
741.5359	-0.007
741.7131	0.0097
741.8902	0.0012
742.0673	-0.0005
742.2444	0.0288
742.4214	0.0224
742.5985	0.01
742.7755	-0.0137
742.9525	0.0072
743.1295	0.019
743.3064	-0.0011
743.4834	0.0014
743.6603	0.0752
743.8372	-0.0184
744.0141	0.0601
744.191	0.0152
744.3678	-0.0088
744.5446	0.0366
744.7215	0.0176
744.8982	-0.0037
745.075	0.0842
745.2518	0.0036
745.4285	0.0319
745.6052	-0.0267
745.7819	0.0117
745.9586	0.043
746.1353	-0.032
746.3119	0.0099
746.4885	0.0319
746.6651	-0.0005
746.8417	-0.0013
747.0183	0.0416
747.1948	0.014
747.3714	0.0162
747.5479	0.0335
747.7244	0.016
747.9008	0.0263
748.0773	0.0222
748.2537	0.0319
748.4301	0.0295
748.6065	-0.0059
748.7829	-0.01
748.9593	0.0182
749.1356	0.0135
749.3119	0.0122
749.4882	0.032
749.6645	0.0125
749.8408	0.0155
750.017	0.0234
750.1933	0.0013
750.3695	0.0052
750.5457	0.0207
750.7218	-0.007
750.898	-0.01
751.0741	0.0396
751.2502	0.0052
751.4263	0.0256
751.6024	0.0205
751.7784	0.0178
751.9545	0.0048
752.1305	0.0289
752.3065	0.0194
752.4825	0.0072
752.6584	0.0102
752.8344	0.0014
753.0103	-0.0107
753.1862	0.0247
753.3621	0.0026
753.5379	0.0108
753.7138	0.0197
753.8896	0.0106
754.0654	0.0003
754.2412	0.0245
754.417	0.0359
754.5927	0.0223
754.7685	0.0194
754.9442	0.039
755.1199	0.0192
755.2956	0.0098
755.4712	0.0032
755.6469	0.0043
755.8225	0.017
755.9981	0.0119
756.1736	0.0127
756.3492	-0.0013
756.5248	0.0189
756.7003	0.0064
756.8758	0.003
757.0513	0.018
757.2267	0.0145
757.4022	0.0064
757.5776	0.0115
757.753	0.0237
757.9284	0.0164
758.1038	0.0103
758.2791	0.0137
758.4545	0.006
758.6298	0.0244
758.8051	0.004
758.9803	0.0227
759.1556	0.0002
759.3308	-0
759.506	0.0075
759.6812	0.0066
759.8564	0.0221
760.0316	-0.0045
760.2067	0.0329
760.3819	0.0135
760.557	-0.0067
760.732	0.0214
760.9071	0.0361
761.0821	-0.0179
761.2572	0.0134
761.4322	0.0341
761.6072	0.0013
761.7821	0.0106
761.9571	0.0119
762.132	0.019
762.3069	0.0347
762.4818	0.027
762.6567	0.0032
762.8316	0.0256
763.0064	0.0211
763.1812	0.0135
763.356	0.0168
763.5308	0.0165
763.7055	0.0097
763.8803	0.0073
764.055	0.002
764.2297	-0.0007
764.4044	0.0134
764.579	0.0036
764.7537	0.0191
764.9283	0.0224
765.1029	0.0105
765.2775	0.0232
765.4521	-0.0042
765.6266	-0.0193
765.8011	0.0088
765.9756	0.0187
766.1501	0.0029
766.3246	0.0338
766.4991	0.0307
766.6735	0.0365
766.8479	0.0477
767.0223	-0.0082
767.1967	0.0445
767.371	0.0398
767.5454	0.0147
767.7197	0.0532
767.894	-0.0033
768.0683	0.0086
768.2425	0.0289
768.4168	0.0197
768.591	0.0153
768.7652	0.0196
768.9394	-0.022
769.1135	0.0272
769.2877	0.0041
769.4618	0.0373
769.6359	0.0071
769.81	0.0235
769.984	0.009
770.1581	0.0045
770.3321	0.0398
770.5061	0.0134
770.6801	-0.0037
770.8541	0.02
771.028	0.0311
771.202	0.0138
771.3759	0.0246
771.5498	0.0033
771.7236	-0.0089
771.8975	0.0365
772.0713	0.0347
772.2451	-0.0097
772.4189	0.0265
772.5927	-0.0167
772.7665	0.0075
772.9402	0.0159
773.1139	-0.005
773.2876	0.0071
773.4613	0.0278
773.635	0.0259
773.8086	0.0218
773.9822	0.0447
774.1558	0.039
774.3294	0.0302
774.503	0.002
774.6765	0.0427
774.8501	0.0081
775.0236	0.0113
775.1971	-0.0069
775.3705	0.0483
775.544	-0.0496
775.7174	0.0157
775.8908	-0.0147
776.0642	0.0082
776.2376	0.0151
776.4109	0.0412
776.5843	-0.0028
776.7576	0.0453
776.9309	0.0493
777.1041	-0.0141
777.2774	0.0032
777.4506	-0.0095
777.6238	-0.0248
777.797	0.0106
777.9702	0.0234
778.1434	0.0182
778.3165	-0.0074
778.4896	-0.0079
778.6627	0.0209
778.8358	-0.0041
779.0089	-0.0252
779.1819	0.0236
779.3549	0.0158
779.5279	-0.0001
779.7009	0.0626
779.8739	0.0578
780.0468	0.0048
780.2197	-0.0203
780.3926	0.0304
780.5655	0.0063
780.7384	0.0103
780.9112	0.0366
781.0841	0.0022
781.2569	-0.0068
781.4297	0.0228
781.6024	0.0267
781.7752	0.0562
781.9479	0.0353
782.1206	-0.0069
782.2933	0.0292
782.466	0.0285
782.6386	-0.0389
782.8113	0.0081
782.9839	0.0118
783.1565	0.0088
783.329	0.0267
783.5016	0.0525
783.6741	-0.0001
783.8466	0.0307
784.0191	0.0437
784.1916	0.0159
784.3641	-0.0214
784.5365	0.0022
784.7089	-0.0035
784.8813	0.0748
785.0537	0.0423
785.2261	0.0014
785.3984	0.0328
785.5707	0.0111
785.743	0.0527
785.9153	-0.0217
786.0876	0.0029
786.2598	0.0029
786.432	0.0469
786.6042	0.0504
786.7764	-0.0294
786.9486	0.0248
787.1207	0.0461
787.2928	0.0682
787.4649	-0.0065
787.637	0.0106
787.8091	0.0154
787.9811	0.0427
788.1532	0.0133
788.3252	-0.0036
788.4972	0.0167
788.6691	-0.0024
788.8411	-0.0084
789.013	0.0475
789.1849	0.0143
789.3568	0.0208
789.5287	0.0508
789.7005	0.0055
789.8723	0.0319
790.0442	0.0361
790.2159	-0.0002
790.3877	0.0255
790.5595	0.0167
790.7312	0.013
790.9029	-0.0073
791.0746	0.0148
791.2463	-0.0014
791.4179	0.0094
791.5896	0.0644
791.7612	0.0396
791.9328	0.0375
792.1044	0.0021
792.2759	-0.0313
792.4474	0.0152
792.619	0.0402
792.7905	-0.0002
792.9619	0.0276
793.1334	0.0391
793.3048	0.0774
793.4762	0.0032
793.6476	-0.0299
793.819	-0.0106
793.9904	-0.0073
794.1617	-0.002
794.333	0.0342
794.5043	0.0464
794.6756	0.0051
794.8469	0.0042
795.0181	0.0285
795.1893	0.0349
795.3605	0.0642
795.5317	0.0548
795.7029	0.0258
795.874	0.0199
796.0452	0.0101
796.2163	0.0754
796.3873	0.0651
796.5584	0.0471
796.7294	0.0258
796.9005	0.0799
797.0715	0.0174
797.2425	0.0959
797.4134	0.0309
797.5844	0.0858
797.7553	-0.0972
797.9262	0.08
798.0971	0.0805
798.2679	0.039
798.4388	0.0374
798.6096	0.0549
798.7804	0.0185
798.9512	0.035
799.122	-0.0015
799.2927	-0.0069
799.4635	-0.0585
799.6342	-0.0168
799.8049	0.04
799.9755	-0.0551
800.1462	-0.0016
800.3168	0.0741
800.4874	-0.0819
800.658	0.0336
800.8286	0.0013
800.9991	0.0077
801.1696	0.0672
801.3402	-0.0275
801.5106	-0.0628
801.6811	0.0234
801.8516	0.0261
802.022	0.0092
802.1924	0.0298
802.3628	0.0343
802.5332	0.0288
802.7035	0.1088
802.8739	0.0511
803.0442	0.0771
803.2145	0.0355
803.3847	-0.0064
803.555	0.0321
803.7252	-0.0003
803.8954	-0.0035
804.0656	0.0294
804.2358	-0.0129
804.4059	0.0719
804.5761	-0.0059
804.7462	0.0627
804.9163	0.0239
805.0864	-0.0572
805.2564	0.0372
805.4264	0.0199
805.5965	0.0536
805.7665	-0.0311
805.9364	0.091
806.1064	-0.0083
806.2763	0.0931
806.4462	0.056
806.6161	0.0105
806.786	0.014
806.9559	0.0197
807.1257	0.0195
807.2955	-0.0047
807.4653	0.001
807.6351	0.0516
807.8048	-0.0479
807.9746	0.0428
808.1443	-0.0688
808.314	0.0238
808.4837	0.1413
808.6533	-0.0034
808.8229	0.0343
808.9926	0.0817
809.1622	-0.0219
809.3317	-0.0444
809.5013	0.03
809.6708	0.047
809.8403	0.0213
810.0098	0.0945
810.1793	0.0773
810.3488	0.0254
810.5182	0.1356
810.6876	0.0094
810.857	0.0536
811.0264	0.0202
811.1958	0.1789
811.3651	0.0067
811.5344	0.0493
811.7037	0.0757
811.873	0.0988
812.0422	-0.1016
812.2115	0.0594
812.3807	-0.0804
812.5499	0.0048
812.7191	0.195
812.8882	-0.0777
813.0574	-0.0378
813.2265	0.1211
813.3956	0.0622
813.5646	0.0789
813.7337	0.0652
813.9027	-0.0974
814.0718	0.0259
814.2407	0.0245
814.4097	0.0012
814.5787	0.0818
814.7476	0.0441
814.9165	0.1056
815.0854	-0.026
815.2543	-0.0209
815.4232	0.1004
815.592	-0.0613
815.7608	-0.0678
815.9296	0.0856
816.0984	0.1294
816.2671	-0.2493
816.4359	0.0891
816.6046	-0.0783
816.7733	-0.043
816.942	-0.0484
817.1106	0.0663
817.2793	0.0387
817.4479	0.1208
817.6165	0.0246
817.785	0.0678
817.9536	-0.1133
818.1221	0.0663
818.2906	-0.0743
818.4591	0.0719
818.6276	-0.0618
818.7961	0.1681
818.9645	0.0713
819.1329	0.0574
819.3013	0.0059
819.4697	0.1032
819.638	0.1291
819.8064	0.0406
819.9747	0.0299
820.143	0.0238
820.3113	0.1561
820.4795	-0.0165
820.6477	0.0667
820.816	0.0758
820.9842	0.078
821.1523	-0.0316
821.3205	0.0421
821.4886	-0.1006
821.6567	-0.0328
821.8248	0.1602
821.9929	-0.0823
822.1609	-0.0039
822.329	0.0207
822.497	-0.0149
822.665	0.033
822.833	-0.1007
823.0009	0.1487
823.1688	-0.0953
823.3367	-0.0812
823.5046	-0.0005
823.6725	-0.1149
823.8404	-0.0241
824.0082	-0.0408
824.176	-0.0868
824.3438	0.0599
824.5116	0.0092
824.6793	0.1247
824.847	0.3194
825.0147	0.1624
825.1824	0.1025
825.3501	0.1002
825.5177	-0.0109
825.6854	-0.095
825.853	-0.0308
826.0206	-0.0148
826.1881	0.187
826.3557	0.056
826.5232	0.0753
826.6907	0.1056
826.8582	-0.0215
827.0257	0.7289
827.1931	0.0399
827.3605	-0.0993
827.528	-0.0452
827.6953	-0.26
827.8627	-0.1171
828.03	0.1264
828.1974	0.0165
828.3647	0.1347
828.532	-0.0658
828.6992	0.0868
828.8665	-0.2627
829.0337	0.0427
829.2009	-0.0382
829.3681	-0.0005
829.5352	-0.2357
829.7024	0.0036
829.8695	0.0516
830.0366	0.1448
830.2037	0.1338
830.3707	0.1806
830.5378	-0.1248
830.7048	-0.0886
830.8718	0.3924
831.0388	0.2512
831.2057	-0.0476
831.3727	-0.3334
831.5396	0.3316
831.7065	-0.7899
831.8734	0.5695
832.0402	0.0598
832.2071	-0.2317
832.3739	-0
832.5407	-1.4581
832.7075	0.0775
832.8742	-0.0013
833.041	0.1164
833.2077	0.2064
833.3744	0.3673
833.541	0.1094
833.7077	0.1041
833.8743	0.0821
834.0409	0.1777
834.2075	0.1378
834.3741	-0.2094
834.5407	0.0392
834.7072	0.1739
834.8737	0.2976
835.0402	0.7038
835.2067	-0.1643
835.3731	0.01
835.5395	0.0671
835.706	-0.0762
835.8723	0.216
836.0387	0.2218
836.2051	-0.0889
836.3714	0.2151
836.5377	-0.1307
836.704	0.1185
836.8703	-0.1678
837.0365	-0.0621
837.2027	0.1718
837.3689	0.0827
837.5351	0.3532
837.7013	-0.0575
837.8674	-0.0295
838.0335	-0.0499
838.1997	-0.0351
838.3657	-0
838.5318	-0
838.6978	-0
838.8639	-0.2718
839.0299	-0.1497
839.1958	0.2296
839.3618	-0.0022
839.5277	0.1394
839.6937	-0.1033
839.8596	0.779
840.0254	-0.0337
840.1913	-0.2883
840.3571	0.0741
840.523	-0
840.6888	0.0114
840.8545	-0
841.0203	0.0209
841.186	0.1368
841.3517	-0.2168
841.5174	0.286
841.6831	0.3499
841.8488	-0.0415
842.0144	0.3117
842.18	0.4787
842.3456	0.0298
842.5112	-0
842.6767	0.2945
842.8422	0.5338
843.0077	0.3926
843.1732	-0.2398
843.3387	0.4816
843.5042	-0
843.6696	-0.2743
843.835	-0.0713
844.0004	0.186
844.1657	-0.7894
844.3311	-0
844.4964	-0
844.6617	0.3995
844.827	1.1846
844.9923	0.23
845.1575	1.3941
845.3227	-0.2311
845.4879	-0.4652
845.6531	-0.1061
845.8183	-0.0448
845.9834	-0.2404
846.1485	0.0977
846.3136	0.3777
846.4787	-0
846.6438	0.24
846.8088	-0
846.9738	-0
847.1388	0.2791
847.3038	0.316
847.4687	0.351
847.6337	-0.2246
847.7986	0.0422
847.9635	0.1349
848.1284	0.9602
848.2932	0.6066
848.458	-0
848.6228	0.9893
848.7876	0.0047
848.9524	-0.3548
849.1172	-1.988
849.2819	-0
849.4466	-0
849.6113	0.1408
849.7759	0.7385
849.9406	0.0292
850.1052	-0.9387
850.2698	0.3245
850.4344	-0
850.599	0.8228
850.7635	0.8747
850.928	1.2732
851.0925	0.1807
851.257	1.27
851.4215	-0
851.5859	0.3857
851.7503	-0
851.9147	-0
852.0791	-0.1457
852.2434	0.2824
852.4078	0.3277
852.5721	-0
852.7364	-0.0319
852.9007	-0.1159
853.0649	-0
853.2291	0.0689
853.3934	-0
853.5575	0.1164
853.7217	-0
853.8859	-0.7369
854.05	-0.3756
854.2141	1.9001
854.3782	-0
854.5423	0.2561
854.7063	0.3512
854.8703	0.4033
855.0343	-0.1811
855.1983	-0.0013
855.3623	0.0427
855.5262	-0
855.6901	0.0713
855.854	-0.0239
856.0179	-0.2101
856.1818	-0
856.3456	0.5992
856.5094	0.174
856.6732	-0.5594
856.837	-0.6192
857.0008	-0.4937
857.1645	-0
857.3282	-0.4014
857.4919	0.1456
857.6556	-0.4429
857.8192	0.0692
857.9828	-0.1971
858.1465	0.1505
858.31	0.4923
858.4736	-0.6834
858.6372	0.1003
858.8007	-0
858.9642	0.4352
859.1277	-0
859.2911	-0.605
859.4546	-1.902
859.618	0.1408
859.7814	0.1344
859.9448	0.9766
860.1081	-0
860.2715	-0
860.4348	-0.084
860.5981	-0
860.7614	-0
860.9246	-0
861.0879	0.555
861.2511	-0
861.4143	-0.6118
861.5774	-0.0029
861.7406	-0.0932
861.9037	-0.9844
862.0668	0.7861
862.2299	0.3506
862.393	1.1184
862.556	-0.1854
862.7191	-0.3843
862.8821	0.2296
863.0451	0.1477
863.208	-0
863.371	-0.6316
863.5339	0.2905
863.6968	-0
863.8597	0.3034
864.0225	-0.0435
864.1854	-0.4602
864.3482	-0.5298
864.511	-0.0133
864.6737	-0
864.8365	1.1213
864.9992	-0
865.1619	-0.6509
865.3246	-0
865.4873	-0
865.65	-0
865.8126	1.27
865.9752	-0
866.1378	-0.141
866.3004	0.5141
866.4629	-2.0838
866.6254	-0.2092
866.7879	0.1162
866.9504	-0
867.1129	-0.654
867.2753	-0.2334
867.4377	-0.1322
867.6001	0.1293
867.7625	-0.2819
867.9249	0.5245
868.0872	0.3861
868.2495	0.7082
868.4118	0.322
868.5741	-0
868.7363	-0
868.8986	-0
869.0608	-0
869.223	-0.0643
869.3851	0.2418
869.5473	0.9443
869.7094	0.9261
869.8715	-0
870.0336	0.0214
870.1957	-0
870.3577	0.6394
870.5197	0.0331
870.6817	-0.6402
870.8437	-0
871.0057	0.5164
871.1676	0.0244
871.3295	-0
871.4914	-0
871.6533	-0.3531
871.8151	0.6903
871.977	-0.2506
872.1388	-0
872.3006	-0.4019
872.4623	-0
872.6241	-0
872.7858	0.1098
872.9475	0.0495
873.1092	1.0449
873.2709	1.066
873.4325	-1.1761
873.5941	-0.277
873.7557	-0
873.9173	-0
874.0789	0.266
874.2404	-0
874.4019	0.0473
874.5634	-0
874.7249	-0
874.8863	-0.2101
875.0478	-0.3428
875.2092	0.9728
875.3706	-0.0155
875.5319	0.0478
875.6933	0.4965
875.8546	-0
876.0159	0.4357
876.1772	0.2218
876.3385	0.4812
876.4997	1.6244
876.6609	0.1234
876.8221	1.3862
876.9833	-0.2433
877.1445	0.7945
877.3056	-0.9635
877.4667	-0.8687
877.6278	-0
877.7889	-0.0633
877.9499	-0
878.111	-0.692
878.272	0.1226
878.433	-0
878.5939	0.3206
878.7549	0.1231
878.9158	0.0243
879.0767	0.4531
879.2376	-0.2759
879.3984	0.5705
879.5593	0.7307
879.7201	-1.6097
879.8809	-0
880.0417	-0.2352
880.2024	-0
880.3632	0.2345
880.5239	-0.3799
880.6846	-0.2636
880.8452	0.0022
881.0059	-0
881.1665	-0.1401
881.3271	-0
881.4877	0.2846
881.6483	-0.2009
881.8088	-0
881.9693	-0.8595
882.1298	-0.8595
882.2903	-0.8595
