Data from D4ACN5uM420nmA_Absorbance_14-37-08-816.txt Node
Date: Fri Feb 21 14:37:08 GMT 2025
User: LASERRRRR
Spectrometer: FLMT03099
Trigger mode: 0
Integration Time (sec): 1.500000E-2
Scans to average: 1
Electric dark correction enabled: true
Nonlinearity correction enabled: false
Boxcar width: 0
XAxis mode: Wavelengths
Number of Pixels in Spectrum: 3648
>>>>>Begin Spectral Data<<<<<
179.3399	-0.7037
179.5586	-0.7037
179.7771	-0.7037
179.9957	-0.2804
180.2143	-0
180.4329	-0.0761
180.6514	-1.0697
180.8699	-0.0985
181.0885	-0
181.307	0.1686
181.5255	0.5477
181.744	0.4535
181.9625	0.1794
182.181	-0.1634
182.3994	-0.4573
182.6179	-0
182.8363	-0
183.0547	0.1217
183.2732	-0.0145
183.4916	0.1427
183.71	0.3066
183.9284	0.0051
184.1467	0.07
184.3651	0.1129
184.5835	0.2678
184.8018	0.2036
185.0201	0.397
185.2385	-0.0259
185.4568	0.1511
185.6751	0.3456
185.8934	0.4249
186.1117	-0.1008
186.3299	0.1447
186.5482	0.2123
186.7664	0.156
186.9847	0.1495
187.2029	0.1062
187.4211	0.0634
187.6393	0.1562
187.8575	0.3236
188.0757	0.1837
188.2939	0.4352
188.512	0.2409
188.7302	-0.0127
188.9483	0.3096
189.1665	1.0156
189.3846	0.2166
189.6027	0.2337
189.8208	0.2575
190.0389	0.1722
190.257	0.0817
190.475	-0.0702
190.6931	0.1834
190.9111	0.001
191.1292	0.065
191.3472	0.1038
191.5652	0.2716
191.7832	0.1837
192.0012	0.1238
192.2192	0.1619
192.4371	0.1163
192.6551	0.1583
192.873	0.1414
193.091	0.0734
193.3089	0.1662
193.5268	0.1909
193.7447	0.1801
193.9626	0.1873
194.1805	0.2125
194.3984	0.1887
194.6162	0.2693
194.8341	0.3398
195.0519	0.1795
195.2697	0.2106
195.4875	0.2928
195.7054	0.2798
195.9231	0.2641
196.1409	0.338
196.3587	0.2754
196.5765	0.2878
196.7942	0.2461
197.012	0.3126
197.2297	0.3269
197.4474	0.338
197.6651	0.3174
197.8828	0.3414
198.1005	0.429
198.3182	0.4273
198.5358	0.4326
198.7535	0.3363
198.9711	0.3929
199.1888	0.3573
199.4064	0.4293
199.624	0.3601
199.8416	0.3878
200.0592	0.3991
200.2767	0.3995
200.4943	0.4833
200.7119	0.3763
200.9294	0.3982
201.1469	0.4092
201.3645	0.4227
201.582	0.3928
201.7995	0.4081
202.017	0.4015
202.2344	0.4231
202.4519	0.4369
202.6694	0.3906
202.8868	0.4177
203.1042	0.3916
203.3217	0.3967
203.5391	0.3678
203.7565	0.3428
203.9739	0.363
204.1913	0.3684
204.4086	0.3219
204.626	0.3693
204.8433	0.3431
205.0607	0.3458
205.278	0.3324
205.4953	0.3204
205.7126	0.3277
205.9299	0.3198
206.1472	0.324
206.3644	0.3454
206.5817	0.3251
206.7989	0.303
207.0162	0.3401
207.2334	0.3408
207.4506	0.3043
207.6678	0.3176
207.885	0.2969
208.1022	0.3111
208.3194	0.3196
208.5365	0.2962
208.7537	0.2963
208.9708	0.3138
209.1879	0.2894
209.405	0.2799
209.6222	0.2668
209.8392	0.2908
210.0563	0.2823
210.2734	0.2552
210.4905	0.2769
210.7075	0.2619
210.9245	0.2577
211.1416	0.2746
211.3586	0.2725
211.5756	0.2399
211.7926	0.2602
212.0096	0.2729
212.2265	0.2609
212.4435	0.2639
212.6604	0.2604
212.8774	0.2397
213.0943	0.257
213.3112	0.2547
213.5281	0.2492
213.745	0.2507
213.9619	0.2427
214.1788	0.2413
214.3956	0.2446
214.6125	0.2466
214.8293	0.2487
215.0461	0.2363
215.2629	0.2629
215.4798	0.2279
215.6965	0.2424
215.9133	0.2384
216.1301	0.2398
216.3469	0.2581
216.5636	0.2313
216.7803	0.229
216.9971	0.2505
217.2138	0.2376
217.4305	0.2493
217.6472	0.2322
217.8639	0.2587
218.0805	0.2474
218.2972	0.2231
218.5138	0.249
218.7305	0.2556
218.9471	0.2408
219.1637	0.2614
219.3803	0.2489
219.5969	0.2651
219.8135	0.2546
220.0301	0.2635
220.2466	0.2446
220.4632	0.2471
220.6797	0.2518
220.8962	0.2607
221.1127	0.2509
221.3292	0.2555
221.5457	0.2738
221.7622	0.2568
221.9787	0.2751
222.1951	0.2645
222.4116	0.2726
222.628	0.2848
222.8444	0.2726
223.0608	0.2702
223.2772	0.2798
223.4936	0.2791
223.71	0.292
223.9264	0.2845
224.1427	0.284
224.3591	0.3007
224.5754	0.2873
224.7917	0.2963
225.008	0.2961
225.2243	0.2937
225.4406	0.2767
225.6569	0.2937
225.8732	0.3142
226.0894	0.312
226.3057	0.3055
226.5219	0.3132
226.7381	0.3093
226.9543	0.3044
227.1705	0.3177
227.3867	0.3279
227.6029	0.3221
227.8191	0.3296
228.0352	0.3408
228.2513	0.3568
228.4675	0.3395
228.6836	0.3446
228.8997	0.3416
229.1158	0.3583
229.3319	0.3618
229.548	0.358
229.764	0.3558
229.9801	0.3691
230.1961	0.3718
230.4121	0.3742
230.6282	0.3868
230.8442	0.3877
231.0602	0.378
231.2761	0.3807
231.4921	0.3945
231.7081	0.3964
231.924	0.4036
232.14	0.4085
232.3559	0.4161
232.5718	0.4199
232.7877	0.4073
233.0036	0.4149
233.2195	0.4196
233.4353	0.4207
233.6512	0.4247
233.867	0.4207
234.0829	0.4381
234.2987	0.4304
234.5145	0.4361
234.7303	0.4354
234.9461	0.4393
235.1619	0.4439
235.3776	0.4484
235.5934	0.438
235.8091	0.4527
236.0249	0.4623
236.2406	0.4395
236.4563	0.4436
236.672	0.4489
236.8877	0.4532
237.1034	0.4484
237.319	0.4495
237.5347	0.4497
237.7503	0.453
237.966	0.4591
238.1816	0.4512
238.3972	0.4579
238.6128	0.4607
238.8284	0.4764
239.0439	0.4521
239.2595	0.4625
239.475	0.461
239.6906	0.4633
239.9061	0.4654
240.1216	0.465
240.3371	0.4683
240.5526	0.4641
240.7681	0.4668
240.9836	0.4627
241.199	0.461
241.4145	0.4578
241.6299	0.4504
241.8453	0.4408
242.0607	0.4405
242.2761	0.4346
242.4915	0.4432
242.7069	0.4284
242.9223	0.4343
243.1376	0.4176
243.353	0.4041
243.5683	0.412
243.7836	0.4037
243.9989	0.3905
244.2142	0.3916
244.4295	0.3832
244.6448	0.3797
244.86	0.3604
245.0753	0.3594
245.2905	0.3505
245.5057	0.3537
245.721	0.3524
245.9362	0.3445
246.1514	0.3383
246.3665	0.3244
246.5817	0.3151
246.7969	0.3094
247.012	0.3033
247.2271	0.3024
247.4423	0.2947
247.6574	0.2926
247.8725	0.2775
248.0876	0.2796
248.3026	0.278
248.5177	0.2628
248.7328	0.2625
248.9478	0.2568
249.1628	0.2541
249.3779	0.2458
249.5929	0.247
249.8079	0.2403
250.0228	0.2395
250.2378	0.2384
250.4528	0.2355
250.6677	0.2302
250.8827	0.2241
251.0976	0.2136
251.3125	0.224
251.5274	0.2165
251.7423	0.2143
251.9572	0.2101
252.172	0.2134
252.3869	0.2114
252.6017	0.2047
252.8166	0.2013
253.0314	0.196
253.2462	0.2026
253.461	0.1973
253.6758	0.1953
253.8906	0.1965
254.1053	0.2031
254.3201	0.1988
254.5348	0.1928
254.7496	0.1911
254.9643	0.1932
255.179	0.1924
255.3937	0.193
255.6083	0.1952
255.823	0.1885
256.0377	0.1832
256.2523	0.1836
256.467	0.1911
256.6816	0.184
256.8962	0.19
257.1108	0.1845
257.3254	0.1894
257.54	0.1801
257.7545	0.1848
257.9691	0.1868
258.1836	0.1807
258.3981	0.1866
258.6127	0.1786
258.8272	0.1872
259.0417	0.1822
259.2561	0.177
259.4706	0.1802
259.6851	0.1833
259.8995	0.1841
260.114	0.176
260.3284	0.1772
260.5428	0.1818
260.7572	0.1789
260.9716	0.1908
261.186	0.1794
261.4003	0.1805
261.6147	0.1814
261.829	0.1826
262.0433	0.1827
262.2577	0.1907
262.472	0.1827
262.6863	0.191
262.9005	0.191
263.1148	0.1872
263.3291	0.1918
263.5433	0.1893
263.7576	0.1859
263.9718	0.1964
264.186	0.1889
264.4002	0.1862
264.6144	0.2025
264.8286	0.1919
265.0427	0.1906
265.2569	0.1945
265.471	0.1927
265.6851	0.1936
265.8993	0.1953
266.1134	0.1941
266.3275	0.1946
266.5415	0.1983
266.7556	0.1924
266.9697	0.1927
267.1837	0.1955
267.3978	0.1946
267.6118	0.1875
267.8258	0.1973
268.0398	0.1958
268.2538	0.2013
268.4677	0.1921
268.6817	0.196
268.8957	0.188
269.1096	0.1878
269.3235	0.1844
269.5374	0.1931
269.7514	0.1959
269.9652	0.1899
270.1791	0.1867
270.393	0.1881
270.6068	0.1937
270.8207	0.1924
271.0345	0.1922
271.2483	0.1848
271.4622	0.1845
271.676	0.1872
271.8897	0.1849
272.1035	0.1927
272.3173	0.1871
272.531	0.191
272.7448	0.185
272.9585	0.185
273.1722	0.188
273.3859	0.1875
273.5996	0.1899
273.8133	0.1946
274.0269	0.1878
274.2406	0.1943
274.4542	0.1923
274.6679	0.2038
274.8815	0.202
275.0951	0.2034
275.3087	0.201
275.5223	0.1979
275.7358	0.2016
275.9494	0.1944
276.1629	0.2054
276.3765	0.1981
276.59	0.2038
276.8035	0.2014
277.017	0.2095
277.2305	0.2022
277.444	0.2038
277.6574	0.1953
277.8709	0.2107
278.0843	0.2079
278.2978	0.21
278.5112	0.2117
278.7246	0.2049
278.938	0.2049
279.1513	0.212
279.3647	0.206
279.5781	0.2047
279.7914	0.1985
280.0047	0.2033
280.2181	0.2034
280.4314	0.2023
280.6447	0.2073
280.8579	0.1954
281.0712	0.201
281.2845	0.1971
281.4977	0.1959
281.711	0.1948
281.9242	0.197
282.1374	0.1977
282.3506	0.1985
282.5638	0.1938
282.7769	0.1842
282.9901	0.1959
283.2033	0.1918
283.4164	0.1912
283.6295	0.1921
283.8426	0.1924
284.0557	0.1924
284.2688	0.1926
284.4819	0.1876
284.695	0.1943
284.908	0.1869
285.1211	0.1908
285.3341	0.1894
285.5471	0.19
285.7601	0.1928
285.9731	0.1915
286.1861	0.1903
286.3991	0.1928
286.612	0.1948
286.825	0.194
287.0379	0.1871
287.2508	0.189
287.4637	0.1946
287.6766	0.196
287.8895	0.1914
288.1024	0.1961
288.3152	0.1919
288.5281	0.1897
288.7409	0.1916
288.9538	0.1878
289.1666	0.1842
289.3794	0.1886
289.5922	0.1926
289.8049	0.1976
290.0177	0.1942
290.2304	0.1891
290.4432	0.1937
290.6559	0.1981
290.8686	0.1956
291.0813	0.191
291.294	0.1892
291.5067	0.1877
291.7194	0.1955
291.932	0.1871
292.1447	0.1947
292.3573	0.1943
292.5699	0.1937
292.7825	0.1862
292.9951	0.1869
293.2077	0.1886
293.4203	0.1914
293.6328	0.1915
293.8454	0.1857
294.0579	0.187
294.2704	0.1881
294.4829	0.1864
294.6954	0.1903
294.9079	0.1847
295.1204	0.183
295.3328	0.1944
295.5453	0.1865
295.7577	0.1883
295.9701	0.1924
296.1825	0.1923
296.3949	0.1877
296.6073	0.1878
296.8197	0.1908
297.0321	0.1881
297.2444	0.1869
297.4567	0.187
297.6691	0.1868
297.8814	0.1911
298.0937	0.1929
298.306	0.1861
298.5182	0.1954
298.7305	0.1868
298.9428	0.1851
299.155	0.1801
299.3672	0.1863
299.5794	0.1906
299.7916	0.183
300.0038	0.1898
300.216	0.187
300.4282	0.1853
300.6403	0.1917
300.8525	0.1867
301.0646	0.1927
301.2767	0.1848
301.4888	0.1882
301.7009	0.1947
301.913	0.1866
302.125	0.1912
302.3371	0.1907
302.5491	0.1876
302.7612	0.1951
302.9732	0.1936
303.1852	0.1916
303.3972	0.1877
303.6092	0.1901
303.8211	0.1888
304.0331	0.1886
304.245	0.1874
304.457	0.1883
304.6689	0.1916
304.8808	0.1908
305.0927	0.1858
305.3046	0.1902
305.5164	0.1787
305.7283	0.1839
305.9401	0.1817
306.152	0.1814
306.3638	0.1792
306.5756	0.1812
306.7874	0.1822
306.9992	0.173
307.2109	0.1761
307.4227	0.1676
307.6344	0.1742
307.8462	0.1735
308.0579	0.1719
308.2696	0.1728
308.4813	0.1702
308.693	0.166
308.9046	0.1699
309.1163	0.1687
309.328	0.1622
309.5396	0.1661
309.7512	0.1567
309.9628	0.1589
310.1744	0.1558
310.386	0.1599
310.5976	0.1533
310.8091	0.1585
311.0207	0.1561
311.2322	0.1561
311.4437	0.1496
311.6552	0.1533
311.8667	0.1553
312.0782	0.1499
312.2897	0.1536
312.5012	0.1467
312.7126	0.1509
312.924	0.149
313.1355	0.1494
313.3469	0.1458
313.5583	0.1431
313.7696	0.1393
313.981	0.15
314.1924	0.1401
314.4037	0.1455
314.6151	0.1407
314.8264	0.146
315.0377	0.1458
315.249	0.1444
315.4603	0.1446
315.6716	0.146
315.8828	0.1428
316.0941	0.1447
316.3053	0.1402
316.5165	0.148
316.7277	0.1397
316.9389	0.141
317.1501	0.1393
317.3613	0.1387
317.5724	0.1341
317.7836	0.133
317.9947	0.1377
318.2058	0.1385
318.417	0.1371
318.6281	0.1371
318.8391	0.143
319.0502	0.135
319.2613	0.1377
319.4723	0.1384
319.6834	0.1338
319.8944	0.1368
320.1054	0.139
320.3164	0.1361
320.5274	0.1339
320.7383	0.1394
320.9493	0.1333
321.1602	0.1372
321.3712	0.1377
321.5821	0.1381
321.793	0.143
322.0039	0.1405
322.2148	0.1368
322.4257	0.1342
322.6365	0.1421
322.8474	0.1404
323.0582	0.1383
323.269	0.1389
323.4798	0.1439
323.6906	0.1381
323.9014	0.1343
324.1122	0.1397
324.3229	0.1428
324.5337	0.1504
324.7444	0.1444
324.9551	0.1454
325.1658	0.1394
325.3765	0.143
325.5872	0.1457
325.7979	0.1432
326.0085	0.1437
326.2192	0.1434
326.4298	0.1483
326.6404	0.1452
326.851	0.1442
327.0616	0.1429
327.2722	0.1506
327.4828	0.1463
327.6933	0.1622
327.9039	0.1456
328.1144	0.1492
328.3249	0.1489
328.5354	0.1498
328.7459	0.1538
328.9564	0.1495
329.1669	0.1587
329.3773	0.1505
329.5878	0.1537
329.7982	0.1576
330.0086	0.153
330.219	0.1518
330.4294	0.1545
330.6398	0.1521
330.8502	0.1572
331.0605	0.1559
331.2708	0.1521
331.4812	0.1527
331.6915	0.1536
331.9018	0.158
332.1121	0.1621
332.3224	0.1546
332.5326	0.1504
332.7429	0.1505
332.9531	0.1608
333.1633	0.1521
333.3735	0.1539
333.5837	0.1522
333.7939	0.1595
334.0041	0.1559
334.2143	0.1521
334.4244	0.1634
334.6346	0.1533
334.8447	0.1544
335.0548	0.1578
335.2649	0.1666
335.475	0.1543
335.685	0.1516
335.8951	0.1548
336.1051	0.1533
336.3152	0.1551
336.5252	0.1537
336.7352	0.1559
336.9452	0.1528
337.1552	0.1577
337.3652	0.1556
337.5751	0.1552
337.7851	0.1518
337.995	0.1529
338.2049	0.1512
338.4148	0.1596
338.6247	0.1584
338.8346	0.1582
339.0445	0.161
339.2543	0.153
339.4642	0.1523
339.674	0.1511
339.8838	0.1525
340.0936	0.1615
340.3034	0.151
340.5132	0.1529
340.7229	0.1633
340.9327	0.1629
341.1424	0.1614
341.3522	0.1484
341.5619	0.1585
341.7716	0.1578
341.9813	0.1676
342.1909	0.1597
342.4006	0.1685
342.6102	0.1666
342.8199	0.1619
343.0295	0.1622
343.2391	0.1653
343.4487	0.171
343.6583	0.1693
343.8679	0.1596
344.0774	0.1641
344.287	0.1696
344.4965	0.1709
344.706	0.1727
344.9155	0.168
345.125	0.1711
345.3345	0.1762
345.544	0.1778
345.7534	0.1766
345.9629	0.1778
346.1723	0.1746
346.3817	0.1786
346.5911	0.1787
346.8005	0.181
347.0099	0.1921
347.2193	0.1842
347.4286	0.1929
347.638	0.1818
347.8473	0.19
348.0566	0.1865
348.2659	0.1866
348.4752	0.1855
348.6845	0.1853
348.8937	0.1873
349.103	0.1887
349.3122	0.1873
349.5214	0.1897
349.7306	0.199
349.9398	0.1898
350.149	0.1827
350.3582	0.1921
350.5674	0.1933
350.7765	0.1975
350.9856	0.1893
351.1948	0.1923
351.4039	0.1964
351.613	0.1951
351.822	0.204
352.0311	0.194
352.2402	0.1871
352.4492	0.1806
352.6582	0.2001
352.8672	0.1882
353.0762	0.1985
353.2852	0.1895
353.4942	0.1898
353.7032	0.1888
353.9121	0.195
354.1211	0.1909
354.33	0.1975
354.5389	0.1885
354.7478	0.1907
354.9567	0.1949
355.1655	0.1927
355.3744	0.1894
355.5833	0.1886
355.7921	0.1987
356.0009	0.1863
356.2097	0.191
356.4185	0.1889
356.6273	0.1929
356.8361	0.1894
357.0448	0.1894
357.2536	0.1963
357.4623	0.1907
357.671	0.1942
357.8797	0.1944
358.0884	0.1969
358.2971	0.1901
358.5057	0.1891
358.7144	0.1978
358.923	0.1912
359.1316	0.1999
359.3402	0.1958
359.5488	0.1976
359.7574	0.2023
359.966	0.1915
360.1746	0.1963
360.3831	0.2047
360.5916	0.2042
360.8002	0.2005
361.0087	0.2012
361.2172	0.2053
361.4256	0.2079
361.6341	0.205
361.8426	0.2078
362.051	0.2048
362.2594	0.2051
362.4678	0.2066
362.6762	0.2023
362.8846	0.2041
363.093	0.2041
363.3014	0.2039
363.5097	0.2116
363.718	0.2115
363.9264	0.2113
364.1347	0.209
364.343	0.208
364.5513	0.2104
364.7595	0.219
364.9678	0.2126
365.176	0.2171
365.3842	0.2209
365.5925	0.2092
365.8007	0.2155
366.0089	0.2219
366.217	0.2234
366.4252	0.2124
366.6333	0.2187
366.8415	0.227
367.0496	0.2214
367.2577	0.2253
367.4658	0.2204
367.6739	0.2172
367.882	0.2282
368.09	0.2155
368.2981	0.2301
368.5061	0.2342
368.7141	0.2176
368.9221	0.2371
369.1301	0.23
369.3381	0.2436
369.5461	0.2293
369.754	0.232
369.962	0.2276
370.1699	0.2374
370.3778	0.24
370.5857	0.2349
370.7936	0.2368
371.0015	0.2418
371.2093	0.2312
371.4172	0.227
371.625	0.2413
371.8328	0.2324
372.0406	0.2366
372.2484	0.2392
372.4562	0.2379
372.664	0.2491
372.8717	0.2344
373.0795	0.2418
373.2872	0.2501
373.4949	0.2449
373.7026	0.2448
373.9103	0.2364
374.118	0.2468
374.3256	0.2481
374.5333	0.2389
374.7409	0.2439
374.9485	0.2491
375.1561	0.2575
375.3637	0.2456
375.5713	0.2508
375.7789	0.2501
375.9864	0.2479
376.194	0.2571
376.4015	0.2396
376.609	0.2488
376.8165	0.2545
377.024	0.2533
377.2315	0.2515
377.4389	0.237
377.6464	0.2585
377.8538	0.2621
378.0612	0.265
378.2686	0.2566
378.476	0.2647
378.6834	0.2622
378.8908	0.2604
379.0981	0.2581
379.3055	0.2603
379.5128	0.2592
379.7201	0.2697
379.9274	0.2615
380.1347	0.2611
380.342	0.2729
380.5492	0.266
380.7565	0.2618
380.9637	0.2718
381.1709	0.2606
381.3781	0.2728
381.5853	0.2718
381.7925	0.2561
381.9997	0.2691
382.2068	0.2688
382.4139	0.2637
382.6211	0.2679
382.8282	0.2661
383.0353	0.2688
383.2424	0.2652
383.4494	0.2663
383.6565	0.2695
383.8635	0.2667
384.0706	0.2789
384.2776	0.2707
384.4846	0.2699
384.6916	0.2676
384.8986	0.2677
385.1055	0.2922
385.3125	0.2804
385.5194	0.2709
385.7263	0.2593
385.9333	0.272
386.1402	0.2707
386.347	0.2631
386.5539	0.2716
386.7608	0.274
386.9676	0.2685
387.1744	0.266
387.3813	0.2663
387.5881	0.2746
387.7948	0.2727
388.0016	0.2871
388.2084	0.2682
388.4151	0.2687
388.6219	0.2651
388.8286	0.2692
389.0353	0.2693
389.242	0.2675
389.4487	0.2667
389.6553	0.2609
389.862	0.2673
390.0686	0.2655
390.2753	0.2568
390.4819	0.2632
390.6885	0.267
390.8951	0.2656
391.1016	0.2649
391.3082	0.2675
391.5147	0.2586
391.7213	0.2621
391.9278	0.2561
392.1343	0.2635
392.3408	0.2535
392.5473	0.2564
392.7537	0.2506
392.9602	0.246
393.1666	0.2516
393.373	0.2499
393.5794	0.2471
393.7858	0.2505
393.9922	0.2485
394.1986	0.2539
394.4049	0.2473
394.6113	0.2493
394.8176	0.2436
395.0239	0.2386
395.2302	0.24
395.4365	0.2515
395.6428	0.2434
395.8491	0.2389
396.0553	0.2405
396.2615	0.2386
396.4678	0.2442
396.674	0.2331
396.8802	0.2356
397.0863	0.2273
397.2925	0.2384
397.4987	0.2291
397.7048	0.2361
397.9109	0.2293
398.117	0.2305
398.3231	0.2326
398.5292	0.2182
398.7353	0.2376
398.9413	0.2223
399.1474	0.2352
399.3534	0.2345
399.5594	0.2405
399.7654	0.2273
399.9714	0.2328
400.1774	0.2311
400.3833	0.2301
400.5893	0.2266
400.7952	0.2364
401.0011	0.2308
401.207	0.2297
401.4129	0.2313
401.6188	0.2275
401.8247	0.2347
402.0305	0.2251
402.2364	0.2293
402.4422	0.2331
402.648	0.2316
402.8538	0.2201
403.0596	0.2256
403.2654	0.2195
403.4711	0.2257
403.6768	0.2321
403.8826	0.228
404.0883	0.2273
404.294	0.2253
404.4997	0.223
404.7054	0.2264
404.911	0.2287
405.1167	0.2356
405.3223	0.2184
405.5279	0.2294
405.7335	0.2337
405.9391	0.2236
406.1447	0.2295
406.3502	0.2293
406.5558	0.2286
406.7613	0.2254
406.9668	0.2249
407.1724	0.2273
407.3778	0.222
407.5833	0.2238
407.7888	0.2316
407.9942	0.2215
408.1997	0.2213
408.4051	0.2264
408.6105	0.2222
408.8159	0.2279
409.0213	0.2186
409.2267	0.2319
409.432	0.231
409.6374	0.2293
409.8427	0.2295
410.048	0.2206
410.2533	0.232
410.4586	0.2172
410.6639	0.2329
410.8691	0.2187
411.0744	0.2239
411.2796	0.2246
411.4848	0.2176
411.69	0.2195
411.8952	0.2208
412.1004	0.216
412.3056	0.2182
412.5107	0.2234
412.7158	0.2326
412.921	0.2115
413.1261	0.2166
413.3312	0.2245
413.5362	0.232
413.7413	0.2241
413.9464	0.2154
414.1514	0.222
414.3564	0.2245
414.5614	0.2188
414.7664	0.208
414.9714	0.2185
415.1764	0.2257
415.3813	0.2218
415.5863	0.2243
415.7912	0.2184
415.9961	0.2298
416.201	0.2214
416.4059	0.2202
416.6108	0.2222
416.8156	0.2131
417.0205	0.2186
417.2253	0.2194
417.4301	0.2231
417.6349	0.2209
417.8397	0.2181
418.0445	0.2208
418.2492	0.2168
418.454	0.2172
418.6587	0.2259
418.8634	0.2155
419.0681	0.2212
419.2728	0.215
419.4775	0.2231
419.6822	0.2101
419.8868	0.2108
420.0915	0.2072
420.2961	0.1983
420.5007	0.2183
420.7053	0.2042
420.9099	0.2122
421.1144	0.2179
421.319	0.2054
421.5235	0.208
421.728	0.2075
421.9325	0.2057
422.137	0.2007
422.3415	0.2004
422.546	0.2009
422.7504	0.1985
422.9549	0.2136
423.1593	0.1996
423.3637	0.2074
423.5681	0.2117
423.7725	0.1997
423.9769	0.2044
424.1812	0.195
424.3856	0.2035
424.5899	0.1877
424.7942	0.1845
424.9985	0.1987
425.2028	0.2079
425.4071	0.2013
425.6113	0.1949
425.8156	0.1901
426.0198	0.1898
426.224	0.1861
426.4282	0.1876
426.6324	0.194
426.8366	0.1794
427.0407	0.1722
427.2449	0.1887
427.449	0.1804
427.6531	0.1972
427.8572	0.174
428.0613	0.1793
428.2654	0.1822
428.4694	0.1728
428.6735	0.1711
428.8775	0.179
429.0815	0.1716
429.2855	0.1746
429.4895	0.1707
429.6935	0.1789
429.8975	0.167
430.1014	0.1768
430.3053	0.1755
430.5093	0.1659
430.7132	0.1699
430.9171	0.1577
431.1209	0.1698
431.3248	0.1524
431.5286	0.1524
431.7325	0.1704
431.9363	0.1558
432.1401	0.1596
432.3439	0.1553
432.5477	0.1452
432.7514	0.1583
432.9552	0.153
433.1589	0.1441
433.3627	0.1494
433.5664	0.1341
433.7701	0.1581
433.9737	0.1423
434.1774	0.1469
434.3811	0.1397
434.5847	0.1418
434.7883	0.1364
434.9919	0.1383
435.1955	0.1406
435.3991	0.1369
435.6027	0.1326
435.8062	0.1422
436.0098	0.125
436.2133	0.1345
436.4168	0.1367
436.6203	0.124
436.8238	0.1196
437.0272	0.1195
437.2307	0.1199
437.4341	0.1239
437.6375	0.1198
437.841	0.1052
438.0443	0.1203
438.2477	0.1003
438.4511	0.1019
438.6545	0.124
438.8578	0.1085
439.0611	0.1105
439.2644	0.1181
439.4677	0.1078
439.671	0.0984
439.8743	0.1095
440.0775	0.1107
440.2808	0.1038
440.484	0.0979
440.6872	0.0978
440.8904	0.1002
441.0936	0.0919
441.2967	0.0855
441.4999	0.0902
441.703	0.0912
441.9062	0.0935
442.1093	0.0882
442.3124	0.0844
442.5155	0.0916
442.7185	0.0815
442.9216	0.0889
443.1246	0.0813
443.3276	0.0808
443.5307	0.0799
443.7337	0.0863
443.9366	0.0768
444.1396	0.0656
444.3426	0.0745
444.5455	0.0702
444.7484	0.0801
444.9513	0.0713
445.1542	0.0789
445.3571	0.0725
445.56	0.0659
445.7628	0.0676
445.9657	0.0751
446.1685	0.065
446.3713	0.0688
446.5741	0.069
446.7769	0.0737
446.9797	0.0597
447.1824	0.0585
447.3852	0.0524
447.5879	0.0587
447.7906	0.0568
447.9933	0.0609
448.196	0.0503
448.3986	0.0507
448.6013	0.0516
448.8039	0.0621
449.0066	0.0588
449.2092	0.0607
449.4118	0.0529
449.6143	0.0576
449.8169	0.0466
450.0195	0.0468
450.222	0.0597
450.4245	0.0534
450.627	0.0452
450.8295	0.0463
451.032	0.0456
451.2345	0.0419
451.4369	0.0481
451.6394	0.0442
451.8418	0.0365
452.0442	0.043
452.2466	0.038
452.449	0.0474
452.6513	0.0299
452.8537	0.0297
453.056	0.0405
453.2583	0.0408
453.4607	0.0233
453.663	0.0422
453.8652	0.0266
454.0675	0.0343
454.2697	0.0336
454.472	0.0282
454.6742	0.0375
454.8764	0.0352
455.0786	0.029
455.2808	0.0251
455.4829	0.0368
455.6851	0.03
455.8872	0.0245
456.0893	0.0274
456.2915	0.0262
456.4935	0.032
456.6956	0.0312
456.8977	0.0225
457.0997	0.0305
457.3018	0.0269
457.5038	0.0348
457.7058	0.0302
457.9078	0.03
458.1098	0.0282
458.3117	0.0313
458.5137	0.0164
458.7156	0.0213
458.9175	0.0373
459.1194	0.022
459.3213	0.0176
459.5232	0.0284
459.725	0.0204
459.9269	0.0243
460.1287	0.0147
460.3305	0.0279
460.5323	0.0217
460.7341	0.0181
460.9359	0.0189
461.1376	0.0174
461.3394	0.0293
461.5411	0.022
461.7428	0.0246
461.9445	0.0177
462.1462	0.0143
462.3479	0.0161
462.5495	0.0184
462.7512	0.026
462.9528	0.0173
463.1544	0.0142
463.356	0.0164
463.5576	0.0239
463.7592	0.0227
463.9607	0.0134
464.1623	0.0173
464.3638	0.0155
464.5653	0.0144
464.7668	0.0243
464.9683	0.0124
465.1697	0.0212
465.3712	0.0161
465.5726	0.0187
465.7741	0.021
465.9755	0.0096
466.1769	0.014
466.3782	0.0159
466.5796	0.017
466.7809	0.0165
466.9823	0.0082
467.1836	0.0116
467.3849	0.0116
467.5862	0.0061
467.7875	0.0226
467.9887	0.0158
468.19	0.0174
468.3912	0.0195
468.5924	0.02
468.7936	0.0129
468.9948	0.0062
469.196	0.0104
469.3972	0.0107
469.5983	0.0175
469.7994	0.01
470.0006	0.0108
470.2017	0.0082
470.4027	0.0283
470.6038	0.0221
470.8049	0.0137
471.0059	0.0206
471.2069	0.0199
471.408	0.014
471.6089	0.0182
471.8099	0.0142
472.0109	0.0112
472.2119	0.0194
472.4128	0.0133
472.6137	0.0085
472.8146	0.0144
473.0155	0.0145
473.2164	0.0103
473.4173	0.0061
473.6181	0.003
473.819	0.0084
474.0198	0.0033
474.2206	-0.0066
474.4214	0.0192
474.6222	0.0017
474.8229	0.0113
475.0237	0.0224
475.2244	0.0161
475.4251	0.0149
475.6258	0.0129
475.8265	0.0111
476.0272	0.0036
476.2278	0.0161
476.4285	0.0135
476.6291	0.0179
476.8297	0.0133
477.0303	0.0116
477.2309	0.0268
477.4315	0.0105
477.632	0.0081
477.8326	0.0096
478.0331	0.0124
478.2336	0.0016
478.4341	0.0084
478.6346	0.0069
478.8351	0.0103
479.0355	0.0167
479.236	0.0188
479.4364	0.012
479.6368	0.0166
479.8372	0.0109
480.0376	0.0107
480.2379	0.0046
480.4383	0.0128
480.6386	0.002
480.8389	0.009
481.0392	0.0085
481.2395	0.0184
481.4398	0.0152
481.6401	0.0108
481.8403	0.0084
482.0405	0.0086
482.2408	0.0084
482.441	0.0085
482.6411	0.0156
482.8413	0.011
483.0415	0.0161
483.2416	0.0087
483.4417	0.0107
483.6419	-0.0014
483.8419	0.0102
484.042	0.0146
484.2421	0.0022
484.4422	0.0128
484.6422	0.0085
484.8422	0.011
485.0422	0.007
485.2422	0.0077
485.4422	0.0079
485.6422	0.0043
485.8421	0.0086
486.042	0.016
486.242	0.0039
486.4419	0.0122
486.6417	0.0062
486.8416	0.0092
487.0415	0.0091
487.2413	0.0038
487.4411	0.0086
487.641	0.0075
487.8408	0.0185
488.0405	0.0229
488.2403	0.0026
488.4401	0.0068
488.6398	0.0117
488.8395	0.01
489.0392	0.0198
489.2389	0.0171
489.4386	0.0018
489.6383	0.0118
489.8379	0.0044
490.0376	0.0099
490.2372	0.0037
490.4368	0.0044
490.6364	-0.0006
490.836	0.008
491.0355	0.0027
491.2351	0.0149
491.4346	0.0121
491.6341	0.0093
491.8336	0.0142
492.0331	0.0092
492.2326	0.0218
492.432	0.0007
492.6315	0.0139
492.8309	0.0136
493.0303	0.0187
493.2297	0.009
493.4291	0.0048
493.6284	0.0152
493.8278	0.0058
494.0271	0.0082
494.2264	0.0069
494.4257	0.0186
494.625	0.0036
494.8243	0.0073
495.0236	0.0159
495.2228	0.0175
495.422	0.0118
495.6213	0.0083
495.8205	0.0097
496.0196	0.0142
496.2188	0.0102
496.418	0.0058
496.6171	0.0013
496.8162	0.0113
497.0153	0.0121
497.2144	0.0062
497.4135	0.0108
497.6126	0.0103
497.8116	0.0012
498.0107	0.0104
498.2097	0.0152
498.4087	0.0107
498.6077	-0.0002
498.8067	0.0158
499.0056	0.0061
499.2046	0.0141
499.4035	0.0065
499.6024	0.0049
499.8013	0.0148
500.0002	0.0134
500.199	0.0187
500.3979	-0.0014
500.5967	0.0009
500.7956	0.0091
500.9944	0.0036
501.1932	0.0121
501.3919	0.0126
501.5907	0.0109
501.7895	0.0087
501.9882	0.0078
502.1869	0.0177
502.3856	0.008
502.5843	0.0053
502.783	0.0058
502.9816	0.0096
503.1803	0.0098
503.3789	0.0106
503.5775	0.0108
503.7761	-0.0024
503.9747	0.0091
504.1732	-0.0017
504.3718	0.0149
504.5703	0.0109
504.7689	-0.0008
504.9674	0.0035
505.1658	0.0062
505.3643	0.0027
505.5628	0.0207
505.7612	0.0129
505.9597	-0.0055
506.1581	0.0104
506.3565	0.0078
506.5549	0.005
506.7532	0.0082
506.9516	0.0078
507.1499	0.0071
507.3482	0.0113
507.5465	0.0125
507.7448	0.0088
507.9431	0.0109
508.1414	0.0102
508.3396	0.0167
508.5379	0.0077
508.7361	0.0101
508.9343	0.0141
509.1325	0.0181
509.3306	0.0066
509.5288	0.0004
509.7269	0.012
509.9251	0.0086
510.1232	0.016
510.3213	0.0176
510.5193	0.0099
510.7174	0.0061
510.9154	0.0161
511.1135	0.0107
511.3115	0.0117
511.5095	0.0079
511.7075	0.0103
511.9055	0.0101
512.1034	0.0118
512.3014	0.0111
512.4993	0.0152
512.6972	0.0045
512.8951	0.0131
513.093	0.0099
513.2908	0.0278
513.4887	-0.0002
513.6865	0.0107
513.8844	0.0162
514.0822	0.0099
514.2799	0.0092
514.4777	0.0034
514.6755	0.0066
514.8732	0.0023
515.0709	0.0051
515.2687	0.0115
515.4664	0.0191
515.664	0.011
515.8617	0.0098
516.0594	0.02
516.257	0.0138
516.4546	0.0166
516.6522	0.0101
516.8498	0.019
517.0474	0.0055
517.2449	0.0096
517.4425	0.0141
517.64	0.0135
517.8375	0.0091
518.035	0.0071
518.2325	0.0042
518.43	0.0064
518.6274	0.0088
518.8249	0.0144
519.0223	0.0158
519.2197	0.0097
519.4171	0.0114
519.6145	0.0122
519.8118	0.01
520.0092	0.006
520.2065	0.0139
520.4038	0.007
520.6011	0.0154
520.7984	0.01
520.9956	0.0135
521.1929	0.0154
521.3901	0.0095
521.5874	0.0008
521.7846	-0.0042
521.9818	0.0005
522.1789	0.0031
522.3761	0.0168
522.5732	0.0079
522.7704	0.0046
522.9675	0.0073
523.1646	0.0068
523.3617	0.0165
523.5587	0.0118
523.7558	0.0117
523.9528	0.0145
524.1498	0.0107
524.3468	0.01
524.5438	0.0123
524.7408	-0.0006
524.9378	0.0129
525.1347	0.0092
525.3316	0.0046
525.5285	0.0114
525.7254	0.018
525.9223	0.0116
526.1192	0.0144
526.316	0.0131
526.5129	0.0185
526.7097	0.0034
526.9065	0.0079
527.1033	0.0082
527.3	0.0101
527.4968	0.0164
527.6935	0.0054
527.8903	0.0075
528.087	0.0134
528.2837	0.0075
528.4804	0.0084
528.677	0.0104
528.8737	0.0146
529.0703	-0.0001
529.2669	0.0152
529.4635	0.0083
529.6601	0.0107
529.8567	0.0108
530.0532	0.0098
530.2498	0.0081
530.4463	0.0014
530.6428	0.0137
530.8393	0.0171
531.0358	0.0121
531.2322	0.005
531.4287	0.0045
531.6251	-0.005
531.8215	0.0103
532.0179	0.0166
532.2143	0.0052
532.4107	0.0241
532.607	0.0094
532.8034	0.0104
532.9997	0.0089
533.196	0.0029
533.3923	0.0117
533.5886	0.0099
533.7848	0.0109
533.9811	0.0168
534.1773	0.0142
534.3735	0.0142
534.5697	0.0062
534.7659	0.0114
534.9621	0.0106
535.1582	0.0017
535.3544	0.0068
535.5505	0.0117
535.7466	0.0158
535.9427	0.0096
536.1387	0.005
536.3348	0.0158
536.5308	0.0032
536.7269	0.0088
536.9229	0.0161
537.1189	0.0158
537.3148	0.0117
537.5108	0.0082
537.7068	0.0154
537.9027	0.0045
538.0986	0.0088
538.2945	0.0097
538.4904	0.0029
538.6863	0.0102
538.8821	0.0109
539.078	0.0066
539.2738	0.0099
539.4696	0.0037
539.6654	0.0128
539.8611	0.0033
540.0569	-0.0001
540.2526	0.0091
540.4484	0.0069
540.6441	0.0061
540.8398	0.0159
541.0355	0.014
541.2311	0.0028
541.4268	0.0248
541.6224	0.018
541.818	0.0103
542.0136	0.0123
542.2092	0.0192
542.4048	0.0181
542.6003	0.0094
542.7959	0.0103
542.9914	0.0035
543.1869	0.0085
543.3824	0.0152
543.5779	0.0197
543.7734	0.0202
543.9688	0.0279
544.1642	0.0116
544.3596	0.0089
544.555	0.0019
544.7504	0.0189
544.9458	0.0105
545.1411	0.0066
545.3365	0.0085
545.5318	0.0141
545.7271	0.016
545.9224	0.006
546.1177	0.0188
546.3129	0.0108
546.5081	0.0052
546.7034	0.0039
546.8986	0.0172
547.0938	0.0123
547.289	0.0166
547.4841	0.0022
547.6793	0.0113
547.8744	0.0124
548.0695	-0.0023
548.2646	0.0063
548.4597	0.0054
548.6548	0.0138
548.8498	0.0128
549.0448	0.0029
549.2399	0.0068
549.4349	0.0135
549.6298	0.0089
549.8248	0.0037
550.0198	0.0174
550.2147	0.0151
550.4096	0.0043
550.6045	0.0149
550.7994	0.0081
550.9943	0.0234
551.1892	-0.0004
551.384	0.0233
551.5788	0.005
551.7737	0.0042
551.9685	0.011
552.1632	0.0019
552.358	0.0011
552.5528	0.0111
552.7475	0.0184
552.9422	0.0076
553.1369	0.0107
553.3316	0.0148
553.5263	0.0127
553.7209	0.0095
553.9156	0.0083
554.1102	0.0103
554.3048	0.0031
554.4994	0.0197
554.694	0.0097
554.8885	0.0124
555.0831	0.0139
555.2776	0.0056
555.4721	0.0085
555.6666	0.0084
555.8611	0.0152
556.0555	0.0089
556.25	0.0171
556.4444	0.0073
556.6388	0.0119
556.8332	0.0119
557.0276	0.0153
557.222	0.0103
557.4163	0.0099
557.6107	0.0078
557.805	0.0089
557.9993	0.0114
558.1936	0.0072
558.3879	0.0165
558.5821	0.0092
558.7764	0.0035
558.9706	0.0097
559.1648	0.0106
559.359	-0.001
559.5532	0.006
559.7473	-0.003
559.9415	0.0038
560.1356	0.0239
560.3297	0.0005
560.5238	0.0095
560.7179	-0.003
560.9119	0.0102
561.106	0.0015
561.3	0.011
561.494	-0.0018
561.688	0.0115
561.882	0.0107
562.076	0.0059
562.2699	0.0112
562.4639	0.0159
562.6578	0.0112
562.8517	0.0178
563.0456	0.0044
563.2395	0.014
563.4333	0.001
563.6272	0.0079
563.821	0.006
564.0148	0.0064
564.2086	0.012
564.4024	0.0151
564.5961	0.0136
564.7899	0.0209
564.9836	0.0041
565.1773	0.0179
565.371	0.0152
565.5647	0.0126
565.7584	0.0207
565.952	0.0122
566.1456	0.0094
566.3393	0.0185
566.5329	0.0061
566.7264	0.0144
566.92	0.0044
567.1136	0.0054
567.3071	-0.0005
567.5006	0.0206
567.6941	0.012
567.8876	0.0061
568.0811	0.022
568.2745	0.0087
568.468	0.013
568.6614	0.0109
568.8548	0.0129
569.0482	0.0084
569.2416	0.0089
569.4349	0.0061
569.6283	0.0056
569.8216	0.0117
570.0149	0.0043
570.2082	0.0187
570.4015	0.0082
570.5947	0.0104
570.788	0.0164
570.9812	0.0091
571.1744	0.0083
571.3676	0.0045
571.5608	0.0094
571.754	0.0157
571.9471	0.0155
572.1402	0.0124
572.3333	0.0129
572.5264	0.0094
572.7195	0.0048
572.9126	0.0121
573.1057	0.0087
573.2987	0.0055
573.4917	0.0046
573.6847	0.0083
573.8777	0.0152
574.0707	0.0135
574.2636	0.0126
574.4566	0.0062
574.6495	0.0058
574.8424	0.0085
575.0353	0.0099
575.2281	0.0117
575.421	0.004
575.6138	0.0064
575.8067	0.0081
575.9995	0.0108
576.1923	0.0102
576.385	0.0109
576.5778	0.0161
576.7706	0.0098
576.9633	0.0109
577.156	0.0016
577.3487	0.0039
577.5414	0.0034
577.734	0.0053
577.9267	0.0106
578.1193	0.0123
578.3119	0.0057
578.5045	0.01
578.6971	0.0031
578.8897	0.006
579.0822	0.0141
579.2747	0.006
579.4673	0.007
579.6598	0.011
579.8522	0.0079
580.0447	0.0091
580.2372	0.0098
580.4296	0.0167
580.622	0.0032
580.8144	0.0085
581.0068	0.009
581.1992	0.0058
581.3915	0
581.5839	0.0097
581.7762	0.0091
581.9685	0.0055
582.1608	0.0059
582.353	0.0102
582.5453	0.0091
582.7375	0.0078
582.9298	0.0025
583.122	0.0044
583.3142	0.0114
583.5063	0.0084
583.6985	0.0086
583.8906	0.0017
584.0827	0.0111
584.2749	0.0068
584.4669	0.0023
584.659	0.0099
584.8511	0.0126
585.0431	0.0121
585.2352	0.0066
585.4272	0.0085
585.6192	0.0098
585.8111	0.0065
586.0031	0.005
586.195	0.0052
586.387	0.0057
586.5789	0.0099
586.7708	0.0118
586.9627	0.0106
587.1545	0.009
587.3464	0.0096
587.5382	0.0099
587.73	0.0115
587.9218	0.0085
588.1136	0.0048
588.3053	0.0114
588.4971	0.0061
588.6888	0.0084
588.8805	0.0037
589.0722	0.0153
589.2639	0.011
589.4556	0.0137
589.6472	0.0101
589.8389	0.015
590.0305	0.0078
590.2221	0.0081
590.4137	0.0092
590.6052	0.006
590.7968	0.0089
590.9883	0.0076
591.1798	0.0075
591.3713	0.0063
591.5628	0.0119
591.7543	0.0075
591.9458	0.0057
592.1372	0.0125
592.3286	0.007
592.52	0.0105
592.7114	0.0064
592.9028	0.0109
593.0941	0.0067
593.2855	0.0062
593.4768	0.0104
593.6681	0.0095
593.8594	0.0088
594.0506	0.0093
594.2419	0.0104
594.4331	0.0057
594.6244	0.0074
594.8156	0.0069
595.0067	0.0066
595.1979	0.0043
595.3891	0.0103
595.5802	0.0115
595.7713	0.0085
595.9624	0.0124
596.1535	0.0075
596.3446	0.0119
596.5357	0.008
596.7267	0.0026
596.9177	0.0074
597.1087	0.0064
597.2997	0.0148
597.4907	0.0024
597.6817	0.0091
597.8726	0.0084
598.0635	0.0051
598.2544	0.0078
598.4453	0.0066
598.6362	0.0054
598.827	0.0053
599.0179	0.0051
599.2087	0.0114
599.3995	0.0099
599.5903	0.0158
599.7811	0.015
599.9718	0.0047
600.1626	0.0072
600.3533	0.0095
600.544	0.0042
600.7347	0.0069
600.9254	0.0169
601.116	0.0096
601.3067	0.0104
601.4973	0.0097
601.6879	0.0117
601.8785	0.0145
602.0691	0.006
602.2596	0.01
602.4502	0.0149
602.6407	0.0115
602.8312	0.0103
603.0217	0.0132
603.2122	0.0061
603.4027	0.0075
603.5931	0.0044
603.7835	0.008
603.9739	0.0009
604.1643	0.0152
604.3547	0.011
604.5451	0.0121
604.7354	-0.0004
604.9257	0.0091
605.116	0.0014
605.3063	0.01
605.4966	0.0031
605.6869	0.0122
605.8771	0.0074
606.0673	0.0108
606.2575	0.0031
606.4477	0.0143
606.6379	0.0079
606.8281	0.0124
607.0182	0.0061
607.2083	0.0056
607.3985	0.0063
607.5885	0.014
607.7786	0.0069
607.9687	0.0142
608.1587	0.0133
608.3488	0.0075
608.5388	0.0038
608.7288	0.0017
608.9187	0.0092
609.1087	0.0106
609.2986	0.0151
609.4886	0.0103
609.6785	0.0088
609.8684	0.0046
610.0582	0.002
610.2481	-0.0007
610.4379	0.0106
610.6278	0.0141
610.8176	0.0192
611.0074	0.0093
611.1971	0.0135
611.3869	0.0034
611.5766	0.0015
611.7664	0.0156
611.9561	0.0107
612.1458	0.0147
612.3354	0.0092
612.5251	0.0079
612.7147	0.0087
612.9044	0.0028
613.094	0.0141
613.2836	0.0082
613.4731	0.0065
613.6627	0.0158
613.8522	0.0072
614.0417	0.0068
614.2313	0.0058
614.4207	0.0096
614.6102	0.008
614.7997	0.01
614.9891	0.0098
615.1785	0.0013
615.3679	0.0114
615.5573	0.0139
615.7467	0.0065
615.9361	0.0097
616.1254	0.0158
616.3147	0.0093
616.504	0.0065
616.6933	0.006
616.8826	0.002
617.0718	0.0128
617.2611	-0.0002
617.4503	0.0043
617.6395	0.0058
617.8287	0.0137
618.0179	0.0063
618.207	0.0116
618.3961	0.0015
618.5853	0.0134
618.7744	0.0135
618.9634	0.0174
619.1525	0.0159
619.3416	0.0096
619.5306	0.0184
619.7196	0.0126
619.9086	0.013
620.0976	-0.004
620.2866	0.0159
620.4755	0.0117
620.6645	0.007
620.8534	0.0139
621.0423	0.0051
621.2312	0.009
621.42	0.002
621.6089	0.0088
621.7977	0.0244
621.9865	-0.0055
622.1753	-0.0042
622.3641	-0.0007
622.5529	0.0096
622.7416	0.0045
622.9303	0.0032
623.1191	0.0147
623.3078	0.0122
623.4964	0.0053
623.6851	0.0148
623.8737	0.004
624.0624	-0.003
624.251	0.009
624.4396	0.0116
624.6282	0.0145
624.8167	0.0125
625.0053	0.0144
625.1938	0.0076
625.3823	0.0053
625.5708	0.0025
625.7593	-0.0034
625.9477	0.0033
626.1362	0.0064
626.3246	0.0138
626.513	0.0055
626.7014	0.0107
626.8898	0.0116
627.0781	0.0006
627.2665	0.0063
627.4548	-0.0045
627.6431	0.0196
627.8314	0.021
628.0197	0.021
628.2079	0.0091
628.3962	0.0172
628.5844	0.0189
628.7726	0.0025
628.9608	0.0113
629.1489	0.0042
629.3371	-0.0045
629.5252	0.0178
629.7134	-0.0009
629.9015	0.0086
630.0895	-0.0086
630.2776	0.0026
630.4657	0.0153
630.6537	0.0169
630.8417	-0.001
631.0297	0.004
631.2177	0.0099
631.4057	0.0031
631.5936	0.0028
631.7815	0.0139
631.9695	0.0331
632.1574	0.0088
632.3452	0.0126
632.5331	0.0152
632.7209	0.0171
632.9088	0.0079
633.0966	0.0283
633.2844	0.007
633.4722	0.0062
633.6599	0.0229
633.8477	0.0142
634.0354	0.0232
634.2231	0.0018
634.4108	0.0122
634.5985	0.0123
634.7861	0.0049
634.9738	-0.0097
635.1614	0.0099
635.349	0.0076
635.5366	0.0016
635.7242	-0.001
635.9117	0.0204
636.0993	0.0269
636.2868	-0.0073
636.4743	0.0121
636.6618	0.0019
636.8492	0.0175
637.0367	0.002
637.2241	0.0089
637.4115	0.0222
637.5989	0.0006
637.7863	0.0225
637.9737	0.0115
638.161	0.015
638.3484	-0.0018
638.5357	0.0119
638.723	0.0213
638.9103	-0.0095
639.0975	0.0056
639.2848	0.0168
639.472	0.0082
639.6592	-0.0015
639.8464	0.0112
640.0336	0.0169
640.2208	0.0058
640.4079	-0.0096
640.595	0.0013
640.7821	0.0089
640.9692	-0.0047
641.1563	0.0025
641.3434	0.0267
641.5304	0.0266
641.7174	0.0167
641.9044	0.0209
642.0914	0.0151
642.2784	0.0114
642.4653	0.0072
642.6523	0.0231
642.8392	-0.0035
643.0261	0.014
643.213	0.0141
643.3999	0.0199
643.5867	0.0168
643.7735	0.0128
643.9604	0.029
644.1472	0.003
644.3339	0.0066
644.5207	0.0026
644.7075	0.0112
644.8942	0.0065
645.0809	0.0081
645.2676	-0.0065
645.4543	-0.0121
645.6409	0.0261
645.8276	0.0294
646.0142	0.0256
646.2008	0.0095
646.3874	-0.0141
646.574	0.0029
646.7605	0.0023
646.9471	0.0124
647.1336	-0.0125
647.3201	-0.006
647.5066	0.0072
647.6931	0.0048
647.8795	0.0049
648.0659	0.0083
648.2524	0.01
648.4388	0.0099
648.6252	0.0152
648.8115	0.0061
648.9979	0.0148
649.1842	0.0246
649.3705	0.0203
649.5568	-0.0046
649.7431	0.007
649.9294	0.009
650.1156	0.002
650.3018	-0.0105
650.488	0.0071
650.6742	0.0291
650.8604	0.0098
651.0466	-0.0074
651.2327	0.0173
651.4188	0.0115
651.6049	0.0135
651.791	0.0123
651.9771	0.0075
652.1632	0.0093
652.3492	0.0113
652.5352	0.0159
652.7212	0.0211
652.9072	0.0213
653.0932	0.0164
653.2791	0.0049
653.465	0.01
653.651	0.0034
653.8369	0.018
654.0227	0.0013
654.2086	0.0193
654.3944	0.0059
654.5803	0.0174
654.7661	0.013
654.9519	0.0025
655.1377	0
655.3234	0
655.5092	0
655.6949	0
655.8806	0
656.0663	0
656.2519	0
656.4376	0
656.6232	0
656.8088	0
656.9945	0
657.18	0
657.3656	0
657.5511	0
657.7367	0
657.9222	0
658.1077	0
658.2932	0
658.4786	0
658.6641	0
658.8495	0
659.0349	0
659.2203	0
659.4057	0.0123
659.591	0.2852
659.7764	0.0428
659.9617	0.0064
660.147	0.0183
660.3323	0.0084
660.5176	-0.0034
660.7028	-0.0011
660.888	0.0155
661.0733	0.024
661.2585	-0.0099
661.4436	0.0157
661.6288	0.0149
661.8139	-0.0077
661.9991	-0.0192
662.1842	-0.0039
662.3693	0.0059
662.5544	0.0225
662.7394	0.0232
662.9245	0.0171
663.1095	-0.0056
663.2945	-0.0008
663.4795	-0.0276
663.6644	0.0218
663.8494	0.0111
664.0343	-0.0007
664.2193	0.0118
664.4042	0.0177
664.589	0.0075
664.7739	0.0125
664.9587	-0.0092
665.1436	0.0028
665.3284	0.0048
665.5132	-0.0002
665.698	0.0083
665.8827	0.014
666.0675	-0.0077
666.2522	0.0187
666.4369	-0.0022
666.6216	0.0076
666.8063	0.009
666.9909	0.0086
667.1756	0.0091
667.3602	-0.009
667.5448	0.0163
667.7294	0.0377
667.9139	0.0043
668.0985	0.0184
668.283	0.0004
668.4675	0.0287
668.652	0.0092
668.8365	-0.0101
669.0209	0.0307
669.2054	0.0104
669.3898	0.009
669.5742	0.0157
669.7586	0.026
669.943	0.0053
670.1273	-0.0015
670.3117	0.0207
670.496	0.0049
670.6803	0.0007
670.8646	-0.007
671.0488	0.0216
671.2331	-0.0056
671.4173	0.0044
671.6015	0.0103
671.7857	0.0096
671.9699	0.0233
672.1541	-0.0022
672.3382	-0.0029
672.5223	0.0189
672.7064	0.0031
672.8905	0.0059
673.0746	0.0064
673.2587	0.0313
673.4427	0.026
673.6267	0.0173
673.8107	0.0243
673.9947	0.0111
674.1787	0.0068
674.3626	0.0125
674.5465	0.0225
674.7304	0.0027
674.9143	0.0121
675.0982	0.0072
675.2821	-0.0025
675.4659	-0.0061
675.6497	0.0201
675.8335	0.0178
676.0173	-0.0063
676.2011	0.0281
676.3849	0.0225
676.5686	0.0258
676.7523	0.0238
676.936	0.0329
677.1197	-0.0078
677.3034	0.0488
677.487	0.0123
677.6706	0.0129
677.8542	-0.0082
678.0378	0.0103
678.2214	-0.0004
678.405	-0.0061
678.5885	0.0113
678.772	0.0192
678.9555	0.0028
679.139	0.012
679.3225	0.0069
679.5059	0.0031
679.6894	0.0178
679.8728	0.0079
680.0562	-0.0063
680.2395	0.0113
680.4229	-0.0083
680.6062	0.005
680.7896	-0.0004
680.9729	0.0341
681.1562	0.0144
681.3394	0.0021
681.5227	0.01
681.7059	0.0114
681.8891	0.0081
682.0723	0.0001
682.2555	0.0211
682.4387	0.0175
682.6218	0.0162
682.805	0.0248
682.9881	0.0096
683.1712	0.0052
683.3542	0.0154
683.5373	-0.0032
683.7203	0.0165
683.9034	-0.0006
684.0864	0.0003
684.2694	0.0192
684.4523	0.0181
684.6353	0.0023
684.8182	0.0011
685.0011	0.0027
685.184	0.012
685.3669	0.0235
685.5498	-0.0035
685.7326	-0.0098
685.9154	-0.0011
686.0982	0.0103
686.281	0.0066
686.4638	0.0172
686.6465	0.0027
686.8293	-0.0186
687.012	0.0118
687.1947	-0.0056
687.3774	0.0156
687.56	0.0054
687.7427	0.015
687.9253	-0.0114
688.1079	0.0024
688.2905	-0.0092
688.4731	0.0443
688.6556	0.0155
688.8382	-0.0056
689.0207	0.0082
689.2032	0.0249
689.3857	0.0046
689.5681	0.0042
689.7506	0.0411
689.933	-0.0008
690.1154	0.0276
690.2978	-0.0104
690.4802	0.0284
690.6626	0.0076
690.8449	0.0136
691.0272	-0.0053
691.2095	-0.0164
691.3918	0.0047
691.5741	0.0073
691.7563	0.024
691.9386	0.0285
692.1208	0.0003
692.303	0.0212
692.4852	0.0131
692.6673	0.004
692.8495	-0.0139
693.0316	0.0122
693.2137	0.007
693.3958	0.0231
693.5778	0.012
693.7599	-0.0077
693.9419	0.0011
694.1239	0.0105
694.3059	0.0131
694.4879	0.0054
694.6699	0.0029
694.8518	0.0068
695.0337	0.0269
695.2157	0.0249
695.3975	0.0001
695.5794	-0.0076
695.7613	0.0221
695.9431	-0.0222
696.1249	0.016
696.3067	0.0009
696.4885	0.0114
696.6703	0.0015
696.852	0.0126
697.0337	0.0235
697.2154	0.0015
697.3971	0.0165
697.5788	0.0275
697.7605	-0.0094
697.9421	0.0253
698.1237	0.0185
698.3053	-0.0039
698.4869	-0.0029
698.6685	0.0016
698.85	0.0257
699.0315	-0.0128
699.213	0.0144
699.3945	0.0035
699.576	0.0216
699.7575	0.0096
699.9389	-0.026
700.1203	0.0114
700.3017	0.0235
700.4831	0.024
700.6645	0.0535
700.8458	-0.0242
701.0271	0.0525
701.2084	0.0108
701.3897	0.025
701.571	-0.0302
701.7523	0.0249
701.9335	-0.003
702.1147	0.0184
702.2959	0.005
702.4771	0.0152
702.6583	0.001
702.8394	0.0008
703.0205	0.0358
703.2016	-0.0035
703.3827	0.0138
703.5638	0.0097
703.7449	0.0279
703.9259	0.0044
704.1069	-0.0092
704.2879	0.023
704.4689	0.0054
704.6499	0.0164
704.8308	0.0339
705.0117	0.0307
705.1927	0.0328
705.3735	0.0153
705.5544	0.0161
705.7353	0.0086
705.9161	-0.0232
706.0969	0.021
706.2777	0.0276
706.4585	0.0099
706.6393	0.0158
706.82	0.0078
707.0007	0.0082
707.1815	-0.0034
707.3621	0.0413
707.5428	0.0223
707.7235	0.0167
707.9041	0.0063
708.0847	0.004
708.2653	0.0293
708.4459	0.0028
708.6265	0.0141
708.807	0.0163
708.9875	0.0005
709.168	-0.0034
709.3485	0.0042
709.529	0.0218
709.7095	-0.0084
709.8899	0.0154
710.0703	0.0413
710.2507	0.0019
710.4311	-0.0256
710.6115	0.0325
710.7918	-0.0002
710.9721	0.0269
711.1524	-0.0051
711.3327	0.0017
711.513	0.0155
711.6932	0.0082
711.8735	0.0285
712.0537	0.0009
712.2339	0.014
712.4141	0.0231
712.5942	-0.0025
712.7744	0.0169
712.9545	0.0193
713.1346	0.0233
713.3147	0.0259
713.4947	-0.006
713.6748	0.0212
713.8548	0.0221
714.0348	0.0065
714.2148	0.0142
714.3948	0.0108
714.5748	0.0145
714.7547	0.02
714.9346	0.0472
715.1145	-0.0032
715.2944	-0.0188
715.4743	0.0155
715.6541	-0.0101
715.834	0.0448
716.0138	0.0201
716.1936	-0.0124
716.3733	0.0072
716.5531	0.0177
716.7328	0.0186
716.9126	0.0281
717.0923	-0.0189
717.2719	0.0019
717.4516	0.0295
717.6312	-0.0074
717.8109	0.0323
717.9905	0.0046
718.1701	0.0293
718.3496	-0.0081
718.5292	-0.0162
718.7087	0.0118
718.8882	0.0381
719.0677	0.0008
719.2472	-0.006
719.4267	0.0148
719.6061	0.0127
719.7856	0.0455
719.965	0.0226
720.1443	-0.0096
720.3237	-0.0027
720.5031	0.0093
720.6824	-0.0014
720.8617	-0.004
721.041	0.0356
721.2203	-0.0173
721.3995	0.0168
721.5788	-0.0169
721.758	-0.0098
721.9372	0.0241
722.1164	-0.0088
722.2956	-0.0003
722.4747	0.0152
722.6538	0.0223
722.8329	0.0248
723.012	-0.0012
723.1911	0.0386
723.3702	0.0255
723.5492	-0.0084
723.7282	-0.0029
723.9072	0.0113
724.0862	-0.01
724.2652	-0.0253
724.4441	0.0113
724.623	0.02
724.8019	-0.0017
724.9808	0.021
725.1597	0.0059
725.3385	0.0018
725.5174	0.011
725.6962	0.0052
725.875	0.0027
726.0538	0.0071
726.2325	0.0232
726.4112	-0.0047
726.59	-0.0117
726.7687	0.0204
726.9474	0.039
727.126	0.0191
727.3047	-0.0081
727.4833	0.0054
727.6619	-0.015
727.8405	0.0179
728.0191	0.022
728.1976	-0.0094
728.3762	0.011
728.5547	-0.0078
728.7332	-0.0003
728.9116	0.0111
729.0901	0.022
729.2686	-0.0193
729.447	0.0172
729.6254	0.0067
729.8038	0.0161
729.9821	-0.0046
730.1605	0.0183
730.3388	0.0128
730.5171	0.0339
730.6954	-0.008
730.8737	0.0039
731.0519	-0.0002
731.2302	0.01
731.4084	0.015
731.5866	0.0103
731.7648	0.0131
731.9429	0.0322
732.1211	-0.0049
732.2992	0.0124
732.4773	-0.003
732.6554	-0.0174
732.8335	0.0412
733.0115	0.0094
733.1896	-0.0164
733.3676	0.0252
733.5456	0.0083
733.7235	-0.007
733.9015	0.023
734.0794	0.0028
734.2574	-0.0173
734.4353	0.0173
734.6131	0.0265
734.791	0.006
734.9689	-0.0226
735.1467	-0.0027
735.3245	-0.0026
735.5023	0.0063
735.68	-0.0107
735.8578	0.0246
736.0355	0.0205
736.2132	0.0086
736.3909	0.0133
736.5686	0.0058
736.7463	0.0125
736.9239	0.007
737.1015	0.0215
737.2791	0.0136
737.4567	0.017
737.6343	0.0117
737.8118	0.0129
737.9894	0.0111
738.1669	0.0075
738.3444	0.0642
738.5218	-0.0008
738.6993	0.0147
738.8767	0.0023
739.0541	0.0068
739.2315	0.0146
739.4089	0.0266
739.5863	0.0113
739.7636	0.0127
739.9409	0.01
740.1182	0.0267
740.2955	0.0028
740.4728	-0.0131
740.65	0.0043
740.8272	0.0301
741.0044	-0.0077
741.1816	0.0123
741.3588	0.0133
741.5359	-0.0019
741.7131	0.0006
741.8902	0.0144
742.0673	-0.0036
742.2444	0.0362
742.4214	0.0159
742.5985	0.0068
742.7755	0.0223
742.9525	0.0223
743.1295	-0.031
743.3064	-0.0028
743.4834	0.0036
743.6603	0.0575
743.8372	-0.029
744.0141	0.0069
744.191	0.0242
744.3678	-0.0369
744.5446	-0.0101
744.7215	0.0309
744.8982	0.0071
745.075	0.0451
745.2518	0.0331
745.4285	0.0339
745.6052	-0.0406
745.7819	0.0158
745.9586	-0.0008
746.1353	0.0141
746.3119	0.0144
746.4885	0.013
746.6651	0.0079
746.8417	-0.007
747.0183	0.0418
747.1948	0.0273
747.3714	0.0237
747.5479	0.0526
747.7244	-0.006
747.9008	-0.0048
748.0773	0.0044
748.2537	0.037
748.4301	0.0144
748.6065	0.0028
748.7829	0.0039
748.9593	-0.0063
749.1356	0.0008
749.3119	0.0183
749.4882	0.0391
749.6645	0.0111
749.8408	0.0138
750.017	0.0102
750.1933	0.0042
750.3695	0.0407
750.5457	-0.0172
750.7218	0.017
750.898	0.0062
751.0741	-0.0081
751.2502	0.0284
751.4263	0.0084
751.6024	0.0292
751.7784	-0.0038
751.9545	-0.0032
752.1305	0.0202
752.3065	0.0163
752.4825	0.0045
752.6584	0.0201
752.8344	0.02
753.0103	-0.0102
753.1862	0.0201
753.3621	0.0117
753.5379	0.0196
753.7138	0.0021
753.8896	0.0133
754.0654	0.0027
754.2412	-0.0023
754.417	0.0256
754.5927	0.0315
754.7685	0.0202
754.9442	0.0241
755.1199	0.0142
755.2956	-0.0049
755.4712	-0.0052
755.6469	0.0091
755.8225	0.0218
755.9981	0.0115
756.1736	0.0018
756.3492	-0.0088
756.5248	0.0337
756.7003	-0.0054
756.8758	0.0128
757.0513	0.0088
757.2267	0.016
757.4022	-0.0076
757.5776	0.0236
757.753	0.0258
757.9284	0.0071
758.1038	0.0231
758.2791	0.0118
758.4545	-0.0076
758.6298	0.0076
758.8051	0.0051
758.9803	0.0001
759.1556	-0.0004
759.3308	-0.0017
759.506	0.0036
759.6812	0.0009
759.8564	-0.0052
760.0316	-0.0002
760.2067	0.0141
760.3819	0.0094
760.557	0.0066
760.732	0.0062
760.9071	0.0239
761.0821	0.0014
761.2572	0.0127
761.4322	0.0204
761.6072	0.022
761.7821	-0.0416
761.9571	0.0191
762.132	0.0117
762.3069	0.0127
762.4818	0.0231
762.6567	0.0207
762.8316	0.0272
763.0064	0.0351
763.1812	0.014
763.356	-0.0215
763.5308	0.0453
763.7055	0.0121
763.8803	0.0001
764.055	0.0008
764.2297	-0.0083
764.4044	0.0061
764.579	-0.0004
764.7537	0.0038
764.9283	0.0127
765.1029	0.0054
765.2775	0.0146
765.4521	-0.0008
765.6266	-0.0058
765.8011	0.0195
765.9756	0.0037
766.1501	0.0065
766.3246	0.013
766.4991	0.002
766.6735	0.0211
766.8479	-0.0161
767.0223	0.0336
767.1967	0.0093
767.371	0.0261
767.5454	0.0125
767.7197	0.031
767.894	0.0111
768.0683	0.0256
768.2425	0.0057
768.4168	0.0311
768.591	0.0169
768.7652	0.0005
768.9394	-0.0128
769.1135	0.0097
769.2877	-0.0199
769.4618	0.0265
769.6359	-0.004
769.81	0.016
769.984	0.0284
770.1581	0.0165
770.3321	0.04
770.5061	0.0117
770.6801	0.0116
770.8541	0.022
771.028	0.0541
771.202	0.0287
771.3759	0.0111
771.5498	0.0133
771.7236	0.0024
771.8975	0.0168
772.0713	0.0155
772.2451	-0.0152
772.4189	-0.0033
772.5927	-0.02
772.7665	-0.0112
772.9402	0.0361
773.1139	0.0007
773.2876	0.0079
773.4613	0.0075
773.635	0.0574
773.8086	0.0384
773.9822	0.0496
774.1558	0.0513
774.3294	0.0126
774.503	0.0244
774.6765	0.0029
774.8501	-0.0093
775.0236	0.0058
775.1971	-0.017
775.3705	-0.0113
775.544	-0.0493
775.7174	0.0422
775.8908	0.0046
776.0642	0.0085
776.2376	0.0667
776.4109	0.0106
776.5843	0.0091
776.7576	0.0175
776.9309	0.0422
777.1041	-0.0404
777.2774	-0.0112
777.4506	-0.0149
777.6238	-0.0085
777.797	0.0248
777.9702	0.0237
778.1434	0.0191
778.3165	-0.009
778.4896	-0.0274
778.6627	0.0391
778.8358	-0.0096
779.0089	0.0086
779.1819	0.0453
779.3549	0.0119
779.5279	-0.0107
779.7009	0.0365
779.8739	0.0528
780.0468	0.0249
780.2197	0.0192
780.3926	-0.0209
780.5655	0.0231
780.7384	0.0058
780.9112	0.0297
781.0841	0.0128
781.2569	0.0115
781.4297	0.0259
781.6024	0.0192
781.7752	0.0564
781.9479	0.0566
782.1206	-0.0093
782.2933	0.0193
782.466	0.0276
782.6386	0.0076
782.8113	-0.0056
782.9839	-0.0137
783.1565	0.0478
783.329	0.0264
783.5016	0.0223
783.6741	0.0032
783.8466	0.0443
784.0191	-0.0012
784.1916	-0.0199
784.3641	-0.0191
784.5365	0.0032
784.7089	-0.0373
784.8813	0.0589
785.0537	0.0148
785.2261	0.013
785.3984	0.0092
785.5707	-0.0325
785.743	0.0606
785.9153	0.0076
786.0876	-0.0363
786.2598	0.0425
786.432	0.0122
786.6042	0.0407
786.7764	-0.0193
786.9486	0.0258
787.1207	0.0561
787.2928	0.0815
787.4649	0.0133
787.637	-0.0155
787.8091	0.0078
787.9811	0.0068
788.1532	0.0159
788.3252	0.0359
788.4972	0.0565
788.6691	-0.0137
788.8411	0.0211
789.013	0.0046
789.1849	-0.024
789.3568	0.0228
789.5287	0.0269
789.7005	-0.0325
789.8723	0.0145
790.0442	-0.0268
790.2159	-0.0008
790.3877	0.0442
790.5595	0.0086
790.7312	-0.0087
790.9029	-0.0445
791.0746	0.0469
791.2463	-0.0694
791.4179	0.0253
791.5896	-0.0143
791.7612	0.0754
791.9328	-0.0132
792.1044	0.006
792.2759	-0.0342
792.4474	0.005
792.619	-0.0511
792.7905	0.031
792.9619	0.0601
793.1334	0.0561
793.3048	0.0758
793.4762	0.0262
793.6476	-0.0214
793.819	0.0069
793.9904	0.029
794.1617	-0.0079
794.333	0.0031
794.5043	-0.0072
794.6756	-0.0135
794.8469	0.0492
795.0181	0.0417
795.1893	0.0616
795.3605	0.0234
795.5317	0.0074
795.7029	-0.0122
795.874	0.0382
796.0452	0.0137
796.2163	0.0864
796.3873	0.0025
796.5584	-0.0215
796.7294	-0.0157
796.9005	0.0467
797.0715	-0.0027
797.2425	0.0395
797.4134	0.0796
797.5844	0.073
797.7553	-0.0855
797.9262	0.0736
798.0971	0.0509
798.2679	0.0252
798.4388	0.0258
798.6096	0.0227
798.7804	0.0452
798.9512	0.023
799.122	-0.0073
799.2927	0.0654
799.4635	-0.0527
799.6342	-0.0868
799.8049	0.0298
799.9755	-0.0458
800.1462	0.0618
800.3168	0.0534
800.4874	-0.0739
800.658	0.0133
800.8286	0.0654
800.9991	0.018
801.1696	-0.0097
801.3402	-0.0749
801.5106	-0.0711
801.6811	-0.0118
801.8516	0.0217
802.022	0.0399
802.1924	0.0513
802.3628	0.0268
802.5332	0.0848
802.7035	0.0878
802.8739	-0.0167
803.0442	-0.0539
803.2145	-0.0281
803.3847	0.0601
803.555	0.0069
803.7252	-0.0254
803.8954	0.007
804.0656	0.0095
804.2358	-0.0014
804.4059	0.0933
804.5761	0.036
804.7462	-0.0132
804.9163	0.1087
805.0864	-0.0347
805.2564	-0.0162
805.4264	0.0329
805.5965	0.0371
805.7665	-0.0116
805.9364	-0.0043
806.1064	-0.041
806.2763	0.0285
806.4462	0.0369
806.6161	0.0455
806.786	0.0043
806.9559	0.0294
807.1257	-0.0137
807.2955	0.0037
807.4653	-0.0021
807.6351	0.0647
807.8048	0.0494
807.9746	0.0326
808.1443	-0.0246
808.314	0.0382
808.4837	0.0533
808.6533	0.0229
808.8229	0.0441
808.9926	-0.0485
809.1622	0.0062
809.3317	-0.0964
809.5013	-0.0032
809.6708	0.0441
809.8403	0.022
810.0098	-0.0499
810.1793	-0.0356
810.3488	-0.0275
810.5182	0.1567
810.6876	0.0453
810.857	0.1526
811.0264	-0.0776
811.1958	0.0799
811.3651	0.0349
811.5344	0.0345
811.7037	0.0881
811.873	-0.0013
812.0422	-0.0694
812.2115	-0.0352
812.3807	-0.0245
812.5499	-0.0437
812.7191	-0.1547
812.8882	0.0912
813.0574	0.087
813.2265	0.0684
813.3956	0.0513
813.5646	0.0263
813.7337	-0.0188
813.9027	-0.085
814.0718	-0.0066
814.2407	-0.0138
814.4097	-0.0173
814.5787	0.1335
814.7476	0.0579
814.9165	0.0367
815.0854	-0.0162
815.2543	0.0125
815.4232	0.0289
815.592	0.1287
815.7608	-0.0486
815.9296	-0.0544
816.0984	0.1608
816.2671	-0.0846
816.4359	0.0967
816.6046	0.1233
816.7733	-0.1464
816.942	0.0198
817.1106	0.0979
817.2793	-0.1108
817.4479	0.003
817.6165	0.0355
817.785	0.1729
817.9536	-0.0358
818.1221	-0.0646
818.2906	-0.0843
818.4591	-0.0232
818.6276	-0.0209
818.7961	0.0271
818.9645	0.1136
819.1329	0.156
819.3013	0.0697
819.4697	-0.0354
819.638	0.1972
819.8064	0.1254
819.9747	0.0175
820.143	0.001
820.3113	-0.0353
820.4795	-0.0433
820.6477	0.1283
820.816	-0.0084
820.9842	0.1619
821.1523	0.1079
821.3205	0.1293
821.4886	-0.0196
821.6567	-0.0296
821.8248	0.1058
821.9929	-0.2171
822.1609	0.011
822.329	0.0715
822.497	0.0081
822.665	0.0746
822.833	-0.0454
823.0009	-0.0613
823.1688	0.041
823.3367	0.1523
823.5046	0.1486
823.6725	-0.0517
823.8404	0.0977
824.0082	-0.0822
824.176	0.0491
824.3438	0.1951
824.5116	0.0239
824.6793	0.098
824.847	0.1539
825.0147	0.0238
825.1824	-0.0595
825.3501	0.1223
825.5177	0.0567
825.6854	-0.0683
825.853	-0.0423
826.0206	0.0886
826.1881	0.0551
826.3557	0.0341
826.5232	0.0986
826.6907	0.0426
826.8582	0.1851
827.0257	0.1342
827.1931	0.0062
827.3605	-0.1159
827.528	-0.0191
827.6953	-0.3517
827.8627	-0.1604
828.03	0.0712
828.1974	-0.0058
828.3647	0.1182
828.532	0.0341
828.6992	0.0122
828.8665	-0.0638
829.0337	0.0163
829.2009	-0.0972
829.3681	-0.0723
829.5352	0.0466
829.7024	0.1329
829.8695	-0.0625
830.0366	0.2979
830.2037	0.0933
830.3707	0.0748
830.5378	0.2389
830.7048	-0.203
830.8718	0.0279
831.0388	0.0523
831.2057	0.4928
831.3727	-0.4701
831.5396	0.1305
831.7065	-0.7669
831.8734	0.0692
832.0402	0.0471
832.2071	-0.5197
832.3739	-0.3077
832.5407	-1.8062
832.7075	-0.1346
832.8742	0.1423
833.041	0.1127
833.2077	0.3708
833.3744	0.1069
833.541	0.1059
833.7077	-0.2306
833.8743	0.0842
834.0409	0.0112
834.2075	0.2568
834.3741	-0.1988
834.5407	0.5666
834.7072	-0.0759
834.8737	0.1458
835.0402	0.5863
835.2067	-0.1847
835.3731	-0.1741
835.5395	-0.083
835.706	-0.0895
835.8723	-0.0592
836.0387	0.4388
836.2051	-0.014
836.3714	-0.1016
836.5377	-0.233
836.704	0.2071
836.8703	-0.1281
837.0365	-0.9007
837.2027	-0
837.3689	0.222
837.5351	0.376
837.7013	-0.134
837.8674	-0.3032
838.0335	-0.1126
838.1997	0.1227
838.3657	-0
838.5318	-0
838.6978	0.1564
838.8639	-0.3873
839.0299	-0.1849
839.1958	0.1742
839.3618	0.2498
839.5277	0.0415
839.6937	-0.2464
839.8596	-0.008
840.0254	-0.1347
840.1913	-0.4041
840.3571	0.8377
840.523	-0
840.6888	0.1217
840.8545	0.1496
841.0203	-0.0144
841.186	0.017
841.3517	-0.1789
841.5174	0.4072
841.6831	0.4372
841.8488	-0.1408
842.0144	-0.044
842.18	0.4569
842.3456	-0.5165
842.5112	-0.2747
842.6767	-0.1969
842.8422	0.2188
843.0077	0.2086
843.1732	-0.4449
843.3387	0.8762
843.5042	-0
843.6696	-0.0258
843.835	-0.0774
844.0004	-0.2591
844.1657	-0.3233
844.3311	1.0677
844.4964	-0.9135
844.6617	0.0647
844.827	0.5989
844.9923	-0.0224
845.1575	-0.2128
845.3227	-0.3677
845.4879	-0.2041
845.6531	0.0023
845.8183	-0.1173
845.9834	-0.2452
846.1485	0.1871
846.3136	-0.2401
846.4787	-0
846.6438	-0.0927
846.8088	-0
846.9738	-0
847.1388	0.3427
847.3038	0.1526
847.4687	0.2784
847.6337	-0.7413
847.7986	-0.2077
847.9635	0.048
848.1284	-0
848.2932	0.3587
848.458	-0
848.6228	-0
848.7876	0.519
848.9524	-0.235
849.1172	-2.0074
849.2819	-0.5245
849.4466	0.3729
849.6113	0.1127
849.7759	0.4586
849.9406	0.172
850.1052	-0.5274
850.2698	-0
850.4344	-0.6161
850.599	-0.2435
850.7635	0.1437
850.928	0.0194
851.0925	0.1554
851.257	0.0925
851.4215	0.0332
851.5859	0.3598
851.7503	-0
851.9147	-0.359
852.0791	-0.2116
852.2434	1.0964
852.4078	-0
852.5721	-0
852.7364	-0.2093
852.9007	0.0294
853.0649	-0
853.2291	0.405
853.3934	-0
853.5575	0.0521
853.7217	0.0426
853.8859	0.0546
854.05	-0.2368
854.2141	-0
854.3782	-0
854.5423	0.154
854.7063	0.36
854.8703	0.0415
855.0343	0.1558
855.1983	0.2784
855.3623	0.9855
855.5262	-0.0066
855.6901	0.6159
855.854	0.5178
856.0179	-0.3101
856.1818	0.2812
856.3456	0.1698
856.5094	-0.6611
856.6732	-0.2316
856.837	-1.281
857.0008	-0.5483
857.1645	-0.1604
857.3282	-0.6833
857.4919	0.2221
857.6556	-0
857.8192	0.2113
857.9828	-0.2789
858.1465	0.435
858.31	1.0663
858.4736	-0.4242
858.6372	0.2991
858.8007	0.0292
858.9642	0.12
859.1277	1.7097
859.2911	-0.5005
859.4546	-1.3181
859.618	0.1127
859.7814	-0.0056
859.9448	0.0633
860.1081	-0
860.2715	-0
860.4348	0.1581
860.5981	1.2522
860.7614	-0
860.9246	-0.149
861.0879	0.8594
861.2511	-0
861.4143	-0
861.5774	-0.3112
861.7406	-0.3027
861.9037	-0.3332
862.0668	-0
862.2299	-0
862.393	0.3307
862.556	-0.4035
862.7191	-0.5005
862.8821	0.0655
863.0451	0.1888
863.208	-0.2293
863.371	-0.1207
863.5339	0.4793
863.6968	1.2404
863.8597	0.6698
864.0225	0.2592
864.1854	-0
864.3482	-0.9169
864.511	-0.2197
864.6737	-0.2817
864.8365	-0.0924
864.9992	-0
865.1619	-0.3794
865.3246	-1.8525
865.4873	-0
865.65	0.2685
865.8126	0.5922
865.9752	-0.3753
866.1378	-0.0142
866.3004	-0.2627
866.4629	-1.6708
866.6254	-0.7095
866.7879	0.1572
866.9504	0.0325
867.1129	-0.4524
867.2753	0.1938
867.4377	-0.2098
867.6001	-0.6508
867.7625	0.1452
867.9249	-0
868.0872	0.2705
868.2495	0.5064
868.4118	-0
868.5741	-0
868.7363	-0.4042
868.8986	-0.467
869.0608	-0.5236
869.223	-0.2532
869.3851	-0
869.5473	-0.1899
869.7094	-0.0487
869.8715	-1.2404
870.0336	-0.0094
870.1957	-0.8585
870.3577	0.3587
870.5197	-0.2013
870.6817	-0.9475
870.8437	0.1518
871.0057	0.1659
871.1676	-0.0037
871.3295	-0
871.4914	-0
871.6533	-0.7091
871.8151	0.3398
871.977	-0.413
872.1388	0.0788
872.3006	-0.7018
872.4623	-0.6182
872.6241	-0
872.7858	-0.1093
872.9475	-0
873.1092	0.38
873.2709	0.279
873.4325	-1.6203
873.5941	-0.3689
873.7557	-0.1346
873.9173	-0.2477
874.0789	0.4188
874.2404	-0
874.4019	0.4236
874.5634	-0
874.7249	0.2854
874.8863	-0.2596
875.0478	0.0033
875.2092	0.5756
875.3706	0.2766
875.5319	-0
875.6933	-0
875.8546	0.1938
876.0159	0.1364
876.1772	-0.3267
876.3385	0.0693
876.4997	-0
876.6609	-0
876.8221	-0
876.9833	0.1842
877.1445	0.4834
877.3056	-0.4531
877.4667	-0
877.6278	0.1581
877.7889	-0
877.9499	0.3274
878.111	-0.5113
878.272	0.1784
878.433	0.3182
878.5939	-0.0461
878.7549	-0.1755
878.9158	-0
879.0767	-0
879.2376	0.3728
879.3984	0.5547
879.5593	0.4325
879.7201	-0
879.8809	0.0947
880.0417	-0.4611
880.2024	0.2738
880.3632	0.143
880.5239	1.3745
880.6846	-0.4343
880.8452	-0.1061
881.0059	-0
881.1665	-0.0774
881.3271	0.7886
881.4877	0.0585
881.6483	-0
881.8088	-0
881.9693	-0
882.1298	-0
882.2903	-0
