Data from D4ACN5uM420nmA_Absorbance_14-37-08-666.txt Node
Date: Fri Feb 21 14:37:08 GMT 2025
User: LASERRRRR
Spectrometer: FLMT03099
Trigger mode: 0
Integration Time (sec): 1.500000E-2
Scans to average: 1
Electric dark correction enabled: true
Nonlinearity correction enabled: false
Boxcar width: 0
XAxis mode: Wavelengths
Number of Pixels in Spectrum: 3648
>>>>>Begin Spectral Data<<<<<
179.3399	-0.6044
179.5586	-0.6044
179.7771	-0.6044
179.9957	-0.0523
180.2143	-0
180.4329	-0.0168
180.6514	-0
180.8699	-0.3042
181.0885	0.4523
181.307	0.1007
181.5255	0.2975
181.744	-0.043
181.9625	1.3457
182.181	-0
182.3994	0.1496
182.6179	-0
182.8363	0.6809
183.0547	0.0755
183.2732	0.0637
183.4916	0.3833
183.71	0.2774
183.9284	0.2953
184.1467	0.7171
184.3651	0.1405
184.5835	0.2671
184.8018	0.0396
185.0201	0.0823
185.2385	0.1833
185.4568	0.0669
185.6751	0.2001
185.8934	0.2585
186.1117	-0.1194
186.3299	0.144
186.5482	0.1743
186.7664	0.5604
186.9847	0.155
187.2029	0.1818
187.4211	-0.0033
187.6393	0.142
187.8575	0.3809
188.0757	0.6885
188.2939	0.1911
188.512	0.3238
188.7302	0.1604
188.9483	0.5095
189.1665	0.4048
189.3846	0.4838
189.6027	0.1458
189.8208	0.1562
190.0389	0.1883
190.257	0.0548
190.475	0.2843
190.6931	0.1189
190.9111	0.0445
191.1292	0.2041
191.3472	0.0858
191.5652	0.3683
191.7832	0.1794
192.0012	0.0729
192.2192	0.2205
192.4371	0.0964
192.6551	0.1105
192.873	0.1337
193.091	0.2019
193.3089	0.3487
193.5268	0.32
193.7447	0.1549
193.9626	0.1983
194.1805	0.2449
194.3984	0.1433
194.6162	0.21
194.8341	0.2848
195.0519	0.1792
195.2697	0.2212
195.4875	0.2168
195.7054	0.353
195.9231	0.2058
196.1409	0.2896
196.3587	0.3365
196.5765	0.229
196.7942	0.3466
197.012	0.3309
197.2297	0.3142
197.4474	0.3378
197.6651	0.2862
197.8828	0.3147
198.1005	0.3911
198.3182	0.2976
198.5358	0.3759
198.7535	0.3775
198.9711	0.3578
199.1888	0.3618
199.4064	0.409
199.624	0.4043
199.8416	0.3474
200.0592	0.4244
200.2767	0.4236
200.4943	0.4452
200.7119	0.3643
200.9294	0.4425
201.1469	0.4332
201.3645	0.4372
201.582	0.3738
201.7995	0.4557
202.017	0.3881
202.2344	0.413
202.4519	0.3854
202.6694	0.4523
202.8868	0.3733
203.1042	0.4017
203.3217	0.3831
203.5391	0.4246
203.7565	0.3554
203.9739	0.392
204.1913	0.3392
204.4086	0.3295
204.626	0.3711
204.8433	0.3807
205.0607	0.3672
205.278	0.351
205.4953	0.331
205.7126	0.3291
205.9299	0.3381
206.1472	0.2973
206.3644	0.3396
206.5817	0.3382
206.7989	0.3324
207.0162	0.3237
207.2334	0.3199
207.4506	0.3119
207.6678	0.2895
207.885	0.3005
208.1022	0.3094
208.3194	0.276
208.5365	0.2799
208.7537	0.293
208.9708	0.3092
209.1879	0.2889
209.405	0.2741
209.6222	0.2636
209.8392	0.2676
210.0563	0.27
210.2734	0.2904
210.4905	0.2765
210.7075	0.2522
210.9245	0.2826
211.1416	0.2592
211.3586	0.2505
211.5756	0.2606
211.7926	0.2596
212.0096	0.2584
212.2265	0.2503
212.4435	0.2647
212.6604	0.2762
212.8774	0.2485
213.0943	0.2485
213.3112	0.2479
213.5281	0.2604
213.745	0.2309
213.9619	0.2378
214.1788	0.2545
214.3956	0.2515
214.6125	0.2427
214.8293	0.2489
215.0461	0.2564
215.2629	0.2448
215.4798	0.2497
215.6965	0.2526
215.9133	0.2359
216.1301	0.2451
216.3469	0.2458
216.5636	0.2325
216.7803	0.2535
216.9971	0.2468
217.2138	0.2554
217.4305	0.2528
217.6472	0.2434
217.8639	0.2371
218.0805	0.2557
218.2972	0.2483
218.5138	0.2515
218.7305	0.2349
218.9471	0.2389
219.1637	0.2678
219.3803	0.2487
219.5969	0.2349
219.8135	0.252
220.0301	0.2507
220.2466	0.2535
220.4632	0.2467
220.6797	0.2504
220.8962	0.2605
221.1127	0.2628
221.3292	0.257
221.5457	0.2724
221.7622	0.2789
221.9787	0.2885
222.1951	0.2644
222.4116	0.2778
222.628	0.2816
222.8444	0.2803
223.0608	0.2858
223.2772	0.2778
223.4936	0.2702
223.71	0.289
223.9264	0.2955
224.1427	0.2808
224.3591	0.2838
224.5754	0.281
224.7917	0.2771
225.008	0.2987
225.2243	0.3058
225.4406	0.2934
225.6569	0.3078
225.8732	0.3105
226.0894	0.3088
226.3057	0.3126
226.5219	0.3203
226.7381	0.3255
226.9543	0.3038
227.1705	0.3241
227.3867	0.3251
227.6029	0.3258
227.8191	0.3249
228.0352	0.3476
228.2513	0.3557
228.4675	0.3483
228.6836	0.3515
228.8997	0.3332
229.1158	0.3617
229.3319	0.3606
229.548	0.3528
229.764	0.3648
229.9801	0.3798
230.1961	0.3756
230.4121	0.374
230.6282	0.3764
230.8442	0.3878
231.0602	0.3897
231.2761	0.3754
231.4921	0.3859
231.7081	0.3836
231.924	0.4092
232.14	0.411
232.3559	0.4053
232.5718	0.4256
232.7877	0.4082
233.0036	0.4148
233.2195	0.4236
233.4353	0.422
233.6512	0.4235
233.867	0.426
234.0829	0.429
234.2987	0.4394
234.5145	0.4338
234.7303	0.4386
234.9461	0.4352
235.1619	0.4387
235.3776	0.4318
235.5934	0.4518
235.8091	0.4382
236.0249	0.4601
236.2406	0.4472
236.4563	0.4459
236.672	0.449
236.8877	0.4465
237.1034	0.4433
237.319	0.4373
237.5347	0.4521
237.7503	0.4612
237.966	0.4523
238.1816	0.4566
238.3972	0.4698
238.6128	0.4574
238.8284	0.4691
239.0439	0.4637
239.2595	0.4723
239.475	0.4599
239.6906	0.463
239.9061	0.4574
240.1216	0.4674
240.3371	0.4617
240.5526	0.4645
240.7681	0.466
240.9836	0.4625
241.199	0.4559
241.4145	0.4592
241.6299	0.4535
241.8453	0.4359
242.0607	0.4373
242.2761	0.4407
242.4915	0.442
242.7069	0.4237
242.9223	0.4326
243.1376	0.4164
243.353	0.422
243.5683	0.4083
243.7836	0.3931
243.9989	0.3923
244.2142	0.3874
244.4295	0.3781
244.6448	0.3779
244.86	0.3667
245.0753	0.3508
245.2905	0.3554
245.5057	0.3468
245.721	0.3477
245.9362	0.3314
246.1514	0.3227
246.3665	0.3207
246.5817	0.3167
246.7969	0.3074
247.012	0.3069
247.2271	0.3043
247.4423	0.2944
247.6574	0.2941
247.8725	0.2832
248.0876	0.2768
248.3026	0.2775
248.5177	0.2604
248.7328	0.2584
248.9478	0.2626
249.1628	0.2588
249.3779	0.246
249.5929	0.2411
249.8079	0.2458
250.0228	0.2342
250.2378	0.2319
250.4528	0.2328
250.6677	0.2286
250.8827	0.2225
251.0976	0.2208
251.3125	0.2213
251.5274	0.2153
251.7423	0.2099
251.9572	0.217
252.172	0.209
252.3869	0.2141
252.6017	0.2104
252.8166	0.2036
253.0314	0.2035
253.2462	0.2031
253.461	0.1928
253.6758	0.2015
253.8906	0.1983
254.1053	0.1962
254.3201	0.1991
254.5348	0.1926
254.7496	0.1896
254.9643	0.1983
255.179	0.1908
255.3937	0.1954
255.6083	0.1937
255.823	0.1906
256.0377	0.1866
256.2523	0.1863
256.467	0.1886
256.6816	0.1837
256.8962	0.1846
257.1108	0.1868
257.3254	0.1869
257.54	0.1773
257.7545	0.1855
257.9691	0.1896
258.1836	0.1805
258.3981	0.1873
258.6127	0.1783
258.8272	0.1872
259.0417	0.177
259.2561	0.187
259.4706	0.1798
259.6851	0.1806
259.8995	0.1785
260.114	0.19
260.3284	0.1797
260.5428	0.1864
260.7572	0.183
260.9716	0.1879
261.186	0.1841
261.4003	0.1849
261.6147	0.1801
261.829	0.1838
262.0433	0.1815
262.2577	0.1904
262.472	0.1838
262.6863	0.1866
262.9005	0.189
263.1148	0.1837
263.3291	0.1818
263.5433	0.1937
263.7576	0.1929
263.9718	0.1873
264.186	0.1907
264.4002	0.1876
264.6144	0.1958
264.8286	0.1901
265.0427	0.1914
265.2569	0.1968
265.471	0.1894
265.6851	0.1912
265.8993	0.189
266.1134	0.1902
266.3275	0.1902
266.5415	0.1958
266.7556	0.1914
266.9697	0.1909
267.1837	0.1908
267.3978	0.1949
267.6118	0.191
267.8258	0.1946
268.0398	0.1968
268.2538	0.197
268.4677	0.1911
268.6817	0.1911
268.8957	0.185
269.1096	0.1931
269.3235	0.1896
269.5374	0.1897
269.7514	0.1862
269.9652	0.1883
270.1791	0.1904
270.393	0.1888
270.6068	0.1893
270.8207	0.1894
271.0345	0.1891
271.2483	0.1798
271.4622	0.1865
271.676	0.1872
271.8897	0.1848
272.1035	0.1937
272.3173	0.1869
272.531	0.1886
272.7448	0.1832
272.9585	0.1813
273.1722	0.1849
273.3859	0.1894
273.5996	0.1903
273.8133	0.1934
274.0269	0.1861
274.2406	0.1935
274.4542	0.1921
274.6679	0.1923
274.8815	0.2002
275.0951	0.1998
275.3087	0.1989
275.5223	0.1938
275.7358	0.1997
275.9494	0.1994
276.1629	0.2039
276.3765	0.1988
276.59	0.1979
276.8035	0.2001
277.017	0.2024
277.2305	0.2023
277.444	0.2056
277.6574	0.2098
277.8709	0.2103
278.0843	0.2035
278.2978	0.2012
278.5112	0.203
278.7246	0.205
278.938	0.2006
279.1513	0.2026
279.3647	0.1988
279.5781	0.1972
279.7914	0.2022
280.0047	0.2027
280.2181	0.2019
280.4314	0.2
280.6447	0.2104
280.8579	0.1943
281.0712	0.1947
281.2845	0.2026
281.4977	0.2039
281.711	0.1971
281.9242	0.1929
282.1374	0.1986
282.3506	0.1981
282.5638	0.1926
282.7769	0.1925
282.9901	0.1949
283.2033	0.1891
283.4164	0.1939
283.6295	0.1914
283.8426	0.1885
284.0557	0.199
284.2688	0.1964
284.4819	0.183
284.695	0.1951
284.908	0.1945
285.1211	0.1947
285.3341	0.1894
285.5471	0.1901
285.7601	0.1881
285.9731	0.1921
286.1861	0.1918
286.3991	0.1949
286.612	0.1916
286.825	0.1915
287.0379	0.1884
287.2508	0.1881
287.4637	0.1952
287.6766	0.1915
287.8895	0.1956
288.1024	0.1928
288.3152	0.1913
288.5281	0.1867
288.7409	0.1933
288.9538	0.189
289.1666	0.1901
289.3794	0.1867
289.5922	0.1912
289.8049	0.1875
290.0177	0.1889
290.2304	0.19
290.4432	0.1914
290.6559	0.193
290.8686	0.1906
291.0813	0.1891
291.294	0.1864
291.5067	0.1906
291.7194	0.1964
291.932	0.1847
292.1447	0.1866
292.3573	0.1891
292.5699	0.1895
292.7825	0.1961
292.9951	0.1915
293.2077	0.1882
293.4203	0.1903
293.6328	0.1905
293.8454	0.1952
294.0579	0.1892
294.2704	0.1931
294.4829	0.1895
294.6954	0.1919
294.9079	0.1853
295.1204	0.1878
295.3328	0.1908
295.5453	0.1927
295.7577	0.1919
295.9701	0.1849
296.1825	0.1908
296.3949	0.1903
296.6073	0.1859
296.8197	0.1916
297.0321	0.1916
297.2444	0.1845
297.4567	0.1921
297.6691	0.1884
297.8814	0.1861
298.0937	0.1916
298.306	0.1819
298.5182	0.1944
298.7305	0.1948
298.9428	0.1931
299.155	0.1933
299.3672	0.1864
299.5794	0.1864
299.7916	0.1921
300.0038	0.1929
300.216	0.1911
300.4282	0.1923
300.6403	0.196
300.8525	0.1899
301.0646	0.1936
301.2767	0.1917
301.4888	0.1895
301.7009	0.1893
301.913	0.1931
302.125	0.188
302.3371	0.1911
302.5491	0.1927
302.7612	0.1977
302.9732	0.1932
303.1852	0.1913
303.3972	0.1901
303.6092	0.1918
303.8211	0.1873
304.0331	0.1898
304.245	0.1907
304.457	0.1902
304.6689	0.1885
304.8808	0.1805
305.0927	0.1927
305.3046	0.1844
305.5164	0.1856
305.7283	0.1807
305.9401	0.1759
306.152	0.1761
306.3638	0.1858
306.5756	0.1796
306.7874	0.1804
306.9992	0.1771
307.2109	0.1726
307.4227	0.1699
307.6344	0.1771
307.8462	0.1706
308.0579	0.1748
308.2696	0.1699
308.4813	0.1718
308.693	0.1717
308.9046	0.1668
309.1163	0.1689
309.328	0.1657
309.5396	0.1576
309.7512	0.1667
309.9628	0.1572
310.1744	0.1569
310.386	0.1554
310.5976	0.157
310.8091	0.1553
311.0207	0.155
311.2322	0.1536
311.4437	0.1532
311.6552	0.1514
311.8667	0.1533
312.0782	0.1501
312.2897	0.1555
312.5012	0.1537
312.7126	0.1484
312.924	0.1513
313.1355	0.1484
313.3469	0.1469
313.5583	0.1426
313.7696	0.1367
313.981	0.1437
314.1924	0.1416
314.4037	0.1457
314.6151	0.1374
314.8264	0.1437
315.0377	0.139
315.249	0.1443
315.4603	0.1377
315.6716	0.139
315.8828	0.142
316.0941	0.1434
316.3053	0.1352
316.5165	0.1429
316.7277	0.1368
316.9389	0.141
317.1501	0.1399
317.3613	0.1384
317.5724	0.1398
317.7836	0.1324
317.9947	0.1389
318.2058	0.1394
318.417	0.1391
318.6281	0.1359
318.8391	0.1386
319.0502	0.1397
319.2613	0.1394
319.4723	0.136
319.6834	0.1395
319.8944	0.1363
320.1054	0.1387
320.3164	0.137
320.5274	0.1357
320.7383	0.1378
320.9493	0.1324
321.1602	0.1339
321.3712	0.1397
321.5821	0.1338
321.793	0.137
322.0039	0.1365
322.2148	0.1421
322.4257	0.1361
322.6365	0.136
322.8474	0.138
323.0582	0.1342
323.269	0.1395
323.4798	0.1413
323.6906	0.1385
323.9014	0.1359
324.1122	0.136
324.3229	0.1437
324.5337	0.1412
324.7444	0.1451
324.9551	0.1419
325.1658	0.1398
325.3765	0.1421
325.5872	0.1378
325.7979	0.1436
326.0085	0.1414
326.2192	0.1362
326.4298	0.1457
326.6404	0.1428
326.851	0.1463
327.0616	0.1507
327.2722	0.1477
327.4828	0.1467
327.6933	0.152
327.9039	0.1502
328.1144	0.1457
328.3249	0.1496
328.5354	0.1505
328.7459	0.1533
328.9564	0.1518
329.1669	0.152
329.3773	0.1543
329.5878	0.1467
329.7982	0.1538
330.0086	0.1534
330.219	0.1534
330.4294	0.1449
330.6398	0.1541
330.8502	0.1578
331.0605	0.1593
331.2708	0.146
331.4812	0.1554
331.6915	0.1539
331.9018	0.1498
332.1121	0.1605
332.3224	0.1594
332.5326	0.1514
332.7429	0.1499
332.9531	0.1558
333.1633	0.1548
333.3735	0.1473
333.5837	0.1577
333.7939	0.149
334.0041	0.1556
334.2143	0.1513
334.4244	0.1649
334.6346	0.1512
334.8447	0.1544
335.0548	0.1562
335.2649	0.1533
335.475	0.156
335.685	0.1559
335.8951	0.1501
336.1051	0.1566
336.3152	0.1561
336.5252	0.1536
336.7352	0.1548
336.9452	0.1513
337.1552	0.1521
337.3652	0.1514
337.5751	0.1527
337.7851	0.154
337.995	0.1552
338.2049	0.1516
338.4148	0.1549
338.6247	0.1566
338.8346	0.1523
339.0445	0.1619
339.2543	0.1574
339.4642	0.1529
339.674	0.1528
339.8838	0.1604
340.0936	0.1537
340.3034	0.1555
340.5132	0.1542
340.7229	0.1556
340.9327	0.16
341.1424	0.1617
341.3522	0.1572
341.5619	0.1583
341.7716	0.1576
341.9813	0.1669
342.1909	0.1603
342.4006	0.1662
342.6102	0.1623
342.8199	0.166
343.0295	0.1606
343.2391	0.164
343.4487	0.1718
343.6583	0.1717
343.8679	0.1638
344.0774	0.1625
344.287	0.1668
344.4965	0.1712
344.706	0.1721
344.9155	0.1678
345.125	0.1664
345.3345	0.1767
345.544	0.1708
345.7534	0.1761
345.9629	0.176
346.1723	0.1727
346.3817	0.1791
346.5911	0.1826
346.8005	0.1745
347.0099	0.1728
347.2193	0.1856
347.4286	0.1908
347.638	0.1835
347.8473	0.1867
348.0566	0.1806
348.2659	0.1891
348.4752	0.192
348.6845	0.1851
348.8937	0.1808
349.103	0.1877
349.3122	0.1898
349.5214	0.1872
349.7306	0.1902
349.9398	0.1826
350.149	0.1834
350.3582	0.1921
350.5674	0.1891
350.7765	0.1952
350.9856	0.1885
351.1948	0.1901
351.4039	0.1919
351.613	0.1863
351.822	0.1937
352.0311	0.1943
352.2402	0.1896
352.4492	0.1862
352.6582	0.1912
352.8672	0.1914
353.0762	0.1877
353.2852	0.1868
353.4942	0.1915
353.7032	0.1808
353.9121	0.1859
354.1211	0.1887
354.33	0.1961
354.5389	0.19
354.7478	0.1884
354.9567	0.1943
355.1655	0.1943
355.3744	0.1833
355.5833	0.189
355.7921	0.1886
356.0009	0.1936
356.2097	0.1906
356.4185	0.1897
356.6273	0.1892
356.8361	0.1937
357.0448	0.1993
357.2536	0.1904
357.4623	0.1887
357.671	0.1913
357.8797	0.1933
358.0884	0.1913
358.2971	0.189
358.5057	0.1963
358.7144	0.1894
358.923	0.1983
359.1316	0.1945
359.3402	0.1971
359.5488	0.2012
359.7574	0.2041
359.966	0.1967
360.1746	0.2027
360.3831	0.2073
360.5916	0.2064
360.8002	0.2096
361.0087	0.2067
361.2172	0.1986
361.4256	0.1896
361.6341	0.211
361.8426	0.2061
362.051	0.2074
362.2594	0.206
362.4678	0.2025
362.6762	0.2109
362.8846	0.2018
363.093	0.2079
363.3014	0.2072
363.5097	0.2152
363.718	0.21
363.9264	0.2221
364.1347	0.2113
364.343	0.2146
364.5513	0.217
364.7595	0.2269
364.9678	0.2076
365.176	0.2198
365.3842	0.223
365.5925	0.2157
365.8007	0.2165
366.0089	0.2232
366.217	0.2161
366.4252	0.2205
366.6333	0.2237
366.8415	0.2255
367.0496	0.2165
367.2577	0.2252
367.4658	0.2181
367.6739	0.2173
367.882	0.2283
368.09	0.2208
368.2981	0.2319
368.5061	0.2333
368.7141	0.2281
368.9221	0.2387
369.1301	0.2282
369.3381	0.2378
369.5461	0.2246
369.754	0.2423
369.962	0.2287
370.1699	0.2339
370.3778	0.2409
370.5857	0.2379
370.7936	0.2318
371.0015	0.2319
371.2093	0.2254
371.4172	0.2373
371.625	0.2408
371.8328	0.2317
372.0406	0.2466
372.2484	0.235
372.4562	0.2424
372.664	0.24
372.8717	0.244
373.0795	0.2517
373.2872	0.2526
373.4949	0.2495
373.7026	0.2438
373.9103	0.2405
374.118	0.2463
374.3256	0.2541
374.5333	0.2558
374.7409	0.2488
374.9485	0.2418
375.1561	0.2611
375.3637	0.2481
375.5713	0.257
375.7789	0.2503
375.9864	0.253
376.194	0.2543
376.4015	0.2589
376.609	0.2519
376.8165	0.2638
377.024	0.2595
377.2315	0.2546
377.4389	0.2453
377.6464	0.2559
377.8538	0.2582
378.0612	0.2501
378.2686	0.2556
378.476	0.2635
378.6834	0.2538
378.8908	0.2549
379.0981	0.2586
379.3055	0.2654
379.5128	0.2573
379.7201	0.2719
379.9274	0.2593
380.1347	0.2598
380.342	0.2744
380.5492	0.2632
380.7565	0.2622
380.9637	0.2714
381.1709	0.2612
381.3781	0.2727
381.5853	0.2685
381.7925	0.2674
381.9997	0.2742
382.2068	0.2695
382.4139	0.2746
382.6211	0.2653
382.8282	0.2656
383.0353	0.2713
383.2424	0.2648
383.4494	0.2698
383.6565	0.2801
383.8635	0.2702
384.0706	0.2722
384.2776	0.2696
384.4846	0.2736
384.6916	0.2658
384.8986	0.2814
385.1055	0.2849
385.3125	0.2746
385.5194	0.2775
385.7263	0.2755
385.9333	0.2789
386.1402	0.2737
386.347	0.2769
386.5539	0.2798
386.7608	0.2705
386.9676	0.2712
387.1744	0.2652
387.3813	0.2697
387.5881	0.2663
387.7948	0.2706
388.0016	0.2783
388.2084	0.2741
388.4151	0.2784
388.6219	0.2683
388.8286	0.2676
389.0353	0.2731
389.242	0.2805
389.4487	0.2659
389.6553	0.2675
389.862	0.2576
390.0686	0.2795
390.2753	0.2744
390.4819	0.271
390.6885	0.2632
390.8951	0.2633
391.1016	0.2629
391.3082	0.2668
391.5147	0.2577
391.7213	0.2702
391.9278	0.2563
392.1343	0.2632
392.3408	0.2663
392.5473	0.2614
392.7537	0.2538
392.9602	0.2577
393.1666	0.2626
393.373	0.2609
393.5794	0.2429
393.7858	0.2538
393.9922	0.2482
394.1986	0.248
394.4049	0.2429
394.6113	0.2458
394.8176	0.2517
395.0239	0.2341
395.2302	0.2559
395.4365	0.2524
395.6428	0.2457
395.8491	0.2372
396.0553	0.2399
396.2615	0.2504
396.4678	0.2447
396.674	0.2333
396.8802	0.2428
397.0863	0.2467
397.2925	0.2381
397.4987	0.2354
397.7048	0.2451
397.9109	0.2393
398.117	0.2351
398.3231	0.2301
398.5292	0.2315
398.7353	0.2299
398.9413	0.2381
399.1474	0.2351
399.3534	0.2386
399.5594	0.2299
399.7654	0.2326
399.9714	0.2323
400.1774	0.2418
400.3833	0.2286
400.5893	0.2318
400.7952	0.2368
401.0011	0.2321
401.207	0.2335
401.4129	0.2344
401.6188	0.2247
401.8247	0.2344
402.0305	0.2296
402.2364	0.2309
402.4422	0.2328
402.648	0.2383
402.8538	0.2307
403.0596	0.2299
403.2654	0.225
403.4711	0.2302
403.6768	0.2348
403.8826	0.2298
404.0883	0.2297
404.294	0.2321
404.4997	0.2319
404.7054	0.2366
404.911	0.2305
405.1167	0.2371
405.3223	0.2278
405.5279	0.2305
405.7335	0.2356
405.9391	0.23
406.1447	0.239
406.3502	0.2257
406.5558	0.2304
406.7613	0.2272
406.9668	0.2274
407.1724	0.2297
407.3778	0.2354
407.5833	0.2182
407.7888	0.2335
407.9942	0.2356
408.1997	0.2277
408.4051	0.2237
408.6105	0.2359
408.8159	0.2238
409.0213	0.2383
409.2267	0.2374
409.432	0.2205
409.6374	0.2308
409.8427	0.2282
410.048	0.2306
410.2533	0.2282
410.4586	0.2181
410.6639	0.2356
410.8691	0.2172
411.0744	0.2275
411.2796	0.2343
411.4848	0.2312
411.69	0.2259
411.8952	0.2279
412.1004	0.2266
412.3056	0.2329
412.5107	0.2291
412.7158	0.2363
412.921	0.2189
413.1261	0.2227
413.3312	0.231
413.5362	0.232
413.7413	0.2327
413.9464	0.2224
414.1514	0.2268
414.3564	0.2193
414.5614	0.2195
414.7664	0.2204
414.9714	0.2233
415.1764	0.2277
415.3813	0.2151
415.5863	0.236
415.7912	0.2227
415.9961	0.2233
416.201	0.2354
416.4059	0.2202
416.6108	0.2214
416.8156	0.2184
417.0205	0.2182
417.2253	0.2241
417.4301	0.2249
417.6349	0.2241
417.8397	0.2189
418.0445	0.2105
418.2492	0.2124
418.454	0.2146
418.6587	0.2204
418.8634	0.2166
419.0681	0.229
419.2728	0.2116
419.4775	0.2226
419.6822	0.2175
419.8868	0.2127
420.0915	0.2077
420.2961	0.2092
420.5007	0.2172
420.7053	0.2137
420.9099	0.2152
421.1144	0.2076
421.319	0.1968
421.5235	0.2075
421.728	0.2129
421.9325	0.2118
422.137	0.2019
422.3415	0.209
422.546	0.2033
422.7504	0.2046
422.9549	0.2146
423.1593	0.2059
423.3637	0.1994
423.5681	0.2054
423.7725	0.2053
423.9769	0.2008
424.1812	0.1968
424.3856	0.1946
424.5899	0.1993
424.7942	0.192
424.9985	0.1985
425.2028	0.2077
425.4071	0.2032
425.6113	0.1952
425.8156	0.1884
426.0198	0.2082
426.224	0.2004
426.4282	0.1866
426.6324	0.1893
426.8366	0.19
427.0407	0.1915
427.2449	0.1929
427.449	0.1831
427.6531	0.1915
427.8572	0.1884
428.0613	0.1905
428.2654	0.19
428.4694	0.1764
428.6735	0.1755
428.8775	0.1809
429.0815	0.179
429.2855	0.1721
429.4895	0.1758
429.6935	0.1759
429.8975	0.1679
430.1014	0.1822
430.3053	0.1701
430.5093	0.168
430.7132	0.1611
430.9171	0.1653
431.1209	0.1689
431.3248	0.1549
431.5286	0.1611
431.7325	0.1574
431.9363	0.1553
432.1401	0.1695
432.3439	0.1618
432.5477	0.1591
432.7514	0.1478
432.9552	0.1528
433.1589	0.1424
433.3627	0.1525
433.5664	0.1458
433.7701	0.1377
433.9737	0.155
434.1774	0.1494
434.3811	0.1419
434.5847	0.1372
434.7883	0.1337
434.9919	0.1345
435.1955	0.1387
435.3991	0.1316
435.6027	0.1331
435.8062	0.1484
436.0098	0.1219
436.2133	0.1332
436.4168	0.125
436.6203	0.1256
436.8238	0.1334
437.0272	0.1271
437.2307	0.1134
437.4341	0.1184
437.6375	0.1213
437.841	0.1112
438.0443	0.1149
438.2477	0.1063
438.4511	0.1099
438.6545	0.1208
438.8578	0.112
439.0611	0.1147
439.2644	0.1065
439.4677	0.1104
439.671	0.1027
439.8743	0.1122
440.0775	0.1033
440.2808	0.1086
440.484	0.1
440.6872	0.0985
440.8904	0.09
441.0936	0.0929
441.2967	0.0881
441.4999	0.096
441.703	0.0922
441.9062	0.0965
442.1093	0.0946
442.3124	0.0881
442.5155	0.0905
442.7185	0.0834
442.9216	0.0913
443.1246	0.0761
443.3276	0.0791
443.5307	0.0806
443.7337	0.0815
443.9366	0.0762
444.1396	0.0767
444.3426	0.0768
444.5455	0.0726
444.7484	0.0712
444.9513	0.065
445.1542	0.077
445.3571	0.0689
445.56	0.0641
445.7628	0.0651
445.9657	0.0708
446.1685	0.0731
446.3713	0.069
446.5741	0.0706
446.7769	0.0753
446.9797	0.0614
447.1824	0.0653
447.3852	0.0508
447.5879	0.0665
447.7906	0.0528
447.9933	0.0572
448.196	0.059
448.3986	0.055
448.6013	0.055
448.8039	0.0592
449.0066	0.0553
449.2092	0.0608
449.4118	0.0502
449.6143	0.0555
449.8169	0.0454
450.0195	0.0509
450.222	0.0511
450.4245	0.0477
450.627	0.0512
450.8295	0.0469
451.032	0.0451
451.2345	0.0385
451.4369	0.0411
451.6394	0.0363
451.8418	0.0516
452.0442	0.0436
452.2466	0.0342
452.449	0.0485
452.6513	0.0337
452.8537	0.0347
453.056	0.0383
453.2583	0.0365
453.4607	0.0333
453.663	0.0447
453.8652	0.0314
454.0675	0.0412
454.2697	0.0289
454.472	0.0253
454.6742	0.027
454.8764	0.0363
455.0786	0.0282
455.2808	0.0282
455.4829	0.0362
455.6851	0.0323
455.8872	0.0197
456.0893	0.0304
456.2915	0.0271
456.4935	0.0415
456.6956	0.033
456.8977	0.0331
457.0997	0.0338
457.3018	0.0237
457.5038	0.0441
457.7058	0.0292
457.9078	0.0252
458.1098	0.0345
458.3117	0.0275
458.5137	0.0182
458.7156	0.0317
458.9175	0.0303
459.1194	0.0228
459.3213	0.0198
459.5232	0.0229
459.725	0.0206
459.9269	0.021
460.1287	0.0174
460.3305	0.0266
460.5323	0.0259
460.7341	0.0223
460.9359	0.0162
461.1376	0.0227
461.3394	0.0247
461.5411	0.0276
461.7428	0.0206
461.9445	0.0184
462.1462	0.0151
462.3479	0.0219
462.5495	0.0237
462.7512	0.0259
462.9528	0.0119
463.1544	0.0219
463.356	0.0181
463.5576	0.0212
463.7592	0.0182
463.9607	0.0082
464.1623	0.0162
464.3638	0.0162
464.5653	0.0148
464.7668	0.0218
464.9683	0.0191
465.1697	0.0217
465.3712	0.0095
465.5726	0.0073
465.7741	0.0224
465.9755	0.013
466.1769	0.0154
466.3782	0.0156
466.5796	0.018
466.7809	0.0213
466.9823	0.0101
467.1836	0.0141
467.3849	0.0121
467.5862	0.0089
467.7875	0.0128
467.9887	0.0136
468.19	0.0127
468.3912	0.0158
468.5924	0.0097
468.7936	0.0191
468.9948	0.0099
469.196	0.0166
469.3972	0.0048
469.5983	0.0095
469.7994	0.0212
470.0006	0.0149
470.2017	0.0152
470.4027	0.0266
470.6038	0.0228
470.8049	0.0161
471.0059	0.0208
471.2069	0.0153
471.408	0.0145
471.6089	0.0213
471.8099	0.0189
472.0109	0.0112
472.2119	0.0183
472.4128	0.0134
472.6137	0.0152
472.8146	0.0129
473.0155	0.0253
473.2164	0.0165
473.4173	0.0065
473.6181	0.0004
473.819	0.0127
474.0198	0.0066
474.2206	0.0046
474.4214	0.0107
474.6222	0.007
474.8229	0.01
475.0237	0.0099
475.2244	0.0178
475.4251	0.0001
475.6258	0.0112
475.8265	0.0179
476.0272	0.0118
476.2278	0.0132
476.4285	0.0007
476.6291	0.0128
476.8297	0.0134
477.0303	0.0043
477.2309	0.0148
477.4315	0.0105
477.632	0.0097
477.8326	0.0116
478.0331	0.0267
478.2336	0.0058
478.4341	0.0143
478.6346	0.0127
478.8351	0.0034
479.0355	0.0185
479.236	0.0171
479.4364	0.0135
479.6368	0.0088
479.8372	0.0116
480.0376	0.0086
480.2379	0.0105
480.4383	0.015
480.6386	0.0063
480.8389	0.0115
481.0392	0.0056
481.2395	0.016
481.4398	0.0168
481.6401	0.0143
481.8403	0.0136
482.0405	0.008
482.2408	0.0175
482.441	0.0123
482.6411	0.014
482.8413	-0.0002
483.0415	0.0131
483.2416	0.0094
483.4417	0.0081
483.6419	0.0145
483.8419	0.0056
484.042	0.0101
484.2421	0.0011
484.4422	0.0091
484.6422	0.0118
484.8422	0.0085
485.0422	0.0062
485.2422	0.0068
485.4422	0.0096
485.6422	0.0088
485.8421	0.0042
486.042	0.015
486.242	0.0063
486.4419	0.0075
486.6417	0.0075
486.8416	0.01
487.0415	0.0011
487.2413	-0.0017
487.4411	0.0118
487.641	0.0084
487.8408	0.0161
488.0405	0.0163
488.2403	0.0057
488.4401	0.0183
488.6398	0.0143
488.8395	0.012
489.0392	0.0101
489.2389	0.0128
489.4386	0.008
489.6383	0.0107
489.8379	0.0048
490.0376	0.0125
490.2372	0.0048
490.4368	0.0043
490.6364	0.0052
490.836	0.0005
491.0355	0.0074
491.2351	0.0072
491.4346	0.0109
491.6341	0.0038
491.8336	0.0195
492.0331	0.0104
492.2326	0.0166
492.432	0.0071
492.6315	0.0132
492.8309	0.0188
493.0303	0.0082
493.2297	0.0103
493.4291	0.0089
493.6284	0.0209
493.8278	0.0052
494.0271	0.013
494.2264	0.0078
494.4257	0.0175
494.625	0.0091
494.8243	-0.0036
495.0236	0.013
495.2228	0.0127
495.422	0.0143
495.6213	0.0089
495.8205	0.015
496.0196	0.0136
496.2188	0.0112
496.418	0.0103
496.6171	0.0015
496.8162	0.0122
497.0153	0.012
497.2144	0.0088
497.4135	0.0026
497.6126	0.014
497.8116	0.0041
498.0107	0.0095
498.2097	0.0149
498.4087	0.0117
498.6077	0.0067
498.8067	0.0076
499.0056	0.008
499.2046	0.0117
499.4035	0.0089
499.6024	0.0092
499.8013	0.0153
500.0002	0.0071
500.199	0.02
500.3979	0.0145
500.5967	0.0106
500.7956	0.0108
500.9944	0.0107
501.1932	0.0146
501.3919	0.0122
501.5907	0.0211
501.7895	0.007
501.9882	0.008
502.1869	0.0127
502.3856	0.0076
502.5843	0.0106
502.783	0.0077
502.9816	0.0139
503.1803	0.0094
503.3789	0.0181
503.5775	0.0016
503.7761	0.013
503.9747	0.0116
504.1732	0.0063
504.3718	0.0152
504.5703	0.0107
504.7689	0.0006
504.9674	0.0086
505.1658	0.0068
505.3643	0.0136
505.5628	0.0105
505.7612	0.0165
505.9597	0.0028
506.1581	0.0091
506.3565	0.0059
506.5549	0.0053
506.7532	0.0044
506.9516	0.0096
507.1499	0.0097
507.3482	0.0057
507.5465	0.0175
507.7448	0.0071
507.9431	0.015
508.1414	0.0092
508.3396	0.0137
508.5379	0.0034
508.7361	0.0137
508.9343	0.0151
509.1325	0.0159
509.3306	0.0113
509.5288	0.009
509.7269	0.0071
509.9251	0.0087
510.1232	0.011
510.3213	0.0092
510.5193	0.0132
510.7174	0.0057
510.9154	0.014
511.1135	0.0023
511.3115	0.0149
511.5095	0.0051
511.7075	0.0075
511.9055	0.0089
512.1034	0.0097
512.3014	0.0087
512.4993	0.0056
512.6972	0.0078
512.8951	0.0125
513.093	0.0111
513.2908	0.0236
513.4887	0.0054
513.6865	0.0106
513.8844	0.0143
514.0822	0.0091
514.2799	0.002
514.4777	-0.0055
514.6755	0.0042
514.8732	-0.0002
515.0709	0.0136
515.2687	0.0159
515.4664	0.0179
515.664	0.0102
515.8617	0.0186
516.0594	0.0034
516.257	0.0226
516.4546	0.0168
516.6522	0.0076
516.8498	0.0106
517.0474	0.0055
517.2449	0.0033
517.4425	0.0177
517.64	0.0124
517.8375	0.0164
518.035	0.008
518.2325	0.0065
518.43	0.0038
518.6274	0.0118
518.8249	0.0029
519.0223	0.0181
519.2197	0.0083
519.4171	0.0065
519.6145	0.0165
519.8118	-0.0085
520.0092	0.0049
520.2065	0.0274
520.4038	0.0114
520.6011	0.0066
520.7984	0.0047
520.9956	0.0199
521.1929	0.0137
521.3901	0.0253
521.5874	0.0194
521.7846	0.0001
521.9818	0.0004
522.1789	0.0068
522.3761	0.0152
522.5732	0.0059
522.7704	-0.0031
522.9675	-0.0054
523.1646	-0.0014
523.3617	0.0167
523.5587	0.0067
523.7558	0.012
523.9528	0.0132
524.1498	0.0058
524.3468	0.019
524.5438	0.0164
524.7408	0.0033
524.9378	0.0101
525.1347	0.0235
525.3316	0.0035
525.5285	0.0022
525.7254	0.0085
525.9223	0.0142
526.1192	0.0099
526.316	0.0156
526.5129	0.0205
526.7097	0.0048
526.9065	0.0122
527.1033	0.002
527.3	0.003
527.4968	0.0156
527.6935	0.0061
527.8903	0.0049
528.087	0.0071
528.2837	0.0119
528.4804	0.01
528.677	0.0129
528.8737	0.0097
529.0703	0.0062
529.2669	0.0085
529.4635	0.0012
529.6601	0.001
529.8567	0.0055
530.0532	0.0015
530.2498	0.0047
530.4463	-0.0027
530.6428	0.012
530.8393	0.0062
531.0358	0.0119
531.2322	0.0006
531.4287	0.0146
531.6251	-0.0046
531.8215	0.0072
532.0179	0.011
532.2143	0.0129
532.4107	0.0091
532.607	0.0023
532.8034	-0.0001
532.9997	0.0043
533.196	0.011
533.3923	0.0176
533.5886	0.007
533.7848	0.003
533.9811	0.0181
534.1773	0.0127
534.3735	0.0133
534.5697	0.0102
534.7659	0.0095
534.9621	0.015
535.1582	0.0087
535.3544	0.0065
535.5505	0.0178
535.7466	0.0121
535.9427	0.006
536.1387	-0.0004
536.3348	0.0142
536.5308	-0.0003
536.7269	0.0098
536.9229	0.0097
537.1189	0.017
537.3148	0.0102
537.5108	0.0158
537.7068	0.0215
537.9027	-0.008
538.0986	0.0172
538.2945	-0.0032
538.4904	-0.0032
538.6863	0.0089
538.8821	0.0165
539.078	0.0105
539.2738	0.0049
539.4696	0.0076
539.6654	0.0127
539.8611	0.0087
540.0569	0.0036
540.2526	0.0177
540.4484	0.0094
540.6441	0.0148
540.8398	0.0207
541.0355	0.0044
541.2311	0.0042
541.4268	0.0164
541.6224	0.0098
541.818	0.0145
542.0136	0.0182
542.2092	0.0163
542.4048	0.0052
542.6003	0.0056
542.7959	0.0124
542.9914	0.0081
543.1869	0.0049
543.3824	0.0026
543.5779	0.0223
543.7734	0.0244
543.9688	0.0152
544.1642	0.0075
544.3596	0.0109
544.555	0.0079
544.7504	0.0185
544.9458	0.0037
545.1411	0.0057
545.3365	0.014
545.5318	0.0129
545.7271	0.0077
545.9224	0.0111
546.1177	0.011
546.3129	0.0172
546.5081	0.0054
546.7034	0.0115
546.8986	0.0015
547.0938	0.0082
547.289	0.0163
547.4841	0.0155
547.6793	0.0069
547.8744	0.0135
548.0695	-0.0007
548.2646	0.012
548.4597	0.0031
548.6548	0.018
548.8498	0.0128
549.0448	0.0044
549.2399	0.0176
549.4349	0.0135
549.6298	0.0133
549.8248	0.0023
550.0198	0.0102
550.2147	0.0134
550.4096	-0.0052
550.6045	0.012
550.7994	0.0111
550.9943	0.0101
551.1892	0.001
551.384	0.0127
551.5788	0.0186
551.7737	0.0166
551.9685	0.0152
552.1632	0.0013
552.358	-0.0006
552.5528	0.0219
552.7475	0.0107
552.9422	0.0127
553.1369	0.0284
553.3316	0.0198
553.5263	0.0236
553.7209	0.0122
553.9156	0.0141
554.1102	0.0154
554.3048	0.0046
554.4994	0.0051
554.694	0.0126
554.8885	0.0183
555.0831	0.0181
555.2776	0.0173
555.4721	0.013
555.6666	0.0081
555.8611	0.0127
556.0555	0.0185
556.25	0.0188
556.4444	0.0007
556.6388	0.0011
556.8332	0.011
557.0276	0.0052
557.222	0.0143
557.4163	0.0118
557.6107	0.0076
557.805	0.005
557.9993	0.0135
558.1936	-0.0024
558.3879	0.015
558.5821	0.0074
558.7764	0.0022
558.9706	0.0117
559.1648	0.008
559.359	-0.0034
559.5532	0.0068
559.7473	0.0017
559.9415	0.0119
560.1356	0.0141
560.3297	0.0054
560.5238	0.0134
560.7179	0.0097
560.9119	0.0026
561.106	0.0069
561.3	0.008
561.494	-0.0097
561.688	0.0064
561.882	0.01
562.076	0.0094
562.2699	0.011
562.4639	0.0182
562.6578	0.0129
562.8517	0.0063
563.0456	0.0155
563.2395	0.0149
563.4333	0.0176
563.6272	0.0082
563.821	0.0035
564.0148	0.0135
564.2086	0.0095
564.4024	0.0203
564.5961	0.0052
564.7899	0.0172
564.9836	0.0126
565.1773	0.009
565.371	-0.0005
565.5647	0.0087
565.7584	0.0288
565.952	0.008
566.1456	0.0028
566.3393	0.0107
566.5329	0.0056
566.7264	0.001
566.92	0.0012
567.1136	0.0056
567.3071	0.0035
567.5006	0.0207
567.6941	0.0073
567.8876	0.0061
568.0811	0.0295
568.2745	0.0058
568.468	0.0147
568.6614	0.0108
568.8548	0.0063
569.0482	0.0092
569.2416	0.009
569.4349	0.0088
569.6283	0.0073
569.8216	0.0061
570.0149	0.0105
570.2082	0.0134
570.4015	0.0087
570.5947	0.0093
570.788	0.0104
570.9812	0.0054
571.1744	0.0107
571.3676	0.0063
571.5608	0.0106
571.754	0.0123
571.9471	0.0095
572.1402	0.0041
572.3333	0.0096
572.5264	0.0124
572.7195	0.0025
572.9126	0.0109
573.1057	0.0083
573.2987	0.0083
573.4917	0.0052
573.6847	0.0044
573.8777	0.014
574.0707	0.0026
574.2636	0.0103
574.4566	0.0061
574.6495	0.0053
574.8424	0.0098
575.0353	0.0129
575.2281	0.0145
575.421	0.0042
575.6138	0.0054
575.8067	0.0115
575.9995	0.0084
576.1923	0.0117
576.385	0.0094
576.5778	0.0122
576.7706	0.012
576.9633	0.0113
577.156	0.0038
577.3487	0.0077
577.5414	0.005
577.734	0.0083
577.9267	0.008
578.1193	0.0085
578.3119	0.0037
578.5045	0.0064
578.6971	0.0066
578.8897	0.0076
579.0822	0.01
579.2747	0.0064
579.4673	0.0075
579.6598	0.0137
579.8522	0.0045
580.0447	0.0117
580.2372	0.0154
580.4296	0.0156
580.622	0.0042
580.8144	0.0086
581.0068	0.0057
581.1992	0.0062
581.3915	0.0001
581.5839	0.0089
581.7762	0.0058
581.9685	0.0067
582.1608	0.0088
582.353	0.0059
582.5453	0.0088
582.7375	0.0137
582.9298	0.0087
583.122	0.006
583.3142	0.0114
583.5063	0.0067
583.6985	0.0075
583.8906	0.0105
584.0827	0.0102
584.2749	0.0092
584.4669	0.004
584.659	0.01
584.8511	0.0117
585.0431	0.0104
585.2352	0.007
585.4272	0.0121
585.6192	0.0073
585.8111	0.0042
586.0031	0.0027
586.195	0.0108
586.387	0.0083
586.5789	0.0113
586.7708	0.0087
586.9627	0.0079
587.1545	0.0122
587.3464	0.0074
587.5382	0.0074
587.73	0.0131
587.9218	0.0061
588.1136	0.0085
588.3053	0.0101
588.4971	0.0048
588.6888	0.0095
588.8805	0.0037
589.0722	0.0144
589.2639	0.0116
589.4556	0.0133
589.6472	0.0174
589.8389	0.0092
590.0305	0.0127
590.2221	0.0118
590.4137	0.0056
590.6052	0.0104
590.7968	0.0066
590.9883	0.0059
591.1798	0.0107
591.3713	0.0094
591.5628	0.0138
591.7543	0.0046
591.9458	0.0012
592.1372	0.0081
592.3286	0.0028
592.52	0.0071
592.7114	0.0065
592.9028	0.01
593.0941	0.0069
593.2855	0.0101
593.4768	0.0149
593.6681	0.0044
593.8594	0.0077
594.0506	0.0069
594.2419	0.0098
594.4331	0.0123
594.6244	0.0064
594.8156	0.0069
595.0067	0.006
595.1979	0.0032
595.3891	0.0059
595.5802	0.0139
595.7713	0.0118
595.9624	0.0059
596.1535	0.003
596.3446	0.0086
596.5357	0.0127
596.7267	0.0103
596.9177	0.0047
597.1087	0.0036
597.2997	0.0079
597.4907	0.0047
597.6817	0.0118
597.8726	0.0038
598.0635	0.0114
598.2544	0.0106
598.4453	0.009
598.6362	0.0059
598.827	0.004
599.0179	0.0054
599.2087	0.0092
599.3995	0.0135
599.5903	0.0128
599.7811	0.0122
599.9718	0.0069
600.1626	0.0046
600.3533	0.0044
600.544	0.0098
600.7347	0.0081
600.9254	0.0149
601.116	0.0097
601.3067	0.0112
601.4973	0.0084
601.6879	0.0083
601.8785	0.0099
602.0691	0.0114
602.2596	0.011
602.4502	0.004
602.6407	0.008
602.8312	0.01
603.0217	0.0088
603.2122	0.0084
603.4027	0.0099
603.5931	0.0116
603.7835	0.0096
603.9739	0.007
604.1643	0.0088
604.3547	0.0128
604.5451	0.0158
604.7354	0.0053
604.9257	0.0027
605.116	0.0045
605.3063	0.0088
605.4966	0.0091
605.6869	0.0118
605.8771	0.0102
606.0673	0.0085
606.2575	0.0046
606.4477	0.0129
606.6379	0.0085
606.8281	0.0089
607.0182	0.0096
607.2083	0.0039
607.3985	0.0063
607.5885	0.0123
607.7786	0.0064
607.9687	0.0048
608.1587	0.0123
608.3488	0.0106
608.5388	0.0077
608.7288	0.0028
608.9187	0.0041
609.1087	0.0115
609.2986	0.008
609.4886	0.006
609.6785	0.0149
609.8684	-0.0015
610.0582	0.0022
610.2481	0.0026
610.4379	0.0062
610.6278	0.007
610.8176	0.0144
611.0074	0.0089
611.1971	0.0036
611.3869	0.0118
611.5766	0.0011
611.7664	0.0189
611.9561	0.0039
612.1458	0.0047
612.3354	0.0028
612.5251	0.0061
612.7147	0.0105
612.9044	0.0053
613.094	0.0137
613.2836	0.0042
613.4731	0.0078
613.6627	0.0159
613.8522	0.0078
614.0417	0.0058
614.2313	0.0057
614.4207	0.0068
614.6102	0.0167
614.7997	0.0201
614.9891	0.0146
615.1785	0.0013
615.3679	0.0117
615.5573	0.0127
615.7467	0.0017
615.9361	0.0124
616.1254	0.0141
616.3147	0.0092
616.504	0.0056
616.6933	0.0081
616.8826	0.0076
617.0718	0.0076
617.2611	0.0051
617.4503	0.0082
617.6395	0.0073
617.8287	0.012
618.0179	0.008
618.207	0.0145
618.3961	0.0028
618.5853	0.0063
618.7744	0.0157
618.9634	0.02
619.1525	0.0071
619.3416	0.007
619.5306	0.0094
619.7196	0.0126
619.9086	0.0062
620.0976	0.0084
620.2866	0.007
620.4755	0.0068
620.6645	0.0162
620.8534	0.0169
621.0423	0.0183
621.2312	0.004
621.42	0.0197
621.6089	0.0071
621.7977	0.0085
621.9865	-0.0037
622.1753	0.0002
622.3641	-0.0055
622.5529	0.0085
622.7416	0.0089
622.9303	0.0026
623.1191	0.0094
623.3078	0.0041
623.4964	0.005
623.6851	0.0107
623.8737	0.0053
624.0624	-0.0012
624.251	0.0108
624.4396	0.016
624.6282	0.012
624.8167	0.0041
625.0053	0.0136
625.1938	-0.001
625.3823	0.0168
625.5708	0.0069
625.7593	0.0059
625.9477	0.0169
626.1362	0.0063
626.3246	0.0123
626.513	0.0131
626.7014	0.0079
626.8898	0.0163
627.0781	0.0128
627.2665	0.019
627.4548	0.0024
627.6431	0.0144
627.8314	0.009
628.0197	0.0193
628.2079	0.0097
628.3962	0.0087
628.5844	0.0063
628.7726	0.0013
628.9608	0.0125
629.1489	0.018
629.3371	0.0042
629.5252	0.0051
629.7134	-0.0053
629.9015	0.0072
630.0895	-0.009
630.2776	0.0083
630.4657	0.0159
630.6537	0.0117
630.8417	-0.0041
631.0297	0.0132
631.2177	-0.0025
631.4057	0.0166
631.5936	-0.0016
631.7815	0.0122
631.9695	0.028
632.1574	0.0266
632.3452	0.0148
632.5331	0.015
632.7209	0.0202
632.9088	0.0114
633.0966	0.0261
633.2844	0.0076
633.4722	0.0169
633.6599	0.0279
633.8477	0.0139
634.0354	0.0183
634.2231	-0.011
634.4108	0.0111
634.5985	0.019
634.7861	0.0035
634.9738	0.0004
635.1614	0.0016
635.349	0.0139
635.5366	0.0008
635.7242	0.0105
635.9117	0.0058
636.0993	0.0111
636.2868	0.0043
636.4743	0.0164
636.6618	-0.0084
636.8492	0.0075
637.0367	0.0022
637.2241	0.0028
637.4115	0.0258
637.5989	0.0162
637.7863	0.0171
637.9737	0.0053
638.161	0.0149
638.3484	0.0007
638.5357	0.0095
638.723	0.0338
638.9103	-0.0176
639.0975	0.0243
639.2848	0.0233
639.472	0.0147
639.6592	-0.0046
639.8464	0.0067
640.0336	0.0218
640.2208	0.0079
640.4079	-0.0079
640.595	-0.0014
640.7821	0.0204
640.9692	0.0025
641.1563	0.0242
641.3434	0.0149
641.5304	0.0167
641.7174	0.0152
641.9044	0.0121
642.0914	0.0263
642.2784	0.0113
642.4653	-0.0047
642.6523	0.0222
642.8392	0.0163
643.0261	0.01
643.213	0.0022
643.3999	0.0261
643.5867	0.0051
643.7735	0.0195
643.9604	0.0104
644.1472	0.0215
644.3339	0.0086
644.5207	-0.0016
644.7075	0.0005
644.8942	-0.0016
645.0809	0.001
645.2676	-0.0132
645.4543	-0.0026
645.6409	0.0122
645.8276	0.0141
646.0142	-0.008
646.2008	-0.0073
646.3874	-0.009
646.574	0.0214
646.7605	0.0088
646.9471	0.0118
647.1336	-0.0093
647.3201	0.004
647.5066	0.0119
647.6931	0.0033
647.8795	0.0265
648.0659	0.0107
648.2524	0.0145
648.4388	0.0116
648.6252	0.0114
648.8115	0.0063
648.9979	0.0195
649.1842	0.022
649.3705	0.0138
649.5568	-0.0188
649.7431	-0.0137
649.9294	0.0132
650.1156	0.0079
650.3018	0.0118
650.488	0.0118
650.6742	0.0206
650.8604	0.0098
651.0466	-0.0019
651.2327	-0.0067
651.4188	-0.0085
651.6049	0.012
651.791	0.0159
651.9771	0.0196
652.1632	0.0084
652.3492	0.0107
652.5352	0.0191
652.7212	0.0184
652.9072	0.013
653.0932	0.0125
653.2791	0.0094
653.465	0.0179
653.651	0.024
653.8369	-0.0012
654.0227	-0.0025
654.2086	0.0164
654.3944	0.0082
654.5803	0.0164
654.7661	0.0078
654.9519	0.0059
655.1377	0.0001
655.3234	0.0001
655.5092	0.0001
655.6949	0.0001
655.8806	0.0001
656.0663	0.0001
656.2519	0.0001
656.4376	0.0001
656.6232	0.0001
656.8088	0.0001
656.9945	0.0001
657.18	0.0001
657.3656	0.0001
657.5511	0.0001
657.7367	0.0001
657.9222	0.0001
658.1077	0.0001
658.2932	0.0001
658.4786	0.0001
658.6641	0.0001
658.8495	0.0001
659.0349	0.0001
659.2203	0.0001
659.4057	0.0195
659.591	0.2575
659.7764	0.045
659.9617	0.0234
660.147	0.0072
660.3323	0.0269
660.5176	0.011
660.7028	-0.0122
660.888	0.0241
661.0733	0.0273
661.2585	-0.0022
661.4436	0.0096
661.6288	0.0158
661.8139	0.0185
661.9991	-0.0058
662.1842	-0.0042
662.3693	0.0086
662.5544	0.0076
662.7394	0.0221
662.9245	0.0148
663.1095	-0.0048
663.2945	0.0071
663.4795	0.0074
663.6644	0.0051
663.8494	0.0119
664.0343	0.014
664.2193	-0.008
664.4042	0.0168
664.589	0.0049
664.7739	-0.0051
664.9587	-0.0081
665.1436	-0.0123
665.3284	0.0079
665.5132	0.008
665.698	0.0083
665.8827	0.0207
666.0675	0.0022
666.2522	0.021
666.4369	0.0143
666.6216	0.0198
666.8063	0.0044
666.9909	0.0034
667.1756	-0.0146
667.3602	0.0086
667.5448	0.0062
667.7294	0.0267
667.9139	0.0004
668.0985	0.0223
668.283	0.0249
668.4675	0.0287
668.652	-0.0086
668.8365	0.0024
669.0209	0.0078
669.2054	-0.0019
669.3898	0.0224
669.5742	0.0355
669.7586	0.0222
669.943	0.0074
670.1273	0.027
670.3117	0.028
670.496	0.0071
670.6803	0.0141
670.8646	-0.0151
671.0488	0.0331
671.2331	0.0024
671.4173	0.0061
671.6015	-0.0041
671.7857	0.0147
671.9699	0.017
672.1541	0.0086
672.3382	0.0026
672.5223	0.0163
672.7064	0.0031
672.8905	0.0033
673.0746	0.0444
673.2587	0.032
673.4427	-0.0108
673.6267	-0.0027
673.8107	0.0302
673.9947	0.0339
674.1787	0.024
674.3626	0.0326
674.5465	0.0238
674.7304	-0.0087
674.9143	0
675.0982	0.0116
675.2821	0.018
675.4659	-0.0009
675.6497	0.0182
675.8335	0.0015
676.0173	0.004
676.2011	0.0306
676.3849	0.0067
676.5686	0.0468
676.7523	0.0144
676.936	-0.0026
677.1197	-0.0043
677.3034	0.0596
677.487	0.0073
677.6706	0.0223
677.8542	-0.0084
678.0378	-0.0014
678.2214	0.0037
678.405	0.0079
678.5885	0.02
678.772	0.0116
678.9555	0.0011
679.139	0.0104
679.3225	0.0179
679.5059	0.0101
679.6894	0.0025
679.8728	-0.0014
680.0562	0.0284
680.2395	0.029
680.4229	0.0063
680.6062	0.0087
680.7896	0.0032
680.9729	0.0239
681.1562	0.0117
681.3394	-0.0043
681.5227	0.0107
681.7059	0.0154
681.8891	0.013
682.0723	-0.023
682.2555	-0.0028
682.4387	0.0121
682.6218	-0.0041
682.805	0.0017
682.9881	0.0214
683.1712	0.0231
683.3542	0.0325
683.5373	-0.0083
683.7203	-0.0006
683.9034	0.0146
684.0864	0.0029
684.2694	0.0225
684.4523	0.0079
684.6353	0.0054
684.8182	0.0212
685.0011	0.0158
685.184	0.0023
685.3669	0.0206
685.5498	0.0107
685.7326	0.003
685.9154	0.006
686.0982	0.0208
686.281	0.0104
686.4638	0.0259
686.6465	0.013
686.8293	0.0034
687.012	0.007
687.1947	-0.0063
687.3774	0.0061
687.56	-0.0131
687.7427	0.0091
687.9253	-0.0123
688.1079	0.0086
688.2905	-0.0086
688.4731	0.0143
688.6556	0.0068
688.8382	-0.0065
689.0207	0.0089
689.2032	0.014
689.3857	-0.0013
689.5681	-0.016
689.7506	0.0125
689.933	0.0006
690.1154	0.0423
690.2978	0.009
690.4802	0.0218
690.6626	0.0145
690.8449	0.0145
691.0272	0.0116
691.2095	0.0046
691.3918	0.0068
691.5741	0.0054
691.7563	0.0072
691.9386	0.0199
692.1208	0.0032
692.303	0.0112
692.4852	0.0022
692.6673	0.0138
692.8495	-0.0099
693.0316	0.0065
693.2137	0.0163
693.3958	-0.0045
693.5778	0.0165
693.7599	0.0087
693.9419	0.0134
694.1239	0.0175
694.3059	0.0071
694.4879	0.0038
694.6699	0.0144
694.8518	0.0122
695.0337	0.0289
695.2157	0.0054
695.3975	0.0013
695.5794	0.0038
695.7613	-0.0035
695.9431	-0.0023
696.1249	0.0285
696.3067	0.0085
696.4885	0.0231
696.6703	0.021
696.852	0.0104
697.0337	0.0231
697.2154	0.007
697.3971	0.0134
697.5788	0.027
697.7605	-0.0005
697.9421	0.0196
698.1237	0.0161
698.3053	0.0051
698.4869	0.0182
698.6685	-0.0003
698.85	0.0221
699.0315	-0.0123
699.213	0.022
699.3945	0
699.576	0.0062
699.7575	0.0213
699.9389	0.0051
700.1203	0.0028
700.3017	0.0048
700.4831	0.0439
700.6645	0.0332
700.8458	-0.0043
701.0271	0.0293
701.2084	0.0188
701.3897	0.0246
701.571	-0.0166
701.7523	0.0038
701.9335	0.0322
702.1147	0.0198
702.2959	-0.0079
702.4771	0.0109
702.6583	0
702.8394	-0.0033
703.0205	0.0196
703.2016	-0.0245
703.3827	-0.0034
703.5638	-0.0041
703.7449	0.0388
703.9259	0.0307
704.1069	0.0117
704.2879	-0.0046
704.4689	-0.0022
704.6499	0.022
704.8308	0.018
705.0117	0.0198
705.1927	0.0495
705.3735	0.0187
705.5544	0.0184
705.7353	0.0228
705.9161	-0.0409
706.0969	0.0058
706.2777	0.008
706.4585	0.0173
706.6393	0.0119
706.82	0.0112
707.0007	-0.0002
707.1815	-0.0028
707.3621	0.0316
707.5428	0.0147
707.7235	-0.0119
707.9041	0.031
708.0847	0.0005
708.2653	0.0293
708.4459	0.0133
708.6265	0.0277
708.807	0.0045
708.9875	0.0104
709.168	-0.008
709.3485	0.0221
709.529	0.0104
709.7095	-0.0017
709.8899	0.0153
710.0703	0.0233
710.2507	0.0019
710.4311	-0.0296
710.6115	0.0209
710.7918	0.0222
710.9721	0.0174
711.1524	-0.0025
711.3327	-0.0062
711.513	-0.0024
711.6932	0.0021
711.8735	0.0036
712.0537	-0.0203
712.2339	0.0061
712.4141	0.0347
712.5942	-0.009
712.7744	0.0234
712.9545	0.0023
713.1346	0.0336
713.3147	0.0088
713.4947	-0.0125
713.6748	0.0338
713.8548	0.0223
714.0348	0.0256
714.2148	0.0125
714.3948	0.0006
714.5748	0.022
714.7547	0.0236
714.9346	0.0519
715.1145	-0.0085
715.2944	-0.0241
715.4743	0.0314
715.6541	0.0127
715.834	0.0457
716.0138	0.0255
716.1936	0.0168
716.3733	0.0066
716.5531	-0.0194
716.7328	0.0142
716.9126	0.018
717.0923	-0.045
717.2719	0.0315
717.4516	0.0056
717.6312	-0.0224
717.8109	0.0205
717.9905	0.0099
718.1701	-0.0058
718.3496	0.0052
718.5292	0.0092
718.7087	0.0262
718.8882	0.011
719.0677	0.0093
719.2472	0.0303
719.4267	-0.0051
719.6061	0.0104
719.7856	0.0372
719.965	0.0283
720.1443	0.0107
720.3237	0.0032
720.5031	0.014
720.6824	0.0081
720.8617	-0.0078
721.041	0.0202
721.2203	-0.017
721.3995	-0.0053
721.5788	-0.0089
721.758	-0.0008
721.9372	0.0127
722.1164	-0.0072
722.2956	0.0107
722.4747	-0.0013
722.6538	-0.0039
722.8329	0.0377
723.012	0.0174
723.1911	0.006
723.3702	0.0386
723.5492	0
723.7282	0
723.9072	0.0236
724.0862	0.0192
724.2652	-0.0164
724.4441	0.005
724.623	0.0087
724.8019	0.0072
724.9808	0.0206
725.1597	0.0184
725.3385	0.0359
725.5174	0.0007
725.6962	0.0231
725.875	0.0014
726.0538	0.0224
726.2325	0.0327
726.4112	-0.0018
726.59	0.0051
726.7687	-0.0174
726.9474	0.0267
727.126	0.0147
727.3047	0.0056
727.4833	0.0019
727.6619	-0.0102
727.8405	0.0125
728.0191	0.0282
728.1976	0.0181
728.3762	0.0047
728.5547	0.0111
728.7332	0.0063
728.9116	0.0237
729.0901	-0.0065
729.2686	0.0216
729.447	0.0019
729.6254	0.0051
729.8038	0.033
729.9821	0.0121
730.1605	0.0107
730.3388	-0.0078
730.5171	0.0251
730.6954	-0.01
730.8737	0.0131
731.0519	-0.003
731.2302	0.035
731.4084	-0.0077
731.5866	0.0129
731.7648	0.0051
731.9429	0.036
732.1211	0.0144
732.2992	-0.013
732.4773	0.0046
732.6554	-0.0103
732.8335	0.0277
733.0115	0.0032
733.1896	-0.0053
733.3676	0.0249
733.5456	-0.0076
733.7235	0.0043
733.9015	0.017
734.0794	-0.0048
734.2574	-0.0128
734.4353	0.0309
734.6131	0.0017
734.791	0.0054
734.9689	0.0029
735.1467	0.0124
735.3245	0.0274
735.5023	0.0197
735.68	0.0044
735.8578	0.0038
736.0355	0.0089
736.2132	-0.0176
736.3909	0.0135
736.5686	0.0044
736.7463	0.0076
736.9239	0.0434
737.1015	0.006
737.2791	0.0169
737.4567	0.0159
737.6343	0.016
737.8118	0.0333
737.9894	0.0238
738.1669	0.0067
738.3444	0.0421
738.5218	-0.0029
738.6993	0.0139
738.8767	0.0038
739.0541	0.0104
739.2315	0.0045
739.4089	0.0177
739.5863	-0.0066
739.7636	0.0028
739.9409	0.0085
740.1182	0.0177
740.2955	0.0012
740.4728	0.0214
740.65	-0.0092
740.8272	0.011
741.0044	-0.0026
741.1816	0.0149
741.3588	-0.009
741.5359	0.0086
741.7131	0.0153
741.8902	0.0101
742.0673	-0.0118
742.2444	0.0447
742.4214	0.0261
742.5985	0.0005
742.7755	0.0204
742.9525	-0.0224
743.1295	-0.0376
743.3064	0.0039
743.4834	0.0136
743.6603	0.061
743.8372	-0.031
744.0141	0.0634
744.191	0.0134
744.3678	-0.0283
744.5446	0.0018
744.7215	-0.0096
744.8982	0.0266
745.075	0.0507
745.2518	0
745.4285	0.0171
745.6052	-0.0371
745.7819	0.0085
745.9586	0.0105
746.1353	-0.0065
746.3119	0.0115
746.4885	0.0239
746.6651	0.0163
746.8417	0.0051
747.0183	0.0468
747.1948	0.0022
747.3714	0.0424
747.5479	0.0441
747.7244	-0.0171
747.9008	0.0119
748.0773	0.0146
748.2537	0.0303
748.4301	0.0322
748.6065	-0.0013
748.7829	-0.0159
748.9593	0
749.1356	0.0004
749.3119	0.0116
749.4882	0.0183
749.6645	0.0226
749.8408	0.0314
750.017	0.0071
750.1933	-0.009
750.3695	0.0371
750.5457	0.0106
750.7218	-0.006
750.898	0.0214
751.0741	0.0107
751.2502	0.031
751.4263	-0.0019
751.6024	0.0108
751.7784	-0.0069
751.9545	-0.0011
752.1305	-0.0071
752.3065	0.0024
752.4825	0.0044
752.6584	0.0131
752.8344	0.0086
753.0103	-0.0124
753.1862	-0.0063
753.3621	-0.0032
753.5379	-0.005
753.7138	0.011
753.8896	-0.0045
754.0654	0.0019
754.2412	0.0334
754.417	0.0295
754.5927	-0.005
754.7685	0.007
754.9442	0.0351
755.1199	0.0181
755.2956	0.031
755.4712	0.0087
755.6469	0.0087
755.8225	0.0136
755.9981	0.0159
756.1736	-0.0032
756.3492	0.0017
756.5248	0.0235
756.7003	0.0022
756.8758	0.0102
757.0513	0.0069
757.2267	0.009
757.4022	0.0066
757.5776	0.0075
757.753	0.0251
757.9284	0.021
758.1038	0.0351
758.2791	0.0087
758.4545	-0.0178
758.6298	0.007
758.8051	0.0234
758.9803	0.038
759.1556	0.0116
759.3308	0.0173
759.506	0.0071
759.6812	0.013
759.8564	0.0028
760.0316	0.0091
760.2067	0.0241
760.3819	0.0083
760.557	0.0111
760.732	0.0112
760.9071	0.0301
761.0821	-0.0065
761.2572	0.0271
761.4322	0.0175
761.6072	0.0058
761.7821	-0.029
761.9571	0.0405
762.132	-0.0015
762.3069	0.0299
762.4818	0.0263
762.6567	-0.0054
762.8316	0.0032
763.0064	0.0293
763.1812	0.0118
763.356	-0.0014
763.5308	0.015
763.7055	0.0022
763.8803	-0.0102
764.055	0.0038
764.2297	0.0021
764.4044	0.0011
764.579	0.0093
764.7537	0.0081
764.9283	0.0115
765.1029	0.0132
765.2775	0.0338
765.4521	0.0205
765.6266	0.0111
765.8011	0.0212
765.9756	0.0132
766.1501	-0.0029
766.3246	0.0028
766.4991	0.0127
766.6735	0.0545
766.8479	0.0373
767.0223	0.0094
767.1967	0.0173
767.371	0.0485
767.5454	0.0071
767.7197	0.0345
767.894	0.0127
768.0683	0.0371
768.2425	0.0242
768.4168	0.024
768.591	-0.0185
768.7652	0.0092
768.9394	-0.0231
769.1135	0.0141
769.2877	0.0153
769.4618	0.0432
769.6359	0.0262
769.81	0.0254
769.984	0.0027
770.1581	0.0015
770.3321	0.0467
770.5061	0.0062
770.6801	0.0191
770.8541	0.0098
771.028	0.05
771.202	0.0257
771.3759	0.0251
771.5498	0.0237
771.7236	0.0032
771.8975	0.0507
772.0713	0.0168
772.2451	0.0069
772.4189	0.0261
772.5927	-0.0161
772.7665	-0.0247
772.9402	0.0424
773.1139	-0.0005
773.2876	0.0203
773.4613	0.0023
773.635	0.0334
773.8086	0.025
773.9822	0.0646
774.1558	0.0448
774.3294	0.0303
774.503	-0.0034
774.6765	0.0097
774.8501	-0.0107
775.0236	-0.011
775.1971	0.0485
775.3705	0.0159
775.544	0.0286
775.7174	0.0193
775.8908	0.0234
776.0642	0.0561
776.2376	0.0494
776.4109	-0.0076
776.5843	0.0018
776.7576	0.0018
776.9309	0.0384
777.1041	-0.0595
777.2774	0.0051
777.4506	0.0348
777.6238	0.0216
777.797	0.0254
777.9702	0.0147
778.1434	0.0184
778.3165	-0.0073
778.4896	-0.0376
778.6627	0.015
778.8358	-0.0046
779.0089	-0.0124
779.1819	0.0446
779.3549	0.0082
779.5279	-0.0178
779.7009	0.0323
779.8739	0.0378
780.0468	0.0115
780.2197	0.0068
780.3926	-0.0006
780.5655	0.0242
780.7384	-0.0355
780.9112	0.0347
781.0841	0.0243
781.2569	0.011
781.4297	0.0088
781.6024	0.0331
781.7752	0.0384
781.9479	0.0386
782.1206	0.0064
782.2933	-0.0078
782.466	0.013
782.6386	0.0122
782.8113	0.0053
782.9839	-0.0092
783.1565	0.0152
783.329	0.0154
783.5016	0.0375
783.6741	0.0106
783.8466	0.0475
784.0191	0.0139
784.1916	-0.0031
784.3641	-0.0211
784.5365	0.0308
784.7089	-0.0219
784.8813	0.0588
785.0537	0.0233
785.2261	0.0315
785.3984	0.042
785.5707	-0.0152
785.743	0.0418
785.9153	0.0038
786.0876	-0.0229
786.2598	0.0207
786.432	0.0001
786.6042	0.0916
786.7764	-0.0102
786.9486	-0.0142
787.1207	0.0581
787.2928	0.0427
787.4649	-0.0424
787.637	0.0305
787.8091	-0.0104
787.9811	0.0465
788.1532	0.0035
788.3252	0.0012
788.4972	0.0023
788.6691	0.0095
788.8411	-0.0101
789.013	0.0239
789.1849	0.0058
789.3568	0.0563
789.5287	0.0228
789.7005	-0.0037
789.8723	-0.0119
790.0442	-0.0416
790.2159	0.0063
790.3877	0.0372
790.5595	0.0542
790.7312	0.0312
790.9029	0.0287
791.0746	-0.0198
791.2463	-0.0555
791.4179	0.0273
791.5896	0.0212
791.7612	0.0623
791.9328	0.0298
792.1044	0.0247
792.2759	-0.0675
792.4474	0.0693
792.619	-0.0044
792.7905	0.0211
792.9619	0.0448
793.1334	0.0743
793.3048	0.0847
793.4762	-0.014
793.6476	-0.0116
793.819	-0.0188
793.9904	0.0043
794.1617	-0.0086
794.333	0.0071
794.5043	0.0158
794.6756	0.0094
794.8469	0.0087
795.0181	-0.0012
795.1893	0.0303
795.3605	0.0505
795.5317	0.0212
795.7029	-0.0041
795.874	-0.0027
796.0452	0.0273
796.2163	0.0568
796.3873	0.0787
796.5584	0.037
796.7294	0.049
796.9005	-0.0227
797.0715	-0.0077
797.2425	0.0319
797.4134	0.0402
797.5844	0.039
797.7553	-0.042
797.9262	0.0469
798.0971	0.0369
798.2679	-0.0035
798.4388	0.039
798.6096	-0.0251
798.7804	0.0278
798.9512	0.0071
799.122	0.0118
799.2927	0.0559
799.4635	-0.0697
799.6342	-0.0545
799.8049	-0.0036
799.9755	-0.0387
800.1462	0.0283
800.3168	0.0148
800.4874	-0.1637
800.658	-0.0654
800.8286	0.0256
800.9991	0.0344
801.1696	0.0365
801.3402	-0.0382
801.5106	-0.0263
801.6811	0.0258
801.8516	0.0456
802.022	0.0673
802.1924	-0.0471
802.3628	-0.0076
802.5332	0.1096
802.7035	0.1154
802.8739	0.043
803.0442	-0.0591
803.2145	0.0168
803.3847	0.0634
803.555	0.0781
803.7252	-0.0086
803.8954	0.022
804.0656	0.0497
804.2358	-0.0331
804.4059	0.0669
804.5761	0.1318
804.7462	0.0986
804.9163	0.0396
805.0864	-0.0119
805.2564	0.0059
805.4264	-0.0144
805.5965	0.0292
805.7665	-0.0307
805.9364	0.0208
806.1064	-0.0046
806.2763	0.0521
806.4462	0.0029
806.6161	0.0463
806.786	-0.0127
806.9559	0.0376
807.1257	-0.046
807.2955	0.0069
807.4653	0.0025
807.6351	0.0745
807.8048	0.007
807.9746	0.0192
808.1443	-0.0386
808.314	0.0656
808.4837	0.0688
808.6533	0.0481
808.8229	0.0469
808.9926	0.0414
809.1622	0.0267
809.3317	-0.0517
809.5013	0.0246
809.6708	-0.0272
809.8403	-0.0047
810.0098	0.049
810.1793	-0.0102
810.3488	0.0219
810.5182	0.1045
810.6876	0.083
810.857	0.0069
811.0264	0.0002
811.1958	0.1031
811.3651	-0.025
811.5344	0.0386
811.7037	0.1357
811.873	0.091
812.0422	-0.1471
812.2115	0.0417
812.3807	-0.0983
812.5499	0.041
812.7191	0.1302
812.8882	-0.006
813.0574	0.0355
813.2265	0.1149
813.3956	-0.0121
813.5646	0.0583
813.7337	0.0222
813.9027	0.0277
814.0718	0.0338
814.2407	0.0215
814.4097	0.0608
814.5787	0.0837
814.7476	0.0711
814.9165	-0.0376
815.0854	0.0215
815.2543	-0.0547
815.4232	0.0208
815.592	0.0566
815.7608	-0.097
815.9296	-0.0902
816.0984	0.0146
816.2671	-0.0906
816.4359	0.0512
816.6046	-0.0028
816.7733	-0.078
816.942	0.0083
817.1106	0.1003
817.2793	-0.1021
817.4479	-0.0091
817.6165	0.0002
817.785	0.1308
817.9536	-0.1375
818.1221	0.0551
818.2906	-0.1673
818.4591	0.0024
818.6276	0.0359
818.7961	-0.0619
818.9645	0.0874
819.1329	-0.0473
819.3013	-0.0728
819.4697	-0.0837
819.638	0.0479
819.8064	-0.1193
819.9747	-0.0664
820.143	-0.163
820.3113	0.068
820.4795	0.0226
820.6477	0.1187
820.816	0.0711
820.9842	0.1122
821.1523	0.0002
821.3205	0.0703
821.4886	-0.0483
821.6567	-0.007
821.8248	0.1583
821.9929	-0.1988
822.1609	-0.0679
822.329	0.064
822.497	0.1024
822.665	-0.0156
822.833	-0.0181
823.0009	0.0486
823.1688	0.0221
823.3367	-0.1441
823.5046	0.1043
823.6725	0.0069
823.8404	-0.0138
824.0082	0.0408
824.176	-0.0046
824.3438	0.4484
824.5116	-0.0595
824.6793	0.1442
824.847	0.0631
825.0147	-0.1141
825.1824	0.0358
825.3501	0.0004
825.5177	-0.0674
825.6854	-0.1577
825.853	0.0217
826.0206	-0.0875
826.1881	0.1357
826.3557	0.095
826.5232	0.1247
826.6907	0.0745
826.8582	-0.0205
827.0257	0.0992
827.1931	0.1743
827.3605	-0.0221
827.528	-0.1052
827.6953	-0.2184
827.8627	-0.142
828.03	0.2877
828.1974	0.007
828.3647	0.0196
828.532	0.0734
828.6992	0.1352
828.8665	-0.2084
829.0337	0.1062
829.2009	-0.104
829.3681	0.0368
829.5352	-0.3538
829.7024	0.1625
829.8695	0.0791
830.0366	0.1179
830.2037	0.0338
830.3707	0.0458
830.5378	0.1136
830.7048	-0.0914
830.8718	0.2661
831.0388	-0.2745
831.2057	0.9088
831.3727	-0.2653
831.5396	-0.0911
831.7065	-0.9864
831.8734	0.2351
832.0402	0.2359
832.2071	-0.725
832.3739	-0.0635
832.5407	-1.4516
832.7075	-0.4951
832.8742	0.2252
833.041	0.1245
833.2077	-0
833.3744	0.1008
833.541	0.0654
833.7077	-0.1597
833.8743	0.2125
834.0409	0.2054
834.2075	0.0791
834.3741	-0.2379
834.5407	0.0203
834.7072	-0.0115
834.8737	0.1005
835.0402	0.4178
835.2067	0.0725
835.3731	-0.0599
835.5395	-0.0034
835.706	-0.2429
835.8723	0.2184
836.0387	0.3727
836.2051	0.5115
836.3714	-0.0629
836.5377	0.212
836.704	0.1576
836.8703	-0.0356
837.0365	-0.5093
837.2027	0.3849
837.3689	0.1096
837.5351	1.2524
837.7013	-0
837.8674	0.5665
838.0335	0.0801
838.1997	0.05
838.3657	-0
838.5318	-0.3235
838.6978	0.268
838.8639	-0.3593
839.0299	0.0513
839.1958	0.2394
839.3618	-0.1051
839.5277	0.0545
839.6937	0.2479
839.8596	0.3412
840.0254	0.2427
840.1913	-0
840.3571	-0.3361
840.523	-0
840.6888	-0.0056
840.8545	-0.6457
841.0203	-0.0729
841.186	-0.1434
841.3517	-0.2637
841.5174	-0.0201
841.6831	0.1201
841.8488	-0.1478
842.0144	-0
842.18	0.8362
842.3456	-0.5582
842.5112	-0
842.6767	-0.0658
842.8422	-0.2328
843.0077	0.2783
843.1732	0.2166
843.3387	0.9689
843.5042	-0
843.6696	-0
843.835	-0.1378
844.0004	-0.0909
844.1657	-0
844.3311	-0
844.4964	-0
844.6617	1.0348
844.827	0.2937
844.9923	0.0411
845.1575	-0
845.3227	-0.2161
845.4879	-0.2274
845.6531	-0
845.8183	0.1791
845.9834	-0
846.1485	0.2188
846.3136	0.1357
846.4787	0.0364
846.6438	0.1238
846.8088	-0
846.9738	-0
847.1388	0.1264
847.3038	0.0777
847.4687	-0
847.6337	-0.2654
847.7986	-0.3034
847.9635	-0.0949
848.1284	-0
848.2932	0.1709
848.458	-0
848.6228	-0
848.7876	-0
848.9524	0.9569
849.1172	-1.6232
849.2819	-0
849.4466	0.6373
849.6113	0.1436
849.7759	-0
849.9406	0.077
850.1052	-1.4288
850.2698	-0
850.4344	-0.4912
850.599	0.4025
850.7635	0.7746
850.928	0.4225
851.0925	0.1825
851.257	0.223
851.4215	-0
851.5859	0.0763
851.7503	-0
851.9147	0.7659
852.0791	0.9636
852.2434	0.2731
852.4078	0.1273
852.5721	-0
852.7364	0.1206
852.9007	-0.1142
853.0649	-0
853.2291	0.1304
853.3934	0.5135
853.5575	0.0127
853.7217	0.5006
853.8859	-0
854.05	-0.6969
854.2141	-0
854.3782	0.2466
854.5423	-0.2097
854.7063	-0.0264
854.8703	0.262
855.0343	0.0094
855.1983	1.2162
855.3623	-0.0834
855.5262	-0
855.6901	0.0951
855.854	0.2813
856.0179	1.0427
856.1818	0.1794
856.3456	0.3122
856.5094	-0
856.6732	0.0038
856.837	-1.0861
857.0008	-0
857.1645	-0.4365
857.3282	-0.632
857.4919	-0.0439
857.6556	-0
857.8192	0.0597
857.9828	0.0362
858.1465	0.3358
858.31	0.0707
858.4736	-0.6107
858.6372	-0.4255
858.8007	0.084
858.9642	0.3282
859.1277	-0
859.2911	-0.3696
859.4546	-0
859.618	0.1006
859.7814	-0.3084
859.9448	-0
860.1081	-0
860.2715	-1.3955
860.4348	-0.0241
860.5981	0.2128
860.7614	-0.2479
860.9246	-0.0705
861.0879	0.3434
861.2511	-0.23
861.4143	-0
861.5774	-0.3458
861.7406	0.2372
861.9037	-0.2875
862.0668	-0.4357
862.2299	0.1889
862.393	-0.1369
862.556	-0.1537
862.7191	-0.643
862.8821	0.2557
863.0451	0.0767
863.208	0.5557
863.371	-0.1633
863.5339	0.2383
863.6968	-0
863.8597	-0
864.0225	0.2528
864.1854	-0.3331
864.3482	-0.4007
864.511	-0.2607
864.6737	-0
864.8365	0.5984
864.9992	-0
865.1619	-0.6101
865.3246	-1.8785
865.4873	-0.4102
865.65	-0
865.8126	-0
865.9752	0.1235
866.1378	-0
866.3004	0.4349
866.4629	-1.5665
866.6254	-0
866.7879	-0
866.9504	-0.5325
867.1129	-0.2072
867.2753	0.1582
867.4377	0.4349
867.6001	-0.2923
867.7625	0.1743
867.9249	-0.0354
868.0872	-0.1405
868.2495	0.4672
868.4118	1.1121
868.5741	-0.3094
868.7363	-0.4441
868.8986	-0.5732
869.0608	0.3714
869.223	0.0723
869.3851	-0
869.5473	0.0273
869.7094	-0
869.8715	-0.0989
870.0336	0.2062
870.1957	-0.2793
870.3577	-0.1213
870.5197	0.0881
870.6817	-0.6934
870.8437	0.4612
871.0057	0.5652
871.1676	0.1378
871.3295	0.0027
871.4914	-1.6232
871.6533	-0.4226
871.8151	0.8852
871.977	-0.0745
872.1388	0.195
872.3006	0.3594
872.4623	0.0055
872.6241	0.4072
872.7858	-0
872.9475	-0
873.1092	0.0009
873.2709	-0
873.4325	-1.5013
873.5941	-0
873.7557	-0
873.9173	-0
874.0789	0.4156
874.2404	-0
874.4019	-0.169
874.5634	-0
874.7249	0.1593
874.8863	-0.4074
875.0478	-0.2391
875.2092	2.2628
875.3706	0.3701
875.5319	0.5919
875.6933	-0
875.8546	-0.3984
876.0159	0.1452
876.1772	0.8054
876.3385	-0
876.4997	0.282
876.6609	-0
876.8221	-0
876.9833	-0.0888
877.1445	0.4471
877.3056	-0.7492
877.4667	-0.4876
877.6278	0.0713
877.7889	0.0552
877.9499	0.8598
878.111	-0.6524
878.272	-0.0504
878.433	-0
878.5939	0.6503
878.7549	-0
878.9158	-0
879.0767	-0
879.2376	0.4466
879.3984	0.5006
879.5593	0.5245
879.7201	-1.6734
879.8809	-0
880.0417	0.0009
880.2024	-0.1253
880.3632	-0.2883
880.5239	0.282
880.6846	-0
880.8452	-0.2649
881.0059	-0
881.1665	0.2488
881.3271	0.4839
881.4877	1.5192
881.6483	-1.4771
881.8088	-0
881.9693	-0
882.1298	-0
882.2903	-0
