Data from D4ACN5uM420nmA_Absorbance_14-37-08-516.txt Node
Date: Fri Feb 21 14:37:08 GMT 2025
User: LASERRRRR
Spectrometer: FLMT03099
Trigger mode: 0
Integration Time (sec): 1.500000E-2
Scans to average: 1
Electric dark correction enabled: true
Nonlinearity correction enabled: false
Boxcar width: 0
XAxis mode: Wavelengths
Number of Pixels in Spectrum: 3648
>>>>>Begin Spectral Data<<<<<
179.3399	-0
179.5586	-0
179.7771	-0
179.9957	-0.1102
180.2143	-0
180.4329	-0.0881
180.6514	-0
180.8699	-0.3401
181.0885	-0.2609
181.307	-0.1053
181.5255	-0
181.744	-0
181.9625	0.6798
182.181	-0.0278
182.3994	1.4048
182.6179	-0.1591
182.8363	1.7143
183.0547	-0.0301
183.2732	0.1121
183.4916	0.2816
183.71	0.1936
183.9284	0.1543
184.1467	0.1119
184.3651	0.0652
184.5835	0.1794
184.8018	0.0159
185.0201	0.0686
185.2385	0.2075
185.4568	0.1792
185.6751	0.2166
185.8934	0.2214
186.1117	0.3677
186.3299	0.2316
186.5482	0.2822
186.7664	0.1865
186.9847	0.0008
187.2029	-0.0359
187.4211	-0.003
187.6393	0.3066
187.8575	0.0437
188.0757	0.1888
188.2939	-0.0032
188.512	0.1097
188.7302	0.2934
188.9483	0.4966
189.1665	0.5343
189.3846	0.249
189.6027	0.1032
189.8208	0.342
190.0389	0.1886
190.257	0.1436
190.475	0.0045
190.6931	-0.0423
190.9111	0.5934
191.1292	0.2573
191.3472	0.1891
191.5652	0.2126
191.7832	0.2653
192.0012	0.1738
192.2192	0.4211
192.4371	0.2603
192.6551	0.2085
192.873	0.0818
193.091	0.1797
193.3089	0.176
193.5268	0.2757
193.7447	0.1964
193.9626	0.1939
194.1805	0.2956
194.3984	0.212
194.6162	0.2262
194.8341	0.3454
195.0519	0.2506
195.2697	0.2214
195.4875	0.2615
195.7054	0.2358
195.9231	0.2691
196.1409	0.3631
196.3587	0.2561
196.5765	0.3101
196.7942	0.3117
197.012	0.3153
197.2297	0.3664
197.4474	0.3815
197.6651	0.32
197.8828	0.3337
198.1005	0.379
198.3182	0.374
198.5358	0.3382
198.7535	0.3503
198.9711	0.3591
199.1888	0.3774
199.4064	0.3331
199.624	0.438
199.8416	0.4237
200.0592	0.3465
200.2767	0.3813
200.4943	0.4207
200.7119	0.3555
200.9294	0.3703
201.1469	0.3844
201.3645	0.4255
201.582	0.4029
201.7995	0.3751
202.017	0.4579
202.2344	0.4172
202.4519	0.4165
202.6694	0.3736
202.8868	0.4143
203.1042	0.4221
203.3217	0.3895
203.5391	0.3848
203.7565	0.3415
203.9739	0.3763
204.1913	0.371
204.4086	0.371
204.626	0.3711
204.8433	0.3618
205.0607	0.3457
205.278	0.3559
205.4953	0.3513
205.7126	0.3256
205.9299	0.3094
206.1472	0.3353
206.3644	0.3423
206.5817	0.3321
206.7989	0.3529
207.0162	0.3286
207.2334	0.3385
207.4506	0.2827
207.6678	0.3093
207.885	0.2749
208.1022	0.3202
208.3194	0.2931
208.5365	0.3075
208.7537	0.2874
208.9708	0.2767
209.1879	0.2751
209.405	0.2839
209.6222	0.2404
209.8392	0.3004
210.0563	0.2707
210.2734	0.2754
210.4905	0.2729
210.7075	0.259
210.9245	0.2567
211.1416	0.2629
211.3586	0.2532
211.5756	0.2282
211.7926	0.2724
212.0096	0.2635
212.2265	0.2559
212.4435	0.2756
212.6604	0.2522
212.8774	0.2323
213.0943	0.2463
213.3112	0.2585
213.5281	0.2398
213.745	0.2392
213.9619	0.2381
214.1788	0.2573
214.3956	0.2528
214.6125	0.2499
214.8293	0.2354
215.0461	0.253
215.2629	0.2464
215.4798	0.2372
215.6965	0.2368
215.9133	0.2221
216.1301	0.2447
216.3469	0.2615
216.5636	0.2458
216.7803	0.2439
216.9971	0.2441
217.2138	0.2461
217.4305	0.2566
217.6472	0.2391
217.8639	0.2645
218.0805	0.2533
218.2972	0.257
218.5138	0.245
218.7305	0.2602
218.9471	0.2441
219.1637	0.248
219.3803	0.2539
219.5969	0.246
219.8135	0.2686
220.0301	0.2498
220.2466	0.249
220.4632	0.2505
220.6797	0.2542
220.8962	0.2496
221.1127	0.2632
221.3292	0.263
221.5457	0.2724
221.7622	0.2583
221.9787	0.2855
222.1951	0.2747
222.4116	0.281
222.628	0.2732
222.8444	0.2846
223.0608	0.2713
223.2772	0.288
223.4936	0.2793
223.71	0.2781
223.9264	0.2859
224.1427	0.2834
224.3591	0.2876
224.5754	0.2956
224.7917	0.2914
225.008	0.3033
225.2243	0.2963
225.4406	0.2984
225.6569	0.3045
225.8732	0.2984
226.0894	0.2991
226.3057	0.3176
226.5219	0.3043
226.7381	0.3209
226.9543	0.3161
227.1705	0.3163
227.3867	0.3317
227.6029	0.3251
227.8191	0.3296
228.0352	0.3408
228.2513	0.3498
228.4675	0.3431
228.6836	0.3365
228.8997	0.3352
229.1158	0.3459
229.3319	0.3569
229.548	0.3623
229.764	0.3664
229.9801	0.3711
230.1961	0.3779
230.4121	0.367
230.6282	0.3775
230.8442	0.3852
231.0602	0.3796
231.2761	0.3781
231.4921	0.3858
231.7081	0.3979
231.924	0.4026
232.14	0.4123
232.3559	0.4116
232.5718	0.4054
232.7877	0.4045
233.0036	0.4184
233.2195	0.4204
233.4353	0.4232
233.6512	0.425
233.867	0.4215
234.0829	0.4212
234.2987	0.433
234.5145	0.4392
234.7303	0.4377
234.9461	0.4384
235.1619	0.4489
235.3776	0.4455
235.5934	0.4313
235.8091	0.4528
236.0249	0.4484
236.2406	0.4439
236.4563	0.4481
236.672	0.4413
236.8877	0.4482
237.1034	0.4513
237.319	0.4495
237.5347	0.4476
237.7503	0.4574
237.966	0.4655
238.1816	0.4572
238.3972	0.4633
238.6128	0.4664
238.8284	0.468
239.0439	0.4709
239.2595	0.4612
239.475	0.4608
239.6906	0.4617
239.9061	0.4649
240.1216	0.4637
240.3371	0.4723
240.5526	0.4575
240.7681	0.4692
240.9836	0.4595
241.199	0.4597
241.4145	0.4581
241.6299	0.449
241.8453	0.4571
242.0607	0.448
242.2761	0.4437
242.4915	0.4297
242.7069	0.4271
242.9223	0.4277
243.1376	0.4198
243.353	0.4003
243.5683	0.4039
243.7836	0.407
243.9989	0.3914
244.2142	0.3886
244.4295	0.3872
244.6448	0.3735
244.86	0.3651
245.0753	0.3597
245.2905	0.3535
245.5057	0.3518
245.721	0.3408
245.9362	0.3337
246.1514	0.3305
246.3665	0.3269
246.5817	0.3166
246.7969	0.3113
247.012	0.3028
247.2271	0.3032
247.4423	0.2988
247.6574	0.2969
247.8725	0.2784
248.0876	0.2803
248.3026	0.2775
248.5177	0.2611
248.7328	0.2606
248.9478	0.2557
249.1628	0.2574
249.3779	0.2487
249.5929	0.2421
249.8079	0.2464
250.0228	0.2373
250.2378	0.2336
250.4528	0.2338
250.6677	0.2249
250.8827	0.2218
251.0976	0.2196
251.3125	0.2261
251.5274	0.214
251.7423	0.2143
251.9572	0.2099
252.172	0.2155
252.3869	0.2151
252.6017	0.2046
252.8166	0.2035
253.0314	0.1999
253.2462	0.2013
253.461	0.1962
253.6758	0.1958
253.8906	0.2
254.1053	0.1951
254.3201	0.1966
254.5348	0.1904
254.7496	0.1861
254.9643	0.1942
255.179	0.1929
255.3937	0.1911
255.6083	0.198
255.823	0.1878
256.0377	0.1872
256.2523	0.1831
256.467	0.1922
256.6816	0.1822
256.8962	0.1857
257.1108	0.188
257.3254	0.1902
257.54	0.1818
257.7545	0.1833
257.9691	0.1831
258.1836	0.1809
258.3981	0.1869
258.6127	0.1743
258.8272	0.1886
259.0417	0.1792
259.2561	0.1806
259.4706	0.186
259.6851	0.1859
259.8995	0.1815
260.114	0.1838
260.3284	0.1804
260.5428	0.1788
260.7572	0.1759
260.9716	0.1889
261.186	0.1789
261.4003	0.1795
261.6147	0.1799
261.829	0.1831
262.0433	0.1895
262.2577	0.181
262.472	0.1815
262.6863	0.1899
262.9005	0.1842
263.1148	0.1785
263.3291	0.187
263.5433	0.1859
263.7576	0.1835
263.9718	0.1882
264.186	0.1872
264.4002	0.1892
264.6144	0.1928
264.8286	0.1909
265.0427	0.1849
265.2569	0.1944
265.471	0.1896
265.6851	0.1996
265.8993	0.1934
266.1134	0.1906
266.3275	0.1909
266.5415	0.1899
266.7556	0.1969
266.9697	0.1964
267.1837	0.1951
267.3978	0.1933
267.6118	0.1913
267.8258	0.1905
268.0398	0.1958
268.2538	0.1932
268.4677	0.1843
268.6817	0.1911
268.8957	0.1848
269.1096	0.1848
269.3235	0.1888
269.5374	0.19
269.7514	0.1899
269.9652	0.1836
270.1791	0.1846
270.393	0.1908
270.6068	0.1887
270.8207	0.1847
271.0345	0.1863
271.2483	0.1806
271.4622	0.191
271.676	0.1902
271.8897	0.183
272.1035	0.1902
272.3173	0.1881
272.531	0.1862
272.7448	0.188
272.9585	0.1858
273.1722	0.1855
273.3859	0.1875
273.5996	0.1908
273.8133	0.1874
274.0269	0.1876
274.2406	0.1904
274.4542	0.1889
274.6679	0.1936
274.8815	0.1993
275.0951	0.2009
275.3087	0.1994
275.5223	0.1901
275.7358	0.2002
275.9494	0.1971
276.1629	0.1947
276.3765	0.1967
276.59	0.1938
276.8035	0.1986
277.017	0.2012
277.2305	0.2061
277.444	0.2021
277.6574	0.1986
277.8709	0.2111
278.0843	0.2037
278.2978	0.2038
278.5112	0.2034
278.7246	0.202
278.938	0.2012
279.1513	0.2012
279.3647	0.2007
279.5781	0.2035
279.7914	0.2
280.0047	0.2023
280.2181	0.2016
280.4314	0.1953
280.6447	0.1994
280.8579	0.1888
281.0712	0.191
281.2845	0.1987
281.4977	0.1927
281.711	0.1913
281.9242	0.1914
282.1374	0.1961
282.3506	0.1941
282.5638	0.1984
282.7769	0.1934
282.9901	0.1927
283.2033	0.1948
283.4164	0.1938
283.6295	0.1923
283.8426	0.1886
284.0557	0.1922
284.2688	0.1934
284.4819	0.186
284.695	0.196
284.908	0.1896
285.1211	0.1943
285.3341	0.1838
285.5471	0.1911
285.7601	0.1945
285.9731	0.191
286.1861	0.1965
286.3991	0.1959
286.612	0.1905
286.825	0.2022
287.0379	0.1925
287.2508	0.1934
287.4637	0.1889
287.6766	0.1959
287.8895	0.1888
288.1024	0.1897
288.3152	0.1922
288.5281	0.1901
288.7409	0.1953
288.9538	0.1896
289.1666	0.1917
289.3794	0.1927
289.5922	0.1932
289.8049	0.1911
290.0177	0.1939
290.2304	0.1884
290.4432	0.1951
290.6559	0.1994
290.8686	0.1902
291.0813	0.1942
291.294	0.1868
291.5067	0.1929
291.7194	0.1929
291.932	0.1866
292.1447	0.189
292.3573	0.1945
292.5699	0.1906
292.7825	0.1908
292.9951	0.1902
293.2077	0.1895
293.4203	0.1924
293.6328	0.1914
293.8454	0.1902
294.0579	0.1909
294.2704	0.191
294.4829	0.1928
294.6954	0.1869
294.9079	0.1926
295.1204	0.1844
295.3328	0.2009
295.5453	0.1959
295.7577	0.1971
295.9701	0.1949
296.1825	0.1926
296.3949	0.1912
296.6073	0.19
296.8197	0.1896
297.0321	0.1933
297.2444	0.1841
297.4567	0.1895
297.6691	0.19
297.8814	0.1913
298.0937	0.189
298.306	0.1898
298.5182	0.1913
298.7305	0.1867
298.9428	0.187
299.155	0.1864
299.3672	0.1921
299.5794	0.1908
299.7916	0.1913
300.0038	0.1888
300.216	0.1902
300.4282	0.1869
300.6403	0.1946
300.8525	0.1897
301.0646	0.1923
301.2767	0.1909
301.4888	0.191
301.7009	0.1894
301.913	0.1957
302.125	0.1938
302.3371	0.1939
302.5491	0.193
302.7612	0.198
302.9732	0.1925
303.1852	0.1989
303.3972	0.194
303.6092	0.1895
303.8211	0.1848
304.0331	0.1899
304.245	0.1913
304.457	0.1857
304.6689	0.1916
304.8808	0.1831
305.0927	0.1949
305.3046	0.187
305.5164	0.1851
305.7283	0.1848
305.9401	0.173
306.152	0.1854
306.3638	0.1838
306.5756	0.1858
306.7874	0.1786
306.9992	0.181
307.2109	0.1771
307.4227	0.1722
307.6344	0.179
307.8462	0.1691
308.0579	0.1738
308.2696	0.1711
308.4813	0.1764
308.693	0.163
308.9046	0.1714
309.1163	0.1684
309.328	0.1632
309.5396	0.1643
309.7512	0.1611
309.9628	0.1587
310.1744	0.1608
310.386	0.1549
310.5976	0.1593
310.8091	0.1568
311.0207	0.1588
311.2322	0.1475
311.4437	0.1509
311.6552	0.1516
311.8667	0.1558
312.0782	0.1478
312.2897	0.1513
312.5012	0.1482
312.7126	0.1512
312.924	0.1483
313.1355	0.1475
313.3469	0.1455
313.5583	0.1455
313.7696	0.1349
313.981	0.146
314.1924	0.1401
314.4037	0.1422
314.6151	0.1397
314.8264	0.1443
315.0377	0.1436
315.249	0.1501
315.4603	0.1433
315.6716	0.1414
315.8828	0.1444
316.0941	0.1459
316.3053	0.1315
316.5165	0.1458
316.7277	0.1388
316.9389	0.1386
317.1501	0.1373
317.3613	0.136
317.5724	0.1395
317.7836	0.1343
317.9947	0.1347
318.2058	0.1408
318.417	0.1397
318.6281	0.1399
318.8391	0.1393
319.0502	0.1373
319.2613	0.1314
319.4723	0.1338
319.6834	0.1403
319.8944	0.1372
320.1054	0.1365
320.3164	0.1369
320.5274	0.1415
320.7383	0.1412
320.9493	0.1329
321.1602	0.1341
321.3712	0.1367
321.5821	0.1296
321.793	0.1454
322.0039	0.1406
322.2148	0.1355
322.4257	0.134
322.6365	0.1302
322.8474	0.1402
323.0582	0.1431
323.269	0.1367
323.4798	0.1456
323.6906	0.1368
323.9014	0.1393
324.1122	0.1365
324.3229	0.1441
324.5337	0.14
324.7444	0.1372
324.9551	0.1417
325.1658	0.1391
325.3765	0.1428
325.5872	0.1416
325.7979	0.1382
326.0085	0.1372
326.2192	0.1393
326.4298	0.1453
326.6404	0.15
326.851	0.1404
327.0616	0.1457
327.2722	0.1459
327.4828	0.1421
327.6933	0.1481
327.9039	0.1469
328.1144	0.1411
328.3249	0.1475
328.5354	0.1508
328.7459	0.1459
328.9564	0.1455
329.1669	0.1512
329.3773	0.1506
329.5878	0.1484
329.7982	0.1522
330.0086	0.1591
330.219	0.1425
330.4294	0.1546
330.6398	0.1492
330.8502	0.1553
331.0605	0.1504
331.2708	0.1475
331.4812	0.1529
331.6915	0.1534
331.9018	0.1526
332.1121	0.1604
332.3224	0.1501
332.5326	0.1507
332.7429	0.1477
332.9531	0.1531
333.1633	0.1484
333.3735	0.157
333.5837	0.1488
333.7939	0.1529
334.0041	0.1526
334.2143	0.1485
334.4244	0.1608
334.6346	0.1469
334.8447	0.1468
335.0548	0.1591
335.2649	0.1624
335.475	0.157
335.685	0.1549
335.8951	0.147
336.1051	0.1592
336.3152	0.1566
336.5252	0.1544
336.7352	0.1538
336.9452	0.1509
337.1552	0.1545
337.3652	0.148
337.5751	0.1576
337.7851	0.153
337.995	0.1555
338.2049	0.1553
338.4148	0.153
338.6247	0.1545
338.8346	0.1476
339.0445	0.1492
339.2543	0.1495
339.4642	0.1565
339.674	0.1558
339.8838	0.1532
340.0936	0.1582
340.3034	0.1543
340.5132	0.1498
340.7229	0.153
340.9327	0.1658
341.1424	0.156
341.3522	0.1531
341.5619	0.155
341.7716	0.1643
341.9813	0.158
342.1909	0.1613
342.4006	0.1652
342.6102	0.1631
342.8199	0.1675
343.0295	0.1535
343.2391	0.1666
343.4487	0.1672
343.6583	0.1726
343.8679	0.1648
344.0774	0.1635
344.287	0.1716
344.4965	0.1731
344.706	0.1717
344.9155	0.1598
345.125	0.1677
345.3345	0.1808
345.544	0.1761
345.7534	0.1786
345.9629	0.1714
346.1723	0.1766
346.3817	0.1826
346.5911	0.1827
346.8005	0.1793
347.0099	0.1775
347.2193	0.1873
347.4286	0.1875
347.638	0.1821
347.8473	0.1891
348.0566	0.1784
348.2659	0.18
348.4752	0.181
348.6845	0.182
348.8937	0.1877
349.103	0.1832
349.3122	0.178
349.5214	0.1889
349.7306	0.1876
349.9398	0.1833
350.149	0.1846
350.3582	0.1883
350.5674	0.1841
350.7765	0.1907
350.9856	0.1858
351.1948	0.1883
351.4039	0.1879
351.613	0.1934
351.822	0.1898
352.0311	0.1924
352.2402	0.1915
352.4492	0.1909
352.6582	0.1903
352.8672	0.1892
353.0762	0.1893
353.2852	0.1965
353.4942	0.1869
353.7032	0.1937
353.9121	0.1917
354.1211	0.19
354.33	0.1907
354.5389	0.1857
354.7478	0.1863
354.9567	0.1893
355.1655	0.1905
355.3744	0.1915
355.5833	0.1868
355.7921	0.1976
356.0009	0.1884
356.2097	0.1897
356.4185	0.1874
356.6273	0.1922
356.8361	0.1942
357.0448	0.1937
357.2536	0.1899
357.4623	0.1947
357.671	0.1938
357.8797	0.1965
358.0884	0.1833
358.2971	0.1885
358.5057	0.2024
358.7144	0.188
358.923	0.1979
359.1316	0.2036
359.3402	0.193
359.5488	0.1927
359.7574	0.1996
359.966	0.1959
360.1746	0.1975
360.3831	0.2065
360.5916	0.203
360.8002	0.2052
361.0087	0.1976
361.2172	0.1998
361.4256	0.2039
361.6341	0.2073
361.8426	0.2094
362.051	0.2084
362.2594	0.2084
362.4678	0.2119
362.6762	0.2082
362.8846	0.2045
363.093	0.2089
363.3014	0.2103
363.5097	0.2157
363.718	0.2209
363.9264	0.2196
364.1347	0.2133
364.343	0.2135
364.5513	0.2164
364.7595	0.2218
364.9678	0.2157
365.176	0.2195
365.3842	0.229
365.5925	0.2217
365.8007	0.2258
366.0089	0.2297
366.217	0.2267
366.4252	0.2271
366.6333	0.2291
366.8415	0.2206
367.0496	0.2241
367.2577	0.2267
367.4658	0.2273
367.6739	0.2287
367.882	0.2273
368.09	0.218
368.2981	0.2319
368.5061	0.2302
368.7141	0.2304
368.9221	0.2414
369.1301	0.2354
369.3381	0.2392
369.5461	0.2355
369.754	0.2351
369.962	0.2296
370.1699	0.2418
370.3778	0.2461
370.5857	0.2349
370.7936	0.2426
371.0015	0.2403
371.2093	0.2402
371.4172	0.248
371.625	0.2353
371.8328	0.2335
372.0406	0.2499
372.2484	0.2405
372.4562	0.2489
372.664	0.2393
372.8717	0.2445
373.0795	0.244
373.2872	0.2481
373.4949	0.2556
373.7026	0.2527
373.9103	0.2425
374.118	0.2454
374.3256	0.254
374.5333	0.2445
374.7409	0.2519
374.9485	0.2496
375.1561	0.2616
375.3637	0.259
375.5713	0.26
375.7789	0.2495
375.9864	0.2565
376.194	0.2629
376.4015	0.2635
376.609	0.2517
376.8165	0.2648
377.024	0.2575
377.2315	0.2519
377.4389	0.2528
377.6464	0.2571
377.8538	0.2636
378.0612	0.2599
378.2686	0.263
378.476	0.2658
378.6834	0.2618
378.8908	0.2641
379.0981	0.2584
379.3055	0.2655
379.5128	0.2633
379.7201	0.2687
379.9274	0.2599
380.1347	0.2681
380.342	0.2733
380.5492	0.2666
380.7565	0.2719
380.9637	0.2828
381.1709	0.2766
381.3781	0.2695
381.5853	0.2744
381.7925	0.2727
381.9997	0.2741
382.2068	0.2755
382.4139	0.276
382.6211	0.2813
382.8282	0.2806
383.0353	0.278
383.2424	0.2679
383.4494	0.2777
383.6565	0.2757
383.8635	0.2723
384.0706	0.2769
384.2776	0.2755
384.4846	0.2787
384.6916	0.2775
384.8986	0.2772
385.1055	0.2873
385.3125	0.29
385.5194	0.2793
385.7263	0.2829
385.9333	0.2841
386.1402	0.2865
386.347	0.2727
386.5539	0.2732
386.7608	0.2701
386.9676	0.2775
387.1744	0.2873
387.3813	0.2789
387.5881	0.2767
387.7948	0.2846
388.0016	0.2885
388.2084	0.2814
388.4151	0.2742
388.6219	0.2777
388.8286	0.2789
389.0353	0.2804
389.242	0.2798
389.4487	0.2768
389.6553	0.2619
389.862	0.2645
390.0686	0.271
390.2753	0.2827
390.4819	0.2737
390.6885	0.2608
390.8951	0.2721
391.1016	0.2767
391.3082	0.2763
391.5147	0.266
391.7213	0.2664
391.9278	0.2622
392.1343	0.2588
392.3408	0.2643
392.5473	0.2726
392.7537	0.2581
392.9602	0.2566
393.1666	0.2607
393.373	0.2516
393.5794	0.2547
393.7858	0.2605
393.9922	0.2461
394.1986	0.2516
394.4049	0.2457
394.6113	0.2517
394.8176	0.2438
395.0239	0.2468
395.2302	0.2452
395.4365	0.2555
395.6428	0.2511
395.8491	0.2485
396.0553	0.2435
396.2615	0.2481
396.4678	0.249
396.674	0.2425
396.8802	0.2442
397.0863	0.2367
397.2925	0.2482
397.4987	0.2325
397.7048	0.2484
397.9109	0.2433
398.117	0.243
398.3231	0.241
398.5292	0.2281
398.7353	0.2427
398.9413	0.2326
399.1474	0.2345
399.3534	0.2443
399.5594	0.2442
399.7654	0.2292
399.9714	0.2353
400.1774	0.2326
400.3833	0.2284
400.5893	0.2338
400.7952	0.2447
401.0011	0.2374
401.207	0.2426
401.4129	0.2342
401.6188	0.2336
401.8247	0.2464
402.0305	0.2346
402.2364	0.2453
402.4422	0.2351
402.648	0.2412
402.8538	0.2334
403.0596	0.2344
403.2654	0.2337
403.4711	0.2325
403.6768	0.2262
403.8826	0.2405
404.0883	0.2323
404.294	0.2332
404.4997	0.2351
404.7054	0.2408
404.911	0.2268
405.1167	0.2389
405.3223	0.2292
405.5279	0.2319
405.7335	0.2218
405.9391	0.2304
406.1447	0.2346
406.3502	0.2207
406.5558	0.2379
406.7613	0.2289
406.9668	0.2306
407.1724	0.2295
407.3778	0.2327
407.5833	0.2254
407.7888	0.2457
407.9942	0.2354
408.1997	0.2378
408.4051	0.2333
408.6105	0.2448
408.8159	0.2307
409.0213	0.231
409.2267	0.2413
409.432	0.2386
409.6374	0.239
409.8427	0.237
410.048	0.2401
410.2533	0.2326
410.4586	0.2277
410.6639	0.2344
410.8691	0.236
411.0744	0.2381
411.2796	0.2384
411.4848	0.2401
411.69	0.2217
411.8952	0.2334
412.1004	0.2278
412.3056	0.2284
412.5107	0.229
412.7158	0.2504
412.921	0.2304
413.1261	0.2344
413.3312	0.2367
413.5362	0.2362
413.7413	0.2289
413.9464	0.2216
414.1514	0.2272
414.3564	0.2274
414.5614	0.2344
414.7664	0.2264
414.9714	0.2222
415.1764	0.2313
415.3813	0.2172
415.5863	0.2301
415.7912	0.2223
415.9961	0.2267
416.201	0.232
416.4059	0.2273
416.6108	0.2276
416.8156	0.2249
417.0205	0.2261
417.2253	0.2217
417.4301	0.2257
417.6349	0.2252
417.8397	0.2238
418.0445	0.2296
418.2492	0.2213
418.454	0.217
418.6587	0.2245
418.8634	0.2228
419.0681	0.224
419.2728	0.2121
419.4775	0.2217
419.6822	0.2214
419.8868	0.2103
420.0915	0.2198
420.2961	0.2096
420.5007	0.2109
420.7053	0.2155
420.9099	0.2302
421.1144	0.2172
421.319	0.2108
421.5235	0.2077
421.728	0.2122
421.9325	0.2155
422.137	0.2138
422.3415	0.2131
422.546	0.2021
422.7504	0.2145
422.9549	0.209
423.1593	0.2026
423.3637	0.1943
423.5681	0.2081
423.7725	0.2013
423.9769	0.2055
424.1812	0.1915
424.3856	0.1923
424.5899	0.1973
424.7942	0.1975
424.9985	0.1961
425.2028	0.2057
425.4071	0.1975
425.6113	0.1984
425.8156	0.1962
426.0198	0.1984
426.224	0.2044
426.4282	0.1923
426.6324	0.1892
426.8366	0.1938
427.0407	0.1865
427.2449	0.1905
427.449	0.1867
427.6531	0.1845
427.8572	0.1973
428.0613	0.1922
428.2654	0.1818
428.4694	0.1746
428.6735	0.1771
428.8775	0.1901
429.0815	0.1846
429.2855	0.1824
429.4895	0.1818
429.6935	0.1704
429.8975	0.1764
430.1014	0.1753
430.3053	0.1795
430.5093	0.1665
430.7132	0.1638
430.9171	0.1696
431.1209	0.17
431.3248	0.1609
431.5286	0.1624
431.7325	0.1686
431.9363	0.1654
432.1401	0.1643
432.3439	0.1519
432.5477	0.1539
432.7514	0.1592
432.9552	0.1587
433.1589	0.1482
433.3627	0.1583
433.5664	0.1479
433.7701	0.1543
433.9737	0.1519
434.1774	0.1425
434.3811	0.1388
434.5847	0.1363
434.7883	0.1511
434.9919	0.1417
435.1955	0.1434
435.3991	0.1363
435.6027	0.1348
435.8062	0.1482
436.0098	0.1315
436.2133	0.1403
436.4168	0.1157
436.6203	0.1275
436.8238	0.1171
437.0272	0.1322
437.2307	0.1187
437.4341	0.125
437.6375	0.1254
437.841	0.1177
438.0443	0.1286
438.2477	0.1119
438.4511	0.1063
438.6545	0.1228
438.8578	0.1122
439.0611	0.1107
439.2644	0.1129
439.4677	0.1171
439.671	0.1047
439.8743	0.1089
440.0775	0.1103
440.2808	0.1056
440.484	0.0997
440.6872	0.1006
440.8904	0.0926
441.0936	0.1022
441.2967	0.0837
441.4999	0.0917
441.703	0.0952
441.9062	0.09
442.1093	0.1046
442.3124	0.0841
442.5155	0.0861
442.7185	0.0851
442.9216	0.0771
443.1246	0.0833
443.3276	0.0856
443.5307	0.0794
443.7337	0.084
443.9366	0.077
444.1396	0.0733
444.3426	0.0759
444.5455	0.0775
444.7484	0.0721
444.9513	0.073
445.1542	0.0751
445.3571	0.07
445.56	0.068
445.7628	0.0704
445.9657	0.0753
446.1685	0.0732
446.3713	0.073
446.5741	0.0749
446.7769	0.0725
446.9797	0.0618
447.1824	0.0723
447.3852	0.0444
447.5879	0.0679
447.7906	0.0556
447.9933	0.0553
448.196	0.0531
448.3986	0.0581
448.6013	0.0448
448.8039	0.0588
449.0066	0.0559
449.2092	0.0652
449.4118	0.0528
449.6143	0.0568
449.8169	0.0488
450.0195	0.05
450.222	0.0519
450.4245	0.0523
450.627	0.0492
450.8295	0.0481
451.032	0.0438
451.2345	0.0374
451.4369	0.0492
451.6394	0.0379
451.8418	0.0415
452.0442	0.0409
452.2466	0.0455
452.449	0.0437
452.6513	0.0339
452.8537	0.0381
453.056	0.0364
453.2583	0.0406
453.4607	0.0331
453.663	0.0354
453.8652	0.0395
454.0675	0.0426
454.2697	0.0322
454.472	0.0338
454.6742	0.0354
454.8764	0.037
455.0786	0.0319
455.2808	0.0289
455.4829	0.0374
455.6851	0.0337
455.8872	0.0287
456.0893	0.0304
456.2915	0.0227
456.4935	0.0335
456.6956	0.0195
456.8977	0.0298
457.0997	0.0329
457.3018	0.0292
457.5038	0.0276
457.7058	0.0395
457.9078	0.0341
458.1098	0.0297
458.3117	0.0393
458.5137	0.0126
458.7156	0.022
458.9175	0.0311
459.1194	0.0192
459.3213	0.0133
459.5232	0.0212
459.725	0.0276
459.9269	0.0259
460.1287	0.0199
460.3305	0.0301
460.5323	0.0219
460.7341	0.0221
460.9359	0.0104
461.1376	0.0264
461.3394	0.0219
461.5411	0.0252
461.7428	0.0188
461.9445	0.0167
462.1462	0.017
462.3479	0.0218
462.5495	0.0228
462.7512	0.0251
462.9528	0.0162
463.1544	0.0144
463.356	0.0121
463.5576	0.0241
463.7592	0.017
463.9607	0.0248
464.1623	0.0198
464.3638	0.0094
464.5653	0.0144
464.7668	0.0227
464.9683	0.0173
465.1697	0.0166
465.3712	0.0146
465.5726	0.0097
465.7741	0.0215
465.9755	0.0158
466.1769	0.0176
466.3782	0.0109
466.5796	0.0242
466.7809	0.0131
466.9823	0.0101
467.1836	0.0092
467.3849	0.0153
467.5862	0.0066
467.7875	0.013
467.9887	0.0135
468.19	0.0141
468.3912	0.0196
468.5924	0.0067
468.7936	0.0113
468.9948	0.0117
469.196	0.0108
469.3972	0.0105
469.5983	0.0072
469.7994	0.0201
470.0006	0.0151
470.2017	0.014
470.4027	0.0294
470.6038	0.0151
470.8049	0.0142
471.0059	0.0208
471.2069	0.0119
471.408	0.0243
471.6089	0.0237
471.8099	0.0193
472.0109	0.0124
472.2119	0.0281
472.4128	0.0023
472.6137	0.0148
472.8146	0.0111
473.0155	0.0173
473.2164	0.0104
473.4173	0.0094
473.6181	-0.0015
473.819	0.0106
474.0198	0.0039
474.2206	0.0014
474.4214	0.0173
474.6222	-0.0005
474.8229	0.0127
475.0237	0.0112
475.2244	0.0168
475.4251	0.0104
475.6258	0.0128
475.8265	0.0144
476.0272	0.0021
476.2278	0.0119
476.4285	0.0054
476.6291	0.0186
476.8297	0.0118
477.0303	0.0022
477.2309	0.0166
477.4315	0.0119
477.632	0.0057
477.8326	0.0127
478.0331	0.0095
478.2336	0.0111
478.4341	0.0076
478.6346	0.0065
478.8351	0.006
479.0355	0.0112
479.236	0.0202
479.4364	0.0118
479.6368	0.0104
479.8372	0.0104
480.0376	0.0083
480.2379	0.012
480.4383	0.0195
480.6386	0.001
480.8389	0.0077
481.0392	0.0092
481.2395	0.0118
481.4398	0.0137
481.6401	0.024
481.8403	0.0042
482.0405	0.0095
482.2408	0.0128
482.441	0.0067
482.6411	0.0105
482.8413	0.0051
483.0415	0.015
483.2416	0.0056
483.4417	0.0142
483.6419	0.0048
483.8419	0.0112
484.042	0.0086
484.2421	0.0062
484.4422	0.0063
484.6422	0.018
484.8422	0.0105
485.0422	0.0094
485.2422	0.0086
485.4422	0.0058
485.6422	0.0087
485.8421	0.0056
486.042	0.0123
486.242	0.0075
486.4419	0.0108
486.6417	0.0098
486.8416	0.0136
487.0415	0.0044
487.2413	0.0042
487.4411	0.0118
487.641	0.0075
487.8408	0.0186
488.0405	0.0152
488.2403	0.0063
488.4401	0.0102
488.6398	0.0151
488.8395	0.0096
489.0392	0.0156
489.2389	0.02
489.4386	0.0014
489.6383	0.0027
489.8379	0.0091
490.0376	0.0053
490.2372	0.0089
490.4368	-0.0037
490.6364	-0.0011
490.836	0.0122
491.0355	0.0066
491.2351	-0.0005
491.4346	0.0101
491.6341	0.0051
491.8336	0.0123
492.0331	0.0083
492.2326	0.0095
492.432	0.0023
492.6315	0.0201
492.8309	0.0141
493.0303	0.003
493.2297	0.0095
493.4291	0.0112
493.6284	0.0183
493.8278	0.012
494.0271	0.004
494.2264	0.0068
494.4257	0.0098
494.625	0.0076
494.8243	0.004
495.0236	0.0147
495.2228	0.0189
495.422	0.0115
495.6213	0.013
495.8205	0.0107
496.0196	0.0115
496.2188	0.0067
496.418	-0.0033
496.6171	0.0101
496.8162	0.0085
497.0153	0.0132
497.2144	0.0133
497.4135	0.0086
497.6126	0.0086
497.8116	0.0142
498.0107	0.0165
498.2097	0.0157
498.4087	0.0015
498.6077	0.0023
498.8067	0.0092
499.0056	0.0013
499.2046	0.011
499.4035	0.0149
499.6024	0.0047
499.8013	0.02
500.0002	0.0142
500.199	0.0209
500.3979	0.0026
500.5967	0.0087
500.7956	0.0115
500.9944	0.0098
501.1932	0.0153
501.3919	0.0099
501.5907	0.0208
501.7895	0.0087
501.9882	0.0091
502.1869	0.0188
502.3856	0.0117
502.5843	0.0116
502.783	0.0091
502.9816	0.0146
503.1803	0.0064
503.3789	0.0114
503.5775	0.0094
503.7761	-0.0023
503.9747	0.0052
504.1732	0.0042
504.3718	0.016
504.5703	0.0081
504.7689	-0.0002
504.9674	0.0071
505.1658	0.0133
505.3643	0.0148
505.5628	0.0121
505.7612	0.0164
505.9597	0.0043
506.1581	0.006
506.3565	0.0139
506.5549	0.007
506.7532	0.0084
506.9516	0.0093
507.1499	0.013
507.3482	0.0051
507.5465	0.0141
507.7448	0.0138
507.9431	0.0129
508.1414	0.0093
508.3396	0.0135
508.5379	0.0038
508.7361	0.0109
508.9343	0.011
509.1325	0.01
509.3306	0.0039
509.5288	0.0096
509.7269	0.0096
509.9251	0.0231
510.1232	0.013
510.3213	0.0119
510.5193	0.0169
510.7174	0.0071
510.9154	0.0118
511.1135	0.0073
511.3115	0.0093
511.5095	0.0065
511.7075	0.0092
511.9055	0.0155
512.1034	0.0115
512.3014	0.0122
512.4993	0.0134
512.6972	-0.0013
512.8951	0.0128
513.093	0.0121
513.2908	0.0169
513.4887	0.0097
513.6865	0.0136
513.8844	0.0191
514.0822	0.0111
514.2799	-0.0033
514.4777	0.0013
514.6755	0.0024
514.8732	0.009
515.0709	0.0063
515.2687	0.0048
515.4664	0.0109
515.664	0.016
515.8617	0.0182
516.0594	0.0079
516.257	0.0054
516.4546	0.0231
516.6522	0.0102
516.8498	0.0038
517.0474	0.006
517.2449	0.0067
517.4425	0.0072
517.64	0.0119
517.8375	0.0117
518.035	0.014
518.2325	0.0039
518.43	0.0053
518.6274	0.0066
518.8249	-0.001
519.0223	0.0132
519.2197	0.0131
519.4171	0.0049
519.6145	0.0205
519.8118	0.0026
520.0092	0.0033
520.2065	0.0217
520.4038	0.0112
520.6011	0.0095
520.7984	0.0099
520.9956	0.0166
521.1929	0.0075
521.3901	0.0082
521.5874	0.0233
521.7846	0.0001
521.9818	0.0139
522.1789	-0.0034
522.3761	0.0283
522.5732	0.0101
522.7704	0.0013
522.9675	0.0007
523.1646	0.0049
523.3617	0.0163
523.5587	0.0078
523.7558	0.0151
523.9528	0.0095
524.1498	0.0041
524.3468	0.0141
524.5438	0.0106
524.7408	-0.0037
524.9378	0.0122
525.1347	0.0145
525.3316	0.0125
525.5285	0.0014
525.7254	0.0101
525.9223	0.0107
526.1192	0.0121
526.316	0.007
526.5129	0.0108
526.7097	0.0057
526.9065	0.0192
527.1033	0.0063
527.3	0.01
527.4968	0.024
527.6935	0.0034
527.8903	0.0043
528.087	0.0097
528.2837	0.0147
528.4804	0.0057
528.677	0.012
528.8737	0.0096
529.0703	0.0047
529.2669	0.019
529.4635	0.0026
529.6601	0
529.8567	-0.0001
530.0532	0.0066
530.2498	0.0078
530.4463	0.001
530.6428	0.0088
530.8393	0.016
531.0358	0.009
531.2322	-0.0049
531.4287	0.011
531.6251	-0.0055
531.8215	0.0073
532.0179	0.0148
532.2143	0.0105
532.4107	0.013
532.607	0.0139
532.8034	0.0008
532.9997	0.0063
533.196	0.0155
533.3923	0.0104
533.5886	0.0167
533.7848	0.0106
533.9811	-0.0008
534.1773	0.0109
534.3735	0.0152
534.5697	0.0096
534.7659	0.0108
534.9621	0.0156
535.1582	0.0193
535.3544	0.016
535.5505	0.0114
535.7466	0.0061
535.9427	0.0116
536.1387	0.0041
536.3348	0.0174
536.5308	0.0046
536.7269	0.0007
536.9229	0.009
537.1189	0.016
537.3148	0.0111
537.5108	0.0134
537.7068	0.0165
537.9027	-0.0012
538.0986	0.0091
538.2945	0.0044
538.4904	0.0043
538.6863	0.0064
538.8821	0.02
539.078	0.0108
539.2738	-0.0006
539.4696	0.0033
539.6654	0.0059
539.8611	0.0112
540.0569	0.0098
540.2526	0.0149
540.4484	0.005
540.6441	0.0166
540.8398	0.0194
541.0355	0.0035
541.2311	0.0119
541.4268	0.0084
541.6224	0.017
541.818	0.0154
542.0136	0.0068
542.2092	0.0162
542.4048	0.0085
542.6003	0.0037
542.7959	0.0131
542.9914	0.0067
543.1869	0.0081
543.3824	0.0087
543.5779	0.0175
543.7734	0.0189
543.9688	0.0103
544.1642	0.0116
544.3596	0.005
544.555	0.0107
544.7504	0.0085
544.9458	0.011
545.1411	0.0135
545.3365	0.0128
545.5318	0.0118
545.7271	0.0231
545.9224	0.0048
546.1177	0.018
546.3129	0.0072
546.5081	0.005
546.7034	0.0076
546.8986	0.0068
547.0938	0.0094
547.289	0.0123
547.4841	0.0041
547.6793	0.0093
547.8744	0.0091
548.0695	0.0083
548.2646	0.013
548.4597	0.0126
548.6548	0.016
548.8498	0.0141
549.0448	0.0075
549.2399	0.0152
549.4349	0.0032
549.6298	0.0174
549.8248	-0.0011
550.0198	0.015
550.2147	0.0134
550.4096	0.0127
550.6045	0.0055
550.7994	0.0083
550.9943	0.0136
551.1892	-0.0039
551.384	0.0183
551.5788	0.0163
551.7737	0.0123
551.9685	0.0122
552.1632	0.0138
552.358	0.0016
552.5528	0.0174
552.7475	0.0095
552.9422	0.0088
553.1369	0.0118
553.3316	0.011
553.5263	0.0162
553.7209	0.0073
553.9156	0.006
554.1102	0.0122
554.3048	0.0076
554.4994	0.007
554.694	0.0099
554.8885	0.0145
555.0831	0.0213
555.2776	0.0087
555.4721	0.0096
555.6666	0.0113
555.8611	0.0078
556.0555	0.0096
556.25	0.0163
556.4444	0.0101
556.6388	0.0043
556.8332	0.0072
557.0276	0.0078
557.222	0.0037
557.4163	0.0186
557.6107	0.0126
557.805	0.002
557.9993	0.0094
558.1936	-0.0041
558.3879	0.0128
558.5821	-0.0045
558.7764	0.0013
558.9706	0.005
559.1648	0.0065
559.359	-0.0042
559.5532	0.0063
559.7473	-0.0037
559.9415	0.0131
560.1356	0.0162
560.3297	0.0078
560.5238	0.0074
560.7179	-0.0011
560.9119	0.0143
561.106	0.0126
561.3	0.0076
561.494	0.01
561.688	-0.0002
561.882	0.005
562.076	0.0196
562.2699	0.0122
562.4639	0.0164
562.6578	0.0137
562.8517	0.0113
563.0456	0.0049
563.2395	0.0131
563.4333	0.0047
563.6272	0.0073
563.821	0.0144
564.0148	0.0104
564.2086	0.0073
564.4024	0.0171
564.5961	0.0087
564.7899	0.0138
564.9836	0.0081
565.1773	0.0095
565.371	0.0152
565.5647	0.0087
565.7584	0.0088
565.952	0.001
566.1456	0.0143
566.3393	0.0201
566.5329	0.0071
566.7264	0.0144
566.92	0.0098
567.1136	0.0028
567.3071	0.0019
567.5006	0.0084
567.6941	0.0144
567.8876	0.004
568.0811	0.0252
568.2745	0.0005
568.468	0.0104
568.6614	0.0142
568.8548	0.0135
569.0482	0.0102
569.2416	0.0091
569.4349	0.0063
569.6283	0.0023
569.8216	0.0106
570.0149	0.0099
570.2082	0.0105
570.4015	0.0096
570.5947	0.007
570.788	0.0122
570.9812	0.0087
571.1744	0.0088
571.3676	0.0099
571.5608	0.0084
571.754	0.0167
571.9471	0.0147
572.1402	0.0053
572.3333	0.0096
572.5264	0.0063
572.7195	0.0079
572.9126	0.0106
573.1057	0.0126
573.2987	0.0063
573.4917	0.0079
573.6847	0.0059
573.8777	0.0088
574.0707	0.0093
574.2636	0.0091
574.4566	0.0109
574.6495	0.006
574.8424	0.0113
575.0353	0.0086
575.2281	0.0136
575.421	0.0046
575.6138	0.0071
575.8067	0.0068
575.9995	0.0065
576.1923	0.013
576.385	0.0076
576.5778	0.0125
576.7706	0.0091
576.9633	0.0123
577.156	0.0007
577.3487	0.0089
577.5414	0.0073
577.734	0.008
577.9267	0.0097
578.1193	0.0128
578.3119	0.0044
578.5045	0.0087
578.6971	0.0033
578.8897	0.0057
579.0822	0.0124
579.2747	0.0081
579.4673	0.0067
579.6598	0.0093
579.8522	0.0082
580.0447	0.0104
580.2372	0.0098
580.4296	0.0073
580.622	0.0053
580.8144	0.0073
581.0068	0.005
581.1992	0.0086
581.3915	0.0004
581.5839	0.0064
581.7762	0.0071
581.9685	0.0117
582.1608	0.01
582.353	0.0093
582.5453	0.0103
582.7375	0.0065
582.9298	0.0007
583.122	0.0063
583.3142	0.0099
583.5063	0.0096
583.6985	0.0053
583.8906	0.0032
584.0827	0.0136
584.2749	0.0102
584.4669	0.0044
584.659	0.0092
584.8511	0.0116
585.0431	0.0113
585.2352	0.0102
585.4272	0.0088
585.6192	0.0065
585.8111	0.0091
586.0031	0.0076
586.195	0.0122
586.387	0.0089
586.5789	0.009
586.7708	0.0144
586.9627	0.0072
587.1545	0.0111
587.3464	0.0073
587.5382	0.0122
587.73	0.0136
587.9218	0.0064
588.1136	0.0056
588.3053	0.009
588.4971	0.0046
588.6888	0.0016
588.8805	0.0029
589.0722	0.0176
589.2639	0.0065
589.4556	0.0101
589.6472	0.0084
589.8389	0.0052
590.0305	0.0051
590.2221	0.0141
590.4137	0.0072
590.6052	0.011
590.7968	0.0046
590.9883	0.0038
591.1798	0.0089
591.3713	0.0053
591.5628	0.0093
591.7543	0.0017
591.9458	0.0024
592.1372	0.0097
592.3286	0.007
592.52	0.0056
592.7114	0.0077
592.9028	0.0102
593.0941	0.0037
593.2855	0.0071
593.4768	0.0126
593.6681	0.0126
593.8594	0.0129
594.0506	0.0072
594.2419	0.0143
594.4331	0.0099
594.6244	0.0076
594.8156	0.005
595.0067	0.0004
595.1979	0.0066
595.3891	0.0086
595.5802	0.0091
595.7713	0.0067
595.9624	0.0094
596.1535	0.0119
596.3446	0.0065
596.5357	0.0112
596.7267	0.0063
596.9177	0.0046
597.1087	0.013
597.2997	0.0099
597.4907	0.0061
597.6817	0.0089
597.8726	0.013
598.0635	-0.0004
598.2544	0.0146
598.4453	0.0115
598.6362	0.0095
598.827	0.0093
599.0179	0.0085
599.2087	0.0119
599.3995	0.0129
599.5903	0.012
599.7811	0.012
599.9718	0.0091
600.1626	0.0048
600.3533	0.0116
600.544	0.0146
600.7347	0.0102
600.9254	0.0125
601.116	0.0102
601.3067	0.0084
601.4973	0.0136
601.6879	0.0086
601.8785	0.0129
602.0691	0.0042
602.2596	0.0105
602.4502	0.0085
602.6407	0.0146
602.8312	0.0085
603.0217	0.0083
603.2122	0.0097
603.4027	0.005
603.5931	0.0064
603.7835	0.0137
603.9739	0.0061
604.1643	0.0106
604.3547	0.0114
604.5451	0.0139
604.7354	0.0087
604.9257	0.006
605.116	0.0068
605.3063	0.0055
605.4966	0.0067
605.6869	0.0123
605.8771	0.0125
606.0673	0.0137
606.2575	0.0043
606.4477	0.0107
606.6379	0.0055
606.8281	0.0001
607.0182	0.0048
607.2083	0.006
607.3985	0.0044
607.5885	0.0051
607.7786	0.0103
607.9687	0.0102
608.1587	0.0129
608.3488	0.014
608.5388	-0.0007
608.7288	0.0035
608.9187	0.0111
609.1087	0.0116
609.2986	0.0145
609.4886	0.0061
609.6785	0.0056
609.8684	0.0019
610.0582	0.0044
610.2481	0.0021
610.4379	0.0065
610.6278	0.0109
610.8176	0.0028
611.0074	0.0121
611.1971	0.0038
611.3869	0.0109
611.5766	0.0048
611.7664	0.0091
611.9561	0.0112
612.1458	0.0145
612.3354	0.0172
612.5251	0.0049
612.7147	0.0157
612.9044	0.0056
613.094	0.0152
613.2836	0.0029
613.4731	0.0097
613.6627	0.0132
613.8522	0.0066
614.0417	0.0122
614.2313	0.0062
614.4207	0.009
614.6102	0.0145
614.7997	0.0173
614.9891	0.0089
615.1785	0.0045
615.3679	0.0112
615.5573	0.0049
615.7467	0.0077
615.9361	0.0044
616.1254	0.0132
616.3147	0.0128
616.504	0.0138
616.6933	0.0061
616.8826	0.0067
617.0718	0.0152
617.2611	0.0053
617.4503	0.0073
617.6395	0.0007
617.8287	0.0176
618.0179	0.0048
618.207	0.0196
618.3961	0.005
618.5853	0.009
618.7744	0.0115
618.9634	0.0143
619.1525	0.0054
619.3416	0.0107
619.5306	0.0165
619.7196	0.0076
619.9086	0.0143
620.0976	0.0018
620.2866	0.02
620.4755	0.0079
620.6645	0.0138
620.8534	0.0158
621.0423	0.0013
621.2312	0.0063
621.42	0.0007
621.6089	0.0116
621.7977	0.0123
621.9865	0.0067
622.1753	-0.0002
622.3641	0.0054
622.5529	0.0086
622.7416	-0.0024
622.9303	0.0098
623.1191	0.0148
623.3078	0.0121
623.4964	0.0144
623.6851	0.0066
623.8737	0.0032
624.0624	0.0036
624.251	0.0105
624.4396	0.0089
624.6282	0.0175
624.8167	0.0104
625.0053	0.0216
625.1938	0.0093
625.3823	0.0175
625.5708	0.0046
625.7593	0.0047
625.9477	0.0129
626.1362	0.0056
626.3246	0.0068
626.513	0.0144
626.7014	0.0205
626.8898	0.0146
627.0781	0.0062
627.2665	0.0189
627.4548	0.0083
627.6431	0.0096
627.8314	0.0072
628.0197	0.0065
628.2079	0.0117
628.3962	0.0021
628.5844	0.0151
628.7726	0.0158
628.9608	0.0104
629.1489	0.0147
629.3371	0.0092
629.5252	0.0103
629.7134	0.0156
629.9015	0.0171
630.0895	-0.006
630.2776	0.0136
630.4657	0.0038
630.6537	0.0162
630.8417	0.0069
631.0297	0.0151
631.2177	0.0103
631.4057	0.0124
631.5936	0.0025
631.7815	0.0021
631.9695	0.0255
632.1574	0.0121
632.3452	0.0158
632.5331	0.0033
632.7209	0.0132
632.9088	-0.0042
633.0966	0.0311
633.2844	0.0105
633.4722	0.0257
633.6599	0.0145
633.8477	0.0041
634.0354	0.0064
634.2231	-0.0096
634.4108	0.0079
634.5985	0.0179
634.7861	0.0058
634.9738	-0.0037
635.1614	0.0008
635.349	0.0039
635.5366	0.0131
635.7242	-0.0041
635.9117	-0.001
636.0993	0.0059
636.2868	-0.0066
636.4743	0.013
636.6618	0.0061
636.8492	0.0146
637.0367	-0.0016
637.2241	0.0099
637.4115	0.0355
637.5989	0.0118
637.7863	0.0322
637.9737	0.01
638.161	0.028
638.3484	0
638.5357	0.0134
638.723	0.0223
638.9103	0.0023
639.0975	0.0089
639.2848	0.009
639.472	0.0135
639.6592	0.0014
639.8464	0.0155
640.0336	0.0159
640.2208	0.0055
640.4079	0.0087
640.595	-0.0047
640.7821	0.0147
640.9692	0.0105
641.1563	0.0115
641.3434	0.0074
641.5304	0.0195
641.7174	0.0323
641.9044	0.0094
642.0914	0.0228
642.2784	0.0053
642.4653	-0.0047
642.6523	0.0227
642.8392	0.0245
643.0261	0.0285
643.213	0.004
643.3999	0.0338
643.5867	0.0132
643.7735	0.012
643.9604	0.0251
644.1472	0.0099
644.3339	0.0174
644.5207	0.0036
644.7075	0.0072
644.8942	0.02
645.0809	0.0255
645.2676	-0.0058
645.4543	-0.004
645.6409	0.0205
645.8276	0.0101
646.0142	-0.001
646.2008	0.0069
646.3874	-0.0128
646.574	0.0113
646.7605	0.0161
646.9471	-0.0033
647.1336	-0.0172
647.3201	0.011
647.5066	0.0092
647.6931	0.0015
647.8795	0.0102
648.0659	0.0127
648.2524	0.0105
648.4388	0.0308
648.6252	0.0206
648.8115	-0.001
648.9979	0.0082
649.1842	0.0143
649.3705	0.0028
649.5568	-0.0098
649.7431	0.0011
649.9294	0.012
650.1156	-0.011
650.3018	0.0232
650.488	0.0129
650.6742	0.0421
650.8604	0.009
651.0466	0.0084
651.2327	0.01
651.4188	-0.0104
651.6049	0.0343
651.791	0.0108
651.9771	0.014
652.1632	0.0111
652.3492	0.0052
652.5352	0.0326
652.7212	0.0073
652.9072	-0.0034
653.0932	0.0081
653.2791	0.0117
653.465	0.0179
653.651	0.0109
653.8369	0.0124
654.0227	0.0169
654.2086	0.0069
654.3944	0.0244
654.5803	0.0162
654.7661	0.003
654.9519	0.0021
655.1377	0.0001
655.3234	0.0001
655.5092	0.0001
655.6949	0.0001
655.8806	0.0001
656.0663	0.0001
656.2519	0.0001
656.4376	0.0001
656.6232	0.0001
656.8088	0.0001
656.9945	0.0001
657.18	0.0001
657.3656	0.0001
657.5511	0.0001
657.7367	0.0001
657.9222	0.0001
658.1077	0.0001
658.2932	0.0001
658.4786	0.0001
658.6641	0.0001
658.8495	0.0001
659.0349	0.0001
659.2203	0.0001
659.4057	0.0097
659.591	0.2863
659.7764	0.0342
659.9617	0.0113
660.147	0.0275
660.3323	0.0124
660.5176	0.0122
660.7028	0.0172
660.888	0.0296
661.0733	0.0518
661.2585	-0.0046
661.4436	0.0052
661.6288	0.0154
661.8139	0.0031
661.9991	-0.0098
662.1842	0
662.3693	0.0071
662.5544	0.0238
662.7394	0.0251
662.9245	0.005
663.1095	-0.0177
663.2945	-0.0008
663.4795	-0.0202
663.6644	-0.0047
663.8494	0.0058
664.0343	0.0196
664.2193	0.0112
664.4042	0.0155
664.589	-0.0056
664.7739	0.0237
664.9587	-0.0066
665.1436	-0.0043
665.3284	0.0084
665.5132	-0.0112
665.698	0.0011
665.8827	-0.0011
666.0675	-0.0176
666.2522	0.0262
666.4369	-0.0054
666.6216	0.0121
666.8063	0.0076
666.9909	0.0058
667.1756	0.0007
667.3602	0.0024
667.5448	-0.0061
667.7294	0.026
667.9139	0.0127
668.0985	0.0309
668.283	-0.001
668.4675	0.0107
668.652	0.0175
668.8365	-0.0133
669.0209	0.0188
669.2054	0.0097
669.3898	-0.0018
669.5742	0.0469
669.7586	0.027
669.943	0.0225
670.1273	0.0007
670.3117	0.009
670.496	0.0238
670.6803	0.0069
670.8646	-0.0095
671.0488	0.023
671.2331	0.0018
671.4173	0.008
671.6015	0.0019
671.7857	0.0156
671.9699	0.02
672.1541	0.0072
672.3382	0.003
672.5223	0.011
672.7064	-0.0052
672.8905	0.0094
673.0746	0.0087
673.2587	0.0404
673.4427	0.0282
673.6267	0.0324
673.8107	0.0383
673.9947	0.0161
674.1787	0.0177
674.3626	0.0223
674.5465	0.008
674.7304	-0.0289
674.9143	-0.0054
675.0982	0.0081
675.2821	0.0123
675.4659	-0.0091
675.6497	0.0098
675.8335	0.0082
676.0173	-0.0076
676.2011	0.0054
676.3849	0.0007
676.5686	0.0199
676.7523	-0.0055
676.936	0.0057
677.1197	-0.0005
677.3034	0.0403
677.487	0.0099
677.6706	0.0161
677.8542	-0.006
678.0378	0.0086
678.2214	0.016
678.405	0.0208
678.5885	0.0047
678.772	0.0195
678.9555	0.019
679.139	0.0059
679.3225	0.014
679.5059	0.0031
679.6894	0.0204
679.8728	0.0214
680.0562	0.0201
680.2395	0.0029
680.4229	0.0188
680.6062	0.0264
680.7896	0.001
680.9729	0.0329
681.1562	0.0149
681.3394	0.0131
681.5227	0.0066
681.7059	0.0298
681.8891	0.0205
682.0723	0.0111
682.2555	0.025
682.4387	0.0178
682.6218	0.0109
682.805	0.0257
682.9881	0.0375
683.1712	0.0189
683.3542	0.0245
683.5373	-0.006
683.7203	0.0007
683.9034	0.009
684.0864	0.0158
684.2694	0.0018
684.4523	0.0071
684.6353	0.0035
684.8182	-0.0012
685.0011	0.0261
685.184	0.0162
685.3669	0.0286
685.5498	-0.0048
685.7326	0.0049
685.9154	0.0115
686.0982	0.0166
686.281	0.0122
686.4638	0.0211
686.6465	-0.0016
686.8293	-0.02
687.012	0.0015
687.1947	-0.0039
687.3774	0.0253
687.56	0.0013
687.7427	0.0199
687.9253	-0.0106
688.1079	-0.0005
688.2905	-0.0057
688.4731	0.026
688.6556	0.0252
688.8382	-0.0037
689.0207	0.037
689.2032	0.0238
689.3857	0
689.5681	0.0081
689.7506	0.0387
689.933	0.0038
690.1154	0.0121
690.2978	0.0079
690.4802	0.023
690.6626	0.0211
690.8449	0.0267
691.0272	0.0097
691.2095	-0.0065
691.3918	0.0003
691.5741	0.0112
691.7563	0.0284
691.9386	0.0194
692.1208	0.0237
692.303	-0.004
692.4852	0.014
692.6673	0.0066
692.8495	-0.0065
693.0316	0.0191
693.2137	0.0287
693.3958	-0.001
693.5778	0.0153
693.7599	-0.0039
693.9419	-0.0003
694.1239	-0.0027
694.3059	0.0231
694.4879	0.0067
694.6699	0.0115
694.8518	0.0173
695.0337	0.0203
695.2157	0.0367
695.3975	0.0026
695.5794	-0.0167
695.7613	0.0258
695.9431	-0.0139
696.1249	0.0147
696.3067	-0.0013
696.4885	0.0137
696.6703	0.0067
696.852	0.0136
697.0337	0.0166
697.2154	0.0135
697.3971	0.0136
697.5788	0.0188
697.7605	-0.0021
697.9421	0.0191
698.1237	-0.0019
698.3053	-0.0086
698.4869	0.0024
698.6685	-0.0103
698.85	0.0062
699.0315	0.0035
699.213	0.0147
699.3945	0.0028
699.576	0.0174
699.7575	0.0126
699.9389	-0.0088
700.1203	-0.0019
700.3017	0.0012
700.4831	0.0385
700.6645	0.0248
700.8458	-0.0117
701.0271	0.033
701.2084	0.0237
701.3897	0.0211
701.571	-0.0052
701.7523	0.0159
701.9335	0.0325
702.1147	0.0117
702.2959	0.0034
702.4771	0.0226
702.6583	-0.0087
702.8394	-0.0106
703.0205	0.0304
703.2016	0.0092
703.3827	0.0161
703.5638	0.025
703.7449	0.0163
703.9259	0.0133
704.1069	-0.0088
704.2879	0.0242
704.4689	0.0454
704.6499	0.0362
704.8308	-0.0109
705.0117	-0.014
705.1927	0.003
705.3735	-0.0047
705.5544	0.0184
705.7353	-0.0012
705.9161	-0.02
706.0969	0.0117
706.2777	0.0035
706.4585	0.0087
706.6393	0.0205
706.82	0.0352
707.0007	0.0093
707.1815	0.0009
707.3621	0.0321
707.5428	0.0203
707.7235	0.0167
707.9041	0.0153
708.0847	0.0124
708.2653	0.031
708.4459	0.0167
708.6265	-0.0313
708.807	0.0074
708.9875	0.0214
709.168	0.02
709.3485	0.0279
709.529	0.0177
709.7095	-0.0095
709.8899	-0.0038
710.0703	0.011
710.2507	0.0187
710.4311	-0.0225
710.6115	0.0467
710.7918	0.0313
710.9721	0.0314
711.1524	0.0064
711.3327	-0.0058
711.513	0.0302
711.6932	0.003
711.8735	0.011
712.0537	0.0227
712.2339	-0.0031
712.4141	0.0375
712.5942	-0.0047
712.7744	0.0084
712.9545	0.0133
713.1346	0.0327
713.3147	0.027
713.4947	-0.0024
713.6748	0.0081
713.8548	0.0394
714.0348	0.0057
714.2148	0.0183
714.3948	0.0026
714.5748	0.0273
714.7547	0.0233
714.9346	0.0379
715.1145	0.0166
715.2944	-0.0029
715.4743	0.0302
715.6541	0.0005
715.834	0.0311
716.0138	0.0001
716.1936	0.0484
716.3733	0.0206
716.5531	0.0143
716.7328	0.029
716.9126	0.0164
717.0923	0.0239
717.2719	0.0162
717.4516	0.0215
717.6312	-0.0147
717.8109	0.0467
717.9905	0.0189
718.1701	0.0146
718.3496	0.0032
718.5292	0.008
718.7087	0.0371
718.8882	0.0243
719.0677	0.0199
719.2472	0.0004
719.4267	0.0091
719.6061	0.0225
719.7856	0.0575
719.965	0.0103
720.1443	0.0056
720.3237	0.0161
720.5031	-0.0011
720.6824	0.0143
720.8617	-0.0025
721.041	0.0421
721.2203	0.0009
721.3995	0.0086
721.5788	0.0088
721.758	-0.021
721.9372	0.0348
722.1164	0.0105
722.2956	-0.0073
722.4747	0.0031
722.6538	0.0121
722.8329	0.0057
723.012	0.01
723.1911	-0.0145
723.3702	0.0344
723.5492	0.0092
723.7282	0.0053
723.9072	0.0378
724.0862	0.01
724.2652	0.0252
724.4441	0.0058
724.623	0.0023
724.8019	-0.014
724.9808	0.0312
725.1597	0.026
725.3385	0.0145
725.5174	0.0349
725.6962	0.0389
725.875	0.002
726.0538	0.0181
726.2325	0.019
726.4112	0.0027
726.59	0.0182
726.7687	-0.0093
726.9474	0.0246
727.126	0.0319
727.3047	0.0084
727.4833	0.0096
727.6619	-0.0028
727.8405	-0.0131
728.0191	0.0213
728.1976	0.0072
728.3762	0.0214
728.5547	-0.0153
728.7332	-0.0013
728.9116	-0.003
729.0901	0.0351
729.2686	0.0344
729.447	-0.0037
729.6254	0.018
729.8038	0.0004
729.9821	-0.0127
730.1605	0.0233
730.3388	0.0027
730.5171	0.0254
730.6954	-0.0198
730.8737	0.0243
731.0519	0.0072
731.2302	0.0242
731.4084	-0.003
731.5866	0.0112
731.7648	0.0009
731.9429	0.0307
732.1211	-0.0002
732.2992	-0.0011
732.4773	0.0058
732.6554	-0.0042
732.8335	0.0172
733.0115	0.0186
733.1896	-0.0193
733.3676	0.0326
733.5456	-0.0036
733.7235	0.0052
733.9015	0.0191
734.0794	-0.0084
734.2574	-0.0257
734.4353	0.0157
734.6131	-0.008
734.791	0.004
734.9689	-0.0153
735.1467	-0.0087
735.3245	0.0246
735.5023	0.0197
735.68	-0.0002
735.8578	0.0142
736.0355	0.0016
736.2132	0.0156
736.3909	-0.0055
736.5686	0.0058
736.7463	-0.014
736.9239	0.0394
737.1015	0.0066
737.2791	-0.0072
737.4567	0.0177
737.6343	0.0087
737.8118	0.0126
737.9894	0.0194
738.1669	0.0027
738.3444	0.0312
738.5218	-0.0173
738.6993	0.0082
738.8767	0.0231
739.0541	-0.0069
739.2315	0.0043
739.4089	0.0209
739.5863	0.0026
739.7636	-0.0034
739.9409	-0.0028
740.1182	0.0262
740.2955	0.0216
740.4728	-0.0161
740.65	0.0048
740.8272	0.038
741.0044	-0.0236
741.1816	0.0319
741.3588	-0.0236
741.5359	-0.0171
741.7131	0.0131
741.8902	-0.0028
742.0673	-0.0252
742.2444	0.0345
742.4214	0.0331
742.5985	-0.0033
742.7755	-0.0042
742.9525	-0.0269
743.1295	-0.0118
743.3064	0.0241
743.4834	-0.0024
743.6603	0.0637
743.8372	-0.001
744.0141	0.0236
744.191	0.0062
744.3678	-0.0148
744.5446	0.019
744.7215	0.005
744.8982	0.03
745.075	0.0541
745.2518	-0.0044
745.4285	0.0229
745.6052	-0.0478
745.7819	0.0157
745.9586	0.018
746.1353	-0.0025
746.3119	0.0164
746.4885	0.0407
746.6651	-0.0093
746.8417	0.0221
747.0183	0.0473
747.1948	0.0209
747.3714	-0.0156
747.5479	0.0218
747.7244	-0.0182
747.9008	-0.0115
748.0773	0.0477
748.2537	0.0045
748.4301	0.0286
748.6065	-0.0325
748.7829	-0.0061
748.9593	0.0016
749.1356	0.0248
749.3119	0.0209
749.4882	0.023
749.6645	0.03
749.8408	0.0178
750.017	0.0178
750.1933	-0.0146
750.3695	0.0046
750.5457	0.0124
750.7218	-0.0075
750.898	0.0137
751.0741	0.013
751.2502	0.0013
751.4263	0.0096
751.6024	0.0278
751.7784	0.0216
751.9545	0.0228
752.1305	0.0116
752.3065	-0.0026
752.4825	0.0294
752.6584	0.0333
752.8344	0.0143
753.0103	-0.0148
753.1862	0.0201
753.3621	0.005
753.5379	0.014
753.7138	0.0135
753.8896	0.0064
754.0654	0.0026
754.2412	0.0224
754.417	0.0285
754.5927	0.0059
754.7685	0.034
754.9442	0.0325
755.1199	0.0292
755.2956	0.016
755.4712	0
755.6469	0.0174
755.8225	0.0071
755.9981	0.0437
756.1736	0.008
756.3492	0.0025
756.5248	0.0113
756.7003	-0.0013
756.8758	0.0069
757.0513	0.017
757.2267	0.0178
757.4022	-0.0008
757.5776	0.0122
757.753	0.026
757.9284	0.012
758.1038	0.0101
758.2791	0.0201
758.4545	-0.0008
758.6298	0.0106
758.8051	0.0137
758.9803	0.0036
759.1556	0.0021
759.3308	-0.0054
759.506	0.0074
759.6812	0.0128
759.8564	0.0092
760.0316	0.01
760.2067	0.0377
760.3819	-0.0012
760.557	-0.0014
760.732	0.0126
760.9071	0.0314
761.0821	-0.0039
761.2572	0.007
761.4322	0.0012
761.6072	-0.0097
761.7821	-0.0064
761.9571	0.0153
762.132	0.0195
762.3069	0.0216
762.4818	0.0012
762.6567	0.0082
762.8316	0.006
763.0064	0.0237
763.1812	0.0235
763.356	-0.0175
763.5308	0.0264
763.7055	-0.0018
763.8803	0.0184
764.055	-0.008
764.2297	-0.0065
764.4044	-0.0065
764.579	-0.005
764.7537	-0.0051
764.9283	0.0171
765.1029	0.0201
765.2775	0.0106
765.4521	0.0049
765.6266	0.0019
765.8011	0.0107
765.9756	0.0185
766.1501	0.0138
766.3246	0.0253
766.4991	0.0093
766.6735	0.0589
766.8479	0.0385
767.0223	0.0294
767.1967	0.011
767.371	0.0294
767.5454	0.0372
767.7197	0.0257
767.894	0.0099
768.0683	0.0271
768.2425	0.0154
768.4168	0.023
768.591	0.0018
768.7652	0.0016
768.9394	-0.0113
769.1135	0.0191
769.2877	0.0299
769.4618	0.0339
769.6359	-0.0123
769.81	0.0193
769.984	-0.0258
770.1581	0.0016
770.3321	0.0396
770.5061	0.0008
770.6801	0.0261
770.8541	0.0098
771.028	0.0411
771.202	0.0447
771.3759	0.0227
771.5498	0.0331
771.7236	-0.0061
771.8975	0.0472
772.0713	0.0103
772.2451	-0.0067
772.4189	0.0154
772.5927	-0.0111
772.7665	0.0071
772.9402	0.031
773.1139	-0.001
773.2876	-0.0261
773.4613	0.0024
773.635	0.0514
773.8086	0.0127
773.9822	0.028
774.1558	0.0494
774.3294	0.0282
774.503	0.0354
774.6765	0.0437
774.8501	-0.0264
775.0236	0.0322
775.1971	-0.0265
775.3705	0.0341
775.544	-0.0017
775.7174	0.0051
775.8908	0.0063
776.0642	0.0229
776.2376	0.0666
776.4109	0.0221
776.5843	-0.0042
776.7576	0.0078
776.9309	0.025
777.1041	0.0019
777.2774	-0.0064
777.4506	-0.0368
777.6238	0.0542
777.797	0.0819
777.9702	-0.0051
778.1434	0.0057
778.3165	-0.0174
778.4896	-0.0263
778.6627	0.0233
778.8358	-0.0136
779.0089	0.0013
779.1819	0.0148
779.3549	0.0042
779.5279	-0.0208
779.7009	0.0236
779.8739	0.1285
780.0468	0.0301
780.2197	0.0143
780.3926	-0.0333
780.5655	0.0422
780.7384	0.01
780.9112	0.0029
781.0841	0.0113
781.2569	0.0227
781.4297	0.021
781.6024	0.022
781.7752	0.051
781.9479	0.0451
782.1206	0.0285
782.2933	0.027
782.466	0.0431
782.6386	-0.0078
782.8113	0.0191
782.9839	0.0545
783.1565	0.0356
783.329	0.0142
783.5016	0.0296
783.6741	0.015
783.8466	0.0884
784.0191	0.0211
784.1916	-0.0259
784.3641	-0.0359
784.5365	0.0596
784.7089	-0.0366
784.8813	0.0727
785.0537	0.035
785.2261	-0.0271
785.3984	0.0184
785.5707	0.0001
785.743	0.0361
785.9153	0.0016
786.0876	-0.03
786.2598	0.0016
786.432	0.0317
786.6042	0.0099
786.7764	-0.0329
786.9486	0.0192
787.1207	0.0301
787.2928	0.0514
787.4649	-0.0145
787.637	0.0231
787.8091	-0.0109
787.9811	0.0435
788.1532	0.0285
788.3252	0.024
788.4972	0.0698
788.6691	0.0392
788.8411	0.0167
789.013	0.0374
789.1849	0.0145
789.3568	0.0414
789.5287	0.0363
789.7005	-0.0282
789.8723	-0.0146
790.0442	-0.0315
790.2159	-0.0121
790.3877	0.0174
790.5595	0.0064
790.7312	-0.0408
790.9029	-0.0049
791.0746	0.038
791.2463	-0.0471
791.4179	0.0285
791.5896	0.0414
791.7612	0.0345
791.9328	-0.006
792.1044	-0.0088
792.2759	-0.032
792.4474	0.0084
792.619	0.0002
792.7905	-0.0009
792.9619	0.0291
793.1334	0.0482
793.3048	0.111
793.4762	0.0243
793.6476	-0.0326
793.819	0.0241
793.9904	-0.0071
794.1617	0.0378
794.333	0.0024
794.5043	0.0447
794.6756	0.0281
794.8469	0.0443
795.0181	0.0201
795.1893	0.0179
795.3605	0.0512
795.5317	-0.007
795.7029	0.0243
795.874	0.0423
796.0452	0.0647
796.2163	0.0544
796.3873	0.0856
796.5584	0.0568
796.7294	0.0047
796.9005	-0.0127
797.0715	-0.0788
797.2425	0.0908
797.4134	0.0171
797.5844	0.0377
797.7553	-0.0938
797.9262	0.0491
798.0971	0.0347
798.2679	-0.0639
798.4388	0.0503
798.6096	0.0085
798.7804	0.0547
798.9512	0.0049
799.122	0.0622
799.2927	0.0748
799.4635	-0.0129
799.6342	0.0174
799.8049	0.0744
799.9755	-0.0094
800.1462	0.0071
800.3168	0.0518
800.4874	-0.1069
800.658	0.0819
800.8286	-0.0253
800.9991	0.0003
801.1696	0.0091
801.3402	-0.0017
801.5106	-0.0474
801.6811	0.0316
801.8516	0.0035
802.022	-0.0053
802.1924	-0.014
802.3628	0.0524
802.5332	0.0608
802.7035	0.0595
802.8739	0.0326
803.0442	-0.0557
803.2145	0.1116
803.3847	0.0762
803.555	0.0201
803.7252	-0.0306
803.8954	-0.0174
804.0656	-0.0161
804.2358	0.0151
804.4059	0.0112
804.5761	0.0951
804.7462	0.1053
804.9163	0.0397
805.0864	-0.0475
805.2564	0.0099
805.4264	0.0454
805.5965	0.0838
805.7665	0.0033
805.9364	-0.0195
806.1064	0.0002
806.2763	0.0059
806.4462	0.0522
806.6161	0.0704
806.786	0.0323
806.9559	0.0262
807.1257	0.0188
807.2955	-0.0488
807.4653	0.0235
807.6351	0.079
807.8048	0.0357
807.9746	0.0193
808.1443	-0.0196
808.314	-0.001
808.4837	0.0379
808.6533	0.079
808.8229	0.0245
808.9926	0.0742
809.1622	0.0382
809.3317	-0.0666
809.5013	-0.0382
809.6708	0.057
809.8403	0.0723
810.0098	0.1203
810.1793	0.0196
810.3488	-0.0204
810.5182	0.0887
810.6876	-0.0403
810.857	0.0349
811.0264	-0.0335
811.1958	0.0937
811.3651	0.0502
811.5344	0.156
811.7037	0.0576
811.873	0.0443
812.0422	-0.0915
812.2115	0.0122
812.3807	-0.1329
812.5499	0.0469
812.7191	-0.0892
812.8882	-0.0581
813.0574	0.0273
813.2265	-0.0023
813.3956	0.0488
813.5646	0.0189
813.7337	0.0112
813.9027	-0.0197
814.0718	0.0462
814.2407	0.0586
814.4097	0.0229
814.5787	0.0778
814.7476	0.0382
814.9165	-0.0161
815.0854	-0.0497
815.2543	0.0123
815.4232	0.0721
815.592	0.1421
815.7608	-0.0229
815.9296	0.0147
816.0984	0.1123
816.2671	-0.0526
816.4359	0.0779
816.6046	0.0421
816.7733	0.0515
816.942	-0.0404
817.1106	-0.0369
817.2793	0.0591
817.4479	-0.0887
817.6165	0.0846
817.785	-0.0259
817.9536	-0.1127
818.1221	0.0325
818.2906	-0.0589
818.4591	-0.0213
818.6276	-0.0416
818.7961	0.0476
818.9645	-0.0315
819.1329	0.1738
819.3013	0.044
819.4697	0.0009
819.638	0.1251
819.8064	-0.0519
819.9747	0.1961
820.143	-0.0983
820.3113	0.0987
820.4795	0.1407
820.6477	0.0415
820.816	0.0821
820.9842	0.0579
821.1523	-0.0155
821.3205	-0.0653
821.4886	-0.0573
821.6567	0.0151
821.8248	0.176
821.9929	-0.187
822.1609	-0.0441
822.329	0.0927
822.497	0.031
822.665	0.0137
822.833	-0.0178
823.0009	-0.0064
823.1688	0.0645
823.3367	-0.1357
823.5046	0.0257
823.6725	0.0311
823.8404	0.0571
824.0082	-0.0524
824.176	0.06
824.3438	0.0729
824.5116	0.007
824.6793	0.1522
824.847	-0.0486
825.0147	0.0918
825.1824	0.1307
825.3501	-0.1644
825.5177	0.0408
825.6854	-0.033
825.853	-0.0672
826.0206	0.0228
826.1881	0.0589
826.3557	0.0998
826.5232	0.1608
826.6907	0.1282
826.8582	0.0227
827.0257	0.1711
827.1931	0.0658
827.3605	0.0943
827.528	-0.0436
827.6953	-0.1373
827.8627	-0.0921
828.03	0.2691
828.1974	0.1107
828.3647	0.1214
828.532	0.0479
828.6992	0.1889
828.8665	-0.0457
829.0337	0.0743
829.2009	-0.1478
829.3681	0.0102
829.5352	-0.0897
829.7024	0.0096
829.8695	0.1484
830.0366	0.194
830.2037	0.1576
830.3707	0.0496
830.5378	0.1842
830.7048	0.0499
830.8718	0.1674
831.0388	-0.0398
831.2057	0.6753
831.3727	0.3122
831.5396	0.0106
831.7065	-0.7774
831.8734	0.2048
832.0402	0.1356
832.2071	-0.0302
832.3739	0.2442
832.5407	-0
832.7075	-0.1135
832.8742	-0
833.041	0.5093
833.2077	0.2001
833.3744	0.2465
833.541	-0.0639
833.7077	-0.0991
833.8743	0.1154
834.0409	0.1127
834.2075	0.1957
834.3741	-0.162
834.5407	0.0011
834.7072	0.017
834.8737	0.1506
835.0402	0.3619
835.2067	-0.0309
835.3731	-0.0304
835.5395	0.0313
835.706	0.1757
835.8723	0.0785
836.0387	0.8248
836.2051	0.1445
836.3714	-0.1432
836.5377	0.164
836.704	0.1992
836.8703	-0.196
837.0365	-0.6569
837.2027	0.026
837.3689	-0.0737
837.5351	-0.0192
837.7013	-0.0457
837.8674	0.2945
838.0335	-0.1049
838.1997	0.2055
838.3657	-0
838.5318	-0
838.6978	-0
838.8639	-0.4503
839.0299	-0.0189
839.1958	0.0443
839.3618	0.1253
839.5277	-0.0526
839.6937	0.7487
839.8596	0.3931
840.0254	-0.129
840.1913	0.3331
840.3571	-0.1697
840.523	-2.0195
840.6888	0.0199
840.8545	-0.4738
841.0203	0.1377
841.186	-0.086
841.3517	0.0306
841.5174	0.2997
841.6831	-0.0304
841.8488	0.0014
842.0144	0.5215
842.18	0.3093
842.3456	-0.411
842.5112	-0
842.6767	0.0885
842.8422	0.0548
843.0077	0.1008
843.1732	0.4433
843.3387	0.0022
843.5042	-0
843.6696	-0.1052
843.835	0.2289
844.0004	-0.3978
844.1657	-0
844.3311	-0.474
844.4964	-0.5349
844.6617	0.3065
844.827	-0
844.9923	0.1857
845.1575	-0.2922
845.3227	-0.5136
845.4879	-0.1461
845.6531	0.0499
845.8183	0.3675
845.9834	-0.3184
846.1485	0.3376
846.3136	-0.0095
846.4787	-0
846.6438	-0
846.8088	0.1026
846.9738	-0.264
847.1388	0.3953
847.3038	0.6015
847.4687	1.5362
847.6337	0.0069
847.7986	-0.3433
847.9635	0.1548
848.1284	-0
848.2932	-0.2113
848.458	-0
848.6228	1.412
848.7876	-0
848.9524	-0.0259
849.1172	-1.8616
849.2819	-0
849.4466	0.5448
849.6113	-0.0449
849.7759	-0
849.9406	-0.0457
850.1052	-1.0414
850.2698	-0.0282
850.4344	-0.4707
850.599	-0.0851
850.7635	0.463
850.928	0.3074
851.0925	0.0972
851.257	-0
851.4215	-0
851.5859	-0.2386
851.7503	-0
851.9147	0.19
852.0791	0.0974
852.2434	0.4015
852.4078	-0
852.5721	-0
852.7364	0.2138
852.9007	0.0782
853.0649	-0
853.2291	-0.2317
853.3934	-0
853.5575	-0.0095
853.7217	0.2048
853.8859	-0.103
854.05	-0.5063
854.2141	0.278
854.3782	-0.1766
854.5423	-0.1929
854.7063	-0.0832
854.8703	0.0492
855.0343	-0.0237
855.1983	-0.0062
855.3623	0.0749
855.5262	-0.0538
855.6901	0.1191
855.854	0.0929
856.0179	-0.0425
856.1818	0.2615
856.3456	0.6085
856.5094	-0
856.6732	-0
856.837	-1.4101
857.0008	0.0634
857.1645	-0
857.3282	-0.6776
857.4919	0.2478
857.6556	0.0298
857.8192	-0.0197
857.9828	-0.1413
858.1465	0.1566
858.31	-0
858.4736	-0.6314
858.6372	-0.214
858.8007	-0.2423
858.9642	0.2509
859.1277	0.5974
859.2911	-0.6026
859.4546	-0
859.618	0.9953
859.7814	0.2243
859.9448	-0
860.1081	0.5734
860.2715	-0
860.4348	-0.2329
860.5981	-0
860.7614	-0
860.9246	0.029
861.0879	1.2032
861.2511	-0
861.4143	-0
861.5774	-0.1707
861.7406	-0.3035
861.9037	-0
862.0668	-0
862.2299	0.3285
862.393	-0
862.556	-0
862.7191	-0.2905
862.8821	0.1407
863.0451	-0.0525
863.208	-0.231
863.371	-0.454
863.5339	0.2787
863.6968	0.2776
863.8597	-0.0226
864.0225	-0
864.1854	-0.272
864.3482	-0.9384
864.511	-0.1764
864.6737	-0.263
864.8365	0.0287
864.9992	-0
865.1619	0.0987
865.3246	-2.0095
865.4873	-0
865.65	0.9524
865.8126	-0
865.9752	-0
866.1378	-0.2306
866.3004	-0.2198
866.4629	-1.8513
866.6254	0.0063
866.7879	0.1255
866.9504	-0.3902
867.1129	-0.6314
867.2753	-0.1539
867.4377	-0.3392
867.6001	-0.4286
867.7625	0.5035
867.9249	-0
868.0872	-0.1815
868.2495	-0
868.4118	0.0431
868.5741	-0
868.7363	0.1214
868.8986	-0.4655
869.0608	-0.3061
869.223	-0.2889
869.3851	1.1043
869.5473	0.1548
869.7094	-0
869.8715	-0
870.0336	0.0918
870.1957	-0
870.3577	0.6509
870.5197	0.1484
870.6817	-0.2391
870.8437	-0.205
871.0057	0.7791
871.1676	-0
871.3295	-0
871.4914	-0
871.6533	-0.1642
871.8151	0.953
871.977	-0.0226
872.1388	0.9087
872.3006	-0.5174
872.4623	-0
872.6241	-0
872.7858	0.0475
872.9475	-0
873.1092	0.0576
873.2709	0.3461
873.4325	-1.7954
873.5941	-0
873.7557	-0
873.9173	-0
874.0789	0.4796
874.2404	-0
874.4019	-0.0212
874.5634	-0
874.7249	0.0492
874.8863	-0.1128
875.0478	0.0022
875.2092	-0
875.3706	-0.0869
875.5319	0.2274
875.6933	-0
875.8546	0.2936
876.0159	-0
876.1772	-0
876.3385	-0
876.4997	0.4419
876.6609	-0
876.8221	-0
876.9833	-0.0574
877.1445	0.8027
877.3056	-0.853
877.4667	-0.6861
877.6278	-0
877.7889	0.5078
877.9499	-0
878.111	0.2387
878.272	-0.0955
878.433	-0.1382
878.5939	0.0599
878.7549	-0
878.9158	-0
879.0767	0.3057
879.2376	-0
879.3984	-0
879.5593	0.3123
879.7201	-1.6218
879.8809	-0
880.0417	-0.3077
880.2024	0.0709
880.3632	-0
880.5239	0.2585
880.6846	-0.7423
880.8452	0.0529
881.0059	-0
881.1665	0.0149
881.3271	0.5812
881.4877	0.7214
881.6483	-0
881.8088	-0
881.9693	-0.9817
882.1298	-0.9817
882.2903	-0.9817
