Data from D4ACN5uM420nmA_Absorbance_14-37-07-676.txt Node
Date: Fri Feb 21 14:37:07 GMT 2025
User: LASERRRRR
Spectrometer: FLMT03099
Trigger mode: 0
Integration Time (sec): 1.500000E-2
Scans to average: 1
Electric dark correction enabled: true
Nonlinearity correction enabled: false
Boxcar width: 0
XAxis mode: Wavelengths
Number of Pixels in Spectrum: 3648
>>>>>Begin Spectral Data<<<<<
179.3399	-0
179.5586	-0
179.7771	-0
179.9957	-0.1369
180.2143	-0
180.4329	-0
180.6514	-0
180.8699	1.3916
181.0885	-0
181.307	0.1422
181.5255	0.3075
181.744	-0
181.9625	0.1745
182.181	-0
182.3994	-0.3355
182.6179	-0.2587
182.8363	-0.0624
183.0547	0.0293
183.2732	0.0663
183.4916	0.3164
183.71	0.2644
183.9284	0.2615
184.1467	0.4648
184.3651	0.15
184.5835	0.1382
184.8018	0.1339
185.0201	0.0106
185.2385	0.3351
185.4568	0.2124
185.6751	0.1643
185.8934	0.2558
186.1117	-0.1212
186.3299	0.0528
186.5482	0.0321
186.7664	0.1465
186.9847	0.1794
187.2029	0.2794
187.4211	0.0406
187.6393	0.3436
187.8575	0.1326
188.0757	0.2148
188.2939	-0.0051
188.512	0.2748
188.7302	0.0984
188.9483	0.1814
189.1665	0.4017
189.3846	0.1981
189.6027	0.0751
189.8208	0.101
190.0389	0.2458
190.257	0.1688
190.475	0.0348
190.6931	0.0993
190.9111	-0.1458
191.1292	0.1987
191.3472	0.1142
191.5652	0.0755
191.7832	0.2585
192.0012	0.0316
192.2192	0.0776
192.4371	0.0353
192.6551	0.2071
192.873	0.1424
193.091	0.1366
193.3089	0.2259
193.5268	0.2478
193.7447	0.1475
193.9626	0.2459
194.1805	0.1809
194.3984	0.153
194.6162	0.2911
194.8341	0.3047
195.0519	0.2197
195.2697	0.1869
195.4875	0.2044
195.7054	0.2441
195.9231	0.2963
196.1409	0.4155
196.3587	0.3056
196.5765	0.2884
196.7942	0.3075
197.012	0.3793
197.2297	0.3432
197.4474	0.4001
197.6651	0.34
197.8828	0.3071
198.1005	0.4046
198.3182	0.3863
198.5358	0.3942
198.7535	0.4305
198.9711	0.3675
199.1888	0.3841
199.4064	0.4062
199.624	0.3737
199.8416	0.3335
200.0592	0.3581
200.2767	0.354
200.4943	0.4078
200.7119	0.4183
200.9294	0.4083
201.1469	0.3589
201.3645	0.4685
201.582	0.3577
201.7995	0.3886
202.017	0.4066
202.2344	0.4478
202.4519	0.3562
202.6694	0.353
202.8868	0.4114
203.1042	0.4029
203.3217	0.3786
203.5391	0.4092
203.7565	0.3462
203.9739	0.3607
204.1913	0.3371
204.4086	0.3507
204.626	0.3641
204.8433	0.3621
205.0607	0.3652
205.278	0.3672
205.4953	0.3115
205.7126	0.3486
205.9299	0.3205
206.1472	0.3403
206.3644	0.3359
206.5817	0.3304
206.7989	0.3443
207.0162	0.3173
207.2334	0.3092
207.4506	0.3117
207.6678	0.3217
207.885	0.3168
208.1022	0.2925
208.3194	0.2996
208.5365	0.3027
208.7537	0.2896
208.9708	0.2994
209.1879	0.3042
209.405	0.2659
209.6222	0.2641
209.8392	0.3083
210.0563	0.2817
210.2734	0.2657
210.4905	0.2807
210.7075	0.2666
210.9245	0.2892
211.1416	0.2642
211.3586	0.2609
211.5756	0.2454
211.7926	0.2654
212.0096	0.269
212.2265	0.2599
212.4435	0.2528
212.6604	0.2593
212.8774	0.2569
213.0943	0.2621
213.3112	0.237
213.5281	0.2397
213.745	0.2263
213.9619	0.237
214.1788	0.2567
214.3956	0.2333
214.6125	0.2539
214.8293	0.2642
215.0461	0.2462
215.2629	0.2454
215.4798	0.2549
215.6965	0.2414
215.9133	0.2367
216.1301	0.2437
216.3469	0.2455
216.5636	0.2372
216.7803	0.2397
216.9971	0.2673
217.2138	0.247
217.4305	0.2544
217.6472	0.2322
217.8639	0.2481
218.0805	0.2643
218.2972	0.249
218.5138	0.2445
218.7305	0.2418
218.9471	0.2509
219.1637	0.2808
219.3803	0.2682
219.5969	0.2592
219.8135	0.2528
220.0301	0.2472
220.2466	0.2565
220.4632	0.2524
220.6797	0.2605
220.8962	0.2547
221.1127	0.2624
221.3292	0.2674
221.5457	0.2715
221.7622	0.2638
221.9787	0.2843
222.1951	0.2666
222.4116	0.2628
222.628	0.2794
222.8444	0.2791
223.0608	0.27
223.2772	0.287
223.4936	0.2756
223.71	0.2788
223.9264	0.2814
224.1427	0.2821
224.3591	0.2935
224.5754	0.2909
224.7917	0.2938
225.008	0.2842
225.2243	0.2947
225.4406	0.2873
225.6569	0.3068
225.8732	0.3042
226.0894	0.3045
226.3057	0.3032
226.5219	0.3164
226.7381	0.3287
226.9543	0.3206
227.1705	0.3349
227.3867	0.32
227.6029	0.3171
227.8191	0.3346
228.0352	0.3469
228.2513	0.3485
228.4675	0.3392
228.6836	0.3377
228.8997	0.3379
229.1158	0.3524
229.3319	0.3595
229.548	0.3662
229.764	0.3599
229.9801	0.3795
230.1961	0.379
230.4121	0.3724
230.6282	0.3827
230.8442	0.3903
231.0602	0.3794
231.2761	0.3797
231.4921	0.3891
231.7081	0.3918
231.924	0.4032
232.14	0.4045
232.3559	0.4108
232.5718	0.4142
232.7877	0.4096
233.0036	0.4047
233.2195	0.414
233.4353	0.424
233.6512	0.4092
233.867	0.4306
234.0829	0.4212
234.2987	0.4241
234.5145	0.4386
234.7303	0.4331
234.9461	0.4402
235.1619	0.4447
235.3776	0.4384
235.5934	0.4482
235.8091	0.4446
236.0249	0.4496
236.2406	0.4478
236.4563	0.4531
236.672	0.4365
236.8877	0.4548
237.1034	0.4534
237.319	0.45
237.5347	0.4484
237.7503	0.4544
237.966	0.467
238.1816	0.4603
238.3972	0.4639
238.6128	0.4697
238.8284	0.4712
239.0439	0.4606
239.2595	0.4624
239.475	0.4733
239.6906	0.462
239.9061	0.4737
240.1216	0.4598
240.3371	0.4682
240.5526	0.466
240.7681	0.4647
240.9836	0.4649
241.199	0.4505
241.4145	0.447
241.6299	0.4515
241.8453	0.4431
242.0607	0.4424
242.2761	0.4335
242.4915	0.435
242.7069	0.4232
242.9223	0.4252
243.1376	0.4169
243.353	0.4009
243.5683	0.4031
243.7836	0.3864
243.9989	0.3807
244.2142	0.3761
244.4295	0.3768
244.6448	0.3763
244.86	0.3499
245.0753	0.3508
245.2905	0.352
245.5057	0.3419
245.721	0.3379
245.9362	0.3297
246.1514	0.3191
246.3665	0.3103
246.5817	0.3091
246.7969	0.3039
247.012	0.3026
247.2271	0.2955
247.4423	0.2857
247.6574	0.2883
247.8725	0.2763
248.0876	0.2757
248.3026	0.2724
248.5177	0.2652
248.7328	0.2537
248.9478	0.2545
249.1628	0.2554
249.3779	0.2434
249.5929	0.2447
249.8079	0.2444
250.0228	0.227
250.2378	0.2327
250.4528	0.238
250.6677	0.2324
250.8827	0.2184
251.0976	0.2158
251.3125	0.2184
251.5274	0.2124
251.7423	0.2079
251.9572	0.212
252.172	0.2121
252.3869	0.2102
252.6017	0.2063
252.8166	0.1984
253.0314	0.1976
253.2462	0.2023
253.461	0.1986
253.6758	0.2011
253.8906	0.1986
254.1053	0.1967
254.3201	0.1939
254.5348	0.1908
254.7496	0.1917
254.9643	0.1919
255.179	0.1941
255.3937	0.195
255.6083	0.1926
255.823	0.186
256.0377	0.1836
256.2523	0.1934
256.467	0.1917
256.6816	0.1866
256.8962	0.1904
257.1108	0.1906
257.3254	0.1839
257.54	0.1836
257.7545	0.1919
257.9691	0.1859
258.1836	0.1823
258.3981	0.1884
258.6127	0.1828
258.8272	0.1852
259.0417	0.1813
259.2561	0.1793
259.4706	0.1807
259.6851	0.1807
259.8995	0.18
260.114	0.1835
260.3284	0.1793
260.5428	0.1852
260.7572	0.1782
260.9716	0.1859
261.186	0.1835
261.4003	0.1837
261.6147	0.1787
261.829	0.1803
262.0433	0.1853
262.2577	0.1836
262.472	0.1853
262.6863	0.1824
262.9005	0.1835
263.1148	0.1805
263.3291	0.1813
263.5433	0.182
263.7576	0.1852
263.9718	0.1806
264.186	0.1909
264.4002	0.1846
264.6144	0.194
264.8286	0.1842
265.0427	0.1886
265.2569	0.1861
265.471	0.1881
265.6851	0.1941
265.8993	0.1841
266.1134	0.185
266.3275	0.186
266.5415	0.1858
266.7556	0.1933
266.9697	0.186
267.1837	0.1854
267.3978	0.1847
267.6118	0.1805
267.8258	0.1902
268.0398	0.1883
268.2538	0.1908
268.4677	0.1868
268.6817	0.1859
268.8957	0.1804
269.1096	0.1742
269.3235	0.1775
269.5374	0.1826
269.7514	0.1831
269.9652	0.1847
270.1791	0.1824
270.393	0.1855
270.6068	0.1801
270.8207	0.1808
271.0345	0.1763
271.2483	0.1764
271.4622	0.1841
271.676	0.1837
271.8897	0.1792
272.1035	0.183
272.3173	0.1785
272.531	0.1737
272.7448	0.1801
272.9585	0.1736
273.1722	0.1739
273.3859	0.1805
273.5996	0.1777
273.8133	0.1856
274.0269	0.1772
274.2406	0.1813
274.4542	0.1828
274.6679	0.1815
274.8815	0.1896
275.0951	0.1861
275.3087	0.1826
275.5223	0.1838
275.7358	0.1841
275.9494	0.1896
276.1629	0.1847
276.3765	0.1808
276.59	0.1785
276.8035	0.186
277.017	0.1924
277.2305	0.1859
277.444	0.1912
277.6574	0.1884
277.8709	0.195
278.0843	0.1883
278.2978	0.1909
278.5112	0.1899
278.7246	0.1867
278.938	0.1919
279.1513	0.1915
279.3647	0.1885
279.5781	0.1905
279.7914	0.1908
280.0047	0.1872
280.2181	0.1873
280.4314	0.1915
280.6447	0.1889
280.8579	0.1873
281.0712	0.1847
281.2845	0.1859
281.4977	0.1916
281.711	0.1875
281.9242	0.1923
282.1374	0.186
282.3506	0.1864
282.5638	0.1884
282.7769	0.1833
282.9901	0.1879
283.2033	0.1848
283.4164	0.1885
283.6295	0.1898
283.8426	0.1877
284.0557	0.1913
284.2688	0.1917
284.4819	0.1847
284.695	0.194
284.908	0.1833
285.1211	0.1901
285.3341	0.1857
285.5471	0.1938
285.7601	0.1853
285.9731	0.1914
286.1861	0.1909
286.3991	0.193
286.612	0.1929
286.825	0.1959
287.0379	0.1908
287.2508	0.1953
287.4637	0.1948
287.6766	0.1933
287.8895	0.1871
288.1024	0.1978
288.3152	0.1921
288.5281	0.1939
288.7409	0.1971
288.9538	0.1941
289.1666	0.1955
289.3794	0.1901
289.5922	0.1902
289.8049	0.1923
290.0177	0.1928
290.2304	0.1883
290.4432	0.2026
290.6559	0.1945
290.8686	0.1996
291.0813	0.1914
291.294	0.1892
291.5067	0.192
291.7194	0.1909
291.932	0.1931
292.1447	0.2001
292.3573	0.2016
292.5699	0.1974
292.7825	0.1891
292.9951	0.1926
293.2077	0.1957
293.4203	0.1953
293.6328	0.1943
293.8454	0.1943
294.0579	0.1979
294.2704	0.1994
294.4829	0.1946
294.6954	0.19
294.9079	0.1965
295.1204	0.1949
295.3328	0.1991
295.5453	0.1988
295.7577	0.1953
295.9701	0.1929
296.1825	0.1948
296.3949	0.1964
296.6073	0.1919
296.8197	0.1941
297.0321	0.1962
297.2444	0.1918
297.4567	0.1949
297.6691	0.1955
297.8814	0.2006
298.0937	0.1978
298.306	0.1939
298.5182	0.2032
298.7305	0.1947
298.9428	0.1988
299.155	0.1899
299.3672	0.197
299.5794	0.1985
299.7916	0.1977
300.0038	0.1951
300.216	0.1846
300.4282	0.1928
300.6403	0.2036
300.8525	0.1923
301.0646	0.1982
301.2767	0.1911
301.4888	0.1946
301.7009	0.2021
301.913	0.1976
302.125	0.1946
302.3371	0.1955
302.5491	0.1993
302.7612	0.2052
302.9732	0.1974
303.1852	0.2006
303.3972	0.1962
303.6092	0.1931
303.8211	0.1943
304.0331	0.1927
304.245	0.1938
304.457	0.1913
304.6689	0.195
304.8808	0.193
305.0927	0.1927
305.3046	0.1929
305.5164	0.1876
305.7283	0.191
305.9401	0.1799
306.152	0.1866
306.3638	0.1806
306.5756	0.1792
306.7874	0.1802
306.9992	0.1788
307.2109	0.1825
307.4227	0.1722
307.6344	0.1813
307.8462	0.1741
308.0579	0.1743
308.2696	0.1757
308.4813	0.173
308.693	0.1711
308.9046	0.1722
309.1163	0.1644
309.328	0.1653
309.5396	0.1638
309.7512	0.1613
309.9628	0.1597
310.1744	0.1573
310.386	0.1581
310.5976	0.153
310.8091	0.1582
311.0207	0.1504
311.2322	0.1483
311.4437	0.1564
311.6552	0.1513
311.8667	0.1521
312.0782	0.1475
312.2897	0.1552
312.5012	0.1427
312.7126	0.1427
312.924	0.1419
313.1355	0.1421
313.3469	0.1415
313.5583	0.1469
313.7696	0.1347
313.981	0.1412
314.1924	0.1359
314.4037	0.1409
314.6151	0.1364
314.8264	0.1436
315.0377	0.1384
315.249	0.1381
315.4603	0.1311
315.6716	0.1386
315.8828	0.1396
316.0941	0.1398
316.3053	0.1351
316.5165	0.1317
316.7277	0.1335
316.9389	0.1395
317.1501	0.1279
317.3613	0.1301
317.5724	0.129
317.7836	0.1274
317.9947	0.1311
318.2058	0.127
318.417	0.1296
318.6281	0.1301
318.8391	0.1357
319.0502	0.131
319.2613	0.1286
319.4723	0.128
319.6834	0.1346
319.8944	0.1282
320.1054	0.131
320.3164	0.1248
320.5274	0.1258
320.7383	0.1361
320.9493	0.1336
321.1602	0.1351
321.3712	0.1307
321.5821	0.1275
321.793	0.13
322.0039	0.1329
322.2148	0.1344
322.4257	0.1279
322.6365	0.127
322.8474	0.1298
323.0582	0.1368
323.269	0.1314
323.4798	0.1311
323.6906	0.1333
323.9014	0.1282
324.1122	0.1248
324.3229	0.1385
324.5337	0.1337
324.7444	0.1314
324.9551	0.1362
325.1658	0.1314
325.3765	0.1318
325.5872	0.1375
325.7979	0.1336
326.0085	0.1321
326.2192	0.132
326.4298	0.1403
326.6404	0.1447
326.851	0.1302
327.0616	0.1342
327.2722	0.136
327.4828	0.134
327.6933	0.1451
327.9039	0.1346
328.1144	0.1352
328.3249	0.1411
328.5354	0.1433
328.7459	0.1409
328.9564	0.134
329.1669	0.1472
329.3773	0.1396
329.5878	0.1399
329.7982	0.141
330.0086	0.144
330.219	0.1404
330.4294	0.1435
330.6398	0.1472
330.8502	0.1442
331.0605	0.1421
331.2708	0.1437
331.4812	0.1381
331.6915	0.144
331.9018	0.1397
332.1121	0.1454
332.3224	0.1445
332.5326	0.1347
332.7429	0.1384
332.9531	0.145
333.1633	0.1373
333.3735	0.1446
333.5837	0.1446
333.7939	0.1513
334.0041	0.1493
334.2143	0.1407
334.4244	0.1488
334.6346	0.145
334.8447	0.1456
335.0548	0.1479
335.2649	0.153
335.475	0.1442
335.685	0.1491
335.8951	0.1371
336.1051	0.1442
336.3152	0.1496
336.5252	0.1497
336.7352	0.1432
336.9452	0.147
337.1552	0.1464
337.3652	0.1405
337.5751	0.1481
337.7851	0.1471
337.995	0.1443
338.2049	0.1441
338.4148	0.1513
338.6247	0.1526
338.8346	0.146
339.0445	0.1517
339.2543	0.1465
339.4642	0.1485
339.674	0.1468
339.8838	0.1569
340.0936	0.1487
340.3034	0.1484
340.5132	0.1455
340.7229	0.1529
340.9327	0.1555
341.1424	0.151
341.3522	0.149
341.5619	0.158
341.7716	0.1571
341.9813	0.153
342.1909	0.1553
342.4006	0.164
342.6102	0.1525
342.8199	0.1573
343.0295	0.1543
343.2391	0.1594
343.4487	0.1578
343.6583	0.1662
343.8679	0.16
344.0774	0.1568
344.287	0.1627
344.4965	0.1636
344.706	0.1631
344.9155	0.1583
345.125	0.1665
345.3345	0.1746
345.544	0.1669
345.7534	0.169
345.9629	0.1718
346.1723	0.171
346.3817	0.1713
346.5911	0.1699
346.8005	0.1747
347.0099	0.171
347.2193	0.1717
347.4286	0.1761
347.638	0.1718
347.8473	0.1755
348.0566	0.1708
348.2659	0.1664
348.4752	0.1756
348.6845	0.1796
348.8937	0.1754
349.103	0.1773
349.3122	0.1853
349.5214	0.1831
349.7306	0.1851
349.9398	0.1852
350.149	0.1763
350.3582	0.1801
350.5674	0.1828
350.7765	0.1867
350.9856	0.181
351.1948	0.1868
351.4039	0.1814
351.613	0.1832
351.822	0.1923
352.0311	0.1816
352.2402	0.185
352.4492	0.1781
352.6582	0.1866
352.8672	0.1904
353.0762	0.1818
353.2852	0.1903
353.4942	0.1941
353.7032	0.1867
353.9121	0.1854
354.1211	0.1908
354.33	0.1924
354.5389	0.1841
354.7478	0.1896
354.9567	0.1828
355.1655	0.193
355.3744	0.194
355.5833	0.1924
355.7921	0.198
356.0009	0.1957
356.2097	0.186
356.4185	0.1932
356.6273	0.1849
356.8361	0.1944
357.0448	0.1927
357.2536	0.1963
357.4623	0.1943
357.671	0.1964
357.8797	0.2012
358.0884	0.1969
358.2971	0.1961
358.5057	0.1988
358.7144	0.202
358.923	0.2059
359.1316	0.203
359.3402	0.2138
359.5488	0.2007
359.7574	0.2098
359.966	0.2039
360.1746	0.2034
360.3831	0.2151
360.5916	0.2171
360.8002	0.2201
361.0087	0.2118
361.2172	0.2074
361.4256	0.2129
361.6341	0.2019
361.8426	0.2121
362.051	0.2182
362.2594	0.2117
362.4678	0.2187
362.6762	0.2127
362.8846	0.2191
363.093	0.2126
363.3014	0.2222
363.5097	0.2229
363.718	0.2281
363.9264	0.2177
364.1347	0.2164
364.343	0.2207
364.5513	0.2269
364.7595	0.2302
364.9678	0.2273
365.176	0.2367
365.3842	0.2315
365.5925	0.2303
365.8007	0.2236
366.0089	0.2314
366.217	0.2375
366.4252	0.2356
366.6333	0.2308
366.8415	0.2397
367.0496	0.2327
367.2577	0.2427
367.4658	0.2389
367.6739	0.2318
367.882	0.2463
368.09	0.2356
368.2981	0.2453
368.5061	0.2445
368.7141	0.2391
368.9221	0.2447
369.1301	0.2478
369.3381	0.2512
369.5461	0.2444
369.754	0.2437
369.962	0.2513
370.1699	0.2495
370.3778	0.2575
370.5857	0.2535
370.7936	0.254
371.0015	0.2641
371.2093	0.2508
371.4172	0.2616
371.625	0.2583
371.8328	0.2591
372.0406	0.2611
372.2484	0.2558
372.4562	0.2529
372.664	0.2633
372.8717	0.2528
373.0795	0.2705
373.2872	0.269
373.4949	0.262
373.7026	0.2556
373.9103	0.2572
374.118	0.2631
374.3256	0.2747
374.5333	0.2573
374.7409	0.2731
374.9485	0.2715
375.1561	0.2761
375.3637	0.2613
375.5713	0.2695
375.7789	0.2672
375.9864	0.2693
376.194	0.2713
376.4015	0.274
376.609	0.2742
376.8165	0.2759
377.024	0.2805
377.2315	0.2744
377.4389	0.2659
377.6464	0.2773
377.8538	0.2817
378.0612	0.2861
378.2686	0.2785
378.476	0.2881
378.6834	0.2855
378.8908	0.2893
379.0981	0.281
379.3055	0.2905
379.5128	0.2862
379.7201	0.2847
379.9274	0.2787
380.1347	0.2831
380.342	0.2972
380.5492	0.286
380.7565	0.2869
380.9637	0.2913
381.1709	0.2802
381.3781	0.2944
381.5853	0.2824
381.7925	0.2871
381.9997	0.291
382.2068	0.2903
382.4139	0.2932
382.6211	0.293
382.8282	0.3091
383.0353	0.2957
383.2424	0.2945
383.4494	0.2948
383.6565	0.2924
383.8635	0.2964
384.0706	0.2992
384.2776	0.3025
384.4846	0.2998
384.6916	0.3013
384.8986	0.3027
385.1055	0.3083
385.3125	0.2983
385.5194	0.2952
385.7263	0.3008
385.9333	0.3077
386.1402	0.3029
386.347	0.301
386.5539	0.3019
386.7608	0.3006
386.9676	0.2954
387.1744	0.2939
387.3813	0.3093
387.5881	0.2943
387.7948	0.3045
388.0016	0.3075
388.2084	0.2946
388.4151	0.2928
388.6219	0.2898
388.8286	0.2997
389.0353	0.3121
389.242	0.3043
389.4487	0.293
389.6553	0.2899
389.862	0.2931
390.0686	0.2963
390.2753	0.2983
390.4819	0.2881
390.6885	0.2908
390.8951	0.2819
391.1016	0.2879
391.3082	0.2988
391.5147	0.2811
391.7213	0.2852
391.9278	0.2864
392.1343	0.2881
392.3408	0.2811
392.5473	0.2798
392.7537	0.2835
392.9602	0.2782
393.1666	0.2815
393.373	0.2806
393.5794	0.2736
393.7858	0.2832
393.9922	0.2793
394.1986	0.2574
394.4049	0.2708
394.6113	0.2718
394.8176	0.2753
395.0239	0.2662
395.2302	0.2702
395.4365	0.2694
395.6428	0.272
395.8491	0.2655
396.0553	0.2733
396.2615	0.2702
396.4678	0.2652
396.674	0.2608
396.8802	0.2622
397.0863	0.2582
397.2925	0.2694
397.4987	0.2506
397.7048	0.266
397.9109	0.2535
398.117	0.2584
398.3231	0.2528
398.5292	0.2555
398.7353	0.2549
398.9413	0.2547
399.1474	0.2583
399.3534	0.2591
399.5594	0.2623
399.7654	0.2518
399.9714	0.2584
400.1774	0.2487
400.3833	0.2551
400.5893	0.2488
400.7952	0.2627
401.0011	0.2563
401.207	0.2564
401.4129	0.2519
401.6188	0.2507
401.8247	0.2548
402.0305	0.2561
402.2364	0.2584
402.4422	0.2575
402.648	0.255
402.8538	0.2489
403.0596	0.249
403.2654	0.2561
403.4711	0.2431
403.6768	0.2601
403.8826	0.2623
404.0883	0.2556
404.294	0.25
404.4997	0.2645
404.7054	0.2641
404.911	0.259
405.1167	0.2537
405.3223	0.2535
405.5279	0.2518
405.7335	0.2525
405.9391	0.2556
406.1447	0.2564
406.3502	0.2534
406.5558	0.2481
406.7613	0.2527
406.9668	0.2534
407.1724	0.2576
407.3778	0.2643
407.5833	0.2513
407.7888	0.259
407.9942	0.2548
408.1997	0.2589
408.4051	0.247
408.6105	0.2533
408.8159	0.2584
409.0213	0.2606
409.2267	0.2557
409.432	0.251
409.6374	0.259
409.8427	0.2616
410.048	0.2589
410.2533	0.2497
410.4586	0.248
410.6639	0.2563
410.8691	0.243
411.0744	0.2617
411.2796	0.2589
411.4848	0.2518
411.69	0.2464
411.8952	0.2566
412.1004	0.2542
412.3056	0.2501
412.5107	0.2589
412.7158	0.265
412.921	0.2565
413.1261	0.2448
413.3312	0.2618
413.5362	0.2646
413.7413	0.2603
413.9464	0.2409
414.1514	0.2534
414.3564	0.243
414.5614	0.2454
414.7664	0.2391
414.9714	0.236
415.1764	0.2517
415.3813	0.2353
415.5863	0.2567
415.7912	0.2413
415.9961	0.2528
416.201	0.2533
416.4059	0.2492
416.6108	0.2443
416.8156	0.2511
417.0205	0.2466
417.2253	0.2409
417.4301	0.2468
417.6349	0.2415
417.8397	0.244
418.0445	0.2376
418.2492	0.2379
418.454	0.2354
418.6587	0.2485
418.8634	0.245
419.0681	0.2486
419.2728	0.2383
419.4775	0.2474
419.6822	0.229
419.8868	0.2281
420.0915	0.2279
420.2961	0.2273
420.5007	0.2303
420.7053	0.2364
420.9099	0.2344
421.1144	0.2322
421.319	0.2309
421.5235	0.2284
421.728	0.2429
421.9325	0.2335
422.137	0.231
422.3415	0.2379
422.546	0.2286
422.7504	0.2275
422.9549	0.231
423.1593	0.2184
423.3637	0.2247
423.5681	0.2294
423.7725	0.2365
423.9769	0.2326
424.1812	0.2166
424.3856	0.2067
424.5899	0.2143
424.7942	0.2268
424.9985	0.214
425.2028	0.2209
425.4071	0.2213
425.6113	0.2246
425.8156	0.2157
426.0198	0.2145
426.224	0.2239
426.4282	0.2095
426.6324	0.213
426.8366	0.2117
427.0407	0.2108
427.2449	0.2118
427.449	0.1989
427.6531	0.2095
427.8572	0.1964
428.0613	0.2101
428.2654	0.2085
428.4694	0.1881
428.6735	0.1878
428.8775	0.1964
429.0815	0.1992
429.2855	0.1929
429.4895	0.1947
429.6935	0.191
429.8975	0.187
430.1014	0.1935
430.3053	0.1942
430.5093	0.1851
430.7132	0.1933
430.9171	0.177
431.1209	0.1791
431.3248	0.1703
431.5286	0.1765
431.7325	0.1902
431.9363	0.1709
432.1401	0.1694
432.3439	0.176
432.5477	0.1693
432.7514	0.1732
432.9552	0.1666
433.1589	0.1656
433.3627	0.1706
433.5664	0.1607
433.7701	0.1738
433.9737	0.1675
434.1774	0.1657
434.3811	0.1505
434.5847	0.1573
434.7883	0.1562
434.9919	0.1428
435.1955	0.1531
435.3991	0.1492
435.6027	0.1466
435.8062	0.1561
436.0098	0.1417
436.2133	0.1404
436.4168	0.1433
436.6203	0.1348
436.8238	0.1379
437.0272	0.1428
437.2307	0.1335
437.4341	0.1375
437.6375	0.1372
437.841	0.1293
438.0443	0.1327
438.2477	0.131
438.4511	0.1157
438.6545	0.1289
438.8578	0.1247
439.0611	0.1252
439.2644	0.1238
439.4677	0.1235
439.671	0.1064
439.8743	0.1264
440.0775	0.1137
440.2808	0.1121
440.484	0.1047
440.6872	0.11
440.8904	0.099
441.0936	0.1089
441.2967	0.0918
441.4999	0.0937
441.703	0.0994
441.9062	0.1106
442.1093	0.109
442.3124	0.0956
442.5155	0.0957
442.7185	0.0868
442.9216	0.0967
443.1246	0.0967
443.3276	0.0925
443.5307	0.0815
443.7337	0.0872
443.9366	0.0862
444.1396	0.081
444.3426	0.0871
444.5455	0.0829
444.7484	0.079
444.9513	0.0772
445.1542	0.0812
445.3571	0.0811
445.56	0.0783
445.7628	0.0796
445.9657	0.0782
446.1685	0.0773
446.3713	0.0804
446.5741	0.0732
446.7769	0.0732
446.9797	0.0749
447.1824	0.0648
447.3852	0.0555
447.5879	0.0647
447.7906	0.055
447.9933	0.0655
448.196	0.059
448.3986	0.0529
448.6013	0.0583
448.8039	0.0539
449.0066	0.0761
449.2092	0.0702
449.4118	0.0551
449.6143	0.0608
449.8169	0.051
450.0195	0.0586
450.222	0.0489
450.4245	0.0526
450.627	0.0446
450.8295	0.0445
451.032	0.0545
451.2345	0.0444
451.4369	0.0503
451.6394	0.0463
451.8418	0.0456
452.0442	0.0422
452.2466	0.041
452.449	0.044
452.6513	0.0401
452.8537	0.0338
453.056	0.0396
453.2583	0.0399
453.4607	0.0351
453.663	0.0388
453.8652	0.0373
454.0675	0.0475
454.2697	0.036
454.472	0.0286
454.6742	0.0345
454.8764	0.0353
455.0786	0.0345
455.2808	0.0332
455.4829	0.0407
455.6851	0.0369
455.8872	0.0181
456.0893	0.0291
456.2915	0.0318
456.4935	0.042
456.6956	0.0251
456.8977	0.0264
457.0997	0.0291
457.3018	0.0162
457.5038	0.0356
457.7058	0.0307
457.9078	0.033
458.1098	0.0304
458.3117	0.0443
458.5137	0.0114
458.7156	0.0273
458.9175	0.0313
459.1194	0.0237
459.3213	0.0232
459.5232	0.0209
459.725	0.0252
459.9269	0.0262
460.1287	0.0193
460.3305	0.0249
460.5323	0.0241
460.7341	0.0259
460.9359	0.0155
461.1376	0.019
461.3394	0.0193
461.5411	0.0314
461.7428	0.0211
461.9445	0.0158
462.1462	0.02
462.3479	0.0262
462.5495	0.0251
462.7512	0.0135
462.9528	0.019
463.1544	0.0204
463.356	0.0142
463.5576	0.0195
463.7592	0.0137
463.9607	0.0152
464.1623	0.0097
464.3638	0.0124
464.5653	0.0158
464.7668	0.0119
464.9683	0.017
465.1697	0.0139
465.3712	0.0096
465.5726	0.0148
465.7741	0.0134
465.9755	0.0119
466.1769	0.0184
466.3782	0.0087
466.5796	0.0183
466.7809	0.0122
466.9823	0.0161
467.1836	0.0133
467.3849	0.0143
467.5862	0.0022
467.7875	0.01
467.9887	0.0098
468.19	0.0241
468.3912	0.0208
468.5924	0.0001
468.7936	0.0079
468.9948	0.0122
469.196	0.0125
469.3972	0.0106
469.5983	0.0165
469.7994	0.0127
470.0006	0.0057
470.2017	0.0082
470.4027	0.0165
470.6038	0.0151
470.8049	0.0095
471.0059	0.0137
471.2069	0.0005
471.408	0.0151
471.6089	0.0049
471.8099	0.0121
472.0109	0.0028
472.2119	0.0158
472.4128	0.0048
472.6137	0.0009
472.8146	0.0152
473.0155	0.0193
473.2164	0.005
473.4173	0.0039
473.6181	0.004
473.819	0.0128
474.0198	0.004
474.2206	0.0025
474.4214	0.0122
474.6222	-0.0006
474.8229	0.0093
475.0237	0.0126
475.2244	0.0059
475.4251	0.0061
475.6258	0.0017
475.8265	0.0155
476.0272	-0.0024
476.2278	0.0064
476.4285	0.0052
476.6291	0.0076
476.8297	0.0023
477.0303	0.0118
477.2309	0.0034
477.4315	0.008
477.632	0.0061
477.8326	0.0069
478.0331	0.0119
478.2336	0.0059
478.4341	0.0089
478.6346	0.0037
478.8351	-0.0015
479.0355	0.0133
479.236	0.0122
479.4364	0.0089
479.6368	0.0037
479.8372	0.0087
480.0376	0.0069
480.2379	0.0082
480.4383	0.014
480.6386	-0.001
480.8389	0.0103
481.0392	0.0049
481.2395	0.0117
481.4398	0.0071
481.6401	0.0091
481.8403	-0.0026
482.0405	0.0056
482.2408	0.0065
482.441	0.0091
482.6411	0.0033
482.8413	-0.0072
483.0415	0.0017
483.2416	-0.0001
483.4417	-0.0046
483.6419	-0.0012
483.8419	0.0047
484.042	0.0067
484.2421	-0.0001
484.4422	0.0058
484.6422	0.0102
484.8422	0.0064
485.0422	0.0031
485.2422	0.0036
485.4422	0.0077
485.6422	0.0056
485.8421	0.0063
486.042	0.0147
486.242	0.0048
486.4419	0.0029
486.6417	-0.0021
486.8416	0.0077
487.0415	0.0007
487.2413	0.0012
487.4411	0.008
487.641	0.0029
487.8408	0.0101
488.0405	0.0105
488.2403	-0.0014
488.4401	0.0087
488.6398	0.0071
488.8395	0.0043
489.0392	0.0051
489.2389	0.004
489.4386	-0.0074
489.6383	0.0074
489.8379	-0.0018
490.0376	0.0027
490.2372	-0.0028
490.4368	-0.0026
490.6364	-0.009
490.836	-0.0025
491.0355	-0.0029
491.2351	-0.0012
491.4346	0.0033
491.6341	-0.0016
491.8336	0.0081
492.0331	0.0038
492.2326	0.0053
492.432	0.0033
492.6315	0.0043
492.8309	0.0053
493.0303	0.0041
493.2297	0.0014
493.4291	0.0022
493.6284	0.0094
493.8278	0.001
494.0271	0.0044
494.2264	-0.002
494.4257	0.0051
494.625	-0.002
494.8243	-0.0003
495.0236	0.0031
495.2228	0.0031
495.422	0.0026
495.6213	0.0038
495.8205	0.0019
496.0196	0.0005
496.2188	-0.0006
496.418	0.0007
496.6171	-0.0029
496.8162	0.0031
497.0153	0.0109
497.2144	0.0005
497.4135	0.0072
497.6126	0.0069
497.8116	-0.0069
498.0107	-0.0001
498.2097	0.0066
498.4087	-0.0067
498.6077	-0.013
498.8067	0.0003
499.0056	-0.0031
499.2046	0.0092
499.4035	0.007
499.6024	-0.0057
499.8013	0.0051
500.0002	-0.0025
500.199	-0.0026
500.3979	-0.0021
500.5967	-0.0002
500.7956	0.0011
500.9944	0.0034
501.1932	-0.0003
501.3919	0.0031
501.5907	0.001
501.7895	-0.0006
501.9882	-0.0038
502.1869	0.0096
502.3856	-0.0034
502.5843	0.0002
502.783	0.0013
502.9816	0.0083
503.1803	-0.0033
503.3789	0.0028
503.5775	-0.0025
503.7761	-0.0085
503.9747	0.0029
504.1732	-0.0143
504.3718	0.0101
504.5703	0.001
504.7689	-0.0107
504.9674	0
505.1658	0.0001
505.3643	0.0015
505.5628	0.0035
505.7612	0.0048
505.9597	-0.0022
506.1581	0.0002
506.3565	-0.0041
506.5549	-0.0082
506.7532	-0.0023
506.9516	-0.0039
507.1499	-0.0055
507.3482	-0.0024
507.5465	0.0066
507.7448	0.0015
507.9431	0.0089
508.1414	-0.0075
508.3396	-0.0056
508.5379	-0.0008
508.7361	0.0052
508.9343	0.0016
509.1325	0.0097
509.3306	-0.0067
509.5288	-0.0097
509.7269	0.0042
509.9251	0.0048
510.1232	0.0005
510.3213	0.0093
510.5193	0.0024
510.7174	0.0023
510.9154	0.0066
511.1135	-0.0071
511.3115	-0.0052
511.5095	-0.0069
511.7075	-0.0055
511.9055	-0.0001
512.1034	0.0003
512.3014	-0.0025
512.4993	-0.0052
512.6972	-0.0009
512.8951	-0.0045
513.093	-0.0043
513.2908	0.0096
513.4887	-0.0021
513.6865	0.0003
513.8844	0.0084
514.0822	0.0034
514.2799	-0.01
514.4777	-0.0164
514.6755	-0.0057
514.8732	-0.0143
515.0709	0.0017
515.2687	0.0003
515.4664	-0.0007
515.664	0.0001
515.8617	0.0052
516.0594	0.0019
516.257	-0.0053
516.4546	0.0099
516.6522	-0.0054
516.8498	-0.0012
517.0474	0.0016
517.2449	-0.0084
517.4425	-0.001
517.64	-0.0012
517.8375	0.0058
518.035	0.0017
518.2325	-0.0037
518.43	-0.0089
518.6274	-0.0042
518.8249	-0.0062
519.0223	0.0044
519.2197	-0.0064
519.4171	-0.0161
519.6145	0.0003
519.8118	-0.0059
520.0092	-0.0146
520.2065	0.0119
520.4038	-0.0006
520.6011	0.0007
520.7984	-0.006
520.9956	0.0041
521.1929	-0.0049
521.3901	-0.0019
521.5874	-0.0034
521.7846	-0.0131
521.9818	-0.0106
522.1789	-0.0039
522.3761	0.0024
522.5732	0.0026
522.7704	-0.0069
522.9675	-0.0129
523.1646	-0.0148
523.3617	0.0041
523.5587	-0.0051
523.7558	-0.0035
523.9528	0.0045
524.1498	-0.0049
524.3468	-0.0099
524.5438	0.0065
524.7408	-0.0116
524.9378	-0.0001
525.1347	0.004
525.3316	-0.0133
525.5285	-0.008
525.7254	-0.0088
525.9223	0.005
526.1192	-0.0005
526.316	0.0021
526.5129	-0.0005
526.7097	-0.005
526.9065	-0.0005
527.1033	0.0036
527.3	-0.0133
527.4968	-0.0022
527.6935	-0.0062
527.8903	-0.0055
528.087	-0.001
528.2837	-0.0011
528.4804	-0.0086
528.677	0.0008
528.8737	-0.0037
529.0703	-0.0026
529.2669	0.0115
529.4635	-0.0112
529.6601	-0.0056
529.8567	-0.0085
530.0532	-0.0048
530.2498	0.0005
530.4463	-0.0091
530.6428	-0.0064
530.8393	0.0113
531.0358	-0.0069
531.2322	-0.0118
531.4287	-0.0124
531.6251	-0.0162
531.8215	-0.0044
532.0179	0.0052
532.2143	-0.0102
532.4107	0.0051
532.607	-0.0067
532.8034	-0.003
532.9997	-0.0086
533.196	-0.0037
533.3923	0.0015
533.5886	0.0061
533.7848	-0.0044
533.9811	-0.0082
534.1773	0.0001
534.3735	0.0055
534.5697	0.0032
534.7659	0.0019
534.9621	-0.0054
535.1582	0.0001
535.3544	0.0001
535.5505	-0.0017
535.7466	0.0004
535.9427	-0.0053
536.1387	-0.0095
536.3348	0.0008
536.5308	0.0016
536.7269	-0.0124
536.9229	0.0016
537.1189	0.0066
537.3148	0.0023
537.5108	-0.0016
537.7068	0.01
537.9027	-0.0132
538.0986	0.0045
538.2945	0.001
538.4904	-0.0085
538.6863	-0.0024
538.8821	0.0016
539.078	-0.0009
539.2738	-0.0003
539.4696	-0.0132
539.6654	-0.0085
539.8611	-0.0081
540.0569	-0.0023
540.2526	0.0015
540.4484	-0.0141
540.6441	0.0042
540.8398	0.0043
541.0355	-0.0035
541.2311	-0.0041
541.4268	0.0027
541.6224	0.0026
541.818	0.0116
542.0136	0.0031
542.2092	0.0073
542.4048	0.0042
542.6003	0.0001
542.7959	-0.0031
542.9914	-0.002
543.1869	0.0097
543.3824	-0.0062
543.5779	0.0021
543.7734	0.008
543.9688	0.014
544.1642	-0.0003
544.3596	0.0081
544.555	-0.0003
544.7504	0.0109
544.9458	-0.003
545.1411	-0.0016
545.3365	0.0053
545.5318	0.0063
545.7271	0.0024
545.9224	-0.0037
546.1177	-0.0033
546.3129	-0.0081
546.5081	-0.0039
546.7034	0.0106
546.8986	0.0045
547.0938	0.0046
547.289	0.0047
547.4841	-0.001
547.6793	-0.004
547.8744	0.0004
548.0695	-0.0005
548.2646	0.0078
548.4597	-0.0055
548.6548	0.0114
548.8498	0.0029
549.0448	0.0053
549.2399	0.0135
549.4349	0.001
549.6298	0.0042
549.8248	-0.0073
550.0198	0.0084
550.2147	0.0075
550.4096	-0.0115
550.6045	-0.0038
550.7994	-0.0016
550.9943	0.0014
551.1892	-0.0128
551.384	0.008
551.5788	0.004
551.7737	0.0029
551.9685	0.0024
552.1632	0.0024
552.358	-0.0059
552.5528	0.0079
552.7475	-0.0041
552.9422	0.0128
553.1369	0.0086
553.3316	-0.004
553.5263	0.0112
553.7209	-0
553.9156	-0.0069
554.1102	-0.0127
554.3048	0.0009
554.4994	-0.0058
554.694	-0.0021
554.8885	0.0066
555.0831	0.0075
555.2776	0.0062
555.4721	0.007
555.6666	0.0057
555.8611	0.0029
556.0555	0.004
556.25	0.0068
556.4444	0.0025
556.6388	-0.0002
556.8332	0.0024
557.0276	0.002
557.222	-0.0031
557.4163	0.0007
557.6107	0.0064
557.805	-0.0023
557.9993	0.0082
558.1936	-0.0033
558.3879	0.0062
558.5821	-0.0018
558.7764	-0.0069
558.9706	-0.0028
559.1648	0.0038
559.359	-0.0087
559.5532	-0.0004
559.7473	-0.0047
559.9415	-0.0042
560.1356	0.0164
560.3297	-0.0053
560.5238	0.0103
560.7179	-0.0022
560.9119	0.0059
561.106	-0.0088
561.3	0.0066
561.494	-0.0116
561.688	-0.0021
561.882	-0.0087
562.076	0.0038
562.2699	0.0052
562.4639	0.0113
562.6578	0.0028
562.8517	0.0093
563.0456	-0.0014
563.2395	0.0039
563.4333	0.0053
563.6272	0.0025
563.821	0.0005
564.0148	-0.0043
564.2086	0.0112
564.4024	0.0143
564.5961	0.002
564.7899	0.0146
564.9836	0.0082
565.1773	0.0128
565.371	0.0042
565.5647	0.0116
565.7584	0.0146
565.952	0.0025
566.1456	0.0011
566.3393	0.0087
566.5329	0.0036
566.7264	0.0137
566.92	0.004
567.1136	0.0028
567.3071	-0.0054
567.5006	0.0079
567.6941	0.0086
567.8876	0.0051
568.0811	0.0266
568.2745	-0.0032
568.468	0.0038
568.6614	0.011
568.8548	0.0082
569.0482	0.0146
569.2416	0.0065
569.4349	0.0063
569.6283	0.0002
569.8216	0.0099
570.0149	0.0077
570.2082	0.0097
570.4015	0.0088
570.5947	0.008
570.788	0.0117
570.9812	0.0022
571.1744	0.0117
571.3676	0.0035
571.5608	0.0064
571.754	0.0087
571.9471	0.0086
572.1402	0.0084
572.3333	0.0032
572.5264	0.0054
572.7195	0.0033
572.9126	0.0022
573.1057	0.0076
573.2987	0.0086
573.4917	0.0073
573.6847	0.0042
573.8777	0.0091
574.0707	0.0089
574.2636	0.0079
574.4566	0.0042
574.6495	0.0092
574.8424	0.0069
575.0353	0.0081
575.2281	0.0106
575.421	0.0018
575.6138	-0.0005
575.8067	0.012
575.9995	0.0078
576.1923	0.0084
576.385	0.0108
576.5778	0.0108
576.7706	0.012
576.9633	0.011
577.156	0.002
577.3487	0.0057
577.5414	0.0055
577.734	0.0064
577.9267	0.0078
578.1193	0.0098
578.3119	0.0059
578.5045	0.009
578.6971	0.0002
578.8897	0.0054
579.0822	0.0117
579.2747	0.0049
579.4673	0.0065
579.6598	0.0104
579.8522	0.0044
580.0447	0.0067
580.2372	0.0092
580.4296	0.007
580.622	0.0049
580.8144	0.0097
581.0068	0.0056
581.1992	0.0074
581.3915	0.0015
581.5839	0.0085
581.7762	0.0066
581.9685	0.0045
582.1608	0.0037
582.353	0.006
582.5453	0.0092
582.7375	0.0104
582.9298	0.0043
583.122	0.0092
583.3142	0.0088
583.5063	0.0051
583.6985	0.0066
583.8906	0.0036
584.0827	0.0095
584.2749	0.0078
584.4669	0.0079
584.659	0.013
584.8511	0.0124
585.0431	0.0107
585.2352	0.0041
585.4272	0.0119
585.6192	0.0105
585.8111	0.0024
586.0031	0.0033
586.195	0.0049
586.387	0.0073
586.5789	0.0083
586.7708	0.0089
586.9627	0.0075
587.1545	0.0077
587.3464	0.0101
587.5382	0.0069
587.73	0.0124
587.9218	0.0039
588.1136	0.0032
588.3053	0.0091
588.4971	0.0099
588.6888	0.0065
588.8805	0.0058
589.0722	0.0106
589.2639	0.0098
589.4556	0.0102
589.6472	0.0104
589.8389	0.0089
590.0305	0.0029
590.2221	0.0139
590.4137	0.0052
590.6052	0.0017
590.7968	0.0105
590.9883	0.0122
591.1798	0.0005
591.3713	0.0053
591.5628	0.0082
591.7543	0.005
591.9458	0.0103
592.1372	0.0087
592.3286	0.0067
592.52	0.0029
592.7114	0.0051
592.9028	0.0086
593.0941	0.0094
593.2855	0.0031
593.4768	0.0113
593.6681	0.009
593.8594	0.0078
594.0506	0.0061
594.2419	0.0075
594.4331	0.0107
594.6244	-0.001
594.8156	0.0062
595.0067	0.0037
595.1979	0.0026
595.3891	0.0094
595.5802	0.01
595.7713	0.008
595.9624	0.0135
596.1535	0.0096
596.3446	0.0065
596.5357	0.0125
596.7267	0.0024
596.9177	0.0075
597.1087	0.0056
597.2997	0.0098
597.4907	0.0011
597.6817	0.0094
597.8726	0.0118
598.0635	0.0029
598.2544	0.0071
598.4453	0.0039
598.6362	0.0119
598.827	0.0053
599.0179	0.0034
599.2087	0.0097
599.3995	0.0122
599.5903	0.0122
599.7811	0.0129
599.9718	0.0027
600.1626	0.0083
600.3533	0.0013
600.544	0.0109
600.7347	0.0035
600.9254	0.013
601.116	0.0078
601.3067	0.0052
601.4973	0.0103
601.6879	0.0092
601.8785	0.0138
602.0691	0.0083
602.2596	0.0088
602.4502	0.0142
602.6407	0.0096
602.8312	0.0108
603.0217	0.0057
603.2122	0.0058
603.4027	0.0096
603.5931	-0.0006
603.7835	0.0083
603.9739	0.0042
604.1643	0.0143
604.3547	0.0166
604.5451	0.0169
604.7354	0.0057
604.9257	0.0054
605.116	-0.0005
605.3063	0.0086
605.4966	0.008
605.6869	0.0146
605.8771	0.0038
606.0673	0.0057
606.2575	0.0059
606.4477	0.0098
606.6379	0.0056
606.8281	0.0069
607.0182	0.0048
607.2083	0.0035
607.3985	0.003
607.5885	0.0072
607.7786	0.0077
607.9687	0.0082
608.1587	0.008
608.3488	0.0096
608.5388	0.008
608.7288	0.0004
608.9187	0.0039
609.1087	0.0065
609.2986	0.014
609.4886	0.0027
609.6785	0.0062
609.8684	0.0017
610.0582	0.0021
610.2481	0.0021
610.4379	0.0047
610.6278	0.0083
610.8176	0.0136
611.0074	0.0087
611.1971	0.0089
611.3869	0.0048
611.5766	0.0004
611.7664	0.0091
611.9561	0.0173
612.1458	0.0114
612.3354	0.0072
612.5251	0.0142
612.7147	0.0061
612.9044	0.0024
613.094	0.0112
613.2836	0.0067
613.4731	0.0034
613.6627	0.0092
613.8522	0.0095
614.0417	0.0117
614.2313	0.0078
614.4207	0.0103
614.6102	0.0105
614.7997	0.0102
614.9891	0.0066
615.1785	0.0036
615.3679	0.0105
615.5573	0.0075
615.7467	0.0003
615.9361	0.0037
616.1254	0.0106
616.3147	0.0098
616.504	0.0094
616.6933	0.0095
616.8826	0.0007
617.0718	0.0054
617.2611	0.0028
617.4503	0.012
617.6395	0.0157
617.8287	0.0048
618.0179	0.0074
618.207	0.0138
618.3961	0.0079
618.5853	0.011
618.7744	0.0032
618.9634	0.019
619.1525	0.0042
619.3416	-0.0032
619.5306	0.0091
619.7196	0.0132
619.9086	0.0003
620.0976	-0.0065
620.2866	0.0092
620.4755	0.007
620.6645	0.0225
620.8534	0.0031
621.0423	0.0038
621.2312	0.0061
621.42	0.002
621.6089	0.0054
621.7977	0.0068
621.9865	0.0049
622.1753	0.0066
622.3641	0.0064
622.5529	0.0011
622.7416	0.0001
622.9303	0.002
623.1191	0.0087
623.3078	-0.0011
623.4964	0.0127
623.6851	0.001
623.8737	0.0051
624.0624	-0.0085
624.251	0.0051
624.4396	0.008
624.6282	0.0079
624.8167	0.0067
625.0053	0.0227
625.1938	0.0058
625.3823	0.0128
625.5708	0.0038
625.7593	0.0051
625.9477	0.0159
626.1362	0.0098
626.3246	0.0089
626.513	0.0096
626.7014	0.0147
626.8898	0.0146
627.0781	0.0077
627.2665	0.0105
627.4548	0.0029
627.6431	0.005
627.8314	0.0097
628.0197	0.0186
628.2079	-0.0034
628.3962	0.0037
628.5844	0.0041
628.7726	0.0142
628.9608	0.0105
629.1489	0.0126
629.3371	-0.0021
629.5252	0.0014
629.7134	0.004
629.9015	0.0097
630.0895	-0.0027
630.2776	0.0147
630.4657	0.0102
630.6537	0.015
630.8417	0.001
631.0297	0.0021
631.2177	0.0079
631.4057	0.0095
631.5936	0.0094
631.7815	0.0059
631.9695	0.0324
632.1574	0.0056
632.3452	0.0006
632.5331	0.0153
632.7209	0.019
632.9088	0.0034
633.0966	0.026
633.2844	0.0052
633.4722	0.0092
633.6599	0.0171
633.8477	-0.004
634.0354	0.0099
634.2231	-0.003
634.4108	-0.0001
634.5985	0.0102
634.7861	-0.0106
634.9738	-0.0006
635.1614	0.0105
635.349	-0.0052
635.5366	0.0153
635.7242	0.0001
635.9117	0.0004
636.0993	0.0009
636.2868	-0.0048
636.4743	0.0084
636.6618	-0.0058
636.8492	0.0105
637.0367	0.0039
637.2241	0.008
637.4115	0.0261
637.5989	-0.012
637.7863	0.0266
637.9737	-0.0031
638.161	0.013
638.3484	-0.0095
638.5357	0.0013
638.723	0.0165
638.9103	-0.0071
639.0975	-0.0043
639.2848	0.0104
639.472	-0.0002
639.6592	-0.0029
639.8464	0.0122
640.0336	0.0095
640.2208	0.006
640.4079	0.0154
640.595	-0.0076
640.7821	0.0276
640.9692	0.003
641.1563	0.0184
641.3434	0.0049
641.5304	0.0207
641.7174	0.0263
641.9044	-0.0052
642.0914	0.0259
642.2784	-0.0092
642.4653	-0.0129
642.6523	0.013
642.8392	-0.0058
643.0261	0.0196
643.213	-0.009
643.3999	0.0278
643.5867	0.0213
643.7735	-0.0015
643.9604	0.0216
644.1472	-0.001
644.3339	-0.0058
644.5207	0.0139
644.7075	-0.0006
644.8942	-0.0115
645.0809	0.009
645.2676	-0.0093
645.4543	-0.0096
645.6409	0.0186
645.8276	0.0072
646.0142	-0.0036
646.2008	0.0018
646.3874	0.0069
646.574	0.0086
646.7605	-0.0129
646.9471	0.006
647.1336	-0.0074
647.3201	-0.0076
647.5066	0.0077
647.6931	-0.0063
647.8795	-0.0071
648.0659	0.0061
648.2524	0.0145
648.4388	-0.0001
648.6252	0.0097
648.8115	0.0179
648.9979	0.0021
649.1842	0.0133
649.3705	0.0146
649.5568	-0.0097
649.7431	0.0137
649.9294	-0.0075
650.1156	-0.0163
650.3018	0.0147
650.488	0.0054
650.6742	0.0277
650.8604	0.0054
651.0466	0.0053
651.2327	0.0025
651.4188	0.0136
651.6049	0.014
651.791	0.0166
651.9771	0.0201
652.1632	0.0136
652.3492	-0.0057
652.5352	0.0244
652.7212	-0.0043
652.9072	0.0005
653.0932	0.0195
653.2791	0.0114
653.465	0.0082
653.651	0.007
653.8369	0.0181
654.0227	-0.0007
654.2086	0.0275
654.3944	0.0241
654.5803	0.0117
654.7661	0.0095
654.9519	0.0049
655.1377	0.0001
655.3234	0.0001
655.5092	0.0001
655.6949	0.0001
655.8806	0.0001
656.0663	0.0001
656.2519	0.0001
656.4376	0.0001
656.6232	0.0001
656.8088	0.0001
656.9945	0.0001
657.18	0.0001
657.3656	0.0001
657.5511	0.0001
657.7367	0.0001
657.9222	0.0001
658.1077	0.0001
658.2932	0.0001
658.4786	0.0001
658.6641	0.0001
658.8495	0.0001
659.0349	0.0001
659.2203	0.0001
659.4057	0.0121
659.591	0.3096
659.7764	0.0231
659.9617	0.0152
660.147	0.0056
660.3323	0.0145
660.5176	0.0036
660.7028	-0.005
660.888	0.007
661.0733	0.0272
661.2585	0.0122
661.4436	-0.0003
661.6288	0.0098
661.8139	-0.01
661.9991	-0.0174
662.1842	0.0092
662.3693	-0.0026
662.5544	0.0112
662.7394	0.0247
662.9245	0.0155
663.1095	-0.0124
663.2945	-0.0032
663.4795	-0.006
663.6644	0.001
663.8494	0.0179
664.0343	0.0045
664.2193	-0.0014
664.4042	0.0132
664.589	0.0121
664.7739	-0.0011
664.9587	-0.0062
665.1436	0.0138
665.3284	0.0152
665.5132	-0.0241
665.698	0.0183
665.8827	0.0061
666.0675	-0.0183
666.2522	0.0147
666.4369	0.0168
666.6216	0.0112
666.8063	0.0207
666.9909	0.0091
667.1756	0.0222
667.3602	-0.0001
667.5448	0.0127
667.7294	0.0165
667.9139	0.0183
668.0985	0.0098
668.283	-0.0115
668.4675	0.0342
668.652	0.0196
668.8365	-0.0073
669.0209	-0.0087
669.2054	0.0069
669.3898	0.0085
669.5742	0.051
669.7586	0.005
669.943	0.0057
670.1273	0.0182
670.3117	0.0186
670.496	0.0196
670.6803	0.0061
670.8646	-0.0028
671.0488	0.0285
671.2331	0.0008
671.4173	0.0066
671.6015	0.0056
671.7857	0.0165
671.9699	0.0133
672.1541	0.008
672.3382	-0.0025
672.5223	0.0028
672.7064	0.0008
672.8905	-0.0063
673.0746	0.0185
673.2587	0.0223
673.4427	0.0113
673.6267	0.0308
673.8107	0.0123
673.9947	0.0286
674.1787	0.0069
674.3626	0.0159
674.5465	0.0253
674.7304	0.0068
674.9143	-0.0074
675.0982	0.015
675.2821	0.0016
675.4659	-0.0044
675.6497	0.0073
675.8335	0.0105
676.0173	0.0008
676.2011	0.002
676.3849	-0.0004
676.5686	0.0167
676.7523	0.0072
676.936	0.0113
677.1197	0.0043
677.3034	0.0476
677.487	0.0004
677.6706	0.0121
677.8542	-0.0032
678.0378	0.0095
678.2214	-0.0054
678.405	0.0015
678.5885	0.0144
678.772	0.0191
678.9555	0.0101
679.139	0.0083
679.3225	-0.0072
679.5059	-0.0046
679.6894	0.0124
679.8728	0.0082
680.0562	0.0021
680.2395	0.015
680.4229	-0.0058
680.6062	0.0143
680.7896	0.0118
680.9729	0.0236
681.1562	0.0102
681.3394	-0.0003
681.5227	-0.0022
681.7059	0.0122
681.8891	0.0012
682.0723	0.0067
682.2555	0.0062
682.4387	0.017
682.6218	0.017
682.805	0.0329
682.9881	0.0259
683.1712	-0.0036
683.3542	0.0183
683.5373	0.0053
683.7203	0.0066
683.9034	-0.0012
684.0864	-0.0052
684.2694	0.0059
684.4523	0.0182
684.6353	0.0018
684.8182	-0.0011
685.0011	0.0221
685.184	0.0196
685.3669	0.0184
685.5498	0.0017
685.7326	0.0048
685.9154	-0.0097
686.0982	0.0188
686.281	0.0065
686.4638	0.0214
686.6465	0.0047
686.8293	-0.0046
687.012	0.0022
687.1947	0.0167
687.3774	0.0121
687.56	0.0043
687.7427	0.0028
687.9253	-0.015
688.1079	-0.0033
688.2905	0.0014
688.4731	0.0234
688.6556	0.0241
688.8382	-0.0297
689.0207	0.0078
689.2032	0.0178
689.3857	-0.0009
689.5681	0.0154
689.7506	0.0416
689.933	0.0124
690.1154	0.0161
690.2978	-0.0059
690.4802	0.0388
690.6626	0.0163
690.8449	0.0099
691.0272	0.0071
691.2095	-0.0018
691.3918	0.0161
691.5741	0.0081
691.7563	0.0096
691.9386	0.0214
692.1208	0.0149
692.303	0.0078
692.4852	0.0078
692.6673	0.0098
692.8495	-0.0133
693.0316	0.013
693.2137	0.0352
693.3958	0.0188
693.5778	0.0243
693.7599	0.0049
693.9419	0.0162
694.1239	0.0075
694.3059	0.0165
694.4879	0.0078
694.6699	-0.0102
694.8518	0.0099
695.0337	0.0282
695.2157	0.0196
695.3975	0.0165
695.5794	-0.0129
695.7613	0.0003
695.9431	-0.0213
696.1249	0.0267
696.3067	-0.0006
696.4885	0.0172
696.6703	0.0144
696.852	-0.013
697.0337	0.0275
697.2154	0.0055
697.3971	0.0124
697.5788	0.0272
697.7605	0.0033
697.9421	0.0088
698.1237	0.0135
698.3053	0.0142
698.4869	0.0091
698.6685	-0.0151
698.85	0.0086
699.0315	-0.0145
699.213	0.0139
699.3945	-0.0005
699.576	0.0197
699.7575	0.0323
699.9389	0.0042
700.1203	0.036
700.3017	0.0191
700.4831	0.0479
700.6645	0.0078
700.8458	-0.0088
701.0271	0.0226
701.2084	0.0178
701.3897	0.0368
701.571	-0.0087
701.7523	0.0075
701.9335	0.0247
702.1147	0.025
702.2959	0.0036
702.4771	0.011
702.6583	0.0037
702.8394	0.0105
703.0205	0.0079
703.2016	-0.0083
703.3827	-0.0089
703.5638	0.0018
703.7449	0.042
703.9259	0.0105
704.1069	-0.0054
704.2879	0.0178
704.4689	0.0173
704.6499	0.0276
704.8308	0.0281
705.0117	0.0164
705.1927	0.0309
705.3735	-0.0078
705.5544	0.0154
705.7353	0.0032
705.9161	-0.029
706.0969	0.0269
706.2777	0.0125
706.4585	-0.002
706.6393	0.0244
706.82	0.0075
707.0007	-0.0031
707.1815	-0.0057
707.3621	0.0451
707.5428	0.0132
707.7235	0.0099
707.9041	0.0224
708.0847	-0.0096
708.2653	0.0232
708.4459	0.0092
708.6265	-0.0011
708.807	0.0079
708.9875	0.0216
709.168	-0.0033
709.3485	0.023
709.529	0.0132
709.7095	-0.015
709.8899	-0.0056
710.0703	0.008
710.2507	0.0055
710.4311	-0.0031
710.6115	0.0214
710.7918	0.0476
710.9721	0.0002
711.1524	-0.0049
711.3327	-0.0141
711.513	0.0035
711.6932	-0.013
711.8735	0.0518
712.0537	-0.0106
712.2339	0.0235
712.4141	0.0257
712.5942	-0.0091
712.7744	0.0065
712.9545	0.0215
713.1346	0.0365
713.3147	-0.0007
713.4947	0.001
713.6748	0.0194
713.8548	0.0178
714.0348	0.0263
714.2148	0.0052
714.3948	0.0213
714.5748	0.018
714.7547	0.0182
714.9346	0.0262
715.1145	0.0046
715.2944	-0.0256
715.4743	0.0482
715.6541	0.0011
715.834	0.0221
716.0138	0.0263
716.1936	-0.006
716.3733	0.0209
716.5531	-0.0023
716.7328	0.0124
716.9126	0.012
717.0923	-0.0248
717.2719	0.0217
717.4516	0.0156
717.6312	-0.0103
717.8109	0.0177
717.9905	0.0173
718.1701	0.0186
718.3496	0.0022
718.5292	-0.0127
718.7087	0.0162
718.8882	0.0231
719.0677	0.0255
719.2472	0.024
719.4267	0.0161
719.6061	-0.0095
719.7856	0.0413
719.965	0.0188
720.1443	-0.0067
720.3237	0.0184
720.5031	-0.011
720.6824	-0.0009
720.8617	-0.0001
721.041	0.0305
721.2203	-0.0025
721.3995	0.0022
721.5788	0.007
721.758	-0.0294
721.9372	0.0011
722.1164	0.016
722.2956	-0.0028
722.4747	0.0168
722.6538	-0.0123
722.8329	0.0264
723.012	0.015
723.1911	0.008
723.3702	0.049
723.5492	0.0187
723.7282	0.0165
723.9072	0.019
724.0862	-0.0125
724.2652	0.0037
724.4441	0.0139
724.623	0.0029
724.8019	0.0024
724.9808	0.0302
725.1597	-0.0005
725.3385	-0.0045
725.5174	0.0161
725.6962	0.0165
725.875	0.0272
726.0538	0.0034
726.2325	0.0147
726.4112	-0.0318
726.59	-0.0153
726.7687	0.0044
726.9474	0.0064
727.126	0.0122
727.3047	0.0054
727.4833	0.0331
727.6619	-0.0051
727.8405	0.0033
728.0191	0.0411
728.1976	-0.0071
728.3762	0.0239
728.5547	-0.0005
728.7332	0.0294
728.9116	0.005
729.0901	0.005
729.2686	0.0053
729.447	0.0207
729.6254	0.0178
729.8038	0.0225
729.9821	0.0114
730.1605	0.0141
730.3388	0.02
730.5171	0.0178
730.6954	-0.0113
730.8737	0.0197
731.0519	-0.0034
731.2302	0.0399
731.4084	0.0077
731.5866	-0.005
731.7648	-0.0063
731.9429	0.0134
732.1211	-0.0027
732.2992	0.0069
732.4773	0.0028
732.6554	0.0067
732.8335	0.0347
733.0115	0.0316
733.1896	-0.0099
733.3676	0.025
733.5456	-0.0216
733.7235	0.0167
733.9015	0.0019
734.0794	0.0008
734.2574	-0.0143
734.4353	0.026
734.6131	-0.0007
734.791	0.0087
734.9689	-0.0066
735.1467	0.0148
735.3245	0.0275
735.5023	0.0179
735.68	0.0132
735.8578	0.0228
736.0355	0.0243
736.2132	0.0084
736.3909	0.0248
736.5686	-0.0017
736.7463	-0.0149
736.9239	-0.0048
737.1015	0.0058
737.2791	0.0187
737.4567	0.0107
737.6343	-0.0079
737.8118	0.0027
737.9894	0.0156
738.1669	0.009
738.3444	0.0314
738.5218	0.0096
738.6993	0.0163
738.8767	0.0009
739.0541	0.008
739.2315	0.0085
739.4089	0.0339
739.5863	0.016
739.7636	0.0161
739.9409	0.0032
740.1182	0.0338
740.2955	0.0242
740.4728	-0.0262
740.65	0.0022
740.8272	0.0459
741.0044	-0.0243
741.1816	0.0384
741.3588	-0.0344
741.5359	-0.0007
741.7131	0.0065
741.8902	0.0003
742.0673	-0.0203
742.2444	0.0392
742.4214	0.0006
742.5985	0.0074
742.7755	0.0143
742.9525	0.0008
743.1295	-0.0086
743.3064	-0.0002
743.4834	0.0431
743.6603	0.0708
743.8372	-0.0506
744.0141	0.0345
744.191	0.0017
744.3678	-0.0211
744.5446	-0.0033
744.7215	0.0111
744.8982	0.0322
745.075	0.063
745.2518	0.0298
745.4285	0.0332
745.6052	-0.0391
745.7819	-0.0029
745.9586	-0.0108
746.1353	-0.0047
746.3119	0.026
746.4885	0.0166
746.6651	0.0108
746.8417	0.0045
747.0183	0.057
747.1948	0.0256
747.3714	0.0171
747.5479	0.0116
747.7244	0.0266
747.9008	-0.009
748.0773	0.0271
748.2537	0.0259
748.4301	0.0426
748.6065	0.0221
748.7829	-0.0193
748.9593	-0.0005
749.1356	-0.0015
749.3119	-0.0064
749.4882	0.0176
749.6645	0.0124
749.8408	0.0309
750.017	0.0298
750.1933	-0.0058
750.3695	0.0131
750.5457	-0.0045
750.7218	0.0005
750.898	-0.0198
751.0741	0.0122
751.2502	0.0292
751.4263	0.0101
751.6024	0.0041
751.7784	0.0152
751.9545	0.0126
752.1305	0.0188
752.3065	0.0137
752.4825	-0.0013
752.6584	0.0298
752.8344	0.0118
753.0103	-0.0069
753.1862	0.0219
753.3621	0.0244
753.5379	-0.0008
753.7138	0.0304
753.8896	0.0131
754.0654	0.0084
754.2412	0.0143
754.417	0.0439
754.5927	0.0172
754.7685	0.0243
754.9442	0.0153
755.1199	0.012
755.2956	0.0074
755.4712	-0.0007
755.6469	0.0223
755.8225	0.026
755.9981	0.0148
756.1736	0.0081
756.3492	0.0158
756.5248	0.0304
756.7003	0.0052
756.8758	0.001
757.0513	0.0013
757.2267	0.0015
757.4022	0.0067
757.5776	0.0162
757.753	0.0176
757.9284	0.0038
758.1038	0.0069
758.2791	0.0206
758.4545	-0.0193
758.6298	-0.0035
758.8051	0.0141
758.9803	0.0144
759.1556	-0.0084
759.3308	-0.0003
759.506	-0.0066
759.6812	0.0066
759.8564	0.0088
760.0316	0.0116
760.2067	0.0306
760.3819	0.0044
760.557	0.0101
760.732	0.0067
760.9071	0.0152
761.0821	0.005
761.2572	0.018
761.4322	0.0125
761.6072	-0.0021
761.7821	-0.0257
761.9571	0.0249
762.132	0.0253
762.3069	0.0413
762.4818	0.0126
762.6567	0.0058
762.8316	0.0179
763.0064	0.0235
763.1812	-0.0071
763.356	-0.0095
763.5308	0.0149
763.7055	-0.0032
763.8803	0.0036
764.055	-0.0101
764.2297	-0.0073
764.4044	0.0064
764.579	0.0006
764.7537	0.013
764.9283	0.0123
765.1029	0.012
765.2775	0.027
765.4521	0.0165
765.6266	0.0055
765.8011	0.0297
765.9756	0.0282
766.1501	-0.0227
766.3246	0.0072
766.4991	0.0008
766.6735	0.0455
766.8479	-0.0018
767.0223	0.0427
767.1967	0.0015
767.371	0.0045
767.5454	0.0405
767.7197	0.0312
767.894	0.0072
768.0683	0.0227
768.2425	0.0248
768.4168	0.008
768.591	-0.0101
768.7652	-0.0149
768.9394	-0.0174
769.1135	-0.004
769.2877	0.027
769.4618	0.0319
769.6359	0.0156
769.81	0.0077
769.984	0.0029
770.1581	0.0143
770.3321	0.033
770.5061	-0.0069
770.6801	0.0231
770.8541	0.0306
771.028	0.0345
771.202	0.0323
771.3759	0.0176
771.5498	0.0028
771.7236	0.0052
771.8975	0.0459
772.0713	0.019
772.2451	-0.0084
772.4189	0.0279
772.5927	-0.0423
772.7665	-0.0149
772.9402	0.011
773.1139	0.019
773.2876	0.0144
773.4613	0.032
773.635	0.0242
773.8086	0.0392
773.9822	0.0386
774.1558	0.0581
774.3294	-0.0123
774.503	-0.0264
774.6765	0.025
774.8501	-0.0117
775.0236	0.0243
775.1971	-0.024
775.3705	0.01
775.544	-0.0316
775.7174	0.0014
775.8908	-0.0216
776.0642	0.008
776.2376	0.0652
776.4109	-0.0003
776.5843	0.0104
776.7576	-0.0249
776.9309	0.0228
777.1041	-0.0497
777.2774	0.0368
777.4506	0.0189
777.6238	0.0194
777.797	0.0012
777.9702	0.0261
778.1434	0.0162
778.3165	-0.0311
778.4896	0.0145
778.6627	0.0202
778.8358	0.0163
779.0089	-0.0207
779.1819	0.0213
779.3549	0.0157
779.5279	-0.0273
779.7009	0.0334
779.8739	0.0471
780.0468	0.0156
780.2197	0.0505
780.3926	-0.0112
780.5655	0.0294
780.7384	-0.0002
780.9112	0.0093
781.0841	0.0168
781.2569	0.0365
781.4297	0.0118
781.6024	0.0339
781.7752	0.0572
781.9479	0.0357
782.1206	0.0014
782.2933	0.0553
782.466	0.0111
782.6386	-0.0087
782.8113	-0.0161
782.9839	-0.006
783.1565	0.0224
783.329	-0.011
783.5016	-0.0131
783.6741	0.0308
783.8466	0.0544
784.0191	0.0165
784.1916	-0.021
784.3641	-0.0225
784.5365	0.0066
784.7089	0.0048
784.8813	0.0834
785.0537	0.067
785.2261	0.0409
785.3984	0.0088
785.5707	-0.0197
785.743	0.0401
785.9153	-0.0047
786.0876	0.002
786.2598	0.0173
786.432	0.0662
786.6042	0.0396
786.7764	-0.0355
786.9486	-0.003
787.1207	0.0736
787.2928	0.0498
787.4649	-0.013
787.637	0.0203
787.8091	0.0263
787.9811	0.042
788.1532	-0.007
788.3252	-0.0117
788.4972	0.0201
788.6691	0.0257
788.8411	-0.0056
789.013	0.0474
789.1849	0.0193
789.3568	0.0085
789.5287	0.0148
789.7005	-0.0451
789.8723	-0.0336
790.0442	-0.0063
790.2159	0.0038
790.3877	0.0535
790.5595	0.0275
790.7312	0.0057
790.9029	-0.0145
791.0746	0.0146
791.2463	-0.0392
791.4179	-0.0014
791.5896	0.0398
791.7612	0.0855
791.9328	0.0265
792.1044	0.0339
792.2759	-0.0583
792.4474	-0.0382
792.619	-0.0415
792.7905	0.0439
792.9619	0.0583
793.1334	0.0645
793.3048	0.1148
793.4762	0.0311
793.6476	-0.0241
793.819	-0.0088
793.9904	-0.0174
794.1617	-0.0202
794.333	0.0157
794.5043	0.0191
794.6756	0.0115
794.8469	0.0134
795.0181	0.0324
795.1893	0.0457
795.3605	0.0217
795.5317	-0.0019
795.7029	0.0266
795.874	-0.0195
796.0452	0.011
796.2163	0.0752
796.3873	0.0809
796.5584	0.0433
796.7294	0.0146
796.9005	0.059
797.0715	-0.0052
797.2425	0.1014
797.4134	0.0219
797.5844	0.0508
797.7553	-0.0414
797.9262	0.0741
798.0971	0.0398
798.2679	-0.0064
798.4388	0.0522
798.6096	0.0365
798.7804	0.0623
798.9512	0.0174
799.122	-0.0004
799.2927	0.0869
799.4635	-0.0765
799.6342	-0.04
799.8049	0.0021
799.9755	0.016
800.1462	-0.0059
800.3168	0.0022
800.4874	-0.0393
800.658	0.0012
800.8286	0.0217
800.9991	-0.0052
801.1696	-0.042
801.3402	0.0758
801.5106	-0.1064
801.6811	0.0582
801.8516	0.052
802.022	-0.0401
802.1924	-0.0327
802.3628	0.0072
802.5332	0.1877
802.7035	0.1105
802.8739	0.0336
803.0442	-0.0295
803.2145	0.0664
803.3847	-0.0005
803.555	-0.003
803.7252	0.0084
803.8954	-0.0616
804.0656	0.0291
804.2358	0.0878
804.4059	0.1199
804.5761	0.0451
804.7462	0.0081
804.9163	0.0493
805.0864	-0.0075
805.2564	0.0711
805.4264	-0.023
805.5965	0.0423
805.7665	0.0245
805.9364	-0.0849
806.1064	-0.0142
806.2763	0.0464
806.4462	0.0517
806.6161	0.042
806.786	-0.0265
806.9559	0.0145
807.1257	0.0058
807.2955	-0.0422
807.4653	-0.0236
807.6351	0.0611
807.8048	-0.0032
807.9746	0.0385
808.1443	-0.0596
808.314	0.04
808.4837	0.02
808.6533	-0.0436
808.8229	0.0165
808.9926	0.0092
809.1622	0.0031
809.3317	0.0029
809.5013	-0.0357
809.6708	-0.0432
809.8403	0.0582
810.0098	-0.0379
810.1793	-0.029
810.3488	-0.0249
810.5182	0.1861
810.6876	0.0638
810.857	0.0385
811.0264	-0.0973
811.1958	0.1021
811.3651	-0.0055
811.5344	0.0798
811.7037	0.0356
811.873	0.12
812.0422	0.1116
812.2115	0.0836
812.3807	-0.1729
812.5499	0.0426
812.7191	0.0155
812.8882	0.0149
813.0574	0.0177
813.2265	0.0449
813.3956	-0.0715
813.5646	-0.0207
813.7337	-0.0129
813.9027	-0.0473
814.0718	0.0864
814.2407	0.0842
814.4097	0.028
814.5787	0.1241
814.7476	0.067
814.9165	-0.0326
815.0854	-0.0263
815.2543	0.0434
815.4232	-0.0043
815.592	0.208
815.7608	-0.1584
815.9296	-0.0655
816.0984	0.047
816.2671	-0.1969
816.4359	0.0472
816.6046	-0.0159
816.7733	-0.0341
816.942	-0.081
817.1106	0.1107
817.2793	-0.0207
817.4479	0.0437
817.6165	-0.0117
817.785	-0.0097
817.9536	-0.0531
818.1221	0.0781
818.2906	0.0484
818.4591	-0.0664
818.6276	0.0707
818.7961	0.0388
818.9645	0.0253
819.1329	-0.0451
819.3013	-0.1783
819.4697	0.1233
819.638	0.4947
819.8064	-0.0505
819.9747	-0.0356
820.143	-0.1061
820.3113	0.2849
820.4795	0.0214
820.6477	0.1454
820.816	0.02
820.9842	0.2303
821.1523	0.0133
821.3205	0.1143
821.4886	-0.0653
821.6567	-0.1306
821.8248	0.1024
821.9929	-0.0438
822.1609	0.0522
822.329	-0.0642
822.497	0.0066
822.665	-0.1063
822.833	-0.0196
823.0009	0.0431
823.1688	0.5071
823.3367	-0.1872
823.5046	-0.0221
823.6725	-0.0011
823.8404	0.1942
824.0082	-0.0477
824.176	0.1119
824.3438	0.3531
824.5116	-0.0043
824.6793	0.2077
824.847	0.1922
825.0147	0.2389
825.1824	0.0379
825.3501	0.1822
825.5177	0.0313
825.6854	-0.1522
825.853	-0.0314
826.0206	0.0604
826.1881	0.2393
826.3557	0.0802
826.5232	0.1702
826.6907	0.0234
826.8582	0.0387
827.0257	0.1544
827.1931	0.1767
827.3605	-0.0378
827.528	-0.2872
827.6953	-0.1047
827.8627	-0.0617
828.03	0.0017
828.1974	0.041
828.3647	0.1091
828.532	-0.0289
828.6992	0.1298
828.8665	-0.1077
829.0337	0.072
829.2009	-0.1174
829.3681	0.075
829.5352	-0.3042
829.7024	-0.0185
829.8695	0.0141
830.0366	0.0587
830.2037	0.0325
830.3707	0.1029
830.5378	-0.0774
830.7048	0.0578
830.8718	0.1518
831.0388	0.2311
831.2057	0.2356
831.3727	0.0746
831.5396	0.3969
831.7065	-0.9119
831.8734	0.162
832.0402	0.1644
832.2071	-0.1645
832.3739	-0.1145
832.5407	-1.4078
832.7075	-0.3609
832.8742	1.1441
833.041	0.2579
833.2077	0.1773
833.3744	0.0738
833.541	0.0632
833.7077	-0.0378
833.8743	-0.0672
834.0409	0.1768
834.2075	0.0872
834.3741	-0.1969
834.5407	-0.0782
834.7072	0.1386
834.8737	0.1921
835.0402	0.0219
835.2067	0.0771
835.3731	-0.0977
835.5395	0.0621
835.706	0.0069
835.8723	0.0612
836.0387	0.065
836.2051	-0.0557
836.3714	-0.0654
836.5377	-0.0105
836.704	0.2735
836.8703	-0.0587
837.0365	0.1882
837.2027	0.1698
837.3689	0.0408
837.5351	-0.0092
837.7013	-0.1454
837.8674	-0
838.0335	-0.0818
838.1997	-0.1802
838.3657	-0
838.5318	-0.5715
838.6978	-0
838.8639	-0.1274
839.0299	-0.0222
839.1958	0.3138
839.3618	-0
839.5277	0.0042
839.6937	0.6687
839.8596	0.1625
840.0254	-0.0722
840.1913	-0.0705
840.3571	-0.1594
840.523	-0
840.6888	0.1505
840.8545	-0.5758
841.0203	0.0488
841.186	0.005
841.3517	-0.1165
841.5174	0.2016
841.6831	0.0044
841.8488	-0.0722
842.0144	0.3084
842.18	0.6897
842.3456	0.0617
842.5112	-0
842.6767	-0.0805
842.8422	-0.076
843.0077	0.088
843.1732	-0.464
843.3387	-0
843.5042	-0
843.6696	0.684
843.835	-0.4101
844.0004	-0.069
844.1657	-1.1969
844.3311	0.1963
844.4964	-0
844.6617	0.4546
844.827	-0
844.9923	0.5921
845.1575	-0.0301
845.3227	-0.1833
845.4879	-0.2213
845.6531	0.1344
845.8183	1.0845
845.9834	-0
846.1485	0.1669
846.3136	0.2148
846.4787	-0
846.6438	0.4749
846.8088	0.3401
846.9738	-0.7688
847.1388	0.2996
847.3038	0.7514
847.4687	-0
847.6337	-0
847.7986	-0.3713
847.9635	0.0531
848.1284	-0
848.2932	0.2838
848.458	-0
848.6228	0.2864
848.7876	-0
848.9524	-0
849.1172	-1.5942
849.2819	-0
849.4466	-0
849.6113	0.0222
849.7759	-0
849.9406	0.1089
850.1052	-1.1791
850.2698	1.2062
850.4344	0.5973
850.599	-0.2158
850.7635	0.2
850.928	1.43
851.0925	0.1942
851.257	0.1165
851.4215	-0.0933
851.5859	0.0262
851.7503	-0
851.9147	-0
852.0791	-0.0196
852.2434	0.5241
852.4078	-0
852.5721	-0
852.7364	0.007
852.9007	-0.2633
853.0649	-0
853.2291	-0.0212
853.3934	-0.3242
853.5575	-0.1319
853.7217	0.5111
853.8859	-0.3719
854.05	-0.2451
854.2141	0.314
854.3782	-0
854.5423	1.2829
854.7063	-0.2178
854.8703	0.0286
855.0343	-0.0357
855.1983	0.4611
855.3623	-0.113
855.5262	-0
855.6901	0.3646
855.854	0.2444
856.0179	-0.3717
856.1818	0.573
856.3456	1.2035
856.5094	-0.3656
856.6732	-0.2953
856.837	-0.2795
857.0008	-0
857.1645	-0
857.3282	0.0203
857.4919	-0.0607
857.6556	-0.3221
857.8192	-0.2593
857.9828	-0.1118
858.1465	-0
858.31	-0
858.4736	-0.5019
858.6372	-0.321
858.8007	0.1253
858.9642	0.256
859.1277	0.2587
859.2911	-0.4085
859.4546	-0
859.618	-0.0107
859.7814	-0.0935
859.9448	-0
860.1081	-0
860.2715	-0
860.4348	0.1125
860.5981	0.0199
860.7614	-0.3149
860.9246	-0.0292
861.0879	0.0962
861.2511	-0.4371
861.4143	-0
861.5774	-0.0394
861.7406	-0.2089
861.9037	-0
862.0668	-0.3352
862.2299	0.2278
862.393	-0
862.556	-0
862.7191	-0.1675
862.8821	0.3432
863.0451	-0.0774
863.208	-0.5328
863.371	-0.6565
863.5339	0.242
863.6968	0.7098
863.8597	0.0815
864.0225	-0
864.1854	0.4568
864.3482	-0
864.511	0.145
864.6737	-0.4415
864.8365	0.1052
864.9992	-0
865.1619	-0.5309
865.3246	-2.0799
865.4873	-0.322
865.65	-0
865.8126	-0.03
865.9752	0.699
866.1378	0.2597
866.3004	-0.2836
866.4629	-1.9969
866.6254	-0
866.7879	0.3633
866.9504	0.5287
867.1129	0.2653
867.2753	0.699
867.4377	-0
867.6001	-0.2534
867.7625	-0.1422
867.9249	-0
868.0872	0.3126
868.2495	0.0671
868.4118	0.582
868.5741	-0
868.7363	-0.699
868.8986	-0.4912
869.0608	-0.5873
869.223	-0.3129
869.3851	-0
869.5473	0.042
869.7094	-0
869.8715	-0
870.0336	-0.0811
870.1957	-0
870.3577	-0.1522
870.5197	0.0824
870.6817	-0.9663
870.8437	-0
871.0057	-0
871.1676	0.3047
871.3295	-0.2806
871.4914	-1.0864
871.6533	-0
871.8151	0.5584
871.977	0.1546
872.1388	-0
872.3006	-0.5622
872.4623	-0.6856
872.6241	0.454
872.7858	-0.3201
872.9475	-0
873.1092	-0.1586
873.2709	0.4342
873.4325	-1.4873
873.5941	-0
873.7557	-0.2687
873.9173	1.0062
874.0789	-0.017
874.2404	-0
874.4019	-0.0793
874.5634	0.9735
874.7249	0.699
874.8863	-0.45
875.0478	-0.2106
875.2092	0.685
875.3706	0.3032
875.5319	-0
875.6933	0.8926
875.8546	-0
876.0159	-0.1161
876.1772	-0.7338
876.3385	-0
876.4997	0.1587
876.6609	0.5327
876.8221	-0
876.9833	-0
877.1445	0.4649
877.3056	-1.178
877.4667	-0.7692
877.6278	0.0961
877.7889	-0
877.9499	0.7409
878.111	-0.3402
878.272	-0.0357
878.433	0.6005
878.5939	-0
878.7549	0.699
878.9158	-0
879.0767	-0
879.2376	-0.241
879.3984	0.4076
879.5593	0.1742
879.7201	-1.9577
879.8809	0.046
880.0417	0.0182
880.2024	0.9054
880.3632	-0.1894
880.5239	-0
880.6846	-0.445
880.8452	-0.1757
881.0059	-0
881.1665	0.0348
881.3271	0.2676
881.4877	0.3352
881.6483	-1.106
881.8088	-0
881.9693	-0
882.1298	-0
882.2903	-0
