Data from D4ACN5uM420nmA_Absorbance_14-37-07-361.txt Node
Date: Fri Feb 21 14:37:07 GMT 2025
User: LASERRRRR
Spectrometer: FLMT03099
Trigger mode: 0
Integration Time (sec): 1.500000E-2
Scans to average: 1
Electric dark correction enabled: true
Nonlinearity correction enabled: false
Boxcar width: 0
XAxis mode: Wavelengths
Number of Pixels in Spectrum: 3648
>>>>>Begin Spectral Data<<<<<
179.3399	-0.7984
179.5586	-0.7984
179.7771	-0.7984
179.9957	-0.3575
180.2143	-0
180.4329	0.711
180.6514	-0
180.8699	0.4159
181.0885	-0
181.307	-0.1129
181.5255	-0.2288
181.744	0.0969
181.9625	0.1489
182.181	-0
182.3994	-0.7724
182.6179	-0
182.8363	-0
183.0547	-0
183.2732	0.1648
183.4916	0.2341
183.71	0.3286
183.9284	0.4225
184.1467	0.2586
184.3651	-0.0004
184.5835	0.4808
184.8018	0.1727
185.0201	0.1706
185.2385	0.1061
185.4568	0.3018
185.6751	0.2156
185.8934	0.1238
186.1117	-0.0229
186.3299	0.1392
186.5482	0.2809
186.7664	0.1785
186.9847	0.1539
187.2029	0.3515
187.4211	0.2473
187.6393	0.3977
187.8575	0.2053
188.0757	0.2285
188.2939	0.0529
188.512	0.2653
188.7302	0.4428
188.9483	0.1699
189.1665	-0
189.3846	0.156
189.6027	0.0922
189.8208	0.2309
190.0389	0.214
190.257	0.04
190.475	0.0275
190.6931	0.1092
190.9111	0.1251
191.1292	0.0697
191.3472	0.1337
191.5652	0.2822
191.7832	0.1607
192.0012	0.057
192.2192	0.106
192.4371	0.136
192.6551	0.2647
192.873	0.1168
193.091	0.1655
193.3089	0.1318
193.5268	0.2457
193.7447	0.2031
193.9626	0.169
194.1805	0.1933
194.3984	0.3307
194.6162	0.2777
194.8341	0.2453
195.0519	0.2842
195.2697	0.2283
195.4875	0.3149
195.7054	0.2491
195.9231	0.1798
196.1409	0.3118
196.3587	0.3028
196.5765	0.2956
196.7942	0.2819
197.012	0.2985
197.2297	0.2786
197.4474	0.3318
197.6651	0.3196
197.8828	0.3578
198.1005	0.38
198.3182	0.4282
198.5358	0.3708
198.7535	0.3317
198.9711	0.3853
199.1888	0.3906
199.4064	0.4123
199.624	0.3763
199.8416	0.3633
200.0592	0.3946
200.2767	0.382
200.4943	0.4081
200.7119	0.4075
200.9294	0.3773
201.1469	0.3878
201.3645	0.485
201.582	0.3967
201.7995	0.395
202.017	0.4306
202.2344	0.4212
202.4519	0.4114
202.6694	0.3742
202.8868	0.3672
203.1042	0.4083
203.3217	0.3795
203.5391	0.386
203.7565	0.3419
203.9739	0.3393
204.1913	0.3282
204.4086	0.3566
204.626	0.366
204.8433	0.3824
205.0607	0.3251
205.278	0.3761
205.4953	0.3447
205.7126	0.3341
205.9299	0.3262
206.1472	0.3228
206.3644	0.3244
206.5817	0.3126
206.7989	0.3319
207.0162	0.3151
207.2334	0.3488
207.4506	0.3243
207.6678	0.3157
207.885	0.2724
208.1022	0.2852
208.3194	0.2808
208.5365	0.3019
208.7537	0.2727
208.9708	0.2811
209.1879	0.2922
209.405	0.2798
209.6222	0.2604
209.8392	0.291
210.0563	0.2814
210.2734	0.2907
210.4905	0.2811
210.7075	0.2547
210.9245	0.2726
211.1416	0.2677
211.3586	0.2699
211.5756	0.2716
211.7926	0.2702
212.0096	0.2528
212.2265	0.2632
212.4435	0.2849
212.6604	0.2299
212.8774	0.2401
213.0943	0.2525
213.3112	0.2353
213.5281	0.2523
213.745	0.2334
213.9619	0.2508
214.1788	0.2767
214.3956	0.249
214.6125	0.253
214.8293	0.2622
215.0461	0.2475
215.2629	0.2556
215.4798	0.2471
215.6965	0.2514
215.9133	0.2462
216.1301	0.2477
216.3469	0.2486
216.5636	0.2485
216.7803	0.2363
216.9971	0.2527
217.2138	0.2485
217.4305	0.2496
217.6472	0.2359
217.8639	0.2641
218.0805	0.2415
218.2972	0.2452
218.5138	0.2576
218.7305	0.255
218.9471	0.2592
219.1637	0.2761
219.3803	0.2701
219.5969	0.2619
219.8135	0.2663
220.0301	0.2577
220.2466	0.2562
220.4632	0.2585
220.6797	0.2693
220.8962	0.256
221.1127	0.2648
221.3292	0.2721
221.5457	0.27
221.7622	0.2805
221.9787	0.2758
222.1951	0.2716
222.4116	0.2773
222.628	0.278
222.8444	0.2819
223.0608	0.2752
223.2772	0.2893
223.4936	0.2683
223.71	0.2921
223.9264	0.2956
224.1427	0.2951
224.3591	0.2975
224.5754	0.2824
224.7917	0.2913
225.008	0.2933
225.2243	0.3059
225.4406	0.2845
225.6569	0.3076
225.8732	0.2995
226.0894	0.3064
226.3057	0.3118
226.5219	0.3247
226.7381	0.3187
226.9543	0.3139
227.1705	0.3161
227.3867	0.3177
227.6029	0.3262
227.8191	0.3432
228.0352	0.3364
228.2513	0.3437
228.4675	0.3361
228.6836	0.3345
228.8997	0.3511
229.1158	0.3636
229.3319	0.3609
229.548	0.3505
229.764	0.3642
229.9801	0.3687
230.1961	0.3773
230.4121	0.3605
230.6282	0.3771
230.8442	0.3867
231.0602	0.3826
231.2761	0.3848
231.4921	0.3954
231.7081	0.3986
231.924	0.4007
232.14	0.3951
232.3559	0.4026
232.5718	0.4131
232.7877	0.4036
233.0036	0.405
233.2195	0.4191
233.4353	0.4146
233.6512	0.4162
233.867	0.4301
234.0829	0.4247
234.2987	0.4232
234.5145	0.4388
234.7303	0.4313
234.9461	0.4409
235.1619	0.441
235.3776	0.4486
235.5934	0.4293
235.8091	0.4465
236.0249	0.4538
236.2406	0.4425
236.4563	0.4499
236.672	0.4454
236.8877	0.4476
237.1034	0.4469
237.319	0.4509
237.5347	0.4481
237.7503	0.4579
237.966	0.4634
238.1816	0.4598
238.3972	0.4621
238.6128	0.4703
238.8284	0.4757
239.0439	0.4612
239.2595	0.4619
239.475	0.4603
239.6906	0.4623
239.9061	0.4648
240.1216	0.4617
240.3371	0.4574
240.5526	0.468
240.7681	0.4598
240.9836	0.4657
241.199	0.4567
241.4145	0.4585
241.6299	0.4599
241.8453	0.4347
242.0607	0.4381
242.2761	0.4396
242.4915	0.442
242.7069	0.4155
242.9223	0.4308
243.1376	0.4173
243.353	0.4025
243.5683	0.3983
243.7836	0.3899
243.9989	0.3769
244.2142	0.3767
244.4295	0.373
244.6448	0.3646
244.86	0.3541
245.0753	0.3503
245.2905	0.3451
245.5057	0.3351
245.721	0.338
245.9362	0.3257
246.1514	0.3149
246.3665	0.3181
246.5817	0.3028
246.7969	0.2969
247.012	0.2979
247.2271	0.2948
247.4423	0.2828
247.6574	0.285
247.8725	0.2801
248.0876	0.273
248.3026	0.2718
248.5177	0.2593
248.7328	0.2586
248.9478	0.2599
249.1628	0.251
249.3779	0.2432
249.5929	0.2412
249.8079	0.2431
250.0228	0.2326
250.2378	0.2313
250.4528	0.2278
250.6677	0.2274
250.8827	0.2216
251.0976	0.2216
251.3125	0.2208
251.5274	0.2151
251.7423	0.2154
251.9572	0.2145
252.172	0.2084
252.3869	0.2151
252.6017	0.2096
252.8166	0.2047
253.0314	0.2003
253.2462	0.2014
253.461	0.199
253.6758	0.1989
253.8906	0.1887
254.1053	0.2002
254.3201	0.1987
254.5348	0.1928
254.7496	0.1863
254.9643	0.1967
255.179	0.1899
255.3937	0.1929
255.6083	0.1987
255.823	0.1959
256.0377	0.1842
256.2523	0.1872
256.467	0.1962
256.6816	0.1835
256.8962	0.1865
257.1108	0.1886
257.3254	0.184
257.54	0.1768
257.7545	0.1896
257.9691	0.1829
258.1836	0.1811
258.3981	0.1861
258.6127	0.1782
258.8272	0.1846
259.0417	0.1811
259.2561	0.1811
259.4706	0.1827
259.6851	0.1812
259.8995	0.1779
260.114	0.1857
260.3284	0.1828
260.5428	0.1762
260.7572	0.179
260.9716	0.1813
261.186	0.18
261.4003	0.1809
261.6147	0.1848
261.829	0.1767
262.0433	0.18
262.2577	0.1866
262.472	0.1789
262.6863	0.1862
262.9005	0.1832
263.1148	0.179
263.3291	0.1797
263.5433	0.1841
263.7576	0.1817
263.9718	0.1812
264.186	0.1866
264.4002	0.183
264.6144	0.1895
264.8286	0.1868
265.0427	0.1898
265.2569	0.1894
265.471	0.1854
265.6851	0.184
265.8993	0.1816
266.1134	0.1834
266.3275	0.1844
266.5415	0.1864
266.7556	0.1901
266.9697	0.1901
267.1837	0.1839
267.3978	0.181
267.6118	0.1817
267.8258	0.1843
268.0398	0.1856
268.2538	0.1791
268.4677	0.1813
268.6817	0.1886
268.8957	0.1755
269.1096	0.1713
269.3235	0.183
269.5374	0.1765
269.7514	0.1808
269.9652	0.1799
270.1791	0.1784
270.393	0.1803
270.6068	0.1804
270.8207	0.1746
271.0345	0.175
271.2483	0.17
271.4622	0.1769
271.676	0.1771
271.8897	0.1743
272.1035	0.1751
272.3173	0.1772
272.531	0.1773
272.7448	0.1779
272.9585	0.1716
273.1722	0.1731
273.3859	0.1737
273.5996	0.1763
273.8133	0.1799
274.0269	0.1693
274.2406	0.1764
274.4542	0.1715
274.6679	0.1837
274.8815	0.1833
275.0951	0.1808
275.3087	0.1758
275.5223	0.1788
275.7358	0.1864
275.9494	0.1793
276.1629	0.1803
276.3765	0.1763
276.59	0.1741
276.8035	0.1815
277.017	0.1815
277.2305	0.1811
277.444	0.1796
277.6574	0.1807
277.8709	0.1846
278.0843	0.1876
278.2978	0.1831
278.5112	0.181
278.7246	0.1812
278.938	0.1847
279.1513	0.1811
279.3647	0.1834
279.5781	0.1816
279.7914	0.1833
280.0047	0.1841
280.2181	0.1835
280.4314	0.18
280.6447	0.193
280.8579	0.1783
281.0712	0.1835
281.2845	0.1788
281.4977	0.1853
281.711	0.1798
281.9242	0.1868
282.1374	0.1827
282.3506	0.1893
282.5638	0.1856
282.7769	0.1866
282.9901	0.1828
283.2033	0.1862
283.4164	0.1934
283.6295	0.1842
283.8426	0.187
284.0557	0.1884
284.2688	0.1888
284.4819	0.1825
284.695	0.1935
284.908	0.1916
285.1211	0.1891
285.3341	0.1874
285.5471	0.1905
285.7601	0.1917
285.9731	0.1924
286.1861	0.1873
286.3991	0.1939
286.612	0.1906
286.825	0.1911
287.0379	0.1947
287.2508	0.191
287.4637	0.1942
287.6766	0.1894
287.8895	0.1941
288.1024	0.1922
288.3152	0.1983
288.5281	0.1953
288.7409	0.1967
288.9538	0.1942
289.1666	0.1999
289.3794	0.1947
289.5922	0.1938
289.8049	0.1957
290.0177	0.1988
290.2304	0.1956
290.4432	0.2031
290.6559	0.1995
290.8686	0.1948
291.0813	0.1984
291.294	0.1985
291.5067	0.1918
291.7194	0.1955
291.932	0.1964
292.1447	0.2013
292.3573	0.2004
292.5699	0.2001
292.7825	0.1946
292.9951	0.199
293.2077	0.1953
293.4203	0.2036
293.6328	0.1996
293.8454	0.2033
294.0579	0.1982
294.2704	0.2075
294.4829	0.1935
294.6954	0.1971
294.9079	0.1963
295.1204	0.1946
295.3328	0.203
295.5453	0.1989
295.7577	0.1949
295.9701	0.2019
296.1825	0.2008
296.3949	0.1942
296.6073	0.1968
296.8197	0.1935
297.0321	0.2033
297.2444	0.1929
297.4567	0.2006
297.6691	0.1934
297.8814	0.1975
298.0937	0.1943
298.306	0.1996
298.5182	0.2015
298.7305	0.2024
298.9428	0.1982
299.155	0.1889
299.3672	0.2004
299.5794	0.2012
299.7916	0.2008
300.0038	0.2001
300.216	0.1935
300.4282	0.2013
300.6403	0.201
300.8525	0.1983
301.0646	0.1996
301.2767	0.1939
301.4888	0.2047
301.7009	0.1995
301.913	0.1949
302.125	0.1985
302.3371	0.1966
302.5491	0.1932
302.7612	0.203
302.9732	0.202
303.1852	0.2091
303.3972	0.1982
303.6092	0.1969
303.8211	0.195
304.0331	0.1953
304.245	0.1905
304.457	0.1984
304.6689	0.1926
304.8808	0.1941
305.0927	0.1941
305.3046	0.1956
305.5164	0.1869
305.7283	0.1879
305.9401	0.1788
306.152	0.1871
306.3638	0.1806
306.5756	0.1826
306.7874	0.182
306.9992	0.1779
307.2109	0.1814
307.4227	0.1723
307.6344	0.1806
307.8462	0.1715
308.0579	0.1822
308.2696	0.1759
308.4813	0.1706
308.693	0.1655
308.9046	0.1764
309.1163	0.1603
309.328	0.1644
309.5396	0.1564
309.7512	0.1578
309.9628	0.1587
310.1744	0.154
310.386	0.1521
310.5976	0.1574
310.8091	0.1579
311.0207	0.1544
311.2322	0.1466
311.4437	0.1507
311.6552	0.1533
311.8667	0.1525
312.0782	0.1504
312.2897	0.1506
312.5012	0.1473
312.7126	0.1398
312.924	0.1381
313.1355	0.1396
313.3469	0.1399
313.5583	0.1381
313.7696	0.1361
313.981	0.1478
314.1924	0.1363
314.4037	0.1333
314.6151	0.129
314.8264	0.1393
315.0377	0.1367
315.249	0.139
315.4603	0.1266
315.6716	0.1346
315.8828	0.1316
316.0941	0.1334
316.3053	0.1264
316.5165	0.1325
316.7277	0.1302
316.9389	0.1315
317.1501	0.128
317.3613	0.1315
317.5724	0.1263
317.7836	0.1265
317.9947	0.1256
318.2058	0.1292
318.417	0.1271
318.6281	0.1246
318.8391	0.1231
319.0502	0.1255
319.2613	0.1257
319.4723	0.1238
319.6834	0.1274
319.8944	0.129
320.1054	0.1256
320.3164	0.1254
320.5274	0.1243
320.7383	0.1263
320.9493	0.1269
321.1602	0.1231
321.3712	0.1255
321.5821	0.1258
321.793	0.1274
322.0039	0.123
322.2148	0.1299
322.4257	0.1277
322.6365	0.1268
322.8474	0.1288
323.0582	0.1343
323.269	0.1334
323.4798	0.1273
323.6906	0.124
323.9014	0.1231
324.1122	0.1258
324.3229	0.1301
324.5337	0.1306
324.7444	0.1303
324.9551	0.135
325.1658	0.1303
325.3765	0.1289
325.5872	0.1317
325.7979	0.1301
326.0085	0.1272
326.2192	0.1298
326.4298	0.1328
326.6404	0.1373
326.851	0.1287
327.0616	0.132
327.2722	0.1266
327.4828	0.1297
327.6933	0.134
327.9039	0.1301
328.1144	0.1354
328.3249	0.1397
328.5354	0.1335
328.7459	0.1335
328.9564	0.134
329.1669	0.1416
329.3773	0.137
329.5878	0.1352
329.7982	0.1379
330.0086	0.1326
330.219	0.1316
330.4294	0.1395
330.6398	0.1393
330.8502	0.1411
331.0605	0.131
331.2708	0.1345
331.4812	0.1377
331.6915	0.1406
331.9018	0.1357
332.1121	0.1431
332.3224	0.1416
332.5326	0.131
332.7429	0.1395
332.9531	0.1391
333.1633	0.1443
333.3735	0.1424
333.5837	0.1376
333.7939	0.1348
334.0041	0.1429
334.2143	0.1376
334.4244	0.1456
334.6346	0.1376
334.8447	0.1419
335.0548	0.1454
335.2649	0.1468
335.475	0.1446
335.685	0.1453
335.8951	0.1415
336.1051	0.1401
336.3152	0.1482
336.5252	0.1426
336.7352	0.1435
336.9452	0.1448
337.1552	0.1443
337.3652	0.1361
337.5751	0.1499
337.7851	0.1451
337.995	0.1451
338.2049	0.1444
338.4148	0.1449
338.6247	0.1447
338.8346	0.1476
339.0445	0.1504
339.2543	0.1486
339.4642	0.1455
339.674	0.1434
339.8838	0.1543
340.0936	0.1466
340.3034	0.1467
340.5132	0.142
340.7229	0.1469
340.9327	0.1479
341.1424	0.1489
341.3522	0.1437
341.5619	0.1522
341.7716	0.1507
341.9813	0.1525
342.1909	0.1567
342.4006	0.1519
342.6102	0.1477
342.8199	0.1541
343.0295	0.1511
343.2391	0.1507
343.4487	0.1554
343.6583	0.1627
343.8679	0.1599
344.0774	0.1564
344.287	0.1586
344.4965	0.1628
344.706	0.1648
344.9155	0.1588
345.125	0.1586
345.3345	0.1646
345.544	0.1597
345.7534	0.1593
345.9629	0.1705
346.1723	0.1676
346.3817	0.1618
346.5911	0.1619
346.8005	0.1712
347.0099	0.1679
347.2193	0.1726
347.4286	0.1787
347.638	0.1686
347.8473	0.1701
348.0566	0.175
348.2659	0.1713
348.4752	0.1708
348.6845	0.1699
348.8937	0.1704
349.103	0.1728
349.3122	0.1787
349.5214	0.1682
349.7306	0.1821
349.9398	0.1746
350.149	0.1748
350.3582	0.1794
350.5674	0.1866
350.7765	0.1855
350.9856	0.1708
351.1948	0.1794
351.4039	0.1835
351.613	0.1815
351.822	0.1838
352.0311	0.1912
352.2402	0.1772
352.4492	0.184
352.6582	0.1848
352.8672	0.1824
353.0762	0.1861
353.2852	0.1859
353.4942	0.1933
353.7032	0.1852
353.9121	0.1878
354.1211	0.1864
354.33	0.1888
354.5389	0.1882
354.7478	0.1845
354.9567	0.1918
355.1655	0.1897
355.3744	0.1916
355.5833	0.1898
355.7921	0.1919
356.0009	0.1956
356.2097	0.1858
356.4185	0.1894
356.6273	0.1899
356.8361	0.191
357.0448	0.1955
357.2536	0.1983
357.4623	0.1939
357.671	0.2056
357.8797	0.1967
358.0884	0.1955
358.2971	0.205
358.5057	0.2046
358.7144	0.1997
358.923	0.2019
359.1316	0.2036
359.3402	0.1998
359.5488	0.2035
359.7574	0.2071
359.966	0.2082
360.1746	0.2064
360.3831	0.2135
360.5916	0.2153
360.8002	0.2171
361.0087	0.2103
361.2172	0.215
361.4256	0.2161
361.6341	0.2157
361.8426	0.2137
362.051	0.2226
362.2594	0.2111
362.4678	0.2177
362.6762	0.2177
362.8846	0.2229
363.093	0.2287
363.3014	0.2288
363.5097	0.2228
363.718	0.2243
363.9264	0.2268
364.1347	0.2245
364.343	0.2278
364.5513	0.2342
364.7595	0.2413
364.9678	0.2359
365.176	0.2344
365.3842	0.2344
365.5925	0.2344
365.8007	0.2333
366.0089	0.244
366.217	0.2429
366.4252	0.2381
366.6333	0.2396
366.8415	0.2473
367.0496	0.2439
367.2577	0.2468
367.4658	0.2453
367.6739	0.2413
367.882	0.2504
368.09	0.2437
368.2981	0.2479
368.5061	0.244
368.7141	0.2494
368.9221	0.264
369.1301	0.2518
369.3381	0.2583
369.5461	0.2562
369.754	0.2564
369.962	0.2474
370.1699	0.2587
370.3778	0.2612
370.5857	0.2562
370.7936	0.2611
371.0015	0.2611
371.2093	0.2602
371.4172	0.2631
371.625	0.2597
371.8328	0.2561
372.0406	0.2708
372.2484	0.2669
372.4562	0.2717
372.664	0.2645
372.8717	0.2696
373.0795	0.2779
373.2872	0.2747
373.4949	0.2815
373.7026	0.2695
373.9103	0.2614
374.118	0.2703
374.3256	0.2838
374.5333	0.2723
374.7409	0.2807
374.9485	0.2789
375.1561	0.2769
375.3637	0.2714
375.5713	0.2837
375.7789	0.2781
375.9864	0.2753
376.194	0.2862
376.4015	0.2738
376.609	0.2767
376.8165	0.2887
377.024	0.2884
377.2315	0.279
377.4389	0.273
377.6464	0.2865
377.8538	0.2953
378.0612	0.2901
378.2686	0.2789
378.476	0.2986
378.6834	0.2842
378.8908	0.2955
379.0981	0.2922
379.3055	0.2979
379.5128	0.2879
379.7201	0.3019
379.9274	0.3002
380.1347	0.3021
380.342	0.3114
380.5492	0.2966
380.7565	0.2962
380.9637	0.3029
381.1709	0.3
381.3781	0.2985
381.5853	0.2989
381.7925	0.3047
381.9997	0.3092
382.2068	0.2895
382.4139	0.299
382.6211	0.3108
382.8282	0.3096
383.0353	0.3151
383.2424	0.3088
383.4494	0.3055
383.6565	0.3118
383.8635	0.3012
384.0706	0.3124
384.2776	0.3009
384.4846	0.3139
384.6916	0.3065
384.8986	0.3072
385.1055	0.318
385.3125	0.3108
385.5194	0.3194
385.7263	0.3084
385.9333	0.3107
386.1402	0.3222
386.347	0.3091
386.5539	0.3149
386.7608	0.3084
386.9676	0.3149
387.1744	0.3094
387.3813	0.3087
387.5881	0.3106
387.7948	0.3143
388.0016	0.3201
388.2084	0.3115
388.4151	0.3042
388.6219	0.3112
388.8286	0.3128
389.0353	0.3169
389.242	0.3215
389.4487	0.3018
389.6553	0.2908
389.862	0.2995
390.0686	0.3073
390.2753	0.3057
390.4819	0.3093
390.6885	0.2968
390.8951	0.3002
391.1016	0.3061
391.3082	0.2994
391.5147	0.2953
391.7213	0.303
391.9278	0.2923
392.1343	0.3037
392.3408	0.2976
392.5473	0.2933
392.7537	0.2887
392.9602	0.2948
393.1666	0.2922
393.373	0.2985
393.5794	0.2925
393.7858	0.2833
393.9922	0.2849
394.1986	0.2799
394.4049	0.2792
394.6113	0.2927
394.8176	0.2837
395.0239	0.2784
395.2302	0.2807
395.4365	0.276
395.6428	0.2752
395.8491	0.2778
396.0553	0.2675
396.2615	0.2691
396.4678	0.2782
396.674	0.2705
396.8802	0.2707
397.0863	0.2721
397.2925	0.2709
397.4987	0.2686
397.7048	0.2823
397.9109	0.2638
398.117	0.272
398.3231	0.266
398.5292	0.2643
398.7353	0.2673
398.9413	0.2696
399.1474	0.2667
399.3534	0.2652
399.5594	0.2694
399.7654	0.2583
399.9714	0.2696
400.1774	0.265
400.3833	0.2731
400.5893	0.2611
400.7952	0.276
401.0011	0.2702
401.207	0.2753
401.4129	0.2657
401.6188	0.2592
401.8247	0.2766
402.0305	0.2575
402.2364	0.2746
402.4422	0.2727
402.648	0.264
402.8538	0.2641
403.0596	0.2656
403.2654	0.266
403.4711	0.2604
403.6768	0.2613
403.8826	0.273
404.0883	0.2629
404.294	0.2762
404.4997	0.2727
404.7054	0.267
404.911	0.2654
405.1167	0.2651
405.3223	0.252
405.5279	0.2637
405.7335	0.2713
405.9391	0.2562
406.1447	0.2667
406.3502	0.2611
406.5558	0.2606
406.7613	0.2613
406.9668	0.2643
407.1724	0.2634
407.3778	0.2615
407.5833	0.2604
407.7888	0.2703
407.9942	0.2565
408.1997	0.2735
408.4051	0.2659
408.6105	0.2612
408.8159	0.2606
409.0213	0.2651
409.2267	0.2638
409.432	0.2621
409.6374	0.2637
409.8427	0.2652
410.048	0.2703
410.2533	0.2715
410.4586	0.262
410.6639	0.2621
410.8691	0.2499
411.0744	0.2572
411.2796	0.26
411.4848	0.2675
411.69	0.2614
411.8952	0.2579
412.1004	0.2618
412.3056	0.2602
412.5107	0.2608
412.7158	0.272
412.921	0.2618
413.1261	0.2518
413.3312	0.2612
413.5362	0.2736
413.7413	0.2533
413.9464	0.2581
414.1514	0.2457
414.3564	0.2527
414.5614	0.2531
414.7664	0.2617
414.9714	0.264
415.1764	0.2684
415.3813	0.262
415.5863	0.2588
415.7912	0.2524
415.9961	0.2602
416.201	0.26
416.4059	0.2628
416.6108	0.2556
416.8156	0.2546
417.0205	0.2667
417.2253	0.2517
417.4301	0.2556
417.6349	0.2595
417.8397	0.2488
418.0445	0.2473
418.2492	0.254
418.454	0.2453
418.6587	0.26
418.8634	0.2572
419.0681	0.2498
419.2728	0.2384
419.4775	0.2662
419.6822	0.2584
419.8868	0.2406
420.0915	0.234
420.2961	0.2359
420.5007	0.242
420.7053	0.2448
420.9099	0.248
421.1144	0.2478
421.319	0.237
421.5235	0.2368
421.728	0.2544
421.9325	0.2476
422.137	0.2346
422.3415	0.2445
422.546	0.2384
422.7504	0.2399
422.9549	0.249
423.1593	0.2277
423.3637	0.2309
423.5681	0.2435
423.7725	0.2345
423.9769	0.2353
424.1812	0.2299
424.3856	0.2249
424.5899	0.2294
424.7942	0.2288
424.9985	0.2327
425.2028	0.232
425.4071	0.2345
425.6113	0.2209
425.8156	0.2212
426.0198	0.2329
426.224	0.2178
426.4282	0.2159
426.6324	0.2196
426.8366	0.2277
427.0407	0.2213
427.2449	0.2177
427.449	0.2105
427.6531	0.2313
427.8572	0.2241
428.0613	0.2139
428.2654	0.2104
428.4694	0.1957
428.6735	0.2084
428.8775	0.2054
429.0815	0.2109
429.2855	0.2036
429.4895	0.2101
429.6935	0.2028
429.8975	0.1986
430.1014	0.2088
430.3053	0.1965
430.5093	0.1953
430.7132	0.188
430.9171	0.1913
431.1209	0.1963
431.3248	0.187
431.5286	0.1891
431.7325	0.1997
431.9363	0.178
432.1401	0.183
432.3439	0.186
432.5477	0.1756
432.7514	0.1697
432.9552	0.1817
433.1589	0.169
433.3627	0.1717
433.5664	0.1676
433.7701	0.1702
433.9737	0.1717
434.1774	0.1731
434.3811	0.1625
434.5847	0.1669
434.7883	0.1596
434.9919	0.1613
435.1955	0.1654
435.3991	0.1676
435.6027	0.1538
435.8062	0.1662
436.0098	0.1541
436.2133	0.147
436.4168	0.1459
436.6203	0.1436
436.8238	0.1448
437.0272	0.1412
437.2307	0.1401
437.4341	0.1437
437.6375	0.14
437.841	0.1293
438.0443	0.1346
438.2477	0.124
438.4511	0.1261
438.6545	0.1362
438.8578	0.1292
439.0611	0.1255
439.2644	0.1281
439.4677	0.1284
439.671	0.1166
439.8743	0.1253
440.0775	0.1203
440.2808	0.1219
440.484	0.1107
440.6872	0.1208
440.8904	0.106
441.0936	0.1107
441.2967	0.0938
441.4999	0.1069
441.703	0.103
441.9062	0.1108
442.1093	0.1028
442.3124	0.1003
442.5155	0.1062
442.7185	0.0937
442.9216	0.0976
443.1246	0.0979
443.3276	0.096
443.5307	0.0953
443.7337	0.0952
443.9366	0.0886
444.1396	0.0837
444.3426	0.0858
444.5455	0.0875
444.7484	0.0772
444.9513	0.0741
445.1542	0.0833
445.3571	0.0797
445.56	0.0811
445.7628	0.076
445.9657	0.0751
446.1685	0.0727
446.3713	0.0836
446.5741	0.0661
446.7769	0.0807
446.9797	0.073
447.1824	0.0706
447.3852	0.054
447.5879	0.0749
447.7906	0.055
447.9933	0.0655
448.196	0.0598
448.3986	0.0669
448.6013	0.0564
448.8039	0.066
449.0066	0.0694
449.2092	0.0655
449.4118	0.0557
449.6143	0.0611
449.8169	0.0541
450.0195	0.0528
450.222	0.061
450.4245	0.0585
450.627	0.0534
450.8295	0.0521
451.032	0.0536
451.2345	0.0473
451.4369	0.0477
451.6394	0.0403
451.8418	0.0462
452.0442	0.0438
452.2466	0.0452
452.449	0.047
452.6513	0.0405
452.8537	0.0399
453.056	0.0366
453.2583	0.0364
453.4607	0.0269
453.663	0.0386
453.8652	0.0373
454.0675	0.0366
454.2697	0.0471
454.472	0.0279
454.6742	0.043
454.8764	0.0427
455.0786	0.029
455.2808	0.0321
455.4829	0.0321
455.6851	0.0328
455.8872	0.0293
456.0893	0.0343
456.2915	0.031
456.4935	0.032
456.6956	0.0315
456.8977	0.0292
457.0997	0.0301
457.3018	0.0259
457.5038	0.0379
457.7058	0.0279
457.9078	0.0264
458.1098	0.0336
458.3117	0.0353
458.5137	0.018
458.7156	0.031
458.9175	0.0256
459.1194	0.0291
459.3213	0.0255
459.5232	0.0312
459.725	0.0294
459.9269	0.0236
460.1287	0.0182
460.3305	0.0312
460.5323	0.019
460.7341	0.0296
460.9359	0.014
461.1376	0.0244
461.3394	0.0326
461.5411	0.026
461.7428	0.0143
461.9445	0.0278
462.1462	0.0191
462.3479	0.0202
462.5495	0.0225
462.7512	0.0342
462.9528	0.0197
463.1544	0.0132
463.356	0.016
463.5576	0.0232
463.7592	0.0198
463.9607	0.0197
464.1623	0.0143
464.3638	0.0173
464.5653	0.0283
464.7668	0.0314
464.9683	0.0129
465.1697	0.0205
465.3712	0.0131
465.5726	0.0128
465.7741	0.0151
465.9755	0.0185
466.1769	0.0171
466.3782	0.0187
466.5796	0.0174
466.7809	0.0229
466.9823	0.0151
467.1836	0.0154
467.3849	0.0183
467.5862	0.0064
467.7875	0.0158
467.9887	0.0249
468.19	0.0132
468.3912	0.0365
468.5924	0.0133
468.7936	0.0083
468.9948	0.0102
469.196	0.0171
469.3972	0.009
469.5983	0.0107
469.7994	0.0198
470.0006	0.0226
470.2017	0.011
470.4027	0.0219
470.6038	0.0151
470.8049	0.0121
471.0059	0.0131
471.2069	0.0184
471.408	0.0181
471.6089	0.0215
471.8099	0.0155
472.0109	0.0074
472.2119	0.0209
472.4128	0.011
472.6137	0.0141
472.8146	0.015
473.0155	0.0205
473.2164	0.0161
473.4173	0.0069
473.6181	0.0078
473.819	0.0168
474.0198	0.0073
474.2206	0.0003
474.4214	0.011
474.6222	-0.0035
474.8229	0.0063
475.0237	0.0109
475.2244	0.0077
475.4251	0.0099
475.6258	0.0118
475.8265	0.0218
476.0272	0.0086
476.2278	0.0126
476.4285	0.0177
476.6291	0.0098
476.8297	0.0133
477.0303	0.0063
477.2309	0.0138
477.4315	0.0132
477.632	0.0041
477.8326	0.0119
478.0331	0.0183
478.2336	0.009
478.4341	0.011
478.6346	0.0058
478.8351	0.0046
479.0355	0.0154
479.236	0.0158
479.4364	0.0105
479.6368	0.0105
479.8372	0.0143
480.0376	0.0062
480.2379	0.0086
480.4383	0.0176
480.6386	0.0043
480.8389	0.0034
481.0392	0.0035
481.2395	0.0157
481.4398	0.0148
481.6401	0.0091
481.8403	0.0053
482.0405	0.0122
482.2408	0.0112
482.441	0.0126
482.6411	0.0127
482.8413	0.0066
483.0415	0.021
483.2416	0.0051
483.4417	0.0129
483.6419	0.009
483.8419	0.0155
484.042	0.0112
484.2421	0.0019
484.4422	0.0089
484.6422	0.0139
484.8422	0.0123
485.0422	0.0046
485.2422	0.0072
485.4422	0.0067
485.6422	0.0053
485.8421	0.0076
486.042	0.0143
486.242	0.0047
486.4419	0.0113
486.6417	0.0131
486.8416	0.012
487.0415	0.0073
487.2413	0.0053
487.4411	0.0118
487.641	0.0049
487.8408	0.0166
488.0405	0.0163
488.2403	0.0045
488.4401	0.0036
488.6398	0.0178
488.8395	0.0036
489.0392	0.0076
489.2389	0.0107
489.4386	0.0067
489.6383	0.0178
489.8379	0.0121
490.0376	0.0093
490.2372	0.0079
490.4368	0.0051
490.6364	0.004
490.836	0.007
491.0355	-0.0015
491.2351	0.0084
491.4346	0.0147
491.6341	0.0081
491.8336	0.0108
492.0331	0.0059
492.2326	0.0109
492.432	0.0116
492.6315	0.0112
492.8309	0.0161
493.0303	0.0046
493.2297	0.0135
493.4291	0.0039
493.6284	0.0113
493.8278	0.0033
494.0271	0.01
494.2264	0.0103
494.4257	0.0144
494.625	0.0085
494.8243	0.0014
495.0236	0.0104
495.2228	0.0138
495.422	0.0026
495.6213	0.0064
495.8205	0.0148
496.0196	0.0093
496.2188	0.0122
496.418	0.009
496.6171	0.0045
496.8162	0.0068
497.0153	0.0099
497.2144	0.0065
497.4135	0.0049
497.6126	0.0111
497.8116	0.0007
498.0107	0.0097
498.2097	0.0143
498.4087	0.0077
498.6077	0.0007
498.8067	0.0054
499.0056	0.0105
499.2046	0.0079
499.4035	0.0169
499.6024	0.0071
499.8013	0.0114
500.0002	0.0168
500.199	0.0135
500.3979	0.0064
500.5967	0.0059
500.7956	0.0169
500.9944	0.0084
501.1932	0.0142
501.3919	0.0144
501.5907	0.0111
501.7895	0.0093
501.9882	0.0063
502.1869	0.0154
502.3856	0.0101
502.5843	0.0092
502.783	0.0057
502.9816	0.0147
503.1803	0.0096
503.3789	0.0148
503.5775	0.008
503.7761	0.0071
503.9747	0.0132
504.1732	0.0048
504.3718	0.022
504.5703	0.0049
504.7689	-0.001
504.9674	0.0087
505.1658	0.0057
505.3643	0.0137
505.5628	0.0069
505.7612	0.015
505.9597	0.0037
506.1581	0.0073
506.3565	0.0078
506.5549	0.0088
506.7532	0.0106
506.9516	0.0139
507.1499	0.0083
507.3482	0.0105
507.5465	0.009
507.7448	0.0067
507.9431	0.0069
508.1414	0.0094
508.3396	0.0174
508.5379	0.011
508.7361	0.0091
508.9343	0.0184
509.1325	0.0195
509.3306	0.0106
509.5288	0.0046
509.7269	0.0164
509.9251	0.005
510.1232	0.0109
510.3213	0.014
510.5193	0.0118
510.7174	0.0053
510.9154	0.0104
511.1135	0.0033
511.3115	0.0111
511.5095	0.007
511.7075	0.019
511.9055	0.0087
512.1034	0.0068
512.3014	0.0041
512.4993	0.0136
512.6972	0.0043
512.8951	0.0025
513.093	0.0074
513.2908	0.0182
513.4887	0.0053
513.6865	0.0205
513.8844	0.0088
514.0822	0.0112
514.2799	0.0086
514.4777	0.0017
514.6755	0.0045
514.8732	0.0086
515.0709	0.0014
515.2687	0.0117
515.4664	0.0143
515.664	0.0184
515.8617	0.0198
516.0594	0.0083
516.257	0.0123
516.4546	0.0218
516.6522	0.0127
516.8498	0.003
517.0474	0.0065
517.2449	0.0062
517.4425	0.0075
517.64	0.0113
517.8375	0.0179
518.035	0.0054
518.2325	0.0043
518.43	0.0105
518.6274	0.0074
518.8249	0.0093
519.0223	0.0179
519.2197	0.014
519.4171	0.006
519.6145	0.0083
519.8118	0.0007
520.0092	0.0061
520.2065	0.023
520.4038	0.0095
520.6011	0.0164
520.7984	0.022
520.9956	0.0175
521.1929	0.0112
521.3901	0.0145
521.5874	0.0121
521.7846	0.002
521.9818	0.0172
522.1789	0.0111
522.3761	0.0101
522.5732	0.0103
522.7704	0.0012
522.9675	0.0066
523.1646	0.0054
523.3617	0.0085
523.5587	0.0036
523.7558	0.007
523.9528	0.0198
524.1498	0.002
524.3468	0.001
524.5438	0.0194
524.7408	0.0094
524.9378	0.0173
525.1347	0.009
525.3316	0.0086
525.5285	0.0107
525.7254	0.0107
525.9223	0.0122
526.1192	0.011
526.316	0.0099
526.5129	0.0093
526.7097	0.0017
526.9065	0.0154
527.1033	0.0155
527.3	0.007
527.4968	0.0096
527.6935	0.0048
527.8903	0.0115
528.087	0.0107
528.2837	0.024
528.4804	-0.0002
528.677	0.0075
528.8737	0.008
529.0703	0.0011
529.2669	0.0155
529.4635	0.0119
529.6601	0.006
529.8567	0.0042
530.0532	0.0135
530.2498	0.0062
530.4463	0.0074
530.6428	0.0144
530.8393	0.0204
531.0358	0.0081
531.2322	0.0064
531.4287	0.0174
531.6251	-0.0021
531.8215	0.0019
532.0179	0.0152
532.2143	0.0113
532.4107	0.0091
532.607	-0.0001
532.8034	0.0016
532.9997	0.0083
533.196	0.0096
533.3923	0.0196
533.5886	0.0095
533.7848	0.0145
533.9811	0.0087
534.1773	0.0114
534.3735	0.0108
534.5697	0.0064
534.7659	0.0146
534.9621	0.0193
535.1582	0.0077
535.3544	0.0057
535.5505	0.0143
535.7466	0.0139
535.9427	0.007
536.1387	0.0017
536.3348	0.0137
536.5308	-0.0007
536.7269	0.0174
536.9229	0.009
537.1189	0.0172
537.3148	0.0087
537.5108	0.0147
537.7068	0.0097
537.9027	0.0022
538.0986	0.0092
538.2945	0.0117
538.4904	-0.0009
538.6863	0.0072
538.8821	0.0151
539.078	0.0054
539.2738	0.0064
539.4696	0.0136
539.6654	0.0116
539.8611	0.0049
540.0569	0.0072
540.2526	0.0105
540.4484	0.0028
540.6441	0.0059
540.8398	0.0167
541.0355	0.0056
541.2311	0.0024
541.4268	0.0189
541.6224	0.017
541.818	0.0133
542.0136	0.0123
542.2092	0.0172
542.4048	0.0098
542.6003	0.0088
542.7959	0.0138
542.9914	0.0115
543.1869	0.0118
543.3824	0.013
543.5779	0.0144
543.7734	0.0241
543.9688	0.0122
544.1642	0.0032
544.3596	0.011
544.555	0.0182
544.7504	0.013
544.9458	0.0111
545.1411	0.0103
545.3365	0.0086
545.5318	0.0144
545.7271	0.0156
545.9224	0.0044
546.1177	0.0113
546.3129	0.0099
546.5081	0.0055
546.7034	0.0053
546.8986	0.0003
547.0938	0.0146
547.289	0.0096
547.4841	0.0149
547.6793	0.0098
547.8744	0.0094
548.0695	0.0082
548.2646	0.0109
548.4597	-0.0017
548.6548	0.0155
548.8498	0.0095
549.0448	0.0133
549.2399	0.0197
549.4349	0.0055
549.6298	0.0052
549.8248	0.006
550.0198	0.0233
550.2147	0.0168
550.4096	0.0053
550.6045	0.0085
550.7994	0.0159
550.9943	0.0095
551.1892	-0.0114
551.384	0.0197
551.5788	0.0094
551.7737	0.0145
551.9685	0.0073
552.1632	0.0066
552.358	0.0043
552.5528	0.0068
552.7475	0.0118
552.9422	0.0084
553.1369	0.0148
553.3316	0.0153
553.5263	0.0151
553.7209	0.0137
553.9156	0.0099
554.1102	0.011
554.3048	0.0008
554.4994	0.0103
554.694	0.0179
554.8885	0.0103
555.0831	0.0161
555.2776	0.0083
555.4721	0.0098
555.6666	0.0136
555.8611	0.009
556.0555	0.0155
556.25	0.0099
556.4444	0.0074
556.6388	0.0087
556.8332	0.0148
557.0276	0.0166
557.222	0.0008
557.4163	0.0121
557.6107	0.0064
557.805	0.0034
557.9993	0.0087
558.1936	0.0029
558.3879	-0.001
558.5821	0.0064
558.7764	-0.006
558.9706	0.007
559.1648	0.0148
559.359	0.007
559.5532	-0.0003
559.7473	0.011
559.9415	0.0051
560.1356	0.0162
560.3297	-0.0025
560.5238	0.0152
560.7179	0.0071
560.9119	0.0139
561.106	0.0034
561.3	0.006
561.494	0.0005
561.688	0.01
561.882	-0.0011
562.076	0.0075
562.2699	0.0164
562.4639	0.0191
562.6578	0.014
562.8517	0.0125
563.0456	0.0141
563.2395	0.0173
563.4333	0.0103
563.6272	0.0176
563.821	0.0094
564.0148	0.0119
564.2086	0.0134
564.4024	0.0231
564.5961	0.019
564.7899	0.0188
564.9836	-0.0018
565.1773	0.0179
565.371	0.0134
565.5647	0.0029
565.7584	0.021
565.952	0.0106
566.1456	0.0098
566.3393	0.0093
566.5329	0.0115
566.7264	0.0189
566.92	0.0108
567.1136	0.0031
567.3071	-0.0011
567.5006	0.0104
567.6941	0.0098
567.8876	0.0081
568.0811	0.0241
568.2745	0.0092
568.468	0.0137
568.6614	0.013
568.8548	0.0114
569.0482	0.005
569.2416	0.0066
569.4349	0.0095
569.6283	0.0039
569.8216	0.0085
570.0149	0.0062
570.2082	0.0123
570.4015	0.0054
570.5947	0.0052
570.788	0.0129
570.9812	0.0045
571.1744	0.0062
571.3676	0.0064
571.5608	0.0022
571.754	0.0126
571.9471	0.0093
572.1402	0.0075
572.3333	0.0076
572.5264	0.011
572.7195	0.0115
572.9126	0.0068
573.1057	0.0113
573.2987	0.0131
573.4917	0.0047
573.6847	0.005
573.8777	0.0116
574.0707	0.0121
574.2636	0.0138
574.4566	0.0077
574.6495	0.0077
574.8424	0.0087
575.0353	0.0111
575.2281	0.0109
575.421	0.0058
575.6138	0.0061
575.8067	0.0098
575.9995	0.0077
576.1923	0.007
576.385	0.0088
576.5778	0.0162
576.7706	0.0095
576.9633	0.0099
577.156	0.0002
577.3487	0.0073
577.5414	0.0051
577.734	0.0053
577.9267	0.0083
578.1193	0.0103
578.3119	0.0075
578.5045	0.0097
578.6971	0.0034
578.8897	0.011
579.0822	0.0104
579.2747	0.0063
579.4673	0.0093
579.6598	0.0075
579.8522	0.0081
580.0447	0.0125
580.2372	0.0104
580.4296	0.014
580.622	0.0053
580.8144	0.007
581.0068	0.0087
581.1992	0.0087
581.3915	0.0001
581.5839	0.0067
581.7762	0.0093
581.9685	0.0066
582.1608	0.0059
582.353	0.003
582.5453	0.0112
582.7375	0.0105
582.9298	0.0047
583.122	0.0098
583.3142	0.0113
583.5063	0.0072
583.6985	0.0064
583.8906	0.0054
584.0827	0.0091
584.2749	0.0067
584.4669	0.0048
584.659	0.0116
584.8511	0.0131
585.0431	0.0118
585.2352	0.0049
585.4272	0.0085
585.6192	0.0104
585.8111	0.0054
586.0031	0.0061
586.195	0.0072
586.387	0.0044
586.5789	0.0102
586.7708	0.0126
586.9627	0.0086
587.1545	0.0111
587.3464	0.0092
587.5382	0.0068
587.73	0.0109
587.9218	0.0041
588.1136	0.0047
588.3053	0.0101
588.4971	0.01
588.6888	0.007
588.8805	0.0089
589.0722	0.0141
589.2639	0.0108
589.4556	0.0107
589.6472	0.0147
589.8389	0.0131
590.0305	0.0012
590.2221	0.0087
590.4137	0.005
590.6052	0.0085
590.7968	0.006
590.9883	0.0076
591.1798	0.0065
591.3713	0.0091
591.5628	0.0062
591.7543	0.0037
591.9458	0.0052
592.1372	0.0057
592.3286	0.0056
592.52	0.0061
592.7114	0.0045
592.9028	0.0118
593.0941	0.0061
593.2855	0.0088
593.4768	0.0158
593.6681	0.0131
593.8594	0.0078
594.0506	0.0069
594.2419	0.0053
594.4331	0.0065
594.6244	0.0044
594.8156	0.0069
595.0067	0.0054
595.1979	0.0048
595.3891	0.0142
595.5802	0.0061
595.7713	0.0124
595.9624	0.0134
596.1535	0.0044
596.3446	0.0037
596.5357	0.0148
596.7267	0.0057
596.9177	0.0138
597.1087	0.0076
597.2997	0.0121
597.4907	0.0061
597.6817	0.0138
597.8726	0.0058
598.0635	0.0066
598.2544	0.0193
598.4453	0.0071
598.6362	0.0064
598.827	0.0072
599.0179	0.008
599.2087	0.0138
599.3995	0.0108
599.5903	0.0133
599.7811	0.0155
599.9718	0.0057
600.1626	0.0094
600.3533	0.0067
600.544	0.0109
600.7347	0.0073
600.9254	0.0147
601.116	0.0064
601.3067	0.0071
601.4973	0.0083
601.6879	0.0062
601.8785	0.0111
602.0691	0.011
602.2596	0.0093
602.4502	0.0057
602.6407	0.0111
602.8312	0.0037
603.0217	0.0069
603.2122	0.0085
603.4027	0.0099
603.5931	0.0051
603.7835	0.0123
603.9739	0.0027
604.1643	0.0066
604.3547	0.0116
604.5451	0.0204
604.7354	0.0072
604.9257	0.0052
605.116	0.0002
605.3063	0.0087
605.4966	0.0028
605.6869	0.0158
605.8771	0.0078
606.0673	0.004
606.2575	0.0091
606.4477	0.0104
606.6379	0.0074
606.8281	0.0063
607.0182	0.0027
607.2083	0.0107
607.3985	0.0104
607.5885	0.0123
607.7786	0.0049
607.9687	0.0122
608.1587	0.0092
608.3488	0.0064
608.5388	0.0045
608.7288	0.0107
608.9187	0.0068
609.1087	0.0137
609.2986	0.0081
609.4886	0.0077
609.6785	0.015
609.8684	0.0026
610.0582	0.0063
610.2481	-0.0023
610.4379	0.0086
610.6278	0.0077
610.8176	0.0151
611.0074	0.0087
611.1971	0.0133
611.3869	0.0135
611.5766	-0.0006
611.7664	0.0152
611.9561	0.0096
612.1458	0.0114
612.3354	0.009
612.5251	0.0065
612.7147	0.0132
612.9044	0.0026
613.094	0.0143
613.2836	0.0101
613.4731	0.0058
613.6627	0.0075
613.8522	0.0146
614.0417	0.0106
614.2313	0.0139
614.4207	0.0137
614.6102	0.0098
614.7997	0.0146
614.9891	0.0147
615.1785	0.0017
615.3679	0.0125
615.5573	0.0122
615.7467	0.0058
615.9361	0.0081
616.1254	0.0169
616.3147	0.005
616.504	0.008
616.6933	0.0105
616.8826	0.0068
617.0718	0.0132
617.2611	0.0067
617.4503	0.0038
617.6395	0.0047
617.8287	0.0222
618.0179	0.0107
618.207	0.0109
618.3961	0.0027
618.5853	0.0004
618.7744	0.018
618.9634	0.0153
619.1525	0.0078
619.3416	0.0096
619.5306	0.0127
619.7196	0.0079
619.9086	0.0138
620.0976	0.0067
620.2866	0.0033
620.4755	0.0064
620.6645	0.0168
620.8534	0.0104
621.0423	0.0046
621.2312	-0.0018
621.42	0.0068
621.6089	0.0033
621.7977	0.0113
621.9865	0.0053
622.1753	-0.0021
622.3641	0.0044
622.5529	0.0076
622.7416	0.0011
622.9303	-0.0028
623.1191	0.0141
623.3078	0.0096
623.4964	0.0138
623.6851	0.0059
623.8737	0.0098
624.0624	-0.0066
624.251	0.0122
624.4396	0.0115
624.6282	0.0183
624.8167	0.0131
625.0053	0.0122
625.1938	0.009
625.3823	0.0115
625.5708	-0.0089
625.7593	0.0095
625.9477	0.0122
626.1362	0.0008
626.3246	0.0068
626.513	0.0145
626.7014	0.0022
626.8898	0.0242
627.0781	0.0074
627.2665	0.0101
627.4548	0.0023
627.6431	0.0053
627.8314	0.0124
628.0197	0.0155
628.2079	0.0062
628.3962	0.0118
628.5844	0.0202
628.7726	0.0099
628.9608	0.0189
629.1489	0.0087
629.3371	0.0104
629.5252	0.009
629.7134	0.0088
629.9015	0.0066
630.0895	0.0049
630.2776	0.0024
630.4657	0.0121
630.6537	0.0149
630.8417	-0.0042
631.0297	-0.003
631.2177	0.0038
631.4057	0.0092
631.5936	0.0038
631.7815	0.0097
631.9695	0.0247
632.1574	0.0116
632.3452	0.0106
632.5331	0.02
632.7209	0.0182
632.9088	0.0033
633.0966	0.017
633.2844	0.0081
633.4722	0.0145
633.6599	0.0139
633.8477	0.0166
634.0354	0.0176
634.2231	-0.0007
634.4108	0.0089
634.5985	0.0219
634.7861	0.0089
634.9738	-0.0022
635.1614	0.0176
635.349	0.0118
635.5366	0.0074
635.7242	0.0059
635.9117	0.0042
636.0993	0.0224
636.2868	0.0232
636.4743	0.0086
636.6618	-0.0009
636.8492	0.021
637.0367	0.003
637.2241	0.009
637.4115	0.0331
637.5989	-0.0023
637.7863	0.0359
637.9737	0.0164
638.161	0.0144
638.3484	0.0045
638.5357	0.009
638.723	0.0176
638.9103	0.0025
639.0975	-0.0018
639.2848	0.0249
639.472	0.0276
639.6592	0.007
639.8464	0.0117
640.0336	0.0121
640.2208	0.02
640.4079	-0.011
640.595	-0.0051
640.7821	0.0206
640.9692	0.0143
641.1563	0.0095
641.3434	0.0045
641.5304	0.0157
641.7174	0.0331
641.9044	0.0112
642.0914	0.0307
642.2784	0.0159
642.4653	-0.003
642.6523	0.0075
642.8392	-0.0018
643.0261	0.0192
643.213	0.015
643.3999	0.0205
643.5867	0.0211
643.7735	-0.0065
643.9604	0.0238
644.1472	0.0055
644.3339	0.003
644.5207	-0.0003
644.7075	0.0002
644.8942	0.0119
645.0809	0.0095
645.2676	-0.0056
645.4543	0.0078
645.6409	0.024
645.8276	0.0198
646.0142	0.0266
646.2008	0.0074
646.3874	-0.0112
646.574	0.0037
646.7605	0.0123
646.9471	0.0183
647.1336	-0.0034
647.3201	0.0114
647.5066	0.0173
647.6931	0.0095
647.8795	0.0096
648.0659	0.0101
648.2524	0.0111
648.4388	0.0043
648.6252	0.0214
648.8115	-0.0063
648.9979	0.0147
649.1842	-0.0004
649.3705	0.0243
649.5568	0.003
649.7431	0.0052
649.9294	0.0046
650.1156	0.0232
650.3018	0.0135
650.488	0.0389
650.6742	0.0069
650.8604	0.0205
651.0466	-0.0022
651.2327	0.0047
651.4188	0.0063
651.6049	0.0385
651.791	0.0089
651.9771	0.0075
652.1632	0.0046
652.3492	0.0049
652.5352	0.0224
652.7212	0.0196
652.9072	0.0176
653.0932	0.0119
653.2791	0.0158
653.465	0.0205
653.651	0.0142
653.8369	0.0227
654.0227	0.0055
654.2086	0.017
654.3944	0.0135
654.5803	0.0147
654.7661	0.0121
654.9519	0.0008
655.1377	0.0001
655.3234	0.0001
655.5092	0.0001
655.6949	0.0001
655.8806	0.0001
656.0663	0.0001
656.2519	0.0001
656.4376	0.0001
656.6232	0.0001
656.8088	0.0001
656.9945	0.0001
657.18	0.0001
657.3656	0.0001
657.5511	0.0001
657.7367	0.0001
657.9222	0.0001
658.1077	0.0001
658.2932	0.0001
658.4786	0.0001
658.6641	0.0001
658.8495	0.0001
659.0349	0.0001
659.2203	0.0001
659.4057	0.0104
659.591	0.2874
659.7764	0.0317
659.9617	0.0161
660.147	0.0092
660.3323	0.017
660.5176	-0.0022
660.7028	-0.0063
660.888	-0
661.0733	0.0062
661.2585	-0.0013
661.4436	0.0196
661.6288	0.0271
661.8139	-0.007
661.9991	-0.0191
662.1842	0.0106
662.3693	0.0015
662.5544	0.0262
662.7394	0.0068
662.9245	0.0058
663.1095	0.0129
663.2945	0.0071
663.4795	-0.0046
663.6644	0.0208
663.8494	0.0237
664.0343	0.0195
664.2193	0.005
664.4042	0.0238
664.589	0.0137
664.7739	0.0208
664.9587	0.0045
665.1436	-0.0159
665.3284	-0.001
665.5132	-0.0212
665.698	0.0183
665.8827	0.0183
666.0675	-0.01
666.2522	0.0212
666.4369	-0.0055
666.6216	0.0312
666.8063	-0.0064
666.9909	0.0034
667.1756	0.0086
667.3602	0.0019
667.5448	0.0036
667.7294	0.0186
667.9139	-0.0147
668.0985	-0.0024
668.283	0.0051
668.4675	0.0195
668.652	0.0255
668.8365	0.0165
669.0209	0.0055
669.2054	0.0057
669.3898	0.02
669.5742	0.0278
669.7586	0.0106
669.943	0.0089
670.1273	0.0111
670.3117	0.0238
670.496	0.011
670.6803	0.0006
670.8646	-0.0068
671.0488	0.0293
671.2331	-0.0137
671.4173	0.0122
671.6015	0.0203
671.7857	0.0073
671.9699	0.0176
672.1541	-0.0022
672.3382	-0.0085
672.5223	0.0027
672.7064	0.0209
672.8905	-0.0112
673.0746	0.0005
673.2587	0.0265
673.4427	0.0103
673.6267	0.0263
673.8107	0.0364
673.9947	0.0133
674.1787	0.0039
674.3626	0.0012
674.5465	0.0322
674.7304	0.0019
674.9143	0.0183
675.0982	0.0103
675.2821	0.0149
675.4659	-0.0049
675.6497	0.0085
675.8335	0.0015
676.0173	0.0003
676.2011	0.0379
676.3849	0.0122
676.5686	0.0347
676.7523	-0.012
676.936	0.0015
677.1197	0.0025
677.3034	0.0303
677.487	0.0042
677.6706	0.0218
677.8542	0.0144
678.0378	0.0136
678.2214	0.0293
678.405	0.0234
678.5885	0.0221
678.772	0.0105
678.9555	-0.0081
679.139	0.0198
679.3225	0.0169
679.5059	0.0106
679.6894	0.0142
679.8728	0.0055
680.0562	0.0038
680.2395	0.0081
680.4229	0.0035
680.6062	-0.004
680.7896	0.0064
680.9729	0.0377
681.1562	0.0025
681.3394	0.0059
681.5227	0.0114
681.7059	0.001
681.8891	0.0263
682.0723	0.0006
682.2555	0.0037
682.4387	0.0269
682.6218	0.0105
682.805	0.0116
682.9881	0.0251
683.1712	0.0177
683.3542	0.0176
683.5373	-0.0021
683.7203	0.0076
683.9034	-0.0109
684.0864	0.0096
684.2694	0.008
684.4523	0.0131
684.6353	-0.0022
684.8182	-0.0045
685.0011	0.0141
685.184	0.0102
685.3669	0.0281
685.5498	-0.0122
685.7326	0.0083
685.9154	0.0172
686.0982	0.0306
686.281	-0.002
686.4638	0.0153
686.6465	0.0096
686.8293	0.001
687.012	0.024
687.1947	0.0085
687.3774	0.0052
687.56	-0.0075
687.7427	0.0045
687.9253	-0.0029
688.1079	0.0053
688.2905	0.0107
688.4731	0.0226
688.6556	0.0198
688.8382	-0.0102
689.0207	0.0025
689.2032	0.0248
689.3857	-0.0128
689.5681	0.0053
689.7506	0.0265
689.933	0.0015
690.1154	0.0054
690.2978	0.0022
690.4802	0.0404
690.6626	0.0128
690.8449	0.0091
691.0272	0.0029
691.2095	0.0006
691.3918	0.0088
691.5741	0.0088
691.7563	0.0125
691.9386	0.0306
692.1208	0.0119
692.303	0.0203
692.4852	0.0019
692.6673	0.0161
692.8495	-0.0187
693.0316	0.0156
693.2137	0.039
693.3958	0.0276
693.5778	0.0083
693.7599	0.0036
693.9419	0.0123
694.1239	0.0003
694.3059	0.0247
694.4879	0.0025
694.6699	0.0062
694.8518	0.0175
695.0337	0.0163
695.2157	0.0191
695.3975	0.0064
695.5794	0.0052
695.7613	0.0047
695.9431	-0.0086
696.1249	0.0257
696.3067	0.0037
696.4885	0.0057
696.6703	0.0149
696.852	0.0159
697.0337	0.02
697.2154	0.0122
697.3971	0.0011
697.5788	0.0351
697.7605	-0.0057
697.9421	0.0074
698.1237	0.0275
698.3053	0.0024
698.4869	0.0168
698.6685	0.0042
698.85	0.0279
699.0315	-0.0025
699.213	0.0114
699.3945	0.0183
699.576	0.0287
699.7575	0.0235
699.9389	-0.0012
700.1203	0.0109
700.3017	0.0131
700.4831	0.0339
700.6645	0.0184
700.8458	0.0124
701.0271	0.0292
701.2084	0.0203
701.3897	0.0105
701.571	0.0221
701.7523	0.0434
701.9335	0.01
702.1147	0.0393
702.2959	0.0093
702.4771	0.0154
702.6583	0.0079
702.8394	-0.0275
703.0205	0.0289
703.2016	-0.0065
703.3827	-0.0099
703.5638	-0.0131
703.7449	0.0213
703.9259	0.0195
704.1069	-0.0065
704.2879	0.0253
704.4689	0.0361
704.6499	0.0234
704.8308	0.0223
705.0117	0.0306
705.1927	0.0348
705.3735	0.0236
705.5544	0.0287
705.7353	-0.0132
705.9161	-0.0026
706.0969	0.0128
706.2777	0.0225
706.4585	0.0155
706.6393	0.0134
706.82	0.0238
707.0007	0.0077
707.1815	-0.0121
707.3621	0.0336
707.5428	0.0177
707.7235	0.009
707.9041	0.0073
708.0847	0.0068
708.2653	0.0179
708.4459	-0.0003
708.6265	0.0139
708.807	-0.0052
708.9875	0.0044
709.168	-0.015
709.3485	0.0146
709.529	0.0053
709.7095	-0.0146
709.8899	0.0173
710.0703	0.0084
710.2507	0.0031
710.4311	-0.0066
710.6115	0.0271
710.7918	0.033
710.9721	0.0294
711.1524	0.0011
711.3327	-0.0128
711.513	0.0028
711.6932	0.0063
711.8735	0.0339
712.0537	0.0057
712.2339	0.0257
712.4141	0.0374
712.5942	-0.0172
712.7744	0.0192
712.9545	0.009
713.1346	0.0165
713.3147	0.0068
713.4947	0.0066
713.6748	0.011
713.8548	0.0259
714.0348	0.0045
714.2148	0.0282
714.3948	0.0107
714.5748	0.0334
714.7547	0.0266
714.9346	0.0195
715.1145	0.009
715.2944	-0.0034
715.4743	0.0446
715.6541	0.0004
715.834	0.0389
716.0138	0.0274
716.1936	0.0118
716.3733	0.0015
716.5531	0.0092
716.7328	0.0333
716.9126	0.0096
717.0923	-0.0211
717.2719	0.0073
717.4516	0.0051
717.6312	-0.0059
717.8109	0.0318
717.9905	-0.0104
718.1701	0.0319
718.3496	0.0091
718.5292	-0.0049
718.7087	-0.0041
718.8882	0.0147
719.0677	0.0107
719.2472	0.0036
719.4267	0.0082
719.6061	-0.0123
719.7856	0.0619
719.965	0.0106
720.1443	0.0127
720.3237	0.0063
720.5031	0.0147
720.6824	0.0042
720.8617	0.0234
721.041	0.0179
721.2203	0.0094
721.3995	-0.0065
721.5788	0.0201
721.758	-0.0103
721.9372	0.0257
722.1164	-0.0127
722.2956	-0.0035
722.4747	0.016
722.6538	0.0161
722.8329	0.0381
723.012	0.0064
723.1911	0.0235
723.3702	0.0295
723.5492	0.0047
723.7282	0.0082
723.9072	0.0112
724.0862	0.0173
724.2652	-0.0047
724.4441	-0.0025
724.623	0.0231
724.8019	0.0036
724.9808	0.0177
725.1597	0.0343
725.3385	0.0161
725.5174	-0.001
725.6962	0.0241
725.875	0.0238
726.0538	0.0165
726.2325	0.021
726.4112	-0.0034
726.59	0.0097
726.7687	0.0151
726.9474	0.0173
727.126	0.015
727.3047	-0.0185
727.4833	0.0157
727.6619	-0.019
727.8405	-0.0072
728.0191	0.042
728.1976	0.0243
728.3762	0.0083
728.5547	-0.014
728.7332	0.014
728.9116	0.0301
729.0901	0.0082
729.2686	0.0232
729.447	0.0138
729.6254	0.0222
729.8038	-0.0063
729.9821	-0.0307
730.1605	-0.0099
730.3388	0.0031
730.5171	0.0261
730.6954	-0.0091
730.8737	0.0205
731.0519	0.0152
731.2302	0.0134
731.4084	0.0016
731.5866	0.007
731.7648	0.0265
731.9429	0.0287
732.1211	0.0059
732.2992	0.0096
732.4773	0.0051
732.6554	-0.0062
732.8335	0.0177
733.0115	0.0139
733.1896	-0.0056
733.3676	0.0157
733.5456	0.0167
733.7235	-0.0002
733.9015	0.0116
734.0794	-0.0037
734.2574	-0.0028
734.4353	0.0269
734.6131	0.0159
734.791	0.0088
734.9689	-0.0065
735.1467	0.0025
735.3245	0.0308
735.5023	0.0222
735.68	0.0094
735.8578	-0.0046
736.0355	0.0143
736.2132	0.0074
736.3909	0.0545
736.5686	-0.003
736.7463	-0.0078
736.9239	0.0178
737.1015	-0.003
737.2791	0.0145
737.4567	0.0263
737.6343	-0.0082
737.8118	0.0165
737.9894	0.016
738.1669	0.0118
738.3444	0.0084
738.5218	-0.0038
738.6993	0.0106
738.8767	0.0103
739.0541	-0.0015
739.2315	0.0077
739.4089	0.02
739.5863	0.0302
739.7636	-0.0011
739.9409	-0
740.1182	0.0233
740.2955	0.0334
740.4728	0.0074
740.65	0.0205
740.8272	0.032
741.0044	0.0085
741.1816	0.0391
741.3588	0.0038
741.5359	-0.0148
741.7131	0.0226
741.8902	-0.0062
742.0673	-0.0021
742.2444	0.0658
742.4214	0.0245
742.5985	-0.0176
742.7755	0.0021
742.9525	-0.0086
743.1295	0.0076
743.3064	0.0128
743.4834	0.0115
743.6603	0.0667
743.8372	0.0026
744.0141	0.0231
744.191	0.0325
744.3678	-0.0107
744.5446	-0.0014
744.7215	0.0112
744.8982	0.0197
745.075	0.0578
745.2518	0.0247
745.4285	0.0197
745.6052	-0.0131
745.7819	0.0344
745.9586	0.0174
746.1353	0.0025
746.3119	0.0206
746.4885	0.0669
746.6651	-0.0077
746.8417	0.0042
747.0183	0.0742
747.1948	0.0267
747.3714	0.0094
747.5479	0.0117
747.7244	0.0328
747.9008	-0.0218
748.0773	0.0416
748.2537	0.0249
748.4301	0.028
748.6065	0.0198
748.7829	-0.0208
748.9593	-0.0038
749.1356	0.0017
749.3119	0.0289
749.4882	0.0235
749.6645	0.0009
749.8408	0.0024
750.017	0.0293
750.1933	0.003
750.3695	0.0248
750.5457	0.0068
750.7218	-0.0045
750.898	-0.027
751.0741	-0.001
751.2502	0.0128
751.4263	0.0131
751.6024	0.0068
751.7784	0.001
751.9545	0.0169
752.1305	0.0111
752.3065	0.0285
752.4825	0.0101
752.6584	0.0031
752.8344	0.0293
753.0103	-0.0075
753.1862	0.0102
753.3621	0.0016
753.5379	0.0188
753.7138	0.0092
753.8896	0.0223
754.0654	-0.0076
754.2412	0.0356
754.417	0.0178
754.5927	-0.0041
754.7685	0.0288
754.9442	0.0167
755.1199	0.0238
755.2956	0.0111
755.4712	0.0003
755.6469	0.0031
755.8225	0.0185
755.9981	0.0138
756.1736	0.0042
756.3492	0.0191
756.5248	0.0166
756.7003	0.0122
756.8758	0.0006
757.0513	0.0083
757.2267	0.0033
757.4022	0.0018
757.5776	0.0064
757.753	0.0242
757.9284	0.011
758.1038	0.019
758.2791	0.0019
758.4545	-0.012
758.6298	0.0027
758.8051	0.026
758.9803	0.0147
759.1556	-0.0009
759.3308	-0.0081
759.506	0.0075
759.6812	-0.0024
759.8564	-0.0081
760.0316	0.0072
760.2067	0.0481
760.3819	0.0057
760.557	-0.0044
760.732	0.0181
760.9071	0.0066
761.0821	-0.0076
761.2572	0.0247
761.4322	0.0132
761.6072	0.0041
761.7821	-0.0358
761.9571	0.0212
762.132	0.0077
762.3069	0.0489
762.4818	0.0234
762.6567	-0.0218
762.8316	0.0176
763.0064	0.0243
763.1812	0.0164
763.356	-0.0186
763.5308	0.0363
763.7055	0.0069
763.8803	0.0136
764.055	-0.0088
764.2297	0.0042
764.4044	0.01
764.579	0.0062
764.7537	-0.0127
764.9283	0.0078
765.1029	0.0126
765.2775	0.0145
765.4521	0.0102
765.6266	0.0085
765.8011	0.0327
765.9756	0.0233
766.1501	0.0025
766.3246	0.0363
766.4991	0.0486
766.6735	0.0522
766.8479	0.032
767.0223	0.0189
767.1967	0.0097
767.371	0.0157
767.5454	0.0335
767.7197	0.0394
767.894	0.0081
768.0683	0.009
768.2425	0.0028
768.4168	0.0299
768.591	0.0237
768.7652	0.0157
768.9394	-0.0021
769.1135	0.0319
769.2877	0.0161
769.4618	0.0422
769.6359	-0.0071
769.81	0.0394
769.984	0.0053
770.1581	0.0064
770.3321	0.0432
770.5061	0.0021
770.6801	-0.0157
770.8541	0.0101
771.028	0.0396
771.202	0.0301
771.3759	0.023
771.5498	-0.0153
771.7236	0.0253
771.8975	0.0506
772.0713	0.0254
772.2451	-0.0228
772.4189	-0.0218
772.5927	-0.0031
772.7665	-0.0035
772.9402	0.0382
773.1139	0.0089
773.2876	0.0162
773.4613	0.0407
773.635	0.0367
773.8086	0.0102
773.9822	0.0164
774.1558	0.0181
774.3294	0.042
774.503	0.0169
774.6765	0.0295
774.8501	0.0209
775.0236	0.0474
775.1971	-0.0001
775.3705	-0.022
775.544	-0.0427
775.7174	0.0183
775.8908	0.0251
776.0642	-0.0114
776.2376	0.0117
776.4109	0.006
776.5843	-0.0273
776.7576	-0.0009
776.9309	0.0392
777.1041	-0.0681
777.2774	-0.0099
777.4506	0.0121
777.6238	0.0088
777.797	0.0021
777.9702	0.0139
778.1434	0.0138
778.3165	0.0112
778.4896	-0.0108
778.6627	0.0074
778.8358	-0.0165
779.0089	-0.0101
779.1819	0.013
779.3549	0.0425
779.5279	-0.0247
779.7009	0.0329
779.8739	0.0333
780.0468	0.0136
780.2197	0.0026
780.3926	0.0235
780.5655	0.037
780.7384	0.0227
780.9112	0.027
781.0841	-0.0074
781.2569	0.0018
781.4297	0.0214
781.6024	0.0148
781.7752	0.0415
781.9479	0.0465
782.1206	-0.0032
782.2933	0.0138
782.466	0.0179
782.6386	-0.0035
782.8113	-0.0138
782.9839	0.0322
783.1565	0.0168
783.329	-0.0075
783.5016	-0.0051
783.6741	0.0244
783.8466	0.0435
784.0191	0.0174
784.1916	0.0144
784.3641	-0.0744
784.5365	0.0234
784.7089	-0.0017
784.8813	0.0868
785.0537	0.0181
785.2261	0.0067
785.3984	0.0381
785.5707	0.0313
785.743	0.0344
785.9153	-0.0252
786.0876	-0.0143
786.2598	-0.0212
786.432	-0.0082
786.6042	0.0844
786.7764	-0.0533
786.9486	0.0234
787.1207	0.0608
787.2928	0.036
787.4649	-0.0026
787.637	-0.0088
787.8091	-0.0006
787.9811	0.0134
788.1532	0.0308
788.3252	0.0214
788.4972	-0.0028
788.6691	0.0118
788.8411	-0.0019
789.013	0.0311
789.1849	0.0107
789.3568	0.0517
789.5287	0.0533
789.7005	0.0009
789.8723	0.0123
790.0442	-0.006
790.2159	-0.0461
790.3877	0.0558
790.5595	0.047
790.7312	-0.0337
790.9029	0.0124
791.0746	-0.0275
791.2463	0.0238
791.4179	0.0063
791.5896	0.0211
791.7612	-0.009
791.9328	0.0282
792.1044	0.048
792.2759	-0.038
792.4474	0.0504
792.619	-0.0001
792.7905	0.0138
792.9619	0.0892
793.1334	0.0752
793.3048	0.0815
793.4762	0.0127
793.6476	-0.0379
793.819	0.0295
793.9904	-0.009
794.1617	-0.0153
794.333	0.0238
794.5043	0.0491
794.6756	-0.0046
794.8469	0.0283
795.0181	0.0025
795.1893	0.0329
795.3605	0.0167
795.5317	-0.0095
795.7029	0.011
795.874	-0.0147
796.0452	0.0849
796.2163	0.0578
796.3873	0.0665
796.5584	0.0637
796.7294	0.0537
796.9005	0.0318
797.0715	-0.0305
797.2425	0.0607
797.4134	0.0093
797.5844	0.0401
797.7553	-0.0211
797.9262	0.0871
798.0971	0.0367
798.2679	-0.0085
798.4388	0.0326
798.6096	-0.0466
798.7804	0.0488
798.9512	0.0165
799.122	0.009
799.2927	0.0436
799.4635	-0.0774
799.6342	-0.0547
799.8049	0.0483
799.9755	-0.0521
800.1462	0.0109
800.3168	0.0383
800.4874	-0.1235
800.658	-0.0366
800.8286	0.0188
800.9991	0.0884
801.1696	0.0192
801.3402	0.0204
801.5106	-0.0516
801.6811	0.0486
801.8516	0.1083
802.022	-0.0095
802.1924	-0.0105
802.3628	-0.0395
802.5332	0.0989
802.7035	0.0852
802.8739	0.0535
803.0442	-0.0325
803.2145	0.0339
803.3847	0.0254
803.555	0.0198
803.7252	0.0217
803.8954	-0.0482
804.0656	0.0443
804.2358	0.0339
804.4059	0.0776
804.5761	0.0292
804.7462	0.0689
804.9163	-0.0079
805.0864	-0.0155
805.2564	-0.0601
805.4264	0.0486
805.5965	0.0683
805.7665	0.0654
805.9364	-0.0184
806.1064	0.0166
806.2763	0.0627
806.4462	0.0217
806.6161	0.0289
806.786	0.007
806.9559	-0.0135
807.1257	0.0009
807.2955	0.016
807.4653	-0.0199
807.6351	0.0714
807.8048	0.0773
807.9746	0.0375
808.1443	-0.0108
808.314	0.0339
808.4837	0.0849
808.6533	0.0566
808.8229	0.0544
808.9926	0.0081
809.1622	0.029
809.3317	-0.0771
809.5013	-0.0336
809.6708	0.0049
809.8403	0.1014
810.0098	0.0125
810.1793	-0.0085
810.3488	0.0057
810.5182	0.0843
810.6876	-0.0614
810.857	0.1643
811.0264	-0.0294
811.1958	0.1275
811.3651	0.0093
811.5344	0.1702
811.7037	-0.0206
811.873	0.1075
812.0422	-0.0825
812.2115	-0.0002
812.3807	-0.0961
812.5499	0.0156
812.7191	-0.0512
812.8882	0.0029
813.0574	0.0077
813.2265	0.0835
813.3956	0.0821
813.5646	0.0183
813.7337	0.0276
813.9027	0.0429
814.0718	0.1264
814.2407	-0.0033
814.4097	0.0637
814.5787	0.0819
814.7476	-0.0242
814.9165	0.0395
815.0854	-0.0312
815.2543	0.0546
815.4232	0.0302
815.592	0.1077
815.7608	-0.0277
815.9296	-0.0576
816.0984	0.125
816.2671	0.0123
816.4359	0.0771
816.6046	0.0216
816.7733	0.0909
816.942	-0.06
817.1106	0.0638
817.2793	-0.0791
817.4479	0.0392
817.6165	-0.0238
817.785	0.0499
817.9536	-0.0615
818.1221	-0.0043
818.2906	-0.0167
818.4591	-0.0302
818.6276	0.0072
818.7961	-0.0865
818.9645	0.0153
819.1329	0.1849
819.3013	-0.1923
819.4697	-0.1471
819.638	-0.0783
819.8064	-0.0068
819.9747	-0.0379
820.143	-0.0272
820.3113	-0.0775
820.4795	0.0308
820.6477	0.1495
820.816	0.0326
820.9842	0.0158
821.1523	0.0021
821.3205	0.0468
821.4886	-0.0541
821.6567	-0.048
821.8248	0.2947
821.9929	-0.1696
822.1609	0.031
822.329	0.0634
822.497	0.0199
822.665	0.0162
822.833	-0.0363
823.0009	0.0479
823.1688	0.0489
823.3367	-0.1408
823.5046	0.1287
823.6725	-0.0163
823.8404	-0.0501
824.0082	-0.0469
824.176	-0.1583
824.3438	0.3703
824.5116	-0.0655
824.6793	0.0487
824.847	-0.2334
825.0147	-0.037
825.1824	0.1532
825.3501	0.1335
825.5177	0.0798
825.6854	-0.2169
825.853	-0.0306
826.0206	-0.1432
826.1881	0.1155
826.3557	0.0813
826.5232	0.1947
826.6907	0.034
826.8582	0.111
827.0257	-0.0035
827.1931	0.1306
827.3605	0.0035
827.528	0.1612
827.6953	-0.2189
827.8627	0.0931
828.03	0.039
828.1974	0.0031
828.3647	0.0895
828.532	-0.0098
828.6992	0.0171
828.8665	-0.1913
829.0337	0.0867
829.2009	0.0036
829.3681	0.1033
829.5352	-0.3618
829.7024	0.149
829.8695	-0.0401
830.0366	0.1172
830.2037	-0.0082
830.3707	0.0628
830.5378	-0.1368
830.7048	-0.0728
830.8718	0.1067
831.0388	-0.0263
831.2057	-0.0198
831.3727	-0.1886
831.5396	0.2562
831.7065	-0.7186
831.8734	0.1829
832.0402	0.2628
832.2071	-0.5004
832.3739	-0.1382
832.5407	-1.9473
832.7075	-0.5807
832.8742	-0.0163
833.041	0.5552
833.2077	-0.0609
833.3744	0.1604
833.541	0.0043
833.7077	-0.0306
833.8743	0.0211
834.0409	0.158
834.2075	0.2112
834.3741	-0.2386
834.5407	-0.113
834.7072	0.1569
834.8737	0.2837
835.0402	1.3084
835.2067	-0.0505
835.3731	-0.0366
835.5395	0.0505
835.706	-0.1678
835.8723	-0.0235
836.0387	0.2782
836.2051	0.1417
836.3714	-0.0073
836.5377	-0.1958
836.704	0.3022
836.8703	-0.2426
837.0365	-0.6207
837.2027	-0.0163
837.3689	0.1354
837.5351	0.0668
837.7013	-0.114
837.8674	-0
838.0335	-0.0056
838.1997	0.2813
838.3657	0.8343
838.5318	-0.1713
838.6978	-0.0286
838.8639	0.3313
839.0299	0.0424
839.1958	0.2001
839.3618	0.318
839.5277	0.2489
839.6937	-0.1344
839.8596	-0.0416
840.0254	0.3384
840.1913	-0.2078
840.3571	0.3456
840.523	-0
840.6888	0.1797
840.8545	-0
841.0203	0.1146
841.186	0.7397
841.3517	-0.2987
841.5174	0.156
841.6831	0.3228
841.8488	0.0164
842.0144	0.0732
842.18	0.1981
842.3456	0.5355
842.5112	-0
842.6767	0.2064
842.8422	0.1387
843.0077	-0.0397
843.1732	-0.3647
843.3387	0.0407
843.5042	-0
843.6696	0.1203
843.835	0.0666
844.0004	-0.1608
844.1657	-0
844.3311	-0.3833
844.4964	-0
844.6617	0.3492
844.827	-0
844.9923	0.1349
845.1575	0.7049
845.3227	-0.5332
845.4879	0.1435
845.6531	0.2201
845.8183	0.0179
845.9834	0.0444
846.1485	0.4802
846.3136	-0.3476
846.4787	-0
846.6438	-0.3423
846.8088	-0
846.9738	0.8373
847.1388	0.2692
847.3038	0.1205
847.4687	0.0087
847.6337	-0.2464
847.7986	-0.4103
847.9635	-0.2409
848.1284	-0
848.2932	0.3356
848.458	-0
848.6228	-0
848.7876	0.3864
848.9524	0.9112
849.1172	-2.017
849.2819	-0
849.4466	1.1858
849.6113	0.1306
849.7759	-0.2135
849.9406	-0.278
850.1052	0.3757
850.2698	-0
850.4344	0.1265
850.599	-0.0146
850.7635	0.6371
850.928	0.4414
851.0925	0.4171
851.257	-0.2247
851.4215	0.5476
851.5859	0.2824
851.7503	-0.0506
851.9147	-0
852.0791	-0.0569
852.2434	0.0856
852.4078	-0
852.5721	1.0084
852.7364	0.177
852.9007	0.0263
853.0649	-0
853.2291	0.3745
853.3934	-0
853.5575	-0.0551
853.7217	0.7541
853.8859	-0.5276
854.05	-0
854.2141	-0.0078
854.3782	-0.034
854.5423	1.0233
854.7063	0.2423
854.8703	-0.141
855.0343	0.2173
855.1983	-0.1355
855.3623	0.5175
855.5262	0.1242
855.6901	0.0939
855.854	0.0629
856.0179	-0.06
856.1818	-0
856.3456	0.1563
856.5094	-0.2882
856.6732	-0.7145
856.837	-0.7542
857.0008	-0.0944
857.1645	-0.3483
857.3282	-0.3502
857.4919	0.1927
857.6556	-0.0907
857.8192	-0.0621
857.9828	-0.1966
858.1465	0.3043
858.31	-0
858.4736	-0.77
858.6372	0.5158
858.8007	0.1468
858.9642	0.1912
859.1277	2.4087
859.2911	-0.4475
859.4546	-0
859.618	0.06
859.7814	-0
859.9448	-0
860.1081	-0
860.2715	-0
860.4348	-0
860.5981	0.2352
860.7614	-0.3621
860.9246	-0.2978
861.0879	1.3646
861.2511	-0
861.4143	0.0969
861.5774	-0.11
861.7406	0.1391
861.9037	-0
862.0668	-0.1627
862.2299	0.8918
862.393	-0.1138
862.556	-0
862.7191	-0.1995
862.8821	0.64
863.0451	-0.2618
863.208	-0
863.371	-0.8967
863.5339	0.424
863.6968	0.6231
863.8597	-0.3473
864.0225	-0
864.1854	-0
864.3482	-0
864.511	0.0478
864.6737	-0
864.8365	-0.2621
864.9992	-0
865.1619	-0.2333
865.3246	-0
865.4873	-0.8249
865.65	-0
865.8126	0.5751
865.9752	0.1957
866.1378	-0.0325
866.3004	-0.0162
866.4629	-2.0645
866.6254	-0.4228
866.7879	0.1779
866.9504	-0
867.1129	-0.2935
867.2753	-0.0117
867.4377	-0.1423
867.6001	-0.8554
867.7625	0.0332
867.9249	0.9278
868.0872	0.1007
868.2495	-0
868.4118	-0
868.5741	-0
868.7363	-0
868.8986	-0.3381
869.0608	-0
869.223	-0.3393
869.3851	-0
869.5473	0.2317
869.7094	0.8012
869.8715	-0
870.0336	0.0769
870.1957	-0
870.3577	0.0759
870.5197	-0.1745
870.6817	-0.8863
870.8437	-0.2078
871.0057	0.0104
871.1676	0.1434
871.3295	-0
871.4914	-0
871.6533	-0.6074
871.8151	-0
871.977	-0.5289
872.1388	-0.1002
872.3006	-0.2743
872.4623	-0.6822
872.6241	0.2234
872.7858	-0.2522
872.9475	-0
873.1092	0.193
873.2709	0.1906
873.4325	-1.6262
873.5941	0.3658
873.7557	-0
873.9173	-0.0562
874.0789	-0.1443
874.2404	-0
874.4019	0.1125
874.5634	1.0616
874.7249	-0.1274
874.8863	-0.241
875.0478	-0
875.2092	-0
875.3706	0.4637
875.5319	0.2598
875.6933	-0
875.8546	-0
876.0159	0.459
876.1772	-0
876.3385	-0
876.4997	0.4325
876.6609	-0.0368
876.8221	0.1968
876.9833	-0
877.1445	0.4914
877.3056	-0.9972
877.4667	-0.8869
877.6278	-0
877.7889	-0
877.9499	-0
878.111	-0.3633
878.272	-0
878.433	-0.1141
878.5939	0.9647
878.7549	-0
878.9158	-0
879.0767	0.0206
879.2376	-0
879.3984	0.6321
879.5593	0.4808
879.7201	-0
879.8809	-0
880.0417	-0.2874
880.2024	0.0084
880.3632	-0.1833
880.5239	-0.1407
880.6846	-0.0944
880.8452	0.042
881.0059	-0
881.1665	-0.2369
881.3271	0.8039
881.4877	0.0969
881.6483	-0
881.8088	-0
881.9693	-0
882.1298	-0
882.2903	-0
