Data from D4ACN5uM420nmA_Absorbance_14-37-08-441.txt Node
Date: Fri Feb 21 14:37:08 GMT 2025
User: LASERRRRR
Spectrometer: FLMT03099
Trigger mode: 0
Integration Time (sec): 1.500000E-2
Scans to average: 1
Electric dark correction enabled: true
Nonlinearity correction enabled: false
Boxcar width: 0
XAxis mode: Wavelengths
Number of Pixels in Spectrum: 3648
>>>>>Begin Spectral Data<<<<<
179.3399	-0.7037
179.5586	-0.7037
179.7771	-0.7037
179.9957	-0.3092
180.2143	-0
180.4329	-0.1263
180.6514	-0
180.8699	0.2288
181.0885	-0
181.307	0.9597
181.5255	0.6496
181.744	-0
181.9625	0.2863
182.181	0.2345
182.3994	0.223
182.6179	-0
182.8363	0.3641
183.0547	-0
183.2732	0.0466
183.4916	0.3924
183.71	0.3901
183.9284	0.0346
184.1467	0.0131
184.3651	-0.0772
184.5835	0.1432
184.8018	0.1369
185.0201	0.0211
185.2385	0.2657
185.4568	0.1604
185.6751	0.3033
185.8934	0.1159
186.1117	-0.0371
186.3299	0.2475
186.5482	0.0921
186.7664	0.2723
186.9847	-0.087
187.2029	0.1116
187.4211	-0.0063
187.6393	0.1516
187.8575	0.1617
188.0757	0.3193
188.2939	0.0956
188.512	0.1837
188.7302	0.1009
188.9483	0.2919
189.1665	0.7858
189.3846	0.1812
189.6027	0.2478
189.8208	0.1651
190.0389	0.164
190.257	0.0376
190.475	-0.0179
190.6931	-0.0128
190.9111	0.1441
191.1292	0.1507
191.3472	0.0612
191.5652	0.1155
191.7832	0.2656
192.0012	0.1149
192.2192	0.0455
192.4371	0.104
192.6551	0.0933
192.873	0.1589
193.091	0.1282
193.3089	0.2052
193.5268	0.1551
193.7447	0.1096
193.9626	0.1784
194.1805	0.1666
194.3984	0.1868
194.6162	0.1948
194.8341	0.293
195.0519	0.2645
195.2697	0.2742
195.4875	0.2104
195.7054	0.2085
195.9231	0.116
196.1409	0.3174
196.3587	0.2709
196.5765	0.3308
196.7942	0.2762
197.012	0.358
197.2297	0.2778
197.4474	0.3089
197.6651	0.3121
197.8828	0.2941
198.1005	0.4012
198.3182	0.3965
198.5358	0.3272
198.7535	0.357
198.9711	0.4128
199.1888	0.337
199.4064	0.3813
199.624	0.3536
199.8416	0.3019
200.0592	0.3701
200.2767	0.3564
200.4943	0.4187
200.7119	0.3932
200.9294	0.3859
201.1469	0.413
201.3645	0.4068
201.582	0.3652
201.7995	0.4026
202.017	0.4039
202.2344	0.436
202.4519	0.3631
202.6694	0.3753
202.8868	0.3795
203.1042	0.3945
203.3217	0.3728
203.5391	0.3957
203.7565	0.3581
203.9739	0.3838
204.1913	0.3412
204.4086	0.3486
204.626	0.336
204.8433	0.3618
205.0607	0.3708
205.278	0.3234
205.4953	0.3128
205.7126	0.3292
205.9299	0.3022
206.1472	0.3411
206.3644	0.3511
206.5817	0.2831
206.7989	0.3138
207.0162	0.3105
207.2334	0.3187
207.4506	0.309
207.6678	0.2746
207.885	0.3157
208.1022	0.3087
208.3194	0.2909
208.5365	0.3088
208.7537	0.2878
208.9708	0.302
209.1879	0.2857
209.405	0.2796
209.6222	0.2661
209.8392	0.2873
210.0563	0.2704
210.2734	0.2795
210.4905	0.2552
210.7075	0.2867
210.9245	0.2577
211.1416	0.2672
211.3586	0.2583
211.5756	0.2438
211.7926	0.251
212.0096	0.2594
212.2265	0.2606
212.4435	0.2457
212.6604	0.2442
212.8774	0.2372
213.0943	0.2573
213.3112	0.239
213.5281	0.2532
213.745	0.24
213.9619	0.2223
214.1788	0.2462
214.3956	0.2308
214.6125	0.2423
214.8293	0.2403
215.0461	0.2454
215.2629	0.2603
215.4798	0.2417
215.6965	0.2362
215.9133	0.2368
216.1301	0.2324
216.3469	0.2441
216.5636	0.2284
216.7803	0.233
216.9971	0.2539
217.2138	0.253
217.4305	0.2457
217.6472	0.2201
217.8639	0.2283
218.0805	0.2383
218.2972	0.2389
218.5138	0.2429
218.7305	0.2468
218.9471	0.2361
219.1637	0.2599
219.3803	0.2579
219.5969	0.236
219.8135	0.2706
220.0301	0.2595
220.2466	0.235
220.4632	0.2532
220.6797	0.2499
220.8962	0.265
221.1127	0.2491
221.3292	0.2597
221.5457	0.2749
221.7622	0.2653
221.9787	0.2779
222.1951	0.2731
222.4116	0.2639
222.628	0.2788
222.8444	0.2705
223.0608	0.2726
223.2772	0.2712
223.4936	0.2886
223.71	0.2888
223.9264	0.2836
224.1427	0.2875
224.3591	0.291
224.5754	0.2855
224.7917	0.2843
225.008	0.2929
225.2243	0.308
225.4406	0.2921
225.6569	0.3086
225.8732	0.2993
226.0894	0.3053
226.3057	0.3119
226.5219	0.3129
226.7381	0.3231
226.9543	0.3108
227.1705	0.3143
227.3867	0.3123
227.6029	0.3231
227.8191	0.3254
228.0352	0.3341
228.2513	0.3422
228.4675	0.3474
228.6836	0.3469
228.8997	0.3475
229.1158	0.3454
229.3319	0.3395
229.548	0.3508
229.764	0.3598
229.9801	0.3726
230.1961	0.3718
230.4121	0.3614
230.6282	0.3785
230.8442	0.3836
231.0602	0.3916
231.2761	0.3796
231.4921	0.4038
231.7081	0.3883
231.924	0.411
232.14	0.3991
232.3559	0.4097
232.5718	0.4115
232.7877	0.4108
233.0036	0.416
233.2195	0.4188
233.4353	0.4206
233.6512	0.4223
233.867	0.4279
234.0829	0.4223
234.2987	0.4245
234.5145	0.434
234.7303	0.4312
234.9461	0.444
235.1619	0.436
235.3776	0.437
235.5934	0.4413
235.8091	0.4486
236.0249	0.4451
236.2406	0.4401
236.4563	0.4487
236.672	0.4464
236.8877	0.4585
237.1034	0.4491
237.319	0.4544
237.5347	0.4508
237.7503	0.451
237.966	0.4657
238.1816	0.4682
238.3972	0.4594
238.6128	0.4714
238.8284	0.4612
239.0439	0.4715
239.2595	0.4621
239.475	0.4701
239.6906	0.4638
239.9061	0.4538
240.1216	0.4626
240.3371	0.4554
240.5526	0.4613
240.7681	0.4649
240.9836	0.4547
241.199	0.4585
241.4145	0.4576
241.6299	0.4517
241.8453	0.4478
242.0607	0.4459
242.2761	0.44
242.4915	0.4383
242.7069	0.4324
242.9223	0.421
243.1376	0.4142
243.353	0.4077
243.5683	0.4004
243.7836	0.3968
243.9989	0.4002
244.2142	0.3891
244.4295	0.376
244.6448	0.3715
244.86	0.3639
245.0753	0.3611
245.2905	0.3514
245.5057	0.3383
245.721	0.3516
245.9362	0.3382
246.1514	0.3275
246.3665	0.3252
246.5817	0.314
246.7969	0.3088
247.012	0.3024
247.2271	0.3057
247.4423	0.2968
247.6574	0.2888
247.8725	0.2794
248.0876	0.2818
248.3026	0.2754
248.5177	0.2657
248.7328	0.2642
248.9478	0.2556
249.1628	0.2539
249.3779	0.2499
249.5929	0.2434
249.8079	0.2463
250.0228	0.2379
250.2378	0.2339
250.4528	0.2328
250.6677	0.2225
250.8827	0.2216
251.0976	0.2205
251.3125	0.2251
251.5274	0.2171
251.7423	0.2122
251.9572	0.213
252.172	0.2117
252.3869	0.209
252.6017	0.2108
252.8166	0.2078
253.0314	0.2095
253.2462	0.1987
253.461	0.1972
253.6758	0.199
253.8906	0.197
254.1053	0.1976
254.3201	0.19
254.5348	0.1864
254.7496	0.1882
254.9643	0.19
255.179	0.1885
255.3937	0.1896
255.6083	0.1951
255.823	0.1899
256.0377	0.1841
256.2523	0.1911
256.467	0.1906
256.6816	0.1892
256.8962	0.1889
257.1108	0.1849
257.3254	0.1872
257.54	0.1778
257.7545	0.19
257.9691	0.1766
258.1836	0.1802
258.3981	0.1868
258.6127	0.1781
258.8272	0.19
259.0417	0.1721
259.2561	0.1792
259.4706	0.1816
259.6851	0.1818
259.8995	0.1849
260.114	0.1878
260.3284	0.1813
260.5428	0.1825
260.7572	0.1795
260.9716	0.1892
261.186	0.1767
261.4003	0.1839
261.6147	0.1814
261.829	0.1793
262.0433	0.186
262.2577	0.1821
262.472	0.1805
262.6863	0.1857
262.9005	0.1784
263.1148	0.1808
263.3291	0.1852
263.5433	0.1902
263.7576	0.1866
263.9718	0.1864
264.186	0.1932
264.4002	0.1853
264.6144	0.1934
264.8286	0.1882
265.0427	0.1945
265.2569	0.1969
265.471	0.1914
265.6851	0.1977
265.8993	0.1879
266.1134	0.1923
266.3275	0.1892
266.5415	0.1956
266.7556	0.1939
266.9697	0.1919
267.1837	0.1918
267.3978	0.1938
267.6118	0.1883
267.8258	0.1958
268.0398	0.1912
268.2538	0.1903
268.4677	0.186
268.6817	0.1893
268.8957	0.187
269.1096	0.1845
269.3235	0.187
269.5374	0.1898
269.7514	0.1896
269.9652	0.1878
270.1791	0.1857
270.393	0.1883
270.6068	0.1916
270.8207	0.1817
271.0345	0.1836
271.2483	0.1778
271.4622	0.1886
271.676	0.1879
271.8897	0.1849
272.1035	0.1898
272.3173	0.1845
272.531	0.184
272.7448	0.1858
272.9585	0.1797
273.1722	0.183
273.3859	0.191
273.5996	0.1858
273.8133	0.1898
274.0269	0.1904
274.2406	0.1861
274.4542	0.1915
274.6679	0.1916
274.8815	0.1966
275.0951	0.1937
275.3087	0.1963
275.5223	0.1934
275.7358	0.1962
275.9494	0.1956
276.1629	0.2036
276.3765	0.1982
276.59	0.197
276.8035	0.1955
277.017	0.2021
277.2305	0.2005
277.444	0.1961
277.6574	0.2068
277.8709	0.2019
278.0843	0.2006
278.2978	0.2022
278.5112	0.1976
278.7246	0.1989
278.938	0.2015
279.1513	0.2041
279.3647	0.203
279.5781	0.1966
279.7914	0.1987
280.0047	0.2017
280.2181	0.1991
280.4314	0.1949
280.6447	0.2028
280.8579	0.194
281.0712	0.1944
281.2845	0.1919
281.4977	0.1962
281.711	0.1914
281.9242	0.192
282.1374	0.1905
282.3506	0.2005
282.5638	0.1917
282.7769	0.1886
282.9901	0.1889
283.2033	0.1928
283.4164	0.1876
283.6295	0.1901
283.8426	0.1913
284.0557	0.1921
284.2688	0.1935
284.4819	0.1872
284.695	0.1957
284.908	0.1908
285.1211	0.19
285.3341	0.1875
285.5471	0.1921
285.7601	0.1875
285.9731	0.1941
286.1861	0.1918
286.3991	0.1978
286.612	0.1926
286.825	0.1921
287.0379	0.192
287.2508	0.1908
287.4637	0.1888
287.6766	0.1943
287.8895	0.1896
288.1024	0.1928
288.3152	0.1886
288.5281	0.1879
288.7409	0.1888
288.9538	0.1959
289.1666	0.1938
289.3794	0.1929
289.5922	0.186
289.8049	0.1879
290.0177	0.1876
290.2304	0.19
290.4432	0.1938
290.6559	0.189
290.8686	0.1934
291.0813	0.1923
291.294	0.1907
291.5067	0.19
291.7194	0.1901
291.932	0.1877
292.1447	0.1871
292.3573	0.1973
292.5699	0.1891
292.7825	0.1949
292.9951	0.1914
293.2077	0.1851
293.4203	0.1888
293.6328	0.1909
293.8454	0.1946
294.0579	0.1832
294.2704	0.2012
294.4829	0.1923
294.6954	0.1927
294.9079	0.1841
295.1204	0.1885
295.3328	0.1964
295.5453	0.1946
295.7577	0.1914
295.9701	0.1961
296.1825	0.1912
296.3949	0.186
296.6073	0.1905
296.8197	0.1937
297.0321	0.1918
297.2444	0.1875
297.4567	0.1906
297.6691	0.1932
297.8814	0.191
298.0937	0.1939
298.306	0.1861
298.5182	0.1961
298.7305	0.1901
298.9428	0.1916
299.155	0.185
299.3672	0.1895
299.5794	0.1933
299.7916	0.1922
300.0038	0.1914
300.216	0.1887
300.4282	0.1888
300.6403	0.1939
300.8525	0.1908
301.0646	0.1954
301.2767	0.1872
301.4888	0.1893
301.7009	0.1885
301.913	0.1935
302.125	0.1903
302.3371	0.1898
302.5491	0.1971
302.7612	0.2007
302.9732	0.1977
303.1852	0.1885
303.3972	0.1889
303.6092	0.19
303.8211	0.1901
304.0331	0.186
304.245	0.1868
304.457	0.1912
304.6689	0.1925
304.8808	0.1869
305.0927	0.19
305.3046	0.193
305.5164	0.1843
305.7283	0.186
305.9401	0.1774
306.152	0.1858
306.3638	0.1795
306.5756	0.1841
306.7874	0.1792
306.9992	0.183
307.2109	0.1754
307.4227	0.1757
307.6344	0.173
307.8462	0.174
308.0579	0.1807
308.2696	0.1705
308.4813	0.1702
308.693	0.1683
308.9046	0.1728
309.1163	0.1659
309.328	0.1672
309.5396	0.1613
309.7512	0.1597
309.9628	0.1615
310.1744	0.1547
310.386	0.1544
310.5976	0.1547
310.8091	0.1567
311.0207	0.1558
311.2322	0.1523
311.4437	0.158
311.6552	0.1541
311.8667	0.1507
312.0782	0.1526
312.2897	0.1543
312.5012	0.1446
312.7126	0.146
312.924	0.1488
313.1355	0.1473
313.3469	0.1452
313.5583	0.1425
313.7696	0.1452
313.981	0.1484
314.1924	0.1435
314.4037	0.1427
314.6151	0.1386
314.8264	0.1435
315.0377	0.1411
315.249	0.1467
315.4603	0.1428
315.6716	0.1392
315.8828	0.1397
316.0941	0.144
316.3053	0.1356
316.5165	0.1458
316.7277	0.1361
316.9389	0.1385
317.1501	0.14
317.3613	0.1387
317.5724	0.139
317.7836	0.1353
317.9947	0.1341
318.2058	0.133
318.417	0.1349
318.6281	0.1355
318.8391	0.1378
319.0502	0.1296
319.2613	0.1327
319.4723	0.1364
319.6834	0.1405
319.8944	0.1345
320.1054	0.1321
320.3164	0.1307
320.5274	0.1397
320.7383	0.1403
320.9493	0.1358
321.1602	0.1382
321.3712	0.1393
321.5821	0.128
321.793	0.1415
322.0039	0.1356
322.2148	0.1366
322.4257	0.1367
322.6365	0.1338
322.8474	0.1381
323.0582	0.1374
323.269	0.1406
323.4798	0.1325
323.6906	0.1351
323.9014	0.1329
324.1122	0.1333
324.3229	0.1373
324.5337	0.1437
324.7444	0.1403
324.9551	0.1409
325.1658	0.1392
325.3765	0.1367
325.5872	0.1408
325.7979	0.1399
326.0085	0.1374
326.2192	0.1361
326.4298	0.1474
326.6404	0.1406
326.851	0.145
327.0616	0.1437
327.2722	0.1469
327.4828	0.1406
327.6933	0.1524
327.9039	0.1432
328.1144	0.1513
328.3249	0.1492
328.5354	0.1486
328.7459	0.1493
328.9564	0.1491
329.1669	0.1511
329.3773	0.1462
329.5878	0.1493
329.7982	0.1573
330.0086	0.1531
330.219	0.143
330.4294	0.1495
330.6398	0.148
330.8502	0.1506
331.0605	0.1531
331.2708	0.1523
331.4812	0.1519
331.6915	0.1551
331.9018	0.152
332.1121	0.1557
332.3224	0.1503
332.5326	0.1482
332.7429	0.1478
332.9531	0.1535
333.1633	0.1534
333.3735	0.1469
333.5837	0.1535
333.7939	0.1526
334.0041	0.1627
334.2143	0.1571
334.4244	0.1559
334.6346	0.1487
334.8447	0.151
335.0548	0.1564
335.2649	0.149
335.475	0.155
335.685	0.1568
335.8951	0.1481
336.1051	0.1564
336.3152	0.154
336.5252	0.1508
336.7352	0.146
336.9452	0.1491
337.1552	0.1524
337.3652	0.1445
337.5751	0.1497
337.7851	0.1526
337.995	0.1512
338.2049	0.1518
338.4148	0.1553
338.6247	0.1471
338.8346	0.1612
339.0445	0.1553
339.2543	0.1513
339.4642	0.1508
339.674	0.1496
339.8838	0.1543
340.0936	0.1492
340.3034	0.152
340.5132	0.1531
340.7229	0.1564
340.9327	0.1576
341.1424	0.1524
341.3522	0.1517
341.5619	0.1595
341.7716	0.1593
341.9813	0.1609
342.1909	0.1636
342.4006	0.158
342.6102	0.1604
342.8199	0.1608
343.0295	0.1565
343.2391	0.1624
343.4487	0.1683
343.6583	0.1721
343.8679	0.1579
344.0774	0.1643
344.287	0.1662
344.4965	0.1636
344.706	0.1747
344.9155	0.1642
345.125	0.1685
345.3345	0.1763
345.544	0.171
345.7534	0.1763
345.9629	0.1708
346.1723	0.1737
346.3817	0.18
346.5911	0.1773
346.8005	0.1806
347.0099	0.1776
347.2193	0.1845
347.4286	0.1891
347.638	0.1799
347.8473	0.1861
348.0566	0.1798
348.2659	0.1815
348.4752	0.1839
348.6845	0.1806
348.8937	0.1805
349.103	0.1845
349.3122	0.1795
349.5214	0.184
349.7306	0.1916
349.9398	0.1882
350.149	0.1821
350.3582	0.1905
350.5674	0.1897
350.7765	0.1881
350.9856	0.1829
351.1948	0.1862
351.4039	0.1839
351.613	0.189
351.822	0.1938
352.0311	0.1898
352.2402	0.1975
352.4492	0.1932
352.6582	0.1908
352.8672	0.1877
353.0762	0.1894
353.2852	0.1883
353.4942	0.1894
353.7032	0.1873
353.9121	0.1918
354.1211	0.1971
354.33	0.1925
354.5389	0.1885
354.7478	0.1927
354.9567	0.1964
355.1655	0.1915
355.3744	0.1843
355.5833	0.1883
355.7921	0.1892
356.0009	0.1896
356.2097	0.1834
356.4185	0.1863
356.6273	0.1902
356.8361	0.1894
357.0448	0.1921
357.2536	0.193
357.4623	0.1885
357.671	0.1918
357.8797	0.1976
358.0884	0.1887
358.2971	0.1953
358.5057	0.1968
358.7144	0.1968
358.923	0.2018
359.1316	0.2006
359.3402	0.1962
359.5488	0.197
359.7574	0.21
359.966	0.1946
360.1746	0.2029
360.3831	0.2076
360.5916	0.2046
360.8002	0.2029
361.0087	0.1999
361.2172	0.1983
361.4256	0.207
361.6341	0.2032
361.8426	0.2101
362.051	0.2111
362.2594	0.2054
362.4678	0.207
362.6762	0.2142
362.8846	0.2077
363.093	0.2098
363.3014	0.2145
363.5097	0.2121
363.718	0.2132
363.9264	0.2139
364.1347	0.2174
364.343	0.2107
364.5513	0.2193
364.7595	0.2241
364.9678	0.2158
365.176	0.2127
365.3842	0.2239
365.5925	0.2227
365.8007	0.2253
366.0089	0.2293
366.217	0.221
366.4252	0.2181
366.6333	0.2234
366.8415	0.2308
367.0496	0.2219
367.2577	0.2306
367.4658	0.2241
367.6739	0.2161
367.882	0.2318
368.09	0.2206
368.2981	0.2335
368.5061	0.2281
368.7141	0.2251
368.9221	0.2314
369.1301	0.2384
369.3381	0.2421
369.5461	0.2337
369.754	0.2352
369.962	0.2306
370.1699	0.2392
370.3778	0.2484
370.5857	0.2375
370.7936	0.2378
371.0015	0.2405
371.2093	0.2385
371.4172	0.2407
371.625	0.2346
371.8328	0.234
372.0406	0.2539
372.2484	0.245
372.4562	0.2447
372.664	0.2521
372.8717	0.2455
373.0795	0.2473
373.2872	0.2524
373.4949	0.2555
373.7026	0.2413
373.9103	0.2445
374.118	0.243
374.3256	0.2483
374.5333	0.2501
374.7409	0.2488
374.9485	0.2553
375.1561	0.2542
375.3637	0.2534
375.5713	0.2574
375.7789	0.2517
375.9864	0.2577
376.194	0.2615
376.4015	0.2515
376.609	0.2536
376.8165	0.2654
377.024	0.2525
377.2315	0.2585
377.4389	0.2553
377.6464	0.2612
377.8538	0.2631
378.0612	0.2615
378.2686	0.2585
378.476	0.2703
378.6834	0.2639
378.8908	0.2708
379.0981	0.2666
379.3055	0.2631
379.5128	0.2616
379.7201	0.2736
379.9274	0.2667
380.1347	0.2706
380.342	0.2646
380.5492	0.2676
380.7565	0.2651
380.9637	0.2685
381.1709	0.2657
381.3781	0.282
381.5853	0.2773
381.7925	0.2734
381.9997	0.268
382.2068	0.2726
382.4139	0.2706
382.6211	0.2747
382.8282	0.2804
383.0353	0.2793
383.2424	0.2707
383.4494	0.2735
383.6565	0.2774
383.8635	0.2759
384.0706	0.2841
384.2776	0.2751
384.4846	0.2825
384.6916	0.2764
384.8986	0.2784
385.1055	0.2827
385.3125	0.2862
385.5194	0.2805
385.7263	0.2742
385.9333	0.2793
386.1402	0.2824
386.347	0.2826
386.5539	0.275
386.7608	0.2703
386.9676	0.2794
387.1744	0.2676
387.3813	0.2825
387.5881	0.2786
387.7948	0.2773
388.0016	0.2869
388.2084	0.2656
388.4151	0.2834
388.6219	0.2737
388.8286	0.2778
389.0353	0.2714
389.242	0.2763
389.4487	0.274
389.6553	0.2683
389.862	0.265
390.0686	0.2738
390.2753	0.2695
390.4819	0.2711
390.6885	0.2773
390.8951	0.2684
391.1016	0.2666
391.3082	0.2699
391.5147	0.2645
391.7213	0.2642
391.9278	0.2603
392.1343	0.2697
392.3408	0.2761
392.5473	0.2605
392.7537	0.2627
392.9602	0.2587
393.1666	0.2659
393.373	0.2561
393.5794	0.2517
393.7858	0.257
393.9922	0.2419
394.1986	0.2616
394.4049	0.2553
394.6113	0.2543
394.8176	0.2562
395.0239	0.251
395.2302	0.2481
395.4365	0.253
395.6428	0.25
395.8491	0.2338
396.0553	0.2389
396.2615	0.2455
396.4678	0.2477
396.674	0.2402
396.8802	0.2481
397.0863	0.2458
397.2925	0.2422
397.4987	0.2403
397.7048	0.2448
397.9109	0.2298
398.117	0.2408
398.3231	0.2391
398.5292	0.2321
398.7353	0.2357
398.9413	0.2401
399.1474	0.2339
399.3534	0.2347
399.5594	0.2383
399.7654	0.2401
399.9714	0.2356
400.1774	0.2357
400.3833	0.2273
400.5893	0.2338
400.7952	0.2427
401.0011	0.2345
401.207	0.2362
401.4129	0.2325
401.6188	0.2256
401.8247	0.2428
402.0305	0.2337
402.2364	0.244
402.4422	0.243
402.648	0.2441
402.8538	0.224
403.0596	0.2315
403.2654	0.2381
403.4711	0.2291
403.6768	0.2293
403.8826	0.2352
404.0883	0.2434
404.294	0.2283
404.4997	0.2381
404.7054	0.2404
404.911	0.238
405.1167	0.2317
405.3223	0.2265
405.5279	0.2408
405.7335	0.2297
405.9391	0.233
406.1447	0.2397
406.3502	0.2383
406.5558	0.2346
406.7613	0.2331
406.9668	0.2366
407.1724	0.2318
407.3778	0.2367
407.5833	0.2225
407.7888	0.2425
407.9942	0.2328
408.1997	0.2313
408.4051	0.2396
408.6105	0.2259
408.8159	0.235
409.0213	0.2392
409.2267	0.2452
409.432	0.239
409.6374	0.2355
409.8427	0.2375
410.048	0.2283
410.2533	0.2356
410.4586	0.2194
410.6639	0.2274
410.8691	0.2213
411.0744	0.2381
411.2796	0.2335
411.4848	0.2321
411.69	0.226
411.8952	0.2336
412.1004	0.2326
412.3056	0.2273
412.5107	0.2243
412.7158	0.2487
412.921	0.228
413.1261	0.2307
413.3312	0.2339
413.5362	0.2402
413.7413	0.2336
413.9464	0.2211
414.1514	0.2298
414.3564	0.2176
414.5614	0.2326
414.7664	0.2226
414.9714	0.2191
415.1764	0.2278
415.3813	0.2277
415.5863	0.2269
415.7912	0.222
415.9961	0.2278
416.201	0.2396
416.4059	0.227
416.6108	0.2317
416.8156	0.2164
417.0205	0.2193
417.2253	0.2245
417.4301	0.2276
417.6349	0.2258
417.8397	0.2299
418.0445	0.2325
418.2492	0.2278
418.454	0.2172
418.6587	0.2275
418.8634	0.2297
419.0681	0.2298
419.2728	0.2262
419.4775	0.2377
419.6822	0.2144
419.8868	0.2093
420.0915	0.219
420.2961	0.2059
420.5007	0.2184
420.7053	0.2084
420.9099	0.2197
421.1144	0.2147
421.319	0.2136
421.5235	0.2056
421.728	0.2148
421.9325	0.2163
422.137	0.2055
422.3415	0.2168
422.546	0.2029
422.7504	0.2173
422.9549	0.2167
423.1593	0.2074
423.3637	0.209
423.5681	0.2104
423.7725	0.2051
423.9769	0.2145
424.1812	0.2041
424.3856	0.196
424.5899	0.1972
424.7942	0.1971
424.9985	0.2045
425.2028	0.2044
425.4071	0.2036
425.6113	0.1995
425.8156	0.1995
426.0198	0.1993
426.224	0.1942
426.4282	0.1831
426.6324	0.1986
426.8366	0.1902
427.0407	0.1971
427.2449	0.2001
427.449	0.1931
427.6531	0.1897
427.8572	0.1867
428.0613	0.1875
428.2654	0.1881
428.4694	0.1803
428.6735	0.1771
428.8775	0.1848
429.0815	0.1789
429.2855	0.1782
429.4895	0.1834
429.6935	0.176
429.8975	0.1671
430.1014	0.1811
430.3053	0.1772
430.5093	0.1711
430.7132	0.17
430.9171	0.1675
431.1209	0.1706
431.3248	0.1646
431.5286	0.1635
431.7325	0.1706
431.9363	0.1575
432.1401	0.1521
432.3439	0.1647
432.5477	0.1485
432.7514	0.1551
432.9552	0.1508
433.1589	0.154
433.3627	0.154
433.5664	0.1536
433.7701	0.1506
433.9737	0.1651
434.1774	0.152
434.3811	0.1412
434.5847	0.1468
434.7883	0.1415
434.9919	0.1381
435.1955	0.1386
435.3991	0.1399
435.6027	0.1337
435.8062	0.1465
436.0098	0.1352
436.2133	0.1228
436.4168	0.1243
436.6203	0.1259
436.8238	0.1266
437.0272	0.1271
437.2307	0.1184
437.4341	0.1227
437.6375	0.1293
437.841	0.1223
438.0443	0.1222
438.2477	0.1141
438.4511	0.1085
438.6545	0.1178
438.8578	0.1164
439.0611	0.1146
439.2644	0.1047
439.4677	0.1094
439.671	0.1056
439.8743	0.1121
440.0775	0.1033
440.2808	0.1068
440.484	0.1068
440.6872	0.1008
440.8904	0.0997
441.0936	0.0995
441.2967	0.0933
441.4999	0.09
441.703	0.0935
441.9062	0.0957
442.1093	0.1016
442.3124	0.0841
442.5155	0.0893
442.7185	0.0859
442.9216	0.0873
443.1246	0.087
443.3276	0.0808
443.5307	0.0767
443.7337	0.0837
443.9366	0.0801
444.1396	0.0714
444.3426	0.0767
444.5455	0.0827
444.7484	0.0757
444.9513	0.0706
445.1542	0.0713
445.3571	0.0674
445.56	0.0663
445.7628	0.0679
445.9657	0.0726
446.1685	0.0686
446.3713	0.0718
446.5741	0.0715
446.7769	0.0612
446.9797	0.0704
447.1824	0.0598
447.3852	0.056
447.5879	0.0648
447.7906	0.0506
447.9933	0.0537
448.196	0.056
448.3986	0.0562
448.6013	0.0561
448.8039	0.0615
449.0066	0.0684
449.2092	0.0522
449.4118	0.0496
449.6143	0.0486
449.8169	0.0456
450.0195	0.0499
450.222	0.0489
450.4245	0.0498
450.627	0.0442
450.8295	0.045
451.032	0.053
451.2345	0.0323
451.4369	0.0516
451.6394	0.0462
451.8418	0.041
452.0442	0.039
452.2466	0.0332
452.449	0.0507
452.6513	0.0353
452.8537	0.023
453.056	0.04
453.2583	0.0384
453.4607	0.0286
453.663	0.0325
453.8652	0.0287
454.0675	0.0394
454.2697	0.0262
454.472	0.0346
454.6742	0.0369
454.8764	0.0412
455.0786	0.0292
455.2808	0.0263
455.4829	0.0365
455.6851	0.0319
455.8872	0.0186
456.0893	0.0296
456.2915	0.0278
456.4935	0.035
456.6956	0.0309
456.8977	0.0254
457.0997	0.0316
457.3018	0.0188
457.5038	0.0318
457.7058	0.0344
457.9078	0.0209
458.1098	0.0326
458.3117	0.0349
458.5137	0.0097
458.7156	0.034
458.9175	0.0224
459.1194	0.0158
459.3213	0.0119
459.5232	0.0218
459.725	0.0219
459.9269	0.0215
460.1287	0.0196
460.3305	0.0304
460.5323	0.0255
460.7341	0.0288
460.9359	0.021
461.1376	0.0223
461.3394	0.0242
461.5411	0.0277
461.7428	0.0182
461.9445	0.01
462.1462	0.0203
462.3479	0.0176
462.5495	0.0202
462.7512	0.0227
462.9528	0.0131
463.1544	0.0106
463.356	0.0173
463.5576	0.0218
463.7592	0.0193
463.9607	0.0097
464.1623	0.0145
464.3638	0.0067
464.5653	0.0211
464.7668	0.0232
464.9683	0.0233
465.1697	0.0148
465.3712	0.0127
465.5726	0.0135
465.7741	0.0277
465.9755	0.0118
466.1769	0.0161
466.3782	0.0122
466.5796	0.0112
466.7809	0.0157
466.9823	0.0181
467.1836	0.0211
467.3849	0.0127
467.5862	0.0034
467.7875	0.0112
467.9887	0.0183
468.19	0.0218
468.3912	0.0157
468.5924	0.0155
468.7936	0.0086
468.9948	0.0103
469.196	0.0082
469.3972	0.0112
469.5983	0.0149
469.7994	0.0175
470.0006	0.0169
470.2017	0.0106
470.4027	0.0281
470.6038	0.0104
470.8049	0.0151
471.0059	0.0239
471.2069	0.0106
471.408	0.0194
471.6089	0.0217
471.8099	0.0084
472.0109	0.0136
472.2119	0.0143
472.4128	0.0074
472.6137	0.013
472.8146	0.0165
473.0155	0.0173
473.2164	0.0113
473.4173	0.0061
473.6181	0.0058
473.819	0.0166
474.0198	0.0121
474.2206	0.0047
474.4214	0.01
474.6222	0.001
474.8229	0.0073
475.0237	0.0139
475.2244	0.016
475.4251	0.0119
475.6258	0.0095
475.8265	0.0209
476.0272	0.0054
476.2278	0.0098
476.4285	0.0054
476.6291	0.0094
476.8297	0.0179
477.0303	0.0009
477.2309	0.0093
477.4315	0.0122
477.632	0.0092
477.8326	0.0052
478.0331	0.017
478.2336	0.0091
478.4341	0.0149
478.6346	-0.0006
478.8351	0.0094
479.0355	0.0174
479.236	0.0128
479.4364	0.0029
479.6368	0.0141
479.8372	0.005
480.0376	0.0051
480.2379	0.0179
480.4383	0.0227
480.6386	0.0108
480.8389	0.0025
481.0392	0.0056
481.2395	0.0144
481.4398	0.0112
481.6401	0.0114
481.8403	0.0021
482.0405	0.0135
482.2408	0.0066
482.441	0.0116
482.6411	0.007
482.8413	0.009
483.0415	0.0181
483.2416	0.012
483.4417	0.0122
483.6419	-0.0039
483.8419	0.0146
484.042	-0.0034
484.2421	0.0046
484.4422	0.0076
484.6422	0.0099
484.8422	0.015
485.0422	0.0076
485.2422	0.0028
485.4422	0.0056
485.6422	0.0055
485.8421	0.0103
486.042	0.0188
486.242	0.0032
486.4419	0.0096
486.6417	0.0044
486.8416	0.0128
487.0415	0.0066
487.2413	-0.0014
487.4411	0.0076
487.641	0.004
487.8408	0.0131
488.0405	0.0184
488.2403	0.0067
488.4401	0.0091
488.6398	0.0079
488.8395	0.0027
489.0392	0.0078
489.2389	0.0135
489.4386	0.007
489.6383	0.0139
489.8379	0.0062
490.0376	0.0149
490.2372	0.0081
490.4368	0.0074
490.6364	0.0033
490.836	0.0057
491.0355	0.0032
491.2351	0.0039
491.4346	0.0121
491.6341	0.0064
491.8336	0.0065
492.0331	0.0105
492.2326	0.0087
492.432	0.0117
492.6315	0.0128
492.8309	0.0079
493.0303	0.0144
493.2297	0.0154
493.4291	0.0092
493.6284	0.0163
493.8278	0.0043
494.0271	0.0009
494.2264	0.0112
494.4257	0.0085
494.625	0.0107
494.8243	0.005
495.0236	0.0095
495.2228	0.0175
495.422	0.0121
495.6213	0.0101
495.8205	0.014
496.0196	0.006
496.2188	0.0053
496.418	0.0043
496.6171	0.0031
496.8162	0.0049
497.0153	0.0123
497.2144	0.0103
497.4135	0.0106
497.6126	0.014
497.8116	0.0035
498.0107	0.0127
498.2097	0.0123
498.4087	0.006
498.6077	0.0046
498.8067	0.0118
499.0056	0.0074
499.2046	0.0147
499.4035	0.0105
499.6024	0.0018
499.8013	0.0139
500.0002	0.0073
500.199	0.0154
500.3979	0.0103
500.5967	0.0119
500.7956	0.0174
500.9944	0.0111
501.1932	0.014
501.3919	0.0179
501.5907	0.014
501.7895	0.01
501.9882	0.0081
502.1869	0.0121
502.3856	0.0144
502.5843	0.0122
502.783	0.0051
502.9816	0.0115
503.1803	0.0119
503.3789	0.0094
503.5775	0.0026
503.7761	0.0065
503.9747	0.014
504.1732	0.0035
504.3718	0.0133
504.5703	0.0083
504.7689	0.002
504.9674	0.0089
505.1658	0.0106
505.3643	0.0144
505.5628	0.0178
505.7612	0.0116
505.9597	0.0014
506.1581	0.005
506.3565	0.0112
506.5549	0.0075
506.7532	-0.0006
506.9516	0.0151
507.1499	0.0034
507.3482	0.0122
507.5465	0.0166
507.7448	0.0129
507.9431	0.0096
508.1414	0.0096
508.3396	0.0049
508.5379	0.0008
508.7361	0.006
508.9343	0.0098
509.1325	0.0171
509.3306	0.0101
509.5288	0.0122
509.7269	0.0134
509.9251	0.0068
510.1232	0.0057
510.3213	0.0109
510.5193	0.0042
510.7174	0.0122
510.9154	0.013
511.1135	0.0094
511.3115	0.0086
511.5095	0.0091
511.7075	0.0111
511.9055	0.0096
512.1034	0.0092
512.3014	0.0022
512.4993	0.0164
512.6972	0.0126
512.8951	0.0101
513.093	0.0033
513.2908	0.0212
513.4887	-0.0004
513.6865	0.0099
513.8844	0.0139
514.0822	0.0113
514.2799	0.0043
514.4777	0.008
514.6755	0.0038
514.8732	0.0094
515.0709	0.017
515.2687	-0.0028
515.4664	0.0132
515.664	0.0134
515.8617	0.0169
516.0594	0.0079
516.257	0.0079
516.4546	0.0147
516.6522	0.0172
516.8498	0.0073
517.0474	0.0095
517.2449	0.0037
517.4425	0.0076
517.64	0.0181
517.8375	0.0168
518.035	0.0054
518.2325	0.0034
518.43	0.0028
518.6274	0.0114
518.8249	0.0023
519.0223	0.0153
519.2197	0.01
519.4171	0.0089
519.6145	0.0215
519.8118	0.0011
520.0092	0.0083
520.2065	0.0139
520.4038	0.0022
520.6011	0.008
520.7984	0.0167
520.9956	0.011
521.1929	0.0179
521.3901	0.0031
521.5874	0.0188
521.7846	0.014
521.9818	0.0092
522.1789	-0.0001
522.3761	0.0179
522.5732	0.0145
522.7704	0.0106
522.9675	0.0046
523.1646	0.0036
523.3617	0.0139
523.5587	0.0068
523.7558	0.0096
523.9528	0.0175
524.1498	0.0067
524.3468	0.0112
524.5438	0.0143
524.7408	0.0029
524.9378	0.0218
525.1347	0.0141
525.3316	0.0087
525.5285	0.0079
525.7254	0.0078
525.9223	0.0191
526.1192	0.0139
526.316	0.0148
526.5129	0.0155
526.7097	0.0048
526.9065	0.0064
527.1033	0.0143
527.3	0.0075
527.4968	0.01
527.6935	-0.0046
527.8903	0.0082
528.087	0.0085
528.2837	0.0124
528.4804	0.0069
528.677	0.0054
528.8737	0.0081
529.0703	0.003
529.2669	0.0239
529.4635	0.0128
529.6601	0.0034
529.8567	0.008
530.0532	0.009
530.2498	0.0051
530.4463	0.0032
530.6428	0.0051
530.8393	0.0212
531.0358	0.0098
531.2322	-0.0004
531.4287	0.0026
531.6251	0.0014
531.8215	0.0125
532.0179	0.0107
532.2143	0.0135
532.4107	0.0128
532.607	-0.001
532.8034	0.011
532.9997	0.0109
533.196	0.0078
533.3923	0.0075
533.5886	0.0008
533.7848	0.0082
533.9811	0.01
534.1773	0.0111
534.3735	0.0054
534.5697	0.0108
534.7659	0.0083
534.9621	0.0121
535.1582	0.0141
535.3544	0.0128
535.5505	0.0144
535.7466	0.014
535.9427	0.0102
536.1387	0.0031
536.3348	0.0182
536.5308	0.0104
536.7269	0.0084
536.9229	0.006
537.1189	0.0158
537.3148	0.0004
537.5108	0.0138
537.7068	0.0109
537.9027	-0.0016
538.0986	0.0079
538.2945	0.0072
538.4904	0.0018
538.6863	-0.0011
538.8821	0.0057
539.078	0.0046
539.2738	0.0143
539.4696	0.0007
539.6654	0.0131
539.8611	0.0158
540.0569	0.0008
540.2526	0.0061
540.4484	-0.0029
540.6441	0.0105
540.8398	0.0244
541.0355	0.0085
541.2311	0.0124
541.4268	0.0168
541.6224	0.0146
541.818	0.0069
542.0136	0.0155
542.2092	0.0124
542.4048	0.0161
542.6003	0.0072
542.7959	0.0156
542.9914	0.0023
543.1869	0.0098
543.3824	0.009
543.5779	0.0112
543.7734	0.0213
543.9688	0.0186
544.1642	0.0042
544.3596	0.0131
544.555	-0.0008
544.7504	0.0217
544.9458	0.013
545.1411	0.0081
545.3365	-0.0022
545.5318	0.0075
545.7271	0.0209
545.9224	0.0087
546.1177	0.0154
546.3129	0.0114
546.5081	0.0112
546.7034	0.0037
546.8986	0.0078
547.0938	0.0143
547.289	0.0054
547.4841	0.0036
547.6793	0.0015
547.8744	0.0151
548.0695	0.0009
548.2646	0.0063
548.4597	0.0073
548.6548	0.0207
548.8498	0.0152
549.0448	0.0039
549.2399	0.0199
549.4349	0.0039
549.6298	0.0166
549.8248	0.0014
550.0198	0.0155
550.2147	0.0047
550.4096	0.0124
550.6045	-0.0007
550.7994	0.0141
550.9943	0.009
551.1892	-0.0086
551.384	0.0075
551.5788	0.0045
551.7737	0.0056
551.9685	0.0138
552.1632	0.0081
552.358	0.012
552.5528	0.0085
552.7475	0.0075
552.9422	0.0147
553.1369	0.0121
553.3316	0.0189
553.5263	0.0093
553.7209	0.0086
553.9156	0.0059
554.1102	0.0037
554.3048	0.001
554.4994	0.0068
554.694	0.0127
554.8885	0.0161
555.0831	0.0175
555.2776	0.0139
555.4721	0.007
555.6666	0.0067
555.8611	0.0199
556.0555	0.0047
556.25	0.0168
556.4444	-0.0008
556.6388	0.0064
556.8332	0.003
557.0276	0.0037
557.222	0.0088
557.4163	0.005
557.6107	0.0039
557.805	0.0038
557.9993	0.0118
558.1936	-0.0016
558.3879	0.0103
558.5821	0.0043
558.7764	0.0073
558.9706	-0.0011
559.1648	0.0038
559.359	0.0015
559.5532	0.0036
559.7473	0.0066
559.9415	0.0131
560.1356	0.0212
560.3297	0.0068
560.5238	0.0156
560.7179	0.0113
560.9119	0.0071
561.106	0.0056
561.3	0.0056
561.494	-0.0008
561.688	-0.0001
561.882	0.0074
562.076	0.0058
562.2699	0.0163
562.4639	0.0203
562.6578	0.0063
562.8517	0.0074
563.0456	0.0131
563.2395	0.0151
563.4333	0.0118
563.6272	0.005
563.821	0.0081
564.0148	0.008
564.2086	0.0135
564.4024	0.0191
564.5961	0.0023
564.7899	0.0209
564.9836	0.0057
565.1773	0.0113
565.371	0.0085
565.5647	0.0139
565.7584	0.0172
565.952	0.0125
566.1456	0.0113
566.3393	0.0141
566.5329	0.0045
566.7264	0.0074
566.92	0.0099
567.1136	0.0068
567.3071	0.0012
567.5006	0.0113
567.6941	0.009
567.8876	0.0073
568.0811	0.0211
568.2745	-0.0015
568.468	0.0071
568.6614	0.0111
568.8548	0.0083
569.0482	0.0064
569.2416	0.0136
569.4349	0.0065
569.6283	0.0083
569.8216	0.0112
570.0149	0.005
570.2082	0.0159
570.4015	0.0084
570.5947	0.0092
570.788	0.0073
570.9812	0.0047
571.1744	0.0085
571.3676	0.0094
571.5608	0.0071
571.754	0.0168
571.9471	0.0128
572.1402	0.0096
572.3333	0.0093
572.5264	0.008
572.7195	0.005
572.9126	0.0096
573.1057	0.0093
573.2987	0.0047
573.4917	0.0117
573.6847	0.008
573.8777	0.0119
574.0707	0.0106
574.2636	0.0106
574.4566	0.003
574.6495	0.0083
574.8424	0.0104
575.0353	0.011
575.2281	0.0096
575.421	0.0095
575.6138	0.0066
575.8067	0.0094
575.9995	0.0076
576.1923	0.0035
576.385	0.0052
576.5778	0.0099
576.7706	0.0084
576.9633	0.0062
577.156	-0.0006
577.3487	0.0074
577.5414	0.0072
577.734	0.0072
577.9267	0.0106
578.1193	0.0118
578.3119	0.0046
578.5045	0.0084
578.6971	0.0005
578.8897	0.0098
579.0822	0.0128
579.2747	0.0057
579.4673	0.0081
579.6598	0.0069
579.8522	0.009
580.0447	0.0102
580.2372	0.0108
580.4296	0.0131
580.622	0.0065
580.8144	0.0093
581.0068	0.0098
581.1992	0.0058
581.3915	0
581.5839	0.0076
581.7762	0.0051
581.9685	0.0083
582.1608	0.0033
582.353	0.0077
582.5453	0.0096
582.7375	0.0116
582.9298	0.0027
583.122	0.008
583.3142	0.0141
583.5063	0.009
583.6985	0.0059
583.8906	0.0076
584.0827	0.0088
584.2749	0.0039
584.4669	0.0089
584.659	0.0121
584.8511	0.0102
585.0431	0.0104
585.2352	0.0061
585.4272	0.0076
585.6192	0.0121
585.8111	0.0093
586.0031	0.0097
586.195	0.005
586.387	0.0054
586.5789	0.0155
586.7708	0.0123
586.9627	0.0101
587.1545	0.0036
587.3464	0.0105
587.5382	0.0076
587.73	0.0133
587.9218	0.008
588.1136	0.0073
588.3053	0.0084
588.4971	0.0073
588.6888	0.0013
588.8805	0.0045
589.0722	0.0175
589.2639	0.0093
589.4556	0.0095
589.6472	0.0116
589.8389	0.006
590.0305	0.0102
590.2221	0.0091
590.4137	0.0074
590.6052	0.0075
590.7968	0.0131
590.9883	0.0065
591.1798	-0.0026
591.3713	0.0076
591.5628	0.0061
591.7543	0.0056
591.9458	0.0045
592.1372	0.0109
592.3286	0.0067
592.52	0.0071
592.7114	0.0041
592.9028	0.0117
593.0941	0.0079
593.2855	0.0086
593.4768	0.0087
593.6681	0.0076
593.8594	0.01
594.0506	0.0061
594.2419	0.011
594.4331	0.0076
594.6244	0.0015
594.8156	0.0026
595.0067	0.0039
595.1979	0.0068
595.3891	0.0061
595.5802	0.0139
595.7713	0.0068
595.9624	0.0148
596.1535	0.0073
596.3446	0.0077
596.5357	0.0069
596.7267	0.0084
596.9177	0.0022
597.1087	-0.0002
597.2997	0.0127
597.4907	0.0039
597.6817	0.0094
597.8726	0.0106
598.0635	0.0053
598.2544	0.0107
598.4453	0.0107
598.6362	0.0071
598.827	0.0033
599.0179	0.0094
599.2087	0.0078
599.3995	0.012
599.5903	0.0072
599.7811	0.0182
599.9718	0.0094
600.1626	0.0027
600.3533	0.0095
600.544	0.0106
600.7347	0.0107
600.9254	0.01
601.116	0.006
601.3067	0.0032
601.4973	0.0016
601.6879	0.0065
601.8785	0.0066
602.0691	0.0078
602.2596	0.0101
602.4502	0.0095
602.6407	0.0126
602.8312	0.0088
603.0217	0.0095
603.2122	0.0051
603.4027	0.0067
603.5931	0.0083
603.7835	0.0123
603.9739	0.0058
604.1643	0.0147
604.3547	0.0105
604.5451	0.0106
604.7354	-0.001
604.9257	0.0033
605.116	0.008
605.3063	0.0066
605.4966	0.0051
605.6869	0.0127
605.8771	0.0085
606.0673	0.0112
606.2575	0.0035
606.4477	0.0157
606.6379	0.0052
606.8281	0.0058
607.0182	0.0056
607.2083	0.0118
607.3985	0.0087
607.5885	0.0119
607.7786	0.0118
607.9687	0.0101
608.1587	0.0133
608.3488	0.0061
608.5388	0.0056
608.7288	0.0017
608.9187	0.0071
609.1087	0.0123
609.2986	0.0152
609.4886	0.0064
609.6785	0.0078
609.8684	0.008
610.0582	-0.0002
610.2481	0.0008
610.4379	0.0089
610.6278	0.0073
610.8176	0.0126
611.0074	0.01
611.1971	0.0078
611.3869	0.01
611.5766	0.0017
611.7664	0.0119
611.9561	0.0069
612.1458	0.0068
612.3354	0.0077
612.5251	-0.0004
612.7147	0.0162
612.9044	0.0081
613.094	0.0071
613.2836	0.0088
613.4731	0.0102
613.6627	0.0062
613.8522	0.0099
614.0417	0.0063
614.2313	0.0096
614.4207	0.0162
614.6102	0.0098
614.7997	0.0115
614.9891	0.0083
615.1785	0.0041
615.3679	0.0059
615.5573	0.0083
615.7467	0.0048
615.9361	0.0078
616.1254	0.0119
616.3147	0.0057
616.504	0.0096
616.6933	0.0088
616.8826	-0.0004
617.0718	0.0112
617.2611	0.006
617.4503	0.0072
617.6395	0.0124
617.8287	0.0052
618.0179	0.0068
618.207	0.0111
618.3961	0.0056
618.5853	-0.0018
618.7744	0.002
618.9634	0.0118
619.1525	0.0098
619.3416	0.0041
619.5306	0.012
619.7196	0.0141
619.9086	0.0007
620.0976	0.0001
620.2866	0.0132
620.4755	0.003
620.6645	0.0118
620.8534	0.0165
621.0423	0.0078
621.2312	0.001
621.42	-0.0009
621.6089	0.0027
621.7977	0.0142
621.9865	0.0057
622.1753	-0.0036
622.3641	0.0052
622.5529	0.0041
622.7416	-0.0021
622.9303	0.0023
623.1191	0.0076
623.3078	0.0134
623.4964	0.0099
623.6851	0.005
623.8737	0
624.0624	-0.0025
624.251	0.0112
624.4396	0.0128
624.6282	0.0212
624.8167	0.0074
625.0053	0.0144
625.1938	0.0081
625.3823	0.0041
625.5708	0.0085
625.7593	0.008
625.9477	0.008
626.1362	-0.0019
626.3246	0.0087
626.513	0.0208
626.7014	0.013
626.8898	0.0143
627.0781	0.0059
627.2665	0.0139
627.4548	0.0028
627.6431	0.0122
627.8314	0.0073
628.0197	0.0125
628.2079	0.0007
628.3962	0.0056
628.5844	0.0196
628.7726	0.0056
628.9608	0.0187
629.1489	0.0103
629.3371	-0.0077
629.5252	0.0004
629.7134	-0.0084
629.9015	0.0058
630.0895	-0.0041
630.2776	0.0128
630.4657	0.0149
630.6537	0.0169
630.8417	-0.0101
631.0297	0.005
631.2177	0.0086
631.4057	0.0108
631.5936	0.0018
631.7815	0.017
631.9695	0.0336
632.1574	0.0036
632.3452	0.0219
632.5331	0.0156
632.7209	0.0255
632.9088	0.0007
633.0966	0.0371
633.2844	0.0056
633.4722	0.004
633.6599	0.0242
633.8477	0.0067
634.0354	0.0176
634.2231	-0.0024
634.4108	0.0048
634.5985	0.0081
634.7861	-0.0041
634.9738	-0.0074
635.1614	0.0121
635.349	0.0023
635.5366	0.0058
635.7242	0.0129
635.9117	0.0147
636.0993	0.0179
636.2868	-0.0057
636.4743	0.0121
636.6618	-0.0072
636.8492	0.0106
637.0367	-0.0011
637.2241	0.0032
637.4115	0.0241
637.5989	-0.0001
637.7863	0.0187
637.9737	0.0009
638.161	0.002
638.3484	0.0019
638.5357	-0.0019
638.723	0.0217
638.9103	0.0099
639.0975	0.0117
639.2848	0.0216
639.472	0.0151
639.6592	-0.0099
639.8464	0.0069
640.0336	0.0147
640.2208	0.0105
640.4079	-0.0096
640.595	-0.0018
640.7821	0.017
640.9692	-0.0174
641.1563	0.0117
641.3434	0.0087
641.5304	0.0174
641.7174	0.0234
641.9044	0.0101
642.0914	0.0235
642.2784	-0.0032
642.4653	0.0021
642.6523	0.0183
642.8392	-0.0094
643.0261	0.0109
643.213	0.0187
643.3999	0.0222
643.5867	0.0106
643.7735	-0.0011
643.9604	0.0227
644.1472	0.0116
644.3339	0.007
644.5207	0.0083
644.7075	0.0049
644.8942	0.0127
645.0809	0.0079
645.2676	0.0057
645.4543	0.0193
645.6409	0.0175
645.8276	-0.004
646.0142	0.0041
646.2008	0.0012
646.3874	-0.0065
646.574	0.0006
646.7605	0.0075
646.9471	-0.0043
647.1336	-0.0042
647.3201	0.0095
647.5066	0.0043
647.6931	0.0011
647.8795	-0.0086
648.0659	0.0109
648.2524	0.0165
648.4388	0.0004
648.6252	0.0098
648.8115	-0.0005
648.9979	0.0075
649.1842	0.0314
649.3705	0.0131
649.5568	-0.0221
649.7431	0.005
649.9294	0.0067
650.1156	-0.0148
650.3018	0.0064
650.488	-0.0009
650.6742	0.032
650.8604	0.0247
651.0466	-0.0012
651.2327	0.0076
651.4188	-0.0029
651.6049	0.0256
651.791	0.0044
651.9771	0.0071
652.1632	0.005
652.3492	-0.0023
652.5352	0.012
652.7212	0.0089
652.9072	0.0166
653.0932	0.0054
653.2791	0.0193
653.465	0.0009
653.651	0.0132
653.8369	0.0036
654.0227	0.0069
654.2086	0.0031
654.3944	0.0143
654.5803	-0.0067
654.7661	0.0058
654.9519	0.0024
655.1377	-0
655.3234	-0
655.5092	-0
655.6949	-0
655.8806	-0
656.0663	-0
656.2519	-0
656.4376	-0
656.6232	-0
656.8088	-0
656.9945	-0
657.18	-0
657.3656	-0
657.5511	-0
657.7367	-0
657.9222	-0
658.1077	-0
658.2932	-0
658.4786	-0
658.6641	-0
658.8495	-0
659.0349	-0
659.2203	-0
659.4057	0.0183
659.591	0.2911
659.7764	0.0371
659.9617	0.0004
660.147	0.0059
660.3323	0.0174
660.5176	0.0073
660.7028	0.0198
660.888	0.0167
661.0733	0.0264
661.2585	0.0131
661.4436	0.0013
661.6288	0.0204
661.8139	0.0006
661.9991	-0.0078
662.1842	0.0009
662.3693	0.0084
662.5544	0.0016
662.7394	0.0235
662.9245	-0.0062
663.1095	0.0035
663.2945	-0.0053
663.4795	0.0003
663.6644	0.0049
663.8494	0.013
664.0343	0.0146
664.2193	-0.0044
664.4042	0.0065
664.589	0.0015
664.7739	0.0188
664.9587	0.0011
665.1436	-0.0009
665.3284	0.0084
665.5132	-0.0227
665.698	0.0156
665.8827	-0.0063
666.0675	-0.0181
666.2522	-0.0021
666.4369	0.01
666.6216	-0.0119
666.8063	-0.0168
666.9909	-0.0023
667.1756	0.0011
667.3602	0.0171
667.5448	0.007
667.7294	0.02
667.9139	0.0088
668.0985	0.0055
668.283	0.0097
668.4675	0.0305
668.652	0.0082
668.8365	0.0071
669.0209	0.0232
669.2054	0.0049
669.3898	0.0204
669.5742	0.0241
669.7586	0.0194
669.943	0.0065
670.1273	0.0122
670.3117	0.0226
670.496	0.0027
670.6803	0.0096
670.8646	-0.0222
671.0488	0.0223
671.2331	0.0031
671.4173	0.0167
671.6015	0.0106
671.7857	0.0066
671.9699	0.0078
672.1541	-0.0107
672.3382	0.0139
672.5223	0.0165
672.7064	-0.0065
672.8905	-0.0009
673.0746	-0.006
673.2587	0.0187
673.4427	-0.0013
673.6267	0.0077
673.8107	0.0162
673.9947	0.0149
674.1787	0.0087
674.3626	0.0026
674.5465	0.0026
674.7304	0.0156
674.9143	-0.0218
675.0982	-0.0057
675.2821	0.0115
675.4659	0.0022
675.6497	0.0113
675.8335	0.0292
676.0173	0.0016
676.2011	0.0171
676.3849	-0.0093
676.5686	0.0224
676.7523	-0.0035
676.936	0.0247
677.1197	-0.007
677.3034	0.0265
677.487	0.022
677.6706	0.033
677.8542	-0.0037
678.0378	0.0216
678.2214	0.0082
678.405	0.0117
678.5885	0.0063
678.772	0.0136
678.9555	0.0024
679.139	0.0138
679.3225	0.0017
679.5059	0.0008
679.6894	0.0031
679.8728	0.0009
680.0562	0.0137
680.2395	0.0132
680.4229	-0.0002
680.6062	-0.0048
680.7896	0.0035
680.9729	0.0148
681.1562	0.0108
681.3394	0.012
681.5227	0.009
681.7059	0.0126
681.8891	0.0163
682.0723	0.0024
682.2555	0.0381
682.4387	0.0131
682.6218	-0.0037
682.805	-0.0095
682.9881	0.0055
683.1712	0.0144
683.3542	0.0144
683.5373	0.0005
683.7203	0.0156
683.9034	-0.0113
684.0864	-0.0032
684.2694	0.01
684.4523	0.0062
684.6353	0.0077
684.8182	-0.005
685.0011	0.016
685.184	-0.0046
685.3669	0.019
685.5498	0.0075
685.7326	0.0063
685.9154	-0.015
686.0982	0.0083
686.281	0.004
686.4638	0.0045
686.6465	0.0027
686.8293	0.0064
687.012	0.0118
687.1947	0.0292
687.3774	0.0237
687.56	0.0032
687.7427	0.0019
687.9253	-0.0179
688.1079	0.0063
688.2905	-0.0083
688.4731	0.0393
688.6556	-0.0016
688.8382	-0.0203
689.0207	0.0044
689.2032	0.0376
689.3857	0.0027
689.5681	0.0084
689.7506	0.0414
689.933	0.0066
690.1154	0.0333
690.2978	0.0108
690.4802	0.0253
690.6626	0.0076
690.8449	0.0204
691.0272	-0.0072
691.2095	-0.0183
691.3918	0.0165
691.5741	0.0066
691.7563	0.0107
691.9386	0.0136
692.1208	0.0042
692.303	-0.0069
692.4852	-0.0114
692.6673	0.0095
692.8495	-0.012
693.0316	0.0164
693.2137	0.0085
693.3958	0.0299
693.5778	-0.0005
693.7599	-0.0009
693.9419	0.0071
694.1239	0.0133
694.3059	0.0062
694.4879	-0.0138
694.6699	-0.003
694.8518	0.0192
695.0337	0.0197
695.2157	0.0222
695.3975	0.0007
695.5794	-0.017
695.7613	0.0208
695.9431	-0.0077
696.1249	0.0222
696.3067	-0.0064
696.4885	0.021
696.6703	0.0041
696.852	-0.014
697.0337	0.029
697.2154	0.0108
697.3971	0.0152
697.5788	0.0114
697.7605	-0.0069
697.9421	0.0018
698.1237	0.0195
698.3053	-0.0209
698.4869	0.007
698.6685	0.0001
698.85	0.0135
699.0315	-0.0058
699.213	0.0093
699.3945	0.0031
699.576	0.0135
699.7575	0.0194
699.9389	-0.0148
700.1203	-0.0167
700.3017	0.0132
700.4831	0.0077
700.6645	0.0208
700.8458	-0.0097
701.0271	0.0422
701.2084	0.0044
701.3897	0.0005
701.571	-0.0249
701.7523	-0.0088
701.9335	0.0175
702.1147	0.0102
702.2959	0.0016
702.4771	0.0189
702.6583	0.0052
702.8394	-0.0158
703.0205	0.0203
703.2016	-0.0234
703.3827	0.0016
703.5638	-0.0078
703.7449	0.0089
703.9259	0.0227
704.1069	-0.0019
704.2879	0.0334
704.4689	0.0099
704.6499	0.0254
704.8308	0.0205
705.0117	0.0221
705.1927	-0.0125
705.3735	0.0213
705.5544	0.0175
705.7353	0.0216
705.9161	-0.0091
706.0969	0.0132
706.2777	0.0307
706.4585	0.0097
706.6393	0.0198
706.82	0.0166
707.0007	0.0042
707.1815	0.0129
707.3621	0.0215
707.5428	0.0232
707.7235	0.0139
707.9041	0.0089
708.0847	0.0173
708.2653	0.0325
708.4459	0.022
708.6265	-0.0144
708.807	0.0113
708.9875	0.0153
709.168	0.0185
709.3485	0.0087
709.529	0.035
709.7095	0.0018
709.8899	0.0017
710.0703	0.0063
710.2507	-0.0064
710.4311	-0.0311
710.6115	0.0085
710.7918	0.0254
710.9721	0.0192
711.1524	-0.0072
711.3327	-0.0007
711.513	-0.0039
711.6932	0.0147
711.8735	0.0306
712.0537	-0.0023
712.2339	0.0165
712.4141	0.0227
712.5942	-0.0093
712.7744	0.0291
712.9545	0.0264
713.1346	0.0278
713.3147	0.0097
713.4947	-0.0089
713.6748	0.003
713.8548	0.0035
714.0348	0.0001
714.2148	0.0134
714.3948	0.0236
714.5748	0.0142
714.7547	0.0263
714.9346	0.0271
715.1145	-0.0012
715.2944	-0.0043
715.4743	0.0262
715.6541	-0.0212
715.834	0.0246
716.0138	-0.0079
716.1936	-0.0036
716.3733	-0.0078
716.5531	0.0308
716.7328	0.0213
716.9126	0.0217
717.0923	-0.0089
717.2719	0.0084
717.4516	0.0113
717.6312	-0.0185
717.8109	0.0365
717.9905	0.0143
718.1701	-0.0111
718.3496	-0.0077
718.5292	-0.001
718.7087	0.0149
718.8882	0.011
719.0677	0.0093
719.2472	0.0088
719.4267	-0.0091
719.6061	0.0044
719.7856	0.0146
719.965	-0.0095
720.1443	-0.0057
720.3237	-0.0169
720.5031	0.0144
720.6824	0.0085
720.8617	-0.0099
721.041	0.0341
721.2203	-0.0051
721.3995	0.0113
721.5788	-0.0085
721.758	0.0072
721.9372	0.0153
722.1164	-0.0092
722.2956	0.0032
722.4747	-0.0154
722.6538	-0.0003
722.8329	0.0439
723.012	0.0214
723.1911	-0.0058
723.3702	0.0097
723.5492	-0.0025
723.7282	0.0014
723.9072	0.017
724.0862	-0.0008
724.2652	0.0298
724.4441	0.0121
724.623	-0.0066
724.8019	-0.002
724.9808	0.0073
725.1597	0.0111
725.3385	0.0086
725.5174	0.0014
725.6962	0.0108
725.875	0.0004
726.0538	0.0067
726.2325	0.0299
726.4112	-0.0044
726.59	-0.0173
726.7687	-0.0052
726.9474	0.0268
727.126	-0.0067
727.3047	0.0113
727.4833	-0.0007
727.6619	-0.0035
727.8405	0.0168
728.0191	0.0517
728.1976	0.0019
728.3762	0.0294
728.5547	-0.0089
728.7332	0.0035
728.9116	0.017
729.0901	-0.0052
729.2686	-0.0055
729.447	0.0123
729.6254	0.0032
729.8038	0.0119
729.9821	-0.016
730.1605	0.0131
730.3388	0.0133
730.5171	0.0208
730.6954	-0.0056
730.8737	-0.0016
731.0519	-0.0052
731.2302	0.0175
731.4084	0.0031
731.5866	-0.0133
731.7648	0.0082
731.9429	0.0136
732.1211	0.0127
732.2992	-0.0034
732.4773	-0.0013
732.6554	-0.0117
732.8335	0.0247
733.0115	0.0132
733.1896	-0.0013
733.3676	0.0134
733.5456	0.0046
733.7235	0.0045
733.9015	0.0095
734.0794	-0.0013
734.2574	-0.0049
734.4353	0.0333
734.6131	0.0105
734.791	0.0063
734.9689	0.0064
735.1467	-0.0178
735.3245	0.0019
735.5023	0.0394
735.68	0.0139
735.8578	0.0001
736.0355	0.0225
736.2132	0.0319
736.3909	-0.0015
736.5686	0.0009
736.7463	-0.0082
736.9239	0.0237
737.1015	-0.0075
737.2791	0.0123
737.4567	0.0184
737.6343	0.0176
737.8118	0.0151
737.9894	0.014
738.1669	0.0024
738.3444	0.0282
738.5218	-0.0051
738.6993	0.0233
738.8767	0.0031
739.0541	0.0026
739.2315	0.0108
739.4089	0.038
739.5863	-0.0002
739.7636	0.0177
739.9409	0.0023
740.1182	0.0186
740.2955	0.0179
740.4728	-0.0008
740.65	-0.0141
740.8272	0.0391
741.0044	0.0076
741.1816	-0.0004
741.3588	-0.0105
741.5359	-0.0063
741.7131	-0.0151
741.8902	-0.0145
742.0673	-0.0097
742.2444	0.0286
742.4214	0.0347
742.5985	-0.0183
742.7755	0.0142
742.9525	-0.0485
743.1295	-0.0319
743.3064	-0.0042
743.4834	-0.0028
743.6603	0.0565
743.8372	-0.0494
744.0141	0.0382
744.191	-0.0164
744.3678	-0.0369
744.5446	0.0181
744.7215	-0.0008
744.8982	0.0175
745.075	0.0152
745.2518	-0.0146
745.4285	0.0176
745.6052	-0.0288
745.7819	0.0119
745.9586	0.0195
746.1353	0.0053
746.3119	-0.0115
746.4885	0.0078
746.6651	0.0084
746.8417	-0.0115
747.0183	0.0172
747.1948	0.001
747.3714	-0.0064
747.5479	0.0359
747.7244	0.0216
747.9008	0.0277
748.0773	0.032
748.2537	0.0245
748.4301	0.0318
748.6065	-0.0137
748.7829	-0.0126
748.9593	0.0129
749.1356	0.0105
749.3119	0.0209
749.4882	0.0449
749.6645	-0.0014
749.8408	0.0295
750.017	0.0156
750.1933	-0.0214
750.3695	0.0386
750.5457	-0.0026
750.7218	0.0026
750.898	0.0018
751.0741	0.017
751.2502	0.0016
751.4263	0.0271
751.6024	0.0213
751.7784	0.0118
751.9545	0.0019
752.1305	0.0058
752.3065	0.0265
752.4825	-0.0094
752.6584	0.0013
752.8344	-0.0017
753.0103	-0.0196
753.1862	0.0182
753.3621	-0.0022
753.5379	-0.0006
753.7138	0.0375
753.8896	0.0043
754.0654	0.0108
754.2412	0.0138
754.417	-0.0062
754.5927	0.0014
754.7685	0.0172
754.9442	0.009
755.1199	0.0077
755.2956	0.001
755.4712	0.018
755.6469	0.0062
755.8225	-0.0002
755.9981	0.0078
756.1736	0.007
756.3492	0.0084
756.5248	0.0085
756.7003	-0.0065
756.8758	0.0067
757.0513	0.0009
757.2267	0.01
757.4022	-0.0096
757.5776	0.012
757.753	0.0256
757.9284	0.0035
758.1038	0.0073
758.2791	0.0118
758.4545	-0.0278
758.6298	0.0084
758.8051	0.0115
758.9803	0.0017
759.1556	0.0044
759.3308	0.008
759.506	0.0121
759.6812	0.0098
759.8564	0.003
760.0316	0.0075
760.2067	0.0344
760.3819	0.0001
760.557	-0.0018
760.732	0.005
760.9071	0.0217
761.0821	-0.0057
761.2572	-0.0019
761.4322	0.0066
761.6072	0.021
761.7821	-0.0127
761.9571	0.0008
762.132	0.002
762.3069	0.0254
762.4818	0.0366
762.6567	0.0104
762.8316	0.0092
763.0064	0.0265
763.1812	0.0011
763.356	-0.0284
763.5308	0.04
763.7055	-0.0164
763.8803	0.0004
764.055	0.0124
764.2297	-0.0039
764.4044	0.014
764.579	-0.0088
764.7537	0.02
764.9283	0.0213
765.1029	0.023
765.2775	0.0125
765.4521	0.0095
765.6266	-0.0164
765.8011	0.0025
765.9756	0.0052
766.1501	-0.0123
766.3246	-0.003
766.4991	0.0088
766.6735	0.012
766.8479	0.022
767.0223	0.0237
767.1967	0.0018
767.371	-0.0004
767.5454	0.0311
767.7197	0.0301
767.894	0.0099
768.0683	0.0147
768.2425	0.0115
768.4168	0.0116
768.591	0.0004
768.7652	-0.0173
768.9394	-0.012
769.1135	0.0146
769.2877	0.0358
769.4618	0.045
769.6359	0.0299
769.81	0.0017
769.984	-0.004
770.1581	0.0181
770.3321	0.0194
770.5061	-0.0038
770.6801	0.0311
770.8541	-0.0016
771.028	0.033
771.202	0.0352
771.3759	0.0326
771.5498	0.0137
771.7236	-0.0017
771.8975	0.0192
772.0713	0.008
772.2451	-0.0004
772.4189	0.0001
772.5927	-0.0401
772.7665	0.0087
772.9402	-0.0138
773.1139	-0.0043
773.2876	0.0135
773.4613	0.0052
773.635	0.006
773.8086	0.003
773.9822	0.002
774.1558	0.0165
774.3294	0.029
774.503	0.0057
774.6765	0.0408
774.8501	-0.0079
775.0236	0.05
775.1971	-0.0214
775.3705	0.0025
775.544	-0.0337
775.7174	-0.0275
775.8908	0.0462
776.0642	0.0187
776.2376	0.0422
776.4109	0.036
776.5843	0.0209
776.7576	-0.0048
776.9309	-0.0089
777.1041	-0.0372
777.2774	0.0044
777.4506	0.0054
777.6238	-0.0119
777.797	-0.033
777.9702	0.0015
778.1434	0.0083
778.3165	-0.0156
778.4896	-0.0391
778.6627	0.0118
778.8358	0.0036
779.0089	-0.0328
779.1819	-0.0052
779.3549	-0.0152
779.5279	-0.0541
779.7009	0.04
779.8739	0.0236
780.0468	-0.0151
780.2197	-0.0005
780.3926	-0.0127
780.5655	0.0267
780.7384	0.0012
780.9112	0.0222
781.0841	-0.0027
781.2569	-0.0123
781.4297	0.0061
781.6024	0.0182
781.7752	0.0239
781.9479	0.0752
782.1206	0.0033
782.2933	-0.0072
782.466	0.0655
782.6386	-0.0038
782.8113	0.0107
782.9839	0.0019
783.1565	0.0321
783.329	-0.0327
783.5016	0.0019
783.6741	-0.035
783.8466	0.0642
784.0191	0.0071
784.1916	-0.0236
784.3641	-0.034
784.5365	0.0125
784.7089	-0.0233
784.8813	0.0447
785.0537	0.0106
785.2261	-0.0057
785.3984	0.0099
785.5707	0.0091
785.743	0.0276
785.9153	-0.01
786.0876	-0.03
786.2598	-0.021
786.432	0.0077
786.6042	0.0435
786.7764	-0.0438
786.9486	0.0002
787.1207	0.0389
787.2928	0.035
787.4649	-0.0145
787.637	-0.0338
787.8091	0.012
787.9811	0.0381
788.1532	0.0088
788.3252	0.0102
788.4972	0.0062
788.6691	0.0054
788.8411	-0.0444
789.013	0.0492
789.1849	-0.028
789.3568	0.0628
789.5287	0.0364
789.7005	0.0031
789.8723	-0.0054
790.0442	0.0002
790.2159	-0.017
790.3877	0.0592
790.5595	0.0462
790.7312	-0.0126
790.9029	-0.0208
791.0746	0.0332
791.2463	-0.0268
791.4179	-0.0132
791.5896	0.0062
791.7612	0.0186
791.9328	0.013
792.1044	-0.0368
792.2759	-0.0261
792.4474	-0.0146
792.619	0.0049
792.7905	-0.011
792.9619	0.0759
793.1334	0.0561
793.3048	0.0405
793.4762	0.0011
793.6476	-0.047
793.819	-0.0025
793.9904	0.0008
794.1617	-0.0005
794.333	0.0221
794.5043	0.0124
794.6756	0.0036
794.8469	-0.0029
795.0181	-0.0135
795.1893	0.0008
795.3605	0.0246
795.5317	0.0139
795.7029	-0.0179
795.874	-0.0099
796.0452	0.0463
796.2163	0.0864
796.3873	0.0541
796.5584	0.0218
796.7294	-0.0041
796.9005	0.0307
797.0715	-0.0516
797.2425	0.037
797.4134	0.0359
797.5844	0.0298
797.7553	-0.0771
797.9262	0.0748
798.0971	0.0462
798.2679	-0.0357
798.4388	0.0555
798.6096	0.0213
798.7804	0.0358
798.9512	0.0169
799.122	0.0173
799.2927	0.0701
799.4635	-0.1023
799.6342	-0.0249
799.8049	0.004
799.9755	-0.053
800.1462	0.0418
800.3168	0.0261
800.4874	-0.1217
800.658	0.0344
800.8286	0.0146
800.9991	0.0313
801.1696	-0.0439
801.3402	0.0232
801.5106	-0.0416
801.6811	0.0131
801.8516	0.0772
802.022	-0.0269
802.1924	-0.1253
802.3628	-0.0034
802.5332	0.0473
802.7035	0.0597
802.8739	0.0391
803.0442	0.0758
803.2145	0.002
803.3847	-0.0012
803.555	0.0586
803.7252	-0.0135
803.8954	-0.0328
804.0656	-0.0159
804.2358	-0.0032
804.4059	0.0461
804.5761	0.0139
804.7462	-0.0637
804.9163	0.0148
805.0864	-0.0597
805.2564	-0.0677
805.4264	0.0207
805.5965	0.0639
805.7665	-0.019
805.9364	-0.0383
806.1064	-0.0124
806.2763	0.046
806.4462	-0.0197
806.6161	0.0387
806.786	-0.0096
806.9559	0.0071
807.1257	-0.0263
807.2955	-0.0238
807.4653	0.0402
807.6351	0.032
807.8048	0.0227
807.9746	0.0777
808.1443	-0.0156
808.314	-0.0055
808.4837	0.0408
808.6533	-0.0089
808.8229	0.0365
808.9926	0.0432
809.1622	0.0074
809.3317	-0.0635
809.5013	-0.0296
809.6708	0.0088
809.8403	0.034
810.0098	-0.0204
810.1793	-0.0298
810.3488	-0.0504
810.5182	0.0495
810.6876	0.0285
810.857	0.0186
811.0264	-0.108
811.1958	0.0576
811.3651	0.0223
811.5344	0.0457
811.7037	-0.0643
811.873	0.0692
812.0422	-0.0793
812.2115	-0.0199
812.3807	-0.229
812.5499	-0.1028
812.7191	-0.031
812.8882	-0.0606
813.0574	0.0166
813.2265	-0.0258
813.3956	0.0175
813.5646	0.0168
813.7337	-0.0659
813.9027	-0.0056
814.0718	0.0823
814.2407	0.0551
814.4097	0.0563
814.5787	0.0604
814.7476	0.0546
814.9165	0.0501
815.0854	0.0081
815.2543	-0.02
815.4232	0.1155
815.592	-0.0239
815.7608	-0.0593
815.9296	0.0063
816.0984	-0.0521
816.2671	-0.1905
816.4359	0.0432
816.6046	-0.0201
816.7733	-0.1238
816.942	-0.0278
817.1106	0.0491
817.2793	-0.1326
817.4479	-0.0505
817.6165	0.0437
817.785	-0.0017
817.9536	-0.139
818.1221	-0.061
818.2906	-0.1032
818.4591	-0.0082
818.6276	0.0006
818.7961	0.0271
818.9645	-0.036
819.1329	0.1681
819.3013	-0.0445
819.4697	-0.0303
819.638	0.08
819.8064	-0.1547
819.9747	0.2572
820.143	-0.0949
820.3113	-0.0177
820.4795	0.0376
820.6477	-0.004
820.816	0.0051
820.9842	0.0505
821.1523	0.0123
821.3205	-0.0015
821.4886	-0.085
821.6567	-0.0472
821.8248	0.1058
821.9929	-0.177
822.1609	0.0008
822.329	-0.0022
822.497	0.0419
822.665	-0.0304
822.833	0.1217
823.0009	0.0694
823.1688	0.1893
823.3367	-0.2197
823.5046	0.0684
823.6725	-0.0247
823.8404	0.0522
824.0082	-0.0993
824.176	-0.0597
824.3438	0.0732
824.5116	0.0447
824.6793	0.0145
824.847	-0.1111
825.0147	0.0475
825.1824	0.0077
825.3501	-0.0037
825.5177	-0.0845
825.6854	0.0325
825.853	0.0079
826.0206	-0.0628
826.1881	-0.1023
826.3557	-0.0299
826.5232	0.0218
826.6907	-0.0828
826.8582	0.0141
827.0257	0.0531
827.1931	0.0791
827.3605	0.0626
827.528	-0.1045
827.6953	-0.2418
827.8627	-0.1578
828.03	0.1113
828.1974	-0.1058
828.3647	-0.0127
828.532	-0.0782
828.6992	0.0746
828.8665	-0.3289
829.0337	-0.0685
829.2009	-0.0294
829.3681	-0.027
829.5352	-0.3494
829.7024	0.127
829.8695	-0.0176
830.0366	0.1719
830.2037	0.0401
830.3707	-0.0174
830.5378	-0.0358
830.7048	-0.0982
830.8718	0.0372
831.0388	0.1608
831.2057	-0.2819
831.3727	-0.3374
831.5396	0.124
831.7065	-0.8044
831.8734	0.2158
832.0402	0.2261
832.2071	-0.6204
832.3739	-0.3299
832.5407	-1.5423
832.7075	-0.4059
832.8742	0.1208
833.041	0.1256
833.2077	0.1317
833.3744	0.2769
833.541	0.0251
833.7077	-0.0402
833.8743	0.001
834.0409	0.0147
834.2075	0.1322
834.3741	-0.3759
834.5407	0.4093
834.7072	0.0387
834.8737	0.04
835.0402	0.1219
835.2067	-0.0485
835.3731	-0.1848
835.5395	0.0603
835.706	-0.281
835.8723	-0.1347
836.0387	-0.0937
836.2051	-0.2071
836.3714	0.0449
836.5377	0.0101
836.704	0.2453
836.8703	-0.1605
837.0365	-0.7364
837.2027	0.0712
837.3689	0.3967
837.5351	0.0861
837.7013	-0.3664
837.8674	-0
838.0335	-0.2157
838.1997	0.7097
838.3657	-0
838.5318	-0.4605
838.6978	-0
838.8639	-0.4151
839.0299	-0.0961
839.1958	0.0602
839.3618	-0
839.5277	-0.0171
839.6937	0.4058
839.8596	-0.1793
840.0254	0.2451
840.1913	0.1518
840.3571	-0.0795
840.523	-1.3655
840.6888	-0.0106
840.8545	-0.2884
841.0203	-0.0092
841.186	-0.2069
841.3517	-0.1971
841.5174	0.2902
841.6831	0.2876
841.8488	-0.1587
842.0144	0.0124
842.18	0.4705
842.3456	-0.7655
842.5112	-1.0706
842.6767	-0.1877
842.8422	0.079
843.0077	0.1015
843.1732	-0.4524
843.3387	-0
843.5042	-0
843.6696	0.0038
843.835	-0.3144
844.0004	-0.2361
844.1657	-0.3233
844.3311	-0.211
844.4964	-0.1574
844.6617	0.3714
844.827	-0
844.9923	0.1371
845.1575	0.5421
845.3227	-0.4166
845.4879	-0.4863
845.6531	0.0612
845.8183	0.1546
845.9834	-0
846.1485	0.2379
846.3136	-0.2197
846.4787	-0
846.6438	-0.3279
846.8088	0.172
846.9738	0.2932
847.1388	-0.021
847.3038	-0.3121
847.4687	0.7077
847.6337	-0.6772
847.7986	-0.1709
847.9635	0.1561
848.1284	1.0625
848.2932	0.1393
848.458	-0
848.6228	1.4383
848.7876	0.121
848.9524	0.1188
849.1172	-1.9359
849.2819	-0.647
849.4466	0.2385
849.6113	0.3801
849.7759	-0.4858
849.9406	0.1433
850.1052	-1.5663
850.2698	0.2129
850.4344	-0.5568
850.599	-0.1757
850.7635	-0
850.928	0.2165
851.0925	0.1986
851.257	-0
851.4215	-0.0105
851.5859	-0.103
851.7503	-0
851.9147	0.641
852.0791	0.977
852.2434	0.0883
852.4078	0.6237
852.5721	0.5525
852.7364	0.2509
852.9007	-0.2096
853.0649	-0
853.2291	-0.1664
853.3934	0.6316
853.5575	0.0393
853.7217	0.243
853.8859	-0.2836
854.05	-0.7296
854.2141	-0
854.3782	0.2223
854.5423	-0.2072
854.7063	0.0626
854.8703	-0.228
855.0343	0.5477
855.1983	0.2784
855.3623	0.0658
855.5262	0.23
855.6901	0.2081
855.854	0.3994
856.0179	-0.1315
856.1818	0.0656
856.3456	0.0861
856.5094	-0.2794
856.6732	-0.5542
856.837	0.2872
857.0008	-0
857.1645	-0.2802
857.3282	-0.4829
857.4919	-0.0135
857.6556	0.6083
857.8192	-0.0393
857.9828	-0.1869
858.1465	0.5119
858.31	-0
858.4736	-0.5345
858.6372	0.2549
858.8007	0.1184
858.9642	0.1354
859.1277	0.4309
859.2911	-0.4732
859.4546	-0
859.618	0.3253
859.7814	-0.0476
859.9448	-0.0436
860.1081	-0
860.2715	-1.4472
860.4348	0.3698
860.5981	0.4888
860.7614	-0.2225
860.9246	-0.2169
861.0879	-0.1324
861.2511	-0
861.4143	0.5362
861.5774	-0.0299
861.7406	-0.2016
861.9037	-0
862.0668	-0
862.2299	1.9332
862.393	0.049
862.556	-0
862.7191	0.391
862.8821	-0.008
863.0451	0.0653
863.208	-0
863.371	-0.8469
863.5339	0.3156
863.6968	-0.0183
863.8597	-0.5733
864.0225	0.0053
864.1854	-0
864.3482	0.2872
864.511	-0.0814
864.6737	0.1898
864.8365	0.2748
864.9992	-0.2468
865.1619	-0.3431
865.3246	-1.6513
865.4873	-0.4064
865.65	0.2295
865.8126	1.145
865.9752	0.3363
866.1378	-0
866.3004	0.0356
866.4629	-1.8905
866.6254	-0.6632
866.7879	-0.0155
866.9504	-0
867.1129	-0.075
867.2753	0.1015
867.4377	-0.0258
867.6001	-0
867.7625	-0.1043
867.9249	-0
868.0872	0.3312
868.2495	-0
868.4118	0.1218
868.5741	-0
868.7363	-0.6327
868.8986	0.4992
869.0608	-0
869.223	-0.5234
869.3851	-0
869.5473	-0.1177
869.7094	1.6141
869.8715	1.0314
870.0336	-0.0252
870.1957	-0.4944
870.3577	0.5061
870.5197	-0.2418
870.6817	-0.8834
870.8437	0.0824
871.0057	-0.0403
871.1676	0.3006
871.3295	-0.3344
871.4914	-0
871.6533	-0
871.8151	0.4312
871.977	-0.413
872.1388	-0.0943
872.3006	-0.6353
872.4623	-0.9621
872.6241	-0
872.7858	0.1773
872.9475	-0
873.1092	-0.222
873.2709	1.5274
873.4325	-1.2041
873.5941	-0
873.7557	-0
873.9173	0.2854
874.0789	0.0094
874.2404	0.9389
874.4019	0.0097
874.5634	-0
874.7249	-0
874.8863	-0
875.0478	-0.1622
875.2092	-0
875.3706	1.1383
875.5319	-0
875.6933	-0
875.8546	-0.4309
876.0159	0.1924
876.1772	-0.2817
876.3385	-0
876.4997	-0
876.6609	0.8497
876.8221	-0
876.9833	-0
877.1445	0.1904
877.3056	-1.1935
877.4667	-0
877.6278	-0
877.7889	-0
877.9499	0.2048
878.111	-0.6579
878.272	-0
878.433	-0.137
878.5939	-0.0299
878.7549	0.1355
878.9158	-0
879.0767	-0.2064
879.2376	0.0087
879.3984	0.2196
879.5593	0.7819
879.7201	-1.583
879.8809	-0.1094
880.0417	-0.2965
880.2024	0.0406
880.3632	-0.5829
880.5239	-0.0726
880.6846	-0.672
880.8452	-0.0958
881.0059	-0.5579
881.1665	0.1527
881.3271	0.2598
881.4877	0.539
881.6483	-0
881.8088	-0
881.9693	-0
882.1298	-0
882.2903	-0
