Data from D4ACN5uM420nmA_Absorbance_14-37-10-317.txt Node
Date: Fri Feb 21 14:37:10 GMT 2025
User: LASERRRRR
Spectrometer: FLMT03099
Trigger mode: 0
Integration Time (sec): 1.500000E-2
Scans to average: 1
Electric dark correction enabled: true
Nonlinearity correction enabled: false
Boxcar width: 0
XAxis mode: Wavelengths
Number of Pixels in Spectrum: 3648
>>>>>Begin Spectral Data<<<<<
179.3399	-0.6734
179.5586	-0.6734
179.7771	-0.6734
179.9957	-0.22
180.2143	-0
180.4329	0.8096
180.6514	-0.837
180.8699	0.185
181.0885	-0
181.307	-0.0472
181.5255	0.0939
181.744	-0
181.9625	0.1965
182.181	-0.3275
182.3994	-0
182.6179	-0.2874
182.8363	-0
183.0547	-0.306
183.2732	-0.0694
183.4916	0.2919
183.71	0.1702
183.9284	0.114
184.1467	0.0412
184.3651	0.2929
184.5835	0.2143
184.8018	0.1951
185.0201	0.1643
185.2385	0.2416
185.4568	0.3718
185.6751	0.1649
185.8934	0.5044
186.1117	0.0166
186.3299	0.0848
186.5482	0.2062
186.7664	0.3014
186.9847	0.038
187.2029	0.3801
187.4211	0.1295
187.6393	0.1728
187.8575	0.1385
188.0757	0.457
188.2939	0.1552
188.512	0.2926
188.7302	0.2911
188.9483	0.3058
189.1665	0.4581
189.3846	0.236
189.6027	0.2701
189.8208	0.2115
190.0389	0.293
190.257	0.0432
190.475	-0.0781
190.6931	0.1088
190.9111	0.0527
191.1292	0.0866
191.3472	0.0573
191.5652	0.1948
191.7832	0.2012
192.0012	0.1794
192.2192	0.1323
192.4371	0.1741
192.6551	0.3413
192.873	0.1478
193.091	0.0725
193.3089	0.2293
193.5268	0.3028
193.7447	0.1522
193.9626	0.2756
194.1805	0.218
194.3984	0.1361
194.6162	0.2891
194.8341	0.2113
195.0519	0.1837
195.2697	0.2472
195.4875	0.3254
195.7054	0.2368
195.9231	0.2327
196.1409	0.2814
196.3587	0.2318
196.5765	0.3549
196.7942	0.3904
197.012	0.3363
197.2297	0.2686
197.4474	0.3564
197.6651	0.3182
197.8828	0.3332
198.1005	0.4034
198.3182	0.3748
198.5358	0.3424
198.7535	0.3412
198.9711	0.4047
199.1888	0.371
199.4064	0.383
199.624	0.404
199.8416	0.3715
200.0592	0.4466
200.2767	0.4053
200.4943	0.3797
200.7119	0.356
200.9294	0.3837
201.1469	0.428
201.3645	0.4148
201.582	0.4612
201.7995	0.4077
202.017	0.4004
202.2344	0.391
202.4519	0.3945
202.6694	0.4279
202.8868	0.4034
203.1042	0.4368
203.3217	0.3871
203.5391	0.3961
203.7565	0.3611
203.9739	0.3576
204.1913	0.3502
204.4086	0.3675
204.626	0.3278
204.8433	0.3581
205.0607	0.3489
205.278	0.3551
205.4953	0.3309
205.7126	0.3481
205.9299	0.2833
206.1472	0.3173
206.3644	0.3259
206.5817	0.3274
206.7989	0.3164
207.0162	0.296
207.2334	0.3478
207.4506	0.3109
207.6678	0.3276
207.885	0.3084
208.1022	0.2871
208.3194	0.2789
208.5365	0.3044
208.7537	0.3035
208.9708	0.3087
209.1879	0.2944
209.405	0.2758
209.6222	0.2652
209.8392	0.2812
210.0563	0.2907
210.2734	0.2717
210.4905	0.2738
210.7075	0.2677
210.9245	0.2461
211.1416	0.2849
211.3586	0.2422
211.5756	0.2374
211.7926	0.2639
212.0096	0.2691
212.2265	0.247
212.4435	0.2609
212.6604	0.2261
212.8774	0.2443
213.0943	0.25
213.3112	0.241
213.5281	0.2426
213.745	0.2086
213.9619	0.2363
214.1788	0.2442
214.3956	0.2379
214.6125	0.2384
214.8293	0.2405
215.0461	0.2376
215.2629	0.2325
215.4798	0.2333
215.6965	0.2258
215.9133	0.2336
216.1301	0.2205
216.3469	0.2233
216.5636	0.244
216.7803	0.2346
216.9971	0.2475
217.2138	0.2628
217.4305	0.2376
217.6472	0.2277
217.8639	0.2303
218.0805	0.2471
218.2972	0.2458
218.5138	0.2493
218.7305	0.2584
218.9471	0.2465
219.1637	0.2715
219.3803	0.2425
219.5969	0.2453
219.8135	0.2508
220.0301	0.2537
220.2466	0.2425
220.4632	0.2497
220.6797	0.2386
220.8962	0.243
221.1127	0.2558
221.3292	0.2579
221.5457	0.2571
221.7622	0.2505
221.9787	0.2788
222.1951	0.2615
222.4116	0.2678
222.628	0.2736
222.8444	0.2749
223.0608	0.2712
223.2772	0.2813
223.4936	0.2875
223.71	0.2842
223.9264	0.2808
224.1427	0.2666
224.3591	0.2831
224.5754	0.2793
224.7917	0.2838
225.008	0.2878
225.2243	0.299
225.4406	0.2937
225.6569	0.2952
225.8732	0.299
226.0894	0.3108
226.3057	0.2895
226.5219	0.3004
226.7381	0.3142
226.9543	0.3021
227.1705	0.3199
227.3867	0.316
227.6029	0.3134
227.8191	0.3373
228.0352	0.3521
228.2513	0.3477
228.4675	0.332
228.6836	0.349
228.8997	0.3536
229.1158	0.3465
229.3319	0.3547
229.548	0.3577
229.764	0.3566
229.9801	0.3708
230.1961	0.366
230.4121	0.3693
230.6282	0.3891
230.8442	0.3917
231.0602	0.3878
231.2761	0.3965
231.4921	0.3998
231.7081	0.4038
231.924	0.4026
232.14	0.4036
232.3559	0.4029
232.5718	0.4214
232.7877	0.4113
233.0036	0.4151
233.2195	0.4052
233.4353	0.4163
233.6512	0.4266
233.867	0.4312
234.0829	0.4276
234.2987	0.4296
234.5145	0.4435
234.7303	0.4344
234.9461	0.4395
235.1619	0.4559
235.3776	0.4416
235.5934	0.4348
235.8091	0.4483
236.0249	0.4576
236.2406	0.4433
236.4563	0.4549
236.672	0.443
236.8877	0.4583
237.1034	0.4466
237.319	0.4584
237.5347	0.4407
237.7503	0.4444
237.966	0.462
238.1816	0.4502
238.3972	0.4582
238.6128	0.4606
238.8284	0.4576
239.0439	0.4525
239.2595	0.4623
239.475	0.4565
239.6906	0.4545
239.9061	0.4589
240.1216	0.4595
240.3371	0.4653
240.5526	0.4641
240.7681	0.4675
240.9836	0.4702
241.199	0.4611
241.4145	0.4572
241.6299	0.4633
241.8453	0.4432
242.0607	0.4478
242.2761	0.4425
242.4915	0.4392
242.7069	0.4296
242.9223	0.436
243.1376	0.4288
243.353	0.4214
243.5683	0.4157
243.7836	0.4178
243.9989	0.4017
244.2142	0.3966
244.4295	0.384
244.6448	0.3857
244.86	0.3719
245.0753	0.3604
245.2905	0.3579
245.5057	0.3578
245.721	0.3508
245.9362	0.3477
246.1514	0.3406
246.3665	0.33
246.5817	0.314
246.7969	0.3139
247.012	0.309
247.2271	0.3109
247.4423	0.2997
247.6574	0.2992
247.8725	0.2885
248.0876	0.2843
248.3026	0.2792
248.5177	0.2642
248.7328	0.2637
248.9478	0.2619
249.1628	0.2519
249.3779	0.2442
249.5929	0.2492
249.8079	0.2409
250.0228	0.2398
250.2378	0.2342
250.4528	0.2365
250.6677	0.2252
250.8827	0.2182
251.0976	0.2241
251.3125	0.2193
251.5274	0.2173
251.7423	0.2104
251.9572	0.2176
252.172	0.2108
252.3869	0.2121
252.6017	0.2072
252.8166	0.2034
253.0314	0.1973
253.2462	0.2016
253.461	0.2039
253.6758	0.2002
253.8906	0.2
254.1053	0.197
254.3201	0.1958
254.5348	0.1958
254.7496	0.1907
254.9643	0.193
255.179	0.1929
255.3937	0.1936
255.6083	0.1955
255.823	0.1961
256.0377	0.1897
256.2523	0.1911
256.467	0.1899
256.6816	0.1852
256.8962	0.1885
257.1108	0.1855
257.3254	0.1879
257.54	0.1836
257.7545	0.185
257.9691	0.1804
258.1836	0.183
258.3981	0.1856
258.6127	0.179
258.8272	0.1897
259.0417	0.1793
259.2561	0.1799
259.4706	0.1813
259.6851	0.1875
259.8995	0.1831
260.114	0.1796
260.3284	0.177
260.5428	0.1814
260.7572	0.1795
260.9716	0.1901
261.186	0.1803
261.4003	0.1799
261.6147	0.1802
261.829	0.1903
262.0433	0.1813
262.2577	0.1879
262.472	0.1887
262.6863	0.1961
262.9005	0.1898
263.1148	0.1893
263.3291	0.1867
263.5433	0.1925
263.7576	0.1935
263.9718	0.196
264.186	0.1929
264.4002	0.1959
264.6144	0.2006
264.8286	0.1926
265.0427	0.2002
265.2569	0.199
265.471	0.2014
265.6851	0.2041
265.8993	0.1977
266.1134	0.1961
266.3275	0.2026
266.5415	0.2001
266.7556	0.1998
266.9697	0.2096
267.1837	0.2009
267.3978	0.2017
267.6118	0.1987
267.8258	0.206
268.0398	0.2065
268.2538	0.2036
268.4677	0.204
268.6817	0.2021
268.8957	0.2009
269.1096	0.1979
269.3235	0.1969
269.5374	0.2042
269.7514	0.2
269.9652	0.1994
270.1791	0.2017
270.393	0.1955
270.6068	0.1977
270.8207	0.1981
271.0345	0.1999
271.2483	0.1909
271.4622	0.1949
271.676	0.1944
271.8897	0.199
272.1035	0.2036
272.3173	0.2019
272.531	0.1993
272.7448	0.1971
272.9585	0.196
273.1722	0.1969
273.3859	0.2073
273.5996	0.2027
273.8133	0.2098
274.0269	0.199
274.2406	0.2053
274.4542	0.2053
274.6679	0.2116
274.8815	0.2192
275.0951	0.2162
275.3087	0.2177
275.5223	0.218
275.7358	0.2137
275.9494	0.2201
276.1629	0.2241
276.3765	0.2205
276.59	0.2131
276.8035	0.217
277.017	0.2285
277.2305	0.2244
277.444	0.2277
277.6574	0.2207
277.8709	0.23
278.0843	0.2244
278.2978	0.2289
278.5112	0.2202
278.7246	0.2187
278.938	0.2205
279.1513	0.2233
279.3647	0.219
279.5781	0.218
279.7914	0.2129
280.0047	0.2165
280.2181	0.2151
280.4314	0.2168
280.6447	0.2112
280.8579	0.2034
281.0712	0.2085
281.2845	0.2096
281.4977	0.205
281.711	0.2062
281.9242	0.2018
282.1374	0.2057
282.3506	0.2021
282.5638	0.1995
282.7769	0.1935
282.9901	0.197
283.2033	0.1983
283.4164	0.1964
283.6295	0.1977
283.8426	0.1889
284.0557	0.1939
284.2688	0.1925
284.4819	0.1914
284.695	0.1942
284.908	0.1901
285.1211	0.1922
285.3341	0.1894
285.5471	0.1911
285.7601	0.1922
285.9731	0.1916
286.1861	0.1945
286.3991	0.1911
286.612	0.1853
286.825	0.1894
287.0379	0.1936
287.2508	0.1853
287.4637	0.1925
287.6766	0.1938
287.8895	0.1892
288.1024	0.1898
288.3152	0.1856
288.5281	0.1849
288.7409	0.192
288.9538	0.1881
289.1666	0.1899
289.3794	0.1786
289.5922	0.1844
289.8049	0.1875
290.0177	0.1853
290.2304	0.1855
290.4432	0.1862
290.6559	0.1833
290.8686	0.1825
291.0813	0.1816
291.294	0.1836
291.5067	0.1818
291.7194	0.1771
291.932	0.1807
292.1447	0.185
292.3573	0.1793
292.5699	0.1848
292.7825	0.1824
292.9951	0.178
293.2077	0.1807
293.4203	0.1785
293.6328	0.1812
293.8454	0.1854
294.0579	0.1812
294.2704	0.1881
294.4829	0.1768
294.6954	0.1844
294.9079	0.1805
295.1204	0.1781
295.3328	0.1843
295.5453	0.1848
295.7577	0.1805
295.9701	0.182
296.1825	0.1799
296.3949	0.1764
296.6073	0.1832
296.8197	0.1782
297.0321	0.1819
297.2444	0.1782
297.4567	0.1831
297.6691	0.1795
297.8814	0.1809
298.0937	0.1782
298.306	0.1805
298.5182	0.1785
298.7305	0.1815
298.9428	0.1804
299.155	0.1822
299.3672	0.1783
299.5794	0.1856
299.7916	0.1792
300.0038	0.1848
300.216	0.1822
300.4282	0.179
300.6403	0.1896
300.8525	0.186
301.0646	0.184
301.2767	0.186
301.4888	0.1834
301.7009	0.1848
301.913	0.1844
302.125	0.1827
302.3371	0.1849
302.5491	0.1862
302.7612	0.1904
302.9732	0.186
303.1852	0.1875
303.3972	0.19
303.6092	0.189
303.8211	0.1843
304.0331	0.1821
304.245	0.1828
304.457	0.1818
304.6689	0.1833
304.8808	0.1794
305.0927	0.1832
305.3046	0.1796
305.5164	0.1793
305.7283	0.1807
305.9401	0.173
306.152	0.1758
306.3638	0.1801
306.5756	0.1864
306.7874	0.1717
306.9992	0.1767
307.2109	0.1759
307.4227	0.1709
307.6344	0.1763
307.8462	0.1708
308.0579	0.1781
308.2696	0.1689
308.4813	0.1723
308.693	0.166
308.9046	0.1771
309.1163	0.1624
309.328	0.163
309.5396	0.1621
309.7512	0.1603
309.9628	0.1651
310.1744	0.1553
310.386	0.1558
310.5976	0.1556
310.8091	0.1611
311.0207	0.1588
311.2322	0.1512
311.4437	0.1544
311.6552	0.1607
311.8667	0.1551
312.0782	0.1562
312.2897	0.1589
312.5012	0.1535
312.7126	0.1517
312.924	0.1563
313.1355	0.1503
313.3469	0.1484
313.5583	0.1527
313.7696	0.1486
313.981	0.1584
314.1924	0.1471
314.4037	0.1534
314.6151	0.1469
314.8264	0.153
315.0377	0.1466
315.249	0.1533
315.4603	0.1473
315.6716	0.1514
315.8828	0.1464
316.0941	0.1449
316.3053	0.1483
316.5165	0.1484
316.7277	0.148
316.9389	0.1573
317.1501	0.1506
317.3613	0.1461
317.5724	0.1471
317.7836	0.1462
317.9947	0.1448
318.2058	0.1434
318.417	0.1462
318.6281	0.1474
318.8391	0.1433
319.0502	0.1492
319.2613	0.1457
319.4723	0.1445
319.6834	0.15
319.8944	0.1482
320.1054	0.1502
320.3164	0.1474
320.5274	0.1449
320.7383	0.1462
320.9493	0.1493
321.1602	0.1445
321.3712	0.1491
321.5821	0.1421
321.793	0.1506
322.0039	0.1472
322.2148	0.1501
322.4257	0.1441
322.6365	0.1419
322.8474	0.1527
323.0582	0.1498
323.269	0.1506
323.4798	0.1525
323.6906	0.1483
323.9014	0.1482
324.1122	0.1447
324.3229	0.1489
324.5337	0.1536
324.7444	0.1481
324.9551	0.161
325.1658	0.1506
325.3765	0.1515
325.5872	0.1511
325.7979	0.1557
326.0085	0.153
326.2192	0.1469
326.4298	0.1562
326.6404	0.1597
326.851	0.154
327.0616	0.1575
327.2722	0.1582
327.4828	0.1531
327.6933	0.1692
327.9039	0.1616
328.1144	0.1629
328.3249	0.1618
328.5354	0.1621
328.7459	0.1613
328.9564	0.1656
329.1669	0.1677
329.3773	0.168
329.5878	0.1636
329.7982	0.1587
330.0086	0.1645
330.219	0.1656
330.4294	0.1633
330.6398	0.1697
330.8502	0.1711
331.0605	0.166
331.2708	0.1676
331.4812	0.1715
331.6915	0.1682
331.9018	0.1694
332.1121	0.1746
332.3224	0.1721
332.5326	0.1691
332.7429	0.1673
332.9531	0.1688
333.1633	0.1651
333.3735	0.1661
333.5837	0.1637
333.7939	0.1684
334.0041	0.1723
334.2143	0.1632
334.4244	0.1734
334.6346	0.1629
334.8447	0.1677
335.0548	0.1657
335.2649	0.1678
335.475	0.1714
335.685	0.159
335.8951	0.1633
336.1051	0.1671
336.3152	0.1687
336.5252	0.1654
336.7352	0.1634
336.9452	0.1602
337.1552	0.1682
337.3652	0.1589
337.5751	0.1596
337.7851	0.1597
337.995	0.1628
338.2049	0.1621
338.4148	0.1599
338.6247	0.1596
338.8346	0.1613
339.0445	0.1659
339.2543	0.1589
339.4642	0.1604
339.674	0.165
339.8838	0.1658
340.0936	0.1563
340.3034	0.1614
340.5132	0.1619
340.7229	0.164
340.9327	0.1728
341.1424	0.1633
341.3522	0.1675
341.5619	0.1645
341.7716	0.169
341.9813	0.1677
342.1909	0.1708
342.4006	0.169
342.6102	0.1641
342.8199	0.1705
343.0295	0.1646
343.2391	0.1754
343.4487	0.1749
343.6583	0.1828
343.8679	0.1744
344.0774	0.1789
344.287	0.177
344.4965	0.1797
344.706	0.1782
344.9155	0.1807
345.125	0.1773
345.3345	0.1936
345.544	0.1844
345.7534	0.182
345.9629	0.1866
346.1723	0.1849
346.3817	0.1884
346.5911	0.1933
346.8005	0.1967
347.0099	0.1888
347.2193	0.1947
347.4286	0.1999
347.638	0.2015
347.8473	0.1965
348.0566	0.1989
348.2659	0.2065
348.4752	0.1944
348.6845	0.1979
348.8937	0.1931
349.103	0.2023
349.3122	0.1948
349.5214	0.1986
349.7306	0.2027
349.9398	0.1947
350.149	0.1964
350.3582	0.2014
350.5674	0.2004
350.7765	0.2012
350.9856	0.1953
351.1948	0.2002
351.4039	0.2029
351.613	0.1965
351.822	0.205
352.0311	0.2003
352.2402	0.1938
352.4492	0.192
352.6582	0.1985
352.8672	0.1965
353.0762	0.2002
353.2852	0.1948
353.4942	0.1964
353.7032	0.1925
353.9121	0.1942
354.1211	0.1997
354.33	0.1932
354.5389	0.1849
354.7478	0.1896
354.9567	0.1916
355.1655	0.1912
355.3744	0.1864
355.5833	0.1887
355.7921	0.1996
356.0009	0.1905
356.2097	0.1867
356.4185	0.1859
356.6273	0.1872
356.8361	0.1822
357.0448	0.1842
357.2536	0.1846
357.4623	0.1901
357.671	0.1912
357.8797	0.1896
358.0884	0.184
358.2971	0.1842
358.5057	0.1911
358.7144	0.1853
358.923	0.1906
359.1316	0.1857
359.3402	0.1876
359.5488	0.1886
359.7574	0.1878
359.966	0.1856
360.1746	0.1839
360.3831	0.2013
360.5916	0.193
360.8002	0.1894
361.0087	0.1839
361.2172	0.1849
361.4256	0.1918
361.6341	0.1968
361.8426	0.1898
362.051	0.1917
362.2594	0.1934
362.4678	0.1912
362.6762	0.1943
362.8846	0.1943
363.093	0.1955
363.3014	0.1991
363.5097	0.1915
363.718	0.1934
363.9264	0.2021
364.1347	0.1968
364.343	0.1989
364.5513	0.1928
364.7595	0.1961
364.9678	0.1907
365.176	0.1967
365.3842	0.2001
365.5925	0.1977
365.8007	0.2012
366.0089	0.206
366.217	0.1993
366.4252	0.1998
366.6333	0.2036
366.8415	0.2081
367.0496	0.2003
367.2577	0.2099
367.4658	0.2002
367.6739	0.2023
367.882	0.2147
368.09	0.2048
368.2981	0.2191
368.5061	0.2115
368.7141	0.2077
368.9221	0.2146
369.1301	0.2156
369.3381	0.2211
369.5461	0.2124
369.754	0.2042
369.962	0.21
370.1699	0.2151
370.3778	0.2183
370.5857	0.2223
370.7936	0.2138
371.0015	0.2156
371.2093	0.2061
371.4172	0.2149
371.625	0.213
371.8328	0.2138
372.0406	0.2268
372.2484	0.2173
372.4562	0.2207
372.664	0.2141
372.8717	0.2261
373.0795	0.22
373.2872	0.2272
373.4949	0.2225
373.7026	0.2226
373.9103	0.2202
374.118	0.2187
374.3256	0.233
374.5333	0.2252
374.7409	0.2262
374.9485	0.2215
375.1561	0.2293
375.3637	0.2216
375.5713	0.2269
375.7789	0.2239
375.9864	0.2289
376.194	0.222
376.4015	0.2269
376.609	0.224
376.8165	0.2305
377.024	0.2336
377.2315	0.23
377.4389	0.2177
377.6464	0.2358
377.8538	0.2333
378.0612	0.2251
378.2686	0.2273
378.476	0.2376
378.6834	0.2265
378.8908	0.2405
379.0981	0.2319
379.3055	0.231
379.5128	0.2251
379.7201	0.2381
379.9274	0.2348
380.1347	0.2428
380.342	0.2413
380.5492	0.2352
380.7565	0.2397
380.9637	0.2397
381.1709	0.2366
381.3781	0.2473
381.5853	0.2303
381.7925	0.2291
381.9997	0.235
382.2068	0.2328
382.4139	0.2364
382.6211	0.2487
382.8282	0.2465
383.0353	0.2442
383.2424	0.237
383.4494	0.2377
383.6565	0.2421
383.8635	0.2375
384.0706	0.2474
384.2776	0.2483
384.4846	0.2491
384.6916	0.2443
384.8986	0.2395
385.1055	0.2474
385.3125	0.254
385.5194	0.2466
385.7263	0.2369
385.9333	0.2432
386.1402	0.2418
386.347	0.2391
386.5539	0.2394
386.7608	0.2377
386.9676	0.2383
387.1744	0.2447
387.3813	0.2389
387.5881	0.2368
387.7948	0.25
388.0016	0.2459
388.2084	0.2466
388.4151	0.2429
388.6219	0.2369
388.8286	0.2432
389.0353	0.2356
389.242	0.2491
389.4487	0.2348
389.6553	0.2333
389.862	0.2348
390.0686	0.2355
390.2753	0.2337
390.4819	0.24
390.6885	0.2274
390.8951	0.2355
391.1016	0.2355
391.3082	0.2375
391.5147	0.2297
391.7213	0.2314
391.9278	0.2271
392.1343	0.2352
392.3408	0.2347
392.5473	0.2284
392.7537	0.2228
392.9602	0.219
393.1666	0.2299
393.373	0.2207
393.5794	0.2243
393.7858	0.2382
393.9922	0.2193
394.1986	0.2175
394.4049	0.2229
394.6113	0.2159
394.8176	0.2183
395.0239	0.2169
395.2302	0.2219
395.4365	0.2235
395.6428	0.2216
395.8491	0.2125
396.0553	0.2136
396.2615	0.2038
396.4678	0.2134
396.674	0.2047
396.8802	0.2094
397.0863	0.2011
397.2925	0.216
397.4987	0.2083
397.7048	0.2177
397.9109	0.2086
398.117	0.2055
398.3231	0.2057
398.5292	0.1938
398.7353	0.1972
398.9413	0.2088
399.1474	0.1962
399.3534	0.2046
399.5594	0.2095
399.7654	0.1935
399.9714	0.208
400.1774	0.1959
400.3833	0.2068
400.5893	0.2033
400.7952	0.2135
401.0011	0.2018
401.207	0.2076
401.4129	0.2108
401.6188	0.2038
401.8247	0.2117
402.0305	0.2063
402.2364	0.2074
402.4422	0.2032
402.648	0.21
402.8538	0.1986
403.0596	0.1983
403.2654	0.2034
403.4711	0.1997
403.6768	0.2003
403.8826	0.2012
404.0883	0.2028
404.294	0.2024
404.4997	0.1967
404.7054	0.2129
404.911	0.1973
405.1167	0.201
405.3223	0.1933
405.5279	0.1997
405.7335	0.1997
405.9391	0.1919
406.1447	0.2162
406.3502	0.2064
406.5558	0.1967
406.7613	0.201
406.9668	0.1987
407.1724	0.1997
407.3778	0.2016
407.5833	0.1946
407.7888	0.2084
407.9942	0.1936
408.1997	0.2092
408.4051	0.2083
408.6105	0.206
408.8159	0.1997
409.0213	0.2072
409.2267	0.2037
409.432	0.2011
409.6374	0.2051
409.8427	0.1923
410.048	0.1971
410.2533	0.2018
410.4586	0.1973
410.6639	0.1965
410.8691	0.1925
411.0744	0.2046
411.2796	0.1973
411.4848	0.2034
411.69	0.1924
411.8952	0.1986
412.1004	0.2037
412.3056	0.1938
412.5107	0.2008
412.7158	0.2108
412.921	0.1966
413.1261	0.1968
413.3312	0.202
413.5362	0.2039
413.7413	0.2045
413.9464	0.1963
414.1514	0.1958
414.3564	0.1896
414.5614	0.1923
414.7664	0.1959
414.9714	0.1953
415.1764	0.2073
415.3813	0.1901
415.5863	0.1988
415.7912	0.1917
415.9961	0.191
416.201	0.2101
416.4059	0.1956
416.6108	0.1994
416.8156	0.1877
417.0205	0.1907
417.2253	0.1967
417.4301	0.2003
417.6349	0.194
417.8397	0.1901
418.0445	0.1791
418.2492	0.1984
418.454	0.19
418.6587	0.2007
418.8634	0.1947
419.0681	0.1888
419.2728	0.1879
419.4775	0.2008
419.6822	0.192
419.8868	0.1878
420.0915	0.184
420.2961	0.1868
420.5007	0.1808
420.7053	0.1909
420.9099	0.1895
421.1144	0.183
421.319	0.1831
421.5235	0.1818
421.728	0.1902
421.9325	0.1867
422.137	0.1754
422.3415	0.1769
422.546	0.1894
422.7504	0.1814
422.9549	0.1829
423.1593	0.1689
423.3637	0.1762
423.5681	0.1699
423.7725	0.1722
423.9769	0.1873
424.1812	0.1738
424.3856	0.1734
424.5899	0.1711
424.7942	0.1768
424.9985	0.173
425.2028	0.1799
425.4071	0.1755
425.6113	0.1709
425.8156	0.1745
426.0198	0.1683
426.224	0.1769
426.4282	0.1659
426.6324	0.1624
426.8366	0.1557
427.0407	0.164
427.2449	0.156
427.449	0.1586
427.6531	0.1666
427.8572	0.1593
428.0613	0.1648
428.2654	0.1614
428.4694	0.1608
428.6735	0.1589
428.8775	0.1663
429.0815	0.146
429.2855	0.1556
429.4895	0.1535
429.6935	0.1494
429.8975	0.1425
430.1014	0.1541
430.3053	0.1519
430.5093	0.1428
430.7132	0.15
430.9171	0.138
431.1209	0.1513
431.3248	0.1335
431.5286	0.136
431.7325	0.1436
431.9363	0.1397
432.1401	0.1323
432.3439	0.1412
432.5477	0.135
432.7514	0.1324
432.9552	0.1371
433.1589	0.1309
433.3627	0.1312
433.5664	0.1234
433.7701	0.1371
433.9737	0.1279
434.1774	0.1245
434.3811	0.1204
434.5847	0.1253
434.7883	0.1205
434.9919	0.1148
435.1955	0.1227
435.3991	0.1174
435.6027	0.1135
435.8062	0.1281
436.0098	0.1107
436.2133	0.1146
436.4168	0.1087
436.6203	0.1112
436.8238	0.1136
437.0272	0.1031
437.2307	0.1019
437.4341	0.1061
437.6375	0.1081
437.841	0.0992
438.0443	0.0996
438.2477	0.0969
438.4511	0.0883
438.6545	0.1076
438.8578	0.0969
439.0611	0.1031
439.2644	0.1
439.4677	0.1003
439.671	0.0969
439.8743	0.0988
440.0775	0.0914
440.2808	0.0901
440.484	0.0914
440.6872	0.0897
440.8904	0.0765
441.0936	0.0822
441.2967	0.073
441.4999	0.0715
441.703	0.0756
441.9062	0.0773
442.1093	0.09
442.3124	0.0793
442.5155	0.0734
442.7185	0.07
442.9216	0.0795
443.1246	0.074
443.3276	0.0791
443.5307	0.0691
443.7337	0.075
443.9366	0.0633
444.1396	0.0685
444.3426	0.0597
444.5455	0.06
444.7484	0.061
444.9513	0.0573
445.1542	0.0674
445.3571	0.065
445.56	0.0544
445.7628	0.0594
445.9657	0.0597
446.1685	0.0629
446.3713	0.0591
446.5741	0.059
446.7769	0.0632
446.9797	0.0626
447.1824	0.0541
447.3852	0.044
447.5879	0.0546
447.7906	0.0457
447.9933	0.0448
448.196	0.0465
448.3986	0.0484
448.6013	0.0391
448.8039	0.0486
449.0066	0.0552
449.2092	0.0489
449.4118	0.0469
449.6143	0.0427
449.8169	0.0451
450.0195	0.0417
450.222	0.0439
450.4245	0.0487
450.627	0.0391
450.8295	0.0422
451.032	0.0375
451.2345	0.0334
451.4369	0.0372
451.6394	0.0388
451.8418	0.049
452.0442	0.0425
452.2466	0.0197
452.449	0.0335
452.6513	0.0334
452.8537	0.0357
453.056	0.0386
453.2583	0.0344
453.4607	0.0353
453.663	0.0302
453.8652	0.0305
454.0675	0.0447
454.2697	0.0235
454.472	0.0219
454.6742	0.0332
454.8764	0.0366
455.0786	0.0262
455.2808	0.0286
455.4829	0.0352
455.6851	0.0261
455.8872	0.0248
456.0893	0.0277
456.2915	0.0287
456.4935	0.0331
456.6956	0.0229
456.8977	0.0268
457.0997	0.0337
457.3018	0.0166
457.5038	0.0296
457.7058	0.0303
457.9078	0.0301
458.1098	0.023
458.3117	0.0402
458.5137	0.0122
458.7156	0.0254
458.9175	0.0275
459.1194	0.0191
459.3213	0.0182
459.5232	0.0267
459.725	0.0285
459.9269	0.019
460.1287	0.0171
460.3305	0.027
460.5323	0.0188
460.7341	0.0236
460.9359	0.0104
461.1376	0.0209
461.3394	0.0231
461.5411	0.0247
461.7428	0.0202
461.9445	0.0236
462.1462	0.0282
462.3479	0.023
462.5495	0.0197
462.7512	0.0248
462.9528	0.0095
463.1544	0.0075
463.356	0.0081
463.5576	0.0264
463.7592	0.0134
463.9607	0.0208
464.1623	0.0146
464.3638	0.0137
464.5653	0.0223
464.7668	0.0169
464.9683	0.0166
465.1697	0.015
465.3712	0.0076
465.5726	0.0164
465.7741	0.0155
465.9755	0.0113
466.1769	0.0127
466.3782	0.0114
466.5796	0.0163
466.7809	0.026
466.9823	0.0126
467.1836	0.0115
467.3849	0.0152
467.5862	0.0111
467.7875	0.009
467.9887	0.0163
468.19	0.017
468.3912	0.0167
468.5924	0.0058
468.7936	0.0105
468.9948	0.0095
469.196	0.0186
469.3972	0.0077
469.5983	0.0088
469.7994	0.019
470.0006	0.0148
470.2017	0.0088
470.4027	0.0293
470.6038	0.0195
470.8049	0.0111
471.0059	0.0165
471.2069	0.014
471.408	0.0184
471.6089	0.0136
471.8099	0.009
472.0109	0.0162
472.2119	0.0208
472.4128	0.0109
472.6137	0.0144
472.8146	0.0107
473.0155	0.0179
473.2164	0.0109
473.4173	0.0128
473.6181	0.0091
473.819	0.0092
474.0198	0.0091
474.2206	0.0019
474.4214	0.0173
474.6222	-0
474.8229	0.0063
475.0237	0.0094
475.2244	0.0101
475.4251	0.0104
475.6258	0.0113
475.8265	0.0128
476.0272	0.0064
476.2278	0.0206
476.4285	0.0109
476.6291	0.0098
476.8297	0.0053
477.0303	0.0082
477.2309	0.0136
477.4315	0.0125
477.632	0.0031
477.8326	0.0141
478.0331	0.0173
478.2336	0.0067
478.4341	0.0127
478.6346	0.0095
478.8351	0.0156
479.0355	0.0152
479.236	0.0137
479.4364	0.0072
479.6368	0.0051
479.8372	0.0137
480.0376	0.0098
480.2379	0.011
480.4383	0.0177
480.6386	0.0053
480.8389	0.0086
481.0392	0.0075
481.2395	0.0109
481.4398	0.0119
481.6401	0.0138
481.8403	0.003
482.0405	0.0116
482.2408	0.0143
482.441	0.0142
482.6411	0.0095
482.8413	0.0033
483.0415	0.0221
483.2416	0.0093
483.4417	0.0129
483.6419	0.0029
483.8419	0.0096
484.042	0.0076
484.2421	0.0011
484.4422	0.0084
484.6422	0.0133
484.8422	0.0115
485.0422	0.0084
485.2422	0.0087
485.4422	0.0064
485.6422	0.0079
485.8421	0.0069
486.042	0.0134
486.242	0.0043
486.4419	0.0106
486.6417	0.0076
486.8416	0.0081
487.0415	0.0056
487.2413	-0.0002
487.4411	0.0157
487.641	0.0072
487.8408	0.0112
488.0405	0.0187
488.2403	0.0128
488.4401	0.0121
488.6398	0.0099
488.8395	0.0174
489.0392	0.0091
489.2389	0.0152
489.4386	0.0026
489.6383	0.0136
489.8379	0.0044
490.0376	0.011
490.2372	0.0108
490.4368	0.0064
490.6364	0.0007
490.836	0.0067
491.0355	0.0003
491.2351	0.0133
491.4346	0.0121
491.6341	0.0111
491.8336	0.0107
492.0331	0.0078
492.2326	0.0106
492.432	0.0091
492.6315	0.0105
492.8309	0.0107
493.0303	0.017
493.2297	0.017
493.4291	0.0144
493.6284	0.0219
493.8278	0.0037
494.0271	0.0154
494.2264	-0.0029
494.4257	0.0154
494.625	0.0016
494.8243	0.0018
495.0236	0.0104
495.2228	0.0087
495.422	0.0114
495.6213	0.0137
495.8205	0.0109
496.0196	0.009
496.2188	0.01
496.418	0.0118
496.6171	0.0078
496.8162	0.0114
497.0153	0.0042
497.2144	0.0106
497.4135	0.0103
497.6126	0.0083
497.8116	0.003
498.0107	0.0019
498.2097	0.0126
498.4087	0.0101
498.6077	-0.0002
498.8067	0.0138
499.0056	-0.0009
499.2046	0.0121
499.4035	0.0093
499.6024	-0.0002
499.8013	0.0118
500.0002	0.0099
500.199	0.0134
500.3979	0.0061
500.5967	0.0053
500.7956	0.0203
500.9944	0.0097
501.1932	0.019
501.3919	0.0126
501.5907	0.0198
501.7895	0.0062
501.9882	0.0121
502.1869	0.0131
502.3856	0.0111
502.5843	0.0087
502.783	0.0087
502.9816	0.0131
503.1803	0.0065
503.3789	0.0119
503.5775	0.0139
503.7761	0.0042
503.9747	0.0152
504.1732	0.0001
504.3718	0.0224
504.5703	0.0183
504.7689	0.0077
504.9674	0.0031
505.1658	0.0034
505.3643	0.0143
505.5628	0.0262
505.7612	0.0114
505.9597	0.0071
506.1581	0.008
506.3565	0.007
506.5549	0.0068
506.7532	0.0001
506.9516	0.0137
507.1499	0.0106
507.3482	0.0083
507.5465	0.018
507.7448	0.005
507.9431	0.013
508.1414	0.0044
508.3396	0.0073
508.5379	0.0113
508.7361	0.0079
508.9343	0.0144
509.1325	0.0176
509.3306	0.0113
509.5288	0.0079
509.7269	0.0136
509.9251	0.0151
510.1232	0.0115
510.3213	0.015
510.5193	0.008
510.7174	0.0041
510.9154	0.0263
511.1135	0.0086
511.3115	0.0102
511.5095	0.0124
511.7075	0.0087
511.9055	0.0061
512.1034	0.0113
512.3014	0.0015
512.4993	0.01
512.6972	0.0045
512.8951	0.007
513.093	0.0118
513.2908	0.0167
513.4887	0.0097
513.6865	0.0088
513.8844	0.0164
514.0822	0.0121
514.2799	0.0081
514.4777	-0.0023
514.6755	0.0125
514.8732	0.0064
515.0709	0.0041
515.2687	0.0035
515.4664	0.025
515.664	0.0104
515.8617	0.0157
516.0594	0.0131
516.257	0.0117
516.4546	0.0221
516.6522	0.0142
516.8498	0.0103
517.0474	0.0143
517.2449	0.0009
517.4425	0.01
517.64	0.0191
517.8375	0.0162
518.035	0.0071
518.2325	0.0059
518.43	0.012
518.6274	0.0086
518.8249	0.0001
519.0223	0.017
519.2197	0.0109
519.4171	0.0065
519.6145	0.0134
519.8118	0.0079
520.0092	-0.002
520.2065	0.0266
520.4038	0.0052
520.6011	0.0187
520.7984	0.01
520.9956	0.0159
521.1929	0.0107
521.3901	0.0159
521.5874	0.0201
521.7846	0.0036
521.9818	0.0056
522.1789	-0.0028
522.3761	0.0223
522.5732	0.0165
522.7704	0.0023
522.9675	-0.0011
523.1646	0.0062
523.3617	0.0076
523.5587	0.0045
523.7558	0.0096
523.9528	0.0133
524.1498	-0
524.3468	0.0138
524.5438	0.01
524.7408	0.0082
524.9378	0.018
525.1347	0.0107
525.3316	0.0147
525.5285	0.0067
525.7254	0.0097
525.9223	0.0191
526.1192	0.0098
526.316	0.0164
526.5129	0.0205
526.7097	0.0072
526.9065	0.0129
527.1033	0.0098
527.3	0.009
527.4968	0.0101
527.6935	-0.0014
527.8903	0.0153
528.087	0.0049
528.2837	0.023
528.4804	0.008
528.677	0.0032
528.8737	0.0108
529.0703	0.0108
529.2669	0.0132
529.4635	0.0056
529.6601	0.003
529.8567	0.004
530.0532	0.0126
530.2498	0.0031
530.4463	0.0032
530.6428	0.0152
530.8393	0.0271
531.0358	0.006
531.2322	-0
531.4287	0.0025
531.6251	-0.0021
531.8215	0.0086
532.0179	0.0126
532.2143	0.0094
532.4107	0.0125
532.607	0.0036
532.8034	0.0036
532.9997	0.0114
533.196	0.0071
533.3923	0.0195
533.5886	0.0124
533.7848	0.0071
533.9811	0.0153
534.1773	0.0066
534.3735	0.0121
534.5697	0.0114
534.7659	0.0184
534.9621	0.0163
535.1582	0.0092
535.3544	0.0059
535.5505	0.0112
535.7466	0.0131
535.9427	0.0045
536.1387	0.0078
536.3348	0.0079
536.5308	0.0121
536.7269	0.0077
536.9229	0.0017
537.1189	0.013
537.3148	0.0059
537.5108	0.0111
537.7068	0.0164
537.9027	-0.0081
538.0986	0.0157
538.2945	0.0128
538.4904	0.0061
538.6863	0.0056
538.8821	0.0143
539.078	0.0141
539.2738	0.0124
539.4696	0.0118
539.6654	0.0111
539.8611	0.0157
540.0569	0.0105
540.2526	0.017
540.4484	0.0107
540.6441	0.0031
540.8398	0.0128
541.0355	0.0117
541.2311	0.005
541.4268	0.0093
541.6224	0.0141
541.818	0.0225
542.0136	0.0114
542.2092	0.0123
542.4048	0.0138
542.6003	0.0108
542.7959	0.0113
542.9914	0.0173
543.1869	0.0009
543.3824	0.0158
543.5779	0.0148
543.7734	0.0146
543.9688	0.007
544.1642	0.0074
544.3596	0.0138
544.555	0.0051
544.7504	0.0144
544.9458	0.0083
545.1411	0.0111
545.3365	0.0033
545.5318	0.0113
545.7271	0.0031
545.9224	0.0058
546.1177	0.0129
546.3129	0.0047
546.5081	0.0129
546.7034	0.0167
546.8986	0.0141
547.0938	0.0163
547.289	0.0037
547.4841	0.0065
547.6793	0.0057
547.8744	0.0111
548.0695	-0.0009
548.2646	0.0131
548.4597	0.0059
548.6548	0.0185
548.8498	0.0089
549.0448	0.0052
549.2399	0.0294
549.4349	0.02
549.6298	0.0143
549.8248	0.0001
550.0198	0.0157
550.2147	0.0083
550.4096	0.0083
550.6045	0.0107
550.7994	0.0079
550.9943	0.0075
551.1892	-0.002
551.384	0.0185
551.5788	0.0114
551.7737	0.0194
551.9685	0.0127
552.1632	-0.0079
552.358	0.006
552.5528	0.0133
552.7475	0.0066
552.9422	0.0207
553.1369	0.0188
553.3316	0.0109
553.5263	0.0176
553.7209	0.0131
553.9156	0.0106
554.1102	0.0042
554.3048	-0.0009
554.4994	0.0142
554.694	0.0076
554.8885	0.0079
555.0831	0.0141
555.2776	0.0145
555.4721	0.0111
555.6666	0.0084
555.8611	0.0103
556.0555	0.007
556.25	0.0114
556.4444	0.0045
556.6388	0.0024
556.8332	-0.0006
557.0276	0.0163
557.222	0.0102
557.4163	0.0149
557.6107	0.0046
557.805	0.0045
557.9993	0.0121
558.1936	0.0105
558.3879	0.0073
558.5821	-0.0001
558.7764	0.0022
558.9706	0.0055
559.1648	0.0177
559.359	0.0029
559.5532	0.0076
559.7473	0.0025
559.9415	0.0118
560.1356	0.0222
560.3297	0.0076
560.5238	0.0135
560.7179	-0.0023
560.9119	0.004
561.106	-0.0016
561.3	0.0121
561.494	-0.0004
561.688	0.0014
561.882	0.007
562.076	0.0093
562.2699	0.0156
562.4639	0.0149
562.6578	0.0212
562.8517	0.0096
563.0456	0.0083
563.2395	0.0208
563.4333	0.0051
563.6272	0.0056
563.821	0.0086
564.0148	-0
564.2086	0.0053
564.4024	0.0089
564.5961	0.0122
564.7899	0.0109
564.9836	0.0072
565.1773	0.0104
565.371	0.0019
565.5647	0.0141
565.7584	0.0193
565.952	-0.0004
566.1456	0.0092
566.3393	0.0066
566.5329	0.0047
566.7264	0.0147
566.92	0.0044
567.1136	0.0039
567.3071	-0.0019
567.5006	0.0179
567.6941	0.0112
567.8876	0.0054
568.0811	0.0304
568.2745	0.0015
568.468	0.0113
568.6614	0.0157
568.8548	0.0145
569.0482	0.0107
569.2416	0.0145
569.4349	0.0103
569.6283	0.0083
569.8216	0.0114
570.0149	0.0045
570.2082	0.0152
570.4015	0.0032
570.5947	0.0097
570.788	0.0102
570.9812	0.0044
571.1744	0.0121
571.3676	0.0107
571.5608	0.0058
571.754	0.0151
571.9471	0.0084
572.1402	0.0066
572.3333	0.0093
572.5264	0.0069
572.7195	0.0079
572.9126	0.0066
573.1057	0.0111
573.2987	0.0087
573.4917	0.0092
573.6847	0.0043
573.8777	0.0116
574.0707	0.0118
574.2636	0.012
574.4566	0.0068
574.6495	0.0082
574.8424	0.0103
575.0353	0.0119
575.2281	0.0112
575.421	0.0024
575.6138	0.0068
575.8067	0.0103
575.9995	0.0036
576.1923	0.009
576.385	0.0101
576.5778	0.0098
576.7706	0.0082
576.9633	0.0113
577.156	0.0028
577.3487	0.0044
577.5414	0.0085
577.734	0.0035
577.9267	0.0101
578.1193	0.0127
578.3119	0.0033
578.5045	0.0064
578.6971	0.005
578.8897	0.006
579.0822	0.0101
579.2747	0.0037
579.4673	0.0114
579.6598	0.0121
579.8522	0.0103
580.0447	0.0137
580.2372	0.0115
580.4296	0.0098
580.622	0.0057
580.8144	0.0086
581.0068	0.0103
581.1992	0.0087
581.3915	0.0023
581.5839	0.0099
581.7762	0.0044
581.9685	0.0069
582.1608	0.0084
582.353	0.0079
582.5453	0.0074
582.7375	0.0099
582.9298	0.0026
583.122	0.0043
583.3142	0.0088
583.5063	0.01
583.6985	0.0073
583.8906	0.0103
584.0827	0.0097
584.2749	0.0066
584.4669	0.0068
584.659	0.0121
584.8511	0.0106
585.0431	0.014
585.2352	0.0074
585.4272	0.0095
585.6192	0.0105
585.8111	0.0075
586.0031	0.0086
586.195	0.0043
586.387	0.0062
586.5789	0.0089
586.7708	0.0139
586.9627	0.0097
587.1545	0.0103
587.3464	0.0068
587.5382	0.0036
587.73	0.0098
587.9218	0.0081
588.1136	0.0052
588.3053	0.0053
588.4971	0.0085
588.6888	0.0107
588.8805	0.0026
589.0722	0.0117
589.2639	0.011
589.4556	0.0087
589.6472	0.018
589.8389	0.0106
590.0305	0.0069
590.2221	0.0088
590.4137	0.0058
590.6052	0.0013
590.7968	0.0132
590.9883	0.0113
591.1798	-0.0021
591.3713	0.0057
591.5628	0.0084
591.7543	0.0083
591.9458	0.0076
592.1372	0.0142
592.3286	0.0049
592.52	0.0068
592.7114	0.006
592.9028	0.0132
593.0941	0.0062
593.2855	0.0085
593.4768	0.0101
593.6681	0.0167
593.8594	0.0107
594.0506	0.0029
594.2419	0.0071
594.4331	0.005
594.6244	0.0029
594.8156	0.0089
595.0067	0.003
595.1979	0.0053
595.3891	0.0111
595.5802	0.0125
595.7713	0.0108
595.9624	0.0135
596.1535	0.0092
596.3446	0.0035
596.5357	0.0176
596.7267	0.0112
596.9177	0.0045
597.1087	0.0045
597.2997	0.0125
597.4907	0.0076
597.6817	0.0132
597.8726	0.0217
598.0635	0.0006
598.2544	0.0085
598.4453	0.0015
598.6362	0.0073
598.827	0.0071
599.0179	0.0111
599.2087	0.0169
599.3995	0.0074
599.5903	0.0119
599.7811	0.0132
599.9718	0.0058
600.1626	0.0027
600.3533	0.005
600.544	0.0086
600.7347	0.0079
600.9254	0.0166
601.116	0.0071
601.3067	0.0056
601.4973	0.0157
601.6879	0.0081
601.8785	0.0134
602.0691	0.0111
602.2596	0.0092
602.4502	0.0073
602.6407	0.0105
602.8312	0.0095
603.0217	0.0061
603.2122	0.0084
603.4027	0.0042
603.5931	0.0057
603.7835	0.0098
603.9739	0.0082
604.1643	0.0106
604.3547	0.0105
604.5451	0.0103
604.7354	0.001
604.9257	0.0099
605.116	0.0049
605.3063	0.0051
605.4966	0.009
605.6869	0.0166
605.8771	0.004
606.0673	0.0087
606.2575	0.0061
606.4477	0.0117
606.6379	0.003
606.8281	0.0088
607.0182	0.0065
607.2083	0.0104
607.3985	0.0051
607.5885	0.0107
607.7786	0.014
607.9687	0.0115
608.1587	0.0155
608.3488	0.0123
608.5388	0.0039
608.7288	0.0006
608.9187	0.0048
609.1087	0.0185
609.2986	0.0138
609.4886	0.0051
609.6785	0.0092
609.8684	-0.0018
610.0582	0.0047
610.2481	0.0021
610.4379	0.0133
610.6278	0.0132
610.8176	0.0149
611.0074	0.0136
611.1971	0.0147
611.3869	0.0068
611.5766	0.0008
611.7664	0.011
611.9561	0.0037
612.1458	0.0113
612.3354	0.0054
612.5251	0.0095
612.7147	0.0084
612.9044	0.0059
613.094	0.0006
613.2836	0.0062
613.4731	0.0083
613.6627	0.0096
613.8522	0.0112
614.0417	0.0203
614.2313	0.0075
614.4207	0.0123
614.6102	0.0128
614.7997	0.0107
614.9891	0.0084
615.1785	0.0067
615.3679	0.0175
615.5573	0.0121
615.7467	0.0011
615.9361	0.0058
616.1254	0.0103
616.3147	0.0087
616.504	0.0122
616.6933	0.0121
616.8826	-0.0007
617.0718	0.015
617.2611	0.0018
617.4503	0.0096
617.6395	0.0066
617.8287	0.0204
618.0179	0.0096
618.207	0.0129
618.3961	0.0013
618.5853	0.0059
618.7744	0.0078
618.9634	0.0195
619.1525	0.0078
619.3416	-0.0028
619.5306	0.0134
619.7196	0.0171
619.9086	0.0013
620.0976	-0.0033
620.2866	0.0183
620.4755	0.0037
620.6645	0.0114
620.8534	0.0105
621.0423	0.0016
621.2312	0.0038
621.42	0.0034
621.6089	0.0097
621.7977	0.0113
621.9865	0.0067
622.1753	0.005
622.3641	0.0002
622.5529	0.0046
622.7416	0.0108
622.9303	0.0013
623.1191	0.0173
623.3078	0.007
623.4964	0.0093
623.6851	0.0118
623.8737	0.0107
624.0624	-0.0032
624.251	0.0028
624.4396	0.0121
624.6282	0.0106
624.8167	-0.0022
625.0053	0.0141
625.1938	0.0114
625.3823	0.0056
625.5708	0.0053
625.7593	0.0127
625.9477	0.0077
626.1362	0.0064
626.3246	0.001
626.513	0.0037
626.7014	0.0173
626.8898	0.0163
627.0781	0.0039
627.2665	-0.0023
627.4548	-0.009
627.6431	0.0113
627.8314	0.0201
628.0197	0.0163
628.2079	-0.0018
628.3962	0.0088
628.5844	0.0055
628.7726	0.0057
628.9608	0.0065
629.1489	0.0155
629.3371	0.0086
629.5252	0.019
629.7134	0.0044
629.9015	0.0101
630.0895	-0.0127
630.2776	0.0079
630.4657	0.0085
630.6537	0.0221
630.8417	0.0076
631.0297	0.0118
631.2177	0.0078
631.4057	0.0028
631.5936	-0.0006
631.7815	0.0048
631.9695	0.0134
632.1574	0.0083
632.3452	-0.0002
632.5331	0.0143
632.7209	0.0212
632.9088	0.0057
633.0966	0.0244
633.2844	0.0168
633.4722	0.0221
633.6599	0.029
633.8477	0.0004
634.0354	0.0139
634.2231	0.0029
634.4108	0.0075
634.5985	0.0292
634.7861	0.0017
634.9738	0.009
635.1614	0.0102
635.349	0.0008
635.5366	0.0142
635.7242	0.0007
635.9117	0.006
636.0993	0.0018
636.2868	0.0037
636.4743	0.0191
636.6618	0.0148
636.8492	0.0256
637.0367	0.0026
637.2241	0.0107
637.4115	0.0302
637.5989	0.0095
637.7863	0.0265
637.9737	0.0065
638.161	0.0043
638.3484	0.0064
638.5357	0.0029
638.723	0.0212
638.9103	-0.0065
639.0975	-0.0034
639.2848	0.021
639.472	0.0019
639.6592	0.0015
639.8464	0.0101
640.0336	0.027
640.2208	0.0137
640.4079	0.0104
640.595	-0.0102
640.7821	0.0133
640.9692	-0.0064
641.1563	0.0187
641.3434	0.0047
641.5304	0.0138
641.7174	0.0194
641.9044	0.0147
642.0914	0.0164
642.2784	-0.0117
642.4653	-0.0059
642.6523	0.0133
642.8392	0.0165
643.0261	0.0305
643.213	0.0163
643.3999	0.0318
643.5867	0.0218
643.7735	-0.0079
643.9604	0.0262
644.1472	0.0169
644.3339	0.0157
644.5207	0.0132
644.7075	-0.001
644.8942	0.0114
645.0809	0.0009
645.2676	-0.0032
645.4543	0.0182
645.6409	0.0181
645.8276	0.0019
646.0142	0.0192
646.2008	0.0079
646.3874	-0.0113
646.574	0.0106
646.7605	0.0119
646.9471	0.0224
647.1336	-0.0187
647.3201	0.0131
647.5066	0.0125
647.6931	0.0138
647.8795	0.0026
648.0659	0.0086
648.2524	0.0227
648.4388	0.0044
648.6252	0.0159
648.8115	0.0065
648.9979	0.0145
649.1842	0.0126
649.3705	0.0135
649.5568	-0.0004
649.7431	0.0021
649.9294	0.0002
650.1156	-0.002
650.3018	0.0085
650.488	0.0164
650.6742	0.0172
650.8604	0.0087
651.0466	0.0083
651.2327	0.0042
651.4188	0.0079
651.6049	0.0138
651.791	-0.0004
651.9771	0.0006
652.1632	0.011
652.3492	0.0216
652.5352	0.0139
652.7212	0.0145
652.9072	0.0041
653.0932	0.0089
653.2791	0.0123
653.465	0.0131
653.651	0.0098
653.8369	0.0233
654.0227	-0.0109
654.2086	0.0134
654.3944	0.0058
654.5803	0.0093
654.7661	-0.0015
654.9519	0.002
655.1377	0.0001
655.3234	0.0001
655.5092	0.0001
655.6949	0.0001
655.8806	0.0001
656.0663	0.0001
656.2519	0.0001
656.4376	0.0001
656.6232	0.0001
656.8088	0.0001
656.9945	0.0001
657.18	0.0001
657.3656	0.0001
657.5511	0.0001
657.7367	0.0001
657.9222	0.0001
658.1077	0.0001
658.2932	0.0001
658.4786	0.0001
658.6641	0.0001
658.8495	0.0001
659.0349	0.0001
659.2203	0.0001
659.4057	0.0086
659.591	0.2984
659.7764	0.0381
659.9617	0.021
660.147	-0.008
660.3323	0.0215
660.5176	0.0146
660.7028	-0.0007
660.888	0.0266
661.0733	0.0087
661.2585	-0.0088
661.4436	0.011
661.6288	0.021
661.8139	-0.0107
661.9991	-0.0094
662.1842	-0
662.3693	0.0007
662.5544	0.0113
662.7394	0.0036
662.9245	-0.0028
663.1095	-0.0195
663.2945	-0.0065
663.4795	-0.0047
663.6644	0.0055
663.8494	0.0049
664.0343	0.0132
664.2193	0.001
664.4042	0.0044
664.589	0.0203
664.7739	0.0101
664.9587	-0.0163
665.1436	-0.0068
665.3284	0.015
665.5132	-0.0036
665.698	0.0339
665.8827	0.0263
666.0675	-0.0167
666.2522	0.0235
666.4369	0.0247
666.6216	0.0047
666.8063	0.0047
666.9909	0.0057
667.1756	-0.0024
667.3602	-0.0082
667.5448	0.0108
667.7294	0.0126
667.9139	-0.0076
668.0985	0.0068
668.283	-0.0038
668.4675	0.0371
668.652	0.0376
668.8365	0.0179
669.0209	0.0064
669.2054	0.0099
669.3898	0.0273
669.5742	0.0065
669.7586	0.0246
669.943	0.0199
670.1273	0.0041
670.3117	0.0104
670.496	0.0016
670.6803	0.0035
670.8646	0.0044
671.0488	0.0435
671.2331	-0.0135
671.4173	0.0074
671.6015	-0.0041
671.7857	0.0053
671.9699	0.0134
672.1541	-0.008
672.3382	-0.0038
672.5223	0.0143
672.7064	0.0188
672.8905	-0.0015
673.0746	0.0154
673.2587	0.0267
673.4427	0.0149
673.6267	0.0341
673.8107	0.0242
673.9947	0.0271
674.1787	-0.0099
674.3626	0.0031
674.5465	0.0041
674.7304	0.0009
674.9143	0.0084
675.0982	0.0099
675.2821	-0.0003
675.4659	-0.0131
675.6497	0.0163
675.8335	0.018
676.0173	-0.0037
676.2011	0.0148
676.3849	0.0174
676.5686	0.0284
676.7523	-0.0069
676.936	-0.0129
677.1197	-0.006
677.3034	0.0286
677.487	-0.0012
677.6706	0.0004
677.8542	0.0027
678.0378	0.0069
678.2214	0.0039
678.405	0.0067
678.5885	0.017
678.772	0.0171
678.9555	-0.0091
679.139	0.0196
679.3225	0.0038
679.5059	0.0102
679.6894	0.011
679.8728	0.0074
680.0562	0.0101
680.2395	-0.0043
680.4229	0.0087
680.6062	0.012
680.7896	-0.0068
680.9729	0.0265
681.1562	0.0072
681.3394	0.0086
681.5227	0.0106
681.7059	0.0049
681.8891	0.0193
682.0723	0.0125
682.2555	0.0155
682.4387	-0.0023
682.6218	0.0095
682.805	0.0298
682.9881	0.0371
683.1712	0.0124
683.3542	0.0275
683.5373	0.0049
683.7203	0.0089
683.9034	-0.0009
684.0864	0.0012
684.2694	0.0029
684.4523	0.0208
684.6353	-0.0004
684.8182	0.0039
685.0011	0.0209
685.184	0.0145
685.3669	0.0248
685.5498	-0.0233
685.7326	0.0032
685.9154	0.003
686.0982	0.0388
686.281	0.0059
686.4638	0.0166
686.6465	0.0117
686.8293	-0.0058
687.012	0.0032
687.1947	-0.003
687.3774	0.001
687.56	0.0024
687.7427	0.0052
687.9253	-0.0099
688.1079	0.0177
688.2905	-0.0058
688.4731	0.028
688.6556	-0.01
688.8382	-0.0259
689.0207	0.0005
689.2032	0.0274
689.3857	0.001
689.5681	0.005
689.7506	0.0416
689.933	0.0102
690.1154	0.0453
690.2978	-0.0023
690.4802	0.0177
690.6626	-0.0003
690.8449	0.0211
691.0272	0.0004
691.2095	-0.0057
691.3918	0.0126
691.5741	0.0095
691.7563	0.0115
691.9386	0.0253
692.1208	0.0157
692.303	0.0068
692.4852	0.0007
692.6673	0.0144
692.8495	-0.0159
693.0316	0.0148
693.2137	0.0136
693.3958	0.0024
693.5778	0.0106
693.7599	0.015
693.9419	0.0108
694.1239	0.0131
694.3059	0.01
694.4879	0.0338
694.6699	-0.0126
694.8518	0.0013
695.0337	0.0106
695.2157	0.0357
695.3975	0.0122
695.5794	-0.026
695.7613	0.0096
695.9431	-0.0071
696.1249	0.0254
696.3067	-0.0157
696.4885	0.0175
696.6703	0.0134
696.852	-0.0059
697.0337	0.0156
697.2154	-0.0035
697.3971	0.0165
697.5788	0.0222
697.7605	-0.0051
697.9421	0.0252
698.1237	0.0166
698.3053	0.0239
698.4869	0.0094
698.6685	0.0087
698.85	0.0267
699.0315	-0.0016
699.213	0.0336
699.3945	-0.0031
699.576	0.0044
699.7575	0.0423
699.9389	0.0015
700.1203	0.01
700.3017	0.0131
700.4831	0.0183
700.6645	0.0429
700.8458	-0.0032
701.0271	0.0408
701.2084	0.0146
701.3897	0.0159
701.571	0.0087
701.7523	0.0034
701.9335	0.0297
702.1147	0.03
702.2959	0.0114
702.4771	0.0298
702.6583	0.0009
702.8394	-0.0127
703.0205	0.0209
703.2016	0.0142
703.3827	-0.0133
703.5638	0.003
703.7449	0.0416
703.9259	-0.004
704.1069	-0.0098
704.2879	0.0094
704.4689	0.0124
704.6499	0.0157
704.8308	0.0051
705.0117	0.0071
705.1927	0.0019
705.3735	-0.003
705.5544	0.0272
705.7353	-0.0013
705.9161	-0.0307
706.0969	0.0279
706.2777	0.023
706.4585	0.0072
706.6393	0.0217
706.82	0.0181
707.0007	0.0108
707.1815	-0.007
707.3621	0.021
707.5428	0.0123
707.7235	0.0213
707.9041	0.012
708.0847	0.0158
708.2653	0.0415
708.4459	0.0148
708.6265	-0.0152
708.807	0.0158
708.9875	0.0036
709.168	-0.0008
709.3485	0.0037
709.529	0.0206
709.7095	-0.0092
709.8899	0.0169
710.0703	0.0097
710.2507	-0.0111
710.4311	-0.0056
710.6115	0.0367
710.7918	0.0146
710.9721	-0.0025
711.1524	-0.0059
711.3327	-0.0102
711.513	0.0043
711.6932	-0.0134
711.8735	0.0334
712.0537	0.0024
712.2339	0.0068
712.4141	0.0477
712.5942	0.0125
712.7744	0.0073
712.9545	0.0152
713.1346	0.0199
713.3147	0.0073
713.4947	-0.0047
713.6748	-0.0029
713.8548	0.0184
714.0348	0.023
714.2148	0.0173
714.3948	0.0115
714.5748	0.0223
714.7547	0.0326
714.9346	0.0138
715.1145	0.0294
715.2944	0.0037
715.4743	0.0313
715.6541	-0.0218
715.834	0.0347
716.0138	0.0371
716.1936	-0.0313
716.3733	-0.0061
716.5531	0.0152
716.7328	0.0099
716.9126	0.0163
717.0923	0.0164
717.2719	-0.0019
717.4516	0.0063
717.6312	-0.0122
717.8109	0.0241
717.9905	0.0203
718.1701	0.0218
718.3496	-0.014
718.5292	-0.0027
718.7087	0.0048
718.8882	0.02
719.0677	-0.0148
719.2472	-0.0008
719.4267	0.0173
719.6061	0.0094
719.7856	0.0542
719.965	0.0037
720.1443	-0.009
720.3237	-0.0012
720.5031	-0.0012
720.6824	-0.0023
720.8617	-0.0075
721.041	0.0313
721.2203	-0.01
721.3995	0.0267
721.5788	0.0027
721.758	-0.0156
721.9372	0.0036
722.1164	0.0143
722.2956	0.0079
722.4747	0.0251
722.6538	-0.0049
722.8329	0.0423
723.012	0.0111
723.1911	0.0141
723.3702	0.0261
723.5492	0.009
723.7282	0.0038
723.9072	0.0124
724.0862	0.0049
724.2652	-0.0043
724.4441	0.0149
724.623	0.0156
724.8019	0.0097
724.9808	0.0314
725.1597	0.0106
725.3385	0.0081
725.5174	0.0133
725.6962	0.0184
725.875	-0.0069
726.0538	0.0169
726.2325	0.0134
726.4112	-0.0012
726.59	0.0085
726.7687	-0.0163
726.9474	0.0309
727.126	0.0346
727.3047	0.0087
727.4833	0.0011
727.6619	-0.0197
727.8405	0.0135
728.0191	0.0337
728.1976	0.0296
728.3762	0.0347
728.5547	0.0043
728.7332	0.0295
728.9116	0.0385
729.0901	0.0069
729.2686	0.0242
729.447	-0.0013
729.6254	0.0114
729.8038	0.0022
729.9821	-0.0158
730.1605	0.0098
730.3388	0.0031
730.5171	0.0165
730.6954	-0.0156
730.8737	0.0074
731.0519	-0.0026
731.2302	0.0152
731.4084	-0.0042
731.5866	-0.0171
731.7648	0.0081
731.9429	0.0403
732.1211	0.0098
732.2992	0.0093
732.4773	0.0144
732.6554	-0.0068
732.8335	0.0238
733.0115	0.0199
733.1896	-0.0016
733.3676	0.0258
733.5456	0.0022
733.7235	0.0103
733.9015	0.0165
734.0794	-0.0012
734.2574	-0.0126
734.4353	-0.0013
734.6131	0.0104
734.791	0.0116
734.9689	-0.0046
735.1467	0.0027
735.3245	0.0504
735.5023	0.0193
735.68	-0.0014
735.8578	0.0043
736.0355	0.0154
736.2132	0.0197
736.3909	0.0154
736.5686	-0.0215
736.7463	-0.0133
736.9239	0.0239
737.1015	0.0286
737.2791	0.0086
737.4567	0.004
737.6343	0.0219
737.8118	0.0443
737.9894	0.0095
738.1669	0.003
738.3444	0.0133
738.5218	-0.0035
738.6993	0.0143
738.8767	0.0175
739.0541	0.0002
739.2315	0.005
739.4089	0.0223
739.5863	0.0112
739.7636	0.0161
739.9409	0.0106
740.1182	0.0038
740.2955	0.0129
740.4728	0.0034
740.65	-0.0098
740.8272	0.0124
741.0044	0.0026
741.1816	0.0004
741.3588	-0.0273
741.5359	0.0009
741.7131	0.0138
741.8902	0.0286
742.0673	-0.03
742.2444	0.0413
742.4214	0.0205
742.5985	-0.0208
742.7755	0.0198
742.9525	-0.0044
743.1295	-0.0427
743.3064	0.0153
743.4834	0.0089
743.6603	0.0362
743.8372	-0.0228
744.0141	0.0095
744.191	0.0265
744.3678	-0.0433
744.5446	0.0132
744.7215	0.0017
744.8982	0.0201
745.075	0.0454
745.2518	0.0133
745.4285	0.0081
745.6052	-0.0304
745.7819	0.0224
745.9586	0.0031
746.1353	-0.0026
746.3119	0.0094
746.4885	0.0323
746.6651	0.0126
746.8417	-0.0133
747.0183	0.0321
747.1948	0.0266
747.3714	-0.0089
747.5479	0.0227
747.7244	-0.0057
747.9008	-0.0245
748.0773	0.0096
748.2537	0.001
748.4301	-0.0097
748.6065	0.0031
748.7829	-0.0322
748.9593	0.0042
749.1356	0.0143
749.3119	0.0268
749.4882	0.0149
749.6645	0.0122
749.8408	0.0259
750.017	0.0089
750.1933	-0.0117
750.3695	0.0022
750.5457	0.0095
750.7218	-0.0064
750.898	0.0053
751.0741	0.0152
751.2502	0.0009
751.4263	0.0173
751.6024	0.0205
751.7784	-0.0042
751.9545	0.0051
752.1305	0.0015
752.3065	0.0027
752.4825	0.0084
752.6584	0.0248
752.8344	-0.0004
753.0103	0.0109
753.1862	0.0121
753.3621	-0.017
753.5379	0.0063
753.7138	0.0088
753.8896	0.0031
754.0654	-0.0019
754.2412	0.0038
754.417	0.0273
754.5927	0.0155
754.7685	0.0105
754.9442	0.0344
755.1199	0.0385
755.2956	0.0041
755.4712	0.0135
755.6469	0.0084
755.8225	0.0112
755.9981	0.0088
756.1736	0.0081
756.3492	0.01
756.5248	0.0189
756.7003	0.0053
756.8758	0.0023
757.0513	0.0048
757.2267	0.0105
757.4022	0.0074
757.5776	-0
757.753	0.0255
757.9284	0.0078
758.1038	0.037
758.2791	0.014
758.4545	0.0046
758.6298	-0.0116
758.8051	0.0267
758.9803	0.012
759.1556	0.0052
759.3308	0.0105
759.506	-0.0009
759.6812	0.009
759.8564	0.0082
760.0316	-0.0025
760.2067	0.0247
760.3819	0.0097
760.557	-0.0032
760.732	0.01
760.9071	0.0186
761.0821	-0.0027
761.2572	0.0111
761.4322	0.0293
761.6072	0.0006
761.7821	-0.0111
761.9571	0.0307
762.132	0.0053
762.3069	0.0188
762.4818	0.0127
762.6567	0.0186
762.8316	0.0076
763.0064	0.0166
763.1812	0.0223
763.356	0.0063
763.5308	0.0392
763.7055	-0.0078
763.8803	0.0159
764.055	-0.0023
764.2297	0.0021
764.4044	0.0091
764.579	-0.0012
764.7537	0.0099
764.9283	0.0136
765.1029	0.001
765.2775	0.0078
765.4521	-0.0012
765.6266	0.0059
765.8011	0.0037
765.9756	-0.0015
766.1501	0.0184
766.3246	0.0072
766.4991	0.0317
766.6735	0.0527
766.8479	0.0129
767.0223	0.0154
767.1967	-0.0046
767.371	0.0286
767.5454	0.0254
767.7197	0.0024
767.894	-0.0017
768.0683	0.0153
768.2425	0.0067
768.4168	0.0281
768.591	0.0095
768.7652	-0.0097
768.9394	-0.0305
769.1135	-0.0086
769.2877	0.0324
769.4618	0.0567
769.6359	-0.0005
769.81	0.0116
769.984	0.0183
770.1581	0.0171
770.3321	0.0153
770.5061	-0.0207
770.6801	0.0218
770.8541	-0.0042
771.028	0.0456
771.202	0.0193
771.3759	0.0169
771.5498	0.0161
771.7236	0.0008
771.8975	0.0496
772.0713	0.0447
772.2451	-0.0069
772.4189	-0.0073
772.5927	-0.0342
772.7665	0.0014
772.9402	0.0219
773.1139	-0.0006
773.2876	-0.0278
773.4613	0.0357
773.635	0.0231
773.8086	0.0393
773.9822	0.0258
774.1558	0.0511
774.3294	0.0116
774.503	0.0277
774.6765	0.0309
774.8501	-0.0008
775.0236	0.0185
775.1971	0.0194
775.3705	-0.0032
775.544	-0.004
775.7174	0.0286
775.8908	0.0204
776.0642	0.0032
776.2376	0.0624
776.4109	0.0585
776.5843	-0.0396
776.7576	0.0119
776.9309	0.0256
777.1041	-0.0251
777.2774	0.0167
777.4506	0.0085
777.6238	0.0168
777.797	0.0312
777.9702	0.0304
778.1434	0.0036
778.3165	-0.0068
778.4896	-0.0025
778.6627	0.027
778.8358	0.0573
779.0089	-0.0363
779.1819	0.0493
779.3549	0.0081
779.5279	-0.0272
779.7009	0.0707
779.8739	0.0694
780.0468	0.0084
780.2197	0.0141
780.3926	-0.0124
780.5655	0.0235
780.7384	0.0051
780.9112	0.0181
781.0841	-0.0155
781.2569	0.0317
781.4297	0.0349
781.6024	0.0257
781.7752	0.0276
781.9479	0.0541
782.1206	0.0052
782.2933	0.0274
782.466	0.0129
782.6386	-0.0091
782.8113	-0.0053
782.9839	0.01
783.1565	0.0139
783.329	0.0034
783.5016	0.0138
783.6741	0.0135
783.8466	0.0332
784.0191	0.071
784.1916	-0.0041
784.3641	0.0242
784.5365	0.0114
784.7089	-0.0141
784.8813	0.0732
785.0537	0.0326
785.2261	0.0211
785.3984	0.002
785.5707	-0.011
785.743	0.0633
785.9153	0.0006
786.0876	0.0201
786.2598	-0.0339
786.432	0.0074
786.6042	0.0563
786.7764	-0.039
786.9486	-0.0416
787.1207	0.0247
787.2928	0.0542
787.4649	0.015
787.637	0.0387
787.8091	0.0046
787.9811	0.0301
788.1532	0.0086
788.3252	-0.0041
788.4972	-0.0056
788.6691	0.0011
788.8411	-0.0067
789.013	0.0184
789.1849	-0.0078
789.3568	0.0217
789.5287	0.0558
789.7005	-0.0399
789.8723	0.0141
790.0442	0.0181
790.2159	-0.0053
790.3877	0.018
790.5595	0.0299
790.7312	0.032
790.9029	0.0155
791.0746	0.0845
791.2463	-0.0206
791.4179	0.0327
791.5896	0.0576
791.7612	0.0462
791.9328	-0.0125
792.1044	0.0621
792.2759	-0.0415
792.4474	0.0717
792.619	0.0067
792.7905	0.0492
792.9619	0.0114
793.1334	0.0434
793.3048	0.0588
793.4762	0.0232
793.6476	-0.0306
793.819	-0.0315
793.9904	0.0153
794.1617	-0.0166
794.333	-0.0104
794.5043	0.0395
794.6756	-0.0018
794.8469	0.0073
795.0181	0.0373
795.1893	0.0249
795.3605	0.0401
795.5317	-0.008
795.7029	0.0205
795.874	0.0189
796.0452	-0.021
796.2163	0.1089
796.3873	0.051
796.5584	0.0194
796.7294	0.0149
796.9005	-0.0002
797.0715	-0.0081
797.2425	0.0207
797.4134	0.0365
797.5844	0.0266
797.7553	-0.0435
797.9262	0.0125
798.0971	0.0029
798.2679	-0.0086
798.4388	0.0706
798.6096	0.0611
798.7804	0.0261
798.9512	0.0844
799.122	-0.0015
799.2927	0.1468
799.4635	0.0042
799.6342	-0.0018
799.8049	0.0346
799.9755	-0.0478
800.1462	-0.0528
800.3168	0.0425
800.4874	-0.1074
800.658	-0.0128
800.8286	0.1182
800.9991	-0.0421
801.1696	0.0145
801.3402	0.1136
801.5106	-0.0876
801.6811	0.0751
801.8516	0.0329
802.022	0.0623
802.1924	-0.0677
802.3628	0.0136
802.5332	0.109
802.7035	0.0258
802.8739	0.1021
803.0442	-0.0361
803.2145	0.0573
803.3847	0.0665
803.555	0.0321
803.7252	-0.0537
803.8954	-0.0164
804.0656	-0.0092
804.2358	-0.0039
804.4059	0.0964
804.5761	-0.026
804.7462	0.0227
804.9163	0.0409
805.0864	-0.0123
805.2564	0.0434
805.4264	0.0047
805.5965	-0.0086
805.7665	-0.0339
805.9364	-0.0473
806.1064	0.0453
806.2763	0.077
806.4462	0.0539
806.6161	0.0232
806.786	0.0287
806.9559	0.0614
807.1257	0.0785
807.2955	-0.0091
807.4653	0.0436
807.6351	-0.0026
807.8048	-0.0442
807.9746	0.061
808.1443	-0.0535
808.314	-0.0002
808.4837	0.0189
808.6533	0.0305
808.8229	0.0124
808.9926	0.0178
809.1622	0.0442
809.3317	-0.0054
809.5013	0.0089
809.6708	0.0582
809.8403	0.0281
810.0098	0.073
810.1793	0.0277
810.3488	-0.0825
810.5182	0.0177
810.6876	0.0318
810.857	0.1673
811.0264	-0.0569
811.1958	0.0567
811.3651	0.0682
811.5344	0.0292
811.7037	0.036
811.873	0.0885
812.0422	-0.0396
812.2115	0.0066
812.3807	0.0027
812.5499	0.0022
812.7191	-0.0903
812.8882	-0.1272
813.0574	0.0551
813.2265	0.0832
813.3956	0.0504
813.5646	0.0525
813.7337	-0.0297
813.9027	-0.099
814.0718	-0.0168
814.2407	0.0489
814.4097	0.0933
814.5787	0.067
814.7476	0.0776
814.9165	0.058
815.0854	-0.0003
815.2543	0.0544
815.4232	0.0692
815.592	0.0675
815.7608	-0.0608
815.9296	0.0789
816.0984	-0.044
816.2671	-0.3029
816.4359	0.1315
816.6046	-0.0833
816.7733	-0.0239
816.942	0.0328
817.1106	0.1783
817.2793	-0.0793
817.4479	0.0067
817.6165	0.1267
817.785	0.095
817.9536	-0.1595
818.1221	0.0362
818.2906	0.0343
818.4591	-0.0304
818.6276	0.0769
818.7961	-0.0761
818.9645	-0.013
819.1329	0.1302
819.3013	0.0027
819.4697	-0.1067
819.638	0.1414
819.8064	0.0627
819.9747	-0.0229
820.143	-0.0962
820.3113	0.0634
820.4795	0.1626
820.6477	0.0257
820.816	0.0626
820.9842	0.1384
821.1523	-0.0073
821.3205	0.0268
821.4886	-0.0615
821.6567	-0.0773
821.8248	0.1481
821.9929	-0.097
822.1609	0.0643
822.329	-0.0612
822.497	0.063
822.665	0.0226
822.833	-0.0226
823.0009	0.0887
823.1688	0.0678
823.3367	-0.2144
823.5046	0.0305
823.6725	0.0299
823.8404	0.1735
824.0082	0.0476
824.176	-0.1261
824.3438	0.2308
824.5116	-0.0574
824.6793	0.2748
824.847	-0.0236
825.0147	-0.1513
825.1824	0.0312
825.3501	-0.1516
825.5177	-0.1025
825.6854	-0.1069
825.853	-0.0799
826.0206	-0.1027
826.1881	0.1983
826.3557	0.0175
826.5232	0.1171
826.6907	0.0467
826.8582	-0.0491
827.0257	0.1368
827.1931	0.0584
827.3605	-0.0156
827.528	-0.0405
827.6953	-0.2312
827.8627	0.0149
828.03	0.1836
828.1974	0.0416
828.3647	-0.0005
828.532	-0.0193
828.6992	0.0938
828.8665	-0.1731
829.0337	0.1196
829.2009	-0.157
829.3681	-0.0514
829.5352	0.1473
829.7024	0.1246
829.8695	-0.0155
830.0366	0.1448
830.2037	0.1089
830.3707	-0.1067
830.5378	0.0046
830.7048	-0.1551
830.8718	-0.0218
831.0388	-0.0414
831.2057	0.7072
831.3727	-0.2593
831.5396	0.1087
831.7065	-0.6734
831.8734	0.0519
832.0402	0.1839
832.2071	-0.4097
832.3739	-0.2013
832.5407	-1.775
832.7075	-0.3599
832.8742	-0.0169
833.041	0.1429
833.2077	0.0555
833.3744	-0.0127
833.541	-0.0406
833.7077	-0.0856
833.8743	0.0574
834.0409	-0.0364
834.2075	0.1005
834.3741	-0.1636
834.5407	0.1159
834.7072	0.2742
834.8737	0.3787
835.0402	0.0049
835.2067	-0.0739
835.3731	0.1523
835.5395	0.0299
835.706	-0.1952
835.8723	0.0904
836.0387	-0.0369
836.2051	0.1297
836.3714	-0.1196
836.5377	0.1961
836.704	0.0732
836.8703	0.0219
837.0365	-0.3442
837.2027	0.513
837.3689	0.4891
837.5351	0.6277
837.7013	0.1376
837.8674	0.3904
838.0335	-0.0724
838.1997	-0.0133
838.3657	-0
838.5318	-0.4154
838.6978	-0
838.8639	-0.5744
839.0299	-0.2126
839.1958	0.0633
839.3618	0.8363
839.5277	-0.1216
839.6937	-0.0601
839.8596	-0.0226
840.0254	-0.1054
840.1913	-0.1503
840.3571	0.6973
840.523	-0
840.6888	0.0724
840.8545	-0
841.0203	0.0154
841.186	-0.2134
841.3517	-0.1153
841.5174	0.0206
841.6831	0.3499
841.8488	-0.0851
842.0144	0.0839
842.18	0.4648
842.3456	-0.4655
842.5112	-0.2009
842.6767	0.5583
842.8422	0.04
843.0077	0.6346
843.1732	-0.1743
843.3387	-0.128
843.5042	0.0707
843.6696	-0.0591
843.835	0.1819
844.0004	-0.1614
844.1657	-1.1174
844.3311	-0
844.4964	-0.6765
844.6617	0.4377
844.827	0.526
844.9923	0.7282
845.1575	0.5095
845.3227	-0.0415
845.4879	-0.4138
845.6531	-0.2455
845.8183	0.0781
845.9834	0.0695
846.1485	0.6051
846.3136	-0.0133
846.4787	-0
846.6438	-0.1179
846.8088	-0
846.9738	-0
847.1388	-0.158
847.3038	0.2362
847.4687	0.1419
847.6337	-0.0454
847.7986	-0
847.9635	-0.2352
848.1284	-0
848.2932	-0.009
848.458	-0
848.6228	0.5743
848.7876	-0
848.9524	-0.1626
849.1172	-2.1303
849.2819	-0.4089
849.4466	0.8658
849.6113	0.3534
849.7759	-0
849.9406	0.0292
850.1052	-1.4702
850.2698	-0
850.4344	-0.8081
850.599	1.0601
850.7635	0.634
850.928	1.1385
851.0925	0.0834
851.257	-0.3941
851.4215	0.4154
851.5859	0.2555
851.7503	-0
851.9147	-0.3514
852.0791	-0.1204
852.2434	0.9941
852.4078	0.3277
852.5721	1.2381
852.7364	0.1311
852.9007	0.1421
853.0649	-0
853.2291	0.1804
853.3934	-0
853.5575	-0.2362
853.7217	0.1208
853.8859	-0
854.05	-0.736
854.2141	-0
854.3782	-0
854.5423	-0.4057
854.7063	-0.0107
854.8703	0.333
855.0343	-0.0866
855.1983	1.0006
855.3623	0.0157
855.5262	-0
855.6901	0.2138
855.854	0.0623
856.0179	0.1914
856.1818	-0
856.3456	0.2947
856.5094	-0.4937
856.6732	-0.4121
856.837	-0
857.0008	0.4943
857.1645	-0
857.3282	0.0938
857.4919	-0.1458
857.6556	-0.5661
857.8192	0.2405
857.9828	0.1928
858.1465	0.1325
858.31	-0
858.4736	-0.7086
858.6372	0.2377
858.8007	-0.2074
858.9642	0.5614
859.1277	1.0712
859.2911	-0.1029
859.4546	-0
859.618	0.1408
859.7814	0.0269
859.9448	-0
860.1081	-0
860.2715	-0.1091
860.4348	0.0526
860.5981	-0
860.7614	-0.3794
860.9246	0.3878
861.0879	-0.0834
861.2511	-0
861.4143	0.2218
861.5774	0.7139
861.7406	1.0911
861.9037	-0
862.0668	-0.8123
862.2299	0.0128
862.393	-0
862.556	0.3042
862.7191	-0.4677
862.8821	0.0851
863.0451	0.7457
863.208	-0
863.371	-0.2636
863.5339	0.2182
863.6968	-0
863.8597	1.3176
864.0225	-0
864.1854	0.1187
864.3482	-0.7566
864.511	-0.1218
864.6737	-0
864.8365	0.3998
864.9992	0.8742
865.1619	-0.2506
865.3246	-1.6415
865.4873	-0
865.65	0.4287
865.8126	-0
865.9752	-0
866.1378	0.2474
866.3004	-0.1849
866.4629	-1.8945
866.6254	0.1218
866.7879	-0.2634
866.9504	-0
867.1129	-0.4463
867.2753	0.6085
867.4377	-0.2319
867.6001	-0.4596
867.7625	-0.2522
867.9249	0.0582
868.0872	0.3178
868.2495	-0
868.4118	0.166
868.5741	-0
868.7363	-0.6497
868.8986	-0.2857
869.0608	0.1953
869.223	-0.3822
869.3851	-0
869.5473	0.2162
869.7094	-0
869.8715	-0
870.0336	0.0511
870.1957	-0.5175
870.3577	0.6749
870.5197	0.3891
870.6817	-1.0125
870.8437	0.0532
871.0057	-0
871.1676	0.2776
871.3295	-0
871.4914	-0.4771
871.6533	0.4993
871.8151	-0
871.977	-0.4175
872.1388	0.4626
872.3006	0.4231
872.4623	-0.7468
872.6241	-0
872.7858	0.0747
872.9475	1.1164
873.1092	-0.0779
873.2709	-0
873.4325	-1.8751
873.5941	-0.0621
873.7557	-0
873.9173	-0
874.0789	0.9385
874.2404	-0
874.4019	0.0388
874.5634	-0
874.7249	-0
874.8863	-0
875.0478	0.1022
875.2092	2.0868
875.3706	0.1433
875.5319	-0
875.6933	0.0919
875.8546	-0
876.0159	0.993
876.1772	-0
876.3385	-0
876.4997	-0
876.6609	0.6129
876.8221	-0
876.9833	0.1397
877.1445	0.2258
877.3056	-0
877.4667	-0
877.6278	1.0868
877.7889	-0.0146
877.9499	0.524
878.111	-0.2794
878.272	-0
878.433	-0
878.5939	-0.1976
878.7549	-0.2364
878.9158	-0
879.0767	-0
879.2376	-0.4019
879.3984	-0
879.5593	-0
879.7201	-1.3041
879.8809	0.7803
880.0417	0.4396
880.2024	0.1896
880.3632	-0
880.5239	0.0116
880.6846	-0.3155
880.8452	0.0154
881.0059	-0.8834
881.1665	-0.1309
881.3271	0.4465
881.4877	0.1671
881.6483	-0
881.8088	-0
881.9693	-0
882.1298	-0
882.2903	-0
