Data from D4ACN5uM420nmA_Absorbance_14-37-08-321.txt Node
Date: Fri Feb 21 14:37:08 GMT 2025
User: LASERRRRR
Spectrometer: FLMT03099
Trigger mode: 0
Integration Time (sec): 1.500000E-2
Scans to average: 1
Electric dark correction enabled: true
Nonlinearity correction enabled: false
Boxcar width: 0
XAxis mode: Wavelengths
Number of Pixels in Spectrum: 3648
>>>>>Begin Spectral Data<<<<<
179.3399	-0
179.5586	-0
179.7771	-0
179.9957	0.0747
180.2143	-1.7493
180.4329	0.0358
180.6514	-0
180.8699	-0.0398
181.0885	-0
181.307	-0.1772
181.5255	-0.0014
181.744	-0.2667
181.9625	0.5604
182.181	-0.3737
182.3994	-0.5636
182.6179	-0
182.8363	-0
183.0547	-0.1803
183.2732	0.1586
183.4916	0.103
183.71	0.1966
183.9284	0.1524
184.1467	0.2475
184.3651	0.1633
184.5835	0.1853
184.8018	0.064
185.0201	0.2821
185.2385	0.1552
185.4568	0.4203
185.6751	0.2152
185.8934	0.3845
186.1117	-0.158
186.3299	-0.0005
186.5482	0.2062
186.7664	0.0035
186.9847	0.1736
187.2029	0.5376
187.4211	-0.1063
187.6393	0.3664
187.8575	0.1541
188.0757	0.2941
188.2939	0.0569
188.512	0.1863
188.7302	0.074
188.9483	-0.1226
189.1665	0.3541
189.3846	0.4532
189.6027	0.0986
189.8208	0.1511
190.0389	0.1465
190.257	-0.0162
190.475	0.1082
190.6931	0.3374
190.9111	-0.0482
191.1292	0.1393
191.3472	0.2027
191.5652	0.1693
191.7832	0.1675
192.0012	0.1966
192.2192	0.1478
192.4371	0.141
192.6551	0.0967
192.873	0.0603
193.091	0.1395
193.3089	0.0636
193.5268	0.3126
193.7447	0.1522
193.9626	0.1181
194.1805	0.1715
194.3984	0.1327
194.6162	0.2235
194.8341	0.4214
195.0519	0.2441
195.2697	0.1483
195.4875	0.2147
195.7054	0.2875
195.9231	0.1938
196.1409	0.2876
196.3587	0.3011
196.5765	0.3096
196.7942	0.3353
197.012	0.2891
197.2297	0.3277
197.4474	0.3374
197.6651	0.3182
197.8828	0.3318
198.1005	0.3894
198.3182	0.3852
198.5358	0.2939
198.7535	0.3233
198.9711	0.3712
199.1888	0.3343
199.4064	0.3907
199.624	0.3673
199.8416	0.3612
200.0592	0.3471
200.2767	0.4001
200.4943	0.3721
200.7119	0.3787
200.9294	0.4027
201.1469	0.3788
201.3645	0.4439
201.582	0.3579
201.7995	0.3977
202.017	0.3964
202.2344	0.399
202.4519	0.3731
202.6694	0.3414
202.8868	0.3978
203.1042	0.387
203.3217	0.3914
203.5391	0.3806
203.7565	0.3598
203.9739	0.37
204.1913	0.3591
204.4086	0.3902
204.626	0.3323
204.8433	0.3513
205.0607	0.3374
205.278	0.3204
205.4953	0.3176
205.7126	0.323
205.9299	0.2921
206.1472	0.3218
206.3644	0.3244
206.5817	0.3194
206.7989	0.3068
207.0162	0.2965
207.2334	0.3159
207.4506	0.3096
207.6678	0.2804
207.885	0.3
208.1022	0.3151
208.3194	0.2774
208.5365	0.2985
208.7537	0.2758
208.9708	0.2823
209.1879	0.2747
209.405	0.2691
209.6222	0.2624
209.8392	0.2956
210.0563	0.2885
210.2734	0.2651
210.4905	0.2811
210.7075	0.2746
210.9245	0.2532
211.1416	0.2767
211.3586	0.2484
211.5756	0.2422
211.7926	0.2723
212.0096	0.2575
212.2265	0.2511
212.4435	0.2737
212.6604	0.2447
212.8774	0.2255
213.0943	0.2558
213.3112	0.2495
213.5281	0.2397
213.745	0.2347
213.9619	0.249
214.1788	0.2393
214.3956	0.247
214.6125	0.242
214.8293	0.2417
215.0461	0.2438
215.2629	0.23
215.4798	0.2335
215.6965	0.2365
215.9133	0.234
216.1301	0.2462
216.3469	0.2493
216.5636	0.2466
216.7803	0.238
216.9971	0.2298
217.2138	0.2421
217.4305	0.2546
217.6472	0.2211
217.8639	0.2489
218.0805	0.2319
218.2972	0.2405
218.5138	0.2572
218.7305	0.2471
218.9471	0.2409
219.1637	0.2474
219.3803	0.2508
219.5969	0.2613
219.8135	0.2589
220.0301	0.2596
220.2466	0.2395
220.4632	0.2415
220.6797	0.253
220.8962	0.2489
221.1127	0.2515
221.3292	0.2579
221.5457	0.2732
221.7622	0.2685
221.9787	0.2813
222.1951	0.2681
222.4116	0.2819
222.628	0.2842
222.8444	0.2784
223.0608	0.277
223.2772	0.278
223.4936	0.2725
223.71	0.3005
223.9264	0.2826
224.1427	0.2782
224.3591	0.2743
224.5754	0.2786
224.7917	0.2998
225.008	0.2861
225.2243	0.3017
225.4406	0.2843
225.6569	0.3059
225.8732	0.3066
226.0894	0.3001
226.3057	0.2906
226.5219	0.3138
226.7381	0.3075
226.9543	0.3139
227.1705	0.3181
227.3867	0.3219
227.6029	0.3179
227.8191	0.3317
228.0352	0.3409
228.2513	0.3472
228.4675	0.329
228.6836	0.3383
228.8997	0.342
229.1158	0.3526
229.3319	0.3579
229.548	0.3484
229.764	0.3518
229.9801	0.3646
230.1961	0.3695
230.4121	0.3717
230.6282	0.3779
230.8442	0.3772
231.0602	0.385
231.2761	0.3837
231.4921	0.3893
231.7081	0.3908
231.924	0.4013
232.14	0.3997
232.3559	0.4001
232.5718	0.4087
232.7877	0.4006
233.0036	0.4012
233.2195	0.4163
233.4353	0.4124
233.6512	0.4105
233.867	0.421
234.0829	0.4241
234.2987	0.4306
234.5145	0.4411
234.7303	0.4372
234.9461	0.4345
235.1619	0.4419
235.3776	0.4284
235.5934	0.4313
235.8091	0.4382
236.0249	0.456
236.2406	0.4436
236.4563	0.4497
236.672	0.4396
236.8877	0.4434
237.1034	0.4572
237.319	0.4533
237.5347	0.4482
237.7503	0.4432
237.966	0.4662
238.1816	0.4502
238.3972	0.4717
238.6128	0.471
238.8284	0.4666
239.0439	0.46
239.2595	0.462
239.475	0.4514
239.6906	0.4666
239.9061	0.4619
240.1216	0.4591
240.3371	0.4636
240.5526	0.4613
240.7681	0.4684
240.9836	0.4563
241.199	0.453
241.4145	0.4541
241.6299	0.4574
241.8453	0.4494
242.0607	0.4318
242.2761	0.4349
242.4915	0.4264
242.7069	0.4248
242.9223	0.4256
243.1376	0.4186
243.353	0.4081
243.5683	0.3979
243.7836	0.4039
243.9989	0.3892
244.2142	0.3883
244.4295	0.3831
244.6448	0.3703
244.86	0.36
245.0753	0.3537
245.2905	0.3461
245.5057	0.3431
245.721	0.3398
245.9362	0.3343
246.1514	0.3285
246.3665	0.3202
246.5817	0.3123
246.7969	0.3052
247.012	0.3047
247.2271	0.2976
247.4423	0.2884
247.6574	0.2892
247.8725	0.2749
248.0876	0.2761
248.3026	0.2743
248.5177	0.2613
248.7328	0.2576
248.9478	0.2593
249.1628	0.2581
249.3779	0.2478
249.5929	0.247
249.8079	0.2449
250.0228	0.2306
250.2378	0.235
250.4528	0.2335
250.6677	0.2247
250.8827	0.2235
251.0976	0.2175
251.3125	0.2236
251.5274	0.2134
251.7423	0.2124
251.9572	0.2172
252.172	0.2126
252.3869	0.2087
252.6017	0.2062
252.8166	0.2071
253.0314	0.2025
253.2462	0.2026
253.461	0.1985
253.6758	0.1926
253.8906	0.1998
254.1053	0.195
254.3201	0.197
254.5348	0.185
254.7496	0.1853
254.9643	0.1948
255.179	0.1974
255.3937	0.1875
255.6083	0.1994
255.823	0.189
256.0377	0.1819
256.2523	0.1891
256.467	0.19
256.6816	0.1873
256.8962	0.1903
257.1108	0.188
257.3254	0.189
257.54	0.1862
257.7545	0.1851
257.9691	0.18
258.1836	0.1817
258.3981	0.1834
258.6127	0.1776
258.8272	0.1905
259.0417	0.1749
259.2561	0.1798
259.4706	0.182
259.6851	0.1789
259.8995	0.1822
260.114	0.1833
260.3284	0.1804
260.5428	0.1809
260.7572	0.1713
260.9716	0.1891
261.186	0.1771
261.4003	0.1801
261.6147	0.1765
261.829	0.1806
262.0433	0.1804
262.2577	0.1857
262.472	0.1807
262.6863	0.1845
262.9005	0.1824
263.1148	0.1874
263.3291	0.185
263.5433	0.1855
263.7576	0.1862
263.9718	0.1896
264.186	0.1845
264.4002	0.1848
264.6144	0.1944
264.8286	0.1957
265.0427	0.19
265.2569	0.1949
265.471	0.1895
265.6851	0.193
265.8993	0.1932
266.1134	0.1909
266.3275	0.188
266.5415	0.1912
266.7556	0.1921
266.9697	0.1981
267.1837	0.1893
267.3978	0.192
267.6118	0.1922
267.8258	0.1936
268.0398	0.1941
268.2538	0.1929
268.4677	0.187
268.6817	0.1898
268.8957	0.1879
269.1096	0.1857
269.3235	0.1885
269.5374	0.1915
269.7514	0.185
269.9652	0.189
270.1791	0.1906
270.393	0.1833
270.6068	0.1863
270.8207	0.1861
271.0345	0.1836
271.2483	0.1812
271.4622	0.1859
271.676	0.1815
271.8897	0.1863
272.1035	0.1877
272.3173	0.1863
272.531	0.1904
272.7448	0.1868
272.9585	0.1801
273.1722	0.1841
273.3859	0.1869
273.5996	0.1839
273.8133	0.1847
274.0269	0.1852
274.2406	0.187
274.4542	0.188
274.6679	0.1861
274.8815	0.1907
275.0951	0.1987
275.3087	0.1944
275.5223	0.1895
275.7358	0.1931
275.9494	0.1923
276.1629	0.1965
276.3765	0.1952
276.59	0.1944
276.8035	0.1926
277.017	0.196
277.2305	0.1958
277.444	0.1946
277.6574	0.1997
277.8709	0.2019
278.0843	0.2011
278.2978	0.1974
278.5112	0.197
278.7246	0.1918
278.938	0.196
279.1513	0.1984
279.3647	0.2034
279.5781	0.1976
279.7914	0.1981
280.0047	0.1997
280.2181	0.1944
280.4314	0.195
280.6447	0.2024
280.8579	0.1964
281.0712	0.189
281.2845	0.1957
281.4977	0.1949
281.711	0.1911
281.9242	0.1888
282.1374	0.19
282.3506	0.1933
282.5638	0.1919
282.7769	0.1856
282.9901	0.1928
283.2033	0.1919
283.4164	0.1896
283.6295	0.1897
283.8426	0.1855
284.0557	0.1916
284.2688	0.1898
284.4819	0.1912
284.695	0.1955
284.908	0.1856
285.1211	0.1931
285.3341	0.1877
285.5471	0.1917
285.7601	0.1905
285.9731	0.1916
286.1861	0.1905
286.3991	0.1917
286.612	0.1905
286.825	0.1928
287.0379	0.1894
287.2508	0.1914
287.4637	0.1936
287.6766	0.1892
287.8895	0.1957
288.1024	0.1934
288.3152	0.193
288.5281	0.1897
288.7409	0.1908
288.9538	0.1913
289.1666	0.1927
289.3794	0.1918
289.5922	0.1881
289.8049	0.1933
290.0177	0.1944
290.2304	0.1909
290.4432	0.1921
290.6559	0.1907
290.8686	0.1921
291.0813	0.1944
291.294	0.198
291.5067	0.1873
291.7194	0.1933
291.932	0.1897
292.1447	0.1885
292.3573	0.1972
292.5699	0.1912
292.7825	0.1876
292.9951	0.1874
293.2077	0.1909
293.4203	0.1908
293.6328	0.1873
293.8454	0.186
294.0579	0.1877
294.2704	0.2003
294.4829	0.1914
294.6954	0.1863
294.9079	0.1866
295.1204	0.1846
295.3328	0.1982
295.5453	0.1935
295.7577	0.1938
295.9701	0.1912
296.1825	0.1954
296.3949	0.1818
296.6073	0.1884
296.8197	0.1896
297.0321	0.1884
297.2444	0.1915
297.4567	0.1935
297.6691	0.1888
297.8814	0.1896
298.0937	0.194
298.306	0.1896
298.5182	0.1892
298.7305	0.194
298.9428	0.1914
299.155	0.1866
299.3672	0.1889
299.5794	0.1969
299.7916	0.1908
300.0038	0.1958
300.216	0.1905
300.4282	0.193
300.6403	0.1944
300.8525	0.1916
301.0646	0.1909
301.2767	0.1887
301.4888	0.1878
301.7009	0.1895
301.913	0.1946
302.125	0.198
302.3371	0.1909
302.5491	0.1926
302.7612	0.1949
302.9732	0.1961
303.1852	0.1961
303.3972	0.1932
303.6092	0.1875
303.8211	0.1898
304.0331	0.1902
304.245	0.1858
304.457	0.1888
304.6689	0.188
304.8808	0.1891
305.0927	0.1896
305.3046	0.1862
305.5164	0.183
305.7283	0.1853
305.9401	0.1748
306.152	0.1843
306.3638	0.1799
306.5756	0.1851
306.7874	0.1739
306.9992	0.1702
307.2109	0.1709
307.4227	0.172
307.6344	0.1781
307.8462	0.1673
308.0579	0.1726
308.2696	0.1714
308.4813	0.1682
308.693	0.1661
308.9046	0.1737
309.1163	0.1647
309.328	0.1622
309.5396	0.1649
309.7512	0.1637
309.9628	0.1607
310.1744	0.1541
310.386	0.1532
310.5976	0.1527
310.8091	0.161
311.0207	0.1557
311.2322	0.1509
311.4437	0.1486
311.6552	0.1593
311.8667	0.1563
312.0782	0.1499
312.2897	0.1522
312.5012	0.1456
312.7126	0.1417
312.924	0.1472
313.1355	0.1475
313.3469	0.1488
313.5583	0.1408
313.7696	0.1403
313.981	0.1474
314.1924	0.1354
314.4037	0.1421
314.6151	0.1415
314.8264	0.1486
315.0377	0.1414
315.249	0.1378
315.4603	0.134
315.6716	0.1447
315.8828	0.1379
316.0941	0.1435
316.3053	0.1342
316.5165	0.14
316.7277	0.1323
316.9389	0.14
317.1501	0.1371
317.3613	0.1372
317.5724	0.133
317.7836	0.1302
317.9947	0.1344
318.2058	0.1345
318.417	0.1356
318.6281	0.1333
318.8391	0.1345
319.0502	0.1388
319.2613	0.1358
319.4723	0.129
319.6834	0.1334
319.8944	0.1369
320.1054	0.1393
320.3164	0.1318
320.5274	0.1397
320.7383	0.1382
320.9493	0.136
321.1602	0.1344
321.3712	0.1365
321.5821	0.1319
321.793	0.1401
322.0039	0.1351
322.2148	0.1396
322.4257	0.1249
322.6365	0.126
322.8474	0.1354
323.0582	0.1359
323.269	0.1391
323.4798	0.1321
323.6906	0.1325
323.9014	0.1336
324.1122	0.135
324.3229	0.1401
324.5337	0.1386
324.7444	0.1423
324.9551	0.14
325.1658	0.1369
325.3765	0.1412
325.5872	0.1439
325.7979	0.1421
326.0085	0.1325
326.2192	0.1365
326.4298	0.1393
326.6404	0.1466
326.851	0.14
327.0616	0.1405
327.2722	0.1428
327.4828	0.1409
327.6933	0.1479
327.9039	0.1425
328.1144	0.1498
328.3249	0.1487
328.5354	0.1423
328.7459	0.1409
328.9564	0.1483
329.1669	0.1498
329.3773	0.1456
329.5878	0.1438
329.7982	0.1451
330.0086	0.1484
330.219	0.1433
330.4294	0.1505
330.6398	0.1468
330.8502	0.1547
331.0605	0.1492
331.2708	0.1484
331.4812	0.1497
331.6915	0.1475
331.9018	0.151
332.1121	0.1579
332.3224	0.1465
332.5326	0.1452
332.7429	0.1477
332.9531	0.1564
333.1633	0.1471
333.3735	0.1402
333.5837	0.1508
333.7939	0.1499
334.0041	0.1528
334.2143	0.1462
334.4244	0.1587
334.6346	0.1527
334.8447	0.1564
335.0548	0.1564
335.2649	0.1536
335.475	0.1546
335.685	0.145
335.8951	0.147
336.1051	0.1542
336.3152	0.1545
336.5252	0.1484
336.7352	0.1532
336.9452	0.1487
337.1552	0.1564
337.3652	0.139
337.5751	0.1475
337.7851	0.1547
337.995	0.1528
338.2049	0.1486
338.4148	0.1518
338.6247	0.149
338.8346	0.1493
339.0445	0.1572
339.2543	0.155
339.4642	0.1504
339.674	0.1461
339.8838	0.1574
340.0936	0.1444
340.3034	0.1465
340.5132	0.1473
340.7229	0.1565
340.9327	0.1603
341.1424	0.1518
341.3522	0.1537
341.5619	0.1602
341.7716	0.1599
341.9813	0.1584
342.1909	0.1648
342.4006	0.1629
342.6102	0.1579
342.8199	0.1597
343.0295	0.1586
343.2391	0.1628
343.4487	0.1591
343.6583	0.1669
343.8679	0.1583
344.0774	0.1646
344.287	0.1615
344.4965	0.163
344.706	0.1633
344.9155	0.1678
345.125	0.1661
345.3345	0.1785
345.544	0.1687
345.7534	0.1734
345.9629	0.1788
346.1723	0.1777
346.3817	0.1717
346.5911	0.1733
346.8005	0.1753
347.0099	0.1668
347.2193	0.178
347.4286	0.1798
347.638	0.1747
347.8473	0.1754
348.0566	0.1803
348.2659	0.1769
348.4752	0.178
348.6845	0.1754
348.8937	0.1774
349.103	0.1843
349.3122	0.1821
349.5214	0.1844
349.7306	0.1878
349.9398	0.184
350.149	0.1798
350.3582	0.1871
350.5674	0.1804
350.7765	0.1853
350.9856	0.1789
351.1948	0.1926
351.4039	0.1903
351.613	0.1815
351.822	0.1894
352.0311	0.1876
352.2402	0.1942
352.4492	0.1874
352.6582	0.1914
352.8672	0.1827
353.0762	0.1874
353.2852	0.1864
353.4942	0.1905
353.7032	0.1898
353.9121	0.1887
354.1211	0.1821
354.33	0.1894
354.5389	0.1813
354.7478	0.1872
354.9567	0.1957
355.1655	0.1902
355.3744	0.1881
355.5833	0.1923
355.7921	0.1974
356.0009	0.1901
356.2097	0.1811
356.4185	0.1901
356.6273	0.1929
356.8361	0.1906
357.0448	0.1848
357.2536	0.1882
357.4623	0.1926
357.671	0.1979
357.8797	0.1975
358.0884	0.1932
358.2971	0.199
358.5057	0.1977
358.7144	0.1946
358.923	0.2044
359.1316	0.1984
359.3402	0.1993
359.5488	0.1989
359.7574	0.2017
359.966	0.2022
360.1746	0.2009
360.3831	0.2066
360.5916	0.2074
360.8002	0.2097
361.0087	0.1994
361.2172	0.2002
361.4256	0.2078
361.6341	0.2109
361.8426	0.2051
362.051	0.2072
362.2594	0.2053
362.4678	0.2069
362.6762	0.2076
362.8846	0.217
363.093	0.2146
363.3014	0.2147
363.5097	0.208
363.718	0.2186
363.9264	0.2155
364.1347	0.2175
364.343	0.2148
364.5513	0.2145
364.7595	0.2209
364.9678	0.2236
365.176	0.217
365.3842	0.2261
365.5925	0.2248
365.8007	0.224
366.0089	0.2323
366.217	0.2233
366.4252	0.2217
366.6333	0.2266
366.8415	0.2326
367.0496	0.2245
367.2577	0.2274
367.4658	0.2236
367.6739	0.2242
367.882	0.2324
368.09	0.2185
368.2981	0.2368
368.5061	0.242
368.7141	0.2276
368.9221	0.2384
369.1301	0.2354
369.3381	0.236
369.5461	0.2344
369.754	0.2375
369.962	0.2335
370.1699	0.2427
370.3778	0.2451
370.5857	0.2351
370.7936	0.2483
371.0015	0.2356
371.2093	0.2377
371.4172	0.2411
371.625	0.2445
371.8328	0.2381
372.0406	0.2485
372.2484	0.2492
372.4562	0.2443
372.664	0.2512
372.8717	0.2432
373.0795	0.2545
373.2872	0.258
373.4949	0.2476
373.7026	0.2505
373.9103	0.242
374.118	0.2516
374.3256	0.2535
374.5333	0.25
374.7409	0.2478
374.9485	0.2595
375.1561	0.2578
375.3637	0.2498
375.5713	0.257
375.7789	0.2564
375.9864	0.2577
376.194	0.2602
376.4015	0.2597
376.609	0.2647
376.8165	0.2639
377.024	0.2615
377.2315	0.2691
377.4389	0.2637
377.6464	0.2677
377.8538	0.2681
378.0612	0.2604
378.2686	0.2635
378.476	0.2777
378.6834	0.2663
378.8908	0.2671
379.0981	0.2723
379.3055	0.2742
379.5128	0.2667
379.7201	0.2804
379.9274	0.273
380.1347	0.2656
380.342	0.2741
380.5492	0.2665
380.7565	0.2687
380.9637	0.2732
381.1709	0.2728
381.3781	0.2795
381.5853	0.2761
381.7925	0.2767
381.9997	0.2748
382.2068	0.277
382.4139	0.276
382.6211	0.2835
382.8282	0.2832
383.0353	0.2916
383.2424	0.269
383.4494	0.2708
383.6565	0.2849
383.8635	0.2755
384.0706	0.2872
384.2776	0.2805
384.4846	0.2783
384.6916	0.2846
384.8986	0.2813
385.1055	0.286
385.3125	0.2825
385.5194	0.2891
385.7263	0.2831
385.9333	0.2834
386.1402	0.2816
386.347	0.2925
386.5539	0.2863
386.7608	0.2705
386.9676	0.2809
387.1744	0.2878
387.3813	0.2756
387.5881	0.2776
387.7948	0.2825
388.0016	0.2869
388.2084	0.273
388.4151	0.2829
388.6219	0.2716
388.8286	0.2835
389.0353	0.2832
389.242	0.2758
389.4487	0.2781
389.6553	0.2701
389.862	0.2698
390.0686	0.2827
390.2753	0.2787
390.4819	0.2803
390.6885	0.2777
390.8951	0.2743
391.1016	0.2797
391.3082	0.2737
391.5147	0.2636
391.7213	0.2669
391.9278	0.2653
392.1343	0.2668
392.3408	0.2689
392.5473	0.2619
392.7537	0.2526
392.9602	0.2631
393.1666	0.2604
393.373	0.2667
393.5794	0.2564
393.7858	0.2599
393.9922	0.2556
394.1986	0.2575
394.4049	0.2588
394.6113	0.2563
394.8176	0.2479
395.0239	0.256
395.2302	0.2474
395.4365	0.262
395.6428	0.2531
395.8491	0.2506
396.0553	0.2438
396.2615	0.2519
396.4678	0.2548
396.674	0.2416
396.8802	0.2381
397.0863	0.2438
397.2925	0.2467
397.4987	0.2439
397.7048	0.2397
397.9109	0.2374
398.117	0.2413
398.3231	0.2441
398.5292	0.2322
398.7353	0.2363
398.9413	0.2426
399.1474	0.2392
399.3534	0.2326
399.5594	0.249
399.7654	0.2307
399.9714	0.2443
400.1774	0.2402
400.3833	0.2405
400.5893	0.2364
400.7952	0.2499
401.0011	0.2386
401.207	0.2433
401.4129	0.2386
401.6188	0.2377
401.8247	0.2451
402.0305	0.2408
402.2364	0.2365
402.4422	0.2365
402.648	0.2383
402.8538	0.2384
403.0596	0.2354
403.2654	0.2349
403.4711	0.2326
403.6768	0.2332
403.8826	0.2375
404.0883	0.2424
404.294	0.2379
404.4997	0.233
404.7054	0.2453
404.911	0.2327
405.1167	0.2468
405.3223	0.2452
405.5279	0.2351
405.7335	0.2358
405.9391	0.2351
406.1447	0.2435
406.3502	0.2321
406.5558	0.2322
406.7613	0.2372
406.9668	0.2287
407.1724	0.2367
407.3778	0.2423
407.5833	0.2329
407.7888	0.2415
407.9942	0.2297
408.1997	0.2452
408.4051	0.231
408.6105	0.2335
408.8159	0.2284
409.0213	0.2407
409.2267	0.2434
409.432	0.2369
409.6374	0.2399
409.8427	0.2451
410.048	0.2345
410.2533	0.2326
410.4586	0.2293
410.6639	0.2452
410.8691	0.2331
411.0744	0.2278
411.2796	0.2352
411.4848	0.2311
411.69	0.2276
411.8952	0.2365
412.1004	0.2344
412.3056	0.2256
412.5107	0.2315
412.7158	0.2395
412.921	0.2327
413.1261	0.2304
413.3312	0.2397
413.5362	0.2381
413.7413	0.24
413.9464	0.2275
414.1514	0.2295
414.3564	0.232
414.5614	0.231
414.7664	0.2328
414.9714	0.2344
415.1764	0.2312
415.3813	0.2229
415.5863	0.2364
415.7912	0.2316
415.9961	0.2282
416.201	0.2385
416.4059	0.2302
416.6108	0.2244
416.8156	0.2259
417.0205	0.2311
417.2253	0.2213
417.4301	0.2357
417.6349	0.2287
417.8397	0.2193
418.0445	0.2221
418.2492	0.2182
418.454	0.2384
418.6587	0.2196
418.8634	0.2249
419.0681	0.2238
419.2728	0.2221
419.4775	0.2407
419.6822	0.2149
419.8868	0.2197
420.0915	0.2217
420.2961	0.2044
420.5007	0.2215
420.7053	0.2134
420.9099	0.2264
421.1144	0.219
421.319	0.2121
421.5235	0.2054
421.728	0.2246
421.9325	0.2215
422.137	0.2169
422.3415	0.2182
422.546	0.2035
422.7504	0.2137
422.9549	0.216
423.1593	0.2029
423.3637	0.2107
423.5681	0.2123
423.7725	0.2129
423.9769	0.2035
424.1812	0.2087
424.3856	0.2082
424.5899	0.2081
424.7942	0.2055
424.9985	0.2021
425.2028	0.207
425.4071	0.2043
425.6113	0.2063
425.8156	0.1954
426.0198	0.2037
426.224	0.2
426.4282	0.1929
426.6324	0.1908
426.8366	0.1896
427.0407	0.1875
427.2449	0.1814
427.449	0.1985
427.6531	0.1983
427.8572	0.1919
428.0613	0.2026
428.2654	0.1991
428.4694	0.1749
428.6735	0.1842
428.8775	0.1859
429.0815	0.1799
429.2855	0.1695
429.4895	0.1811
429.6935	0.179
429.8975	0.1771
430.1014	0.1828
430.3053	0.1865
430.5093	0.1744
430.7132	0.1713
430.9171	0.1701
431.1209	0.1707
431.3248	0.1644
431.5286	0.1583
431.7325	0.1725
431.9363	0.1667
432.1401	0.1684
432.3439	0.165
432.5477	0.1552
432.7514	0.1529
432.9552	0.1525
433.1589	0.1576
433.3627	0.1593
433.5664	0.1393
433.7701	0.1516
433.9737	0.1589
434.1774	0.1514
434.3811	0.1485
434.5847	0.1423
434.7883	0.1479
434.9919	0.1327
435.1955	0.1436
435.3991	0.1416
435.6027	0.1285
435.8062	0.1489
436.0098	0.1335
436.2133	0.1292
436.4168	0.1329
436.6203	0.1293
436.8238	0.1305
437.0272	0.1302
437.2307	0.1167
437.4341	0.1275
437.6375	0.1266
437.841	0.1142
438.0443	0.1235
438.2477	0.1169
438.4511	0.1038
438.6545	0.126
438.8578	0.12
439.0611	0.1154
439.2644	0.1166
439.4677	0.1108
439.671	0.1014
439.8743	0.1153
440.0775	0.1101
440.2808	0.101
440.484	0.1095
440.6872	0.1015
440.8904	0.0937
441.0936	0.1009
441.2967	0.0848
441.4999	0.0932
441.703	0.0961
441.9062	0.0919
442.1093	0.1034
442.3124	0.0851
442.5155	0.095
442.7185	0.0849
442.9216	0.0867
443.1246	0.0843
443.3276	0.0833
443.5307	0.077
443.7337	0.0874
443.9366	0.0795
444.1396	0.072
444.3426	0.0752
444.5455	0.0762
444.7484	0.076
444.9513	0.072
445.1542	0.0666
445.3571	0.0726
445.56	0.0608
445.7628	0.0652
445.9657	0.0754
446.1685	0.0692
446.3713	0.0682
446.5741	0.0696
446.7769	0.0677
446.9797	0.067
447.1824	0.0629
447.3852	0.0534
447.5879	0.0591
447.7906	0.0559
447.9933	0.0571
448.196	0.0517
448.3986	0.0545
448.6013	0.0466
448.8039	0.0563
449.0066	0.0588
449.2092	0.0553
449.4118	0.0489
449.6143	0.0498
449.8169	0.0508
450.0195	0.0399
450.222	0.0489
450.4245	0.0504
450.627	0.0458
450.8295	0.0496
451.032	0.0441
451.2345	0.0404
451.4369	0.0465
451.6394	0.0421
451.8418	0.034
452.0442	0.0417
452.2466	0.0385
452.449	0.0439
452.6513	0.0374
452.8537	0.0331
453.056	0.0386
453.2583	0.0336
453.4607	0.0368
453.663	0.039
453.8652	0.0308
454.0675	0.0353
454.2697	0.03
454.472	0.0245
454.6742	0.0299
454.8764	0.0426
455.0786	0.0263
455.2808	0.0332
455.4829	0.0284
455.6851	0.028
455.8872	0.0185
456.0893	0.0257
456.2915	0.0192
456.4935	0.0299
456.6956	0.0286
456.8977	0.0299
457.0997	0.0341
457.3018	0.0241
457.5038	0.0353
457.7058	0.0322
457.9078	0.0249
458.1098	0.033
458.3117	0.0285
458.5137	0.0162
458.7156	0.0251
458.9175	0.0277
459.1194	0.0186
459.3213	0.0283
459.5232	0.0199
459.725	0.0271
459.9269	0.0215
460.1287	0.0227
460.3305	0.0262
460.5323	0.0146
460.7341	0.0234
460.9359	0.0101
461.1376	0.0156
461.3394	0.0154
461.5411	0.0192
461.7428	0.0262
461.9445	0.0095
462.1462	0.0144
462.3479	0.0093
462.5495	0.0133
462.7512	0.0224
462.9528	0.0186
463.1544	0.0179
463.356	0.0119
463.5576	0.0239
463.7592	0.0145
463.9607	0.0127
464.1623	0.0161
464.3638	0.0119
464.5653	0.0167
464.7668	0.0209
464.9683	0.0124
465.1697	0.0148
465.3712	0.0112
465.5726	0.0117
465.7741	0.0155
465.9755	0.011
466.1769	0.0181
466.3782	0.0161
466.5796	0.0156
466.7809	0.0141
466.9823	0.0186
467.1836	0.0136
467.3849	0.004
467.5862	-0.0008
467.7875	0.0133
467.9887	0.0121
468.19	0.0168
468.3912	0.0164
468.5924	0.0066
468.7936	0.0155
468.9948	-0.0024
469.196	0.0012
469.3972	0.0046
469.5983	0.0106
469.7994	0.0088
470.0006	0.012
470.2017	0.0028
470.4027	0.0132
470.6038	0.0056
470.8049	0.0061
471.0059	0.0158
471.2069	0.0048
471.408	0.0082
471.6089	0.0052
471.8099	0.0096
472.0109	0.0133
472.2119	0.0112
472.4128	0.0016
472.6137	0.0146
472.8146	0.0033
473.0155	0.013
473.2164	0.0076
473.4173	-0.001
473.6181	0.006
473.819	0.005
474.0198	0.0007
474.2206	-0.0062
474.4214	0.0127
474.6222	-0.0082
474.8229	0.0081
475.0237	0.0051
475.2244	0.0104
475.4251	0.0016
475.6258	0.0051
475.8265	0.0076
476.0272	0.0022
476.2278	0.0066
476.4285	-0.0027
476.6291	0.012
476.8297	0.0066
477.0303	-0.0023
477.2309	0.0064
477.4315	0.0111
477.632	0.0065
477.8326	0.0133
478.0331	0.0096
478.2336	0.0074
478.4341	0.0059
478.6346	-0.0036
478.8351	0.002
479.0355	0.007
479.236	0.0105
479.4364	0.0032
479.6368	0.0082
479.8372	0.0129
480.0376	0.0044
480.2379	0.0045
480.4383	0.0147
480.6386	0.0022
480.8389	0.0032
481.0392	-0.002
481.2395	0.0107
481.4398	0.0085
481.6401	0.0049
481.8403	0.0025
482.0405	0.0038
482.2408	0.0059
482.441	0.0061
482.6411	0.0114
482.8413	-0.0008
483.0415	0.0076
483.2416	0.0036
483.4417	-0.0015
483.6419	-0.0035
483.8419	-0.0028
484.042	0.0044
484.2421	0.002
484.4422	0.0039
484.6422	0.0029
484.8422	0.0042
485.0422	0.0043
485.2422	0.0042
485.4422	0.0041
485.6422	0.006
485.8421	0.0027
486.042	0.0106
486.242	0.0035
486.4419	0.009
486.6417	0.0032
486.8416	0.0059
487.0415	0.0031
487.2413	0.0045
487.4411	0.0052
487.641	0.0009
487.8408	0.002
488.0405	0.0049
488.2403	-0.0018
488.4401	-0.0014
488.6398	-0.0018
488.8395	0.0041
489.0392	0.0032
489.2389	0.0075
489.4386	-0.0046
489.6383	0.0023
489.8379	0.0012
490.0376	0.0074
490.2372	-0.0035
490.4368	-0.011
490.6364	-0.0096
490.836	-0.0079
491.0355	-0.0013
491.2351	-0.0027
491.4346	-0.0036
491.6341	-0.003
491.8336	0.0034
492.0331	-0.007
492.2326	0.006
492.432	0.0087
492.6315	0.0055
492.8309	0.0034
493.0303	0.001
493.2297	-0.0004
493.4291	-0.0055
493.6284	0.0068
493.8278	-0.0034
494.0271	0
494.2264	0.004
494.4257	0.0036
494.625	-0.0032
494.8243	-0.0058
495.0236	0.0059
495.2228	0.0012
495.422	-0.0033
495.6213	0.0041
495.8205	0.009
496.0196	0.0005
496.2188	-0.0067
496.418	-0.0045
496.6171	-0.0036
496.8162	0.0018
497.0153	-0.0023
497.2144	-0.0048
497.4135	0.0008
497.6126	-0.0051
497.8116	0.0012
498.0107	-0.0021
498.2097	-0.0016
498.4087	0.0005
498.6077	-0.0089
498.8067	0.0019
499.0056	0.0013
499.2046	0.0043
499.4035	-0.0006
499.6024	-0.0093
499.8013	0.0018
500.0002	0.0016
500.199	0.0025
500.3979	0.001
500.5967	-0.005
500.7956	0.003
500.9944	0.0037
501.1932	0.0048
501.3919	0.0082
501.5907	-0.0001
501.7895	-0.0063
501.9882	-0.0025
502.1869	0
502.3856	0.0071
502.5843	0.0014
502.783	-0.0079
502.9816	0.0017
503.1803	-0.0027
503.3789	0.0031
503.5775	-0.0084
503.7761	-0.0026
503.9747	-0.0036
504.1732	-0.0115
504.3718	0.008
504.5703	-0.0019
504.7689	-0.0052
504.9674	-0.0027
505.1658	-0.0023
505.3643	-0.0015
505.5628	0.0068
505.7612	0.0069
505.9597	-0.006
506.1581	0.0017
506.3565	-0.0039
506.5549	-0.0002
506.7532	-0.0072
506.9516	-0.0001
507.1499	0.0007
507.3482	-0.0013
507.5465	-0
507.7448	-0.0081
507.9431	0.001
508.1414	-0.0113
508.3396	-0.0018
508.5379	-0.0055
508.7361	0.0045
508.9343	0.0033
509.1325	0.0052
509.3306	-0.0061
509.5288	-0.0068
509.7269	0.0044
509.9251	-0.0021
510.1232	0.0019
510.3213	-0.0019
510.5193	0.0018
510.7174	-0.0069
510.9154	0.0027
511.1135	-0.01
511.3115	-0.0036
511.5095	-0.0073
511.7075	-0.0008
511.9055	0.0017
512.1034	-0.004
512.3014	-0.0121
512.4993	0.0005
512.6972	-0.0115
512.8951	-0.0013
513.093	-0.0093
513.2908	0.001
513.4887	-0.0002
513.6865	-0.0092
513.8844	0.0017
514.0822	0.0004
514.2799	-0.0196
514.4777	-0.0115
514.6755	-0.0108
514.8732	-0.008
515.0709	-0.0098
515.2687	-0.0088
515.4664	0.0017
515.664	0.0048
515.8617	0.004
516.0594	0.0005
516.257	0.0007
516.4546	0.0046
516.6522	-0.0032
516.8498	-0
517.0474	-0.0021
517.2449	-0.0065
517.4425	-0.0142
517.64	-0.0013
517.8375	-0.0074
518.035	-0.0126
518.2325	-0.0027
518.43	-0.008
518.6274	-0.0084
518.8249	-0.0108
519.0223	0.0086
519.2197	-0.0136
519.4171	-0.011
519.6145	0.0005
519.8118	-0.0138
520.0092	-0.0046
520.2065	-0.0005
520.4038	-0.0115
520.6011	-0.0017
520.7984	0.0045
520.9956	-0.0097
521.1929	-0.0055
521.3901	-0.004
521.5874	0.0037
521.7846	-0.0127
521.9818	-0.0017
522.1789	-0.0125
522.3761	0.0126
522.5732	-0.0072
522.7704	-0.0132
522.9675	-0.0131
523.1646	-0.0107
523.3617	0.0035
523.5587	-0.0034
523.7558	-0.011
523.9528	-0.0047
524.1498	-0.0074
524.3468	0.0024
524.5438	-0.0085
524.7408	-0.0102
524.9378	-0.0031
525.1347	-0.0039
525.3316	-0.0102
525.5285	-0.0001
525.7254	0.003
525.9223	0.0011
526.1192	-0.0048
526.316	-0.0039
526.5129	-0.0059
526.7097	-0.0156
526.9065	-0.0012
527.1033	-0.0031
527.3	-0.009
527.4968	0.0002
527.6935	-0.0187
527.8903	0.0006
528.087	0.0051
528.2837	0.0063
528.4804	-0.0131
528.677	-0.0064
528.8737	-0.0001
529.0703	-0.0039
529.2669	0.0019
529.4635	-0.011
529.6601	-0.0085
529.8567	-0.0157
530.0532	-0.0007
530.2498	-0.0117
530.4463	-0.0138
530.6428	-0.0085
530.8393	0.0092
531.0358	-0.0101
531.2322	-0.0053
531.4287	-0.0046
531.6251	-0.014
531.8215	-0.0076
532.0179	-0.0073
532.2143	-0.0077
532.4107	-0.003
532.607	-0.0097
532.8034	-0.0011
532.9997	-0.0014
533.196	-0.0049
533.3923	0.0006
533.5886	0.0031
533.7848	-0.0039
533.9811	-0.0048
534.1773	-0.0025
534.3735	0.0056
534.5697	-0.0037
534.7659	-0.002
534.9621	0.0017
535.1582	-0.0072
535.3544	-0.0017
535.5505	-0.0055
535.7466	-0.002
535.9427	-0.0014
536.1387	-0.006
536.3348	-0.0068
536.5308	-0.0065
536.7269	-0.0046
536.9229	0.0026
537.1189	0.0094
537.3148	-0.0059
537.5108	0.0053
537.7068	0.0086
537.9027	-0.014
538.0986	0.0027
538.2945	-0.0081
538.4904	-0.0039
538.6863	-0.0046
538.8821	0.0063
539.078	-0.0038
539.2738	0.0009
539.4696	-0.0105
539.6654	-0.0032
539.8611	-0.0009
540.0569	-0.0039
540.2526	-0.0024
540.4484	-0.0057
540.6441	-0.0014
540.8398	0.004
541.0355	-0.0034
541.2311	-0.0036
541.4268	0.0052
541.6224	0.0111
541.818	0.0022
542.0136	0.0064
542.2092	0.0002
542.4048	0.0023
542.6003	-0.0019
542.7959	-0.0001
542.9914	-0.0025
543.1869	-0.0097
543.3824	0.0029
543.5779	0.0042
543.7734	0.0092
543.9688	-0.0004
544.1642	-0.0097
544.3596	0.0004
544.555	0.0028
544.7504	-0.0024
544.9458	-0.0036
545.1411	0.0001
545.3365	0.0021
545.5318	0.0006
545.7271	0.003
545.9224	-0.0053
546.1177	0.0002
546.3129	-0.0031
546.5081	-0.005
546.7034	-0.0011
546.8986	-0.0027
547.0938	0.0119
547.289	0.0079
547.4841	0.0019
547.6793	-0.0023
547.8744	0.0058
548.0695	-0.0007
548.2646	0.0064
548.4597	0.0059
548.6548	0.0113
548.8498	0.0099
549.0448	-0.0083
549.2399	0.0037
549.4349	0.0028
549.6298	0.0039
549.8248	0.0002
550.0198	0.0039
550.2147	0.0045
550.4096	-0.0133
550.6045	-0.0042
550.7994	0.0092
550.9943	0.0087
551.1892	-0.0239
551.384	0.0178
551.5788	0.0031
551.7737	0.0016
551.9685	0.0073
552.1632	0.0006
552.358	0.0071
552.5528	0.0021
552.7475	0.0002
552.9422	-0.0042
553.1369	0.0033
553.3316	0.0006
553.5263	0.0094
553.7209	-0.0015
553.9156	-0.0037
554.1102	-0.0007
554.3048	-0.0069
554.4994	0.0041
554.694	0.0036
554.8885	0.0062
555.0831	0.0101
555.2776	0.0046
555.4721	0.0021
555.6666	-0.002
555.8611	-0.0003
556.0555	-0.0003
556.25	0.0037
556.4444	-0.0068
556.6388	-0.0004
556.8332	0.0053
557.0276	-0.0023
557.222	-0.0099
557.4163	-0.0034
557.6107	-0.0047
557.805	-0.0031
557.9993	-0.001
558.1936	-0.0056
558.3879	0.0034
558.5821	-0.0066
558.7764	-0.0081
558.9706	-0.005
559.1648	0.0039
559.359	-0.0099
559.5532	-0.0028
559.7473	-0.006
559.9415	0.0017
560.1356	0.0041
560.3297	-0.0012
560.5238	0.006
560.7179	-0.0065
560.9119	-0.0058
561.106	-0.0094
561.3	0.0023
561.494	-0.0115
561.688	-0.0063
561.882	-0.0052
562.076	0.0013
562.2699	0.0063
562.4639	0.01
562.6578	0.0064
562.8517	0.0029
563.0456	0.0067
563.2395	0.0051
563.4333	-0.0009
563.6272	0.0005
563.821	0.0019
564.0148	-0.0054
564.2086	0.014
564.4024	0.0068
564.5961	0.0011
564.7899	0.0108
564.9836	-0.0077
565.1773	0.0082
565.371	-0.0017
565.5647	0.0067
565.7584	0.0063
565.952	0.0026
566.1456	0.0041
566.3393	0.0083
566.5329	0.0079
566.7264	0.0058
566.92	0.0023
567.1136	-0.0004
567.3071	-0.0059
567.5006	-0.0012
567.6941	0.0009
567.8876	0.0012
568.0811	0.0216
568.2745	-0.0015
568.468	0.001
568.6614	0.0128
568.8548	0.0147
569.0482	0.0091
569.2416	0.0037
569.4349	0.0064
569.6283	0.0053
569.8216	0.0064
570.0149	0.003
570.2082	0.008
570.4015	0.0052
570.5947	0.0079
570.788	0.0077
570.9812	0.0034
571.1744	0.0078
571.3676	0.0072
571.5608	0.006
571.754	0.0162
571.9471	0.0114
572.1402	0.0094
572.3333	0.0121
572.5264	0.0093
572.7195	0.0056
572.9126	-0.0004
573.1057	0.0066
573.2987	0.0068
573.4917	0.0092
573.6847	0.0091
573.8777	0.0122
574.0707	0.0096
574.2636	0.0097
574.4566	0.0082
574.6495	0.004
574.8424	0.0104
575.0353	0.0122
575.2281	0.0097
575.421	0.004
575.6138	0.0025
575.8067	0.0085
575.9995	0.0102
576.1923	0.0084
576.385	0.0101
576.5778	0.0145
576.7706	0.0046
576.9633	0.0103
577.156	-0.0008
577.3487	0.0085
577.5414	0.0054
577.734	0.0047
577.9267	0.0091
578.1193	0.0099
578.3119	0.0049
578.5045	0.0055
578.6971	0.0038
578.8897	0.0004
579.0822	0.0155
579.2747	0.0031
579.4673	0.0066
579.6598	0.0103
579.8522	0.0065
580.0447	0.0065
580.2372	0.0119
580.4296	0.0109
580.622	0.0083
580.8144	0.0065
581.0068	0.009
581.1992	0.0052
581.3915	0
581.5839	0.0065
581.7762	0.0066
581.9685	0.0079
582.1608	0.0081
582.353	0.0055
582.5453	0.0062
582.7375	0.0087
582.9298	0.0023
583.122	0.0044
583.3142	0.0109
583.5063	0.0037
583.6985	0.0082
583.8906	0.0019
584.0827	0.006
584.2749	0.0045
584.4669	0.0085
584.659	0.0124
584.8511	0.0151
585.0431	0.0095
585.2352	0.0101
585.4272	0.0079
585.6192	0.0066
585.8111	0.0047
586.0031	0.002
586.195	0.0058
586.387	0.0061
586.5789	0.0071
586.7708	0.007
586.9627	0.0057
587.1545	0.007
587.3464	0.0097
587.5382	0.0032
587.73	0.0112
587.9218	0.0001
588.1136	0.0077
588.3053	0.0078
588.4971	0.003
588.6888	0.0058
588.8805	0.0063
589.0722	0.0144
589.2639	0.0073
589.4556	0.0069
589.6472	0.011
589.8389	0.0063
590.0305	0.0032
590.2221	0.005
590.4137	0.0072
590.6052	-0.0025
590.7968	0.0066
590.9883	0.0069
591.1798	0.0088
591.3713	0.0031
591.5628	0.0071
591.7543	0.0104
591.9458	0.0085
592.1372	0.0095
592.3286	0.0087
592.52	0.0074
592.7114	0.0085
592.9028	0.011
593.0941	0.0044
593.2855	0.01
593.4768	0.0156
593.6681	0.0101
593.8594	0.0093
594.0506	0.004
594.2419	0.0111
594.4331	0.006
594.6244	0.0006
594.8156	0.0047
595.0067	0.0048
595.1979	-0.0013
595.3891	0.0061
595.5802	0.0124
595.7713	0.0067
595.9624	0.0143
596.1535	0.0084
596.3446	-0.0002
596.5357	0.008
596.7267	0.0112
596.9177	0.0058
597.1087	-0.0008
597.2997	0.0109
597.4907	0.0059
597.6817	0.0095
597.8726	0.0146
598.0635	0.0007
598.2544	0.0106
598.4453	0.0058
598.6362	0.0067
598.827	0.0046
599.0179	0.0091
599.2087	0.0071
599.3995	0.011
599.5903	0.0112
599.7811	0.0165
599.9718	0.0068
600.1626	0.0015
600.3533	0.0068
600.544	0.0076
600.7347	0.0051
600.9254	0.0116
601.116	0.009
601.3067	0.004
601.4973	0.0145
601.6879	0.0145
601.8785	0.0111
602.0691	0.0044
602.2596	0.0087
602.4502	0.0094
602.6407	0.0125
602.8312	0.0079
603.0217	0.0033
603.2122	0.0036
603.4027	0.0066
603.5931	-0.0002
603.7835	0.0061
603.9739	0.0126
604.1643	0.0066
604.3547	0.0122
604.5451	0.0059
604.7354	-0.0019
604.9257	0.0008
605.116	0.0046
605.3063	0.0062
605.4966	0.0057
605.6869	0.0153
605.8771	0.0086
606.0673	0.0107
606.2575	0.0019
606.4477	0.0075
606.6379	0.0033
606.8281	0.0054
607.0182	0.0049
607.2083	0.0063
607.3985	0.0091
607.5885	0.0105
607.7786	0.0045
607.9687	0.0088
608.1587	0.016
608.3488	0.0059
608.5388	0.0063
608.7288	-0.0013
608.9187	-0.0055
609.1087	0.0095
609.2986	0.0127
609.4886	0.0071
609.6785	0.0079
609.8684	0.006
610.0582	-0.0018
610.2481	0.0021
610.4379	0.0056
610.6278	0.005
610.8176	0.0054
611.0074	0.0116
611.1971	0.0102
611.3869	0.005
611.5766	0.0046
611.7664	0.013
611.9561	0.0117
612.1458	0.0098
612.3354	0.006
612.5251	0.0063
612.7147	0.0054
612.9044	0.0025
613.094	0.0092
613.2836	0.001
613.4731	0.0107
613.6627	0.0098
613.8522	0.0135
614.0417	0.0079
614.2313	0.0066
614.4207	0.0118
614.6102	0.0082
614.7997	0.0128
614.9891	0.0057
615.1785	0.0016
615.3679	0.0043
615.5573	0.0085
615.7467	0.0084
615.9361	0.0089
616.1254	0.0182
616.3147	0.0034
616.504	0.0083
616.6933	0.0102
616.8826	0.0006
617.0718	0.0037
617.2611	0.0027
617.4503	0.0052
617.6395	0.0016
617.8287	0.012
618.0179	0.0036
618.207	0.0082
618.3961	-0.0021
618.5853	0.0069
618.7744	0.0119
618.9634	0.0145
619.1525	0.0049
619.3416	0.005
619.5306	0.0118
619.7196	0.0096
619.9086	0.0059
620.0976	-0.0005
620.2866	0.01
620.4755	-0.0033
620.6645	0.0076
620.8534	0.0065
621.0423	-0.0004
621.2312	0.0019
621.42	0.0017
621.6089	-0.0018
621.7977	0.0076
621.9865	-0.0006
622.1753	0.0033
622.3641	0.0121
622.5529	0.002
622.7416	0.0054
622.9303	0.0016
623.1191	0.0055
623.3078	0.0113
623.4964	-0.0016
623.6851	0.0074
623.8737	0.0013
624.0624	-0.0059
624.251	0.0082
624.4396	0.001
624.6282	0.0095
624.8167	0.0063
625.0053	0.0133
625.1938	0.0059
625.3823	0.0108
625.5708	0.0074
625.7593	0.0028
625.9477	0.0149
626.1362	0.0045
626.3246	0.0115
626.513	0.0084
626.7014	-0.0003
626.8898	0.0182
627.0781	0.0114
627.2665	0.011
627.4548	-0.0036
627.6431	0.0112
627.8314	0.0105
628.0197	0.01
628.2079	0.0009
628.3962	0.009
628.5844	0.0081
628.7726	0.0002
628.9608	0.0071
629.1489	-0.0044
629.3371	-0.003
629.5252	0.0041
629.7134	0.0076
629.9015	0.006
630.0895	-0.0131
630.2776	0.0116
630.4657	0.0085
630.6537	0.0178
630.8417	-0.0111
631.0297	0.005
631.2177	0.0053
631.4057	0.0081
631.5936	0.0015
631.7815	0.0095
631.9695	0.0255
632.1574	0.0106
632.3452	0.0109
632.5331	0.0091
632.7209	0.0158
632.9088	-0.0047
633.0966	0.0262
633.2844	0.0171
633.4722	0.0172
633.6599	0.0136
633.8477	0.0034
634.0354	-0.0003
634.2231	0.0015
634.4108	0.0095
634.5985	0.011
634.7861	0.0034
634.9738	-0.0022
635.1614	-0.0102
635.349	-0.0049
635.5366	-0.0059
635.7242	0.0082
635.9117	0.0123
636.0993	0.0065
636.2868	0.0077
636.4743	0.0122
636.6618	-0.0083
636.8492	0.0041
637.0367	0.0073
637.2241	0.0084
637.4115	0.0324
637.5989	0.0054
637.7863	0.0226
637.9737	0.0087
638.161	-0.004
638.3484	-0.0134
638.5357	0.0003
638.723	0.0209
638.9103	-0.0154
639.0975	0.0036
639.2848	0.0092
639.472	0.0086
639.6592	-0.0062
639.8464	0.0065
640.0336	0.0129
640.2208	-0.0012
640.4079	-0.0076
640.595	-0.0063
640.7821	0.0067
640.9692	-0.0021
641.1563	0.004
641.3434	0.0057
641.5304	0.0024
641.7174	0.0099
641.9044	-0.0009
642.0914	0.0193
642.2784	0.0132
642.4653	-0.0007
642.6523	0.0055
642.8392	0.0011
643.0261	0.0017
643.213	-0.0027
643.3999	0.0171
643.5867	-0.0007
643.7735	-0.0157
643.9604	0.0313
644.1472	0.0159
644.3339	-0.0092
644.5207	0.0054
644.7075	-0.0164
644.8942	0.009
645.0809	-0.004
645.2676	-0.0056
645.4543	0.0097
645.6409	0.0227
645.8276	0.0264
646.0142	-0.0017
646.2008	0.0063
646.3874	0.0013
646.574	-0.0149
646.7605	-0.0112
646.9471	0.0095
647.1336	-0.0263
647.3201	0.0152
647.5066	0.0048
647.6931	-0.0031
647.8795	-0.0023
648.0659	-0.0139
648.2524	0.0122
648.4388	0.0082
648.6252	0.0136
648.8115	0.0011
648.9979	0.0081
649.1842	-0.0038
649.3705	0.0185
649.5568	-0.012
649.7431	-0.01
649.9294	0.0025
650.1156	-0.0182
650.3018	0.01
650.488	-0.0013
650.6742	0.0254
650.8604	0.0042
651.0466	-0.009
651.2327	0.0051
651.4188	-0.0074
651.6049	0.0069
651.791	0.0103
651.9771	0.0097
652.1632	-0.0012
652.3492	-0.0235
652.5352	0.0151
652.7212	0.0004
652.9072	-0.0091
653.0932	-0.0105
653.2791	-0.0004
653.465	-0.0054
653.651	0.0045
653.8369	0.0153
654.0227	-0.0064
654.2086	0.0077
654.3944	0.0142
654.5803	-0.0046
654.7661	0.0055
654.9519	-0.0002
655.1377	0
655.3234	0
655.5092	0
655.6949	0
655.8806	0
656.0663	0
656.2519	0
656.4376	0
656.6232	0
656.8088	0
656.9945	0
657.18	0
657.3656	0
657.5511	0
657.7367	0
657.9222	0
658.1077	0
658.2932	0
658.4786	0
658.6641	0
658.8495	0
659.0349	0
659.2203	0
659.4057	0.0062
659.591	0.3009
659.7764	0.0355
659.9617	0.0153
660.147	0.0111
660.3323	0.0101
660.5176	0.0024
660.7028	-0.0105
660.888	-0.0068
661.0733	0.0184
661.2585	0.0007
661.4436	0.0234
661.6288	0.0148
661.8139	0.0005
661.9991	-0.0193
662.1842	-0.0014
662.3693	0.0035
662.5544	0.0116
662.7394	0.0242
662.9245	-0.0041
663.1095	-0.0219
663.2945	-0.0139
663.4795	-0.0003
663.6644	0.0015
663.8494	0.0065
664.0343	0.0053
664.2193	0.0047
664.4042	0.0025
664.589	0.0114
664.7739	-0.0071
664.9587	-0.0062
665.1436	-0.0078
665.3284	-0.0085
665.5132	-0.0279
665.698	0.0054
665.8827	0.0157
666.0675	-0.0134
666.2522	-0.0074
666.4369	-0.0135
666.6216	0.0155
666.8063	-0.0004
666.9909	0.0016
667.1756	-0.0108
667.3602	-0.0059
667.5448	-0.0078
667.7294	0.0061
667.9139	-0.0052
668.0985	-0.0094
668.283	-0.0181
668.4675	0.0226
668.652	0.0048
668.8365	0.009
669.0209	0.0003
669.2054	0.0235
669.3898	-0.0085
669.5742	0.0159
669.7586	0.0165
669.943	-0.0058
670.1273	0.019
670.3117	0.0167
670.496	-0.0042
670.6803	-0.0082
670.8646	-0.0181
671.0488	0.0211
671.2331	-0.0217
671.4173	-0.0092
671.6015	-0.0002
671.7857	0.0033
671.9699	0.027
672.1541	-0.0085
672.3382	0.0072
672.5223	-0.0027
672.7064	-0.0042
672.8905	0.0063
673.0746	-0.0016
673.2587	0.0246
673.4427	-0.0027
673.6267	0.0027
673.8107	0.0239
673.9947	0.0104
674.1787	0.0091
674.3626	-0.0044
674.5465	0.0281
674.7304	-0.003
674.9143	-0.0061
675.0982	0.0018
675.2821	0.0023
675.4659	-0.0013
675.6497	-0
675.8335	0.0109
676.0173	-0.0139
676.2011	0.0216
676.3849	0.0054
676.5686	0.0075
676.7523	0.0003
676.936	0.0095
677.1197	-0.0157
677.3034	0.0435
677.487	0.0007
677.6706	-0.0014
677.8542	-0.0052
678.0378	0.0009
678.2214	0.0069
678.405	0.0046
678.5885	0.0071
678.772	0.0142
678.9555	0.0082
679.139	0.0145
679.3225	0.0002
679.5059	-0.0085
679.6894	0.0061
679.8728	-0.0045
680.0562	-0.0043
680.2395	-0.0045
680.4229	0.0027
680.6062	0.0096
680.7896	-0.0121
680.9729	0.0011
681.1562	0.0063
681.3394	-0.0052
681.5227	0.0073
681.7059	0.0044
681.8891	-0.0155
682.0723	-0.0114
682.2555	0.0145
682.4387	0.0275
682.6218	-0.0156
682.805	0.0124
682.9881	0.0234
683.1712	0.0103
683.3542	0.0229
683.5373	-0.0092
683.7203	0.0044
683.9034	-0.0068
684.0864	0.0106
684.2694	0.0025
684.4523	-0.0055
684.6353	-0.005
684.8182	-0.0088
685.0011	0.0023
685.184	-0.0037
685.3669	0.0142
685.5498	-0.0159
685.7326	-0.0073
685.9154	-0.0071
686.0982	0.0224
686.281	0.0182
686.4638	0.005
686.6465	-0.0112
686.8293	-0.0174
687.012	0.009
687.1947	-0.0059
687.3774	0.0015
687.56	0.0041
687.7427	0.0058
687.9253	-0.0135
688.1079	0.0177
688.2905	-0.0069
688.4731	0.0145
688.6556	-0.0017
688.8382	-0.0191
689.0207	0.0208
689.2032	0.0219
689.3857	-0
689.5681	-0.0232
689.7506	0.0233
689.933	-0.0053
690.1154	0.036
690.2978	-0.0003
690.4802	0.0023
690.6626	-0.0092
690.8449	0.0138
691.0272	0.0063
691.2095	-0.014
691.3918	-0
691.5741	0.0171
691.7563	0.0148
691.9386	0.0231
692.1208	-0.0183
692.303	-0.0161
692.4852	0.0074
692.6673	0.003
692.8495	-0.0156
693.0316	0.0153
693.2137	0.0268
693.3958	0.0146
693.5778	0.0014
693.7599	-0.0206
693.9419	-0.0087
694.1239	0.016
694.3059	0.0312
694.4879	-0.0035
694.6699	0.01
694.8518	0.001
695.0337	0.0227
695.2157	0.0221
695.3975	0.0015
695.5794	-0.0222
695.7613	0.0206
695.9431	0.0039
696.1249	0.0104
696.3067	0.0007
696.4885	0.0219
696.6703	0.0079
696.852	0.0038
697.0337	0.0149
697.2154	-0.0049
697.3971	-0.005
697.5788	0.0004
697.7605	-0.0027
697.9421	-0.0037
698.1237	-0.0086
698.3053	-0.0126
698.4869	0.0218
698.6685	-0.0063
698.85	0.0273
699.0315	-0.0028
699.213	0.0133
699.3945	-0.0044
699.576	0.0254
699.7575	0.0144
699.9389	-0.0082
700.1203	-0.0001
700.3017	-0.0047
700.4831	0.0071
700.6645	0.0302
700.8458	-0.0221
701.0271	0.0175
701.2084	0.0074
701.3897	0.0003
701.571	-0.009
701.7523	-0.0011
701.9335	-0.0056
702.1147	0.03
702.2959	-0.0046
702.4771	-0.0063
702.6583	-0.0082
702.8394	-0.0394
703.0205	0.0233
703.2016	-0.0072
703.3827	0.0003
703.5638	0.0241
703.7449	0.0053
703.9259	0.0028
704.1069	-0.0455
704.2879	0.0122
704.4689	-0.0165
704.6499	0.0054
704.8308	0.0051
705.0117	-0.0021
705.1927	0.0374
705.3735	0.0009
705.5544	0.0122
705.7353	-0.0245
705.9161	-0.0144
706.0969	-0.0066
706.2777	-0.0016
706.4585	-0.0012
706.6393	0.0175
706.82	-0.0019
707.0007	-0.0052
707.1815	0.0061
707.3621	0.0304
707.5428	0.0125
707.7235	0.0079
707.9041	0.0128
708.0847	0.0054
708.2653	0.0218
708.4459	0.0071
708.6265	-0.0162
708.807	-0.0014
708.9875	0.0209
709.168	0.0074
709.3485	0.0086
709.529	0.0103
709.7095	-0.0045
709.8899	0.0062
710.0703	0.0112
710.2507	-0.0025
710.4311	-0.0337
710.6115	0.0215
710.7918	0.017
710.9721	0.0305
711.1524	-0.029
711.3327	-0.0348
711.513	-0.0028
711.6932	-0.0174
711.8735	0.0096
712.0537	-0.0025
712.2339	-0.0005
712.4141	0.0125
712.5942	-0.02
712.7744	0.0171
712.9545	0.0215
713.1346	0.0238
713.3147	0.0269
713.4947	-0.0123
713.6748	0.0037
713.8548	0.0085
714.0348	0.0193
714.2148	0.0115
714.3948	0.006
714.5748	-0.0075
714.7547	0.0105
714.9346	0.0389
715.1145	-0.007
715.2944	-0.0193
715.4743	-0.0001
715.6541	-0.0115
715.834	0.0295
716.0138	0.0052
716.1936	0.0156
716.3733	-0.0124
716.5531	-0.0128
716.7328	0.0179
716.9126	0.0481
717.0923	0.0186
717.2719	-0.0091
717.4516	-0.0167
717.6312	-0.0016
717.8109	0.0245
717.9905	0.0063
718.1701	-0.0063
718.3496	0.0091
718.5292	0.0033
718.7087	0.0113
718.8882	0.0292
719.0677	-0.0253
719.2472	0.0109
719.4267	0.0146
719.6061	-0.0314
719.7856	0.0164
719.965	0.0097
720.1443	-0.0116
720.3237	-0.0012
720.5031	0.0279
720.6824	-0.0117
720.8617	-0.0001
721.041	0.0085
721.2203	-0.0357
721.3995	-0.0008
721.5788	-0.0155
721.758	-0.0239
721.9372	0.0068
722.1164	-0.0239
722.2956	0.0115
722.4747	0.0056
722.6538	-0.004
722.8329	0.0021
723.012	0.0025
723.1911	-0.006
723.3702	0.0165
723.5492	0.0333
723.7282	-0.0124
723.9072	0.0137
724.0862	0.0035
724.2652	-0.0152
724.4441	-0.0025
724.623	-0.0086
724.8019	-0.0151
724.9808	0.0092
725.1597	-0.0018
725.3385	0.0013
725.5174	0.0047
725.6962	-0.0004
725.875	-0.0004
726.0538	-0.0073
726.2325	0.0221
726.4112	-0.0474
726.59	-0.0092
726.7687	-0.0111
726.9474	0.0236
727.126	0.008
727.3047	-0.0305
727.4833	-0.0094
727.6619	-0.0082
727.8405	-0.0132
728.0191	0.0244
728.1976	0.0024
728.3762	0.0116
728.5547	-0.0105
728.7332	0.0086
728.9116	-0.0071
729.0901	0.0114
729.2686	0.0034
729.447	-0.0141
729.6254	0.0012
729.8038	0.0066
729.9821	-0.0284
730.1605	0.016
730.3388	0.0071
730.5171	0.0147
730.6954	-0.0161
730.8737	0.0157
731.0519	-0.0088
731.2302	0.0117
731.4084	-0.0131
731.5866	0.0005
731.7648	-0.0081
731.9429	0.0023
732.1211	0.0132
732.2992	-0.0134
732.4773	0.0005
732.6554	-0.0051
732.8335	0.0082
733.0115	0.0263
733.1896	-0.0101
733.3676	0.0061
733.5456	-0.0023
733.7235	0.0004
733.9015	0.0083
734.0794	-0.0122
734.2574	-0.0262
734.4353	0.01
734.6131	-0.0023
734.791	-0.0149
734.9689	0.0017
735.1467	-0.0009
735.3245	0.0239
735.5023	0.0202
735.68	0.0005
735.8578	0.0016
736.0355	0.0162
736.2132	0.0167
736.3909	-0.0011
736.5686	-0.0011
736.7463	-0.0192
736.9239	0.0041
737.1015	0.0005
737.2791	0.0244
737.4567	0.0063
737.6343	0.0093
737.8118	-0.0008
737.9894	-0.0118
738.1669	-0.0067
738.3444	0.0163
738.5218	-0.0227
738.6993	0.0179
738.8767	-0.008
739.0541	0.0007
739.2315	-0.0123
739.4089	0.0321
739.5863	-0.001
739.7636	0.015
739.9409	-0.0019
740.1182	-0.0039
740.2955	0.044
740.4728	-0.0061
740.65	-0.001
740.8272	0.0054
741.0044	-0.0146
741.1816	0.0374
741.3588	-0.0283
741.5359	-0.0168
741.7131	0.0102
741.8902	-0.0005
742.0673	-0.0241
742.2444	0.0276
742.4214	0.0201
742.5985	-0.0236
742.7755	-0.0044
742.9525	0.0014
743.1295	-0.0288
743.3064	-0.013
743.4834	-0.0001
743.6603	0.0045
743.8372	-0.0546
744.0141	0.0479
744.191	-0.0224
744.3678	-0.0335
744.5446	0.0137
744.7215	0.003
744.8982	0.0149
745.075	0.044
745.2518	0.018
745.4285	0.0016
745.6052	0.0049
745.7819	0.0013
745.9586	0.0259
746.1353	-0.0087
746.3119	-0.008
746.4885	0.0462
746.6651	-0.0203
746.8417	-0.0038
747.0183	0.0771
747.1948	-0.0107
747.3714	0.0004
747.5479	0.0158
747.7244	0.0261
747.9008	-0.0116
748.0773	0.057
748.2537	-0.0273
748.4301	0.0337
748.6065	0.0017
748.7829	-0.0279
748.9593	-0.0191
749.1356	-0.0096
749.3119	0.0083
749.4882	0.0232
749.6645	-0.0108
749.8408	0.024
750.017	0.0039
750.1933	-0.0173
750.3695	0.0125
750.5457	0.0183
750.7218	-0.002
750.898	-0.0181
751.0741	-0.001
751.2502	0.0068
751.4263	0.0134
751.6024	0.0065
751.7784	-0.0049
751.9545	-0.011
752.1305	0.0037
752.3065	-0.0016
752.4825	0.0003
752.6584	0.0134
752.8344	0.0022
753.0103	-0.0218
753.1862	0.017
753.3621	0.0006
753.5379	0.0033
753.7138	-0.0061
753.8896	0.023
754.0654	-0.0052
754.2412	0.0263
754.417	0.0205
754.5927	0.0223
754.7685	0.0041
754.9442	0.0042
755.1199	0.0017
755.2956	0.0129
755.4712	0.0129
755.6469	0.0063
755.8225	-0.0148
755.9981	0.0199
756.1736	0.0029
756.3492	-0.0013
756.5248	0.0189
756.7003	0.0053
756.8758	-0.0091
757.0513	0.0062
757.2267	0.005
757.4022	-0.0052
757.5776	-0.0066
757.753	0.0412
757.9284	0.0082
758.1038	0.0005
758.2791	0.0174
758.4545	-0.017
758.6298	-0.003
758.8051	0.0173
758.9803	0.0019
759.1556	-0.0086
759.3308	-0.0162
759.506	-0.0005
759.6812	-0.002
759.8564	0.0002
760.0316	-0.0106
760.2067	0.0283
760.3819	0.0106
760.557	0.0012
760.732	0.004
760.9071	0.0223
761.0821	-0
761.2572	0.0024
761.4322	0.0224
761.6072	-0.0213
761.7821	-0.0136
761.9571	0.0046
762.132	0.0123
762.3069	0.0233
762.4818	0.036
762.6567	-0.0087
762.8316	0.0076
763.0064	0.0173
763.1812	0.0081
763.356	-0.0299
763.5308	0.0174
763.7055	-0.0075
763.8803	-0.0056
764.055	-0.0076
764.2297	0.0021
764.4044	0.0125
764.579	0.0048
764.7537	0.0002
764.9283	0.0153
765.1029	0.0216
765.2775	-0.0008
765.4521	0.0085
765.6266	0.0091
765.8011	0.0371
765.9756	0.0109
766.1501	0.0084
766.3246	0.0119
766.4991	0.0028
766.6735	0.0741
766.8479	0.014
767.0223	-0.0071
767.1967	0.0114
767.371	0.0286
767.5454	0.0079
767.7197	0.0125
767.894	0.0003
768.0683	-0.0075
768.2425	0.0267
768.4168	0.0056
768.591	0.0049
768.7652	0.0022
768.9394	-0.0339
769.1135	-0.0253
769.2877	-0.0132
769.4618	0.0346
769.6359	-0.0156
769.81	0.0141
769.984	0.0125
770.1581	0.0226
770.3321	0.0424
770.5061	-0.0107
770.6801	-0.0007
770.8541	-0.0045
771.028	0.0399
771.202	0.0193
771.3759	-0.0024
771.5498	0.0153
771.7236	-0.0111
771.8975	0.038
772.0713	0.0082
772.2451	-0.0049
772.4189	0.0014
772.5927	-0.0532
772.7665	0.0014
772.9402	-0.0084
773.1139	-0.0153
773.2876	-0.0329
773.4613	0.0022
773.635	0.0372
773.8086	0.032
773.9822	0.0265
774.1558	0.0321
774.3294	-0.0062
774.503	0.0204
774.6765	0.0258
774.8501	0.004
775.0236	0.0304
775.1971	-0.0144
775.3705	-0.0243
775.544	-0.0597
775.7174	0.0031
775.8908	0.0105
776.0642	0.0057
776.2376	0.0354
776.4109	0.0085
776.5843	-0.0216
776.7576	0.0093
776.9309	0.0346
777.1041	-0.0318
777.2774	-0.0116
777.4506	0.0336
777.6238	-0.0314
777.797	0.0193
777.9702	0.0078
778.1434	-0.0206
778.3165	-0.0252
778.4896	-0.0399
778.6627	-0.0058
778.8358	-0.011
779.0089	-0.0131
779.1819	-0.0001
779.3549	-0.0132
779.5279	-0.032
779.7009	0.064
779.8739	0.0406
780.0468	0.012
780.2197	0.0217
780.3926	-0.0365
780.5655	-0.0213
780.7384	0.0041
780.9112	0.0046
781.0841	0.005
781.2569	0.0356
781.4297	0.0223
781.6024	0.0143
781.7752	0.0414
781.9479	0.0401
782.1206	-0.01
782.2933	-0.0162
782.466	0.0156
782.6386	-0.0207
782.8113	0.004
782.9839	-0.0202
783.1565	0.0307
783.329	-0.0154
783.5016	0.0022
783.6741	-0.029
783.8466	0.0585
784.0191	0.0026
784.1916	-0.0379
784.3641	-0.0531
784.5365	0.0138
784.7089	0.0015
784.8813	0.0086
785.0537	0.0013
785.2261	0.0211
785.3984	0.0269
785.5707	0.0103
785.743	0.0468
785.9153	0.0014
786.0876	-0.0456
786.2598	-0.022
786.432	0.015
786.6042	0.0548
786.7764	-0.0397
786.9486	-0.0036
787.1207	0.0124
787.2928	0.0505
787.4649	-0.0084
787.637	-0.0042
787.8091	0.0327
787.9811	0.0185
788.1532	0.018
788.3252	0.0141
788.4972	0.0144
788.6691	0.0022
788.8411	-0.0037
789.013	0.0337
789.1849	0.0063
789.3568	0.0046
789.5287	0.0329
789.7005	-0.0205
789.8723	-0.0247
790.0442	-0.0656
790.2159	-0.0043
790.3877	0.0264
790.5595	0.0299
790.7312	-0.0032
790.9029	-0.0595
791.0746	-0.0103
791.2463	-0.025
791.4179	0.0477
791.5896	0.0008
791.7612	0.0099
791.9328	-0.054
792.1044	0.0329
792.2759	-0.0438
792.4474	-0.0217
792.619	-0.018
792.7905	0.009
792.9619	0.0656
793.1334	0.0305
793.3048	0.0675
793.4762	0.0127
793.6476	-0.0358
793.819	-0.0158
793.9904	-0.0395
794.1617	-0.0359
794.333	0.0016
794.5043	0.0192
794.6756	0.0354
794.8469	0.0079
795.0181	0.0456
795.1893	0.0157
795.3605	-0.0169
795.5317	-0.0468
795.7029	-0.0254
795.874	-0.047
796.0452	0.0762
796.2163	0.0209
796.3873	0.0651
796.5584	0.071
796.7294	-0.012
796.9005	0.0056
797.0715	-0.0173
797.2425	0.0739
797.4134	-0.035
797.5844	0.006
797.7553	-0.0559
797.9262	0.0287
798.0971	0.0586
798.2679	-0.0642
798.4388	0.0666
798.6096	0.0308
798.7804	0.0406
798.9512	0.014
799.122	0.0036
799.2927	0.0938
799.4635	0.0148
799.6342	-0.0562
799.8049	0.0566
799.9755	-0.0579
800.1462	0.0011
800.3168	-0.0207
800.4874	-0.0579
800.658	0.0144
800.8286	0.0028
800.9991	0.0712
801.1696	-0.0484
801.3402	0.0119
801.5106	0.0018
801.6811	-0.0344
801.8516	0.0689
802.022	-0.0003
802.1924	-0.0969
802.3628	0.0136
802.5332	0.1168
802.7035	-0.0233
802.8739	-0.0212
803.0442	0.013
803.2145	0.0063
803.3847	0.0187
803.555	0.0211
803.7252	0.0406
803.8954	-0.1047
804.0656	-0.0077
804.2358	-0.0093
804.4059	0.0868
804.5761	0.023
804.7462	-0.0088
804.9163	-0.032
805.0864	-0.0795
805.2564	0.029
805.4264	-0.0544
805.5965	-0.0222
805.7665	-0.0311
805.9364	0.0092
806.1064	-0.0456
806.2763	0.0321
806.4462	-0.0084
806.6161	0.046
806.786	0.014
806.9559	0.0187
807.1257	0.0324
807.2955	-0.0189
807.4653	0.0294
807.6351	0.0172
807.8048	0.0094
807.9746	0.0162
808.1443	0.032
808.314	0.0804
808.4837	0.0443
808.6533	-0.0878
808.8229	0.011
808.9926	-0.0056
809.1622	0.052
809.3317	0.0066
809.5013	-0.0354
809.6708	-0.0399
809.8403	0.0386
810.0098	0.0525
810.1793	-0.0534
810.3488	-0.0888
810.5182	0.1817
810.6876	-0.0338
810.857	0.02
811.0264	-0.101
811.1958	0.0813
811.3651	0.0213
811.5344	0.0609
811.7037	0.062
811.873	0.0743
812.0422	-0.0704
812.2115	-0.0073
812.3807	-0.0858
812.5499	-0.0424
812.7191	-0.0766
812.8882	-0.0957
813.0574	0.061
813.2265	-0.0059
813.3956	0.1051
813.5646	0.035
813.7337	-0.0039
813.9027	-0.1119
814.0718	0.0411
814.2407	0.0046
814.4097	0.1002
814.5787	0.0971
814.7476	-0.0145
814.9165	0.0231
815.0854	0.0112
815.2543	-0.087
815.4232	0.0801
815.592	0.0645
815.7608	-0.1494
815.9296	-0.0723
816.0984	0.1018
816.2671	-0.2633
816.4359	0.2227
816.6046	-0.0654
816.7733	-0.1523
816.942	-0.0959
817.1106	0.0995
817.2793	-0.0469
817.4479	0.0043
817.6165	0.0532
817.785	0.1035
817.9536	-0.081
818.1221	0.0317
818.2906	-0.0743
818.4591	-0.0241
818.6276	0.074
818.7961	-0.0653
818.9645	0.0125
819.1329	-0.0291
819.3013	0.0833
819.4697	-0.1024
819.638	-0.0269
819.8064	-0.026
819.9747	-0.1073
820.143	-0.0833
820.3113	0.0634
820.4795	0.132
820.6477	0.183
820.816	0.0472
820.9842	0.042
821.1523	0.1037
821.3205	0.0289
821.4886	-0.0685
821.6567	-0.065
821.8248	0.1027
821.9929	-0.2011
822.1609	0.049
822.329	-0.0093
822.497	0.0517
822.665	0.0926
822.833	0.0108
823.0009	-0.0278
823.1688	0.1375
823.3367	-0.1036
823.5046	0.147
823.6725	-0.026
823.8404	-0.0419
824.0082	0.0322
824.176	-0.0437
824.3438	0.3046
824.5116	0.0158
824.6793	0.0899
824.847	-0.1263
825.0147	0.1869
825.1824	0.0132
825.3501	-0.0701
825.5177	-0.2445
825.6854	-0.1335
825.853	-0.004
826.0206	-0.1222
826.1881	0.1599
826.3557	-0.0722
826.5232	0.0846
826.6907	-0.0321
826.8582	0.0943
827.0257	0.1943
827.1931	-0.0005
827.3605	-0.0082
827.528	-0.1562
827.6953	-0.1706
827.8627	0.011
828.03	0.0613
828.1974	-0.0072
828.3647	-0.0138
828.532	0.0503
828.6992	0.0568
828.8665	-0.2181
829.0337	0.0386
829.2009	-0.157
829.3681	-0.0841
829.5352	-0.4202
829.7024	0.1737
829.8695	-0.1249
830.0366	0.2209
830.2037	0.2139
830.3707	0.077
830.5378	-0.0429
830.7048	-0.1283
830.8718	0.3517
831.0388	-0.2015
831.2057	0.4804
831.3727	0.0124
831.5396	0.0671
831.7065	-0.8424
831.8734	0.2116
832.0402	0.0671
832.2071	-0.3118
832.3739	-0.1304
832.5407	-1.9803
832.7075	-0.2512
832.8742	0.3263
833.041	0.3064
833.2077	0.2064
833.3744	-0.0506
833.541	-0.1452
833.7077	-0.0646
833.8743	-0.0251
834.0409	-0.0894
834.2075	0.1944
834.3741	-0.2924
834.5407	0.2646
834.7072	-0.0533
834.8737	0.3444
835.0402	1.113
835.2067	-0.1689
835.3731	0.0627
835.5395	0.1371
835.706	-0.395
835.8723	-0.1616
836.0387	0.081
836.2051	0.1638
836.3714	-0.0211
836.5377	-0.0013
836.704	0.1495
836.8703	0.195
837.0365	-0.7805
837.2027	-0
837.3689	0.3671
837.5351	-0
837.7013	-0.2837
837.8674	-0.6301
838.0335	0.0603
838.1997	-0.0854
838.3657	-0
838.5318	-0.4771
838.6978	-0
838.8639	-0.5072
839.0299	0.5303
839.1958	0.0132
839.3618	-0
839.5277	-0.1119
839.6937	-0.1856
839.8596	0.181
840.0254	0.1356
840.1913	-0.3148
840.3571	-0.5029
840.523	-1.7275
840.6888	-0.1279
840.8545	-0.4014
841.0203	0.1071
841.186	0.1684
841.3517	-0.2168
841.5174	0.0262
841.6831	0.0121
841.8488	0.0521
842.0144	0.6602
842.18	0.573
842.3456	-0.5103
842.5112	-0
842.6767	-0.1354
842.8422	0.0084
843.0077	-0.0817
843.1732	-0.4004
843.3387	0.0697
843.5042	-0
843.6696	-0
843.835	0.0802
844.0004	-0.2385
844.1657	-0
844.3311	0.3034
844.4964	-0.4038
844.6617	0.7861
844.827	-0
844.9923	0.1477
845.1575	-0.3515
845.3227	0.1101
845.4879	-0.1503
845.6531	0.3819
845.8183	0.7882
845.9834	0.2085
846.1485	0.0848
846.3136	-0.3157
846.4787	-0
846.6438	-0.4202
846.8088	1.7643
846.9738	-0
847.1388	0.1562
847.3038	-0.035
847.4687	-0
847.6337	-0.3128
847.7986	-0.1843
847.9635	-0.0424
848.1284	-0
848.2932	0.2167
848.458	-0
848.6228	1.3202
848.7876	-0
848.9524	0.89
849.1172	-2.1303
849.2819	-0
849.4466	1.1781
849.6113	0.0686
849.7759	-0.5837
849.9406	-0.0575
850.1052	-1.3156
850.2698	0.0042
850.4344	-0.6611
850.599	1.6244
850.7635	0.0731
850.928	0.8232
851.0925	0.2967
851.257	-0.0971
851.4215	0.1899
851.5859	0.1555
851.7503	-0
851.9147	-0.1091
852.0791	-0.0099
852.2434	0.4126
852.4078	-0
852.5721	0.1622
852.7364	-0.135
852.9007	-0.3122
853.0649	-0
853.2291	0.1273
853.3934	-0.3447
853.5575	-0.2747
853.7217	0.3746
853.8859	-0.4489
854.05	0.0211
854.2141	-0
854.3782	0.8339
854.5423	-0.64
854.7063	0.2409
854.8703	0.1193
855.0343	-0.1518
855.1983	0.2868
855.3623	-0.3159
855.5262	1.1184
855.6901	0.4115
855.854	0.0359
856.0179	-0.1003
856.1818	-0
856.3456	0.5724
856.5094	-0.7073
856.6732	-0.3559
856.837	-0.8834
857.0008	-0.5816
857.1645	-0.0838
857.3282	-0.3894
857.4919	0.1797
857.6556	-0.5312
857.8192	-0.186
857.9828	-0.3043
858.1465	0.1153
858.31	-0
858.4736	-0.4333
858.6372	0.1003
858.8007	-0.0264
858.9642	0.0672
859.1277	0.5651
859.2911	-0.428
859.4546	-0
859.618	-0.0325
859.7814	-0
859.9448	-0
860.1081	-0.1568
860.2715	-1.7993
860.4348	0.2531
860.5981	0.1442
860.7614	-0
860.9246	-0.3969
861.0879	0.1431
861.2511	-0
861.4143	-0.5076
861.5774	-0.0972
861.7406	-0.0767
861.9037	-0.5727
862.0668	-0.0985
862.2299	-0.0317
862.393	0.8631
862.556	0.2345
862.7191	-0.8063
862.8821	0.3657
863.0451	-0
863.208	0.4231
863.371	-0
863.5339	0.2305
863.6968	0.3843
863.8597	-0
864.0225	-0.2858
864.1854	-0
864.3482	-0
864.511	0.1477
864.6737	-0
864.8365	0.2218
864.9992	-0
865.1619	-0.7456
865.3246	-1.3909
865.4873	-0.7709
865.65	0.0566
865.8126	-0.0971
865.9752	-0.1863
866.1378	-0.0482
866.3004	-0.2661
866.4629	-1.5911
866.6254	0.0324
866.7879	-0.5362
866.9504	-0
867.1129	-0
867.2753	-0.3555
867.4377	0.0625
867.6001	-0
867.7625	-0.2269
867.9249	-0.0735
868.0872	0.0991
868.2495	-0
868.4118	-0
868.5741	-0.3155
868.7363	-0
868.8986	-0
869.0608	-0.351
869.223	-0.6285
869.3851	-0
869.5473	-0.2633
869.7094	0.4273
869.8715	-1.0664
870.0336	0.0272
870.1957	0.1814
870.3577	0.3693
870.5197	-0.2112
870.6817	-0.8323
870.8437	-0.3477
871.0057	0.9097
871.1676	0.1164
871.3295	0.6937
871.4914	-0
871.6533	0.2673
871.8151	1.1863
871.977	-0.0046
872.1388	-0
872.3006	-0.5882
872.4623	-0.213
872.6241	-0.0629
872.7858	0.1098
872.9475	-0
873.1092	-0.0865
873.2709	1.3213
873.4325	-1.6927
873.5941	-0
873.7557	0.897
873.9173	-0
874.0789	-0.088
874.2404	0.3871
874.4019	-0.233
874.5634	-0
874.7249	0.0124
874.8863	0.6126
875.0478	-0.3833
875.2092	2.0868
875.3706	0.2672
875.5319	-0.0924
875.6933	0.1098
875.8546	-0
876.0159	0.0829
876.1772	-0
876.3385	-0.1367
876.4997	0.6102
876.6609	-0.1927
876.8221	-0
876.9833	0.1968
877.1445	0.4784
877.3056	-0.4771
877.4667	-1.0818
877.6278	0.1887
877.7889	-0
877.9499	-0.0753
878.111	-0.3644
878.272	-0
878.433	0.0556
878.5939	0.7139
878.7549	-0.285
878.9158	-0
879.0767	-0
879.2376	-0.57
879.3984	-0
879.5593	0.321
879.7201	-1.0634
879.8809	-0
880.0417	-0.1139
880.2024	-0.0193
880.3632	-0.3948
880.5239	-0.1212
880.6846	-0.5096
880.8452	0.0729
881.0059	-1.2188
881.1665	-0.3574
881.3271	0.4075
881.4877	0.0544
881.6483	-0
881.8088	-0
881.9693	-0
882.1298	-0
882.2903	-0
