Data from D4ACN5uM420nmA_Absorbance_14-37-08-111.txt Node
Date: Fri Feb 21 14:37:08 GMT 2025
User: LASERRRRR
Spectrometer: FLMT03099
Trigger mode: 0
Integration Time (sec): 1.500000E-2
Scans to average: 1
Electric dark correction enabled: true
Nonlinearity correction enabled: false
Boxcar width: 0
XAxis mode: Wavelengths
Number of Pixels in Spectrum: 3648
>>>>>Begin Spectral Data<<<<<
179.3399	-0.4283
179.5586	-0.4283
179.7771	-0.4283
179.9957	0.0332
180.2143	-1.6864
180.4329	0.41
180.6514	0.8893
180.8699	-0
181.0885	0.1784
181.307	0.329
181.5255	0.3749
181.744	-0
181.9625	0.3695
182.181	-0
182.3994	-0.7338
182.6179	-0.2972
182.8363	-0.0521
183.0547	-0.1402
183.2732	0.0049
183.4916	0.1383
183.71	0.2171
183.9284	0.1664
184.1467	-0.0578
184.3651	0.0368
184.5835	0.1184
184.8018	0.1168
185.0201	0.1784
185.2385	0.1982
185.4568	0.1032
185.6751	0.2468
185.8934	0.1553
186.1117	-0.021
186.3299	0.2025
186.5482	0.2345
186.7664	0.0842
186.9847	-0.0832
187.2029	0.3844
187.4211	-0.0027
187.6393	0.0339
187.8575	0.4298
188.0757	0.4213
188.2939	-0.0767
188.512	0.1176
188.7302	0.1713
188.9483	0.0477
189.1665	0.4616
189.3846	0.1395
189.6027	0.139
189.8208	0.2524
190.0389	0.164
190.257	-0.0728
190.475	0.1688
190.6931	-0.026
190.9111	0.2137
191.1292	0.1507
191.3472	0.0505
191.5652	0.1155
191.7832	0.0931
192.0012	0.0895
192.2192	0.0928
192.4371	0.0712
192.6551	0.1976
192.873	0.1293
193.091	0.1068
193.3089	0.0993
193.5268	0.2581
193.7447	0.2396
193.9626	0.1405
194.1805	0.1723
194.3984	0.2244
194.6162	0.2452
194.8341	0.3312
195.0519	0.2244
195.2697	0.1931
195.4875	0.2542
195.7054	0.2057
195.9231	0.2493
196.1409	0.3397
196.3587	0.2679
196.5765	0.2744
196.7942	0.329
197.012	0.3296
197.2297	0.3283
197.4474	0.3832
197.6651	0.3108
197.8828	0.3164
198.1005	0.3632
198.3182	0.3467
198.5358	0.4054
198.7535	0.3258
198.9711	0.3114
199.1888	0.3655
199.4064	0.377
199.624	0.3369
199.8416	0.3417
200.0592	0.3466
200.2767	0.3934
200.4943	0.4228
200.7119	0.3671
200.9294	0.4002
201.1469	0.3603
201.3645	0.4363
201.582	0.4116
201.7995	0.3882
202.017	0.3844
202.2344	0.4025
202.4519	0.3697
202.6694	0.3598
202.8868	0.3675
203.1042	0.3754
203.3217	0.3728
203.5391	0.4225
203.7565	0.3974
203.9739	0.3243
204.1913	0.3574
204.4086	0.332
204.626	0.3482
204.8433	0.3584
205.0607	0.3419
205.278	0.329
205.4953	0.3322
205.7126	0.3384
205.9299	0.3299
206.1472	0.3008
206.3644	0.3246
206.5817	0.3373
206.7989	0.3416
207.0162	0.3361
207.2334	0.3221
207.4506	0.2977
207.6678	0.2912
207.885	0.3002
208.1022	0.3111
208.3194	0.2753
208.5365	0.2954
208.7537	0.2886
208.9708	0.2898
209.1879	0.2857
209.405	0.2785
209.6222	0.2574
209.8392	0.2883
210.0563	0.2725
210.2734	0.2685
210.4905	0.2603
210.7075	0.2538
210.9245	0.2612
211.1416	0.2669
211.3586	0.2532
211.5756	0.2244
211.7926	0.2626
212.0096	0.2544
212.2265	0.2574
212.4435	0.251
212.6604	0.2633
212.8774	0.24
213.0943	0.2434
213.3112	0.2533
213.5281	0.2514
213.745	0.229
213.9619	0.2389
214.1788	0.2531
214.3956	0.2329
214.6125	0.2519
214.8293	0.2319
215.0461	0.2289
215.2629	0.2593
215.4798	0.2399
215.6965	0.244
215.9133	0.2355
216.1301	0.2335
216.3469	0.2485
216.5636	0.2371
216.7803	0.2439
216.9971	0.2514
217.2138	0.2514
217.4305	0.2461
217.6472	0.2368
217.8639	0.2531
218.0805	0.2513
218.2972	0.2355
218.5138	0.2481
218.7305	0.2406
218.9471	0.2384
219.1637	0.2612
219.3803	0.2535
219.5969	0.2281
219.8135	0.2512
220.0301	0.2555
220.2466	0.2531
220.4632	0.2416
220.6797	0.2497
220.8962	0.2535
221.1127	0.2715
221.3292	0.2608
221.5457	0.2679
221.7622	0.2568
221.9787	0.2905
222.1951	0.2734
222.4116	0.2731
222.628	0.2713
222.8444	0.2792
223.0608	0.2719
223.2772	0.2714
223.4936	0.2871
223.71	0.271
223.9264	0.297
224.1427	0.2801
224.3591	0.295
224.5754	0.2975
224.7917	0.2914
225.008	0.2922
225.2243	0.3027
225.4406	0.2922
225.6569	0.2993
225.8732	0.3039
226.0894	0.3015
226.3057	0.3025
226.5219	0.3082
226.7381	0.3125
226.9543	0.3053
227.1705	0.3152
227.3867	0.3202
227.6029	0.322
227.8191	0.3399
228.0352	0.3408
228.2513	0.3484
228.4675	0.3386
228.6836	0.3475
228.8997	0.3451
229.1158	0.3488
229.3319	0.3502
229.548	0.351
229.764	0.3561
229.9801	0.3711
230.1961	0.373
230.4121	0.3682
230.6282	0.3801
230.8442	0.3855
231.0602	0.3912
231.2761	0.3788
231.4921	0.3907
231.7081	0.3859
231.924	0.3987
232.14	0.3909
232.3559	0.4051
232.5718	0.4116
232.7877	0.4047
233.0036	0.4177
233.2195	0.425
233.4353	0.4251
233.6512	0.411
233.867	0.4277
234.0829	0.415
234.2987	0.4225
234.5145	0.438
234.7303	0.4377
234.9461	0.4454
235.1619	0.4406
235.3776	0.4338
235.5934	0.4354
235.8091	0.4439
236.0249	0.4515
236.2406	0.4452
236.4563	0.45
236.672	0.4443
236.8877	0.4541
237.1034	0.4575
237.319	0.4598
237.5347	0.4474
237.7503	0.4523
237.966	0.4594
238.1816	0.4516
238.3972	0.4493
238.6128	0.4582
238.8284	0.4644
239.0439	0.4572
239.2595	0.4567
239.475	0.4578
239.6906	0.4676
239.9061	0.4558
240.1216	0.4593
240.3371	0.4601
240.5526	0.4576
240.7681	0.4627
240.9836	0.4623
241.199	0.4527
241.4145	0.4503
241.6299	0.4461
241.8453	0.4473
242.0607	0.4423
242.2761	0.4398
242.4915	0.4331
242.7069	0.4216
242.9223	0.4213
243.1376	0.4028
243.353	0.4052
243.5683	0.4044
243.7836	0.3975
243.9989	0.3799
244.2142	0.3788
244.4295	0.382
244.6448	0.3707
244.86	0.3646
245.0753	0.3507
245.2905	0.3518
245.5057	0.343
245.721	0.3448
245.9362	0.3308
246.1514	0.3295
246.3665	0.3196
246.5817	0.3117
246.7969	0.3011
247.012	0.2939
247.2271	0.2972
247.4423	0.2938
247.6574	0.2918
247.8725	0.2765
248.0876	0.2694
248.3026	0.2715
248.5177	0.2527
248.7328	0.2528
248.9478	0.2552
249.1628	0.2518
249.3779	0.2402
249.5929	0.2363
249.8079	0.2385
250.0228	0.2355
250.2378	0.2375
250.4528	0.2278
250.6677	0.224
250.8827	0.2203
251.0976	0.2207
251.3125	0.2258
251.5274	0.218
251.7423	0.2055
251.9572	0.2163
252.172	0.2095
252.3869	0.2144
252.6017	0.2043
252.8166	0.2007
253.0314	0.2009
253.2462	0.1981
253.461	0.1997
253.6758	0.1955
253.8906	0.1966
254.1053	0.1958
254.3201	0.2006
254.5348	0.1853
254.7496	0.1892
254.9643	0.1931
255.179	0.1888
255.3937	0.1941
255.6083	0.1956
255.823	0.1864
256.0377	0.1845
256.2523	0.1844
256.467	0.1859
256.6816	0.1914
256.8962	0.1882
257.1108	0.1891
257.3254	0.1794
257.54	0.1814
257.7545	0.1874
257.9691	0.184
258.1836	0.177
258.3981	0.186
258.6127	0.179
258.8272	0.1855
259.0417	0.1772
259.2561	0.1764
259.4706	0.1748
259.6851	0.1816
259.8995	0.1761
260.114	0.1794
260.3284	0.1822
260.5428	0.1799
260.7572	0.1778
260.9716	0.1927
261.186	0.1807
261.4003	0.1738
261.6147	0.1761
261.829	0.1797
262.0433	0.1839
262.2577	0.1779
262.472	0.1836
262.6863	0.1818
262.9005	0.1788
263.1148	0.1814
263.3291	0.1859
263.5433	0.1865
263.7576	0.1841
263.9718	0.1869
264.186	0.1846
264.4002	0.1863
264.6144	0.1921
264.8286	0.1873
265.0427	0.1909
265.2569	0.1927
265.471	0.1864
265.6851	0.1947
265.8993	0.1853
266.1134	0.1916
266.3275	0.1915
266.5415	0.1878
266.7556	0.1953
266.9697	0.1924
267.1837	0.1948
267.3978	0.1919
267.6118	0.1876
267.8258	0.1863
268.0398	0.1947
268.2538	0.1887
268.4677	0.1875
268.6817	0.1909
268.8957	0.1841
269.1096	0.1788
269.3235	0.1864
269.5374	0.1884
269.7514	0.1846
269.9652	0.1812
270.1791	0.1784
270.393	0.18
270.6068	0.1818
270.8207	0.1796
271.0345	0.1837
271.2483	0.1729
271.4622	0.184
271.676	0.1822
271.8897	0.1787
272.1035	0.1882
272.3173	0.1807
272.531	0.1815
272.7448	0.1733
272.9585	0.1797
273.1722	0.1753
273.3859	0.1842
273.5996	0.186
273.8133	0.1838
274.0269	0.1818
274.2406	0.1843
274.4542	0.1832
274.6679	0.1814
274.8815	0.1884
275.0951	0.1942
275.3087	0.1935
275.5223	0.1912
275.7358	0.1906
275.9494	0.1871
276.1629	0.1933
276.3765	0.1908
276.59	0.187
276.8035	0.1857
277.017	0.1941
277.2305	0.2043
277.444	0.1955
277.6574	0.1975
277.8709	0.1998
278.0843	0.2019
278.2978	0.2015
278.5112	0.1949
278.7246	0.189
278.938	0.1962
279.1513	0.1959
279.3647	0.1907
279.5781	0.1979
279.7914	0.1917
280.0047	0.1947
280.2181	0.1959
280.4314	0.1945
280.6447	0.1982
280.8579	0.1891
281.0712	0.1928
281.2845	0.1956
281.4977	0.1963
281.711	0.1932
281.9242	0.1885
282.1374	0.1919
282.3506	0.192
282.5638	0.1885
282.7769	0.1884
282.9901	0.1923
283.2033	0.193
283.4164	0.1808
283.6295	0.1893
283.8426	0.1907
284.0557	0.1957
284.2688	0.1934
284.4819	0.1863
284.695	0.1939
284.908	0.1882
285.1211	0.191
285.3341	0.1861
285.5471	0.1923
285.7601	0.1961
285.9731	0.1915
286.1861	0.1925
286.3991	0.2008
286.612	0.192
286.825	0.1925
287.0379	0.192
287.2508	0.193
287.4637	0.1944
287.6766	0.1904
287.8895	0.1925
288.1024	0.1935
288.3152	0.1931
288.5281	0.1859
288.7409	0.1946
288.9538	0.1919
289.1666	0.1949
289.3794	0.1923
289.5922	0.1872
289.8049	0.1909
290.0177	0.1951
290.2304	0.1896
290.4432	0.1957
290.6559	0.1988
290.8686	0.1871
291.0813	0.1891
291.294	0.1962
291.5067	0.1973
291.7194	0.1931
291.932	0.1912
292.1447	0.191
292.3573	0.1949
292.5699	0.1963
292.7825	0.1876
292.9951	0.1954
293.2077	0.19
293.4203	0.194
293.6328	0.1869
293.8454	0.1933
294.0579	0.1892
294.2704	0.1996
294.4829	0.1886
294.6954	0.2001
294.9079	0.1936
295.1204	0.1893
295.3328	0.2033
295.5453	0.1937
295.7577	0.1925
295.9701	0.1944
296.1825	0.1905
296.3949	0.1878
296.6073	0.1871
296.8197	0.1883
297.0321	0.191
297.2444	0.193
297.4567	0.1923
297.6691	0.1971
297.8814	0.1886
298.0937	0.192
298.306	0.1868
298.5182	0.2007
298.7305	0.1948
298.9428	0.1902
299.155	0.1889
299.3672	0.1906
299.5794	0.198
299.7916	0.1931
300.0038	0.1938
300.216	0.1938
300.4282	0.1903
300.6403	0.1973
300.8525	0.1885
301.0646	0.198
301.2767	0.1867
301.4888	0.1927
301.7009	0.1935
301.913	0.1964
302.125	0.1976
302.3371	0.1957
302.5491	0.1942
302.7612	0.1981
302.9732	0.1946
303.1852	0.1935
303.3972	0.1884
303.6092	0.1944
303.8211	0.1945
304.0331	0.1872
304.245	0.1878
304.457	0.1931
304.6689	0.1858
304.8808	0.1851
305.0927	0.192
305.3046	0.1879
305.5164	0.1821
305.7283	0.1835
305.9401	0.1815
306.152	0.1798
306.3638	0.18
306.5756	0.1858
306.7874	0.1781
306.9992	0.1763
307.2109	0.1747
307.4227	0.1763
307.6344	0.1763
307.8462	0.1682
308.0579	0.1769
308.2696	0.1726
308.4813	0.1705
308.693	0.1637
308.9046	0.1657
309.1163	0.1685
309.328	0.1616
309.5396	0.1586
309.7512	0.1594
309.9628	0.156
310.1744	0.1523
310.386	0.1535
310.5976	0.1518
310.8091	0.1537
311.0207	0.1543
311.2322	0.1518
311.4437	0.1512
311.6552	0.1535
311.8667	0.1508
312.0782	0.1487
312.2897	0.1497
312.5012	0.1447
312.7126	0.1488
312.924	0.1451
313.1355	0.1399
313.3469	0.1451
313.5583	0.1399
313.7696	0.139
313.981	0.1497
314.1924	0.1428
314.4037	0.1363
314.6151	0.139
314.8264	0.1461
315.0377	0.1392
315.249	0.1399
315.4603	0.1335
315.6716	0.1373
315.8828	0.1394
316.0941	0.1386
316.3053	0.1354
316.5165	0.1368
316.7277	0.1376
316.9389	0.1366
317.1501	0.1393
317.3613	0.1311
317.5724	0.1348
317.7836	0.1284
317.9947	0.134
318.2058	0.1324
318.417	0.1338
318.6281	0.1353
318.8391	0.1327
319.0502	0.1326
319.2613	0.1271
319.4723	0.1304
319.6834	0.1395
319.8944	0.1322
320.1054	0.1334
320.3164	0.127
320.5274	0.1298
320.7383	0.1412
320.9493	0.1357
321.1602	0.1331
321.3712	0.1364
321.5821	0.1306
321.793	0.137
322.0039	0.1308
322.2148	0.1377
322.4257	0.1366
322.6365	0.1287
322.8474	0.1404
323.0582	0.1365
323.269	0.1347
323.4798	0.1349
323.6906	0.1281
323.9014	0.1323
324.1122	0.1288
324.3229	0.1411
324.5337	0.139
324.7444	0.132
324.9551	0.1342
325.1658	0.1394
325.3765	0.1332
325.5872	0.142
325.7979	0.1388
326.0085	0.1293
326.2192	0.1332
326.4298	0.137
326.6404	0.1422
326.851	0.1405
327.0616	0.1395
327.2722	0.1389
327.4828	0.1378
327.6933	0.1411
327.9039	0.1373
328.1144	0.1411
328.3249	0.1453
328.5354	0.1358
328.7459	0.1491
328.9564	0.1471
329.1669	0.1484
329.3773	0.1489
329.5878	0.14
329.7982	0.1391
330.0086	0.1494
330.219	0.1476
330.4294	0.1448
330.6398	0.1486
330.8502	0.151
331.0605	0.1502
331.2708	0.1422
331.4812	0.145
331.6915	0.1456
331.9018	0.1414
332.1121	0.15
332.3224	0.1496
332.5326	0.1407
332.7429	0.147
332.9531	0.1512
333.1633	0.14
333.3735	0.1444
333.5837	0.1515
333.7939	0.1467
334.0041	0.147
334.2143	0.1468
334.4244	0.1543
334.6346	0.152
334.8447	0.1471
335.0548	0.1507
335.2649	0.154
335.475	0.1544
335.685	0.1477
335.8951	0.1505
336.1051	0.147
336.3152	0.1538
336.5252	0.1535
336.7352	0.1473
336.9452	0.1502
337.1552	0.1543
337.3652	0.1436
337.5751	0.1496
337.7851	0.1469
337.995	0.1502
338.2049	0.1476
338.4148	0.1535
338.6247	0.1484
338.8346	0.151
339.0445	0.1497
339.2543	0.1492
339.4642	0.1475
339.674	0.1533
339.8838	0.1496
340.0936	0.1519
340.3034	0.1538
340.5132	0.1489
340.7229	0.1529
340.9327	0.1643
341.1424	0.1519
341.3522	0.1478
341.5619	0.1635
341.7716	0.1584
341.9813	0.1633
342.1909	0.1617
342.4006	0.1655
342.6102	0.1614
342.8199	0.1605
343.0295	0.1579
343.2391	0.153
343.4487	0.1578
343.6583	0.1688
343.8679	0.1625
344.0774	0.1599
344.287	0.1681
344.4965	0.1652
344.706	0.1712
344.9155	0.1597
345.125	0.1681
345.3345	0.1698
345.544	0.1697
345.7534	0.1729
345.9629	0.1717
346.1723	0.1734
346.3817	0.1723
346.5911	0.1742
346.8005	0.1758
347.0099	0.174
347.2193	0.1825
347.4286	0.1866
347.638	0.1731
347.8473	0.1861
348.0566	0.1757
348.2659	0.1782
348.4752	0.1798
348.6845	0.18
348.8937	0.1826
349.103	0.1792
349.3122	0.1776
349.5214	0.1755
349.7306	0.1909
349.9398	0.1816
350.149	0.1813
350.3582	0.1818
350.5674	0.1822
350.7765	0.1878
350.9856	0.1806
351.1948	0.1853
351.4039	0.1895
351.613	0.1772
351.822	0.191
352.0311	0.1878
352.2402	0.1816
352.4492	0.1839
352.6582	0.1865
352.8672	0.1825
353.0762	0.1848
353.2852	0.1864
353.4942	0.1878
353.7032	0.1869
353.9121	0.1875
354.1211	0.1928
354.33	0.1937
354.5389	0.1904
354.7478	0.1847
354.9567	0.1905
355.1655	0.1935
355.3744	0.1848
355.5833	0.1912
355.7921	0.1929
356.0009	0.1891
356.2097	0.1834
356.4185	0.1874
356.6273	0.192
356.8361	0.193
357.0448	0.1864
357.2536	0.1928
357.4623	0.1915
357.671	0.1972
357.8797	0.208
358.0884	0.1913
358.2971	0.1895
358.5057	0.1992
358.7144	0.2023
358.923	0.1974
359.1316	0.1989
359.3402	0.2021
359.5488	0.1993
359.7574	0.2052
359.966	0.1962
360.1746	0.1989
360.3831	0.2034
360.5916	0.2006
360.8002	0.2077
361.0087	0.2049
361.2172	0.2096
361.4256	0.2102
361.6341	0.2101
361.8426	0.2106
362.051	0.2129
362.2594	0.209
362.4678	0.2141
362.6762	0.2087
362.8846	0.2074
363.093	0.2111
363.3014	0.2196
363.5097	0.2175
363.718	0.2156
363.9264	0.2252
364.1347	0.2127
364.343	0.225
364.5513	0.2159
364.7595	0.2315
364.9678	0.215
365.176	0.2203
365.3842	0.2282
365.5925	0.2263
365.8007	0.2214
366.0089	0.2239
366.217	0.2308
366.4252	0.2234
366.6333	0.2241
366.8415	0.228
367.0496	0.239
367.2577	0.2401
367.4658	0.2273
367.6739	0.2205
367.882	0.2343
368.09	0.2305
368.2981	0.2394
368.5061	0.2339
368.7141	0.2352
368.9221	0.2405
369.1301	0.2381
369.3381	0.2406
369.5461	0.2436
369.754	0.235
369.962	0.2357
370.1699	0.2479
370.3778	0.2472
370.5857	0.2426
370.7936	0.2378
371.0015	0.2431
371.2093	0.2481
371.4172	0.2431
371.625	0.2486
371.8328	0.2406
372.0406	0.254
372.2484	0.2525
372.4562	0.247
372.664	0.2512
372.8717	0.247
373.0795	0.2556
373.2872	0.2522
373.4949	0.2612
373.7026	0.2489
373.9103	0.2501
374.118	0.2633
374.3256	0.255
374.5333	0.253
374.7409	0.2612
374.9485	0.2562
375.1561	0.2561
375.3637	0.2526
375.5713	0.2612
375.7789	0.2588
375.9864	0.2587
376.194	0.2635
376.4015	0.2687
376.609	0.2596
376.8165	0.2549
377.024	0.2654
377.2315	0.2686
377.4389	0.2648
377.6464	0.2648
377.8538	0.2688
378.0612	0.2676
378.2686	0.2716
378.476	0.2789
378.6834	0.2696
378.8908	0.2747
379.0981	0.273
379.3055	0.272
379.5128	0.2681
379.7201	0.2803
379.9274	0.2675
380.1347	0.2787
380.342	0.2856
380.5492	0.2743
380.7565	0.2778
380.9637	0.271
381.1709	0.2856
381.3781	0.2783
381.5853	0.2765
381.7925	0.2748
381.9997	0.2808
382.2068	0.2873
382.4139	0.2845
382.6211	0.2803
382.8282	0.2969
383.0353	0.2751
383.2424	0.2763
383.4494	0.2811
383.6565	0.2762
383.8635	0.29
384.0706	0.2892
384.2776	0.2834
384.4846	0.293
384.6916	0.2821
384.8986	0.2865
385.1055	0.2913
385.3125	0.2969
385.5194	0.2853
385.7263	0.2874
385.9333	0.2964
386.1402	0.2812
386.347	0.2911
386.5539	0.2775
386.7608	0.2851
386.9676	0.2882
387.1744	0.2806
387.3813	0.2932
387.5881	0.2856
387.7948	0.2979
388.0016	0.3002
388.2084	0.287
388.4151	0.2971
388.6219	0.2832
388.8286	0.2826
389.0353	0.283
389.242	0.2986
389.4487	0.2791
389.6553	0.276
389.862	0.2608
390.0686	0.2908
390.2753	0.282
390.4819	0.2783
390.6885	0.2838
390.8951	0.2764
391.1016	0.2782
391.3082	0.2826
391.5147	0.2786
391.7213	0.2721
391.9278	0.2691
392.1343	0.2705
392.3408	0.2672
392.5473	0.2678
392.7537	0.2603
392.9602	0.2706
393.1666	0.2706
393.373	0.2669
393.5794	0.2574
393.7858	0.2659
393.9922	0.2609
394.1986	0.2616
394.4049	0.2612
394.6113	0.2616
394.8176	0.2584
395.0239	0.2547
395.2302	0.2535
395.4365	0.2652
395.6428	0.2519
395.8491	0.2534
396.0553	0.2454
396.2615	0.2472
396.4678	0.2555
396.674	0.2476
396.8802	0.2437
397.0863	0.2549
397.2925	0.2499
397.4987	0.239
397.7048	0.2567
397.9109	0.2372
398.117	0.2486
398.3231	0.2488
398.5292	0.239
398.7353	0.2463
398.9413	0.2415
399.1474	0.2486
399.3534	0.2428
399.5594	0.2489
399.7654	0.2397
399.9714	0.2385
400.1774	0.2398
400.3833	0.2414
400.5893	0.2397
400.7952	0.2482
401.0011	0.2293
401.207	0.2435
401.4129	0.2328
401.6188	0.2408
401.8247	0.2447
402.0305	0.2366
402.2364	0.2531
402.4422	0.2459
402.648	0.2409
402.8538	0.2434
403.0596	0.2289
403.2654	0.2382
403.4711	0.2326
403.6768	0.2449
403.8826	0.247
404.0883	0.2454
404.294	0.2443
404.4997	0.2446
404.7054	0.2524
404.911	0.2389
405.1167	0.2491
405.3223	0.2349
405.5279	0.2324
405.7335	0.2345
405.9391	0.2369
406.1447	0.2453
406.3502	0.2346
406.5558	0.2362
406.7613	0.2383
406.9668	0.2442
407.1724	0.2357
407.3778	0.2404
407.5833	0.2371
407.7888	0.2427
407.9942	0.2373
408.1997	0.2461
408.4051	0.2378
408.6105	0.2468
408.8159	0.2305
409.0213	0.245
409.2267	0.2469
409.432	0.2438
409.6374	0.2405
409.8427	0.2383
410.048	0.2356
410.2533	0.2394
410.4586	0.2314
410.6639	0.2485
410.8691	0.2226
411.0744	0.2398
411.2796	0.2394
411.4848	0.2407
411.69	0.2395
411.8952	0.236
412.1004	0.2397
412.3056	0.2395
412.5107	0.2364
412.7158	0.2407
412.921	0.2376
413.1261	0.2379
413.3312	0.2396
413.5362	0.2542
413.7413	0.2406
413.9464	0.2298
414.1514	0.227
414.3564	0.2363
414.5614	0.2303
414.7664	0.2265
414.9714	0.2345
415.1764	0.2427
415.3813	0.2258
415.5863	0.2415
415.7912	0.2288
415.9961	0.2312
416.201	0.2345
416.4059	0.2305
416.6108	0.2326
416.8156	0.2284
417.0205	0.2316
417.2253	0.2351
417.4301	0.2394
417.6349	0.2358
417.8397	0.2372
418.0445	0.222
418.2492	0.2255
418.454	0.2361
418.6587	0.2348
418.8634	0.2315
419.0681	0.2335
419.2728	0.2301
419.4775	0.2386
419.6822	0.2262
419.8868	0.2249
420.0915	0.2242
420.2961	0.2214
420.5007	0.2246
420.7053	0.2184
420.9099	0.2226
421.1144	0.2232
421.319	0.2207
421.5235	0.2196
421.728	0.2279
421.9325	0.2211
422.137	0.2172
422.3415	0.2206
422.546	0.213
422.7504	0.2171
422.9549	0.2188
423.1593	0.2084
423.3637	0.2239
423.5681	0.2197
423.7725	0.207
423.9769	0.208
424.1812	0.2008
424.3856	0.1997
424.5899	0.21
424.7942	0.2076
424.9985	0.2072
425.2028	0.2055
425.4071	0.207
425.6113	0.2056
425.8156	0.2058
426.0198	0.207
426.224	0.2003
426.4282	0.1935
426.6324	0.2011
426.8366	0.1991
427.0407	0.1974
427.2449	0.1871
427.449	0.2026
427.6531	0.1997
427.8572	0.1973
428.0613	0.2047
428.2654	0.1975
428.4694	0.1892
428.6735	0.1887
428.8775	0.192
429.0815	0.1899
429.2855	0.1811
429.4895	0.1853
429.6935	0.1844
429.8975	0.1771
430.1014	0.1721
430.3053	0.1871
430.5093	0.1758
430.7132	0.1744
430.9171	0.173
431.1209	0.1742
431.3248	0.1676
431.5286	0.1662
431.7325	0.1733
431.9363	0.1704
432.1401	0.1649
432.3439	0.1684
432.5477	0.1606
432.7514	0.1579
432.9552	0.1523
433.1589	0.1522
433.3627	0.1549
433.5664	0.1521
433.7701	0.1544
433.9737	0.1481
434.1774	0.1549
434.3811	0.1465
434.5847	0.1487
434.7883	0.1537
434.9919	0.146
435.1955	0.1409
435.3991	0.1389
435.6027	0.1408
435.8062	0.148
436.0098	0.1331
436.2133	0.1391
436.4168	0.122
436.6203	0.1275
436.8238	0.1309
437.0272	0.1265
437.2307	0.1245
437.4341	0.1214
437.6375	0.1285
437.841	0.1193
438.0443	0.1338
438.2477	0.1145
438.4511	0.1128
438.6545	0.1201
438.8578	0.1181
439.0611	0.1227
439.2644	0.118
439.4677	0.1029
439.671	0.1078
439.8743	0.1189
440.0775	0.1122
440.2808	0.1053
440.484	0.1027
440.6872	0.1056
440.8904	0.0948
441.0936	0.1029
441.2967	0.0838
441.4999	0.0956
441.703	0.0934
441.9062	0.0954
442.1093	0.1061
442.3124	0.0926
442.5155	0.09
442.7185	0.079
442.9216	0.0794
443.1246	0.0854
443.3276	0.087
443.5307	0.079
443.7337	0.0805
443.9366	0.083
444.1396	0.0754
444.3426	0.0746
444.5455	0.0751
444.7484	0.0714
444.9513	0.0745
445.1542	0.0756
445.3571	0.0663
445.56	0.0697
445.7628	0.0704
445.9657	0.072
446.1685	0.0728
446.3713	0.0599
446.5741	0.0678
446.7769	0.0702
446.9797	0.0641
447.1824	0.0656
447.3852	0.0506
447.5879	0.072
447.7906	0.0586
447.9933	0.0601
448.196	0.0509
448.3986	0.0492
448.6013	0.0446
448.8039	0.0581
449.0066	0.0605
449.2092	0.054
449.4118	0.0651
449.6143	0.063
449.8169	0.0561
450.0195	0.0499
450.222	0.0573
450.4245	0.0519
450.627	0.0483
450.8295	0.0418
451.032	0.0393
451.2345	0.0495
451.4369	0.0545
451.6394	0.047
451.8418	0.041
452.0442	0.0401
452.2466	0.035
452.449	0.0458
452.6513	0.0412
452.8537	0.0317
453.056	0.0336
453.2583	0.0343
453.4607	0.0333
453.663	0.0433
453.8652	0.0314
454.0675	0.0424
454.2697	0.0371
454.472	0.0269
454.6742	0.0405
454.8764	0.0345
455.0786	0.0299
455.2808	0.0299
455.4829	0.0369
455.6851	0.0275
455.8872	0.0197
456.0893	0.0299
456.2915	0.0248
456.4935	0.0337
456.6956	0.022
456.8977	0.0193
457.0997	0.0291
457.3018	0.0246
457.5038	0.0269
457.7058	0.0333
457.9078	0.0231
458.1098	0.0189
458.3117	0.0297
458.5137	0.002
458.7156	0.0235
458.9175	0.0188
459.1194	0.0223
459.3213	0.0123
459.5232	0.0297
459.725	0.0203
459.9269	0.0236
460.1287	0.022
460.3305	0.026
460.5323	0.0238
460.7341	0.024
460.9359	0.0076
461.1376	0.023
461.3394	0.015
461.5411	0.0236
461.7428	0.0198
461.9445	0.0216
462.1462	0.0162
462.3479	0.0146
462.5495	0.0233
462.7512	0.0272
462.9528	0.0203
463.1544	0.0212
463.356	0.0132
463.5576	0.0195
463.7592	0.0193
463.9607	0.0219
464.1623	0.0157
464.3638	0.0188
464.5653	0.0193
464.7668	0.0151
464.9683	0.0185
465.1697	0.0159
465.3712	0.01
465.5726	0.0131
465.7741	0.0261
465.9755	0.0138
466.1769	0.0097
466.3782	0.015
466.5796	0.0215
466.7809	0.0087
466.9823	0.0091
467.1836	0.0071
467.3849	0.0101
467.5862	0.0029
467.7875	0.0131
467.9887	0.0109
468.19	0.0137
468.3912	0.0137
468.5924	0.0061
468.7936	0.0153
468.9948	0.0048
469.196	0.0134
469.3972	0.0189
469.5983	0.0017
469.7994	0.0142
470.0006	0.0169
470.2017	0.0088
470.4027	0.0289
470.6038	0.0169
470.8049	0.0073
471.0059	0.0184
471.2069	0.016
471.408	0.0067
471.6089	0.0172
471.8099	0.0062
472.0109	0.0133
472.2119	0.0258
472.4128	0.0072
472.6137	0.015
472.8146	0.004
473.0155	0.017
473.2164	0.0219
473.4173	0.0034
473.6181	0.0131
473.819	0.0122
474.0198	0.0076
474.2206	0.0035
474.4214	0.0165
474.6222	0.0038
474.8229	0.0032
475.0237	0.0139
475.2244	0.0097
475.4251	0.0094
475.6258	0.0135
475.8265	0.0109
476.0272	0.0036
476.2278	0.0115
476.4285	0.0119
476.6291	0.0119
476.8297	0.01
477.0303	0.0007
477.2309	0.0111
477.4315	0.0166
477.632	0.0062
477.8326	0.0121
478.0331	0.0093
478.2336	0.0136
478.4341	0.0111
478.6346	0.0041
478.8351	0.001
479.0355	0.0114
479.236	0.0143
479.4364	0.0055
479.6368	0.0106
479.8372	0.0057
480.0376	0.0144
480.2379	0.0173
480.4383	0.0137
480.6386	-0.0013
480.8389	0.0066
481.0392	0.0092
481.2395	0.0141
481.4398	0.0174
481.6401	0.0154
481.8403	0.013
482.0405	0.0066
482.2408	0.0116
482.441	0.0073
482.6411	0.0123
482.8413	0.0053
483.0415	0.0218
483.2416	0.0125
483.4417	0.0084
483.6419	0.0066
483.8419	0.0096
484.042	0.0137
484.2421	0.0031
484.4422	0.0118
484.6422	0.0083
484.8422	0.0076
485.0422	0.0101
485.2422	0.0043
485.4422	0.0063
485.6422	0.0062
485.8421	0.0088
486.042	0.0141
486.242	0.0073
486.4419	0.0099
486.6417	0.0051
486.8416	0.0079
487.0415	0.0046
487.2413	0.0019
487.4411	0.0083
487.641	0.0001
487.8408	0.0128
488.0405	0.0179
488.2403	0.0037
488.4401	0.0042
488.6398	0.0116
488.8395	0.0118
489.0392	0.0083
489.2389	0.0112
489.4386	0.006
489.6383	0.0155
489.8379	0.0011
490.0376	0.0094
490.2372	0.0035
490.4368	0.0006
490.6364	-0.0041
490.836	0.0036
491.0355	0.0091
491.2351	0.0024
491.4346	0.0089
491.6341	0.0027
491.8336	0.0116
492.0331	0.0042
492.2326	0.0059
492.432	0.0026
492.6315	0.0165
492.8309	0.0091
493.0303	0.0054
493.2297	0.0111
493.4291	0.0092
493.6284	0.0202
493.8278	0.0084
494.0271	0.0066
494.2264	0.0099
494.4257	0.0116
494.625	0.0033
494.8243	0.0042
495.0236	0.012
495.2228	0.0113
495.422	0.0105
495.6213	0.0041
495.8205	0.0074
496.0196	0.0053
496.2188	0.0102
496.418	0.0094
496.6171	0.0037
496.8162	0.0135
497.0153	0.0098
497.2144	0.0087
497.4135	0.0029
497.6126	0.0112
497.8116	0.0036
498.0107	0.0067
498.2097	0.0069
498.4087	0.0048
498.6077	-0.0016
498.8067	0.0139
499.0056	-0.0003
499.2046	0.0073
499.4035	0.0032
499.6024	0.0051
499.8013	0.0109
500.0002	0.0118
500.199	0.0155
500.3979	0.0042
500.5967	0.0072
500.7956	0.0048
500.9944	0.0099
501.1932	0.0156
501.3919	0.0075
501.5907	0.0108
501.7895	0.002
501.9882	0.0112
502.1869	0.0152
502.3856	0.0005
502.5843	0.0156
502.783	0.0006
502.9816	0.0125
503.1803	0.0059
503.3789	0.0086
503.5775	0.0061
503.7761	0.0025
503.9747	0.0064
504.1732	0.0018
504.3718	0.0115
504.5703	0.0056
504.7689	0.0002
504.9674	0.0038
505.1658	0.0055
505.3643	0.0087
505.5628	0.0086
505.7612	0.0126
505.9597	0.005
506.1581	0.0069
506.3565	0.0117
506.5549	0.0039
506.7532	0.0034
506.9516	0.0102
507.1499	0.0085
507.3482	0.0101
507.5465	0.009
507.7448	0.0173
507.9431	0.0111
508.1414	0.0108
508.3396	0.0042
508.5379	0.0024
508.7361	0.0082
508.9343	0.02
509.1325	0.0135
509.3306	0.0087
509.5288	-0.0006
509.7269	0.01
509.9251	0.0133
510.1232	0.0069
510.3213	0.0084
510.5193	0.0073
510.7174	0.0121
510.9154	0.0122
511.1135	0.0062
511.3115	0.0115
511.5095	0.0046
511.7075	0.006
511.9055	0.0039
512.1034	0.0012
512.3014	0.0084
512.4993	0.0153
512.6972	0.0079
512.8951	0.0084
513.093	0.0013
513.2908	0.016
513.4887	0.0061
513.6865	0.0109
513.8844	0.0169
514.0822	0.0058
514.2799	-0.0023
514.4777	0.0046
514.6755	0.0093
514.8732	0.0032
515.0709	0.0107
515.2687	0.0005
515.4664	0.0092
515.664	0.0175
515.8617	0.0151
516.0594	0.0045
516.257	0.0037
516.4546	0.0169
516.6522	0.0074
516.8498	0.0075
517.0474	0.0165
517.2449	0.0104
517.4425	0.0126
517.64	0.0127
517.8375	0.0122
518.035	0.0032
518.2325	0.0037
518.43	-0.0007
518.6274	0.0086
518.8249	0.0019
519.0223	0.0174
519.2197	-0.0009
519.4171	0.0027
519.6145	0.0122
519.8118	-0.0104
520.0092	0.0002
520.2065	0.0257
520.4038	0.0097
520.6011	0.0083
520.7984	0.0126
520.9956	0.0049
521.1929	0.008
521.3901	0.0168
521.5874	0.0106
521.7846	0.005
521.9818	0.0031
522.1789	-0.0036
522.3761	0.0214
522.5732	0.0121
522.7704	-0.0143
522.9675	0.0103
523.1646	-0.0098
523.3617	0.0129
523.5587	0.0046
523.7558	0.0111
523.9528	0.0069
524.1498	0.0025
524.3468	0.0041
524.5438	0.0064
524.7408	0.0059
524.9378	0.007
525.1347	0.0102
525.3316	-0.001
525.5285	0.0069
525.7254	0.0069
525.9223	0.0144
526.1192	0.0064
526.316	0.0131
526.5129	0.0085
526.7097	-0.0066
526.9065	0.0212
527.1033	0.0174
527.3	0.0077
527.4968	0.0138
527.6935	0.0059
527.8903	0.0121
528.087	0.0042
528.2837	0.0157
528.4804	-0.0001
528.677	0.0104
528.8737	0.0079
529.0703	0.0051
529.2669	0.0194
529.4635	-0.0026
529.6601	-0.003
529.8567	0.001
530.0532	0.0092
530.2498	0.0036
530.4463	-0.0013
530.6428	0.0149
530.8393	0.0096
531.0358	0.0076
531.2322	0.004
531.4287	0.0162
531.6251	-0.0048
531.8215	0.0054
532.0179	0.0073
532.2143	0.0062
532.4107	0.0131
532.607	0.0058
532.8034	-0.0037
532.9997	0.0053
533.196	0.0024
533.3923	0.0077
533.5886	0.0113
533.7848	0.004
533.9811	0.0113
534.1773	0.0044
534.3735	0.0103
534.5697	0.0065
534.7659	0.0125
534.9621	0.0142
535.1582	0.0083
535.3544	0.0003
535.5505	0.0155
535.7466	0.0084
535.9427	0.0157
536.1387	0.0095
536.3348	0.0048
536.5308	-0.0011
536.7269	-0.0007
536.9229	0.011
537.1189	0.0141
537.3148	0.0024
537.5108	0.0117
537.7068	0.0158
537.9027	-0.0046
538.0986	0.0112
538.2945	0
538.4904	0.0003
538.6863	0.0046
538.8821	0.0122
539.078	0.0064
539.2738	0.0057
539.4696	0.0043
539.6654	0.0041
539.8611	0.0105
540.0569	0.0126
540.2526	0.0108
540.4484	-0.0058
540.6441	0.0049
540.8398	0.0159
541.0355	0.0028
541.2311	0.0078
541.4268	0.0121
541.6224	0.0181
541.818	0.0147
542.0136	0.0199
542.2092	0.0171
542.4048	0.0148
542.6003	0.0018
542.7959	0.0068
542.9914	0.0105
543.1869	0.0075
543.3824	0.0024
543.5779	0.0104
543.7734	0.0126
543.9688	0.0141
544.1642	0.0024
544.3596	0.0149
544.555	0.0094
544.7504	0.0163
544.9458	0.0053
545.1411	0.0039
545.3365	0.0129
545.5318	0.0048
545.7271	0.0136
545.9224	0.0075
546.1177	0.0084
546.3129	0.0012
546.5081	0.0034
546.7034	0.0151
546.8986	0.009
547.0938	0.0163
547.289	0.0126
547.4841	0.0089
547.6793	0.0017
547.8744	0.0075
548.0695	0.0065
548.2646	0.0193
548.4597	-0.0008
548.6548	0.0185
548.8498	0.0034
549.0448	-0.001
549.2399	0.0098
549.4349	0.0078
549.6298	0.0135
549.8248	0.0079
550.0198	0.0121
550.2147	0.0182
550.4096	-0.0003
550.6045	0.0094
550.7994	0.0002
550.9943	0.0124
551.1892	-0.0072
551.384	0.0237
551.5788	0.0098
551.7737	0.0108
551.9685	0.006
552.1632	0.008
552.358	0.0084
552.5528	0.0142
552.7475	0.0082
552.9422	0.0096
553.1369	0.0158
553.3316	0.0133
553.5263	0.0013
553.7209	0.0106
553.9156	0.0122
554.1102	0.0068
554.3048	0.0001
554.4994	0.0077
554.694	0.0093
554.8885	0.0098
555.0831	0.0135
555.2776	0.0156
555.4721	0.0062
555.6666	0.0143
555.8611	0.0112
556.0555	0.001
556.25	0.0097
556.4444	0.0053
556.6388	0.0016
556.8332	0.0075
557.0276	0.0109
557.222	-0.0022
557.4163	0.0138
557.6107	0.0029
557.805	0.0045
557.9993	0.0133
558.1936	0.0042
558.3879	0.0174
558.5821	-0.0041
558.7764	-0.0006
558.9706	0.0139
559.1648	0.0091
559.359	0.0062
559.5532	0.0088
559.7473	0.009
559.9415	-0.0009
560.1356	0.0181
560.3297	0.0055
560.5238	0.0087
560.7179	-0.0018
560.9119	0.0085
561.106	0.0029
561.3	0.0041
561.494	-0.0056
561.688	0.0048
561.882	0.0032
562.076	0.0042
562.2699	0.0104
562.4639	0.0149
562.6578	0.0083
562.8517	0.0053
563.0456	0.0053
563.2395	0.0142
563.4333	0.014
563.6272	0.009
563.821	0.0131
564.0148	0.0001
564.2086	0.0081
564.4024	0.0135
564.5961	0.01
564.7899	0.0202
564.9836	0.0055
565.1773	0.0135
565.371	0.0124
565.5647	0.0033
565.7584	0.0219
565.952	0.0041
566.1456	0.0007
566.3393	0.0045
566.5329	0.0063
566.7264	0.007
566.92	0.0052
567.1136	0.0075
567.3071	0.0058
567.5006	0.0116
567.6941	0.0035
567.8876	0.0014
568.0811	0.0212
568.2745	0.006
568.468	0.0116
568.6614	0.0172
568.8548	0.011
569.0482	0.0183
569.2416	0.0115
569.4349	0.008
569.6283	0.0051
569.8216	0.0126
570.0149	0.003
570.2082	0.013
570.4015	0.0056
570.5947	0.008
570.788	0.0136
570.9812	0.0047
571.1744	0.0093
571.3676	0.008
571.5608	0.0073
571.754	0.0099
571.9471	0.01
572.1402	0.0113
572.3333	0.0096
572.5264	0.008
572.7195	0.0073
572.9126	0.0111
573.1057	0.0106
573.2987	0.005
573.4917	0.0098
573.6847	0.0057
573.8777	0.0125
574.0707	0.0097
574.2636	0.009
574.4566	0.0085
574.6495	0.0057
574.8424	0.0117
575.0353	0.0115
575.2281	0.0145
575.421	0.0025
575.6138	0.0119
575.8067	0.01
575.9995	0.0093
576.1923	0.0122
576.385	0.0125
576.5778	0.0137
576.7706	0.0102
576.9633	0.0089
577.156	0.0001
577.3487	0.0103
577.5414	0.0053
577.734	0.0056
577.9267	0.0088
578.1193	0.0143
578.3119	0.0047
578.5045	0.0105
578.6971	0.0043
578.8897	0.005
579.0822	0.0087
579.2747	0.0086
579.4673	0.0104
579.6598	0.0078
579.8522	0.0066
580.0447	0.0112
580.2372	0.0132
580.4296	0.0123
580.622	0.0089
580.8144	0.0078
581.0068	0.0061
581.1992	0.0064
581.3915	0
581.5839	0.0088
581.7762	0.008
581.9685	0.0061
582.1608	0.0049
582.353	0.0099
582.5453	0.0069
582.7375	0.0096
582.9298	0.0029
583.122	0.0041
583.3142	0.0126
583.5063	0.0086
583.6985	0.0035
583.8906	0.008
584.0827	0.009
584.2749	0.0025
584.4669	0.0092
584.659	0.0122
584.8511	0.0153
585.0431	0.0102
585.2352	0.0057
585.4272	0.0093
585.6192	0.0094
585.8111	0.0046
586.0031	0.0077
586.195	0.0105
586.387	0.0071
586.5789	0.0087
586.7708	0.0122
586.9627	0.0111
587.1545	0.0083
587.3464	0.0096
587.5382	0.0095
587.73	0.0121
587.9218	0.0054
588.1136	0.0105
588.3053	0.0068
588.4971	0.0059
588.6888	-0.0012
588.8805	0.0079
589.0722	0.0146
589.2639	0.0102
589.4556	0.0087
589.6472	0.0109
589.8389	0.011
590.0305	0.0084
590.2221	0.012
590.4137	0.0065
590.6052	0.0095
590.7968	0.0064
590.9883	0.0076
591.1798	0.0083
591.3713	0.0082
591.5628	0.0136
591.7543	0.0052
591.9458	0.0034
592.1372	0.0078
592.3286	0.0058
592.52	0.0097
592.7114	0.0076
592.9028	0.0119
593.0941	0.0045
593.2855	0.0063
593.4768	0.0147
593.6681	0.0066
593.8594	0.0093
594.0506	0.0114
594.2419	0.0074
594.4331	0.007
594.6244	0.0064
594.8156	0.0023
595.0067	0.0007
595.1979	0.0044
595.3891	0.008
595.5802	0.0109
595.7713	0.0128
595.9624	0.0124
596.1535	0.0079
596.3446	0.0014
596.5357	0.0136
596.7267	0.0106
596.9177	0.0086
597.1087	0.0018
597.2997	0.0077
597.4907	0.002
597.6817	0.0133
597.8726	0.0101
598.0635	0.0073
598.2544	0.0163
598.4453	0.009
598.6362	0.0081
598.827	0.0044
599.0179	0.0075
599.2087	0.0123
599.3995	0.0091
599.5903	0.0078
599.7811	0.0159
599.9718	0.0032
600.1626	0.008
600.3533	0.0095
600.544	0.0063
600.7347	0.0076
600.9254	0.0159
601.116	0.0077
601.3067	0.0091
601.4973	0.0066
601.6879	0.0036
601.8785	0.014
602.0691	0.0019
602.2596	0.0122
602.4502	0.0099
602.6407	0.014
602.8312	0.0066
603.0217	0.0125
603.2122	0.0048
603.4027	0.005
603.5931	0.0076
603.7835	0.0059
603.9739	0.0063
604.1643	0.0119
604.3547	0.0115
604.5451	0.0083
604.7354	0.0078
604.9257	0.0096
605.116	0.0007
605.3063	0.0115
605.4966	0.0036
605.6869	0.0174
605.8771	0.013
606.0673	0.0054
606.2575	0.004
606.4477	0.0112
606.6379	0.0022
606.8281	0.0045
607.0182	0.0009
607.2083	0.0074
607.3985	0.0095
607.5885	0.0066
607.7786	0.0086
607.9687	0.0148
608.1587	0.007
608.3488	0.0053
608.5388	0.003
608.7288	0.0032
608.9187	0.0107
609.1087	0.009
609.2986	0.0118
609.4886	0.0087
609.6785	0.0099
609.8684	0.0056
610.0582	0.0066
610.2481	-0.0003
610.4379	0.013
610.6278	0.0039
610.8176	0.0051
611.0074	0.0072
611.1971	0.0083
611.3869	0.0059
611.5766	-0.0063
611.7664	0.0106
611.9561	0.0122
612.1458	0.01
612.3354	0.0049
612.5251	0.0061
612.7147	0.0156
612.9044	-0.0024
613.094	0.0061
613.2836	0.0033
613.4731	0.0128
613.6627	0.0049
613.8522	0.0037
614.0417	0.0128
614.2313	0.0064
614.4207	0.0085
614.6102	0.0141
614.7997	0.0067
614.9891	0.0125
615.1785	0.0009
615.3679	0.0123
615.5573	0.0057
615.7467	0.0011
615.9361	0.0073
616.1254	0.0087
616.3147	0.0091
616.504	0.0062
616.6933	0.0055
616.8826	0.0004
617.0718	0.0044
617.2611	0.0019
617.4503	0.0015
617.6395	0.0077
617.8287	0.0059
618.0179	0.0091
618.207	0.0144
618.3961	0.0011
618.5853	0.0054
618.7744	0.0006
618.9634	0.0136
619.1525	0.0069
619.3416	0.0012
619.5306	0.0157
619.7196	0.0138
619.9086	0.0042
620.0976	0.0028
620.2866	0.0065
620.4755	0.0039
620.6645	0.0139
620.8534	0.0159
621.0423	-0.0013
621.2312	0.0073
621.42	0.0006
621.6089	0.011
621.7977	0.0181
621.9865	0.0033
622.1753	0.0036
622.3641	0.0042
622.5529	0.0037
622.7416	0.0016
622.9303	0.0008
623.1191	0.0031
623.3078	0.0077
623.4964	0.0009
623.6851	0.0125
623.8737	0.0049
624.0624	-0.0076
624.251	0.0111
624.4396	0.0106
624.6282	0.0133
624.8167	0.0057
625.0053	0.0074
625.1938	0.0096
625.3823	0.0056
625.5708	-0.0068
625.7593	-0.0026
625.9477	0.0059
626.1362	0.0079
626.3246	0.0095
626.513	0.0122
626.7014	0.0083
626.8898	0.0144
627.0781	0.006
627.2665	0.0083
627.4548	-0.0003
627.6431	0.0005
627.8314	0.0093
628.0197	0.0062
628.2079	0.0043
628.3962	-0.0042
628.5844	0.0144
628.7726	0.0056
628.9608	0.0087
629.1489	0.0082
629.3371	-0.0062
629.5252	0.0122
629.7134	0.0003
629.9015	0.0141
630.0895	-0.0001
630.2776	0.0066
630.4657	0.0173
630.6537	0.0169
630.8417	0.0012
631.0297	0.005
631.2177	0.0011
631.4057	0.0106
631.5936	-0.0069
631.7815	0.0043
631.9695	0.0152
632.1574	0.0034
632.3452	0.0015
632.5331	0
632.7209	0.024
632.9088	0.0216
633.0966	0.0345
633.2844	0.0145
633.4722	0.0074
633.6599	0.0181
633.8477	0.0007
634.0354	0.0341
634.2231	0.0004
634.4108	0.0025
634.5985	0.0173
634.7861	0.0123
634.9738	-0.0012
635.1614	0.0068
635.349	-0.0059
635.5366	0.0161
635.7242	0.0124
635.9117	0.0105
636.0993	0.0058
636.2868	-0.0038
636.4743	0.0008
636.6618	-0.016
636.8492	0.0177
637.0367	-0.013
637.2241	0.0009
637.4115	0.0144
637.5989	-0.0012
637.7863	0.0283
637.9737	0.0041
638.161	0.0044
638.3484	0.0002
638.5357	-0.0107
638.723	0.0296
638.9103	-0.022
639.0975	0.0159
639.2848	0.014
639.472	0.0185
639.6592	-0.0026
639.8464	0.0085
640.0336	0.0095
640.2208	0.0036
640.4079	0
640.595	-0.0123
640.7821	0.0172
640.9692	0.0005
641.1563	0.0125
641.3434	0.0192
641.5304	0.0238
641.7174	0.0011
641.9044	-0.0066
642.0914	0.0113
642.2784	-0.007
642.4653	-0.0024
642.6523	0.0156
642.8392	0.0005
643.0261	0.0154
643.213	0.0169
643.3999	0.0115
643.5867	0.0144
643.7735	-0.0011
643.9604	0.0222
644.1472	0.0186
644.3339	-0.0027
644.5207	0.0124
644.7075	0.0107
644.8942	-0.0028
645.0809	-0.0088
645.2676	0.0065
645.4543	0.0005
645.6409	0.0157
645.8276	0.0094
646.0142	0.0041
646.2008	-0.0067
646.3874	0.0054
646.574	0.0164
646.7605	0.0106
646.9471	-0.0054
647.1336	-0.028
647.3201	0.0132
647.5066	0.004
647.6931	0.0046
647.8795	-0.0022
648.0659	0.0053
648.2524	0.0086
648.4388	0.0151
648.6252	0.0172
648.8115	0.0021
648.9979	0.0193
649.1842	0.0039
649.3705	0.0085
649.5568	0.0037
649.7431	0.0022
649.9294	-0.0134
650.1156	0.0008
650.3018	0.0008
650.488	0.016
650.6742	-0.0002
650.8604	0.002
651.0466	0.0052
651.2327	0.0148
651.4188	0.0096
651.6049	0.0046
651.791	0.0125
651.9771	0.0128
652.1632	-0.0001
652.3492	0.0058
652.5352	0.0185
652.7212	-0.0023
652.9072	0.0023
653.0932	0.0097
653.2791	0.0092
653.465	0.0132
653.651	-0.0028
653.8369	0.0093
654.0227	0.0048
654.2086	0.0116
654.3944	0.0159
654.5803	-0.0057
654.7661	-0.0021
654.9519	0.0018
655.1377	0
655.3234	0
655.5092	0
655.6949	0
655.8806	0
656.0663	0
656.2519	0
656.4376	0
656.6232	0
656.8088	0
656.9945	0
657.18	0
657.3656	0
657.5511	0
657.7367	0
657.9222	0
658.1077	0
658.2932	0
658.4786	0
658.6641	0
658.8495	0
659.0349	0
659.2203	0
659.4057	0.0091
659.591	0.2604
659.7764	0.0346
659.9617	0.0238
660.147	-0.0023
660.3323	0.0128
660.5176	0.0171
660.7028	0.008
660.888	0.0032
661.0733	0.0185
661.2585	-0.0053
661.4436	0.0089
661.6288	0.0164
661.8139	0.0131
661.9991	-0.015
662.1842	-0.0007
662.3693	0.0061
662.5544	0.0011
662.7394	0.0213
662.9245	-0.0086
663.1095	-0.0109
663.2945	-0.0066
663.4795	-0.0091
663.6644	-0.0168
663.8494	0.0192
664.0343	0.0125
664.2193	0.0001
664.4042	0.0097
664.589	0.0401
664.7739	0.007
664.9587	-0.0121
665.1436	0.005
665.3284	0.0182
665.5132	-0.0268
665.698	0.0055
665.8827	0.0216
666.0675	-0.0315
666.2522	0.0184
666.4369	-0.0002
666.6216	0.0069
666.8063	0.0028
666.9909	0.011
667.1756	0.0249
667.3602	-0.0042
667.5448	-0.0019
667.7294	0.0039
667.9139	-0.0027
668.0985	0.0174
668.283	-0.015
668.4675	0.0152
668.652	0.0253
668.8365	0.0108
669.0209	0.0069
669.2054	-0.0025
669.3898	-0.0151
669.5742	0.0097
669.7586	0.0235
669.943	-0.0131
670.1273	-0.0031
670.3117	0.0156
670.496	0.0164
670.6803	-0.0058
670.8646	-0.0124
671.0488	0.0244
671.2331	-0.0189
671.4173	0.0101
671.6015	-0.0071
671.7857	0.0237
671.9699	0.0124
672.1541	-0.0013
672.3382	0.0122
672.5223	0.015
672.7064	-0.0004
672.8905	-0.0002
673.0746	0.0046
673.2587	0.0201
673.4427	-0.0023
673.6267	0.0213
673.8107	0.017
673.9947	0.0221
674.1787	0.0118
674.3626	0.02
674.5465	0.0175
674.7304	-0.0083
674.9143	-0.0025
675.0982	-0.0112
675.2821	-0.0121
675.4659	-0.0058
675.6497	0.0015
675.8335	0.0134
676.0173	-0.0024
676.2011	0.0031
676.3849	0.0142
676.5686	0.0186
676.7523	0.0061
676.936	0.0048
677.1197	0.0037
677.3034	0.0245
677.487	0.0047
677.6706	0.0184
677.8542	-0.008
678.0378	0.0029
678.2214	0.0012
678.405	0.0033
678.5885	0.0208
678.772	-0.0025
678.9555	-0.0053
679.139	0.0156
679.3225	-0.0106
679.5059	0.0099
679.6894	0.007
679.8728	0.0127
680.0562	-0.0002
680.2395	0.0017
680.4229	-0.0029
680.6062	0.0066
680.7896	0.002
680.9729	0.0176
681.1562	-0.0029
681.3394	-0.0026
681.5227	-0.0027
681.7059	-0.0004
681.8891	0.0092
682.0723	0.0108
682.2555	0.0101
682.4387	0.0007
682.6218	0.0152
682.805	0.0149
682.9881	0.0277
683.1712	0.0021
683.3542	0.0232
683.5373	0.0022
683.7203	0.0212
683.9034	-0.0013
684.0864	0.0009
684.2694	0.001
684.4523	0.0075
684.6353	0.0133
684.8182	-0.0181
685.0011	0.0263
685.184	0.0059
685.3669	0.0314
685.5498	0.0066
685.7326	-0.0113
685.9154	-0.0043
686.0982	0.0196
686.281	0.0075
686.4638	0.0154
686.6465	-0.001
686.8293	-0.0197
687.012	0.0087
687.1947	0.0127
687.3774	0.0114
687.56	-0.0093
687.7427	-0.007
687.9253	-0.014
688.1079	-0.002
688.2905	0.0161
688.4731	-0.0008
688.6556	0.0112
688.8382	-0.0157
689.0207	0.0074
689.2032	0.0254
689.3857	0.0024
689.5681	-0.001
689.7506	0.0396
689.933	-0.0091
690.1154	0.0139
690.2978	0.0009
690.4802	0.0044
690.6626	0.0254
690.8449	0.0057
691.0272	0.0072
691.2095	-0.0137
691.3918	0.0109
691.5741	0.0107
691.7563	0.0206
691.9386	0.0103
692.1208	0.016
692.303	-0.0096
692.4852	0.017
692.6673	-0.0142
692.8495	-0.0086
693.0316	-0.0089
693.2137	0.0154
693.3958	0.0178
693.5778	-0.002
693.7599	-0.0084
693.9419	-0.0078
694.1239	0.0056
694.3059	0.0036
694.4879	-0.0012
694.6699	-0.0141
694.8518	0.03
695.0337	0.0133
695.2157	0.0297
695.3975	-0.0018
695.5794	-0.0185
695.7613	0.0001
695.9431	-0.0252
696.1249	0.0023
696.3067	0.004
696.4885	0.0087
696.6703	0.0045
696.852	0.0087
697.0337	0.0218
697.2154	0.0052
697.3971	-0.0125
697.5788	0.013
697.7605	-0.0153
697.9421	0.0055
698.1237	0.0185
698.3053	-0.0013
698.4869	0.0122
698.6685	-0.0044
698.85	-0.0002
699.0315	-0.017
699.213	0.0175
699.3945	-0.0073
699.576	0.0515
699.7575	0.0267
699.9389	-0.0046
700.1203	0.0009
700.3017	0.0348
700.4831	0.0213
700.6645	0.002
700.8458	-0.0015
701.0271	0.049
701.2084	0.0271
701.3897	0.0215
701.571	-0.0033
701.7523	0.017
701.9335	0.0092
702.1147	0.0102
702.2959	-0.0054
702.4771	0.0052
702.6583	-0.0166
702.8394	-0.0086
703.0205	0.0412
703.2016	-0.0261
703.3827	-0.0322
703.5638	-0.0025
703.7449	0.0183
703.9259	0.0155
704.1069	-0.0505
704.2879	0.0032
704.4689	-0.003
704.6499	0.0089
704.8308	-0.004
705.0117	0.0032
705.1927	-0.0067
705.3735	0.0158
705.5544	0.0092
705.7353	0.0039
705.9161	-0.0242
706.0969	0.0247
706.2777	-0.0047
706.4585	-0.0014
706.6393	0.0086
706.82	0.0197
707.0007	-0.0116
707.1815	-0.0092
707.3621	0.0337
707.5428	0.0189
707.7235	-0.0049
707.9041	-0.0007
708.0847	-0.0066
708.2653	0.0387
708.4459	0.0112
708.6265	-0.017
708.807	0.0018
708.9875	-0.0003
709.168	-0.0135
709.3485	0.0059
709.529	0.0152
709.7095	-0.0256
709.8899	-0.008
710.0703	0.0029
710.2507	0.0085
710.4311	-0.0314
710.6115	0.006
710.7918	0.0021
710.9721	0.0043
711.1524	-0.0155
711.3327	-0.0011
711.513	-0.0047
711.6932	-0.0169
711.8735	0.0525
712.0537	-0.0096
712.2339	-0.0003
712.4141	0.0016
712.5942	-0.0079
712.7744	0.0204
712.9545	-0.01
713.1346	0.0047
713.3147	0.0185
713.4947	-0.0089
713.6748	0.0086
713.8548	0.0103
714.0348	-0.0018
714.2148	-0.0109
714.3948	0.0052
714.5748	0.013
714.7547	0.008
714.9346	0.0278
715.1145	-0.0104
715.2944	-0.0177
715.4743	0.025
715.6541	-0.0233
715.834	0.0237
716.0138	0.0176
716.1936	-0.0093
716.3733	0.0144
716.5531	-0.036
716.7328	0.008
716.9126	0.0186
717.0923	-0.0142
717.2719	0.0093
717.4516	0.0085
717.6312	-0.0242
717.8109	0.0243
717.9905	0.0036
718.1701	0.012
718.3496	0.008
718.5292	0.0012
718.7087	0.008
718.8882	0.0269
719.0677	0.0016
719.2472	-0.0099
719.4267	0.028
719.6061	-0.0183
719.7856	0.0304
719.965	0.0069
720.1443	-0.01
720.3237	-0.0042
720.5031	-0.0037
720.6824	-0.0123
720.8617	0.0046
721.041	0.0236
721.2203	0.0095
721.3995	-0.0108
721.5788	-0.0161
721.758	-0.0106
721.9372	0.0013
722.1164	0.0031
722.2956	0.0153
722.4747	0.013
722.6538	-0.0021
722.8329	0.029
723.012	0.0205
723.1911	-0.002
723.3702	-0.0039
723.5492	0.0035
723.7282	0.0369
723.9072	0.0022
724.0862	0.0156
724.2652	-0.0003
724.4441	-0.0072
724.623	-0.0243
724.8019	-0.0087
724.9808	0.0094
725.1597	0.0132
725.3385	0.024
725.5174	0.0156
725.6962	0.0087
725.875	0.0142
726.0538	0.0025
726.2325	0.0275
726.4112	-0.0323
726.59	-0.0037
726.7687	-0.0133
726.9474	-0.0023
727.126	0.0016
727.3047	-0.0011
727.4833	0.0043
727.6619	-0.0017
727.8405	0.0143
728.0191	0.012
728.1976	0.0126
728.3762	0.0128
728.5547	-0.006
728.7332	-0.0033
728.9116	-0.0036
729.0901	0.0158
729.2686	-0.0005
729.447	-0.0062
729.6254	0.0067
729.8038	0.0184
729.9821	-0.0037
730.1605	0.0088
730.3388	-0.0051
730.5171	0.0058
730.6954	-0.0129
730.8737	-0.0056
731.0519	-0.0095
731.2302	0.0116
731.4084	-0.0052
731.5866	-0.015
731.7648	0.0153
731.9429	0.0121
732.1211	-0.0127
732.2992	-0.0191
732.4773	0.0072
732.6554	-0.0158
732.8335	0.0156
733.0115	0.0032
733.1896	-0.0052
733.3676	0.0122
733.5456	-0.0067
733.7235	-0.0072
733.9015	0.0001
734.0794	0.0005
734.2574	-0.013
734.4353	0.0165
734.6131	-0.0027
734.791	-0.0033
734.9689	-0.0158
735.1467	-0.0138
735.3245	0.0079
735.5023	0.0085
735.68	-0.0197
735.8578	-0.0105
736.0355	0.0095
736.2132	0.0157
736.3909	0.0017
736.5686	0.0042
736.7463	-0.018
736.9239	0.0367
737.1015	0.0111
737.2791	0.0186
737.4567	0.0048
737.6343	0.0076
737.8118	-0.0072
737.9894	-0.0055
738.1669	0.0184
738.3444	0.0264
738.5218	-0.0046
738.6993	0.0244
738.8767	-0.0054
739.0541	0.0018
739.2315	-0.0034
739.4089	0.0325
739.5863	0.01
739.7636	0.0116
739.9409	-0.0021
740.1182	-0.009
740.2955	0.0216
740.4728	-0.0227
740.65	-0.0036
740.8272	0.0301
741.0044	-0.0364
741.1816	-0.0117
741.3588	0.0116
741.5359	-0.0098
741.7131	0.0045
741.8902	-0.0024
742.0673	-0.0267
742.2444	0.0326
742.4214	0.0171
742.5985	-0.0126
742.7755	0.0155
742.9525	-0.0013
743.1295	-0.0108
743.3064	-0.0047
743.4834	-0.0038
743.6603	0.0601
743.8372	-0.0662
744.0141	0.0162
744.191	0.0044
744.3678	-0.0283
744.5446	0.0019
744.7215	-0.016
744.8982	0.0237
745.075	0.0536
745.2518	-0.0142
745.4285	0.0194
745.6052	-0.0214
745.7819	0.0206
745.9586	0.0115
746.1353	0.0053
746.3119	0.0029
746.4885	0.0325
746.6651	0.0199
746.8417	0.0014
747.0183	0.0116
747.1948	0.0075
747.3714	0.0025
747.5479	0.0073
747.7244	-0.0066
747.9008	-0.0092
748.0773	0.0039
748.2537	0.0102
748.4301	0.0246
748.6065	-0.0106
748.7829	-0.0235
748.9593	0.0035
749.1356	-0.0023
749.3119	0.002
749.4882	0.0224
749.6645	0.0004
749.8408	0.0219
750.017	0.0172
750.1933	-0.0136
750.3695	0.0043
750.5457	0.0004
750.7218	-0.004
750.898	-0.025
751.0741	0.0137
751.2502	0.0038
751.4263	0.0048
751.6024	0.0183
751.7784	0.0029
751.9545	0.0057
752.1305	-0.0052
752.3065	0.0032
752.4825	-0.0059
752.6584	0.0064
752.8344	-0.0221
753.0103	-0.0102
753.1862	0.0275
753.3621	-0.0022
753.5379	-0.0144
753.7138	0.0205
753.8896	0.004
754.0654	-0.015
754.2412	0.0078
754.417	-0.0066
754.5927	0.0132
754.7685	0.0235
754.9442	0.0215
755.1199	0.0027
755.2956	0.0121
755.4712	0.0022
755.6469	0.0165
755.8225	0.0068
755.9981	0.0107
756.1736	-0.0009
756.3492	0.0084
756.5248	0.0162
756.7003	0.0076
756.8758	0.0069
757.0513	-0.0103
757.2267	0.0088
757.4022	-0.008
757.5776	0.0059
757.753	0.014
757.9284	0.0083
758.1038	0.0245
758.2791	0.0026
758.4545	-0.0102
758.6298	-0.0015
758.8051	0.0109
758.9803	0.0022
759.1556	-0.0116
759.3308	0.0157
759.506	-0.0093
759.6812	0.0018
759.8564	-0.0016
760.0316	-0.0184
760.2067	0.0177
760.3819	-0.0077
760.557	-0.0012
760.732	0.0005
760.9071	0.0326
761.0821	0.0051
761.2572	0.0231
761.4322	0.0004
761.6072	0.0066
761.7821	-0.037
761.9571	0.0274
762.132	0.028
762.3069	-0.002
762.4818	0.0272
762.6567	0.0016
762.8316	0.0053
763.0064	0.0088
763.1812	0.0004
763.356	-0.0171
763.5308	0.011
763.7055	-0.0061
763.8803	0.006
764.055	0.0182
764.2297	-0.0195
764.4044	-0.0004
764.579	-0.0063
764.7537	0.0127
764.9283	0.0031
765.1029	0.019
765.2775	0.0119
765.4521	-0.0061
765.6266	0.0083
765.8011	0.01
765.9756	0.0052
766.1501	-0.0012
766.3246	0.0153
766.4991	-0.0089
766.6735	0.0278
766.8479	0.0017
767.0223	-0.0047
767.1967	0.0041
767.371	0.0223
767.5454	0.0256
767.7197	0.0209
767.894	0.0042
768.0683	0.0173
768.2425	0.0068
768.4168	0.0116
768.591	-0.0048
768.7652	0.0197
768.9394	-0.0288
769.1135	0.0027
769.2877	0.0246
769.4618	0.0274
769.6359	0.0035
769.81	0.0067
769.984	-0.0158
770.1581	-0.0146
770.3321	0.0259
770.5061	0.003
770.6801	0.0122
770.8541	0.0029
771.028	0.0379
771.202	0.0287
771.3759	-0.0151
771.5498	0.0094
771.7236	0.0202
771.8975	0.0432
772.0713	0.0285
772.2451	-0.0057
772.4189	0.0105
772.5927	-0.0335
772.7665	-0.0063
772.9402	0.0065
773.1139	0.0113
773.2876	0.0193
773.4613	0.0174
773.635	0.0267
773.8086	0.0221
773.9822	0.0248
774.1558	0.0367
774.3294	0.0022
774.503	0.0057
774.6765	0.0638
774.8501	-0.0133
775.0236	0.024
775.1971	0.0002
775.3705	-0.0014
775.544	-0.0544
775.7174	0.0254
775.8908	-0.0015
776.0642	0.0102
776.2376	0.0268
776.4109	0.036
776.5843	-0.0565
776.7576	0.0166
776.9309	0.0138
777.1041	-0.0231
777.2774	-0.0333
777.4506	-0.0491
777.6238	0.0255
777.797	0.0159
777.9702	0.023
778.1434	0.0198
778.3165	-0.0331
778.4896	-0.0047
778.6627	0.0049
778.8358	-0.0118
779.0089	-0.0192
779.1819	0.0165
779.3549	0.0143
779.5279	-0.0063
779.7009	0.0317
779.8739	0.0159
780.0468	0.008
780.2197	-0.0064
780.3926	-0.0184
780.5655	0.0323
780.7384	-0.0141
780.9112	0.0067
781.0841	0.0414
781.2569	0.0304
781.4297	-0.0075
781.6024	0.0149
781.7752	0.0432
781.9479	0.0144
782.1206	0.0163
782.2933	0.0058
782.466	0.0367
782.6386	-0.0106
782.8113	-0.0039
782.9839	-0.0199
783.1565	0.0164
783.329	-0.0273
783.5016	-0.0078
783.6741	0.0182
783.8466	0.073
784.0191	-0.0039
784.1916	-0.0138
784.3641	-0.0007
784.5365	0.04
784.7089	-0.0249
784.8813	0.0665
785.0537	0.0471
785.2261	-0.0079
785.3984	-0.0114
785.5707	-0.0406
785.743	0.0434
785.9153	0.0107
786.0876	-0.048
786.2598	-0.0294
786.432	0.0084
786.6042	0.0514
786.7764	-0.0193
786.9486	-0.0214
787.1207	0.0429
787.2928	0.0221
787.4649	-0.0322
787.637	-0.0194
787.8091	-0.0091
787.9811	-0.0102
788.1532	0.0071
788.3252	-0.0068
788.4972	-0.0187
788.6691	0.0084
788.8411	-0.0076
789.013	0.0039
789.1849	-0.0069
789.3568	0.0253
789.5287	0.0495
789.7005	-0.0404
789.8723	-0.0296
790.0442	-0.0221
790.2159	0.0118
790.3877	0.0259
790.5595	0.0393
790.7312	-0.0164
790.9029	0.0138
791.0746	-0.0345
791.2463	-0.0311
791.4179	0.0045
791.5896	-0.0104
791.7612	0.0093
791.9328	-0.0168
792.1044	0.0095
792.2759	0.0053
792.4474	0.0316
792.619	0.0014
792.7905	0.0107
792.9619	0.0484
793.1334	0.0827
793.3048	0.0798
793.4762	0.0182
793.6476	-0.0214
793.819	0.0234
793.9904	-0.0257
794.1617	-0.0187
794.333	0.0551
794.5043	-0.001
794.6756	0.0136
794.8469	0.063
795.0181	-0.003
795.1893	0.0173
795.3605	0.0259
795.5317	-0.0297
795.7029	0.0156
795.874	-0.0243
796.0452	0.0624
796.2163	0.0225
796.3873	0.0541
796.5584	0.0355
796.7294	0.0094
796.9005	0.0386
797.0715	-0.1079
797.2425	0.0106
797.4134	0.0215
797.5844	0.0488
797.7553	-0.0813
797.9262	-0.0065
798.0971	0.0382
798.2679	-0.0391
798.4388	0.0632
798.6096	0.0017
798.7804	0.0398
798.9512	-0.0482
799.122	-0.0234
799.2927	0.0338
799.4635	-0.0325
799.6342	-0.0779
799.8049	0.0206
799.9755	-0.0685
800.1462	0.0555
800.3168	0.0303
800.4874	-0.0367
800.658	-0.0476
800.8286	0.0114
800.9991	0.0051
801.1696	-0.0265
801.3402	0.0317
801.5106	-0.0473
801.6811	-0.0386
801.8516	0.1008
802.022	-0.0269
802.1924	-0.1045
802.3628	-0.0187
802.5332	0.0406
802.7035	0.0688
802.8739	0.0455
803.0442	-0.0669
803.2145	0.0154
803.3847	-0.0223
803.555	0.0216
803.7252	-0.0321
803.8954	0.0104
804.0656	0.0034
804.2358	-0.0606
804.4059	-0.0148
804.5761	-0.0376
804.7462	0.0498
804.9163	-0.0514
805.0864	-0.0395
805.2564	-0.0306
805.4264	-0.0667
805.5965	0.0075
805.7665	-0.016
805.9364	-0.0411
806.1064	0.0074
806.2763	0.0544
806.4462	0.0201
806.6161	-0.027
806.786	0.0145
806.9559	-0.0122
807.1257	-0.0147
807.2955	-0.0312
807.4653	-0.0115
807.6351	0.0536
807.8048	-0.0131
807.9746	-0.0274
808.1443	-0.0309
808.314	0.0591
808.4837	-0.0344
808.6533	-0.0225
808.8229	-0.012
808.9926	0.0743
809.1622	-0.0124
809.3317	0.0162
809.5013	0.0005
809.6708	0.0004
809.8403	0.022
810.0098	-0.0906
810.1793	0.0423
810.3488	-0.0866
810.5182	0.0549
810.6876	0.0203
810.857	0.0163
811.0264	-0.112
811.1958	0.1108
811.3651	-0.1073
811.5344	0.1252
811.7037	-0.0663
811.873	0.0595
812.0422	0.0952
812.2115	0.0938
812.3807	-0.1206
812.5499	-0.0246
812.7191	0.0312
812.8882	-0.0947
813.0574	-0.0971
813.2265	0.0288
813.3956	-0.0633
813.5646	0.0144
813.7337	0.0809
813.9027	-0.0369
814.0718	0.022
814.2407	0.1156
814.4097	-0.0146
814.5787	0.0962
814.7476	-0.004
814.9165	0.0968
815.0854	0.0139
815.2543	-0.0178
815.4232	0.1326
815.592	-0.0448
815.7608	-0.1539
815.9296	-0.1098
816.0984	0.0694
816.2671	-0.2952
816.4359	0.0349
816.6046	0.0846
816.7733	-0.139
816.942	-0.0073
817.1106	-0.0451
817.2793	-0.0432
817.4479	0.1038
817.6165	0.008
817.785	0.0167
817.9536	-0.1222
818.1221	-0.0574
818.2906	-0.0787
818.4591	-0.0169
818.6276	0.0105
818.7961	0.0339
818.9645	-0.0889
819.1329	-0.0793
819.3013	0.17
819.4697	-0.0303
819.638	0.0057
819.8064	-0.1011
819.9747	0.0918
820.143	-0.1786
820.3113	0.0723
820.4795	-0.0334
820.6477	0.0984
820.816	0.0432
820.9842	0.0581
821.1523	0.0244
821.3205	-0.0055
821.4886	-0.1064
821.6567	-0.0844
821.8248	0.1998
821.9929	-0.2332
822.1609	-0.0377
822.329	-0.0389
822.497	0.0208
822.665	-0.0274
822.833	-0.0717
823.0009	-0.0198
823.1688	0.0601
823.3367	-0.1147
823.5046	0.0946
823.6725	-0.0688
823.8404	0.1554
824.0082	-0.0394
824.176	-0.064
824.3438	0.2565
824.5116	0.0518
824.6793	0.1373
824.847	0.0509
825.0147	-0.0453
825.1824	0.1311
825.3501	0.227
825.5177	-0.1014
825.6854	-0.1972
825.853	0.0812
826.0206	-0.1344
826.1881	0.035
826.3557	-0.0299
826.5232	0.1428
826.6907	-0.0649
826.8582	-0.1116
827.0257	0.1619
827.1931	0.0566
827.3605	-0.2079
827.528	0.0065
827.6953	-0.233
827.8627	-0.0322
828.03	-0.0166
828.1974	-0.0528
828.3647	0.1915
828.532	0.1439
828.6992	0.1476
828.8665	-0.3669
829.0337	0.1917
829.2009	-0.0972
829.3681	0.1047
829.5352	-0.3418
829.7024	0.0235
829.8695	-0.0389
830.0366	0.0573
830.2037	0.1001
830.3707	0.086
830.5378	-0.0929
830.7048	-0.1337
830.8718	0.0923
831.0388	-0.0942
831.2057	-0.1314
831.3727	-0.3306
831.5396	-0.0744
831.7065	-0.9611
831.8734	0.2057
832.0402	0.115
832.2071	-0.4181
832.3739	-0.3997
832.5407	-1.473
832.7075	-0.5304
832.8742	0.9354
833.041	0.1322
833.2077	0.1009
833.3744	0.0051
833.541	-0.043
833.7077	-0.1458
833.8743	0.105
834.0409	0.0751
834.2075	0.0644
834.3741	-0.0053
834.5407	0.2351
834.7072	0.03
834.8737	0.1305
835.0402	0.2779
835.2067	-0.0178
835.3731	0.0591
835.5395	-0.092
835.706	0.0129
835.8723	-0.0592
836.0387	0.422
836.2051	-0.3057
836.3714	0.2805
836.5377	-0.0362
836.704	0.4575
836.8703	-0.15
837.0365	-0.5406
837.2027	0.4508
837.3689	0.0852
837.5351	0.0381
837.7013	-0.226
837.8674	-0.5073
838.0335	-0.024
838.1997	-0.3353
838.3657	-0
838.5318	-0.1865
838.6978	-0
838.8639	-0.4151
839.0299	-0.0499
839.1958	0.339
839.3618	0.8762
839.5277	-0.0408
839.6937	-0.047
839.8596	-0.1104
840.0254	-0.1347
840.1913	-0.0913
840.3571	-0.2763
840.523	-0
840.6888	-0.126
840.8545	-0.3321
841.0203	-0.0345
841.186	-0.1784
841.3517	-0.311
841.5174	0.1363
841.6831	0.0016
841.8488	-0.0145
842.0144	-0.044
842.18	0.1319
842.3456	-0.8702
842.5112	-0.0706
842.6767	-0.0586
842.8422	0.0446
843.0077	0.0156
843.1732	-0.4742
843.3387	-0.2529
843.5042	0.1308
843.6696	0.365
843.835	0.0429
844.0004	-0.3765
844.1657	-0
844.3311	0.4657
844.4964	1.4108
844.6617	0.562
844.827	0.5989
844.9923	0.1938
845.1575	-0.1346
845.3227	-0
845.4879	-0.3827
845.6531	-0.3063
845.8183	0.4918
845.9834	-0
846.1485	0.2954
846.3136	-0.2596
846.4787	-0
846.6438	-0.0227
846.8088	0.9123
846.9738	-0.1405
847.1388	0.0633
847.3038	0.0544
847.4687	-0
847.6337	-0
847.7986	-0.1513
847.9635	-0.2449
848.1284	-0
848.2932	-0.096
848.458	-0
848.6228	0.111
848.7876	0.121
848.9524	-0.6254
849.1172	-1.6021
849.2819	0.0244
849.4466	0.5258
849.6113	0.1343
849.7759	-0.5667
849.9406	0.6251
850.1052	-0
850.2698	-0
850.4344	-0.6559
850.599	-0.1473
850.7635	0.4408
850.928	0.3263
851.0925	0.0687
851.257	-0.214
851.4215	-0.2333
851.5859	-0.1191
851.7503	-0
851.9147	-0.0218
852.0791	0.0877
852.2434	0.0357
852.4078	-0
852.5721	-0
852.7364	0.0353
852.9007	-0.2358
853.0649	-0
853.2291	-0.0902
853.3934	-0
853.5575	0.3118
853.7217	0.5607
853.8859	0.1593
854.05	-0.3917
854.2141	2.2522
854.3782	-0.2579
854.5423	-0.3031
854.7063	0.1079
854.8703	-0.1224
855.0343	0.5184
855.1983	0.3398
855.3623	-0.1814
855.5262	0.3307
855.6901	0.104
855.854	0.3849
856.0179	0.0917
856.1818	0.3629
856.3456	0.1122
856.5094	-0.6499
856.6732	-0.0728
856.837	-0.6789
857.0008	-0
857.1645	-0.2438
857.3282	-0.5631
857.4919	0.1393
857.6556	-0.4208
857.8192	-0.2109
857.9828	0.2002
858.1465	-0.046
858.31	-0.1039
858.4736	-0.4689
858.6372	-0.5186
858.8007	0.4139
858.9642	0.5104
859.1277	-0
859.2911	-0.4236
859.4546	-0
859.618	0.2062
859.7814	-0
859.9448	0.034
860.1081	-0.2645
860.2715	-1.473
860.4348	0.2872
860.5981	0.2791
860.7614	-0.4458
860.9246	-0.0575
861.0879	-0.0888
861.2511	-0.0239
861.4143	-0
861.5774	-0.5976
861.7406	0.243
861.9037	0.1695
862.0668	-1.0047
862.2299	-0.1602
862.393	-0
862.556	-0.2225
862.7191	0.391
862.8821	0.2827
863.0451	0.5206
863.208	-0
863.371	-0
863.5339	0.3636
863.6968	0.554
863.8597	0.1784
864.0225	-0
864.1854	-0
864.3482	-0
864.511	-0.1909
864.6737	-0.5414
864.8365	0.0111
864.9992	-0.1232
865.1619	-0.3555
865.3246	-1.6739
865.4873	-0.3058
865.65	0.4412
865.8126	-0.2058
865.9752	-0.4041
866.1378	0.055
866.3004	-0.2457
866.4629	-1.0994
866.6254	-0.5083
866.7879	0.1886
866.9504	-0
867.1129	-0.1652
867.2753	-0.1533
867.4377	-0.1602
867.6001	-0.5008
867.7625	-0.0777
867.9249	-0
868.0872	-0.4032
868.2495	-0
868.4118	1.4643
868.5741	0.132
868.7363	-0
868.8986	-0
869.0608	-0.4427
869.223	-0.3193
869.3851	-0
869.5473	0.0198
869.7094	-0
869.8715	-0.4157
870.0336	0.1501
870.1957	-0.5333
870.3577	0.4817
870.5197	-0.1942
870.6817	-0.9693
870.8437	0.2996
871.0057	0.5722
871.1676	0.0162
871.3295	0.1188
871.4914	-0
871.6533	-0.0673
871.8151	-0
871.977	-0.4442
872.1388	0.1669
872.3006	-0.3962
872.4623	-0.9245
872.6241	-0.2618
872.7858	-0.0242
872.9475	-0
873.1092	0.27
873.2709	0.443
873.4325	-1.7301
873.5941	-0
873.7557	-0
873.9173	0.5502
874.0789	0.1957
874.2404	-0
874.4019	0.2045
874.5634	-0
874.7249	0.3461
874.8863	-0
875.0478	-0.0227
875.2092	1.325
875.3706	1.4807
875.5319	-0
875.6933	0.2222
875.8546	1.0389
876.0159	0.5138
876.1772	0.1799
876.3385	-0
876.4997	-0
876.6609	-0
876.8221	-0
876.9833	0.5267
877.1445	0.6232
877.3056	-0
877.4667	-0
877.6278	-0
877.7889	0.4498
877.9499	0.164
878.111	-0.8332
878.272	-0.0204
878.433	0.2477
878.5939	0.0824
878.7549	-0
878.9158	-0
879.0767	0.1745
879.2376	-0.4231
879.3984	-0
879.5593	1.3133
879.7201	-1.9272
879.8809	-0.29
880.0417	-0.28
880.2024	-0.0413
880.3632	-0.1994
880.5239	0.0321
880.6846	-0
880.8452	0.1686
881.0059	-0
881.1665	-0.3083
881.3271	1.1049
881.4877	0.1232
881.6483	-0.9514
881.8088	-0
881.9693	-0.834
882.1298	-0.834
882.2903	-0.834
