Data from D4ACN5uM420nmA_Absorbance_14-37-07-796.txt Node
Date: Fri Feb 21 14:37:07 GMT 2025
User: LASERRRRR
Spectrometer: FLMT03099
Trigger mode: 0
Integration Time (sec): 1.500000E-2
Scans to average: 1
Electric dark correction enabled: true
Nonlinearity correction enabled: false
Boxcar width: 0
XAxis mode: Wavelengths
Number of Pixels in Spectrum: 3648
>>>>>Begin Spectral Data<<<<<
179.3399	-0.8256
179.5586	-0.8256
179.7771	-0.8256
179.9957	-0.339
180.2143	-0
180.4329	-0
180.6514	-0
180.8699	-0
181.0885	-0
181.307	0.3407
181.5255	0.063
181.744	-0
181.9625	0.4592
182.181	0.4231
182.3994	-0.2484
182.6179	-0
182.8363	-0
183.0547	0.5787
183.2732	-0.0558
183.4916	0.2676
183.71	0.2058
183.9284	0.1355
184.1467	0.1094
184.3651	-0.0604
184.5835	0.218
184.8018	0.1348
185.0201	0.1586
185.2385	0.1381
185.4568	0.1727
185.6751	0.0443
185.8934	0.2907
186.1117	-0.0548
186.3299	0.2506
186.5482	0.154
186.7664	0.072
186.9847	0.023
187.2029	0.0933
187.4211	-0.0454
187.6393	0.1236
187.8575	0.4062
188.0757	0.3473
188.2939	0.1082
188.512	0.4336
188.7302	0.2527
188.9483	0.5352
189.1665	0.6568
189.3846	0.4532
189.6027	0.1601
189.8208	0.0771
190.0389	0.1746
190.257	0.1204
190.475	-0.012
190.6931	0.0135
190.9111	0.3363
191.1292	0.1045
191.3472	0.1303
191.5652	0.1406
191.7832	0.1199
192.0012	0.0911
192.2192	0.205
192.4371	0.1799
192.6551	0.2426
192.873	0.0542
193.091	0.0557
193.3089	0.1752
193.5268	0.2316
193.7447	0.1588
193.9626	0.2238
194.1805	0.1793
194.3984	0.1693
194.6162	0.194
194.8341	0.3188
195.0519	0.1854
195.2697	0.3308
195.4875	0.3409
195.7054	0.252
195.9231	0.2188
196.1409	0.2892
196.3587	0.2793
196.5765	0.2859
196.7942	0.3061
197.012	0.3011
197.2297	0.3277
197.4474	0.3165
197.6651	0.2748
197.8828	0.2724
198.1005	0.4224
198.3182	0.3697
198.5358	0.3818
198.7535	0.3611
198.9711	0.384
199.1888	0.3955
199.4064	0.3466
199.624	0.3773
199.8416	0.3906
200.0592	0.3746
200.2767	0.38
200.4943	0.4482
200.7119	0.3947
200.9294	0.4007
201.1469	0.4041
201.3645	0.4262
201.582	0.3784
201.7995	0.3932
202.017	0.4083
202.2344	0.3608
202.4519	0.3709
202.6694	0.3945
202.8868	0.3978
203.1042	0.412
203.3217	0.3979
203.5391	0.4136
203.7565	0.3388
203.9739	0.3582
204.1913	0.361
204.4086	0.3458
204.626	0.3804
204.8433	0.3751
205.0607	0.3682
205.278	0.3509
205.4953	0.3544
205.7126	0.3403
205.9299	0.3216
206.1472	0.3193
206.3644	0.3594
206.5817	0.3082
206.7989	0.3429
207.0162	0.3265
207.2334	0.3176
207.4506	0.3278
207.6678	0.3079
207.885	0.2874
208.1022	0.3345
208.3194	0.2942
208.5365	0.3031
208.7537	0.2848
208.9708	0.2943
209.1879	0.3001
209.405	0.2755
209.6222	0.2514
209.8392	0.2778
210.0563	0.2789
210.2734	0.2602
210.4905	0.2788
210.7075	0.2654
210.9245	0.2604
211.1416	0.2773
211.3586	0.2789
211.5756	0.2298
211.7926	0.2616
212.0096	0.2479
212.2265	0.2404
212.4435	0.2523
212.6604	0.2432
212.8774	0.2541
213.0943	0.2519
213.3112	0.2565
213.5281	0.252
213.745	0.2391
213.9619	0.2343
214.1788	0.2542
214.3956	0.2482
214.6125	0.2525
214.8293	0.2462
215.0461	0.2564
215.2629	0.248
215.4798	0.2427
215.6965	0.2505
215.9133	0.246
216.1301	0.2462
216.3469	0.239
216.5636	0.2522
216.7803	0.2438
216.9971	0.2654
217.2138	0.2534
217.4305	0.2593
217.6472	0.2483
217.8639	0.2497
218.0805	0.2475
218.2972	0.2482
218.5138	0.2531
218.7305	0.2539
218.9471	0.2425
219.1637	0.2569
219.3803	0.2554
219.5969	0.2454
219.8135	0.2656
220.0301	0.2613
220.2466	0.2597
220.4632	0.2417
220.6797	0.2493
220.8962	0.2661
221.1127	0.2613
221.3292	0.2578
221.5457	0.264
221.7622	0.2583
221.9787	0.275
222.1951	0.2728
222.4116	0.2785
222.628	0.2901
222.8444	0.2761
223.0608	0.2758
223.2772	0.2752
223.4936	0.2744
223.71	0.2772
223.9264	0.2853
224.1427	0.2875
224.3591	0.289
224.5754	0.2822
224.7917	0.2785
225.008	0.2908
225.2243	0.3048
225.4406	0.2787
225.6569	0.309
225.8732	0.3112
226.0894	0.3122
226.3057	0.3065
226.5219	0.3057
226.7381	0.329
226.9543	0.3081
227.1705	0.3156
227.3867	0.3236
227.6029	0.3135
227.8191	0.3373
228.0352	0.3396
228.2513	0.3494
228.4675	0.3549
228.6836	0.3434
228.8997	0.3424
229.1158	0.3543
229.3319	0.3557
229.548	0.3427
229.764	0.3428
229.9801	0.3647
230.1961	0.3689
230.4121	0.3725
230.6282	0.392
230.8442	0.3926
231.0602	0.3879
231.2761	0.3996
231.4921	0.3913
231.7081	0.3983
231.924	0.3998
232.14	0.4014
232.3559	0.3981
232.5718	0.413
232.7877	0.4126
233.0036	0.4101
233.2195	0.4127
233.4353	0.4239
233.6512	0.4171
233.867	0.4221
234.0829	0.4279
234.2987	0.434
234.5145	0.4349
234.7303	0.4333
234.9461	0.4519
235.1619	0.4422
235.3776	0.4371
235.5934	0.4343
235.8091	0.4498
236.0249	0.4394
236.2406	0.4471
236.4563	0.4454
236.672	0.4343
236.8877	0.4473
237.1034	0.4551
237.319	0.4459
237.5347	0.444
237.7503	0.4551
237.966	0.4694
238.1816	0.4437
238.3972	0.4647
238.6128	0.4705
238.8284	0.4727
239.0439	0.4701
239.2595	0.4573
239.475	0.4619
239.6906	0.4598
239.9061	0.4642
240.1216	0.4678
240.3371	0.4688
240.5526	0.4523
240.7681	0.4619
240.9836	0.4636
241.199	0.4487
241.4145	0.4484
241.6299	0.4574
241.8453	0.4397
242.0607	0.4402
242.2761	0.4425
242.4915	0.4396
242.7069	0.4201
242.9223	0.4194
243.1376	0.4095
243.353	0.4025
243.5683	0.4026
243.7836	0.3958
243.9989	0.384
244.2142	0.3826
244.4295	0.377
244.6448	0.3722
244.86	0.3557
245.0753	0.3534
245.2905	0.3436
245.5057	0.3416
245.721	0.3411
245.9362	0.3388
246.1514	0.3225
246.3665	0.3222
246.5817	0.3044
246.7969	0.3065
247.012	0.3026
247.2271	0.2982
247.4423	0.2876
247.6574	0.2879
247.8725	0.2749
248.0876	0.2702
248.3026	0.2718
248.5177	0.2691
248.7328	0.2534
248.9478	0.25
249.1628	0.2516
249.3779	0.2449
249.5929	0.2398
249.8079	0.245
250.0228	0.2316
250.2378	0.2366
250.4528	0.2296
250.6677	0.2256
250.8827	0.2204
251.0976	0.2166
251.3125	0.2164
251.5274	0.2163
251.7423	0.2132
251.9572	0.2144
252.172	0.2132
252.3869	0.2091
252.6017	0.2126
252.8166	0.2049
253.0314	0.2066
253.2462	0.2034
253.461	0.1988
253.6758	0.2049
253.8906	0.1983
254.1053	0.1962
254.3201	0.1976
254.5348	0.1896
254.7496	0.1934
254.9643	0.1907
255.179	0.1934
255.3937	0.1944
255.6083	0.1981
255.823	0.1885
256.0377	0.1826
256.2523	0.1845
256.467	0.1873
256.6816	0.1808
256.8962	0.1846
257.1108	0.1907
257.3254	0.1889
257.54	0.1788
257.7545	0.1851
257.9691	0.1893
258.1836	0.1774
258.3981	0.1846
258.6127	0.1751
258.8272	0.1832
259.0417	0.1741
259.2561	0.1818
259.4706	0.1773
259.6851	0.1846
259.8995	0.1796
260.114	0.1798
260.3284	0.1807
260.5428	0.1807
260.7572	0.1817
260.9716	0.1867
261.186	0.1776
261.4003	0.1823
261.6147	0.18
261.829	0.1888
262.0433	0.1828
262.2577	0.1813
262.472	0.1807
262.6863	0.1902
262.9005	0.1808
263.1148	0.1823
263.3291	0.1854
263.5433	0.1833
263.7576	0.1824
263.9718	0.1829
264.186	0.1885
264.4002	0.1833
264.6144	0.1899
264.8286	0.1875
265.0427	0.1918
265.2569	0.1882
265.471	0.1874
265.6851	0.1918
265.8993	0.182
266.1134	0.1859
266.3275	0.1865
266.5415	0.1834
266.7556	0.1889
266.9697	0.1881
267.1837	0.19
267.3978	0.1878
267.6118	0.1838
267.8258	0.188
268.0398	0.1812
268.2538	0.1888
268.4677	0.1861
268.6817	0.1787
268.8957	0.1752
269.1096	0.1812
269.3235	0.1849
269.5374	0.1896
269.7514	0.183
269.9652	0.1807
270.1791	0.1824
270.393	0.1816
270.6068	0.186
270.8207	0.1782
271.0345	0.1824
271.2483	0.1739
271.4622	0.1791
271.676	0.1836
271.8897	0.1798
272.1035	0.1882
272.3173	0.1829
272.531	0.1776
272.7448	0.1782
272.9585	0.176
273.1722	0.177
273.3859	0.1774
273.5996	0.1794
273.8133	0.1826
274.0269	0.1767
274.2406	0.1849
274.4542	0.184
274.6679	0.1829
274.8815	0.1845
275.0951	0.1863
275.3087	0.1867
275.5223	0.1832
275.7358	0.189
275.9494	0.191
276.1629	0.1887
276.3765	0.19
276.59	0.1894
276.8035	0.1845
277.017	0.1925
277.2305	0.1901
277.444	0.1911
277.6574	0.1926
277.8709	0.1913
278.0843	0.1891
278.2978	0.1952
278.5112	0.1892
278.7246	0.1881
278.938	0.1923
279.1513	0.1935
279.3647	0.1929
279.5781	0.1888
279.7914	0.1885
280.0047	0.198
280.2181	0.1889
280.4314	0.1905
280.6447	0.1954
280.8579	0.1887
281.0712	0.1884
281.2845	0.1837
281.4977	0.1944
281.711	0.1844
281.9242	0.1915
282.1374	0.1901
282.3506	0.1875
282.5638	0.1877
282.7769	0.1886
282.9901	0.1876
283.2033	0.1842
283.4164	0.1885
283.6295	0.1871
283.8426	0.1787
284.0557	0.1924
284.2688	0.195
284.4819	0.1854
284.695	0.192
284.908	0.1877
285.1211	0.1874
285.3341	0.1844
285.5471	0.192
285.7601	0.188
285.9731	0.1906
286.1861	0.1963
286.3991	0.1917
286.612	0.1907
286.825	0.1967
287.0379	0.1929
287.2508	0.1939
287.4637	0.1944
287.6766	0.1941
287.8895	0.1914
288.1024	0.1941
288.3152	0.1911
288.5281	0.1946
288.7409	0.1961
288.9538	0.1931
289.1666	0.1949
289.3794	0.1956
289.5922	0.1932
289.8049	0.1919
290.0177	0.1956
290.2304	0.1929
290.4432	0.1942
290.6559	0.1927
290.8686	0.1984
291.0813	0.1952
291.294	0.196
291.5067	0.1907
291.7194	0.1929
291.932	0.1915
292.1447	0.1965
292.3573	0.1974
292.5699	0.1959
292.7825	0.1906
292.9951	0.1969
293.2077	0.1893
293.4203	0.1959
293.6328	0.1928
293.8454	0.1959
294.0579	0.1929
294.2704	0.2024
294.4829	0.1959
294.6954	0.1952
294.9079	0.1947
295.1204	0.1939
295.3328	0.196
295.5453	0.1986
295.7577	0.1973
295.9701	0.1953
296.1825	0.2006
296.3949	0.1896
296.6073	0.1924
296.8197	0.1967
297.0321	0.2019
297.2444	0.1906
297.4567	0.1948
297.6691	0.1916
297.8814	0.1939
298.0937	0.1914
298.306	0.1938
298.5182	0.1953
298.7305	0.1949
298.9428	0.1924
299.155	0.1881
299.3672	0.1905
299.5794	0.199
299.7916	0.1965
300.0038	0.1919
300.216	0.1878
300.4282	0.199
300.6403	0.1933
300.8525	0.1893
301.0646	0.1973
301.2767	0.199
301.4888	0.1939
301.7009	0.1935
301.913	0.1998
302.125	0.194
302.3371	0.1943
302.5491	0.1942
302.7612	0.2014
302.9732	0.1958
303.1852	0.1954
303.3972	0.2
303.6092	0.1978
303.8211	0.1966
304.0331	0.196
304.245	0.1919
304.457	0.187
304.6689	0.1918
304.8808	0.1892
305.0927	0.1907
305.3046	0.1879
305.5164	0.1854
305.7283	0.1856
305.9401	0.1809
306.152	0.1835
306.3638	0.1816
306.5756	0.1883
306.7874	0.1773
306.9992	0.1777
307.2109	0.1777
307.4227	0.1777
307.6344	0.1779
307.8462	0.1702
308.0579	0.1752
308.2696	0.1693
308.4813	0.1682
308.693	0.1662
308.9046	0.1714
309.1163	0.1667
309.328	0.1631
309.5396	0.16
309.7512	0.1575
309.9628	0.1573
310.1744	0.1507
310.386	0.1518
310.5976	0.1497
310.8091	0.1548
311.0207	0.1574
311.2322	0.152
311.4437	0.1472
311.6552	0.1512
311.8667	0.1499
312.0782	0.1481
312.2897	0.1512
312.5012	0.1529
312.7126	0.1454
312.924	0.1489
313.1355	0.1431
313.3469	0.1423
313.5583	0.1405
313.7696	0.1367
313.981	0.1476
314.1924	0.1381
314.4037	0.1376
314.6151	0.1367
314.8264	0.1378
315.0377	0.135
315.249	0.1403
315.4603	0.1353
315.6716	0.1396
315.8828	0.1361
316.0941	0.1413
316.3053	0.1369
316.5165	0.1366
316.7277	0.1266
316.9389	0.1405
317.1501	0.1395
317.3613	0.133
317.5724	0.1319
317.7836	0.1285
317.9947	0.129
318.2058	0.1369
318.417	0.1302
318.6281	0.1319
318.8391	0.1346
319.0502	0.1321
319.2613	0.1299
319.4723	0.1344
319.6834	0.1365
319.8944	0.1309
320.1054	0.1292
320.3164	0.1328
320.5274	0.1307
320.7383	0.1339
320.9493	0.1306
321.1602	0.1283
321.3712	0.1325
321.5821	0.129
321.793	0.1361
322.0039	0.1322
322.2148	0.1354
322.4257	0.1335
322.6365	0.1337
322.8474	0.1326
323.0582	0.135
323.269	0.1325
323.4798	0.1356
323.6906	0.1285
323.9014	0.1313
324.1122	0.1331
324.3229	0.1389
324.5337	0.1373
324.7444	0.1387
324.9551	0.1344
325.1658	0.1308
325.3765	0.1387
325.5872	0.1355
325.7979	0.1292
326.0085	0.1331
326.2192	0.1321
326.4298	0.1387
326.6404	0.1379
326.851	0.1342
327.0616	0.1389
327.2722	0.1346
327.4828	0.1388
327.6933	0.1468
327.9039	0.1302
328.1144	0.1374
328.3249	0.1402
328.5354	0.1458
328.7459	0.1437
328.9564	0.1436
329.1669	0.1453
329.3773	0.1441
329.5878	0.1371
329.7982	0.1467
330.0086	0.141
330.219	0.1427
330.4294	0.1493
330.6398	0.1451
330.8502	0.1501
331.0605	0.1416
331.2708	0.14
331.4812	0.1449
331.6915	0.1436
331.9018	0.1405
332.1121	0.1527
332.3224	0.1447
332.5326	0.1388
332.7429	0.1427
332.9531	0.1541
333.1633	0.1352
333.3735	0.1424
333.5837	0.1425
333.7939	0.1425
334.0041	0.1458
334.2143	0.149
334.4244	0.1505
334.6346	0.1485
334.8447	0.1468
335.0548	0.1485
335.2649	0.1583
335.475	0.146
335.685	0.1494
335.8951	0.1476
336.1051	0.1531
336.3152	0.15
336.5252	0.146
336.7352	0.148
336.9452	0.1433
337.1552	0.1402
337.3652	0.1458
337.5751	0.1491
337.7851	0.1497
337.995	0.1466
338.2049	0.1461
338.4148	0.1469
338.6247	0.1513
338.8346	0.1494
339.0445	0.1471
339.2543	0.1497
339.4642	0.1496
339.674	0.1446
339.8838	0.1522
340.0936	0.1523
340.3034	0.1455
340.5132	0.1451
340.7229	0.151
340.9327	0.1601
341.1424	0.152
341.3522	0.1461
341.5619	0.1561
341.7716	0.1598
341.9813	0.1645
342.1909	0.1604
342.4006	0.1559
342.6102	0.1562
342.8199	0.1558
343.0295	0.1496
343.2391	0.1616
343.4487	0.1558
343.6583	0.1701
343.8679	0.1559
344.0774	0.1549
344.287	0.1643
344.4965	0.1673
344.706	0.1663
344.9155	0.1672
345.125	0.1624
345.3345	0.168
345.544	0.1658
345.7534	0.1711
345.9629	0.1735
346.1723	0.1743
346.3817	0.1708
346.5911	0.1752
346.8005	0.1743
347.0099	0.1716
347.2193	0.1757
347.4286	0.1739
347.638	0.167
347.8473	0.1804
348.0566	0.173
348.2659	0.1765
348.4752	0.1764
348.6845	0.1746
348.8937	0.1791
349.103	0.1791
349.3122	0.1863
349.5214	0.1815
349.7306	0.1872
349.9398	0.191
350.149	0.1751
350.3582	0.1746
350.5674	0.1835
350.7765	0.1832
350.9856	0.1809
351.1948	0.1855
351.4039	0.1889
351.613	0.1792
351.822	0.1928
352.0311	0.1904
352.2402	0.1864
352.4492	0.1833
352.6582	0.1897
352.8672	0.1847
353.0762	0.1817
353.2852	0.1948
353.4942	0.1928
353.7032	0.1824
353.9121	0.1874
354.1211	0.1891
354.33	0.1936
354.5389	0.1832
354.7478	0.1851
354.9567	0.1961
355.1655	0.1885
355.3744	0.1871
355.5833	0.1922
355.7921	0.1983
356.0009	0.1928
356.2097	0.1907
356.4185	0.1977
356.6273	0.1894
356.8361	0.1955
357.0448	0.1887
357.2536	0.2004
357.4623	0.1951
357.671	0.1967
357.8797	0.2029
358.0884	0.1941
358.2971	0.1958
358.5057	0.2006
358.7144	0.2037
358.923	0.201
359.1316	0.2036
359.3402	0.2073
359.5488	0.1989
359.7574	0.2106
359.966	0.2057
360.1746	0.1993
360.3831	0.2089
360.5916	0.2095
360.8002	0.2165
361.0087	0.2024
361.2172	0.2069
361.4256	0.2094
361.6341	0.2101
361.8426	0.216
362.051	0.2136
362.2594	0.2126
362.4678	0.2144
362.6762	0.2092
362.8846	0.215
363.093	0.2109
363.3014	0.2201
363.5097	0.2248
363.718	0.222
363.9264	0.2244
364.1347	0.2229
364.343	0.2214
364.5513	0.2164
364.7595	0.2309
364.9678	0.2281
365.176	0.2273
365.3842	0.2303
365.5925	0.2184
365.8007	0.2321
366.0089	0.2335
366.217	0.2319
366.4252	0.2269
366.6333	0.2394
366.8415	0.2389
367.0496	0.2328
367.2577	0.236
367.4658	0.2336
367.6739	0.2346
367.882	0.2423
368.09	0.2343
368.2981	0.2449
368.5061	0.239
368.7141	0.2394
368.9221	0.2471
369.1301	0.2525
369.3381	0.2486
369.5461	0.2564
369.754	0.2508
369.962	0.2407
370.1699	0.2506
370.3778	0.2552
370.5857	0.2459
370.7936	0.2483
371.0015	0.2541
371.2093	0.2463
371.4172	0.2478
371.625	0.261
371.8328	0.2543
372.0406	0.2606
372.2484	0.2561
372.4562	0.2585
372.664	0.2515
372.8717	0.2529
373.0795	0.2632
373.2872	0.2574
373.4949	0.26
373.7026	0.2623
373.9103	0.2555
374.118	0.2656
374.3256	0.2665
374.5333	0.2645
374.7409	0.2663
374.9485	0.2722
375.1561	0.2621
375.3637	0.2623
375.5713	0.2783
375.7789	0.2681
375.9864	0.2686
376.194	0.2755
376.4015	0.2822
376.609	0.277
376.8165	0.2742
377.024	0.2695
377.2315	0.2708
377.4389	0.2736
377.6464	0.2823
377.8538	0.2766
378.0612	0.2768
378.2686	0.275
378.476	0.2839
378.6834	0.2716
378.8908	0.2783
379.0981	0.2763
379.3055	0.2837
379.5128	0.2773
379.7201	0.2793
379.9274	0.2781
380.1347	0.2823
380.342	0.2888
380.5492	0.2767
380.7565	0.2883
380.9637	0.2842
381.1709	0.2737
381.3781	0.2925
381.5853	0.289
381.7925	0.2888
381.9997	0.2929
382.2068	0.2812
382.4139	0.2849
382.6211	0.291
382.8282	0.2958
383.0353	0.2896
383.2424	0.288
383.4494	0.2994
383.6565	0.2963
383.8635	0.284
384.0706	0.3063
384.2776	0.2929
384.4846	0.2962
384.6916	0.2964
384.8986	0.2889
385.1055	0.2975
385.3125	0.3019
385.5194	0.3037
385.7263	0.2839
385.9333	0.2946
386.1402	0.2901
386.347	0.2838
386.5539	0.3047
386.7608	0.2937
386.9676	0.295
387.1744	0.2922
387.3813	0.3014
387.5881	0.2837
387.7948	0.2972
388.0016	0.3103
388.2084	0.2921
388.4151	0.2859
388.6219	0.2868
388.8286	0.2911
389.0353	0.2895
389.242	0.2927
389.4487	0.2876
389.6553	0.2856
389.862	0.2891
390.0686	0.2912
390.2753	0.2845
390.4819	0.2821
390.6885	0.2877
390.8951	0.2851
391.1016	0.2873
391.3082	0.288
391.5147	0.2852
391.7213	0.2812
391.9278	0.2825
392.1343	0.2908
392.3408	0.2754
392.5473	0.2732
392.7537	0.2791
392.9602	0.2739
393.1666	0.2809
393.373	0.2678
393.5794	0.2715
393.7858	0.2763
393.9922	0.275
394.1986	0.2699
394.4049	0.2725
394.6113	0.2745
394.8176	0.2656
395.0239	0.2734
395.2302	0.2586
395.4365	0.2661
395.6428	0.2574
395.8491	0.2629
396.0553	0.2657
396.2615	0.2604
396.4678	0.2656
396.674	0.2529
396.8802	0.2633
397.0863	0.2545
397.2925	0.2634
397.4987	0.2512
397.7048	0.2622
397.9109	0.2557
398.117	0.2531
398.3231	0.2504
398.5292	0.2418
398.7353	0.2506
398.9413	0.252
399.1474	0.2516
399.3534	0.2531
399.5594	0.258
399.7654	0.2528
399.9714	0.2599
400.1774	0.2481
400.3833	0.2509
400.5893	0.2439
400.7952	0.2651
401.0011	0.246
401.207	0.2603
401.4129	0.2546
401.6188	0.251
401.8247	0.2512
402.0305	0.2392
402.2364	0.2543
402.4422	0.2549
402.648	0.2567
402.8538	0.2473
403.0596	0.247
403.2654	0.2469
403.4711	0.2472
403.6768	0.2433
403.8826	0.2521
404.0883	0.2521
404.294	0.2499
404.4997	0.2486
404.7054	0.2578
404.911	0.2502
405.1167	0.2552
405.3223	0.246
405.5279	0.2473
405.7335	0.2474
405.9391	0.2474
406.1447	0.25
406.3502	0.2479
406.5558	0.2502
406.7613	0.2502
406.9668	0.2568
407.1724	0.2454
407.3778	0.2551
407.5833	0.234
407.7888	0.252
407.9942	0.2476
408.1997	0.2526
408.4051	0.2494
408.6105	0.2514
408.8159	0.2481
409.0213	0.2602
409.2267	0.2495
409.432	0.2548
409.6374	0.244
409.8427	0.2577
410.048	0.2568
410.2533	0.2485
410.4586	0.2443
410.6639	0.2453
410.8691	0.2395
411.0744	0.2525
411.2796	0.2489
411.4848	0.2515
411.69	0.2464
411.8952	0.2568
412.1004	0.2529
412.3056	0.2461
412.5107	0.2482
412.7158	0.2469
412.921	0.2439
413.1261	0.2459
413.3312	0.2589
413.5362	0.2564
413.7413	0.2475
413.9464	0.2391
414.1514	0.2352
414.3564	0.2371
414.5614	0.2431
414.7664	0.236
414.9714	0.2497
415.1764	0.245
415.3813	0.2453
415.5863	0.2438
415.7912	0.235
415.9961	0.2443
416.201	0.2523
416.4059	0.2457
416.6108	0.237
416.8156	0.2441
417.0205	0.2396
417.2253	0.2382
417.4301	0.2357
417.6349	0.2371
417.8397	0.2316
418.0445	0.234
418.2492	0.2459
418.454	0.2395
418.6587	0.2294
418.8634	0.2418
419.0681	0.2408
419.2728	0.2369
419.4775	0.237
419.6822	0.2317
419.8868	0.2304
420.0915	0.2287
420.2961	0.2257
420.5007	0.232
420.7053	0.2268
420.9099	0.2324
421.1144	0.2255
421.319	0.2334
421.5235	0.2183
421.728	0.2405
421.9325	0.2298
422.137	0.2295
422.3415	0.2257
422.546	0.2193
422.7504	0.2241
422.9549	0.227
423.1593	0.2168
423.3637	0.2185
423.5681	0.2272
423.7725	0.2193
423.9769	0.2166
424.1812	0.2137
424.3856	0.2081
424.5899	0.2093
424.7942	0.2128
424.9985	0.2218
425.2028	0.217
425.4071	0.2098
425.6113	0.2088
425.8156	0.212
426.0198	0.21
426.224	0.2169
426.4282	0.1997
426.6324	0.2057
426.8366	0.2075
427.0407	0.196
427.2449	0.2033
427.449	0.1957
427.6531	0.206
427.8572	0.2078
428.0613	0.2017
428.2654	0.1975
428.4694	0.1873
428.6735	0.1991
428.8775	0.1898
429.0815	0.1902
429.2855	0.1896
429.4895	0.198
429.6935	0.1921
429.8975	0.1921
430.1014	0.1918
430.3053	0.1958
430.5093	0.1734
430.7132	0.1773
430.9171	0.1793
431.1209	0.1932
431.3248	0.1675
431.5286	0.1877
431.7325	0.1891
431.9363	0.1679
432.1401	0.1648
432.3439	0.1602
432.5477	0.1579
432.7514	0.1759
432.9552	0.1688
433.1589	0.1643
433.3627	0.1646
433.5664	0.1614
433.7701	0.171
433.9737	0.1642
434.1774	0.16
434.3811	0.1477
434.5847	0.1576
434.7883	0.1496
434.9919	0.1489
435.1955	0.1558
435.3991	0.152
435.6027	0.1479
435.8062	0.1609
436.0098	0.1428
436.2133	0.1386
436.4168	0.145
436.6203	0.1327
436.8238	0.133
437.0272	0.1409
437.2307	0.1314
437.4341	0.127
437.6375	0.1359
437.841	0.1231
438.0443	0.1381
438.2477	0.1234
438.4511	0.1205
438.6545	0.1191
438.8578	0.1204
439.0611	0.1239
439.2644	0.1275
439.4677	0.1197
439.671	0.1043
439.8743	0.1275
440.0775	0.1096
440.2808	0.0991
440.484	0.1097
440.6872	0.1136
440.8904	0.0996
441.0936	0.1103
441.2967	0.1025
441.4999	0.0956
441.703	0.1005
441.9062	0.1064
442.1093	0.1104
442.3124	0.0972
442.5155	0.0988
442.7185	0.083
442.9216	0.0881
443.1246	0.0892
443.3276	0.097
443.5307	0.087
443.7337	0.0857
443.9366	0.0827
444.1396	0.0853
444.3426	0.0767
444.5455	0.0788
444.7484	0.0792
444.9513	0.0774
445.1542	0.0746
445.3571	0.0793
445.56	0.0637
445.7628	0.0762
445.9657	0.0781
446.1685	0.0811
446.3713	0.0753
446.5741	0.0683
446.7769	0.0748
446.9797	0.0663
447.1824	0.0718
447.3852	0.0507
447.5879	0.0617
447.7906	0.0569
447.9933	0.0598
448.196	0.0599
448.3986	0.0596
448.6013	0.0462
448.8039	0.0561
449.0066	0.0681
449.2092	0.0651
449.4118	0.052
449.6143	0.0515
449.8169	0.0473
450.0195	0.0568
450.222	0.0523
450.4245	0.0452
450.627	0.0533
450.8295	0.0399
451.032	0.0489
451.2345	0.0399
451.4369	0.0488
451.6394	0.0482
451.8418	0.0463
452.0442	0.0485
452.2466	0.0431
452.449	0.0394
452.6513	0.0323
452.8537	0.0368
453.056	0.032
453.2583	0.0369
453.4607	0.0359
453.663	0.0389
453.8652	0.0377
454.0675	0.0459
454.2697	0.038
454.472	0.0272
454.6742	0.039
454.8764	0.0446
455.0786	0.0317
455.2808	0.0274
455.4829	0.0372
455.6851	0.0242
455.8872	0.0287
456.0893	0.0347
456.2915	0.032
456.4935	0.0297
456.6956	0.0275
456.8977	0.0173
457.0997	0.0362
457.3018	0.028
457.5038	0.034
457.7058	0.0327
457.9078	0.0318
458.1098	0.0306
458.3117	0.036
458.5137	0.0229
458.7156	0.032
458.9175	0.0254
459.1194	0.0287
459.3213	0.0184
459.5232	0.0247
459.725	0.0241
459.9269	0.0231
460.1287	0.0149
460.3305	0.0225
460.5323	0.0245
460.7341	0.0257
460.9359	0.0192
461.1376	0.0285
461.3394	0.0241
461.5411	0.019
461.7428	0.0234
461.9445	0.0162
462.1462	0.0218
462.3479	0.0175
462.5495	0.0236
462.7512	0.0291
462.9528	0.0235
463.1544	0.0084
463.356	0.0141
463.5576	0.0268
463.7592	0.0193
463.9607	0.0153
464.1623	0.0174
464.3638	0.0115
464.5653	0.0141
464.7668	0.0158
464.9683	0.0191
465.1697	0.0106
465.3712	0.013
465.5726	0.011
465.7741	0.0234
465.9755	0.0153
466.1769	0.0169
466.3782	0.0155
466.5796	0.0171
466.7809	0.0279
466.9823	0.0177
467.1836	0.0125
467.3849	0.0178
467.5862	0.002
467.7875	0.0052
467.9887	0.0249
468.19	0.013
468.3912	0.0263
468.5924	0.0136
468.7936	0.0222
468.9948	0.0076
469.196	0.0131
469.3972	0.0069
469.5983	0.0133
469.7994	0.0127
470.0006	0.0144
470.2017	0.0112
470.4027	0.0246
470.6038	0.0107
470.8049	0.014
471.0059	0.0231
471.2069	0.011
471.408	0.0243
471.6089	0.0169
471.8099	0.019
472.0109	0.0178
472.2119	0.0251
472.4128	0.0081
472.6137	0.0206
472.8146	0.0093
473.0155	0.021
473.2164	0.0125
473.4173	0.0059
473.6181	0.0038
473.819	0.01
474.0198	0.0086
474.2206	-0.0011
474.4214	0.016
474.6222	0.0045
474.8229	0.0101
475.0237	0.0135
475.2244	0.0133
475.4251	0.0141
475.6258	0.0104
475.8265	0.0213
476.0272	0.0023
476.2278	0.0104
476.4285	0.01
476.6291	0.0052
476.8297	0.0112
477.0303	0.009
477.2309	0.0104
477.4315	0.0089
477.632	0.0061
477.8326	0.0068
478.0331	0.0215
478.2336	0.012
478.4341	0.0141
478.6346	0.0171
478.8351	0.0101
479.0355	0.018
479.236	0.0207
479.4364	0.0074
479.6368	0.0098
479.8372	0.0131
480.0376	0.0102
480.2379	0.0093
480.4383	0.0228
480.6386	0.002
480.8389	0.0194
481.0392	0.0083
481.2395	0.0151
481.4398	0.0122
481.6401	0.0162
481.8403	0.0074
482.0405	0.0079
482.2408	0.0198
482.441	0.0142
482.6411	0.0144
482.8413	0.0028
483.0415	0.0145
483.2416	0.009
483.4417	0.0118
483.6419	0.0126
483.8419	0.0088
484.042	0.0119
484.2421	0.0079
484.4422	0.002
484.6422	0.0051
484.8422	0.0143
485.0422	0.0092
485.2422	0.0034
485.4422	0.0062
485.6422	0.0064
485.8421	0.0087
486.042	0.015
486.242	0.0061
486.4419	0.0104
486.6417	0.0063
486.8416	0.0134
487.0415	0.0055
487.2413	0.0038
487.4411	0.013
487.641	0.0009
487.8408	0.014
488.0405	0.0078
488.2403	0.0042
488.4401	0.007
488.6398	0.0197
488.8395	0.0106
489.0392	0.0062
489.2389	0.01
489.4386	0.0025
489.6383	0.021
489.8379	0.0089
490.0376	0.0103
490.2372	0.009
490.4368	0.0075
490.6364	0.0079
490.836	0.0017
491.0355	0.0002
491.2351	0.006
491.4346	0.0142
491.6341	0.0086
491.8336	0.008
492.0331	0.0074
492.2326	0.0122
492.432	0.0066
492.6315	0.0148
492.8309	0.0077
493.0303	0.0048
493.2297	0.0155
493.4291	0.0034
493.6284	0.0161
493.8278	0.007
494.0271	0.008
494.2264	0.006
494.4257	0.0128
494.625	0.005
494.8243	-0.0008
495.0236	0.0139
495.2228	0.0149
495.422	0.0131
495.6213	0.0082
495.8205	0.0106
496.0196	0.0054
496.2188	0.0123
496.418	0.0093
496.6171	0.0089
496.8162	0.0089
497.0153	0.017
497.2144	0.0054
497.4135	0.0032
497.6126	0.0092
497.8116	0.0032
498.0107	0.0085
498.2097	0.008
498.4087	0.0074
498.6077	0.0003
498.8067	0.0149
499.0056	0.0118
499.2046	0.0113
499.4035	0.007
499.6024	-0.0017
499.8013	0.0171
500.0002	0.0176
500.199	0.0193
500.3979	0.0036
500.5967	0.009
500.7956	0.0119
500.9944	0.0167
501.1932	0.0155
501.3919	0.0145
501.5907	0.0145
501.7895	0.0104
501.9882	0.0086
502.1869	0.0149
502.3856	0.006
502.5843	0.0128
502.783	0.0063
502.9816	0.0175
503.1803	0.0095
503.3789	0.018
503.5775	-0.0008
503.7761	0.0076
503.9747	0.0114
504.1732	0.001
504.3718	0.0146
504.5703	0.0128
504.7689	0.0025
504.9674	0.0129
505.1658	0.0051
505.3643	0.0161
505.5628	0.0111
505.7612	0.0139
505.9597	0.0071
506.1581	0.0107
506.3565	0.0094
506.5549	0.0049
506.7532	-0.0007
506.9516	0.007
507.1499	0.0148
507.3482	0.0106
507.5465	0.0193
507.7448	0.009
507.9431	0.0163
508.1414	0.0053
508.3396	0.012
508.5379	0.0048
508.7361	0.0146
508.9343	0.0109
509.1325	0.0172
509.3306	0.0067
509.5288	-0.0006
509.7269	0.0164
509.9251	0.0186
510.1232	0.0086
510.3213	0.0136
510.5193	0.0066
510.7174	0.0075
510.9154	0.0073
511.1135	0.0051
511.3115	0.0111
511.5095	0.0124
511.7075	0.0045
511.9055	0.01
512.1034	0.0039
512.3014	0.0037
512.4993	0.0107
512.6972	0.008
512.8951	0.0141
513.093	0.0101
513.2908	0.0241
513.4887	0.0114
513.6865	0.0053
513.8844	0.013
514.0822	0.0086
514.2799	0.0096
514.4777	0.0027
514.6755	0.0028
514.8732	0.0069
515.0709	0.0102
515.2687	0.0013
515.4664	0.0072
515.664	0.0175
515.8617	0.0124
516.0594	0.0096
516.257	0.0186
516.4546	0.0211
516.6522	0.009
516.8498	0.0084
517.0474	0.0142
517.2449	0.0088
517.4425	0.0134
517.64	0.0075
517.8375	0.0187
518.035	0.0071
518.2325	0.0036
518.43	0.0056
518.6274	0.0018
518.8249	0.0037
519.0223	0.023
519.2197	0.0032
519.4171	0.0017
519.6145	0.0078
519.8118	-0.0002
520.0092	-0.0012
520.2065	0.0243
520.4038	0.006
520.6011	0.0055
520.7984	0.0095
520.9956	0.018
521.1929	0.0115
521.3901	0.0095
521.5874	0.009
521.7846	-0.0066
521.9818	0.0116
522.1789	0.0084
522.3761	0.011
522.5732	0.0139
522.7704	0.0052
522.9675	0.0027
523.1646	0.0013
523.3617	0.0145
523.5587	0.0163
523.7558	0.0038
523.9528	0.0187
524.1498	0.0152
524.3468	0.0157
524.5438	0.0076
524.7408	0.0024
524.9378	0.0116
525.1347	0.0139
525.3316	0.0079
525.5285	0.0122
525.7254	0.0116
525.9223	0.0125
526.1192	0.0129
526.316	0.0162
526.5129	0.0138
526.7097	0.0033
526.9065	0.0154
527.1033	0.0065
527.3	0.0073
527.4968	0.0185
527.6935	-0.0033
527.8903	0.0138
528.087	0.013
528.2837	0.0214
528.4804	0.0056
528.677	0.0005
528.8737	0.007
529.0703	0.0109
529.2669	0.0206
529.4635	0.0123
529.6601	0.0101
529.8567	0.0083
530.0532	0.0083
530.2498	0.0057
530.4463	-0.0005
530.6428	0.0131
530.8393	0.0169
531.0358	0.006
531.2322	0.0098
531.4287	0.0109
531.6251	-0.0031
531.8215	-0.0027
532.0179	0.009
532.2143	0.0075
532.4107	0.0102
532.607	0.0039
532.8034	0.0046
532.9997	0.0078
533.196	0.0073
533.3923	0.0123
533.5886	0.0126
533.7848	0.0073
533.9811	0.011
534.1773	0.0055
534.3735	0.0103
534.5697	0.0107
534.7659	0.0161
534.9621	0.0035
535.1582	0.0084
535.3544	0.0133
535.5505	0.0112
535.7466	0.0072
535.9427	0.0017
536.1387	0.0103
536.3348	0.0107
536.5308	0.0045
536.7269	0.0146
536.9229	0.0108
537.1189	0.0142
537.3148	0.0031
537.5108	0.0091
537.7068	0.0126
537.9027	-0.0019
538.0986	0.0189
538.2945	0.0048
538.4904	-0.0036
538.6863	0.0017
538.8821	0.0098
539.078	0.0091
539.2738	0.0052
539.4696	0.0016
539.6654	0.0061
539.8611	0.0052
540.0569	-0.0011
540.2526	0.0144
540.4484	0.0024
540.6441	0.0079
540.8398	0.0211
541.0355	0.0029
541.2311	0.0111
541.4268	0.0042
541.6224	0.0154
541.818	0.0139
542.0136	0.0131
542.2092	0.0074
542.4048	0.0122
542.6003	0.0073
542.7959	0.0057
542.9914	0.0117
543.1869	0.0042
543.3824	0.0109
543.5779	0.0194
543.7734	0.0185
543.9688	0.0149
544.1642	0.0108
544.3596	0.0077
544.555	0.0187
544.7504	0.0178
544.9458	0.0074
545.1411	0.0041
545.3365	0.0117
545.5318	0.0002
545.7271	0.0083
545.9224	0.0197
546.1177	0.0105
546.3129	0.0178
546.5081	-0.0013
546.7034	-0.0008
546.8986	0.0044
547.0938	0.0136
547.289	0.0126
547.4841	0.0148
547.6793	0.0047
547.8744	0.0115
548.0695	0.0034
548.2646	0.0114
548.4597	0.0013
548.6548	0.0202
548.8498	0.0141
549.0448	0.0067
549.2399	0.0234
549.4349	0.0111
549.6298	0.01
549.8248	0.0064
550.0198	0.0162
550.2147	0.0152
550.4096	-0.0056
550.6045	0.0126
550.7994	0.0089
550.9943	0.0171
551.1892	-0.009
551.384	0.0188
551.5788	0.0095
551.7737	0.012
551.9685	0.0135
552.1632	0.0058
552.358	0.009
552.5528	0.0071
552.7475	0.0046
552.9422	0.0059
553.1369	0.0181
553.3316	0.0074
553.5263	0.0216
553.7209	0.0132
553.9156	0.0117
554.1102	0.0114
554.3048	0.0047
554.4994	0.0117
554.694	0.0076
554.8885	0.0131
555.0831	0.0168
555.2776	0.0205
555.4721	0.0103
555.6666	0.0097
555.8611	0.0108
556.0555	0.0074
556.25	0.0141
556.4444	0.0036
556.6388	0.0046
556.8332	0.007
557.0276	0.0132
557.222	0.0052
557.4163	-0.0007
557.6107	0.0062
557.805	-0.0005
557.9993	0.0046
558.1936	0.0025
558.3879	0.0115
558.5821	0.0006
558.7764	0.0086
558.9706	0.01
559.1648	0.0097
559.359	0.0018
559.5532	0.0042
559.7473	0.0108
559.9415	0.006
560.1356	0.009
560.3297	0.0059
560.5238	0.0134
560.7179	-0.0022
560.9119	-0.0024
561.106	-0.0037
561.3	0.0094
561.494	-0.009
561.688	0.0127
561.882	0.0024
562.076	0.0121
562.2699	0.0121
562.4639	0.0172
562.6578	0.0167
562.8517	0.0091
563.0456	0.0155
563.2395	0.0049
563.4333	0.0016
563.6272	0.012
563.821	0.0012
564.0148	0.0028
564.2086	0.0049
564.4024	0.012
564.5961	0.0097
564.7899	0.0189
564.9836	0.005
565.1773	0.0132
565.371	0.0089
565.5647	0.0166
565.7584	0.0161
565.952	0.0155
566.1456	0.0044
566.3393	0.0133
566.5329	0.0049
566.7264	0.0115
566.92	0.0059
567.1136	0.005
567.3071	0.0032
567.5006	0.0128
567.6941	0.005
567.8876	0.0106
568.0811	0.0166
568.2745	0.0044
568.468	0.0077
568.6614	0.0106
568.8548	0.0139
569.0482	0.0123
569.2416	0.012
569.4349	0.0053
569.6283	0.0059
569.8216	0.0096
570.0149	0.0032
570.2082	0.0138
570.4015	0.0054
570.5947	0.009
570.788	0.008
570.9812	0.0058
571.1744	0.0115
571.3676	0.0092
571.5608	0.006
571.754	0.0142
571.9471	0.0121
572.1402	0.0096
572.3333	0.0111
572.5264	0.0087
572.7195	0.0052
572.9126	0.0059
573.1057	0.0092
573.2987	0.0043
573.4917	0.0112
573.6847	0.0082
573.8777	0.013
574.0707	0.0106
574.2636	0.0095
574.4566	0.0081
574.6495	0.0056
574.8424	0.0142
575.0353	0.0147
575.2281	0.0142
575.421	0.0068
575.6138	0.0054
575.8067	0.0082
575.9995	0.0056
576.1923	0.0095
576.385	0.012
576.5778	0.0135
576.7706	0.0098
576.9633	0.0104
577.156	0.0051
577.3487	0.007
577.5414	0.0061
577.734	0.0078
577.9267	0.0109
578.1193	0.0105
578.3119	0.0039
578.5045	0.0032
578.6971	0.0088
578.8897	0.006
579.0822	0.0108
579.2747	0.0095
579.4673	0.0086
579.6598	0.0103
579.8522	0.007
580.0447	0.0096
580.2372	0.0091
580.4296	0.0125
580.622	0.0052
580.8144	0.0063
581.0068	0.0095
581.1992	0.0089
581.3915	0.0008
581.5839	0.0117
581.7762	0.01
581.9685	0.0049
582.1608	0.0078
582.353	0.0093
582.5453	0.0111
582.7375	0.0081
582.9298	0.0034
583.122	0.0057
583.3142	0.0083
583.5063	0.0077
583.6985	0.0037
583.8906	0.0095
584.0827	0.0108
584.2749	0.0044
584.4669	0.0096
584.659	0.0071
584.8511	0.0126
585.0431	0.0094
585.2352	0.0116
585.4272	0.0147
585.6192	0.0131
585.8111	0.0073
586.0031	0.003
586.195	0.0068
586.387	0.0073
586.5789	0.0133
586.7708	0.0119
586.9627	0.0089
587.1545	0.0122
587.3464	0.0096
587.5382	0.0039
587.73	0.0099
587.9218	0.0074
588.1136	0.0034
588.3053	0.0089
588.4971	0.0063
588.6888	0.0084
588.8805	0.0073
589.0722	0.0133
589.2639	0.0106
589.4556	0.0079
589.6472	0.013
589.8389	0.0022
590.0305	0.0014
590.2221	0.011
590.4137	0.0071
590.6052	0.0069
590.7968	0.008
590.9883	0.0069
591.1798	0.0073
591.3713	0.0046
591.5628	0.0063
591.7543	0.0083
591.9458	0.0062
592.1372	0.0122
592.3286	0.0069
592.52	0.0068
592.7114	0.0056
592.9028	0.0133
593.0941	0.0042
593.2855	0.0077
593.4768	0.0129
593.6681	0.0135
593.8594	0.0083
594.0506	0.0084
594.2419	0.0081
594.4331	0.0131
594.6244	0.0072
594.8156	0.0073
595.0067	0.0094
595.1979	0.0082
595.3891	0.0124
595.5802	0.0139
595.7713	0.0094
595.9624	0.013
596.1535	0.0034
596.3446	0.007
596.5357	0.0086
596.7267	0.0132
596.9177	0.0066
597.1087	0.0023
597.2997	0.0109
597.4907	0.0031
597.6817	0.007
597.8726	0.0078
598.0635	0.0014
598.2544	0.0123
598.4453	0.0069
598.6362	0.007
598.827	0.0067
599.0179	0.0117
599.2087	0.0169
599.3995	0.0132
599.5903	0.018
599.7811	0.0191
599.9718	0.0078
600.1626	0.0063
600.3533	0.0089
600.544	0.0122
600.7347	0.0039
600.9254	0.0162
601.116	0.0063
601.3067	0.014
601.4973	0.013
601.6879	0.0101
601.8785	0.0097
602.0691	0.0073
602.2596	0.0076
602.4502	0.0108
602.6407	0.0098
602.8312	0.0107
603.0217	0.0069
603.2122	0.0087
603.4027	0.011
603.5931	0.0073
603.7835	0.0122
603.9739	0.0069
604.1643	0.0131
604.3547	0.0108
604.5451	0.0126
604.7354	0.0098
604.9257	0.0057
605.116	0.0036
605.3063	0.0134
605.4966	0.0082
605.6869	0.0191
605.8771	0.0065
606.0673	0.0109
606.2575	0.0048
606.4477	0.0107
606.6379	-0.0012
606.8281	0.0083
607.0182	0.0075
607.2083	0.0068
607.3985	0.0102
607.5885	0.0037
607.7786	0.0159
607.9687	0.0098
608.1587	0.0149
608.3488	0.0126
608.5388	0.0031
608.7288	0.0031
608.9187	0.0062
609.1087	0.0104
609.2986	0.0109
609.4886	0.0039
609.6785	0.007
609.8684	-0.003
610.0582	0.0099
610.2481	0.0059
610.4379	0.0114
610.6278	0.0041
610.8176	0.0167
611.0074	0.0113
611.1971	0.0117
611.3869	0.0112
611.5766	0.0042
611.7664	0.0145
611.9561	0.0079
612.1458	0.0087
612.3354	0.013
612.5251	0.0063
612.7147	0.0134
612.9044	0.0048
613.094	0.0123
613.2836	0.0121
613.4731	0.0071
613.6627	0.0064
613.8522	0.0096
614.0417	0.0098
614.2313	0.0113
614.4207	0.0085
614.6102	0.0105
614.7997	0.01
614.9891	0.0091
615.1785	0.0018
615.3679	0.009
615.5573	0.0064
615.7467	0.0072
615.9361	0.0049
616.1254	0.0229
616.3147	0.0047
616.504	0.0052
616.6933	0.0139
616.8826	0.0014
617.0718	0.0153
617.2611	0.0119
617.4503	0.0031
617.6395	0.0109
617.8287	0.0173
618.0179	0.0116
618.207	0.0059
618.3961	0.0102
618.5853	0.0043
618.7744	0.0104
618.9634	0.0221
619.1525	0.0151
619.3416	0.0094
619.5306	0.0117
619.7196	0.0221
619.9086	0.004
620.0976	0.0055
620.2866	0.016
620.4755	0.006
620.6645	0.0176
620.8534	0.0176
621.0423	0.0051
621.2312	0.0021
621.42	0.0089
621.6089	0.0052
621.7977	0.0052
621.9865	0.0124
622.1753	0.0003
622.3641	0.008
622.5529	-0.0009
622.7416	0.0121
622.9303	0.0048
623.1191	0.0165
623.3078	0.0072
623.4964	0.0103
623.6851	0.0136
623.8737	0.0081
624.0624	0.004
624.251	0.0028
624.4396	0.0087
624.6282	0.0243
624.8167	0.0011
625.0053	0.0133
625.1938	0.0143
625.3823	0.0201
625.5708	0.0019
625.7593	-0.0029
625.9477	0.0103
626.1362	0.0055
626.3246	-0.0006
626.513	0.0145
626.7014	0.0104
626.8898	0.0179
627.0781	0.0077
627.2665	0.0107
627.4548	-0.0008
627.6431	0.0018
627.8314	0.0116
628.0197	0.0033
628.2079	0.0072
628.3962	-0.0025
628.5844	0.0132
628.7726	0.0023
628.9608	0.0025
629.1489	0.0119
629.3371	-0.007
629.5252	0.0064
629.7134	-0.0016
629.9015	0.0176
630.0895	-0.0063
630.2776	0.0187
630.4657	0.0146
630.6537	0.0164
630.8417	0.0068
631.0297	0.0057
631.2177	0.006
631.4057	0.0106
631.5936	0.0036
631.7815	0.0048
631.9695	0.0239
632.1574	0.0165
632.3452	0.0235
632.5331	0.0071
632.7209	0.0193
632.9088	0.0023
633.0966	0.0212
633.2844	0.004
633.4722	0.0103
633.6599	0.0382
633.8477	0.0104
634.0354	0.0319
634.2231	-0.0102
634.4108	-0.0056
634.5985	0.006
634.7861	0.0176
634.9738	0.0028
635.1614	0.0028
635.349	0.0018
635.5366	0.0058
635.7242	0.0064
635.9117	0.001
636.0993	0.0087
636.2868	-0.0003
636.4743	0.011
636.6618	0.0012
636.8492	0.0165
637.0367	0.007
637.2241	0.0189
637.4115	0.0327
637.5989	-0.0115
637.7863	0.0328
637.9737	-0.0037
638.161	0.0127
638.3484	-0.0034
638.5357	0.002
638.723	0.0093
638.9103	0.0103
639.0975	0.0032
639.2848	0.0327
639.472	0.0343
639.6592	-0.0056
639.8464	-0.0049
640.0336	0.0119
640.2208	0.0025
640.4079	-0.0053
640.595	0.0035
640.7821	0.0233
640.9692	-0.007
641.1563	0.0143
641.3434	0.0049
641.5304	0.0186
641.7174	0.0122
641.9044	-0.0236
642.0914	0.0119
642.2784	0.0026
642.4653	-0.0041
642.6523	0.0008
642.8392	-0.009
643.0261	0.0133
643.213	0.0125
643.3999	0.0182
643.5867	0.0021
643.7735	-0.0041
643.9604	0.0367
644.1472	-0.0016
644.3339	-0.0055
644.5207	0.0159
644.7075	0.0217
644.8942	0.015
645.0809	0.0007
645.2676	0.0017
645.4543	0.0112
645.6409	0.0252
645.8276	0.014
646.0142	0.017
646.2008	0.0184
646.3874	-0.005
646.574	0.0022
646.7605	-0.009
646.9471	0.0066
647.1336	-0.0244
647.3201	0.0216
647.5066	0.0118
647.6931	0.0026
647.8795	0.0173
648.0659	0.0225
648.2524	0.028
648.4388	0.0126
648.6252	0.0119
648.8115	0.0136
648.9979	0.0301
649.1842	0.0151
649.3705	0.0244
649.5568	0.0042
649.7431	-0.0037
649.9294	-0.0157
650.1156	0.0083
650.3018	0.0122
650.488	0.0032
650.6742	0.0149
650.8604	0.0349
651.0466	0.0078
651.2327	0.0004
651.4188	0.0009
651.6049	0.0288
651.791	0.0093
651.9771	0.0265
652.1632	0.0166
652.3492	0.0041
652.5352	0.0198
652.7212	0.0033
652.9072	0.009
653.0932	0.0123
653.2791	0.0156
653.465	0.0222
653.651	0.0083
653.8369	0.0056
654.0227	0.0038
654.2086	0.0132
654.3944	0.0051
654.5803	0.0135
654.7661	-0.002
654.9519	0.0044
655.1377	0
655.3234	0
655.5092	0
655.6949	0
655.8806	0
656.0663	0
656.2519	0
656.4376	0
656.6232	0
656.8088	0
656.9945	0
657.18	0
657.3656	0
657.5511	0
657.7367	0
657.9222	0
658.1077	0
658.2932	0
658.4786	0
658.6641	0
658.8495	0
659.0349	0
659.2203	0
659.4057	0.0029
659.591	0.2782
659.7764	0.0229
659.9617	0.0186
660.147	0.0165
660.3323	0.0063
660.5176	0.0184
660.7028	0.0036
660.888	0.0257
661.0733	0.0141
661.2585	0.0062
661.4436	-0.002
661.6288	0.0294
661.8139	0.004
661.9991	-0.0225
662.1842	0.0139
662.3693	0.0166
662.5544	0.0315
662.7394	0.0098
662.9245	-0.0039
663.1095	-0.0065
663.2945	-0.0065
663.4795	-0.01
663.6644	-0.0029
663.8494	0.0115
664.0343	0.0017
664.2193	0.0018
664.4042	0.0287
664.589	0.0195
664.7739	0.0086
664.9587	-0.0098
665.1436	-0.0054
665.3284	0.0068
665.5132	-0.0191
665.698	0.0234
665.8827	-0.0003
666.0675	0.0089
666.2522	0.0109
666.4369	0.0035
666.6216	0.0148
666.8063	0.0016
666.9909	-0.0064
667.1756	0.014
667.3602	-0.0174
667.5448	0.0223
667.7294	0.0064
667.9139	-0.0059
668.0985	0.0102
668.283	0.0061
668.4675	0.035
668.652	0.0081
668.8365	0.0033
669.0209	0.0137
669.2054	-0.0107
669.3898	-0.0038
669.5742	0.03
669.7586	0.0146
669.943	-0.0043
670.1273	0.0057
670.3117	0.0385
670.496	0.0038
670.6803	-0.0009
670.8646	-0.0168
671.0488	0.0312
671.2331	-0.008
671.4173	0.0116
671.6015	0.0168
671.7857	0.021
671.9699	0.0205
672.1541	0.0122
672.3382	0.0077
672.5223	0.0063
672.7064	0.0064
672.8905	-0.0025
673.0746	0.0086
673.2587	0.0235
673.4427	0.0075
673.6267	-0.0017
673.8107	0.0123
673.9947	0.0092
674.1787	0.003
674.3626	0.0356
674.5465	0.0154
674.7304	0.0048
674.9143	-0.013
675.0982	0.0195
675.2821	0.0093
675.4659	-0.0016
675.6497	0.0173
675.8335	-0.0086
676.0173	0.003
676.2011	0.0111
676.3849	-0.0019
676.5686	0.0287
676.7523	-0.0033
676.936	-0.0012
677.1197	0.0086
677.3034	0.0283
677.487	0.0113
677.6706	0.0148
677.8542	0.0176
678.0378	0.0178
678.2214	0.0004
678.405	0.0105
678.5885	0.0261
678.772	0.0098
678.9555	0.0092
679.139	0.0117
679.3225	0.0155
679.5059	0.0046
679.6894	0.0144
679.8728	0.0076
680.0562	0.0045
680.2395	0.0049
680.4229	0.0052
680.6062	0.0051
680.7896	-0.0022
680.9729	0.0328
681.1562	0.0011
681.3394	0.0096
681.5227	0.0032
681.7059	0.0216
681.8891	0.0187
682.0723	-0.0012
682.2555	-0.0007
682.4387	0.019
682.6218	0.02
682.805	0.0101
682.9881	0.0285
683.1712	0.0072
683.3542	0.0219
683.5373	-0.0079
683.7203	0.0035
683.9034	0.0085
684.0864	-0.0096
684.2694	0.0134
684.4523	0.021
684.6353	0.0167
684.8182	-0.0131
685.0011	0.0165
685.184	0.0015
685.3669	0.0315
685.5498	-0
685.7326	0.011
685.9154	-0.001
686.0982	0.0072
686.281	0.0081
686.4638	0.0078
686.6465	-0.0162
686.8293	-0.011
687.012	0.0113
687.1947	0.0068
687.3774	0.0236
687.56	-0.0037
687.7427	-0.0016
687.9253	-0.0217
688.1079	-0.0062
688.2905	-0.0227
688.4731	0.0247
688.6556	0.0206
688.8382	-0.0166
689.0207	0.0213
689.2032	0.0074
689.3857	0.0104
689.5681	-0.0014
689.7506	0.0344
689.933	0.0208
690.1154	0.0132
690.2978	0.0104
690.4802	0.013
690.6626	0.0096
690.8449	0.0105
691.0272	0.0041
691.2095	-0.0083
691.3918	0.0251
691.5741	-0.0005
691.7563	0.0129
691.9386	0.0107
692.1208	0.0089
692.303	-0.0097
692.4852	-0.0062
692.6673	0.0016
692.8495	0.0108
693.0316	0.0153
693.2137	0.0096
693.3958	0.0048
693.5778	0.0065
693.7599	0.0029
693.9419	-0.0174
694.1239	0.001
694.3059	0.0084
694.4879	0.0006
694.6699	0.0039
694.8518	0.0138
695.0337	0.0143
695.2157	0.0227
695.3975	-0.0224
695.5794	-0.0015
695.7613	0.0312
695.9431	0.0156
696.1249	0.0244
696.3067	-0.0242
696.4885	0.0177
696.6703	0.0066
696.852	-0.004
697.0337	0.0147
697.2154	0.0164
697.3971	0.0078
697.5788	0.007
697.7605	-0.0017
697.9421	0.0208
698.1237	0.0325
698.3053	-0.0019
698.4869	0.0243
698.6685	-0.0162
698.85	0.003
699.0315	-0.0136
699.213	0.0245
699.3945	0.0016
699.576	0.0172
699.7575	0.0102
699.9389	0.0019
700.1203	0.0322
700.3017	0.0295
700.4831	0.0409
700.6645	0.0298
700.8458	-0.0149
701.0271	0.0267
701.2084	0.0054
701.3897	0.0178
701.571	-0.0171
701.7523	0.0175
701.9335	0.016
702.1147	0.0179
702.2959	0.0012
702.4771	0.0114
702.6583	0.0069
702.8394	-0.0114
703.0205	0.0345
703.2016	-0.0068
703.3827	-0.0077
703.5638	0.0445
703.7449	0.0396
703.9259	0.0014
704.1069	-0.0106
704.2879	0.0043
704.4689	0.011
704.6499	-0.0033
704.8308	0.0013
705.0117	0.0155
705.1927	0.0216
705.3735	0.0161
705.5544	0.0108
705.7353	0.0058
705.9161	-0.0082
706.0969	0.0081
706.2777	0.0227
706.4585	-0.0055
706.6393	0.0289
706.82	0.0347
707.0007	-0.0063
707.1815	0.0104
707.3621	0.037
707.5428	0.0205
707.7235	0.02
707.9041	0.0205
708.0847	0.0137
708.2653	0.0421
708.4459	0.0062
708.6265	-0.0024
708.807	0.0241
708.9875	-0.0012
709.168	-0.0036
709.3485	0.0318
709.529	0.0353
709.7095	-0.0045
709.8899	0.0203
710.0703	-0.0056
710.2507	0.0295
710.4311	-0.0279
710.6115	0.0287
710.7918	0.0263
710.9721	-0.0103
711.1524	-0.0099
711.3327	-0.0163
711.513	0.0129
711.6932	0.005
711.8735	0.0031
712.0537	-0.0077
712.2339	0.0097
712.4141	0.0071
712.5942	-0.0224
712.7744	0.0332
712.9545	0.0142
713.1346	0.0209
713.3147	0.0045
713.4947	-0.0063
713.6748	0.0066
713.8548	0.0203
714.0348	0.0097
714.2148	0.0173
714.3948	0.0109
714.5748	0.0208
714.7547	0.0166
714.9346	0.0417
715.1145	-0.0017
715.2944	-0.028
715.4743	0.0138
715.6541	-0.0031
715.834	0.0268
716.0138	0.0209
716.1936	-0.0054
716.3733	-0.0134
716.5531	0.0175
716.7328	0.0227
716.9126	0.0137
717.0923	-0.0252
717.2719	0.0142
717.4516	0.0197
717.6312	-0.0269
717.8109	0.047
717.9905	0.0174
718.1701	-0.0015
718.3496	0.0059
718.5292	0.003
718.7087	0.0178
718.8882	0.0147
719.0677	0.0167
719.2472	0.0028
719.4267	0.0011
719.6061	-0.0234
719.7856	0.0095
719.965	-0.0055
720.1443	-0.002
720.3237	-0.0012
720.5031	0.0246
720.6824	0.0034
720.8617	-0.0023
721.041	0.0283
721.2203	-0.012
721.3995	0.0163
721.5788	-0.0094
721.758	0.0151
721.9372	-0.0041
722.1164	-0.0035
722.2956	0.0252
722.4747	0.0265
722.6538	0.0138
722.8329	0.0112
723.012	-0.0039
723.1911	-0.0022
723.3702	0.0346
723.5492	-0.0022
723.7282	-0.0094
723.9072	0.0016
724.0862	-0.0032
724.2652	0.017
724.4441	0.0073
724.623	-0.0126
724.8019	0.023
724.9808	0.0142
725.1597	0.0003
725.3385	0.0158
725.5174	0.0179
725.6962	0.0068
725.875	0.0223
726.0538	0.0322
726.2325	0.0323
726.4112	-0.0034
726.59	0.0097
726.7687	-0.0082
726.9474	0.0362
727.126	0.0421
727.3047	-0.0079
727.4833	0.0319
727.6619	0.0119
727.8405	0.002
728.0191	0.0197
728.1976	-0.0095
728.3762	-0.0086
728.5547	-0.0062
728.7332	0.0154
728.9116	-0.0064
729.0901	0.0085
729.2686	0.0034
729.447	0.006
729.6254	0.0111
729.8038	-0.0094
729.9821	-0.0051
730.1605	0.0182
730.3388	-0.0029
730.5171	0.0137
730.6954	-0.0079
730.8737	0.0232
731.0519	0.0064
731.2302	0.0109
731.4084	-0.0006
731.5866	-0.0032
731.7648	0.0072
731.9429	0.0034
732.1211	-0.0088
732.2992	0.0212
732.4773	0.0106
732.6554	-0.0031
732.8335	0.0252
733.0115	0.0095
733.1896	-0.0129
733.3676	0.028
733.5456	-0.0037
733.7235	0.0029
733.9015	0.0121
734.0794	-0.0007
734.2574	-0.0053
734.4353	0.0327
734.6131	0.0107
734.791	0.0073
734.9689	-0.0063
735.1467	-0.0023
735.3245	0.0331
735.5023	0.0176
735.68	-0.0022
735.8578	0.0164
736.0355	0.0077
736.2132	0.008
736.3909	0.0271
736.5686	0.0013
736.7463	-0.002
736.9239	0.0218
737.1015	0.028
737.2791	0.0099
737.4567	0.0239
737.6343	-0.0223
737.8118	0.0205
737.9894	0.0146
738.1669	-0.0034
738.3444	0.0284
738.5218	-0.018
738.6993	0.0091
738.8767	0.0103
739.0541	-0
739.2315	-0.0061
739.4089	0.0182
739.5863	0.0308
739.7636	0.0186
739.9409	-0.0069
740.1182	0.0077
740.2955	0.0178
740.4728	0.0034
740.65	-0.007
740.8272	0.0273
741.0044	0.0058
741.1816	0.0637
741.3588	-0.0186
741.5359	0.0009
741.7131	0.0217
741.8902	-0.0046
742.0673	-0.0066
742.2444	0.036
742.4214	0.006
742.5985	-0.0168
742.7755	0.0021
742.9525	-0.0347
743.1295	-0.0321
743.3064	0.0153
743.4834	0.0059
743.6603	0.0537
743.8372	-0.0228
744.0141	0.0658
744.191	0.0453
744.3678	-0.0187
744.5446	0.0179
744.7215	0.0403
744.8982	0.0163
745.075	0.0347
745.2518	-0.0183
745.4285	0.0205
745.6052	0.0119
745.7819	0.0065
745.9586	0.0146
746.1353	0.0014
746.3119	-0.0089
746.4885	0.0238
746.6651	0.0095
746.8417	-0.008
747.0183	0.0218
747.1948	0.0331
747.3714	0.0147
747.5479	0.0291
747.7244	-0.009
747.9008	-0.0208
748.0773	0.048
748.2537	0.0355
748.4301	0.0295
748.6065	-0.0268
748.7829	-0.0164
748.9593	0.0045
749.1356	0.0139
749.3119	0.0208
749.4882	0.0164
749.6645	0.0009
749.8408	-0.0051
750.017	0.0107
750.1933	-0.0222
750.3695	-0.0043
750.5457	-0.015
750.7218	0.0162
750.898	0.0067
751.0741	0.0175
751.2502	0.0195
751.4263	0.0047
751.6024	0.0012
751.7784	-0.0025
751.9545	0.0089
752.1305	-0.0001
752.3065	0.0194
752.4825	0.0158
752.6584	0.011
752.8344	-0.0019
753.0103	-0.0076
753.1862	0.0108
753.3621	0.0022
753.5379	0.0009
753.7138	-0.0044
753.8896	0.0028
754.0654	0.0029
754.2412	0.0048
754.417	0.0094
754.5927	0.0299
754.7685	0.0257
754.9442	0.0278
755.1199	0.0306
755.2956	0.0265
755.4712	0.0244
755.6469	0.0209
755.8225	0.003
755.9981	0.0067
756.1736	0.0144
756.3492	-0.0013
756.5248	0.0086
756.7003	0.0079
756.8758	-0.006
757.0513	0.0073
757.2267	0.0125
757.4022	0.0044
757.5776	-0.0022
757.753	0.0235
757.9284	0.0271
758.1038	0.0121
758.2791	-0.0083
758.4545	-0.0049
758.6298	0.0083
758.8051	0.0334
758.9803	0.0142
759.1556	0.0205
759.3308	-0.0079
759.506	0.0019
759.6812	-0.0056
759.8564	0.011
760.0316	0.0022
760.2067	0.0224
760.3819	0.0151
760.557	0.005
760.732	-0.0003
760.9071	0.024
761.0821	-0.012
761.2572	0.0157
761.4322	0.0141
761.6072	0.0064
761.7821	-0.0026
761.9571	0.0079
762.132	0.0135
762.3069	0.0394
762.4818	0.0274
762.6567	0.0062
762.8316	0.0097
763.0064	0.005
763.1812	0.0149
763.356	-0.0253
763.5308	0.0402
763.7055	0.0155
763.8803	0.0084
764.055	-0.0036
764.2297	-0.0121
764.4044	-0.0051
764.579	0.0006
764.7537	0.0152
764.9283	0.0202
765.1029	0.0058
765.2775	0.0007
765.4521	0.0151
765.6266	0.0003
765.8011	0.0099
765.9756	0.0146
766.1501	0.0012
766.3246	-0.0099
766.4991	0.0215
766.6735	0.0239
766.8479	-0.0049
767.0223	0.016
767.1967	-0.0046
767.371	-0.0006
767.5454	0.0355
767.7197	0.0353
767.894	-0.0065
768.0683	0.0247
768.2425	0.0067
768.4168	0.0214
768.591	-0.0035
768.7652	0.0033
768.9394	-0.0161
769.1135	-0.0314
769.2877	0.0209
769.4618	0.0242
769.6359	-0.0001
769.81	0.0398
769.984	-0.009
770.1581	-0.0049
770.3321	0.0189
770.5061	-0.0026
770.6801	0.0016
770.8541	0.0208
771.028	0.0399
771.202	0.0245
771.3759	0.003
771.5498	0.0033
771.7236	-0.0094
771.8975	0.0073
772.0713	0.0124
772.2451	-0.0083
772.4189	0.0073
772.5927	-0.0318
772.7665	-0.0026
772.9402	-0.0058
773.1139	-0.0001
773.2876	-0.0023
773.4613	0.0016
773.635	0.043
773.8086	0.0136
773.9822	0.0078
774.1558	0.0402
774.3294	0.0331
774.503	-0.0097
774.6765	-0.0048
774.8501	-0.0386
775.0236	0.0149
775.1971	0.021
775.3705	-0.0124
775.544	-0.0124
775.7174	-0.005
775.8908	0.0647
776.0642	0.0394
776.2376	0.0074
776.4109	0.0007
776.5843	0.0052
776.7576	0.0119
776.9309	0.0049
777.1041	-0.0235
777.2774	0.0099
777.4506	-0.0202
777.6238	0.0307
777.797	0.0156
777.9702	0.0179
778.1434	0.0273
778.3165	-0.0223
778.4896	-0.0383
778.6627	-0.0186
778.8358	-0.0188
779.0089	-0.0235
779.1819	0.0305
779.3549	0.0249
779.5279	-0.0223
779.7009	0.0418
779.8739	0.0655
780.0468	-0.0064
780.2197	-0.0171
780.3926	-0.0437
780.5655	-0.0007
780.7384	-0.0304
780.9112	0.0157
781.0841	0.015
781.2569	0.0317
781.4297	0.0161
781.6024	0.0242
781.7752	0.0307
781.9479	0.0454
782.1206	-0.0038
782.2933	0.0027
782.466	0.02
782.6386	-0.032
782.8113	0.0069
782.9839	-0.0065
783.1565	0.0184
783.329	-0.0053
783.5016	0.0294
783.6741	-0.0092
783.8466	0.0545
784.0191	0.0483
784.1916	-0.0164
784.3641	-0.0434
784.5365	0.0646
784.7089	0.0212
784.8813	0.0437
785.0537	0.0499
785.2261	0.0451
785.3984	0.004
785.5707	0.0006
785.743	0.0301
785.9153	-0.0168
786.0876	0.0091
786.2598	-0.0148
786.432	0.0314
786.6042	0.044
786.7764	0.0128
786.9486	0.0175
787.1207	0.0273
787.2928	0.0444
787.4649	-0.0547
787.637	0.0005
787.8091	0.0209
787.9811	0.0284
788.1532	0.0186
788.3252	0.0165
788.4972	0.0307
788.6691	0.0258
788.8411	-0.0025
789.013	0.0468
789.1849	-0.0092
789.3568	0.0046
789.5287	0.0703
789.7005	-0.0285
789.8723	-0.0369
790.0442	-0.0139
790.2159	-0.0203
790.3877	0.0807
790.5595	0.0843
790.7312	-0.0139
790.9029	-0.0103
791.0746	-0.0297
791.2463	-0.0348
791.4179	0.0062
791.5896	0.02
791.7612	0.0713
791.9328	-0.0256
792.1044	-0.0013
792.2759	-0.0076
792.4474	-0.0217
792.619	0.0021
792.7905	0.0055
792.9619	0.0596
793.1334	0.0635
793.3048	-0.0043
793.4762	0.0294
793.6476	-0.0225
793.819	-0.0054
793.9904	-0.0067
794.1617	-0.0001
794.333	0.0128
794.5043	-0.0001
794.6756	0.0316
794.8469	0.0256
795.0181	0.0292
795.1893	0.0087
795.3605	0.0483
795.5317	0.0286
795.7029	-0.006
795.874	0.0238
796.0452	0.0631
796.2163	0.0992
796.3873	0.0193
796.5584	0.0013
796.7294	-0.022
796.9005	-0.0175
797.0715	-0.0248
797.2425	0.0452
797.4134	-0.0154
797.5844	-0.0136
797.7553	-0.026
797.9262	0.0349
798.0971	0.0125
798.2679	0.0158
798.4388	0.1079
798.6096	0.0323
798.7804	-0.0181
798.9512	0.0057
799.122	-0.0002
799.2927	0.0726
799.4635	-0.0047
799.6342	-0.0985
799.8049	0.0888
799.9755	-0.039
800.1462	0.0707
800.3168	0.0037
800.4874	-0.0422
800.658	0.0475
800.8286	0.0171
800.9991	0.0306
801.1696	-0.0325
801.3402	-0.0023
801.5106	-0.0754
801.6811	0.0565
801.8516	0.0708
802.022	-0.0567
802.1924	-0.0003
802.3628	0.0743
802.5332	0.0037
802.7035	0.0126
802.8739	0.0972
803.0442	-0.0446
803.2145	0.0096
803.3847	-0.0387
803.555	0.0536
803.7252	-0.081
803.8954	0.0233
804.0656	0.0278
804.2358	0.0034
804.4059	0.0611
804.5761	0.0648
804.7462	-0.0492
804.9163	0.0391
805.0864	0.0175
805.2564	-0.0041
805.4264	0.0047
805.5965	-0.0086
805.7665	0.0706
805.9364	-0.0064
806.1064	-0.0071
806.2763	0.0191
806.4462	0.0207
806.6161	0.0051
806.786	-0.0244
806.9559	0.0363
807.1257	0.0618
807.2955	-0.0389
807.4653	-0.0432
807.6351	0.0022
807.8048	0.0659
807.9746	0.0497
808.1443	-0.0174
808.314	-0.0048
808.4837	0.0971
808.6533	-0.0348
808.8229	0.0167
808.9926	0.0307
809.1622	0.0429
809.3317	0.0172
809.5013	-0.0337
809.6708	-0.0399
809.8403	-0.0161
810.0098	0.0015
810.1793	0.0925
810.3488	-0.0042
810.5182	0.021
810.6876	-0.0155
810.857	0.0246
811.0264	-0.0029
811.1958	0.0654
811.3651	-0.0386
811.5344	0.027
811.7037	-0.0141
811.873	0.0743
812.0422	-0.0778
812.2115	-0.023
812.3807	-0.1432
812.5499	-0.054
812.7191	-0.0089
812.8882	-0.0307
813.0574	0.0551
813.2265	0.08
813.3956	0.048
813.5646	-0.0049
813.7337	-0.0477
813.9027	0.0542
814.0718	0.0568
814.2407	0.0806
814.4097	0.0025
814.5787	0.0348
814.7476	0.0393
814.9165	-0.0543
815.0854	-0.04
815.2543	0.1049
815.4232	0.0801
815.592	-0.0152
815.7608	-0.1073
815.9296	-0.0578
816.0984	-0.0178
816.2671	-0.1798
816.4359	0.083
816.6046	-0.1078
816.7733	-0.0141
816.942	-0.1348
817.1106	0.0042
817.2793	-0.0119
817.4479	-0.0027
817.6165	-0.0344
817.785	0.1424
817.9536	-0.1733
818.1221	0.1255
818.2906	-0.0039
818.4591	0.0319
818.6276	-0.0148
818.7961	0.0794
818.9645	0.1429
819.1329	0.0342
819.3013	-0.097
819.4697	-0.0803
819.638	-0.0353
819.8064	0.0442
819.9747	0.115
820.143	-0.093
820.3113	0.1606
820.4795	-0.0775
820.6477	0.1691
820.816	-0.0093
820.9842	0.052
821.1523	0.0485
821.3205	0.0399
821.4886	-0.0243
821.6567	-0.0567
821.8248	0.0463
821.9929	-0.0541
822.1609	0.0883
822.329	0.0146
822.497	-0.0149
822.665	-0.0005
822.833	-0.0698
823.0009	-0.011
823.1688	0.0254
823.3367	-0.1719
823.5046	0.019
823.6725	-0.1823
823.8404	-0.1027
824.0082	-0.1627
824.176	0.0412
824.3438	0.117
824.5116	0.0158
824.6793	0.1284
824.847	-0.2337
825.0147	-0.0169
825.1824	-0.014
825.3501	0.2071
825.5177	0.0879
825.6854	-0.1408
825.853	-0.0857
826.0206	-0.0385
826.1881	0.0493
826.3557	-0.1284
826.5232	0.2548
826.6907	0.0415
826.8582	0.1161
827.0257	0.0861
827.1931	0.046
827.3605	-0.0742
827.528	0.0912
827.6953	-0.1349
827.8627	-0.1053
828.03	0.0789
828.1974	0.0379
828.3647	0.0303
828.532	0.0687
828.6992	0.1228
828.8665	-0.2703
829.0337	-0.0366
829.2009	0.1474
829.3681	-0.0995
829.5352	-0.295
829.7024	0.1304
829.8695	-0.1305
830.0366	0.2112
830.2037	0.0693
830.3707	0.0184
830.5378	-0.0224
830.7048	-0.1834
830.8718	0.0693
831.0388	-0.0366
831.2057	0.1082
831.3727	-0.0699
831.5396	-0.0721
831.7065	-0.8891
831.8734	0.2432
832.0402	0.3582
832.2071	-0.424
832.3739	-0.0133
832.5407	-1.7219
832.7075	-0.5365
832.8742	0.1961
833.041	0.0737
833.2077	0.1529
833.3744	0.0511
833.541	-0.0406
833.7077	-0.1776
833.8743	0.0164
834.0409	0.0575
834.2075	0.1864
834.3741	0.1015
834.5407	-0.032
834.7072	-0.0202
834.8737	0.1989
835.0402	0.3074
835.2067	-0.2276
835.3731	-0.0749
835.5395	0.0502
835.706	-0.1091
835.8723	0.1878
836.0387	0.2324
836.2051	0.0501
836.3714	0.0811
836.5377	0.5988
836.704	0.6429
836.8703	-0.1927
837.0365	0.1202
837.2027	-0
837.3689	0.3015
837.5351	0.1863
837.7013	0.051
837.8674	0.2777
838.0335	-0.1376
838.1997	0.1164
838.3657	2.1634
838.5318	-0.4154
838.6978	0.5962
838.8639	-0.4848
839.0299	-0.0146
839.1958	0.2143
839.3618	-0.2174
839.5277	0.0317
839.6937	-0.0779
839.8596	-0.2289
840.0254	-0.2731
840.1913	-0.1246
840.3571	0.1658
840.523	-0
840.6888	-0.0307
840.8545	-0.0334
841.0203	-0.163
841.186	-0.1804
841.3517	-0.2896
841.5174	0.2962
841.6831	0.0327
841.8488	0.3751
842.0144	-0
842.18	0.7173
842.3456	-0.6224
842.5112	-0
842.6767	0.0284
842.8422	0.0624
843.0077	0.0198
843.1732	-0.6395
843.3387	0.6237
843.5042	-0
843.6696	-0.2979
843.835	-0.1119
844.0004	-0.1952
844.1657	-0
844.3311	-0.3226
844.4964	-0.5398
844.6617	0.3643
844.827	-0
844.9923	0.5249
845.1575	-0.3817
845.3227	-0.4349
845.4879	-0.3929
845.6531	-0.1598
845.8183	-0.0688
845.9834	-0
846.1485	0.2431
846.3136	-0.3213
846.4787	-0
846.6438	-0.0639
846.8088	0.2457
846.9738	-0.4771
847.1388	0.1021
847.3038	0.0059
847.4687	0.3693
847.6337	-0.0454
847.7986	-0.1246
847.9635	-0.2352
848.1284	0.3308
848.2932	0.6749
848.458	-0
848.6228	0.3393
848.7876	-0
848.9524	-0.4439
849.1172	-1.7624
849.2819	-0.7821
849.4466	0.686
849.6113	0.4335
849.7759	-0.7724
849.9406	0.0084
850.1052	-0.6897
850.2698	-0
850.4344	-0.3174
850.599	-0.0158
850.7635	0.5657
850.928	0.7235
851.0925	0.2691
851.257	-0.166
851.4215	-0.1555
851.5859	-0.0148
851.7503	-0
851.9147	-0.1091
852.0791	-0.0866
852.2434	0.4126
852.4078	-0
852.5721	0.34
852.7364	1.1796
852.9007	0.0644
853.0649	0.4133
853.2291	0.1947
853.3934	-0
853.5575	-0.1389
853.7217	0.388
853.8859	-0
854.05	-0.2701
854.2141	0.1869
854.3782	-0.1453
854.5423	-0.3318
854.7063	-0.0286
854.8703	-0.1075
855.0343	-0.249
855.1983	-0.2386
855.3623	-0.1248
855.5262	-0
855.6901	0.7493
855.854	1.0375
856.0179	-0.18
856.1818	0.7599
856.3456	0.3691
856.5094	-0
856.6732	-0
856.837	-1.2188
857.0008	-0.4771
857.1645	-0.3182
857.3282	-0.4131
857.4919	0.0846
857.6556	-0.2135
857.8192	-0.4143
857.9828	-0.1826
858.1465	-0.3701
858.31	-0
858.4736	-0.5649
858.6372	-0.0264
858.8007	0.0654
858.9642	0.3132
859.1277	0.8093
859.2911	-0.3226
859.4546	-0
859.618	0.2704
859.7814	-0
859.9448	-0
860.1081	-0
860.2715	-1.3396
860.4348	0.0829
860.5981	0.6368
860.7614	-0.3469
860.9246	-0.3916
861.0879	-0
861.2511	-0
861.4143	-0.9271
861.5774	-0.2602
861.7406	0.1958
861.9037	-0.747
862.0668	-0.6958
862.2299	0.5141
862.393	-0.1121
862.556	-0
862.7191	-0.4175
862.8821	0.1923
863.0451	0.218
863.208	-0.3435
863.371	0.3596
863.5339	1.085
863.6968	-0.0424
863.8597	0.6186
864.0225	-0.0621
864.1854	0.0301
864.3482	-0
864.511	0.0872
864.6737	-0
864.8365	0.4981
864.9992	-0
865.1619	-0.6186
865.3246	-2.0261
865.4873	-0
865.65	-0
865.8126	0.4816
865.9752	0.2218
866.1378	-0.097
866.3004	-0.0722
866.4629	-1.3724
866.6254	-0
866.7879	-0.3919
866.9504	-0
867.1129	-0.3514
867.2753	-0.4309
867.4377	-0.2578
867.6001	-0.5556
867.7625	-0.0905
867.9249	0.4118
868.0872	0.0288
868.2495	-0
868.4118	-0
868.5741	-0
868.7363	-0.5175
868.8986	1.5272
869.0608	-0
869.223	-0.4079
869.3851	0.0099
869.5473	0.715
869.7094	-0
869.8715	-0
870.0336	0.0157
870.1957	-0
870.3577	0.1567
870.5197	0.1928
870.6817	-0.213
870.8437	0.2523
871.0057	0.1591
871.1676	0.1229
871.3295	0.063
871.4914	-0
871.6533	0.2673
871.8151	0.8183
871.977	-0
872.1388	-0.1189
872.3006	-0.5103
872.4623	-0.4986
872.6241	-0
872.7858	-0.2449
872.9475	0.6083
873.1092	0.0306
873.2709	0.1569
873.4325	-1.7076
873.5941	-0
873.7557	-0
873.9173	0.0954
874.0789	1.1937
874.2404	0.0324
874.4019	0.4797
874.5634	-0
874.7249	0.3327
874.8863	-0
875.0478	-0.3428
875.2092	0.551
875.3706	0.1314
875.5319	-0.2701
875.6933	-0.1246
875.8546	-0
876.0159	0.2375
876.1772	0.7385
876.3385	-0
876.4997	0.3612
876.6609	0.5433
876.8221	-0
876.9833	-0
877.1445	0.0033
877.3056	-1.2188
877.4667	-1.049
877.6278	-0
877.7889	0.6675
877.9499	-0
878.111	-0.5329
878.272	-0.2952
878.433	0.4306
878.5939	-0.0201
878.7549	-0.1514
878.9158	0.8189
879.0767	-0
879.2376	-0
879.3984	-0
879.5593	-0
879.7201	-0
879.8809	0.1883
880.0417	-0.0018
880.2024	-0.0916
880.3632	-0.4644
880.5239	-0.3742
880.6846	-0.4599
880.8452	0.7281
881.0059	-0
881.1665	-0.0494
881.3271	0.3229
881.4877	1.0186
881.6483	-0
881.8088	-0
881.9693	-0
882.1298	-0
882.2903	-0
