Data from D4ACN5uM420nmA_Absorbance_14-37-09-792.txt Node
Date: Fri Feb 21 14:37:09 GMT 2025
User: LASERRRRR
Spectrometer: FLMT03099
Trigger mode: 0
Integration Time (sec): 1.500000E-2
Scans to average: 1
Electric dark correction enabled: true
Nonlinearity correction enabled: false
Boxcar width: 0
XAxis mode: Wavelengths
Number of Pixels in Spectrum: 3648
>>>>>Begin Spectral Data<<<<<
179.3399	-0.3834
179.5586	-0.3834
179.7771	-0.3834
179.9957	-0.1513
180.2143	-0
180.4329	-0.2997
180.6514	-0
180.8699	1.8309
181.0885	0.8247
181.307	0.6394
181.5255	0.2673
181.744	-0
181.9625	0.641
182.181	-0.495
182.3994	-0
182.6179	-0
182.8363	-0
183.0547	0.2516
183.2732	0.161
183.4916	0.327
183.71	0.3972
183.9284	0.1971
184.1467	0.3824
184.3651	0.0141
184.5835	0.2986
184.8018	0.3786
185.0201	0.2631
185.2385	0.1356
185.4568	0.1375
185.6751	0.0683
185.8934	0.4346
186.1117	0.0438
186.3299	0.4972
186.5482	0.1518
186.7664	0.0053
186.9847	-0.0346
187.2029	0.4054
187.4211	0.0762
187.6393	0.1254
187.8575	0.2861
188.0757	0.4614
188.2939	0.0048
188.512	0.3437
188.7302	0.635
188.9483	0.3279
189.1665	0.3987
189.3846	0.3516
189.6027	0.1209
189.8208	0.5887
190.0389	0.1763
190.257	0.2976
190.475	0.1005
190.6931	0.1781
190.9111	0.3686
191.1292	0.1474
191.3472	0.0298
191.5652	0.2242
191.7832	0.0554
192.0012	0.0951
192.2192	0.1819
192.4371	0.1089
192.6551	0.1949
192.873	0.0928
193.091	0.2711
193.3089	0.1372
193.5268	0.2581
193.7447	0.1597
193.9626	0.2151
194.1805	0.2341
194.3984	0.1611
194.6162	0.2671
194.8341	0.3172
195.0519	0.2154
195.2697	0.2868
195.4875	0.2379
195.7054	0.325
195.9231	0.2031
196.1409	0.3504
196.3587	0.3034
196.5765	0.2878
196.7942	0.3051
197.012	0.303
197.2297	0.2716
197.4474	0.3309
197.6651	0.3016
197.8828	0.3414
198.1005	0.4069
198.3182	0.4258
198.5358	0.4707
198.7535	0.4326
198.9711	0.3648
199.1888	0.3703
199.4064	0.4081
199.624	0.3834
199.8416	0.3719
200.0592	0.4257
200.2767	0.4359
200.4943	0.4064
200.7119	0.4179
200.9294	0.4031
201.1469	0.4045
201.3645	0.4247
201.582	0.4081
201.7995	0.4427
202.017	0.4071
202.2344	0.3767
202.4519	0.3772
202.6694	0.3897
202.8868	0.3668
203.1042	0.4245
203.3217	0.3818
203.5391	0.4089
203.7565	0.3713
203.9739	0.4099
204.1913	0.3542
204.4086	0.3704
204.626	0.3712
204.8433	0.3099
205.0607	0.3661
205.278	0.3584
205.4953	0.3535
205.7126	0.3358
205.9299	0.3129
206.1472	0.3438
206.3644	0.3372
206.5817	0.3231
206.7989	0.3441
207.0162	0.3058
207.2334	0.3272
207.4506	0.3115
207.6678	0.297
207.885	0.3064
208.1022	0.297
208.3194	0.3062
208.5365	0.3205
208.7537	0.289
208.9708	0.282
209.1879	0.2995
209.405	0.2785
209.6222	0.2829
209.8392	0.2807
210.0563	0.2823
210.2734	0.2741
210.4905	0.2464
210.7075	0.2538
210.9245	0.266
211.1416	0.262
211.3586	0.2467
211.5756	0.2523
211.7926	0.2697
212.0096	0.244
212.2265	0.255
212.4435	0.2592
212.6604	0.2624
212.8774	0.2433
213.0943	0.2614
213.3112	0.2588
213.5281	0.2291
213.745	0.2423
213.9619	0.2424
214.1788	0.2654
214.3956	0.2378
214.6125	0.2536
214.8293	0.2451
215.0461	0.2435
215.2629	0.2559
215.4798	0.2408
215.6965	0.2161
215.9133	0.239
216.1301	0.2313
216.3469	0.2344
216.5636	0.2321
216.7803	0.2461
216.9971	0.2395
217.2138	0.2277
217.4305	0.2373
217.6472	0.2376
217.8639	0.2545
218.0805	0.2508
218.2972	0.2329
218.5138	0.2454
218.7305	0.2468
218.9471	0.2378
219.1637	0.2524
219.3803	0.2396
219.5969	0.2374
219.8135	0.2565
220.0301	0.2612
220.2466	0.2389
220.4632	0.2474
220.6797	0.2507
220.8962	0.2506
221.1127	0.2595
221.3292	0.2562
221.5457	0.2685
221.7622	0.2659
221.9787	0.2713
222.1951	0.2623
222.4116	0.2716
222.628	0.2794
222.8444	0.2637
223.0608	0.2651
223.2772	0.2796
223.4936	0.2792
223.71	0.2797
223.9264	0.2873
224.1427	0.2856
224.3591	0.2884
224.5754	0.2902
224.7917	0.2992
225.008	0.2929
225.2243	0.2979
225.4406	0.2865
225.6569	0.2876
225.8732	0.3021
226.0894	0.2955
226.3057	0.3022
226.5219	0.3175
226.7381	0.3084
226.9543	0.3122
227.1705	0.3186
227.3867	0.3139
227.6029	0.3233
227.8191	0.3341
228.0352	0.3279
228.2513	0.3439
228.4675	0.3482
228.6836	0.349
228.8997	0.3458
229.1158	0.3568
229.3319	0.3438
229.548	0.3523
229.764	0.3666
229.9801	0.3689
230.1961	0.3675
230.4121	0.3695
230.6282	0.3929
230.8442	0.382
231.0602	0.3908
231.2761	0.4022
231.4921	0.3866
231.7081	0.3969
231.924	0.4039
232.14	0.4058
232.3559	0.4181
232.5718	0.4083
232.7877	0.4204
233.0036	0.4041
233.2195	0.4202
233.4353	0.4143
233.6512	0.4263
233.867	0.4139
234.0829	0.43
234.2987	0.4339
234.5145	0.4389
234.7303	0.4458
234.9461	0.4368
235.1619	0.4583
235.3776	0.4397
235.5934	0.4321
235.8091	0.449
236.0249	0.447
236.2406	0.4506
236.4563	0.4561
236.672	0.4452
236.8877	0.4491
237.1034	0.4636
237.319	0.4497
237.5347	0.4476
237.7503	0.4523
237.966	0.465
238.1816	0.4617
238.3972	0.4642
238.6128	0.4667
238.8284	0.468
239.0439	0.4632
239.2595	0.4625
239.475	0.4545
239.6906	0.4532
239.9061	0.4535
240.1216	0.4631
240.3371	0.4622
240.5526	0.4627
240.7681	0.4639
240.9836	0.4625
241.199	0.4634
241.4145	0.4606
241.6299	0.4532
241.8453	0.4483
242.0607	0.4522
242.2761	0.4533
242.4915	0.4356
242.7069	0.4362
242.9223	0.4343
243.1376	0.4264
243.353	0.4271
243.5683	0.4103
243.7836	0.4059
243.9989	0.3976
244.2142	0.3839
244.4295	0.3954
244.6448	0.387
244.86	0.3756
245.0753	0.3627
245.2905	0.3559
245.5057	0.353
245.721	0.3463
245.9362	0.3486
246.1514	0.3339
246.3665	0.3309
246.5817	0.3132
246.7969	0.3056
247.012	0.3042
247.2271	0.3034
247.4423	0.3022
247.6574	0.2981
247.8725	0.288
248.0876	0.2816
248.3026	0.2774
248.5177	0.2687
248.7328	0.2636
248.9478	0.263
249.1628	0.2577
249.3779	0.2474
249.5929	0.2436
249.8079	0.2454
250.0228	0.237
250.2378	0.2348
250.4528	0.2319
250.6677	0.2309
250.8827	0.2229
251.0976	0.2235
251.3125	0.2283
251.5274	0.2181
251.7423	0.2157
251.9572	0.2176
252.172	0.214
252.3869	0.212
252.6017	0.2044
252.8166	0.206
253.0314	0.2036
253.2462	0.2024
253.461	0.2007
253.6758	0.201
253.8906	0.1972
254.1053	0.1938
254.3201	0.2013
254.5348	0.1884
254.7496	0.1892
254.9643	0.1931
255.179	0.1905
255.3937	0.1886
255.6083	0.1932
255.823	0.1878
256.0377	0.1881
256.2523	0.1858
256.467	0.1883
256.6816	0.1899
256.8962	0.195
257.1108	0.1862
257.3254	0.1907
257.54	0.1794
257.7545	0.188
257.9691	0.1814
258.1836	0.1792
258.3981	0.1878
258.6127	0.1782
258.8272	0.1849
259.0417	0.1828
259.2561	0.1799
259.4706	0.1779
259.6851	0.184
259.8995	0.1789
260.114	0.1825
260.3284	0.1826
260.5428	0.1846
260.7572	0.1821
260.9716	0.1873
261.186	0.1819
261.4003	0.181
261.6147	0.1847
261.829	0.1883
262.0433	0.1891
262.2577	0.1881
262.472	0.1807
262.6863	0.1915
262.9005	0.1857
263.1148	0.1831
263.3291	0.1922
263.5433	0.1936
263.7576	0.1874
263.9718	0.1895
264.186	0.1951
264.4002	0.1977
264.6144	0.2027
264.8286	0.1959
265.0427	0.2009
265.2569	0.2028
265.471	0.1998
265.6851	0.1959
265.8993	0.2007
266.1134	0.1935
266.3275	0.1992
266.5415	0.2023
266.7556	0.2064
266.9697	0.1963
267.1837	0.205
267.3978	0.1961
267.6118	0.2009
267.8258	0.2075
268.0398	0.2089
268.2538	0.2051
268.4677	0.1984
268.6817	0.201
268.8957	0.1969
269.1096	0.192
269.3235	0.1887
269.5374	0.1946
269.7514	0.2008
269.9652	0.1976
270.1791	0.1927
270.393	0.1966
270.6068	0.1978
270.8207	0.1982
271.0345	0.194
271.2483	0.1866
271.4622	0.1972
271.676	0.1964
271.8897	0.1967
272.1035	0.2027
272.3173	0.1954
272.531	0.1933
272.7448	0.1969
272.9585	0.2015
273.1722	0.1962
273.3859	0.1966
273.5996	0.1989
273.8133	0.2041
274.0269	0.1999
274.2406	0.2058
274.4542	0.2011
274.6679	0.2078
274.8815	0.2108
275.0951	0.2188
275.3087	0.2091
275.5223	0.2047
275.7358	0.2138
275.9494	0.2104
276.1629	0.2152
276.3765	0.2091
276.59	0.207
276.8035	0.2139
277.017	0.2211
277.2305	0.219
277.444	0.223
277.6574	0.2249
277.8709	0.221
278.0843	0.2208
278.2978	0.2211
278.5112	0.2205
278.7246	0.2126
278.938	0.2149
279.1513	0.2182
279.3647	0.2211
279.5781	0.2173
279.7914	0.2112
280.0047	0.2118
280.2181	0.2082
280.4314	0.2074
280.6447	0.2167
280.8579	0.1989
281.0712	0.2115
281.2845	0.2121
281.4977	0.2044
281.711	0.2014
281.9242	0.2031
282.1374	0.1981
282.3506	0.2026
282.5638	0.1958
282.7769	0.1924
282.9901	0.2009
283.2033	0.2002
283.4164	0.197
283.6295	0.1919
283.8426	0.1942
284.0557	0.1947
284.2688	0.1994
284.4819	0.191
284.695	0.1911
284.908	0.1938
285.1211	0.1928
285.3341	0.1867
285.5471	0.1948
285.7601	0.193
285.9731	0.1998
286.1861	0.1964
286.3991	0.1907
286.612	0.1869
286.825	0.1923
287.0379	0.1927
287.2508	0.1903
287.4637	0.1904
287.6766	0.189
287.8895	0.1906
288.1024	0.1942
288.3152	0.1939
288.5281	0.1855
288.7409	0.1936
288.9538	0.1875
289.1666	0.1912
289.3794	0.1847
289.5922	0.183
289.8049	0.186
290.0177	0.1825
290.2304	0.1827
290.4432	0.1934
290.6559	0.1875
290.8686	0.1838
291.0813	0.1895
291.294	0.1883
291.5067	0.1831
291.7194	0.1839
291.932	0.1854
292.1447	0.1892
292.3573	0.1903
292.5699	0.1908
292.7825	0.1772
292.9951	0.182
293.2077	0.1841
293.4203	0.1846
293.6328	0.183
293.8454	0.1855
294.0579	0.1857
294.2704	0.1896
294.4829	0.1869
294.6954	0.1843
294.9079	0.1806
295.1204	0.1815
295.3328	0.1915
295.5453	0.1818
295.7577	0.1834
295.9701	0.1845
296.1825	0.1821
296.3949	0.1823
296.6073	0.1831
296.8197	0.1853
297.0321	0.1853
297.2444	0.1755
297.4567	0.181
297.6691	0.1873
297.8814	0.188
298.0937	0.1813
298.306	0.1834
298.5182	0.1863
298.7305	0.182
298.9428	0.1855
299.155	0.1777
299.3672	0.1829
299.5794	0.1831
299.7916	0.1845
300.0038	0.1828
300.216	0.1788
300.4282	0.1857
300.6403	0.1938
300.8525	0.1858
301.0646	0.1833
301.2767	0.1861
301.4888	0.1844
301.7009	0.1902
301.913	0.1836
302.125	0.1849
302.3371	0.1877
302.5491	0.1909
302.7612	0.1888
302.9732	0.1934
303.1852	0.1917
303.3972	0.1885
303.6092	0.188
303.8211	0.1903
304.0331	0.1818
304.245	0.1921
304.457	0.1863
304.6689	0.1857
304.8808	0.1809
305.0927	0.1855
305.3046	0.1854
305.5164	0.1815
305.7283	0.179
305.9401	0.1747
306.152	0.1812
306.3638	0.1861
306.5756	0.1798
306.7874	0.1713
306.9992	0.1772
307.2109	0.1737
307.4227	0.1716
307.6344	0.1762
307.8462	0.1686
308.0579	0.1776
308.2696	0.1707
308.4813	0.1677
308.693	0.1698
308.9046	0.1711
309.1163	0.1611
309.328	0.1619
309.5396	0.1591
309.7512	0.1638
309.9628	0.1577
310.1744	0.1594
310.386	0.158
310.5976	0.1556
310.8091	0.1615
311.0207	0.1601
311.2322	0.1526
311.4437	0.1553
311.6552	0.158
311.8667	0.1591
312.0782	0.1532
312.2897	0.1544
312.5012	0.1485
312.7126	0.1522
312.924	0.1523
313.1355	0.1479
313.3469	0.151
313.5583	0.1487
313.7696	0.1447
313.981	0.1559
314.1924	0.1531
314.4037	0.1491
314.6151	0.1477
314.8264	0.1508
315.0377	0.1514
315.249	0.1485
315.4603	0.1484
315.6716	0.1494
315.8828	0.1505
316.0941	0.1501
316.3053	0.1462
316.5165	0.1481
316.7277	0.1489
316.9389	0.1442
317.1501	0.1508
317.3613	0.1435
317.5724	0.1434
317.7836	0.1425
317.9947	0.1382
318.2058	0.1389
318.417	0.1411
318.6281	0.1475
318.8391	0.1451
319.0502	0.1419
319.2613	0.1453
319.4723	0.1432
319.6834	0.1445
319.8944	0.1406
320.1054	0.1473
320.3164	0.1355
320.5274	0.1403
320.7383	0.1481
320.9493	0.1453
321.1602	0.141
321.3712	0.1431
321.5821	0.1408
321.793	0.1517
322.0039	0.144
322.2148	0.1476
322.4257	0.1398
322.6365	0.1426
322.8474	0.1472
323.0582	0.1469
323.269	0.1538
323.4798	0.1474
323.6906	0.148
323.9014	0.1359
324.1122	0.1449
324.3229	0.1502
324.5337	0.1478
324.7444	0.1481
324.9551	0.1492
325.1658	0.145
325.3765	0.1523
325.5872	0.1512
325.7979	0.15
326.0085	0.1465
326.2192	0.1466
326.4298	0.1535
326.6404	0.151
326.851	0.153
327.0616	0.1502
327.2722	0.1517
327.4828	0.1531
327.6933	0.1559
327.9039	0.1567
328.1144	0.1574
328.3249	0.1591
328.5354	0.1594
328.7459	0.1599
328.9564	0.1601
329.1669	0.1652
329.3773	0.1646
329.5878	0.1615
329.7982	0.1664
330.0086	0.1635
330.219	0.1615
330.4294	0.1655
330.6398	0.1685
330.8502	0.169
331.0605	0.1558
331.2708	0.1605
331.4812	0.162
331.6915	0.1631
331.9018	0.1651
332.1121	0.1693
332.3224	0.1657
332.5326	0.1638
332.7429	0.1676
332.9531	0.1649
333.1633	0.1645
333.3735	0.165
333.5837	0.1661
333.7939	0.1664
334.0041	0.1683
334.2143	0.1619
334.4244	0.1654
334.6346	0.1624
334.8447	0.1677
335.0548	0.1621
335.2649	0.1656
335.475	0.1684
335.685	0.1665
335.8951	0.16
336.1051	0.166
336.3152	0.1615
336.5252	0.1587
336.7352	0.1592
336.9452	0.1595
337.1552	0.1569
337.3652	0.157
337.5751	0.159
337.7851	0.1556
337.995	0.159
338.2049	0.1597
338.4148	0.1604
338.6247	0.1633
338.8346	0.1612
339.0445	0.1573
339.2543	0.158
339.4642	0.1594
339.674	0.1578
339.8838	0.1646
340.0936	0.1581
340.3034	0.161
340.5132	0.1599
340.7229	0.1597
340.9327	0.1662
341.1424	0.1657
341.3522	0.1611
341.5619	0.163
341.7716	0.1602
341.9813	0.1677
342.1909	0.1682
342.4006	0.1657
342.6102	0.1671
342.8199	0.162
343.0295	0.1618
343.2391	0.1671
343.4487	0.177
343.6583	0.1742
343.8679	0.1673
344.0774	0.1695
344.287	0.176
344.4965	0.1774
344.706	0.181
344.9155	0.1731
345.125	0.1783
345.3345	0.179
345.544	0.181
345.7534	0.1874
345.9629	0.1828
346.1723	0.1876
346.3817	0.183
346.5911	0.1881
346.8005	0.1946
347.0099	0.1856
347.2193	0.1901
347.4286	0.1939
347.638	0.1898
347.8473	0.1914
348.0566	0.1955
348.2659	0.1899
348.4752	0.1999
348.6845	0.1898
348.8937	0.1994
349.103	0.1957
349.3122	0.1952
349.5214	0.1972
349.7306	0.2056
349.9398	0.1983
350.149	0.1922
350.3582	0.1989
350.5674	0.1967
350.7765	0.2025
350.9856	0.1923
351.1948	0.1999
351.4039	0.2009
351.613	0.1921
351.822	0.1954
352.0311	0.1978
352.2402	0.1976
352.4492	0.1955
352.6582	0.1999
352.8672	0.2044
353.0762	0.2007
353.2852	0.1957
353.4942	0.1967
353.7032	0.1868
353.9121	0.1909
354.1211	0.1907
354.33	0.19
354.5389	0.19
354.7478	0.1821
354.9567	0.1848
355.1655	0.1839
355.3744	0.192
355.5833	0.1899
355.7921	0.1989
356.0009	0.189
356.2097	0.1872
356.4185	0.19
356.6273	0.1846
356.8361	0.1912
357.0448	0.1843
357.2536	0.1901
357.4623	0.1848
357.671	0.1894
357.8797	0.1941
358.0884	0.1843
358.2971	0.1815
358.5057	0.1867
358.7144	0.1846
358.923	0.1935
359.1316	0.1958
359.3402	0.1914
359.5488	0.1936
359.7574	0.1984
359.966	0.1872
360.1746	0.1852
360.3831	0.2003
360.5916	0.1968
360.8002	0.1986
361.0087	0.1919
361.2172	0.2013
361.4256	0.1917
361.6341	0.1994
361.8426	0.1992
362.051	0.1987
362.2594	0.1911
362.4678	0.1957
362.6762	0.2045
362.8846	0.2
363.093	0.2036
363.3014	0.2037
363.5097	0.2088
363.718	0.2068
363.9264	0.2017
364.1347	0.2029
364.343	0.2131
364.5513	0.2048
364.7595	0.2125
364.9678	0.2
365.176	0.2056
365.3842	0.2064
365.5925	0.2084
365.8007	0.2045
366.0089	0.2151
366.217	0.2183
366.4252	0.2103
366.6333	0.2082
366.8415	0.2149
367.0496	0.2095
367.2577	0.2143
367.4658	0.206
367.6739	0.2072
367.882	0.2167
368.09	0.2108
368.2981	0.2198
368.5061	0.2225
368.7141	0.2172
368.9221	0.2205
369.1301	0.2141
369.3381	0.2266
369.5461	0.2197
369.754	0.2221
369.962	0.2241
370.1699	0.224
370.3778	0.225
370.5857	0.2222
370.7936	0.2236
371.0015	0.2175
371.2093	0.2195
371.4172	0.2225
371.625	0.2249
371.8328	0.2161
372.0406	0.2333
372.2484	0.2279
372.4562	0.2276
372.664	0.2279
372.8717	0.2301
373.0795	0.2333
373.2872	0.2253
373.4949	0.2355
373.7026	0.2237
373.9103	0.2232
374.118	0.2335
374.3256	0.2303
374.5333	0.2259
374.7409	0.2278
374.9485	0.2269
375.1561	0.2356
375.3637	0.2281
375.5713	0.2281
375.7789	0.2302
375.9864	0.2348
376.194	0.2475
376.4015	0.2324
376.609	0.239
376.8165	0.2407
377.024	0.2345
377.2315	0.2375
377.4389	0.2363
377.6464	0.2449
377.8538	0.2424
378.0612	0.2335
378.2686	0.237
378.476	0.2511
378.6834	0.2397
378.8908	0.2542
379.0981	0.2381
379.3055	0.2418
379.5128	0.25
379.7201	0.2483
379.9274	0.2472
380.1347	0.2354
380.342	0.2502
380.5492	0.2424
380.7565	0.2459
380.9637	0.2466
381.1709	0.2458
381.3781	0.2591
381.5853	0.2499
381.7925	0.2452
381.9997	0.2471
382.2068	0.2485
382.4139	0.2428
382.6211	0.2488
382.8282	0.2557
383.0353	0.2575
383.2424	0.2474
383.4494	0.2491
383.6565	0.2508
383.8635	0.2448
384.0706	0.2554
384.2776	0.2548
384.4846	0.2556
384.6916	0.2519
384.8986	0.2511
385.1055	0.2649
385.3125	0.2579
385.5194	0.252
385.7263	0.2559
385.9333	0.2542
386.1402	0.2611
386.347	0.2549
386.5539	0.2595
386.7608	0.2563
386.9676	0.2554
387.1744	0.2531
387.3813	0.245
387.5881	0.2503
387.7948	0.2553
388.0016	0.2614
388.2084	0.2455
388.4151	0.2575
388.6219	0.2504
388.8286	0.2496
389.0353	0.2494
389.242	0.2491
389.4487	0.2532
389.6553	0.2456
389.862	0.237
390.0686	0.249
390.2753	0.2489
390.4819	0.2504
390.6885	0.2478
390.8951	0.2448
391.1016	0.2638
391.3082	0.2484
391.5147	0.2361
391.7213	0.2444
391.9278	0.2354
392.1343	0.2469
392.3408	0.2333
392.5473	0.2304
392.7537	0.2348
392.9602	0.2336
393.1666	0.2363
393.373	0.2303
393.5794	0.2259
393.7858	0.2408
393.9922	0.2239
394.1986	0.2311
394.4049	0.2365
394.6113	0.2264
394.8176	0.2248
395.0239	0.2182
395.2302	0.222
395.4365	0.2271
395.6428	0.2251
395.8491	0.2314
396.0553	0.2206
396.2615	0.2249
396.4678	0.22
396.674	0.2081
396.8802	0.2238
397.0863	0.2182
397.2925	0.2244
397.4987	0.2115
397.7048	0.2176
397.9109	0.2103
398.117	0.2081
398.3231	0.2106
398.5292	0.2066
398.7353	0.2109
398.9413	0.2174
399.1474	0.2187
399.3534	0.2099
399.5594	0.2238
399.7654	0.2131
399.9714	0.2158
400.1774	0.2081
400.3833	0.2154
400.5893	0.2157
400.7952	0.2163
401.0011	0.2147
401.207	0.2085
401.4129	0.2113
401.6188	0.2075
401.8247	0.2191
402.0305	0.2116
402.2364	0.2133
402.4422	0.2099
402.648	0.217
402.8538	0.2091
403.0596	0.2071
403.2654	0.209
403.4711	0.2076
403.6768	0.2102
403.8826	0.2107
404.0883	0.2095
404.294	0.2233
404.4997	0.2092
404.7054	0.2147
404.911	0.21
405.1167	0.2128
405.3223	0.2141
405.5279	0.2056
405.7335	0.2154
405.9391	0.2045
406.1447	0.2177
406.3502	0.2029
406.5558	0.2219
406.7613	0.215
406.9668	0.198
407.1724	0.208
407.3778	0.2111
407.5833	0.204
407.7888	0.2112
407.9942	0.2152
408.1997	0.2116
408.4051	0.2149
408.6105	0.2093
408.8159	0.2023
409.0213	0.2084
409.2267	0.2144
409.432	0.2101
409.6374	0.2077
409.8427	0.221
410.048	0.2202
410.2533	0.205
410.4586	0.2022
410.6639	0.2062
410.8691	0.2011
411.0744	0.2096
411.2796	0.2114
411.4848	0.213
411.69	0.1977
411.8952	0.2047
412.1004	0.217
412.3056	0.2047
412.5107	0.2025
412.7158	0.2098
412.921	0.2137
413.1261	0.2108
413.3312	0.2026
413.5362	0.2219
413.7413	0.2101
413.9464	0.2063
414.1514	0.2105
414.3564	0.2115
414.5614	0.2063
414.7664	0.2005
414.9714	0.1971
415.1764	0.2081
415.3813	0.1952
415.5863	0.2012
415.7912	0.1998
415.9961	0.2047
416.201	0.2076
416.4059	0.2093
416.6108	0.2011
416.8156	0.2058
417.0205	0.2023
417.2253	0.2049
417.4301	0.2005
417.6349	0.2019
417.8397	0.1957
418.0445	0.2065
418.2492	0.2056
418.454	0.2005
418.6587	0.2042
418.8634	0.2005
419.0681	0.1987
419.2728	0.2023
419.4775	0.2028
419.6822	0.1876
419.8868	0.1958
420.0915	0.1886
420.2961	0.1803
420.5007	0.1967
420.7053	0.1971
420.9099	0.1945
421.1144	0.1854
421.319	0.1871
421.5235	0.1895
421.728	0.1928
421.9325	0.1897
422.137	0.1857
422.3415	0.1873
422.546	0.1846
422.7504	0.1812
422.9549	0.1983
423.1593	0.1798
423.3637	0.1873
423.5681	0.1872
423.7725	0.1773
423.9769	0.1884
424.1812	0.1753
424.3856	0.179
424.5899	0.1796
424.7942	0.1794
424.9985	0.1772
425.2028	0.1751
425.4071	0.174
425.6113	0.1807
425.8156	0.1714
426.0198	0.1777
426.224	0.1807
426.4282	0.1698
426.6324	0.1724
426.8366	0.1636
427.0407	0.1749
427.2449	0.1774
427.449	0.1724
427.6531	0.1819
427.8572	0.1643
428.0613	0.1725
428.2654	0.1735
428.4694	0.1627
428.6735	0.1552
428.8775	0.1679
429.0815	0.1576
429.2855	0.1669
429.4895	0.1626
429.6935	0.1493
429.8975	0.1498
430.1014	0.1679
430.3053	0.1658
430.5093	0.1586
430.7132	0.1558
430.9171	0.1512
431.1209	0.1486
431.3248	0.146
431.5286	0.1505
431.7325	0.1508
431.9363	0.1453
432.1401	0.1415
432.3439	0.1507
432.5477	0.1367
432.7514	0.1354
432.9552	0.1393
433.1589	0.1338
433.3627	0.1415
433.5664	0.1348
433.7701	0.1444
433.9737	0.1295
434.1774	0.1362
434.3811	0.1241
434.5847	0.1284
434.7883	0.1253
434.9919	0.1272
435.1955	0.1232
435.3991	0.123
435.6027	0.1188
435.8062	0.1431
436.0098	0.12
436.2133	0.1176
436.4168	0.1172
436.6203	0.1094
436.8238	0.1176
437.0272	0.1189
437.2307	0.1057
437.4341	0.1056
437.6375	0.1127
437.841	0.112
438.0443	0.1046
438.2477	0.1019
438.4511	0.0935
438.6545	0.1088
438.8578	0.108
439.0611	0.0994
439.2644	0.1006
439.4677	0.099
439.671	0.0868
439.8743	0.107
440.0775	0.0964
440.2808	0.0917
440.484	0.0915
440.6872	0.0921
440.8904	0.0801
441.0936	0.0876
441.2967	0.0808
441.4999	0.0776
441.703	0.0855
441.9062	0.086
442.1093	0.0932
442.3124	0.0855
442.5155	0.0837
442.7185	0.0762
442.9216	0.0747
443.1246	0.0766
443.3276	0.0776
443.5307	0.0644
443.7337	0.0745
443.9366	0.0718
444.1396	0.0757
444.3426	0.0715
444.5455	0.0726
444.7484	0.0651
444.9513	0.0605
445.1542	0.0696
445.3571	0.0673
445.56	0.0586
445.7628	0.0603
445.9657	0.0715
446.1685	0.0595
446.3713	0.0673
446.5741	0.0643
446.7769	0.0696
446.9797	0.0525
447.1824	0.0604
447.3852	0.0409
447.5879	0.0552
447.7906	0.0478
447.9933	0.0542
448.196	0.0476
448.3986	0.0505
448.6013	0.0345
448.8039	0.0471
449.0066	0.0555
449.2092	0.0514
449.4118	0.0496
449.6143	0.0474
449.8169	0.0434
450.0195	0.0466
450.222	0.0471
450.4245	0.0519
450.627	0.0443
450.8295	0.0413
451.032	0.0367
451.2345	0.0346
451.4369	0.0416
451.6394	0.0412
451.8418	0.0407
452.0442	0.0371
452.2466	0.0357
452.449	0.0394
452.6513	0.0329
452.8537	0.0372
453.056	0.0366
453.2583	0.0314
453.4607	0.0314
453.663	0.033
453.8652	0.0256
454.0675	0.0421
454.2697	0.0337
454.472	0.0273
454.6742	0.0267
454.8764	0.0391
455.0786	0.0222
455.2808	0.0305
455.4829	0.0351
455.6851	0.0301
455.8872	0.0237
456.0893	0.0248
456.2915	0.0202
456.4935	0.035
456.6956	0.0237
456.8977	0.0188
457.0997	0.032
457.3018	0.0222
457.5038	0.0287
457.7058	0.0303
457.9078	0.0237
458.1098	0.0225
458.3117	0.0297
458.5137	0.0127
458.7156	0.025
458.9175	0.02
459.1194	0.018
459.3213	0.0206
459.5232	0.0245
459.725	0.0202
459.9269	0.0167
460.1287	0.0243
460.3305	0.0259
460.5323	0.0201
460.7341	0.0178
460.9359	0.0073
461.1376	0.0178
461.3394	0.0235
461.5411	0.0253
461.7428	0.0158
461.9445	0.0138
462.1462	0.0199
462.3479	0.0115
462.5495	0.0227
462.7512	0.0349
462.9528	0.0096
463.1544	0.0122
463.356	0.0094
463.5576	0.0249
463.7592	0.0143
463.9607	0.0182
464.1623	0.0226
464.3638	0.0118
464.5653	0.0162
464.7668	0.0228
464.9683	0.014
465.1697	0.0152
465.3712	0.0079
465.5726	0.0134
465.7741	0.018
465.9755	0.0219
466.1769	0.0186
466.3782	0.0128
466.5796	0.0121
466.7809	0.0155
466.9823	0.0124
467.1836	0.0117
467.3849	0.0198
467.5862	0.0078
467.7875	0.0134
467.9887	0.0096
468.19	0.0191
468.3912	0.0158
468.5924	0.0089
468.7936	0.0105
468.9948	0.0067
469.196	0.0137
469.3972	0.0072
469.5983	0.0063
469.7994	0.0123
470.0006	0.0133
470.2017	0.0106
470.4027	0.0198
470.6038	0.0075
470.8049	0.0095
471.0059	0.0163
471.2069	0.0154
471.408	0.019
471.6089	0.0182
471.8099	0.0178
472.0109	0.005
472.2119	0.0185
472.4128	0.0096
472.6137	0.0128
472.8146	0.0119
473.0155	0.0167
473.2164	0.0126
473.4173	0.0007
473.6181	0.0028
473.819	0.01
474.0198	0.0059
474.2206	0.0055
474.4214	0.0147
474.6222	0.0022
474.8229	0.007
475.0237	0.0105
475.2244	0.0068
475.4251	0.0103
475.6258	0.0038
475.8265	0.0131
476.0272	0.0043
476.2278	0.0106
476.4285	0.0113
476.6291	0.0139
476.8297	0.0084
477.0303	-0.0037
477.2309	0.0135
477.4315	0.01
477.632	0.0003
477.8326	0.0131
478.0331	0.0067
478.2336	0.0085
478.4341	0.0056
478.6346	0.0085
478.8351	0.0046
479.0355	0.0189
479.236	0.0198
479.4364	0.0075
479.6368	0.0053
479.8372	0.0022
480.0376	0.0044
480.2379	0.007
480.4383	0.0134
480.6386	-0.0054
480.8389	0.0089
481.0392	0.0012
481.2395	0.0043
481.4398	0.0147
481.6401	0.0127
481.8403	0.0041
482.0405	0.0069
482.2408	0.0121
482.441	0.0046
482.6411	0.0069
482.8413	0.0066
483.0415	0.0096
483.2416	-0.0003
483.4417	0.0032
483.6419	-0.0025
483.8419	0.0036
484.042	0.0055
484.2421	-0.0023
484.4422	0.0038
484.6422	0.006
484.8422	0.0127
485.0422	0.0043
485.2422	0.0072
485.4422	0.0055
485.6422	0.0059
485.8421	0.0084
486.042	0.0156
486.242	0.0062
486.4419	0.0095
486.6417	0.0048
486.8416	0.0062
487.0415	0.0042
487.2413	0.0055
487.4411	0.0088
487.641	0.0031
487.8408	0.0102
488.0405	0.0132
488.2403	-0.0017
488.4401	0.0009
488.6398	0.0071
488.8395	0.0082
489.0392	0.0069
489.2389	0.0114
489.4386	-0.0048
489.6383	0.0011
489.8379	-0.0014
490.0376	0.0007
490.2372	0.0021
490.4368	0.0008
490.6364	-0.0081
490.836	0.0084
491.0355	-0.0081
491.2351	0.0001
491.4346	0.0031
491.6341	0.008
491.8336	0.0053
492.0331	0.0037
492.2326	0.0063
492.432	-0.0015
492.6315	0.0062
492.8309	0.0061
493.0303	0.0024
493.2297	0.0092
493.4291	-0.0009
493.6284	0.0104
493.8278	0.005
494.0271	0.0021
494.2264	0.0058
494.4257	0.0109
494.625	0.0042
494.8243	-0.0017
495.0236	0.009
495.2228	0.0085
495.422	0.0113
495.6213	0.0039
495.8205	0.0085
496.0196	0.0046
496.2188	0.006
496.418	0.0043
496.6171	-0.0006
496.8162	0.0087
497.0153	0.0059
497.2144	0.0044
497.4135	0.0009
497.6126	0.0037
497.8116	-0.003
498.0107	0.0059
498.2097	0.0067
498.4087	0.0023
498.6077	0.0003
498.8067	0.0067
499.0056	-0.0011
499.2046	0.0005
499.4035	0.0032
499.6024	-0.0067
499.8013	0.001
500.0002	0.0074
500.199	0.0087
500.3979	-0.0024
500.5967	0.005
500.7956	0.0056
500.9944	0.0003
501.1932	0.0057
501.3919	0.0123
501.5907	0.0074
501.7895	-0.0008
501.9882	0.0012
502.1869	0.0088
502.3856	0.0003
502.5843	0.0045
502.783	0.0042
502.9816	0.003
503.1803	-0.0022
503.3789	0.0096
503.5775	0.0038
503.7761	0.0002
503.9747	0.0097
504.1732	-0.0085
504.3718	0.0069
504.5703	0.0014
504.7689	-0.0062
504.9674	0.0033
505.1658	0.0042
505.3643	0.0114
505.5628	0.0055
505.7612	0.0158
505.9597	-0.0033
506.1581	0.0013
506.3565	0.0027
506.5549	-0
506.7532	0
506.9516	0.0001
507.1499	0.0062
507.3482	-0.0031
507.5465	0.0075
507.7448	0.0048
507.9431	0.0046
508.1414	-0.0007
508.3396	0.0036
508.5379	0.0005
508.7361	0.0073
508.9343	0.0127
509.1325	0.0055
509.3306	-0.0023
509.5288	-0.0097
509.7269	0.0014
509.9251	0.0047
510.1232	0.0021
510.3213	0.0093
510.5193	-0.0002
510.7174	0.0021
510.9154	0.0105
511.1135	-0.0082
511.3115	-0.0029
511.5095	0.0028
511.7075	0.0004
511.9055	0.0102
512.1034	0.0084
512.3014	0.0032
512.4993	0.0046
512.6972	-0.0003
512.8951	0.0062
513.093	0.0038
513.2908	0.0095
513.4887	0.0054
513.6865	0.0072
513.8844	0.0083
514.0822	0.0064
514.2799	-0.0075
514.4777	-0.0137
514.6755	-0.0066
514.8732	0.0003
515.0709	-0.0056
515.2687	0.001
515.4664	0.0122
515.664	0.0005
515.8617	0.0084
516.0594	0.007
516.257	0.002
516.4546	0.0126
516.6522	0.0029
516.8498	0.0035
517.0474	0.0024
517.2449	-0.0029
517.4425	0.0032
517.64	0.0047
517.8375	0.0083
518.035	0.0055
518.2325	-0.0112
518.43	-0.0051
518.6274	-0.0002
518.8249	-0.005
519.0223	0.0142
519.2197	-0.0039
519.4171	-0.0036
519.6145	0.0036
519.8118	-0.0085
520.0092	0.0017
520.2065	0.0072
520.4038	-0.0018
520.6011	0.0066
520.7984	0.0047
520.9956	0.0099
521.1929	0.0141
521.3901	0.0019
521.5874	-0.0036
521.7846	0.0034
521.9818	0.0027
522.1789	-0.0076
522.3761	0.0146
522.5732	-0.0028
522.7704	-0.0119
522.9675	-0.0077
523.1646	-0.0141
523.3617	0.0102
523.5587	0.0005
523.7558	-0.0012
523.9528	-0.0014
524.1498	-0.0027
524.3468	0.0055
524.5438	0.0057
524.7408	-0.0071
524.9378	0.006
525.1347	0.0088
525.3316	0.003
525.5285	-0.0012
525.7254	0.004
525.9223	0.0048
526.1192	0.003
526.316	0.0076
526.5129	0.0059
526.7097	-0.0009
526.9065	0.0069
527.1033	-0.0079
527.3	-0.0026
527.4968	0.0024
527.6935	-0.0003
527.8903	-0.0036
528.087	0.0007
528.2837	0.0151
528.4804	-0.0007
528.677	-0.0049
528.8737	-0.0026
529.0703	-0.0065
529.2669	0.0142
529.4635	0.0032
529.6601	-0.0017
529.8567	-0.0049
530.0532	0.0103
530.2498	-0.0091
530.4463	-0.0085
530.6428	0.0124
530.8393	0.0027
531.0358	-0.0067
531.2322	-0.0094
531.4287	-0.0075
531.6251	-0.0064
531.8215	-0.0019
532.0179	0.0025
532.2143	0.0206
532.4107	0.0034
532.607	-0.0084
532.8034	0.0021
532.9997	0.0023
533.196	0.0011
533.3923	0.006
533.5886	0.0069
533.7848	-0.0009
533.9811	0.009
534.1773	-0.0063
534.3735	0.0073
534.5697	0.0057
534.7659	0.0106
534.9621	0.0086
535.1582	0.0051
535.3544	0.0031
535.5505	0.0029
535.7466	-0.0041
535.9427	0.002
536.1387	-0.0061
536.3348	0.0048
536.5308	-0.0055
536.7269	-0.0017
536.9229	0.0064
537.1189	0.0085
537.3148	-0.0025
537.5108	0.0024
537.7068	0.0121
537.9027	-0.0031
538.0986	0.0099
538.2945	-0.0066
538.4904	-0.0048
538.6863	0.0027
538.8821	0.0074
539.078	0.0109
539.2738	-0.0044
539.4696	-0.0047
539.6654	0.0054
539.8611	0.0069
540.0569	0.0036
540.2526	0.0068
540.4484	0.0019
540.6441	0.0067
540.8398	0.0125
541.0355	0.0023
541.2311	-0.0028
541.4268	0.0193
541.6224	0.0113
541.818	0.0066
542.0136	0.0115
542.2092	0.0125
542.4048	0.0099
542.6003	0.007
542.7959	0.0093
542.9914	0.0024
543.1869	0.0068
543.3824	0.001
543.5779	0.008
543.7734	0.0158
543.9688	0.0068
544.1642	0.0014
544.3596	0.0092
544.555	-0.0005
544.7504	0.0097
544.9458	0.0063
545.1411	0.0057
545.3365	0.0023
545.5318	0.0014
545.7271	0.0146
545.9224	0.006
546.1177	-0.0053
546.3129	-0.0007
546.5081	0.005
546.7034	-0.0036
546.8986	-0.0052
547.0938	0.0064
547.289	0.0089
547.4841	0.0043
547.6793	0.0023
547.8744	0.0143
548.0695	0.0011
548.2646	0.01
548.4597	-0.0007
548.6548	0.0162
548.8498	0.006
549.0448	-0.0006
549.2399	0.0052
549.4349	-0.0028
549.6298	0.006
549.8248	0
550.0198	0.0035
550.2147	0.0093
550.4096	-0.0023
550.6045	-0.0004
550.7994	0.0045
550.9943	0.0077
551.1892	-0.0127
551.384	0.0107
551.5788	0.0044
551.7737	0.008
551.9685	0.0079
552.1632	0.0068
552.358	0.0137
552.5528	0.0106
552.7475	0.0034
552.9422	0.0092
553.1369	0.0145
553.3316	-0.0011
553.5263	0.0105
553.7209	0.0086
553.9156	0.0013
554.1102	0.0031
554.3048	0.0048
554.4994	0.0062
554.694	0.0101
554.8885	0.0042
555.0831	0.016
555.2776	0.0119
555.4721	0.0055
555.6666	0.0057
555.8611	0.0095
556.0555	0.0061
556.25	0.0096
556.4444	0.0013
556.6388	0.002
556.8332	0.0032
557.0276	-0.0008
557.222	0.0056
557.4163	0.011
557.6107	0.0048
557.805	0.001
557.9993	0.0095
558.1936	-0.0068
558.3879	0.0072
558.5821	-0.0114
558.7764	-0.0023
558.9706	0.0122
559.1648	0.0154
559.359	-0.0047
559.5532	-0.0036
559.7473	-0.0016
559.9415	0.0064
560.1356	0.008
560.3297	0.0009
560.5238	0.0103
560.7179	0.0075
560.9119	0.0081
561.106	0.0052
561.3	-0.0002
561.494	0.0019
561.688	0.0061
561.882	0.0046
562.076	0.0028
562.2699	0.0121
562.4639	0.0183
562.6578	0.0154
562.8517	0.0048
563.0456	-0.0005
563.2395	0.0049
563.4333	0.0016
563.6272	0.0076
563.821	0.0154
564.0148	0.0127
564.2086	0.0074
564.4024	0.0031
564.5961	0.0098
564.7899	0.0093
564.9836	0.002
565.1773	0.0098
565.371	0.0049
565.5647	0.0075
565.7584	0.0185
565.952	0.0042
566.1456	0.0057
566.3393	0.0039
566.5329	0.0108
566.7264	0.01
566.92	0.0016
567.1136	0.0091
567.3071	-0.0035
567.5006	0.0174
567.6941	0.0054
567.8876	0.0056
568.0811	0.0229
568.2745	-0.0001
568.468	0.0065
568.6614	0.0109
568.8548	0.0115
569.0482	0.0098
569.2416	0.0128
569.4349	0.0085
569.6283	0.0097
569.8216	0.0108
570.0149	0.0045
570.2082	0.0095
570.4015	0.0074
570.5947	0.01
570.788	0.0097
570.9812	0.0088
571.1744	0.0089
571.3676	0.0061
571.5608	0.0113
571.754	0.0148
571.9471	0.0106
572.1402	0.006
572.3333	0.01
572.5264	0.0072
572.7195	0.0022
572.9126	0.0069
573.1057	0.0106
573.2987	0.0059
573.4917	0.0061
573.6847	0.0057
573.8777	0.0098
574.0707	0.006
574.2636	0.0067
574.4566	0.0064
574.6495	0.0097
574.8424	0.0085
575.0353	0.0089
575.2281	0.0154
575.421	0.0038
575.6138	0.0028
575.8067	0.0072
575.9995	0.0056
576.1923	0.0109
576.385	0.0075
576.5778	0.0141
576.7706	0.0087
576.9633	0.0101
577.156	0.0013
577.3487	0.0072
577.5414	0.0042
577.734	0.0066
577.9267	0.0102
578.1193	0.0112
578.3119	0.0065
578.5045	0.0078
578.6971	0.0031
578.8897	0.0027
579.0822	0.0156
579.2747	0.0079
579.4673	0.0109
579.6598	0.0065
579.8522	0.0086
580.0447	0.0097
580.2372	0.0148
580.4296	0.011
580.622	0.0036
580.8144	0.0068
581.0068	0.006
581.1992	0.0081
581.3915	0.0002
581.5839	0.0075
581.7762	0.0075
581.9685	0.0064
582.1608	0.0078
582.353	0.0054
582.5453	0.0065
582.7375	0.0092
582.9298	0.0085
583.122	0.0027
583.3142	0.0114
583.5063	0.0043
583.6985	0.0029
583.8906	0.0054
584.0827	0.0094
584.2749	0.0085
584.4669	0.005
584.659	0.0146
584.8511	0.0118
585.0431	0.0094
585.2352	0.0058
585.4272	0.0101
585.6192	0.0075
585.8111	0.0105
586.0031	0.0037
586.195	0.0047
586.387	0.0076
586.5789	0.0097
586.7708	0.0103
586.9627	0.0089
587.1545	0.0045
587.3464	0.0103
587.5382	0.0079
587.73	0.0116
587.9218	0.0043
588.1136	-0.0022
588.3053	0.0078
588.4971	0.0044
588.6888	0.0019
588.8805	0.0066
589.0722	0.012
589.2639	0.0073
589.4556	0.0116
589.6472	0.0103
589.8389	0.0037
590.0305	0.0034
590.2221	0.0122
590.4137	0.0071
590.6052	0.0105
590.7968	0.0073
590.9883	0.0094
591.1798	0.0108
591.3713	0.0001
591.5628	0.004
591.7543	0.0087
591.9458	0.0061
592.1372	0.0055
592.3286	0.0058
592.52	0.011
592.7114	0.0069
592.9028	0.0128
593.0941	0.0061
593.2855	0.0081
593.4768	0.0137
593.6681	0.0083
593.8594	0.0108
594.0506	0.0062
594.2419	0.0065
594.4331	0.0066
594.6244	0.0036
594.8156	0.0084
595.0067	0.0012
595.1979	0.0036
595.3891	0.0051
595.5802	0.0099
595.7713	0.0112
595.9624	0.0169
596.1535	0.0035
596.3446	0.0022
596.5357	0.0075
596.7267	0.0102
596.9177	0.0052
597.1087	0.0041
597.2997	0.0121
597.4907	0.0029
597.6817	0.0099
597.8726	0.007
598.0635	0.0033
598.2544	0.0144
598.4453	0.0134
598.6362	0.0086
598.827	0.0059
599.0179	0.0084
599.2087	0.0145
599.3995	0.012
599.5903	0.0141
599.7811	0.0174
599.9718	0.0036
600.1626	0.0055
600.3533	0.0047
600.544	0.0087
600.7347	0.0091
600.9254	0.0169
601.116	0.0049
601.3067	0.0114
601.4973	0.0164
601.6879	0.0081
601.8785	0.011
602.0691	0.0076
602.2596	0.0095
602.4502	0.0078
602.6407	0.0129
602.8312	0.0039
603.0217	0.0114
603.2122	0.0084
603.4027	0.0076
603.5931	0.0026
603.7835	0.0092
603.9739	0.0084
604.1643	0.0116
604.3547	0.0099
604.5451	0.0084
604.7354	0.0032
604.9257	0.0035
605.116	0.0025
605.3063	0.0075
605.4966	0.0064
605.6869	0.01
605.8771	0.0099
606.0673	0.0048
606.2575	0.0087
606.4477	0.0126
606.6379	0.0019
606.8281	0.0058
607.0182	0.0062
607.2083	0.0112
607.3985	0.0085
607.5885	0.0079
607.7786	0.0085
607.9687	0.0104
608.1587	0.011
608.3488	0.0069
608.5388	0.0015
608.7288	0.0026
608.9187	0.0138
609.1087	0.0095
609.2986	0.0118
609.4886	0.0051
609.6785	0.0072
609.8684	0.003
610.0582	0.0012
610.2481	-0.0014
610.4379	0.0118
610.6278	0.0099
610.8176	0.0148
611.0074	0.0008
611.1971	0.0169
611.3869	0.0125
611.5766	0.0008
611.7664	0.0152
611.9561	0.0178
612.1458	0.0118
612.3354	0.0072
612.5251	0.0095
612.7147	0.0139
612.9044	0.0053
613.094	0.0034
613.2836	0.0033
613.4731	0.0074
613.6627	0.0174
613.8522	0.012
614.0417	0.0167
614.2313	0.0144
614.4207	0.0094
614.6102	0.0131
614.7997	0.014
614.9891	0.0073
615.1785	-0.0031
615.3679	0.0095
615.5573	0.007
615.7467	0.0026
615.9361	0.013
616.1254	0.0125
616.3147	0.0043
616.504	0.0061
616.6933	0.0129
616.8826	0.0154
617.0718	0.015
617.2611	0.0027
617.4503	0.0031
617.6395	0.0127
617.8287	0.0115
618.0179	0.0056
618.207	0.022
618.3961	0.0005
618.5853	0.0104
618.7744	0.003
618.9634	0.0112
619.1525	0.0004
619.3416	0.0113
619.5306	0.0073
619.7196	0.0151
619.9086	0.0097
620.0976	0.0004
620.2866	0.0096
620.4755	0.0053
620.6645	0.0188
620.8534	0.0099
621.0423	-0.0042
621.2312	0.0063
621.42	0.0085
621.6089	0.0122
621.7977	0.0104
621.9865	0.0004
622.1753	-0.0007
622.3641	-0.0024
622.5529	0.0005
622.7416	-0.0072
622.9303	0.0018
623.1191	0.0083
623.3078	0.0081
623.4964	0.0006
623.6851	0.0082
623.8737	0.0036
624.0624	0.0001
624.251	0.0068
624.4396	0.0145
624.6282	0.0124
624.8167	0.0038
625.0053	0.0139
625.1938	0.0041
625.3823	0.0053
625.5708	-0.0031
625.7593	0.01
625.9477	0.0103
626.1362	0.0043
626.3246	0.0054
626.513	0.0104
626.7014	0.0149
626.8898	0.0171
627.0781	0.0128
627.2665	0.0188
627.4548	-0.0009
627.6431	0.0169
627.8314	0.0242
628.0197	0.0065
628.2079	0.0049
628.3962	0.008
628.5844	0.0103
628.7726	-0.0016
628.9608	0.0161
629.1489	0.0122
629.3371	0.0097
629.5252	0.0131
629.7134	-0.0011
629.9015	0.0193
630.0895	0.0005
630.2776	0.0155
630.4657	0.0098
630.6537	0.0071
630.8417	-0.0009
631.0297	0.0027
631.2177	0.0047
631.4057	0.0156
631.5936	-0.0011
631.7815	0.006
631.9695	0.0169
632.1574	0.0137
632.3452	0.0097
632.5331	0.0013
632.7209	0.0179
632.9088	0.0126
633.0966	0.022
633.2844	0.0148
633.4722	0.0222
633.6599	0.0116
633.8477	-0.0059
634.0354	0.0175
634.2231	0.0026
634.4108	-0.0032
634.5985	0.0219
634.7861	0.0107
634.9738	-0.0001
635.1614	0.0098
635.349	0.0099
635.5366	0.0103
635.7242	0.0096
635.9117	0.0182
636.0993	0.0014
636.2868	-0.0011
636.4743	0.0043
636.6618	0.005
636.8492	0.0141
637.0367	-0.0005
637.2241	0.0092
637.4115	0.0387
637.5989	-0.0039
637.7863	0.0246
637.9737	0.0082
638.161	0.0079
638.3484	0.0034
638.5357	0.0075
638.723	0.0311
638.9103	-0.0038
639.0975	0.0142
639.2848	0.0134
639.472	0.0096
639.6592	0.0102
639.8464	0.0014
640.0336	0.0193
640.2208	-0.0009
640.4079	-0.0092
640.595	0.0042
640.7821	0.0254
640.9692	-0.0047
641.1563	0.0102
641.3434	0.0058
641.5304	0.012
641.7174	0.0174
641.9044	0.013
642.0914	0.0338
642.2784	0.0072
642.4653	0.0147
642.6523	0.0095
642.8392	-0.0002
643.0261	0.0102
643.213	0.006
643.3999	0.002
643.5867	0.013
643.7735	0.0223
643.9604	0.0021
644.1472	0.0135
644.3339	-0.0061
644.5207	0.0031
644.7075	0.009
644.8942	0.0089
645.0809	-0.0011
645.2676	0.0094
645.4543	0.0054
645.6409	0.011
645.8276	0.0393
646.0142	0.0058
646.2008	0.0014
646.3874	0.0082
646.574	-0.0033
646.7605	-0.0127
646.9471	0.0116
647.1336	-0.0036
647.3201	0.0125
647.5066	0.0058
647.6931	0.0048
647.8795	0.0021
648.0659	0.0163
648.2524	0.0199
648.4388	0.0106
648.6252	0.0211
648.8115	0.0012
648.9979	0.0183
649.1842	0.0217
649.3705	0.011
649.5568	-0.0164
649.7431	0.0013
649.9294	-0.0024
650.1156	-0.0103
650.3018	0.0104
650.488	0.0225
650.6742	0.0072
650.8604	0.0231
651.0466	0.0065
651.2327	0.0045
651.4188	-0.008
651.6049	0.0311
651.791	0.005
651.9771	0.0082
652.1632	0.006
652.3492	-0.0062
652.5352	0.0243
652.7212	0.0083
652.9072	-0.0088
653.0932	0.0129
653.2791	-0.0064
653.465	0.0068
653.651	0.0044
653.8369	0.0109
654.0227	0.0099
654.2086	0.0025
654.3944	0.0029
654.5803	-0.0049
654.7661	0.0058
654.9519	-0
655.1377	0.0002
655.3234	0.0002
655.5092	0.0002
655.6949	0.0002
655.8806	0.0002
656.0663	0.0002
656.2519	0.0002
656.4376	0.0002
656.6232	0.0002
656.8088	0.0002
656.9945	0.0002
657.18	0.0002
657.3656	0.0002
657.5511	0.0002
657.7367	0.0002
657.9222	0.0002
658.1077	0.0002
658.2932	0.0002
658.4786	0.0002
658.6641	0.0002
658.8495	0.0002
659.0349	0.0002
659.2203	0.0002
659.4057	0.013
659.591	0.2644
659.7764	0.0337
659.9617	0.0194
660.147	0.0067
660.3323	0.0056
660.5176	0.0064
660.7028	-0.0089
660.888	0.0155
661.0733	0.0342
661.2585	-0.0087
661.4436	0.0005
661.6288	0.0216
661.8139	0.011
661.9991	-0.0004
662.1842	0.0113
662.3693	-0.0027
662.5544	0.0236
662.7394	0.0213
662.9245	0.0183
663.1095	0.0009
663.2945	0.0057
663.4795	-0.0102
663.6644	0.0073
663.8494	0.0192
664.0343	0.008
664.2193	0.0027
664.4042	0.0123
664.589	0.0268
664.7739	0.01
664.9587	0.0013
665.1436	-0.0021
665.3284	0.0082
665.5132	-0.0151
665.698	0.0122
665.8827	0.0199
666.0675	-0.0244
666.2522	0.0249
666.4369	-0.0172
666.6216	0.0062
666.8063	0.0038
666.9909	0.0222
667.1756	-0.0002
667.3602	-0.0029
667.5448	0.0238
667.7294	0.0203
667.9139	0.0113
668.0985	0.0156
668.283	-0.0209
668.4675	0.0312
668.652	0.0182
668.8365	0.0129
669.0209	0.0342
669.2054	0.0049
669.3898	0.0052
669.5742	0.0115
669.7586	0.0232
669.943	0.0171
670.1273	0.0178
670.3117	0.0443
670.496	0.0168
670.6803	0.0018
670.8646	-0.0127
671.0488	0.027
671.2331	0.0025
671.4173	0.0134
671.6015	0.0253
671.7857	0.0161
671.9699	0.0212
672.1541	-0.0057
672.3382	0.0151
672.5223	0.0083
672.7064	-0.0017
672.8905	0.0049
673.0746	0.0085
673.2587	0.0439
673.4427	0.0226
673.6267	0.0044
673.8107	0.0142
673.9947	0.0155
674.1787	0.0127
674.3626	0.0223
674.5465	0.0084
674.7304	0.0076
674.9143	0.0128
675.0982	0.0091
675.2821	0.0162
675.4659	0.0016
675.6497	0.0086
675.8335	0.0234
676.0173	0.0147
676.2011	0.0162
676.3849	0.0026
676.5686	0.0193
676.7523	0.0196
676.936	0.0157
677.1197	-0.0187
677.3034	0.0375
677.487	0.0036
677.6706	0.0029
677.8542	0.0091
678.0378	0.0079
678.2214	0.0163
678.405	0.0068
678.5885	0.0185
678.772	0.0204
678.9555	0.0038
679.139	0.0073
679.3225	0.0185
679.5059	0.0023
679.6894	0.002
679.8728	0.0081
680.0562	0.0148
680.2395	0.0293
680.4229	0.0091
680.6062	0.0179
680.7896	-0.0103
680.9729	0.0358
681.1562	0.0085
681.3394	-0.008
681.5227	-0.0016
681.7059	0.0129
681.8891	0.0281
682.0723	0.0139
682.2555	0.0153
682.4387	0.0148
682.6218	0.0356
682.805	0.0233
682.9881	0.0402
683.1712	0.0157
683.3542	0.0354
683.5373	0.0024
683.7203	0.0174
683.9034	0.0043
684.0864	0.0143
684.2694	0.0036
684.4523	0.0142
684.6353	0.0152
684.8182	0.0031
685.0011	0.0046
685.184	0.0076
685.3669	0.0244
685.5498	0.0038
685.7326	0.0063
685.9154	0.0109
686.0982	0.0244
686.281	0.0077
686.4638	0.0075
686.6465	-0.0101
686.8293	-0.0149
687.012	0.0179
687.1947	0.0146
687.3774	0.0196
687.56	0.0008
687.7427	0.0142
687.9253	-0.002
688.1079	0.003
688.2905	0.0114
688.4731	0.0082
688.6556	-0.0052
688.8382	-0.0187
689.0207	0.0069
689.2032	0.0141
689.3857	0.0011
689.5681	-0.0035
689.7506	0.0185
689.933	-0.0027
690.1154	0.024
690.2978	0.0229
690.4802	0.0046
690.6626	0.015
690.8449	0.0132
691.0272	-0.0006
691.2095	-0.0175
691.3918	0.0224
691.5741	0.0214
691.7563	-0.0052
691.9386	0.0073
692.1208	0.0057
692.303	-0.0024
692.4852	-0.003
692.6673	0.0136
692.8495	-0.0029
693.0316	0.01
693.2137	0.0209
693.3958	0.0106
693.5778	0.012
693.7599	-0.0006
693.9419	0.0074
694.1239	0.0018
694.3059	0.0111
694.4879	0.018
694.6699	-0.0025
694.8518	0.0159
695.0337	0.0304
695.2157	0.0195
695.3975	0.0046
695.5794	0.0008
695.7613	0.0258
695.9431	-0.003
696.1249	0.0206
696.3067	0.0014
696.4885	0.0206
696.6703	-0.0004
696.852	0.0027
697.0337	0.0319
697.2154	0.0112
697.3971	0.022
697.5788	0.0242
697.7605	-0.0007
697.9421	0.0285
698.1237	0.0133
698.3053	-0.0166
698.4869	0.0057
698.6685	-0.0047
698.85	0.031
699.0315	-0.0098
699.213	0.0038
699.3945	0.0252
699.576	0.0132
699.7575	0.0074
699.9389	0.0152
700.1203	0.0272
700.3017	0.0145
700.4831	0.0316
700.6645	0.0146
700.8458	-0.0089
701.0271	0.0372
701.2084	-0.0061
701.3897	0.0387
701.571	0.0012
701.7523	0.0159
701.9335	0.013
702.1147	0.0336
702.2959	-0.0087
702.4771	-0.012
702.6583	0.0284
702.8394	-0.0197
703.0205	0.0241
703.2016	0.0044
703.3827	-0.0105
703.5638	0.0274
703.7449	0.0218
703.9259	0.0185
704.1069	-0.0238
704.2879	0.0064
704.4689	0.0112
704.6499	-0.0142
704.8308	0.0128
705.0117	0.0167
705.1927	0.0318
705.3735	0.0079
705.5544	0.0001
705.7353	-0.0086
705.9161	-0.0323
706.0969	0.0198
706.2777	0.0256
706.4585	0.0126
706.6393	0.0181
706.82	0.0305
707.0007	-0.006
707.1815	-0.0041
707.3621	0.0271
707.5428	0.0258
707.7235	0.0203
707.9041	0.0089
708.0847	-0.0015
708.2653	0.0337
708.4459	-0.0055
708.6265	-0.0013
708.807	0.0032
708.9875	0.0168
709.168	0.0079
709.3485	0.0375
709.529	0.0087
709.7095	0.0046
709.8899	0.0047
710.0703	0.0259
710.2507	0.0066
710.4311	-0.0097
710.6115	0.045
710.7918	0.0324
710.9721	0.0273
711.1524	-0.008
711.3327	-0.0019
711.513	-0.0082
711.6932	0.0082
711.8735	0.041
712.0537	-0.0052
712.2339	0.0099
712.4141	0.0267
712.5942	-0.0006
712.7744	0.0214
712.9545	0.0244
713.1346	0.0512
713.3147	0.0069
713.4947	0.0009
713.6748	0.0299
713.8548	0.0345
714.0348	0.015
714.2148	0.0218
714.3948	0.0164
714.5748	0.0218
714.7547	0.024
714.9346	0.0112
715.1145	0.0232
715.2944	0.0068
715.4743	0.0206
715.6541	-0.0261
715.834	0.0444
716.0138	0.0246
716.1936	-0.0067
716.3733	-0.0257
716.5531	0.0094
716.7328	0.0165
716.9126	0.017
717.0923	-0.0468
717.2719	0.0163
717.4516	0.0394
717.6312	-0.0097
717.8109	0.0487
717.9905	0.0128
718.1701	0.0185
718.3496	-0.0042
718.5292	0.01
718.7087	0.0114
718.8882	0.0301
719.0677	-0.0003
719.2472	0.0148
719.4267	0.0133
719.6061	-0.002
719.7856	0.0508
719.965	-0.0028
720.1443	0.0056
720.3237	0.0097
720.5031	0.0371
720.6824	0.0054
720.8617	0.0092
721.041	0.0496
721.2203	-0.0158
721.3995	0.0047
721.5788	0.0092
721.758	0.0128
721.9372	0.0349
722.1164	-0.0059
722.2956	-0.0034
722.4747	0.017
722.6538	-0.0021
722.8329	0.0317
723.012	0.0126
723.1911	0.0095
723.3702	0.0284
723.5492	0.0194
723.7282	-0.0037
723.9072	0.0246
724.0862	0.0225
724.2652	-0.0138
724.4441	-0.0048
724.623	0.0264
724.8019	-0.007
724.9808	0.0161
725.1597	0.0049
725.3385	0.0055
725.5174	0.0062
725.6962	0.0217
725.875	0.0194
726.0538	0.0246
726.2325	0.0253
726.4112	-0.0069
726.59	-0.0072
726.7687	-0.0149
726.9474	0.0493
727.126	0.0328
727.3047	0.0311
727.4833	-0.0055
727.6619	-0.0171
727.8405	0.0251
728.0191	0.0159
728.1976	-0.0041
728.3762	0.0132
728.5547	-0.0017
728.7332	0.0296
728.9116	-0.006
729.0901	-0.0031
729.2686	0.0051
729.447	0.0116
729.6254	0.0233
729.8038	-0.0059
729.9821	-0.0139
730.1605	0.0306
730.3388	0.0101
730.5171	0.0131
730.6954	-0.0085
730.8737	0.0131
731.0519	0.0052
731.2302	0.0226
731.4084	0.0141
731.5866	0.0094
731.7648	0.0016
731.9429	0.0178
732.1211	-0.0026
732.2992	0.0004
732.4773	0.0012
732.6554	-0.0081
732.8335	0.0178
733.0115	0.0067
733.1896	-0.0251
733.3676	0.0227
733.5456	0.0014
733.7235	0.0084
733.9015	0.0153
734.0794	0.0275
734.2574	-0.024
734.4353	0.0191
734.6131	-0.0193
734.791	-0.0033
734.9689	-0.0067
735.1467	-0.0027
735.3245	0.022
735.5023	0.0155
735.68	0.0202
735.8578	0.0159
736.0355	0.0172
736.2132	0.0108
736.3909	0.0196
736.5686	-0.0005
736.7463	0.0088
736.9239	0.0367
737.1015	0.0013
737.2791	0.0249
737.4567	0.0031
737.6343	0.0066
737.8118	0.041
737.9894	0.0136
738.1669	0.024
738.3444	0.0384
738.5218	-0.0094
738.6993	0.0249
738.8767	0.0013
739.0541	-0.0027
739.2315	0.0075
739.4089	0.0337
739.5863	0.0058
739.7636	0.0323
739.9409	0.0034
740.1182	0.0158
740.2955	0.0232
740.4728	0.012
740.65	-0.0022
740.8272	0.0249
741.0044	0.0076
741.1816	0.0297
741.3588	0.0034
741.5359	0.0031
741.7131	0.0122
741.8902	-0.0036
742.0673	-0.0145
742.2444	0.0314
742.4214	0.0175
742.5985	-0.0134
742.7755	0.0066
742.9525	0.0108
743.1295	-0.0093
743.3064	0.0045
743.4834	0.0026
743.6603	0.0271
743.8372	-0.0216
744.0141	0.0567
744.191	0.0292
744.3678	-0.0346
744.5446	0.0125
744.7215	0.0168
744.8982	0.034
745.075	0.0697
745.2518	0.0107
745.4285	0.0376
745.6052	-0.0086
745.7819	0.0197
745.9586	0.0139
746.1353	-0.0159
746.3119	0.0077
746.4885	0.0284
746.6651	0.0097
746.8417	-0.002
747.0183	0.0304
747.1948	0.0071
747.3714	0.0034
747.5479	0.0431
747.7244	0.0198
747.9008	0.012
748.0773	0.0854
748.2537	-0.0048
748.4301	0.0215
748.6065	-0.011
748.7829	-0.027
748.9593	0.0059
749.1356	0.0285
749.3119	0.0362
749.4882	0.0337
749.6645	0.0074
749.8408	0.0279
750.017	0.0168
750.1933	-0.0227
750.3695	0.015
750.5457	0.0035
750.7218	0.0055
750.898	-0.0161
751.0741	0.0059
751.2502	0.0082
751.4263	0.0061
751.6024	0.0112
751.7784	0.0231
751.9545	0.0162
752.1305	0.0262
752.3065	0.0192
752.4825	0.0118
752.6584	0.0479
752.8344	0.0158
753.0103	-0.0151
753.1862	0.0033
753.3621	0.0117
753.5379	0.0068
753.7138	0.035
753.8896	0.0202
754.0654	0.0276
754.2412	0.0313
754.417	0.0207
754.5927	0.034
754.7685	0.0302
754.9442	0.0408
755.1199	0.0218
755.2956	0.0036
755.4712	0.0208
755.6469	0.0076
755.8225	0.0148
755.9981	0.0086
756.1736	0.0233
756.3492	-0.0004
756.5248	0.0254
756.7003	0.0112
756.8758	0.0074
757.0513	0.0152
757.2267	0.0108
757.4022	-0.0037
757.5776	0.0128
757.753	0.0089
757.9284	0.0191
758.1038	0.0205
758.2791	0.0124
758.4545	-0.0172
758.6298	0.0025
758.8051	0.0102
758.9803	0.0223
759.1556	0.0056
759.3308	-0.0053
759.506	0.0043
759.6812	-0.0025
759.8564	0.0152
760.0316	-0.0036
760.2067	0.0145
760.3819	0.0094
760.557	0.0229
760.732	0.0001
760.9071	0.0359
761.0821	-0.0132
761.2572	0.0173
761.4322	0.0124
761.6072	0.0188
761.7821	-0.0266
761.9571	0.0128
762.132	0.0128
762.3069	0.0388
762.4818	0.0097
762.6567	0.0016
762.8316	0.0492
763.0064	0.0119
763.1812	0.0072
763.356	-0.0185
763.5308	0.0197
763.7055	0.0067
763.8803	-0.0019
764.055	0.0109
764.2297	-0.0076
764.4044	0.009
764.579	0.0154
764.7537	0.0055
764.9283	0.0017
765.1029	0.0008
765.2775	0.0203
765.4521	0.0147
765.6266	0.0092
765.8011	0.0111
765.9756	0.0026
766.1501	-0.0016
766.3246	0.0038
766.4991	0.0314
766.6735	0.0378
766.8479	-0.0135
767.0223	0.0202
767.1967	0.0355
767.371	0.0532
767.5454	0.0357
767.7197	0.0332
767.894	0.0224
768.0683	0.0337
768.2425	0.0176
768.4168	0.0405
768.591	0.0305
768.7652	0.0309
768.9394	-0.0211
769.1135	0.0129
769.2877	0.0137
769.4618	0.0184
769.6359	0.0241
769.81	0.0202
769.984	0.0058
770.1581	0.0122
770.3321	0.0091
770.5061	-0.0063
770.6801	0.0354
770.8541	0.0159
771.028	0.0261
771.202	0.0456
771.3759	-0.0018
771.5498	0.0211
771.7236	0.0151
771.8975	0.0279
772.0713	0.0454
772.2451	0.009
772.4189	0.0251
772.5927	-0.0249
772.7665	0.0087
772.9402	0.0049
773.1139	0.0199
773.2876	0.0007
773.4613	0.0287
773.635	0.0421
773.8086	0.0121
773.9822	0.0173
774.1558	0.0154
774.3294	0.0022
774.503	0.01
774.6765	0.0654
774.8501	0.0169
775.0236	0.066
775.1971	0.027
775.3705	-0.0098
775.544	-0.0535
775.7174	0.0085
775.8908	0.0081
776.0642	0.0127
776.2376	0.0735
776.4109	0.0177
776.5843	0.0436
776.7576	0.0131
776.9309	0.0216
777.1041	-0.0468
777.2774	-0.0161
777.4506	-0.0006
777.6238	-0.0253
777.797	0.0009
777.9702	0.0094
778.1434	0.0064
778.3165	0.0039
778.4896	-0.0296
778.6627	0.0311
778.8358	-0.0141
779.0089	-0.0052
779.1819	0.0436
779.3549	0.0007
779.5279	0.008
779.7009	0.0629
779.8739	0.049
780.0468	0.0211
780.2197	0.0241
780.3926	0.0081
780.5655	0.0286
780.7384	0.0185
780.9112	0.0208
781.0841	-0.0003
781.2569	0.0427
781.4297	0.014
781.6024	0.0269
781.7752	0.0474
781.9479	0.0516
782.1206	0.0475
782.2933	0.0216
782.466	0.006
782.6386	-0.0004
782.8113	0.0119
782.9839	0.0061
783.1565	0.0628
783.329	0.0197
783.5016	0.0426
783.6741	-0.0119
783.8466	0.073
784.0191	0.0233
784.1916	-0.0266
784.3641	-0.0007
784.5365	0.0094
784.7089	0.0061
784.8813	0.0514
785.0537	0.0292
785.2261	0.0145
785.3984	0.0243
785.5707	-0.0332
785.743	0.0405
785.9153	0.0388
786.0876	-0.0044
786.2598	0.007
786.432	0.0326
786.6042	0.0941
786.7764	-0.0038
786.9486	-0.0181
787.1207	0.0382
787.2928	0.0608
787.4649	0.0173
787.637	0.0194
787.8091	0.0267
787.9811	0.0164
788.1532	0.046
788.3252	-0.0016
788.4972	0.049
788.6691	0.0181
788.8411	0.0256
789.013	0.03
789.1849	-0.0411
789.3568	0.0002
789.5287	0.0681
789.7005	-0.036
789.8723	-0.0081
790.0442	-0.0314
790.2159	0.0128
790.3877	0.0193
790.5595	0.0281
790.7312	0.0367
790.9029	0.0642
791.0746	0.0963
791.2463	-0.0365
791.4179	0.0186
791.5896	0.0383
791.7612	0.0683
791.9328	0.026
792.1044	0.0421
792.2759	0.0142
792.4474	0.0218
792.619	0.0612
792.7905	0.0261
792.9619	0.0226
793.1334	0.0698
793.3048	0.066
793.4762	-0.0251
793.6476	-0.0623
793.819	0.0015
793.9904	0.0175
794.1617	-0.0048
794.333	0.0221
794.5043	0.0147
794.6756	0.0369
794.8469	0.0188
795.0181	0.0129
795.1893	0.0083
795.3605	0.0208
795.5317	-0.0014
795.7029	0.0061
795.874	0.0021
796.0452	0.0452
796.2163	0.0837
796.3873	0.0776
796.5584	0.0643
796.7294	0.0233
796.9005	0.0583
797.0715	0.0314
797.2425	0.0717
797.4134	0.0325
797.5844	0.0142
797.7553	0.0016
797.9262	0.059
798.0971	0.0615
798.2679	0.0114
798.4388	0.0517
798.6096	-0.0064
798.7804	0.0372
798.9512	0.0097
799.122	-0.0629
799.2927	0.1063
799.4635	-0.0199
799.6342	-0.0636
799.8049	0.0311
799.9755	0.0187
800.1462	0.0479
800.3168	0.0345
800.4874	-0.0724
800.658	0.0755
800.8286	0.0359
800.9991	0.045
801.1696	-0.0237
801.3402	0.0339
801.5106	-0.0454
801.6811	-0.0288
801.8516	0.0811
802.022	0.0925
802.1924	0.0219
802.3628	-0.0149
802.5332	0.0898
802.7035	0.1754
802.8739	0.1106
803.0442	0.0848
803.2145	0.0103
803.3847	0.0972
803.555	0.0412
803.7252	-0.0049
803.8954	-0.0313
804.0656	-0.0101
804.2358	0.0385
804.4059	0.0309
804.5761	0.0062
804.7462	0.0676
804.9163	0.0929
805.0864	0.0255
805.2564	0.057
805.4264	-0.0061
805.5965	-0.0135
805.7665	-0.0333
805.9364	0.0082
806.1064	-0.002
806.2763	0.0356
806.4462	0.0201
806.6161	0.0055
806.786	0.0522
806.9559	0.1067
807.1257	-0.0253
807.2955	-0.0075
807.4653	-0.0056
807.6351	0.0203
807.8048	0.0359
807.9746	0.0837
808.1443	0.0918
808.314	0.0472
808.4837	0.0764
808.6533	0.0431
808.8229	-0.0038
808.9926	0.017
809.1622	0.0785
809.3317	0.0363
809.5013	-0.0014
809.6708	0.0296
809.8403	0.0004
810.0098	0.0094
810.1793	0.009
810.3488	-0.0293
810.5182	0.1636
810.6876	0.0673
810.857	0.0186
811.0264	0.0717
811.1958	0.1084
811.3651	0.0891
811.5344	0.0763
811.7037	0.0551
811.873	0.1881
812.0422	-0.0249
812.2115	-0.033
812.3807	-0.0847
812.5499	0.0896
812.7191	-0.0609
812.8882	-0.0606
813.0574	0.0304
813.2265	0.0259
813.3956	0.1847
813.5646	-0.0966
813.7337	0.0875
813.9027	-0.0215
814.0718	0.0295
814.2407	0.1177
814.4097	0.0723
814.5787	0.059
814.7476	0.0579
814.9165	0.0693
815.0854	0.0278
815.2543	0.1183
815.4232	0.047
815.592	0.0571
815.7608	0.0133
815.9296	0.1263
816.0984	0.0862
816.2671	0.0145
816.4359	0.1128
816.6046	0.0595
816.7733	0.0078
816.942	-0.0615
817.1106	0.0782
817.2793	-0.1085
817.4479	0.1545
817.6165	0.0023
817.785	0.1375
817.9536	-0.0822
818.1221	0.0947
818.2906	-0.0731
818.4591	-0.0061
818.6276	0.0363
818.7961	0.0072
818.9645	0.0942
819.1329	0.399
819.3013	-0.0614
819.4697	0.0924
819.638	0.5175
819.8064	0.1082
819.9747	0.1525
820.143	-0.1166
820.3113	0.0402
820.4795	0.0466
820.6477	0.1473
820.816	0.0663
820.9842	0.0607
821.1523	-0.0264
821.3205	-0.0419
821.4886	-0.0406
821.6567	-0.0683
821.8248	0.0993
821.9929	-0.096
822.1609	0.011
822.329	0.1353
822.497	-0.0233
822.665	0.0008
822.833	-0.0282
823.0009	0.0993
823.1688	0.0851
823.3367	0.0544
823.5046	0.0846
823.6725	-0.0546
823.8404	0.1038
824.0082	0.0338
824.176	-0.0037
824.3438	0.2219
824.5116	0.0665
824.6793	0.2283
824.847	0.1884
825.0147	0.0069
825.1824	0.0077
825.3501	0.0491
825.5177	-0.0061
825.6854	-0.0326
825.853	0.2015
826.0206	-0.1155
826.1881	0.0233
826.3557	0.0913
826.5232	0.089
826.6907	-0.029
826.8582	0.0462
827.0257	0.2692
827.1931	0.1548
827.3605	-0.1071
827.528	0.2853
827.6953	-0.1103
827.8627	0.0126
828.03	0.2128
828.1974	-0.1005
828.3647	0.1475
828.532	0.1812
828.6992	0.0953
828.8665	-0.0053
829.0337	0.107
829.2009	-0.1799
829.3681	0.0966
829.5352	-0.2135
829.7024	0.0235
829.8695	-0.0249
830.0366	0.159
830.2037	0.1103
830.3707	0.0499
830.5378	0.0802
830.7048	-0.043
830.8718	0.2366
831.0388	0.2364
831.2057	0.6791
831.3727	-0.2719
831.5396	0.0695
831.7065	-0.7468
831.8734	0.5343
832.0402	0.103
832.2071	0.427
832.3739	-0.0413
832.5407	-1.8709
832.7075	-0.2477
832.8742	0.3334
833.041	-0.0085
833.2077	0.1398
833.3744	0.1805
833.541	0.1835
833.7077	-0.057
833.8743	0.0594
834.0409	0.1955
834.2075	0.0218
834.3741	-0.1712
834.5407	0.0493
834.7072	0.1588
834.8737	0.0874
835.0402	0.246
835.2067	-0.0178
835.3731	0.0716
835.5395	-0.01
835.706	-0.0175
835.8723	-0.054
836.0387	0.0917
836.2051	1.2062
836.3714	0.517
836.5377	0.2697
836.704	0.4985
836.8703	-0.1759
837.0365	-0.3332
837.2027	0.2274
837.3689	0.2572
837.5351	0.4285
837.7013	0.172
837.8674	-0.6275
838.0335	0.0628
838.1997	-0.0717
838.3657	0.808
838.5318	-0.0251
838.6978	-0
838.8639	-0.2128
839.0299	0.0526
839.1958	0.0447
839.3618	-0
839.5277	0.0145
839.6937	-0.0562
839.8596	-0.1722
840.0254	-0.2932
840.1913	0.3764
840.3571	-0.2078
840.523	-0
840.6888	0.027
840.8545	-0.2041
841.0203	0.1169
841.186	-0.1149
841.3517	-0.1535
841.5174	0.251
841.6831	0.2631
841.8488	-0.1092
842.0144	1.5242
842.18	0.8102
842.3456	-0.4838
842.5112	-0.8768
842.6767	0.1988
842.8422	0.2026
843.0077	0.0683
843.1732	-0.3028
843.3387	0.6477
843.5042	-0
843.6696	0.243
843.835	-0.3323
844.0004	0.0129
844.1657	-0
844.3311	-0
844.4964	-0
844.6617	0.3714
844.827	-0
844.9923	0.2015
845.1575	-0.3472
845.3227	0.6071
845.4879	-0.1815
845.6531	0.2569
845.8183	-0
845.9834	-0.2335
846.1485	0.3058
846.3136	0.0029
846.4787	-0.5184
846.6438	-0.0706
846.8088	-0
846.9738	0.5362
847.1388	0.5921
847.3038	0.0876
847.4687	-0
847.6337	-0.1317
847.7986	-0.0866
847.9635	-0
848.1284	0.0235
848.2932	0.1846
848.458	-0
848.6228	0.8363
848.7876	-0.481
848.9524	-0
849.1172	-1.7437
849.2819	-0
849.4466	0.4868
849.6113	0.3611
849.7759	-0
849.9406	-0.214
850.1052	-0
850.2698	0.2557
850.4344	1.357
850.599	-0.1473
850.7635	2.1811
850.928	0.0561
851.0925	0.3304
851.257	0.2048
851.4215	1.1175
851.5859	0.6108
851.7503	-0
851.9147	1.641
852.0791	0.0198
852.2434	0.5601
852.4078	-0
852.5721	1.5525
852.7364	-0.0999
852.9007	0.539
853.0649	-0
853.2291	0.282
853.3934	0.2336
853.5575	0.2459
853.7217	0.4693
853.8859	0.2976
854.05	-0.6488
854.2141	-0
854.3782	-0.2289
854.5423	-0
854.7063	0.0519
854.8703	0.2121
855.0343	0.2517
855.1983	0.1546
855.3623	-0.0383
855.5262	-0
855.6901	-0
855.854	0.6035
856.0179	-0
856.1818	0.1395
856.3456	-0
856.5094	-0.0364
856.6732	-0
856.837	-1.136
857.0008	0.132
857.1645	-0.0372
857.3282	-0.1652
857.4919	0.7749
857.6556	-0.4568
857.8192	0.1452
857.9828	-0.2669
858.1465	1.0032
858.31	-0
858.4736	-0.0103
858.6372	-0.1982
858.8007	0.0569
858.9642	0.07
859.1277	-0
859.2911	-0.7385
859.4546	-0
859.618	0.759
859.7814	-0.1039
859.9448	-0
860.1081	0.0996
860.2715	-1.3252
860.4348	0.3405
860.5981	0.1695
860.7614	-0
860.9246	0.6608
861.0879	-0
861.2511	-0
861.4143	-0
861.5774	-0.0461
861.7406	-0.0148
861.9037	-0.4612
862.0668	-0.7068
862.2299	-0
862.393	0.462
862.556	0.2622
862.7191	1.6698
862.8821	0.0931
863.0451	1.207
863.208	-0
863.371	-0.8946
863.5339	0.6535
863.6968	-0
863.8597	0.1784
864.0225	-0
864.1854	-0.0948
864.3482	-0.5086
864.511	0.4501
864.6737	-0.6407
864.8365	0.4321
864.9992	-0
865.1619	-0.1155
865.3246	-1.8943
865.4873	-0
865.65	-0
865.8126	-0
865.9752	0.4206
866.1378	0.5645
866.3004	-0.0796
866.4629	-1.4197
866.6254	-0.2225
866.7879	0.5865
866.9504	-0
867.1129	0.0389
867.2753	-0.0082
867.4377	0.4419
867.6001	-0.4302
867.7625	0.0618
867.9249	-0
868.0872	-0
868.2495	-0
868.4118	-0.2761
868.5741	-0.2794
868.7363	-0.8022
868.8986	-0.7345
869.0608	-0.4573
869.223	-0.6617
869.3851	-0
869.5473	0.6496
869.7094	-0
869.8715	-0
870.0336	0.0992
870.1957	-0.8022
870.3577	0.3244
870.5197	0.3232
870.6817	-0.6182
870.8437	0.1776
871.0057	0.4615
871.1676	0.4245
871.3295	-0.1961
871.4914	-0
871.6533	-0.4921
871.8151	-0
871.977	-0.1364
872.1388	1.1669
872.3006	-0.6432
872.4623	-0.8283
872.6241	-0
872.7858	0.7585
872.9475	-0
873.1092	0.3557
873.2709	0.841
873.4325	-1.6546
873.5941	-0
873.7557	-0
873.9173	-0.2132
874.0789	0.2321
874.2404	-0
874.4019	0.1159
874.5634	0.2908
874.7249	-0
874.8863	-0
875.0478	-0.1529
875.2092	0.6129
875.3706	-0.1213
875.5319	0.6083
875.6933	-0
875.8546	-0
876.0159	0.3665
876.1772	-0
876.3385	0.3656
876.4997	0.2362
876.6609	-0
876.8221	-0
876.9833	0.0568
877.1445	0.3418
877.3056	-0
877.4667	-0.9805
877.6278	-0
877.7889	-0
877.9499	-0
878.111	0.2986
878.272	0.1784
878.433	-0
878.5939	-0
878.7549	-0
878.9158	-0.289
879.0767	-0.3352
879.2376	-0
879.3984	-0
879.5593	0.1798
879.7201	-0.8709
879.8809	-0
880.0417	-0.0848
880.2024	0.1171
880.3632	-0.0611
880.5239	0.3138
880.6846	-0
880.8452	-0.0403
881.0059	-0
881.1665	-0.1881
881.3271	0.2733
881.4877	-0
881.6483	-1.1425
881.8088	-0.4407
881.9693	-0.5177
882.1298	-0.5177
882.2903	-0.5177
