Data from D4ACN5uM420nmA_Absorbance_14-37-07-391.txt Node
Date: Fri Feb 21 14:37:07 GMT 2025
User: LASERRRRR
Spectrometer: FLMT03099
Trigger mode: 0
Integration Time (sec): 1.500000E-2
Scans to average: 1
Electric dark correction enabled: true
Nonlinearity correction enabled: false
Boxcar width: 0
XAxis mode: Wavelengths
Number of Pixels in Spectrum: 3648
>>>>>Begin Spectral Data<<<<<
179.3399	0.2187
179.5586	0.2187
179.7771	0.2187
179.9957	-0.3246
180.2143	-0
180.4329	0.4203
180.6514	-0.1421
180.8699	-0
181.0885	0.1288
181.307	0.1734
181.5255	0.4589
181.744	-0
181.9625	0.4129
182.181	-0
182.3994	-0.4609
182.6179	-0
182.8363	-0
183.0547	-0.2412
183.2732	0.1013
183.4916	0.1596
183.71	0.3353
183.9284	0.1892
184.1467	0.201
184.3651	0.1006
184.5835	0.2112
184.8018	0.0312
185.0201	0.0284
185.2385	0.3242
185.4568	0.02
185.6751	0.2501
185.8934	0.0788
186.1117	-0.0786
186.3299	0.1693
186.5482	0.2615
186.7664	0.1985
186.9847	-0.0182
187.2029	0.201
187.4211	-0.0036
187.6393	-0.0336
187.8575	0.9668
188.0757	0.2609
188.2939	-0.0114
188.512	0.2197
188.7302	0.0509
188.9483	0.1154
189.1665	0.5132
189.3846	0.2654
189.6027	0.0364
189.8208	0.1206
190.0389	0.1028
190.257	-0.0398
190.475	0.0849
190.6931	0.0921
190.9111	0.1255
191.1292	0.0297
191.3472	0.0632
191.5652	0.3374
191.7832	0.2972
192.0012	0.1833
192.2192	0.1062
192.4371	0.1833
192.6551	0.1454
192.873	0.1078
193.091	0.0281
193.3089	0.2444
193.5268	0.1591
193.7447	0.2416
193.9626	0.1261
194.1805	0.227
194.3984	0.2136
194.6162	0.2178
194.8341	0.3083
195.0519	0.27
195.2697	0.2266
195.4875	0.2556
195.7054	0.2761
195.9231	0.2115
196.1409	0.322
196.3587	0.2403
196.5765	0.2985
196.7942	0.2531
197.012	0.275
197.2297	0.2967
197.4474	0.3348
197.6651	0.3013
197.8828	0.2965
198.1005	0.4226
198.3182	0.3488
198.5358	0.3908
198.7535	0.3173
198.9711	0.376
199.1888	0.376
199.4064	0.3487
199.624	0.3866
199.8416	0.3533
200.0592	0.3418
200.2767	0.4181
200.4943	0.3923
200.7119	0.376
200.9294	0.3612
201.1469	0.4185
201.3645	0.4029
201.582	0.3713
201.7995	0.4267
202.017	0.3812
202.2344	0.4445
202.4519	0.423
202.6694	0.3661
202.8868	0.3428
203.1042	0.4267
203.3217	0.3658
203.5391	0.3874
203.7565	0.3664
203.9739	0.3741
204.1913	0.3435
204.4086	0.3349
204.626	0.3862
204.8433	0.3658
205.0607	0.3512
205.278	0.3375
205.4953	0.33
205.7126	0.3266
205.9299	0.3167
206.1472	0.3183
206.3644	0.3401
206.5817	0.3341
206.7989	0.3197
207.0162	0.3011
207.2334	0.3131
207.4506	0.2866
207.6678	0.2999
207.885	0.2883
208.1022	0.3122
208.3194	0.2816
208.5365	0.3087
208.7537	0.2821
208.9708	0.2963
209.1879	0.3133
209.405	0.2685
209.6222	0.2677
209.8392	0.2879
210.0563	0.2794
210.2734	0.2567
210.4905	0.2624
210.7075	0.2615
210.9245	0.264
211.1416	0.2745
211.3586	0.2601
211.5756	0.255
211.7926	0.2729
212.0096	0.2722
212.2265	0.2603
212.4435	0.2661
212.6604	0.2513
212.8774	0.2336
213.0943	0.2594
213.3112	0.2484
213.5281	0.2352
213.745	0.2286
213.9619	0.2552
214.1788	0.2538
214.3956	0.2441
214.6125	0.2628
214.8293	0.2662
215.0461	0.2542
215.2629	0.2552
215.4798	0.2307
215.6965	0.2614
215.9133	0.2374
216.1301	0.2466
216.3469	0.2408
216.5636	0.2415
216.7803	0.2482
216.9971	0.2778
217.2138	0.2601
217.4305	0.2553
217.6472	0.2485
217.8639	0.2438
218.0805	0.2392
218.2972	0.2452
218.5138	0.2455
218.7305	0.2656
218.9471	0.2541
219.1637	0.2806
219.3803	0.2637
219.5969	0.2649
219.8135	0.2658
220.0301	0.2619
220.2466	0.2641
220.4632	0.2652
220.6797	0.2524
220.8962	0.2646
221.1127	0.255
221.3292	0.2714
221.5457	0.2782
221.7622	0.2739
221.9787	0.2826
222.1951	0.2677
222.4116	0.2793
222.628	0.2876
222.8444	0.2793
223.0608	0.269
223.2772	0.2878
223.4936	0.2793
223.71	0.2891
223.9264	0.3045
224.1427	0.2826
224.3591	0.2895
224.5754	0.2982
224.7917	0.2838
225.008	0.2894
225.2243	0.2954
225.4406	0.2963
225.6569	0.304
225.8732	0.3189
226.0894	0.2995
226.3057	0.3103
226.5219	0.3116
226.7381	0.3234
226.9543	0.3121
227.1705	0.3154
227.3867	0.3332
227.6029	0.3291
227.8191	0.3426
228.0352	0.3385
228.2513	0.3495
228.4675	0.3441
228.6836	0.3418
228.8997	0.3401
229.1158	0.3465
229.3319	0.362
229.548	0.3522
229.764	0.3615
229.9801	0.3738
230.1961	0.3637
230.4121	0.3738
230.6282	0.3826
230.8442	0.3906
231.0602	0.3929
231.2761	0.3768
231.4921	0.3927
231.7081	0.3936
231.924	0.393
232.14	0.3987
232.3559	0.4066
232.5718	0.4146
232.7877	0.4105
233.0036	0.4146
233.2195	0.4199
233.4353	0.423
233.6512	0.4186
233.867	0.4231
234.0829	0.4273
234.2987	0.4194
234.5145	0.4329
234.7303	0.4334
234.9461	0.4404
235.1619	0.4431
235.3776	0.4339
235.5934	0.441
235.8091	0.4512
236.0249	0.4499
236.2406	0.4388
236.4563	0.4538
236.672	0.4437
236.8877	0.4558
237.1034	0.4419
237.319	0.4651
237.5347	0.456
237.7503	0.4471
237.966	0.4622
238.1816	0.4578
238.3972	0.4578
238.6128	0.4722
238.8284	0.4642
239.0439	0.4784
239.2595	0.462
239.475	0.4637
239.6906	0.4643
239.9061	0.4573
240.1216	0.4704
240.3371	0.4728
240.5526	0.4605
240.7681	0.4582
240.9836	0.4671
241.199	0.4608
241.4145	0.4439
241.6299	0.4501
241.8453	0.4411
242.0607	0.4442
242.2761	0.443
242.4915	0.4296
242.7069	0.4187
242.9223	0.4192
243.1376	0.4048
243.353	0.4057
243.5683	0.4026
243.7836	0.3906
243.9989	0.3826
244.2142	0.3762
244.4295	0.3771
244.6448	0.3491
244.86	0.3502
245.0753	0.3447
245.2905	0.3406
245.5057	0.3379
245.721	0.3324
245.9362	0.328
246.1514	0.3257
246.3665	0.3185
246.5817	0.2991
246.7969	0.3024
247.012	0.2879
247.2271	0.2924
247.4423	0.2901
247.6574	0.2848
247.8725	0.2733
248.0876	0.2724
248.3026	0.2662
248.5177	0.2532
248.7328	0.2588
248.9478	0.2511
249.1628	0.251
249.3779	0.2387
249.5929	0.2426
249.8079	0.2407
250.0228	0.2371
250.2378	0.2284
250.4528	0.236
250.6677	0.2265
250.8827	0.2204
251.0976	0.2168
251.3125	0.2232
251.5274	0.2186
251.7423	0.2116
251.9572	0.2086
252.172	0.2117
252.3869	0.2067
252.6017	0.2082
252.8166	0.204
253.0314	0.2008
253.2462	0.2016
253.461	0.1988
253.6758	0.1969
253.8906	0.1952
254.1053	0.1983
254.3201	0.1986
254.5348	0.1885
254.7496	0.1905
254.9643	0.1939
255.179	0.1956
255.3937	0.1904
255.6083	0.1914
255.823	0.1871
256.0377	0.1849
256.2523	0.187
256.467	0.188
256.6816	0.1834
256.8962	0.1911
257.1108	0.1897
257.3254	0.1834
257.54	0.1854
257.7545	0.1871
257.9691	0.191
258.1836	0.1826
258.3981	0.1843
258.6127	0.1788
258.8272	0.1813
259.0417	0.1789
259.2561	0.1839
259.4706	0.181
259.6851	0.1814
259.8995	0.182
260.114	0.1844
260.3284	0.173
260.5428	0.1782
260.7572	0.1741
260.9716	0.1836
261.186	0.1757
261.4003	0.185
261.6147	0.1754
261.829	0.1841
262.0433	0.1847
262.2577	0.1832
262.472	0.1796
262.6863	0.1867
262.9005	0.182
263.1148	0.1802
263.3291	0.1868
263.5433	0.1793
263.7576	0.1813
263.9718	0.1898
264.186	0.1862
264.4002	0.1864
264.6144	0.1861
264.8286	0.1812
265.0427	0.1847
265.2569	0.1883
265.471	0.1817
265.6851	0.1837
265.8993	0.1902
266.1134	0.1817
266.3275	0.1865
266.5415	0.1824
266.7556	0.1866
266.9697	0.1883
267.1837	0.1842
267.3978	0.1883
267.6118	0.178
267.8258	0.1852
268.0398	0.1803
268.2538	0.1834
268.4677	0.1803
268.6817	0.1847
268.8957	0.1741
269.1096	0.1733
269.3235	0.1812
269.5374	0.1793
269.7514	0.1763
269.9652	0.1821
270.1791	0.1773
270.393	0.1774
270.6068	0.181
270.8207	0.1756
271.0345	0.1748
271.2483	0.1694
271.4622	0.1804
271.676	0.1797
271.8897	0.1727
272.1035	0.1771
272.3173	0.1758
272.531	0.1796
272.7448	0.1773
272.9585	0.1719
273.1722	0.1749
273.3859	0.1744
273.5996	0.1768
273.8133	0.178
274.0269	0.167
274.2406	0.1763
274.4542	0.173
274.6679	0.1776
274.8815	0.1791
275.0951	0.1841
275.3087	0.1766
275.5223	0.1794
275.7358	0.1771
275.9494	0.1771
276.1629	0.1808
276.3765	0.1781
276.59	0.1769
276.8035	0.1777
277.017	0.1823
277.2305	0.1791
277.444	0.1882
277.6574	0.1833
277.8709	0.1883
278.0843	0.1842
278.2978	0.1814
278.5112	0.1885
278.7246	0.1862
278.938	0.1881
279.1513	0.1872
279.3647	0.1833
279.5781	0.1792
279.7914	0.1851
280.0047	0.1836
280.2181	0.1839
280.4314	0.1893
280.6447	0.1879
280.8579	0.1836
281.0712	0.1828
281.2845	0.184
281.4977	0.1844
281.711	0.1798
281.9242	0.1845
282.1374	0.1891
282.3506	0.1877
282.5638	0.1848
282.7769	0.1811
282.9901	0.1833
283.2033	0.1849
283.4164	0.1802
283.6295	0.1878
283.8426	0.1809
284.0557	0.1888
284.2688	0.1838
284.4819	0.1798
284.695	0.1919
284.908	0.1843
285.1211	0.1892
285.3341	0.1877
285.5471	0.1904
285.7601	0.1897
285.9731	0.1995
286.1861	0.1908
286.3991	0.1943
286.612	0.1916
286.825	0.1902
287.0379	0.1906
287.2508	0.1983
287.4637	0.1964
287.6766	0.1916
287.8895	0.1906
288.1024	0.193
288.3152	0.1954
288.5281	0.1909
288.7409	0.1971
288.9538	0.1986
289.1666	0.1999
289.3794	0.193
289.5922	0.1911
289.8049	0.1936
290.0177	0.1929
290.2304	0.2026
290.4432	0.2
290.6559	0.1956
290.8686	0.1962
291.0813	0.1969
291.294	0.2
291.5067	0.1945
291.7194	0.2012
291.932	0.1991
292.1447	0.1964
292.3573	0.2037
292.5699	0.1987
292.7825	0.1946
292.9951	0.1971
293.2077	0.1957
293.4203	0.1956
293.6328	0.1937
293.8454	0.202
294.0579	0.1941
294.2704	0.1997
294.4829	0.2016
294.6954	0.2027
294.9079	0.1982
295.1204	0.1934
295.3328	0.202
295.5453	0.1947
295.7577	0.1976
295.9701	0.1971
296.1825	0.2058
296.3949	0.1964
296.6073	0.1931
296.8197	0.1964
297.0321	0.1986
297.2444	0.1952
297.4567	0.2009
297.6691	0.1956
297.8814	0.2012
298.0937	0.1961
298.306	0.1999
298.5182	0.2017
298.7305	0.201
298.9428	0.2025
299.155	0.1968
299.3672	0.1952
299.5794	0.1954
299.7916	0.1972
300.0038	0.1952
300.216	0.192
300.4282	0.203
300.6403	0.1987
300.8525	0.1999
301.0646	0.2007
301.2767	0.199
301.4888	0.1963
301.7009	0.1938
301.913	0.2012
302.125	0.1976
302.3371	0.197
302.5491	0.203
302.7612	0.2063
302.9732	0.202
303.1852	0.2014
303.3972	0.1946
303.6092	0.1928
303.8211	0.1976
304.0331	0.1925
304.245	0.1942
304.457	0.1878
304.6689	0.1954
304.8808	0.1905
305.0927	0.1978
305.3046	0.1884
305.5164	0.1868
305.7283	0.1844
305.9401	0.1755
306.152	0.1845
306.3638	0.1852
306.5756	0.1895
306.7874	0.1778
306.9992	0.1787
307.2109	0.1764
307.4227	0.1723
307.6344	0.1834
307.8462	0.1724
308.0579	0.1713
308.2696	0.1724
308.4813	0.1754
308.693	0.1671
308.9046	0.1718
309.1163	0.1692
309.328	0.158
309.5396	0.166
309.7512	0.156
309.9628	0.1559
310.1744	0.157
310.386	0.1514
310.5976	0.1498
310.8091	0.1568
311.0207	0.1504
311.2322	0.1452
311.4437	0.1494
311.6552	0.1524
311.8667	0.1513
312.0782	0.1485
312.2897	0.1479
312.5012	0.138
312.7126	0.1423
312.924	0.1455
313.1355	0.137
313.3469	0.1426
313.5583	0.1377
313.7696	0.1358
313.981	0.1405
314.1924	0.1326
314.4037	0.1381
314.6151	0.1356
314.8264	0.1362
315.0377	0.1358
315.249	0.1324
315.4603	0.132
315.6716	0.1346
315.8828	0.1328
316.0941	0.1323
316.3053	0.1294
316.5165	0.1324
316.7277	0.1278
316.9389	0.1326
317.1501	0.1302
317.3613	0.1318
317.5724	0.1247
317.7836	0.1232
317.9947	0.1278
318.2058	0.1302
318.417	0.1261
318.6281	0.1259
318.8391	0.1333
319.0502	0.1307
319.2613	0.1318
319.4723	0.1258
319.6834	0.1318
319.8944	0.1262
320.1054	0.1304
320.3164	0.1238
320.5274	0.1272
320.7383	0.1285
320.9493	0.1281
321.1602	0.1263
321.3712	0.1254
321.5821	0.1273
321.793	0.1333
322.0039	0.1306
322.2148	0.1277
322.4257	0.1315
322.6365	0.1249
322.8474	0.1305
323.0582	0.1271
323.269	0.1278
323.4798	0.1279
323.6906	0.1227
323.9014	0.1261
324.1122	0.1269
324.3229	0.1347
324.5337	0.1318
324.7444	0.1339
324.9551	0.1293
325.1658	0.1307
325.3765	0.1343
325.5872	0.1333
325.7979	0.1297
326.0085	0.1278
326.2192	0.1311
326.4298	0.136
326.6404	0.1389
326.851	0.1298
327.0616	0.1382
327.2722	0.1331
327.4828	0.1308
327.6933	0.1388
327.9039	0.1357
328.1144	0.1339
328.3249	0.1402
328.5354	0.1383
328.7459	0.1345
328.9564	0.1378
329.1669	0.1372
329.3773	0.1395
329.5878	0.132
329.7982	0.1401
330.0086	0.1427
330.219	0.1323
330.4294	0.1368
330.6398	0.1397
330.8502	0.14
331.0605	0.1312
331.2708	0.1384
331.4812	0.1373
331.6915	0.1431
331.9018	0.1433
332.1121	0.1436
332.3224	0.1408
332.5326	0.1381
332.7429	0.1402
332.9531	0.1449
333.1633	0.1371
333.3735	0.1367
333.5837	0.1418
333.7939	0.1391
334.0041	0.1469
334.2143	0.1385
334.4244	0.1463
334.6346	0.1392
334.8447	0.139
335.0548	0.1437
335.2649	0.1398
335.475	0.1442
335.685	0.1497
335.8951	0.1395
336.1051	0.1461
336.3152	0.1417
336.5252	0.139
336.7352	0.1428
336.9452	0.1452
337.1552	0.1407
337.3652	0.1379
337.5751	0.1432
337.7851	0.1456
337.995	0.1426
338.2049	0.1454
338.4148	0.1486
338.6247	0.1456
338.8346	0.1417
339.0445	0.1518
339.2543	0.1495
339.4642	0.1474
339.674	0.1477
339.8838	0.15
340.0936	0.1445
340.3034	0.1442
340.5132	0.1381
340.7229	0.1509
340.9327	0.1576
341.1424	0.1514
341.3522	0.1466
341.5619	0.1518
341.7716	0.153
341.9813	0.1559
342.1909	0.1521
342.4006	0.157
342.6102	0.149
342.8199	0.1574
343.0295	0.1514
343.2391	0.1503
343.4487	0.1559
343.6583	0.1604
343.8679	0.1546
344.0774	0.1589
344.287	0.1646
344.4965	0.1655
344.706	0.1608
344.9155	0.1567
345.125	0.1581
345.3345	0.1715
345.544	0.1601
345.7534	0.1601
345.9629	0.1616
346.1723	0.164
346.3817	0.1601
346.5911	0.1668
346.8005	0.1733
347.0099	0.1718
347.2193	0.1729
347.4286	0.1735
347.638	0.1679
347.8473	0.1701
348.0566	0.1663
348.2659	0.1641
348.4752	0.1753
348.6845	0.1645
348.8937	0.1676
349.103	0.1797
349.3122	0.1711
349.5214	0.1758
349.7306	0.1833
349.9398	0.1725
350.149	0.1728
350.3582	0.1769
350.5674	0.1792
350.7765	0.1791
350.9856	0.1753
351.1948	0.1804
351.4039	0.1882
351.613	0.1849
351.822	0.1832
352.0311	0.1794
352.2402	0.1802
352.4492	0.1804
352.6582	0.188
352.8672	0.1862
353.0762	0.1887
353.2852	0.188
353.4942	0.1896
353.7032	0.1875
353.9121	0.1896
354.1211	0.1872
354.33	0.1898
354.5389	0.1875
354.7478	0.1884
354.9567	0.1933
355.1655	0.1973
355.3744	0.1934
355.5833	0.1889
355.7921	0.1911
356.0009	0.1956
356.2097	0.1856
356.4185	0.1919
356.6273	0.1911
356.8361	0.1857
357.0448	0.1982
357.2536	0.1888
357.4623	0.1932
357.671	0.1981
357.8797	0.1979
358.0884	0.1924
358.2971	0.1954
358.5057	0.2035
358.7144	0.1993
358.923	0.1996
359.1316	0.2101
359.3402	0.2046
359.5488	0.2038
359.7574	0.2067
359.966	0.2087
360.1746	0.2061
360.3831	0.2131
360.5916	0.2136
360.8002	0.2155
361.0087	0.2075
361.2172	0.2144
361.4256	0.2081
361.6341	0.2146
361.8426	0.2154
362.051	0.2153
362.2594	0.22
362.4678	0.2147
362.6762	0.2156
362.8846	0.2198
363.093	0.2216
363.3014	0.2269
363.5097	0.2297
363.718	0.2336
363.9264	0.2253
364.1347	0.2225
364.343	0.2244
364.5513	0.231
364.7595	0.2362
364.9678	0.2221
365.176	0.236
365.3842	0.2323
365.5925	0.2379
365.8007	0.2369
366.0089	0.2419
366.217	0.2366
366.4252	0.2397
366.6333	0.2383
366.8415	0.2389
367.0496	0.2329
367.2577	0.2392
367.4658	0.2444
367.6739	0.2465
367.882	0.2534
368.09	0.2444
368.2981	0.2554
368.5061	0.2502
368.7141	0.246
368.9221	0.2609
369.1301	0.2535
369.3381	0.2641
369.5461	0.2502
369.754	0.2627
369.962	0.2547
370.1699	0.2548
370.3778	0.2706
370.5857	0.2575
370.7936	0.2554
371.0015	0.2646
371.2093	0.2558
371.4172	0.2552
371.625	0.2586
371.8328	0.2609
372.0406	0.2623
372.2484	0.2651
372.4562	0.2677
372.664	0.2616
372.8717	0.2617
373.0795	0.2663
373.2872	0.2724
373.4949	0.2784
373.7026	0.257
373.9103	0.2705
374.118	0.2705
374.3256	0.271
374.5333	0.2712
374.7409	0.2679
374.9485	0.2762
375.1561	0.2735
375.3637	0.2766
375.5713	0.2768
375.7789	0.2761
375.9864	0.2737
376.194	0.2799
376.4015	0.2849
376.609	0.2792
376.8165	0.2867
377.024	0.2791
377.2315	0.2814
377.4389	0.279
377.6464	0.2861
377.8538	0.2817
378.0612	0.2883
378.2686	0.2883
378.476	0.2907
378.6834	0.2913
378.8908	0.2919
379.0981	0.2948
379.3055	0.2871
379.5128	0.2899
379.7201	0.2965
379.9274	0.2931
380.1347	0.289
380.342	0.3007
380.5492	0.2975
380.7565	0.2987
380.9637	0.2977
381.1709	0.3002
381.3781	0.3027
381.5853	0.3017
381.7925	0.2946
381.9997	0.3114
382.2068	0.303
382.4139	0.3011
382.6211	0.2994
382.8282	0.3035
383.0353	0.3143
383.2424	0.3056
383.4494	0.306
383.6565	0.311
383.8635	0.304
384.0706	0.304
384.2776	0.3022
384.4846	0.3152
384.6916	0.3069
384.8986	0.3096
385.1055	0.3116
385.3125	0.3143
385.5194	0.3065
385.7263	0.3065
385.9333	0.3134
386.1402	0.3122
386.347	0.3055
386.5539	0.3154
386.7608	0.3077
386.9676	0.3118
387.1744	0.3065
387.3813	0.3134
387.5881	0.3058
387.7948	0.3158
388.0016	0.3162
388.2084	0.3176
388.4151	0.305
388.6219	0.2959
388.8286	0.3081
389.0353	0.3091
389.242	0.3101
389.4487	0.307
389.6553	0.2986
389.862	0.2977
390.0686	0.3138
390.2753	0.3111
390.4819	0.3016
390.6885	0.3022
390.8951	0.305
391.1016	0.2902
391.3082	0.3061
391.5147	0.2965
391.7213	0.294
391.9278	0.2979
392.1343	0.2961
392.3408	0.2905
392.5473	0.2918
392.7537	0.2946
392.9602	0.2933
393.1666	0.29
393.373	0.293
393.5794	0.2838
393.7858	0.2885
393.9922	0.2831
394.1986	0.2782
394.4049	0.2826
394.6113	0.2845
394.8176	0.2775
395.0239	0.2696
395.2302	0.2815
395.4365	0.2853
395.6428	0.2817
395.8491	0.2719
396.0553	0.2725
396.2615	0.2795
396.4678	0.2848
396.674	0.2729
396.8802	0.27
397.0863	0.2663
397.2925	0.2718
397.4987	0.2653
397.7048	0.2696
397.9109	0.2636
398.117	0.2592
398.3231	0.2622
398.5292	0.2527
398.7353	0.2578
398.9413	0.2566
399.1474	0.2541
399.3534	0.2621
399.5594	0.2651
399.7654	0.2681
399.9714	0.2543
400.1774	0.2664
400.3833	0.2618
400.5893	0.2668
400.7952	0.2681
401.0011	0.2663
401.207	0.2681
401.4129	0.2622
401.6188	0.2662
401.8247	0.2746
402.0305	0.2567
402.2364	0.2644
402.4422	0.2647
402.648	0.2727
402.8538	0.2555
403.0596	0.2615
403.2654	0.262
403.4711	0.2648
403.6768	0.2641
403.8826	0.2661
404.0883	0.2699
404.294	0.2653
404.4997	0.2659
404.7054	0.2745
404.911	0.2555
405.1167	0.2683
405.3223	0.264
405.5279	0.2679
405.7335	0.2687
405.9391	0.2643
406.1447	0.2709
406.3502	0.2611
406.5558	0.2629
406.7613	0.254
406.9668	0.2607
407.1724	0.2596
407.3778	0.2614
407.5833	0.2516
407.7888	0.2652
407.9942	0.2757
408.1997	0.2622
408.4051	0.2636
408.6105	0.2661
408.8159	0.2597
409.0213	0.2712
409.2267	0.2589
409.432	0.2598
409.6374	0.2486
409.8427	0.2654
410.048	0.2641
410.2533	0.2564
410.4586	0.2605
410.6639	0.2686
410.8691	0.2533
411.0744	0.2608
411.2796	0.267
411.4848	0.2714
411.69	0.2566
411.8952	0.2545
412.1004	0.2657
412.3056	0.2589
412.5107	0.2628
412.7158	0.2707
412.921	0.2594
413.1261	0.2556
413.3312	0.2647
413.5362	0.2661
413.7413	0.2667
413.9464	0.2555
414.1514	0.2585
414.3564	0.2559
414.5614	0.2548
414.7664	0.257
414.9714	0.2542
415.1764	0.2619
415.3813	0.2534
415.5863	0.2681
415.7912	0.2547
415.9961	0.2514
416.201	0.2629
416.4059	0.2649
416.6108	0.253
416.8156	0.2581
417.0205	0.2592
417.2253	0.2544
417.4301	0.2674
417.6349	0.252
417.8397	0.2449
418.0445	0.2515
418.2492	0.2485
418.454	0.2484
418.6587	0.2515
418.8634	0.255
419.0681	0.2523
419.2728	0.2366
419.4775	0.2585
419.6822	0.2483
419.8868	0.2414
420.0915	0.24
420.2961	0.2281
420.5007	0.2427
420.7053	0.2545
420.9099	0.2429
421.1144	0.2447
421.319	0.241
421.5235	0.2349
421.728	0.241
421.9325	0.2356
422.137	0.2342
422.3415	0.2352
422.546	0.2357
422.7504	0.2306
422.9549	0.2393
423.1593	0.2175
423.3637	0.241
423.5681	0.2403
423.7725	0.2403
423.9769	0.2319
424.1812	0.2242
424.3856	0.2302
424.5899	0.2266
424.7942	0.2277
424.9985	0.2311
425.2028	0.2228
425.4071	0.2339
425.6113	0.2289
425.8156	0.2222
426.0198	0.2271
426.224	0.2187
426.4282	0.2111
426.6324	0.2177
426.8366	0.2124
427.0407	0.2113
427.2449	0.2097
427.449	0.2121
427.6531	0.2251
427.8572	0.2187
428.0613	0.2268
428.2654	0.2074
428.4694	0.1955
428.6735	0.1963
428.8775	0.206
429.0815	0.2064
429.2855	0.1982
429.4895	0.2024
429.6935	0.1937
429.8975	0.198
430.1014	0.2033
430.3053	0.2008
430.5093	0.1974
430.7132	0.1955
430.9171	0.1822
431.1209	0.1941
431.3248	0.1806
431.5286	0.1857
431.7325	0.1846
431.9363	0.1749
432.1401	0.1793
432.3439	0.1801
432.5477	0.1701
432.7514	0.1776
432.9552	0.1766
433.1589	0.1762
433.3627	0.169
433.5664	0.1596
433.7701	0.1713
433.9737	0.1671
434.1774	0.1689
434.3811	0.1678
434.5847	0.1611
434.7883	0.1694
434.9919	0.1523
435.1955	0.1624
435.3991	0.1523
435.6027	0.1557
435.8062	0.1712
436.0098	0.1492
436.2133	0.1494
436.4168	0.1504
436.6203	0.1343
436.8238	0.1422
437.0272	0.1492
437.2307	0.1316
437.4341	0.1369
437.6375	0.1401
437.841	0.1241
438.0443	0.1322
438.2477	0.1153
438.4511	0.1225
438.6545	0.123
438.8578	0.1259
439.0611	0.1318
439.2644	0.1326
439.4677	0.1259
439.671	0.1115
439.8743	0.1295
440.0775	0.1122
440.2808	0.1137
440.484	0.1151
440.6872	0.1195
440.8904	0.1045
441.0936	0.107
441.2967	0.0973
441.4999	0.0973
441.703	0.1088
441.9062	0.1041
442.1093	0.111
442.3124	0.0973
442.5155	0.1003
442.7185	0.0947
442.9216	0.0911
443.1246	0.09
443.3276	0.0967
443.5307	0.0792
443.7337	0.097
443.9366	0.0859
444.1396	0.0823
444.3426	0.084
444.5455	0.0836
444.7484	0.0859
444.9513	0.08
445.1542	0.0819
445.3571	0.08
445.56	0.071
445.7628	0.0744
445.9657	0.0763
446.1685	0.0745
446.3713	0.0802
446.5741	0.0764
446.7769	0.0751
446.9797	0.0788
447.1824	0.0664
447.3852	0.0546
447.5879	0.0566
447.7906	0.0663
447.9933	0.0704
448.196	0.0588
448.3986	0.063
448.6013	0.056
448.8039	0.0661
449.0066	0.0693
449.2092	0.0674
449.4118	0.0565
449.6143	0.058
449.8169	0.0546
450.0195	0.0564
450.222	0.059
450.4245	0.0537
450.627	0.0425
450.8295	0.0496
451.032	0.0493
451.2345	0.0489
451.4369	0.0496
451.6394	0.0482
451.8418	0.0493
452.0442	0.0481
452.2466	0.0387
452.449	0.0459
452.6513	0.0411
452.8537	0.0304
453.056	0.0428
453.2583	0.0417
453.4607	0.0326
453.663	0.0398
453.8652	0.0356
454.0675	0.05
454.2697	0.0401
454.472	0.0278
454.6742	0.0389
454.8764	0.0322
455.0786	0.0349
455.2808	0.0334
455.4829	0.0436
455.6851	0.034
455.8872	0.0274
456.0893	0.0326
456.2915	0.0239
456.4935	0.0394
456.6956	0.0284
456.8977	0.028
457.0997	0.033
457.3018	0.0257
457.5038	0.0333
457.7058	0.0358
457.9078	0.0338
458.1098	0.0369
458.3117	0.0299
458.5137	0.014
458.7156	0.0281
458.9175	0.0274
459.1194	0.0264
459.3213	0.0256
459.5232	0.0212
459.725	0.0246
459.9269	0.0286
460.1287	0.0186
460.3305	0.0306
460.5323	0.021
460.7341	0.0264
460.9359	0.0145
461.1376	0.0188
461.3394	0.0209
461.5411	0.0242
461.7428	0.0237
461.9445	0.0142
462.1462	0.0233
462.3479	0.0183
462.5495	0.0219
462.7512	0.0291
462.9528	0.0214
463.1544	0.0228
463.356	0.0127
463.5576	0.0256
463.7592	0.0196
463.9607	0.0187
464.1623	0.0209
464.3638	0.0182
464.5653	0.0212
464.7668	0.0179
464.9683	0.0175
465.1697	0.0223
465.3712	0.0077
465.5726	0.0157
465.7741	0.0219
465.9755	0.0198
466.1769	0.0146
466.3782	0.0145
466.5796	0.0166
466.7809	0.0227
466.9823	0.0148
467.1836	0.0141
467.3849	0.0127
467.5862	0.0118
467.7875	0.0067
467.9887	0.0091
468.19	0.0167
468.3912	0.0191
468.5924	0.0167
468.7936	0.0201
468.9948	0.0092
469.196	0.007
469.3972	0.0001
469.5983	0.0119
469.7994	0.0213
470.0006	0.0164
470.2017	0.0169
470.4027	0.0224
470.6038	0.0098
470.8049	0.017
471.0059	0.0182
471.2069	0.0178
471.408	0.0149
471.6089	0.0201
471.8099	0.0068
472.0109	0.0121
472.2119	0.0219
472.4128	0.0056
472.6137	0.0166
472.8146	0.0061
473.0155	0.0208
473.2164	0.015
473.4173	0.0077
473.6181	0.0033
473.819	0.0294
474.0198	0.011
474.2206	0.0035
474.4214	0.015
474.6222	0.0042
474.8229	0.0106
475.0237	0.0125
475.2244	0.0148
475.4251	0.0081
475.6258	0.01
475.8265	0.0092
476.0272	0.0064
476.2278	0.006
476.4285	0.012
476.6291	0.0179
476.8297	0.0161
477.0303	0.0097
477.2309	0.0032
477.4315	0.0065
477.632	0.0034
477.8326	0.0045
478.0331	0.0126
478.2336	0.0072
478.4341	0.0164
478.6346	0.0142
478.8351	0.0055
479.0355	0.0154
479.236	0.0225
479.4364	0.0127
479.6368	0.0093
479.8372	0.0086
480.0376	0.0129
480.2379	0.0132
480.4383	0.0139
480.6386	0.0012
480.8389	0.01
481.0392	0.0086
481.2395	0.0108
481.4398	0.0101
481.6401	0.0133
481.8403	0.0088
482.0405	0.0114
482.2408	0.0137
482.441	0.0132
482.6411	0.0091
482.8413	0.0013
483.0415	0.0121
483.2416	0.0106
483.4417	0.0108
483.6419	0.0009
483.8419	0.0064
484.042	0.01
484.2421	-0.0029
484.4422	0.0137
484.6422	0.0043
484.8422	0.0105
485.0422	0.0071
485.2422	0.0054
485.4422	0.0069
485.6422	0.0037
485.8421	0.0107
486.042	0.0141
486.242	0.0056
486.4419	0.005
486.6417	0.0045
486.8416	0.0138
487.0415	0.0069
487.2413	0.0071
487.4411	0.0109
487.641	0.0076
487.8408	0.0111
488.0405	0.0216
488.2403	0.0003
488.4401	0.0139
488.6398	0.0188
488.8395	0.009
489.0392	0.0159
489.2389	0.0172
489.4386	0.0091
489.6383	0.015
489.8379	0.0135
490.0376	0.0198
490.2372	0.0106
490.4368	0.0071
490.6364	0.0003
490.836	0.0037
491.0355	0.0019
491.2351	0.0103
491.4346	0.0063
491.6341	0.0048
491.8336	0.0092
492.0331	0.0055
492.2326	0.0082
492.432	0.0137
492.6315	0.0172
492.8309	0.0164
493.0303	0.0142
493.2297	0.0169
493.4291	0.0147
493.6284	0.0093
493.8278	0.0123
494.0271	0.0156
494.2264	0.0031
494.4257	0.0126
494.625	0.0102
494.8243	-0.0019
495.0236	0.0063
495.2228	0.016
495.422	0.0078
495.6213	0.0102
495.8205	0.0052
496.0196	0.0127
496.2188	0.0108
496.418	0.0082
496.6171	0.0036
496.8162	0.0126
497.0153	0.0089
497.2144	0.0096
497.4135	0.0088
497.6126	0.0046
497.8116	0.0003
498.0107	0.0025
498.2097	0.0192
498.4087	0.0094
498.6077	0.0002
498.8067	0.0066
499.0056	0.0022
499.2046	0.0079
499.4035	0.0122
499.6024	-0.0053
499.8013	0.0131
500.0002	0.0104
500.199	0.0134
500.3979	-0.0013
500.5967	0.0061
500.7956	0.0058
500.9944	0.0108
501.1932	0.0149
501.3919	0.0171
501.5907	0.0114
501.7895	0.0113
501.9882	0.0089
502.1869	0.0104
502.3856	0.01
502.5843	0.0141
502.783	0.0059
502.9816	0.0136
503.1803	0.0086
503.3789	0.0211
503.5775	0.0033
503.7761	0.004
503.9747	0.0116
504.1732	0.0022
504.3718	0.015
504.5703	0.0109
504.7689	0.004
504.9674	0.0163
505.1658	0.0107
505.3643	0.0178
505.5628	0.0136
505.7612	0.0095
505.9597	0.0022
506.1581	0.0004
506.3565	0.0021
506.5549	0.0061
506.7532	0.0063
506.9516	0.0119
507.1499	0.0055
507.3482	0.0105
507.5465	0.0146
507.7448	0.0109
507.9431	0.0074
508.1414	0.0024
508.3396	0.0095
508.5379	0.0085
508.7361	0.0139
508.9343	0.0042
509.1325	0.0206
509.3306	0.0022
509.5288	0.0001
509.7269	0.0137
509.9251	0.0089
510.1232	0.0143
510.3213	0.0059
510.5193	0.0079
510.7174	0.012
510.9154	0.0143
511.1135	0.0114
511.3115	0.0089
511.5095	0.0104
511.7075	0.0128
511.9055	0.0196
512.1034	0.0114
512.3014	0.0066
512.4993	0.0232
512.6972	0.0088
512.8951	0.0134
513.093	0.0114
513.2908	0.0251
513.4887	-0.0001
513.6865	0.0136
513.8844	0.0178
514.0822	0.0159
514.2799	0.0055
514.4777	0.0005
514.6755	0.0089
514.8732	0.0138
515.0709	0.0121
515.2687	0.0125
515.4664	0.0162
515.664	0.0181
515.8617	0.0135
516.0594	0.0108
516.257	0.0066
516.4546	0.024
516.6522	0.0073
516.8498	0.0023
517.0474	0.0233
517.2449	0.0103
517.4425	0.0162
517.64	0.0148
517.8375	0.0162
518.035	0.0136
518.2325	0.0117
518.43	0.0072
518.6274	0.0089
518.8249	0.0031
519.0223	0.0212
519.2197	0.0039
519.4171	-0.0019
519.6145	0.0014
519.8118	-0.006
520.0092	0.0091
520.2065	0.0226
520.4038	0.0074
520.6011	0.0136
520.7984	0.0132
520.9956	0.0168
521.1929	0.014
521.3901	0.0107
521.5874	0.0157
521.7846	0.0098
521.9818	0.0103
522.1789	-0.0012
522.3761	0.0292
522.5732	0.0129
522.7704	-0.0048
522.9675	-0.0024
523.1646	0.0071
523.3617	0.0187
523.5587	0.0063
523.7558	0.0137
523.9528	0.0183
524.1498	0.0146
524.3468	0.0099
524.5438	0.0065
524.7408	0.0076
524.9378	0.0199
525.1347	0.0155
525.3316	0.0111
525.5285	0.011
525.7254	0.0211
525.9223	0.0138
526.1192	0.0126
526.316	0.0131
526.5129	0.0158
526.7097	0.0065
526.9065	0.0149
527.1033	0.014
527.3	0.0122
527.4968	0.015
527.6935	-0.0034
527.8903	0.0133
528.087	0.0051
528.2837	0.0118
528.4804	0.0019
528.677	0.0112
528.8737	0.0084
529.0703	0.008
529.2669	0.0123
529.4635	0.0087
529.6601	-0.0024
529.8567	0.0068
530.0532	0.0074
530.2498	0.0049
530.4463	-0.0067
530.6428	0.0118
530.8393	0.0223
531.0358	0.0178
531.2322	0.0131
531.4287	0.0004
531.6251	-0.0103
531.8215	0.0041
532.0179	0.0137
532.2143	0.0044
532.4107	0.0242
532.607	0.0112
532.8034	0.0036
532.9997	0.01
533.196	0.0052
533.3923	0.0171
533.5886	0.0117
533.7848	0.0061
533.9811	0.0123
534.1773	0.0098
534.3735	0.015
534.5697	0.0117
534.7659	0.0068
534.9621	0.0186
535.1582	0.0064
535.3544	0.0084
535.5505	0.0111
535.7466	0.0193
535.9427	0.0173
536.1387	0.0048
536.3348	0.0065
536.5308	0.0148
536.7269	0.005
536.9229	0.0129
537.1189	0.0233
537.3148	0.002
537.5108	0.0103
537.7068	0.0215
537.9027	-0.0003
538.0986	0.0129
538.2945	0.0024
538.4904	0.0005
538.6863	0.0037
538.8821	0.0178
539.078	0.0023
539.2738	0.014
539.4696	0.0026
539.6654	0.0116
539.8611	0.0106
540.0569	0.012
540.2526	0.0168
540.4484	-0.0039
540.6441	0.0155
540.8398	0.013
541.0355	-0.0056
541.2311	0.0152
541.4268	0.0144
541.6224	0.0176
541.818	0.018
542.0136	0.0164
542.2092	0.0157
542.4048	0.005
542.6003	0.0065
542.7959	0.0087
542.9914	0.0127
543.1869	0.0028
543.3824	0.0114
543.5779	0.0085
543.7734	0.0249
543.9688	0.0053
544.1642	0.0053
544.3596	0.0204
544.555	0.0105
544.7504	0.0193
544.9458	0.0077
545.1411	0.0075
545.3365	0.0056
545.5318	0.0017
545.7271	0.0111
545.9224	0.0082
546.1177	0.0187
546.3129	0.0121
546.5081	0.01
546.7034	0.0109
546.8986	0.0078
547.0938	0.0169
547.289	0.01
547.4841	0.0043
547.6793	0.0071
547.8744	0.0098
548.0695	0.009
548.2646	0.0188
548.4597	0.0042
548.6548	0.0221
548.8498	0.0205
549.0448	0.0065
549.2399	0.0202
549.4349	0.0138
549.6298	0.0156
549.8248	0.0071
550.0198	0.0077
550.2147	0.0079
550.4096	0.0025
550.6045	0.0027
550.7994	0.0202
550.9943	0.0203
551.1892	-0.0025
551.384	0.013
551.5788	0.0077
551.7737	0.0034
551.9685	0.017
552.1632	0.0063
552.358	0.008
552.5528	0.0047
552.7475	0.0012
552.9422	0.012
553.1369	0.0135
553.3316	0.0132
553.5263	0.0136
553.7209	0.0106
553.9156	0.0158
554.1102	-0.0016
554.3048	0.0006
554.4994	0.0087
554.694	0.0004
554.8885	0.0167
555.0831	0.0176
555.2776	0.0121
555.4721	0.0121
555.6666	0.0093
555.8611	0.0113
556.0555	0.0093
556.25	0.0224
556.4444	0.0033
556.6388	0.0045
556.8332	0.0194
557.0276	0.0147
557.222	0.0092
557.4163	0.0093
557.6107	0.0129
557.805	0.0005
557.9993	0.01
558.1936	-0.0045
558.3879	0.0122
558.5821	0.0107
558.7764	-0.0016
558.9706	0.01
559.1648	0.0132
559.359	-0.0018
559.5532	0.0112
559.7473	0.0105
559.9415	0.011
560.1356	0.0166
560.3297	0.0024
560.5238	0.0097
560.7179	0.0023
560.9119	0.0081
561.106	0.0001
561.3	0.0064
561.494	-0.002
561.688	0.0042
561.882	0.0034
562.076	0.0081
562.2699	0.0212
562.4639	0.017
562.6578	0.017
562.8517	0.0089
563.0456	0.0081
563.2395	0.0153
563.4333	0.011
563.6272	0.0086
563.821	0.0059
564.0148	0.0065
564.2086	0.0045
564.4024	0.0125
564.5961	0.0148
564.7899	0.0154
564.9836	0.006
565.1773	0.023
565.371	0.0026
565.5647	0.0135
565.7584	0.0191
565.952	0.0088
566.1456	0.0133
566.3393	0.0123
566.5329	0.0065
566.7264	0.0126
566.92	0.0086
567.1136	0.0121
567.3071	-0.003
567.5006	0.0116
567.6941	0.0068
567.8876	0.0048
568.0811	0.0245
568.2745	-0.0023
568.468	0.0092
568.6614	0.0172
568.8548	0.0093
569.0482	0.0111
569.2416	0.0098
569.4349	0.0079
569.6283	0.0045
569.8216	0.0101
570.0149	0.0113
570.2082	0.0142
570.4015	0.0101
570.5947	0.011
570.788	0.013
570.9812	0.0071
571.1744	0.0083
571.3676	0.0076
571.5608	0.0072
571.754	0.0161
571.9471	0.014
572.1402	0.0086
572.3333	0.0076
572.5264	0.0111
572.7195	0.0042
572.9126	0.0093
573.1057	0.0083
573.2987	0.0064
573.4917	0.0057
573.6847	0.0097
573.8777	0.0121
574.0707	0.0111
574.2636	0.0092
574.4566	0.008
574.6495	0.0048
574.8424	0.0105
575.0353	0.0147
575.2281	0.0118
575.421	0.006
575.6138	0.0056
575.8067	0.0103
575.9995	0.0086
576.1923	0.0121
576.385	0.0075
576.5778	0.0137
576.7706	0.0076
576.9633	0.0095
577.156	0.0008
577.3487	0.0062
577.5414	0.0082
577.734	0.0066
577.9267	0.0106
578.1193	0.0103
578.3119	0.0073
578.5045	0.0095
578.6971	0.0064
578.8897	0.007
579.0822	0.01
579.2747	0.0102
579.4673	0.0056
579.6598	0.0102
579.8522	0.0086
580.0447	0.009
580.2372	0.011
580.4296	0.0115
580.622	0.0031
580.8144	0.0075
581.0068	0.0068
581.1992	0.0087
581.3915	0.0007
581.5839	0.0065
581.7762	0.0072
581.9685	0.0097
582.1608	0.0096
582.353	0.0081
582.5453	0.0082
582.7375	0.0099
582.9298	0.0029
583.122	-0.0006
583.3142	0.0135
583.5063	0.0053
583.6985	0.0021
583.8906	0.0084
584.0827	0.0088
584.2749	0.0072
584.4669	0.0087
584.659	0.0073
584.8511	0.0134
585.0431	0.0135
585.2352	0.0098
585.4272	0.0097
585.6192	0.0081
585.8111	0.0025
586.0031	0.0043
586.195	0.0048
586.387	0.0069
586.5789	0.0105
586.7708	0.0146
586.9627	0.0113
587.1545	0.0099
587.3464	0.0094
587.5382	0.0042
587.73	0.0139
587.9218	0.0069
588.1136	0.0041
588.3053	0.0056
588.4971	0.0054
588.6888	0.0067
588.8805	0.0079
589.0722	0.0113
589.2639	0.0065
589.4556	0.0104
589.6472	0.0188
589.8389	0.0061
590.0305	0.0029
590.2221	0.0065
590.4137	0.0083
590.6052	0.0117
590.7968	0.0056
590.9883	0.0087
591.1798	0.0098
591.3713	0.0092
591.5628	0.0057
591.7543	0.01
591.9458	0.0092
592.1372	0.0049
592.3286	0.0093
592.52	0.0086
592.7114	0.0057
592.9028	0.0107
593.0941	0.0053
593.2855	0.0029
593.4768	0.0135
593.6681	0.0127
593.8594	0.008
594.0506	0.0058
594.2419	0.004
594.4331	0.0066
594.6244	0.0056
594.8156	0.0059
595.0067	0.0036
595.1979	0.0011
595.3891	0.0087
595.5802	0.0109
595.7713	0.0102
595.9624	0.011
596.1535	0.0092
596.3446	0.0089
596.5357	0.0134
596.7267	0.0093
596.9177	0.0053
597.1087	-0.0016
597.2997	0.0092
597.4907	0.0106
597.6817	0.0115
597.8726	0.0146
598.0635	0.0063
598.2544	0.0107
598.4453	0.0097
598.6362	0.0079
598.827	0.0057
599.0179	0.0075
599.2087	0.0127
599.3995	0.0117
599.5903	0.0138
599.7811	0.0101
599.9718	0.0095
600.1626	0.0037
600.3533	0.0109
600.544	0.0032
600.7347	0.0123
600.9254	0.0123
601.116	0.0079
601.3067	0.0084
601.4973	0.0146
601.6879	0.0084
601.8785	0.012
602.0691	0.0062
602.2596	0.0116
602.4502	0.0102
602.6407	0.0091
602.8312	0.0064
603.0217	0.0057
603.2122	0.0115
603.4027	0.0094
603.5931	0.0062
603.7835	0.0087
603.9739	0.004
604.1643	0.01
604.3547	0.0131
604.5451	0.013
604.7354	0
604.9257	0.0058
605.116	0.0036
605.3063	0.0118
605.4966	0.0114
605.6869	0.0149
605.8771	0.0036
606.0673	0.0068
606.2575	0.0078
606.4477	0.0133
606.6379	0.004
606.8281	0.0112
607.0182	0.0062
607.2083	0.0039
607.3985	0.0155
607.5885	0.0108
607.7786	0.0098
607.9687	0.0085
608.1587	0.0129
608.3488	0.0074
608.5388	0.008
608.7288	0.0054
608.9187	0.0067
609.1087	0.0146
609.2986	0.0194
609.4886	0.0021
609.6785	0.0136
609.8684	0.0004
610.0582	0.0063
610.2481	0.0022
610.4379	0.0107
610.6278	0.0054
610.8176	0.0074
611.0074	0.0088
611.1971	0.01
611.3869	0.0155
611.5766	0.0011
611.7664	0.0143
611.9561	0.013
612.1458	0.0102
612.3354	0.0102
612.5251	0.0056
612.7147	0.0101
612.9044	-0.0013
613.094	0.0081
613.2836	0.0066
613.4731	0.0042
613.6627	0.0129
613.8522	0.0052
614.0417	0.0085
614.2313	0.0017
614.4207	0.0126
614.6102	0.0106
614.7997	0.0144
614.9891	0.014
615.1785	0.0014
615.3679	0.0127
615.5573	0.0088
615.7467	0.0045
615.9361	0.014
616.1254	0.0123
616.3147	0.0117
616.504	0.0107
616.6933	0.006
616.8826	0.0064
617.0718	0.0196
617.2611	0.0091
617.4503	-0.0038
617.6395	0.0081
617.8287	0.0098
618.0179	0.0128
618.207	0.0105
618.3961	0.005
618.5853	0.0077
618.7744	0.008
618.9634	0.0061
619.1525	0.0066
619.3416	0.0034
619.5306	0.0058
619.7196	0.0125
619.9086	0.0024
620.0976	-0.0021
620.2866	0.006
620.4755	0.0035
620.6645	0.0192
620.8534	0.0074
621.0423	0.0039
621.2312	0.0037
621.42	0.0074
621.6089	0.0034
621.7977	0.012
621.9865	0.0006
622.1753	0.0018
622.3641	-0.0012
622.5529	-0.0017
622.7416	0.0055
622.9303	0.0058
623.1191	0.0051
623.3078	0.0166
623.4964	0.0082
623.6851	0.0157
623.8737	0.0044
624.0624	-0.0034
624.251	0.0126
624.4396	0.011
624.6282	0.0161
624.8167	0.0049
625.0053	0.0145
625.1938	0.0013
625.3823	0.0143
625.5708	0.01
625.7593	0.0038
625.9477	0.0144
626.1362	0.0016
626.3246	0.009
626.513	0.0184
626.7014	0.0114
626.8898	0.0078
627.0781	0.0126
627.2665	0.0101
627.4548	-0.0079
627.6431	0.0185
627.8314	0.0268
628.0197	0.0193
628.2079	0.0032
628.3962	0.0166
628.5844	0.0156
628.7726	0.0086
628.9608	0.0102
629.1489	0.0115
629.3371	0.0036
629.5252	0.0086
629.7134	-0.0085
629.9015	0.0126
630.0895	0.0043
630.2776	0.0085
630.4657	0.0164
630.6537	0.0104
630.8417	-0.0033
631.0297	-0.0017
631.2177	0.0114
631.4057	-0.0013
631.5936	-0.0008
631.7815	0.0044
631.9695	0.0194
632.1574	0.0046
632.3452	0.0237
632.5331	0.0094
632.7209	0.0206
632.9088	0.0086
633.0966	0.0201
633.2844	0.012
633.4722	0.0097
633.6599	0.0226
633.8477	-0.0011
634.0354	0.0088
634.2231	-0.0031
634.4108	0.0009
634.5985	0.0252
634.7861	0.0066
634.9738	-0.0216
635.1614	0.0079
635.349	0.0052
635.5366	0.0175
635.7242	-0.0009
635.9117	0.0121
636.0993	0.0151
636.2868	-0.006
636.4743	0.007
636.6618	-0.0138
636.8492	0.0165
637.0367	-0.002
637.2241	0.0007
637.4115	0.0168
637.5989	0.0021
637.7863	0.0332
637.9737	0.0157
638.161	0.0114
638.3484	-0.0101
638.5357	-0.0002
638.723	0.0114
638.9103	-0.014
639.0975	-0.0011
639.2848	0.0165
639.472	0.0096
639.6592	-0.0033
639.8464	0.0075
640.0336	0.0088
640.2208	0.0145
640.4079	0.0123
640.595	-0.0063
640.7821	0.0247
640.9692	0.0122
641.1563	0.0168
641.3434	0.0039
641.5304	0.0165
641.7174	0.0097
641.9044	0.0188
642.0914	0.0258
642.2784	-0.0073
642.4653	0.0046
642.6523	0.0149
642.8392	0.009
643.0261	0.014
643.213	0.0018
643.3999	0.0095
643.5867	0.0153
643.7735	0.0068
643.9604	0.0108
644.1472	0.0234
644.3339	0.0124
644.5207	0.0085
644.7075	0.0014
644.8942	0.0069
645.0809	0.0093
645.2676	-0.0034
645.4543	0.0145
645.6409	0.0189
645.8276	0.0327
646.0142	-0.0019
646.2008	0.0099
646.3874	-0.0008
646.574	-0.0107
646.7605	0.0008
646.9471	-0.0071
647.1336	-0.0073
647.3201	0.018
647.5066	-0.0031
647.6931	0.0084
647.8795	0.0021
648.0659	0.0108
648.2524	0.0101
648.4388	0.0185
648.6252	0.0036
648.8115	0.0012
648.9979	0.0039
649.1842	0.0098
649.3705	0.0136
649.5568	-0.0014
649.7431	-0.0075
649.9294	0.0021
650.1156	-0.017
650.3018	0.0113
650.488	0.009
650.6742	0.0064
650.8604	0.013
651.0466	-0.0068
651.2327	-0.0063
651.4188	-0.0027
651.6049	0.028
651.791	0.0045
651.9771	0.0041
652.1632	0.0092
652.3492	0.0004
652.5352	0.0175
652.7212	-0.0027
652.9072	0.0157
653.0932	0.0143
653.2791	0.0256
653.465	0.0069
653.651	0.0069
653.8369	0.0182
654.0227	0.0075
654.2086	0.0237
654.3944	0.0283
654.5803	0.0033
654.7661	0.0013
654.9519	0.0007
655.1377	-0
655.3234	-0
655.5092	-0
655.6949	-0
655.8806	-0
656.0663	-0
656.2519	-0
656.4376	-0
656.6232	-0
656.8088	-0
656.9945	-0
657.18	-0
657.3656	-0
657.5511	-0
657.7367	-0
657.9222	-0
658.1077	-0
658.2932	-0
658.4786	-0
658.6641	-0
658.8495	-0
659.0349	-0
659.2203	-0
659.4057	0.0241
659.591	0.3076
659.7764	0.0185
659.9617	0.01
660.147	0.0116
660.3323	0.0158
660.5176	0.0039
660.7028	-0.006
660.888	0.0134
661.0733	0.0165
661.2585	0.0012
661.4436	-0.001
661.6288	0.0411
661.8139	-0.0055
661.9991	-0.0119
662.1842	0.0042
662.3693	0.0061
662.5544	0.01
662.7394	0.0188
662.9245	0.0179
663.1095	0.0092
663.2945	0.002
663.4795	-0.0027
663.6644	0.0096
663.8494	0.0156
664.0343	0.0148
664.2193	0.0003
664.4042	0.0026
664.589	0.0165
664.7739	0.0193
664.9587	-0.0194
665.1436	0.0029
665.3284	0.0161
665.5132	-0.0162
665.698	0.0183
665.8827	0.0189
666.0675	-0.0038
666.2522	0.0097
666.4369	-0.0074
666.6216	0.0145
666.8063	-0.0003
666.9909	0.0106
667.1756	-0.0178
667.3602	-0.0033
667.5448	0.0203
667.7294	0.0213
667.9139	0.0195
668.0985	0.0208
668.283	-0.002
668.4675	0.006
668.652	0.0144
668.8365	0.0118
669.0209	0.0283
669.2054	0.0159
669.3898	0.0144
669.5742	0.0468
669.7586	0.0193
669.943	0.0086
670.1273	0.0109
670.3117	0.008
670.496	0.0013
670.6803	-0.0107
670.8646	-0.0101
671.0488	0.0277
671.2331	-0.0162
671.4173	0.0177
671.6015	0.0029
671.7857	-0.0106
671.9699	0.0156
672.1541	0.0107
672.3382	0.0095
672.5223	0.0151
672.7064	0.0038
672.8905	0.0096
673.0746	0.0092
673.2587	0.0173
673.4427	0.0046
673.6267	0.0022
673.8107	0.0092
673.9947	0.0296
674.1787	-0.0021
674.3626	0.0076
674.5465	0.0093
674.7304	-0
674.9143	-0.0038
675.0982	0.0068
675.2821	-0.004
675.4659	-0.0175
675.6497	0.0009
675.8335	0.014
676.0173	-0.0076
676.2011	0.0036
676.3849	-0.0063
676.5686	0.0029
676.7523	0.002
676.936	-0.0044
677.1197	-0.0074
677.3034	0.0374
677.487	0.0033
677.6706	0.002
677.8542	0.0041
678.0378	0.0154
678.2214	0.0046
678.405	-0.0046
678.5885	0.0219
678.772	0.0212
678.9555	0.0048
679.139	0.0004
679.3225	0.007
679.5059	0.0006
679.6894	0.0097
679.8728	0.0056
680.0562	0.0103
680.2395	0.0019
680.4229	-0.0032
680.6062	0.0144
680.7896	0.0066
680.9729	0.0166
681.1562	0.0177
681.3394	0.0084
681.5227	-0.0079
681.7059	0.0221
681.8891	0.0272
682.0723	-0.0021
682.2555	0.0139
682.4387	0.0174
682.6218	0.006
682.805	0.0055
682.9881	0.0265
683.1712	0.0054
683.3542	0.0234
683.5373	-0.0021
683.7203	0.011
683.9034	0.0002
684.0864	0.0037
684.2694	0.0062
684.4523	0.0098
684.6353	0.0093
684.8182	0.0084
685.0011	0.0136
685.184	0.0205
685.3669	0.0126
685.5498	-0.0002
685.7326	-0.0024
685.9154	0.005
686.0982	0.008
686.281	0.0048
686.4638	0.0138
686.6465	0.0069
686.8293	-0.0091
687.012	0.0029
687.1947	0.0157
687.3774	0.018
687.56	0.0024
687.7427	0.0257
687.9253	-0.0149
688.1079	-0
688.2905	0.0015
688.4731	0.0226
688.6556	0.0048
688.8382	-0.0023
689.0207	0.0323
689.2032	0.0217
689.3857	-0.0032
689.5681	0.0089
689.7506	0.0321
689.933	-0.0052
690.1154	0.0323
690.2978	0.0153
690.4802	0.0232
690.6626	0.0142
690.8449	0.0212
691.0272	-0.0074
691.2095	-0.008
691.3918	0.0112
691.5741	0.0185
691.7563	0.0161
691.9386	0.0121
692.1208	0.0223
692.303	-0.0008
692.4852	0.0057
692.6673	0.0201
692.8495	0.0005
693.0316	0.0297
693.2137	0.0102
693.3958	0.0144
693.5778	0.0128
693.7599	-0.0007
693.9419	0.0021
694.1239	0.0059
694.3059	0.0217
694.4879	-0.0016
694.6699	0.0048
694.8518	0.0076
695.0337	0.0104
695.2157	0.0156
695.3975	0.0206
695.5794	-0.0074
695.7613	0.0133
695.9431	-0.0074
696.1249	0.0189
696.3067	-0.0065
696.4885	0.0231
696.6703	0.0053
696.852	0.0104
697.0337	0.0076
697.2154	0.0056
697.3971	-0.0004
697.5788	0.01
697.7605	0.0105
697.9421	0.0206
698.1237	0.0194
698.3053	0.0045
698.4869	0.0081
698.6685	0.0045
698.85	0.0103
699.0315	-0.0225
699.213	0.0181
699.3945	0.0055
699.576	0.0086
699.7575	0.0309
699.9389	0.0051
700.1203	0.0121
700.3017	0.0115
700.4831	0.0287
700.6645	0.0015
700.8458	-0.0024
701.0271	0.0326
701.2084	0.0324
701.3897	0.0337
701.571	-0.0134
701.7523	0.0052
701.9335	0.0022
702.1147	0.0149
702.2959	0.0003
702.4771	0.0003
702.6583	-0.0134
702.8394	-0.0123
703.0205	0.0233
703.2016	-0.0197
703.3827	-0.0188
703.5638	0.0123
703.7449	0.0166
703.9259	0.0117
704.1069	-0.0316
704.2879	0.0333
704.4689	0.0026
704.6499	0.02
704.8308	0.0103
705.0117	0.0098
705.1927	0.0035
705.3735	-0.0067
705.5544	0.0123
705.7353	0.0076
705.9161	-0.0136
706.0969	0.0185
706.2777	0.0088
706.4585	-0.0026
706.6393	0.0222
706.82	0.0052
707.0007	-0.0046
707.1815	0.0044
707.3621	0.0325
707.5428	0.01
707.7235	-0
707.9041	0.0133
708.0847	0.0076
708.2653	0.0307
708.4459	0.0069
708.6265	-0.0033
708.807	0.0289
708.9875	0.0007
709.168	0.0068
709.3485	0.0171
709.529	0.0097
709.7095	0.0048
709.8899	0.0194
710.0703	0.0252
710.2507	-0.0049
710.4311	-0.0303
710.6115	0.0307
710.7918	0.0157
710.9721	0.0246
711.1524	-0.0227
711.3327	-0.0177
711.513	0.0016
711.6932	0.0004
711.8735	-0.0055
712.0537	0.0116
712.2339	0.002
712.4141	0.029
712.5942	-0.0036
712.7744	0.0294
712.9545	0.0209
713.1346	0.0316
713.3147	0.0276
713.4947	-0.0011
713.6748	0.0053
713.8548	0.044
714.0348	0.0149
714.2148	0.0412
714.3948	-0.0006
714.5748	0.0202
714.7547	0.0063
714.9346	0.0333
715.1145	0.0155
715.2944	-0.0335
715.4743	0.0233
715.6541	-0.0254
715.834	0.0423
716.0138	0.03
716.1936	-0.0391
716.3733	0.005
716.5531	0.0125
716.7328	0.0084
716.9126	0.0377
717.0923	-0.0143
717.2719	0.0195
717.4516	0.0012
717.6312	0.0068
717.8109	0.0167
717.9905	0.0135
718.1701	0.0187
718.3496	0.0059
718.5292	0.0114
718.7087	-0.0037
718.8882	0.0089
719.0677	-0.0011
719.2472	-0.0296
719.4267	0.0323
719.6061	-0.0102
719.7856	0.0303
719.965	0.012
720.1443	-0.0051
720.3237	0.0153
720.5031	-0.0102
720.6824	-0.0038
720.8617	-0.0093
721.041	0.0279
721.2203	-0.0368
721.3995	-0.0121
721.5788	-0.0128
721.758	-0.007
721.9372	0.004
722.1164	-0.011
722.2956	0.0098
722.4747	0.0341
722.6538	0.0203
722.8329	0.0424
723.012	-0.0067
723.1911	0.0017
723.3702	0.0174
723.5492	0.0009
723.7282	-0.0085
723.9072	-0.003
724.0862	0.0036
724.2652	0.027
724.4441	0.0107
724.623	0.0038
724.8019	-0.0071
724.9808	0.0366
725.1597	0.0014
725.3385	0.013
725.5174	0.0072
725.6962	0.0003
725.875	0.0037
726.0538	0.0198
726.2325	0.0396
726.4112	-0.0183
726.59	-0.0023
726.7687	-0.0198
726.9474	0.0032
727.126	0.0218
727.3047	-0.0155
727.4833	0.0049
727.6619	-0.024
727.8405	-0.0131
728.0191	0.0017
728.1976	-0.0042
728.3762	0.0383
728.5547	-0.0118
728.7332	0.0285
728.9116	0.0041
729.0901	0.0236
729.2686	-0.0059
729.447	-0.0022
729.6254	0.0006
729.8038	0.0102
729.9821	-0.0081
730.1605	0.0194
730.3388	0.001
730.5171	0.0143
730.6954	-0.0015
730.8737	0.0041
731.0519	-0.0181
731.2302	0.0126
731.4084	-0.0071
731.5866	0.0117
731.7648	0.0006
731.9429	0.0079
732.1211	0.0024
732.2992	-0.0091
732.4773	0.0272
732.6554	-0.012
732.8335	0.0088
733.0115	0.0066
733.1896	-0.0069
733.3676	0.0251
733.5456	-0.0072
733.7235	-0.0118
733.9015	0.0066
734.0794	-0.0011
734.2574	-0.0052
734.4353	0.0266
734.6131	-0.0064
734.791	0.0039
734.9689	0.0095
735.1467	-0.0302
735.3245	0.0164
735.5023	0.0082
735.68	0.0102
735.8578	0.0016
736.0355	0.0116
736.2132	0.0067
736.3909	0.011
736.5686	0.0011
736.7463	-0.0223
736.9239	0.0178
737.1015	0.0114
737.2791	-0.0044
737.4567	-0.0066
737.6343	-0.0018
737.8118	0.0176
737.9894	0.0078
738.1669	0.0007
738.3444	0.0355
738.5218	-0.0112
738.6993	0.0205
738.8767	0.0152
739.0541	0.0114
739.2315	0.004
739.4089	0.0343
739.5863	-0.001
739.7636	0.0073
739.9409	-0.0036
740.1182	-0.0019
740.2955	0.0199
740.4728	-0.017
740.65	-0.0306
740.8272	0.0331
741.0044	0.0016
741.1816	0.0352
741.3588	-0.0211
741.5359	-0.0089
741.7131	0.0162
741.8902	0.0021
742.0673	0.0025
742.2444	0.0155
742.4214	0.0162
742.5985	-0.0103
742.7755	-0.006
742.9525	-0.0248
743.1295	-0.0235
743.3064	0.0184
743.4834	0.0219
743.6603	0.0246
743.8372	-0.0448
744.0141	0.0381
744.191	0.029
744.3678	-0.0149
744.5446	0.0091
744.7215	0.0063
744.8982	0.014
745.075	0.0298
745.2518	0.011
745.4285	0.0104
745.6052	-0.0039
745.7819	0.0259
745.9586	-0.0014
746.1353	-0.016
746.3119	0.0134
746.4885	0.0664
746.6651	-0.0111
746.8417	0.0234
747.0183	0.0188
747.1948	0.007
747.3714	0.009
747.5479	0.0082
747.7244	-0.0373
747.9008	-0.0105
748.0773	0.0353
748.2537	0.0267
748.4301	0.0219
748.6065	-0.0233
748.7829	-0.0399
748.9593	-0.0011
749.1356	0.0164
749.3119	0.0048
749.4882	0.0232
749.6645	-0.0063
749.8408	0.0097
750.017	0.0108
750.1933	-0.0163
750.3695	0.0318
750.5457	-0.0137
750.7218	-0.011
750.898	0.0175
751.0741	0.0087
751.2502	0.0157
751.4263	0.0092
751.6024	0.0032
751.7784	0.0032
751.9545	0.0262
752.1305	0.0229
752.3065	-0.0046
752.4825	-0.0071
752.6584	0.0135
752.8344	-0.0087
753.0103	0.0054
753.1862	0.0032
753.3621	-0.0042
753.5379	-0.003
753.7138	0.0103
753.8896	0.0175
754.0654	-0.0047
754.2412	0.013
754.417	0.0024
754.5927	0.027
754.7685	0.0342
754.9442	0.0183
755.1199	0.007
755.2956	0.0003
755.4712	0.0158
755.6469	-0.0074
755.8225	0.0179
755.9981	0.0358
756.1736	0.017
756.3492	0.0064
756.5248	0.0133
756.7003	-0.0028
756.8758	0.0082
757.0513	-0.001
757.2267	0.0086
757.4022	-0.0041
757.5776	0.0046
757.753	0.008
757.9284	0.0175
758.1038	0.0373
758.2791	0.0195
758.4545	0.0167
758.6298	0.007
758.8051	0.0088
758.9803	0.0106
759.1556	-0.0059
759.3308	-0.0018
759.506	0.0069
759.6812	0.0019
759.8564	0.0032
760.0316	0.0085
760.2067	0.0233
760.3819	0.0067
760.557	0.0076
760.732	0.002
760.9071	0.0246
761.0821	-0.0084
761.2572	0.0175
761.4322	-0.012
761.6072	-0.0121
761.7821	-0.0188
761.9571	0.0281
762.132	-0.0094
762.3069	0.0238
762.4818	0.0004
762.6567	0.0092
762.8316	0.0242
763.0064	0.0243
763.1812	0.0165
763.356	-0.0118
763.5308	0.0286
763.7055	-0.0019
763.8803	0.0116
764.055	-0.0071
764.2297	-0.0016
764.4044	0.0121
764.579	0.0041
764.7537	-0.0061
764.9283	0.0107
765.1029	0.0256
765.2775	0.0121
765.4521	0.0082
765.6266	0.0082
765.8011	0.0237
765.9756	0.0139
766.1501	0.0089
766.3246	-0.0027
766.4991	0.0043
766.6735	0.0345
766.8479	0.0224
767.0223	0.0033
767.1967	-0.0062
767.371	-0
767.5454	-0.0042
767.7197	0.039
767.894	-0.0092
768.0683	0.0176
768.2425	-0.0063
768.4168	0.0064
768.591	-0
768.7652	-0.0082
768.9394	-0.022
769.1135	0.0163
769.2877	0.0063
769.4618	0.0307
769.6359	-0.0095
769.81	0.0159
769.984	0.0145
770.1581	0.0219
770.3321	0.0168
770.5061	0.0058
770.6801	-0
770.8541	-0.0122
771.028	0.0343
771.202	0.0283
771.3759	0.007
771.5498	0.0136
771.7236	-0
771.8975	0.0244
772.0713	0.023
772.2451	-0.026
772.4189	0.0174
772.5927	-0.0284
772.7665	0.0086
772.9402	0.0237
773.1139	-0.0205
773.2876	-0.0135
773.4613	0.042
773.635	0.0032
773.8086	0.0339
773.9822	0.0291
774.1558	0.0304
774.3294	0.0075
774.503	0.0271
774.6765	0.0075
774.8501	0.0021
775.0236	0.0268
775.1971	-0.0456
775.3705	0.0433
775.544	-0.0159
775.7174	0.0548
775.8908	0.0252
776.0642	0.005
776.2376	0.0456
776.4109	0.0113
776.5843	-0.0147
776.7576	-0.0166
776.9309	0.0402
777.1041	-0.0199
777.2774	-0.0304
777.4506	-0.0026
777.6238	-0.0017
777.797	0.0194
777.9702	0.027
778.1434	0.0334
778.3165	0.0012
778.4896	-0.0529
778.6627	0.0321
778.8358	0.0165
779.0089	-0.0042
779.1819	0.0603
779.3549	-0.0242
779.5279	-0.0096
779.7009	0.0221
779.8739	0.0305
780.0468	-0.0014
780.2197	0.0361
780.3926	-0.0065
780.5655	-0.024
780.7384	0.0073
780.9112	0.008
781.0841	0.0282
781.2569	0.0506
781.4297	-0.0036
781.6024	-0.0126
781.7752	0.0478
781.9479	0.0598
782.1206	-0.0063
782.2933	0.0197
782.466	0.0064
782.6386	-0.0152
782.8113	0.0029
782.9839	0.0323
783.1565	-0.0066
783.329	0.0064
783.5016	0.0443
783.6741	-0
783.8466	0.0378
784.0191	-0.0168
784.1916	-0.0312
784.3641	-0.002
784.5365	0.0457
784.7089	-0.0228
784.8813	0.0602
785.0537	0.0246
785.2261	0.0075
785.3984	-0.0306
785.5707	-0.0022
785.743	0.0232
785.9153	-0.0307
786.0876	-0.0053
786.2598	-0.0247
786.432	0.0015
786.6042	0.0363
786.7764	-0.0337
786.9486	0.007
787.1207	0.0209
787.2928	0.0625
787.4649	0.0019
787.637	-0.0023
787.8091	-0.0047
787.9811	-0.0011
788.1532	0.004
788.3252	-0.0041
788.4972	0.0308
788.6691	-0.0023
788.8411	-0.0136
789.013	0.0278
789.1849	-0.0167
789.3568	0.0235
789.5287	0.0543
789.7005	-0.0345
789.8723	-0.0368
790.0442	-0.0223
790.2159	-0.0488
790.3877	0.0219
790.5595	0.0357
790.7312	0.0279
790.9029	-0.0161
791.0746	0.015
791.2463	0.0264
791.4179	-0.0384
791.5896	0.0423
791.7612	0.0397
791.9328	-0.005
792.1044	0.0092
792.2759	-0.0524
792.4474	0.0338
792.619	-0.0056
792.7905	0.0584
792.9619	0.0158
793.1334	0.0233
793.3048	0.098
793.4762	0.0093
793.6476	-0.0117
793.819	0.0101
793.9904	-0.0125
794.1617	-0.0123
794.333	-0.0097
794.5043	0.0346
794.6756	0.0017
794.8469	-0.0102
795.0181	0.0246
795.1893	0.029
795.3605	0.0219
795.5317	0.0072
795.7029	-0.0285
795.874	0.0133
796.0452	0.036
796.2163	0.0616
796.3873	0.0351
796.5584	0.062
796.7294	-0.0232
796.9005	-0.013
797.0715	0.043
797.2425	0.0467
797.4134	0.0401
797.5844	0.054
797.7553	-0.0352
797.9262	0.0598
798.0971	0.0758
798.2679	-0.0437
798.4388	0.0629
798.6096	0.0153
798.7804	0.0874
798.9512	0.0106
799.122	0.0143
799.2927	0.0604
799.4635	-0.0621
799.6342	-0.0705
799.8049	0.0025
799.9755	-0.0206
800.1462	0.0598
800.3168	-0.0317
800.4874	-0.1002
800.658	0.0881
800.8286	0.0338
800.9991	-0.0031
801.1696	-0.0213
801.3402	-0.0079
801.5106	-0.0924
801.6811	0.0218
801.8516	0.0563
802.022	0.0076
802.1924	0.0748
802.3628	0.0389
802.5332	0.0379
802.7035	0.0363
802.8739	-0.0318
803.0442	-0.1085
803.2145	0.0218
803.3847	0.0928
803.555	-0.0039
803.7252	0.0429
803.8954	0.0377
804.0656	0.0185
804.2358	0.093
804.4059	0.0741
804.5761	-0.0681
804.7462	-0.0051
804.9163	0.0259
805.0864	-0.0171
805.2564	0.0193
805.4264	-0.0438
805.5965	0.0668
805.7665	0.0061
805.9364	0.0094
806.1064	0.0059
806.2763	0.0933
806.4462	0.0075
806.6161	0.0472
806.786	-0.0318
806.9559	0.1002
807.1257	-0.0461
807.2955	-0.0325
807.4653	-0.0398
807.6351	0.0477
807.8048	-0.0366
807.9746	-0
808.1443	0.0293
808.314	0.0443
808.4837	0.031
808.6533	-0.0258
808.8229	-0.0346
808.9926	0.0581
809.1622	0.0012
809.3317	-0.126
809.5013	0.013
809.6708	-0.0575
809.8403	-0
810.0098	-0.0035
810.1793	-0.0303
810.3488	-0.0491
810.5182	0.1105
810.6876	-0.0388
810.857	0.1044
811.0264	-0.0245
811.1958	0.0658
811.3651	0.0292
811.5344	0.0407
811.7037	0.0817
811.873	-0.0212
812.0422	-0.1494
812.2115	0.0314
812.3807	-0.1309
812.5499	-0.0513
812.7191	0.0973
812.8882	-0.0978
813.0574	-0
813.2265	0.0281
813.3956	-0.0062
813.5646	0.074
813.7337	0.0783
813.9027	-0.1068
814.0718	0.0321
814.2407	-0.0249
814.4097	0.03
814.5787	0.0881
814.7476	-0.0171
814.9165	0.0514
815.0854	0.0096
815.2543	0.071
815.4232	0.1054
815.592	0.0478
815.7608	-0.2618
815.9296	0.0229
816.0984	0.1161
816.2671	-0.2763
816.4359	0.0991
816.6046	-0.003
816.7733	-0.0201
816.942	-0.0644
817.1106	-0.085
817.2793	-0.0861
817.4479	-0.0634
817.6165	-0.0576
817.785	-0.0326
817.9536	-0.0546
818.1221	0.0321
818.2906	-0.1038
818.4591	0.0697
818.6276	-0.0144
818.7961	0.033
818.9645	-0.0271
819.1329	0.0171
819.3013	-0.1213
819.4697	-0.106
819.638	0.0376
819.8064	-0.0667
819.9747	-0.0285
820.143	-0.1687
820.3113	0.0292
820.4795	0.0972
820.6477	0.0977
820.816	0.0451
820.9842	0.0091
821.1523	-0.0269
821.3205	0.0403
821.4886	-0.0594
821.6567	-0.0347
821.8248	0.224
821.9929	-0.1932
822.1609	0.0102
822.329	0.0244
822.497	-0.0097
822.665	0.1672
822.833	-0.0255
823.0009	-0.0434
823.1688	0.4478
823.3367	-0.1115
823.5046	0.0551
823.6725	0.0634
823.8404	-0.0233
824.0082	-0.0771
824.176	-0.1217
824.3438	0.1265
824.5116	-0.0219
824.6793	-0.034
824.847	0.0178
825.0147	-0.0265
825.1824	0.216
825.3501	0.2166
825.5177	-0.0431
825.6854	0.0477
825.853	-0.0852
826.0206	-0.0279
826.1881	-0.0072
826.3557	-0.0035
826.5232	0.1831
826.6907	-0.0404
826.8582	-0.0561
827.0257	0.0989
827.1931	-0.064
827.3605	-0.1048
827.528	-0.0349
827.6953	-0.2483
827.8627	-0.0606
828.03	0.0025
828.1974	-0.0067
828.3647	0.0965
828.532	0.1211
828.6992	-0.0194
828.8665	-0.2423
829.0337	-0.0429
829.2009	-0.0192
829.3681	-0.0757
829.5352	-0.3652
829.7024	0.3589
829.8695	0.0566
830.0366	0.0531
830.2037	0.2235
830.3707	-0.0031
830.5378	-0.0109
830.7048	-0.1674
830.8718	-0.0252
831.0388	-0.1201
831.2057	0.0099
831.3727	0.0304
831.5396	-0.1832
831.7065	-0.9025
831.8734	0.1933
832.0402	0.1752
832.2071	-0.4994
832.3739	-0.3772
832.5407	-1.526
832.7075	-0.4812
832.8742	0.266
833.041	0.2699
833.2077	0.1803
833.3744	0.2906
833.541	-0.0646
833.7077	0.0674
833.8743	0.1485
834.0409	-0.0452
834.2075	0.1911
834.3741	-0.3297
834.5407	0.2109
834.7072	0.2059
834.8737	0.1713
835.0402	0.2751
835.2067	0.0565
835.3731	-0.1714
835.5395	-0.0489
835.706	-0
835.8723	-0.0286
836.0387	-0.0473
836.2051	-0.1607
836.3714	0.2283
836.5377	0.2241
836.704	-0.0221
836.8703	-0.1721
837.0365	-0.1017
837.2027	0.0596
837.3689	0.0103
837.5351	0.007
837.7013	-0.1775
837.8674	-0.6812
838.0335	0.0052
838.1997	-0.2612
838.3657	-0
838.5318	-0.2343
838.6978	-0
838.8639	-0.3173
839.0299	-0.129
839.1958	0.1935
839.3618	0.2679
839.5277	0.1588
839.6937	0.0801
839.8596	-0.0505
840.0254	-0.1043
840.1913	-0.4519
840.3571	-0.2504
840.523	-0
840.6888	0.1534
840.8545	-0.2768
841.0203	0.1589
841.186	-0.1893
841.3517	-0.1141
841.5174	-0.1268
841.6831	0.0482
841.8488	0.4674
842.0144	-0.1473
842.18	0.2216
842.3456	-0.3248
842.5112	-0
842.6767	-0.041
842.8422	-0.0289
843.0077	-0.0265
843.1732	-0.3547
843.3387	-0.3232
843.5042	-0.2463
843.6696	0.1023
843.835	0.247
844.0004	-0.1809
844.1657	-0
844.3311	-0
844.4964	-0.7872
844.6617	0.1668
844.827	-0
844.9923	0.2232
845.1575	0.6079
845.3227	0.2703
845.4879	-0.3543
845.6531	0.0911
845.8183	-0.1952
845.9834	0.2367
846.1485	0.2633
846.3136	0.0237
846.4787	-0
846.6438	-0.2079
846.8088	0.8209
846.9738	-0
847.1388	0.0486
847.3038	0.4357
847.4687	-0
847.6337	-0.6246
847.7986	-0.4153
847.9635	0.2357
848.1284	-0
848.2932	0.2455
848.458	-0
848.6228	0.3706
848.7876	-0
848.9524	0.0332
849.1172	-2.1614
849.2819	0.8953
849.4466	0.2155
849.6113	-0.1072
849.7759	-0
849.9406	-0
850.1052	-1.4779
850.2698	0.0257
850.4344	-0.8155
850.599	-0.1497
850.7635	1.5044
850.928	0.3587
851.0925	0.1403
851.257	-0.0383
851.4215	-0.1538
851.5859	0.0438
851.7503	-0
851.9147	-0.4445
852.0791	-0.0925
852.2434	0.2484
852.4078	0.2629
852.5721	0.2368
852.7364	0.1479
852.9007	-0.3241
853.0649	-0
853.2291	0.3144
853.3934	-0
853.5575	-0.2976
853.7217	0.2123
853.8859	-0
854.05	-0.6036
854.2141	1.2208
854.3782	0.4743
854.5423	-0.2544
854.7063	0.3341
854.8703	-0.2988
855.0343	-0.025
855.1983	0.2091
855.3623	0.2415
855.5262	0.5702
855.6901	0.6351
855.854	0.8029
856.0179	0.1488
856.1818	0.123
856.3456	0.2835
856.5094	-0.1994
856.6732	-0
856.837	-1.1853
857.0008	-0
857.1645	0.0468
857.3282	-0.5652
857.4919	-0.0445
857.6556	0.2205
857.8192	-0.1065
857.9828	-0.3894
858.1465	-0
858.31	-0.1804
858.4736	-0.578
858.6372	0.1053
858.8007	-0.3098
858.9642	0.6858
859.1277	0.2556
859.2911	-0.4848
859.4546	-0
859.618	-0.0533
859.7814	0.905
859.9448	-0
860.1081	-0
860.2715	-1.1139
860.4348	-0.0714
860.5981	0.3845
860.7614	-0.3088
860.9246	-0.4212
861.0879	-0.237
861.2511	-0
861.4143	-0.3203
861.5774	-0.0804
861.7406	0.4543
861.9037	0
862.0668	-0.7295
862.2299	-0.1832
862.393	-0
862.556	-0.4356
862.7191	-0.6175
862.8821	0.086
863.0451	0.8281
863.208	-0
863.371	-0.6052
863.5339	0.1218
863.6968	0.1522
863.8597	-0.2319
864.0225	-0
864.1854	-0
864.3482	-0.8075
864.511	0.2409
864.6737	-0
864.8365	1.9294
864.9992	0.2497
865.1619	0.2111
865.3246	-2.0179
865.4873	-0
865.65	1.3979
865.8126	1.1008
865.9752	0.0369
866.1378	-0.109
866.3004	-0.1832
866.4629	-1.3671
866.6254	0.0392
866.7879	-0.3357
866.9504	-0.4358
867.1129	-0.4225
867.2753	-0.3498
867.4377	0.187
867.6001	-0.7024
867.7625	-0.0317
867.9249	-0
868.0872	-0.0149
868.2495	0.7791
868.4118	-0
868.5741	-0.6956
868.7363	-0
868.8986	0.7739
869.0608	1.2587
869.223	-0.6197
869.3851	-0
869.5473	0.1779
869.7094	-0.0859
869.8715	-0.9452
870.0336	-0.0213
870.1957	-0
870.3577	0.2188
870.5197	-0.2101
870.6817	-0.768
870.8437	-0.0948
871.0057	0.2945
871.1676	0.4212
871.3295	-0
871.4914	-0
871.6533	-0.5662
871.8151	0.9419
871.977	-0.2635
872.1388	-0
872.3006	-0.4515
872.4623	-0
872.6241	1.8316
872.7858	-0
872.9475	0.1804
873.1092	-0.1101
873.2709	0.332
873.4325	-1.7335
873.5941	-0
873.7557	-0
873.9173	0.1575
874.0789	0.109
874.2404	-0.2281
874.4019	-0.2091
874.5634	-0
874.7249	0.0984
874.8863	-0
875.0478	-0.1823
875.2092	-0
875.3706	-0
875.5319	-0.3841
875.6933	0.1129
875.8546	-0.4551
876.0159	-0.1081
876.1772	-0.4264
876.3385	-0.0571
876.4997	0.5658
876.6609	-0.3399
876.8221	-0
876.9833	0.0406
877.1445	0.2987
877.3056	-0
877.4667	-0
877.6278	-0
877.7889	-0.1363
877.9499	0.105
878.111	-0.3216
878.272	-0.198
878.433	0.2396
878.5939	-0
878.7549	-0
878.9158	-0
879.0767	-0.0524
879.2376	-0.3248
879.3984	0.1703
879.5593	0.6165
879.7201	-0
879.8809	-0
880.0417	-0.3291
880.2024	-0.0903
880.3632	-0.6315
880.5239	0.6196
880.6846	-0.491
880.8452	-0
881.0059	-0
881.1665	-0.0904
881.3271	0.2371
881.4877	-0
881.6483	-0
881.8088	-0
881.9693	-0
882.1298	-0
882.2903	-0
