Data from D4ACN5uM420nmA_Absorbance_14-37-07-916.txt Node
Date: Fri Feb 21 14:37:07 GMT 2025
User: LASERRRRR
Spectrometer: FLMT03099
Trigger mode: 0
Integration Time (sec): 1.500000E-2
Scans to average: 1
Electric dark correction enabled: true
Nonlinearity correction enabled: false
Boxcar width: 0
XAxis mode: Wavelengths
Number of Pixels in Spectrum: 3648
>>>>>Begin Spectral Data<<<<<
179.3399	-0.5788
179.5586	-0.5788
179.7771	-0.5788
179.9957	-0.2367
180.2143	-1.3041
180.4329	0.5216
180.6514	-0
180.8699	-0.1197
181.0885	-0
181.307	-0.0699
181.5255	0.1888
181.744	0.2218
181.9625	0.4163
182.181	0.2705
182.3994	0.0356
182.6179	0.6217
182.8363	0.0171
183.0547	1.5329
183.2732	0.2192
183.4916	0.4656
183.71	0.1832
183.9284	0.0598
184.1467	0.1995
184.3651	0.2846
184.5835	0.1614
184.8018	0.1451
185.0201	0.4668
185.2385	0.2416
185.4568	0.2133
185.6751	0.2111
185.8934	0.3123
186.1117	-0.1205
186.3299	0.3322
186.5482	0.3893
186.7664	0.6983
186.9847	-0.0145
187.2029	0.5838
187.4211	0.2099
187.6393	0.2981
187.8575	0.2487
188.0757	1.1884
188.2939	0.1233
188.512	0.3101
188.7302	0.223
188.9483	0.3945
189.1665	1.23
189.3846	0.189
189.6027	0.548
189.8208	0.4867
190.0389	0.1958
190.257	0.2764
190.475	0.0355
190.6931	0.043
190.9111	0.0387
191.1292	0.1736
191.3472	0.0766
191.5652	0.351
191.7832	0.1297
192.0012	0.1862
192.2192	0.2086
192.4371	0.177
192.6551	0.119
192.873	0.1189
193.091	0.137
193.3089	0.1934
193.5268	0.3226
193.7447	0.0839
193.9626	0.2023
194.1805	0.3264
194.3984	0.2073
194.6162	0.2617
194.8341	0.3025
195.0519	0.2129
195.2697	0.2511
195.4875	0.3105
195.7054	0.1769
195.9231	0.2374
196.1409	0.3588
196.3587	0.2359
196.5765	0.3302
196.7942	0.2834
197.012	0.2984
197.2297	0.3464
197.4474	0.419
197.6651	0.2846
197.8828	0.3362
198.1005	0.3812
198.3182	0.3609
198.5358	0.3818
198.7535	0.3667
198.9711	0.4807
199.1888	0.3387
199.4064	0.4336
199.624	0.3294
199.8416	0.3482
200.0592	0.3697
200.2767	0.3598
200.4943	0.4351
200.7119	0.3814
200.9294	0.4328
201.1469	0.406
201.3645	0.4904
201.582	0.3625
201.7995	0.4049
202.017	0.3766
202.2344	0.4253
202.4519	0.3687
202.6694	0.3468
202.8868	0.3955
203.1042	0.403
203.3217	0.4015
203.5391	0.3852
203.7565	0.3757
203.9739	0.4024
204.1913	0.3282
204.4086	0.3427
204.626	0.3906
204.8433	0.3733
205.0607	0.3573
205.278	0.3322
205.4953	0.3468
205.7126	0.3529
205.9299	0.3181
206.1472	0.3098
206.3644	0.3675
206.5817	0.3111
206.7989	0.3449
207.0162	0.3419
207.2334	0.3406
207.4506	0.3295
207.6678	0.3271
207.885	0.3063
208.1022	0.3045
208.3194	0.2969
208.5365	0.2956
208.7537	0.2965
208.9708	0.3291
209.1879	0.2952
209.405	0.2856
209.6222	0.2691
209.8392	0.2942
210.0563	0.2885
210.2734	0.2595
210.4905	0.2728
210.7075	0.2647
210.9245	0.251
211.1416	0.2576
211.3586	0.2739
211.5756	0.2525
211.7926	0.2619
212.0096	0.2525
212.2265	0.2641
212.4435	0.2609
212.6604	0.2713
212.8774	0.2437
213.0943	0.2412
213.3112	0.2439
213.5281	0.2644
213.745	0.2378
213.9619	0.2484
214.1788	0.2638
214.3956	0.256
214.6125	0.2616
214.8293	0.2395
215.0461	0.2499
215.2629	0.2461
215.4798	0.2524
215.6965	0.2507
215.9133	0.2421
216.1301	0.231
216.3469	0.2375
216.5636	0.2423
216.7803	0.2346
216.9971	0.2527
217.2138	0.2568
217.4305	0.2548
217.6472	0.2504
217.8639	0.253
218.0805	0.2579
218.2972	0.2456
218.5138	0.2606
218.7305	0.2622
218.9471	0.2446
219.1637	0.2668
219.3803	0.2554
219.5969	0.2511
219.8135	0.2599
220.0301	0.262
220.2466	0.2505
220.4632	0.242
220.6797	0.262
220.8962	0.2634
221.1127	0.2628
221.3292	0.2685
221.5457	0.2801
221.7622	0.273
221.9787	0.2856
222.1951	0.277
222.4116	0.273
222.628	0.2738
222.8444	0.2798
223.0608	0.2749
223.2772	0.2798
223.4936	0.2886
223.71	0.281
223.9264	0.2827
224.1427	0.2831
224.3591	0.2818
224.5754	0.2992
224.7917	0.2925
225.008	0.292
225.2243	0.3068
225.4406	0.2949
225.6569	0.306
225.8732	0.3102
226.0894	0.3102
226.3057	0.3078
226.5219	0.3146
226.7381	0.3145
226.9543	0.3067
227.1705	0.314
227.3867	0.3282
227.6029	0.3243
227.8191	0.3427
228.0352	0.3433
228.2513	0.3436
228.4675	0.3468
228.6836	0.3492
228.8997	0.3451
229.1158	0.3553
229.3319	0.3651
229.548	0.3587
229.764	0.3573
229.9801	0.371
230.1961	0.3667
230.4121	0.3606
230.6282	0.3788
230.8442	0.3801
231.0602	0.3848
231.2761	0.3809
231.4921	0.389
231.7081	0.3965
231.924	0.4019
232.14	0.4028
232.3559	0.4078
232.5718	0.4143
232.7877	0.4187
233.0036	0.4142
233.2195	0.4102
233.4353	0.4152
233.6512	0.4248
233.867	0.423
234.0829	0.4361
234.2987	0.4324
234.5145	0.4448
234.7303	0.4432
234.9461	0.4492
235.1619	0.4405
235.3776	0.4404
235.5934	0.4351
235.8091	0.4427
236.0249	0.4541
236.2406	0.4475
236.4563	0.4585
236.672	0.4523
236.8877	0.4534
237.1034	0.4475
237.319	0.4551
237.5347	0.4624
237.7503	0.4537
237.966	0.4652
238.1816	0.4586
238.3972	0.4538
238.6128	0.4666
238.8284	0.4703
239.0439	0.4709
239.2595	0.4659
239.475	0.4659
239.6906	0.4681
239.9061	0.4746
240.1216	0.4597
240.3371	0.4617
240.5526	0.4712
240.7681	0.4543
240.9836	0.4699
241.199	0.4543
241.4145	0.4554
241.6299	0.4606
241.8453	0.4495
242.0607	0.4371
242.2761	0.4322
242.4915	0.4328
242.7069	0.422
242.9223	0.4242
243.1376	0.4119
243.353	0.4122
243.5683	0.4034
243.7836	0.3867
243.9989	0.3816
244.2142	0.3823
244.4295	0.3725
244.6448	0.369
244.86	0.3557
245.0753	0.3518
245.2905	0.3438
245.5057	0.3438
245.721	0.3457
245.9362	0.3289
246.1514	0.3245
246.3665	0.3168
246.5817	0.3095
246.7969	0.3085
247.012	0.2977
247.2271	0.2999
247.4423	0.2893
247.6574	0.2848
247.8725	0.2819
248.0876	0.2769
248.3026	0.2781
248.5177	0.2619
248.7328	0.2563
248.9478	0.2549
249.1628	0.256
249.3779	0.2405
249.5929	0.2458
249.8079	0.236
250.0228	0.2377
250.2378	0.2349
250.4528	0.2315
250.6677	0.2254
250.8827	0.2208
251.0976	0.2187
251.3125	0.2216
251.5274	0.2179
251.7423	0.2178
251.9572	0.2128
252.172	0.2122
252.3869	0.212
252.6017	0.2046
252.8166	0.2028
253.0314	0.2094
253.2462	0.2031
253.461	0.1985
253.6758	0.1977
253.8906	0.1937
254.1053	0.1998
254.3201	0.1994
254.5348	0.1838
254.7496	0.1878
254.9643	0.1953
255.179	0.1923
255.3937	0.1959
255.6083	0.1989
255.823	0.1938
256.0377	0.1844
256.2523	0.1917
256.467	0.1932
256.6816	0.1859
256.8962	0.1899
257.1108	0.1822
257.3254	0.1887
257.54	0.1839
257.7545	0.1838
257.9691	0.1852
258.1836	0.1828
258.3981	0.1793
258.6127	0.1777
258.8272	0.1882
259.0417	0.1762
259.2561	0.1783
259.4706	0.1791
259.6851	0.1835
259.8995	0.1836
260.114	0.1829
260.3284	0.1793
260.5428	0.176
260.7572	0.1791
260.9716	0.1879
261.186	0.1803
261.4003	0.1752
261.6147	0.181
261.829	0.1906
262.0433	0.1806
262.2577	0.1877
262.472	0.1788
262.6863	0.1865
262.9005	0.1824
263.1148	0.18
263.3291	0.1785
263.5433	0.1873
263.7576	0.1859
263.9718	0.1882
264.186	0.1863
264.4002	0.1875
264.6144	0.1935
264.8286	0.1884
265.0427	0.1903
265.2569	0.1911
265.471	0.1877
265.6851	0.1896
265.8993	0.1896
266.1134	0.1882
266.3275	0.1952
266.5415	0.1892
266.7556	0.1891
266.9697	0.1902
267.1837	0.1922
267.3978	0.1932
267.6118	0.184
267.8258	0.1923
268.0398	0.1901
268.2538	0.1913
268.4677	0.1849
268.6817	0.1806
268.8957	0.1846
269.1096	0.1832
269.3235	0.1821
269.5374	0.1882
269.7514	0.1884
269.9652	0.1805
270.1791	0.1758
270.393	0.186
270.6068	0.1818
270.8207	0.1778
271.0345	0.178
271.2483	0.1774
271.4622	0.1799
271.676	0.1808
271.8897	0.1791
272.1035	0.1902
272.3173	0.1802
272.531	0.1799
272.7448	0.1821
272.9585	0.1812
273.1722	0.1782
273.3859	0.1815
273.5996	0.1806
273.8133	0.1873
274.0269	0.1767
274.2406	0.1847
274.4542	0.1853
274.6679	0.1833
274.8815	0.1901
275.0951	0.1929
275.3087	0.1956
275.5223	0.1833
275.7358	0.1871
275.9494	0.1883
276.1629	0.1919
276.3765	0.1902
276.59	0.1871
276.8035	0.1948
277.017	0.1952
277.2305	0.1968
277.444	0.1876
277.6574	0.1952
277.8709	0.1937
278.0843	0.1881
278.2978	0.1961
278.5112	0.1946
278.7246	0.192
278.938	0.1956
279.1513	0.1972
279.3647	0.1891
279.5781	0.1925
279.7914	0.193
280.0047	0.1902
280.2181	0.1948
280.4314	0.1901
280.6447	0.1948
280.8579	0.1856
281.0712	0.1945
281.2845	0.1922
281.4977	0.192
281.711	0.1965
281.9242	0.1891
282.1374	0.1957
282.3506	0.1898
282.5638	0.1905
282.7769	0.1848
282.9901	0.1858
283.2033	0.1926
283.4164	0.1841
283.6295	0.1904
283.8426	0.1824
284.0557	0.1966
284.2688	0.1947
284.4819	0.1832
284.695	0.1983
284.908	0.1862
285.1211	0.1948
285.3341	0.1867
285.5471	0.1935
285.7601	0.192
285.9731	0.1975
286.1861	0.1889
286.3991	0.1936
286.612	0.1908
286.825	0.1952
287.0379	0.1927
287.2508	0.1898
287.4637	0.1943
287.6766	0.1945
287.8895	0.1929
288.1024	0.1951
288.3152	0.1959
288.5281	0.1901
288.7409	0.1927
288.9538	0.1982
289.1666	0.1888
289.3794	0.187
289.5922	0.1902
289.8049	0.1962
290.0177	0.1947
290.2304	0.1904
290.4432	0.1983
290.6559	0.1957
290.8686	0.1948
291.0813	0.1959
291.294	0.1937
291.5067	0.1868
291.7194	0.1936
291.932	0.1909
292.1447	0.1953
292.3573	0.1939
292.5699	0.1931
292.7825	0.19
292.9951	0.1963
293.2077	0.1881
293.4203	0.1939
293.6328	0.1932
293.8454	0.2021
294.0579	0.1913
294.2704	0.1994
294.4829	0.1917
294.6954	0.1991
294.9079	0.195
295.1204	0.1929
295.3328	0.1948
295.5453	0.1927
295.7577	0.1991
295.9701	0.1951
296.1825	0.1912
296.3949	0.1893
296.6073	0.1953
296.8197	0.1939
297.0321	0.1903
297.2444	0.1959
297.4567	0.1996
297.6691	0.1963
297.8814	0.1932
298.0937	0.1964
298.306	0.1914
298.5182	0.1966
298.7305	0.1935
298.9428	0.1898
299.155	0.1908
299.3672	0.1937
299.5794	0.1904
299.7916	0.1939
300.0038	0.1962
300.216	0.1925
300.4282	0.1909
300.6403	0.199
300.8525	0.1941
301.0646	0.1958
301.2767	0.1954
301.4888	0.1948
301.7009	0.1993
301.913	0.1953
302.125	0.1941
302.3371	0.194
302.5491	0.1975
302.7612	0.1966
302.9732	0.1938
303.1852	0.1959
303.3972	0.1983
303.6092	0.1941
303.8211	0.1938
304.0331	0.1896
304.245	0.1935
304.457	0.1868
304.6689	0.1956
304.8808	0.189
305.0927	0.1904
305.3046	0.1894
305.5164	0.1901
305.7283	0.1848
305.9401	0.1753
306.152	0.1851
306.3638	0.1817
306.5756	0.1852
306.7874	0.1768
306.9992	0.1764
307.2109	0.1755
307.4227	0.1697
307.6344	0.1775
307.8462	0.1727
308.0579	0.1724
308.2696	0.1715
308.4813	0.1698
308.693	0.1635
308.9046	0.1642
309.1163	0.1681
309.328	0.1628
309.5396	0.1606
309.7512	0.1593
309.9628	0.1547
310.1744	0.1578
310.386	0.1539
310.5976	0.1529
310.8091	0.1551
311.0207	0.155
311.2322	0.1493
311.4437	0.1512
311.6552	0.1537
311.8667	0.1519
312.0782	0.1488
312.2897	0.1519
312.5012	0.1472
312.7126	0.1363
312.924	0.145
313.1355	0.1441
313.3469	0.1377
313.5583	0.1415
313.7696	0.1433
313.981	0.1485
314.1924	0.1421
314.4037	0.1366
314.6151	0.1364
314.8264	0.1434
315.0377	0.1396
315.249	0.1401
315.4603	0.1379
315.6716	0.1377
315.8828	0.1368
316.0941	0.1374
316.3053	0.1327
316.5165	0.1395
316.7277	0.1335
316.9389	0.139
317.1501	0.1412
317.3613	0.1317
317.5724	0.1324
317.7836	0.1276
317.9947	0.1339
318.2058	0.13
318.417	0.1284
318.6281	0.1361
318.8391	0.1382
319.0502	0.1345
319.2613	0.1398
319.4723	0.1331
319.6834	0.1386
319.8944	0.1321
320.1054	0.1356
320.3164	0.1307
320.5274	0.128
320.7383	0.1352
320.9493	0.1315
321.1602	0.1344
321.3712	0.135
321.5821	0.1304
321.793	0.1409
322.0039	0.1285
322.2148	0.1306
322.4257	0.1291
322.6365	0.1272
322.8474	0.132
323.0582	0.1382
323.269	0.1371
323.4798	0.1388
323.6906	0.1306
323.9014	0.1339
324.1122	0.1253
324.3229	0.138
324.5337	0.1372
324.7444	0.1352
324.9551	0.135
325.1658	0.14
325.3765	0.1379
325.5872	0.1346
325.7979	0.1368
326.0085	0.1387
326.2192	0.1338
326.4298	0.1419
326.6404	0.1441
326.851	0.1358
327.0616	0.1407
327.2722	0.1409
327.4828	0.1395
327.6933	0.1444
327.9039	0.1405
328.1144	0.1415
328.3249	0.1425
328.5354	0.1415
328.7459	0.1432
328.9564	0.1423
329.1669	0.1451
329.3773	0.1412
329.5878	0.1363
329.7982	0.1465
330.0086	0.1474
330.219	0.1399
330.4294	0.1489
330.6398	0.1509
330.8502	0.1487
331.0605	0.1444
331.2708	0.1431
331.4812	0.1415
331.6915	0.1484
331.9018	0.1416
332.1121	0.1518
332.3224	0.1482
332.5326	0.1432
332.7429	0.1472
332.9531	0.1481
333.1633	0.1416
333.3735	0.1431
333.5837	0.1447
333.7939	0.1467
334.0041	0.1437
334.2143	0.1431
334.4244	0.1512
334.6346	0.1461
334.8447	0.1435
335.0548	0.1506
335.2649	0.1481
335.475	0.1512
335.685	0.1521
335.8951	0.1481
336.1051	0.1501
336.3152	0.1507
336.5252	0.1506
336.7352	0.1453
336.9452	0.1474
337.1552	0.1547
337.3652	0.1484
337.5751	0.1479
337.7851	0.1517
337.995	0.1505
338.2049	0.1516
338.4148	0.1454
338.6247	0.1538
338.8346	0.1466
339.0445	0.1504
339.2543	0.153
339.4642	0.1474
339.674	0.1498
339.8838	0.1503
340.0936	0.1524
340.3034	0.148
340.5132	0.1522
340.7229	0.1519
340.9327	0.1578
341.1424	0.1536
341.3522	0.155
341.5619	0.1527
341.7716	0.1558
341.9813	0.1577
342.1909	0.1593
342.4006	0.1642
342.6102	0.1563
342.8199	0.1567
343.0295	0.1507
343.2391	0.1584
343.4487	0.1674
343.6583	0.1683
343.8679	0.1563
344.0774	0.1574
344.287	0.1564
344.4965	0.1598
344.706	0.1629
344.9155	0.1655
345.125	0.1626
345.3345	0.1754
345.544	0.1647
345.7534	0.1718
345.9629	0.1731
346.1723	0.1684
346.3817	0.1632
346.5911	0.1753
346.8005	0.1759
347.0099	0.173
347.2193	0.1804
347.4286	0.181
347.638	0.1772
347.8473	0.1804
348.0566	0.1732
348.2659	0.1737
348.4752	0.179
348.6845	0.1713
348.8937	0.1819
349.103	0.1822
349.3122	0.1789
349.5214	0.1837
349.7306	0.1892
349.9398	0.1783
350.149	0.1763
350.3582	0.1769
350.5674	0.1824
350.7765	0.1774
350.9856	0.1852
351.1948	0.1914
351.4039	0.1852
351.613	0.1806
351.822	0.1891
352.0311	0.1912
352.2402	0.1883
352.4492	0.1859
352.6582	0.1844
352.8672	0.1877
353.0762	0.1863
353.2852	0.1817
353.4942	0.1893
353.7032	0.1842
353.9121	0.1868
354.1211	0.195
354.33	0.1905
354.5389	0.1873
354.7478	0.1884
354.9567	0.1953
355.1655	0.194
355.3744	0.1926
355.5833	0.1922
355.7921	0.1923
356.0009	0.1921
356.2097	0.1855
356.4185	0.1894
356.6273	0.1927
356.8361	0.1856
357.0448	0.1954
357.2536	0.1915
357.4623	0.1976
357.671	0.1991
357.8797	0.1983
358.0884	0.187
358.2971	0.1945
358.5057	0.2027
358.7144	0.1961
358.923	0.2008
359.1316	0.2063
359.3402	0.2024
359.5488	0.2061
359.7574	0.2054
359.966	0.2029
360.1746	0.1982
360.3831	0.2054
360.5916	0.2082
360.8002	0.2131
361.0087	0.2025
361.2172	0.2012
361.4256	0.2055
361.6341	0.2116
361.8426	0.2095
362.051	0.2171
362.2594	0.2067
362.4678	0.2068
362.6762	0.2183
362.8846	0.2168
363.093	0.2133
363.3014	0.2217
363.5097	0.2248
363.718	0.2254
363.9264	0.2246
364.1347	0.2163
364.343	0.2201
364.5513	0.2195
364.7595	0.2292
364.9678	0.2123
365.176	0.2266
365.3842	0.2323
365.5925	0.2237
365.8007	0.2316
366.0089	0.2363
366.217	0.2353
366.4252	0.2282
366.6333	0.2403
366.8415	0.237
367.0496	0.2308
367.2577	0.2359
367.4658	0.231
367.6739	0.232
367.882	0.2331
368.09	0.2341
368.2981	0.2435
368.5061	0.2353
368.7141	0.2336
368.9221	0.2473
369.1301	0.2454
369.3381	0.247
369.5461	0.2384
369.754	0.2408
369.962	0.2402
370.1699	0.2538
370.3778	0.2549
370.5857	0.2416
370.7936	0.2458
371.0015	0.252
371.2093	0.2468
371.4172	0.2466
371.625	0.2464
371.8328	0.2474
372.0406	0.2543
372.2484	0.2601
372.4562	0.2552
372.664	0.2519
372.8717	0.2554
373.0795	0.262
373.2872	0.2649
373.4949	0.2585
373.7026	0.2541
373.9103	0.2568
374.118	0.2664
374.3256	0.2682
374.5333	0.2671
374.7409	0.259
374.9485	0.2647
375.1561	0.268
375.3637	0.27
375.5713	0.272
375.7789	0.2651
375.9864	0.267
376.194	0.2671
376.4015	0.264
376.609	0.2741
376.8165	0.2662
377.024	0.2682
377.2315	0.268
377.4389	0.2664
377.6464	0.2722
377.8538	0.2712
378.0612	0.2743
378.2686	0.263
378.476	0.2796
378.6834	0.2727
378.8908	0.2817
379.0981	0.2698
379.3055	0.2774
379.5128	0.2804
379.7201	0.2809
379.9274	0.2855
380.1347	0.2804
380.342	0.2969
380.5492	0.2881
380.7565	0.2826
380.9637	0.288
381.1709	0.2875
381.3781	0.2911
381.5853	0.2879
381.7925	0.2835
381.9997	0.2896
382.2068	0.2936
382.4139	0.2859
382.6211	0.3066
382.8282	0.2871
383.0353	0.2958
383.2424	0.2834
383.4494	0.2883
383.6565	0.2937
383.8635	0.2844
384.0706	0.296
384.2776	0.2973
384.4846	0.3023
384.6916	0.2846
384.8986	0.2949
385.1055	0.2993
385.3125	0.2925
385.5194	0.2922
385.7263	0.2918
385.9333	0.3026
386.1402	0.2947
386.347	0.2842
386.5539	0.2942
386.7608	0.2949
386.9676	0.2959
387.1744	0.2944
387.3813	0.3014
387.5881	0.2912
387.7948	0.2905
388.0016	0.3057
388.2084	0.2893
388.4151	0.3011
388.6219	0.2891
388.8286	0.2962
389.0353	0.2926
389.242	0.2936
389.4487	0.2851
389.6553	0.2805
389.862	0.2825
390.0686	0.2889
390.2753	0.2914
390.4819	0.2918
390.6885	0.2828
390.8951	0.2811
391.1016	0.2918
391.3082	0.2951
391.5147	0.2779
391.7213	0.2813
391.9278	0.2723
392.1343	0.2821
392.3408	0.2727
392.5473	0.2791
392.7537	0.2788
392.9602	0.2727
393.1666	0.2797
393.373	0.2719
393.5794	0.2751
393.7858	0.278
393.9922	0.2625
394.1986	0.2728
394.4049	0.2613
394.6113	0.2716
394.8176	0.2661
395.0239	0.2606
395.2302	0.2669
395.4365	0.2592
395.6428	0.2613
395.8491	0.2623
396.0553	0.2467
396.2615	0.2614
396.4678	0.2626
396.674	0.2552
396.8802	0.2559
397.0863	0.2517
397.2925	0.2626
397.4987	0.2448
397.7048	0.2624
397.9109	0.2444
398.117	0.2527
398.3231	0.2509
398.5292	0.2453
398.7353	0.253
398.9413	0.2512
399.1474	0.2562
399.3534	0.2501
399.5594	0.2599
399.7654	0.251
399.9714	0.2459
400.1774	0.2435
400.3833	0.2535
400.5893	0.2489
400.7952	0.257
401.0011	0.2374
401.207	0.2495
401.4129	0.2531
401.6188	0.2522
401.8247	0.2528
402.0305	0.2333
402.2364	0.254
402.4422	0.2541
402.648	0.2469
402.8538	0.2495
403.0596	0.2414
403.2654	0.2513
403.4711	0.2401
403.6768	0.2542
403.8826	0.2537
404.0883	0.2532
404.294	0.2422
404.4997	0.2449
404.7054	0.256
404.911	0.2497
405.1167	0.2463
405.3223	0.247
405.5279	0.2378
405.7335	0.2383
405.9391	0.2419
406.1447	0.2504
406.3502	0.2416
406.5558	0.2454
406.7613	0.2459
406.9668	0.2459
407.1724	0.2444
407.3778	0.2503
407.5833	0.2386
407.7888	0.2614
407.9942	0.2462
408.1997	0.2486
408.4051	0.2537
408.6105	0.253
408.8159	0.2393
409.0213	0.2551
409.2267	0.2523
409.432	0.241
409.6374	0.2562
409.8427	0.2527
410.048	0.2453
410.2533	0.2483
410.4586	0.2355
410.6639	0.2511
410.8691	0.2435
411.0744	0.2482
411.2796	0.2415
411.4848	0.2437
411.69	0.2436
411.8952	0.246
412.1004	0.2497
412.3056	0.2383
412.5107	0.2493
412.7158	0.2497
412.921	0.2458
413.1261	0.2415
413.3312	0.2478
413.5362	0.2593
413.7413	0.2341
413.9464	0.2415
414.1514	0.2398
414.3564	0.2473
414.5614	0.2365
414.7664	0.245
414.9714	0.2356
415.1764	0.2425
415.3813	0.2437
415.5863	0.2475
415.7912	0.241
415.9961	0.2377
416.201	0.2435
416.4059	0.246
416.6108	0.2387
416.8156	0.2354
417.0205	0.2465
417.2253	0.2353
417.4301	0.25
417.6349	0.2479
417.8397	0.2321
418.0445	0.2411
418.2492	0.2466
418.454	0.2366
418.6587	0.2391
418.8634	0.2332
419.0681	0.2388
419.2728	0.2329
419.4775	0.2497
419.6822	0.2239
419.8868	0.2433
420.0915	0.2301
420.2961	0.2182
420.5007	0.2322
420.7053	0.222
420.9099	0.232
421.1144	0.2143
421.319	0.223
421.5235	0.2169
421.728	0.2359
421.9325	0.2179
422.137	0.228
422.3415	0.2193
422.546	0.2128
422.7504	0.2238
422.9549	0.227
423.1593	0.2151
423.3637	0.2264
423.5681	0.2227
423.7725	0.232
423.9769	0.2227
424.1812	0.2197
424.3856	0.2156
424.5899	0.2144
424.7942	0.2145
424.9985	0.2171
425.2028	0.2218
425.4071	0.2226
425.6113	0.2144
425.8156	0.2046
426.0198	0.214
426.224	0.213
426.4282	0.2035
426.6324	0.2023
426.8366	0.1974
427.0407	0.1947
427.2449	0.2047
427.449	0.1998
427.6531	0.2167
427.8572	0.2077
428.0613	0.2032
428.2654	0.1974
428.4694	0.1943
428.6735	0.1942
428.8775	0.1873
429.0815	0.1956
429.2855	0.1875
429.4895	0.1873
429.6935	0.1925
429.8975	0.1805
430.1014	0.1896
430.3053	0.1982
430.5093	0.1762
430.7132	0.1755
430.9171	0.1739
431.1209	0.1831
431.3248	0.1794
431.5286	0.1682
431.7325	0.1854
431.9363	0.1672
432.1401	0.1695
432.3439	0.1794
432.5477	0.166
432.7514	0.1636
432.9552	0.1633
433.1589	0.1599
433.3627	0.1702
433.5664	0.1529
433.7701	0.1558
433.9737	0.1659
434.1774	0.1565
434.3811	0.1538
434.5847	0.1514
434.7883	0.1504
434.9919	0.1515
435.1955	0.1551
435.3991	0.1551
435.6027	0.1491
435.8062	0.1597
436.0098	0.1347
436.2133	0.1429
436.4168	0.1315
436.6203	0.1313
436.8238	0.1394
437.0272	0.1322
437.2307	0.1274
437.4341	0.13
437.6375	0.1316
437.841	0.116
438.0443	0.1302
438.2477	0.1157
438.4511	0.1285
438.6545	0.1306
438.8578	0.1253
439.0611	0.1265
439.2644	0.1182
439.4677	0.1195
439.671	0.1067
439.8743	0.1184
440.0775	0.1111
440.2808	0.1101
440.484	0.1068
440.6872	0.1096
440.8904	0.0997
441.0936	0.1027
441.2967	0.0912
441.4999	0.1002
441.703	0.09
441.9062	0.1022
442.1093	0.1109
442.3124	0.0978
442.5155	0.0988
442.7185	0.0806
442.9216	0.0875
443.1246	0.0869
443.3276	0.0989
443.5307	0.0853
443.7337	0.0952
443.9366	0.0823
444.1396	0.0801
444.3426	0.0826
444.5455	0.0786
444.7484	0.0748
444.9513	0.0748
445.1542	0.079
445.3571	0.0749
445.56	0.0758
445.7628	0.0684
445.9657	0.0772
446.1685	0.0775
446.3713	0.0705
446.5741	0.0752
446.7769	0.0765
446.9797	0.0707
447.1824	0.0668
447.3852	0.054
447.5879	0.0613
447.7906	0.0557
447.9933	0.0623
448.196	0.0599
448.3986	0.0585
448.6013	0.0581
448.8039	0.0561
449.0066	0.0648
449.2092	0.0628
449.4118	0.0577
449.6143	0.0548
449.8169	0.0524
450.0195	0.0513
450.222	0.0519
450.4245	0.0533
450.627	0.0479
450.8295	0.0537
451.032	0.0483
451.2345	0.0488
451.4369	0.0506
451.6394	0.0528
451.8418	0.0487
452.0442	0.0463
452.2466	0.0369
452.449	0.0433
452.6513	0.0375
452.8537	0.027
453.056	0.0355
453.2583	0.0329
453.4607	0.0376
453.663	0.0436
453.8652	0.0322
454.0675	0.0445
454.2697	0.0306
454.472	0.0356
454.6742	0.0342
454.8764	0.038
455.0786	0.0302
455.2808	0.0349
455.4829	0.0371
455.6851	0.0339
455.8872	0.0253
456.0893	0.0364
456.2915	0.0284
456.4935	0.0378
456.6956	0.0252
456.8977	0.0259
457.0997	0.0374
457.3018	0.0172
457.5038	0.024
457.7058	0.0384
457.9078	0.0291
458.1098	0.0279
458.3117	0.0255
458.5137	0.0163
458.7156	0.0296
458.9175	0.032
459.1194	0.0164
459.3213	0.0231
459.5232	0.0319
459.725	0.0248
459.9269	0.0258
460.1287	0.0177
460.3305	0.0284
460.5323	0.0265
460.7341	0.0253
460.9359	0.0145
461.1376	0.0197
461.3394	0.027
461.5411	0.0329
461.7428	0.0215
461.9445	0.0215
462.1462	0.0159
462.3479	0.0164
462.5495	0.0228
462.7512	0.0227
462.9528	0.021
463.1544	0.0249
463.356	0.0089
463.5576	0.031
463.7592	0.0191
463.9607	0.0114
464.1623	0.0147
464.3638	0.0115
464.5653	0.0163
464.7668	0.0238
464.9683	0.0185
465.1697	0.0171
465.3712	0.0198
465.5726	0.011
465.7741	0.0232
465.9755	0.0234
466.1769	0.0166
466.3782	0.0152
466.5796	0.0201
466.7809	0.0187
466.9823	0.0124
467.1836	0.0154
467.3849	0.0095
467.5862	0.0093
467.7875	0.0124
467.9887	0.0231
468.19	0.0146
468.3912	0.0172
468.5924	0.014
468.7936	0.0114
468.9948	0.0121
469.196	0.0167
469.3972	0.0112
469.5983	0.0125
469.7994	0.0243
470.0006	0.0114
470.2017	0.0154
470.4027	0.0382
470.6038	0.006
470.8049	0.0158
471.0059	0.022
471.2069	0.0099
471.408	0.014
471.6089	0.024
471.8099	0.008
472.0109	0.0198
472.2119	0.0204
472.4128	0.0108
472.6137	0.0096
472.8146	0.0125
473.0155	0.023
473.2164	0.0073
473.4173	0.0138
473.6181	0.0064
473.819	0.007
474.0198	0.0051
474.2206	0.0039
474.4214	0.0119
474.6222	0.0054
474.8229	0.0071
475.0237	0.0212
475.2244	0.0163
475.4251	0.007
475.6258	0.0007
475.8265	0.014
476.0272	0.0021
476.2278	0.0136
476.4285	0.0126
476.6291	0.0152
476.8297	0.0196
477.0303	0.0058
477.2309	0.0102
477.4315	0.0194
477.632	0.0043
477.8326	0.0145
478.0331	0.0227
478.2336	0.0135
478.4341	0.0094
478.6346	0.0078
478.8351	0.0074
479.0355	0.0154
479.236	0.0189
479.4364	0.0081
479.6368	0.0098
479.8372	0.0134
480.0376	0.0119
480.2379	0.0116
480.4383	0.0121
480.6386	0.0067
480.8389	0.0102
481.0392	0.0061
481.2395	0.0149
481.4398	0.0099
481.6401	0.017
481.8403	0.0064
482.0405	0.0037
482.2408	0.0085
482.441	0.0158
482.6411	0.0101
482.8413	0.0094
483.0415	0.0117
483.2416	0.0072
483.4417	0.0186
483.6419	0.0058
483.8419	0.0089
484.042	0.0102
484.2421	0.0059
484.4422	0.0089
484.6422	0.0067
484.8422	0.0059
485.0422	0.0108
485.2422	0.0095
485.4422	0.0068
485.6422	0.0072
485.8421	0.0069
486.042	0.0158
486.242	0.0074
486.4419	0.0087
486.6417	0.003
486.8416	0.0118
487.0415	0.005
487.2413	0.0075
487.4411	0.0119
487.641	0.007
487.8408	0.0121
488.0405	0.015
488.2403	0.0121
488.4401	0.0099
488.6398	0.0138
488.8395	0.0094
489.0392	0.0138
489.2389	0.0192
489.4386	0.0023
489.6383	0.0085
489.8379	0.0104
490.0376	0.0108
490.2372	0.0066
490.4368	0.0015
490.6364	0.0051
490.836	0.0101
491.0355	-0.0057
491.2351	0.0109
491.4346	0.0063
491.6341	0.0057
491.8336	0.0124
492.0331	0.0124
492.2326	0.0142
492.432	0.008
492.6315	0.0161
492.8309	0.0178
493.0303	0.0155
493.2297	0.0172
493.4291	0.0092
493.6284	0.0136
493.8278	0.0059
494.0271	0.0155
494.2264	0.0053
494.4257	0.0157
494.625	0.0079
494.8243	0.0098
495.0236	0.006
495.2228	0.0171
495.422	0.0072
495.6213	0.015
495.8205	0.0112
496.0196	0.0082
496.2188	0.0158
496.418	0.0105
496.6171	0.0032
496.8162	0.001
497.0153	0.0155
497.2144	0.0081
497.4135	0.0125
497.6126	0.009
497.8116	0.0016
498.0107	0.0181
498.2097	0.0074
498.4087	0.0088
498.6077	-0.0045
498.8067	0.0073
499.0056	0.0108
499.2046	0.0166
499.4035	0.0172
499.6024	0.0077
499.8013	0.0125
500.0002	0.0097
500.199	0.0142
500.3979	0.0101
500.5967	0.0083
500.7956	0.0105
500.9944	0.011
501.1932	0.0149
501.3919	0.0129
501.5907	0.0164
501.7895	0.0049
501.9882	0.0052
502.1869	0.0152
502.3856	0.0055
502.5843	0.013
502.783	0.0105
502.9816	0.0124
503.1803	0.0073
503.3789	0.0163
503.5775	0.0128
503.7761	0.0107
503.9747	0.0138
504.1732	-0.0018
504.3718	0.0226
504.5703	0.012
504.7689	0.0015
504.9674	0.0047
505.1658	0.0039
505.3643	0.0162
505.5628	0.0207
505.7612	0.0177
505.9597	0.0055
506.1581	0.0035
506.3565	0.0133
506.5549	0.011
506.7532	0.0055
506.9516	0.0121
507.1499	0.0084
507.3482	0.0116
507.5465	0.0099
507.7448	0.0107
507.9431	0.015
508.1414	0.0119
508.3396	0.0149
508.5379	-0.0006
508.7361	0.0157
508.9343	0.0121
509.1325	0.0171
509.3306	0.0068
509.5288	0.0082
509.7269	0.0157
509.9251	0.0086
510.1232	0.0153
510.3213	0.0095
510.5193	0.0027
510.7174	0.0024
510.9154	0.0144
511.1135	0.0082
511.3115	-0.0019
511.5095	0.005
511.7075	0.0042
511.9055	0.0129
512.1034	0.0099
512.3014	0.0094
512.4993	0.0113
512.6972	-0.0043
512.8951	0.0019
513.093	0.0149
513.2908	0.0254
513.4887	0.0093
513.6865	0.0122
513.8844	0.0154
514.0822	0.0056
514.2799	0.005
514.4777	0.0058
514.6755	0.0058
514.8732	0.0087
515.0709	0.0074
515.2687	0.0127
515.4664	0.018
515.664	0.0228
515.8617	0.0208
516.0594	0.0134
516.257	0.0116
516.4546	0.0208
516.6522	0.0115
516.8498	0.0127
517.0474	0.0092
517.2449	0.0049
517.4425	0.0138
517.64	0.012
517.8375	0.0173
518.035	0.0083
518.2325	0.0064
518.43	0.0082
518.6274	0.0015
518.8249	0.0024
519.0223	0.0136
519.2197	0.0117
519.4171	0.0135
519.6145	0.0147
519.8118	0.003
520.0092	0.0018
520.2065	0.0101
520.4038	0.0058
520.6011	0.0111
520.7984	0.0124
520.9956	0.0222
521.1929	0.0184
521.3901	0.0127
521.5874	0.0191
521.7846	0.0099
521.9818	0.0081
522.1789	-0.0027
522.3761	0.0325
522.5732	0.0158
522.7704	0.0057
522.9675	0.0083
523.1646	0.0069
523.3617	0.0148
523.5587	0.0136
523.7558	0.0101
523.9528	0.0165
524.1498	0.004
524.3468	0.0122
524.5438	0.0159
524.7408	0.0018
524.9378	0.0197
525.1347	0.0137
525.3316	0.0018
525.5285	0.0075
525.7254	0.0147
525.9223	0.0237
526.1192	0.0156
526.316	0.0091
526.5129	0.0192
526.7097	0.0005
526.9065	0.0104
527.1033	0.0127
527.3	0.0194
527.4968	0.0167
527.6935	0.0024
527.8903	0.0135
528.087	0.0009
528.2837	0.0174
528.4804	0.005
528.677	0.0048
528.8737	0.0181
529.0703	0.0105
529.2669	0.0143
529.4635	0.0046
529.6601	-0.0008
529.8567	0.0047
530.0532	0.0186
530.2498	0.0087
530.4463	0.0072
530.6428	0.0219
530.8393	0.0137
531.0358	-0.0054
531.2322	0.0047
531.4287	0.006
531.6251	-0.0025
531.8215	0.0072
532.0179	0.0132
532.2143	0.0109
532.4107	0.0118
532.607	0.0059
532.8034	-0.0017
532.9997	0.0061
533.196	0.0005
533.3923	0.0149
533.5886	0.0086
533.7848	0.0032
533.9811	0.0142
534.1773	0.0056
534.3735	0.0123
534.5697	0.0016
534.7659	0.0129
534.9621	0.006
535.1582	0.0149
535.3544	0.005
535.5505	0.0174
535.7466	0.0142
535.9427	0.0084
536.1387	0.0049
536.3348	0.007
536.5308	0.01
536.7269	0.0022
536.9229	0.0134
537.1189	0.0224
537.3148	0.005
537.5108	0.0055
537.7068	0.017
537.9027	-0.0067
538.0986	0.0195
538.2945	0.0033
538.4904	-0.0051
538.6863	0.0052
538.8821	0.0171
539.078	0.0069
539.2738	0.0074
539.4696	0.0056
539.6654	0.0018
539.8611	0.0064
540.0569	0.0096
540.2526	0.0139
540.4484	0.0025
540.6441	0.009
540.8398	0.0102
541.0355	0.0001
541.2311	0.0086
541.4268	0.0208
541.6224	0.0168
541.818	0.0155
542.0136	0.0153
542.2092	0.0152
542.4048	0.0034
542.6003	0.005
542.7959	0.0151
542.9914	0.0117
543.1869	0.0083
543.3824	0.0043
543.5779	0.0131
543.7734	0.0143
543.9688	0.0177
544.1642	0.0076
544.3596	0.0136
544.555	0.0115
544.7504	0.0252
544.9458	0.0073
545.1411	0.006
545.3365	0.0113
545.5318	0.0146
545.7271	0.0183
545.9224	-0.0014
546.1177	0.0151
546.3129	0.0014
546.5081	0.0117
546.7034	0.0122
546.8986	0.0173
547.0938	0.0128
547.289	0.0105
547.4841	0.0111
547.6793	0.0094
547.8744	0.0112
548.0695	0.0055
548.2646	0.0133
548.4597	0.0071
548.6548	0.018
548.8498	0.0138
549.0448	0.0045
549.2399	0.0199
549.4349	0.0149
549.6298	0.0099
549.8248	-0.0065
550.0198	0.0151
550.2147	0.0123
550.4096	0.0069
550.6045	0.0074
550.7994	0.0208
550.9943	0.011
551.1892	-0.0011
551.384	0.0221
551.5788	0.0133
551.7737	0.0051
551.9685	0.0153
552.1632	0.0091
552.358	0.0166
552.5528	0.0144
552.7475	0.0097
552.9422	0.0129
553.1369	0.0152
553.3316	0.0128
553.5263	0.0163
553.7209	0.0047
553.9156	0.0159
554.1102	0.0124
554.3048	0.0002
554.4994	0.0042
554.694	0.0047
554.8885	0.0153
555.0831	0.0205
555.2776	0.0028
555.4721	0.0157
555.6666	0.0031
555.8611	0.0149
556.0555	0.0127
556.25	0.0224
556.4444	0.0071
556.6388	0.0067
556.8332	0.0127
557.0276	0.016
557.222	0.0069
557.4163	0.0207
557.6107	0.0028
557.805	0.005
557.9993	0.0099
558.1936	0.0094
558.3879	0.022
558.5821	-0.0026
558.7764	0.0081
558.9706	-0.0013
559.1648	0.0104
559.359	0.0016
559.5532	0.003
559.7473	0.0077
559.9415	0.0023
560.1356	0.0271
560.3297	0.003
560.5238	0.0062
560.7179	0.0016
560.9119	0.0047
561.106	0.0018
561.3	0.0112
561.494	-0.0016
561.688	-0.0029
561.882	0.0051
562.076	0.0065
562.2699	0.016
562.4639	0.0198
562.6578	0.019
562.8517	0.0112
563.0456	0.0094
563.2395	0.0111
563.4333	0.0025
563.6272	0.0053
563.821	0.0162
564.0148	0.0121
564.2086	0.0056
564.4024	0.009
564.5961	0.0128
564.7899	0.0107
564.9836	0.0096
565.1773	0.0211
565.371	0.0083
565.5647	0.009
565.7584	0.0185
565.952	0.0062
566.1456	0.0123
566.3393	0.0099
566.5329	0.0053
566.7264	0.0129
566.92	0.0095
567.1136	0.0073
567.3071	0.0009
567.5006	0.0099
567.6941	0.0077
567.8876	0.0044
568.0811	0.0222
568.2745	0.0074
568.468	0.0119
568.6614	0.0139
568.8548	0.0152
569.0482	0.0043
569.2416	0.0054
569.4349	0.0041
569.6283	0.0045
569.8216	0.0084
570.0149	0.0084
570.2082	0.0181
570.4015	0.0105
570.5947	0.0086
570.788	0.0101
570.9812	0.0067
571.1744	0.0089
571.3676	0.0048
571.5608	0.0047
571.754	0.0103
571.9471	0.0134
572.1402	0.0093
572.3333	0.0093
572.5264	0.0103
572.7195	0.009
572.9126	0.0098
573.1057	0.007
573.2987	0.0093
573.4917	0.0085
573.6847	0.008
573.8777	0.0104
574.0707	0.01
574.2636	0.0097
574.4566	0.0073
574.6495	0.0058
574.8424	0.009
575.0353	0.0111
575.2281	0.0117
575.421	0.0022
575.6138	0.009
575.8067	0.0099
575.9995	0.0096
576.1923	0.0106
576.385	0.0093
576.5778	0.0127
576.7706	0.0068
576.9633	0.0079
577.156	0.0028
577.3487	0.0083
577.5414	0.006
577.734	0.0077
577.9267	0.008
578.1193	0.0124
578.3119	0.0042
578.5045	0.0039
578.6971	0.0063
578.8897	0.0105
579.0822	0.0139
579.2747	0.0059
579.4673	0.0071
579.6598	0.0068
579.8522	0.0063
580.0447	0.0105
580.2372	0.0113
580.4296	0.012
580.622	0.0068
580.8144	0.0082
581.0068	0.0076
581.1992	0.0108
581.3915	0.0001
581.5839	0.0089
581.7762	0.0054
581.9685	0.0079
582.1608	0.0071
582.353	0.007
582.5453	0.0068
582.7375	0.0087
582.9298	0.0069
583.122	0.0085
583.3142	0.0114
583.5063	0.0114
583.6985	0.007
583.8906	0.0044
584.0827	0.0118
584.2749	0.007
584.4669	0.0087
584.659	0.011
584.8511	0.0121
585.0431	0.0115
585.2352	0.0099
585.4272	0.0095
585.6192	0.0081
585.8111	0.0043
586.0031	0.0051
586.195	0.004
586.387	0.004
586.5789	0.0105
586.7708	0.0132
586.9627	0.0087
587.1545	0.0077
587.3464	0.0073
587.5382	0.0046
587.73	0.0122
587.9218	0.007
588.1136	0.0042
588.3053	0.0099
588.4971	0.0052
588.6888	0.0019
588.8805	0.0103
589.0722	0.0228
589.2639	0.0114
589.4556	0.0092
589.6472	0.009
589.8389	0.0071
590.0305	0.0096
590.2221	0.0081
590.4137	0.0066
590.6052	0.0018
590.7968	0.012
590.9883	0.0128
591.1798	0.0109
591.3713	0.0089
591.5628	0.007
591.7543	0.0099
591.9458	0.0039
592.1372	0.0079
592.3286	0.0032
592.52	0.0115
592.7114	0.0103
592.9028	0.0146
593.0941	0.0067
593.2855	0.0075
593.4768	0.018
593.6681	0.0146
593.8594	0.0095
594.0506	0.0081
594.2419	0.0155
594.4331	0.0089
594.6244	0.0029
594.8156	0.0044
595.0067	0.0015
595.1979	0.0089
595.3891	0.0046
595.5802	0.0082
595.7713	0.0074
595.9624	0.0148
596.1535	0.0118
596.3446	0.012
596.5357	0.0087
596.7267	0.0102
596.9177	0.0067
597.1087	0.0003
597.2997	0.012
597.4907	0.0049
597.6817	0.0117
597.8726	0.0117
598.0635	0.0111
598.2544	0.0168
598.4453	0.0156
598.6362	0.0101
598.827	0.0049
599.0179	0.0076
599.2087	0.0139
599.3995	0.0153
599.5903	0.0159
599.7811	0.0169
599.9718	0.0078
600.1626	0.0088
600.3533	0.0011
600.544	0.0096
600.7347	0.0078
600.9254	0.0131
601.116	0.0077
601.3067	0.0072
601.4973	0.0108
601.6879	0.0096
601.8785	0.0081
602.0691	0.0044
602.2596	0.0063
602.4502	0.012
602.6407	0.0089
602.8312	0.0021
603.0217	0.0121
603.2122	0.0037
603.4027	0.0121
603.5931	0.0067
603.7835	0.014
603.9739	0.0037
604.1643	0.0085
604.3547	0.008
604.5451	0.0095
604.7354	0.0046
604.9257	0.0052
605.116	0.0016
605.3063	0.0109
605.4966	0.0049
605.6869	0.0158
605.8771	0.0101
606.0673	0.0089
606.2575	0.0071
606.4477	0.015
606.6379	0.004
606.8281	0.012
607.0182	0.0127
607.2083	0.0137
607.3985	0.0046
607.5885	0.006
607.7786	0.0113
607.9687	0.0069
608.1587	0.0102
608.3488	0.0132
608.5388	0.0041
608.7288	0.0033
608.9187	0.0073
609.1087	0.0122
609.2986	0.0122
609.4886	0.0069
609.6785	0.0058
609.8684	0.0072
610.0582	0.0038
610.2481	0.0051
610.4379	0.0187
610.6278	0.0106
610.8176	0.0203
611.0074	0.0096
611.1971	0.0136
611.3869	0.0096
611.5766	-0.0032
611.7664	0.0117
611.9561	0.0098
612.1458	0.0026
612.3354	0.0078
612.5251	0.0058
612.7147	0.0067
612.9044	0.001
613.094	0.0079
613.2836	0.0064
613.4731	0.0038
613.6627	0.0081
613.8522	0.0095
614.0417	0.0132
614.2313	0.0142
614.4207	0.0077
614.6102	0.0141
614.7997	0.0084
614.9891	0.0146
615.1785	-0.0044
615.3679	0.0048
615.5573	0.0105
615.7467	0.0041
615.9361	0.0094
616.1254	0.0092
616.3147	0.0126
616.504	0.0124
616.6933	0.0043
616.8826	0.001
617.0718	0.0106
617.2611	0.0103
617.4503	0.007
617.6395	0.0167
617.8287	0.0151
618.0179	0.0116
618.207	0.0177
618.3961	0.0096
618.5853	0.0018
618.7744	0.0097
618.9634	0.013
619.1525	0.0056
619.3416	0.0028
619.5306	0.0143
619.7196	0.0161
619.9086	0.0079
620.0976	-0.0039
620.2866	0.0203
620.4755	-0.0008
620.6645	0.0117
620.8534	0.0124
621.0423	0.0054
621.2312	0.0119
621.42	0.0084
621.6089	0.0156
621.7977	0.013
621.9865	0.0104
622.1753	-0.0025
622.3641	-0.0017
622.5529	0.0061
622.7416	0.0063
622.9303	0.0123
623.1191	0.0055
623.3078	0.0096
623.4964	0.005
623.6851	0.0054
623.8737	0.0039
624.0624	-0.0005
624.251	0.0058
624.4396	0.0027
624.6282	0.0164
624.8167	0.0002
625.0053	0.0127
625.1938	0.0073
625.3823	0.0094
625.5708	0.0018
625.7593	0.0081
625.9477	0.0124
626.1362	0.0009
626.3246	-0.0058
626.513	0.0133
626.7014	0.0202
626.8898	0.0146
627.0781	0.0192
627.2665	0.0108
627.4548	-0.0018
627.6431	0.0073
627.8314	0.0185
628.0197	0.0175
628.2079	0.0014
628.3962	0.0198
628.5844	0.0093
628.7726	0.0124
628.9608	0.0077
629.1489	0.001
629.3371	0.0014
629.5252	0.0122
629.7134	-0.0008
629.9015	0.0185
630.0895	0.0019
630.2776	0.0192
630.4657	0.0147
630.6537	0.0117
630.8417	0.0049
631.0297	0.0103
631.2177	0.0131
631.4057	0.0152
631.5936	0.0093
631.7815	0.0097
631.9695	0.0273
632.1574	0.0173
632.3452	0.0223
632.5331	0.0142
632.7209	0.0114
632.9088	0.0042
633.0966	0.0257
633.2844	0.0136
633.4722	0.0156
633.6599	0.0159
633.8477	0.0053
634.0354	0.0162
634.2231	-0.004
634.4108	0.0077
634.5985	0.0186
634.7861	0.0078
634.9738	-0.0009
635.1614	0.0072
635.349	0.0103
635.5366	0.0115
635.7242	0.0068
635.9117	0.0126
636.0993	0.007
636.2868	0.0032
636.4743	0.0023
636.6618	-0.0047
636.8492	0.0142
637.0367	0.0131
637.2241	0.0132
637.4115	0.0284
637.5989	-0
637.7863	0.0273
637.9737	0.0065
638.161	0.0199
638.3484	-0.0002
638.5357	0.0159
638.723	0.0237
638.9103	-0.0107
639.0975	0.0101
639.2848	0.0117
639.472	-0.002
639.6592	-0.0052
639.8464	0.0121
640.0336	0.007
640.2208	0.0139
640.4079	0.0087
640.595	0.0087
640.7821	0.0173
640.9692	-0.0054
641.1563	0.0006
641.3434	0.0226
641.5304	0.0282
641.7174	0.0126
641.9044	0.0116
642.0914	-0.0029
642.2784	0.0043
642.4653	-0.0115
642.6523	0.0088
642.8392	0.0053
643.0261	0.0343
643.213	0.0202
643.3999	0.0061
643.5867	0.0105
643.7735	0.0009
643.9604	0.0159
644.1472	0.0136
644.3339	0.0032
644.5207	0.0061
644.7075	0.0106
644.8942	0.0014
645.0809	-0.0073
645.2676	-0.003
645.4543	0.0137
645.6409	0.0136
645.8276	0.0231
646.0142	0.0103
646.2008	0.0074
646.3874	0.0022
646.574	0.0101
646.7605	0.0184
646.9471	0.0064
647.1336	-0.0132
647.3201	0.0116
647.5066	0.0068
647.6931	0.0059
647.8795	0.013
648.0659	0.0058
648.2524	0.0071
648.4388	0.0122
648.6252	0.0095
648.8115	-0.0027
648.9979	0.0166
649.1842	0.002
649.3705	0.0227
649.5568	-0.0055
649.7431	0.0065
649.9294	-0.0161
650.1156	0.0061
650.3018	0.0162
650.488	0.0059
650.6742	0.0134
650.8604	0.0145
651.0466	0.0054
651.2327	0.0078
651.4188	0.0031
651.6049	0.0198
651.791	0.0097
651.9771	0.0002
652.1632	0.022
652.3492	-0.0002
652.5352	0.0102
652.7212	0.0165
652.9072	0.0078
653.0932	0.0352
653.2791	0.0162
653.465	0.0187
653.651	0.0252
653.8369	0.0188
654.0227	0.006
654.2086	0.0079
654.3944	0.013
654.5803	0.0152
654.7661	0.0048
654.9519	0.0041
655.1377	0.0001
655.3234	0.0001
655.5092	0.0001
655.6949	0.0001
655.8806	0.0001
656.0663	0.0001
656.2519	0.0001
656.4376	0.0001
656.6232	0.0001
656.8088	0.0001
656.9945	0.0001
657.18	0.0001
657.3656	0.0001
657.5511	0.0001
657.7367	0.0001
657.9222	0.0001
658.1077	0.0001
658.2932	0.0001
658.4786	0.0001
658.6641	0.0001
658.8495	0.0001
659.0349	0.0001
659.2203	0.0001
659.4057	0.0125
659.591	0.2975
659.7764	0.0326
659.9617	0.0148
660.147	0.0159
660.3323	0.0141
660.5176	0.0117
660.7028	-0.0005
660.888	0.0192
661.0733	0.0115
661.2585	-0.0119
661.4436	-0.0063
661.6288	0.0281
661.8139	0.0032
661.9991	0.0002
662.1842	0.0093
662.3693	0.0063
662.5544	0.0226
662.7394	0.0193
662.9245	0.0016
663.1095	-0.0099
663.2945	-0.0117
663.4795	-0.0187
663.6644	0.0098
663.8494	0.002
664.0343	0.0394
664.2193	0.0026
664.4042	0.0221
664.589	-0.0068
664.7739	0.0106
664.9587	-0.0158
665.1436	-0.0068
665.3284	0.0132
665.5132	-0.0038
665.698	0.0209
665.8827	0.0093
666.0675	-0.0155
666.2522	0.0024
666.4369	-0.0043
666.6216	0.0261
666.8063	0.0061
666.9909	-0.0094
667.1756	0.0171
667.3602	0.0016
667.5448	0.0168
667.7294	0.0087
667.9139	-0.0039
668.0985	0.0016
668.283	-0.0034
668.4675	0.0096
668.652	0.0173
668.8365	-0.006
669.0209	0.011
669.2054	0.0138
669.3898	0.005
669.5742	0.0268
669.7586	0.0297
669.943	0.0302
670.1273	0.0105
670.3117	0.0212
670.496	0.0094
670.6803	0.0241
670.8646	0.0052
671.0488	0.0255
671.2331	-0.0123
671.4173	0.0083
671.6015	0.0062
671.7857	-0.0015
671.9699	0.0144
672.1541	0.0098
672.3382	0.0063
672.5223	0.0106
672.7064	0.0104
672.8905	0.0002
673.0746	0.0222
673.2587	0.0149
673.4427	0.0127
673.6267	0.0156
673.8107	0.0033
673.9947	0.019
674.1787	0.0085
674.3626	0.013
674.5465	0.0274
674.7304	0.0065
674.9143	-0.0007
675.0982	0.0306
675.2821	0.0218
675.4659	0.003
675.6497	0.0212
675.8335	0.0057
676.0173	0.0124
676.2011	0.0263
676.3849	0.0134
676.5686	0.0291
676.7523	-0.0063
676.936	0.0193
677.1197	0.0033
677.3034	0.0251
677.487	0.0049
677.6706	0.0098
677.8542	0.0072
678.0378	0.0215
678.2214	0.0126
678.405	0.0198
678.5885	-0.0106
678.772	0.0205
678.9555	0.0063
679.139	0.0155
679.3225	0.014
679.5059	0.0002
679.6894	0.0054
679.8728	0.0061
680.0562	0.0058
680.2395	0.0014
680.4229	-0.0133
680.6062	0.007
680.7896	-0.0034
680.9729	0.0215
681.1562	-0.0014
681.3394	0.0163
681.5227	0.0042
681.7059	-0.0067
681.8891	0.0157
682.0723	0.014
682.2555	0.0129
682.4387	0.018
682.6218	0.0095
682.805	0.004
682.9881	0.0245
683.1712	0.0082
683.3542	0.0216
683.5373	-0.0205
683.7203	0.0035
683.9034	0.0089
684.0864	-0.0128
684.2694	-0.0026
684.4523	0.0164
684.6353	0.0173
684.8182	0.0111
685.0011	0.0193
685.184	0.0015
685.3669	0.0164
685.5498	-0.0007
685.7326	-0.0144
685.9154	0.017
686.0982	0.0232
686.281	-0.0011
686.4638	0.0245
686.6465	-0.0029
686.8293	0.0016
687.012	0.0244
687.1947	0.0182
687.3774	-0.0026
687.56	-0.0144
687.7427	0.0034
687.9253	-0.0041
688.1079	0.0204
688.2905	0.0116
688.4731	0.0432
688.6556	0.0096
688.8382	-0.0243
689.0207	0.0388
689.2032	0.0264
689.3857	0.025
689.5681	0.0177
689.7506	0.0082
689.933	0.009
690.1154	0.0211
690.2978	0.0146
690.4802	0.0222
690.6626	0.0075
690.8449	0.0166
691.0272	-0
691.2095	0.0097
691.3918	0.0144
691.5741	0.0301
691.7563	0.0349
691.9386	0.0234
692.1208	0.0187
692.303	-0.0025
692.4852	0.0069
692.6673	0.0232
692.8495	-0.0049
693.0316	0.0268
693.2137	0.0183
693.3958	0.0157
693.5778	0.0071
693.7599	-0.0069
693.9419	0.0041
694.1239	0.0156
694.3059	0.0054
694.4879	0.0078
694.6699	-0.0104
694.8518	0.0245
695.0337	-0.0017
695.2157	0.0269
695.3975	0.0122
695.5794	-0.025
695.7613	0.012
695.9431	0.0107
696.1249	0.0198
696.3067	-0.0042
696.4885	0.027
696.6703	0.0107
696.852	0.0098
697.0337	0.0147
697.2154	0.011
697.3971	0.0076
697.5788	0.0154
697.7605	0.0007
697.9421	0.0312
698.1237	0.0207
698.3053	0.0034
698.4869	0.0157
698.6685	0.0002
698.85	0.0212
699.0315	0.0113
699.213	0.0067
699.3945	0.0027
699.576	0.0251
699.7575	0.0212
699.9389	0.011
700.1203	0.0195
700.3017	0.027
700.4831	0.0471
700.6645	0.031
700.8458	0.0007
701.0271	0.0215
701.2084	0.0269
701.3897	0.0071
701.571	0.0068
701.7523	0.0086
701.9335	0.0109
702.1147	0.0188
702.2959	-0.0022
702.4771	0.0244
702.6583	-0.0032
702.8394	0.0057
703.0205	0.0439
703.2016	-0.0036
703.3827	0.0046
703.5638	0.008
703.7449	0.0201
703.9259	0.038
704.1069	-0.0118
704.2879	0.0163
704.4689	0.0151
704.6499	0.0248
704.8308	-0.0038
705.0117	0.0014
705.1927	-0.0146
705.3735	0.0047
705.5544	0.022
705.7353	0.0105
705.9161	-0.0093
706.0969	-0
706.2777	0.005
706.4585	-0.0038
706.6393	0.0504
706.82	0.0056
707.0007	0.0039
707.1815	0.0212
707.3621	0.0306
707.5428	0.0369
707.7235	-0.0081
707.9041	0.0157
708.0847	0.0086
708.2653	0.0466
708.4459	0.0005
708.6265	0.003
708.807	0.0083
708.9875	0.0171
709.168	-0.005
709.3485	0.0351
709.529	0.0187
709.7095	-0.0149
709.8899	0.0032
710.0703	0.0135
710.2507	0.0053
710.4311	-0.0219
710.6115	0.0404
710.7918	0.017
710.9721	0.018
711.1524	-0.0117
711.3327	0.0063
711.513	0.0129
711.6932	-0.0038
711.8735	0.0395
712.0537	0.0161
712.2339	-0.0057
712.4141	0.0444
712.5942	-0.0004
712.7744	0.0213
712.9545	0.0015
713.1346	0.0349
713.3147	0.0178
713.4947	0.0142
713.6748	0.0115
713.8548	0.0376
714.0348	0.0174
714.2148	0.0176
714.3948	0.0025
714.5748	0.0253
714.7547	0.013
714.9346	0.0399
715.1145	0.0162
715.2944	-0.0231
715.4743	0.0273
715.6541	-0.0009
715.834	0.0456
716.0138	0.0086
716.1936	0.0063
716.3733	0.0189
716.5531	-0.0154
716.7328	0.0491
716.9126	0.0116
717.0923	-0.0097
717.2719	0.0309
717.4516	0.0197
717.6312	-0.0048
717.8109	0.0375
717.9905	0.0006
718.1701	0.0303
718.3496	0.0119
718.5292	0.0153
718.7087	0.012
718.8882	0.0365
719.0677	-0.0073
719.2472	0.0036
719.4267	0.0093
719.6061	-0.0064
719.7856	0.0107
719.965	0.0364
720.1443	-0.0043
720.3237	-0.0009
720.5031	0.017
720.6824	0.0088
720.8617	0.0362
721.041	0.0366
721.2203	0.0044
721.3995	0.0065
721.5788	0.0271
721.758	-0.0017
721.9372	0.0163
722.1164	-0.014
722.2956	0.0106
722.4747	0.0004
722.6538	0.0111
722.8329	0.0288
723.012	0.0239
723.1911	0.0098
723.3702	0.0228
723.5492	0.006
723.7282	0.022
723.9072	0.0195
724.0862	0.0013
724.2652	0.0112
724.4441	0.0165
724.623	0.0033
724.8019	0.0196
724.9808	0.0285
725.1597	0.0191
725.3385	0.026
725.5174	0.0102
725.6962	0.0152
725.875	0.023
726.0538	0.0165
726.2325	0.0341
726.4112	-0.0269
726.59	0.0003
726.7687	-0.0009
726.9474	0.0253
727.126	0.0221
727.3047	0.0119
727.4833	0.016
727.6619	-0.0251
727.8405	0.0195
728.0191	0.019
728.1976	0.0139
728.3762	-0.0128
728.5547	0.0106
728.7332	0.0186
728.9116	0.0308
729.0901	0.0117
729.2686	-0.0007
729.447	0.0083
729.6254	0.0159
729.8038	-0.0013
729.9821	-0.0051
730.1605	0.0138
730.3388	0.0113
730.5171	0.0394
730.6954	-0.0142
730.8737	0.0165
731.0519	0.0038
731.2302	0.0203
731.4084	0.01
731.5866	0.0029
731.7648	0.0033
731.9429	0.0078
732.1211	0.0107
732.2992	0.0203
732.4773	0.0051
732.6554	0.0014
732.8335	0.0158
733.0115	0.0268
733.1896	0.0168
733.3676	0.0097
733.5456	0.0176
733.7235	0.0216
733.9015	0.0243
734.0794	-0.0075
734.2574	-0.0015
734.4353	0.0208
734.6131	0.0127
734.791	0.0189
734.9689	0.0025
735.1467	0.0072
735.3245	0.0216
735.5023	-0
735.68	-0.0084
735.8578	0.0254
736.0355	0.0187
736.2132	0.0197
736.3909	0.0026
736.5686	-0.0022
736.7463	-0.0195
736.9239	0.0169
737.1015	0.0236
737.2791	0.0197
737.4567	0.0352
737.6343	-0.0001
737.8118	0.0242
737.9894	0.0149
738.1669	-0.0001
738.3444	0.0484
738.5218	0.0049
738.6993	0.0111
738.8767	0.0168
739.0541	0.0121
739.2315	0.0047
739.4089	0.0136
739.5863	0.0115
739.7636	0.0055
739.9409	0.0185
740.1182	0.0152
740.2955	0.0284
740.4728	0.006
740.65	0.0146
740.8272	0.0362
741.0044	-0.0048
741.1816	0.0273
741.3588	-0.0207
741.5359	0.0294
741.7131	-0.0066
741.8902	0.0045
742.0673	-0.0238
742.2444	0.0389
742.4214	0.0145
742.5985	0.0221
742.7755	0.0207
742.9525	0.0156
743.1295	-0.0169
743.3064	-0.0111
743.4834	0.0014
743.6603	0.0552
743.8372	-0.0287
744.0141	0.0474
744.191	0.0084
744.3678	-0.0451
744.5446	0.0312
744.7215	-0.004
744.8982	-0.0019
745.075	0.0477
745.2518	0.0285
745.4285	-0.0014
745.6052	-0.03
745.7819	0.0175
745.9586	0.0179
746.1353	-0.0051
746.3119	0.0321
746.4885	0.048
746.6651	0.0184
746.8417	0.0132
747.0183	0.0576
747.1948	-0.0216
747.3714	0.0056
747.5479	0.0206
747.7244	0.0027
747.9008	0.0371
748.0773	0.0194
748.2537	0.0243
748.4301	0.0249
748.6065	-0.0186
748.7829	-0.01
748.9593	-0.0095
749.1356	0.0086
749.3119	0.0155
749.4882	0.0371
749.6645	0.0033
749.8408	0.0444
750.017	0.0205
750.1933	-0.0212
750.3695	0.0248
750.5457	-0.0064
750.7218	-0.0064
750.898	-0.0165
751.0741	0.0031
751.2502	0.0208
751.4263	0.0134
751.6024	-0.003
751.7784	0.0031
751.9545	0.0062
752.1305	0.0079
752.3065	0.0058
752.4825	-0.0099
752.6584	-0.0086
752.8344	0.0059
753.0103	-0.0149
753.1862	0.029
753.3621	0.0055
753.5379	0.0057
753.7138	0.0257
753.8896	0.0178
754.0654	0.0126
754.2412	0.0183
754.417	0.0444
754.5927	0.0226
754.7685	0.0157
754.9442	0.0295
755.1199	0.0032
755.2956	0.0129
755.4712	0.0151
755.6469	0.0017
755.8225	0.0246
755.9981	0.0054
756.1736	0.0102
756.3492	-0.0046
756.5248	0.0175
756.7003	0.0202
756.8758	0.0138
757.0513	0.0193
757.2267	0.0161
757.4022	-0.004
757.5776	0.0133
757.753	0.0319
757.9284	0.0137
758.1038	0.01
758.2791	0.0306
758.4545	-0.0063
758.6298	0.0152
758.8051	-0.0077
758.9803	0.0079
759.1556	0.0029
759.3308	0.0002
759.506	0.0017
759.6812	-0.0047
759.8564	0.0033
760.0316	0.0024
760.2067	0.0212
760.3819	0.0176
760.557	0.0059
760.732	-0.0023
760.9071	0.013
761.0821	-0.0092
761.2572	0.0092
761.4322	0.0153
761.6072	-0.0011
761.7821	-0.009
761.9571	0.0234
762.132	0.003
762.3069	0.0185
762.4818	0.0194
762.6567	-0.0012
762.8316	-0.0014
763.0064	0.0094
763.1812	0.0153
763.356	-0.0022
763.5308	0.0343
763.7055	-0.0111
763.8803	0.0093
764.055	0.0022
764.2297	-0.0017
764.4044	0.0024
764.579	0.0053
764.7537	0.0028
764.9283	0.0251
765.1029	0.0128
765.2775	0.0113
765.4521	0.0122
765.6266	-0.0059
765.8011	0.0109
765.9756	0.0336
766.1501	-0.0137
766.3246	0.0218
766.4991	0.0018
766.6735	0.0048
766.8479	0.0453
767.0223	0.0115
767.1967	0.0237
767.371	0.0119
767.5454	0.0171
767.7197	0.0518
767.894	0.0265
768.0683	0.0274
768.2425	0.0278
768.4168	0.0349
768.591	0.002
768.7652	0.006
768.9394	-0.0301
769.1135	-0.0245
769.2877	0.0302
769.4618	0.0471
769.6359	-0.0156
769.81	0.043
769.984	0.0125
770.1581	0.0144
770.3321	0.0279
770.5061	-0.0086
770.6801	-0.009
770.8541	0.0069
771.028	0.0392
771.202	0.0263
771.3759	0.0404
771.5498	0.0312
771.7236	0.0286
771.8975	0.0306
772.0713	0.0196
772.2451	0.0178
772.4189	0.0053
772.5927	-0.028
772.7665	0.008
772.9402	0.0353
773.1139	0.0083
773.2876	0.0005
773.4613	-0.0085
773.635	0.0378
773.8086	0.0326
773.9822	0.0239
774.1558	0.0498
774.3294	-0.0042
774.503	0.0212
774.6765	0.0596
774.8501	-0.0181
775.0236	0.0252
775.1971	0.0146
775.3705	0.0449
775.544	0.0377
775.7174	0.0427
775.8908	0.0204
776.0642	0.0279
776.2376	0.0653
776.4109	-0.001
776.5843	-0.038
776.7576	0.036
776.9309	0.0015
777.1041	-0.0019
777.2774	-0.0043
777.4506	0.0182
777.6238	-0.019
777.797	0.0327
777.9702	0.0214
778.1434	0.0055
778.3165	-0.0135
778.4896	-0.0299
778.6627	0.0116
778.8358	-0.0058
779.0089	0.0035
779.1819	0.018
779.3549	0.0011
779.5279	-0.0091
779.7009	0.0589
779.8739	0.0694
780.0468	-0.014
780.2197	0.0323
780.3926	0.0139
780.5655	0.018
780.7384	0.032
780.9112	0.0634
781.0841	0.0252
781.2569	0.0136
781.4297	0.0133
781.6024	0.0267
781.7752	0.0583
781.9479	0.0259
782.1206	-0.0177
782.2933	0.0114
782.466	0.0447
782.6386	-0.0207
782.8113	0.0081
782.9839	0.0082
783.1565	0.0242
783.329	-0.0177
783.5016	0.012
783.6741	-0.0092
783.8466	0.0686
784.0191	0.0075
784.1916	0.0078
784.3641	-0.0138
784.5365	0.0347
784.7089	-0.0197
784.8813	0.0631
785.0537	0.0202
785.2261	-0.0104
785.3984	0.0336
785.5707	-0.0389
785.743	0.0535
785.9153	-0.0045
786.0876	-0.0099
786.2598	0.0221
786.432	-0.0104
786.6042	0.0369
786.7764	-0.0287
786.9486	-0.0063
787.1207	0.0481
787.2928	0.0414
787.4649	-0.0097
787.637	0.004
787.8091	0.0148
787.9811	0.0066
788.1532	-0.0001
788.3252	-0.015
788.4972	0.0173
788.6691	-0.0071
788.8411	-0.0131
789.013	0.0068
789.1849	-0.0051
789.3568	0.0351
789.5287	0.0626
789.7005	-0.0058
789.8723	-0.0212
790.0442	-0.0234
790.2159	0.0177
790.3877	0.0283
790.5595	0.031
790.7312	0.0099
790.9029	-0.0577
791.0746	0.0401
791.2463	-0.0757
791.4179	0.0682
791.5896	-0.0002
791.7612	0.0266
791.9328	-0.0173
792.1044	0.0113
792.2759	-0.0624
792.4474	0.0176
792.619	0.0195
792.7905	0.0517
792.9619	0.0456
793.1334	0.0943
793.3048	0.0958
793.4762	-0.0418
793.6476	-0.0056
793.819	0.0288
793.9904	-0.0225
794.1617	0.003
794.333	0.0176
794.5043	0.0296
794.6756	0.0034
794.8469	-0.0049
795.0181	0.0205
795.1893	0.0437
795.3605	0.0104
795.5317	-0.0337
795.7029	0.0041
795.874	0.0523
796.0452	0.0481
796.2163	0.0577
796.3873	0.0548
796.5584	0.0806
796.7294	0.0814
796.9005	0.0396
797.0715	0.024
797.2425	0.1177
797.4134	0.0968
797.5844	0.0279
797.7553	-0.1082
797.9262	0.0882
798.0971	0.04
798.2679	0.0059
798.4388	0.0301
798.6096	0.0887
798.7804	0.0084
798.9512	0.0312
799.122	-0.0028
799.2927	0.0586
799.4635	-0.0276
799.6342	-0.0138
799.8049	0.0873
799.9755	-0.0493
800.1462	-0.0215
800.3168	0.0469
800.4874	-0.076
800.658	0.0855
800.8286	-0.0214
800.9991	-0.0187
801.1696	-0.0243
801.3402	0.0037
801.5106	-0.0499
801.6811	0.073
801.8516	0.0094
802.022	0.0329
802.1924	-0.0401
802.3628	-0.0062
802.5332	0.0182
802.7035	0.0208
802.8739	0.0852
803.0442	0.0661
803.2145	-0.0003
803.3847	-0.0094
803.555	0.0103
803.7252	-0.063
803.8954	-0.0439
804.0656	0.0043
804.2358	0.0539
804.4059	0.0593
804.5761	0.0016
804.7462	0.0282
804.9163	0.0882
805.0864	-0.0354
805.2564	-0.0224
805.4264	0.0269
805.5965	0.0552
805.7665	0.02
805.9364	-0.0487
806.1064	0.0189
806.2763	0.077
806.4462	0.0226
806.6161	0.0869
806.786	-0.0393
806.9559	0.0808
807.1257	-0.0171
807.2955	-0.041
807.4653	-0.0014
807.6351	0.0185
807.8048	0.0804
807.9746	0.0456
808.1443	0.0205
808.314	0.0612
808.4837	0.0241
808.6533	-0.0156
808.8229	0.0543
808.9926	0.085
809.1622	0.0793
809.3317	0.0014
809.5013	-0.0182
809.6708	-0.0292
809.8403	0.0697
810.0098	0.0545
810.1793	-0.0208
810.3488	0.0173
810.5182	0.1489
810.6876	-0.0247
810.857	-0.0582
811.0264	-0.0525
811.1958	0.0354
811.3651	-0.012
811.5344	0.158
811.7037	0.0674
811.873	0.1293
812.0422	-0.0005
812.2115	0.0162
812.3807	0.0332
812.5499	-0.003
812.7191	-0.1133
812.8882	-0.0219
813.0574	-0.003
813.2265	0.0276
813.3956	0.0411
813.5646	0.1012
813.7337	0.0217
813.9027	0.036
814.0718	0.0319
814.2407	0.0418
814.4097	0.095
814.5787	0.15
814.7476	0.0027
814.9165	-0.0489
815.0854	-0.0078
815.2543	0.0139
815.4232	0.0502
815.592	0.1107
815.7608	0.2273
815.9296	-0.0554
816.0984	0.1294
816.2671	-0.1404
816.4359	0.0679
816.6046	-0.0184
816.7733	-0.043
816.942	0.0751
817.1106	0.1959
817.2793	-0.0005
817.4479	0.0067
817.6165	0.0749
817.785	0.0447
817.9536	-0.025
818.1221	0.0038
818.2906	-0.0039
818.4591	0.0367
818.6276	0.0828
818.7961	-0.1193
818.9645	-0.0462
819.1329	0.0872
819.3013	-0.0192
819.4697	-0.0273
819.638	0.0998
819.8064	0.0195
819.9747	0.0299
820.143	-0.0421
820.3113	0.1697
820.4795	0.1547
820.6477	0.0915
820.816	0.0324
820.9842	0.0727
821.1523	-0.0443
821.3205	0.0769
821.4886	0.0757
821.6567	0.0093
821.8248	0.1027
821.9929	-0.0267
822.1609	0.1093
822.329	-0.0507
822.497	0.1016
822.665	-0.0005
822.833	0.0265
823.0009	0.0284
823.1688	0.0778
823.3367	-0.0812
823.5046	0.1284
823.6725	-0.0351
823.8404	-0.0713
824.0082	-0.0892
824.176	0.0093
824.3438	0.2196
824.5116	-0.0254
824.6793	0.1746
824.847	0.082
825.0147	0.2404
825.1824	-0.004
825.3501	0.1611
825.5177	0.0064
825.6854	-0.0391
825.853	0.0208
826.0206	0.0489
826.1881	-0.0388
826.3557	-0.0076
826.5232	0.0973
826.6907	0.0547
826.8582	-0.0857
827.0257	0.1743
827.1931	0.1571
827.3605	-0.0742
827.528	-0.1376
827.6953	-0.108
827.8627	-0.1371
828.03	0.0849
828.1974	-0.017
828.3647	0.1238
828.532	0.084
828.6992	0.2582
828.8665	-0.247
829.0337	0.0511
829.2009	-0.1487
829.3681	-0.0252
829.5352	-0.2207
829.7024	0.065
829.8695	-0.0573
830.0366	0.1018
830.2037	0.1601
830.3707	0.1196
830.5378	-0.0277
830.7048	-0.0145
830.8718	0.0124
831.0388	-0.0604
831.2057	-0.0388
831.3727	-0.2512
831.5396	0.4787
831.7065	-0.7084
831.8734	0.4317
832.0402	0.1985
832.2071	-0.6151
832.3739	0.1814
832.5407	-2.0317
832.7075	-0.3468
832.8742	0.7481
833.041	0.2776
833.2077	0.9775
833.3744	0.0995
833.541	0.3204
833.7077	-0.1201
833.8743	-0.0737
834.0409	0.0168
834.2075	-0.078
834.3741	-0.0783
834.5407	-0.0495
834.7072	0.3478
834.8737	0.4784
835.0402	0.6234
835.2067	0.0628
835.3731	-0.0611
835.5395	0.0144
835.706	-0.182
835.8723	-0.1233
836.0387	0.1286
836.2051	0.3916
836.3714	0.3155
836.5377	1.163
836.704	0.1068
836.8703	-0.0642
837.0365	-0
837.2027	0.3435
837.3689	0.4738
837.5351	0.6909
837.7013	-0.0115
837.8674	-0.4858
838.0335	-0.1414
838.1997	-0.2295
838.3657	2.1634
838.5318	-0.7311
838.6978	0.0919
838.8639	-0.0879
839.0299	0.2881
839.1958	0.2536
839.3618	0.0857
839.5277	-0.1449
839.6937	-0.0865
839.8596	0.1651
840.0254	-0.1433
840.1913	-0.0367
840.3571	-0.1069
840.523	-1.1004
840.6888	0.1789
840.8545	-0.4014
841.0203	0.2608
841.186	-0.0086
841.3517	-0.2054
841.5174	0.1333
841.6831	0.3216
841.8488	-0.1433
842.0144	1.4061
842.18	0.6935
842.3456	-0.5209
842.5112	-0
842.6767	-0.0221
842.8422	-0.3373
843.0077	0.0057
843.1732	-0.3275
843.3387	-0.2706
843.5042	0.8067
843.6696	0.5141
843.835	0.7096
844.0004	-0.1543
844.1657	-0
844.3311	0.3634
844.4964	-0.4038
844.6617	0.8331
844.827	0.4486
844.9923	0.2643
845.1575	0.4398
845.3227	-0.4043
845.4879	0.3206
845.6531	0.1757
845.8183	-0.0688
845.9834	0.3646
846.1485	-0.0897
846.3136	-0.066
846.4787	-0
846.6438	-0.1077
846.8088	0.5338
846.9738	-0.2808
847.1388	0.1816
847.3038	0.3462
847.4687	-0
847.6337	-0.5037
847.7986	-0.1139
847.9635	0.779
848.1284	0.316
848.2932	0.3342
848.458	-0
848.6228	0.2677
848.7876	-0
848.9524	-0.3103
849.1172	-1.7076
849.2819	-0
849.4466	0.2138
849.6113	-0.0616
849.7759	-0
849.9406	-0.1297
850.1052	-1.2112
850.2698	0.8888
850.4344	-0.7611
850.599	-0.0023
850.7635	0.0731
850.928	0.5152
851.0925	0.5297
851.257	-0.3243
851.4215	-0.0024
851.5859	0.3378
851.7503	-0
851.9147	0.1324
852.0791	0.2932
852.2434	0.3355
852.4078	-0
852.5721	0.8482
852.7364	-0.0319
852.9007	0.0349
853.0649	-0
853.2291	0.4442
853.3934	-0
853.5575	-0.0243
853.7217	-0
853.8859	-0
854.05	0.6711
854.2141	0.3165
854.3782	-0
854.5423	-0.4603
854.7063	0.0689
854.8703	0.1502
855.0343	0.1507
855.1983	-0.0232
855.3623	0.607
855.5262	-0.0215
855.6901	0.1758
855.854	-0.051
856.0179	-0.2561
856.1818	0.2384
856.3456	0.1457
856.5094	-0
856.6732	0.1522
856.837	-0.6192
857.0008	-0
857.1645	-0.0037
857.3282	0.4872
857.4919	1.0683
857.6556	-0
857.8192	-0.1565
857.9828	0.0847
858.1465	-0
858.31	-0
858.4736	-0.6834
858.6372	-0.1741
858.8007	0.0106
858.9642	0.3906
859.1277	0.6703
859.2911	-0.698
859.4546	-0.8921
859.618	-0
859.7814	0.4278
859.9448	-0
860.1081	-0
860.2715	-1.2231
860.4348	-0.1619
860.5981	0.3995
860.7614	-0
860.9246	0.2091
861.0879	0.0331
861.2511	-0
861.4143	-0
861.5774	-0.3709
861.7406	0.0386
861.9037	-0.4771
862.0668	-0.1681
862.2299	-0.0317
862.393	-0
862.556	-0
862.7191	0.3634
862.8821	0.2704
863.0451	-0.2362
863.208	0.0684
863.371	0.0444
863.5339	0.4431
863.6968	0.1205
863.8597	-0
864.0225	-0.4555
864.1854	-0.3745
864.3482	-0
864.511	-0
864.6737	-0.0556
864.8365	-0.1665
864.9992	-0
865.1619	-0.2009
865.3246	-1.4314
865.4873	-0.2584
865.65	0.5275
865.8126	-0.0403
865.9752	-0.0526
866.1378	-0.135
866.3004	-0.2823
866.4629	-1.865
866.6254	-0
866.7879	-0.1138
866.9504	0.3893
867.1129	1.2888
867.2753	0.1097
867.4377	-0.2137
867.6001	-0.3116
867.7625	-0.2001
867.9249	0.2155
868.0872	-0.1748
868.2495	0.492
868.4118	-0
868.5741	-0.1719
868.7363	-0
868.8986	-0.6903
869.0608	-0
869.223	-0.3953
869.3851	-0.2179
869.5473	-0.1204
869.7094	-0
869.8715	-0.6949
870.0336	0.045
870.1957	-1.0136
870.3577	0.0395
870.5197	0.5164
870.6817	-0.3199
870.8437	-0.1976
871.0057	-0.0129
871.1676	0.2251
871.3295	-0
871.4914	-1.7993
871.6533	-0.1091
871.8151	0.6548
871.977	-0
872.1388	1.4168
872.3006	-0
872.4623	-0.7468
872.6241	-0
872.7858	-0
872.9475	-0
873.1092	1.0449
873.2709	0.6461
873.4325	-1.3396
873.5941	-0
873.7557	-0
873.9173	0.401
874.0789	0.4948
874.2404	-0
874.4019	-0.097
874.5634	-0
874.7249	-0
874.8863	-0.2252
875.0478	0.3442
875.2092	0.8563
875.3706	-0
875.5319	0.1396
875.6933	-0
875.8546	-0
876.0159	-0.0089
876.1772	0.2218
876.3385	1.3082
876.4997	0.7398
876.6609	0.0556
876.8221	-0
876.9833	-0.0686
877.1445	0.3557
877.3056	0.1691
877.4667	-1.1315
877.6278	-0
877.7889	-0.147
877.9499	-0
878.111	-0.2635
878.272	-0.0803
878.433	0.9333
878.5939	-0.1976
878.7549	-0
878.9158	-0
879.0767	-0.1776
879.2376	-0.2572
879.3984	-0
879.5593	0.2369
879.7201	-1.4833
879.8809	-0
880.0417	-0.0018
880.2024	-0
880.3632	-0.0062
880.5239	-0.1315
880.6846	-0.4233
880.8452	0.6075
881.0059	-0
881.1665	0.3416
881.3271	0.1585
881.4877	-0
881.6483	-1.3295
881.8088	-0.9232
881.9693	-1.1552
882.1298	-1.1552
882.2903	-1.1552
