Data from D4ACN5uM420nmA_Absorbance_14-37-09-642.txt Node
Date: Fri Feb 21 14:37:09 GMT 2025
User: LASERRRRR
Spectrometer: FLMT03099
Trigger mode: 0
Integration Time (sec): 1.500000E-2
Scans to average: 1
Electric dark correction enabled: true
Nonlinearity correction enabled: false
Boxcar width: 0
XAxis mode: Wavelengths
Number of Pixels in Spectrum: 3648
>>>>>Begin Spectral Data<<<<<
179.3399	-0
179.5586	-0
179.7771	-0
179.9957	-0.3449
180.2143	-0
180.4329	1.3131
180.6514	-0
180.8699	0.4692
181.0885	-0.1995
181.307	0.1378
181.5255	0.0842
181.744	-0.1679
181.9625	0.3399
182.181	1.2759
182.3994	-0
182.6179	0.6059
182.8363	-0
183.0547	0.0158
183.2732	-0.0003
183.4916	0.124
183.71	0.2156
183.9284	0.294
184.1467	0.3918
184.3651	-0.0638
184.5835	0.1358
184.8018	0.0349
185.0201	0.0721
185.2385	0.2367
185.4568	-0.072
185.6751	0.0822
185.8934	0.1005
186.1117	0.0611
186.3299	0.2009
186.5482	0.3834
186.7664	0.2938
186.9847	0.1882
187.2029	0.3329
187.4211	0.1015
187.6393	0.0061
187.8575	0.3706
188.0757	0.591
188.2939	0.1448
188.512	0.1522
188.7302	0.1308
188.9483	0.2977
189.1665	0.4938
189.3846	0.2202
189.6027	0.1023
189.8208	0.0575
190.0389	0.0955
190.257	0.0295
190.475	0.1726
190.6931	0.096
190.9111	0.2544
191.1292	0.2519
191.3472	0.1028
191.5652	0.0382
191.7832	0.1201
192.0012	0.1631
192.2192	0.1808
192.4371	0.0912
192.6551	0.1625
192.873	0.0728
193.091	0.1929
193.3089	0.1365
193.5268	0.221
193.7447	0.1502
193.9626	0.2314
194.1805	0.24
194.3984	0.1464
194.6162	0.2196
194.8341	0.2453
195.0519	0.2025
195.2697	0.2694
195.4875	0.2982
195.7054	0.2843
195.9231	0.2686
196.1409	0.2862
196.3587	0.2809
196.5765	0.3069
196.7942	0.2664
197.012	0.3529
197.2297	0.2749
197.4474	0.361
197.6651	0.3375
197.8828	0.3531
198.1005	0.3628
198.3182	0.3736
198.5358	0.3357
198.7535	0.3668
198.9711	0.383
199.1888	0.3422
199.4064	0.4088
199.624	0.3685
199.8416	0.3197
200.0592	0.441
200.2767	0.3543
200.4943	0.3942
200.7119	0.3732
200.9294	0.3931
201.1469	0.3625
201.3645	0.4645
201.582	0.3793
201.7995	0.3995
202.017	0.3842
202.2344	0.4087
202.4519	0.397
202.6694	0.3767
202.8868	0.3687
203.1042	0.4143
203.3217	0.3358
203.5391	0.3954
203.7565	0.3724
203.9739	0.3635
204.1913	0.333
204.4086	0.344
204.626	0.3416
204.8433	0.3457
205.0607	0.3562
205.278	0.2945
205.4953	0.3341
205.7126	0.3535
205.9299	0.3152
206.1472	0.2963
206.3644	0.382
206.5817	0.3561
206.7989	0.3206
207.0162	0.3174
207.2334	0.3081
207.4506	0.3173
207.6678	0.2986
207.885	0.2894
208.1022	0.3106
208.3194	0.2562
208.5365	0.2798
208.7537	0.2873
208.9708	0.2846
209.1879	0.2812
209.405	0.2635
209.6222	0.2562
209.8392	0.2833
210.0563	0.2738
210.2734	0.2434
210.4905	0.2598
210.7075	0.2557
210.9245	0.2614
211.1416	0.2517
211.3586	0.2417
211.5756	0.2258
211.7926	0.2569
212.0096	0.2604
212.2265	0.2459
212.4435	0.2486
212.6604	0.2444
212.8774	0.2279
213.0943	0.2354
213.3112	0.2576
213.5281	0.2276
213.745	0.2271
213.9619	0.2393
214.1788	0.2608
214.3956	0.2377
214.6125	0.2399
214.8293	0.2296
215.0461	0.2277
215.2629	0.2424
215.4798	0.2349
215.6965	0.241
215.9133	0.2168
216.1301	0.2446
216.3469	0.2269
216.5636	0.2314
216.7803	0.2285
216.9971	0.25
217.2138	0.2308
217.4305	0.231
217.6472	0.2232
217.8639	0.2448
218.0805	0.2409
218.2972	0.2333
218.5138	0.244
218.7305	0.252
218.9471	0.2423
219.1637	0.2529
219.3803	0.2442
219.5969	0.2467
219.8135	0.2472
220.0301	0.257
220.2466	0.2355
220.4632	0.2398
220.6797	0.2465
220.8962	0.2517
221.1127	0.2428
221.3292	0.2624
221.5457	0.2613
221.7622	0.2632
221.9787	0.2824
222.1951	0.2681
222.4116	0.2762
222.628	0.2693
222.8444	0.2697
223.0608	0.2611
223.2772	0.2738
223.4936	0.2569
223.71	0.2788
223.9264	0.2809
224.1427	0.2905
224.3591	0.2773
224.5754	0.2662
224.7917	0.2907
225.008	0.277
225.2243	0.2959
225.4406	0.2851
225.6569	0.2999
225.8732	0.2991
226.0894	0.308
226.3057	0.3022
226.5219	0.3076
226.7381	0.3291
226.9543	0.3079
227.1705	0.3148
227.3867	0.3175
227.6029	0.3189
227.8191	0.328
228.0352	0.325
228.2513	0.3454
228.4675	0.3341
228.6836	0.3457
228.8997	0.3347
229.1158	0.3538
229.3319	0.3582
229.548	0.3513
229.764	0.3515
229.9801	0.3757
230.1961	0.3735
230.4121	0.3686
230.6282	0.3895
230.8442	0.3858
231.0602	0.3837
231.2761	0.3755
231.4921	0.3869
231.7081	0.4064
231.924	0.411
232.14	0.4052
232.3559	0.3954
232.5718	0.417
232.7877	0.4101
233.0036	0.4194
233.2195	0.4191
233.4353	0.4218
233.6512	0.4228
233.867	0.4284
234.0829	0.42
234.2987	0.4244
234.5145	0.4395
234.7303	0.4422
234.9461	0.4388
235.1619	0.439
235.3776	0.4297
235.5934	0.4287
235.8091	0.4472
236.0249	0.45
236.2406	0.4436
236.4563	0.4371
236.672	0.4441
236.8877	0.4501
237.1034	0.4454
237.319	0.4536
237.5347	0.4443
237.7503	0.4498
237.966	0.4571
238.1816	0.457
238.3972	0.4553
238.6128	0.4618
238.8284	0.4578
239.0439	0.459
239.2595	0.4621
239.475	0.4534
239.6906	0.4487
239.9061	0.4663
240.1216	0.4534
240.3371	0.4635
240.5526	0.4622
240.7681	0.4682
240.9836	0.4561
241.199	0.4726
241.4145	0.4495
241.6299	0.4595
241.8453	0.4418
242.0607	0.437
242.2761	0.4457
242.4915	0.4389
242.7069	0.4259
242.9223	0.4304
243.1376	0.4167
243.353	0.4143
243.5683	0.4099
243.7836	0.4014
243.9989	0.3874
244.2142	0.3901
244.4295	0.3872
244.6448	0.3769
244.86	0.3658
245.0753	0.3598
245.2905	0.3508
245.5057	0.3517
245.721	0.3539
245.9362	0.3408
246.1514	0.3381
246.3665	0.3216
246.5817	0.3115
246.7969	0.313
247.012	0.3025
247.2271	0.3063
247.4423	0.3
247.6574	0.2957
247.8725	0.2804
248.0876	0.2786
248.3026	0.2832
248.5177	0.2635
248.7328	0.2641
248.9478	0.2559
249.1628	0.2566
249.3779	0.2473
249.5929	0.24
249.8079	0.2469
250.0228	0.2369
250.2378	0.2316
250.4528	0.2378
250.6677	0.23
250.8827	0.2235
251.0976	0.2195
251.3125	0.2209
251.5274	0.2129
251.7423	0.2109
251.9572	0.2129
252.172	0.2127
252.3869	0.2139
252.6017	0.2129
252.8166	0.2091
253.0314	0.2062
253.2462	0.1961
253.461	0.1959
253.6758	0.1963
253.8906	0.2006
254.1053	0.1995
254.3201	0.1923
254.5348	0.1905
254.7496	0.1871
254.9643	0.1984
255.179	0.1943
255.3937	0.1924
255.6083	0.193
255.823	0.1848
256.0377	0.1862
256.2523	0.1904
256.467	0.1903
256.6816	0.1822
256.8962	0.1891
257.1108	0.1919
257.3254	0.1868
257.54	0.179
257.7545	0.1875
257.9691	0.1843
258.1836	0.1788
258.3981	0.1845
258.6127	0.1763
258.8272	0.1858
259.0417	0.1784
259.2561	0.1791
259.4706	0.1852
259.6851	0.1818
259.8995	0.1774
260.114	0.1828
260.3284	0.1802
260.5428	0.1791
260.7572	0.1798
260.9716	0.1906
261.186	0.1778
261.4003	0.1777
261.6147	0.179
261.829	0.1892
262.0433	0.1832
262.2577	0.1788
262.472	0.1816
262.6863	0.187
262.9005	0.1829
263.1148	0.1858
263.3291	0.1907
263.5433	0.1853
263.7576	0.1907
263.9718	0.1923
264.186	0.1916
264.4002	0.1993
264.6144	0.2003
264.8286	0.1956
265.0427	0.1957
265.2569	0.1976
265.471	0.1911
265.6851	0.195
265.8993	0.1959
266.1134	0.1983
266.3275	0.1953
266.5415	0.1967
266.7556	0.2018
266.9697	0.2016
267.1837	0.1922
267.3978	0.1999
267.6118	0.1916
267.8258	0.201
268.0398	0.1999
268.2538	0.2029
268.4677	0.1945
268.6817	0.1961
268.8957	0.1956
269.1096	0.1972
269.3235	0.191
269.5374	0.2026
269.7514	0.1962
269.9652	0.1941
270.1791	0.1868
270.393	0.1951
270.6068	0.1932
270.8207	0.1948
271.0345	0.1949
271.2483	0.1852
271.4622	0.1941
271.676	0.2003
271.8897	0.1934
272.1035	0.1972
272.3173	0.1969
272.531	0.1996
272.7448	0.1974
272.9585	0.1937
273.1722	0.1966
273.3859	0.1967
273.5996	0.1969
273.8133	0.1971
274.0269	0.1995
274.2406	0.2029
274.4542	0.2023
274.6679	0.206
274.8815	0.207
275.0951	0.2056
275.3087	0.2147
275.5223	0.2058
275.7358	0.2091
275.9494	0.2139
276.1629	0.2121
276.3765	0.2107
276.59	0.2081
276.8035	0.2108
277.017	0.2196
277.2305	0.2177
277.444	0.2146
277.6574	0.2201
277.8709	0.2186
278.0843	0.221
278.2978	0.2154
278.5112	0.2157
278.7246	0.2141
278.938	0.2169
279.1513	0.2143
279.3647	0.2141
279.5781	0.214
279.7914	0.2142
280.0047	0.2123
280.2181	0.209
280.4314	0.208
280.6447	0.2125
280.8579	0.2001
281.0712	0.204
281.2845	0.2068
281.4977	0.2032
281.711	0.1945
281.9242	0.2038
282.1374	0.2
282.3506	0.1977
282.5638	0.1948
282.7769	0.1886
282.9901	0.1912
283.2033	0.1988
283.4164	0.1967
283.6295	0.1933
283.8426	0.188
284.0557	0.1967
284.2688	0.1936
284.4819	0.19
284.695	0.1986
284.908	0.1856
285.1211	0.1957
285.3341	0.1927
285.5471	0.1947
285.7601	0.1947
285.9731	0.1941
286.1861	0.1912
286.3991	0.1933
286.612	0.1894
286.825	0.1932
287.0379	0.186
287.2508	0.185
287.4637	0.1894
287.6766	0.1919
287.8895	0.1835
288.1024	0.1964
288.3152	0.1875
288.5281	0.1857
288.7409	0.1932
288.9538	0.1839
289.1666	0.1912
289.3794	0.184
289.5922	0.1835
289.8049	0.1856
290.0177	0.1885
290.2304	0.1844
290.4432	0.1924
290.6559	0.1876
290.8686	0.1873
291.0813	0.1907
291.294	0.1904
291.5067	0.1858
291.7194	0.1804
291.932	0.1842
292.1447	0.184
292.3573	0.1891
292.5699	0.1865
292.7825	0.1857
292.9951	0.1828
293.2077	0.1869
293.4203	0.1841
293.6328	0.1766
293.8454	0.1881
294.0579	0.1831
294.2704	0.19
294.4829	0.18
294.6954	0.1819
294.9079	0.1769
295.1204	0.1815
295.3328	0.1905
295.5453	0.1831
295.7577	0.1857
295.9701	0.1834
296.1825	0.1825
296.3949	0.1824
296.6073	0.1804
296.8197	0.1776
297.0321	0.1897
297.2444	0.1866
297.4567	0.1867
297.6691	0.1827
297.8814	0.1849
298.0937	0.1814
298.306	0.1843
298.5182	0.1849
298.7305	0.1843
298.9428	0.1843
299.155	0.1812
299.3672	0.182
299.5794	0.1847
299.7916	0.1865
300.0038	0.1816
300.216	0.1868
300.4282	0.1851
300.6403	0.1913
300.8525	0.183
301.0646	0.1812
301.2767	0.1892
301.4888	0.1899
301.7009	0.1852
301.913	0.1906
302.125	0.1824
302.3371	0.1879
302.5491	0.1888
302.7612	0.1936
302.9732	0.189
303.1852	0.1865
303.3972	0.1919
303.6092	0.1874
303.8211	0.1876
304.0331	0.1836
304.245	0.1889
304.457	0.1819
304.6689	0.1851
304.8808	0.181
305.0927	0.1808
305.3046	0.1806
305.5164	0.1797
305.7283	0.1734
305.9401	0.1697
306.152	0.1754
306.3638	0.1768
306.5756	0.1809
306.7874	0.1776
306.9992	0.1726
307.2109	0.1713
307.4227	0.1693
307.6344	0.1757
307.8462	0.1717
308.0579	0.1766
308.2696	0.1687
308.4813	0.1731
308.693	0.1627
308.9046	0.1685
309.1163	0.1632
309.328	0.1639
309.5396	0.1591
309.7512	0.17
309.9628	0.1575
310.1744	0.1581
310.386	0.1543
310.5976	0.158
310.8091	0.1618
311.0207	0.1568
311.2322	0.1541
311.4437	0.1593
311.6552	0.1546
311.8667	0.1558
312.0782	0.1577
312.2897	0.1546
312.5012	0.1532
312.7126	0.1496
312.924	0.1513
313.1355	0.1477
313.3469	0.1442
313.5583	0.1499
313.7696	0.1448
313.981	0.1552
314.1924	0.1441
314.4037	0.1417
314.6151	0.1459
314.8264	0.1523
315.0377	0.1487
315.249	0.1527
315.4603	0.1504
315.6716	0.1506
315.8828	0.1504
316.0941	0.1455
316.3053	0.145
316.5165	0.1456
316.7277	0.139
316.9389	0.1472
317.1501	0.1483
317.3613	0.1473
317.5724	0.1449
317.7836	0.1378
317.9947	0.1401
318.2058	0.1428
318.417	0.1402
318.6281	0.1414
318.8391	0.1465
319.0502	0.1391
319.2613	0.1403
319.4723	0.142
319.6834	0.1483
319.8944	0.141
320.1054	0.1408
320.3164	0.1394
320.5274	0.1436
320.7383	0.1492
320.9493	0.1454
321.1602	0.1442
321.3712	0.1394
321.5821	0.1401
321.793	0.1525
322.0039	0.142
322.2148	0.1459
322.4257	0.1411
322.6365	0.1386
322.8474	0.1445
323.0582	0.1421
323.269	0.1414
323.4798	0.1445
323.6906	0.1356
323.9014	0.139
324.1122	0.1413
324.3229	0.1468
324.5337	0.1463
324.7444	0.1457
324.9551	0.1469
325.1658	0.1415
325.3765	0.1449
325.5872	0.151
325.7979	0.1459
326.0085	0.1443
326.2192	0.1465
326.4298	0.1541
326.6404	0.1533
326.851	0.1483
327.0616	0.1493
327.2722	0.1543
327.4828	0.157
327.6933	0.1606
327.9039	0.1486
328.1144	0.1608
328.3249	0.1526
328.5354	0.1596
328.7459	0.1589
328.9564	0.1598
329.1669	0.1639
329.3773	0.1555
329.5878	0.1511
329.7982	0.1561
330.0086	0.1625
330.219	0.1537
330.4294	0.1612
330.6398	0.1587
330.8502	0.1634
331.0605	0.1636
331.2708	0.1615
331.4812	0.1597
331.6915	0.1593
331.9018	0.1552
332.1121	0.1626
332.3224	0.1591
332.5326	0.1558
332.7429	0.1649
332.9531	0.1678
333.1633	0.1578
333.3735	0.1571
333.5837	0.1609
333.7939	0.1586
334.0041	0.1659
334.2143	0.1579
334.4244	0.1724
334.6346	0.1556
334.8447	0.1588
335.0548	0.1661
335.2649	0.165
335.475	0.1634
335.685	0.1633
335.8951	0.156
336.1051	0.1654
336.3152	0.1655
336.5252	0.1598
336.7352	0.1602
336.9452	0.1595
337.1552	0.1563
337.3652	0.1576
337.5751	0.1581
337.7851	0.1625
337.995	0.1574
338.2049	0.155
338.4148	0.1632
338.6247	0.1646
338.8346	0.159
339.0445	0.1608
339.2543	0.1553
339.4642	0.1573
339.674	0.151
339.8838	0.1682
340.0936	0.1643
340.3034	0.1546
340.5132	0.157
340.7229	0.1624
340.9327	0.172
341.1424	0.1609
341.3522	0.1581
341.5619	0.1644
341.7716	0.1635
341.9813	0.164
342.1909	0.1697
342.4006	0.1686
342.6102	0.1695
342.8199	0.1696
343.0295	0.1617
343.2391	0.1702
343.4487	0.1682
343.6583	0.1722
343.8679	0.1712
344.0774	0.1666
344.287	0.1734
344.4965	0.1785
344.706	0.1804
344.9155	0.1763
345.125	0.1718
345.3345	0.1864
345.544	0.173
345.7534	0.1772
345.9629	0.1796
346.1723	0.1859
346.3817	0.1842
346.5911	0.1753
346.8005	0.1916
347.0099	0.1882
347.2193	0.1895
347.4286	0.1946
347.638	0.1928
347.8473	0.1904
348.0566	0.1915
348.2659	0.1915
348.4752	0.1927
348.6845	0.192
348.8937	0.1915
349.103	0.187
349.3122	0.1986
349.5214	0.1887
349.7306	0.2042
349.9398	0.1954
350.149	0.1872
350.3582	0.1908
350.5674	0.188
350.7765	0.1899
350.9856	0.1949
351.1948	0.1951
351.4039	0.1955
351.613	0.195
351.822	0.1967
352.0311	0.195
352.2402	0.1966
352.4492	0.1946
352.6582	0.1915
352.8672	0.1945
353.0762	0.1978
353.2852	0.1904
353.4942	0.2013
353.7032	0.1837
353.9121	0.199
354.1211	0.1902
354.33	0.1891
354.5389	0.1915
354.7478	0.1875
354.9567	0.1825
355.1655	0.1955
355.3744	0.1885
355.5833	0.1883
355.7921	0.1883
356.0009	0.1874
356.2097	0.1883
356.4185	0.1816
356.6273	0.1876
356.8361	0.1875
357.0448	0.1862
357.2536	0.1833
357.4623	0.1891
357.671	0.1864
357.8797	0.1862
358.0884	0.1809
358.2971	0.1887
358.5057	0.1904
358.7144	0.1844
358.923	0.1878
359.1316	0.1874
359.3402	0.1874
359.5488	0.1846
359.7574	0.1941
359.966	0.1883
360.1746	0.1919
360.3831	0.1925
360.5916	0.1991
360.8002	0.2072
361.0087	0.1951
361.2172	0.1938
361.4256	0.1901
361.6341	0.1969
361.8426	0.1984
362.051	0.1947
362.2594	0.1975
362.4678	0.1985
362.6762	0.2068
362.8846	0.2026
363.093	0.2051
363.3014	0.2017
363.5097	0.1922
363.718	0.2045
363.9264	0.2095
364.1347	0.2003
364.343	0.2013
364.5513	0.2027
364.7595	0.2046
364.9678	0.2033
365.176	0.2031
365.3842	0.2091
365.5925	0.2059
365.8007	0.2102
366.0089	0.2134
366.217	0.2117
366.4252	0.2053
366.6333	0.2098
366.8415	0.2059
367.0496	0.2049
367.2577	0.2133
367.4658	0.2067
367.6739	0.2124
367.882	0.2109
368.09	0.2075
368.2981	0.2233
368.5061	0.2168
368.7141	0.216
368.9221	0.2184
369.1301	0.2185
369.3381	0.2217
369.5461	0.2191
369.754	0.2222
369.962	0.221
370.1699	0.2244
370.3778	0.2264
370.5857	0.2124
370.7936	0.218
371.0015	0.222
371.2093	0.2186
371.4172	0.2192
371.625	0.2223
371.8328	0.2185
372.0406	0.2321
372.2484	0.2169
372.4562	0.2295
372.664	0.2242
372.8717	0.2281
373.0795	0.2299
373.2872	0.2369
373.4949	0.2314
373.7026	0.2292
373.9103	0.2257
374.118	0.2315
374.3256	0.2285
374.5333	0.2324
374.7409	0.2247
374.9485	0.2255
375.1561	0.2362
375.3637	0.2293
375.5713	0.2375
375.7789	0.2314
375.9864	0.2323
376.194	0.2421
376.4015	0.23
376.609	0.2333
376.8165	0.2376
377.024	0.2327
377.2315	0.2372
377.4389	0.2282
377.6464	0.2445
377.8538	0.2381
378.0612	0.2383
378.2686	0.2421
378.476	0.2441
378.6834	0.2431
378.8908	0.2437
379.0981	0.2422
379.3055	0.2469
379.5128	0.2388
379.7201	0.2489
379.9274	0.2309
380.1347	0.2469
380.342	0.2549
380.5492	0.2463
380.7565	0.2398
380.9637	0.2481
381.1709	0.2488
381.3781	0.2468
381.5853	0.24
381.7925	0.2451
381.9997	0.2503
382.2068	0.2502
382.4139	0.2485
382.6211	0.2486
382.8282	0.2537
383.0353	0.2476
383.2424	0.2451
383.4494	0.2446
383.6565	0.2551
383.8635	0.253
384.0706	0.2515
384.2776	0.2472
384.4846	0.2561
384.6916	0.2511
384.8986	0.2504
385.1055	0.2592
385.3125	0.2572
385.5194	0.2518
385.7263	0.2465
385.9333	0.2541
386.1402	0.2535
386.347	0.2473
386.5539	0.2564
386.7608	0.2569
386.9676	0.2533
387.1744	0.2451
387.3813	0.2523
387.5881	0.2552
387.7948	0.261
388.0016	0.2592
388.2084	0.2525
388.4151	0.2562
388.6219	0.2428
388.8286	0.2516
389.0353	0.2537
389.242	0.2469
389.4487	0.2527
389.6553	0.2324
389.862	0.2475
390.0686	0.254
390.2753	0.2517
390.4819	0.2532
390.6885	0.2441
390.8951	0.247
391.1016	0.2508
391.3082	0.2465
391.5147	0.2367
391.7213	0.2392
391.9278	0.2361
392.1343	0.2386
392.3408	0.2351
392.5473	0.2395
392.7537	0.2361
392.9602	0.2328
393.1666	0.2325
393.373	0.2332
393.5794	0.223
393.7858	0.2334
393.9922	0.235
394.1986	0.23
394.4049	0.2293
394.6113	0.2267
394.8176	0.2269
395.0239	0.2227
395.2302	0.2269
395.4365	0.2273
395.6428	0.2306
395.8491	0.2123
396.0553	0.2099
396.2615	0.2153
396.4678	0.2289
396.674	0.2189
396.8802	0.2159
397.0863	0.2116
397.2925	0.2183
397.4987	0.2066
397.7048	0.2172
397.9109	0.2178
398.117	0.2259
398.3231	0.2137
398.5292	0.2018
398.7353	0.2106
398.9413	0.2128
399.1474	0.2131
399.3534	0.212
399.5594	0.2164
399.7654	0.2103
399.9714	0.2226
400.1774	0.2056
400.3833	0.212
400.5893	0.2205
400.7952	0.2256
401.0011	0.2102
401.207	0.2076
401.4129	0.208
401.6188	0.2129
401.8247	0.2193
402.0305	0.2135
402.2364	0.2183
402.4422	0.2222
402.648	0.2103
402.8538	0.2127
403.0596	0.2121
403.2654	0.2139
403.4711	0.2046
403.6768	0.2102
403.8826	0.2174
404.0883	0.2063
404.294	0.2085
404.4997	0.2081
404.7054	0.2158
404.911	0.2098
405.1167	0.2153
405.3223	0.2018
405.5279	0.2064
405.7335	0.2044
405.9391	0.2105
406.1447	0.21
406.3502	0.2125
406.5558	0.2041
406.7613	0.2004
406.9668	0.2086
407.1724	0.2132
407.3778	0.2127
407.5833	0.1969
407.7888	0.2007
407.9942	0.2142
408.1997	0.2082
408.4051	0.2101
408.6105	0.2088
408.8159	0.1989
409.0213	0.2162
409.2267	0.2159
409.432	0.2112
409.6374	0.2066
409.8427	0.2122
410.048	0.2087
410.2533	0.2105
410.4586	0.2075
410.6639	0.2105
410.8691	0.2085
411.0744	0.2138
411.2796	0.2076
411.4848	0.2037
411.69	0.2073
411.8952	0.2124
412.1004	0.2083
412.3056	0.2107
412.5107	0.2156
412.7158	0.2127
412.921	0.2051
413.1261	0.2017
413.3312	0.2092
413.5362	0.2132
413.7413	0.2093
413.9464	0.1963
414.1514	0.2072
414.3564	0.2018
414.5614	0.2098
414.7664	0.2049
414.9714	0.1982
415.1764	0.2038
415.3813	0.1938
415.5863	0.2126
415.7912	0.188
415.9961	0.196
416.201	0.2135
416.4059	0.2126
416.6108	0.2152
416.8156	0.2094
417.0205	0.2044
417.2253	0.201
417.4301	0.2034
417.6349	0.2034
417.8397	0.1938
418.0445	0.2003
418.2492	0.2004
418.454	0.2018
418.6587	0.2021
418.8634	0.2017
419.0681	0.1911
419.2728	0.2016
419.4775	0.2066
419.6822	0.1937
419.8868	0.1878
420.0915	0.1908
420.2961	0.1899
420.5007	0.1949
420.7053	0.1919
420.9099	0.1947
421.1144	0.1884
421.319	0.1902
421.5235	0.1869
421.728	0.1942
421.9325	0.1896
422.137	0.182
422.3415	0.179
422.546	0.1843
422.7504	0.1902
422.9549	0.1901
423.1593	0.1833
423.3637	0.1871
423.5681	0.1931
423.7725	0.1839
423.9769	0.1869
424.1812	0.1717
424.3856	0.1803
424.5899	0.1844
424.7942	0.1766
424.9985	0.1824
425.2028	0.1797
425.4071	0.1792
425.6113	0.1799
425.8156	0.1798
426.0198	0.1732
426.224	0.1897
426.4282	0.1717
426.6324	0.1706
426.8366	0.1622
427.0407	0.1721
427.2449	0.1678
427.449	0.1666
427.6531	0.1758
427.8572	0.1724
428.0613	0.1819
428.2654	0.1714
428.4694	0.1648
428.6735	0.164
428.8775	0.1577
429.0815	0.1548
429.2855	0.1558
429.4895	0.1599
429.6935	0.1609
429.8975	0.1548
430.1014	0.1595
430.3053	0.1644
430.5093	0.1511
430.7132	0.1553
430.9171	0.1503
431.1209	0.1578
431.3248	0.1431
431.5286	0.1393
431.7325	0.1543
431.9363	0.1367
432.1401	0.1449
432.3439	0.1541
432.5477	0.1382
432.7514	0.1482
432.9552	0.136
433.1589	0.1336
433.3627	0.1374
433.5664	0.1291
433.7701	0.1346
433.9737	0.1412
434.1774	0.1384
434.3811	0.122
434.5847	0.1228
434.7883	0.1314
434.9919	0.1253
435.1955	0.1266
435.3991	0.1243
435.6027	0.1184
435.8062	0.1313
436.0098	0.1147
436.2133	0.1195
436.4168	0.1205
436.6203	0.1066
436.8238	0.1112
437.0272	0.1179
437.2307	0.1091
437.4341	0.1125
437.6375	0.1145
437.841	0.1049
438.0443	0.1061
438.2477	0.0991
438.4511	0.0946
438.6545	0.1
438.8578	0.1101
439.0611	0.1018
439.2644	0.0976
439.4677	0.0977
439.671	0.0951
439.8743	0.0993
440.0775	0.0977
440.2808	0.0963
440.484	0.091
440.6872	0.0999
440.8904	0.0838
441.0936	0.0898
441.2967	0.0805
441.4999	0.0824
441.703	0.0854
441.9062	0.0879
442.1093	0.0842
442.3124	0.0812
442.5155	0.0846
442.7185	0.0706
442.9216	0.0787
443.1246	0.0727
443.3276	0.0673
443.5307	0.0715
443.7337	0.0738
443.9366	0.0734
444.1396	0.0662
444.3426	0.0674
444.5455	0.0651
444.7484	0.0643
444.9513	0.0657
445.1542	0.0672
445.3571	0.0587
445.56	0.0512
445.7628	0.0617
445.9657	0.067
446.1685	0.0583
446.3713	0.0623
446.5741	0.0669
446.7769	0.0637
446.9797	0.0494
447.1824	0.0542
447.3852	0.0447
447.5879	0.048
447.7906	0.0444
447.9933	0.0508
448.196	0.0537
448.3986	0.0449
448.6013	0.0344
448.8039	0.0509
449.0066	0.0516
449.2092	0.0536
449.4118	0.053
449.6143	0.0517
449.8169	0.0467
450.0195	0.0357
450.222	0.0449
450.4245	0.0424
450.627	0.0431
450.8295	0.045
451.032	0.0442
451.2345	0.0356
451.4369	0.0429
451.6394	0.0386
451.8418	0.0377
452.0442	0.0333
452.2466	0.0257
452.449	0.0354
452.6513	0.0294
452.8537	0.0315
453.056	0.0326
453.2583	0.0313
453.4607	0.0237
453.663	0.0345
453.8652	0.0231
454.0675	0.0359
454.2697	0.0289
454.472	0.0243
454.6742	0.03
454.8764	0.0292
455.0786	0.0336
455.2808	0.0188
455.4829	0.029
455.6851	0.0284
455.8872	0.0221
456.0893	0.0216
456.2915	0.0222
456.4935	0.0297
456.6956	0.0201
456.8977	0.0129
457.0997	0.0362
457.3018	0.0214
457.5038	0.031
457.7058	0.0225
457.9078	0.0335
458.1098	0.0205
458.3117	0.0271
458.5137	0.0099
458.7156	0.0264
458.9175	0.0185
459.1194	0.0196
459.3213	0.0189
459.5232	0.0201
459.725	0.0189
459.9269	0.0192
460.1287	0.0182
460.3305	0.0209
460.5323	0.0128
460.7341	0.0153
460.9359	0.0147
461.1376	0.0193
461.3394	0.0232
461.5411	0.0268
461.7428	0.0145
461.9445	0.0091
462.1462	0.0132
462.3479	0.0165
462.5495	0.0213
462.7512	0.0276
462.9528	0.0109
463.1544	0.0125
463.356	0.0075
463.5576	0.015
463.7592	0.014
463.9607	0.0137
464.1623	0.0141
464.3638	0.0146
464.5653	0.013
464.7668	0.02
464.9683	0.0264
465.1697	0.0112
465.3712	0.0046
465.5726	0.0105
465.7741	0.0184
465.9755	0.012
466.1769	0.0092
466.3782	-0.0012
466.5796	0.0133
466.7809	0.0195
466.9823	0.0156
467.1836	0.0062
467.3849	0.0047
467.5862	-0.0015
467.7875	0.0129
467.9887	0.0075
468.19	0.0039
468.3912	0.0191
468.5924	0.0047
468.7936	0.0089
468.9948	0.0031
469.196	0.0121
469.3972	0.0046
469.5983	0.0069
469.7994	0.0127
470.0006	0.0137
470.2017	0.0064
470.4027	0.0243
470.6038	0.0095
470.8049	0.0105
471.0059	0.0062
471.2069	0.0099
471.408	0.014
471.6089	0.0075
471.8099	0.0089
472.0109	0.011
472.2119	0.0173
472.4128	0.0051
472.6137	0.0132
472.8146	0.003
473.0155	0.0103
473.2164	0.0008
473.4173	-0.0012
473.6181	-0.0003
473.819	0.0048
474.0198	-0.0042
474.2206	-0.0008
474.4214	0.01
474.6222	-0.0057
474.8229	-0.001
475.0237	0.0135
475.2244	0.0141
475.4251	0.0073
475.6258	0.0018
475.8265	0.0092
476.0272	0.0017
476.2278	0.0141
476.4285	0.0007
476.6291	0.0033
476.8297	0.0041
477.0303	-0.0006
477.2309	0.0103
477.4315	0.0055
477.632	0.0032
477.8326	0.0085
478.0331	0.0099
478.2336	-0.0062
478.4341	0.0126
478.6346	-0.0005
478.8351	0.004
479.0355	0.0127
479.236	0.0142
479.4364	0.0038
479.6368	0.006
479.8372	0.0058
480.0376	0.0111
480.2379	0.0108
480.4383	0.0071
480.6386	-0.0058
480.8389	0.003
481.0392	0.0038
481.2395	0.0099
481.4398	0.0107
481.6401	0.0045
481.8403	0.002
482.0405	0.0058
482.2408	0.0109
482.441	0.0093
482.6411	0.0109
482.8413	0.0052
483.0415	0.0136
483.2416	0.0085
483.4417	0.0089
483.6419	-0.0018
483.8419	0.0052
484.042	0.0013
484.2421	0.0003
484.4422	-0
484.6422	0.0017
484.8422	0.0046
485.0422	0.0065
485.2422	0.0042
485.4422	0.0059
485.6422	0.0064
485.8421	0.0049
486.042	0.0138
486.242	0.0007
486.4419	0.0066
486.6417	0.0065
486.8416	0.0029
487.0415	0.0081
487.2413	-0.001
487.4411	0.0073
487.641	0.0083
487.8408	0.0122
488.0405	0.0112
488.2403	0.0031
488.4401	0.0025
488.6398	0.0108
488.8395	0.0029
489.0392	0.0084
489.2389	0.0052
489.4386	-0.0067
489.6383	0.0087
489.8379	0.0004
490.0376	0.0053
490.2372	-0.0024
490.4368	0.0005
490.6364	-0.01
490.836	0.005
491.0355	-0.0005
491.2351	0.0002
491.4346	0.003
491.6341	-0.0047
491.8336	-0.0035
492.0331	-0.0027
492.2326	0.0052
492.432	-0.0035
492.6315	0.0042
492.8309	-0.0034
493.0303	-0.0061
493.2297	-0.0025
493.4291	-0.0048
493.6284	0.011
493.8278	-0.0032
494.0271	0.0037
494.2264	-0.0056
494.4257	0.0042
494.625	0.0023
494.8243	-0.0071
495.0236	0.0067
495.2228	0.005
495.422	0.0061
495.6213	-0.0017
495.8205	0.0067
496.0196	0.0059
496.2188	0.0087
496.418	0.0015
496.6171	-0.0006
496.8162	-0.004
497.0153	-0.0003
497.2144	0.0008
497.4135	-0.0035
497.6126	0.0026
497.8116	-0.0041
498.0107	-0.003
498.2097	-0.0018
498.4087	0.0035
498.6077	-0.0047
498.8067	0.005
499.0056	0.0076
499.2046	0.0095
499.4035	0.0045
499.6024	-0.0073
499.8013	0.0061
500.0002	-0.0022
500.199	0.0113
500.3979	0.0001
500.5967	-0.0033
500.7956	0.0041
500.9944	-0.0007
501.1932	0.0043
501.3919	0.0048
501.5907	0.0044
501.7895	0.0045
501.9882	0.0054
502.1869	0.0042
502.3856	-0.0017
502.5843	0.0056
502.783	-0.005
502.9816	0.0065
503.1803	-0.0014
503.3789	0.0048
503.5775	0.0004
503.7761	0.0081
503.9747	0.0023
504.1732	-0.0068
504.3718	0.0077
504.5703	0.0005
504.7689	-0.0117
504.9674	0.0031
505.1658	-0.0023
505.3643	-0.0006
505.5628	0.0109
505.7612	0.0086
505.9597	-0.0002
506.1581	0.0082
506.3565	-0.0005
506.5549	-0.0033
506.7532	-0.0056
506.9516	0.0053
507.1499	0.0013
507.3482	0.0004
507.5465	-0.005
507.7448	-0.0026
507.9431	0.0059
508.1414	-0.0015
508.3396	-0.0043
508.5379	-0.0027
508.7361	0.0059
508.9343	-0.0005
509.1325	0.0064
509.3306	-0.0112
509.5288	-0.0064
509.7269	0.0105
509.9251	0.0041
510.1232	0.0041
510.3213	-0.0001
510.5193	0.003
510.7174	0.0006
510.9154	0.0069
511.1135	0.0001
511.3115	-0.0064
511.5095	-0.0082
511.7075	-0.0044
511.9055	0.0096
512.1034	-0.0055
512.3014	-0.0055
512.4993	0.0008
512.6972	-0.0028
512.8951	0.0025
513.093	0.0008
513.2908	0.0049
513.4887	-0.0059
513.6865	0.0014
513.8844	0.0107
514.0822	0.0032
514.2799	-0.0127
514.4777	-0.0071
514.6755	-0.0037
514.8732	-0.0037
515.0709	0.0038
515.2687	0.0003
515.4664	-0.0063
515.664	0.0023
515.8617	0.0036
516.0594	-0.0066
516.257	0.0051
516.4546	0.0143
516.6522	0.0042
516.8498	-0.0057
517.0474	-0
517.2449	-0
517.4425	0.0026
517.64	0.0034
517.8375	0.009
518.035	-0.0037
518.2325	-0.0135
518.43	-0.0109
518.6274	-0.0045
518.8249	-0.0104
519.0223	0.0108
519.2197	-0.003
519.4171	-0.005
519.6145	0.0013
519.8118	-0.0208
520.0092	-0.0133
520.2065	-0.0004
520.4038	-0.0095
520.6011	0.0015
520.7984	0.0071
520.9956	-0.0054
521.1929	0.0051
521.3901	-0.0021
521.5874	0.0035
521.7846	-0.0087
521.9818	0.0031
522.1789	-0.0061
522.3761	0.0133
522.5732	-0.0012
522.7704	-0.0145
522.9675	-0.0097
523.1646	0.0004
523.3617	0.0111
523.5587	0.0002
523.7558	-0.0015
523.9528	0.0061
524.1498	-0.0096
524.3468	0.0079
524.5438	0.0012
524.7408	-0.0099
524.9378	0.0047
525.1347	0.0054
525.3316	0.0023
525.5285	-0.004
525.7254	0.011
525.9223	0.0043
526.1192	-0.0022
526.316	0.0041
526.5129	0.0031
526.7097	-0.0112
526.9065	0.0055
527.1033	-0.0015
527.3	-0.0046
527.4968	0.0034
527.6935	-0.0084
527.8903	-0.0067
528.087	-0.0066
528.2837	0.004
528.4804	-0.0009
528.677	-0.0032
528.8737	0.0007
529.0703	-0.0086
529.2669	0.0104
529.4635	-0.0149
529.6601	-0.0025
529.8567	-0
530.0532	0.0055
530.2498	-0.0061
530.4463	-0.0075
530.6428	0.0013
530.8393	0.003
531.0358	-0.0002
531.2322	-0.0119
531.4287	-0.0063
531.6251	-0.0107
531.8215	-0.0063
532.0179	-0.0017
532.2143	0.0082
532.4107	0.0017
532.607	-0.0041
532.8034	0.0001
532.9997	-0.0058
533.196	-0.0056
533.3923	0.0042
533.5886	0.0099
533.7848	-0.0037
533.9811	0.0043
534.1773	-0.0002
534.3735	0.0052
534.5697	-0.0063
534.7659	0.0049
534.9621	-0.0002
535.1582	-0.0081
535.3544	-0.0011
535.5505	0.0031
535.7466	-0.0007
535.9427	-0.0025
536.1387	-0.0081
536.3348	-0.0071
536.5308	-0.0014
536.7269	-0.0098
536.9229	0.0029
537.1189	0.0061
537.3148	-0.0017
537.5108	0.0069
537.7068	0.0082
537.9027	-0.0111
538.0986	0.0009
538.2945	-0.0068
538.4904	-0.006
538.6863	-0.0045
538.8821	0.0101
539.078	0.0027
539.2738	0.0014
539.4696	-0.0099
539.6654	-0.0025
539.8611	0.0073
540.0569	-0.0021
540.2526	0.0017
540.4484	-0.003
540.6441	-0.0047
540.8398	0.0046
541.0355	0.0018
541.2311	0.0028
541.4268	0.01
541.6224	0.0121
541.818	0.0044
542.0136	0.0108
542.2092	0.0047
542.4048	0.0007
542.6003	-0.0013
542.7959	-0.0004
542.9914	0.0072
543.1869	0.0118
543.3824	-0.0029
543.5779	0.0105
543.7734	0.009
543.9688	0.0028
544.1642	-0.0004
544.3596	0.0042
544.555	-0.0042
544.7504	0.0057
544.9458	0.0092
545.1411	0.0015
545.3365	-0.0053
545.5318	0.0086
545.7271	0.0038
545.9224	-0.008
546.1177	0.0122
546.3129	-0.0017
546.5081	-0.0069
546.7034	0.0017
546.8986	0.0054
547.0938	0.0047
547.289	0.0034
547.4841	0.0081
547.6793	0.0032
547.8744	0.0065
548.0695	-0.0037
548.2646	0.0071
548.4597	-0.0075
548.6548	0.0127
548.8498	-0.0001
549.0448	-0.0009
549.2399	0.0014
549.4349	0.0038
549.6298	-0.0002
549.8248	-0.0041
550.0198	0.0072
550.2147	0.0022
550.4096	-0.003
550.6045	-0.0042
550.7994	-0.0003
550.9943	0.0017
551.1892	-0.0151
551.384	0.0088
551.5788	0.0024
551.7737	0.0091
551.9685	-0.0012
552.1632	0.0012
552.358	0.0011
552.5528	-0.0026
552.7475	0.0046
552.9422	0.0045
553.1369	0.0017
553.3316	0.0057
553.5263	0.0097
553.7209	0.0009
553.9156	0.0021
554.1102	0.0039
554.3048	-0.005
554.4994	0.0024
554.694	-0.0045
554.8885	0.0029
555.0831	0.005
555.2776	0.0042
555.4721	0.0062
555.6666	0.0047
555.8611	-0.0004
556.0555	0.0013
556.25	0.0078
556.4444	-0.0042
556.6388	-0.0054
556.8332	-0.0056
557.0276	0.0052
557.222	-0.0084
557.4163	0.0021
557.6107	-0.0049
557.805	-0.0088
557.9993	0.0053
558.1936	-0.0122
558.3879	-0.0006
558.5821	0.0025
558.7764	-0.0088
558.9706	-0.0017
559.1648	0.004
559.359	-0.0132
559.5532	-0.0079
559.7473	-0.0043
559.9415	0.0023
560.1356	0.0129
560.3297	-0.0052
560.5238	-0.0028
560.7179	0.0063
560.9119	0.0056
561.106	-0.001
561.3	-0.0023
561.494	-0.0079
561.688	-0.0071
561.882	-0.0027
562.076	0.0029
562.2699	0.0099
562.4639	0.0081
562.6578	0.0035
562.8517	-0.0005
563.0456	0.0036
563.2395	0.0075
563.4333	0.0126
563.6272	0.0092
563.821	0.0041
564.0148	0.0044
564.2086	-0.0006
564.4024	0.0087
564.5961	0.0055
564.7899	0.0123
564.9836	0.0084
565.1773	0.0129
565.371	-0.0021
565.5647	0.0045
565.7584	0.0098
565.952	0.0084
566.1456	0.003
566.3393	-0.001
566.5329	0.0067
566.7264	0.0084
566.92	0.0125
567.1136	-0.002
567.3071	0.0019
567.5006	0.0067
567.6941	0.0006
567.8876	0.0009
568.0811	0.0169
568.2745	0.002
568.468	0.008
568.6614	0.0072
568.8548	0.0097
569.0482	0.0029
569.2416	0.0095
569.4349	0.0039
569.6283	0.0064
569.8216	0.0133
570.0149	-0.0003
570.2082	0.0078
570.4015	0.007
570.5947	0.0066
570.788	0.0117
570.9812	0.0019
571.1744	0.0084
571.3676	0.0075
571.5608	0.0068
571.754	0.0138
571.9471	0.013
572.1402	0.0047
572.3333	0.0085
572.5264	0.0068
572.7195	0.0034
572.9126	0.0014
573.1057	0.0099
573.2987	0.005
573.4917	0.005
573.6847	0.0064
573.8777	0.0135
574.0707	0.0062
574.2636	0.0107
574.4566	0.0074
574.6495	0.0028
574.8424	0.0133
575.0353	0.0086
575.2281	0.0121
575.421	0.005
575.6138	0.0011
575.8067	0.0111
575.9995	0.0063
576.1923	0.0055
576.385	0.0087
576.5778	0.0101
576.7706	0.0077
576.9633	0.0086
577.156	0.0015
577.3487	0.0045
577.5414	0.0035
577.734	0.0038
577.9267	0.0089
578.1193	0.0105
578.3119	0.007
578.5045	0.0043
578.6971	0.0009
578.8897	0.0032
579.0822	0.0075
579.2747	0.0051
579.4673	0.0045
579.6598	0.008
579.8522	0.0048
580.0447	0.0054
580.2372	0.014
580.4296	0.012
580.622	0.0038
580.8144	0.0085
581.0068	0.0069
581.1992	0.0054
581.3915	0.0012
581.5839	0.0057
581.7762	0.0067
581.9685	0.0052
582.1608	0.0062
582.353	0.0079
582.5453	0.0064
582.7375	0.0083
582.9298	0.0037
583.122	0.0054
583.3142	0.0088
583.5063	0.0046
583.6985	0.0061
583.8906	0.0044
584.0827	0.0081
584.2749	0.0043
584.4669	0.003
584.659	0.0107
584.8511	0.0117
585.0431	0.005
585.2352	0.0039
585.4272	0.008
585.6192	0.0084
585.8111	0.0071
586.0031	0.0084
586.195	0.0079
586.387	0.0019
586.5789	0.0109
586.7708	0.0082
586.9627	0.0082
587.1545	0.0073
587.3464	0.0061
587.5382	0.0101
587.73	0.0092
587.9218	0.0059
588.1136	0.0014
588.3053	0.0025
588.4971	0.0065
588.6888	0.0064
588.8805	0.0052
589.0722	0.0166
589.2639	0.0095
589.4556	0.0065
589.6472	0.0126
589.8389	0.0097
590.0305	0.0015
590.2221	0.0098
590.4137	0.0076
590.6052	0.0093
590.7968	0.0131
590.9883	0.0049
591.1798	0.015
591.3713	0.0054
591.5628	0.0074
591.7543	0.0027
591.9458	0.0077
592.1372	0.0074
592.3286	0.0089
592.52	0.0072
592.7114	0.0085
592.9028	0.0145
593.0941	0.0076
593.2855	0.0031
593.4768	0.0119
593.6681	0.0099
593.8594	0.012
594.0506	0.0058
594.2419	0.0104
594.4331	0.0062
594.6244	0.0027
594.8156	0.0012
595.0067	-0.0026
595.1979	0.0047
595.3891	0.0035
595.5802	0.0101
595.7713	0.0053
595.9624	0.0134
596.1535	0.0057
596.3446	-0.0012
596.5357	0.0014
596.7267	-0.0014
596.9177	0.0031
597.1087	-0.0007
597.2997	0.0105
597.4907	-0.001
597.6817	0.0094
597.8726	0.0098
598.0635	0.0003
598.2544	0.0145
598.4453	0.007
598.6362	0.0086
598.827	0.0037
599.0179	0.013
599.2087	0.0075
599.3995	0.0094
599.5903	0.011
599.7811	0.0112
599.9718	0.0089
600.1626	0.0075
600.3533	0.0027
600.544	0.0082
600.7347	0.0048
600.9254	0.0115
601.116	0.0085
601.3067	0.0042
601.4973	0.0072
601.6879	0.0056
601.8785	0.0078
602.0691	0.0078
602.2596	0.0051
602.4502	0.0118
602.6407	0.0078
602.8312	0.006
603.0217	0.0025
603.2122	0.0143
603.4027	0.0097
603.5931	-0.0008
603.7835	0.0108
603.9739	0.0013
604.1643	0.0128
604.3547	0.0096
604.5451	0.0127
604.7354	0.0075
604.9257	0.0046
605.116	0.0006
605.3063	0.0138
605.4966	0.0091
605.6869	0.0115
605.8771	0.0068
606.0673	0.0101
606.2575	-0.0013
606.4477	0.0103
606.6379	0.0029
606.8281	0.0032
607.0182	0.0073
607.2083	0.0054
607.3985	0.0093
607.5885	0.0014
607.7786	0.006
607.9687	0.0142
608.1587	0.0107
608.3488	0.0043
608.5388	-0.0014
608.7288	0.0054
608.9187	0.0074
609.1087	0.004
609.2986	0.0087
609.4886	-0.0024
609.6785	0.0102
609.8684	0.0005
610.0582	0.0059
610.2481	-0.0045
610.4379	0.0076
610.6278	0.0079
610.8176	0.0153
611.0074	0.0067
611.1971	0.0058
611.3869	0.0072
611.5766	0.0039
611.7664	0.0108
611.9561	0.0064
612.1458	0.0071
612.3354	0.0099
612.5251	0.0098
612.7147	0.0093
612.9044	0.0091
613.094	0.0073
613.2836	0.0041
613.4731	0.008
613.6627	0.0094
613.8522	0.0056
614.0417	0.0104
614.2313	0.0066
614.4207	0.0112
614.6102	0.0066
614.7997	0.0121
614.9891	0.0077
615.1785	-0.0007
615.3679	0.0087
615.5573	0.0043
615.7467	0.0025
615.9361	0.0089
616.1254	0.0109
616.3147	0.0059
616.504	0.0109
616.6933	0.0026
616.8826	0.0047
617.0718	0.009
617.2611	0.0035
617.4503	0.0022
617.6395	-0.0016
617.8287	0.004
618.0179	0.0014
618.207	0.0148
618.3961	0.0031
618.5853	-0.0016
618.7744	0.0081
618.9634	0.0109
619.1525	0.0181
619.3416	0.0013
619.5306	0.01
619.7196	0.0163
619.9086	0.0125
620.0976	0.0002
620.2866	0.0132
620.4755	-0.0036
620.6645	0.0172
620.8534	0.0063
621.0423	0.004
621.2312	0.0052
621.42	0.0036
621.6089	0.007
621.7977	0.0101
621.9865	0.0074
622.1753	0.0007
622.3641	0.0018
622.5529	0.0019
622.7416	0.0021
622.9303	0.0075
623.1191	0.008
623.3078	0.0123
623.4964	-0.0002
623.6851	0.0109
623.8737	0.0081
624.0624	-0.0089
624.251	0.0096
624.4396	0.0061
624.6282	0.0153
624.8167	0.011
625.0053	0.012
625.1938	-0.0009
625.3823	0.0002
625.5708	0.0007
625.7593	-0.0019
625.9477	0.0144
626.1362	0.0062
626.3246	-0.0034
626.513	0.0057
626.7014	0.0039
626.8898	0.0195
627.0781	0.0097
627.2665	0.0136
627.4548	-0.0051
627.6431	0.0141
627.8314	0.0132
628.0197	0.0108
628.2079	0.0124
628.3962	0.0106
628.5844	0.0082
628.7726	0.0075
628.9608	0.0057
629.1489	0.0041
629.3371	0.0075
629.5252	0.0036
629.7134	-0.0102
629.9015	0.0021
630.0895	-0.0122
630.2776	0.0081
630.4657	0.0008
630.6537	0.0059
630.8417	-0.002
631.0297	0.0017
631.2177	0.0013
631.4057	-0.0051
631.5936	0.0015
631.7815	0.004
631.9695	0.0162
632.1574	0.0029
632.3452	0.003
632.5331	-0.0075
632.7209	0.0173
632.9088	0.0056
633.0966	0.0279
633.2844	0.0008
633.4722	0.0097
633.6599	0.0221
633.8477	-0.0008
634.0354	0.0131
634.2231	-0.0075
634.4108	0.003
634.5985	0.0068
634.7861	-0.0021
634.9738	0.0021
635.1614	0.0099
635.349	0.0052
635.5366	0.0121
635.7242	0.0165
635.9117	0.0048
636.0993	0.0209
636.2868	0.0037
636.4743	0.0013
636.6618	-0.0148
636.8492	0.0166
637.0367	-0.009
637.2241	0.0051
637.4115	0.0199
637.5989	0.0074
637.7863	0.0246
637.9737	-0.0107
638.161	0.0011
638.3484	-0.0104
638.5357	0.0026
638.723	0.0193
638.9103	-0.022
639.0975	0.0088
639.2848	0.0188
639.472	0.0101
639.6592	-0.0127
639.8464	-0.0072
640.0336	0.0042
640.2208	-0.0156
640.4079	-0.0047
640.595	-0.0139
640.7821	0.0145
640.9692	0.0048
641.1563	0.011
641.3434	0.0166
641.5304	0.0106
641.7174	0.0074
641.9044	0.007
642.0914	0.0276
642.2784	0.0149
642.4653	0.0129
642.6523	0.0133
642.8392	0.009
643.0261	0.0162
643.213	0.0069
643.3999	0.0044
643.5867	0.0046
643.7735	-0.0184
643.9604	0.0089
644.1472	0.0041
644.3339	0.0014
644.5207	-0.006
644.7075	0.0012
644.8942	-0.0028
645.0809	-0.0045
645.2676	-0.0165
645.4543	0.0056
645.6409	0.0051
645.8276	0.0113
646.0142	0.0076
646.2008	0.0296
646.3874	-0.0083
646.574	0.0057
646.7605	0.0088
646.9471	0.0028
647.1336	-0.0099
647.3201	0.0027
647.5066	0.0152
647.6931	-0.0031
647.8795	0.0134
648.0659	0.0097
648.2524	0.008
648.4388	0.0131
648.6252	0.0161
648.8115	0.0066
648.9979	0.0112
649.1842	0.0005
649.3705	0.0119
649.5568	-0.0227
649.7431	-0.0161
649.9294	-0.0101
650.1156	-0.0207
650.3018	0.0093
650.488	0.009
650.6742	0.0139
650.8604	0.003
651.0466	-0.0049
651.2327	-0.0091
651.4188	-0.0076
651.6049	0.0145
651.791	-0.0081
651.9771	0.0087
652.1632	-0.0061
652.3492	-0.0002
652.5352	0.0149
652.7212	0.0067
652.9072	-0.0119
653.0932	0.0004
653.2791	0.0081
653.465	0.0027
653.651	-0.008
653.8369	-0.0108
654.0227	0.0175
654.2086	-0.0056
654.3944	0.0081
654.5803	0.0094
654.7661	-0.0016
654.9519	0.0014
655.1377	-0
655.3234	-0
655.5092	-0
655.6949	-0
655.8806	-0
656.0663	-0
656.2519	-0
656.4376	-0
656.6232	-0
656.8088	-0
656.9945	-0
657.18	-0
657.3656	-0
657.5511	-0
657.7367	-0
657.9222	-0
658.1077	-0
658.2932	-0
658.4786	-0
658.6641	-0
658.8495	-0
659.0349	-0
659.2203	-0
659.4057	0.011
659.591	0.28
659.7764	0.0277
659.9617	0.0131
660.147	0.0048
660.3323	-0.0049
660.5176	0.003
660.7028	-0.0034
660.888	0.0009
661.0733	0.0132
661.2585	-0.0117
661.4436	0.0056
661.6288	0.0146
661.8139	-0.005
661.9991	-0.0084
662.1842	0.0005
662.3693	0.0179
662.5544	0.0251
662.7394	0.0095
662.9245	-0.0017
663.1095	-0.0043
663.2945	-0.0109
663.4795	-0.0277
663.6644	0.0021
663.8494	0.0134
664.0343	0.0108
664.2193	0.0069
664.4042	0.0023
664.589	-0.0034
664.7739	-0.0003
664.9587	0.0067
665.1436	-0.0128
665.3284	0.0109
665.5132	-0.0306
665.698	0.0152
665.8827	0.029
666.0675	-0.0316
666.2522	0.0261
666.4369	-0.021
666.6216	-0.0024
666.8063	-0.0007
666.9909	-0
667.1756	-0.0121
667.3602	-0.0177
667.5448	0.0122
667.7294	0.0126
667.9139	-0.0007
668.0985	0.003
668.283	-0.0101
668.4675	0.0147
668.652	0.013
668.8365	-0.0204
669.0209	0.0111
669.2054	0.0099
669.3898	-0.018
669.5742	0.0144
669.7586	0.014
669.943	-0.0058
670.1273	-0.0078
670.3117	0.0203
670.496	0.0137
670.6803	0.0003
670.8646	-0.0215
671.0488	0.0345
671.2331	0.0097
671.4173	0.0047
671.6015	0.005
671.7857	-0.0017
671.9699	0.0212
672.1541	-0.0061
672.3382	0.0005
672.5223	0.012
672.7064	-0.0029
672.8905	0.0002
673.0746	-0.0025
673.2587	0.0279
673.4427	-0.004
673.6267	-0.0016
673.8107	0.0121
673.9947	0.0178
674.1787	-0.004
674.3626	0.0169
674.5465	0.0224
674.7304	-0.0122
674.9143	-0.0105
675.0982	0.0176
675.2821	-0.0015
675.4659	-0.0089
675.6497	0.0009
675.8335	0.0189
676.0173	-0.0097
676.2011	0.0063
676.3849	0.0022
676.5686	0.0168
676.7523	0.0185
676.936	0.0012
677.1197	-0.0076
677.3034	0.0354
677.487	0.02
677.6706	0.0044
677.8542	-0.004
678.0378	0.0076
678.2214	0.0058
678.405	0.0222
678.5885	0.0027
678.772	0.0107
678.9555	-0.0046
679.139	0.0092
679.3225	0.0047
679.5059	-0.0072
679.6894	-0.0029
679.8728	0.0126
680.0562	-0.0032
680.2395	-0.0014
680.4229	-0.0018
680.6062	0.0058
680.7896	-0.0087
680.9729	0.034
681.1562	0.0119
681.3394	-0.007
681.5227	0.0047
681.7059	-0.005
681.8891	-0.0064
682.0723	-0.0024
682.2555	-0.0065
682.4387	0.0117
682.6218	0.0038
682.805	-0.0034
682.9881	0.0208
683.1712	-0.0003
683.3542	0.0123
683.5373	-0.0056
683.7203	0.0035
683.9034	-0.0148
684.0864	0.0027
684.2694	0.0038
684.4523	0.0159
684.6353	0.0018
684.8182	-0.0096
685.0011	0.0129
685.184	-0
685.3669	0.0162
685.5498	-0.0073
685.7326	0.0017
685.9154	-0.0069
686.0982	0.0211
686.281	0.0108
686.4638	0.0042
686.6465	0.0008
686.8293	-0.0269
687.012	-0.0024
687.1947	0.0143
687.3774	0.0039
687.56	-0.0058
687.7427	-0.0039
687.9253	-0.0166
688.1079	-0.0131
688.2905	-0.0057
688.4731	0.0181
688.6556	-0.0053
688.8382	-0.0138
689.0207	-0
689.2032	0.0054
689.3857	-0.0138
689.5681	0.0075
689.7506	0.0291
689.933	-0.04
690.1154	0.0025
690.2978	-0.0039
690.4802	0.006
690.6626	0.01
690.8449	0.0118
691.0272	-0.0008
691.2095	-0.029
691.3918	-0.0063
691.5741	0.0045
691.7563	0.0037
691.9386	0.0184
692.1208	0.0101
692.303	-0.0085
692.4852	0.0096
692.6673	-0.0051
692.8495	-0.013
693.0316	0.0111
693.2137	0.0045
693.3958	0.0048
693.5778	-0.0038
693.7599	-0.0114
693.9419	-0.0066
694.1239	0.0076
694.3059	0.0247
694.4879	0.006
694.6699	-0.0003
694.8518	0.0203
695.0337	0.0248
695.2157	0.0308
695.3975	-0.0148
695.5794	-0.0175
695.7613	-0.0091
695.9431	-0.0067
696.1249	0.0175
696.3067	-0.0057
696.4885	0.0089
696.6703	-0.0144
696.852	-0.0098
697.0337	0.0175
697.2154	0.0068
697.3971	-0.0128
697.5788	0.0208
697.7605	-0.0119
697.9421	0.0042
698.1237	0.0163
698.3053	-0.0167
698.4869	0.0091
698.6685	-0.0241
698.85	0.0253
699.0315	-0.0428
699.213	0.0117
699.3945	-0.0137
699.576	0.0176
699.7575	-0.0015
699.9389	-0.0108
700.1203	0.0068
700.3017	0.0075
700.4831	0.0259
700.6645	0.0207
700.8458	-0.0071
701.0271	0.0442
701.2084	0.0126
701.3897	0.0167
701.571	0.0041
701.7523	-0.0004
701.9335	0.0252
702.1147	0.0095
702.2959	-0.0091
702.4771	-0.0015
702.6583	0.0108
702.8394	-0.0253
703.0205	0.0059
703.2016	-0.0131
703.3827	0.0101
703.5638	0.0034
703.7449	0.0241
703.9259	-0.0097
704.1069	-0.0041
704.2879	-0.0066
704.4689	0.0075
704.6499	0.0248
704.8308	0.0184
705.0117	-0.0046
705.1927	0.0129
705.3735	0.0126
705.5544	-0.0094
705.7353	-0.0145
705.9161	-0.0417
706.0969	0.0072
706.2777	0.0136
706.4585	-0.0043
706.6393	0.003
706.82	0.0065
707.0007	-0.0063
707.1815	0.0086
707.3621	0.0318
707.5428	0.0196
707.7235	-0.0163
707.9041	0.0059
708.0847	-0.0065
708.2653	0.0212
708.4459	0.0042
708.6265	-0.0057
708.807	-0.0076
708.9875	0.0171
709.168	-0.0004
709.3485	0.0135
709.529	-0.0105
709.7095	0.0024
709.8899	0.0089
710.0703	0.0222
710.2507	0.0119
710.4311	-0.0247
710.6115	0.0199
710.7918	0.0355
710.9721	-0.0004
711.1524	-0.0365
711.3327	0.0031
711.513	-0.0134
711.6932	0.0051
711.8735	0.0254
712.0537	0.0099
712.2339	-0.0064
712.4141	0.0306
712.5942	0.0044
712.7744	0.0276
712.9545	-0.0064
713.1346	0.0238
713.3147	0.0157
713.4947	-0.0087
713.6748	-0.0079
713.8548	0.0296
714.0348	0.0252
714.2148	0.0255
714.3948	0.0187
714.5748	0.0014
714.7547	0.016
714.9346	0.0105
715.1145	-0.0027
715.2944	-0.0231
715.4743	0.0205
715.6541	0.0013
715.834	0.015
716.0138	0.0224
716.1936	-0.0022
716.3733	-0.0015
716.5531	0.0243
716.7328	0.0131
716.9126	-0.0095
717.0923	-0.0065
717.2719	0.0101
717.4516	0.0016
717.6312	-0.0224
717.8109	0.0039
717.9905	-0.0042
718.1701	-0.0011
718.3496	-0
718.5292	-0.0064
718.7087	-0.0034
718.8882	0.0165
719.0677	0.004
719.2472	0.0007
719.4267	-0.0242
719.6061	-0.0326
719.7856	0.0405
719.965	-0.0194
720.1443	-0.0225
720.3237	0.0035
720.5031	-0.0157
720.6824	-0.0109
720.8617	-0.0169
721.041	0.0157
721.2203	-0.0004
721.3995	-0.0176
721.5788	0.0055
721.758	-0.0095
721.9372	-0.0016
722.1164	-0.0197
722.2956	0.0048
722.4747	0.0101
722.6538	0.0125
722.8329	0.0086
723.012	0.0051
723.1911	0.0064
723.3702	0.0386
723.5492	-0.006
723.7282	-0
723.9072	-0.0026
724.0862	-0.0018
724.2652	0.0206
724.4441	0.0078
724.623	-0.0089
724.8019	-0.0053
724.9808	0.0117
725.1597	0.023
725.3385	0.0113
725.5174	-0.0007
725.6962	0.0034
725.875	0.0151
726.0538	0.0187
726.2325	-0.006
726.4112	-0.0063
726.59	-0.0096
726.7687	-0.0151
726.9474	-0.0037
727.126	0.0269
727.3047	-0.0136
727.4833	0.0145
727.6619	-0.0354
727.8405	-0.0118
728.0191	0.0322
728.1976	0.0176
728.3762	0.0262
728.5547	-0.0044
728.7332	-0.0069
728.9116	0.0065
729.0901	-0.0044
729.2686	0.0193
729.447	-0.0051
729.6254	0.0205
729.8038	-0.0032
729.9821	-0.0212
730.1605	0.0128
730.3388	0.001
730.5171	0.0115
730.6954	-0.0115
730.8737	0.0126
731.0519	-0.013
731.2302	0.0211
731.4084	-0.0128
731.5866	0.0058
731.7648	-0.0066
731.9429	0.0105
732.1211	-0.0082
732.2992	0.014
732.4773	-0.0184
732.6554	-0.0003
732.8335	0.015
733.0115	0.021
733.1896	-0.0064
733.3676	0.0323
733.5456	0.0041
733.7235	-0.004
733.9015	0.0197
734.0794	-0.0118
734.2574	-0.0181
734.4353	0.0216
734.6131	0.0093
734.791	-0.0023
734.9689	-0.004
735.1467	-0.009
735.3245	0.0122
735.5023	0.0065
735.68	0.0027
735.8578	0.0067
736.0355	0.0129
736.2132	0.0091
736.3909	0.0059
736.5686	-0.0046
736.7463	-0.025
736.9239	0.0239
737.1015	0.0074
737.2791	0.0171
737.4567	-0.0079
737.6343	0.0108
737.8118	0.0276
737.9894	0.0193
738.1669	-0.0131
738.3444	0.0205
738.5218	-0.0129
738.6993	0.0064
738.8767	-0.0057
739.0541	0.009
739.2315	0.0008
739.4089	0.02
739.5863	0.0067
739.7636	0.0014
739.9409	0.0029
740.1182	-0.0196
740.2955	0.0343
740.4728	-0.0124
740.65	-0.0156
740.8272	0.017
741.0044	-0.0365
741.1816	0.0057
741.3588	-0.0086
741.5359	-0.0025
741.7131	0.0354
741.8902	0.0126
742.0673	-0.017
742.2444	0.0268
742.4214	0.0111
742.5985	-0.0235
742.7755	0.0004
742.9525	-0.0015
743.1295	-0.0259
743.3064	-0.0063
743.4834	-0.0005
743.6603	0.0333
743.8372	-0.0406
744.0141	0.04
744.191	0.0004
744.3678	-0.037
744.5446	0.0193
744.7215	-0.0031
744.8982	0.0309
745.075	0.0459
745.2518	-0.0152
745.4285	0.0233
745.6052	-0.0285
745.7819	0.0161
745.9586	0.016
746.1353	-0.0076
746.3119	0.045
746.4885	0.0051
746.6651	-0.0013
746.8417	-0.0158
747.0183	0.0353
747.1948	0.0105
747.3714	0.0123
747.5479	-0.0031
747.7244	-0.029
747.9008	-0.0067
748.0773	0.0341
748.2537	0.0398
748.4301	0.0004
748.6065	0.0009
748.7829	-0.0099
748.9593	0.0073
749.1356	0.01
749.3119	0.0006
749.4882	0.0207
749.6645	0.021
749.8408	0.0078
750.017	0.0058
750.1933	-0.026
750.3695	0.0029
750.5457	-0.0021
750.7218	0.01
750.898	-0.0277
751.0741	0.0061
751.2502	0.0062
751.4263	-0.0022
751.6024	0.0003
751.7784	0.0035
751.9545	-0.0145
752.1305	0.0022
752.3065	0.0011
752.4825	-0.0249
752.6584	-0.015
752.8344	-0.0044
753.0103	-0.0068
753.1862	0.0057
753.3621	-0.0198
753.5379	-0.0083
753.7138	0.0367
753.8896	-0
754.0654	-0.0119
754.2412	0.008
754.417	0.0202
754.5927	0.0054
754.7685	0.0051
754.9442	0.0046
755.1199	0.012
755.2956	0.0018
755.4712	0.0084
755.6469	0.0194
755.8225	-0.0113
755.9981	-0.0003
756.1736	-0.0061
756.3492	-0.002
756.5248	0.0145
756.7003	-0.0085
756.8758	0.0023
757.0513	0.0042
757.2267	0.0106
757.4022	-0.009
757.5776	-0.002
757.753	0.0117
757.9284	0.0058
758.1038	0.019
758.2791	0.0025
758.4545	-0.0178
758.6298	0.0024
758.8051	0.0065
758.9803	0.0026
759.1556	0.0134
759.3308	0.0002
759.506	0.0033
759.6812	0.0062
759.8564	0.013
760.0316	0.0018
760.2067	0.0317
760.3819	0.0069
760.557	-0.0096
760.732	-0.0065
760.9071	0.028
761.0821	-0.005
761.2572	0.0081
761.4322	-0.0039
761.6072	-0.0094
761.7821	-0.026
761.9571	0.0141
762.132	-0.0072
762.3069	0.0252
762.4818	0.0155
762.6567	-0.0183
762.8316	0.0301
763.0064	0.0139
763.1812	0.0117
763.356	-0.0226
763.5308	0.02
763.7055	-0.0135
763.8803	-0.0122
764.055	-0.0015
764.2297	-0.01
764.4044	-0.015
764.579	0.0004
764.7537	-0.0005
764.9283	0.0112
765.1029	0.0129
765.2775	0.0194
765.4521	0.0036
765.6266	0.0085
765.8011	-0.0061
765.9756	0.015
766.1501	0.0029
766.3246	0.0218
766.4991	0.0019
766.6735	0.0318
766.8479	-0.0183
767.0223	-0.0033
767.1967	0.022
767.371	0.0444
767.5454	0.0042
767.7197	0.0025
767.894	-0.0147
768.0683	0.0209
768.2425	0.0074
768.4168	0.004
768.591	-0.0059
768.7652	-0.0228
768.9394	-0.0239
769.1135	0.0083
769.2877	0.0127
769.4618	0.0485
769.6359	0.0054
769.81	0.015
769.984	-0.0045
770.1581	0.0087
770.3321	0.0086
770.5061	-0.0022
770.6801	0.019
770.8541	-0.0075
771.028	0.0482
771.202	0.0161
771.3759	-0.0058
771.5498	0.0136
771.7236	-0.0214
771.8975	0.0224
772.0713	-0.0041
772.2451	-0.0149
772.4189	-0.0106
772.5927	-0.0236
772.7665	-0.0099
772.9402	0.0203
773.1139	-0.0299
773.2876	-0.0114
773.4613	-0.0177
773.635	0.0031
773.8086	0.0357
773.9822	-0.0036
774.1558	0.0146
774.3294	-0.0148
774.503	0.0176
774.6765	-0.0021
774.8501	-0.0207
775.0236	-0.0036
775.1971	-0.026
775.3705	0.007
775.544	-0.026
775.7174	0.004
775.8908	0.0096
776.0642	0.0116
776.2376	0.0221
776.4109	0.0139
776.5843	-0.049
776.7576	0.0315
776.9309	-0.014
777.1041	-0.0183
777.2774	0.0117
777.4506	-0.0314
777.6238	0.0178
777.797	-0.0286
777.9702	-0.0285
778.1434	0.0261
778.3165	-0.0406
778.4896	-0.0491
778.6627	0.0401
778.8358	0.007
779.0089	-0.0165
779.1819	0.0208
779.3549	0.0052
779.5279	-0.0549
779.7009	0.0685
779.8739	0.029
780.0468	-0.0462
780.2197	-0.0177
780.3926	-0.0382
780.5655	0.0034
780.7384	-0.0057
780.9112	0.0123
781.0841	-0.001
781.2569	0.0179
781.4297	-0.0032
781.6024	0.0073
781.7752	0.0227
781.9479	0.0275
782.1206	-0.0006
782.2933	-0.014
782.466	0.0064
782.6386	0.0074
782.8113	-0.0058
782.9839	0.0173
783.1565	0.0083
783.329	0.0081
783.5016	0.0011
783.6741	-0.0139
783.8466	0.0487
784.0191	-0.0088
784.1916	-0.0313
784.3641	-0.0768
784.5365	-0.0061
784.7089	-0.0376
784.8813	0.0504
785.0537	0.06
785.2261	-0.0096
785.3984	-0.0383
785.5707	-0.0146
785.743	0.0231
785.9153	-0.0023
786.0876	-0.0462
786.2598	-0.0183
786.432	-0.0132
786.6042	0.0454
786.7764	-0.0271
786.9486	-0.023
787.1207	0.015
787.2928	0.0384
787.4649	-0.036
787.637	-0.003
787.8091	-0.0018
787.9811	0.0134
788.1532	0.0139
788.3252	-0.0075
788.4972	0.0134
788.6691	-0.0099
788.8411	-0.0084
789.013	0.0257
789.1849	-0.0208
789.3568	0.0143
789.5287	0.0377
789.7005	-0.0122
789.8723	-0.0595
790.0442	-0.0109
790.2159	-0.0133
790.3877	0.0284
790.5595	0.0551
790.7312	-0.0346
790.9029	-0.0288
791.0746	0.016
791.2463	-0.0271
791.4179	-0.0257
791.5896	-0.0098
791.7612	0.0225
791.9328	0.0036
792.1044	0.0068
792.2759	-0.047
792.4474	0.0129
792.619	-0.0381
792.7905	0.0796
792.9619	0.0222
793.1334	0.0636
793.3048	0.0302
793.4762	0.0322
793.6476	-0.0261
793.819	-0.0106
793.9904	0.0122
794.1617	-0.0272
794.333	0.004
794.5043	0.0086
794.6756	0.0093
794.8469	-0.0121
795.0181	-0.0124
795.1893	0.0075
795.3605	0.0024
795.5317	-0.0293
795.7029	-0.01
795.874	-0.0289
796.0452	-0.0061
796.2163	0.0109
796.3873	0.0665
796.5584	0.0196
796.7294	0.0029
796.9005	-0.0045
797.0715	-0.0548
797.2425	0.0821
797.4134	0.0366
797.5844	0.0241
797.7553	-0.114
797.9262	0.0499
798.0971	0.0072
798.2679	0.0554
798.4388	0.0462
798.6096	0.0266
798.7804	0.0237
798.9512	0.0492
799.122	0.0209
799.2927	0.0665
799.4635	-0.0762
799.6342	-0.0984
799.8049	0.0469
799.9755	-0.0034
800.1462	0.0151
800.3168	0.047
800.4874	-0.1059
800.658	0.0417
800.8286	0.0507
800.9991	-0.0186
801.1696	0.0162
801.3402	-0.0159
801.5106	-0.046
801.6811	0.0427
801.8516	0.1042
802.022	-0.0186
802.1924	-0.1067
802.3628	0.0324
802.5332	0.0247
802.7035	0.0046
802.8739	-0.0098
803.0442	-0.0445
803.2145	0.0199
803.3847	0.0595
803.555	0.0407
803.7252	-0.0375
803.8954	-0.057
804.0656	0.0344
804.2358	-0.0038
804.4059	0.0542
804.5761	0.0292
804.7462	0.0211
804.9163	0.0142
805.0864	-0.0721
805.2564	-0.0312
805.4264	-0.038
805.5965	0.0903
805.7665	-0.0252
805.9364	0.0205
806.1064	-0.0295
806.2763	0.0584
806.4462	-0.0137
806.6161	0.0206
806.786	0.0278
806.9559	-0.0087
807.1257	-0.0398
807.2955	0.0171
807.4653	-0.0165
807.6351	0.0846
807.8048	-0.0265
807.9746	0.0255
808.1443	-0.0238
808.314	0.0276
808.4837	0.039
808.6533	-0.064
808.8229	0.0027
808.9926	-0.0015
809.1622	0.0561
809.3317	-0.0535
809.5013	-0.0452
809.6708	-0.0306
809.8403	0.0335
810.0098	0.0088
810.1793	-0.0246
810.3488	-0.116
810.5182	0.0635
810.6876	0.0116
810.857	0.0367
811.0264	-0.0698
811.1958	0.1199
811.3651	-0.0275
811.5344	0.0405
811.7037	0.014
811.873	0.1162
812.0422	0.0331
812.2115	-0.0649
812.3807	-0.1287
812.5499	-0.0229
812.7191	-0.0866
812.8882	-0.1079
813.0574	-0.0787
813.2265	0.1072
813.3956	-0.0475
813.5646	-0.0024
813.7337	0.0016
813.9027	-0.0873
814.0718	0.0335
814.2407	0.0618
814.4097	0.0027
814.5787	0.0988
814.7476	0.0072
814.9165	0.074
815.0854	0.0152
815.2543	-0.1093
815.4232	0.0737
815.592	0.0448
815.7608	-0.0675
815.9296	-0.1254
816.0984	0.1442
816.2671	-0.1016
816.4359	0.0925
816.6046	-0.0033
816.7733	-0.1348
816.942	-0.0692
817.1106	-0.007
817.2793	-0.0694
817.4479	-0.0615
817.6165	-0.0202
817.785	-0.0222
817.9536	-0.1285
818.1221	0.0061
818.2906	-0.117
818.4591	-0.0323
818.6276	-0.0824
818.7961	-0.0838
818.9645	0.0656
819.1329	-0.1172
819.3013	0.0293
819.4697	-0.0059
819.638	-0.0223
819.8064	-0.0068
819.9747	0.013
820.143	0.0117
820.3113	0.039
820.4795	0.0337
820.6477	-0.0025
820.816	-0.0552
820.9842	0.0276
821.1523	-0.0094
821.3205	0.0335
821.4886	-0.0002
821.6567	-0.1193
821.8248	0.1483
821.9929	-0.1467
822.1609	-0.0387
822.329	-0.0061
822.497	0.0277
822.665	-0.0284
822.833	-0.0187
823.0009	-0.0275
823.1688	-0.0596
823.3367	-0.0059
823.5046	-0.0442
823.6725	-0.0409
823.8404	0.0192
824.0082	-0.0073
824.176	0.0416
824.3438	-0.0134
824.5116	-0.0312
824.6793	0.0108
824.847	0.127
825.0147	0.1711
825.1824	0.1072
825.3501	0.0362
825.5177	-0.0465
825.6854	-0.2463
825.853	-0.1023
826.0206	-0.0282
826.1881	0.0416
826.3557	-0.1255
826.5232	0.2029
826.6907	-0.0911
826.8582	-0.0564
827.0257	0.2733
827.1931	-0.0397
827.3605	-0.1198
827.528	-0.0632
827.6953	-0.1904
827.8627	-0.099
828.03	0.0529
828.1974	-0.0508
828.3647	0.1388
828.532	0.0227
828.6992	0.1307
828.8665	-0.1821
829.0337	0.0073
829.2009	-0.0306
829.3681	-0.1068
829.5352	-0.21
829.7024	0.3386
829.8695	-0.0041
830.0366	0.0366
830.2037	0.0727
830.3707	0.0592
830.5378	-0.1286
830.7048	-0.0882
830.8718	0.0263
831.0388	-0.011
831.2057	0.122
831.3727	-0.0296
831.5396	0.1155
831.7065	-0.9031
831.8734	0.0596
832.0402	0.0785
832.2071	-0.5004
832.3739	-0.2423
832.5407	-0
832.7075	0.1157
832.8742	0.3817
833.041	-0.0641
833.2077	0.6718
833.3744	0.2744
833.541	-0.005
833.7077	-0.1291
833.8743	-0.0127
834.0409	-0.0362
834.2075	0.1488
834.3741	-0.0144
834.5407	-0.0927
834.7072	0.0037
834.8737	0.1189
835.0402	0.4467
835.2067	0.1296
835.3731	-0.0512
835.5395	0.1426
835.706	-0.1678
835.8723	-0.0453
836.0387	0.0596
836.2051	0.701
836.3714	0.1437
836.5377	0.107
836.704	0.0088
836.8703	-0.2511
837.0365	-0.4559
837.2027	-0.0669
837.3689	0.334
837.5351	-0.0466
837.7013	-0.2832
837.8674	0.1527
838.0335	-0.0632
838.1997	-0.0123
838.3657	-0
838.5318	-0.6686
838.6978	0.3192
838.8639	0.8432
839.0299	-0.1864
839.1958	-0.0481
839.3618	0.3773
839.5277	0.1315
839.6937	0.0667
839.8596	-0.1674
840.0254	-0.2772
840.1913	-0.2078
840.3571	-0.2884
840.523	-0
840.6888	-0.079
840.8545	-0.5494
841.0203	-0.0263
841.186	0.1918
841.3517	-0.3215
841.5174	0.156
841.6831	-0.0724
841.8488	-0.0252
842.0144	0.2072
842.18	0.2883
842.3456	-0
842.5112	-0
842.6767	0.029
842.8422	0.0301
843.0077	0.05
843.1732	-0.3737
843.3387	-0.2002
843.5042	-0
843.6696	-0.3806
843.835	0.0666
844.0004	-0.2321
844.1657	-0
844.3311	-0.4374
844.4964	-0.6537
844.6617	-0.1474
844.827	-0
844.9923	0.274
845.1575	-0.361
845.3227	0.0631
845.4879	-0.5267
845.6531	-0.0681
845.8183	1.8535
845.9834	-0
846.1485	0.1537
846.3136	-0.1297
846.4787	-0
846.6438	0.1036
846.8088	0.5724
846.9738	-0.1627
847.1388	0.0814
847.3038	0.0934
847.4687	-0
847.6337	0.2007
847.7986	0.0435
847.9635	0.2931
848.1284	0.1697
848.2932	-0.1617
848.458	-0
848.6228	0.1712
848.7876	0.3227
848.9524	-0.062
849.1172	-1.6915
849.2819	-0.0078
849.4466	0.0791
849.6113	0.4353
849.7759	-0
849.9406	-0.1911
850.1052	-0
850.2698	-0
850.4344	-0.5461
850.599	-0.0765
850.7635	0.8801
850.928	0.0724
851.0925	0.0839
851.257	-0.0854
851.4215	0.9212
851.5859	0.2824
851.7503	-0
851.9147	-0.2621
852.0791	0.3486
852.2434	0.0856
852.4078	-0
852.5721	0.5418
852.7364	0.1467
852.9007	-0.0656
853.0649	-0
853.2291	0.059
853.3934	-0
853.5575	0.1656
853.7217	1.3255
853.8859	-0.6886
854.05	-0.5082
854.2141	0.4393
854.3782	-0.2118
854.5423	-0
854.7063	-0.1147
854.8703	-0.1972
855.0343	-0.139
855.1983	0.0821
855.3623	0.7747
855.5262	-0
855.6901	0.3825
855.854	1.6449
856.0179	-0.3833
856.1818	0.2232
856.3456	0.5254
856.5094	-0.6648
856.6732	-0.5944
856.837	-0.6905
857.0008	-0.0516
857.1645	0.1562
857.3282	-0.6854
857.4919	0.0317
857.6556	-0.3192
857.8192	-0.1481
857.9828	-0.0918
858.1465	0.1168
858.31	-0
858.4736	-0.2212
858.6372	0.3313
858.8007	-0.001
858.9642	0.5043
859.1277	0.6025
859.2911	-0.0023
859.4546	-0
859.618	-0.0007
859.7814	0.0019
859.9448	-0.3446
860.1081	-0
860.2715	-1.5051
860.4348	0.2324
860.5981	0.4814
860.7614	-0.1833
860.9246	-0.1521
861.0879	-0.0538
861.2511	-0.4093
861.4143	-0.0078
861.5774	0.255
861.7406	-0.2058
861.9037	-0.2363
862.0668	-0.9481
862.2299	-0
862.393	-0
862.556	0.3948
862.7191	-0.537
862.8821	0.1266
863.0451	0.0107
863.208	-0.3576
863.371	-0.6756
863.5339	0.0584
863.6968	-0.3194
863.8597	-0.3345
864.0225	0.1472
864.1854	-0.2819
864.3482	-1.2925
864.511	0.1656
864.6737	-0
864.8365	0.3032
864.9992	-0
865.1619	-0.6377
865.3246	-1.3945
865.4873	-0.5621
865.65	0.0332
865.8126	0.5277
865.9752	-0.1235
866.1378	0.1449
866.3004	-0.3268
866.4629	-1.7482
866.6254	-0.2299
866.7879	-0.1732
866.9504	0.0035
867.1129	-0.0025
867.2753	-0.2329
867.4377	-0
867.6001	-0.7117
867.7625	-0.2814
867.9249	-0
868.0872	-0.2486
868.2495	0.1401
868.4118	-0
868.5741	-0
868.7363	-0
868.8986	0.1981
869.0608	-0.3675
869.223	-0.7162
869.3851	-0
869.5473	0.1167
869.7094	0.3837
869.8715	-0.9598
870.0336	-0.1148
870.1957	-0.3872
870.3577	0.4092
870.5197	0.1604
870.6817	-0.7215
870.8437	-0.096
871.0057	-0
871.1676	0.3951
871.3295	0.3797
871.4914	-0
871.6533	-0
871.8151	0.594
871.977	-0.294
872.1388	-0.2087
872.3006	-0
872.4623	-0.4034
872.6241	-0
872.7858	0.1301
872.9475	0.6033
873.1092	0.552
873.2709	0.5212
873.4325	-2.1072
873.5941	-0
873.7557	-0
873.9173	-0.326
874.0789	0.4124
874.2404	-0
874.4019	-0.0841
874.5634	-0
874.7249	-0
874.8863	-0.127
875.0478	-0.2247
875.2092	0.5524
875.3706	0.3346
875.5319	1.4212
875.6933	-0.1343
875.8546	-0
876.0159	0.1125
876.1772	-0
876.3385	-0
876.4997	0.6149
876.6609	-0
876.8221	0.1151
876.9833	0.0873
877.1445	0.0408
877.3056	-1.1277
877.4667	-0
877.6278	-0
877.7889	-0.2966
877.9499	-0
878.111	-0.4454
878.272	0.4393
878.433	-0.3571
878.5939	-0.0667
878.7549	-0
878.9158	-0
879.0767	-0
879.2376	0.3465
879.3984	0.3418
879.5593	0.3496
879.7201	-1.7613
879.8809	-0.3788
880.0417	-0.2589
880.2024	0.0577
880.3632	-0
880.5239	-0.099
880.6846	-0.169
880.8452	0.1378
881.0059	-1.115
881.1665	-0.0254
881.3271	1.251
881.4877	-0.1836
881.6483	-0
881.8088	-0
881.9693	-0.9398
882.1298	-0.9398
882.2903	-0.9398
