Data from D4ACN5uM420nmA_Absorbance_14-37-08-141.txt Node
Date: Fri Feb 21 14:37:08 GMT 2025
User: LASERRRRR
Spectrometer: FLMT03099
Trigger mode: 0
Integration Time (sec): 1.500000E-2
Scans to average: 1
Electric dark correction enabled: true
Nonlinearity correction enabled: false
Boxcar width: 0
XAxis mode: Wavelengths
Number of Pixels in Spectrum: 3648
>>>>>Begin Spectral Data<<<<<
179.3399	-0.7093
179.5586	-0.7093
179.7771	-0.7093
179.9957	-0
180.2143	-0
180.4329	0.1787
180.6514	-1.2584
180.8699	0.9015
181.0885	-0
181.307	-0.0462
181.5255	-0
181.744	-0
181.9625	0.2229
182.181	0.1071
182.3994	-0.5174
182.6179	0.6381
182.8363	0.1079
183.0547	-0.417
183.2732	0.0358
183.4916	0.1772
183.71	0.2008
183.9284	0.1754
184.1467	0.4834
184.3651	0.0939
184.5835	0.2742
184.8018	0.2511
185.0201	0.2741
185.2385	0.2858
185.4568	0.1179
185.6751	0.4345
185.8934	0.2372
186.1117	-0.1662
186.3299	0.2833
186.5482	0.3282
186.7664	0.0383
186.9847	-0.1181
187.2029	0.0929
187.4211	0.0698
187.6393	0.1539
187.8575	0.3605
188.0757	0.2399
188.2939	-0.0449
188.512	0.097
188.7302	0.1164
188.9483	0.1315
189.1665	0.5302
189.3846	0.2759
189.6027	0.2135
189.8208	0.1349
190.0389	0.2611
190.257	0.1417
190.475	-0.0343
190.6931	0.0953
190.9111	0.2383
191.1292	0.3105
191.3472	0.0571
191.5652	0.2385
191.7832	0.1496
192.0012	0.2069
192.2192	0.0672
192.4371	0.1796
192.6551	0.2187
192.873	0.1028
193.091	0.1393
193.3089	0.1958
193.5268	0.1702
193.7447	0.2304
193.9626	0.1817
194.1805	0.2674
194.3984	0.2192
194.6162	0.1753
194.8341	0.3298
195.0519	0.2517
195.2697	0.2752
195.4875	0.304
195.7054	0.2709
195.9231	0.2388
196.1409	0.3132
196.3587	0.359
196.5765	0.3727
196.7942	0.2785
197.012	0.3421
197.2297	0.2552
197.4474	0.3653
197.6651	0.3114
197.8828	0.2989
198.1005	0.3949
198.3182	0.4265
198.5358	0.3597
198.7535	0.4124
198.9711	0.416
199.1888	0.3331
199.4064	0.4239
199.624	0.3932
199.8416	0.3652
200.0592	0.3443
200.2767	0.4021
200.4943	0.4244
200.7119	0.4339
200.9294	0.3827
201.1469	0.4031
201.3645	0.4815
201.582	0.3991
201.7995	0.4626
202.017	0.4139
202.2344	0.4286
202.4519	0.3657
202.6694	0.3554
202.8868	0.4156
203.1042	0.4399
203.3217	0.3871
203.5391	0.3772
203.7565	0.361
203.9739	0.3862
204.1913	0.359
204.4086	0.3786
204.626	0.3728
204.8433	0.3518
205.0607	0.3539
205.278	0.342
205.4953	0.334
205.7126	0.334
205.9299	0.3581
206.1472	0.3377
206.3644	0.3369
206.5817	0.3159
206.7989	0.3351
207.0162	0.3314
207.2334	0.3305
207.4506	0.2967
207.6678	0.3108
207.885	0.2866
208.1022	0.3229
208.3194	0.2774
208.5365	0.3099
208.7537	0.2738
208.9708	0.3249
209.1879	0.2944
209.405	0.2765
209.6222	0.273
209.8392	0.2892
210.0563	0.2754
210.2734	0.2618
210.4905	0.2721
210.7075	0.2786
210.9245	0.2594
211.1416	0.244
211.3586	0.2552
211.5756	0.2515
211.7926	0.2432
212.0096	0.2628
212.2265	0.2692
212.4435	0.2517
212.6604	0.2521
212.8774	0.2516
213.0943	0.2454
213.3112	0.2508
213.5281	0.2504
213.745	0.2391
213.9619	0.2372
214.1788	0.2498
214.3956	0.2311
214.6125	0.2422
214.8293	0.2367
215.0461	0.2455
215.2629	0.2594
215.4798	0.2606
215.6965	0.225
215.9133	0.243
216.1301	0.2404
216.3469	0.2418
216.5636	0.2357
216.7803	0.2312
216.9971	0.2573
217.2138	0.2464
217.4305	0.2469
217.6472	0.2353
217.8639	0.2538
218.0805	0.2637
218.2972	0.2336
218.5138	0.2439
218.7305	0.252
218.9471	0.2392
219.1637	0.2694
219.3803	0.2569
219.5969	0.2547
219.8135	0.2521
220.0301	0.269
220.2466	0.26
220.4632	0.249
220.6797	0.2535
220.8962	0.2621
221.1127	0.2688
221.3292	0.2606
221.5457	0.2585
221.7622	0.2676
221.9787	0.2739
222.1951	0.2585
222.4116	0.2717
222.628	0.2962
222.8444	0.2727
223.0608	0.285
223.2772	0.2924
223.4936	0.2869
223.71	0.281
223.9264	0.2788
224.1427	0.2679
224.3591	0.2785
224.5754	0.2902
224.7917	0.2892
225.008	0.2984
225.2243	0.304
225.4406	0.2976
225.6569	0.3123
225.8732	0.3146
226.0894	0.3082
226.3057	0.3061
226.5219	0.3194
226.7381	0.3144
226.9543	0.3081
227.1705	0.3136
227.3867	0.3245
227.6029	0.3204
227.8191	0.3376
228.0352	0.3457
228.2513	0.3474
228.4675	0.3379
228.6836	0.3447
228.8997	0.3388
229.1158	0.3419
229.3319	0.3608
229.548	0.3675
229.764	0.3655
229.9801	0.3739
230.1961	0.3676
230.4121	0.3727
230.6282	0.3904
230.8442	0.3861
231.0602	0.3839
231.2761	0.3908
231.4921	0.3924
231.7081	0.4018
231.924	0.4066
232.14	0.4099
232.3559	0.4101
232.5718	0.4181
232.7877	0.4096
233.0036	0.3974
233.2195	0.4241
233.4353	0.4222
233.6512	0.4229
233.867	0.42
234.0829	0.4203
234.2987	0.4241
234.5145	0.4344
234.7303	0.4341
234.9461	0.4404
235.1619	0.4316
235.3776	0.436
235.5934	0.4393
235.8091	0.4483
236.0249	0.4454
236.2406	0.4375
236.4563	0.4422
236.672	0.4418
236.8877	0.45
237.1034	0.4489
237.319	0.4592
237.5347	0.4556
237.7503	0.4519
237.966	0.4624
238.1816	0.4504
238.3972	0.4722
238.6128	0.4696
238.8284	0.4687
239.0439	0.4563
239.2595	0.4676
239.475	0.4621
239.6906	0.4682
239.9061	0.4633
240.1216	0.4605
240.3371	0.4614
240.5526	0.4647
240.7681	0.4639
240.9836	0.4674
241.199	0.4601
241.4145	0.4571
241.6299	0.4504
241.8453	0.4509
242.0607	0.4423
242.2761	0.4398
242.4915	0.4325
242.7069	0.4259
242.9223	0.4307
243.1376	0.4193
243.353	0.4095
243.5683	0.4021
243.7836	0.3996
243.9989	0.3779
244.2142	0.3854
244.4295	0.3819
244.6448	0.3639
244.86	0.3605
245.0753	0.3552
245.2905	0.3459
245.5057	0.3389
245.721	0.344
245.9362	0.3362
246.1514	0.3289
246.3665	0.3136
246.5817	0.3036
246.7969	0.3048
247.012	0.2945
247.2271	0.3078
247.4423	0.2922
247.6574	0.285
247.8725	0.2799
248.0876	0.2766
248.3026	0.2669
248.5177	0.2616
248.7328	0.263
248.9478	0.2622
249.1628	0.2561
249.3779	0.2433
249.5929	0.2466
249.8079	0.2408
250.0228	0.2309
250.2378	0.2411
250.4528	0.2288
250.6677	0.2246
250.8827	0.2173
251.0976	0.2232
251.3125	0.2182
251.5274	0.213
251.7423	0.2142
251.9572	0.2133
252.172	0.2093
252.3869	0.2093
252.6017	0.2054
252.8166	0.2042
253.0314	0.198
253.2462	0.2076
253.461	0.2012
253.6758	0.2005
253.8906	0.1993
254.1053	0.1994
254.3201	0.1964
254.5348	0.1919
254.7496	0.1883
254.9643	0.1965
255.179	0.1915
255.3937	0.1916
255.6083	0.2
255.823	0.1866
256.0377	0.1908
256.2523	0.1837
256.467	0.1944
256.6816	0.1843
256.8962	0.1907
257.1108	0.1886
257.3254	0.1875
257.54	0.1891
257.7545	0.1866
257.9691	0.1838
258.1836	0.1775
258.3981	0.1801
258.6127	0.1764
258.8272	0.1878
259.0417	0.1835
259.2561	0.1821
259.4706	0.1773
259.6851	0.1816
259.8995	0.1839
260.114	0.1758
260.3284	0.1803
260.5428	0.1808
260.7572	0.1795
260.9716	0.1857
261.186	0.1818
261.4003	0.1794
261.6147	0.1799
261.829	0.1847
262.0433	0.1858
262.2577	0.1826
262.472	0.1848
262.6863	0.1845
262.9005	0.1822
263.1148	0.1794
263.3291	0.1792
263.5433	0.1907
263.7576	0.1862
263.9718	0.1824
264.186	0.188
264.4002	0.1871
264.6144	0.197
264.8286	0.1902
265.0427	0.1954
265.2569	0.1923
265.471	0.1903
265.6851	0.1943
265.8993	0.1875
266.1134	0.1892
266.3275	0.1888
266.5415	0.191
266.7556	0.183
266.9697	0.1922
267.1837	0.1936
267.3978	0.1906
267.6118	0.1823
267.8258	0.1894
268.0398	0.1895
268.2538	0.1958
268.4677	0.1907
268.6817	0.188
268.8957	0.1828
269.1096	0.1826
269.3235	0.1823
269.5374	0.1907
269.7514	0.1786
269.9652	0.1876
270.1791	0.1803
270.393	0.1852
270.6068	0.1822
270.8207	0.1797
271.0345	0.1873
271.2483	0.1764
271.4622	0.1864
271.676	0.1813
271.8897	0.1864
272.1035	0.1884
272.3173	0.1803
272.531	0.1851
272.7448	0.1831
272.9585	0.18
273.1722	0.1875
273.3859	0.1864
273.5996	0.1906
273.8133	0.1817
274.0269	0.1856
274.2406	0.1889
274.4542	0.1864
274.6679	0.1854
274.8815	0.1938
275.0951	0.1925
275.3087	0.1918
275.5223	0.1892
275.7358	0.1983
275.9494	0.1943
276.1629	0.192
276.3765	0.1901
276.59	0.184
276.8035	0.1909
277.017	0.1936
277.2305	0.1931
277.444	0.1983
277.6574	0.1962
277.8709	0.201
278.0843	0.2008
278.2978	0.196
278.5112	0.1979
278.7246	0.194
278.938	0.1985
279.1513	0.1938
279.3647	0.1965
279.5781	0.2
279.7914	0.191
280.0047	0.197
280.2181	0.1903
280.4314	0.195
280.6447	0.1968
280.8579	0.1885
281.0712	0.1943
281.2845	0.1922
281.4977	0.1897
281.711	0.1909
281.9242	0.1946
282.1374	0.1884
282.3506	0.1868
282.5638	0.1937
282.7769	0.1865
282.9901	0.1868
283.2033	0.1891
283.4164	0.1873
283.6295	0.1916
283.8426	0.1911
284.0557	0.1912
284.2688	0.1889
284.4819	0.1839
284.695	0.1931
284.908	0.1892
285.1211	0.1877
285.3341	0.1821
285.5471	0.1873
285.7601	0.1888
285.9731	0.1915
286.1861	0.1958
286.3991	0.1944
286.612	0.1881
286.825	0.1901
287.0379	0.193
287.2508	0.196
287.4637	0.1937
287.6766	0.1923
287.8895	0.1887
288.1024	0.1921
288.3152	0.195
288.5281	0.1901
288.7409	0.1933
288.9538	0.195
289.1666	0.1952
289.3794	0.1907
289.5922	0.1847
289.8049	0.1958
290.0177	0.1907
290.2304	0.1901
290.4432	0.1939
290.6559	0.1939
290.8686	0.1926
291.0813	0.1906
291.294	0.1968
291.5067	0.1898
291.7194	0.1906
291.932	0.1908
292.1447	0.1943
292.3573	0.1927
292.5699	0.1905
292.7825	0.1916
292.9951	0.1904
293.2077	0.1902
293.4203	0.194
293.6328	0.1939
293.8454	0.1978
294.0579	0.1918
294.2704	0.203
294.4829	0.1942
294.6954	0.193
294.9079	0.1886
295.1204	0.1868
295.3328	0.194
295.5453	0.1936
295.7577	0.1936
295.9701	0.1923
296.1825	0.1957
296.3949	0.1926
296.6073	0.1905
296.8197	0.1934
297.0321	0.1897
297.2444	0.1867
297.4567	0.1904
297.6691	0.192
297.8814	0.1908
298.0937	0.1891
298.306	0.1914
298.5182	0.1993
298.7305	0.1892
298.9428	0.1959
299.155	0.1891
299.3672	0.1945
299.5794	0.1906
299.7916	0.1888
300.0038	0.1922
300.216	0.1907
300.4282	0.1896
300.6403	0.1931
300.8525	0.1966
301.0646	0.1973
301.2767	0.1921
301.4888	0.1968
301.7009	0.1967
301.913	0.1951
302.125	0.1898
302.3371	0.1946
302.5491	0.1962
302.7612	0.2005
302.9732	0.1924
303.1852	0.1944
303.3972	0.1989
303.6092	0.1954
303.8211	0.1926
304.0331	0.1846
304.245	0.1915
304.457	0.1916
304.6689	0.1941
304.8808	0.1889
305.0927	0.195
305.3046	0.1848
305.5164	0.1882
305.7283	0.1824
305.9401	0.1752
306.152	0.1868
306.3638	0.1855
306.5756	0.1846
306.7874	0.1804
306.9992	0.1743
307.2109	0.1782
307.4227	0.1781
307.6344	0.1821
307.8462	0.1693
308.0579	0.1746
308.2696	0.1754
308.4813	0.1715
308.693	0.1702
308.9046	0.1725
309.1163	0.1637
309.328	0.1593
309.5396	0.1624
309.7512	0.1606
309.9628	0.159
310.1744	0.1527
310.386	0.1548
310.5976	0.1554
310.8091	0.1565
311.0207	0.1505
311.2322	0.1498
311.4437	0.1502
311.6552	0.1511
311.8667	0.1531
312.0782	0.1498
312.2897	0.1507
312.5012	0.1471
312.7126	0.1468
312.924	0.1478
313.1355	0.15
313.3469	0.1436
313.5583	0.1441
313.7696	0.1387
313.981	0.15
314.1924	0.1419
314.4037	0.1406
314.6151	0.1433
314.8264	0.145
315.0377	0.142
315.249	0.1449
315.4603	0.1375
315.6716	0.1425
315.8828	0.1393
316.0941	0.1395
316.3053	0.1406
316.5165	0.1422
316.7277	0.1344
316.9389	0.1339
317.1501	0.1387
317.3613	0.135
317.5724	0.1378
317.7836	0.1299
317.9947	0.1344
318.2058	0.1357
318.417	0.1297
318.6281	0.1278
318.8391	0.1399
319.0502	0.1341
319.2613	0.1383
319.4723	0.1306
319.6834	0.1367
319.8944	0.1297
320.1054	0.1349
320.3164	0.1294
320.5274	0.1336
320.7383	0.1415
320.9493	0.1321
321.1602	0.1381
321.3712	0.1341
321.5821	0.1313
321.793	0.1422
322.0039	0.1375
322.2148	0.137
322.4257	0.1306
322.6365	0.1344
322.8474	0.1418
323.0582	0.1366
323.269	0.1362
323.4798	0.1368
323.6906	0.1347
323.9014	0.1321
324.1122	0.1329
324.3229	0.1409
324.5337	0.1367
324.7444	0.1386
324.9551	0.1376
325.1658	0.1388
325.3765	0.1418
325.5872	0.1351
325.7979	0.1396
326.0085	0.1415
326.2192	0.1354
326.4298	0.1356
326.6404	0.1446
326.851	0.1408
327.0616	0.1426
327.2722	0.1419
327.4828	0.1433
327.6933	0.1451
327.9039	0.1406
328.1144	0.146
328.3249	0.143
328.5354	0.1454
328.7459	0.145
328.9564	0.1379
329.1669	0.1512
329.3773	0.1482
329.5878	0.14
329.7982	0.1498
330.0086	0.1509
330.219	0.1394
330.4294	0.1495
330.6398	0.1478
330.8502	0.1513
331.0605	0.1469
331.2708	0.1505
331.4812	0.1462
331.6915	0.1524
331.9018	0.1488
332.1121	0.1552
332.3224	0.1467
332.5326	0.1439
332.7429	0.1562
332.9531	0.1478
333.1633	0.1387
333.3735	0.1462
333.5837	0.1484
333.7939	0.1436
334.0041	0.1479
334.2143	0.1505
334.4244	0.1532
334.6346	0.1483
334.8447	0.148
335.0548	0.1493
335.2649	0.1545
335.475	0.152
335.685	0.1506
335.8951	0.149
336.1051	0.1491
336.3152	0.1522
336.5252	0.1509
336.7352	0.1457
336.9452	0.1498
337.1552	0.1487
337.3652	0.1482
337.5751	0.152
337.7851	0.1505
337.995	0.1536
338.2049	0.1517
338.4148	0.1527
338.6247	0.1512
338.8346	0.1422
339.0445	0.1518
339.2543	0.1552
339.4642	0.1504
339.674	0.1503
339.8838	0.1532
340.0936	0.1463
340.3034	0.1471
340.5132	0.151
340.7229	0.1534
340.9327	0.1584
341.1424	0.157
341.3522	0.1509
341.5619	0.1554
341.7716	0.1578
341.9813	0.1613
342.1909	0.1604
342.4006	0.1632
342.6102	0.1542
342.8199	0.1644
343.0295	0.1584
343.2391	0.1616
343.4487	0.1648
343.6583	0.1752
343.8679	0.1626
344.0774	0.1596
344.287	0.1644
344.4965	0.1704
344.706	0.1737
344.9155	0.1585
345.125	0.1685
345.3345	0.1748
345.544	0.1699
345.7534	0.1681
345.9629	0.1751
346.1723	0.1688
346.3817	0.1724
346.5911	0.1791
346.8005	0.1765
347.0099	0.1751
347.2193	0.1802
347.4286	0.1808
347.638	0.1798
347.8473	0.1765
348.0566	0.1751
348.2659	0.1754
348.4752	0.1811
348.6845	0.1827
348.8937	0.1779
349.103	0.1826
349.3122	0.1798
349.5214	0.1765
349.7306	0.1941
349.9398	0.1842
350.149	0.1767
350.3582	0.1834
350.5674	0.1861
350.7765	0.1858
350.9856	0.1787
351.1948	0.1886
351.4039	0.1858
351.613	0.19
351.822	0.1883
352.0311	0.1861
352.2402	0.1874
352.4492	0.1885
352.6582	0.1894
352.8672	0.1896
353.0762	0.1921
353.2852	0.1902
353.4942	0.1851
353.7032	0.1799
353.9121	0.1912
354.1211	0.1891
354.33	0.1879
354.5389	0.1809
354.7478	0.178
354.9567	0.1893
355.1655	0.1931
355.3744	0.186
355.5833	0.1887
355.7921	0.2004
356.0009	0.1902
356.2097	0.1823
356.4185	0.1941
356.6273	0.1932
356.8361	0.1903
357.0448	0.1964
357.2536	0.195
357.4623	0.1969
357.671	0.1903
357.8797	0.2029
358.0884	0.1926
358.2971	0.1961
358.5057	0.2007
358.7144	0.1967
358.923	0.1959
359.1316	0.1987
359.3402	0.1976
359.5488	0.1973
359.7574	0.2054
359.966	0.2082
360.1746	0.2084
360.3831	0.2086
360.5916	0.2015
360.8002	0.2162
361.0087	0.2032
361.2172	0.2119
361.4256	0.2073
361.6341	0.2131
361.8426	0.2045
362.051	0.2127
362.2594	0.2098
362.4678	0.2173
362.6762	0.214
362.8846	0.2145
363.093	0.2154
363.3014	0.2179
363.5097	0.2138
363.718	0.2199
363.9264	0.2209
364.1347	0.2229
364.343	0.2173
364.5513	0.2197
364.7595	0.228
364.9678	0.2196
365.176	0.2258
365.3842	0.2247
365.5925	0.2194
365.8007	0.224
366.0089	0.2357
366.217	0.2328
366.4252	0.2291
366.6333	0.2327
366.8415	0.2271
367.0496	0.2242
367.2577	0.23
367.4658	0.2308
367.6739	0.2324
367.882	0.2335
368.09	0.2251
368.2981	0.2392
368.5061	0.2333
368.7141	0.241
368.9221	0.2433
369.1301	0.2393
369.3381	0.2406
369.5461	0.2362
369.754	0.2345
369.962	0.244
370.1699	0.2456
370.3778	0.2529
370.5857	0.2453
370.7936	0.2444
371.0015	0.2483
371.2093	0.2464
371.4172	0.2433
371.625	0.2521
371.8328	0.245
372.0406	0.2547
372.2484	0.2473
372.4562	0.251
372.664	0.2481
372.8717	0.2508
373.0795	0.253
373.2872	0.2602
373.4949	0.252
373.7026	0.255
373.9103	0.2548
374.118	0.2516
374.3256	0.2576
374.5333	0.2562
374.7409	0.2558
374.9485	0.2665
375.1561	0.2662
375.3637	0.2577
375.5713	0.2615
375.7789	0.2555
375.9864	0.2619
376.194	0.2651
376.4015	0.2643
376.609	0.2629
376.8165	0.2628
377.024	0.266
377.2315	0.265
377.4389	0.259
377.6464	0.2659
377.8538	0.2657
378.0612	0.2709
378.2686	0.2686
378.476	0.2747
378.6834	0.2739
378.8908	0.2748
379.0981	0.2678
379.3055	0.2778
379.5128	0.2745
379.7201	0.2695
379.9274	0.2761
380.1347	0.2717
380.342	0.276
380.5492	0.2745
380.7565	0.2802
380.9637	0.2789
381.1709	0.2784
381.3781	0.2876
381.5853	0.2747
381.7925	0.2763
381.9997	0.2886
382.2068	0.28
382.4139	0.2821
382.6211	0.282
382.8282	0.2817
383.0353	0.2878
383.2424	0.2862
383.4494	0.2784
383.6565	0.2788
383.8635	0.2839
384.0706	0.2919
384.2776	0.2849
384.4846	0.286
384.6916	0.2747
384.8986	0.2889
385.1055	0.297
385.3125	0.2977
385.5194	0.2982
385.7263	0.2837
385.9333	0.2954
386.1402	0.2838
386.347	0.2789
386.5539	0.2862
386.7608	0.2854
386.9676	0.2919
387.1744	0.2825
387.3813	0.2838
387.5881	0.2809
387.7948	0.2886
388.0016	0.2948
388.2084	0.2914
388.4151	0.29
388.6219	0.2784
388.8286	0.2876
389.0353	0.2843
389.242	0.2988
389.4487	0.2883
389.6553	0.2739
389.862	0.2777
390.0686	0.2865
390.2753	0.278
390.4819	0.2818
390.6885	0.2789
390.8951	0.2813
391.1016	0.2739
391.3082	0.2834
391.5147	0.2678
391.7213	0.273
391.9278	0.2737
392.1343	0.2728
392.3408	0.2721
392.5473	0.2669
392.7537	0.2664
392.9602	0.2637
393.1666	0.2726
393.373	0.2594
393.5794	0.2641
393.7858	0.2612
393.9922	0.2652
394.1986	0.2597
394.4049	0.2601
394.6113	0.2583
394.8176	0.2578
395.0239	0.2595
395.2302	0.2566
395.4365	0.2594
395.6428	0.2512
395.8491	0.2416
396.0553	0.2453
396.2615	0.2521
396.4678	0.2609
396.674	0.2539
396.8802	0.2441
397.0863	0.2391
397.2925	0.2528
397.4987	0.2482
397.7048	0.2578
397.9109	0.2382
398.117	0.2528
398.3231	0.2522
398.5292	0.2416
398.7353	0.2383
398.9413	0.2412
399.1474	0.2513
399.3534	0.2449
399.5594	0.2526
399.7654	0.2365
399.9714	0.2563
400.1774	0.2356
400.3833	0.248
400.5893	0.2497
400.7952	0.2473
401.0011	0.2516
401.207	0.238
401.4129	0.2388
401.6188	0.2503
401.8247	0.2524
402.0305	0.2414
402.2364	0.2478
402.4422	0.2455
402.648	0.2468
402.8538	0.2406
403.0596	0.2422
403.2654	0.2447
403.4711	0.239
403.6768	0.2342
403.8826	0.242
404.0883	0.2348
404.294	0.2475
404.4997	0.245
404.7054	0.2456
404.911	0.2319
405.1167	0.2487
405.3223	0.2454
405.5279	0.2493
405.7335	0.2419
405.9391	0.2351
406.1447	0.2523
406.3502	0.2346
406.5558	0.238
406.7613	0.2399
406.9668	0.2417
407.1724	0.2461
407.3778	0.2457
407.5833	0.2324
407.7888	0.2404
407.9942	0.2378
408.1997	0.248
408.4051	0.2417
408.6105	0.2423
408.8159	0.2296
409.0213	0.2471
409.2267	0.2403
409.432	0.2359
409.6374	0.2392
409.8427	0.2519
410.048	0.2443
410.2533	0.2358
410.4586	0.231
410.6639	0.252
410.8691	0.2308
411.0744	0.2449
411.2796	0.236
411.4848	0.2475
411.69	0.2351
411.8952	0.2361
412.1004	0.242
412.3056	0.2415
412.5107	0.2414
412.7158	0.2569
412.921	0.2362
413.1261	0.2408
413.3312	0.2376
413.5362	0.2485
413.7413	0.2322
413.9464	0.2272
414.1514	0.2332
414.3564	0.2343
414.5614	0.235
414.7664	0.2303
414.9714	0.2373
415.1764	0.2398
415.3813	0.244
415.5863	0.2429
415.7912	0.2316
415.9961	0.2323
416.201	0.2449
416.4059	0.2362
416.6108	0.2419
416.8156	0.2327
417.0205	0.2331
417.2253	0.2296
417.4301	0.2304
417.6349	0.2294
417.8397	0.2352
418.0445	0.2349
418.2492	0.2292
418.454	0.2374
418.6587	0.2358
418.8634	0.232
419.0681	0.2345
419.2728	0.2298
419.4775	0.2477
419.6822	0.2246
419.8868	0.2268
420.0915	0.2253
420.2961	0.2057
420.5007	0.2254
420.7053	0.2218
420.9099	0.2182
421.1144	0.2191
421.319	0.2276
421.5235	0.2175
421.728	0.231
421.9325	0.2241
422.137	0.2128
422.3415	0.2033
422.546	0.2012
422.7504	0.2195
422.9549	0.2234
423.1593	0.2051
423.3637	0.2096
423.5681	0.2182
423.7725	0.213
423.9769	0.215
424.1812	0.2169
424.3856	0.2108
424.5899	0.2094
424.7942	0.2096
424.9985	0.1942
425.2028	0.2118
425.4071	0.2023
425.6113	0.2117
425.8156	0.1972
426.0198	0.1965
426.224	0.2069
426.4282	0.2055
426.6324	0.1987
426.8366	0.2044
427.0407	0.1962
427.2449	0.1946
427.449	0.193
427.6531	0.1963
427.8572	0.1877
428.0613	0.1983
428.2654	0.1962
428.4694	0.1909
428.6735	0.1857
428.8775	0.193
429.0815	0.1821
429.2855	0.1823
429.4895	0.1867
429.6935	0.1821
429.8975	0.173
430.1014	0.1779
430.3053	0.1815
430.5093	0.1812
430.7132	0.1757
430.9171	0.1745
431.1209	0.1703
431.3248	0.1697
431.5286	0.1626
431.7325	0.1783
431.9363	0.1672
432.1401	0.1618
432.3439	0.1703
432.5477	0.1619
432.7514	0.1563
432.9552	0.1592
433.1589	0.1605
433.3627	0.1547
433.5664	0.1597
433.7701	0.1576
433.9737	0.1485
434.1774	0.1534
434.3811	0.1473
434.5847	0.1533
434.7883	0.1445
434.9919	0.148
435.1955	0.1528
435.3991	0.1493
435.6027	0.1384
435.8062	0.1488
436.0098	0.1338
436.2133	0.1312
436.4168	0.1322
436.6203	0.1335
436.8238	0.1329
437.0272	0.1241
437.2307	0.1297
437.4341	0.123
437.6375	0.1234
437.841	0.1193
438.0443	0.1244
438.2477	0.1161
438.4511	0.1184
438.6545	0.1179
438.8578	0.1218
439.0611	0.1126
439.2644	0.1193
439.4677	0.114
439.671	0.1035
439.8743	0.11
440.0775	0.1094
440.2808	0.1151
440.484	0.1091
440.6872	0.1081
440.8904	0.0976
441.0936	0.105
441.2967	0.0927
441.4999	0.0923
441.703	0.0941
441.9062	0.095
442.1093	0.109
442.3124	0.0918
442.5155	0.0947
442.7185	0.0821
442.9216	0.0878
443.1246	0.0794
443.3276	0.0857
443.5307	0.084
443.7337	0.0908
443.9366	0.0811
444.1396	0.0796
444.3426	0.0795
444.5455	0.0811
444.7484	0.0758
444.9513	0.0715
445.1542	0.0776
445.3571	0.0797
445.56	0.0744
445.7628	0.0709
445.9657	0.076
446.1685	0.0791
446.3713	0.0723
446.5741	0.0686
446.7769	0.077
446.9797	0.0613
447.1824	0.0677
447.3852	0.0504
447.5879	0.0667
447.7906	0.055
447.9933	0.0608
448.196	0.0569
448.3986	0.0608
448.6013	0.0472
448.8039	0.0622
449.0066	0.068
449.2092	0.0698
449.4118	0.0482
449.6143	0.0526
449.8169	0.0455
450.0195	0.0517
450.222	0.0505
450.4245	0.0518
450.627	0.0482
450.8295	0.0471
451.032	0.0467
451.2345	0.0455
451.4369	0.0482
451.6394	0.041
451.8418	0.0519
452.0442	0.0427
452.2466	0.0413
452.449	0.0444
452.6513	0.0342
452.8537	0.039
453.056	0.038
453.2583	0.0338
453.4607	0.0385
453.663	0.0436
453.8652	0.0318
454.0675	0.0406
454.2697	0.0401
454.472	0.0369
454.6742	0.0367
454.8764	0.0366
455.0786	0.0327
455.2808	0.0253
455.4829	0.0421
455.6851	0.0351
455.8872	0.0195
456.0893	0.0253
456.2915	0.0272
456.4935	0.0348
456.6956	0.0236
456.8977	0.0237
457.0997	0.0349
457.3018	0.0215
457.5038	0.034
457.7058	0.0275
457.9078	0.03
458.1098	0.0303
458.3117	0.0271
458.5137	0.0126
458.7156	0.0253
458.9175	0.0321
459.1194	0.0266
459.3213	0.0207
459.5232	0.0258
459.725	0.0196
459.9269	0.0206
460.1287	0.014
460.3305	0.03
460.5323	0.0273
460.7341	0.0237
460.9359	0.0168
461.1376	0.0231
461.3394	0.0208
461.5411	0.0221
461.7428	0.015
461.9445	0.0173
462.1462	0.0278
462.3479	0.0206
462.5495	0.0321
462.7512	0.0265
462.9528	0.0211
463.1544	0.014
463.356	0.0156
463.5576	0.0277
463.7592	0.0171
463.9607	0.0168
464.1623	0.0126
464.3638	0.0129
464.5653	0.023
464.7668	0.0217
464.9683	0.0191
465.1697	0.014
465.3712	0.0085
465.5726	0.0147
465.7741	0.0134
465.9755	0.0227
466.1769	0.0137
466.3782	0.0132
466.5796	0.0179
466.7809	0.0182
466.9823	0.0161
467.1836	0.0119
467.3849	0.0146
467.5862	0.0005
467.7875	0.0108
467.9887	0.0159
468.19	0.0166
468.3912	0.0139
468.5924	0.0154
468.7936	0.013
468.9948	0.0126
469.196	0.0137
469.3972	0.0171
469.5983	0.0126
469.7994	0.0236
470.0006	0.0175
470.2017	0.0185
470.4027	0.0329
470.6038	0.0213
470.8049	0.0179
471.0059	0.0184
471.2069	0.0197
471.408	0.0159
471.6089	0.0152
471.8099	0.0199
472.0109	0.0119
472.2119	0.0206
472.4128	0.0071
472.6137	0.0143
472.8146	0.0103
473.0155	0.0194
473.2164	0.0109
473.4173	0.0089
473.6181	0.0069
473.819	0.0051
474.0198	0.0041
474.2206	0.0063
474.4214	0.0142
474.6222	-0
474.8229	0.0093
475.0237	0.0173
475.2244	0.0148
475.4251	0.0129
475.6258	0.0052
475.8265	0.0175
476.0272	0.0067
476.2278	0.0162
476.4285	0.018
476.6291	0.0058
476.8297	0.008
477.0303	0.0094
477.2309	0.0102
477.4315	0.0158
477.632	0.0103
477.8326	0.0101
478.0331	0.0193
478.2336	0.0099
478.4341	0.0151
478.6346	0.0031
478.8351	0.0081
479.0355	0.0151
479.236	0.0222
479.4364	0.0109
479.6368	0.0127
479.8372	0.011
480.0376	0.0147
480.2379	0.0131
480.4383	0.0156
480.6386	0.0046
480.8389	0.0134
481.0392	0.013
481.2395	0.0198
481.4398	0.0097
481.6401	0.0103
481.8403	0.005
482.0405	0.009
482.2408	0.0189
482.441	0.0084
482.6411	0.0148
482.8413	0.0002
483.0415	0.0195
483.2416	0.0122
483.4417	0.0127
483.6419	0.0073
483.8419	0.0079
484.042	0.0102
484.2421	0.003
484.4422	0.0111
484.6422	0.0143
484.8422	0.0077
485.0422	0.0078
485.2422	0.007
485.4422	0.008
485.6422	0.0057
485.8421	0.0092
486.042	0.0147
486.242	0.0073
486.4419	0.0098
486.6417	0.0027
486.8416	0.0085
487.0415	0.0069
487.2413	0.0045
487.4411	0.0171
487.641	0.0049
487.8408	0.0155
488.0405	0.0167
488.2403	0.0074
488.4401	0.0082
488.6398	0.0139
488.8395	0.0132
489.0392	0.0106
489.2389	0.0159
489.4386	-0.0048
489.6383	0.0154
489.8379	0.0041
490.0376	0.0155
490.2372	-0.0004
490.4368	0.0081
490.6364	-0.0001
490.836	0.0079
491.0355	0.0053
491.2351	0.0004
491.4346	0.0087
491.6341	0.0064
491.8336	0.0133
492.0331	0.0048
492.2326	0.0073
492.432	0.0118
492.6315	0.0145
492.8309	0.0153
493.0303	0.0131
493.2297	0.0117
493.4291	0.0029
493.6284	0.0179
493.8278	0.0098
494.0271	0.0054
494.2264	0.0083
494.4257	0.0198
494.625	0.002
494.8243	0.0061
495.0236	0.0156
495.2228	0.013
495.422	0.0133
495.6213	0.012
495.8205	0.0103
496.0196	0.0174
496.2188	0.0087
496.418	0.0091
496.6171	0.0101
496.8162	0.0072
497.0153	0.0165
497.2144	0.0118
497.4135	0.005
497.6126	0.0122
497.8116	0.015
498.0107	0.0059
498.2097	0.0141
498.4087	0.0102
498.6077	0.0056
498.8067	0.0169
499.0056	0.0099
499.2046	0.0128
499.4035	0.0134
499.6024	0.0013
499.8013	0.0143
500.0002	0.0123
500.199	0.0138
500.3979	0.0069
500.5967	0.0082
500.7956	0.0083
500.9944	0.0118
501.1932	0.0155
501.3919	0.0145
501.5907	0.013
501.7895	0.0106
501.9882	0.0135
502.1869	0.0122
502.3856	0.006
502.5843	0.0075
502.783	0.0113
502.9816	0.0133
503.1803	0.012
503.3789	0.0164
503.5775	0.004
503.7761	0.0072
503.9747	0.0096
504.1732	-0.0034
504.3718	0.0201
504.5703	0.0087
504.7689	0.0057
504.9674	0.0128
505.1658	0.0063
505.3643	0.013
505.5628	0.0172
505.7612	0.0153
505.9597	-0.0005
506.1581	0.0012
506.3565	0.0019
506.5549	0.0102
506.7532	0.0017
506.9516	0.005
507.1499	0.0136
507.3482	0.0145
507.5465	0.0122
507.7448	0.0099
507.9431	0.0088
508.1414	0.0055
508.3396	0.0103
508.5379	0.0072
508.7361	0.0141
508.9343	0.0185
509.1325	0.0182
509.3306	0.0138
509.5288	0.0028
509.7269	0.015
509.9251	0.0098
510.1232	0.0092
510.3213	0.0049
510.5193	0.0089
510.7174	0.0092
510.9154	0.0135
511.1135	0.0045
511.3115	0.0081
511.5095	0.0157
511.7075	0.0073
511.9055	0.0093
512.1034	0.0096
512.3014	0.0113
512.4993	0.004
512.6972	0.0035
512.8951	0.008
513.093	0.008
513.2908	0.0122
513.4887	0.0083
513.6865	0.0173
513.8844	0.0139
514.0822	0.0162
514.2799	0.0051
514.4777	0.0048
514.6755	0.0058
514.8732	0.0009
515.0709	0.013
515.2687	0.0118
515.4664	0.013
515.664	0.021
515.8617	0.0123
516.0594	0.0099
516.257	0.0079
516.4546	0.0263
516.6522	0.0147
516.8498	0.0094
517.0474	0.0115
517.2449	0.013
517.4425	0.0044
517.64	0.0128
517.8375	0.0184
518.035	0.0054
518.2325	0.0059
518.43	0.001
518.6274	0.0094
518.8249	0.0068
519.0223	0.0199
519.2197	0.0099
519.4171	0.009
519.6145	0.0137
519.8118	0.0023
520.0092	0.0106
520.2065	0.0271
520.4038	0.0058
520.6011	0.0178
520.7984	0.0014
520.9956	0.0099
521.1929	0.0168
521.3901	0.0124
521.5874	0.0149
521.7846	-0.0001
521.9818	0.0091
522.1789	0.0076
522.3761	0.018
522.5732	0.0143
522.7704	0.0008
522.9675	-0.0033
523.1646	0.0058
523.3617	0.0154
523.5587	0.0091
523.7558	0.0086
523.9528	0.0258
524.1498	0.0145
524.3468	0.0056
524.5438	0.0052
524.7408	0.0073
524.9378	0.0166
525.1347	0.0108
525.3316	0.013
525.5285	0.0097
525.7254	0.0128
525.9223	0.0191
526.1192	0.0144
526.316	0.0173
526.5129	0.0124
526.7097	0.016
526.9065	0.0146
527.1033	0.0134
527.3	0.0088
527.4968	0.0241
527.6935	0.003
527.8903	0.0086
528.087	0.0104
528.2837	0.0112
528.4804	0.0072
528.677	0.0063
528.8737	0.0091
529.0703	0.016
529.2669	0.0108
529.4635	0.0101
529.6601	0.0076
529.8567	0.0079
530.0532	0.0093
530.2498	0.0055
530.4463	0.0086
530.6428	0.0182
530.8393	0.0147
531.0358	0.006
531.2322	-0
531.4287	0.0115
531.6251	0.0017
531.8215	0.0098
532.0179	0.022
532.2143	0.0122
532.4107	0.0126
532.607	0.0121
532.8034	0.0118
532.9997	0.0066
533.196	-0.0063
533.3923	0.01
533.5886	0.0145
533.7848	0.0091
533.9811	0.018
534.1773	0.0036
534.3735	0.0133
534.5697	0.0064
534.7659	0.0199
534.9621	0.0106
535.1582	0.0149
535.3544	0.0066
535.5505	0.0108
535.7466	0.0105
535.9427	0.0092
536.1387	-0.003
536.3348	0.009
536.5308	0.0152
536.7269	0.0047
536.9229	0.0108
537.1189	0.0165
537.3148	0.0068
537.5108	0.0154
537.7068	0.0152
537.9027	-0.0067
538.0986	0.0191
538.2945	0.0124
538.4904	0.0032
538.6863	0.0079
538.8821	0.0186
539.078	0.0097
539.2738	0.0115
539.4696	0.0063
539.6654	0.0132
539.8611	0.0098
540.0569	0.0086
540.2526	0.0143
540.4484	-0.0075
540.6441	0.0013
540.8398	0.0215
541.0355	0.0083
541.2311	0.0144
541.4268	0.011
541.6224	0.0255
541.818	0.0155
542.0136	0.0177
542.2092	0.0087
542.4048	0.0103
542.6003	0.0007
542.7959	0.0026
542.9914	0.012
543.1869	0.0102
543.3824	0.0144
543.5779	0.0095
543.7734	0.021
543.9688	0.0133
544.1642	0.0031
544.3596	0.015
544.555	0.005
544.7504	0.0187
544.9458	0.0029
545.1411	0.0041
545.3365	0.0207
545.5318	0.0185
545.7271	0.0109
545.9224	0.0064
546.1177	0.0128
546.3129	0.0088
546.5081	0.012
546.7034	0.0153
546.8986	0.0116
547.0938	0.0081
547.289	0.0138
547.4841	0.0119
547.6793	0.0087
547.8744	0.0116
548.0695	0.0017
548.2646	0.008
548.4597	0.0024
548.6548	0.0173
548.8498	0.0121
549.0448	-0.002
549.2399	0.0212
549.4349	0.0083
549.6298	0.013
549.8248	0.0013
550.0198	0.0157
550.2147	0.0154
550.4096	0.0013
550.6045	0.0011
550.7994	0.0141
550.9943	0.0135
551.1892	-0.0013
551.384	0.0097
551.5788	0.0116
551.7737	0.0217
551.9685	0.0025
552.1632	0.0074
552.358	0.0116
552.5528	0.0068
552.7475	0.0158
552.9422	0.0115
553.1369	0.0139
553.3316	0.0091
553.5263	0.0174
553.7209	0.0108
553.9156	0.0148
554.1102	0.0089
554.3048	0.008
554.4994	0.0024
554.694	0.0152
554.8885	0.0127
555.0831	0.0206
555.2776	0.0087
555.4721	0.0154
555.6666	0.0115
555.8611	0.0104
556.0555	0.0084
556.25	0.0208
556.4444	0.0043
556.6388	0.01
556.8332	0.0094
557.0276	0.0095
557.222	0.0098
557.4163	0.0069
557.6107	0.0043
557.805	0.0014
557.9993	0.0054
558.1936	-0.0019
558.3879	0.0207
558.5821	0.0038
558.7764	0.0124
558.9706	0.0075
559.1648	0.0078
559.359	0.0032
559.5532	0.0183
559.7473	0.0015
559.9415	0.0104
560.1356	0.0142
560.3297	0.0054
560.5238	0.017
560.7179	0.0018
560.9119	0.0055
561.106	0.0027
561.3	0.016
561.494	-0.0099
561.688	0.0106
561.882	0.0098
562.076	0.0115
562.2699	0.0128
562.4639	0.0222
562.6578	0.0055
562.8517	0.0116
563.0456	0.0052
563.2395	0.0202
563.4333	0.0056
563.6272	0.0073
563.821	0.0127
564.0148	0.0018
564.2086	0.0111
564.4024	0.0181
564.5961	0.0113
564.7899	0.0198
564.9836	0.0135
565.1773	0.0154
565.371	-0
565.5647	0.0108
565.7584	0.0178
565.952	0.0139
566.1456	0.0067
566.3393	0.0039
566.5329	0.0176
566.7264	0.0155
566.92	0.0045
567.1136	0.007
567.3071	0.0056
567.5006	0.012
567.6941	0.0094
567.8876	0.0085
568.0811	0.0187
568.2745	0.008
568.468	0.0118
568.6614	0.0119
568.8548	0.0096
569.0482	0.0158
569.2416	0.0098
569.4349	0.0083
569.6283	0.0091
569.8216	0.0145
570.0149	0.0095
570.2082	0.0143
570.4015	0.0065
570.5947	0.0092
570.788	0.0132
570.9812	0.0081
571.1744	0.0094
571.3676	0.012
571.5608	0.0056
571.754	0.0094
571.9471	0.0085
572.1402	0.0135
572.3333	0.0109
572.5264	0.0089
572.7195	0.0012
572.9126	0.0063
573.1057	0.0126
573.2987	0.0081
573.4917	0.0068
573.6847	0.0094
573.8777	0.011
574.0707	0.0036
574.2636	0.0098
574.4566	0.0062
574.6495	0.003
574.8424	0.0099
575.0353	0.0093
575.2281	0.0107
575.421	0.0064
575.6138	0.0081
575.8067	0.0082
575.9995	0.0039
576.1923	0.0122
576.385	0.0084
576.5778	0.0138
576.7706	0.0077
576.9633	0.0113
577.156	0.0038
577.3487	0.0088
577.5414	0.0098
577.734	0.0054
577.9267	0.0118
578.1193	0.0137
578.3119	0.0068
578.5045	0.0064
578.6971	0.0042
578.8897	0.0063
579.0822	0.0103
579.2747	0.0098
579.4673	0.0083
579.6598	0.0084
579.8522	0.0064
580.0447	0.0098
580.2372	0.0091
580.4296	0.0102
580.622	0.0095
580.8144	0.0094
581.0068	0.006
581.1992	0.0086
581.3915	0.0008
581.5839	0.0077
581.7762	0.0067
581.9685	0.0063
582.1608	0.0091
582.353	0.0056
582.5453	0.0102
582.7375	0.0107
582.9298	0.0046
583.122	0.0074
583.3142	0.008
583.5063	0.0099
583.6985	0.0052
583.8906	0.0115
584.0827	0.0103
584.2749	0.002
584.4669	0.0067
584.659	0.0091
584.8511	0.0144
585.0431	0.0094
585.2352	0.008
585.4272	0.0118
585.6192	0.0089
585.8111	0.0065
586.0031	0.0028
586.195	0.0088
586.387	0.0077
586.5789	0.0121
586.7708	0.0103
586.9627	0.0112
587.1545	0.0101
587.3464	0.0112
587.5382	0.0103
587.73	0.0103
587.9218	0.0071
588.1136	0.0046
588.3053	0.0068
588.4971	0.0078
588.6888	0.0087
588.8805	0.0054
589.0722	0.0163
589.2639	0.0136
589.4556	0.0157
589.6472	0.014
589.8389	0.0105
590.0305	0.0079
590.2221	0.0121
590.4137	0.0079
590.6052	0.0013
590.7968	0.0115
590.9883	0.0024
591.1798	0.0047
591.3713	0.0074
591.5628	0.0101
591.7543	0.0066
591.9458	0.0057
592.1372	0.0055
592.3286	0.0057
592.52	0.0091
592.7114	0.0074
592.9028	0.0105
593.0941	0.0111
593.2855	0.0089
593.4768	0.0124
593.6681	0.016
593.8594	0.0114
594.0506	0.0068
594.2419	0.0108
594.4331	0.013
594.6244	0.0026
594.8156	0.0103
595.0067	-0.0026
595.1979	0.0035
595.3891	0.008
595.5802	0.0126
595.7713	0.0121
595.9624	0.0153
596.1535	0.0102
596.3446	0.003
596.5357	0.0095
596.7267	0.0135
596.9177	0.0048
597.1087	0.006
597.2997	0.0063
597.4907	0.0024
597.6817	0.0096
597.8726	0.0092
598.0635	0.0047
598.2544	0.0123
598.4453	0.0057
598.6362	0.0078
598.827	0.0083
599.0179	0.0112
599.2087	0.0148
599.3995	0.0133
599.5903	0.0195
599.7811	0.0112
599.9718	0.0072
600.1626	0.0069
600.3533	0.0076
600.544	0.0149
600.7347	0.0097
600.9254	0.0132
601.116	0.0113
601.3067	0.0059
601.4973	0.0157
601.6879	0.005
601.8785	0.0085
602.0691	0.0084
602.2596	0.009
602.4502	0.0091
602.6407	0.0163
602.8312	0.0087
603.0217	0.0051
603.2122	0.0089
603.4027	0.0064
603.5931	0.0025
603.7835	0.0101
603.9739	0.0051
604.1643	0.0148
604.3547	0.0098
604.5451	0.0164
604.7354	0.003
604.9257	0.0084
605.116	0.0044
605.3063	0.011
605.4966	0.0089
605.6869	0.0167
605.8771	0.0048
606.0673	0.0088
606.2575	0.0044
606.4477	0.0153
606.6379	0.0092
606.8281	0.0026
607.0182	0.0082
607.2083	0.0088
607.3985	0.0069
607.5885	0.0073
607.7786	0.0123
607.9687	0.0104
608.1587	0.0183
608.3488	0.0132
608.5388	0.0003
608.7288	0.0079
608.9187	0.0077
609.1087	0.015
609.2986	0.0122
609.4886	0.0036
609.6785	0.006
609.8684	0.0008
610.0582	0.0033
610.2481	0.0077
610.4379	0.0122
610.6278	0.0092
610.8176	0.016
611.0074	0.0142
611.1971	0.0129
611.3869	0.0111
611.5766	0.0125
611.7664	0.0084
611.9561	0.0136
612.1458	0.0078
612.3354	0.0075
612.5251	0.01
612.7147	0.0113
612.9044	0.004
613.094	0.0026
613.2836	0.0101
613.4731	0.0095
613.6627	0.0076
613.8522	0.0105
614.0417	0.0129
614.2313	0.0079
614.4207	0.016
614.6102	0.0136
614.7997	0.0095
614.9891	0.0093
615.1785	0.0025
615.3679	0.0103
615.5573	0.0071
615.7467	0.006
615.9361	0.0075
616.1254	0.0081
616.3147	0.0063
616.504	0.0127
616.6933	0.012
616.8826	0.0056
617.0718	0.0156
617.2611	0.0085
617.4503	0.0121
617.6395	0.016
617.8287	0.0052
618.0179	0.0108
618.207	0.0216
618.3961	0.0051
618.5853	0.011
618.7744	0.0053
618.9634	0.0137
619.1525	0.0045
619.3416	0.0065
619.5306	0.0191
619.7196	0.0149
619.9086	0.0129
620.0976	-0.0021
620.2866	0.0103
620.4755	0.0102
620.6645	0.0202
620.8534	0.0196
621.0423	0.0116
621.2312	0.0066
621.42	0.0096
621.6089	0.0037
621.7977	0.0161
621.9865	0.006
622.1753	-0.0006
622.3641	-0.0009
622.5529	0.0013
622.7416	0.0111
622.9303	0.0035
623.1191	0.0069
623.3078	0.0018
623.4964	0.009
623.6851	-0.0002
623.8737	0.0101
624.0624	-0.0017
624.251	0.0137
624.4396	0.0068
624.6282	0.0086
624.8167	0.0084
625.0053	0.011
625.1938	0.0086
625.3823	0.0097
625.5708	0.0026
625.7593	0.0151
625.9477	0.0067
626.1362	0.0034
626.3246	0.0042
626.513	0.0128
626.7014	0.0136
626.8898	0.0146
627.0781	0.0152
627.2665	0.0156
627.4548	-0.009
627.6431	0.012
627.8314	0.0084
628.0197	0.0055
628.2079	0.0085
628.3962	0.0067
628.5844	0.0113
628.7726	0.0046
628.9608	0.0106
629.1489	0.0075
629.3371	0.0046
629.5252	0.0074
629.7134	-0.0006
629.9015	0.0153
630.0895	-0.0048
630.2776	0.0195
630.4657	0.0127
630.6537	0.0027
630.8417	0.0121
631.0297	0.0122
631.2177	0.0092
631.4057	0.0055
631.5936	0.0116
631.7815	0.0161
631.9695	0.0154
632.1574	0.0111
632.3452	0.0176
632.5331	0.0004
632.7209	0.0306
632.9088	0.0054
633.0966	0.0249
633.2844	0.0176
633.4722	0.02
633.6599	0.0197
633.8477	0.005
634.0354	0.0032
634.2231	0.0008
634.4108	0.0034
634.5985	0.0198
634.7861	0.0013
634.9738	-0.0006
635.1614	0.0102
635.349	-0.0054
635.5366	0.0084
635.7242	0.013
635.9117	0.0125
636.0993	0.0167
636.2868	0.0012
636.4743	0.0093
636.6618	0.0092
636.8492	0.0226
637.0367	0.0033
637.2241	0.0149
637.4115	0.0368
637.5989	0.0106
637.7863	0.0351
637.9737	0.0028
638.161	0.0127
638.3484	-0.0119
638.5357	0.0014
638.723	0.0033
638.9103	-0.0081
639.0975	0.0032
639.2848	0.0075
639.472	0.0108
639.6592	-0
639.8464	0.0197
640.0336	0.0076
640.2208	0.0031
640.4079	-0.0045
640.595	-0.0021
640.7821	0.0226
640.9692	0.0018
641.1563	0.0044
641.3434	0.014
641.5304	0.026
641.7174	0.0183
641.9044	-0.0061
642.0914	0.0313
642.2784	0.0052
642.4653	-0.0046
642.6523	0.0333
642.8392	0.0042
643.0261	0.0024
643.213	0.0111
643.3999	0.023
643.5867	0.0153
643.7735	-0.0173
643.9604	0.0323
644.1472	0.0015
644.3339	0.01
644.5207	0.0147
644.7075	0.0064
644.8942	0.0042
645.0809	-0.004
645.2676	-0.0042
645.4543	-0.0063
645.6409	0.0368
645.8276	0.0145
646.0142	0.0178
646.2008	0.0238
646.3874	-0.0042
646.574	0.0008
646.7605	0.018
646.9471	-0.011
647.1336	0.0074
647.3201	0.0054
647.5066	0.0033
647.6931	0.0117
647.8795	0.0253
648.0659	0.0089
648.2524	0.017
648.4388	-0.0009
648.6252	0.0364
648.8115	0.0079
648.9979	0.0071
649.1842	0.0115
649.3705	0.0192
649.5568	-0.0146
649.7431	-0.0113
649.9294	0.0071
650.1156	-0.0025
650.3018	0.0241
650.488	0.0268
650.6742	0.0274
650.8604	0.0022
651.0466	-0.0073
651.2327	0.0147
651.4188	-0.0112
651.6049	0.014
651.791	-0.0045
651.9771	0.0114
652.1632	0.0163
652.3492	0.0076
652.5352	0.0222
652.7212	0.011
652.9072	-0.0047
653.0932	0.011
653.2791	0.005
653.465	0.0238
653.651	0.0028
653.8369	0.0164
654.0227	0.0023
654.2086	0.0052
654.3944	0.0122
654.5803	-0.001
654.7661	0.0045
654.9519	0.0025
655.1377	0.0001
655.3234	0.0001
655.5092	0.0001
655.6949	0.0001
655.8806	0.0001
656.0663	0.0001
656.2519	0.0001
656.4376	0.0001
656.6232	0.0001
656.8088	0.0001
656.9945	0.0001
657.18	0.0001
657.3656	0.0001
657.5511	0.0001
657.7367	0.0001
657.9222	0.0001
658.1077	0.0001
658.2932	0.0001
658.4786	0.0001
658.6641	0.0001
658.8495	0.0001
659.0349	0.0001
659.2203	0.0001
659.4057	0.0114
659.591	0.2862
659.7764	0.039
659.9617	0.0188
660.147	0.0173
660.3323	0.0023
660.5176	0.0026
660.7028	-0.0048
660.888	0.007
661.0733	0.0191
661.2585	0.0044
661.4436	-0.0051
661.6288	0.0335
661.8139	0.0245
661.9991	-0.0013
662.1842	0.0034
662.3693	0.0197
662.5544	0.0134
662.7394	0.0351
662.9245	0.0063
663.1095	-0.0051
663.2945	0.0028
663.4795	-0.01
663.6644	-0.0006
663.8494	0.0102
664.0343	-0.0076
664.2193	0.0052
664.4042	0.0235
664.589	0.0239
664.7739	0.0031
664.9587	-0.0079
665.1436	0.0026
665.3284	0.0147
665.5132	-0.0163
665.698	0.0234
665.8827	0.0343
666.0675	-0.0091
666.2522	0.0258
666.4369	-0.0049
666.6216	0.0119
666.8063	0.0119
666.9909	0.0153
667.1756	0.0154
667.3602	-0.0092
667.5448	0.0088
667.7294	0.0307
667.9139	0.0119
668.0985	0.0478
668.283	0.0106
668.4675	0.0317
668.652	0.0197
668.8365	-0.0034
669.0209	0.0077
669.2054	0.0073
669.3898	-0.0051
669.5742	0.0507
669.7586	0.0291
669.943	-0.0112
670.1273	0.0072
670.3117	0.0348
670.496	0.0196
670.6803	0.0225
670.8646	-0.0117
671.0488	0.0169
671.2331	-0.0027
671.4173	0.0079
671.6015	0.0063
671.7857	0.0077
671.9699	0.0167
672.1541	-0.0011
672.3382	0.0208
672.5223	0.0174
672.7064	0.014
672.8905	0.0247
673.0746	0.0091
673.2587	0.0297
673.4427	0.0227
673.6267	0.0257
673.8107	0.0304
673.9947	0.0174
674.1787	0.0366
674.3626	0.0028
674.5465	0.0194
674.7304	0.0061
674.9143	0.007
675.0982	0.024
675.2821	0.0158
675.4659	0.0005
675.6497	0.0255
675.8335	0.0063
676.0173	-0.0204
676.2011	0.0308
676.3849	0.005
676.5686	0.0239
676.7523	0.0052
676.936	0.0005
677.1197	-0.0042
677.3034	0.0414
677.487	0.0108
677.6706	0.025
677.8542	0.0002
678.0378	0.0071
678.2214	0.0145
678.405	0.0088
678.5885	0.0216
678.772	-0.0103
678.9555	0.0037
679.139	0.0244
679.3225	0.0236
679.5059	0.0086
679.6894	0.0081
679.8728	0.009
680.0562	0.0171
680.2395	-0.0181
680.4229	-0.0113
680.6062	-0.0003
680.7896	0.0121
680.9729	0.0234
681.1562	0.006
681.3394	0.0135
681.5227	0.0213
681.7059	0.013
681.8891	0.014
682.0723	0.0068
682.2555	0.0226
682.4387	0.0197
682.6218	0.0348
682.805	0.0237
682.9881	0.0172
683.1712	0.0195
683.3542	0.0257
683.5373	0.0041
683.7203	0.0102
683.9034	0.0002
684.0864	-0.0105
684.2694	0.0106
684.4523	0.0224
684.6353	0.0102
684.8182	0.0054
685.0011	0.0241
685.184	0.0131
685.3669	0.0246
685.5498	-0.0002
685.7326	0.01
685.9154	0.0084
686.0982	0.0131
686.281	0.0078
686.4638	0.0142
686.6465	0.0206
686.8293	-0.0065
687.012	0.0191
687.1947	0.0012
687.3774	0.0088
687.56	0.0024
687.7427	0.0165
687.9253	-0.0113
688.1079	-0.0174
688.2905	-0.0019
688.4731	0.0262
688.6556	0.0174
688.8382	-0.0164
689.0207	0.0065
689.2032	0.0049
689.3857	-0.0105
689.5681	0.0106
689.7506	0.0377
689.933	0.0086
690.1154	0.014
690.2978	0.0027
690.4802	0.0199
690.6626	0.0313
690.8449	0.0131
691.0272	0.0152
691.2095	-0.0029
691.3918	0.0175
691.5741	0.0079
691.7563	-0.0007
691.9386	0.0163
692.1208	0.0061
692.303	0.0012
692.4852	0.0064
692.6673	0.0171
692.8495	-0.0013
693.0316	0.0111
693.2137	0.0145
693.3958	0.0072
693.5778	0.0287
693.7599	0.0109
693.9419	-0.0127
694.1239	0.0027
694.3059	0.0028
694.4879	0.0078
694.6699	0.0328
694.8518	0.0239
695.0337	0.0062
695.2157	0.0311
695.3975	0.0155
695.5794	0.0112
695.7613	0.0248
695.9431	0.0043
696.1249	0.0104
696.3067	-0.0237
696.4885	0.0131
696.6703	0.0118
696.852	-0.0021
697.0337	0.0167
697.2154	0.0002
697.3971	0.0385
697.5788	0.0076
697.7605	-0.0058
697.9421	0.0106
698.1237	0.0403
698.3053	-0.017
698.4869	0.011
698.6685	-0.023
698.85	0.0148
699.0315	-0.0096
699.213	0.0228
699.3945	0.0109
699.576	0.0279
699.7575	0.0154
699.9389	-0.007
700.1203	0.0071
700.3017	0.0082
700.4831	0.0339
700.6645	0.0191
700.8458	0.0349
701.0271	0.0259
701.2084	0.0038
701.3897	0.0248
701.571	-0.0211
701.7523	0.0154
701.9335	0.0238
702.1147	0.025
702.2959	0.0055
702.4771	0.0172
702.6583	0.0246
702.8394	0.0003
703.0205	0.0324
703.2016	0.0112
703.3827	-0.016
703.5638	-0.0106
703.7449	0.0201
703.9259	0.0068
704.1069	0.0069
704.2879	0.015
704.4689	0.0252
704.6499	0.0209
704.8308	0.0321
705.0117	-0.0082
705.1927	0.0154
705.3735	0.0013
705.5544	0.0267
705.7353	0.0054
705.9161	-0.0086
706.0969	0.0149
706.2777	0.0044
706.4585	-0.0046
706.6393	0.0098
706.82	0.0218
707.0007	-0.0016
707.1815	-0.0134
707.3621	0.0311
707.5428	0.0188
707.7235	0.0034
707.9041	0.0157
708.0847	0.0099
708.2653	0.0229
708.4459	0.0138
708.6265	0.0132
708.807	-0.0022
708.9875	-0.0077
709.168	-0.0011
709.3485	0.0263
709.529	0.0395
709.7095	0.0016
709.8899	0.0135
710.0703	0.0163
710.2507	0.0199
710.4311	-0.0083
710.6115	0.0333
710.7918	0.0484
710.9721	0.0282
711.1524	-0.0164
711.3327	-0.0044
711.513	0.0245
711.6932	0.0123
711.8735	0.0439
712.0537	-0.0029
712.2339	0.0015
712.4141	0.0218
712.5942	-0.0158
712.7744	0.012
712.9545	0.0202
713.1346	0.0332
713.3147	0.0302
713.4947	-0.0091
713.6748	0.0125
713.8548	0.0242
714.0348	0.0246
714.2148	0.0127
714.3948	0.0002
714.5748	0.0061
714.7547	0.0179
714.9346	0.0318
715.1145	0.0161
715.2944	-0.0089
715.4743	0.037
715.6541	-0.0065
715.834	0.0208
716.0138	0.0193
716.1936	-0.0127
716.3733	0.0116
716.5531	0.0108
716.7328	0.0271
716.9126	0.0442
717.0923	0.0231
717.2719	0.0067
717.4516	0.0015
717.6312	-0.0107
717.8109	0.0181
717.9905	-0.0001
718.1701	0.0386
718.3496	-0.0052
718.5292	-0.0214
718.7087	0.0112
718.8882	0.0281
719.0677	-0.0001
719.2472	0.0061
719.4267	0.0235
719.6061	-0.0018
719.7856	0.044
719.965	0.0123
720.1443	-0.017
720.3237	-0.0083
720.5031	-0.014
720.6824	-0.0016
720.8617	-0.0001
721.041	0.0212
721.2203	-0.0053
721.3995	-0.0073
721.5788	0.007
721.758	0.0142
721.9372	0.0226
722.1164	0.0134
722.2956	0.0008
722.4747	0.0255
722.6538	0.0133
722.8329	0.0324
723.012	0.0357
723.1911	0.0024
723.3702	0.0227
723.5492	0.0223
723.7282	0.0042
723.9072	0.019
724.0862	0.0158
724.2652	0.0138
724.4441	-0.0266
724.623	0.0171
724.8019	0.0152
724.9808	0.0306
725.1597	0.0054
725.3385	0.004
725.5174	-0.0173
725.6962	0.0159
725.875	0.0069
726.0538	0.019
726.2325	0.0283
726.4112	-0.0216
726.59	0.0116
726.7687	-0.0211
726.9474	0.0011
727.126	0.0309
727.3047	0.0023
727.4833	0.0125
727.6619	0.001
727.8405	0.0206
728.0191	0.0222
728.1976	0.0074
728.3762	0.0021
728.5547	0.0106
728.7332	0.0107
728.9116	0.0003
729.0901	-0.0026
729.2686	0.0117
729.447	-0.0057
729.6254	0.0308
729.8038	0.0024
729.9821	0.0137
730.1605	0.0187
730.3388	-0.0086
730.5171	0.0199
730.6954	-0.005
730.8737	0.0137
731.0519	-0.0204
731.2302	0.0197
731.4084	0.0058
731.5866	0.0126
731.7648	0.0053
731.9429	0.0049
732.1211	-0.001
732.2992	0.0134
732.4773	0.0094
732.6554	-0.0088
732.8335	0.0199
733.0115	0.0128
733.1896	0.0013
733.3676	0.0226
733.5456	0.0219
733.7235	0.004
733.9015	0.0204
734.0794	-0.0037
734.2574	-0.022
734.4353	0.0263
734.6131	-0.0042
734.791	0.0244
734.9689	0.0039
735.1467	-0.005
735.3245	0.0319
735.5023	0.017
735.68	-0.0066
735.8578	0.0083
736.0355	0.0232
736.2132	0.0136
736.3909	0.0137
736.5686	-0.0025
736.7463	-0.0141
736.9239	0.0227
737.1015	0.0189
737.2791	0.0244
737.4567	0.0124
737.6343	-0.0079
737.8118	0.0264
737.9894	0.0017
738.1669	-0.0011
738.3444	0.0205
738.5218	-0.0166
738.6993	0.0024
738.8767	0.0162
739.0541	0.009
739.2315	0.0164
739.4089	0.0249
739.5863	0.0009
739.7636	0.0065
739.9409	-0.013
740.1182	0.0014
740.2955	0.03
740.4728	0.0091
740.65	0.0136
740.8272	0.0443
741.0044	-0.0193
741.1816	0.0328
741.3588	-0.0223
741.5359	-0.0071
741.7131	0.0239
741.8902	0.0061
742.0673	-0.0139
742.2444	0.0372
742.4214	0.0345
742.5985	0.0007
742.7755	0.0153
742.9525	-0.0129
743.1295	0.0132
743.3064	-0.0059
743.4834	0.0069
743.6603	0.0361
743.8372	-0.0104
744.0141	0.0287
744.191	0.0108
744.3678	-0.0174
744.5446	0.0017
744.7215	0.0107
744.8982	0.0191
745.075	0.073
745.2518	0.0058
745.4285	0.0156
745.6052	-0.0254
745.7819	-0.0103
745.9586	0.0264
746.1353	-0.0191
746.3119	0.027
746.4885	0.0429
746.6651	0.0112
746.8417	0.0058
747.0183	0.0434
747.1948	0.0166
747.3714	0.0191
747.5479	0.0195
747.7244	0.0407
747.9008	-0.0018
748.0773	0.0334
748.2537	-0.004
748.4301	0.0102
748.6065	-0.0028
748.7829	-0.0346
748.9593	-0.0282
749.1356	-0.0055
749.3119	0.0188
749.4882	0.014
749.6645	0.0153
749.8408	0.0271
750.017	0.0302
750.1933	-0.0098
750.3695	0.0115
750.5457	-0.0051
750.7218	0.0106
750.898	-0.0091
751.0741	0.0185
751.2502	0.0355
751.4263	0.0044
751.6024	0.0191
751.7784	0.0113
751.9545	0.0226
752.1305	0.0165
752.3065	0.0368
752.4825	-0.0001
752.6584	0.0166
752.8344	0.0233
753.0103	-0.0012
753.1862	0.0015
753.3621	0.0032
753.5379	0.0084
753.7138	0.0333
753.8896	0.0237
754.0654	0.0014
754.2412	0.0183
754.417	0.0108
754.5927	0.0127
754.7685	0.021
754.9442	0.0337
755.1199	0.0144
755.2956	0.0162
755.4712	0.0288
755.6469	0.0254
755.8225	0.0013
755.9981	0.0066
756.1736	0.0044
756.3492	0.0075
756.5248	0.0068
756.7003	-0.0009
756.8758	0.0143
757.0513	0.0151
757.2267	0.0087
757.4022	0.0094
757.5776	0.0139
757.753	0.0257
757.9284	0.0053
758.1038	0.015
758.2791	0.0103
758.4545	0.0034
758.6298	0.0053
758.8051	-0.003
758.9803	0.0182
759.1556	0.0096
759.3308	0.0142
759.506	0.0004
759.6812	0.0138
759.8564	0.0018
760.0316	-0.0068
760.2067	0.0263
760.3819	0.0083
760.557	0.0052
760.732	0.0077
760.9071	0.0233
761.0821	-0.0257
761.2572	0.0038
761.4322	0.018
761.6072	0.0037
761.7821	-0.0192
761.9571	0.0264
762.132	0.0057
762.3069	0.0229
762.4818	0.0126
762.6567	0.011
762.8316	0.03
763.0064	0.0179
763.1812	0.0073
763.356	-0.005
763.5308	0.0346
763.7055	0.0018
763.8803	-0.0017
764.055	0.0004
764.2297	-0.004
764.4044	0.0155
764.579	-0.001
764.7537	0.0121
764.9283	0.0217
765.1029	0.0079
765.2775	0.0234
765.4521	0.0171
765.6266	0.0233
765.8011	0.037
765.9756	0.0097
766.1501	0.0118
766.3246	0.01
766.4991	0.0195
766.6735	0.0312
766.8479	0.0371
767.0223	0.0245
767.1967	0.0119
767.371	0.0215
767.5454	0.0074
767.7197	0.0339
767.894	0.0015
768.0683	0.0351
768.2425	0.0156
768.4168	0.009
768.591	0.0066
768.7652	-0.025
768.9394	-0.0098
769.1135	0.0069
769.2877	0.0088
769.4618	0.0169
769.6359	0.0049
769.81	0.0158
769.984	-0.0075
770.1581	0.0269
770.3321	0.0117
770.5061	0.0068
770.6801	0.0183
770.8541	0.0362
771.028	0.0307
771.202	0.0384
771.3759	0.0274
771.5498	0.0105
771.7236	0.0144
771.8975	0.0325
772.0713	0.011
772.2451	0.0168
772.4189	-0.003
772.5927	-0.0148
772.7665	0.0049
772.9402	0.028
773.1139	0.0076
773.2876	0.0155
773.4613	0.0095
773.635	0.0441
773.8086	0.0424
773.9822	0.0277
774.1558	0.044
774.3294	0.015
774.503	0.0146
774.6765	0.0502
774.8501	-0.0149
775.0236	0.0185
775.1971	0.0406
775.3705	0.014
775.544	0.0314
775.7174	0.0023
775.8908	0.0086
776.0642	0.0243
776.2376	0.0454
776.4109	0.0067
776.5843	-0.008
776.7576	0.0341
776.9309	0.0116
777.1041	-0.0133
777.2774	0.0167
777.4506	0.0235
777.6238	0.0186
777.797	0.0281
777.9702	0.0158
778.1434	-0.002
778.3165	-0.0129
778.4896	-0.0339
778.6627	0.0143
778.8358	-0.0238
779.0089	-0.0224
779.1819	0.0293
779.3549	-0.0144
779.5279	-0.0357
779.7009	0.046
779.8739	0.0347
780.0468	0.0186
780.2197	0.0224
780.3926	-0.025
780.5655	0.0369
780.7384	0.0108
780.9112	0.0156
781.0841	-0.0065
781.2569	0.0596
781.4297	0.0237
781.6024	0.0082
781.7752	0.0637
781.9479	0.0486
782.1206	0.046
782.2933	-0.0108
782.466	0.0025
782.6386	0.0138
782.8113	0.0146
782.9839	0.0271
783.1565	0.0462
783.329	0.0069
783.5016	0.0473
783.6741	-0.0192
783.8466	0.0313
784.0191	0.0046
784.1916	-0.0065
784.3641	-0.0012
784.5365	0.0371
784.7089	-0.0109
784.8813	0.0264
785.0537	0.0123
785.2261	-0.0111
785.3984	0.016
785.5707	0.0573
785.743	0.0265
785.9153	-0.0384
786.0876	-0.0324
786.2598	-0.0024
786.432	-0.0205
786.6042	0.0257
786.7764	-0.0317
786.9486	0.0336
787.1207	0.0175
787.2928	0.0444
787.4649	-0.0034
787.637	0.0247
787.8091	0.0383
787.9811	0.0372
788.1532	0.0138
788.3252	0.0039
788.4972	0.011
788.6691	-0.0031
788.8411	0.0208
789.013	0.0236
789.1849	-0.0121
789.3568	-0.0002
789.5287	0.0344
789.7005	0.0093
789.8723	0.0209
790.0442	0.0007
790.2159	-0.0094
790.3877	0.0016
790.5595	0.0681
790.7312	-0.0082
790.9029	-0.0023
791.0746	0.0147
791.2463	-0.0579
791.4179	-0.0127
791.5896	-0.0109
791.7612	0.0048
791.9328	0.0149
792.1044	0.0124
792.2759	-0.0382
792.4474	0.0139
792.619	-0.0181
792.7905	0.0427
792.9619	0.0286
793.1334	0.0169
793.3048	0.0874
793.4762	0.0293
793.6476	-0.027
793.819	0.0182
793.9904	0.0222
794.1617	0.0005
794.333	-0.0007
794.5043	0.032
794.6756	0.0279
794.8469	0.0243
795.0181	0.0178
795.1893	0.0591
795.3605	0.0295
795.5317	-0.0057
795.7029	-0.0077
795.874	-0.0067
796.0452	0.0514
796.2163	0.1258
796.3873	0.106
796.5584	0.0381
796.7294	-0.0347
796.9005	0.0145
797.0715	-0.0189
797.2425	0.093
797.4134	0.0852
797.5844	0.0034
797.7553	-0.0881
797.9262	0.0607
798.0971	0.0376
798.2679	0.0033
798.4388	0.0288
798.6096	0.0093
798.7804	0.0183
798.9512	0.0718
799.122	0.047
799.2927	0.0631
799.4635	-0.0048
799.6342	-0.0773
799.8049	0.0148
799.9755	0.0012
800.1462	0.0192
800.3168	0.0324
800.4874	-0.0004
800.658	0.0723
800.8286	0.0452
800.9991	0.0305
801.1696	0.0587
801.3402	0.0595
801.5106	-0.0482
801.6811	0.0921
801.8516	0.0898
802.022	0.0052
802.1924	-0.0749
802.3628	-0.0024
802.5332	0.0668
802.7035	0.0173
802.8739	-0.025
803.0442	-0.0397
803.2145	-0.0273
803.3847	0.0267
803.555	0.0684
803.7252	0.0584
803.8954	-0.0133
804.0656	0.0525
804.2358	0.1062
804.4059	0.081
804.5761	0.0668
804.7462	0.0469
804.9163	0.0674
805.0864	-0.0022
805.2564	0.0188
805.4264	0.0062
805.5965	0.0831
805.7665	-0.0354
805.9364	0.0268
806.1064	-0.0061
806.2763	0.0593
806.4462	0.0044
806.6161	0.006
806.786	0.0058
806.9559	0.0227
807.1257	-0.0152
807.2955	0.0447
807.4653	0.0435
807.6351	0.0655
807.8048	0.0038
807.9746	0.0174
808.1443	-0.0619
808.314	0.0803
808.4837	0.054
808.6533	0.0653
808.8229	0.0541
808.9926	0.0177
809.1622	-0.0084
809.3317	0.01
809.5013	0.0278
809.6708	0.027
809.8403	0.0474
810.0098	-0.0538
810.1793	0.1445
810.3488	-0.0024
810.5182	0.1376
810.6876	0.0015
810.857	-0.0071
811.0264	0.0791
811.1958	0.1401
811.3651	-0.0659
811.5344	0.0119
811.7037	0.1542
811.873	0.0529
812.0422	-0.0682
812.2115	-0.0276
812.3807	-0.0167
812.5499	0.0694
812.7191	-0.0213
812.8882	0.0024
813.0574	0.0608
813.2265	0.0732
813.3956	0.0432
813.5646	-0.0028
813.7337	-0.018
813.9027	-0.0166
814.0718	0.0472
814.2407	0.021
814.4097	0.0932
814.5787	0.0654
814.7476	-0.0202
814.9165	0.0527
815.0854	-0.0297
815.2543	-0.0144
815.4232	0.0711
815.592	0.0443
815.7608	-0.009
815.9296	-0.009
816.0984	0.0062
816.2671	0.0893
816.4359	0.0474
816.6046	-0.055
816.7733	-0.0209
816.942	-0.0852
817.1106	0.1022
817.2793	-0.0007
817.4479	0.0089
817.6165	-0.006
817.785	0.004
817.9536	-0.0996
818.1221	0.0036
818.2906	-0.0205
818.4591	0.0877
818.6276	0.1069
818.7961	0.0605
818.9645	-0.0899
819.1329	0.1968
819.3013	-0.2007
819.4697	0.1947
819.638	0.2303
819.8064	0.0778
819.9747	0.0624
820.143	0.007
820.3113	0.0893
820.4795	0.0896
820.6477	0.0329
820.816	0.0178
820.9842	0.0201
821.1523	-0.0445
821.3205	0.016
821.4886	-0.0378
821.6567	0.0267
821.8248	0.1575
821.9929	-0.1043
822.1609	-0.0543
822.329	0.0174
822.497	0.0379
822.665	0.0541
822.833	-0.0637
823.0009	-0.0567
823.1688	0.0481
823.3367	-0.0069
823.5046	0.0668
823.6725	-0.0443
823.8404	0.1949
824.0082	-0.0689
824.176	0.0353
824.3438	0.1925
824.5116	0.1035
824.6793	0.3715
824.847	0.158
825.0147	0.063
825.1824	0.1772
825.3501	0.0407
825.5177	0.0962
825.6854	-0.0789
825.853	-0.0179
826.0206	-0.1001
826.1881	-0.0116
826.3557	0.0763
826.5232	0.1482
826.6907	0.0465
826.8582	-0.0178
827.0257	0.2149
827.1931	-0.0922
827.3605	-0.0903
827.528	-0.1226
827.6953	-0.1425
827.8627	0.039
828.03	0.1295
828.1974	0.1089
828.3647	0.1235
828.532	0.0222
828.6992	-0.02
828.8665	-0.2668
829.0337	0.1095
829.2009	0.0191
829.3681	-0.0737
829.5352	-0.269
829.7024	0.2753
829.8695	-0.0674
830.0366	0.364
830.2037	0.0416
830.3707	0.1487
830.5378	-0.0862
830.7048	-0.0851
830.8718	0.2715
831.0388	0.0614
831.2057	0.423
831.3727	-0.2351
831.5396	0.1272
831.7065	-0.7312
831.8734	0.2763
832.0402	0.2395
832.2071	-0.6752
832.3739	-0.2752
832.5407	-1.812
832.7075	-0.4419
832.8742	-0.0399
833.041	0.2083
833.2077	-0.0073
833.3744	0.1365
833.541	0.0426
833.7077	-0.0077
833.8743	0.1297
834.0409	0.0382
834.2075	0.0314
834.3741	-0.1235
834.5407	-0.0443
834.7072	-0.005
834.8737	0.0587
835.0402	0.2724
835.2067	-0.2433
835.3731	0.0095
835.5395	0.0336
835.706	-0.1758
835.8723	-0.1537
836.0387	0.4475
836.2051	0.3705
836.3714	0.0887
836.5377	0.5375
836.704	0.0467
836.8703	-0.0711
837.0365	-0.4787
837.2027	0.2207
837.3689	0.1074
837.5351	0.2671
837.7013	-0.2109
837.8674	-0.0991
838.0335	-0.0684
838.1997	-0.3106
838.3657	-0
838.5318	-0.1264
838.6978	0.7196
838.8639	-0.2338
839.0299	-0.1303
839.1958	0.2448
839.3618	0.3721
839.5277	0.5175
839.6937	0.0769
839.8596	-0.2599
840.0254	0.0513
840.1913	0.0135
840.3571	-0.217
840.523	-0
840.6888	0.1512
840.8545	-0.3655
841.0203	-0.0963
841.186	0.126
841.3517	-0.1436
841.5174	0.1051
841.6831	0.0843
841.8488	-0.2735
842.0144	0.0277
842.18	0.7153
842.3456	-0.3124
842.5112	-0
842.6767	-0.0617
842.8422	-0.0494
843.0077	0.0804
843.1732	-0.3283
843.3387	0.0101
843.5042	-0.0758
843.6696	-0
843.835	-0
844.0004	-0.221
844.1657	-0
844.3311	-0.1261
844.4964	-0
844.6617	0.6342
844.827	-0
844.9923	0.1753
845.1575	-0
845.3227	-0.1104
845.4879	-0.038
845.6531	0.2329
845.8183	0.4262
845.9834	0.0261
846.1485	0.3219
846.3136	-0.0568
846.4787	-0
846.6438	-0
846.8088	0.1503
846.9738	-0.4119
847.1388	0.9323
847.3038	0.1189
847.4687	-0
847.6337	-0.1466
847.7986	0.1667
847.9635	0.311
848.1284	-0
848.2932	0.1339
848.458	-0
848.6228	0.0886
848.7876	-0
848.9524	-0.5645
849.1172	-1.7884
849.2819	-0
849.4466	0.4598
849.6113	0.5295
849.7759	0.5292
849.9406	-0.0917
850.1052	-0.6351
850.2698	-0
850.4344	0.4276
850.599	-0.0897
850.7635	0.1378
850.928	0.1233
851.0925	0.0441
851.257	-0.0532
851.4215	0.2593
851.5859	0.8038
851.7503	-0
851.9147	-0
852.0791	-0.101
852.2434	0.3487
852.4078	1.121
852.5721	-0
852.7364	0.2239
852.9007	-0.2332
853.0649	-0
853.2291	0.7221
853.3934	-0
853.5575	0.1978
853.7217	0.4776
853.8859	-0.6551
854.05	-0.4346
854.2141	0.2331
854.3782	-0
854.5423	0.7928
854.7063	0.068
854.8703	0.5891
855.0343	-0.0189
855.1983	0.4017
855.3623	-0.0571
855.5262	-0
855.6901	0.3128
855.854	0.225
856.0179	0.606
856.1818	0.1072
856.3456	0.9025
856.5094	-0
856.6732	0.0354
856.837	-1.177
857.0008	-0
857.1645	0.8396
857.3282	-0.4577
857.4919	0.3678
857.6556	-0.4778
857.8192	0.1853
857.9828	0.9022
858.1465	0.0816
858.31	0.0796
858.4736	0.3979
858.6372	-0.3419
858.8007	-0.2381
858.9642	0.6035
859.1277	0.9693
859.2911	-0.5135
859.4546	-1.1703
859.618	0.334
859.7814	0.0535
859.9448	-0
860.1081	-0
860.2715	-1.1802
860.4348	1.2629
860.5981	0.9405
860.7614	-0
860.9246	-0.1885
861.0879	-0.1111
861.2511	-0.4028
861.4143	-0
861.5774	0.0515
861.7406	0.4402
861.9037	-0.2285
862.0668	-0
862.2299	0.383
862.393	-0
862.556	0.4803
862.7191	-0.2024
862.8821	-0.0805
863.0451	0.4341
863.208	-0
863.371	-0.495
863.5339	0.1404
863.6968	-0
863.8597	-0.3237
864.0225	-0.0256
864.1854	0.7404
864.3482	-1.2584
864.511	-0.036
864.6737	-0
864.8365	0.1533
864.9992	-0
865.1619	-0
865.3246	-1.8876
865.4873	-0
865.65	0.3713
865.8126	1.0607
865.9752	-0.379
866.1378	0.6125
866.3004	-0.0468
866.4629	-1.812
866.6254	-0
866.7879	-0
866.9504	-0.432
867.1129	-0
867.2753	0.0313
867.4377	1.5353
867.6001	-0.9842
867.7625	0.1376
867.9249	0.1276
868.0872	-0
868.2495	1.3343
868.4118	0.326
868.5741	-0
868.7363	-0
868.8986	-0
869.0608	0.0319
869.223	-0.5899
869.3851	-0
869.5473	-0.0801
869.7094	-0.2537
869.8715	-1.046
870.0336	-0.0428
870.1957	-0.8313
870.3577	0.851
870.5197	0.1577
870.6817	-0.7708
870.8437	-0.3323
871.0057	-0
871.1676	0.5187
871.3295	-0.606
871.4914	-0
871.6533	-0.6218
871.8151	-0
871.977	-0.3237
872.1388	-0.1368
872.3006	-0.219
872.4623	-0.5207
872.6241	-0
872.7858	0.1881
872.9475	-0
873.1092	-0
873.2709	0.1724
873.4325	-1.7231
873.5941	-0
873.7557	-0
873.9173	-0.1995
874.0789	0.2931
874.2404	1.143
874.4019	0.073
874.5634	-0
874.7249	1.0187
874.8863	-0.1239
875.0478	-0.3055
875.2092	0.5173
875.3706	0.223
875.5319	-0
875.6933	1.2222
875.8546	-0.5672
876.0159	0.3755
876.1772	-0
876.3385	1.288
876.4997	-0
876.6609	0.2317
876.8221	-0
876.9833	-0.2196
877.1445	0.4327
877.3056	-0.8627
877.4667	0.4667
877.6278	0.58
877.7889	-0.133
877.9499	-0
878.111	-0.7647
878.272	-0.0335
878.433	0.6067
878.5939	-0
878.7549	-0.1203
878.9158	0.1221
879.0767	-0.1379
879.2376	-0
879.3984	0.2015
879.5593	0.4971
879.7201	-1.8343
879.8809	-0.1754
880.0417	-0.0433
880.2024	0.2329
880.3632	-0.2111
880.5239	-0.3446
880.6846	-0.1395
880.8452	-0.2696
881.0059	-1.0768
881.1665	0.3676
881.3271	-0
881.4877	-0
881.6483	-1.2496
881.8088	-0.6647
881.9693	-0.8967
882.1298	-0.8967
882.2903	-0.8967
