Data from D4ACN5uM420nmA_Absorbance_14-37-10-286.txt Node
Date: Fri Feb 21 14:37:10 GMT 2025
User: LASERRRRR
Spectrometer: FLMT03099
Trigger mode: 0
Integration Time (sec): 1.500000E-2
Scans to average: 1
Electric dark correction enabled: true
Nonlinearity correction enabled: false
Boxcar width: 0
XAxis mode: Wavelengths
Number of Pixels in Spectrum: 3648
>>>>>Begin Spectral Data<<<<<
179.3399	-0.5137
179.5586	-0.5137
179.7771	-0.5137
179.9957	0.4541
180.2143	-0
180.4329	-0
180.6514	-1.0311
180.8699	-0.057
181.0885	-0
181.307	1.1718
181.5255	-0
181.744	-0.5294
181.9625	1.2318
182.181	-0
182.3994	-0.1442
182.6179	-0
182.8363	-0
183.0547	-0.1453
183.2732	0.1105
183.4916	0.0535
183.71	0.2296
183.9284	0.0242
184.1467	0.4849
184.3651	0.1889
184.5835	0.2454
184.8018	0.1099
185.0201	0.0277
185.2385	0.3496
185.4568	0.3954
185.6751	0.0789
185.8934	0.2634
186.1117	-0.0982
186.3299	0.1513
186.5482	0.3175
186.7664	0.239
186.9847	-0.0145
187.2029	0.126
187.4211	0.0256
187.6393	0.0756
187.8575	0.1873
188.0757	0.7402
188.2939	0.0795
188.512	0.2287
188.7302	0.074
188.9483	0.4528
189.1665	-0
189.3846	0.4814
189.6027	0.0886
189.8208	0.1471
190.0389	0.345
190.257	0.184
190.475	0.0703
190.6931	-0.0433
190.9111	0.3014
191.1292	0.1493
191.3472	0.1086
191.5652	0.5356
191.7832	0.1675
192.0012	0.237
192.2192	0.0469
192.4371	0.1828
192.6551	0.1283
192.873	0.176
193.091	0.0878
193.3089	0.1225
193.5268	0.2455
193.7447	0.1745
193.9626	0.3252
194.1805	0.1528
194.3984	0.2053
194.6162	0.2036
194.8341	0.2766
195.0519	0.1871
195.2697	0.2045
195.4875	0.2781
195.7054	0.2178
195.9231	0.2486
196.1409	0.2814
196.3587	0.2237
196.5765	0.3154
196.7942	0.2694
197.012	0.2957
197.2297	0.3362
197.4474	0.4155
197.6651	0.3249
197.8828	0.3688
198.1005	0.45
198.3182	0.4027
198.5358	0.3983
198.7535	0.3866
198.9711	0.3677
199.1888	0.3627
199.4064	0.4264
199.624	0.3543
199.8416	0.3809
200.0592	0.3407
200.2767	0.3889
200.4943	0.3873
200.7119	0.3833
200.9294	0.4225
201.1469	0.4824
201.3645	0.4369
201.582	0.3875
201.7995	0.4227
202.017	0.4132
202.2344	0.3704
202.4519	0.3506
202.6694	0.4087
202.8868	0.3884
203.1042	0.4112
203.3217	0.4
203.5391	0.42
203.7565	0.3657
203.9739	0.3589
204.1913	0.3434
204.4086	0.3875
204.626	0.3456
204.8433	0.3935
205.0607	0.389
205.278	0.3316
205.4953	0.3388
205.7126	0.322
205.9299	0.3161
206.1472	0.3264
206.3644	0.3166
206.5817	0.317
206.7989	0.3146
207.0162	0.3183
207.2334	0.3275
207.4506	0.3273
207.6678	0.3113
207.885	0.3054
208.1022	0.3293
208.3194	0.3133
208.5365	0.294
208.7537	0.2925
208.9708	0.3186
209.1879	0.279
209.405	0.3139
209.6222	0.2559
209.8392	0.3003
210.0563	0.2892
210.2734	0.2468
210.4905	0.2896
210.7075	0.277
210.9245	0.2636
211.1416	0.2585
211.3586	0.2567
211.5756	0.2377
211.7926	0.2494
212.0096	0.2531
212.2265	0.2681
212.4435	0.2483
212.6604	0.2421
212.8774	0.2175
213.0943	0.2522
213.3112	0.2508
213.5281	0.2574
213.745	0.2332
213.9619	0.2293
214.1788	0.2456
214.3956	0.2321
214.6125	0.2434
214.8293	0.2459
215.0461	0.2485
215.2629	0.2459
215.4798	0.2291
215.6965	0.2267
215.9133	0.2343
216.1301	0.2231
216.3469	0.2304
216.5636	0.2355
216.7803	0.2308
216.9971	0.2478
217.2138	0.2435
217.4305	0.246
217.6472	0.2287
217.8639	0.2423
218.0805	0.2519
218.2972	0.2342
218.5138	0.2432
218.7305	0.2673
218.9471	0.2323
219.1637	0.2507
219.3803	0.2589
219.5969	0.2482
219.8135	0.2598
220.0301	0.2432
220.2466	0.2495
220.4632	0.2437
220.6797	0.263
220.8962	0.2411
221.1127	0.2546
221.3292	0.2511
221.5457	0.2737
221.7622	0.2569
221.9787	0.2697
222.1951	0.2546
222.4116	0.2558
222.628	0.2986
222.8444	0.2707
223.0608	0.2691
223.2772	0.2738
223.4936	0.282
223.71	0.2883
223.9264	0.285
224.1427	0.2915
224.3591	0.2924
224.5754	0.2839
224.7917	0.2932
225.008	0.2902
225.2243	0.2997
225.4406	0.2896
225.6569	0.306
225.8732	0.3013
226.0894	0.2952
226.3057	0.3014
226.5219	0.3141
226.7381	0.3203
226.9543	0.3141
227.1705	0.3181
227.3867	0.3225
227.6029	0.3243
227.8191	0.3327
228.0352	0.3387
228.2513	0.3422
228.4675	0.3483
228.6836	0.3461
228.8997	0.3462
229.1158	0.3551
229.3319	0.3565
229.548	0.3527
229.764	0.3674
229.9801	0.3773
230.1961	0.3677
230.4121	0.3645
230.6282	0.3783
230.8442	0.3843
231.0602	0.3902
231.2761	0.381
231.4921	0.3941
231.7081	0.3872
231.924	0.4036
232.14	0.4009
232.3559	0.4027
232.5718	0.4233
232.7877	0.4152
233.0036	0.4081
233.2195	0.4242
233.4353	0.4144
233.6512	0.419
233.867	0.421
234.0829	0.428
234.2987	0.4305
234.5145	0.4417
234.7303	0.4403
234.9461	0.4379
235.1619	0.4594
235.3776	0.4328
235.5934	0.451
235.8091	0.4514
236.0249	0.4589
236.2406	0.4444
236.4563	0.4511
236.672	0.4437
236.8877	0.4525
237.1034	0.4482
237.319	0.4496
237.5347	0.457
237.7503	0.4437
237.966	0.4624
238.1816	0.4609
238.3972	0.4607
238.6128	0.4579
238.8284	0.4606
239.0439	0.4569
239.2595	0.4638
239.475	0.4557
239.6906	0.4567
239.9061	0.4704
240.1216	0.4577
240.3371	0.4654
240.5526	0.4661
240.7681	0.4741
240.9836	0.4491
241.199	0.4566
241.4145	0.459
241.6299	0.4538
241.8453	0.4486
242.0607	0.4463
242.2761	0.4508
242.4915	0.4464
242.7069	0.4331
242.9223	0.4322
243.1376	0.4323
243.353	0.4182
243.5683	0.4159
243.7836	0.4079
243.9989	0.4007
244.2142	0.3986
244.4295	0.3903
244.6448	0.3897
244.86	0.3719
245.0753	0.367
245.2905	0.3644
245.5057	0.357
245.721	0.3474
245.9362	0.3532
246.1514	0.3301
246.3665	0.3287
246.5817	0.3213
246.7969	0.3096
247.012	0.3009
247.2271	0.3072
247.4423	0.2952
247.6574	0.2965
247.8725	0.2835
248.0876	0.2797
248.3026	0.2707
248.5177	0.2634
248.7328	0.2592
248.9478	0.2631
249.1628	0.2616
249.3779	0.2481
249.5929	0.2536
249.8079	0.243
250.0228	0.2398
250.2378	0.2418
250.4528	0.2328
250.6677	0.2319
250.8827	0.2216
251.0976	0.2261
251.3125	0.2178
251.5274	0.2142
251.7423	0.216
251.9572	0.2179
252.172	0.2101
252.3869	0.2168
252.6017	0.2116
252.8166	0.2074
253.0314	0.1995
253.2462	0.199
253.461	0.1991
253.6758	0.1978
253.8906	0.2005
254.1053	0.1944
254.3201	0.2023
254.5348	0.1926
254.7496	0.1882
254.9643	0.1967
255.179	0.1888
255.3937	0.1924
255.6083	0.1957
255.823	0.1913
256.0377	0.1842
256.2523	0.1902
256.467	0.1914
256.6816	0.1842
256.8962	0.1907
257.1108	0.1896
257.3254	0.1876
257.54	0.1791
257.7545	0.1863
257.9691	0.1837
258.1836	0.1829
258.3981	0.1874
258.6127	0.1834
258.8272	0.1858
259.0417	0.1784
259.2561	0.1833
259.4706	0.1853
259.6851	0.1791
259.8995	0.181
260.114	0.1827
260.3284	0.1804
260.5428	0.1834
260.7572	0.1844
260.9716	0.187
261.186	0.1809
261.4003	0.1778
261.6147	0.1875
261.829	0.1827
262.0433	0.1859
262.2577	0.1841
262.472	0.1835
262.6863	0.1919
262.9005	0.1881
263.1148	0.1849
263.3291	0.1857
263.5433	0.1881
263.7576	0.1921
263.9718	0.1947
264.186	0.1976
264.4002	0.1946
264.6144	0.2034
264.8286	0.1966
265.0427	0.2043
265.2569	0.202
265.471	0.2019
265.6851	0.2007
265.8993	0.2009
266.1134	0.2035
266.3275	0.1968
266.5415	0.2061
266.7556	0.2076
266.9697	0.201
267.1837	0.2077
267.3978	0.1989
267.6118	0.2024
267.8258	0.2046
268.0398	0.2044
268.2538	0.2056
268.4677	0.2008
268.6817	0.2018
268.8957	0.1951
269.1096	0.1947
269.3235	0.1946
269.5374	0.1983
269.7514	0.2042
269.9652	0.1989
270.1791	0.1898
270.393	0.1976
270.6068	0.1992
270.8207	0.2008
271.0345	0.194
271.2483	0.1972
271.4622	0.1963
271.676	0.1925
271.8897	0.1981
272.1035	0.2055
272.3173	0.1996
272.531	0.2005
272.7448	0.1994
272.9585	0.1991
273.1722	0.1974
273.3859	0.2038
273.5996	0.207
273.8133	0.2126
274.0269	0.2017
274.2406	0.2027
274.4542	0.206
274.6679	0.2124
274.8815	0.2115
275.0951	0.2202
275.3087	0.2132
275.5223	0.2136
275.7358	0.2166
275.9494	0.2204
276.1629	0.2165
276.3765	0.2166
276.59	0.2146
276.8035	0.2221
277.017	0.2289
277.2305	0.2293
277.444	0.2258
277.6574	0.2248
277.8709	0.2253
278.0843	0.2242
278.2978	0.2335
278.5112	0.2176
278.7246	0.216
278.938	0.2222
279.1513	0.2156
279.3647	0.216
279.5781	0.2221
279.7914	0.2108
280.0047	0.2153
280.2181	0.2097
280.4314	0.2154
280.6447	0.2166
280.8579	0.2068
281.0712	0.2082
281.2845	0.2101
281.4977	0.2052
281.711	0.2032
281.9242	0.2012
282.1374	0.2006
282.3506	0.2012
282.5638	0.1961
282.7769	0.1982
282.9901	0.2001
283.2033	0.1996
283.4164	0.1968
283.6295	0.1961
283.8426	0.1906
284.0557	0.2008
284.2688	0.1943
284.4819	0.1944
284.695	0.201
284.908	0.1899
285.1211	0.1937
285.3341	0.1905
285.5471	0.1931
285.7601	0.196
285.9731	0.1953
286.1861	0.1935
286.3991	0.1917
286.612	0.1865
286.825	0.1916
287.0379	0.1902
287.2508	0.1896
287.4637	0.1874
287.6766	0.1933
287.8895	0.1877
288.1024	0.1897
288.3152	0.1871
288.5281	0.1867
288.7409	0.1933
288.9538	0.1912
289.1666	0.1901
289.3794	0.188
289.5922	0.1797
289.8049	0.1873
290.0177	0.1885
290.2304	0.18
290.4432	0.186
290.6559	0.1832
290.8686	0.1868
291.0813	0.1839
291.294	0.1852
291.5067	0.1848
291.7194	0.1843
291.932	0.1821
292.1447	0.18
292.3573	0.1842
292.5699	0.1859
292.7825	0.1799
292.9951	0.1821
293.2077	0.1813
293.4203	0.1783
293.6328	0.1744
293.8454	0.1825
294.0579	0.1815
294.2704	0.187
294.4829	0.1804
294.6954	0.1842
294.9079	0.1834
295.1204	0.1729
295.3328	0.184
295.5453	0.1835
295.7577	0.18
295.9701	0.1819
296.1825	0.1827
296.3949	0.1772
296.6073	0.1772
296.8197	0.1799
297.0321	0.1861
297.2444	0.1737
297.4567	0.1859
297.6691	0.1814
297.8814	0.1842
298.0937	0.1786
298.306	0.1805
298.5182	0.183
298.7305	0.1797
298.9428	0.1811
299.155	0.1783
299.3672	0.1829
299.5794	0.1841
299.7916	0.1862
300.0038	0.1796
300.216	0.1821
300.4282	0.1753
300.6403	0.1875
300.8525	0.1817
301.0646	0.1852
301.2767	0.186
301.4888	0.1848
301.7009	0.1866
301.913	0.1895
302.125	0.184
302.3371	0.1837
302.5491	0.1885
302.7612	0.188
302.9732	0.1892
303.1852	0.1846
303.3972	0.1876
303.6092	0.1852
303.8211	0.1867
304.0331	0.1808
304.245	0.1827
304.457	0.1817
304.6689	0.1798
304.8808	0.1838
305.0927	0.1833
305.3046	0.1805
305.5164	0.1812
305.7283	0.1781
305.9401	0.1687
306.152	0.1749
306.3638	0.1805
306.5756	0.1815
306.7874	0.175
306.9992	0.1762
307.2109	0.1741
307.4227	0.1743
307.6344	0.1708
307.8462	0.1693
308.0579	0.1743
308.2696	0.1727
308.4813	0.1688
308.693	0.1654
308.9046	0.1682
309.1163	0.1664
309.328	0.1634
309.5396	0.1596
309.7512	0.1596
309.9628	0.1608
310.1744	0.1603
310.386	0.1539
310.5976	0.1556
310.8091	0.1598
311.0207	0.1537
311.2322	0.1543
311.4437	0.1541
311.6552	0.1601
311.8667	0.1609
312.0782	0.1551
312.2897	0.1546
312.5012	0.1568
312.7126	0.1495
312.924	0.1537
313.1355	0.152
313.3469	0.1508
313.5583	0.153
313.7696	0.1463
313.981	0.1583
314.1924	0.1517
314.4037	0.1541
314.6151	0.1505
314.8264	0.1561
315.0377	0.1521
315.249	0.1535
315.4603	0.1495
315.6716	0.1475
315.8828	0.1471
316.0941	0.1508
316.3053	0.1489
316.5165	0.1489
316.7277	0.147
316.9389	0.1496
317.1501	0.1507
317.3613	0.1492
317.5724	0.1495
317.7836	0.1406
317.9947	0.1461
318.2058	0.1461
318.417	0.1503
318.6281	0.144
318.8391	0.151
319.0502	0.145
319.2613	0.1449
319.4723	0.1406
319.6834	0.1534
319.8944	0.1439
320.1054	0.1419
320.3164	0.1386
320.5274	0.1478
320.7383	0.1478
320.9493	0.1458
321.1602	0.1436
321.3712	0.1412
321.5821	0.147
321.793	0.153
322.0039	0.1452
322.2148	0.1433
322.4257	0.1464
322.6365	0.1413
322.8474	0.1522
323.0582	0.1483
323.269	0.1492
323.4798	0.1477
323.6906	0.1487
323.9014	0.143
324.1122	0.1444
324.3229	0.1547
324.5337	0.1532
324.7444	0.1541
324.9551	0.1522
325.1658	0.1482
325.3765	0.1516
325.5872	0.156
325.7979	0.1534
326.0085	0.1476
326.2192	0.1553
326.4298	0.1559
326.6404	0.1588
326.851	0.1528
327.0616	0.1595
327.2722	0.1541
327.4828	0.1561
327.6933	0.1626
327.9039	0.1608
328.1144	0.1607
328.3249	0.1654
328.5354	0.1597
328.7459	0.1628
328.9564	0.1634
329.1669	0.1637
329.3773	0.1653
329.5878	0.1632
329.7982	0.1651
330.0086	0.1659
330.219	0.1628
330.4294	0.1651
330.6398	0.1672
330.8502	0.1638
331.0605	0.172
331.2708	0.168
331.4812	0.175
331.6915	0.1728
331.9018	0.169
332.1121	0.1745
332.3224	0.1628
332.5326	0.1685
332.7429	0.1662
332.9531	0.1729
333.1633	0.1631
333.3735	0.161
333.5837	0.1689
333.7939	0.1669
334.0041	0.1663
334.2143	0.16
334.4244	0.1741
334.6346	0.166
334.8447	0.1619
335.0548	0.1647
335.2649	0.172
335.475	0.1641
335.685	0.1697
335.8951	0.1627
336.1051	0.1682
336.3152	0.1731
336.5252	0.1628
336.7352	0.1602
336.9452	0.1589
337.1552	0.1578
337.3652	0.1538
337.5751	0.1593
337.7851	0.1597
337.995	0.1647
338.2049	0.1598
338.4148	0.1604
338.6247	0.1618
338.8346	0.1635
339.0445	0.1576
339.2543	0.1693
339.4642	0.1626
339.674	0.157
339.8838	0.1671
340.0936	0.1632
340.3034	0.1653
340.5132	0.1616
340.7229	0.1637
340.9327	0.1706
341.1424	0.1672
341.3522	0.1602
341.5619	0.1657
341.7716	0.17
341.9813	0.1725
342.1909	0.1754
342.4006	0.1699
342.6102	0.1706
342.8199	0.1676
343.0295	0.1668
343.2391	0.1703
343.4487	0.1794
343.6583	0.1788
343.8679	0.175
344.0774	0.1728
344.287	0.1755
344.4965	0.1792
344.706	0.177
344.9155	0.1805
345.125	0.1788
345.3345	0.183
345.544	0.1853
345.7534	0.1791
345.9629	0.1884
346.1723	0.1856
346.3817	0.1797
346.5911	0.1929
346.8005	0.1864
347.0099	0.1908
347.2193	0.2027
347.4286	0.2012
347.638	0.2018
347.8473	0.1922
348.0566	0.1919
348.2659	0.1966
348.4752	0.1965
348.6845	0.1959
348.8937	0.1942
349.103	0.1902
349.3122	0.2016
349.5214	0.1962
349.7306	0.2072
349.9398	0.1941
350.149	0.1904
350.3582	0.1985
350.5674	0.1982
350.7765	0.199
350.9856	0.1909
351.1948	0.2024
351.4039	0.2001
351.613	0.1937
351.822	0.2135
352.0311	0.199
352.2402	0.1929
352.4492	0.1958
352.6582	0.1972
352.8672	0.1943
353.0762	0.1932
353.2852	0.1899
353.4942	0.1945
353.7032	0.1907
353.9121	0.1935
354.1211	0.1893
354.33	0.2013
354.5389	0.1838
354.7478	0.1842
354.9567	0.1925
355.1655	0.1914
355.3744	0.1889
355.5833	0.1848
355.7921	0.1927
356.0009	0.1925
356.2097	0.1843
356.4185	0.1913
356.6273	0.1831
356.8361	0.1845
357.0448	0.1916
357.2536	0.1892
357.4623	0.183
357.671	0.1919
357.8797	0.1909
358.0884	0.1829
358.2971	0.1898
358.5057	0.1874
358.7144	0.1845
358.923	0.1897
359.1316	0.193
359.3402	0.1894
359.5488	0.18
359.7574	0.1957
359.966	0.1908
360.1746	0.1878
360.3831	0.1919
360.5916	0.1924
360.8002	0.1939
361.0087	0.1912
361.2172	0.1974
361.4256	0.1916
361.6341	0.1971
361.8426	0.1901
362.051	0.1967
362.2594	0.1864
362.4678	0.194
362.6762	0.1928
362.8846	0.1913
363.093	0.1915
363.3014	0.2006
363.5097	0.1986
363.718	0.1875
363.9264	0.1992
364.1347	0.2048
364.343	0.199
364.5513	0.1973
364.7595	0.2054
364.9678	0.191
365.176	0.203
365.3842	0.2027
365.5925	0.195
365.8007	0.2034
366.0089	0.1994
366.217	0.2004
366.4252	0.2036
366.6333	0.2131
366.8415	0.2057
367.0496	0.2047
367.2577	0.202
367.4658	0.1989
367.6739	0.2029
367.882	0.2082
368.09	0.2025
368.2981	0.2139
368.5061	0.2146
368.7141	0.2015
368.9221	0.2178
369.1301	0.2177
369.3381	0.221
369.5461	0.2095
369.754	0.215
369.962	0.2101
370.1699	0.2108
370.3778	0.2285
370.5857	0.2157
370.7936	0.2138
371.0015	0.2188
371.2093	0.217
371.4172	0.2103
371.625	0.2147
371.8328	0.2123
372.0406	0.2243
372.2484	0.2207
372.4562	0.223
372.664	0.2204
372.8717	0.2235
373.0795	0.2245
373.2872	0.222
373.4949	0.2183
373.7026	0.2247
373.9103	0.2156
374.118	0.2201
374.3256	0.2222
374.5333	0.2212
374.7409	0.2295
374.9485	0.2196
375.1561	0.2214
375.3637	0.2173
375.5713	0.2261
375.7789	0.225
375.9864	0.2235
376.194	0.2299
376.4015	0.2232
376.609	0.2328
376.8165	0.2352
377.024	0.2276
377.2315	0.2375
377.4389	0.23
377.6464	0.2298
377.8538	0.2296
378.0612	0.2369
378.2686	0.2317
378.476	0.2348
378.6834	0.2267
378.8908	0.2369
379.0981	0.2373
379.3055	0.2317
379.5128	0.2392
379.7201	0.2373
379.9274	0.2278
380.1347	0.2317
380.342	0.249
380.5492	0.2356
380.7565	0.2432
380.9637	0.2332
381.1709	0.2373
381.3781	0.244
381.5853	0.2367
381.7925	0.2405
381.9997	0.2451
382.2068	0.2442
382.4139	0.2397
382.6211	0.2441
382.8282	0.2498
383.0353	0.2453
383.2424	0.2445
383.4494	0.2304
383.6565	0.2445
383.8635	0.2377
384.0706	0.2487
384.2776	0.2398
384.4846	0.2438
384.6916	0.2439
384.8986	0.2413
385.1055	0.2494
385.3125	0.2522
385.5194	0.2536
385.7263	0.2437
385.9333	0.2444
386.1402	0.2385
386.347	0.2467
386.5539	0.2484
386.7608	0.2381
386.9676	0.2412
387.1744	0.2386
387.3813	0.2507
387.5881	0.2395
387.7948	0.2517
388.0016	0.2504
388.2084	0.2448
388.4151	0.2458
388.6219	0.2336
388.8286	0.2377
389.0353	0.2446
389.242	0.2413
389.4487	0.2418
389.6553	0.2334
389.862	0.2358
390.0686	0.2431
390.2753	0.2377
390.4819	0.2357
390.6885	0.2364
390.8951	0.2403
391.1016	0.2487
391.3082	0.2371
391.5147	0.2241
391.7213	0.234
391.9278	0.2246
392.1343	0.2281
392.3408	0.2277
392.5473	0.2314
392.7537	0.2271
392.9602	0.2226
393.1666	0.2238
393.373	0.2215
393.5794	0.2232
393.7858	0.2258
393.9922	0.2176
394.1986	0.2184
394.4049	0.2161
394.6113	0.2203
394.8176	0.224
395.0239	0.2084
395.2302	0.213
395.4365	0.2266
395.6428	0.2126
395.8491	0.2196
396.0553	0.2077
396.2615	0.2142
396.4678	0.2196
396.674	0.2031
396.8802	0.2129
397.0863	0.2143
397.2925	0.2145
397.4987	0.2064
397.7048	0.2182
397.9109	0.1997
398.117	0.2092
398.3231	0.2022
398.5292	0.1989
398.7353	0.1959
398.9413	0.2099
399.1474	0.2056
399.3534	0.2133
399.5594	0.2147
399.7654	0.2001
399.9714	0.2048
400.1774	0.1945
400.3833	0.2061
400.5893	0.2051
400.7952	0.2138
401.0011	0.2025
401.207	0.2072
401.4129	0.1962
401.6188	0.2078
401.8247	0.2136
402.0305	0.2008
402.2364	0.2033
402.4422	0.1981
402.648	0.2053
402.8538	0.2055
403.0596	0.1965
403.2654	0.1994
403.4711	0.197
403.6768	0.2036
403.8826	0.2076
404.0883	0.2059
404.294	0.2048
404.4997	0.2063
404.7054	0.1988
404.911	0.2036
405.1167	0.2014
405.3223	0.1982
405.5279	0.2113
405.7335	0.197
405.9391	0.2041
406.1447	0.2081
406.3502	0.202
406.5558	0.1981
406.7613	0.2083
406.9668	0.1996
407.1724	0.2076
407.3778	0.205
407.5833	0.1949
407.7888	0.2015
407.9942	0.1888
408.1997	0.2035
408.4051	0.2068
408.6105	0.202
408.8159	0.1963
409.0213	0.2013
409.2267	0.2072
409.432	0.1995
409.6374	0.2112
409.8427	0.2043
410.048	0.2034
410.2533	0.2067
410.4586	0.198
410.6639	0.2102
410.8691	0.1984
411.0744	0.2002
411.2796	0.209
411.4848	0.1987
411.69	0.1822
411.8952	0.2081
412.1004	0.1981
412.3056	0.1914
412.5107	0.1987
412.7158	0.2092
412.921	0.1981
413.1261	0.2091
413.3312	0.2027
413.5362	0.2029
413.7413	0.1979
413.9464	0.1871
414.1514	0.198
414.3564	0.1952
414.5614	0.2033
414.7664	0.1875
414.9714	0.1869
415.1764	0.2002
415.3813	0.1964
415.5863	0.2023
415.7912	0.1922
415.9961	0.206
416.201	0.2026
416.4059	0.1923
416.6108	0.1972
416.8156	0.197
417.0205	0.197
417.2253	0.2057
417.4301	0.2103
417.6349	0.1927
417.8397	0.188
418.0445	0.1889
418.2492	0.1906
418.454	0.1866
418.6587	0.1962
418.8634	0.2028
419.0681	0.1995
419.2728	0.2
419.4775	0.2022
419.6822	0.1882
419.8868	0.1813
420.0915	0.1911
420.2961	0.1861
420.5007	0.1855
420.7053	0.1934
420.9099	0.1985
421.1144	0.1919
421.319	0.1821
421.5235	0.1737
421.728	0.1899
421.9325	0.1861
422.137	0.1854
422.3415	0.1784
422.546	0.1847
422.7504	0.1755
422.9549	0.1877
423.1593	0.1758
423.3637	0.1812
423.5681	0.1882
423.7725	0.1688
423.9769	0.1756
424.1812	0.1715
424.3856	0.168
424.5899	0.1843
424.7942	0.1758
424.9985	0.175
425.2028	0.1788
425.4071	0.1694
425.6113	0.1717
425.8156	0.1665
426.0198	0.1697
426.224	0.1731
426.4282	0.1671
426.6324	0.1629
426.8366	0.158
427.0407	0.1653
427.2449	0.1625
427.449	0.16
427.6531	0.1788
427.8572	0.1642
428.0613	0.1711
428.2654	0.1584
428.4694	0.1559
428.6735	0.1553
428.8775	0.1666
429.0815	0.1577
429.2855	0.1568
429.4895	0.158
429.6935	0.1553
429.8975	0.1497
430.1014	0.1605
430.3053	0.1539
430.5093	0.1511
430.7132	0.1474
430.9171	0.1455
431.1209	0.1542
431.3248	0.1384
431.5286	0.1404
431.7325	0.1541
431.9363	0.1392
432.1401	0.1416
432.3439	0.1349
432.5477	0.1316
432.7514	0.1377
432.9552	0.1286
433.1589	0.1276
433.3627	0.1326
433.5664	0.1201
433.7701	0.1298
433.9737	0.1296
434.1774	0.1248
434.3811	0.1208
434.5847	0.123
434.7883	0.1267
434.9919	0.1228
435.1955	0.1334
435.3991	0.1179
435.6027	0.1135
435.8062	0.1295
436.0098	0.1134
436.2133	0.1154
436.4168	0.112
436.6203	0.1069
436.8238	0.1132
437.0272	0.1109
437.2307	0.0991
437.4341	0.1072
437.6375	0.1115
437.841	0.1042
438.0443	0.1078
438.2477	0.0958
438.4511	0.0916
438.6545	0.1051
438.8578	0.0932
439.0611	0.1078
439.2644	0.1039
439.4677	0.0977
439.671	0.0845
439.8743	0.0996
440.0775	0.0814
440.2808	0.0842
440.484	0.0887
440.6872	0.0901
440.8904	0.0782
441.0936	0.083
441.2967	0.0757
441.4999	0.075
441.703	0.0799
441.9062	0.0802
442.1093	0.0877
442.3124	0.0782
442.5155	0.0793
442.7185	0.0695
442.9216	0.0812
443.1246	0.0705
443.3276	0.0738
443.5307	0.0692
443.7337	0.075
443.9366	0.068
444.1396	0.0632
444.3426	0.0662
444.5455	0.0652
444.7484	0.0655
444.9513	0.0628
445.1542	0.0642
445.3571	0.0601
445.56	0.0585
445.7628	0.0609
445.9657	0.0628
446.1685	0.0622
446.3713	0.0538
446.5741	0.0634
446.7769	0.0528
446.9797	0.0564
447.1824	0.0528
447.3852	0.0448
447.5879	0.0511
447.7906	0.052
447.9933	0.0548
448.196	0.0452
448.3986	0.0478
448.6013	0.0358
448.8039	0.0446
449.0066	0.0495
449.2092	0.0447
449.4118	0.0438
449.6143	0.0559
449.8169	0.0404
450.0195	0.0504
450.222	0.0429
450.4245	0.0472
450.627	0.0406
450.8295	0.0384
451.032	0.0431
451.2345	0.033
451.4369	0.0397
451.6394	0.0362
451.8418	0.0421
452.0442	0.0411
452.2466	0.0345
452.449	0.0352
452.6513	0.0258
452.8537	0.0294
453.056	0.0368
453.2583	0.0361
453.4607	0.0272
453.663	0.0338
453.8652	0.0312
454.0675	0.0359
454.2697	0.0292
454.472	0.0239
454.6742	0.0302
454.8764	0.0342
455.0786	0.0255
455.2808	0.0234
455.4829	0.0315
455.6851	0.0261
455.8872	0.0298
456.0893	0.0275
456.2915	0.0151
456.4935	0.0289
456.6956	0.0188
456.8977	0.0258
457.0997	0.0325
457.3018	0.0271
457.5038	0.0289
457.7058	0.0274
457.9078	0.0228
458.1098	0.0224
458.3117	0.0253
458.5137	0.0018
458.7156	0.0209
458.9175	0.0191
459.1194	0.0156
459.3213	0.0182
459.5232	0.0229
459.725	0.0194
459.9269	0.0184
460.1287	0.0091
460.3305	0.0224
460.5323	0.0232
460.7341	0.0298
460.9359	0.01
461.1376	0.0166
461.3394	0.0165
461.5411	0.027
461.7428	0.0136
461.9445	0.0124
462.1462	0.0137
462.3479	0.0125
462.5495	0.0173
462.7512	0.0184
462.9528	0.0137
463.1544	0.0171
463.356	0.0107
463.5576	0.0158
463.7592	0.0114
463.9607	0.0087
464.1623	0.0062
464.3638	0.0089
464.5653	0.017
464.7668	0.0093
464.9683	0.0121
465.1697	0.0173
465.3712	0.0069
465.5726	0.0164
465.7741	0.0182
465.9755	0.0136
466.1769	0.0079
466.3782	0.0089
466.5796	0.0161
466.7809	0.014
466.9823	0.0177
467.1836	0.0082
467.3849	0.0095
467.5862	-0.0011
467.7875	0.0105
467.9887	0.0191
468.19	0.0124
468.3912	0.0219
468.5924	0.0149
468.7936	0.0078
468.9948	0.001
469.196	0.0029
469.3972	0.004
469.5983	0.0113
469.7994	0.0212
470.0006	0.0179
470.2017	0.0081
470.4027	0.0219
470.6038	0.0078
470.8049	0.0027
471.0059	0.0111
471.2069	0.0164
471.408	0.0121
471.6089	0.0059
471.8099	0.006
472.0109	0.0081
472.2119	0.011
472.4128	0.008
472.6137	0.0067
472.8146	0.0124
473.0155	0.014
473.2164	0.0115
473.4173	0.0054
473.6181	0.0133
473.819	0.0143
474.0198	0.0083
474.2206	-0.0017
474.4214	0.0113
474.6222	-0.0039
474.8229	0.0069
475.0237	0.016
475.2244	0.0105
475.4251	0.0023
475.6258	0.0026
475.8265	0.0084
476.0272	0.0076
476.2278	0.0168
476.4285	0.0099
476.6291	0.0083
476.8297	0.0049
477.0303	-0.0041
477.2309	0.007
477.4315	0.0099
477.632	0.0057
477.8326	0.0078
478.0331	0.0095
478.2336	0.0012
478.4341	0.0037
478.6346	0.0033
478.8351	0.0035
479.0355	0.0038
479.236	0.0163
479.4364	0.0044
479.6368	-0.0027
479.8372	0.0096
480.0376	0.0068
480.2379	0.0081
480.4383	0.0069
480.6386	-0.0004
480.8389	0.0075
481.0392	0.0055
481.2395	0.0132
481.4398	0.0063
481.6401	0.0105
481.8403	0.0041
482.0405	0.0126
482.2408	0.0095
482.441	0.0073
482.6411	0.0033
482.8413	0.0017
483.0415	0.0057
483.2416	-0.0006
483.4417	0.0056
483.6419	-0.003
483.8419	0.0038
484.042	0.0025
484.2421	-0.0009
484.4422	0.0068
484.6422	0.0083
484.8422	0.0014
485.0422	0.0084
485.2422	0.0061
485.4422	0.0058
485.6422	0.0061
485.8421	0.0075
486.042	0.0166
486.242	0.0011
486.4419	0.008
486.6417	0.0075
486.8416	0.0055
487.0415	-0.0018
487.2413	0.0056
487.4411	0.0055
487.641	0.0021
487.8408	0.0078
488.0405	0.011
488.2403	0
488.4401	0.0009
488.6398	0.0094
488.8395	0.0092
489.0392	0.0017
489.2389	0.0074
489.4386	-0.0061
489.6383	0.0051
489.8379	-0.0025
490.0376	0.0104
490.2372	0.0048
490.4368	-0.0041
490.6364	-0.0037
490.836	0.0052
491.0355	-0.0087
491.2351	0.0032
491.4346	0.0067
491.6341	-0.0014
491.8336	0.0025
492.0331	0
492.2326	0.0047
492.432	-0.0029
492.6315	0.0073
492.8309	0.0058
493.0303	0.0006
493.2297	-0.0026
493.4291	-0.0014
493.6284	0.006
493.8278	-0.0091
494.0271	0.0069
494.2264	-0.0084
494.4257	0.0063
494.625	-0.0021
494.8243	0.0034
495.0236	0.0072
495.2228	0.0086
495.422	0.0045
495.6213	0.0061
495.8205	0.0066
496.0196	0.0059
496.2188	0.0017
496.418	-0.0023
496.6171	-0.0022
496.8162	0.0029
497.0153	0.0037
497.2144	-0.0018
497.4135	0.0006
497.6126	0.0025
497.8116	-0.0041
498.0107	0.0042
498.2097	0.0027
498.4087	-0.0077
498.6077	-0.0041
498.8067	0.0007
499.0056	-0.0001
499.2046	-0.0002
499.4035	-0.0012
499.6024	-0.0001
499.8013	0.0031
500.0002	0.0064
500.199	0.0136
500.3979	0.0019
500.5967	-0.0029
500.7956	-0.0035
500.9944	0.0009
501.1932	0.0067
501.3919	0.0052
501.5907	0.0025
501.7895	0.0019
501.9882	-0.0022
502.1869	0.0052
502.3856	-0.0051
502.5843	-0.0035
502.783	-0.0007
502.9816	0.0073
503.1803	-0.0006
503.3789	0.0091
503.5775	-0.0025
503.7761	-0.0034
503.9747	0.0027
504.1732	-0.0124
504.3718	0.0183
504.5703	-0.001
504.7689	-0.0058
504.9674	-0.0019
505.1658	-0.0064
505.3643	0.0016
505.5628	-0.0017
505.7612	-0.0001
505.9597	-0.0126
506.1581	-0.0004
506.3565	0.003
506.5549	0.0033
506.7532	-0.0073
506.9516	-0.0038
507.1499	0.0039
507.3482	-0.0031
507.5465	-0.0008
507.7448	0.0025
507.9431	0.0034
508.1414	0.0021
508.3396	0.0013
508.5379	0.0042
508.7361	-0.0015
508.9343	0.0046
509.1325	0.007
509.3306	-0.0026
509.5288	-0.0001
509.7269	0.0041
509.9251	-0.0005
510.1232	0.0033
510.3213	0.007
510.5193	-0.0015
510.7174	-0.0005
510.9154	0.0017
511.1135	-0.0055
511.3115	-0.0035
511.5095	-0.0043
511.7075	-0.0031
511.9055	-0.002
512.1034	-0.0002
512.3014	-0.0069
512.4993	-0.0021
512.6972	-0.007
512.8951	-0.0053
513.093	0.001
513.2908	0.0057
513.4887	0.0048
513.6865	0.0076
513.8844	-0.0015
514.0822	0.0056
514.2799	-0.0047
514.4777	-0.0056
514.6755	-0.0037
514.8732	-0.0046
515.0709	-0.0055
515.2687	-0.0046
515.4664	0.0071
515.664	0.0011
515.8617	0.004
516.0594	-0.0045
516.257	0.0007
516.4546	0.0098
516.6522	-0.0003
516.8498	0.0036
517.0474	-0.0005
517.2449	0.0018
517.4425	-0.0036
517.64	0.0097
517.8375	0.0012
518.035	-0.0121
518.2325	-0.0028
518.43	-0.0024
518.6274	-0.0051
518.8249	-0.0127
519.0223	0.0113
519.2197	-0.0026
519.4171	0.0006
519.6145	0.0012
519.8118	-0.0069
520.0092	-0.0127
520.2065	0.004
520.4038	-0.0022
520.6011	0.0047
520.7984	0.0021
520.9956	0.0007
521.1929	0.0022
521.3901	0.0001
521.5874	0.0017
521.7846	-0.0042
521.9818	-0.0023
522.1789	-0.0087
522.3761	0.0103
522.5732	-0.0013
522.7704	-0.011
522.9675	-0.0159
523.1646	-0.003
523.3617	0.0048
523.5587	0.0012
523.7558	0.0006
523.9528	0.0064
524.1498	-0.0078
524.3468	-0.0017
524.5438	0.0007
524.7408	-0.005
524.9378	0.0033
525.1347	-0.0019
525.3316	-0.0051
525.5285	-0.0089
525.7254	0.0041
525.9223	0.0117
526.1192	-0.0032
526.316	-0.0031
526.5129	-0.0052
526.7097	-0.0104
526.9065	0.0019
527.1033	-0.0011
527.3	-0.0076
527.4968	0.0009
527.6935	-0.0151
527.8903	-0.0071
528.087	-0.008
528.2837	0.0124
528.4804	-0.0075
528.677	-0.0006
528.8737	-0.0008
529.0703	-0.002
529.2669	0.0043
529.4635	-0.0071
529.6601	-0.0026
529.8567	-0.0099
530.0532	-0.0083
530.2498	-0.0044
530.4463	-0.0118
530.6428	0.0036
530.8393	0.0153
531.0358	-0.0087
531.2322	-0.0069
531.4287	-0.003
531.6251	-0.0159
531.8215	-0.0111
532.0179	0.0023
532.2143	-0.0033
532.4107	0.0015
532.607	-0.002
532.8034	-0.0002
532.9997	-0.0073
533.196	-0.0045
533.3923	0.0102
533.5886	0.0061
533.7848	0.0058
533.9811	0.0008
534.1773	0.0008
534.3735	0.0068
534.5697	0.0015
534.7659	0.003
534.9621	0.0004
535.1582	-0.0006
535.3544	0.0035
535.5505	-0.0011
535.7466	-0.0062
535.9427	0.0027
536.1387	-0.0094
536.3348	0.003
536.5308	0.0008
536.7269	-0.0047
536.9229	-0.0011
537.1189	0.0002
537.3148	-0.0002
537.5108	-0.001
537.7068	0.006
537.9027	-0.0085
538.0986	-0.0005
538.2945	-0.0015
538.4904	-0.0038
538.6863	-0.0074
538.8821	0.0017
539.078	0.0041
539.2738	-0.0049
539.4696	-0.0112
539.6654	0.0082
539.8611	-0.0032
540.0569	-0.01
540.2526	0.005
540.4484	-0.0036
540.6441	-0.0023
540.8398	-0.0008
541.0355	-0.005
541.2311	-0.0015
541.4268	0.0035
541.6224	0.0043
541.818	0.0046
542.0136	0.0003
542.2092	0.0048
542.4048	0.0009
542.6003	0.0016
542.7959	-0.0008
542.9914	0.0072
543.1869	0.0052
543.3824	-0.0024
543.5779	0.0073
543.7734	0.0114
543.9688	0.0032
544.1642	-0.0084
544.3596	0.0054
544.555	0.0039
544.7504	0.0099
544.9458	0.0071
545.1411	0.0011
545.3365	0.0015
545.5318	0.0015
545.7271	0.0057
545.9224	-0.0025
546.1177	0.0018
546.3129	-0.0035
546.5081	-0.0026
546.7034	0.0004
546.8986	-0.0032
547.0938	0.008
547.289	0.0058
547.4841	0.0061
547.6793	0.0007
547.8744	0.0074
548.0695	-0.0082
548.2646	0.0084
548.4597	-0.0085
548.6548	0.0109
548.8498	0.0011
549.0448	0.0078
549.2399	0.0139
549.4349	0.007
549.6298	0.0048
549.8248	-0.0023
550.0198	-0.005
550.2147	0.0043
550.4096	0.0032
550.6045	0.0015
550.7994	0.0036
550.9943	0.0065
551.1892	-0.0078
551.384	0.0048
551.5788	0.0025
551.7737	0.0028
551.9685	0.0059
552.1632	-0.0082
552.358	-0.0003
552.5528	0.0086
552.7475	0.0018
552.9422	0.0069
553.1369	0.01
553.3316	0.0057
553.5263	0.0064
553.7209	-0.0006
553.9156	-0.0045
554.1102	-0.0005
554.3048	-0.0037
554.4994	0.0005
554.694	0.0034
554.8885	-0.0022
555.0831	0.0023
555.2776	0.0092
555.4721	0.0023
555.6666	0.015
555.8611	0.0018
556.0555	0.0027
556.25	0.0098
556.4444	-0.002
556.6388	-0.0043
556.8332	-0.0036
557.0276	0.0092
557.222	-0.0017
557.4163	0.0123
557.6107	-0.0041
557.805	0.0025
557.9993	0.0049
558.1936	-0.004
558.3879	0.0117
558.5821	-0.0054
558.7764	-0.0036
558.9706	-0.0053
559.1648	0.0043
559.359	0.0002
559.5532	-0.0008
559.7473	-0.0049
559.9415	0.004
560.1356	0.0142
560.3297	0.0027
560.5238	0.0048
560.7179	0.0028
560.9119	0.0031
561.106	-0.0041
561.3	0.0051
561.494	-0.0041
561.688	-0.0089
561.882	0.0036
562.076	0.003
562.2699	0.0106
562.4639	0.016
562.6578	0.0038
562.8517	0.0079
563.0456	0.0107
563.2395	0.0068
563.4333	-0.0008
563.6272	0.007
563.821	0.0053
564.0148	0.002
564.2086	0.0076
564.4024	0.0096
564.5961	0.0085
564.7899	0.0084
564.9836	-0.0046
565.1773	0.0152
565.371	0.0033
565.5647	0.0063
565.7584	0.012
565.952	0.0002
566.1456	0.0062
566.3393	0.0101
566.5329	0.0018
566.7264	0.0088
566.92	0.0045
567.1136	0.0031
567.3071	0.0027
567.5006	0.0061
567.6941	0.0046
567.8876	0.0012
568.0811	0.0201
568.2745	-0.0023
568.468	0.0034
568.6614	0.0078
568.8548	0.0091
569.0482	0.0066
569.2416	0.0054
569.4349	0.0098
569.6283	0.0049
569.8216	0.0083
570.0149	0.0041
570.2082	0.012
570.4015	0.0029
570.5947	0.0063
570.788	0.0059
570.9812	0.012
571.1744	0.0056
571.3676	0.0095
571.5608	0.0077
571.754	0.0121
571.9471	0.0088
572.1402	0.0102
572.3333	0.0096
572.5264	0.0059
572.7195	0.0066
572.9126	0.0009
573.1057	0.0066
573.2987	0.0073
573.4917	0.0033
573.6847	0.008
573.8777	0.0102
574.0707	0.0091
574.2636	0.0077
574.4566	0.0032
574.6495	0.0074
574.8424	0.0107
575.0353	0.009
575.2281	0.0109
575.421	0.0021
575.6138	0.0113
575.8067	0.0075
575.9995	0.0073
576.1923	0.0081
576.385	0.0078
576.5778	0.009
576.7706	0.0122
576.9633	0.0089
577.156	0.0026
577.3487	0.0031
577.5414	0.0071
577.734	0.007
577.9267	0.0129
578.1193	0.0071
578.3119	0.0041
578.5045	0.0069
578.6971	0.0029
578.8897	0.0064
579.0822	0.011
579.2747	0.006
579.4673	0.0112
579.6598	0.0106
579.8522	0.0072
580.0447	0.0072
580.2372	0.0091
580.4296	0.0111
580.622	0.0038
580.8144	0.0112
581.0068	0.0091
581.1992	0.0089
581.3915	0.0001
581.5839	0.0077
581.7762	0.0062
581.9685	0.0085
582.1608	0.0068
582.353	0.0057
582.5453	0.0112
582.7375	0.011
582.9298	0.0032
583.122	0.0034
583.3142	0.0116
583.5063	0.0023
583.6985	0.0078
583.8906	0.0053
584.0827	0.0097
584.2749	0.0057
584.4669	0.0066
584.659	0.0113
584.8511	0.0152
585.0431	0.0092
585.2352	0.0081
585.4272	0.0079
585.6192	0.0058
585.8111	0.0079
586.0031	0.0082
586.195	0.0089
586.387	0.0025
586.5789	0.0074
586.7708	0.0115
586.9627	0.0068
587.1545	0.0098
587.3464	0.0055
587.5382	0.0066
587.73	0.0128
587.9218	0.0091
588.1136	0.0027
588.3053	0.0074
588.4971	0.0073
588.6888	0.0063
588.8805	0.0068
589.0722	0.0148
589.2639	0.0058
589.4556	0.0155
589.6472	0.0102
589.8389	0.0091
590.0305	0.0044
590.2221	0.0066
590.4137	0.0074
590.6052	0.0034
590.7968	0.0084
590.9883	0.0042
591.1798	0.0055
591.3713	0.0053
591.5628	0.0129
591.7543	0.0094
591.9458	0.0075
592.1372	0.0062
592.3286	0.0069
592.52	0.0061
592.7114	0.0051
592.9028	0.0112
593.0941	0.0056
593.2855	0.0067
593.4768	0.0168
593.6681	0.0099
593.8594	0.0101
594.0506	0.0088
594.2419	0.0086
594.4331	0.006
594.6244	0.0029
594.8156	0.0068
595.0067	0.0004
595.1979	0.0019
595.3891	0.0069
595.5802	0.0113
595.7713	0.0079
595.9624	0.0081
596.1535	0.0054
596.3446	0.0006
596.5357	0.0045
596.7267	0.0044
596.9177	0.0027
597.1087	0.0027
597.2997	0.0059
597.4907	0.0017
597.6817	0.0085
597.8726	0.0124
598.0635	0.0067
598.2544	0.0072
598.4453	0.0071
598.6362	0.0073
598.827	0.0047
599.0179	0.0064
599.2087	0.0122
599.3995	0.0162
599.5903	0.0118
599.7811	0.0142
599.9718	0.0045
600.1626	0.0025
600.3533	0.004
600.544	0.0085
600.7347	0.0087
600.9254	0.0115
601.116	0.009
601.3067	0.0063
601.4973	0.0121
601.6879	0.0026
601.8785	0.0097
602.0691	0.002
602.2596	0.007
602.4502	0.0097
602.6407	0.0137
602.8312	0.0145
603.0217	0.0101
603.2122	0.0102
603.4027	0.0072
603.5931	0.0054
603.7835	0.0077
603.9739	0.007
604.1643	0.013
604.3547	0.009
604.5451	0.0106
604.7354	0.0016
604.9257	0.0089
605.116	0
605.3063	0.0087
605.4966	0.0051
605.6869	0.0131
605.8771	0.0071
606.0673	0.0054
606.2575	0.0001
606.4477	0.0105
606.6379	0.0053
606.8281	0.0061
607.0182	0.0106
607.2083	0.0092
607.3985	0.0081
607.5885	0.0038
607.7786	0.0094
607.9687	0.0121
608.1587	0.0147
608.3488	0.0081
608.5388	0.0067
608.7288	0.0022
608.9187	0.009
609.1087	0.0071
609.2986	0.0146
609.4886	0.008
609.6785	0.0054
609.8684	0.0042
610.0582	0.0081
610.2481	0.0015
610.4379	0.0058
610.6278	0.0079
610.8176	0.0109
611.0074	0.0067
611.1971	0.0076
611.3869	0.0097
611.5766	-0.0071
611.7664	0.0069
611.9561	0.0098
612.1458	0.0055
612.3354	0.0065
612.5251	0.0053
612.7147	0.0069
612.9044	0.0051
613.094	0.003
613.2836	0.0109
613.4731	0.0077
613.6627	0.0107
613.8522	0.0105
614.0417	0.0185
614.2313	0.0043
614.4207	0.0055
614.6102	0.0147
614.7997	0.0149
614.9891	0.0134
615.1785	0.0017
615.3679	0.0106
615.5573	0.0177
615.7467	0.0024
615.9361	0.0117
616.1254	0.0109
616.3147	0.0086
616.504	0.0089
616.6933	0.0113
616.8826	-0.0038
617.0718	0.0114
617.2611	0.0066
617.4503	0.0086
617.6395	0.0116
617.8287	0.0091
618.0179	0.0094
618.207	0.0082
618.3961	0.0086
618.5853	0.0121
618.7744	0.0102
618.9634	0.0175
619.1525	0.0094
619.3416	0.0071
619.5306	0.0169
619.7196	0.0118
619.9086	0.0019
620.0976	-0.0021
620.2866	0.0154
620.4755	-0.0005
620.6645	0.0139
620.8534	0.0157
621.0423	0.0043
621.2312	-0.0017
621.42	0.0013
621.6089	0.0041
621.7977	0.0147
621.9865	0.0018
622.1753	0.001
622.3641	-0.0022
622.5529	0.0042
622.7416	-0.0011
622.9303	0.002
623.1191	0.0091
623.3078	0.0068
623.4964	0.0105
623.6851	0.0134
623.8737	0.0037
624.0624	-0.0007
624.251	0.006
624.4396	-0.0009
624.6282	0.017
624.8167	0.0044
625.0053	0.0226
625.1938	0.008
625.3823	0.0162
625.5708	0.0098
625.7593	0.0007
625.9477	0.0176
626.1362	0.0013
626.3246	0.0091
626.513	0.0004
626.7014	0.0054
626.8898	0.0161
627.0781	0.0035
627.2665	0.0054
627.4548	-0.008
627.6431	0.0166
627.8314	0.0191
628.0197	0.0162
628.2079	-0.0023
628.3962	0.0028
628.5844	0.0048
628.7726	0.0081
628.9608	0.009
629.1489	0.0183
629.3371	0.0011
629.5252	0.0103
629.7134	0.0007
629.9015	0.0152
630.0895	-0.0021
630.2776	0.0051
630.4657	0.0095
630.6537	0.0096
630.8417	-0.001
631.0297	0.0006
631.2177	0.0038
631.4057	0.0054
631.5936	0.0104
631.7815	0.0048
631.9695	0.0177
632.1574	0.0158
632.3452	0.0159
632.5331	-0.0011
632.7209	0.0225
632.9088	-0.0002
633.0966	0.0194
633.2844	0.0088
633.4722	0.0129
633.6599	0.0244
633.8477	0.0161
634.0354	0.0215
634.2231	-0.0082
634.4108	-0.0054
634.5985	0.0217
634.7861	-0
634.9738	0.001
635.1614	0.0018
635.349	-0.001
635.5366	0.004
635.7242	0.0115
635.9117	0.0105
636.0993	0.0219
636.2868	-0.0131
636.4743	-0.0054
636.6618	-0.0095
636.8492	0.0312
637.0367	-0.0053
637.2241	0.0026
637.4115	0.0379
637.5989	0.0007
637.7863	0.0233
637.9737	0.0073
638.161	0.0119
638.3484	0.0076
638.5357	0.0105
638.723	0.0267
638.9103	-0.01
639.0975	-0.005
639.2848	0.0171
639.472	0.0132
639.6592	-0.0246
639.8464	0.004
640.0336	0.0013
640.2208	0.0023
640.4079	-0
640.595	-0.0025
640.7821	0.0249
640.9692	0.0094
641.1563	0.0168
641.3434	0.0132
641.5304	0.0081
641.7174	0.008
641.9044	-0.0018
642.0914	0.0258
642.2784	0.0023
642.4653	-0.0005
642.6523	0.0249
642.8392	0.0038
643.0261	0.018
643.213	0.0138
643.3999	0.0269
643.5867	0.0163
643.7735	0.0019
643.9604	0.0315
644.1472	0.0103
644.3339	0.0236
644.5207	0.0113
644.7075	-0.0048
644.8942	-0.0036
645.0809	0.0066
645.2676	-0.0151
645.4543	-0.0122
645.6409	0.0117
645.8276	0.0173
646.0142	0.0178
646.2008	0.0099
646.3874	-0.0115
646.574	0.0048
646.7605	0.0099
646.9471	-0.0017
647.1336	-0.0129
647.3201	-0.0035
647.5066	0.0017
647.6931	0.0122
647.8795	-0.0028
648.0659	-0.0027
648.2524	0.0088
648.4388	0.019
648.6252	0.0185
648.8115	0.0084
648.9979	0.0164
649.1842	-0.0009
649.3705	0.0168
649.5568	-0.0075
649.7431	0.0111
649.9294	0.0027
650.1156	-0.008
650.3018	0.012
650.488	0.0164
650.6742	0.0116
650.8604	0.012
651.0466	0.0022
651.2327	-0.0047
651.4188	0.0077
651.6049	0.0198
651.791	0.0158
651.9771	0.015
652.1632	0.0166
652.3492	-0.0033
652.5352	0.0192
652.7212	0.0121
652.9072	-0.0021
653.0932	0.0071
653.2791	-0.0002
653.465	0.0082
653.651	0.0117
653.8369	0.0048
654.0227	0.0131
654.2086	0.017
654.3944	0.0144
654.5803	0.0011
654.7661	0.0066
654.9519	0.0022
655.1377	0.0001
655.3234	0.0001
655.5092	0.0001
655.6949	0.0001
655.8806	0.0001
656.0663	0.0001
656.2519	0.0001
656.4376	0.0001
656.6232	0.0001
656.8088	0.0001
656.9945	0.0001
657.18	0.0001
657.3656	0.0001
657.5511	0.0001
657.7367	0.0001
657.9222	0.0001
658.1077	0.0001
658.2932	0.0001
658.4786	0.0001
658.6641	0.0001
658.8495	0.0001
659.0349	0.0001
659.2203	0.0001
659.4057	0.0091
659.591	0.2831
659.7764	0.0423
659.9617	0.0022
660.147	-0.0017
660.3323	0.027
660.5176	0.0083
660.7028	-0.0116
660.888	0.0038
661.0733	0.0309
661.2585	-0.0057
661.4436	0.0009
661.6288	0.0253
661.8139	0.0005
661.9991	-0.0208
662.1842	-0.0011
662.3693	-0.003
662.5544	0.0055
662.7394	0.0326
662.9245	0.0016
663.1095	-0.0156
663.2945	-0.0142
663.4795	-0.0177
663.6644	0.0029
663.8494	0.0142
664.0343	0.0254
664.2193	0.0026
664.4042	0.0072
664.589	0.0142
664.7739	0.0089
664.9587	0.0019
665.1436	0.0078
665.3284	0.001
665.5132	-0.0217
665.698	0.003
665.8827	0.0107
666.0675	0.0114
666.2522	0.017
666.4369	0.0003
666.6216	0.0092
666.8063	0.0099
666.9909	-0.013
667.1756	0.0059
667.3602	-0.0161
667.5448	0.025
667.7294	0.0006
667.9139	0.0027
668.0985	-0.0028
668.283	0.0082
668.4675	0.0411
668.652	0.0194
668.8365	0.0029
669.0209	0.0035
669.2054	0.0038
669.3898	-0.011
669.5742	0.0172
669.7586	0.0208
669.943	0.0126
670.1273	-0.0079
670.3117	0.0018
670.496	0.0251
670.6803	-0.0076
670.8646	0.0038
671.0488	0.03
671.2331	-0.0009
671.4173	0.0196
671.6015	-0.0012
671.7857	0.0048
671.9699	0.0167
672.1541	-0.0027
672.3382	0.0136
672.5223	0.0073
672.7064	0.0239
672.8905	0.0086
673.0746	0.0007
673.2587	0.0415
673.4427	0.0029
673.6267	0.0167
673.8107	0.0047
673.9947	0.0354
674.1787	0.0064
674.3626	0.0189
674.5465	0.024
674.7304	-0.0014
674.9143	-0.0149
675.0982	0.0074
675.2821	-0.0089
675.4659	0.0109
675.6497	0.0194
675.8335	0.0023
676.0173	0.0049
676.2011	0.0213
676.3849	0.0217
676.5686	0.0012
676.7523	0.0157
676.936	0.0132
677.1197	0.0111
677.3034	0.0207
677.487	0.0084
677.6706	0.0239
677.8542	0.0031
678.0378	0.02
678.2214	0.0016
678.405	-0.0007
678.5885	0.0154
678.772	0.0203
678.9555	-0.0081
679.139	0.0103
679.3225	0.0095
679.5059	0.0017
679.6894	0.0112
679.8728	0.0045
680.0562	0.0227
680.2395	-0
680.4229	0.0167
680.6062	0.0035
680.7896	-0.0068
680.9729	0.0372
681.1562	0.0011
681.3394	0.0061
681.5227	0.0125
681.7059	0.011
681.8891	0.008
682.0723	0.0193
682.2555	0.0078
682.4387	0.0104
682.6218	0.0154
682.805	0.0192
682.9881	0.0273
683.1712	0.0067
683.3542	0.0175
683.5373	-0.0003
683.7203	0.0098
683.9034	-0.0201
684.0864	-0.0025
684.2694	0.0159
684.4523	0.018
684.6353	0.0074
684.8182	0.0059
685.0011	0.0074
685.184	0.0191
685.3669	0.0174
685.5498	0.0003
685.7326	0.0098
685.9154	0.0024
686.0982	0.0253
686.281	0.0057
686.4638	0.019
686.6465	0.0098
686.8293	-0.0025
687.012	0.0174
687.1947	0.0027
687.3774	0.0175
687.56	-0.0013
687.7427	0.0114
687.9253	-0.0027
688.1079	0.0174
688.2905	0.0066
688.4731	0.013
688.6556	-0.0031
688.8382	-0.0122
689.0207	0.0068
689.2032	0.0191
689.3857	-0.01
689.5681	0.0038
689.7506	0.0224
689.933	0.0121
690.1154	0.0235
690.2978	0.0284
690.4802	0.0352
690.6626	0.0091
690.8449	0.0159
691.0272	-0.0013
691.2095	-0.0016
691.3918	0.0171
691.5741	0.0272
691.7563	-0.0062
691.9386	0.0411
692.1208	0.0029
692.303	0.0112
692.4852	0.0117
692.6673	0.0051
692.8495	-0.0107
693.0316	-0.0017
693.2137	0.0077
693.3958	0.0075
693.5778	0.0198
693.7599	0.0137
693.9419	-0.0097
694.1239	-0.0082
694.3059	0.0367
694.4879	0.0075
694.6699	0.0132
694.8518	0.0194
695.0337	0.0068
695.2157	0.0348
695.3975	0.0028
695.5794	0.0185
695.7613	0.0341
695.9431	-0.0178
696.1249	0.0149
696.3067	0.0095
696.4885	0.018
696.6703	0.0258
696.852	-0.0014
697.0337	0.0162
697.2154	0.0164
697.3971	0.0089
697.5788	0.0168
697.7605	0.0038
697.9421	0.0162
698.1237	0.0277
698.3053	-0.0079
698.4869	0.0105
698.6685	-0.0051
698.85	0.0221
699.0315	-0.0184
699.213	0.0209
699.3945	0.0197
699.576	0.0148
699.7575	0.0269
699.9389	0.0272
700.1203	0.0318
700.3017	0.0102
700.4831	0.0274
700.6645	0.0282
700.8458	0.0144
701.0271	0.0391
701.2084	-0.009
701.3897	0.0336
701.571	0.0015
701.7523	0.0204
701.9335	0.0173
702.1147	0.0167
702.2959	-0.0112
702.4771	-0.0045
702.6583	-0.0023
702.8394	-0.0077
703.0205	0.0174
703.2016	0.0098
703.3827	-0.0137
703.5638	0.003
703.7449	0.0249
703.9259	-0.0065
704.1069	-0.0029
704.2879	0.0106
704.4689	-0.0079
704.6499	0.0143
704.8308	0.0079
705.0117	0.0081
705.1927	0.0154
705.3735	0.0236
705.5544	0.0122
705.7353	0.0267
705.9161	-0.0265
706.0969	0.0179
706.2777	0.0161
706.4585	-0.0055
706.6393	0.0335
706.82	0.0181
707.0007	-0.0138
707.1815	0.0099
707.3621	0.0297
707.5428	0.0153
707.7235	0.0044
707.9041	0.0197
708.0847	0.0078
708.2653	0.0249
708.4459	0.0002
708.6265	0.0043
708.807	0.0333
708.9875	0.0122
709.168	0.0154
709.3485	0.0245
709.529	0.0121
709.7095	-0.0129
709.8899	-0.0014
710.0703	0.0245
710.2507	0.0167
710.4311	-0.0266
710.6115	0.0294
710.7918	0.0347
710.9721	0.0083
711.1524	0.0007
711.3327	-0.0193
711.513	-0.0173
711.6932	0.0067
711.8735	0.027
712.0537	0.0057
712.2339	0.011
712.4141	0.0218
712.5942	-0.0151
712.7744	0.01
712.9545	0.0192
713.1346	0.0399
713.3147	0.0284
713.4947	0.0089
713.6748	0.0042
713.8548	0.0242
714.0348	0.014
714.2148	0.0067
714.3948	0.0246
714.5748	0.0208
714.7547	0.0114
714.9346	0.0392
715.1145	0.0076
715.2944	-0.0171
715.4743	0.0142
715.6541	-0.0005
715.834	0.0217
716.0138	0.0269
716.1936	-0.0127
716.3733	0.0163
716.5531	0.0363
716.7328	0.0468
716.9126	0.0024
717.0923	-0.0313
717.2719	0.0275
717.4516	0.0235
717.6312	-0.0024
717.8109	0.0387
717.9905	0.0181
718.1701	0.0018
718.3496	-0.0086
718.5292	0.0079
718.7087	0.0071
718.8882	0.0133
719.0677	0.0118
719.2472	0.0146
719.4267	0.0089
719.6061	-0.0286
719.7856	0.0222
719.965	0.0264
720.1443	0.0167
720.3237	-0.0032
720.5031	0.0096
720.6824	0.0213
720.8617	0.0198
721.041	0.0397
721.2203	0.0106
721.3995	0.0292
721.5788	0.0288
721.758	0.0083
721.9372	0.0274
722.1164	0.0165
722.2956	0.0147
722.4747	0.0146
722.6538	0.0165
722.8329	0.0148
723.012	0.0253
723.1911	0.0085
723.3702	0.0261
723.5492	0.021
723.7282	0.032
723.9072	0.0344
724.0862	0.0099
724.2652	0.0228
724.4441	-0.0149
724.623	0.0136
724.8019	0.0156
724.9808	0.0173
725.1597	0.0383
725.3385	0.0112
725.5174	0.0418
725.6962	0.0284
725.875	0.0043
726.0538	0.0055
726.2325	0.0294
726.4112	-0.0219
726.59	-0.016
726.7687	0.0083
726.9474	0.0249
727.126	0.0497
727.3047	-0.0129
727.4833	0.011
727.6619	0.0141
727.8405	0.033
728.0191	0.0318
728.1976	0.0169
728.3762	-0.0093
728.5547	0.0025
728.7332	0.0225
728.9116	0.0088
729.0901	0.0085
729.2686	0.0104
729.447	0.0171
729.6254	-0.0032
729.8038	-0.0115
729.9821	0.0047
730.1605	-0.0011
730.3388	-0.0032
730.5171	0.0183
730.6954	0.0032
730.8737	-0.0012
731.0519	0.0141
731.2302	0.0173
731.4084	0.014
731.5866	0.0093
731.7648	-0.0045
731.9429	0.021
732.1211	-0.0003
732.2992	-0.0069
732.4773	-0.002
732.6554	-0.0101
732.8335	0.0235
733.0115	0.0202
733.1896	-0.0101
733.3676	0.0186
733.5456	0.0134
733.7235	-0.0086
733.9015	0.0098
734.0794	0.0025
734.2574	-0.0286
734.4353	0.0279
734.6131	0.0095
734.791	0.0011
734.9689	-0.0099
735.1467	-0.0088
735.3245	0.0114
735.5023	0.0193
735.68	0.0149
735.8578	0.0305
736.0355	0.0129
736.2132	0.015
736.3909	0.0243
736.5686	-0.0022
736.7463	-0.0078
736.9239	0.036
737.1015	-0.0033
737.2791	0.0135
737.4567	0.0204
737.6343	0.0108
737.8118	0.0128
737.9894	0.0142
738.1669	0.01
738.3444	0.0281
738.5218	-0.0058
738.6993	0.0106
738.8767	0.0007
739.0541	0.0067
739.2315	0.0159
739.4089	0.0342
739.5863	0.0151
739.7636	-0.0113
739.9409	0.0129
740.1182	0.0128
740.2955	0.0347
740.4728	0.0004
740.65	-0.0033
740.8272	0.0174
741.0044	0.0052
741.1816	0.0142
741.3588	-0.0139
741.5359	-0.0001
741.7131	0.024
741.8902	-0.0087
742.0673	-0.0029
742.2444	0.0446
742.4214	0.0095
742.5985	0.0221
742.7755	-0.0074
742.9525	-0.0086
743.1295	-0.0144
743.3064	0.0048
743.4834	-0.0006
743.6603	0.0104
743.8372	-0.0263
744.0141	0.0439
744.191	0.022
744.3678	-0.0371
744.5446	-0.0041
744.7215	-0.0089
744.8982	0.0557
745.075	0.043
745.2518	-0.009
745.4285	0.0464
745.6052	-0.0244
745.7819	0.0359
745.9586	0.024
746.1353	0.0208
746.3119	0.008
746.4885	0.0332
746.6651	0.0175
746.8417	0.011
747.0183	0.0384
747.1948	-0.0086
747.3714	0.0162
747.5479	0.0055
747.7244	0.0249
747.9008	0.0072
748.0773	0.0469
748.2537	0.0476
748.4301	0.0497
748.6065	-0.0095
748.7829	-0.0291
748.9593	-0.0057
749.1356	0.0185
749.3119	0.0102
749.4882	0.0251
749.6645	0.0045
749.8408	0.0202
750.017	0.0061
750.1933	-0.0101
750.3695	0.0062
750.5457	0.0016
750.7218	0.0006
750.898	-0.0051
751.0741	0.0106
751.2502	0.014
751.4263	-0.0044
751.6024	-0.0033
751.7784	0.012
751.9545	0.0126
752.1305	0.0264
752.3065	0.0351
752.4825	0.0104
752.6584	0.0252
752.8344	-0.0205
753.0103	0.0032
753.1862	-0.001
753.3621	0.0055
753.5379	0.003
753.7138	0.0106
753.8896	0.0035
754.0654	0.0058
754.2412	0.0133
754.417	0.0363
754.5927	0.0226
754.7685	0.0118
754.9442	0.0132
755.1199	0.0183
755.2956	0.0114
755.4712	-0.01
755.6469	0.0063
755.8225	0.0155
755.9981	0.0255
756.1736	0.019
756.3492	0.0007
756.5248	0.0142
756.7003	0.0033
756.8758	0.0112
757.0513	0.005
757.2267	0.0232
757.4022	0.0151
757.5776	0.0214
757.753	0.0139
757.9284	0.0142
758.1038	0.0156
758.2791	0.0276
758.4545	-0.0333
758.6298	0.0037
758.8051	0.0152
758.9803	0.0169
759.1556	0.0059
759.3308	-0.0032
759.506	0.0019
759.6812	0.0021
759.8564	-0.0009
760.0316	-0.0143
760.2067	0.0235
760.3819	0.0065
760.557	-0.0009
760.732	0.0146
760.9071	0.032
761.0821	0.0098
761.2572	0.0238
761.4322	0.0044
761.6072	-0.0001
761.7821	-0.0192
761.9571	0.0212
762.132	0.0194
762.3069	0.026
762.4818	0.019
762.6567	0.0036
762.8316	0.0194
763.0064	0.0145
763.1812	0.0146
763.356	0.0063
763.5308	0.0288
763.7055	-0.0059
763.8803	-0.0014
764.055	0.0097
764.2297	0.0121
764.4044	0.0175
764.579	0.0009
764.7537	-0.0003
764.9283	0.0261
765.1029	-0.0003
765.2775	0.0312
765.4521	-0.0045
765.6266	0.0034
765.8011	0.0144
765.9756	0.0263
766.1501	-0.015
766.3246	0.0358
766.4991	0.0131
766.6735	0.0338
766.8479	0.0112
767.0223	-0.0151
767.1967	-0.0023
767.371	0.0109
767.5454	0.0595
767.7197	-0.0017
767.894	0.0089
768.0683	0.0255
768.2425	0.0099
768.4168	0.009
768.591	0.001
768.7652	-0.0094
768.9394	-0.013
769.1135	0.0034
769.2877	0.0062
769.4618	0.0512
769.6359	0.0156
769.81	0.0475
769.984	0.0207
770.1581	0.0266
770.3321	0.0207
770.5061	0.0028
770.6801	0.0353
770.8541	0.0083
771.028	0.0478
771.202	0.0301
771.3759	0.0221
771.5498	0.0046
771.7236	0.0062
771.8975	0.0465
772.0713	0.0307
772.2451	0.0098
772.4189	0.0163
772.5927	-0.0231
772.7665	0.0049
772.9402	0.0127
773.1139	0.0038
773.2876	-0.0309
773.4613	0.0171
773.635	0.0384
773.8086	0.0525
773.9822	0.0114
774.1558	0.0309
774.3294	0.0331
774.503	0.0139
774.6765	0.0123
774.8501	-0.0049
775.0236	0.0698
775.1971	-0.0099
775.3705	0.0125
775.544	-0.0261
775.7174	0.0182
775.8908	-0.0198
776.0642	0.0314
776.2376	0.0265
776.4109	0.0374
776.5843	0.0187
776.7576	0.0296
776.9309	0.0204
777.1041	-0.0351
777.2774	-0.0026
777.4506	-0.0001
777.6238	-0.0248
777.797	0.0127
777.9702	0.029
778.1434	-0.0038
778.3165	0.0024
778.4896	-0.0508
778.6627	0.0242
778.8358	-0.0041
779.0089	0.0158
779.1819	0.0219
779.3549	0.017
779.5279	-0.048
779.7009	0.0775
779.8739	0.071
780.0468	0.0099
780.2197	0.0432
780.3926	-0.0187
780.5655	0.0174
780.7384	-0.0037
780.9112	0.0376
781.0841	0.0018
781.2569	0.0178
781.4297	0.0124
781.6024	0.0359
781.7752	0.053
781.9479	0.0449
782.1206	0.0068
782.2933	0.025
782.466	0.0308
782.6386	-0.0415
782.8113	0.0069
782.9839	-0.0128
783.1565	-0.0179
783.329	0.0005
783.5016	0.0275
783.6741	-0.018
783.8466	0.046
784.0191	0.0047
784.1916	-0.0261
784.3641	-0.0531
784.5365	0.0314
784.7089	-0.0189
784.8813	0.0787
785.0537	0.0289
785.2261	0.025
785.3984	0.0247
785.5707	-0.0103
785.743	0.0175
785.9153	0.0073
786.0876	0.0201
786.2598	0.0284
786.432	-0.0133
786.6042	0.0637
786.7764	0.0055
786.9486	-0.0083
787.1207	0.015
787.2928	0.0402
787.4649	-0.0014
787.637	0.0425
787.8091	0.0112
787.9811	0.0185
788.1532	0.0062
788.3252	0.0081
788.4972	0.0021
788.6691	0.0246
788.8411	0.0109
789.013	0.0385
789.1849	0.03
789.3568	-0.0125
789.5287	0.0827
789.7005	-0.0205
789.8723	0.0547
790.0442	-0.0215
790.2159	0.0398
790.3877	0.0557
790.5595	0.1197
790.7312	0.013
790.9029	0.0092
791.0746	0.0231
791.2463	-0.0348
791.4179	0.0083
791.5896	-0.0194
791.7612	0.044
791.9328	0.0321
792.1044	-0.0309
792.2759	-0.01
792.4474	0.0152
792.619	-0.0169
792.7905	0.0113
792.9619	0.0656
793.1334	0.0834
793.3048	0.0569
793.4762	0.0241
793.6476	-0.0365
793.819	0.0019
793.9904	-0.0316
794.1617	0.0222
794.333	0.0286
794.5043	0.0302
794.6756	-0.0041
794.8469	0.0263
795.0181	0.0198
795.1893	-0.0026
795.3605	0.0375
795.5317	-0.0188
795.7029	0.0135
795.874	0.0179
796.0452	0.0504
796.2163	0.069
796.3873	0.0625
796.5584	0.0943
796.7294	0.0387
796.9005	-0.0017
797.0715	0.0141
797.2425	0.0739
797.4134	0.0549
797.5844	0.0306
797.7553	-0.0354
797.9262	0.0966
798.0971	0.048
798.2679	0.0096
798.4388	0.0588
798.6096	-0.0176
798.7804	0.0501
798.9512	0.0517
799.122	-0.0128
799.2927	0.1375
799.4635	-0.0017
799.6342	-0.0425
799.8049	0.0073
799.9755	0.0231
800.1462	0.0338
800.3168	0.0694
800.4874	-0.0579
800.658	0.0415
800.8286	-0.014
800.9991	0.1264
801.1696	-0.0392
801.3402	-0.0122
801.5106	-0.0128
801.6811	0.0015
801.8516	0.0633
802.022	-0.0187
802.1924	-0.0127
802.3628	0.1006
802.5332	0.1248
802.7035	0.0292
802.8739	-0.0446
803.0442	-0.0114
803.2145	0.0744
803.3847	0.0629
803.555	-0.0015
803.7252	0.0105
803.8954	-0.0782
804.0656	-0.0378
804.2358	0.1018
804.4059	-0.0079
804.5761	0.0497
804.7462	0.0173
804.9163	0.096
805.0864	0.0553
805.2564	-0.0133
805.4264	0.0131
805.5965	0.0765
805.7665	-0.0311
805.9364	0.0029
806.1064	0.0069
806.2763	0.0342
806.4462	0.0436
806.6161	0.047
806.786	-0.0282
806.9559	0.0374
807.1257	0.0503
807.2955	-0.0135
807.4653	-0.0223
807.6351	0.0557
807.8048	0.0164
807.9746	0.0214
808.1443	0.0135
808.314	0.0466
808.4837	0.0402
808.6533	0.0173
808.8229	0.0686
808.9926	-0.0029
809.1622	-0.0025
809.3317	-0.0744
809.5013	-0.0269
809.6708	0.0545
809.8403	0.0316
810.0098	0.0667
810.1793	-0.0287
810.3488	-0.0079
810.5182	0.1865
810.6876	0.0297
810.857	-0.0198
811.0264	-0.0296
811.1958	0.151
811.3651	0.1399
811.5344	0.0358
811.7037	-0.0711
811.873	0.0273
812.0422	-0.0923
812.2115	-0.0252
812.3807	-0.0319
812.5499	0.0022
812.7191	-0.097
812.8882	-0.0189
813.0574	0.0857
813.2265	-0.0268
813.3956	0.092
813.5646	0.0399
813.7337	-0.0396
813.9027	-0.0615
814.0718	0.0536
814.2407	0.0748
814.4097	0.0556
814.5787	0.094
814.7476	0.0899
814.9165	0.0494
815.0854	0.0805
815.2543	-0.0532
815.4232	0.0523
815.592	-0.0104
815.7608	-0.1289
815.9296	0.0023
816.0984	0.1246
816.2671	-0.2347
816.4359	0.149
816.6046	-0.0548
816.7733	-0.1144
816.942	-0.0762
817.1106	-0.0117
817.2793	-0.1249
817.4479	-0.0143
817.6165	0.0246
817.785	0.1362
817.9536	0.0021
818.1221	-0.0844
818.2906	-0.0882
818.4591	-0.0345
818.6276	-0.0423
818.7961	0.0394
818.9645	0.0451
819.1329	0.1081
819.3013	-0.0486
819.4697	-0.0893
819.638	0.271
819.8064	0.1842
819.9747	-0.0166
820.143	-0.1298
820.3113	0.2982
820.4795	0.0576
820.6477	0.0748
820.816	-0.0329
820.9842	0.1203
821.1523	0.0537
821.3205	-0.0064
821.4886	0.0017
821.6567	-0.0753
821.8248	0.1363
821.9929	-0.1249
822.1609	0.013
822.329	-0.0763
822.497	-0.0289
822.665	-0.0005
822.833	-0.0366
823.0009	0.2675
823.1688	0.4959
823.3367	0.0518
823.5046	0.0545
823.6725	-0.0321
823.8404	0.0089
824.0082	-0.0144
824.176	0.0877
824.3438	0.2601
824.5116	0.0801
824.6793	0.187
824.847	0.082
825.0147	0.1469
825.1824	0.1113
825.3501	0.2235
825.5177	0.0551
825.6854	-0.1856
825.853	0.0319
826.0206	0.185
826.1881	-0.0519
826.3557	0.056
826.5232	0.04
826.6907	0.1056
826.8582	0.1217
827.0257	0.2489
827.1931	0.0491
827.3605	-0.0931
827.528	-0.0499
827.6953	-0.1459
827.8627	0.0608
828.03	0.1331
828.1974	-0.039
828.3647	0.0542
828.532	0.0293
828.6992	0.0834
828.8665	-0.2094
829.0337	0.0684
829.2009	-0.1487
829.3681	-0.1217
829.5352	0.0816
829.7024	0.0452
829.8695	0.007
830.0366	0.0944
830.2037	0.1089
830.3707	0.012
830.5378	0.1338
830.7048	-0.1283
830.8718	-0.0721
831.0388	0.2062
831.2057	0.2384
831.3727	-0.2257
831.5396	0.0671
831.7065	-0.5475
831.8734	0.3547
832.0402	0.1257
832.2071	-0.5568
832.3739	0.2375
832.5407	-1.6614
832.7075	-0.0168
832.8742	-0
833.041	0.1295
833.2077	0.5938
833.3744	0.0795
833.541	0.0534
833.7077	0.3016
833.8743	-0.0368
834.0409	0.0774
834.2075	0.2025
834.3741	-0.1488
834.5407	0.0759
834.7072	-0.0568
834.8737	0.4565
835.0402	0.1111
835.2067	-0.0903
835.3731	-0.172
835.5395	0.1474
835.706	-0.1323
835.8723	0.2258
836.0387	0.3408
836.2051	0.1521
836.3714	0.2751
836.5377	-0.2012
836.704	0.204
836.8703	-0.2515
837.0365	0.1202
837.2027	0.2353
837.3689	0.3914
837.5351	0.0275
837.7013	-0.0661
837.8674	0.9766
838.0335	-0.006
838.1997	0.351
838.3657	-0
838.5318	-0.5882
838.6978	-0
838.8639	-0.1065
839.0299	0.2501
839.1958	0.018
839.3618	-0.0639
839.5277	-0.1021
839.6937	-0.1646
839.8596	-0.1752
840.0254	0.0427
840.1913	-0.5624
840.3571	-0.1719
840.523	-0
840.6888	0.1025
840.8545	-0.2635
841.0203	0.2807
841.186	0.0888
841.3517	0.0476
841.5174	0.1406
841.6831	0.5994
841.8488	0.0245
842.0144	0.2735
842.18	0.2968
842.3456	0.8568
842.5112	-0
842.6767	-0.1609
842.8422	0.442
843.0077	0.2881
843.1732	-0.2398
843.3387	0.196
843.5042	0.363
843.6696	0.2873
843.835	-0
844.0004	-0.2444
844.1657	-0
844.3311	-0.3226
844.4964	-0.2904
844.6617	-0
844.827	-0
844.9923	0.424
845.1575	0.0718
845.3227	-0.4565
845.4879	-0.3857
845.6531	0.0465
845.8183	0.0267
845.9834	-0
846.1485	0.1386
846.3136	-0.1712
846.4787	-0
846.6438	-0
846.8088	-0
846.9738	-0.0985
847.1388	0.0475
847.3038	0.1688
847.4687	0.5249
847.6337	-0.6164
847.7986	0.2882
847.9635	0.1651
848.1284	-0
848.2932	0.5762
848.458	-0
848.6228	-0
848.7876	-0
848.9524	-0.1162
849.1172	-1.9563
849.2819	-0
849.4466	0.2555
849.6113	0.3355
849.7759	-0.2425
849.9406	0.111
850.1052	-0.7894
850.2698	-0
850.4344	-0.4958
850.599	-0.2145
850.7635	0.6726
850.928	0.3017
851.0925	0.3918
851.257	-0.0022
851.4215	0.0268
851.5859	0.0275
851.7503	-0
851.9147	-0
852.0791	0.3665
852.2434	0.9341
852.4078	-0.2143
852.5721	-0
852.7364	0.2081
852.9007	0.096
853.0649	-0
853.2291	-0.0702
853.3934	0.7054
853.5575	0.4695
853.7217	0.1594
853.8859	-0.4771
854.05	0.2137
854.2141	0.2099
854.3782	-0.1203
854.5423	-0.5922
854.7063	0.0913
854.8703	0.3667
855.0343	0.3283
855.1983	0.1502
855.3623	-0.0337
855.5262	-0.1694
855.6901	0.444
855.854	0.3516
856.0179	-0
856.1818	-0
856.3456	0.1655
856.5094	-0.3155
856.6732	-0.5468
856.837	-1.2288
857.0008	0.257
857.1645	0.8526
857.3282	-0.6406
857.4919	0.5209
857.6556	-0
857.8192	-0.1487
857.9828	0.0211
858.1465	-0.1247
858.31	0.2
858.4736	-0.6081
858.6372	-0.3078
858.8007	-0.0605
858.9642	0.4352
859.1277	0.4654
859.2911	-0.3606
859.4546	-0
859.618	0.6235
859.7814	-0.3577
859.9448	-0
860.1081	0.1615
860.2715	-1.6773
860.4348	-0.3864
860.5981	-0
860.7614	-0
860.9246	0.2531
861.0879	0.2294
861.2511	-0
861.4143	-0.5628
861.5774	0.1176
861.7406	0.8948
861.9037	-0.8601
862.0668	-0.7145
862.2299	0.1187
862.393	-0
862.556	-0
862.7191	-0.2181
862.8821	0.306
863.0451	1.1357
863.208	-0
863.371	-0.1719
863.5339	0.1833
863.6968	-0
863.8597	-0
864.0225	-0.2398
864.1854	-0
864.3482	-0.8608
864.511	-0.1554
864.6737	-0.0832
864.8365	0.0747
864.9992	1.4385
865.1619	-0.3483
865.3246	-1.9741
865.4873	-0
865.65	-0
865.8126	-0
865.9752	-0.2195
866.1378	0.1439
866.3004	-0.154
866.4629	-1.7219
866.6254	-0
866.7879	-0.3469
866.9504	0.1574
867.1129	0.9208
867.2753	-0.1409
867.4377	-0
867.6001	-0.126
867.7625	0.4002
867.9249	0.2483
868.0872	0.2321
868.2495	-0
868.4118	-0
868.5741	-0
868.7363	-0.0948
868.8986	-0.5556
869.0608	-0.5406
869.223	-0.4203
869.3851	-0.3911
869.5473	0.2454
869.7094	-0
869.8715	-0
870.0336	0.3356
870.1957	-0.0948
870.3577	0.0482
870.5197	0.0712
870.6817	-1.0125
870.8437	-0.2087
871.0057	0.0211
871.1676	0.2011
871.3295	-0
871.4914	-0
871.6533	-0.3385
871.8151	0.622
871.977	0.0544
872.1388	0.0946
872.3006	-0.4771
872.4623	-0.7468
872.6241	-0
872.7858	0.0582
872.9475	-0
873.1092	0.1311
873.2709	0.3671
873.4325	-2.0031
873.5941	-0
873.7557	0.7114
873.9173	1.0317
874.0789	0.599
874.2404	-0
874.4019	0.0305
874.5634	-0
874.7249	0.529
874.8863	-0
875.0478	-0.4253
875.2092	1.3878
875.3706	0.4658
875.5319	0.3558
875.6933	-0
875.8546	-0
876.0159	0.4571
876.1772	-0
876.3385	0.7916
876.4997	-0.2695
876.6609	0.2343
876.8221	-0
876.9833	-0.0848
877.1445	0.4128
877.3056	-1.3854
877.4667	-0.1866
877.6278	-0
877.7889	-0.093
877.9499	0.289
878.111	-0.4244
878.272	-0.266
878.433	-0.0547
878.5939	-0.2791
878.7549	0.0946
878.9158	-0
879.0767	-0.2563
879.2376	1.2247
879.3984	0.3742
879.5593	0.8048
879.7201	-1.7624
879.8809	-0.1178
880.0417	-0.2594
880.2024	-0.0365
880.3632	-0.4771
880.5239	0.2754
880.6846	-0
880.8452	-0.2104
881.0059	-0.2645
881.1665	0.5075
881.3271	0.5126
881.4877	0.0445
881.6483	-0.5689
881.8088	-0
881.9693	-0
882.1298	-0
882.2903	-0
