Data from D4ACN5uM420nmA_Absorbance_14-37-10-196.txt Node
Date: Fri Feb 21 14:37:10 GMT 2025
User: LASERRRRR
Spectrometer: FLMT03099
Trigger mode: 0
Integration Time (sec): 1.500000E-2
Scans to average: 1
Electric dark correction enabled: true
Nonlinearity correction enabled: false
Boxcar width: 0
XAxis mode: Wavelengths
Number of Pixels in Spectrum: 3648
>>>>>Begin Spectral Data<<<<<
179.3399	-0.4008
179.5586	-0.4008
179.7771	-0.4008
179.9957	-0.0596
180.2143	-0
180.4329	-0
180.6514	-1.0661
180.8699	-0
181.0885	-0
181.307	-0.0662
181.5255	-0.021
181.744	-0
181.9625	-0
182.181	-0
182.3994	0.9899
182.6179	0.0237
182.8363	-0
183.0547	1.0892
183.2732	0.2438
183.4916	0.1665
183.71	0.0983
183.9284	0.1337
184.1467	0.1875
184.3651	-0.0542
184.5835	0.1222
184.8018	0.1932
185.0201	0.1681
185.2385	0.3275
185.4568	0.0801
185.6751	0.0603
185.8934	0.2419
186.1117	0.1535
186.3299	0.176
186.5482	0.2402
186.7664	0.0106
186.9847	0.0023
187.2029	0.2323
187.4211	0.0645
187.6393	0.1856
187.8575	0.0795
188.0757	0.2576
188.2939	0.1066
188.512	0.5084
188.7302	0.102
188.9483	0.3908
189.1665	0.6028
189.3846	0.0984
189.6027	0.2395
189.8208	0.3257
190.0389	0.2306
190.257	0.1728
190.475	0.0177
190.6931	0.2659
190.9111	0.2085
191.1292	0.0886
191.3472	0.169
191.5652	0.4129
191.7832	0.2578
192.0012	0.0385
192.2192	0.1105
192.4371	0.1619
192.6551	0.1393
192.873	0.157
193.091	0.1412
193.3089	0.1951
193.5268	0.2798
193.7447	0.1692
193.9626	0.1492
194.1805	0.2527
194.3984	0.2615
194.6162	0.1934
194.8341	0.2989
195.0519	0.2176
195.2697	0.2604
195.4875	0.2913
195.7054	0.264
195.9231	0.248
196.1409	0.3384
196.3587	0.2438
196.5765	0.3789
196.7942	0.2494
197.012	0.313
197.2297	0.343
197.4474	0.4099
197.6651	0.3111
197.8828	0.2986
198.1005	0.4073
198.3182	0.363
198.5358	0.3953
198.7535	0.3687
198.9711	0.3605
199.1888	0.3033
199.4064	0.3512
199.624	0.3658
199.8416	0.3459
200.0592	0.3665
200.2767	0.3585
200.4943	0.3645
200.7119	0.3637
200.9294	0.4211
201.1469	0.4346
201.3645	0.4506
201.582	0.3733
201.7995	0.412
202.017	0.4286
202.2344	0.415
202.4519	0.403
202.6694	0.4075
202.8868	0.4375
203.1042	0.4028
203.3217	0.394
203.5391	0.4
203.7565	0.3728
203.9739	0.3529
204.1913	0.39
204.4086	0.3914
204.626	0.3495
204.8433	0.3466
205.0607	0.3565
205.278	0.3591
205.4953	0.3418
205.7126	0.3303
205.9299	0.3414
206.1472	0.3161
206.3644	0.3609
206.5817	0.3037
206.7989	0.3467
207.0162	0.3303
207.2334	0.3317
207.4506	0.2978
207.6678	0.2917
207.885	0.2817
208.1022	0.3116
208.3194	0.2814
208.5365	0.2765
208.7537	0.2843
208.9708	0.3197
209.1879	0.2869
209.405	0.2732
209.6222	0.2613
209.8392	0.298
210.0563	0.2802
210.2734	0.2549
210.4905	0.2537
210.7075	0.2742
210.9245	0.2664
211.1416	0.266
211.3586	0.2554
211.5756	0.2445
211.7926	0.2496
212.0096	0.2507
212.2265	0.2607
212.4435	0.2339
212.6604	0.2625
212.8774	0.2264
213.0943	0.2408
213.3112	0.2323
213.5281	0.2433
213.745	0.2494
213.9619	0.2229
214.1788	0.2504
214.3956	0.2486
214.6125	0.2341
214.8293	0.2399
215.0461	0.2404
215.2629	0.2463
215.4798	0.2233
215.6965	0.2319
215.9133	0.2344
216.1301	0.2198
216.3469	0.2357
216.5636	0.2353
216.7803	0.2222
216.9971	0.2395
217.2138	0.2472
217.4305	0.2265
217.6472	0.2224
217.8639	0.2478
218.0805	0.2428
218.2972	0.229
218.5138	0.2329
218.7305	0.2469
218.9471	0.2341
219.1637	0.2434
219.3803	0.2491
219.5969	0.2377
219.8135	0.2483
220.0301	0.2489
220.2466	0.2521
220.4632	0.2314
220.6797	0.262
220.8962	0.2535
221.1127	0.2582
221.3292	0.2454
221.5457	0.266
221.7622	0.2614
221.9787	0.279
222.1951	0.2671
222.4116	0.2649
222.628	0.2823
222.8444	0.2765
223.0608	0.2583
223.2772	0.2697
223.4936	0.271
223.71	0.2765
223.9264	0.2684
224.1427	0.2843
224.3591	0.2837
224.5754	0.2854
224.7917	0.2826
225.008	0.3011
225.2243	0.295
225.4406	0.2857
225.6569	0.2955
225.8732	0.3065
226.0894	0.2983
226.3057	0.3089
226.5219	0.3107
226.7381	0.3115
226.9543	0.3011
227.1705	0.3103
227.3867	0.3256
227.6029	0.323
227.8191	0.3316
228.0352	0.3357
228.2513	0.3426
228.4675	0.3393
228.6836	0.3492
228.8997	0.3456
229.1158	0.3527
229.3319	0.3502
229.548	0.3547
229.764	0.3459
229.9801	0.3601
230.1961	0.3722
230.4121	0.3672
230.6282	0.3868
230.8442	0.3861
231.0602	0.3846
231.2761	0.386
231.4921	0.3912
231.7081	0.3993
231.924	0.4095
232.14	0.3971
232.3559	0.411
232.5718	0.4206
232.7877	0.4055
233.0036	0.4008
233.2195	0.4099
233.4353	0.435
233.6512	0.4181
233.867	0.4295
234.0829	0.4308
234.2987	0.4311
234.5145	0.4383
234.7303	0.4408
234.9461	0.4347
235.1619	0.4523
235.3776	0.4295
235.5934	0.4368
235.8091	0.4444
236.0249	0.4442
236.2406	0.4327
236.4563	0.4484
236.672	0.4403
236.8877	0.4534
237.1034	0.4491
237.319	0.453
237.5347	0.4502
237.7503	0.4543
237.966	0.4648
238.1816	0.4502
238.3972	0.4593
238.6128	0.4577
238.8284	0.4672
239.0439	0.4591
239.2595	0.4674
239.475	0.4612
239.6906	0.4596
239.9061	0.4572
240.1216	0.4642
240.3371	0.4653
240.5526	0.4667
240.7681	0.4625
240.9836	0.4639
241.199	0.4628
241.4145	0.456
241.6299	0.4528
241.8453	0.4463
242.0607	0.4457
242.2761	0.4428
242.4915	0.4367
242.7069	0.4284
242.9223	0.4282
243.1376	0.4192
243.353	0.4239
243.5683	0.4192
243.7836	0.4088
243.9989	0.4034
244.2142	0.3938
244.4295	0.386
244.6448	0.3813
244.86	0.3794
245.0753	0.3691
245.2905	0.3628
245.5057	0.3429
245.721	0.353
245.9362	0.3394
246.1514	0.3398
246.3665	0.3334
246.5817	0.3204
246.7969	0.309
247.012	0.3117
247.2271	0.3089
247.4423	0.2909
247.6574	0.2975
247.8725	0.283
248.0876	0.2811
248.3026	0.2849
248.5177	0.2657
248.7328	0.2619
248.9478	0.2682
249.1628	0.2621
249.3779	0.2442
249.5929	0.2439
249.8079	0.2433
250.0228	0.2338
250.2378	0.2368
250.4528	0.2348
250.6677	0.2319
250.8827	0.224
251.0976	0.2215
251.3125	0.2235
251.5274	0.2174
251.7423	0.211
251.9572	0.2136
252.172	0.2063
252.3869	0.2105
252.6017	0.2079
252.8166	0.2036
253.0314	0.2048
253.2462	0.2013
253.461	0.1951
253.6758	0.1991
253.8906	0.1956
254.1053	0.1967
254.3201	0.1931
254.5348	0.1938
254.7496	0.1864
254.9643	0.1961
255.179	0.1886
255.3937	0.1946
255.6083	0.1973
255.823	0.187
256.0377	0.1938
256.2523	0.1828
256.467	0.1861
256.6816	0.181
256.8962	0.1915
257.1108	0.1841
257.3254	0.1843
257.54	0.1786
257.7545	0.1828
257.9691	0.186
258.1836	0.1806
258.3981	0.1782
258.6127	0.178
258.8272	0.1808
259.0417	0.1804
259.2561	0.1846
259.4706	0.1791
259.6851	0.1836
259.8995	0.1837
260.114	0.1804
260.3284	0.1777
260.5428	0.1831
260.7572	0.1856
260.9716	0.1801
261.186	0.1897
261.4003	0.179
261.6147	0.1852
261.829	0.1846
262.0433	0.1867
262.2577	0.1889
262.472	0.1914
262.6863	0.1919
262.9005	0.1843
263.1148	0.1902
263.3291	0.1885
263.5433	0.1924
263.7576	0.1923
263.9718	0.1952
264.186	0.1918
264.4002	0.1906
264.6144	0.2016
264.8286	0.2005
265.0427	0.1995
265.2569	0.2004
265.471	0.1925
265.6851	0.2053
265.8993	0.1983
266.1134	0.1987
266.3275	0.2027
266.5415	0.2006
266.7556	0.2055
266.9697	0.2009
267.1837	0.2038
267.3978	0.2019
267.6118	0.1975
267.8258	0.2031
268.0398	0.2103
268.2538	0.2033
268.4677	0.1953
268.6817	0.2005
268.8957	0.1949
269.1096	0.1907
269.3235	0.2011
269.5374	0.1995
269.7514	0.1987
269.9652	0.2014
270.1791	0.1957
270.393	0.1983
270.6068	0.1968
270.8207	0.1918
271.0345	0.1935
271.2483	0.1939
271.4622	0.1987
271.676	0.1927
271.8897	0.1927
272.1035	0.1998
272.3173	0.2008
272.531	0.2002
272.7448	0.2042
272.9585	0.1961
273.1722	0.1967
273.3859	0.2
273.5996	0.1997
273.8133	0.2059
274.0269	0.2028
274.2406	0.2032
274.4542	0.2044
274.6679	0.2129
274.8815	0.2123
275.0951	0.2143
275.3087	0.2156
275.5223	0.2097
275.7358	0.2158
275.9494	0.2148
276.1629	0.2172
276.3765	0.2184
276.59	0.2172
276.8035	0.2157
277.017	0.2168
277.2305	0.2213
277.444	0.2269
277.6574	0.2253
277.8709	0.2234
278.0843	0.2245
278.2978	0.2236
278.5112	0.2213
278.7246	0.2188
278.938	0.2223
279.1513	0.2175
279.3647	0.2223
279.5781	0.2169
279.7914	0.2159
280.0047	0.2178
280.2181	0.2084
280.4314	0.2099
280.6447	0.2081
280.8579	0.2076
281.0712	0.2012
281.2845	0.2056
281.4977	0.207
281.711	0.1998
281.9242	0.201
282.1374	0.2062
282.3506	0.2012
282.5638	0.1995
282.7769	0.1907
282.9901	0.203
283.2033	0.1916
283.4164	0.1958
283.6295	0.1958
283.8426	0.195
284.0557	0.201
284.2688	0.199
284.4819	0.1909
284.695	0.1929
284.908	0.1943
285.1211	0.1969
285.3341	0.1907
285.5471	0.1935
285.7601	0.1873
285.9731	0.1985
286.1861	0.1932
286.3991	0.1902
286.612	0.1879
286.825	0.1933
287.0379	0.1907
287.2508	0.1888
287.4637	0.1873
287.6766	0.1856
287.8895	0.1831
288.1024	0.1947
288.3152	0.1903
288.5281	0.1825
288.7409	0.182
288.9538	0.1837
289.1666	0.1819
289.3794	0.1842
289.5922	0.1832
289.8049	0.1832
290.0177	0.1858
290.2304	0.1809
290.4432	0.1915
290.6559	0.1838
290.8686	0.1844
291.0813	0.1797
291.294	0.1861
291.5067	0.186
291.7194	0.1882
291.932	0.1775
292.1447	0.1848
292.3573	0.1849
292.5699	0.1859
292.7825	0.184
292.9951	0.1846
293.2077	0.1798
293.4203	0.1802
293.6328	0.1827
293.8454	0.1865
294.0579	0.1838
294.2704	0.191
294.4829	0.1815
294.6954	0.1854
294.9079	0.1792
295.1204	0.1803
295.3328	0.1859
295.5453	0.1837
295.7577	0.1828
295.9701	0.1856
296.1825	0.1826
296.3949	0.1746
296.6073	0.1847
296.8197	0.1824
297.0321	0.185
297.2444	0.1734
297.4567	0.1846
297.6691	0.183
297.8814	0.1804
298.0937	0.1802
298.306	0.183
298.5182	0.1857
298.7305	0.1799
298.9428	0.1786
299.155	0.1759
299.3672	0.1794
299.5794	0.1892
299.7916	0.1839
300.0038	0.1829
300.216	0.1796
300.4282	0.184
300.6403	0.1894
300.8525	0.1825
301.0646	0.1835
301.2767	0.1852
301.4888	0.1871
301.7009	0.1859
301.913	0.1777
302.125	0.1812
302.3371	0.1858
302.5491	0.1875
302.7612	0.1916
302.9732	0.1889
303.1852	0.189
303.3972	0.1863
303.6092	0.1828
303.8211	0.1832
304.0331	0.1855
304.245	0.1857
304.457	0.1832
304.6689	0.1796
304.8808	0.176
305.0927	0.1909
305.3046	0.181
305.5164	0.1777
305.7283	0.1801
305.9401	0.1737
306.152	0.178
306.3638	0.1743
306.5756	0.181
306.7874	0.1737
306.9992	0.1718
307.2109	0.1698
307.4227	0.1739
307.6344	0.1726
307.8462	0.1673
308.0579	0.1761
308.2696	0.168
308.4813	0.1718
308.693	0.1685
308.9046	0.1707
309.1163	0.1658
309.328	0.1752
309.5396	0.1602
309.7512	0.157
309.9628	0.1657
310.1744	0.16
310.386	0.1568
310.5976	0.1535
310.8091	0.1547
311.0207	0.1587
311.2322	0.1527
311.4437	0.1568
311.6552	0.1546
311.8667	0.1579
312.0782	0.1561
312.2897	0.1584
312.5012	0.1516
312.7126	0.1492
312.924	0.1532
313.1355	0.1513
313.3469	0.1498
313.5583	0.1539
313.7696	0.1528
313.981	0.156
314.1924	0.148
314.4037	0.1532
314.6151	0.1521
314.8264	0.1569
315.0377	0.1429
315.249	0.1501
315.4603	0.1481
315.6716	0.1528
315.8828	0.1546
316.0941	0.15
316.3053	0.1528
316.5165	0.1513
316.7277	0.1453
316.9389	0.1481
317.1501	0.146
317.3613	0.1473
317.5724	0.1512
317.7836	0.1396
317.9947	0.1444
318.2058	0.1489
318.417	0.1459
318.6281	0.1392
318.8391	0.1477
319.0502	0.1435
319.2613	0.1476
319.4723	0.1493
319.6834	0.1516
319.8944	0.1447
320.1054	0.1436
320.3164	0.1433
320.5274	0.1468
320.7383	0.1427
320.9493	0.1514
321.1602	0.1465
321.3712	0.14
321.5821	0.1449
321.793	0.1493
322.0039	0.142
322.2148	0.1428
322.4257	0.1412
322.6365	0.1467
322.8474	0.1407
323.0582	0.1482
323.269	0.1448
323.4798	0.1514
323.6906	0.1446
323.9014	0.1458
324.1122	0.1409
324.3229	0.1518
324.5337	0.1473
324.7444	0.1491
324.9551	0.1504
325.1658	0.1482
325.3765	0.1535
325.5872	0.1524
325.7979	0.1503
326.0085	0.1565
326.2192	0.1511
326.4298	0.1573
326.6404	0.1588
326.851	0.1523
327.0616	0.1542
327.2722	0.1585
327.4828	0.1565
327.6933	0.1633
327.9039	0.1618
328.1144	0.1631
328.3249	0.1666
328.5354	0.1546
328.7459	0.1622
328.9564	0.1573
329.1669	0.1651
329.3773	0.1664
329.5878	0.159
329.7982	0.1645
330.0086	0.1665
330.219	0.1602
330.4294	0.1631
330.6398	0.1667
330.8502	0.17
331.0605	0.1644
331.2708	0.166
331.4812	0.1719
331.6915	0.1701
331.9018	0.1646
332.1121	0.1718
332.3224	0.1642
332.5326	0.1664
332.7429	0.1643
332.9531	0.1691
333.1633	0.1674
333.3735	0.1645
333.5837	0.1644
333.7939	0.1639
334.0041	0.173
334.2143	0.1678
334.4244	0.1696
334.6346	0.1615
334.8447	0.1653
335.0548	0.167
335.2649	0.1685
335.475	0.1651
335.685	0.1678
335.8951	0.1627
336.1051	0.1617
336.3152	0.1641
336.5252	0.159
336.7352	0.1589
336.9452	0.1636
337.1552	0.1569
337.3652	0.1615
337.5751	0.1601
337.7851	0.1605
337.995	0.1618
338.2049	0.1633
338.4148	0.1594
338.6247	0.1583
338.8346	0.1626
339.0445	0.1586
339.2543	0.1597
339.4642	0.1621
339.674	0.1595
339.8838	0.161
340.0936	0.1641
340.3034	0.158
340.5132	0.1594
340.7229	0.1599
340.9327	0.1675
341.1424	0.1613
341.3522	0.1625
341.5619	0.163
341.7716	0.1691
341.9813	0.1721
342.1909	0.1692
342.4006	0.1688
342.6102	0.1725
342.8199	0.1724
343.0295	0.1684
343.2391	0.1765
343.4487	0.1743
343.6583	0.1808
343.8679	0.1719
344.0774	0.1725
344.287	0.1696
344.4965	0.1787
344.706	0.1795
344.9155	0.1752
345.125	0.1715
345.3345	0.1833
345.544	0.1777
345.7534	0.1822
345.9629	0.1822
346.1723	0.1822
346.3817	0.186
346.5911	0.194
346.8005	0.1929
347.0099	0.1883
347.2193	0.1908
347.4286	0.1999
347.638	0.194
347.8473	0.1961
348.0566	0.1923
348.2659	0.192
348.4752	0.1952
348.6845	0.1959
348.8937	0.1926
349.103	0.192
349.3122	0.1984
349.5214	0.1992
349.7306	0.2032
349.9398	0.1977
350.149	0.1891
350.3582	0.2028
350.5674	0.1992
350.7765	0.1978
350.9856	0.1956
351.1948	0.196
351.4039	0.2013
351.613	0.1903
351.822	0.2018
352.0311	0.2004
352.2402	0.1926
352.4492	0.1934
352.6582	0.1956
352.8672	0.1953
353.0762	0.1941
353.2852	0.1959
353.4942	0.197
353.7032	0.1858
353.9121	0.1858
354.1211	0.193
354.33	0.1933
354.5389	0.1836
354.7478	0.1905
354.9567	0.188
355.1655	0.1857
355.3744	0.1887
355.5833	0.1867
355.7921	0.1879
356.0009	0.1909
356.2097	0.1804
356.4185	0.1805
356.6273	0.1829
356.8361	0.1812
357.0448	0.1827
357.2536	0.1868
357.4623	0.1833
357.671	0.1939
357.8797	0.1914
358.0884	0.1893
358.2971	0.1849
358.5057	0.1868
358.7144	0.1909
358.923	0.1877
359.1316	0.1922
359.3402	0.1897
359.5488	0.1834
359.7574	0.1956
359.966	0.1929
360.1746	0.1826
360.3831	0.1891
360.5916	0.1874
360.8002	0.1977
361.0087	0.1834
361.2172	0.195
361.4256	0.1911
361.6341	0.1836
361.8426	0.1938
362.051	0.1935
362.2594	0.1958
362.4678	0.1953
362.6762	0.2003
362.8846	0.1956
363.093	0.1943
363.3014	0.1969
363.5097	0.196
363.718	0.2014
363.9264	0.2021
364.1347	0.1984
364.343	0.1958
364.5513	0.1959
364.7595	0.2054
364.9678	0.1927
365.176	0.2088
365.3842	0.2082
365.5925	0.1978
365.8007	0.1979
366.0089	0.2006
366.217	0.1978
366.4252	0.2019
366.6333	0.2083
366.8415	0.2085
367.0496	0.2005
367.2577	0.2012
367.4658	0.1979
367.6739	0.2001
367.882	0.2112
368.09	0.2033
368.2981	0.2098
368.5061	0.2099
368.7141	0.2029
368.9221	0.2125
369.1301	0.2071
369.3381	0.2168
369.5461	0.217
369.754	0.212
369.962	0.2089
370.1699	0.2129
370.3778	0.2237
370.5857	0.2124
370.7936	0.2166
371.0015	0.2143
371.2093	0.2125
371.4172	0.2104
371.625	0.2173
371.8328	0.2078
372.0406	0.2261
372.2484	0.2187
372.4562	0.2233
372.664	0.2202
372.8717	0.2132
373.0795	0.223
373.2872	0.2254
373.4949	0.2183
373.7026	0.2264
373.9103	0.2139
374.118	0.2194
374.3256	0.2285
374.5333	0.223
374.7409	0.2275
374.9485	0.2206
375.1561	0.2246
375.3637	0.2232
375.5713	0.2276
375.7789	0.2199
375.9864	0.2231
376.194	0.2344
376.4015	0.2337
376.609	0.2316
376.8165	0.2259
377.024	0.2371
377.2315	0.2367
377.4389	0.2232
377.6464	0.2382
377.8538	0.2286
378.0612	0.2288
378.2686	0.2322
378.476	0.2373
378.6834	0.2331
378.8908	0.2342
379.0981	0.2325
379.3055	0.2295
379.5128	0.2303
379.7201	0.236
379.9274	0.2416
380.1347	0.2318
380.342	0.2372
380.5492	0.2366
380.7565	0.2357
380.9637	0.2392
381.1709	0.2375
381.3781	0.2449
381.5853	0.2318
381.7925	0.249
381.9997	0.2392
382.2068	0.2367
382.4139	0.2446
382.6211	0.2432
382.8282	0.2389
383.0353	0.2479
383.2424	0.229
383.4494	0.2377
383.6565	0.243
383.8635	0.243
384.0706	0.2503
384.2776	0.2397
384.4846	0.243
384.6916	0.2425
384.8986	0.2548
385.1055	0.2496
385.3125	0.2464
385.5194	0.2527
385.7263	0.2478
385.9333	0.2414
386.1402	0.242
386.347	0.244
386.5539	0.2458
386.7608	0.2369
386.9676	0.2427
387.1744	0.2399
387.3813	0.2418
387.5881	0.238
387.7948	0.2448
388.0016	0.2485
388.2084	0.2368
388.4151	0.2474
388.6219	0.2405
388.8286	0.2408
389.0353	0.2512
389.242	0.2491
389.4487	0.232
389.6553	0.2306
389.862	0.2242
390.0686	0.2375
390.2753	0.2355
390.4819	0.2373
390.6885	0.2255
390.8951	0.2316
391.1016	0.2414
391.3082	0.2431
391.5147	0.2349
391.7213	0.2257
391.9278	0.2313
392.1343	0.2372
392.3408	0.2278
392.5473	0.2322
392.7537	0.2251
392.9602	0.2268
393.1666	0.2327
393.373	0.2213
393.5794	0.224
393.7858	0.2256
393.9922	0.2271
394.1986	0.226
394.4049	0.2176
394.6113	0.226
394.8176	0.2164
395.0239	0.2161
395.2302	0.2142
395.4365	0.215
395.6428	0.2133
395.8491	0.2161
396.0553	0.2097
396.2615	0.2161
396.4678	0.2103
396.674	0.209
396.8802	0.2163
397.0863	0.2045
397.2925	0.2087
397.4987	0.2074
397.7048	0.2139
397.9109	0.205
398.117	0.2021
398.3231	0.2076
398.5292	0.2044
398.7353	0.2055
398.9413	0.203
399.1474	0.2055
399.3534	0.2014
399.5594	0.2006
399.7654	0.2029
399.9714	0.209
400.1774	0.201
400.3833	0.2091
400.5893	0.2059
400.7952	0.2145
401.0011	0.2043
401.207	0.2058
401.4129	0.2017
401.6188	0.2009
401.8247	0.2121
402.0305	0.2079
402.2364	0.2023
402.4422	0.202
402.648	0.2079
402.8538	0.2033
403.0596	0.1906
403.2654	0.2061
403.4711	0.2005
403.6768	0.2012
403.8826	0.2056
404.0883	0.2066
404.294	0.204
404.4997	0.2056
404.7054	0.2096
404.911	0.203
405.1167	0.2032
405.3223	0.1978
405.5279	0.2035
405.7335	0.2026
405.9391	0.1972
406.1447	0.2076
406.3502	0.1939
406.5558	0.1934
406.7613	0.2039
406.9668	0.1976
407.1724	0.2008
407.3778	0.2046
407.5833	0.1896
407.7888	0.2043
407.9942	0.1989
408.1997	0.1951
408.4051	0.2029
408.6105	0.2077
408.8159	0.1994
409.0213	0.2043
409.2267	0.2048
409.432	0.2058
409.6374	0.2008
409.8427	0.209
410.048	0.2045
410.2533	0.1909
410.4586	0.2009
410.6639	0.2064
410.8691	0.1867
411.0744	0.197
411.2796	0.2033
411.4848	0.1991
411.69	0.1964
411.8952	0.2005
412.1004	0.1989
412.3056	0.1928
412.5107	0.1964
412.7158	0.2076
412.921	0.1939
413.1261	0.1996
413.3312	0.2081
413.5362	0.2048
413.7413	0.196
413.9464	0.1889
414.1514	0.2055
414.3564	0.1882
414.5614	0.1989
414.7664	0.1916
414.9714	0.1906
415.1764	0.1978
415.3813	0.205
415.5863	0.1931
415.7912	0.1876
415.9961	0.201
416.201	0.1994
416.4059	0.2058
416.6108	0.2007
416.8156	0.1986
417.0205	0.1928
417.2253	0.1926
417.4301	0.1892
417.6349	0.1893
417.8397	0.1936
418.0445	0.1841
418.2492	0.1954
418.454	0.1908
418.6587	0.1921
418.8634	0.1823
419.0681	0.1961
419.2728	0.1983
419.4775	0.1992
419.6822	0.1822
419.8868	0.1919
420.0915	0.1755
420.2961	0.1748
420.5007	0.188
420.7053	0.18
420.9099	0.1906
421.1144	0.1855
421.319	0.1748
421.5235	0.1782
421.728	0.1864
421.9325	0.1849
422.137	0.1816
422.3415	0.1775
422.546	0.175
422.7504	0.1776
422.9549	0.1888
423.1593	0.1724
423.3637	0.1835
423.5681	0.1855
423.7725	0.1678
423.9769	0.1747
424.1812	0.166
424.3856	0.1693
424.5899	0.171
424.7942	0.1737
424.9985	0.1642
425.2028	0.1771
425.4071	0.1766
425.6113	0.175
425.8156	0.1692
426.0198	0.1642
426.224	0.1663
426.4282	0.1608
426.6324	0.1642
426.8366	0.1614
427.0407	0.1637
427.2449	0.1695
427.449	0.1559
427.6531	0.1676
427.8572	0.1622
428.0613	0.1634
428.2654	0.1638
428.4694	0.1505
428.6735	0.1467
428.8775	0.1458
429.0815	0.1506
429.2855	0.1591
429.4895	0.1541
429.6935	0.1525
429.8975	0.1467
430.1014	0.1503
430.3053	0.1577
430.5093	0.1432
430.7132	0.1449
430.9171	0.1402
431.1209	0.1526
431.3248	0.1354
431.5286	0.1399
431.7325	0.1452
431.9363	0.1336
432.1401	0.1366
432.3439	0.1366
432.5477	0.1334
432.7514	0.1368
432.9552	0.1322
433.1589	0.1352
433.3627	0.1361
433.5664	0.1195
433.7701	0.1321
433.9737	0.1335
434.1774	0.1358
434.3811	0.116
434.5847	0.1199
434.7883	0.1253
434.9919	0.1172
435.1955	0.118
435.3991	0.1249
435.6027	0.115
435.8062	0.1257
436.0098	0.1093
436.2133	0.1172
436.4168	0.1182
436.6203	0.1011
436.8238	0.1081
437.0272	0.1128
437.2307	0.1008
437.4341	0.1114
437.6375	0.1085
437.841	0.0994
438.0443	0.1032
438.2477	0.0963
438.4511	0.0978
438.6545	0.1004
438.8578	0.0974
439.0611	0.1015
439.2644	0.0957
439.4677	0.098
439.671	0.0857
439.8743	0.0964
440.0775	0.0915
440.2808	0.0863
440.484	0.0915
440.6872	0.0893
440.8904	0.0754
441.0936	0.0775
441.2967	0.0749
441.4999	0.0741
441.703	0.0767
441.9062	0.0738
442.1093	0.0839
442.3124	0.0779
442.5155	0.0784
442.7185	0.0644
442.9216	0.0762
443.1246	0.0695
443.3276	0.0681
443.5307	0.0721
443.7337	0.0724
443.9366	0.0655
444.1396	0.0625
444.3426	0.0639
444.5455	0.0669
444.7484	0.0623
444.9513	0.0551
445.1542	0.0635
445.3571	0.0621
445.56	0.0545
445.7628	0.0565
445.9657	0.0594
446.1685	0.0658
446.3713	0.0614
446.5741	0.0569
446.7769	0.0592
446.9797	0.0621
447.1824	0.052
447.3852	0.0462
447.5879	0.0553
447.7906	0.0436
447.9933	0.0517
448.196	0.0486
448.3986	0.0473
448.6013	0.0394
448.8039	0.0492
449.0066	0.0559
449.2092	0.051
449.4118	0.0491
449.6143	0.0443
449.8169	0.0373
450.0195	0.042
450.222	0.0448
450.4245	0.0529
450.627	0.0463
450.8295	0.0449
451.032	0.0395
451.2345	0.032
451.4369	0.0448
451.6394	0.0381
451.8418	0.0334
452.0442	0.0391
452.2466	0.0248
452.449	0.0331
452.6513	0.0306
452.8537	0.0251
453.056	0.028
453.2583	0.0306
453.4607	0.028
453.663	0.034
453.8652	0.0286
454.0675	0.0369
454.2697	0.0295
454.472	0.0216
454.6742	0.0292
454.8764	0.0315
455.0786	0.0274
455.2808	0.0186
455.4829	0.0339
455.6851	0.0212
455.8872	0.0192
456.0893	0.0209
456.2915	0.0206
456.4935	0.0321
456.6956	0.0258
456.8977	0.0213
457.0997	0.0253
457.3018	0.0262
457.5038	0.0268
457.7058	0.0224
457.9078	0.0267
458.1098	0.0263
458.3117	0.0254
458.5137	0.0111
458.7156	0.0207
458.9175	0.0245
459.1194	0.0184
459.3213	0.0185
459.5232	0.0213
459.725	0.0209
459.9269	0.0193
460.1287	0.0141
460.3305	0.0228
460.5323	0.0223
460.7341	0.0251
460.9359	0.012
461.1376	0.0141
461.3394	0.0205
461.5411	0.0257
461.7428	0.011
461.9445	0.0146
462.1462	0.0164
462.3479	0.0187
462.5495	0.0186
462.7512	0.0281
462.9528	0.0171
463.1544	0.0113
463.356	0.0133
463.5576	0.024
463.7592	0.0085
463.9607	0.0133
464.1623	0.0147
464.3638	0.0073
464.5653	0.0165
464.7668	0.0194
464.9683	0.0188
465.1697	0.0074
465.3712	0.0033
465.5726	0.0081
465.7741	0.0187
465.9755	0.0171
466.1769	0.0053
466.3782	0.0159
466.5796	0.012
466.7809	0.0165
466.9823	0.0127
467.1836	0.0086
467.3849	0.0149
467.5862	0.0014
467.7875	0.0151
467.9887	0.0097
468.19	0.0096
468.3912	0.0221
468.5924	0.0098
468.7936	0.0141
468.9948	0.0033
469.196	0.0045
469.3972	-0.0025
469.5983	0.0114
469.7994	0.0112
470.0006	0.0061
470.2017	0.0085
470.4027	0.0236
470.6038	0.0033
470.8049	0.0094
471.0059	0.0086
471.2069	0.0112
471.408	0.0145
471.6089	0.0082
471.8099	0.0184
472.0109	0.0076
472.2119	0.0175
472.4128	0.0053
472.6137	0.0089
472.8146	0.0087
473.0155	0.0211
473.2164	0.0065
473.4173	0.0063
473.6181	-0.0059
473.819	0.0124
474.0198	0.0053
474.2206	-0.0002
474.4214	0.0163
474.6222	-0.0063
474.8229	0.0043
475.0237	0.0148
475.2244	0.0114
475.4251	0.0127
475.6258	0.0078
475.8265	0.0117
476.0272	-0.0064
476.2278	0.0005
476.4285	0.0118
476.6291	0.0043
476.8297	0.0016
477.0303	-0.0014
477.2309	0.0015
477.4315	0.0069
477.632	0.003
477.8326	0.0062
478.0331	0.0034
478.2336	0.0065
478.4341	0.0045
478.6346	0.0057
478.8351	0.0042
479.0355	0.0124
479.236	0.0111
479.4364	0.0084
479.6368	0.0013
479.8372	0.0057
480.0376	0.0002
480.2379	0.0095
480.4383	0.012
480.6386	-0.002
480.8389	0.0148
481.0392	0.0037
481.2395	0.0099
481.4398	0.0048
481.6401	0.0061
481.8403	0.003
482.0405	0.0051
482.2408	0.0117
482.441	0.0125
482.6411	-0.0004
482.8413	0.0017
483.0415	0.0056
483.2416	0.008
483.4417	-0.003
483.6419	0.0003
483.8419	0.0043
484.042	0.0124
484.2421	-0.001
484.4422	0.0075
484.6422	0.0063
484.8422	0.0027
485.0422	0.0043
485.2422	0.0049
485.4422	0.0047
485.6422	0.0062
485.8421	0.0091
486.042	0.0158
486.242	-0.0003
486.4419	0.006
486.6417	0.003
486.8416	0.0057
487.0415	0.0056
487.2413	-0.0016
487.4411	0.0028
487.641	0.0017
487.8408	0.0079
488.0405	0.0115
488.2403	-0.002
488.4401	0.0034
488.6398	0.0133
488.8395	0.0008
489.0392	0.0037
489.2389	0.0027
489.4386	-0.009
489.6383	0.0059
489.8379	0.0013
490.0376	0.0121
490.2372	0.0016
490.4368	0.007
490.6364	-0.0007
490.836	0.0012
491.0355	-0.0012
491.2351	-0.0015
491.4346	-0.001
491.6341	-0.0081
491.8336	0.0074
492.0331	-0.0021
492.2326	0.0085
492.432	0.0031
492.6315	0.007
492.8309	-0.0014
493.0303	0.0007
493.2297	0.0005
493.4291	-0.0003
493.6284	0.0138
493.8278	-0.0038
494.0271	0.0039
494.2264	0.0053
494.4257	0.0067
494.625	0.0037
494.8243	-0.0058
495.0236	0.0048
495.2228	0.0051
495.422	-0.002
495.6213	0.0039
495.8205	0.0064
496.0196	-0.0073
496.2188	0.0018
496.418	-0.0017
496.6171	-0.0013
496.8162	0.0009
497.0153	0.0076
497.2144	-0.0026
497.4135	-0.0074
497.6126	0.0089
497.8116	-0.0035
498.0107	-0.0009
498.2097	-0.0006
498.4087	0.0043
498.6077	-0.0038
498.8067	0.004
499.0056	0.0031
499.2046	0.008
499.4035	-0.0027
499.6024	-0.0081
499.8013	0.0024
500.0002	0.0025
500.199	0.0076
500.3979	0
500.5967	-0.0052
500.7956	0.0108
500.9944	-0.0022
501.1932	0.0078
501.3919	0.0002
501.5907	0.0069
501.7895	0.0013
501.9882	0.0023
502.1869	0.0012
502.3856	-0.0034
502.5843	0.0014
502.783	0.0014
502.9816	0.0035
503.1803	0.0029
503.3789	-0.0001
503.5775	0.0021
503.7761	0.0022
503.9747	0.0007
504.1732	-0.0052
504.3718	0.0141
504.5703	0.0106
504.7689	-0.0032
504.9674	-0.0021
505.1658	-0.0031
505.3643	0.006
505.5628	0.0119
505.7612	0.0123
505.9597	-0.0092
506.1581	0.0025
506.3565	-0.0053
506.5549	-0.0048
506.7532	-0.0087
506.9516	-0.0002
507.1499	-0.0024
507.3482	0.0026
507.5465	0.0063
507.7448	0.0051
507.9431	0.005
508.1414	-0.0076
508.3396	0.0035
508.5379	-0.0037
508.7361	0.0013
508.9343	-0
509.1325	0.0028
509.3306	-0.003
509.5288	-0.0079
509.7269	0.0012
509.9251	0.0085
510.1232	-0.0041
510.3213	-0.0073
510.5193	-0.0054
510.7174	-0.0032
510.9154	-0.0011
511.1135	-0.0037
511.3115	-0.0029
511.5095	0.0016
511.7075	0.0013
511.9055	0.0028
512.1034	-0.0068
512.3014	0.0019
512.4993	0.003
512.6972	-0.0104
512.8951	0.0038
513.093	0.0027
513.2908	0.0109
513.4887	0.004
513.6865	-0.0053
513.8844	0.0042
514.0822	-0.0025
514.2799	-0.0114
514.4777	-0.0064
514.6755	-0.0057
514.8732	0.0082
515.0709	0.0044
515.2687	-0.0051
515.4664	0.0022
515.664	0.0056
515.8617	0.0004
516.0594	-0.0034
516.257	0.0011
516.4546	0.0164
516.6522	0.0017
516.8498	-0.0137
517.0474	0.0024
517.2449	-0.0008
517.4425	-0.0023
517.64	-0.0004
517.8375	-0.0047
518.035	-0.0049
518.2325	-0.0055
518.43	0.0005
518.6274	-0.0023
518.8249	-0.0057
519.0223	-0.0047
519.2197	0.002
519.4171	-0.0123
519.6145	0.0088
519.8118	-0.013
520.0092	-0.0114
520.2065	0.0084
520.4038	-0.0025
520.6011	0.0111
520.7984	-0.0025
520.9956	-0.0006
521.1929	0.0051
521.3901	0.0095
521.5874	0.0024
521.7846	-0.0048
521.9818	-0.0114
522.1789	-0.0099
522.3761	0.005
522.5732	-0.0026
522.7704	-0.0241
522.9675	-0.0038
523.1646	-0.0077
523.3617	0.0091
523.5587	0.0007
523.7558	-0.0028
523.9528	0.0112
524.1498	-0.0089
524.3468	-0.0027
524.5438	0.0026
524.7408	-0.0054
524.9378	0.0063
525.1347	-0.0009
525.3316	0.0025
525.5285	-0.0057
525.7254	0.0011
525.9223	0.0117
526.1192	0.0014
526.316	0.0056
526.5129	0.0075
526.7097	-0.0021
526.9065	0.0039
527.1033	-0.0016
527.3	0.0005
527.4968	0.0013
527.6935	-0.0074
527.8903	-0.0027
528.087	-0.0031
528.2837	0.005
528.4804	-0.0137
528.677	0.0089
528.8737	-0.0083
529.0703	-0.0034
529.2669	0.0019
529.4635	-0.0053
529.6601	-0.0078
529.8567	-0.0043
530.0532	-0.0098
530.2498	-0.006
530.4463	-0.0115
530.6428	0.0032
530.8393	0.0002
531.0358	0.0013
531.2322	-0.0061
531.4287	-0.0048
531.6251	-0.0158
531.8215	-0.0014
532.0179	-0.0005
532.2143	-0.0053
532.4107	0.007
532.607	-0.0011
532.8034	-0.0093
532.9997	-0.005
533.196	-0.0003
533.3923	0.0093
533.5886	0.0008
533.7848	-0.0025
533.9811	0.009
534.1773	0
534.3735	-0.0014
534.5697	-0.0014
534.7659	-0.0064
534.9621	0.0057
535.1582	0.0015
535.3544	0.0011
535.5505	0.0089
535.7466	0.0122
535.9427	0.0027
536.1387	-0.0042
536.3348	0.007
536.5308	-0.0075
536.7269	-0.0069
536.9229	-0.0021
537.1189	0.0041
537.3148	0.0086
537.5108	-0.0024
537.7068	0.0101
537.9027	-0.0126
538.0986	0.0039
538.2945	-0.0086
538.4904	0.0004
538.6863	-0.0045
538.8821	0.0026
539.078	0.0033
539.2738	0.0117
539.4696	-0.0114
539.6654	0.0064
539.8611	0.009
540.0569	-0.007
540.2526	0.0039
540.4484	-0.0136
540.6441	0.0049
540.8398	0.0052
541.0355	-0.002
541.2311	-0.0035
541.4268	0.0084
541.6224	0.0092
541.818	0.0086
542.0136	-0.0028
542.2092	0.0063
542.4048	0.0011
542.6003	-0.0093
542.7959	0.0121
542.9914	0.0056
543.1869	0.0011
543.3824	0.0014
543.5779	0.01
543.7734	0.0067
543.9688	0.0053
544.1642	-0.0036
544.3596	0.0072
544.555	-0.0009
544.7504	0.0109
544.9458	0.0018
545.1411	0.0009
545.3365	0.0105
545.5318	0.0076
545.7271	0.0008
545.9224	-0.0022
546.1177	0.0053
546.3129	-0.0064
546.5081	0.0008
546.7034	0.0005
546.8986	-0.0016
547.0938	0.0113
547.289	0.0092
547.4841	0.0099
547.6793	-0.0063
547.8744	-0.0005
548.0695	-0.0004
548.2646	0.0128
548.4597	0.0021
548.6548	0.0146
548.8498	-0.0014
549.0448	-0.0006
549.2399	0.0059
549.4349	0.0016
549.6298	0.0064
549.8248	-0.0089
550.0198	0.0003
550.2147	0.0006
550.4096	-0.0071
550.6045	-0.0017
550.7994	0.0061
550.9943	0.0052
551.1892	-0.0139
551.384	0.0096
551.5788	0.0084
551.7737	0.0143
551.9685	0.0132
552.1632	-0.0017
552.358	0.005
552.5528	0.0091
552.7475	0.0049
552.9422	0.0052
553.1369	0.008
553.3316	0.0064
553.5263	0.0106
553.7209	0.0002
553.9156	-0.004
554.1102	-0.0027
554.3048	-0.0042
554.4994	0.0002
554.694	0.004
554.8885	0.0047
555.0831	0.0104
555.2776	0.0059
555.4721	-0.002
555.6666	0.0025
555.8611	0.0013
556.0555	0.0043
556.25	0.0062
556.4444	0.0005
556.6388	-0.0017
556.8332	0.005
557.0276	0.002
557.222	0.0026
557.4163	0.0045
557.6107	-0.0014
557.805	-0.0047
557.9993	-0.0018
558.1936	-0.003
558.3879	0.0036
558.5821	-0.0052
558.7764	-0.0089
558.9706	-0.0052
559.1648	0.0047
559.359	-0.0059
559.5532	-0.0019
559.7473	0.0012
559.9415	-0.0021
560.1356	0.0177
560.3297	-0.0021
560.5238	0.0072
560.7179	0.0043
560.9119	-0.0018
561.106	0.0023
561.3	-0.0021
561.494	-0.01
561.688	-0.0103
561.882	-0.0012
562.076	0.0005
562.2699	0.0055
562.4639	0.016
562.6578	0.0105
562.8517	-0.0025
563.0456	0.0011
563.2395	0.0136
563.4333	0.0024
563.6272	-0.0011
563.821	-0.0005
564.0148	0.0061
564.2086	0.0052
564.4024	0.0117
564.5961	0.0067
564.7899	0.0137
564.9836	0.0087
565.1773	0.0101
565.371	0.0027
565.5647	0.0063
565.7584	0.0143
565.952	0.0068
566.1456	0.0025
566.3393	-0.0003
566.5329	0.0004
566.7264	-0.0022
566.92	0.0013
567.1136	-0.0053
567.3071	-0.0001
567.5006	0.0099
567.6941	0.0079
567.8876	0.0028
568.0811	0.0163
568.2745	0.0083
568.468	0.0065
568.6614	0.0099
568.8548	0.0091
569.0482	0.0139
569.2416	0.009
569.4349	0.0081
569.6283	0.0044
569.8216	0.0092
570.0149	0.0006
570.2082	0.0153
570.4015	0.0053
570.5947	0.008
570.788	0.0087
570.9812	0.0026
571.1744	0.0098
571.3676	0.0047
571.5608	0.0074
571.754	0.0164
571.9471	0.0125
572.1402	0.0052
572.3333	0.0125
572.5264	0.006
572.7195	0.0025
572.9126	0.0055
573.1057	0.0061
573.2987	0.0065
573.4917	0.0023
573.6847	0.0058
573.8777	0.0087
574.0707	0.0055
574.2636	0.0125
574.4566	0.0025
574.6495	0.0005
574.8424	0.0095
575.0353	0.0054
575.2281	0.0121
575.421	0.0067
575.6138	0.0053
575.8067	0.0082
575.9995	0.0074
576.1923	0.0086
576.385	0.005
576.5778	0.0104
576.7706	0.0069
576.9633	0.0109
577.156	-0.0002
577.3487	0.0078
577.5414	0.0056
577.734	0.005
577.9267	0.0103
578.1193	0.0093
578.3119	0.0037
578.5045	0.0062
578.6971	0.0031
578.8897	0.0026
579.0822	0.0142
579.2747	0.0064
579.4673	0.0074
579.6598	0.0092
579.8522	0.008
580.0447	0.0132
580.2372	0.0102
580.4296	0.0152
580.622	0.0068
580.8144	0.0072
581.0068	0.0059
581.1992	0.0071
581.3915	0.0001
581.5839	0.0065
581.7762	0.0052
581.9685	0.0062
582.1608	0.008
582.353	0.0056
582.5453	0.0076
582.7375	0.0054
582.9298	-0
583.122	0.0051
583.3142	0.0078
583.5063	0.0028
583.6985	0.0075
583.8906	0.0053
584.0827	0.008
584.2749	0.0075
584.4669	0.008
584.659	0.0098
584.8511	0.0069
585.0431	0.0083
585.2352	0.0043
585.4272	0.0036
585.6192	0.0079
585.8111	0.0083
586.0031	0.0059
586.195	0.0022
586.387	0.0035
586.5789	0.0111
586.7708	0.015
586.9627	0.0083
587.1545	0.0061
587.3464	0.0058
587.5382	0.0095
587.73	0.0142
587.9218	0.0057
588.1136	0.0049
588.3053	0.0098
588.4971	0.0074
588.6888	0.0083
588.8805	0.0031
589.0722	0.0144
589.2639	0.0093
589.4556	0.0075
589.6472	0.0121
589.8389	0.006
590.0305	0.0086
590.2221	0.0083
590.4137	-0.001
590.6052	0.0073
590.7968	0.009
590.9883	0.0075
591.1798	0.0071
591.3713	0.0065
591.5628	0.0097
591.7543	0.0004
591.9458	0.0075
592.1372	0.0105
592.3286	0.0046
592.52	0.005
592.7114	0.0089
592.9028	0.0144
593.0941	0.0031
593.2855	0.0054
593.4768	0.0129
593.6681	0.0095
593.8594	0.009
594.0506	0.0039
594.2419	0.0066
594.4331	0.0109
594.6244	0.0001
594.8156	0.004
595.0067	0.0019
595.1979	0.0007
595.3891	0.0066
595.5802	0.0099
595.7713	0.0067
595.9624	0.0139
596.1535	-0.0001
596.3446	0.0041
596.5357	0.0103
596.7267	0.0104
596.9177	0.0043
597.1087	-0.0003
597.2997	0.0091
597.4907	0.0035
597.6817	0.0093
597.8726	0.0017
598.0635	0.0015
598.2544	0.015
598.4453	0.0082
598.6362	0.0087
598.827	0.0064
599.0179	0.0086
599.2087	0.0085
599.3995	0.0088
599.5903	0.0099
599.7811	0.0101
599.9718	0.0025
600.1626	0.0057
600.3533	0.0096
600.544	0.0127
600.7347	0.0124
600.9254	0.01
601.116	0.0101
601.3067	0.0037
601.4973	0.0062
601.6879	0.0039
601.8785	0.01
602.0691	0.0048
602.2596	0.0091
602.4502	0.0132
602.6407	0.0108
602.8312	0.0019
603.0217	0.0091
603.2122	0.01
603.4027	0.0086
603.5931	0.0029
603.7835	0.0053
603.9739	0.0045
604.1643	0.0128
604.3547	0.0131
604.5451	0.0099
604.7354	0.0061
604.9257	0.0012
605.116	0.0037
605.3063	0.0065
605.4966	0.0012
605.6869	0.01
605.8771	0.0052
606.0673	0.0046
606.2575	0.0038
606.4477	0.0094
606.6379	0.0064
606.8281	0.0066
607.0182	0.0069
607.2083	0.0077
607.3985	0.0094
607.5885	0.0062
607.7786	0.0132
607.9687	0.0082
608.1587	0.0112
608.3488	0.0065
608.5388	0.0012
608.7288	0.0036
608.9187	0.0092
609.1087	0.0111
609.2986	0.005
609.4886	0.0027
609.6785	0.0071
609.8684	-0.0014
610.0582	-0.0033
610.2481	0.0025
610.4379	0.009
610.6278	0.0036
610.8176	0.0078
611.0074	0.0123
611.1971	0.0105
611.3869	0.0075
611.5766	0.0023
611.7664	0.0094
611.9561	0.0118
612.1458	0.0114
612.3354	0.0052
612.5251	0.0117
612.7147	0.0066
612.9044	0.0027
613.094	0.0064
613.2836	0.0052
613.4731	0.0099
613.6627	0.0126
613.8522	0.0088
614.0417	0.0104
614.2313	0.0062
614.4207	0.0087
614.6102	0.0045
614.7997	0.0106
614.9891	0.003
615.1785	-0.002
615.3679	0.0149
615.5573	0.0099
615.7467	-0.0007
615.9361	0.0076
616.1254	0.0134
616.3147	0.0089
616.504	0.0093
616.6933	0.0067
616.8826	0.0006
617.0718	0.0102
617.2611	-0.0018
617.4503	0.0079
617.6395	0.0007
617.8287	0.0105
618.0179	0.0106
618.207	0.0058
618.3961	0.0036
618.5853	0.0058
618.7744	0.0087
618.9634	0.0156
619.1525	0.0143
619.3416	0.0067
619.5306	0.0106
619.7196	0.0122
619.9086	0.0004
620.0976	-0.0067
620.2866	0.0167
620.4755	0.0094
620.6645	0.0153
620.8534	0.0178
621.0423	0.0008
621.2312	0.0015
621.42	0.0091
621.6089	0.0099
621.7977	0.0119
621.9865	0.0007
622.1753	-0.0108
622.3641	-0.0093
622.5529	-0.0022
622.7416	0.0085
622.9303	0.0057
623.1191	0.0075
623.3078	0.0071
623.4964	0.0089
623.6851	0.0101
623.8737	0.0048
624.0624	-0.0015
624.251	0.0063
624.4396	0.0027
624.6282	0.0135
624.8167	0.0154
625.0053	0.0134
625.1938	0.0095
625.3823	0.0093
625.5708	0.0044
625.7593	0.0082
625.9477	0.0087
626.1362	-0.004
626.3246	-0.0067
626.513	0.0066
626.7014	0.0097
626.8898	0.0141
627.0781	0.0052
627.2665	0.0086
627.4548	0.0041
627.6431	0.0073
627.8314	0.008
628.0197	0.0072
628.2079	0.0051
628.3962	0.0034
628.5844	0.0035
628.7726	0.0161
628.9608	0.0114
629.1489	0.0069
629.3371	-0.0042
629.5252	0.0088
629.7134	-0.0044
629.9015	0.0156
630.0895	-0.0064
630.2776	-0.0009
630.4657	0.0043
630.6537	0.0118
630.8417	0.0006
631.0297	0.0001
631.2177	-0.0041
631.4057	-0.0002
631.5936	-0.007
631.7815	0.004
631.9695	0.012
632.1574	0.0107
632.3452	0.0135
632.5331	-0.0047
632.7209	0.0041
632.9088	-0.0066
633.0966	0.0159
633.2844	0.0145
633.4722	0.0162
633.6599	0.0203
633.8477	0.007
634.0354	0.025
634.2231	-0.0161
634.4108	-0.0016
634.5985	0.0042
634.7861	0.0016
634.9738	-0.0012
635.1614	0.0147
635.349	0.0078
635.5366	0.0148
635.7242	0.0014
635.9117	0.0076
636.0993	0.0022
636.2868	-0.003
636.4743	-0.0013
636.6618	-0.0044
636.8492	0.0191
637.0367	0.0037
637.2241	-0.002
637.4115	0.0208
637.5989	-0.0052
637.7863	0.0264
637.9737	0.0054
638.161	-0.0027
638.3484	-0.0016
638.5357	0.0009
638.723	0.0228
638.9103	-0.0152
639.0975	0.0062
639.2848	0.0091
639.472	0.0264
639.6592	-0.0134
639.8464	-0.0059
640.0336	0.0037
640.2208	0.0094
640.4079	-0.0073
640.595	-0.0034
640.7821	0.0203
640.9692	-0.0028
641.1563	-0.0098
641.3434	0.0197
641.5304	0.017
641.7174	0.0196
641.9044	-0.0008
642.0914	0.0202
642.2784	-0.0093
642.4653	0.0024
642.6523	0.0078
642.8392	-0.0152
643.0261	0.0127
643.213	0.0054
643.3999	-0.0023
643.5867	0.0052
643.7735	-0.0132
643.9604	0.0105
644.1472	0.004
644.3339	0.013
644.5207	-0.0075
644.7075	-0.0006
644.8942	0.0037
645.0809	0.0138
645.2676	-0.0148
645.4543	0.0104
645.6409	0.0121
645.8276	0.0134
646.0142	0.0004
646.2008	0.0177
646.3874	-0.013
646.574	-0.0114
646.7605	0.0047
646.9471	-0.0018
647.1336	-0.0166
647.3201	0.0176
647.5066	0.0019
647.6931	0.0001
647.8795	0.0139
648.0659	0.0017
648.2524	0.0102
648.4388	0.0214
648.6252	0.0138
648.8115	0.0009
648.9979	0.0203
649.1842	0.0055
649.3705	0.015
649.5568	0.0079
649.7431	-0.0048
649.9294	-0.0037
650.1156	-0.0076
650.3018	0.0067
650.488	0.0176
650.6742	0.0138
650.8604	0.0142
651.0466	0.0045
651.2327	0.0149
651.4188	-0.0068
651.6049	0.0087
651.791	0.002
651.9771	0.0072
652.1632	0.0138
652.3492	-0.0098
652.5352	0.0144
652.7212	-0.004
652.9072	-0.0031
653.0932	0.0201
653.2791	0.0118
653.465	0.0098
653.651	-0.0032
653.8369	0.0057
654.0227	-0.0133
654.2086	0.0031
654.3944	0.02
654.5803	0.0109
654.7661	0.008
654.9519	0.001
655.1377	0.0001
655.3234	0.0001
655.5092	0.0001
655.6949	0.0001
655.8806	0.0001
656.0663	0.0001
656.2519	0.0001
656.4376	0.0001
656.6232	0.0001
656.8088	0.0001
656.9945	0.0001
657.18	0.0001
657.3656	0.0001
657.5511	0.0001
657.7367	0.0001
657.9222	0.0001
658.1077	0.0001
658.2932	0.0001
658.4786	0.0001
658.6641	0.0001
658.8495	0.0001
659.0349	0.0001
659.2203	0.0001
659.4057	0.0069
659.591	0.2895
659.7764	0.0367
659.9617	0.0171
660.147	-0.0023
660.3323	-0.0021
660.5176	-0.0042
660.7028	0.001
660.888	0.0051
661.0733	0.0019
661.2585	-0.0006
661.4436	0.0105
661.6288	0.0147
661.8139	-0.0081
661.9991	-0.0236
662.1842	-0.0126
662.3693	0.0057
662.5544	0.0289
662.7394	-0.0009
662.9245	0.0195
663.1095	0.0041
663.2945	-0.0194
663.4795	-0.0159
663.6644	-0.019
663.8494	0.0093
664.0343	0.004
664.2193	-0.012
664.4042	0.0153
664.589	0.0131
664.7739	0.0115
664.9587	-0.0048
665.1436	0.0088
665.3284	-0.0093
665.5132	-0.0066
665.698	0.0205
665.8827	0.0124
666.0675	-0.0011
666.2522	-0.0084
666.4369	-0.0114
666.6216	-0.0029
666.8063	0.0084
666.9909	0.0022
667.1756	0.0218
667.3602	-0.0228
667.5448	-0.0024
667.7294	0.0128
667.9139	-0.0043
668.0985	-0.0032
668.283	-0.0113
668.4675	0.0082
668.652	0.0166
668.8365	-0.0045
669.0209	0.0103
669.2054	0.0118
669.3898	-0.0089
669.5742	0.0346
669.7586	0.012
669.943	0.0069
670.1273	-0.0061
670.3117	0.01
670.496	0.0199
670.6803	0.0097
670.8646	0.001
671.0488	-0.001
671.2331	-0.0085
671.4173	0.0199
671.6015	-0.0049
671.7857	0.0081
671.9699	0.011
672.1541	0.0102
672.3382	0.0032
672.5223	0.0264
672.7064	0.0243
672.8905	0.0039
673.0746	0.0027
673.2587	0.0066
673.4427	0.0071
673.6267	0.005
673.8107	0.0217
673.9947	-0.0004
674.1787	0.0109
674.3626	0.0014
674.5465	0.0094
674.7304	-0.0111
674.9143	-0.0224
675.0982	0.0095
675.2821	-0.0087
675.4659	-0.0129
675.6497	0.0075
675.8335	0.0053
676.0173	-0.022
676.2011	0.0288
676.3849	0.0069
676.5686	0.0143
676.7523	-0.0099
676.936	-0.0016
677.1197	-0.0029
677.3034	0.0368
677.487	0.0015
677.6706	0.0061
677.8542	-0.0021
678.0378	0.0013
678.2214	-0.0095
678.405	0.0154
678.5885	0.0109
678.772	0.0284
678.9555	-0.0193
679.139	0.0175
679.3225	-0.0012
679.5059	-0.0135
679.6894	0.002
679.8728	-0.0086
680.0562	0.0005
680.2395	0.008
680.4229	0.0074
680.6062	0.0034
680.7896	-0.0016
680.9729	0.0148
681.1562	0.0121
681.3394	-0.0055
681.5227	-0.0094
681.7059	0.0059
681.8891	-0.0031
682.0723	0.0067
682.2555	-0.0054
682.4387	0.026
682.6218	0.0117
682.805	0.0159
682.9881	0.0202
683.1712	0.0035
683.3542	0.0208
683.5373	-0.0045
683.7203	0.0048
683.9034	-0.011
684.0864	0.0066
684.2694	-0.0042
684.4523	0.0142
684.6353	0.0119
684.8182	-0.0069
685.0011	0.015
685.184	0.0105
685.3669	0.017
685.5498	-0.0077
685.7326	0.001
685.9154	0.0025
686.0982	0.0151
686.281	0.0102
686.4638	0.0041
686.6465	0.0024
686.8293	-0.0137
687.012	0.0013
687.1947	0.0138
687.3774	0.0128
687.56	-0.0066
687.7427	0.0121
687.9253	-0.0207
688.1079	-0.012
688.2905	0.0014
688.4731	0.0085
688.6556	0.0141
688.8382	-0.0233
689.0207	0.0011
689.2032	0.026
689.3857	-0.0085
689.5681	-0.0045
689.7506	0.0326
689.933	-0.0041
690.1154	0.0148
690.2978	-0.0092
690.4802	0.0161
690.6626	0.0195
690.8449	-0.0086
691.0272	0.0026
691.2095	-0.0241
691.3918	0.0023
691.5741	0.0067
691.7563	-0.0013
691.9386	0.0088
692.1208	0.0038
692.303	-0.019
692.4852	-0.0048
692.6673	0.0143
692.8495	0.0083
693.0316	0.0103
693.2137	0.0277
693.3958	0.0034
693.5778	0.0115
693.7599	-0.0041
693.9419	-0.0128
694.1239	-0.009
694.3059	0.0352
694.4879	0.0005
694.6699	-0.0171
694.8518	0.0135
695.0337	0.0103
695.2157	0.025
695.3975	0.0005
695.5794	-0.0108
695.7613	0.0094
695.9431	-0.0065
696.1249	0.0256
696.3067	-0.0027
696.4885	0.0172
696.6703	0.0013
696.852	0.0121
697.0337	0.0097
697.2154	0.0098
697.3971	0.0232
697.5788	0.0247
697.7605	-0.0122
697.9421	0.0215
698.1237	0.0167
698.3053	-0.0054
698.4869	0.0148
698.6685	0.0007
698.85	-0.0007
699.0315	0.0157
699.213	-0.0023
699.3945	0.0073
699.576	0.0384
699.7575	0.0161
699.9389	0.0045
700.1203	0.001
700.3017	0.0109
700.4831	0.0511
700.6645	0.037
700.8458	-0.0022
701.0271	0.0466
701.2084	0.0025
701.3897	-0.0134
701.571	-0.0276
701.7523	0.0016
701.9335	0.0263
702.1147	0.0187
702.2959	0.0038
702.4771	0.011
702.6583	0.0101
702.8394	-0.0015
703.0205	0.026
703.2016	-0.0274
703.3827	-0.0406
703.5638	0.0009
703.7449	0.0148
703.9259	0.0375
704.1069	-0.0318
704.2879	0.0133
704.4689	0.0218
704.6499	-0.0002
704.8308	-0.0044
705.0117	-0.0038
705.1927	0.0189
705.3735	-0.0093
705.5544	0.0075
705.7353	-0.0052
705.9161	-0.0188
706.0969	0.0217
706.2777	0.0057
706.4585	0.0061
706.6393	0.0241
706.82	0.0189
707.0007	-0.01
707.1815	-0.0001
707.3621	0.0216
707.5428	0.0127
707.7235	0.0183
707.9041	0.0167
708.0847	-0.0019
708.2653	0.0268
708.4459	-0.0116
708.6265	-0.0035
708.807	0.0156
708.9875	0.0094
709.168	-0.003
709.3485	0.0273
709.529	-0.0016
709.7095	-0.007
709.8899	0.0131
710.0703	0.0211
710.2507	-0.0087
710.4311	-0.0273
710.6115	0.0322
710.7918	0.0176
710.9721	0.0047
711.1524	-0.0172
711.3327	-0.0107
711.513	0.0046
711.6932	-0.0123
711.8735	0.0355
712.0537	-0.0022
712.2339	-0.001
712.4141	0.0062
712.5942	-0.0205
712.7744	0.0139
712.9545	0.0144
713.1346	0.0275
713.3147	0.0018
713.4947	0.026
713.6748	0.0089
713.8548	0.0238
714.0348	0.017
714.2148	-0.0073
714.3948	0.0111
714.5748	0.0086
714.7547	0.0188
714.9346	0.0338
715.1145	0.0038
715.2944	-0.0247
715.4743	-0.0032
715.6541	-0.0079
715.834	0.0271
716.0138	0.006
716.1936	-0.0092
716.3733	0.0083
716.5531	-0.0109
716.7328	0.0134
716.9126	0.0018
717.0923	-0.0083
717.2719	0.0197
717.4516	0.0098
717.6312	0.0046
717.8109	0.0251
717.9905	0.0313
718.1701	0.008
718.3496	0.0162
718.5292	0.0017
718.7087	0.0256
718.8882	0.0205
719.0677	0.0087
719.2472	0.0082
719.4267	-0.013
719.6061	-0.0235
719.7856	0.0147
719.965	-0.0015
720.1443	-0.0182
720.3237	-0.0049
720.5031	0.0253
720.6824	0.0196
720.8617	0.0108
721.041	0.0233
721.2203	-0.0257
721.3995	-0.0059
721.5788	0.0034
721.758	-0.0068
721.9372	0.0079
722.1164	-0.022
722.2956	-0.0063
722.4747	-0.0037
722.6538	-0.0033
722.8329	0.0561
723.012	0.0292
723.1911	0.0032
723.3702	0.0256
723.5492	-0.0162
723.7282	-0.0261
723.9072	0.0136
724.0862	0.0011
724.2652	0.0019
724.4441	0.0089
724.623	0.0127
724.8019	0.0088
724.9808	0.0109
725.1597	0.0095
725.3385	-0.0075
725.5174	0.0005
725.6962	0.007
725.875	0.0367
726.0538	0.0064
726.2325	0.0343
726.4112	-0.0408
726.59	-0.0201
726.7687	-0.0136
726.9474	0.0133
727.126	0.0141
727.3047	0.0061
727.4833	0.0009
727.6619	-0.0045
727.8405	-0.0005
728.0191	0.0149
728.1976	-0.0199
728.3762	0.0115
728.5547	-0.0085
728.7332	0.0152
728.9116	-0.0002
729.0901	-0.0039
729.2686	0.0091
729.447	-0.0089
729.6254	-0.0061
729.8038	-0.0042
729.9821	-0.0042
730.1605	0.0113
730.3388	-0.0076
730.5171	0.0206
730.6954	-0.0019
730.8737	0.0068
731.0519	-0.0097
731.2302	0.0284
731.4084	-0.0228
731.5866	-0.0141
731.7648	0.0104
731.9429	0.0255
732.1211	0.0049
732.2992	0.0054
732.4773	-0.0086
732.6554	-0.0072
732.8335	0.031
733.0115	0.0135
733.1896	-0.0146
733.3676	0.0255
733.5456	0.0089
733.7235	-0.0076
733.9015	0.0219
734.0794	-0.0096
734.2574	-0.0173
734.4353	0.0262
734.6131	-0.0111
734.791	-0.004
734.9689	-0.0007
735.1467	-0.0137
735.3245	0.0364
735.5023	-0.0009
735.68	-0.0093
735.8578	0.0053
736.0355	0.015
736.2132	0.0046
736.3909	-0.0007
736.5686	0.0103
736.7463	-0.0243
736.9239	0.0323
737.1015	0.0022
737.2791	0.003
737.4567	0.0266
737.6343	0.0081
737.8118	0.0167
737.9894	0.0058
738.1669	0.0059
738.3444	0.0222
738.5218	-0.0082
738.6993	0.0122
738.8767	-0.0048
739.0541	0.0255
739.2315	0.0023
739.4089	0.0132
739.5863	-0.0008
739.7636	-0.008
739.9409	0.0009
740.1182	0.0115
740.2955	0.0076
740.4728	0.0015
740.65	-0.026
740.8272	0.0072
741.0044	0.004
741.1816	0.0498
741.3588	-0.0146
741.5359	0.0207
741.7131	0.0101
741.8902	0.0035
742.0673	-0.0144
742.2444	0.0146
742.4214	0.0094
742.5985	0.0159
742.7755	0.0179
742.9525	-0.0272
743.1295	-0.0028
743.3064	-0.0155
743.4834	-0.0081
743.6603	0.0474
743.8372	-0.0511
744.0141	0.021
744.191	-0.0109
744.3678	-0.0327
744.5446	0.0029
744.7215	-0.0077
744.8982	0.0119
745.075	0.049
745.2518	-0.0118
745.4285	0.0089
745.6052	-0.0232
745.7819	-0.0229
745.9586	0.007
746.1353	-0.0162
746.3119	-0.0002
746.4885	0.0263
746.6651	0.0015
746.8417	0.0174
747.0183	0.0489
747.1948	-0.0159
747.3714	0.0092
747.5479	0.0327
747.7244	-0.0103
747.9008	-0.0304
748.0773	0.022
748.2537	0.0264
748.4301	0.0041
748.6065	-0.0341
748.7829	-0.0281
748.9593	0.0056
749.1356	0.0002
749.3119	0.0066
749.4882	0.0228
749.6645	0.0053
749.8408	0.0496
750.017	0.0179
750.1933	-0.0135
750.3695	0.0107
750.5457	-0.0049
750.7218	0.0027
750.898	-0.014
751.0741	0.0002
751.2502	-0.0126
751.4263	-0.0077
751.6024	-0.0063
751.7784	-0.016
751.9545	0.008
752.1305	0.0017
752.3065	0.0049
752.4825	0.0058
752.6584	-0.0064
752.8344	-0.0168
753.0103	-0.0034
753.1862	0.0081
753.3621	0.0034
753.5379	-0.0098
753.7138	-0.0015
753.8896	0.0112
754.0654	-0.0216
754.2412	-0.0036
754.417	-0.0048
754.5927	0.0029
754.7685	0.0256
754.9442	0.0169
755.1199	-0.0042
755.2956	-0.0049
755.4712	-0.0001
755.6469	0.0013
755.8225	0.0055
755.9981	0.0045
756.1736	0.0156
756.3492	-0.0057
756.5248	0.0083
756.7003	-0.0133
756.8758	0.0209
757.0513	-0.0025
757.2267	0.0024
757.4022	-0.0013
757.5776	-0.0088
757.753	0.0243
757.9284	0.0069
758.1038	0.0165
758.2791	0.0156
758.4545	-0.0016
758.6298	0.0148
758.8051	0.0102
758.9803	0.0093
759.1556	-0.0151
759.3308	-0.0012
759.506	0.0095
759.6812	0.0012
759.8564	0.0084
760.0316	-0.0001
760.2067	0.0341
760.3819	-0.0015
760.557	0.0071
760.732	0.0223
760.9071	0.0337
761.0821	-0.0007
761.2572	0.0133
761.4322	0.0124
761.6072	0.0012
761.7821	-0.0265
761.9571	0.0121
762.132	0.0157
762.3069	0.0285
762.4818	0.0133
762.6567	0.0009
762.8316	0.0012
763.0064	0.0245
763.1812	0.0012
763.356	-0.0085
763.5308	0.0123
763.7055	0.0008
763.8803	-0.001
764.055	-0.0004
764.2297	-0.0192
764.4044	0.0161
764.579	0.0003
764.7537	0.0084
764.9283	0.0367
765.1029	0.0032
765.2775	0.0144
765.4521	0.0032
765.6266	-0.0241
765.8011	0.0185
765.9756	0.0156
766.1501	-0.0006
766.3246	0.0002
766.4991	0.0154
766.6735	0.0625
766.8479	0.0221
767.0223	0.0091
767.1967	0.0217
767.371	0.0075
767.5454	0.0253
767.7197	0.0419
767.894	0.0307
768.0683	-0.0002
768.2425	0.0009
768.4168	0.0002
768.591	0.021
768.7652	0.0013
768.9394	-0.0039
769.1135	-0.0201
769.2877	-0.0002
769.4618	0.0232
769.6359	0.0155
769.81	0.006
769.984	0.0074
770.1581	0.0193
770.3321	0.0043
770.5061	-0.0041
770.6801	0.0038
770.8541	0.0149
771.028	0.0594
771.202	0.0341
771.3759	0.0108
771.5498	0.0279
771.7236	-0.0051
771.8975	0.0236
772.0713	0.0156
772.2451	-0.0179
772.4189	0.0061
772.5927	-0.0169
772.7665	0.0038
772.9402	-0.0034
773.1139	-0.0207
773.2876	0.0036
773.4613	0.0135
773.635	0.0285
773.8086	0.0077
773.9822	0.0243
774.1558	0.0173
774.3294	0.01
774.503	-0.0119
774.6765	0.0079
774.8501	-0.03
775.0236	0.0197
775.1971	-0.0191
775.3705	-0.0043
775.544	-0.0448
775.7174	-0.0012
775.8908	-0.0283
776.0642	0.0062
776.2376	0.0271
776.4109	0.0039
776.5843	-0.0235
776.7576	0.0375
776.9309	0.0038
777.1041	-0.0271
777.2774	-0.0261
777.4506	-0.0114
777.6238	-0.0461
777.797	0.0213
777.9702	0.0016
778.1434	0.0028
778.3165	-0.007
778.4896	-0.0027
778.6627	-0.0034
778.8358	-0.002
779.0089	-0.0365
779.1819	0.0062
779.3549	0.0168
779.5279	-0.008
779.7009	0.0258
779.8739	0.07
780.0468	-0.0349
780.2197	0.0132
780.3926	-0.001
780.5655	0.0312
780.7384	0.0155
780.9112	0.0007
781.0841	-0.0089
781.2569	0.0182
781.4297	0.026
781.6024	0.0418
781.7752	0.032
781.9479	0.0469
782.1206	0.0056
782.2933	0.0296
782.466	0.0067
782.6386	-0.0149
782.8113	0.0145
782.9839	0.0068
783.1565	0.0211
783.329	-0.002
783.5016	0.044
783.6741	0.0108
783.8466	0.0121
784.0191	0.0206
784.1916	0.0239
784.3641	-0.0179
784.5365	0.0151
784.7089	-0.0208
784.8813	0.0398
785.0537	-0.0058
785.2261	0.0026
785.3984	-0.0051
785.5707	-0.0091
785.743	0.0341
785.9153	0.0358
786.0876	-0.0042
786.2598	-0.0396
786.432	0.0233
786.6042	0.077
786.7764	-0.0274
786.9486	-0.0126
787.1207	0.0212
787.2928	0.0293
787.4649	0.0195
787.637	0.0141
787.8091	-0.0175
787.9811	0.012
788.1532	-0.0285
788.3252	0.0044
788.4972	0.0206
788.6691	0.008
788.8411	0.0309
789.013	0.0041
789.1849	-0.0191
789.3568	-0.0082
789.5287	0.0116
789.7005	-0.0314
789.8723	-0.032
790.0442	0.0045
790.2159	-0.0246
790.3877	0.0615
790.5595	0.0453
790.7312	-0.0359
790.9029	-0.0415
791.0746	0.0384
791.2463	-0.0468
791.4179	0.0211
791.5896	-0.0308
791.7612	0.022
791.9328	0.0107
792.1044	0.0086
792.2759	-0.0785
792.4474	0.0245
792.619	0.0086
792.7905	0.004
792.9619	0.0218
793.1334	0.0655
793.3048	0.0444
793.4762	0.041
793.6476	-0.0418
793.819	0.0003
793.9904	-0.0169
794.1617	-0.015
794.333	0.0365
794.5043	0.0084
794.6756	0.0132
794.8469	0.0466
795.0181	0.0249
795.1893	0.0047
795.3605	0.0216
795.5317	0.0109
795.7029	0.0541
795.874	-0.0169
796.0452	0.0256
796.2163	0.0801
796.3873	0.0595
796.5584	0.0342
796.7294	0.0737
796.9005	0.0233
797.0715	-0.0117
797.2425	0.055
797.4134	0.0261
797.5844	0.0145
797.7553	-0.0287
797.9262	0.095
798.0971	0.057
798.2679	0.0055
798.4388	0.012
798.6096	0.0274
798.7804	0.0349
798.9512	0.066
799.122	-0.0536
799.2927	0.0643
799.4635	-0.0524
799.6342	-0.0802
799.8049	0.0618
799.9755	-0.0483
800.1462	0.0544
800.3168	0.0264
800.4874	-0.0079
800.658	0.096
800.8286	0.0695
800.9991	0.0561
801.1696	0.0372
801.3402	-0.0555
801.5106	-0.0275
801.6811	-0.0079
801.8516	0.0499
802.022	0.0183
802.1924	0.0073
802.3628	0.0029
802.5332	0.0806
802.7035	0.0712
802.8739	0.0892
803.0442	-0.0138
803.2145	0.0548
803.3847	0.0605
803.555	0.0819
803.7252	-0.0114
803.8954	0.0569
804.0656	0.0162
804.2358	0.0234
804.4059	0.0118
804.5761	-0.0084
804.7462	-0.0211
804.9163	0.0234
805.0864	-0.0422
805.2564	-0.0066
805.4264	-0.0185
805.5965	-0.0159
805.7665	-0.0142
805.9364	0.0348
806.1064	0.0161
806.2763	0.0927
806.4462	-0.0256
806.6161	-0.0057
806.786	-0.0064
806.9559	-0.0305
807.1257	0.0321
807.2955	0.0309
807.4653	0.0189
807.6351	0.0975
807.8048	0.0982
807.9746	0.0342
808.1443	0.0229
808.314	0.0528
808.4837	0.0565
808.6533	0.0039
808.8229	0.0148
808.9926	0.062
809.1622	0.0463
809.3317	-0.0556
809.5013	0.0102
809.6708	-0.0343
809.8403	0.0826
810.0098	0.0518
810.1793	0.0248
810.3488	-0.0198
810.5182	0.1808
810.6876	0.0702
810.857	0.0101
811.0264	-0.0598
811.1958	0.0266
811.3651	0.0254
811.5344	0.137
811.7037	0.0775
811.873	0.0505
812.0422	-0.1138
812.2115	0.0276
812.3807	-0.2208
812.5499	0.0092
812.7191	-0.1047
812.8882	-0.1186
813.0574	-0.029
813.2265	0.0354
813.3956	0.1488
813.5646	-0.0079
813.7337	0.0687
813.9027	-0.0674
814.0718	0.0452
814.2407	0.0667
814.4097	0.0397
814.5787	0.1013
814.7476	-0.0036
814.9165	0.0146
815.0854	0.0144
815.2543	0.0204
815.4232	0.0354
815.592	0.0937
815.7608	-0.1146
815.9296	0.1386
816.0984	-0.0189
816.2671	-0.1935
816.4359	0.0699
816.6046	0.1367
816.7733	0.0607
816.942	-0.0858
817.1106	0.1504
817.2793	-0.0753
817.4479	0.0305
817.6165	0.1817
817.785	0.0722
817.9536	-0.0513
818.1221	0.0584
818.2906	-0.1381
818.4591	-0.0413
818.6276	0.0086
818.7961	-0.0171
818.9645	0.0614
819.1329	0.1064
819.3013	-0.0823
819.4697	-0.0391
819.638	0.1211
819.8064	0.015
819.9747	-0.0736
820.143	-0.0505
820.3113	0.0047
820.4795	0.0414
820.6477	0.1169
820.816	0.1321
820.9842	0.029
821.1523	0.0324
821.3205	-0.005
821.4886	-0.1092
821.6567	0.0184
821.8248	0.04
821.9929	-0.1999
822.1609	0.0553
822.329	-0.0437
822.497	0.0426
822.665	0.0993
822.833	0.0332
823.0009	0.0386
823.1688	-0.0021
823.3367	-0.1842
823.5046	0.1733
823.6725	-0.0421
823.8404	0.0992
824.0082	-0.0121
824.176	0.0232
824.3438	0.2178
824.5116	0.0213
824.6793	0.3217
824.847	-0.082
825.0147	-0.1039
825.1824	0.0373
825.3501	-0.0407
825.5177	-0.1352
825.6854	-0.1867
825.853	-0.0478
826.0206	-0.1203
826.1881	0.0479
826.3557	0.1196
826.5232	0.1027
826.6907	0.0131
826.8582	0.149
827.0257	0.0928
827.1931	0.0833
827.3605	0.0019
827.528	-0.0228
827.6953	-0.2322
827.8627	0.055
828.03	0.0546
828.1974	-0.0276
828.3647	0.1801
828.532	0.035
828.6992	0.0043
828.8665	-0.0499
829.0337	-0.0056
829.2009	0.0748
829.3681	0.0559
829.5352	-0.0042
829.7024	0.0201
829.8695	0.2524
830.0366	0.1601
830.2037	0.0683
830.3707	0.0337
830.5378	0.7786
830.7048	-0.0204
830.8718	0.0527
831.0388	-0.1856
831.2057	-0
831.3727	0.1682
831.5396	-0.061
831.7065	-0.9201
831.8734	0.3362
832.0402	0.1501
832.2071	-0.7291
832.3739	-0.0885
832.5407	-0
832.7075	-0.4325
832.8742	0.4131
833.041	0.3782
833.2077	0.2128
833.3744	0.2946
833.541	-0.0783
833.7077	-0.0031
833.8743	0.0854
834.0409	0.1323
834.2075	0.2136
834.3741	-0.1352
834.5407	0.1389
834.7072	-0.0851
834.8737	0.1471
835.0402	1.0224
835.2067	-0.1281
835.3731	-0.1027
835.5395	-0.0883
835.706	-0.3206
835.8723	0.1939
836.0387	0.179
836.2051	-0.0709
836.3714	0.0703
836.5377	-0.2224
836.704	0.1603
836.8703	-0.2931
837.0365	-0.2986
837.2027	0.2445
837.3689	0.1914
837.5351	0.0882
837.7013	-0.2304
837.8674	1.1849
838.0335	0.1086
838.1997	-0.0593
838.3657	-0
838.5318	-0.7268
838.6978	-0
838.8639	-0.6556
839.0299	0.0784
839.1958	0.3838
839.3618	-0.228
839.5277	0.0503
839.6937	0.0864
839.8596	-0.3558
840.0254	0.0042
840.1913	-0.4611
840.3571	-0.1606
840.523	-0.8451
840.6888	0.042
840.8545	0.1192
841.0203	-0.0233
841.186	0.0189
841.3517	0.0762
841.5174	0.1838
841.6831	0.4793
841.8488	0.1674
842.0144	0.865
842.18	0.1464
842.3456	-0.5542
842.5112	-0
842.6767	-0.2092
842.8422	-0.0516
843.0077	0.0468
843.1732	-0.35
843.3387	-0.079
843.5042	-0.0148
843.6696	-0.2606
843.835	0.3604
844.0004	-0.1567
844.1657	-0.4114
844.3311	0.7036
844.4964	-0
844.6617	-0
844.827	0.1581
844.9923	0.2034
845.1575	-0
845.3227	-0.2466
845.4879	-0
845.6531	0.0745
845.8183	0.0332
845.9834	-0
846.1485	0.377
846.3136	-0.0693
846.4787	-0.0186
846.6438	0.902
846.8088	0.4329
846.9738	-0.2464
847.1388	0.9708
847.3038	0.2569
847.4687	0.5922
847.6337	-0.1241
847.7986	-0.4594
847.9635	-0.0913
848.1284	0.4655
848.2932	0.5124
848.458	-0
848.6228	0.057
848.7876	-0
848.9524	-0
849.1172	-1.8784
849.2819	-0.5452
849.4466	0.2741
849.6113	0.6468
849.7759	-0
849.9406	-0
850.1052	-0.4114
850.2698	-0.0795
850.4344	-0.0277
850.599	0.5919
850.7635	-0.0127
850.928	0.2342
851.0925	0.1641
851.257	-0.3567
851.4215	-0
851.5859	0.1522
851.7503	-0
851.9147	-0.1601
852.0791	0.0311
852.2434	0.0374
852.4078	-0.1907
852.5721	0.7192
852.7364	-0.0978
852.9007	0.1033
853.0649	-0
853.2291	0.2198
853.3934	-0
853.5575	0.0967
853.7217	0.5081
853.8859	0.117
854.05	-0.3992
854.2141	0.1722
854.3782	0.9189
854.5423	-0.2332
854.7063	-0.0648
854.8703	0.0606
855.0343	0.1977
855.1983	-0.2814
855.3623	0.0585
855.5262	-0
855.6901	0.1465
855.854	0.1671
856.0179	0.16
856.1818	-0
856.3456	-0
856.5094	-0.586
856.6732	-0.4179
856.837	-1.2321
857.0008	-0
857.1645	0.2883
857.3282	-0.3424
857.4919	-0.1746
857.6556	0.0964
857.8192	0.5153
857.9828	-0.0865
858.1465	0.1821
858.31	0.1446
858.4736	-0.4434
858.6372	-0.2634
858.8007	-0.0184
858.9642	0.3588
859.1277	0.5714
859.2911	-0.3765
859.4546	-0
859.618	1.4103
859.7814	0.8233
859.9448	0.5135
860.1081	-0.4277
860.2715	-0.7231
860.4348	0.3476
860.5981	-0.0383
860.7614	-0.2995
860.9246	-0.0312
861.0879	-0.0479
861.2511	-1.1024
861.4143	-0.5452
861.5774	-0.2536
861.7406	0.0313
861.9037	-0.2626
862.0668	-0
862.2299	0.0744
862.393	0.2189
862.556	-0.239
862.7191	-0.271
862.8821	0.2043
863.0451	0.6674
863.208	-0.5139
863.371	-0
863.5339	0.6256
863.6968	0.3511
863.8597	-0
864.0225	0.0562
864.1854	-0.2202
864.3482	-0.372
864.511	-0.017
864.6737	-0.5877
864.8365	0.7371
864.9992	-0
865.1619	-0
865.3246	-0
865.4873	-0.4642
865.65	-0
865.8126	-0
865.9752	-0
866.1378	0.1883
866.3004	0.1322
866.4629	-1.1923
866.6254	-0
866.7879	0.2313
866.9504	-0.3788
867.1129	-0.2846
867.2753	0.0524
867.4377	-0.2074
867.6001	-0.8939
867.7625	-0.216
867.9249	0.2051
868.0872	0.1322
868.2495	0.4808
868.4118	-0
868.5741	-0
868.7363	-0
868.8986	-0.6868
869.0608	0.7059
869.223	-0.3595
869.3851	-0.2059
869.5473	0.3599
869.7094	0.5395
869.8715	-0.1519
870.0336	0.0742
870.1957	-0.4628
870.3577	-0
870.5197	0.0801
870.6817	-0.9304
870.8437	0.0273
871.0057	0.4697
871.1676	0.469
871.3295	-0
871.4914	-0
871.6533	-0
871.8151	0.1362
871.977	0.148
872.1388	0.1432
872.3006	-0.5445
872.4623	-0
872.6241	-0
872.7858	-0.0953
872.9475	0.4305
873.1092	0.7113
873.2709	-0
873.4325	-1.6668
873.5941	-0.7837
873.7557	-0
873.9173	2.5502
874.0789	0.1541
874.2404	-0
874.4019	0.0196
874.5634	-0
874.7249	-0
874.8863	-0.1192
875.0478	-0.1779
875.2092	-0
875.3706	0.2267
875.5319	-0
875.6933	-0
875.8546	0.1603
876.0159	-0
876.1772	0.9468
876.3385	0.4025
876.4997	-0
876.6609	-0.091
876.8221	0.0866
876.9833	-0.1534
877.1445	0.3708
877.3056	-1.2961
877.4667	-0
877.6278	-0
877.7889	-0
877.9499	0.5094
878.111	-0.6818
878.272	2.2718
878.433	-0
878.5939	0.4831
878.7549	-0
878.9158	-0.1867
879.0767	-0
879.2376	-0
879.3984	-0
879.5593	0.1365
879.7201	-0
879.8809	-0
880.0417	-0.2729
880.2024	-0.0222
880.3632	-0.1687
880.5239	0.1001
880.6846	-0.4104
880.8452	-0.0772
881.0059	-0
881.1665	0.1395
881.3271	0.4534
881.4877	0.4628
881.6483	-1.0506
881.8088	-0
881.9693	-0
882.1298	-0
882.2903	-0
