Data from D4ACN5uM420nmA_Absorbance_14-37-07-946.txt Node
Date: Fri Feb 21 14:37:07 GMT 2025
User: LASERRRRR
Spectrometer: FLMT03099
Trigger mode: 0
Integration Time (sec): 1.500000E-2
Scans to average: 1
Electric dark correction enabled: true
Nonlinearity correction enabled: false
Boxcar width: 0
XAxis mode: Wavelengths
Number of Pixels in Spectrum: 3648
>>>>>Begin Spectral Data<<<<<
179.3399	-0.3332
179.5586	-0.3332
179.7771	-0.3332
179.9957	-0.0502
180.2143	-0
180.4329	1.012
180.6514	-0
180.8699	-0
181.0885	-0
181.307	1.3021
181.5255	-0
181.744	-0
181.9625	0.859
182.181	-0.5059
182.3994	-0.3959
182.6179	-0.1288
182.8363	-0
183.0547	1.283
183.2732	0.222
183.4916	0.3846
183.71	0.2416
183.9284	0.1268
184.1467	0.3824
184.3651	0.1298
184.5835	0.1594
184.8018	0.3698
185.0201	0.2929
185.2385	0.1794
185.4568	0.479
185.6751	0.3033
185.8934	0.1401
186.1117	-0.0869
186.3299	0.2025
186.5482	0.3368
186.7664	0.1871
186.9847	0.1906
187.2029	0.4754
187.4211	0.2065
187.6393	0.2415
187.8575	0.4199
188.0757	0.5174
188.2939	0.2043
188.512	0.2893
188.7302	0.1816
188.9483	0.2587
189.1665	-0
189.3846	0.2495
189.6027	0.4351
189.8208	0.2374
190.0389	0.202
190.257	0.074
190.475	0.0544
190.6931	0.1528
190.9111	0.1383
191.1292	0.1787
191.3472	0.1968
191.5652	0.3178
191.7832	0.2747
192.0012	0.216
192.2192	0.1397
192.4371	0.0826
192.6551	0.1789
192.873	0.1039
193.091	0.1664
193.3089	0.1945
193.5268	0.3172
193.7447	0.1847
193.9626	0.3053
194.1805	0.2385
194.3984	0.2003
194.6162	0.2452
194.8341	0.3576
195.0519	0.2172
195.2697	0.2559
195.4875	0.387
195.7054	0.2621
195.9231	0.2509
196.1409	0.3541
196.3587	0.3164
196.5765	0.3204
196.7942	0.4382
197.012	0.3459
197.2297	0.3227
197.4474	0.354
197.6651	0.3042
197.8828	0.363
198.1005	0.3942
198.3182	0.3978
198.5358	0.3724
198.7535	0.3788
198.9711	0.3775
199.1888	0.3272
199.4064	0.4127
199.624	0.388
199.8416	0.3782
200.0592	0.429
200.2767	0.3706
200.4943	0.4044
200.7119	0.4059
200.9294	0.4021
201.1469	0.3908
201.3645	0.4565
201.582	0.4415
201.7995	0.4099
202.017	0.3913
202.2344	0.4139
202.4519	0.4317
202.6694	0.3993
202.8868	0.395
203.1042	0.3706
203.3217	0.3945
203.5391	0.4146
203.7565	0.3746
203.9739	0.3617
204.1913	0.3625
204.4086	0.3455
204.626	0.3638
204.8433	0.3784
205.0607	0.3893
205.278	0.3234
205.4953	0.3674
205.7126	0.3421
205.9299	0.3325
206.1472	0.311
206.3644	0.3506
206.5817	0.3451
206.7989	0.346
207.0162	0.3049
207.2334	0.3212
207.4506	0.3197
207.6678	0.33
207.885	0.294
208.1022	0.3103
208.3194	0.2994
208.5365	0.3105
208.7537	0.3087
208.9708	0.3101
209.1879	0.2935
209.405	0.288
209.6222	0.3108
209.8392	0.3041
210.0563	0.3145
210.2734	0.2795
210.4905	0.2657
210.7075	0.2887
210.9245	0.2773
211.1416	0.2787
211.3586	0.2672
211.5756	0.2585
211.7926	0.2733
212.0096	0.2805
212.2265	0.2715
212.4435	0.2507
212.6604	0.2508
212.8774	0.2517
213.0943	0.2673
213.3112	0.2651
213.5281	0.2516
213.745	0.2371
213.9619	0.2457
214.1788	0.2518
214.3956	0.2548
214.6125	0.2341
214.8293	0.2803
215.0461	0.2627
215.2629	0.2538
215.4798	0.2374
215.6965	0.2497
215.9133	0.2348
216.1301	0.2281
216.3469	0.2503
216.5636	0.2478
216.7803	0.2381
216.9971	0.2478
217.2138	0.2684
217.4305	0.2343
217.6472	0.2448
217.8639	0.2507
218.0805	0.2598
218.2972	0.2466
218.5138	0.2557
218.7305	0.248
218.9471	0.2399
219.1637	0.254
219.3803	0.2719
219.5969	0.2526
219.8135	0.2609
220.0301	0.2572
220.2466	0.2557
220.4632	0.2496
220.6797	0.2565
220.8962	0.2724
221.1127	0.2635
221.3292	0.2643
221.5457	0.2774
221.7622	0.2735
221.9787	0.2776
222.1951	0.2857
222.4116	0.2786
222.628	0.2933
222.8444	0.2732
223.0608	0.2827
223.2772	0.2718
223.4936	0.2905
223.71	0.2927
223.9264	0.294
224.1427	0.2745
224.3591	0.2808
224.5754	0.2991
224.7917	0.2934
225.008	0.3012
225.2243	0.3152
225.4406	0.289
225.6569	0.3074
225.8732	0.3074
226.0894	0.3186
226.3057	0.314
226.5219	0.3075
226.7381	0.3195
226.9543	0.3119
227.1705	0.3208
227.3867	0.327
227.6029	0.3314
227.8191	0.3288
228.0352	0.3471
228.2513	0.3515
228.4675	0.3422
228.6836	0.3364
228.8997	0.3472
229.1158	0.3534
229.3319	0.3626
229.548	0.3582
229.764	0.3604
229.9801	0.3729
230.1961	0.3771
230.4121	0.3662
230.6282	0.3921
230.8442	0.392
231.0602	0.3885
231.2761	0.3931
231.4921	0.397
231.7081	0.3865
231.924	0.4041
232.14	0.4013
232.3559	0.4067
232.5718	0.4099
232.7877	0.4049
233.0036	0.4099
233.2195	0.4142
233.4353	0.4216
233.6512	0.4142
233.867	0.4226
234.0829	0.4235
234.2987	0.4276
234.5145	0.4357
234.7303	0.4447
234.9461	0.4372
235.1619	0.441
235.3776	0.4424
235.5934	0.437
235.8091	0.4519
236.0249	0.4436
236.2406	0.4447
236.4563	0.4572
236.672	0.4466
236.8877	0.4495
237.1034	0.4591
237.319	0.4621
237.5347	0.4462
237.7503	0.4468
237.966	0.4654
238.1816	0.4525
238.3972	0.4629
238.6128	0.4562
238.8284	0.4637
239.0439	0.4732
239.2595	0.47
239.475	0.4633
239.6906	0.4703
239.9061	0.4635
240.1216	0.4742
240.3371	0.4674
240.5526	0.4643
240.7681	0.4659
240.9836	0.4609
241.199	0.4603
241.4145	0.4593
241.6299	0.4528
241.8453	0.4482
242.0607	0.4423
242.2761	0.4354
242.4915	0.4331
242.7069	0.4217
242.9223	0.4327
243.1376	0.4192
243.353	0.4083
243.5683	0.4117
243.7836	0.3928
243.9989	0.3931
244.2142	0.3825
244.4295	0.3787
244.6448	0.3817
244.86	0.3581
245.0753	0.3523
245.2905	0.3501
245.5057	0.3463
245.721	0.3471
245.9362	0.336
246.1514	0.3275
246.3665	0.3246
246.5817	0.3073
246.7969	0.3049
247.012	0.2998
247.2271	0.302
247.4423	0.2903
247.6574	0.2933
247.8725	0.2769
248.0876	0.2719
248.3026	0.2731
248.5177	0.2628
248.7328	0.2589
248.9478	0.2503
249.1628	0.2586
249.3779	0.2418
249.5929	0.2441
249.8079	0.243
250.0228	0.2348
250.2378	0.2381
250.4528	0.2352
250.6677	0.2266
250.8827	0.2207
251.0976	0.2209
251.3125	0.2227
251.5274	0.2135
251.7423	0.215
251.9572	0.2171
252.172	0.2138
252.3869	0.2098
252.6017	0.2057
252.8166	0.1995
253.0314	0.2004
253.2462	0.2011
253.461	0.2016
253.6758	0.1949
253.8906	0.1987
254.1053	0.1957
254.3201	0.1973
254.5348	0.1835
254.7496	0.1947
254.9643	0.1925
255.179	0.1885
255.3937	0.192
255.6083	0.1944
255.823	0.1948
256.0377	0.1869
256.2523	0.1859
256.467	0.1891
256.6816	0.1827
256.8962	0.1889
257.1108	0.1864
257.3254	0.1836
257.54	0.181
257.7545	0.1886
257.9691	0.1837
258.1836	0.1776
258.3981	0.1909
258.6127	0.1792
258.8272	0.188
259.0417	0.176
259.2561	0.1813
259.4706	0.1806
259.6851	0.1832
259.8995	0.1782
260.114	0.179
260.3284	0.1765
260.5428	0.1776
260.7572	0.1797
260.9716	0.1908
261.186	0.1835
261.4003	0.1821
261.6147	0.1758
261.829	0.1816
262.0433	0.1827
262.2577	0.1802
262.472	0.1791
262.6863	0.1902
262.9005	0.1801
263.1148	0.1812
263.3291	0.1837
263.5433	0.184
263.7576	0.1815
263.9718	0.1891
264.186	0.1873
264.4002	0.1927
264.6144	0.1894
264.8286	0.1937
265.0427	0.1888
265.2569	0.1918
265.471	0.1894
265.6851	0.1923
265.8993	0.1876
266.1134	0.1904
266.3275	0.1872
266.5415	0.1914
266.7556	0.1971
266.9697	0.1945
267.1837	0.194
267.3978	0.1955
267.6118	0.1834
267.8258	0.1915
268.0398	0.194
268.2538	0.1925
268.4677	0.1885
268.6817	0.1836
268.8957	0.1793
269.1096	0.182
269.3235	0.185
269.5374	0.1828
269.7514	0.1898
269.9652	0.1846
270.1791	0.1774
270.393	0.1825
270.6068	0.1888
270.8207	0.1847
271.0345	0.1872
271.2483	0.176
271.4622	0.1822
271.676	0.1823
271.8897	0.1853
272.1035	0.1898
272.3173	0.1846
272.531	0.1864
272.7448	0.1782
272.9585	0.1762
273.1722	0.1806
273.3859	0.1837
273.5996	0.1886
273.8133	0.1855
274.0269	0.1836
274.2406	0.1855
274.4542	0.1879
274.6679	0.1851
274.8815	0.1877
275.0951	0.1901
275.3087	0.1902
275.5223	0.1868
275.7358	0.1896
275.9494	0.1908
276.1629	0.1919
276.3765	0.1911
276.59	0.1898
276.8035	0.1882
277.017	0.2001
277.2305	0.1946
277.444	0.1931
277.6574	0.1914
277.8709	0.1973
278.0843	0.1923
278.2978	0.1949
278.5112	0.1913
278.7246	0.1942
278.938	0.1925
279.1513	0.2013
279.3647	0.1924
279.5781	0.1949
279.7914	0.1886
280.0047	0.193
280.2181	0.1885
280.4314	0.1933
280.6447	0.1951
280.8579	0.1859
281.0712	0.1901
281.2845	0.1935
281.4977	0.1942
281.711	0.1889
281.9242	0.1939
282.1374	0.1891
282.3506	0.1965
282.5638	0.1901
282.7769	0.1846
282.9901	0.1871
283.2033	0.1901
283.4164	0.1894
283.6295	0.1908
283.8426	0.1911
284.0557	0.1942
284.2688	0.194
284.4819	0.1864
284.695	0.1953
284.908	0.1931
285.1211	0.1901
285.3341	0.1816
285.5471	0.1973
285.7601	0.195
285.9731	0.1946
286.1861	0.1936
286.3991	0.1996
286.612	0.1957
286.825	0.193
287.0379	0.1966
287.2508	0.1935
287.4637	0.198
287.6766	0.1927
287.8895	0.1916
288.1024	0.1967
288.3152	0.1976
288.5281	0.191
288.7409	0.1944
288.9538	0.1969
289.1666	0.1909
289.3794	0.1893
289.5922	0.1921
289.8049	0.1879
290.0177	0.1952
290.2304	0.1938
290.4432	0.2013
290.6559	0.1925
290.8686	0.1942
291.0813	0.1987
291.294	0.199
291.5067	0.1884
291.7194	0.193
291.932	0.1883
292.1447	0.199
292.3573	0.1895
292.5699	0.197
292.7825	0.1965
292.9951	0.1922
293.2077	0.196
293.4203	0.1879
293.6328	0.1999
293.8454	0.1993
294.0579	0.1943
294.2704	0.1994
294.4829	0.1887
294.6954	0.1942
294.9079	0.1968
295.1204	0.1902
295.3328	0.2007
295.5453	0.1925
295.7577	0.1908
295.9701	0.1965
296.1825	0.2004
296.3949	0.1909
296.6073	0.1939
296.8197	0.1922
297.0321	0.1973
297.2444	0.1894
297.4567	0.1949
297.6691	0.1931
297.8814	0.1904
298.0937	0.193
298.306	0.1902
298.5182	0.2003
298.7305	0.1973
298.9428	0.1957
299.155	0.1887
299.3672	0.1935
299.5794	0.1963
299.7916	0.1935
300.0038	0.1955
300.216	0.1936
300.4282	0.1946
300.6403	0.2005
300.8525	0.1878
301.0646	0.1896
301.2767	0.1915
301.4888	0.1931
301.7009	0.1942
301.913	0.1944
302.125	0.1998
302.3371	0.1912
302.5491	0.1986
302.7612	0.2043
302.9732	0.1952
303.1852	0.1927
303.3972	0.195
303.6092	0.1912
303.8211	0.1943
304.0331	0.1932
304.245	0.1904
304.457	0.1911
304.6689	0.1945
304.8808	0.1911
305.0927	0.1922
305.3046	0.1808
305.5164	0.1854
305.7283	0.1865
305.9401	0.1801
306.152	0.1824
306.3638	0.1861
306.5756	0.1897
306.7874	0.1832
306.9992	0.1806
307.2109	0.1788
307.4227	0.1762
307.6344	0.1792
307.8462	0.1735
308.0579	0.1731
308.2696	0.1742
308.4813	0.1756
308.693	0.1603
308.9046	0.1723
309.1163	0.1707
309.328	0.1615
309.5396	0.1591
309.7512	0.1629
309.9628	0.1541
310.1744	0.1546
310.386	0.1516
310.5976	0.1548
310.8091	0.1619
311.0207	0.1549
311.2322	0.1496
311.4437	0.1548
311.6552	0.1525
311.8667	0.1508
312.0782	0.1464
312.2897	0.1516
312.5012	0.1476
312.7126	0.1406
312.924	0.1447
313.1355	0.1456
313.3469	0.1471
313.5583	0.1447
313.7696	0.1424
313.981	0.1462
314.1924	0.1345
314.4037	0.1422
314.6151	0.1377
314.8264	0.1418
315.0377	0.1415
315.249	0.1461
315.4603	0.133
315.6716	0.1391
315.8828	0.1368
316.0941	0.1409
316.3053	0.14
316.5165	0.1355
316.7277	0.1379
316.9389	0.1382
317.1501	0.1348
317.3613	0.1334
317.5724	0.1357
317.7836	0.1318
317.9947	0.1315
318.2058	0.1317
318.417	0.1346
318.6281	0.1321
318.8391	0.1337
319.0502	0.1379
319.2613	0.1303
319.4723	0.1336
319.6834	0.1416
319.8944	0.1344
320.1054	0.1361
320.3164	0.1285
320.5274	0.1323
320.7383	0.1369
320.9493	0.1314
321.1602	0.1336
321.3712	0.1382
321.5821	0.1288
321.793	0.1401
322.0039	0.1375
322.2148	0.1308
322.4257	0.1337
322.6365	0.1291
322.8474	0.1359
323.0582	0.1369
323.269	0.1382
323.4798	0.1337
323.6906	0.135
323.9014	0.1353
324.1122	0.1306
324.3229	0.1357
324.5337	0.1382
324.7444	0.1373
324.9551	0.1352
325.1658	0.1305
325.3765	0.1385
325.5872	0.1359
325.7979	0.1358
326.0085	0.1317
326.2192	0.1345
326.4298	0.1358
326.6404	0.1408
326.851	0.1368
327.0616	0.1417
327.2722	0.1434
327.4828	0.1397
327.6933	0.148
327.9039	0.1412
328.1144	0.1369
328.3249	0.1437
328.5354	0.1439
328.7459	0.1439
328.9564	0.1455
329.1669	0.1444
329.3773	0.1437
329.5878	0.1444
329.7982	0.1491
330.0086	0.1461
330.219	0.1474
330.4294	0.1492
330.6398	0.1501
330.8502	0.1477
331.0605	0.1437
331.2708	0.1383
331.4812	0.144
331.6915	0.1471
331.9018	0.1458
332.1121	0.1553
332.3224	0.1411
332.5326	0.1421
332.7429	0.1479
332.9531	0.1457
333.1633	0.1393
333.3735	0.1391
333.5837	0.1493
333.7939	0.1516
334.0041	0.1535
334.2143	0.146
334.4244	0.16
334.6346	0.145
334.8447	0.1519
335.0548	0.1472
335.2649	0.157
335.475	0.1498
335.685	0.1461
335.8951	0.1475
336.1051	0.1514
336.3152	0.1527
336.5252	0.1495
336.7352	0.1525
336.9452	0.1477
337.1552	0.1471
337.3652	0.148
337.5751	0.147
337.7851	0.1534
337.995	0.1585
338.2049	0.1526
338.4148	0.1542
338.6247	0.152
338.8346	0.1514
339.0445	0.158
339.2543	0.1477
339.4642	0.1512
339.674	0.146
339.8838	0.1563
340.0936	0.1525
340.3034	0.154
340.5132	0.1442
340.7229	0.1561
340.9327	0.1563
341.1424	0.1521
341.3522	0.1484
341.5619	0.1545
341.7716	0.1612
341.9813	0.1533
342.1909	0.1613
342.4006	0.1597
342.6102	0.1644
342.8199	0.159
343.0295	0.1507
343.2391	0.156
343.4487	0.1618
343.6583	0.1672
343.8679	0.1582
344.0774	0.1638
344.287	0.1584
344.4965	0.1662
344.706	0.169
344.9155	0.1579
345.125	0.1669
345.3345	0.1802
345.544	0.1735
345.7534	0.1673
345.9629	0.1733
346.1723	0.1758
346.3817	0.1704
346.5911	0.1679
346.8005	0.18
347.0099	0.1696
347.2193	0.1745
347.4286	0.173
347.638	0.1755
347.8473	0.1828
348.0566	0.1813
348.2659	0.1782
348.4752	0.1752
348.6845	0.1756
348.8937	0.1785
349.103	0.1816
349.3122	0.1785
349.5214	0.1837
349.7306	0.1874
349.9398	0.1772
350.149	0.1823
350.3582	0.181
350.5674	0.1874
350.7765	0.1913
350.9856	0.183
351.1948	0.1836
351.4039	0.1888
351.613	0.1864
351.822	0.1935
352.0311	0.1859
352.2402	0.1904
352.4492	0.1924
352.6582	0.1879
352.8672	0.1905
353.0762	0.1902
353.2852	0.1876
353.4942	0.1862
353.7032	0.1867
353.9121	0.191
354.1211	0.1871
354.33	0.1952
354.5389	0.1839
354.7478	0.185
354.9567	0.1955
355.1655	0.1931
355.3744	0.1987
355.5833	0.1896
355.7921	0.1974
356.0009	0.1965
356.2097	0.1911
356.4185	0.1859
356.6273	0.1986
356.8361	0.1913
357.0448	0.1855
357.2536	0.1984
357.4623	0.1971
357.671	0.2011
357.8797	0.1987
358.0884	0.1872
358.2971	0.2039
358.5057	0.204
358.7144	0.1944
358.923	0.1993
359.1316	0.2014
359.3402	0.2086
359.5488	0.191
359.7574	0.2138
359.966	0.2026
360.1746	0.1991
360.3831	0.2041
360.5916	0.204
360.8002	0.2121
361.0087	0.2059
361.2172	0.2083
361.4256	0.2097
361.6341	0.2074
361.8426	0.2079
362.051	0.2091
362.2594	0.2063
362.4678	0.2137
362.6762	0.2236
362.8846	0.2188
363.093	0.2113
363.3014	0.22
363.5097	0.2224
363.718	0.2243
363.9264	0.2162
364.1347	0.2277
364.343	0.2227
364.5513	0.2275
364.7595	0.2341
364.9678	0.2235
365.176	0.2328
365.3842	0.23
365.5925	0.2291
365.8007	0.2278
366.0089	0.2291
366.217	0.2376
366.4252	0.2313
366.6333	0.2347
366.8415	0.2387
367.0496	0.2273
367.2577	0.2374
367.4658	0.2301
367.6739	0.2328
367.882	0.2421
368.09	0.2339
368.2981	0.2359
368.5061	0.2423
368.7141	0.2355
368.9221	0.2505
369.1301	0.2465
369.3381	0.2485
369.5461	0.2442
369.754	0.25
369.962	0.2467
370.1699	0.2403
370.3778	0.2515
370.5857	0.2422
370.7936	0.2477
371.0015	0.2529
371.2093	0.2491
371.4172	0.2486
371.625	0.2462
371.8328	0.2473
372.0406	0.2583
372.2484	0.2494
372.4562	0.2536
372.664	0.2485
372.8717	0.2524
373.0795	0.2633
373.2872	0.2569
373.4949	0.2628
373.7026	0.2575
373.9103	0.2508
374.118	0.2599
374.3256	0.2639
374.5333	0.2583
374.7409	0.2733
374.9485	0.2659
375.1561	0.2707
375.3637	0.2622
375.5713	0.2741
375.7789	0.268
375.9864	0.2695
376.194	0.2741
376.4015	0.269
376.609	0.2728
376.8165	0.2755
377.024	0.2639
377.2315	0.2727
377.4389	0.2687
377.6464	0.2796
377.8538	0.2675
378.0612	0.2734
378.2686	0.2692
378.476	0.2794
378.6834	0.2703
378.8908	0.283
379.0981	0.2854
379.3055	0.275
379.5128	0.2726
379.7201	0.2841
379.9274	0.2753
380.1347	0.2823
380.342	0.2882
380.5492	0.2779
380.7565	0.2828
380.9637	0.2893
381.1709	0.288
381.3781	0.291
381.5853	0.2829
381.7925	0.2871
381.9997	0.2827
382.2068	0.2875
382.4139	0.2886
382.6211	0.2898
382.8282	0.2917
383.0353	0.2896
383.2424	0.294
383.4494	0.2878
383.6565	0.2952
383.8635	0.2835
384.0706	0.2905
384.2776	0.2923
384.4846	0.2955
384.6916	0.2956
384.8986	0.3006
385.1055	0.3022
385.3125	0.2988
385.5194	0.3008
385.7263	0.2852
385.9333	0.2937
386.1402	0.2875
386.347	0.2981
386.5539	0.2941
386.7608	0.2892
386.9676	0.2974
387.1744	0.2907
387.3813	0.2914
387.5881	0.2859
387.7948	0.2928
388.0016	0.3024
388.2084	0.2857
388.4151	0.2927
388.6219	0.2846
388.8286	0.2934
389.0353	0.2913
389.242	0.2912
389.4487	0.2897
389.6553	0.278
389.862	0.2844
390.0686	0.2885
390.2753	0.2818
390.4819	0.2938
390.6885	0.291
390.8951	0.2892
391.1016	0.2801
391.3082	0.2886
391.5147	0.2777
391.7213	0.2856
391.9278	0.2835
392.1343	0.2784
392.3408	0.2812
392.5473	0.2817
392.7537	0.2714
392.9602	0.2691
393.1666	0.269
393.373	0.2673
393.5794	0.2696
393.7858	0.2759
393.9922	0.2568
394.1986	0.2661
394.4049	0.2678
394.6113	0.2657
394.8176	0.2684
395.0239	0.2635
395.2302	0.2705
395.4365	0.2615
395.6428	0.2562
395.8491	0.2543
396.0553	0.2617
396.2615	0.2582
396.4678	0.2558
396.674	0.2547
396.8802	0.2548
397.0863	0.255
397.2925	0.2575
397.4987	0.2466
397.7048	0.257
397.9109	0.2499
398.117	0.2583
398.3231	0.2496
398.5292	0.2427
398.7353	0.2471
398.9413	0.2496
399.1474	0.2478
399.3534	0.2537
399.5594	0.2581
399.7654	0.2502
399.9714	0.2525
400.1774	0.2485
400.3833	0.2525
400.5893	0.2536
400.7952	0.2586
401.0011	0.2421
401.207	0.2538
401.4129	0.2492
401.6188	0.2565
401.8247	0.2602
402.0305	0.2484
402.2364	0.2544
402.4422	0.2539
402.648	0.2485
402.8538	0.2482
403.0596	0.2506
403.2654	0.2522
403.4711	0.2518
403.6768	0.2502
403.8826	0.2504
404.0883	0.2582
404.294	0.2449
404.4997	0.2564
404.7054	0.2513
404.911	0.2511
405.1167	0.248
405.3223	0.2427
405.5279	0.2515
405.7335	0.2512
405.9391	0.2548
406.1447	0.2572
406.3502	0.251
406.5558	0.2452
406.7613	0.2456
406.9668	0.2507
407.1724	0.2419
407.3778	0.2562
407.5833	0.2448
407.7888	0.2471
407.9942	0.2481
408.1997	0.2534
408.4051	0.2538
408.6105	0.2512
408.8159	0.2416
409.0213	0.2545
409.2267	0.258
409.432	0.2441
409.6374	0.2514
409.8427	0.2502
410.048	0.2568
410.2533	0.2517
410.4586	0.2459
410.6639	0.2528
410.8691	0.2372
411.0744	0.2452
411.2796	0.2433
411.4848	0.2524
411.69	0.2363
411.8952	0.253
412.1004	0.2458
412.3056	0.2426
412.5107	0.2491
412.7158	0.2527
412.921	0.2433
413.1261	0.246
413.3312	0.2665
413.5362	0.2594
413.7413	0.2482
413.9464	0.233
414.1514	0.2391
414.3564	0.2437
414.5614	0.2314
414.7664	0.2381
414.9714	0.2388
415.1764	0.2431
415.3813	0.2369
415.5863	0.2498
415.7912	0.239
415.9961	0.2374
416.201	0.255
416.4059	0.2411
416.6108	0.2428
416.8156	0.2358
417.0205	0.2408
417.2253	0.2357
417.4301	0.2459
417.6349	0.2402
417.8397	0.2338
418.0445	0.2347
418.2492	0.2357
418.454	0.2337
418.6587	0.2392
418.8634	0.2257
419.0681	0.2473
419.2728	0.2324
419.4775	0.2466
419.6822	0.2281
419.8868	0.2365
420.0915	0.2281
420.2961	0.2297
420.5007	0.2286
420.7053	0.2311
420.9099	0.2307
421.1144	0.2281
421.319	0.2207
421.5235	0.222
421.728	0.2329
421.9325	0.2288
422.137	0.2209
422.3415	0.2185
422.546	0.217
422.7504	0.2205
422.9549	0.2319
423.1593	0.2129
423.3637	0.2172
423.5681	0.2137
423.7725	0.2125
423.9769	0.2176
424.1812	0.2186
424.3856	0.211
424.5899	0.2228
424.7942	0.2123
424.9985	0.214
425.2028	0.2181
425.4071	0.208
425.6113	0.2155
425.8156	0.2113
426.0198	0.211
426.224	0.2085
426.4282	0.1983
426.6324	0.2039
426.8366	0.2014
427.0407	0.1946
427.2449	0.1996
427.449	0.1999
427.6531	0.2093
427.8572	0.201
428.0613	0.2078
428.2654	0.2013
428.4694	0.1792
428.6735	0.1976
428.8775	0.1934
429.0815	0.1923
429.2855	0.1903
429.4895	0.193
429.6935	0.1829
429.8975	0.1882
430.1014	0.1943
430.3053	0.1823
430.5093	0.1847
430.7132	0.1836
430.9171	0.1748
431.1209	0.1836
431.3248	0.1679
431.5286	0.1679
431.7325	0.1839
431.9363	0.1706
432.1401	0.1656
432.3439	0.1684
432.5477	0.1655
432.7514	0.1628
432.9552	0.1723
433.1589	0.1688
433.3627	0.1604
433.5664	0.1495
433.7701	0.1626
433.9737	0.1598
434.1774	0.1596
434.3811	0.1498
434.5847	0.1589
434.7883	0.1464
434.9919	0.1524
435.1955	0.1569
435.3991	0.1502
435.6027	0.1386
435.8062	0.1712
436.0098	0.1363
436.2133	0.1492
436.4168	0.1408
436.6203	0.1331
436.8238	0.1377
437.0272	0.1331
437.2307	0.1347
437.4341	0.1245
437.6375	0.1322
437.841	0.1231
438.0443	0.1343
438.2477	0.1261
438.4511	0.1108
438.6545	0.1217
438.8578	0.1208
439.0611	0.1227
439.2644	0.1164
439.4677	0.1183
439.671	0.1126
439.8743	0.1219
440.0775	0.1005
440.2808	0.1148
440.484	0.1047
440.6872	0.1042
440.8904	0.0927
441.0936	0.107
441.2967	0.0873
441.4999	0.0914
441.703	0.0979
441.9062	0.0981
442.1093	0.1088
442.3124	0.0912
442.5155	0.0986
442.7185	0.0847
442.9216	0.0942
443.1246	0.0875
443.3276	0.0909
443.5307	0.0791
443.7337	0.0879
443.9366	0.0787
444.1396	0.0801
444.3426	0.0779
444.5455	0.0765
444.7484	0.0773
444.9513	0.0795
445.1542	0.0823
445.3571	0.0853
445.56	0.0696
445.7628	0.0709
445.9657	0.0788
446.1685	0.0739
446.3713	0.0771
446.5741	0.0701
446.7769	0.0697
446.9797	0.0691
447.1824	0.0685
447.3852	0.0585
447.5879	0.0637
447.7906	0.0547
447.9933	0.068
448.196	0.0536
448.3986	0.0643
448.6013	0.0503
448.8039	0.0569
449.0066	0.068
449.2092	0.0625
449.4118	0.0527
449.6143	0.0551
449.8169	0.0564
450.0195	0.0445
450.222	0.052
450.4245	0.0531
450.627	0.0478
450.8295	0.0477
451.032	0.0451
451.2345	0.0434
451.4369	0.0471
451.6394	0.0455
451.8418	0.0447
452.0442	0.0437
452.2466	0.0387
452.449	0.0458
452.6513	0.0403
452.8537	0.0344
453.056	0.0401
453.2583	0.0402
453.4607	0.0352
453.663	0.0397
453.8652	0.036
454.0675	0.0517
454.2697	0.0378
454.472	0.034
454.6742	0.0352
454.8764	0.0365
455.0786	0.04
455.2808	0.0319
455.4829	0.0398
455.6851	0.0391
455.8872	0.0183
456.0893	0.0277
456.2915	0.0336
456.4935	0.0354
456.6956	0.0293
456.8977	0.0243
457.0997	0.0306
457.3018	0.0339
457.5038	0.0366
457.7058	0.0306
457.9078	0.033
458.1098	0.0317
458.3117	0.0328
458.5137	0.0127
458.7156	0.0252
458.9175	0.0275
459.1194	0.0199
459.3213	0.0253
459.5232	0.0271
459.725	0.0304
459.9269	0.0337
460.1287	0.0189
460.3305	0.0309
460.5323	0.0284
460.7341	0.0211
460.9359	0.0163
461.1376	0.0317
461.3394	0.0244
461.5411	0.0234
461.7428	0.0237
461.9445	0.0189
462.1462	0.0224
462.3479	0.0224
462.5495	0.0288
462.7512	0.0224
462.9528	0.0184
463.1544	0.0104
463.356	0.0164
463.5576	0.0201
463.7592	0.0235
463.9607	0.0195
464.1623	0.0167
464.3638	0.0124
464.5653	0.0145
464.7668	0.0243
464.9683	0.0224
465.1697	0.0241
465.3712	0.0128
465.5726	0.0145
465.7741	0.027
465.9755	0.0226
466.1769	0.013
466.3782	0.0136
466.5796	0.0172
466.7809	0.0224
466.9823	0.019
467.1836	0.0108
467.3849	0.012
467.5862	0.0039
467.7875	0.0148
467.9887	0.0141
468.19	0.0114
468.3912	0.0181
468.5924	0.0138
468.7936	0.0142
468.9948	0.016
469.196	0.0128
469.3972	0.0081
469.5983	0.0186
469.7994	0.0264
470.0006	0.0152
470.2017	0.0161
470.4027	0.0268
470.6038	0.0228
470.8049	0.0099
471.0059	0.0228
471.2069	0.0157
471.408	0.0162
471.6089	0.0194
471.8099	0.0237
472.0109	0.014
472.2119	0.0287
472.4128	0.0107
472.6137	0.0172
472.8146	0.0189
473.0155	0.0246
473.2164	0.0154
473.4173	0.0017
473.6181	0.0078
473.819	0.0093
474.0198	0.0158
474.2206	0.0074
474.4214	0.0108
474.6222	0.001
474.8229	0.0137
475.0237	0.0191
475.2244	0.0234
475.4251	0.0105
475.6258	0.0147
475.8265	0.0134
476.0272	0.0118
476.2278	0.0184
476.4285	0.0091
476.6291	0.0137
476.8297	0.0056
477.0303	0.0097
477.2309	0.0117
477.4315	0.0103
477.632	0.001
477.8326	0.0125
478.0331	0.031
478.2336	0.0169
478.4341	0.0146
478.6346	0.0083
478.8351	0.0046
479.0355	0.0186
479.236	0.0172
479.4364	0.0055
479.6368	0.0034
479.8372	0.0132
480.0376	0.0095
480.2379	0.0149
480.4383	0.0147
480.6386	0.0052
480.8389	0.0114
481.0392	0.011
481.2395	0.0169
481.4398	0.015
481.6401	0.017
481.8403	0.0156
482.0405	0.004
482.2408	0.0128
482.441	0.0175
482.6411	0.0147
482.8413	0.0043
483.0415	0.0146
483.2416	0.0128
483.4417	0.0119
483.6419	0.0111
483.8419	0.014
484.042	0.0128
484.2421	0.0071
484.4422	0.0131
484.6422	0.0098
484.8422	0.0117
485.0422	0.0087
485.2422	0.0039
485.4422	0.0064
485.6422	0.0032
485.8421	0.0085
486.042	0.0141
486.242	0.0114
486.4419	0.0069
486.6417	0.0067
486.8416	0.0109
487.0415	0.0057
487.2413	0.0041
487.4411	0.0113
487.641	0.0064
487.8408	0.0141
488.0405	0.0188
488.2403	0.0029
488.4401	0.0142
488.6398	0.0194
488.8395	0.009
489.0392	0.0174
489.2389	0.012
489.4386	0.0068
489.6383	0.0188
489.8379	0.0056
490.0376	0.011
490.2372	0.0043
490.4368	0.008
490.6364	0.0031
490.836	0.0007
491.0355	0.0012
491.2351	0.0118
491.4346	0.0096
491.6341	0.0036
491.8336	0.0152
492.0331	0.0098
492.2326	0.0043
492.432	0.0133
492.6315	0.02
492.8309	0.0164
493.0303	0.0127
493.2297	0.0117
493.4291	0.0065
493.6284	0.0202
493.8278	0.0087
494.0271	0.0086
494.2264	0.0071
494.4257	0.0165
494.625	0.0126
494.8243	0.0111
495.0236	0.0097
495.2228	0.014
495.422	0.0129
495.6213	0.0145
495.8205	0.0146
496.0196	0.0147
496.2188	0.0092
496.418	0.0089
496.6171	0.0147
496.8162	0.016
497.0153	0.0158
497.2144	0.0069
497.4135	0.0169
497.6126	0.0073
497.8116	0.0085
498.0107	0.0208
498.2097	0.0102
498.4087	0.0092
498.6077	0.0023
498.8067	0.0058
499.0056	0.0165
499.2046	0.0148
499.4035	0.0161
499.6024	0.0057
499.8013	0.0143
500.0002	0.0057
500.199	0.0226
500.3979	0.0047
500.5967	0.0098
500.7956	0.01
500.9944	0.0098
501.1932	0.017
501.3919	0.0173
501.5907	0.0161
501.7895	0.0103
501.9882	0.0115
502.1869	0.0144
502.3856	0.0106
502.5843	0.0071
502.783	0.0131
502.9816	0.0087
503.1803	0.0056
503.3789	0.0184
503.5775	0.0089
503.7761	0.005
503.9747	0.0125
504.1732	0.0032
504.3718	0.0147
504.5703	0.0139
504.7689	0.0018
504.9674	0.0133
505.1658	0.0114
505.3643	0.0115
505.5628	0.0128
505.7612	0.024
505.9597	0.0024
506.1581	0.0041
506.3565	0.0108
506.5549	0.0113
506.7532	0.0078
506.9516	0.0102
507.1499	0.0111
507.3482	0.0113
507.5465	0.0133
507.7448	0.0068
507.9431	0.0126
508.1414	0.0082
508.3396	0.0067
508.5379	0.0106
508.7361	0.0135
508.9343	0.01
509.1325	0.021
509.3306	0.0087
509.5288	0.0054
509.7269	0.0182
509.9251	0.017
510.1232	0.0194
510.3213	0.0109
510.5193	0.0103
510.7174	0.0043
510.9154	0.0111
511.1135	0.009
511.3115	0.0035
511.5095	0.0018
511.7075	0.0054
511.9055	0.0131
512.1034	0.0034
512.3014	0.0101
512.4993	0.01
512.6972	0.0074
512.8951	0.0175
513.093	0.0054
513.2908	0.0207
513.4887	0.0054
513.6865	0.0159
513.8844	0.0086
514.0822	0.0109
514.2799	0.0006
514.4777	0.0016
514.6755	0.0126
514.8732	-0.0005
515.0709	0.0139
515.2687	0.0077
515.4664	0.0233
515.664	0.0115
515.8617	0.0085
516.0594	0.0047
516.257	0.0177
516.4546	0.0207
516.6522	0.0137
516.8498	0.0161
517.0474	0.0107
517.2449	0.0094
517.4425	0.0158
517.64	0.0126
517.8375	0.0243
518.035	0.0073
518.2325	0.0008
518.43	0.0036
518.6274	0.0144
518.8249	0.0043
519.0223	0.0158
519.2197	0.0099
519.4171	-0.0007
519.6145	0.017
519.8118	-0.0045
520.0092	0.005
520.2065	0.0199
520.4038	0.0025
520.6011	0.0145
520.7984	0.0124
520.9956	0.0176
521.1929	0.0165
521.3901	0.0168
521.5874	0.0197
521.7846	0.0136
521.9818	0.0029
522.1789	0.0129
522.3761	0.0234
522.5732	0.0158
522.7704	-0.0076
522.9675	0.001
523.1646	0.0068
523.3617	0.0162
523.5587	0.0168
523.7558	0.0142
523.9528	0.0137
524.1498	0.0118
524.3468	0.0114
524.5438	0.0095
524.7408	0.0037
524.9378	0.0089
525.1347	0.0126
525.3316	0.0086
525.5285	0.0156
525.7254	0.0108
525.9223	0.0151
526.1192	0.0158
526.316	0.018
526.5129	0.0124
526.7097	0.0096
526.9065	0.0138
527.1033	0.0041
527.3	0.0066
527.4968	0.0044
527.6935	0.0116
527.8903	0.0047
528.087	0.0106
528.2837	0.0227
528.4804	0.0079
528.677	0.0135
528.8737	0.0175
529.0703	0.005
529.2669	0.015
529.4635	0.0031
529.6601	0.0009
529.8567	0.0117
530.0532	0.0015
530.2498	0.0041
530.4463	0.0027
530.6428	0.013
530.8393	0.0168
531.0358	0.0003
531.2322	0.0067
531.4287	0.0069
531.6251	0.0012
531.8215	0.0066
532.0179	0.0147
532.2143	0.0127
532.4107	0.0111
532.607	0.0167
532.8034	0.012
532.9997	0.0091
533.196	0.0026
533.3923	0.02
533.5886	0.0092
533.7848	0.0059
533.9811	0.0121
534.1773	0.0087
534.3735	0.015
534.5697	0.0046
534.7659	0.0166
534.9621	0.0168
535.1582	0.0185
535.3544	0.018
535.5505	0.0049
535.7466	0.0171
535.9427	0.0069
536.1387	0.0039
536.3348	0.0155
536.5308	0.0067
536.7269	0.0003
536.9229	0.0108
537.1189	0.0145
537.3148	0.0021
537.5108	0.0135
537.7068	0.0152
537.9027	-0.0034
538.0986	0.0201
538.2945	0.007
538.4904	0.002
538.6863	0.0106
538.8821	0.0181
539.078	0.0039
539.2738	0.0145
539.4696	0.012
539.6654	0.0115
539.8611	0.0054
540.0569	0.0049
540.2526	0.0155
540.4484	0.004
540.6441	0.0129
540.8398	0.0129
541.0355	0.0095
541.2311	0.0089
541.4268	0.0159
541.6224	0.017
541.818	0.0098
542.0136	0.0151
542.2092	0.0067
542.4048	0.0113
542.6003	0.0076
542.7959	0.0098
542.9914	0.015
543.1869	0.009
543.3824	0.0102
543.5779	0.0168
543.7734	0.0195
543.9688	0.0113
544.1642	0.0138
544.3596	0.0125
544.555	-0.0015
544.7504	0.0193
544.9458	0.0108
545.1411	0.0116
545.3365	0.0064
545.5318	0.0174
545.7271	0.0217
545.9224	0.0123
546.1177	0.0097
546.3129	0.0115
546.5081	0.01
546.7034	0.012
546.8986	0.0089
547.0938	0.0085
547.289	0.0226
547.4841	0.0069
547.6793	0.0148
547.8744	0.0128
548.0695	0.0069
548.2646	0.0117
548.4597	0.0113
548.6548	0.008
548.8498	0.0219
549.0448	0.0023
549.2399	0.0197
549.4349	0.0178
549.6298	0.0134
549.8248	0.0067
550.0198	0.0105
550.2147	0.0152
550.4096	0.0091
550.6045	0.0054
550.7994	0.0091
550.9943	0.0148
551.1892	-0.0072
551.384	0.0185
551.5788	0.0131
551.7737	0.0136
551.9685	0.023
552.1632	0.0037
552.358	0.0012
552.5528	0.013
552.7475	0.0096
552.9422	0.0121
553.1369	0.0199
553.3316	0.0028
553.5263	0.0178
553.7209	0.0107
553.9156	0.0135
554.1102	0.0073
554.3048	0.0023
554.4994	0.0041
554.694	0.0096
554.8885	0.0203
555.0831	0.0073
555.2776	0.0171
555.4721	0.0062
555.6666	0.0094
555.8611	0.0174
556.0555	0.0092
556.25	0.0122
556.4444	0.0099
556.6388	-0.0019
556.8332	0.0109
557.0276	0.0147
557.222	-0.0085
557.4163	0.0118
557.6107	0.0064
557.805	0.0009
557.9993	0.0045
558.1936	0.0004
558.3879	0.011
558.5821	0.0095
558.7764	0.0112
558.9706	0.0084
559.1648	0.0208
559.359	0.0019
559.5532	0.0021
559.7473	0.0036
559.9415	0.0116
560.1356	0.0154
560.3297	0.0073
560.5238	0.0198
560.7179	0.0011
560.9119	0.0042
561.106	0.0032
561.3	0.0108
561.494	-0.0016
561.688	-0.0017
561.882	0.0121
562.076	0.0107
562.2699	0.0146
562.4639	0.03
562.6578	0.0121
562.8517	0.0029
563.0456	0.0048
563.2395	0.0172
563.4333	0.0231
563.6272	0.0052
563.821	0.004
564.0148	0.0019
564.2086	0.0087
564.4024	0.0168
564.5961	0.0173
564.7899	0.017
564.9836	0.0107
565.1773	0.0103
565.371	0.0039
565.5647	0.0151
565.7584	0.0127
565.952	0.0102
566.1456	0.0108
566.3393	0.0125
566.5329	0.0128
566.7264	0.0164
566.92	0.0026
567.1136	0.0116
567.3071	0.0032
567.5006	0.0083
567.6941	0.0086
567.8876	0.0106
568.0811	0.0282
568.2745	0.0053
568.468	0.0073
568.6614	0.01
568.8548	0.0129
569.0482	0.0084
569.2416	0.0089
569.4349	0.0043
569.6283	0.0065
569.8216	0.0069
570.0149	0.0038
570.2082	0.0164
570.4015	0.011
570.5947	0.0079
570.788	0.0073
570.9812	0.0075
571.1744	0.0104
571.3676	0.0129
571.5608	0.0136
571.754	0.0171
571.9471	0.0132
572.1402	0.0112
572.3333	0.0134
572.5264	0.0068
572.7195	0.0016
572.9126	0.0037
573.1057	0.0079
573.2987	0.0046
573.4917	0.0063
573.6847	0.0048
573.8777	0.0107
574.0707	0.0083
574.2636	0.0092
574.4566	0.0065
574.6495	0.0018
574.8424	0.0097
575.0353	0.0092
575.2281	0.0142
575.421	0.0099
575.6138	0.0096
575.8067	0.0064
575.9995	0.0079
576.1923	0.0084
576.385	0.0091
576.5778	0.0107
576.7706	0.0069
576.9633	0.0088
577.156	0.0024
577.3487	0.0059
577.5414	0.0075
577.734	0.0084
577.9267	0.0098
578.1193	0.0114
578.3119	0.006
578.5045	0.0103
578.6971	0.0074
578.8897	0.0057
579.0822	0.0131
579.2747	0.0085
579.4673	0.0116
579.6598	0.0121
579.8522	0.0046
580.0447	0.0092
580.2372	0.0127
580.4296	0.0128
580.622	0.0064
580.8144	0.0091
581.0068	0.0074
581.1992	0.0088
581.3915	0.001
581.5839	0.0081
581.7762	0.0051
581.9685	0.0114
582.1608	0.0064
582.353	0.0079
582.5453	0.0073
582.7375	0.0103
582.9298	0.0047
583.122	0.0034
583.3142	0.0124
583.5063	0.0076
583.6985	0.0076
583.8906	0.0061
584.0827	0.0059
584.2749	0.0037
584.4669	0.0054
584.659	0.0147
584.8511	0.0108
585.0431	0.0071
585.2352	0.0073
585.4272	0.0103
585.6192	0.0095
585.8111	0.0069
586.0031	-0.0005
586.195	0.005
586.387	0.0031
586.5789	0.0113
586.7708	0.014
586.9627	0.0103
587.1545	0.0121
587.3464	0.0096
587.5382	0.0095
587.73	0.0149
587.9218	0.0075
588.1136	0.004
588.3053	0.0121
588.4971	0.0057
588.6888	0.0068
588.8805	0.0072
589.0722	0.0165
589.2639	0.0072
589.4556	0.0123
589.6472	0.0161
589.8389	0.0051
590.0305	0.0026
590.2221	0.0117
590.4137	0.007
590.6052	-0.0004
590.7968	0.0097
590.9883	0.011
591.1798	0.0068
591.3713	0.0136
591.5628	0.0139
591.7543	0.0103
591.9458	0.0082
592.1372	0.0112
592.3286	0.0083
592.52	0.009
592.7114	0.0108
592.9028	0.012
593.0941	0.0073
593.2855	0.0097
593.4768	0.0144
593.6681	0.0133
593.8594	0.0095
594.0506	0.0064
594.2419	0.0114
594.4331	0.005
594.6244	0.0068
594.8156	0.0039
595.0067	0.0045
595.1979	0.0123
595.3891	0.0096
595.5802	0.0138
595.7713	0.0112
595.9624	0.0123
596.1535	0.0151
596.3446	0.0015
596.5357	0.0237
596.7267	0.0096
596.9177	0.0083
597.1087	0.0036
597.2997	0.0152
597.4907	0.0088
597.6817	0.008
597.8726	0.0156
598.0635	0.0121
598.2544	0.0119
598.4453	0.0145
598.6362	0.0108
598.827	0.0048
599.0179	0.0074
599.2087	0.0118
599.3995	0.0108
599.5903	0.0172
599.7811	0.0165
599.9718	0.002
600.1626	0.0044
600.3533	0.009
600.544	0.0145
600.7347	0.0086
600.9254	0.0125
601.116	0.0105
601.3067	0.0043
601.4973	0.0081
601.6879	0.007
601.8785	0.0089
602.0691	0.0096
602.2596	0.0091
602.4502	0.0086
602.6407	0.0089
602.8312	0.0087
603.0217	0.0151
603.2122	0.0086
603.4027	0.011
603.5931	0.0079
603.7835	0.011
603.9739	0.0092
604.1643	0.0093
604.3547	0.0183
604.5451	0.0111
604.7354	0.0035
604.9257	0.0051
605.116	0.0057
605.3063	0.0108
605.4966	0.0048
605.6869	0.0159
605.8771	0.0087
606.0673	0.0102
606.2575	0.006
606.4477	0.0098
606.6379	0.0038
606.8281	0.0028
607.0182	0.0112
607.2083	0.0079
607.3985	0.0068
607.5885	0.0092
607.7786	0.0122
607.9687	0.0138
608.1587	0.0093
608.3488	0.0103
608.5388	0.0057
608.7288	0.0071
608.9187	0.0122
609.1087	0.0134
609.2986	0.0118
609.4886	0.0058
609.6785	0.0117
609.8684	0.0035
610.0582	0.0129
610.2481	0.0054
610.4379	0.0143
610.6278	0.0031
610.8176	0.013
611.0074	0.0074
611.1971	0.0093
611.3869	0.0075
611.5766	-0.0017
611.7664	0.0151
611.9561	0.0128
612.1458	0.0121
612.3354	0.0083
612.5251	0.0099
612.7147	0.012
612.9044	0.0055
613.094	0.0084
613.2836	0.0057
613.4731	0.012
613.6627	0.0117
613.8522	0.0128
614.0417	0.0134
614.2313	0.0106
614.4207	0.0128
614.6102	0.0146
614.7997	0.0153
614.9891	0.0029
615.1785	0.0045
615.3679	0.0084
615.5573	0.0171
615.7467	0.0086
615.9361	0.0148
616.1254	0.0134
616.3147	0.0135
616.504	0.0082
616.6933	0.0112
616.8826	0.004
617.0718	0.016
617.2611	-0.0002
617.4503	0.0116
617.6395	0.0103
617.8287	0.0169
618.0179	0.0083
618.207	0.0073
618.3961	0.0123
618.5853	0.0071
618.7744	0.0138
618.9634	0.0152
619.1525	0.0125
619.3416	0.0083
619.5306	0.0144
619.7196	0.0107
619.9086	0.0076
620.0976	0.0143
620.2866	0.0179
620.4755	0.0053
620.6645	0.0173
620.8534	0.0066
621.0423	0.0203
621.2312	0.0023
621.42	0.0079
621.6089	0.0142
621.7977	0.0108
621.9865	0.0092
622.1753	-0.0051
622.3641	0.0063
622.5529	-0.0004
622.7416	0.006
622.9303	0.0064
623.1191	0.0114
623.3078	0.0115
623.4964	0.0124
623.6851	0.0154
623.8737	0.0092
624.0624	0.0031
624.251	0.0075
624.4396	-0.0003
624.6282	0.0054
624.8167	0.0052
625.0053	0.0141
625.1938	0.0042
625.3823	0.0161
625.5708	0.0092
625.7593	0.0138
625.9477	0.0032
626.1362	0.0059
626.3246	0.0088
626.513	0.0081
626.7014	0.0149
626.8898	0.0157
627.0781	0.0018
627.2665	0.0185
627.4548	0.0053
627.6431	0.0198
627.8314	0.0261
628.0197	0.0221
628.2079	0.0047
628.3962	0.0204
628.5844	0.0128
628.7726	0.0082
628.9608	0.0165
629.1489	0.0085
629.3371	0.0042
629.5252	0.0195
629.7134	0.0118
629.9015	0.0133
630.0895	0.0017
630.2776	0.02
630.4657	0.0031
630.6537	0.0204
630.8417	0.0171
631.0297	0.0124
631.2177	0.0147
631.4057	0.0045
631.5936	0.0097
631.7815	0.0027
631.9695	0.0337
632.1574	0.0212
632.3452	0.0264
632.5331	0.0139
632.7209	0.0214
632.9088	0.0136
633.0966	0.031
633.2844	0.022
633.4722	0.0195
633.6599	0.0304
633.8477	0.0123
634.0354	0.0231
634.2231	0.0037
634.4108	0.02
634.5985	0.015
634.7861	0.0047
634.9738	0.0002
635.1614	0.0177
635.349	0.0089
635.5366	0.0164
635.7242	-0.0013
635.9117	0.0192
636.0993	0.0124
636.2868	0.0105
636.4743	0.0069
636.6618	-0.0007
636.8492	0.0193
637.0367	0.0062
637.2241	0.0083
637.4115	0.0294
637.5989	0.0042
637.7863	0.0413
637.9737	-0.0013
638.161	0.0291
638.3484	0.0147
638.5357	0.0075
638.723	0.022
638.9103	-0.0017
639.0975	0.0038
639.2848	0.0096
639.472	0.0074
639.6592	-0.0015
639.8464	0.0083
640.0336	0.0163
640.2208	0.0164
640.4079	0.0032
640.595	-0.004
640.7821	0.0119
640.9692	-0.0024
641.1563	0.0192
641.3434	0.0257
641.5304	0.0324
641.7174	0.0328
641.9044	0.0232
642.0914	0.0144
642.2784	0.0012
642.4653	0.0026
642.6523	0.0296
642.8392	-0.0013
643.0261	0.0271
643.213	0.0222
643.3999	0.0296
643.5867	0.0149
643.7735	0.0196
643.9604	0.0282
644.1472	0.0275
644.3339	-0.0041
644.5207	-0.0016
644.7075	0.0001
644.8942	0.0062
645.0809	0.0174
645.2676	-0.0108
645.4543	0.0173
645.6409	0.0315
645.8276	0.0237
646.0142	0.0171
646.2008	0.0103
646.3874	0.0009
646.574	0.0044
646.7605	0.0075
646.9471	0.0138
647.1336	0.0038
647.3201	-0.0021
647.5066	0.0114
647.6931	0.0169
647.8795	0.0104
648.0659	0.0112
648.2524	0.0281
648.4388	0.0169
648.6252	0.0104
648.8115	0.0073
648.9979	0.0151
649.1842	0.0164
649.3705	0.0197
649.5568	-0.0072
649.7431	-0.0097
649.9294	0.0116
650.1156	0.0089
650.3018	0.0227
650.488	-0.0014
650.6742	0.0355
650.8604	0.0159
651.0466	0.0262
651.2327	0.0095
651.4188	0.0048
651.6049	0.0218
651.791	0.0185
651.9771	0.019
652.1632	0.0158
652.3492	0.0126
652.5352	0.0235
652.7212	0.0144
652.9072	0.0135
653.0932	0.0142
653.2791	0.0165
653.465	0.0158
653.651	0.0084
653.8369	0.0032
654.0227	0.0003
654.2086	0.0189
654.3944	0.0116
654.5803	0.0205
654.7661	0.0069
654.9519	0.0006
655.1377	0.0002
655.3234	0.0002
655.5092	0.0002
655.6949	0.0002
655.8806	0.0002
656.0663	0.0002
656.2519	0.0002
656.4376	0.0002
656.6232	0.0002
656.8088	0.0002
656.9945	0.0002
657.18	0.0002
657.3656	0.0002
657.5511	0.0002
657.7367	0.0002
657.9222	0.0002
658.1077	0.0002
658.2932	0.0002
658.4786	0.0002
658.6641	0.0002
658.8495	0.0002
659.0349	0.0002
659.2203	0.0002
659.4057	0.015
659.591	0.2958
659.7764	0.0296
659.9617	0.015
660.147	0.0147
660.3323	0.0164
660.5176	0.0091
660.7028	0.0007
660.888	0.0282
661.0733	0.0305
661.2585	0.0038
661.4436	0.0035
661.6288	0.0139
661.8139	0.0102
661.9991	0.0055
662.1842	0.0134
662.3693	0.01
662.5544	0.0299
662.7394	0.0232
662.9245	0.0148
663.1095	-0.018
663.2945	-0.0013
663.4795	-0.0051
663.6644	-0.0034
663.8494	0.0214
664.0343	0.0299
664.2193	0.0131
664.4042	0.0115
664.589	0.0305
664.7739	0.006
664.9587	-0.0004
665.1436	0.0114
665.3284	0.0046
665.5132	-0.0268
665.698	0.0317
665.8827	0.0264
666.0675	-0.0021
666.2522	0.0041
666.4369	0.0211
666.6216	0.0055
666.8063	0.0223
666.9909	0.0159
667.1756	0.0121
667.3602	-0.0048
667.5448	0.008
667.7294	0.0244
667.9139	-0.0166
668.0985	0.0488
668.283	-0.012
668.4675	0.0431
668.652	0.0277
668.8365	-0.0022
669.0209	0.0033
669.2054	0.0097
669.3898	0.0058
669.5742	0.032
669.7586	0.0203
669.943	0.0022
670.1273	0.0145
670.3117	0.009
670.496	0.0138
670.6803	0.0093
670.8646	0.0064
671.0488	0.05
671.2331	0.0097
671.4173	0.0144
671.6015	0.0087
671.7857	0.0104
671.9699	0.0322
672.1541	0.0104
672.3382	0.0263
672.5223	0.0229
672.7064	0.0114
672.8905	0.0018
673.0746	0.0331
673.2587	0.029
673.4427	0.0134
673.6267	0.0272
673.8107	0.0124
673.9947	0.0137
674.1787	0.0332
674.3626	0.0263
674.5465	0.0113
674.7304	0.0007
674.9143	0.0065
675.0982	0.0232
675.2821	0.0253
675.4659	-0.0024
675.6497	0.0263
675.8335	0.0279
676.0173	0.0116
676.2011	0.0239
676.3849	0.0195
676.5686	0.0224
676.7523	0.0064
676.936	0.0247
677.1197	-0.0084
677.3034	0.0405
677.487	0.0186
677.6706	0.0238
677.8542	0.0034
678.0378	0.0218
678.2214	-0.0002
678.405	0.0082
678.5885	0.0248
678.772	0.0183
678.9555	0.0049
679.139	0.0178
679.3225	0.009
679.5059	0.0054
679.6894	0.0117
679.8728	0.0015
680.0562	0.0071
680.2395	-0.0063
680.4229	0.0046
680.6062	0.0128
680.7896	0.0112
680.9729	0.0249
681.1562	0.001
681.3394	0.0076
681.5227	0.018
681.7059	0.0296
681.8891	0.0222
682.0723	0.0096
682.2555	0.0029
682.4387	0.0027
682.6218	0.0255
682.805	0.0321
682.9881	0.044
683.1712	0.0047
683.3542	0.0045
683.5373	-0.0098
683.7203	0.0186
683.9034	0.0009
684.0864	-0.0034
684.2694	0.0251
684.4523	0.0138
684.6353	0.0088
684.8182	0.0106
685.0011	0.0186
685.184	0.0077
685.3669	0.0384
685.5498	-0.0017
685.7326	0.0071
685.9154	-0.0074
686.0982	0.026
686.281	0.0062
686.4638	0.0174
686.6465	0.0029
686.8293	0.007
687.012	0.0124
687.1947	0.0138
687.3774	0.0039
687.56	-0.0112
687.7427	0.0064
687.9253	0.0089
688.1079	0.0013
688.2905	0.001
688.4731	0.0443
688.6556	0.004
688.8382	-0.0126
689.0207	0.0071
689.2032	0.02
689.3857	0.0124
689.5681	0.0031
689.7506	0.0252
689.933	-0.0018
690.1154	0.0089
690.2978	0.0009
690.4802	0.0299
690.6626	0.0216
690.8449	0.0274
691.0272	-0.0064
691.2095	-0.0107
691.3918	0.0245
691.5741	0.0084
691.7563	0.0206
691.9386	0.0242
692.1208	0.0178
692.303	0.0003
692.4852	0.0008
692.6673	-0.0023
692.8495	0.014
693.0316	0.0264
693.2137	0.0214
693.3958	0.0195
693.5778	0.0302
693.7599	0.0041
693.9419	0.0214
694.1239	0.0098
694.3059	0.0286
694.4879	0.0105
694.6699	0.0162
694.8518	0.0243
695.0337	0.0094
695.2157	0.0291
695.3975	0.019
695.5794	0.0206
695.7613	0.0254
695.9431	0.0117
696.1249	0.0366
696.3067	0.003
696.4885	0.0197
696.6703	0.0067
696.852	0.0103
697.0337	0.0253
697.2154	0.0077
697.3971	0.0247
697.5788	0.0151
697.7605	-0.0073
697.9421	0.0335
698.1237	0.0242
698.3053	-0.0036
698.4869	0.0244
698.6685	-0.0059
698.85	0.0328
699.0315	0.0182
699.213	0.0361
699.3945	0.023
699.576	0.0413
699.7575	0.013
699.9389	0.0139
700.1203	0.0428
700.3017	0.0289
700.4831	0.0201
700.6645	0.0489
700.8458	0.0001
701.0271	0.0586
701.2084	0.012
701.3897	0.0145
701.571	-0.0104
701.7523	0.0206
701.9335	0.0335
702.1147	0.0202
702.2959	0.0004
702.4771	0.0322
702.6583	0.008
702.8394	0.011
703.0205	0.0336
703.2016	-0.006
703.3827	-0.0045
703.5638	-0.001
703.7449	0.0307
703.9259	0.0212
704.1069	-0.0072
704.2879	0.0284
704.4689	0.024
704.6499	0.0288
704.8308	0.0254
705.0117	0.0131
705.1927	0.0281
705.3735	-0.0214
705.5544	-0.0003
705.7353	-0.0115
705.9161	-0.0309
706.0969	0.0408
706.2777	0.0198
706.4585	0.002
706.6393	0.0277
706.82	0.01
707.0007	-0.0047
707.1815	0.0058
707.3621	0.0326
707.5428	0.014
707.7235	0.0206
707.9041	0.015
708.0847	0.0008
708.2653	0.0314
708.4459	-0.0017
708.6265	0.012
708.807	-0.0051
708.9875	-0.0086
709.168	0.0015
709.3485	0.0129
709.529	0.0233
709.7095	-0.0164
709.8899	0.004
710.0703	0.0114
710.2507	-0.0033
710.4311	-0.0187
710.6115	0.0312
710.7918	0.0181
710.9721	0.0121
711.1524	-0.0043
711.3327	0.0021
711.513	0.0029
711.6932	0.0134
711.8735	0.0521
712.0537	-0.019
712.2339	0.0078
712.4141	0.058
712.5942	0.018
712.7744	0.0186
712.9545	0.0312
713.1346	0.0294
713.3147	0.0304
713.4947	-0.0021
713.6748	0.0187
713.8548	0.0193
714.0348	0.0231
714.2148	0.02
714.3948	0.0206
714.5748	0.0109
714.7547	0.0164
714.9346	0.0213
715.1145	0.0112
715.2944	-0.0134
715.4743	0.0104
715.6541	-0.0122
715.834	0.0178
716.0138	0.0102
716.1936	-0.0051
716.3733	-0.0029
716.5531	0.0132
716.7328	0.0279
716.9126	0.0319
717.0923	0.0028
717.2719	0.0297
717.4516	0.0203
717.6312	0.0025
717.8109	0.0416
717.9905	0.023
718.1701	0.0177
718.3496	0.01
718.5292	0.0043
718.7087	0.0065
718.8882	0.0244
719.0677	0.0257
719.2472	0.0052
719.4267	0.0087
719.6061	0.0239
719.7856	0.0351
719.965	0.006
720.1443	0.0076
720.3237	0.0186
720.5031	0.0346
720.6824	0.0148
720.8617	0.0212
721.041	0.0258
721.2203	-0.0208
721.3995	0.0153
721.5788	0.0215
721.758	0.0153
721.9372	-0.0055
722.1164	-0.0071
722.2956	-0.0094
722.4747	0.0248
722.6538	-0.0086
722.8329	0.0506
723.012	0.0014
723.1911	0.0056
723.3702	0.0167
723.5492	-0.0007
723.7282	0.0217
723.9072	-0.0012
724.0862	0.0132
724.2652	0.0476
724.4441	-0.0108
724.623	0.0073
724.8019	0.0098
724.9808	0.0275
725.1597	0.0052
725.3385	0.0138
725.5174	0.0273
725.6962	0.0235
725.875	0.0139
726.0538	0.0243
726.2325	0.0253
726.4112	-0.0025
726.59	0.0276
726.7687	0.0005
726.9474	0.0183
727.126	0.0247
727.3047	-0.0169
727.4833	0.0127
727.6619	0.003
727.8405	-0.0067
728.0191	0.0342
728.1976	-0.0041
728.3762	0.0229
728.5547	-0.01
728.7332	0.0127
728.9116	0.0227
729.0901	0.0064
729.2686	0.0048
729.447	0.0039
729.6254	0.0187
729.8038	-0.0083
729.9821	0.0058
730.1605	0.0014
730.3388	0.0177
730.5171	0.0098
730.6954	-0.0119
730.8737	0.0139
731.0519	-0.007
731.2302	0.0275
731.4084	-0.0041
731.5866	-0.0071
731.7648	0.0172
731.9429	0.027
732.1211	-0.0023
732.2992	0.0088
732.4773	0.0084
732.6554	0.0139
732.8335	0.0197
733.0115	0.0295
733.1896	0.0003
733.3676	0.0401
733.5456	0.0069
733.7235	0.0054
733.9015	0.0218
734.0794	0.0003
734.2574	-0.0135
734.4353	0.0296
734.6131	-0.006
734.791	0.0026
734.9689	-0.0109
735.1467	0.0062
735.3245	0.0209
735.5023	0.0158
735.68	0.0239
735.8578	0.0129
736.0355	0.0352
736.2132	0.0113
736.3909	0.0227
736.5686	-0.001
736.7463	0.006
736.9239	0.0237
737.1015	0.0129
737.2791	0.0084
737.4567	0.0129
737.6343	0.0113
737.8118	0.0162
737.9894	0.0004
738.1669	0.0105
738.3444	0.0501
738.5218	-0.0025
738.6993	0.0309
738.8767	0.0107
739.0541	0.0091
739.2315	0.0046
739.4089	0.0374
739.5863	-0.0009
739.7636	0.0312
739.9409	0.0001
740.1182	0.025
740.2955	0.0135
740.4728	-0.0046
740.65	-0.0077
740.8272	0.0192
741.0044	0.0028
741.1816	0.0503
741.3588	0.005
741.5359	0.0334
741.7131	0.0068
741.8902	0.0148
742.0673	-0.0056
742.2444	0.0114
742.4214	0.0108
742.5985	0.0201
742.7755	0.0049
742.9525	-0.0468
743.1295	-0.0133
743.3064	0.0314
743.4834	0.0137
743.6603	0.0727
743.8372	-0.0338
744.0141	0.0682
744.191	0.0388
744.3678	-0.0413
744.5446	0.0195
744.7215	0.0091
744.8982	0.0365
745.075	0.0757
745.2518	0.0191
745.4285	0.0325
745.6052	-0.0125
745.7819	0.0261
745.9586	-0.0062
746.1353	-0.0084
746.3119	0.0318
746.4885	0.0612
746.6651	-0.0055
746.8417	0.0293
747.0183	0.0395
747.1948	0.0218
747.3714	0.0164
747.5479	0.031
747.7244	0.0174
747.9008	0.0283
748.0773	0.0525
748.2537	0.0376
748.4301	0.0292
748.6065	0.0069
748.7829	-0.002
748.9593	0.0117
749.1356	0.0274
749.3119	0.0173
749.4882	0.0414
749.6645	-0.0038
749.8408	0.0175
750.017	0.0248
750.1933	-0.0016
750.3695	0.017
750.5457	0.0117
750.7218	0.015
750.898	-0.0036
751.0741	0.0223
751.2502	0.0245
751.4263	-0.0021
751.6024	0.0189
751.7784	0.0082
751.9545	0.006
752.1305	0.005
752.3065	0.0387
752.4825	0.0333
752.6584	-0.0061
752.8344	-0.0072
753.0103	-0.0092
753.1862	0.0155
753.3621	0.0188
753.5379	0.0048
753.7138	0.0145
753.8896	0.0348
754.0654	0.003
754.2412	0.0399
754.417	0.0332
754.5927	0.0344
754.7685	0.0103
754.9442	0.0257
755.1199	0.0175
755.2956	0.027
755.4712	0.0082
755.6469	-0.0005
755.8225	0.0286
755.9981	0.0168
756.1736	0.014
756.3492	0.0069
756.5248	0.0193
756.7003	0.0083
756.8758	0.0039
757.0513	0.0223
757.2267	0.015
757.4022	-0.0007
757.5776	0.0045
757.753	0.0146
757.9284	0.0306
758.1038	0.0242
758.2791	0.0346
758.4545	-0.0054
758.6298	0.0071
758.8051	0.0166
758.9803	0.019
759.1556	-0.0045
759.3308	0.0021
759.506	0.0101
759.6812	0.0191
759.8564	0.0135
760.0316	-0.002
760.2067	0.0227
760.3819	0.0072
760.557	0.002
760.732	0.0198
760.9071	0.0239
761.0821	-0.0023
761.2572	0.0164
761.4322	0.0275
761.6072	0.0045
761.7821	-0.0313
761.9571	0.011
762.132	0.028
762.3069	0.0201
762.4818	0.0164
762.6567	-0.0054
762.8316	0.0343
763.0064	0.0157
763.1812	0.0115
763.356	-0.0072
763.5308	0.0264
763.7055	0.0224
763.8803	0.01
764.055	-0.002
764.2297	-0.0093
764.4044	0.016
764.579	0.0195
764.7537	0.0057
764.9283	0.0364
765.1029	0.0156
765.2775	0.0077
765.4521	0.0138
765.6266	0.0245
765.8011	0.0083
765.9756	0.0253
766.1501	0.0177
766.3246	0.0056
766.4991	0.0187
766.6735	0.0367
766.8479	0.0109
767.0223	0.0208
767.1967	0.0404
767.371	0.0079
767.5454	-0.0027
767.7197	0.0328
767.894	0.0103
768.0683	0.0495
768.2425	0.0224
768.4168	0.0146
768.591	0.0086
768.7652	0.0065
768.9394	-0.0424
769.1135	0.0093
769.2877	0.0496
769.4618	0.0649
769.6359	0.0047
769.81	0.0134
769.984	0.0213
770.1581	0.0153
770.3321	0.0351
770.5061	0.021
770.6801	0.015
770.8541	0.0081
771.028	0.0494
771.202	0.0243
771.3759	0.0219
771.5498	0.0386
771.7236	0.0137
771.8975	0.0402
772.0713	-0.0062
772.2451	-0.0067
772.4189	-0.018
772.5927	-0.0195
772.7665	-0.0136
772.9402	0.0156
773.1139	0.0164
773.2876	-0.0015
773.4613	-0.0021
773.635	0.0635
773.8086	0.0823
773.9822	0.053
774.1558	0.0658
774.3294	-0.0185
774.503	0.0378
774.6765	0.0702
774.8501	0.0379
775.0236	0.0743
775.1971	0.0286
775.3705	0.016
775.544	-0.0026
775.7174	0.0126
775.8908	0.0126
776.0642	0.0677
776.2376	0.0403
776.4109	-0.0057
776.5843	0.0127
776.7576	-0.0073
776.9309	0.0331
777.1041	-0.0298
777.2774	0.0162
777.4506	0.0637
777.6238	-0.022
777.797	0.0392
777.9702	0.0148
778.1434	0.0383
778.3165	-0.0114
778.4896	0.0193
778.6627	0.0414
778.8358	-0.0163
779.0089	-0.0099
779.1819	0.0483
779.3549	0.0179
779.5279	-0.0082
779.7009	0.0414
779.8739	0.0581
780.0468	0.0241
780.2197	0.067
780.3926	0.0041
780.5655	0.0243
780.7384	0.0283
780.9112	0.0409
781.0841	0.0142
781.2569	0.0324
781.4297	0.0366
781.6024	0.0322
781.7752	0.0634
781.9479	0.0599
782.1206	0.0285
782.2933	0.0252
782.466	0.0175
782.6386	0.0059
782.8113	-0.001
782.9839	0.0268
783.1565	0.0153
783.329	-0.0056
783.5016	0.0314
783.6741	0.0057
783.8466	0.0379
784.0191	0.0233
784.1916	0.0026
784.3641	-0.0303
784.5365	0.0351
784.7089	-0.0023
784.8813	0.0822
785.0537	0.0285
785.2261	0.0246
785.3984	-0.0012
785.5707	-0.0115
785.743	0.0318
785.9153	0.0002
786.0876	-0.0074
786.2598	0.0177
786.432	0.0262
786.6042	0.0815
786.7764	0.0034
786.9486	-0.0046
787.1207	0.0389
787.2928	0.0558
787.4649	0.031
787.637	0.0244
787.8091	0.0205
787.9811	0.0667
788.1532	0.0524
788.3252	0.0346
788.4972	-0.0086
788.6691	0.0102
788.8411	0.0124
789.013	0.0415
789.1849	0.0023
789.3568	0.0228
789.5287	0.0759
789.7005	-0.0343
789.8723	-0.0199
790.0442	-0.0221
790.2159	0.0647
790.3877	0.0422
790.5595	0.0687
790.7312	-0.0164
790.9029	-0.0008
791.0746	0.0248
791.2463	-0.0235
791.4179	-0.0122
791.5896	0.0319
791.7612	0.0489
791.9328	-0.0071
792.1044	0.0201
792.2759	-0.0377
792.4474	-0.0101
792.619	0.0395
792.7905	0.0548
792.9619	0.0846
793.1334	0.0461
793.3048	0.1089
793.4762	0.0271
793.6476	-0.0138
793.819	0.0171
793.9904	0.005
794.1617	-0.0151
794.333	0.0377
794.5043	0.0404
794.6756	0.0251
794.8469	0.0546
795.0181	0.0181
795.1893	0.0566
795.3605	0.0938
795.5317	0.0324
795.7029	-0.0015
795.874	-0.009
796.0452	0.0189
796.2163	0.0957
796.3873	0.0071
796.5584	0.0952
796.7294	0.0019
796.9005	0.1005
797.0715	0.0165
797.2425	0.1095
797.4134	0.0846
797.5844	0.091
797.7553	-0.0441
797.9262	0.046
798.0971	0.0405
798.2679	0.0449
798.4388	0.0645
798.6096	0.0618
798.7804	0.0089
798.9512	0.028
799.122	0.0241
799.2927	0.0878
799.4635	0.036
799.6342	-0.0117
799.8049	0.0925
799.9755	-0.0171
800.1462	0.0285
800.3168	0.0402
800.4874	-0.0649
800.658	0.1381
800.8286	0.0801
800.9991	0.0871
801.1696	-0.0011
801.3402	0.0169
801.5106	-0.0037
801.6811	0.0131
801.8516	0.1236
802.022	0.0005
802.1924	-0.0238
802.3628	0.0706
802.5332	0.0086
802.7035	0.0615
802.8739	0.0587
803.0442	-0.0214
803.2145	0.1203
803.3847	0.0035
803.555	0.0527
803.7252	0.0299
803.8954	-0.0313
804.0656	0.0004
804.2358	-0.0086
804.4059	0.0309
804.5761	0.093
804.7462	0.0479
804.9163	0.033
805.0864	0.0349
805.2564	0.0401
805.4264	0.0138
805.5965	0.1214
805.7665	0.0555
805.9364	-0.0481
806.1064	-0.0225
806.2763	0.1115
806.4462	0.0039
806.6161	0.0884
806.786	-0.0077
806.9559	0.054
807.1257	-0.0291
807.2955	0.0819
807.4653	0.0099
807.6351	0.0956
807.8048	0.0142
807.9746	0.0066
808.1443	0.0659
808.314	0.0498
808.4837	0.0547
808.6533	0.0484
808.8229	0.0017
808.9926	0.0554
809.1622	0.066
809.3317	-0.0164
809.5013	-0.0175
809.6708	0.0404
809.8403	0.002
810.0098	0.0739
810.1793	0.0198
810.3488	-0.0818
810.5182	0.1521
810.6876	0.105
810.857	0.0351
811.0264	-0.0425
811.1958	0.1659
811.3651	0.095
811.5344	0.1225
811.7037	0.0686
811.873	0.163
812.0422	-0.049
812.2115	0.0881
812.3807	-0.1782
812.5499	0.0247
812.7191	0.0052
812.8882	-0.0921
813.0574	0.1829
813.2265	0.0007
813.3956	0.0854
813.5646	0.2242
813.7337	0.0077
813.9027	-0.0607
814.0718	0.0543
814.2407	0.1053
814.4097	0.101
814.5787	0.1799
814.7476	0.0152
814.9165	0.0451
815.0854	-0.0014
815.2543	0.1002
815.4232	0.1883
815.592	0.0457
815.7608	0.026
815.9296	-0.0238
816.0984	0.3569
816.2671	0.1092
816.4359	0.0812
816.6046	0.0357
816.7733	0.022
816.942	-0.0841
817.1106	0.0006
817.2793	-0.0379
817.4479	-0.0087
817.6165	0.0215
817.785	0.0823
817.9536	-0.1692
818.1221	0.0152
818.2906	-0.1005
818.4591	-0.0253
818.6276	0.1148
818.7961	0.0888
818.9645	0.0324
819.1329	-0.0195
819.3013	0.0697
819.4697	1.3779
819.638	0.1137
819.8064	0.1571
819.9747	-0.0631
820.143	-0.0442
820.3113	0.0071
820.4795	0.0558
820.6477	0.2024
820.816	0.0715
820.9842	0.1366
821.1523	0.0575
821.3205	0.0364
821.4886	0.0552
821.6567	-0.0579
821.8248	0.1349
821.9929	-0.0476
822.1609	-0.0315
822.329	0.1234
822.497	0.0846
822.665	0.0139
822.833	0.1526
823.0009	0.0116
823.1688	0.2452
823.3367	0.0183
823.5046	0.0846
823.6725	0.0918
823.8404	0.3103
824.0082	-0.1158
824.176	-0.0184
824.3438	0.2565
824.5116	-0.0728
824.6793	0.277
824.847	0.2779
825.0147	0.0238
825.1824	0.1696
825.3501	0.3211
825.5177	0.0335
825.6854	-0.0553
825.853	-0.0262
826.0206	-0.0533
826.1881	0.1893
826.3557	0.28
826.5232	0.1686
826.6907	-0.0041
826.8582	-0.0157
827.0257	0.2692
827.1931	-0.0182
827.3605	0.0048
827.528	0.0509
827.6953	-0.1142
827.8627	-0.0918
828.03	0.1555
828.1974	-0.0346
828.3647	0.1831
828.532	0.1395
828.6992	0.033
828.8665	-0.0122
829.0337	0.1421
829.2009	-0.0403
829.3681	0.3203
829.5352	0.0466
829.7024	0.1898
829.8695	0.1331
830.0366	0.3037
830.2037	0.1777
830.3707	0.243
830.5378	0.0607
830.7048	-0.1092
830.8718	-0.0282
831.0388	0.131
831.2057	0.1969
831.3727	0.0187
831.5396	0.1645
831.7065	-0.7037
831.8734	0.3902
832.0402	0.4066
832.2071	-0.1994
832.3739	-0.2783
832.5407	-2.0074
832.7075	-0.264
832.8742	-0
833.041	0.0704
833.2077	0.6035
833.3744	0.001
833.541	0.0885
833.7077	-0.1842
833.8743	0.0997
834.0409	0.1358
834.2075	0.2084
834.3741	0.0235
834.5407	-0.0413
834.7072	0.1255
834.8737	0.3236
835.0402	0.4521
835.2067	-0.0425
835.3731	0.1046
835.5395	-0.0136
835.706	-0.1655
835.8723	-0.2026
836.0387	-0.0514
836.2051	0.4658
836.3714	0.0017
836.5377	-0.1341
836.704	0.1652
836.8703	-0.093
837.0365	-0
837.2027	0.1104
837.3689	0.5644
837.5351	0.3005
837.7013	-0.0074
837.8674	0.0947
838.0335	-0.0571
838.1997	-0.2197
838.3657	-0
838.5318	-0
838.6978	-0
838.8639	-0.0391
839.0299	-0.1278
839.1958	0.4401
839.3618	-0
839.5277	0.3995
839.6937	0.4626
839.8596	0.2404
840.0254	0.4262
840.1913	0.1518
840.3571	0.079
840.523	-0
840.6888	0.0681
840.8545	-0
841.0203	0.0965
841.186	0.0248
841.3517	-0.311
841.5174	0.3687
841.6831	-0.0176
841.8488	-0.1408
842.0144	0.2287
842.18	0.3006
842.3456	-0.5661
842.5112	-1.5535
842.6767	0.1356
842.8422	-0.0266
843.0077	0.1374
843.1732	-0.1825
843.3387	-0
843.5042	-0.063
843.6696	-0.0112
843.835	-0.227
844.0004	-0.1792
844.1657	-0
844.3311	-0.2596
844.4964	-0
844.6617	-0
844.827	-0
844.9923	0.5317
845.1575	-0
845.3227	0.4688
845.4879	-0.2658
845.6531	0.0718
845.8183	0.1417
845.9834	-0.0434
846.1485	0.1562
846.3136	-0.1983
846.4787	-0
846.6438	-0.1137
846.8088	-0
846.9738	-0
847.1388	0.4261
847.3038	0.2935
847.4687	0.2635
847.6337	0.223
847.7986	0.4311
847.9635	0.0855
848.1284	-0
848.2932	-0
848.458	-0
848.6228	0.7617
848.7876	-0
848.9524	-0
849.1172	-1.8608
849.2819	-0
849.4466	0.934
849.6113	0.6379
849.7759	-0
849.9406	0.187
850.1052	0.6767
850.2698	-0.5274
850.4344	-0.2765
850.599	-0
850.7635	0.336
850.928	-0
851.0925	0.23
851.257	-0
851.4215	-0
851.5859	0.2362
851.7503	0.2012
851.9147	0.4369
852.0791	-0.1493
852.2434	-0
852.4078	-0.5497
852.5721	-0
852.7364	0.2152
852.9007	0.0111
853.0649	0.4992
853.2291	-0.1971
853.3934	-0.1374
853.5575	-0.1834
853.7217	0.7648
853.8859	-0.4714
854.05	-0.3712
854.2141	0.4888
854.3782	-0.088
854.5423	-0
854.7063	0.0847
854.8703	0.1235
855.0343	-0
855.1983	0.0761
855.3623	0.3445
855.5262	-0
855.6901	2.3319
855.854	0.4988
856.0179	0.037
856.1818	-0
856.3456	0.3928
856.5094	-0.4868
856.6732	-0.1748
856.837	-0.5579
857.0008	-0
857.1645	-0
857.3282	0.0389
857.4919	0.4817
857.6556	1.1202
857.8192	0.0493
857.9828	0.1827
858.1465	0.7991
858.31	-0
858.4736	-0
858.6372	0.4675
858.8007	0.5688
858.9642	0.3063
859.1277	0.3331
859.2911	-0.1753
859.4546	-1.4082
859.618	0.1127
859.7814	0.3503
859.9448	-0
860.1081	-0
860.2715	-0
860.4348	0.5561
860.5981	0.9735
860.7614	-0
860.9246	-0.167
861.0879	-0
861.2511	-0.5212
861.4143	0.1383
861.5774	-0
861.7406	-0.1888
861.9037	0.5119
862.0668	-0
862.2299	0.243
862.393	-0
862.556	-0
862.7191	-0
862.8821	0.6895
863.0451	-0
863.208	-0
863.371	-0.1913
863.5339	0.5258
863.6968	0.9715
863.8597	-0
864.0225	-0
864.1854	-0.428
864.3482	0.0442
864.511	1.4501
864.6737	-0
864.8365	0.0897
864.9992	-0
865.1619	-0.3794
865.3246	-1.9675
865.4873	-0
865.65	-0
865.8126	0.2048
865.9752	0.0227
866.1378	-0.0376
866.3004	-0
866.4629	-1.7437
866.6254	-0
866.7879	-0.1388
866.9504	-0.7038
867.1129	-0.1224
867.2753	0.3586
867.4377	-0
867.6001	-0.8126
867.7625	-0.3863
867.9249	-0
868.0872	-0
868.2495	-0
868.4118	-0
868.5741	-0.6145
868.7363	0.7097
868.8986	-0.8046
869.0608	-0
869.223	-0
869.3851	-0
869.5473	0.6898
869.7094	0.8737
869.8715	-0.8494
870.0336	0.3405
870.1957	-0.7375
870.3577	1.62
870.5197	0.1341
870.6817	-0.6182
870.8437	-0
871.0057	-0
871.1676	0.1191
871.3295	-0.2159
871.4914	-1.8222
871.6533	-0.3865
871.8151	2.2374
871.977	-0.1563
872.1388	-0.0372
872.3006	0.9749
872.4623	-0.4898
872.6241	-0
872.7858	0.0993
872.9475	0.2467
873.1092	0.2152
873.2709	0.7704
873.4325	-1.4472
873.5941	-0.3689
873.7557	-0
873.9173	-0
874.0789	0.1957
874.2404	-0
874.4019	-0.1522
874.5634	0.2908
874.7249	-0
874.8863	0.2129
875.0478	-0.0927
875.2092	-0
875.3706	0.0153
875.5319	0.3798
875.6933	0.4311
875.8546	-0
876.0159	0.3847
876.1772	0.0607
876.3385	2.0284
876.4997	0.5786
876.6609	0.2163
876.8221	0.9188
876.9833	-0.3626
877.1445	0.6757
877.3056	-0
877.4667	-0.8405
877.6278	-0
877.7889	0.5031
877.9499	-0.1337
878.111	-0.1444
878.272	0.3274
878.433	-0
878.5939	-0
878.7549	-0
878.9158	0.2281
879.0767	-0.0398
879.2376	-0
879.3984	-0
879.5593	0.7113
879.7201	-1.4472
879.8809	-0
880.0417	-0.1576
880.2024	0.7074
880.3632	-0.175
880.5239	-0
880.6846	-0
880.8452	0.3021
881.0059	-0.7735
881.1665	0.0715
881.3271	0.4586
881.4877	0.4565
881.6483	-1.4247
881.8088	-0
881.9693	-0
882.1298	-0
882.2903	-0
