Data from D4ACN5uM420nmA_Absorbance_14-37-08-088.txt Node
Date: Fri Feb 21 14:37:08 GMT 2025
User: LASERRRRR
Spectrometer: FLMT03099
Trigger mode: 0
Integration Time (sec): 1.500000E-2
Scans to average: 1
Electric dark correction enabled: true
Nonlinearity correction enabled: false
Boxcar width: 0
XAxis mode: Wavelengths
Number of Pixels in Spectrum: 3648
>>>>>Begin Spectral Data<<<<<
179.3399	-0
179.5586	-0
179.7771	-0
179.9957	0.2164
180.2143	-0
180.4329	0.3805
180.6514	-0
180.8699	-0
181.0885	0.2111
181.307	-0
181.5255	0.3134
181.744	-0.4509
181.9625	0.0586
182.181	-0.2908
182.3994	-0.2445
182.6179	-0
182.8363	-0
183.0547	-0.0482
183.2732	0.6899
183.4916	0.5842
183.71	0.2255
183.9284	0.2284
184.1467	0.3654
184.3651	0.1171
184.5835	0.2583
184.8018	0.0518
185.0201	0.0201
185.2385	0.2932
185.4568	0.2089
185.6751	0.2284
185.8934	0.1009
186.1117	-0.1065
186.3299	0.104
186.5482	0.1218
186.7664	0.0729
186.9847	0.0047
187.2029	0.3619
187.4211	0.0224
187.6393	0.0878
187.8575	0.0728
188.0757	0.6216
188.2939	0.2837
188.512	0.2711
188.7302	0.1042
188.9483	0.093
189.1665	-0
189.3846	0.2206
189.6027	0.2146
189.8208	0.1986
190.0389	0.2474
190.257	0.0509
190.475	-0.0189
190.6931	0.0141
190.9111	0.12
191.1292	0.2076
191.3472	0.0659
191.5652	0.1232
191.7832	0.1754
192.0012	0.0971
192.2192	0.1328
192.4371	0.0962
192.6551	0.1171
192.873	0.0486
193.091	0.2284
193.3089	0.1074
193.5268	0.2692
193.7447	0.2552
193.9626	0.132
194.1805	0.2753
194.3984	0.1606
194.6162	0.2258
194.8341	0.2549
195.0519	0.1823
195.2697	0.2417
195.4875	0.2963
195.7054	0.2811
195.9231	0.2361
196.1409	0.3203
196.3587	0.228
196.5765	0.3274
196.7942	0.3216
197.012	0.3081
197.2297	0.2889
197.4474	0.4192
197.6651	0.3052
197.8828	0.3425
198.1005	0.3883
198.3182	0.3894
198.5358	0.409
198.7535	0.3371
198.9711	0.4214
199.1888	0.3559
199.4064	0.429
199.624	0.3797
199.8416	0.3281
200.0592	0.3816
200.2767	0.3831
200.4943	0.4891
200.7119	0.3891
200.9294	0.4319
201.1469	0.3851
201.3645	0.3868
201.582	0.3993
201.7995	0.4023
202.017	0.3904
202.2344	0.3646
202.4519	0.3908
202.6694	0.4253
202.8868	0.387
203.1042	0.4182
203.3217	0.4327
203.5391	0.4087
203.7565	0.3352
203.9739	0.359
204.1913	0.3585
204.4086	0.3367
204.626	0.3582
204.8433	0.3446
205.0607	0.373
205.278	0.3381
205.4953	0.3167
205.7126	0.3337
205.9299	0.3272
206.1472	0.3035
206.3644	0.337
206.5817	0.3122
206.7989	0.329
207.0162	0.309
207.2334	0.3232
207.4506	0.3122
207.6678	0.3062
207.885	0.2943
208.1022	0.2922
208.3194	0.2974
208.5365	0.307
208.7537	0.2801
208.9708	0.2858
209.1879	0.2919
209.405	0.2706
209.6222	0.2625
209.8392	0.3121
210.0563	0.2943
210.2734	0.2856
210.4905	0.2696
210.7075	0.2412
210.9245	0.2802
211.1416	0.2764
211.3586	0.2708
211.5756	0.2404
211.7926	0.2667
212.0096	0.2643
212.2265	0.2579
212.4435	0.2401
212.6604	0.2464
212.8774	0.2363
213.0943	0.2495
213.3112	0.2476
213.5281	0.2596
213.745	0.2498
213.9619	0.2516
214.1788	0.2394
214.3956	0.2348
214.6125	0.2432
214.8293	0.2396
215.0461	0.2434
215.2629	0.2588
215.4798	0.2506
215.6965	0.2397
215.9133	0.2299
216.1301	0.2402
216.3469	0.2322
216.5636	0.2392
216.7803	0.2484
216.9971	0.2443
217.2138	0.2699
217.4305	0.2455
217.6472	0.2573
217.8639	0.2396
218.0805	0.2489
218.2972	0.2424
218.5138	0.2402
218.7305	0.2562
218.9471	0.2391
219.1637	0.2458
219.3803	0.2515
219.5969	0.248
219.8135	0.2602
220.0301	0.2515
220.2466	0.2474
220.4632	0.2491
220.6797	0.2552
220.8962	0.2575
221.1127	0.2764
221.3292	0.2719
221.5457	0.269
221.7622	0.2595
221.9787	0.2884
222.1951	0.2716
222.4116	0.266
222.628	0.2803
222.8444	0.2678
223.0608	0.2823
223.2772	0.2761
223.4936	0.2818
223.71	0.2741
223.9264	0.2797
224.1427	0.2759
224.3591	0.278
224.5754	0.2791
224.7917	0.2828
225.008	0.3033
225.2243	0.295
225.4406	0.2932
225.6569	0.2976
225.8732	0.3061
226.0894	0.3113
226.3057	0.306
226.5219	0.3117
226.7381	0.3232
226.9543	0.3116
227.1705	0.3187
227.3867	0.3059
227.6029	0.3229
227.8191	0.335
228.0352	0.3505
228.2513	0.3425
228.4675	0.3431
228.6836	0.3407
228.8997	0.3376
229.1158	0.3621
229.3319	0.3551
229.548	0.3554
229.764	0.3639
229.9801	0.3818
230.1961	0.3702
230.4121	0.3748
230.6282	0.3837
230.8442	0.3891
231.0602	0.3862
231.2761	0.3709
231.4921	0.3887
231.7081	0.3864
231.924	0.4062
232.14	0.4091
232.3559	0.4174
232.5718	0.414
232.7877	0.4085
233.0036	0.412
233.2195	0.4196
233.4353	0.4206
233.6512	0.4098
233.867	0.4292
234.0829	0.4262
234.2987	0.4341
234.5145	0.4333
234.7303	0.4402
234.9461	0.4361
235.1619	0.4499
235.3776	0.428
235.5934	0.4365
235.8091	0.446
236.0249	0.4492
236.2406	0.444
236.4563	0.4573
236.672	0.4476
236.8877	0.4457
237.1034	0.4472
237.319	0.4459
237.5347	0.4527
237.7503	0.4467
237.966	0.4638
238.1816	0.4447
238.3972	0.4607
238.6128	0.4614
238.8284	0.4672
239.0439	0.4635
239.2595	0.4646
239.475	0.4581
239.6906	0.463
239.9061	0.4693
240.1216	0.4634
240.3371	0.4707
240.5526	0.4616
240.7681	0.466
240.9836	0.4558
241.199	0.4545
241.4145	0.4555
241.6299	0.4556
241.8453	0.444
242.0607	0.4451
242.2761	0.4429
242.4915	0.4335
242.7069	0.4267
242.9223	0.4228
243.1376	0.4172
243.353	0.4122
243.5683	0.3958
243.7836	0.3913
243.9989	0.382
244.2142	0.377
244.4295	0.3827
244.6448	0.3752
244.86	0.3663
245.0753	0.3514
245.2905	0.3476
245.5057	0.3388
245.721	0.3437
245.9362	0.3328
246.1514	0.3262
246.3665	0.3135
246.5817	0.3118
246.7969	0.3044
247.012	0.3062
247.2271	0.3004
247.4423	0.2957
247.6574	0.2873
247.8725	0.2784
248.0876	0.2798
248.3026	0.2696
248.5177	0.2564
248.7328	0.2592
248.9478	0.2541
249.1628	0.2544
249.3779	0.2488
249.5929	0.2451
249.8079	0.2493
250.0228	0.2316
250.2378	0.235
250.4528	0.2359
250.6677	0.2245
250.8827	0.2221
251.0976	0.2176
251.3125	0.2216
251.5274	0.2147
251.7423	0.2143
251.9572	0.2098
252.172	0.2104
252.3869	0.2072
252.6017	0.2035
252.8166	0.1978
253.0314	0.1975
253.2462	0.2019
253.461	0.1994
253.6758	0.1982
253.8906	0.197
254.1053	0.1978
254.3201	0.1987
254.5348	0.1886
254.7496	0.1865
254.9643	0.1977
255.179	0.1914
255.3937	0.1979
255.6083	0.1964
255.823	0.1909
256.0377	0.1845
256.2523	0.188
256.467	0.187
256.6816	0.1873
256.8962	0.1923
257.1108	0.1892
257.3254	0.1861
257.54	0.1794
257.7545	0.1894
257.9691	0.1824
258.1836	0.1812
258.3981	0.1832
258.6127	0.1774
258.8272	0.1847
259.0417	0.1854
259.2561	0.1815
259.4706	0.1789
259.6851	0.1832
259.8995	0.1849
260.114	0.184
260.3284	0.1821
260.5428	0.1839
260.7572	0.1814
260.9716	0.1876
261.186	0.1761
261.4003	0.1788
261.6147	0.178
261.829	0.1817
262.0433	0.1792
262.2577	0.1835
262.472	0.1807
262.6863	0.1895
262.9005	0.1819
263.1148	0.1827
263.3291	0.1818
263.5433	0.1885
263.7576	0.1846
263.9718	0.1812
264.186	0.1812
264.4002	0.1904
264.6144	0.1957
264.8286	0.1885
265.0427	0.1901
265.2569	0.1923
265.471	0.1817
265.6851	0.1935
265.8993	0.1888
266.1134	0.1914
266.3275	0.1899
266.5415	0.1881
266.7556	0.1974
266.9697	0.1902
267.1837	0.192
267.3978	0.1887
267.6118	0.1873
267.8258	0.1984
268.0398	0.1941
268.2538	0.1919
268.4677	0.1825
268.6817	0.1916
268.8957	0.1828
269.1096	0.1788
269.3235	0.1836
269.5374	0.1896
269.7514	0.187
269.9652	0.1839
270.1791	0.1857
270.393	0.1874
270.6068	0.1853
270.8207	0.1763
271.0345	0.1827
271.2483	0.179
271.4622	0.1861
271.676	0.1822
271.8897	0.1832
272.1035	0.1857
272.3173	0.179
272.531	0.183
272.7448	0.18
272.9585	0.1789
273.1722	0.1759
273.3859	0.1843
273.5996	0.1832
273.8133	0.1859
274.0269	0.1812
274.2406	0.188
274.4542	0.184
274.6679	0.1886
274.8815	0.191
275.0951	0.1943
275.3087	0.1917
275.5223	0.1869
275.7358	0.1941
275.9494	0.1938
276.1629	0.1944
276.3765	0.1928
276.59	0.1906
276.8035	0.1859
277.017	0.1974
277.2305	0.1973
277.444	0.1915
277.6574	0.1977
277.8709	0.2009
278.0843	0.1931
278.2978	0.1961
278.5112	0.1955
278.7246	0.1935
278.938	0.1961
279.1513	0.2015
279.3647	0.1952
279.5781	0.1913
279.7914	0.1958
280.0047	0.1906
280.2181	0.1949
280.4314	0.1963
280.6447	0.1983
280.8579	0.182
281.0712	0.1909
281.2845	0.1918
281.4977	0.193
281.711	0.188
281.9242	0.1895
282.1374	0.1958
282.3506	0.1949
282.5638	0.1927
282.7769	0.1897
282.9901	0.1982
283.2033	0.193
283.4164	0.1892
283.6295	0.186
283.8426	0.1871
284.0557	0.1944
284.2688	0.1935
284.4819	0.1866
284.695	0.1933
284.908	0.1903
285.1211	0.1898
285.3341	0.1863
285.5471	0.1922
285.7601	0.1889
285.9731	0.1944
286.1861	0.1948
286.3991	0.1959
286.612	0.1877
286.825	0.1961
287.0379	0.1896
287.2508	0.1914
287.4637	0.1948
287.6766	0.1931
287.8895	0.1922
288.1024	0.1943
288.3152	0.1945
288.5281	0.1937
288.7409	0.1929
288.9538	0.1917
289.1666	0.1903
289.3794	0.1916
289.5922	0.1875
289.8049	0.1941
290.0177	0.1919
290.2304	0.1918
290.4432	0.1981
290.6559	0.1932
290.8686	0.1927
291.0813	0.1875
291.294	0.192
291.5067	0.1882
291.7194	0.1879
291.932	0.1918
292.1447	0.1949
292.3573	0.1918
292.5699	0.1937
292.7825	0.1912
292.9951	0.1942
293.2077	0.1881
293.4203	0.1939
293.6328	0.1928
293.8454	0.1898
294.0579	0.1897
294.2704	0.1961
294.4829	0.1949
294.6954	0.1945
294.9079	0.1889
295.1204	0.1912
295.3328	0.1942
295.5453	0.1994
295.7577	0.1938
295.9701	0.1905
296.1825	0.1923
296.3949	0.1893
296.6073	0.1895
296.8197	0.1918
297.0321	0.1937
297.2444	0.1884
297.4567	0.1982
297.6691	0.1927
297.8814	0.196
298.0937	0.1929
298.306	0.1937
298.5182	0.1999
298.7305	0.1917
298.9428	0.191
299.155	0.1885
299.3672	0.1885
299.5794	0.1947
299.7916	0.1948
300.0038	0.1956
300.216	0.1915
300.4282	0.191
300.6403	0.2015
300.8525	0.1923
301.0646	0.1946
301.2767	0.1953
301.4888	0.1937
301.7009	0.1923
301.913	0.1919
302.125	0.1961
302.3371	0.1958
302.5491	0.1922
302.7612	0.201
302.9732	0.1968
303.1852	0.1906
303.3972	0.1869
303.6092	0.1927
303.8211	0.1891
304.0331	0.1889
304.245	0.1934
304.457	0.1907
304.6689	0.1886
304.8808	0.1897
305.0927	0.1884
305.3046	0.1886
305.5164	0.189
305.7283	0.1883
305.9401	0.1802
306.152	0.1843
306.3638	0.1865
306.5756	0.1873
306.7874	0.1808
306.9992	0.1748
307.2109	0.1752
307.4227	0.1748
307.6344	0.1797
307.8462	0.1671
308.0579	0.1767
308.2696	0.1656
308.4813	0.1752
308.693	0.1648
308.9046	0.1692
309.1163	0.1618
309.328	0.1678
309.5396	0.1604
309.7512	0.1587
309.9628	0.1605
310.1744	0.154
310.386	0.1498
310.5976	0.1568
310.8091	0.1587
311.0207	0.1496
311.2322	0.1547
311.4437	0.1496
311.6552	0.1515
311.8667	0.1502
312.0782	0.1486
312.2897	0.1491
312.5012	0.1438
312.7126	0.1423
312.924	0.1476
313.1355	0.1416
313.3469	0.1437
313.5583	0.1444
313.7696	0.1389
313.981	0.1454
314.1924	0.1435
314.4037	0.14
314.6151	0.1347
314.8264	0.1434
315.0377	0.1396
315.249	0.1474
315.4603	0.1357
315.6716	0.1422
315.8828	0.1419
316.0941	0.1407
316.3053	0.1303
316.5165	0.1424
316.7277	0.1354
316.9389	0.1375
317.1501	0.1327
317.3613	0.1377
317.5724	0.1314
317.7836	0.1326
317.9947	0.1326
318.2058	0.1327
318.417	0.1361
318.6281	0.1326
318.8391	0.1331
319.0502	0.1333
319.2613	0.1305
319.4723	0.1384
319.6834	0.1407
319.8944	0.1346
320.1054	0.1316
320.3164	0.1323
320.5274	0.1289
320.7383	0.1402
320.9493	0.1318
321.1602	0.1322
321.3712	0.1351
321.5821	0.13
321.793	0.1357
322.0039	0.1343
322.2148	0.1375
322.4257	0.1259
322.6365	0.1322
322.8474	0.1408
323.0582	0.1387
323.269	0.1344
323.4798	0.1348
323.6906	0.1309
323.9014	0.1322
324.1122	0.1311
324.3229	0.1398
324.5337	0.1378
324.7444	0.1375
324.9551	0.1353
325.1658	0.1341
325.3765	0.1349
325.5872	0.1401
325.7979	0.1362
326.0085	0.1399
326.2192	0.1359
326.4298	0.1444
326.6404	0.1445
326.851	0.1432
327.0616	0.145
327.2722	0.1455
327.4828	0.141
327.6933	0.1494
327.9039	0.1357
328.1144	0.1428
328.3249	0.1431
328.5354	0.1485
328.7459	0.1476
328.9564	0.1444
329.1669	0.1527
329.3773	0.1429
329.5878	0.1471
329.7982	0.1497
330.0086	0.1488
330.219	0.1441
330.4294	0.1469
330.6398	0.1472
330.8502	0.1532
331.0605	0.1466
331.2708	0.1492
331.4812	0.1464
331.6915	0.1495
331.9018	0.1502
332.1121	0.1493
332.3224	0.1469
332.5326	0.1454
332.7429	0.1429
332.9531	0.1502
333.1633	0.1422
333.3735	0.1439
333.5837	0.1502
333.7939	0.1503
334.0041	0.1539
334.2143	0.1448
334.4244	0.1556
334.6346	0.1508
334.8447	0.1468
335.0548	0.1478
335.2649	0.1477
335.475	0.1506
335.685	0.1486
335.8951	0.1432
336.1051	0.1541
336.3152	0.1543
336.5252	0.1471
336.7352	0.1508
336.9452	0.1477
337.1552	0.1462
337.3652	0.1454
337.5751	0.1491
337.7851	0.152
337.995	0.1594
338.2049	0.1479
338.4148	0.1497
338.6247	0.1529
338.8346	0.1472
339.0445	0.1526
339.2543	0.1533
339.4642	0.1471
339.674	0.1504
339.8838	0.148
340.0936	0.1509
340.3034	0.1467
340.5132	0.1503
340.7229	0.1533
340.9327	0.1583
341.1424	0.1544
341.3522	0.1575
341.5619	0.1538
341.7716	0.1591
341.9813	0.1628
342.1909	0.1607
342.4006	0.1579
342.6102	0.1569
342.8199	0.1606
343.0295	0.1623
343.2391	0.1649
343.4487	0.1674
343.6583	0.1655
343.8679	0.1553
344.0774	0.1604
344.287	0.1596
344.4965	0.1724
344.706	0.1692
344.9155	0.1593
345.125	0.1587
345.3345	0.1712
345.544	0.1698
345.7534	0.1721
345.9629	0.1716
346.1723	0.1677
346.3817	0.1723
346.5911	0.1724
346.8005	0.1808
347.0099	0.1703
347.2193	0.182
347.4286	0.1799
347.638	0.174
347.8473	0.1822
348.0566	0.1796
348.2659	0.1756
348.4752	0.1823
348.6845	0.1784
348.8937	0.1779
349.103	0.1807
349.3122	0.1843
349.5214	0.1836
349.7306	0.19
349.9398	0.1823
350.149	0.1852
350.3582	0.1813
350.5674	0.1794
350.7765	0.1868
350.9856	0.1795
351.1948	0.1902
351.4039	0.1887
351.613	0.1816
351.822	0.1883
352.0311	0.1848
352.2402	0.1844
352.4492	0.1828
352.6582	0.1869
352.8672	0.1831
353.0762	0.1883
353.2852	0.1916
353.4942	0.192
353.7032	0.1836
353.9121	0.1869
354.1211	0.1885
354.33	0.1889
354.5389	0.1891
354.7478	0.1889
354.9567	0.187
355.1655	0.1922
355.3744	0.1884
355.5833	0.1913
355.7921	0.2034
356.0009	0.1872
356.2097	0.1821
356.4185	0.1886
356.6273	0.1956
356.8361	0.1974
357.0448	0.1961
357.2536	0.1934
357.4623	0.1857
357.671	0.1993
357.8797	0.1949
358.0884	0.1895
358.2971	0.1923
358.5057	0.1989
358.7144	0.195
358.923	0.1983
359.1316	0.2013
359.3402	0.2003
359.5488	0.1931
359.7574	0.2022
359.966	0.198
360.1746	0.2051
360.3831	0.2056
360.5916	0.2035
360.8002	0.2068
361.0087	0.2044
361.2172	0.2095
361.4256	0.2057
361.6341	0.2172
361.8426	0.2077
362.051	0.2077
362.2594	0.2123
362.4678	0.2131
362.6762	0.2124
362.8846	0.2091
363.093	0.2175
363.3014	0.2191
363.5097	0.2243
363.718	0.2201
363.9264	0.2181
364.1347	0.2145
364.343	0.2153
364.5513	0.2146
364.7595	0.2302
364.9678	0.2162
365.176	0.2238
365.3842	0.2307
365.5925	0.2196
365.8007	0.2279
366.0089	0.2258
366.217	0.2249
366.4252	0.2242
366.6333	0.2282
366.8415	0.2368
367.0496	0.2328
367.2577	0.2298
367.4658	0.2252
367.6739	0.2232
367.882	0.2367
368.09	0.2344
368.2981	0.2369
368.5061	0.2334
368.7141	0.2368
368.9221	0.2486
369.1301	0.2463
369.3381	0.2466
369.5461	0.2476
369.754	0.2387
369.962	0.2402
370.1699	0.2424
370.3778	0.2525
370.5857	0.2483
370.7936	0.2494
371.0015	0.2399
371.2093	0.2415
371.4172	0.2518
371.625	0.2508
371.8328	0.2444
372.0406	0.254
372.2484	0.2539
372.4562	0.2498
372.664	0.2544
372.8717	0.2599
373.0795	0.2669
373.2872	0.2542
373.4949	0.256
373.7026	0.2577
373.9103	0.2476
374.118	0.2642
374.3256	0.2648
374.5333	0.252
374.7409	0.2581
374.9485	0.2587
375.1561	0.2656
375.3637	0.2606
375.5713	0.2629
375.7789	0.2638
375.9864	0.262
376.194	0.2605
376.4015	0.2606
376.609	0.2681
376.8165	0.2654
377.024	0.2651
377.2315	0.2652
377.4389	0.2608
377.6464	0.2775
377.8538	0.2729
378.0612	0.2743
378.2686	0.2683
378.476	0.272
378.6834	0.2756
378.8908	0.2766
379.0981	0.2699
379.3055	0.2779
379.5128	0.2736
379.7201	0.2732
379.9274	0.2722
380.1347	0.2765
380.342	0.2833
380.5492	0.2726
380.7565	0.2816
380.9637	0.2735
381.1709	0.2668
381.3781	0.2784
381.5853	0.2756
381.7925	0.2773
381.9997	0.2853
382.2068	0.2849
382.4139	0.2838
382.6211	0.2896
382.8282	0.2876
383.0353	0.2879
383.2424	0.2837
383.4494	0.2876
383.6565	0.2911
383.8635	0.2835
384.0706	0.2997
384.2776	0.277
384.4846	0.2877
384.6916	0.2882
384.8986	0.2926
385.1055	0.293
385.3125	0.2902
385.5194	0.2814
385.7263	0.2851
385.9333	0.2882
386.1402	0.2902
386.347	0.2873
386.5539	0.2877
386.7608	0.292
386.9676	0.2934
387.1744	0.2926
387.3813	0.286
387.5881	0.2847
387.7948	0.2942
388.0016	0.2999
388.2084	0.2843
388.4151	0.2864
388.6219	0.2817
388.8286	0.2871
389.0353	0.2845
389.242	0.2952
389.4487	0.2836
389.6553	0.2735
389.862	0.2752
390.0686	0.2867
390.2753	0.2794
390.4819	0.2834
390.6885	0.2841
390.8951	0.275
391.1016	0.2737
391.3082	0.2717
391.5147	0.2705
391.7213	0.2652
391.9278	0.2654
392.1343	0.2765
392.3408	0.2756
392.5473	0.2716
392.7537	0.2681
392.9602	0.2723
393.1666	0.2717
393.373	0.2621
393.5794	0.266
393.7858	0.2669
393.9922	0.2596
394.1986	0.2574
394.4049	0.2638
394.6113	0.26
394.8176	0.2593
395.0239	0.2628
395.2302	0.2549
395.4365	0.259
395.6428	0.2514
395.8491	0.2526
396.0553	0.2484
396.2615	0.252
396.4678	0.2559
396.674	0.2412
396.8802	0.2494
397.0863	0.2486
397.2925	0.2576
397.4987	0.2407
397.7048	0.2607
397.9109	0.2421
398.117	0.254
398.3231	0.2459
398.5292	0.2426
398.7353	0.2373
398.9413	0.2402
399.1474	0.2423
399.3534	0.2415
399.5594	0.243
399.7654	0.2417
399.9714	0.2463
400.1774	0.2442
400.3833	0.2428
400.5893	0.2343
400.7952	0.251
401.0011	0.2343
401.207	0.2527
401.4129	0.2346
401.6188	0.25
401.8247	0.2479
402.0305	0.2363
402.2364	0.2444
402.4422	0.2423
402.648	0.2436
402.8538	0.2458
403.0596	0.2462
403.2654	0.2345
403.4711	0.2421
403.6768	0.2404
403.8826	0.2503
404.0883	0.2477
404.294	0.2485
404.4997	0.2456
404.7054	0.2394
404.911	0.2426
405.1167	0.2522
405.3223	0.2377
405.5279	0.2444
405.7335	0.2417
405.9391	0.2373
406.1447	0.2496
406.3502	0.2357
406.5558	0.2454
406.7613	0.2385
406.9668	0.2388
407.1724	0.2423
407.3778	0.243
407.5833	0.2345
407.7888	0.2467
407.9942	0.2446
408.1997	0.2342
408.4051	0.2433
408.6105	0.2497
408.8159	0.2426
409.0213	0.2372
409.2267	0.2505
409.432	0.2399
409.6374	0.2473
409.8427	0.2498
410.048	0.2357
410.2533	0.2375
410.4586	0.2383
410.6639	0.2485
410.8691	0.2381
411.0744	0.2445
411.2796	0.2461
411.4848	0.2406
411.69	0.2335
411.8952	0.2419
412.1004	0.2455
412.3056	0.2415
412.5107	0.2373
412.7158	0.2459
412.921	0.2476
413.1261	0.2476
413.3312	0.2482
413.5362	0.2439
413.7413	0.2399
413.9464	0.2347
414.1514	0.2331
414.3564	0.2247
414.5614	0.2386
414.7664	0.2354
414.9714	0.2376
415.1764	0.2386
415.3813	0.2347
415.5863	0.2404
415.7912	0.2304
415.9961	0.2341
416.201	0.2444
416.4059	0.2391
416.6108	0.2379
416.8156	0.2286
417.0205	0.2361
417.2253	0.2337
417.4301	0.2444
417.6349	0.2272
417.8397	0.234
418.0445	0.2286
418.2492	0.2284
418.454	0.2293
418.6587	0.2332
418.8634	0.2284
419.0681	0.2311
419.2728	0.226
419.4775	0.2366
419.6822	0.2288
419.8868	0.2188
420.0915	0.2211
420.2961	0.2127
420.5007	0.2233
420.7053	0.227
420.9099	0.2154
421.1144	0.2256
421.319	0.2103
421.5235	0.2092
421.728	0.2257
421.9325	0.2239
422.137	0.2227
422.3415	0.2165
422.546	0.2161
422.7504	0.2223
422.9549	0.2271
423.1593	0.2176
423.3637	0.2147
423.5681	0.2127
423.7725	0.2209
423.9769	0.2152
424.1812	0.2085
424.3856	0.2103
424.5899	0.208
424.7942	0.2117
424.9985	0.2043
425.2028	0.2168
425.4071	0.2128
425.6113	0.2006
425.8156	0.214
426.0198	0.2023
426.224	0.2037
426.4282	0.1924
426.6324	0.1988
426.8366	0.1917
427.0407	0.197
427.2449	0.1984
427.449	0.1912
427.6531	0.2012
427.8572	0.1988
428.0613	0.2097
428.2654	0.1931
428.4694	0.1854
428.6735	0.1859
428.8775	0.1916
429.0815	0.1878
429.2855	0.1912
429.4895	0.1921
429.6935	0.1839
429.8975	0.1723
430.1014	0.1834
430.3053	0.1912
430.5093	0.1795
430.7132	0.1754
430.9171	0.1786
431.1209	0.1828
431.3248	0.1708
431.5286	0.1643
431.7325	0.1737
431.9363	0.1613
432.1401	0.1682
432.3439	0.1569
432.5477	0.1583
432.7514	0.1507
432.9552	0.1656
433.1589	0.1524
433.3627	0.1575
433.5664	0.1483
433.7701	0.1559
433.9737	0.1602
434.1774	0.1619
434.3811	0.1404
434.5847	0.1573
434.7883	0.1527
434.9919	0.1398
435.1955	0.1552
435.3991	0.1522
435.6027	0.1384
435.8062	0.1554
436.0098	0.137
436.2133	0.1382
436.4168	0.1358
436.6203	0.1269
436.8238	0.1261
437.0272	0.1344
437.2307	0.1269
437.4341	0.1292
437.6375	0.1294
437.841	0.1265
438.0443	0.1324
438.2477	0.1119
438.4511	0.1079
438.6545	0.1268
438.8578	0.1291
439.0611	0.1259
439.2644	0.1252
439.4677	0.1157
439.671	0.1107
439.8743	0.1128
440.0775	0.1155
440.2808	0.1082
440.484	0.1063
440.6872	0.1118
440.8904	0.0944
441.0936	0.099
441.2967	0.0928
441.4999	0.0889
441.703	0.0926
441.9062	0.102
442.1093	0.1006
442.3124	0.0877
442.5155	0.0958
442.7185	0.0839
442.9216	0.0867
443.1246	0.0912
443.3276	0.0837
443.5307	0.0772
443.7337	0.0866
443.9366	0.08
444.1396	0.0802
444.3426	0.0762
444.5455	0.0779
444.7484	0.0746
444.9513	0.0698
445.1542	0.0796
445.3571	0.0761
445.56	0.0689
445.7628	0.0716
445.9657	0.0718
446.1685	0.0655
446.3713	0.0733
446.5741	0.0729
446.7769	0.0776
446.9797	0.0717
447.1824	0.062
447.3852	0.0595
447.5879	0.0629
447.7906	0.0604
447.9933	0.0531
448.196	0.0603
448.3986	0.0544
448.6013	0.0464
448.8039	0.0613
449.0066	0.0659
449.2092	0.0569
449.4118	0.0566
449.6143	0.0589
449.8169	0.0509
450.0195	0.0472
450.222	0.056
450.4245	0.0523
450.627	0.0444
450.8295	0.0442
451.032	0.0398
451.2345	0.0443
451.4369	0.0517
451.6394	0.0536
451.8418	0.0436
452.0442	0.0373
452.2466	0.0355
452.449	0.0451
452.6513	0.0313
452.8537	0.039
453.056	0.037
453.2583	0.0353
453.4607	0.0241
453.663	0.0324
453.8652	0.0305
454.0675	0.0451
454.2697	0.0339
454.472	0.0261
454.6742	0.0433
454.8764	0.036
455.0786	0.0353
455.2808	0.0296
455.4829	0.0331
455.6851	0.0372
455.8872	0.0224
456.0893	0.0293
456.2915	0.0242
456.4935	0.0428
456.6956	0.0262
456.8977	0.0316
457.0997	0.031
457.3018	0.0227
457.5038	0.0278
457.7058	0.0241
457.9078	0.0206
458.1098	0.0291
458.3117	0.0356
458.5137	0.0169
458.7156	0.0264
458.9175	0.0277
459.1194	0.0227
459.3213	0.0271
459.5232	0.0254
459.725	0.0192
459.9269	0.0242
460.1287	0.0192
460.3305	0.0282
460.5323	0.0226
460.7341	0.0291
460.9359	0.0144
461.1376	0.0222
461.3394	0.0278
461.5411	0.024
461.7428	0.0161
461.9445	0.0185
462.1462	0.0147
462.3479	0.0138
462.5495	0.0211
462.7512	0.0269
462.9528	0.013
463.1544	0.01
463.356	0.0052
463.5576	0.0286
463.7592	0.0134
463.9607	0.0187
464.1623	0.0139
464.3638	0.0141
464.5653	0.0222
464.7668	0.0218
464.9683	0.0203
465.1697	0.0144
465.3712	0.004
465.5726	0.0149
465.7741	0.0162
465.9755	0.0197
466.1769	0.0091
466.3782	0.0176
466.5796	0.016
466.7809	0.0178
466.9823	0.0088
467.1836	0.0107
467.3849	0.0127
467.5862	-0.0011
467.7875	0.0055
467.9887	0.0157
468.19	0.0111
468.3912	0.019
468.5924	0.0142
468.7936	0.0147
468.9948	0.0028
469.196	0.0135
469.3972	0.008
469.5983	0.0175
469.7994	0.0139
470.0006	0.0118
470.2017	0.012
470.4027	0.0227
470.6038	0.0157
470.8049	0.0055
471.0059	0.0178
471.2069	0.0162
471.408	0.014
471.6089	0.0169
471.8099	0.0189
472.0109	0.005
472.2119	0.0178
472.4128	0.0004
472.6137	0.0017
472.8146	0.0048
473.0155	0.0208
473.2164	0.0071
473.4173	0.0066
473.6181	0.0021
473.819	0.0059
474.0198	0.0017
474.2206	-0.0007
474.4214	0.0126
474.6222	0.0033
474.8229	0.0096
475.0237	0.0121
475.2244	0.0077
475.4251	0.0073
475.6258	-0.0008
475.8265	0.0084
476.0272	0.0033
476.2278	0.0096
476.4285	0.017
476.6291	-0.001
476.8297	0.0124
477.0303	0.0054
477.2309	0.0077
477.4315	0.0127
477.632	-0.0004
477.8326	0.0091
478.0331	0.0098
478.2336	0.0078
478.4341	0.0114
478.6346	0.0011
478.8351	0.0076
479.0355	0.0111
479.236	0.0164
479.4364	0.0075
479.6368	0.0046
479.8372	0.0041
480.0376	0.004
480.2379	0.0075
480.4383	0.0083
480.6386	0.0006
480.8389	0.0021
481.0392	0.0076
481.2395	0.0129
481.4398	0.0132
481.6401	0.0145
481.8403	-0.0012
482.0405	0.0099
482.2408	0.0062
482.441	0.0065
482.6411	0.0114
482.8413	0.0039
483.0415	0.0091
483.2416	0.0062
483.4417	0.0017
483.6419	0.0017
483.8419	0.0031
484.042	0.0031
484.2421	0.0008
484.4422	0.0067
484.6422	-0.0017
484.8422	0.0063
485.0422	0.0071
485.2422	0.0049
485.4422	0.0061
485.6422	0.0057
485.8421	0.0086
486.042	0.0149
486.242	0.0033
486.4419	0.0106
486.6417	0.0075
486.8416	0.0054
487.0415	0.0023
487.2413	-0.0028
487.4411	0.0128
487.641	0.0045
487.8408	0.0131
488.0405	0.008
488.2403	0.0023
488.4401	0.003
488.6398	0.0107
488.8395	0.0072
489.0392	0.0116
489.2389	0.0011
489.4386	-0.0077
489.6383	0.0057
489.8379	0.0019
490.0376	0.0027
490.2372	0.0018
490.4368	0.0025
490.6364	-0.0016
490.836	-0.0035
491.0355	-0.0021
491.2351	-0.0019
491.4346	0.0021
491.6341	0.0034
491.8336	0.0027
492.0331	0.0012
492.2326	0.0065
492.432	0.0073
492.6315	0.0038
492.8309	0.0092
493.0303	0.0021
493.2297	0.0098
493.4291	0.0009
493.6284	0.0136
493.8278	0.0008
494.0271	0.003
494.2264	-0.0022
494.4257	0.0059
494.625	0.0032
494.8243	-0.002
495.0236	0.0062
495.2228	0.0092
495.422	0.0072
495.6213	0.0074
495.8205	0.0083
496.0196	0.0048
496.2188	0.0009
496.418	0.0006
496.6171	-0.0025
496.8162	0.0027
497.0153	0.008
497.2144	0.0035
497.4135	0.0002
497.6126	0.0037
497.8116	-0.0082
498.0107	0.0022
498.2097	0.0065
498.4087	-0.0027
498.6077	-0.0078
498.8067	0.0065
499.0056	-0.0016
499.2046	0.0072
499.4035	0.0076
499.6024	0.0001
499.8013	0.0008
500.0002	0.005
500.199	0.0074
500.3979	0.0016
500.5967	-0.0005
500.7956	0.0029
500.9944	-0.0018
501.1932	0.0073
501.3919	0.0002
501.5907	0.0052
501.7895	-0.0024
501.9882	0.0025
502.1869	0.0106
502.3856	0.0052
502.5843	-0.0011
502.783	0.0037
502.9816	0.005
503.1803	0.0043
503.3789	0.0053
503.5775	0.0037
503.7761	-0.0039
503.9747	0.0017
504.1732	-0.0021
504.3718	0.0074
504.5703	-0.0023
504.7689	-0.0025
504.9674	-0.0049
505.1658	-0.0021
505.3643	0.0027
505.5628	0.0102
505.7612	0.0075
505.9597	-0.0025
506.1581	0.0012
506.3565	-0.0025
506.5549	-0.0029
506.7532	-0.004
506.9516	0.003
507.1499	0.0076
507.3482	0.0045
507.5465	0.0088
507.7448	0.0082
507.9431	0.0043
508.1414	-0.0065
508.3396	-0
508.5379	-0.0015
508.7361	0.0048
508.9343	-0.0045
509.1325	0.0047
509.3306	0.004
509.5288	-0.0104
509.7269	0.015
509.9251	0.0001
510.1232	0.0138
510.3213	0.0078
510.5193	-0.0019
510.7174	-0.0048
510.9154	0.001
511.1135	0.0003
511.3115	0.0003
511.5095	0.0007
511.7075	-0.0023
511.9055	0.0058
512.1034	-0.0007
512.3014	0.002
512.4993	-0.0062
512.6972	-0.0085
512.8951	0.0044
513.093	0.0086
513.2908	0.0095
513.4887	-0.0045
513.6865	0.0093
513.8844	0.0057
514.0822	-0.0013
514.2799	-0.0051
514.4777	-0.0126
514.6755	-0.0019
514.8732	-0.0023
515.0709	-0.0028
515.2687	-0.0087
515.4664	0.0052
515.664	0.0022
515.8617	0.0076
516.0594	0.0021
516.257	-0.0011
516.4546	0.0112
516.6522	0.0064
516.8498	-0.0019
517.0474	-0.0055
517.2449	0.0002
517.4425	-0.0026
517.64	0.0002
517.8375	0.0011
518.035	-0.0032
518.2325	-0.0123
518.43	0.0002
518.6274	-0.0058
518.8249	-0.006
519.0223	0.0044
519.2197	0.0018
519.4171	-0.0062
519.6145	0.0013
519.8118	-0.0111
520.0092	-0.0124
520.2065	0.0088
520.4038	0.0007
520.6011	0.0056
520.7984	-0.0024
520.9956	0.0046
521.1929	0.002
521.3901	-0.0009
521.5874	0.0037
521.7846	-0.0011
521.9818	0.0119
522.1789	-0.0076
522.3761	0.0048
522.5732	-0.0068
522.7704	-0.002
522.9675	-0.0171
523.1646	-0.0071
523.3617	0.0045
523.5587	-0.0046
523.7558	0.0001
523.9528	0.0076
524.1498	0
524.3468	0.0018
524.5438	0.0059
524.7408	-0.001
524.9378	-0.0003
525.1347	0.0093
525.3316	-0.0025
525.5285	0.0003
525.7254	-0.0026
525.9223	0.0058
526.1192	-0.0022
526.316	0.0038
526.5129	-0.0067
526.7097	-0.002
526.9065	0.0061
527.1033	-0.0025
527.3	-0.0095
527.4968	-0.001
527.6935	-0.0083
527.8903	-0.0067
528.087	-0.0074
528.2837	0.0019
528.4804	0.0001
528.677	0.0015
528.8737	-0.0093
529.0703	-0.0041
529.2669	0.0019
529.4635	-0.0029
529.6601	-0.0115
529.8567	-0.012
530.0532	0.0064
530.2498	-0.0048
530.4463	-0.0096
530.6428	-0.0021
530.8393	0.0021
531.0358	-0.0003
531.2322	-0.0056
531.4287	-0.0089
531.6251	-0.0149
531.8215	-0.0045
532.0179	0.0072
532.2143	-0.0082
532.4107	0.0042
532.607	-0.0008
532.8034	-0.0056
532.9997	0.0018
533.196	-0.0035
533.3923	-0.0014
533.5886	0.0026
533.7848	-0.0036
533.9811	0.0062
534.1773	0.0068
534.3735	0.0039
534.5697	0.007
534.7659	0.0011
534.9621	0.0033
535.1582	-0.0038
535.3544	0.0101
535.5505	0.0033
535.7466	0.0025
535.9427	-0.0032
536.1387	0.0025
536.3348	-0.0015
536.5308	-0.007
536.7269	-0.0068
536.9229	0.0049
537.1189	0.0025
537.3148	-0.0024
537.5108	-0.0037
537.7068	0.0132
537.9027	-0.0065
538.0986	0.001
538.2945	-0.0018
538.4904	-0.006
538.6863	0.0006
538.8821	0.0124
539.078	0.0076
539.2738	-0.0038
539.4696	-0.0001
539.6654	-0.003
539.8611	0.0017
540.0569	-0.0003
540.2526	0.0039
540.4484	-0.0008
540.6441	-0.0095
540.8398	0.0049
541.0355	-0.0035
541.2311	-0.0071
541.4268	0.0036
541.6224	0.0003
541.818	0.0065
542.0136	0.0057
542.2092	0.0028
542.4048	-0.0023
542.6003	0.0118
542.7959	0.003
542.9914	0.005
543.1869	0.0013
543.3824	-0.0011
543.5779	0.0088
543.7734	0.0145
543.9688	-0.0024
544.1642	-0.009
544.3596	0.0102
544.555	-0.0027
544.7504	0.0051
544.9458	0.0073
545.1411	-0.0034
545.3365	0.0113
545.5318	0.003
545.7271	0.0064
545.9224	0.001
546.1177	0.0035
546.3129	0.0009
546.5081	0.0015
546.7034	-0.0003
546.8986	0.0064
547.0938	-0.0004
547.289	0.004
547.4841	0.0027
547.6793	-0.0034
547.8744	0.0081
548.0695	-0.0034
548.2646	0.0033
548.4597	-0.0029
548.6548	0.0063
548.8498	0.0089
549.0448	0.0039
549.2399	0.0214
549.4349	0.0098
549.6298	0.0143
549.8248	-0.0036
550.0198	-0.0019
550.2147	0.0095
550.4096	-0.0024
550.6045	0.0008
550.7994	0.0029
550.9943	0.0073
551.1892	-0.0116
551.384	0.0095
551.5788	0.006
551.7737	0.0049
551.9685	0.0046
552.1632	-0.0073
552.358	0.0035
552.5528	0.0122
552.7475	0.0022
552.9422	0.0079
553.1369	0.0072
553.3316	0.0086
553.5263	0.0017
553.7209	0.0003
553.9156	0.0017
554.1102	0.01
554.3048	-0.0017
554.4994	0.0041
554.694	0.0065
554.8885	0.0031
555.0831	0.0082
555.2776	0.0095
555.4721	0.0124
555.6666	0.0014
555.8611	-0.0015
556.0555	0.0067
556.25	0.0065
556.4444	-0.0023
556.6388	-0.0019
556.8332	0.0004
557.0276	0.0075
557.222	0.0049
557.4163	0.0154
557.6107	0.0045
557.805	-0.0164
557.9993	0.0074
558.1936	-0.0118
558.3879	0.0147
558.5821	0.0087
558.7764	0.0036
558.9706	0.0048
559.1648	0.0045
559.359	0.0076
559.5532	0.0025
559.7473	-0.0025
559.9415	0.0064
560.1356	0.0195
560.3297	0.0006
560.5238	0.003
560.7179	-0.0006
560.9119	-0.0033
561.106	0.0037
561.3	0.0032
561.494	-0.0025
561.688	0.0003
561.882	0.0049
562.076	-0.0003
562.2699	0.0081
562.4639	0.0122
562.6578	0.0033
562.8517	0.005
563.0456	0.0074
563.2395	0.0064
563.4333	0.0071
563.6272	0.0099
563.821	0.0065
564.0148	0.0023
564.2086	0.0059
564.4024	0.0091
564.5961	0.0089
564.7899	0.004
564.9836	0.0072
565.1773	0.0171
565.371	0.0045
565.5647	0.0068
565.7584	0.0113
565.952	0.0006
566.1456	0.0034
566.3393	0.0055
566.5329	0.0077
566.7264	0.0093
566.92	-0.0003
567.1136	0.0015
567.3071	-0
567.5006	0.0117
567.6941	0.0041
567.8876	0.006
568.0811	0.0181
568.2745	-0.0027
568.468	0.0065
568.6614	0.009
568.8548	0.0082
569.0482	0.0078
569.2416	0.0109
569.4349	0.003
569.6283	0.0084
569.8216	0.0085
570.0149	0.0062
570.2082	0.0095
570.4015	0.0046
570.5947	0.008
570.788	0.0027
570.9812	0.0054
571.1744	0.002
571.3676	0.0079
571.5608	0.0067
571.754	0.0128
571.9471	0.013
572.1402	0.0047
572.3333	0.0078
572.5264	0.0094
572.7195	0.0092
572.9126	0.0076
573.1057	0.0079
573.2987	0.0037
573.4917	0.0064
573.6847	0.0059
573.8777	0.0129
574.0707	0.0058
574.2636	0.0087
574.4566	0.0038
574.6495	0.0075
574.8424	0.0077
575.0353	0.0079
575.2281	0.0165
575.421	0.0036
575.6138	0.0036
575.8067	0.0102
575.9995	0.0078
576.1923	0.0081
576.385	0.0053
576.5778	0.0088
576.7706	0.0095
576.9633	0.0066
577.156	0.0023
577.3487	0.0092
577.5414	0.005
577.734	0.006
577.9267	0.0094
578.1193	0.0087
578.3119	0.0034
578.5045	0.0041
578.6971	0.0031
578.8897	0.0063
579.0822	0.0093
579.2747	0.0097
579.4673	0.0089
579.6598	0.0087
579.8522	0.0097
580.0447	0.0057
580.2372	0.0125
580.4296	0.0113
580.622	0.0061
580.8144	0.0073
581.0068	0.0065
581.1992	0.0089
581.3915	0.0023
581.5839	0.0058
581.7762	0.0052
581.9685	0.0065
582.1608	0.0078
582.353	0.0068
582.5453	0.0097
582.7375	0.0071
582.9298	0.0027
583.122	0.0048
583.3142	0.0126
583.5063	0.008
583.6985	0.0056
583.8906	0.0057
584.0827	0.0093
584.2749	0.003
584.4669	0.0043
584.659	0.0067
584.8511	0.0123
585.0431	0.0079
585.2352	0.0067
585.4272	0.0119
585.6192	0.0116
585.8111	0.0085
586.0031	0.0105
586.195	0.0099
586.387	0.0044
586.5789	0.0101
586.7708	0.0121
586.9627	0.0102
587.1545	0.0058
587.3464	0.0085
587.5382	0.0025
587.73	0.0102
587.9218	0.005
588.1136	0.0086
588.3053	0.01
588.4971	0.0095
588.6888	0.0042
588.8805	0.0035
589.0722	0.0143
589.2639	0.0028
589.4556	0.0082
589.6472	0.0119
589.8389	0.0103
590.0305	0.0069
590.2221	0.0084
590.4137	0.0066
590.6052	0.0036
590.7968	0.0118
590.9883	0.0085
591.1798	0.0002
591.3713	0.0055
591.5628	0.0056
591.7543	0.0025
591.9458	0.0078
592.1372	0.0101
592.3286	0.0055
592.52	0.0063
592.7114	0.0065
592.9028	0.0103
593.0941	0.0011
593.2855	0.0052
593.4768	0.0101
593.6681	0.0087
593.8594	0.0102
594.0506	0.0059
594.2419	0.0079
594.4331	0.0046
594.6244	0.0018
594.8156	0.004
595.0067	0.0019
595.1979	0.0018
595.3891	0.0052
595.5802	0.013
595.7713	0.0076
595.9624	0.0063
596.1535	0.0074
596.3446	0.0015
596.5357	0.0117
596.7267	0.009
596.9177	0.0062
597.1087	0.0069
597.2997	0.0057
597.4907	0.0017
597.6817	0.0086
597.8726	0.0121
598.0635	0.004
598.2544	0.0073
598.4453	0.0071
598.6362	0.0075
598.827	0.0081
599.0179	0.006
599.2087	0.0123
599.3995	0.0103
599.5903	0.0119
599.7811	0.0158
599.9718	0.0042
600.1626	0.0026
600.3533	0.0052
600.544	0.0059
600.7347	0.0094
600.9254	0.0158
601.116	0.0073
601.3067	0.0067
601.4973	0.0129
601.6879	0.0014
601.8785	0.0119
602.0691	0.0107
602.2596	0.0038
602.4502	0.0081
602.6407	0.0116
602.8312	0.0095
603.0217	0.0029
603.2122	0.0032
603.4027	0.0041
603.5931	0.0061
603.7835	0.0093
603.9739	0.0065
604.1643	0.015
604.3547	0.0104
604.5451	0.012
604.7354	0.0064
604.9257	0.0053
605.116	0.0038
605.3063	0.0079
605.4966	0.0056
605.6869	0.01
605.8771	0.0074
606.0673	0.0067
606.2575	0.0075
606.4477	0.0128
606.6379	0.0047
606.8281	0.0067
607.0182	0.0062
607.2083	0.0107
607.3985	0.0074
607.5885	0.0139
607.7786	0.009
607.9687	0.0122
608.1587	0.0156
608.3488	0.0055
608.5388	-0.0007
608.7288	0.0062
608.9187	0.0052
609.1087	0.0084
609.2986	0.0136
609.4886	0.0038
609.6785	0.0097
609.8684	0.0066
610.0582	0.0069
610.2481	-0.001
610.4379	0.0065
610.6278	0.0035
610.8176	0.0144
611.0074	0.012
611.1971	0.0114
611.3869	0.007
611.5766	0.0056
611.7664	0.0105
611.9561	0.0113
612.1458	0.011
612.3354	0.0101
612.5251	0.0027
612.7147	0.0123
612.9044	0.0009
613.094	0.0088
613.2836	-0.0027
613.4731	0.0057
613.6627	0.0022
613.8522	-0.001
614.0417	0.0079
614.2313	0.0032
614.4207	0.0012
614.6102	0.0177
614.7997	0.0027
614.9891	0.005
615.1785	-0.0013
615.3679	0.0071
615.5573	0.0055
615.7467	0.005
615.9361	0.0098
616.1254	0.0117
616.3147	0.0079
616.504	0.0116
616.6933	0.0084
616.8826	0.0034
617.0718	0.0131
617.2611	0.008
617.4503	0.0076
617.6395	0.0063
617.8287	0.0117
618.0179	0.0025
618.207	0.0096
618.3961	-0.0024
618.5853	0.003
618.7744	0.0139
618.9634	0.0127
619.1525	0.0014
619.3416	0.0086
619.5306	0.0099
619.7196	0.0131
619.9086	0.0077
620.0976	-0.0019
620.2866	0.0066
620.4755	0.002
620.6645	0.0129
620.8534	0.0215
621.0423	0.0003
621.2312	0.0038
621.42	0.0052
621.6089	0.0019
621.7977	0.0054
621.9865	0.0007
622.1753	0.0039
622.3641	0.006
622.5529	-0.0013
622.7416	0.0064
622.9303	0.0018
623.1191	0.0011
623.3078	0.0043
623.4964	-0.0002
623.6851	0.0115
623.8737	0.0004
624.0624	-0.0052
624.251	0.0078
624.4396	0.0056
624.6282	0.0166
624.8167	0.0022
625.0053	0.0109
625.1938	0.0055
625.3823	0.0134
625.5708	-0.0029
625.7593	0.0012
625.9477	0.0138
626.1362	-0.0019
626.3246	-0.0004
626.513	0.0066
626.7014	0.0121
626.8898	0.0136
627.0781	0.007
627.2665	0.0151
627.4548	-0.0013
627.6431	0.0115
627.8314	0.0229
628.0197	0.013
628.2079	0.0017
628.3962	0.0106
628.5844	0.0101
628.7726	0.0002
628.9608	0.0122
629.1489	0.0086
629.3371	0.0004
629.5252	0.0009
629.7134	-0.0136
629.9015	0.0068
630.0895	-0.0023
630.2776	0.0113
630.4657	0.0137
630.6537	0.0099
630.8417	-0.0083
631.0297	-0.0027
631.2177	0.0104
631.4057	-0.0083
631.5936	0.007
631.7815	0.0087
631.9695	0.0123
632.1574	0.0222
632.3452	0.0066
632.5331	0.0121
632.7209	0.0066
632.9088	0.0116
633.0966	0.0266
633.2844	0.0036
633.4722	0.0123
633.6599	0.0345
633.8477	0.0081
634.0354	0.0144
634.2231	-0.0038
634.4108	0.0102
634.5985	0.0145
634.7861	0.0024
634.9738	0
635.1614	0.0094
635.349	0.009
635.5366	0.006
635.7242	0.0037
635.9117	0.0108
636.0993	0.0273
636.2868	0.0045
636.4743	0.0168
636.6618	-0.0121
636.8492	0.0103
637.0367	0.0109
637.2241	0.0115
637.4115	0.0265
637.5989	0.0106
637.7863	0.0154
637.9737	0.0111
638.161	0.008
638.3484	-0.0096
638.5357	0.0023
638.723	0.0145
638.9103	-0.0082
639.0975	0.0188
639.2848	0.0182
639.472	0.0153
639.6592	-0.0082
639.8464	0.0002
640.0336	0.0027
640.2208	-0.0127
640.4079	-0.0169
640.595	0.0031
640.7821	0.0081
640.9692	0.0031
641.1563	-0
641.3434	0.0177
641.5304	0.0216
641.7174	-0.0067
641.9044	0.0101
642.0914	0.0148
642.2784	-0.005
642.4653	-0.0066
642.6523	0.0079
642.8392	0.0011
643.0261	0.0093
643.213	0.0134
643.3999	0.011
643.5867	0.0219
643.7735	-0.0002
643.9604	0.0134
644.1472	0.0136
644.3339	-0.0037
644.5207	-0.0051
644.7075	0.0014
644.8942	-0.0042
645.0809	-0.0093
645.2676	0.0049
645.4543	0.011
645.6409	0.0361
645.8276	0.0163
646.0142	0.0054
646.2008	0.006
646.3874	-0.0107
646.574	-0.0113
646.7605	-0.0017
646.9471	-0.0025
647.1336	-0.0233
647.3201	0.0067
647.5066	0.0053
647.6931	-0.0039
647.8795	-0.003
648.0659	0.0157
648.2524	0.015
648.4388	0.0132
648.6252	0.0171
648.8115	0.0136
648.9979	0.0097
649.1842	-0.0077
649.3705	0.0128
649.5568	0.0041
649.7431	-0.0066
649.9294	-0.0088
650.1156	-0.012
650.3018	0.0293
650.488	0.0157
650.6742	0.0177
650.8604	0.0252
651.0466	-0.0032
651.2327	0.0045
651.4188	0.0086
651.6049	0.0116
651.791	-0.002
651.9771	-0.0025
652.1632	0.0137
652.3492	0.0063
652.5352	0.0421
652.7212	0.0053
652.9072	-0.0087
653.0932	0.0051
653.2791	0.0158
653.465	0.0072
653.651	0.0121
653.8369	0.0039
654.0227	0.0011
654.2086	-0.0042
654.3944	0.0174
654.5803	0.0071
654.7661	0.0088
654.9519	-0.0008
655.1377	0
655.3234	0
655.5092	0
655.6949	0
655.8806	0
656.0663	0
656.2519	0
656.4376	0
656.6232	0
656.8088	0
656.9945	0
657.18	0
657.3656	0
657.5511	0
657.7367	0
657.9222	0
658.1077	0
658.2932	0
658.4786	0
658.6641	0
658.8495	0
659.0349	0
659.2203	0
659.4057	0.0137
659.591	0.293
659.7764	0.0267
659.9617	0.0101
660.147	0.0186
660.3323	-0
660.5176	0.0035
660.7028	-0.0004
660.888	0.012
661.0733	0.0158
661.2585	-0.0007
661.4436	-0.0044
661.6288	0.0218
661.8139	-0.0143
661.9991	-0.0314
662.1842	-0.0029
662.3693	-0.001
662.5544	0.0119
662.7394	0.0071
662.9245	0.0216
663.1095	-0.0153
663.2945	-0.0039
663.4795	0.003
663.6644	0.0043
663.8494	0.014
664.0343	0.0244
664.2193	0.0024
664.4042	0.0036
664.589	0.0234
664.7739	0.0177
664.9587	-0.0061
665.1436	0.0197
665.3284	-0.001
665.5132	-0.0199
665.698	-0.0081
665.8827	0.0068
666.0675	0.0051
666.2522	0.0154
666.4369	0.0169
666.6216	0.0044
666.8063	0.0162
666.9909	0.0095
667.1756	0.0151
667.3602	0.0026
667.5448	0.0062
667.7294	0.0077
667.9139	0.0049
668.0985	0.0092
668.283	0.034
668.4675	0.0073
668.652	0.0161
668.8365	0.005
669.0209	0.0151
669.2054	0.001
669.3898	0.007
669.5742	0.0129
669.7586	0.0279
669.943	0.0089
670.1273	0.0006
670.3117	0.0257
670.496	0.0058
670.6803	-0.0041
670.8646	-0.0154
671.0488	0.0279
671.2331	-0.0143
671.4173	0.0114
671.6015	0.008
671.7857	0.0114
671.9699	0.0295
672.1541	0.0098
672.3382	0.0044
672.5223	0.0098
672.7064	0.006
672.8905	0.0158
673.0746	0.0079
673.2587	0.007
673.4427	0.0253
673.6267	0.0266
673.8107	0.0216
673.9947	0.029
674.1787	0.0073
674.3626	0.0137
674.5465	0.0228
674.7304	0.0189
674.9143	0.0032
675.0982	0.029
675.2821	0.0129
675.4659	-0.0061
675.6497	0.0026
675.8335	0.003
676.0173	-0.0079
676.2011	0.0189
676.3849	0.0077
676.5686	0.0069
676.7523	0.0117
676.936	-0.0099
677.1197	-0.0106
677.3034	0.0261
677.487	0.0044
677.6706	0.0218
677.8542	0.0119
678.0378	-0.0096
678.2214	0.0082
678.405	0.0122
678.5885	0.011
678.772	0.0304
678.9555	0.0123
679.139	0.0226
679.3225	0.0264
679.5059	0.0033
679.6894	0.0114
679.8728	0.0114
680.0562	0.0088
680.2395	-0.0089
680.4229	-0.0144
680.6062	0.0028
680.7896	-0.0149
680.9729	0.023
681.1562	0.0077
681.3394	0.008
681.5227	0.0104
681.7059	0.0182
681.8891	0.0054
682.0723	0.0098
682.2555	0.0037
682.4387	0.0016
682.6218	0.0257
682.805	0.0128
682.9881	0.0206
683.1712	0.0088
683.3542	0.033
683.5373	-0.0037
683.7203	-0.0013
683.9034	-0.0048
684.0864	0.001
684.2694	0.0068
684.4523	0.0169
684.6353	0.0086
684.8182	-0.0122
685.0011	0.0097
685.184	0.0104
685.3669	0.0248
685.5498	-0.0025
685.7326	-0.0026
685.9154	-0.004
686.0982	0.0105
686.281	0.0077
686.4638	0.0136
686.6465	0.0115
686.8293	-0.0048
687.012	0.0088
687.1947	0.0128
687.3774	0.0069
687.56	-0.0063
687.7427	0.0029
687.9253	-0.0041
688.1079	-0.0058
688.2905	0.0101
688.4731	0.0145
688.6556	0.0332
688.8382	-0.0207
689.0207	0.0114
689.2032	0.0277
689.3857	-0.0068
689.5681	0.0006
689.7506	0.0339
689.933	-0.0009
690.1154	0.0218
690.2978	0.005
690.4802	0.0084
690.6626	0.0152
690.8449	0.0345
691.0272	0.0029
691.2095	-0.0125
691.3918	0.0214
691.5741	0.0202
691.7563	0.0083
691.9386	0.0098
692.1208	0.0027
692.303	-0.0003
692.4852	0.0012
692.6673	0.0045
692.8495	0.0005
693.0316	0.0151
693.2137	0.02
693.3958	0.0008
693.5778	-0.0006
693.7599	0.0036
693.9419	0.0028
694.1239	0.021
694.3059	0.023
694.4879	0.0085
694.6699	0.0046
694.8518	-0.0005
695.0337	0.0104
695.2157	0.0254
695.3975	-0.0224
695.5794	0.0004
695.7613	0.0299
695.9431	0.0104
696.1249	0.0082
696.3067	0.0031
696.4885	0.006
696.6703	0.0026
696.852	-0.0064
697.0337	0.0229
697.2154	0.0108
697.3971	-0.0157
697.5788	0.0052
697.7605	-0.0071
697.9421	0.013
698.1237	0.0169
698.3053	0.0302
698.4869	-0.0079
698.6685	-0.0121
698.85	0.0149
699.0315	0.0012
699.213	0.0252
699.3945	0.0037
699.576	0.0251
699.7575	0.0174
699.9389	0.0083
700.1203	0.0032
700.3017	0.0368
700.4831	0.0543
700.6645	0.0417
700.8458	0.0036
701.0271	0.0468
701.2084	0.0224
701.3897	0.0171
701.571	0.0023
701.7523	0.0216
701.9335	0.0084
702.1147	0.022
702.2959	-0.0015
702.4771	0.0051
702.6583	-0.0109
702.8394	-0.0243
703.0205	0.0206
703.2016	0.0132
703.3827	-0.0019
703.5638	-0.0049
703.7449	0.0241
703.9259	0.0203
704.1069	-0.0157
704.2879	0.0127
704.4689	-0.013
704.6499	-0.0068
704.8308	0.0248
705.0117	-0.0096
705.1927	-0.0121
705.3735	0.0142
705.5544	0.0004
705.7353	-0.0156
705.9161	-0.0107
706.0969	0.0141
706.2777	0.0093
706.4585	0.0046
706.6393	0.0167
706.82	0.0262
707.0007	0.018
707.1815	-0.003
707.3621	0.0235
707.5428	0.0043
707.7235	-0.0027
707.9041	0.0236
708.0847	-0.0013
708.2653	0.0339
708.4459	0.0127
708.6265	-0.009
708.807	-0.0045
708.9875	0.0141
709.168	-0.0032
709.3485	0.0174
709.529	0.0133
709.7095	-0.0305
709.8899	0.0116
710.0703	0.0132
710.2507	0.0012
710.4311	-0.0253
710.6115	0.0151
710.7918	0.0341
710.9721	0.0224
711.1524	0.0022
711.3327	-0.009
711.513	-0.0052
711.6932	-0.0034
711.8735	0.0138
712.0537	-0.0156
712.2339	0.0102
712.4141	0.0137
712.5942	-0.0175
712.7744	0.0077
712.9545	0.0246
713.1346	0.0146
713.3147	0.004
713.4947	0.0134
713.6748	0.0096
713.8548	0.0313
714.0348	0.0174
714.2148	0.0279
714.3948	0.0232
714.5748	0.0121
714.7547	0.0118
714.9346	0.0102
715.1145	-0.0204
715.2944	-0.011
715.4743	0.0367
715.6541	-0.0278
715.834	0.0287
716.0138	0.017
716.1936	-0
716.3733	0.0306
716.5531	-0.0174
716.7328	0.0294
716.9126	-0.0119
717.0923	-0.0143
717.2719	0.0185
717.4516	0.0161
717.6312	-0.0328
717.8109	0.0486
717.9905	0.0203
718.1701	0.0211
718.3496	-0.0062
718.5292	0.0038
718.7087	0.0313
718.8882	0.0225
719.0677	0.0138
719.2472	-0.0135
719.4267	0.0026
719.6061	-0.0047
719.7856	0.029
719.965	-0.0169
720.1443	-0.0023
720.3237	-0.0132
720.5031	0.0034
720.6824	0.0115
720.8617	0.0176
721.041	0.0287
721.2203	-0.0364
721.3995	-0.0198
721.5788	0.012
721.758	-0.0258
721.9372	-0.0016
722.1164	0.0013
722.2956	-0.0172
722.4747	0.0206
722.6538	-0.0156
722.8329	0.0358
723.012	0.0094
723.1911	0.0025
723.3702	0.0109
723.5492	0.0179
723.7282	0.0193
723.9072	0.0196
724.0862	0.0009
724.2652	0.0229
724.4441	-0.0004
724.623	-0.0004
724.8019	0.0134
724.9808	0.0121
725.1597	0.0292
725.3385	0.0116
725.5174	0.0315
725.6962	-0.0003
725.875	0.0134
726.0538	-0.0041
726.2325	0.0263
726.4112	-0.0019
726.59	0.023
726.7687	0.0054
726.9474	0.0004
727.126	-0.0109
727.3047	-0
727.4833	0.0084
727.6619	-0.0131
727.8405	0.0038
728.0191	0.0293
728.1976	0.0032
728.3762	0.0025
728.5547	0.0201
728.7332	-0
728.9116	0.0298
729.0901	0.0054
729.2686	-0.0118
729.447	0.0032
729.6254	0.0079
729.8038	0.0067
729.9821	-0.0206
730.1605	0.0008
730.3388	-0.0078
730.5171	0.0168
730.6954	0.0062
730.8737	0.0163
731.0519	-0.004
731.2302	0.0344
731.4084	-0.0082
731.5866	0.0156
731.7648	0.0215
731.9429	0.0303
732.1211	-0.005
732.2992	-0.0189
732.4773	0.0159
732.6554	0.0057
732.8335	0.0018
733.0115	0.0112
733.1896	-0.0029
733.3676	0.0271
733.5456	0.0085
733.7235	0.0145
733.9015	0.0259
734.0794	-0.0129
734.2574	-0.0138
734.4353	0.0338
734.6131	-0.0069
734.791	0.0114
734.9689	-0.0184
735.1467	0.0181
735.3245	0.0119
735.5023	0.0154
735.68	0.0187
735.8578	0.0092
736.0355	0.034
736.2132	0.0096
736.3909	0.0328
736.5686	0.0093
736.7463	-0.0156
736.9239	0.0268
737.1015	0.0041
737.2791	0.0135
737.4567	0
737.6343	0.0021
737.8118	0.0103
737.9894	-0.0031
738.1669	0.001
738.3444	0.0358
738.5218	-0.0191
738.6993	0.0217
738.8767	-0.0015
739.0541	0.0025
739.2315	0.0126
739.4089	0.0346
739.5863	0.007
739.7636	0.0165
739.9409	-0.0122
740.1182	0.0039
740.2955	0.0248
740.4728	-0.0035
740.65	-0.0147
740.8272	0.0049
741.0044	-0.013
741.1816	0.0246
741.3588	-0.0112
741.5359	-0.0035
741.7131	0.0153
741.8902	0.0042
742.0673	-0.0106
742.2444	0.0389
742.4214	0.0042
742.5985	-0.0159
742.7755	-0.003
742.9525	-0.0019
743.1295	0.0107
743.3064	0.0059
743.4834	0.0065
743.6603	0.0362
743.8372	-0.0082
744.0141	0.0332
744.191	0.0152
744.3678	-0.0063
744.5446	0.0023
744.7215	-0.0066
744.8982	0.0246
745.075	0.0832
745.2518	0.0073
745.4285	-0.0021
745.6052	-0.0102
745.7819	0.0171
745.9586	-0.0151
746.1353	0.0046
746.3119	0.0301
746.4885	0.0094
746.6651	-0.021
746.8417	0.0189
747.0183	0.0501
747.1948	-0.006
747.3714	0.0076
747.5479	0.0363
747.7244	-0.0204
747.9008	-0.0223
748.0773	0.0675
748.2537	0.0332
748.4301	0.0255
748.6065	-0.043
748.7829	-0.0421
748.9593	-0.0019
749.1356	0.0014
749.3119	0.0222
749.4882	0.032
749.6645	0.0322
749.8408	0.0066
750.017	0.0273
750.1933	-0.0064
750.3695	0.019
750.5457	-0.012
750.7218	0.0113
750.898	-0.0047
751.0741	0.0087
751.2502	0.0097
751.4263	0.0171
751.6024	-0.0083
751.7784	-0.007
751.9545	0.0104
752.1305	0.0069
752.3065	0.031
752.4825	-0.0107
752.6584	0.0286
752.8344	0.0048
753.0103	-0.0235
753.1862	0.0197
753.3621	0.0143
753.5379	-0.004
753.7138	0.0127
753.8896	0.0272
754.0654	0.01
754.2412	0.0162
754.417	0.0298
754.5927	0.0038
754.7685	0.0322
754.9442	0.0212
755.1199	0.0229
755.2956	0.0024
755.4712	0.0066
755.6469	-0.0023
755.8225	0.027
755.9981	0.0054
756.1736	0.0165
756.3492	0.0024
756.5248	0.0403
756.7003	-0.0015
756.8758	0.0132
757.0513	0.0046
757.2267	-0.001
757.4022	0.0056
757.5776	0.0002
757.753	0.0222
757.9284	0.0233
758.1038	0.0209
758.2791	0.028
758.4545	0.0003
758.6298	0.0194
758.8051	0.0093
758.9803	0.0036
759.1556	-0.0132
759.3308	-0.0149
759.506	-0.0031
759.6812	0.0032
759.8564	0.0089
760.0316	0.0139
760.2067	0.0413
760.3819	0.0045
760.557	0.0072
760.732	-0.0063
760.9071	0.0301
761.0821	-0.0045
761.2572	0.0084
761.4322	0.0228
761.6072	0.0079
761.7821	-0.0188
761.9571	0.0043
762.132	0.0077
762.3069	0.0174
762.4818	0.0092
762.6567	0.0104
762.8316	0.0238
763.0064	0.0201
763.1812	0.0046
763.356	0.0128
763.5308	0.0413
763.7055	-0.0183
763.8803	-0
764.055	-0.0103
764.2297	0.0069
764.4044	-0.0044
764.579	0.0111
764.7537	0.0073
764.9283	0.0197
765.1029	0.0111
765.2775	0.0047
765.4521	0.021
765.6266	-0.0123
765.8011	0.0187
765.9756	0.0214
766.1501	-0.0059
766.3246	-0.0112
766.4991	0.0181
766.6735	0.0261
766.8479	-0.0177
767.0223	0.0224
767.1967	0.0329
767.371	0.0173
767.5454	0.029
767.7197	0.0349
767.894	-0.0092
768.0683	0.0072
768.2425	0.0039
768.4168	0.0074
768.591	-0.0031
768.7652	0.0111
768.9394	0.0008
769.1135	-0.0317
769.2877	0.0205
769.4618	0.0294
769.6359	0.0244
769.81	0.0167
769.984	0.0165
770.1581	0.0053
770.3321	0.0335
770.5061	-0.0011
770.6801	0.0184
770.8541	0.0314
771.028	0.0312
771.202	0.0427
771.3759	0.0169
771.5498	0.0051
771.7236	0.0095
771.8975	0.0386
772.0713	0.022
772.2451	-0
772.4189	-0.0048
772.5927	-0.0322
772.7665	-0.0359
772.9402	0.0452
773.1139	0.0123
773.2876	-0.0082
773.4613	0.0184
773.635	0.0402
773.8086	0.045
773.9822	0.0234
774.1558	0.0122
774.3294	-0.0007
774.503	0.0191
774.6765	-0.0007
774.8501	0.0174
775.0236	0.0313
775.1971	-0.0091
775.3705	-0.0031
775.544	-0.0076
775.7174	0.0366
775.8908	-0.0303
776.0642	0.0133
776.2376	0.0118
776.4109	-0.0026
776.5843	0.0143
776.7576	-0.0008
776.9309	0.0205
777.1041	-0.0398
777.2774	-0.0074
777.4506	-0.0408
777.6238	0.0106
777.797	0.0268
777.9702	0.0086
778.1434	0.0415
778.3165	-0.0228
778.4896	-0.0571
778.6627	0.0321
778.8358	0.0171
779.0089	-0.0313
779.1819	0.0098
779.3549	0.0275
779.5279	-0.0178
779.7009	0.0228
779.8739	0.0504
780.0468	0.0158
780.2197	0.0094
780.3926	-0.0394
780.5655	-0.0034
780.7384	0.0244
780.9112	0.0271
781.0841	0.0194
781.2569	-0.0022
781.4297	0.0148
781.6024	-0.0112
781.7752	0.0499
781.9479	0.0423
782.1206	-0.0104
782.2933	-0.0006
782.466	0.0054
782.6386	-0.0023
782.8113	-0.0193
782.9839	0.0143
783.1565	0.0044
783.329	0.0171
783.5016	0.0057
783.6741	-0.0132
783.8466	0.0487
784.0191	-0.0278
784.1916	0.0252
784.3641	-0.0477
784.5365	0.0324
784.7089	-0.0352
784.8813	0.0534
785.0537	0.0167
785.2261	0.0331
785.3984	0.0278
785.5707	-0.0435
785.743	0.0274
785.9153	-0.0286
786.0876	-0.0105
786.2598	-0.0015
786.432	0.0348
786.6042	0.0405
786.7764	-0.0149
786.9486	-0.0415
787.1207	0.0387
787.2928	0.0544
787.4649	-0.0184
787.637	-0.0122
787.8091	0.0018
787.9811	-0.0011
788.1532	0.0377
788.3252	0.0402
788.4972	0.0089
788.6691	0.0071
788.8411	0.0377
789.013	0.0179
789.1849	0.013
789.3568	0.0152
789.5287	0.0501
789.7005	-0.0449
789.8723	0.0241
790.0442	-0.0147
790.2159	0.0255
790.3877	0.1096
790.5595	0.0436
790.7312	0.001
790.9029	0.0286
791.0746	0.0245
791.2463	-0.0617
791.4179	0.0129
791.5896	0.0578
791.7612	0.0599
791.9328	-0.0277
792.1044	-0.02
792.2759	-0.0739
792.4474	-0.0069
792.619	0.0492
792.7905	0.0343
792.9619	0.0158
793.1334	0.0265
793.3048	0.0776
793.4762	-0.0173
793.6476	-0.0429
793.819	0.0463
793.9904	-0.0219
794.1617	-0.0352
794.333	-0.0126
794.5043	0.0562
794.6756	0.0207
794.8469	0.0225
795.0181	0.0252
795.1893	0.0643
795.3605	0.0376
795.5317	0.0313
795.7029	0.0442
795.874	0.035
796.0452	0.0825
796.2163	0.1364
796.3873	0.084
796.5584	0.0316
796.7294	0.0183
796.9005	0.0629
797.0715	-0.0348
797.2425	0.0543
797.4134	0.0435
797.5844	0.0177
797.7553	-0.0421
797.9262	0.0791
798.0971	0.029
798.2679	-0.0304
798.4388	0.0267
798.6096	0.0124
798.7804	0.0277
798.9512	0.0071
799.122	-0.0076
799.2927	0.0512
799.4635	0.0166
799.6342	-0.0757
799.8049	0.0113
799.9755	-0.0175
800.1462	0.0325
800.3168	0.0327
800.4874	-0.0545
800.658	0.0242
800.8286	0.0439
800.9991	0.036
801.1696	0.0348
801.3402	-0.0196
801.5106	-0.0063
801.6811	-0.0275
801.8516	0.0581
802.022	0.0312
802.1924	-0.0302
802.3628	0.1345
802.5332	0.0535
802.7035	0.103
802.8739	0.0322
803.0442	-0.0092
803.2145	0.034
803.3847	0.0142
803.555	0.0159
803.7252	-0.055
803.8954	-0.0033
804.0656	0.0185
804.2358	0.1639
804.4059	0.0305
804.5761	0.0193
804.7462	0.0249
804.9163	0.0446
805.0864	-0.0069
805.2564	-0.0112
805.4264	-0.0438
805.5965	0.1063
805.7665	-0.035
805.9364	-0.0183
806.1064	0.0143
806.2763	0.0395
806.4462	0.0056
806.6161	0.0271
806.786	0.0111
806.9559	0.0505
807.1257	-0.0237
807.2955	-0.0449
807.4653	-0.0187
807.6351	0.0436
807.8048	0.0014
807.9746	0.0063
808.1443	-0.0387
808.314	0.0179
808.4837	0.0364
808.6533	0.041
808.8229	0.007
808.9926	0.0152
809.1622	0.0192
809.3317	0.0358
809.5013	-0.0266
809.6708	0.005
809.8403	-0.0127
810.0098	-0.039
810.1793	0.0326
810.3488	-0.0316
810.5182	0.1654
810.6876	0.1144
810.857	-0.0441
811.0264	-0.0292
811.1958	0.0981
811.3651	-0.0714
811.5344	0.0661
811.7037	0.1108
811.873	0.033
812.0422	-0.1149
812.2115	-0.0227
812.3807	-0.0772
812.5499	0.0641
812.7191	-0.0618
812.8882	-0
813.0574	0.0737
813.2265	0.0676
813.3956	0.0438
813.5646	-0.0369
813.7337	0.0804
813.9027	-0.0665
814.0718	-0.0299
814.2407	0.0439
814.4097	0.014
814.5787	0.0323
814.7476	-0.0584
814.9165	0.0298
815.0854	-0.0056
815.2543	-0.0115
815.4232	0.1102
815.592	0.0922
815.7608	-0.1254
815.9296	-0.045
816.0984	0.0366
816.2671	-0.3557
816.4359	0.139
816.6046	0.0415
816.7733	-0.1446
816.942	-0.0157
817.1106	0.1
817.2793	-0.0692
817.4479	0.1031
817.6165	0.0432
817.785	0.0328
817.9536	-0.091
818.1221	0.0716
818.2906	-0.0565
818.4591	0.0468
818.6276	0.0099
818.7961	-0.0217
818.9645	0.0077
819.1329	0.1312
819.3013	-0.147
819.4697	-0.0514
819.638	0.1424
819.8064	0.1376
819.9747	0.0948
820.143	0.0924
820.3113	0.0677
820.4795	-0.0108
820.6477	0.0808
820.816	0.0451
820.9842	0.0022
821.1523	-0.0046
821.3205	0.047
821.4886	0.0189
821.6567	-0.0709
821.8248	0.0883
821.9929	-0.0374
822.1609	-0.0476
822.329	0.0884
822.497	0.0253
822.665	-0.0602
822.833	-0.112
823.0009	-0.037
823.1688	0.1502
823.3367	0.0528
823.5046	0.1477
823.6725	-0.1069
823.8404	0.0146
824.0082	-0.2146
824.176	-0.1818
824.3438	0.0493
824.5116	-0.0541
824.6793	0.2048
824.847	-0.0171
825.0147	0.071
825.1824	0.112
825.3501	-0.005
825.5177	-0.0993
825.6854	-0.1402
825.853	0.0142
826.0206	-0.0758
826.1881	0.1065
826.3557	0.0607
826.5232	0.1244
826.6907	0.1996
826.8582	-0.0523
827.0257	0.2384
827.1931	0.0589
827.3605	-0.2179
827.528	-0.0804
827.6953	-0.0829
827.8627	-0.1048
828.03	-0.0474
828.1974	-0.0067
828.3647	0.064
828.532	0.0846
828.6992	0.0323
828.8665	-0.3491
829.0337	-0.0463
829.2009	0.0039
829.3681	-0.094
829.5352	-0.2587
829.7024	0.1084
829.8695	0.0234
830.0366	0.1752
830.2037	0.0221
830.3707	-0.0496
830.5378	-0.052
830.7048	-0.0565
830.8718	0.3072
831.0388	0.0691
831.2057	-0
831.3727	-0.4352
831.5396	-0.0546
831.7065	-0.7976
831.8734	0.1054
832.0402	0.2043
832.2071	-0
832.3739	-0.154
832.5407	-1.853
832.7075	-0.4406
832.8742	0.0977
833.041	-0.1481
833.2077	0.4942
833.3744	0.1436
833.541	0.0288
833.7077	-0.0359
833.8743	0.1666
834.0409	-0.0972
834.2075	0.0607
834.3741	-0.1724
834.5407	-0.0189
834.7072	0.004
834.8737	0.1497
835.0402	0.3214
835.2067	-0.1943
835.3731	-0.0054
835.5395	0.0267
835.706	-0.2256
835.8723	-0.1044
836.0387	-0.1643
836.2051	0.1778
836.3714	0.1259
836.5377	-0.0156
836.704	0.4543
836.8703	-0.1871
837.0365	-0.8326
837.2027	0.2964
837.3689	0.2284
837.5351	0.0594
837.7013	-0.0647
837.8674	-0.5253
838.0335	-0.0761
838.1997	-0.1025
838.3657	-0
838.5318	0.2199
838.6978	-0
838.8639	-0.6317
839.0299	-0.0392
839.1958	0.3569
839.3618	-0.1645
839.5277	0.0835
839.6937	-0
839.8596	-0.0599
840.0254	0.1995
840.1913	-0.3219
840.3571	0.0101
840.523	-0
840.6888	0.2298
840.8545	-0.6595
841.0203	0.0629
841.186	0.0553
841.3517	-0.2539
841.5174	0.0385
841.6831	0.0784
841.8488	-0
842.0144	0.1931
842.18	0.0392
842.3456	-0.7955
842.5112	-0
842.6767	0.1531
842.8422	0.1263
843.0077	0.1542
843.1732	-0.2615
843.3387	0.2439
843.5042	1.5391
843.6696	-0.0569
843.835	-0.1294
844.0004	-0.2549
844.1657	-0
844.3311	0.168
844.4964	-0.457
844.6617	-0
844.827	-0
844.9923	0.2569
845.1575	1.0696
845.3227	-0.1789
845.4879	-0.4195
845.6531	-0.1774
845.8183	-0
845.9834	-0.0569
846.1485	0.2356
846.3136	-0.0542
846.4787	-0
846.6438	-0.0954
846.8088	0.5755
846.9738	0.249
847.1388	0.1033
847.3038	0.112
847.4687	-0
847.6337	-0.5943
847.7986	-0.1733
847.9635	-0.0781
848.1284	-0
848.2932	0.1585
848.458	-0
848.6228	0.3182
848.7876	-0.053
848.9524	-0.4534
849.1172	-1.4792
849.2819	-0.7634
849.4466	0.2573
849.6113	0.0897
849.7759	-0
849.9406	0.6578
850.1052	0
850.2698	0.1834
850.4344	-0.7789
850.599	-0.0638
850.7635	0.2634
850.928	-0.0246
851.0925	0.1893
851.257	-0.2971
851.4215	0.2164
851.5859	0.0438
851.7503	-0
851.9147	-0.5315
852.0791	-0.2233
852.2434	0.184
852.4078	-0.1002
852.5721	1.2653
852.7364	0.0556
852.9007	-0.087
853.0649	-0
853.2291	0.0599
853.3934	-0
853.5575	-0.2976
853.7217	0.2215
853.8859	-0.168
854.05	-0.4231
854.2141	0.4832
854.3782	-0.4219
854.5423	-0
854.7063	-0.1805
854.8703	-0.1295
855.0343	-0.1801
855.1983	0.0232
855.3623	-0.2587
855.5262	-0
855.6901	0.6351
855.854	0.0434
856.0179	-0.0588
856.1818	-0
856.3456	0.0515
856.5094	-0.7155
856.6732	-0.7634
856.837	-1.3087
857.0008	-0.4743
857.1645	-0
857.3282	-0.3216
857.4919	-0.1719
857.6556	-0.211
857.8192	-0.0978
857.9828	-0.0628
858.1465	0.5446
858.31	1.6684
858.4736	-0.7259
858.6372	-0.1715
858.8007	-0.1103
858.9642	0.2293
859.1277	0.581
859.2911	-0.3462
859.4546	-0
859.618	0.0608
859.7814	-0.369
859.9448	-0
860.1081	-0
860.2715	-0
860.4348	0.1182
860.5981	0.4832
860.7614	-0
860.9246	-0.0127
861.0879	-0.0911
861.2511	-0
861.4143	-0.3203
861.5774	-0.5852
861.7406	-0.3052
861.9037	-0
862.0668	-0
862.2299	-0.1303
862.393	-0
862.556	-0.036
862.7191	-0.1209
862.8821	-0
863.0451	0.442
863.208	-0.3082
863.371	-0.3799
863.5339	0.2253
863.6968	0.4753
863.8597	-0.6241
864.0225	-0.0403
864.1854	0.1133
864.3482	-0
864.511	-0.1699
864.6737	-0
864.8365	0.2243
864.9992	-0
865.1619	-0.1415
865.3246	-0
865.4873	-0
865.65	-0.0707
865.8126	-0
865.9752	0.3268
866.1378	0.1125
866.3004	-0.0294
866.4629	-1.8734
866.6254	-0
866.7879	-0
866.9504	-0
867.1129	-0.2768
867.2753	0.0586
867.4377	0.1642
867.6001	-0.2629
867.7625	-0.115
867.9249	0.1899
868.0872	-0.0149
868.2495	-0
868.4118	-0.1804
868.5741	0.1152
868.7363	0.1504
868.8986	-0.5284
869.0608	-0.8241
869.223	-0.596
869.3851	-0
869.5473	-0.1447
869.7094	-0
869.8715	-0.1926
870.0336	0.0282
870.1957	-0
870.3577	0.5523
870.5197	-0.1887
870.6817	-1.0049
870.8437	-0.2069
871.0057	0.7065
871.1676	0.1722
871.3295	-0
871.4914	-1.3979
871.6533	-0
871.8151	0.2342
871.977	-0.4565
872.1388	-0.3669
872.3006	-0.4515
872.4623	-1.0713
872.6241	-0
872.7858	0.5518
872.9475	0.7349
873.1092	-0.0303
873.2709	0.2365
873.4325	-1.8205
873.5941	-0.8619
873.7557	-0
873.9173	-0.0144
874.0789	0.5751
874.2404	-0
874.4019	-0.1081
874.5634	1.0509
874.7249	-0
874.8863	0.053
875.0478	0.5793
875.2092	-0
875.3706	0.0087
875.5319	1.0455
875.6933	-0.0534
875.8546	-0.0558
876.0159	0.4186
876.1772	-0
876.3385	-0
876.4997	-0
876.6609	0.4389
876.8221	-0
876.9833	0.817
877.1445	0.3572
877.3056	-0
877.4667	-0
877.6278	-0
877.7889	0.0995
877.9499	1.1008
878.111	-0.666
878.272	0.168
878.433	-0.4097
878.5939	0.0771
878.7549	1.0923
878.9158	-0
879.0767	-0
879.2376	-0
879.3984	0.414
879.5593	0.0835
879.7201	-0
879.8809	0.0867
880.0417	-0.3855
880.2024	0.1513
880.3632	0.0392
880.5239	-0.1399
880.6846	-0
880.8452	-0.285
881.0059	-0
881.1665	0.247
881.3271	0.3053
881.4877	1.2832
881.6483	-1.0367
881.8088	-0
881.9693	-0.9764
882.1298	-0.9764
882.2903	-0.9764
