Data from D4ACN5uM420nmA_Absorbance_14-37-10-152.txt Node
Date: Fri Feb 21 14:37:10 GMT 2025
User: LASERRRRR
Spectrometer: FLMT03099
Trigger mode: 0
Integration Time (sec): 1.500000E-2
Scans to average: 1
Electric dark correction enabled: true
Nonlinearity correction enabled: false
Boxcar width: 0
XAxis mode: Wavelengths
Number of Pixels in Spectrum: 3648
>>>>>Begin Spectral Data<<<<<
179.3399	-0.0094
179.5586	-0.0094
179.7771	-0.0094
179.9957	-0.1352
180.2143	-0
180.4329	0.0716
180.6514	0.5371
180.8699	0.1046
181.0885	0.7533
181.307	-0.2184
181.5255	0.2305
181.744	-0
181.9625	0.6925
182.181	-0
182.3994	-0.2484
182.6179	-0
182.8363	-0
183.0547	0.4659
183.2732	0.1643
183.4916	0.0719
183.71	0.2058
183.9284	0.0506
184.1467	0.148
184.3651	-0.0175
184.5835	0.3058
184.8018	0.3407
185.0201	0.142
185.2385	0.2059
185.4568	0.016
185.6751	0.1723
185.8934	0.3845
186.1117	0.1816
186.3299	0.2199
186.5482	0.3066
186.7664	0.416
186.9847	0.0534
187.2029	0.7871
187.4211	0.0534
187.6393	0.256
187.8575	0.2108
188.0757	0.3237
188.2939	0.2539
188.512	0.6568
188.7302	0.1398
188.9483	0.2032
189.1665	0.3161
189.3846	0.1602
189.6027	0.18
189.8208	0.176
190.0389	0.2466
190.257	0.0191
190.475	0.2017
190.6931	0.1812
190.9111	0.012
191.1292	0.2389
191.3472	0.0766
191.5652	-0.039
191.7832	0.1896
192.0012	0.2036
192.2192	0.2014
192.4371	0.1828
192.6551	0.0989
192.873	0.1681
193.091	0.1321
193.3089	0.1752
193.5268	0.2598
193.7447	0.1588
193.9626	0.2362
194.1805	0.1812
194.3984	0.173
194.6162	0.1921
194.8341	0.3133
195.0519	0.1502
195.2697	0.2754
195.4875	0.3523
195.7054	0.252
195.9231	0.2295
196.1409	0.3035
196.3587	0.3537
196.5765	0.3408
196.7942	0.3162
197.012	0.3305
197.2297	0.2965
197.4474	0.4004
197.6651	0.3388
197.8828	0.3087
198.1005	0.4165
198.3182	0.3402
198.5358	0.3743
198.7535	0.41
198.9711	0.3735
199.1888	0.3108
199.4064	0.3587
199.624	0.383
199.8416	0.3694
200.0592	0.3687
200.2767	0.3889
200.4943	0.3921
200.7119	0.3909
200.9294	0.4144
201.1469	0.3815
201.3645	0.431
201.582	0.413
201.7995	0.4114
202.017	0.3826
202.2344	0.4219
202.4519	0.3906
202.6694	0.3859
202.8868	0.3792
203.1042	0.3863
203.3217	0.3857
203.5391	0.4259
203.7565	0.3716
203.9739	0.3794
204.1913	0.3578
204.4086	0.3508
204.626	0.3642
204.8433	0.3575
205.0607	0.3445
205.278	0.3642
205.4953	0.3278
205.7126	0.3265
205.9299	0.3511
206.1472	0.3001
206.3644	0.36
206.5817	0.3077
206.7989	0.3118
207.0162	0.3439
207.2334	0.3305
207.4506	0.3042
207.6678	0.3245
207.885	0.2959
208.1022	0.3146
208.3194	0.2938
208.5365	0.2746
208.7537	0.2957
208.9708	0.2865
209.1879	0.2959
209.405	0.2805
209.6222	0.2614
209.8392	0.2967
210.0563	0.2846
210.2734	0.2437
210.4905	0.2608
210.7075	0.2804
210.9245	0.2446
211.1416	0.2535
211.3586	0.2646
211.5756	0.2283
211.7926	0.2857
212.0096	0.2773
212.2265	0.2647
212.4435	0.2705
212.6604	0.2492
212.8774	0.2303
213.0943	0.2473
213.3112	0.254
213.5281	0.2188
213.745	0.2332
213.9619	0.231
214.1788	0.2605
214.3956	0.2391
214.6125	0.2494
214.8293	0.2457
215.0461	0.2385
215.2629	0.2468
215.4798	0.2335
215.6965	0.2503
215.9133	0.2407
216.1301	0.2267
216.3469	0.2381
216.5636	0.2281
216.7803	0.2312
216.9971	0.2469
217.2138	0.2312
217.4305	0.2178
217.6472	0.2287
217.8639	0.2454
218.0805	0.2313
218.2972	0.2377
218.5138	0.2457
218.7305	0.2412
218.9471	0.2221
219.1637	0.2573
219.3803	0.2511
219.5969	0.2463
219.8135	0.2408
220.0301	0.2472
220.2466	0.2396
220.4632	0.2383
220.6797	0.2443
220.8962	0.25
221.1127	0.2634
221.3292	0.2543
221.5457	0.2585
221.7622	0.2663
221.9787	0.2686
222.1951	0.2715
222.4116	0.2627
222.628	0.2706
222.8444	0.2666
223.0608	0.27
223.2772	0.2615
223.4936	0.268
223.71	0.2716
223.9264	0.2711
224.1427	0.2719
224.3591	0.285
224.5754	0.2881
224.7917	0.2815
225.008	0.2981
225.2243	0.2963
225.4406	0.2852
225.6569	0.3046
225.8732	0.3072
226.0894	0.2992
226.3057	0.3065
226.5219	0.3175
226.7381	0.3123
226.9543	0.3122
227.1705	0.3093
227.3867	0.3098
227.6029	0.3287
227.8191	0.3358
228.0352	0.3423
228.2513	0.3436
228.4675	0.3481
228.6836	0.336
228.8997	0.3353
229.1158	0.3372
229.3319	0.3597
229.548	0.36
229.764	0.3537
229.9801	0.3696
230.1961	0.374
230.4121	0.3632
230.6282	0.3829
230.8442	0.3869
231.0602	0.3766
231.2761	0.3828
231.4921	0.3955
231.7081	0.3982
231.924	0.4074
232.14	0.4032
232.3559	0.4199
232.5718	0.4189
232.7877	0.4181
233.0036	0.405
233.2195	0.4211
233.4353	0.4191
233.6512	0.4091
233.867	0.4272
234.0829	0.4242
234.2987	0.4307
234.5145	0.4387
234.7303	0.4393
234.9461	0.4413
235.1619	0.444
235.3776	0.4451
235.5934	0.4428
235.8091	0.4444
236.0249	0.4572
236.2406	0.444
236.4563	0.4418
236.672	0.4435
236.8877	0.4447
237.1034	0.4561
237.319	0.4542
237.5347	0.4557
237.7503	0.4431
237.966	0.4602
238.1816	0.4551
238.3972	0.4603
238.6128	0.4665
238.8284	0.4651
239.0439	0.4664
239.2595	0.4644
239.475	0.4562
239.6906	0.4624
239.9061	0.4656
240.1216	0.4596
240.3371	0.4684
240.5526	0.463
240.7681	0.4669
240.9836	0.4613
241.199	0.4606
241.4145	0.4544
241.6299	0.4619
241.8453	0.4492
242.0607	0.4389
242.2761	0.4482
242.4915	0.4336
242.7069	0.4317
242.9223	0.4401
243.1376	0.4275
243.353	0.4135
243.5683	0.4082
243.7836	0.4051
243.9989	0.3981
244.2142	0.4015
244.4295	0.3886
244.6448	0.3845
244.86	0.3705
245.0753	0.3729
245.2905	0.35
245.5057	0.3555
245.721	0.3463
245.9362	0.352
246.1514	0.3338
246.3665	0.3364
246.5817	0.3232
246.7969	0.3124
247.012	0.3089
247.2271	0.3
247.4423	0.2982
247.6574	0.2951
247.8725	0.2855
248.0876	0.2783
248.3026	0.2784
248.5177	0.268
248.7328	0.2642
248.9478	0.2491
249.1628	0.2567
249.3779	0.2464
249.5929	0.2439
249.8079	0.246
250.0228	0.2377
250.2378	0.2389
250.4528	0.2329
250.6677	0.2248
250.8827	0.2245
251.0976	0.2178
251.3125	0.2228
251.5274	0.2191
251.7423	0.2123
251.9572	0.2128
252.172	0.2093
252.3869	0.212
252.6017	0.2056
252.8166	0.2074
253.0314	0.2012
253.2462	0.2009
253.461	0.1984
253.6758	0.1989
253.8906	0.196
254.1053	0.1949
254.3201	0.1949
254.5348	0.1884
254.7496	0.1891
254.9643	0.1976
255.179	0.1894
255.3937	0.1975
255.6083	0.1973
255.823	0.1915
256.0377	0.1874
256.2523	0.186
256.467	0.1896
256.6816	0.1866
256.8962	0.1828
257.1108	0.1819
257.3254	0.1854
257.54	0.1816
257.7545	0.187
257.9691	0.1841
258.1836	0.1823
258.3981	0.184
258.6127	0.1824
258.8272	0.1861
259.0417	0.1815
259.2561	0.1835
259.4706	0.1754
259.6851	0.1829
259.8995	0.1886
260.114	0.1836
260.3284	0.182
260.5428	0.185
260.7572	0.1843
260.9716	0.1912
261.186	0.1863
261.4003	0.1792
261.6147	0.1804
261.829	0.1887
262.0433	0.1856
262.2577	0.1843
262.472	0.1819
262.6863	0.189
262.9005	0.1847
263.1148	0.1898
263.3291	0.1895
263.5433	0.1928
263.7576	0.1958
263.9718	0.1915
264.186	0.196
264.4002	0.1933
264.6144	0.1998
264.8286	0.2008
265.0427	0.2045
265.2569	0.199
265.471	0.1984
265.6851	0.195
265.8993	0.201
266.1134	0.2025
266.3275	0.2027
266.5415	0.1991
266.7556	0.2039
266.9697	0.2063
267.1837	0.2008
267.3978	0.2077
267.6118	0.1969
267.8258	0.1996
268.0398	0.2042
268.2538	0.2064
268.4677	0.1918
268.6817	0.1971
268.8957	0.1977
269.1096	0.198
269.3235	0.1974
269.5374	0.2007
269.7514	0.1973
269.9652	0.2019
270.1791	0.1927
270.393	0.1968
270.6068	0.1987
270.8207	0.1939
271.0345	0.1928
271.2483	0.1896
271.4622	0.1989
271.676	0.1968
271.8897	0.1992
272.1035	0.2052
272.3173	0.1987
272.531	0.1954
272.7448	0.1971
272.9585	0.1982
273.1722	0.2012
273.3859	0.1991
273.5996	0.1989
273.8133	0.2078
274.0269	0.1987
274.2406	0.206
274.4542	0.2073
274.6679	0.2047
274.8815	0.2176
275.0951	0.2137
275.3087	0.2117
275.5223	0.2109
275.7358	0.2152
275.9494	0.2157
276.1629	0.2238
276.3765	0.2198
276.59	0.2172
276.8035	0.2202
277.017	0.2266
277.2305	0.2246
277.444	0.2222
277.6574	0.2228
277.8709	0.2276
278.0843	0.2218
278.2978	0.2193
278.5112	0.2206
278.7246	0.2203
278.938	0.2225
279.1513	0.2226
279.3647	0.2171
279.5781	0.2165
279.7914	0.2113
280.0047	0.2155
280.2181	0.2122
280.4314	0.2061
280.6447	0.216
280.8579	0.2061
281.0712	0.2082
281.2845	0.2077
281.4977	0.2034
281.711	0.2019
281.9242	0.2029
282.1374	0.2
282.3506	0.1993
282.5638	0.2006
282.7769	0.1958
282.9901	0.1934
283.2033	0.1936
283.4164	0.1941
283.6295	0.1903
283.8426	0.2
284.0557	0.2036
284.2688	0.1949
284.4819	0.1908
284.695	0.1971
284.908	0.192
285.1211	0.1936
285.3341	0.1895
285.5471	0.1958
285.7601	0.1981
285.9731	0.1899
286.1861	0.1987
286.3991	0.1946
286.612	0.1872
286.825	0.1914
287.0379	0.1915
287.2508	0.1905
287.4637	0.1928
287.6766	0.1862
287.8895	0.1893
288.1024	0.1907
288.3152	0.1932
288.5281	0.187
288.7409	0.1845
288.9538	0.1911
289.1666	0.1843
289.3794	0.1872
289.5922	0.1878
289.8049	0.186
290.0177	0.1828
290.2304	0.1843
290.4432	0.1857
290.6559	0.1868
290.8686	0.1864
291.0813	0.1854
291.294	0.1818
291.5067	0.181
291.7194	0.1814
291.932	0.1778
292.1447	0.1804
292.3573	0.1807
292.5699	0.1859
292.7825	0.1812
292.9951	0.1807
293.2077	0.181
293.4203	0.1843
293.6328	0.1815
293.8454	0.1875
294.0579	0.1793
294.2704	0.1887
294.4829	0.1803
294.6954	0.182
294.9079	0.1805
295.1204	0.1807
295.3328	0.1858
295.5453	0.1843
295.7577	0.1811
295.9701	0.1826
296.1825	0.1857
296.3949	0.1745
296.6073	0.1798
296.8197	0.1823
297.0321	0.1826
297.2444	0.1808
297.4567	0.1814
297.6691	0.1777
297.8814	0.1825
298.0937	0.182
298.306	0.1801
298.5182	0.185
298.7305	0.186
298.9428	0.1825
299.155	0.1764
299.3672	0.177
299.5794	0.1863
299.7916	0.1784
300.0038	0.1821
300.216	0.1811
300.4282	0.181
300.6403	0.1867
300.8525	0.1856
301.0646	0.1852
301.2767	0.1878
301.4888	0.1846
301.7009	0.1879
301.913	0.1858
302.125	0.1828
302.3371	0.1839
302.5491	0.1824
302.7612	0.1915
302.9732	0.1929
303.1852	0.188
303.3972	0.1837
303.6092	0.1849
303.8211	0.1845
304.0331	0.1857
304.245	0.186
304.457	0.1823
304.6689	0.1785
304.8808	0.181
305.0927	0.1856
305.3046	0.1827
305.5164	0.1779
305.7283	0.1802
305.9401	0.1756
306.152	0.1742
306.3638	0.182
306.5756	0.1772
306.7874	0.1756
306.9992	0.174
307.2109	0.1727
307.4227	0.1693
307.6344	0.1779
307.8462	0.1727
308.0579	0.1797
308.2696	0.171
308.4813	0.1688
308.693	0.1699
308.9046	0.1696
309.1163	0.1614
309.328	0.1618
309.5396	0.1617
309.7512	0.1626
309.9628	0.1624
310.1744	0.1568
310.386	0.1595
310.5976	0.1578
310.8091	0.1595
311.0207	0.1553
311.2322	0.1552
311.4437	0.1526
311.6552	0.1582
311.8667	0.1612
312.0782	0.1522
312.2897	0.1588
312.5012	0.1526
312.7126	0.1515
312.924	0.1562
313.1355	0.1475
313.3469	0.1544
313.5583	0.1514
313.7696	0.1455
313.981	0.1578
314.1924	0.1514
314.4037	0.1502
314.6151	0.1498
314.8264	0.1533
315.0377	0.1482
315.249	0.1502
315.4603	0.1447
315.6716	0.1473
315.8828	0.1466
316.0941	0.1532
316.3053	0.1499
316.5165	0.1521
316.7277	0.1434
316.9389	0.1504
317.1501	0.1451
317.3613	0.1486
317.5724	0.1453
317.7836	0.1371
317.9947	0.1403
318.2058	0.1441
318.417	0.1404
318.6281	0.1444
318.8391	0.1544
319.0502	0.1417
319.2613	0.1436
319.4723	0.1497
319.6834	0.1497
319.8944	0.1458
320.1054	0.1461
320.3164	0.1438
320.5274	0.1439
320.7383	0.1444
320.9493	0.1466
321.1602	0.145
321.3712	0.1447
321.5821	0.147
321.793	0.1551
322.0039	0.1528
322.2148	0.148
322.4257	0.1448
322.6365	0.1367
322.8474	0.1481
323.0582	0.1497
323.269	0.1505
323.4798	0.146
323.6906	0.1437
323.9014	0.1383
324.1122	0.1463
324.3229	0.1543
324.5337	0.1534
324.7444	0.1512
324.9551	0.1506
325.1658	0.1513
325.3765	0.1518
325.5872	0.1495
325.7979	0.1454
326.0085	0.1524
326.2192	0.1478
326.4298	0.1523
326.6404	0.1616
326.851	0.1506
327.0616	0.1599
327.2722	0.1639
327.4828	0.152
327.6933	0.1604
327.9039	0.1588
328.1144	0.1534
328.3249	0.1651
328.5354	0.1629
328.7459	0.1589
328.9564	0.1613
329.1669	0.1644
329.3773	0.1615
329.5878	0.1614
329.7982	0.1632
330.0086	0.1666
330.219	0.1599
330.4294	0.1669
330.6398	0.1739
330.8502	0.1728
331.0605	0.1647
331.2708	0.1618
331.4812	0.1665
331.6915	0.1676
331.9018	0.17
332.1121	0.1727
332.3224	0.1648
332.5326	0.1695
332.7429	0.1635
332.9531	0.1668
333.1633	0.1618
333.3735	0.1608
333.5837	0.1696
333.7939	0.1602
334.0041	0.1694
334.2143	0.1671
334.4244	0.1701
334.6346	0.1619
334.8447	0.1657
335.0548	0.1714
335.2649	0.1623
335.475	0.1651
335.685	0.1624
335.8951	0.1632
336.1051	0.1675
336.3152	0.1695
336.5252	0.1578
336.7352	0.1641
336.9452	0.1615
337.1552	0.166
337.3652	0.1664
337.5751	0.1543
337.7851	0.1644
337.995	0.1593
338.2049	0.1537
338.4148	0.1645
338.6247	0.1618
338.8346	0.1563
339.0445	0.1641
339.2543	0.1645
339.4642	0.1564
339.674	0.1625
339.8838	0.1643
340.0936	0.1576
340.3034	0.1646
340.5132	0.1564
340.7229	0.1628
340.9327	0.1734
341.1424	0.1672
341.3522	0.1529
341.5619	0.1708
341.7716	0.1699
341.9813	0.1684
342.1909	0.1675
342.4006	0.1668
342.6102	0.1648
342.8199	0.1673
343.0295	0.1702
343.2391	0.1715
343.4487	0.1774
343.6583	0.1794
343.8679	0.1719
344.0774	0.1714
344.287	0.1721
344.4965	0.1781
344.706	0.185
344.9155	0.181
345.125	0.1778
345.3345	0.1905
345.544	0.1762
345.7534	0.1826
345.9629	0.1845
346.1723	0.1894
346.3817	0.1887
346.5911	0.1942
346.8005	0.1921
347.0099	0.1861
347.2193	0.1979
347.4286	0.1924
347.638	0.1907
347.8473	0.1965
348.0566	0.1966
348.2659	0.1919
348.4752	0.1978
348.6845	0.1957
348.8937	0.1976
349.103	0.1973
349.3122	0.2001
349.5214	0.2009
349.7306	0.1981
349.9398	0.2
350.149	0.1956
350.3582	0.2044
350.5674	0.1983
350.7765	0.2012
350.9856	0.1935
351.1948	0.1986
351.4039	0.1938
351.613	0.2009
351.822	0.1962
352.0311	0.1977
352.2402	0.1957
352.4492	0.1945
352.6582	0.1983
352.8672	0.1908
353.0762	0.194
353.2852	0.1998
353.4942	0.1971
353.7032	0.1921
353.9121	0.195
354.1211	0.1967
354.33	0.1957
354.5389	0.1917
354.7478	0.1874
354.9567	0.1886
355.1655	0.1903
355.3744	0.186
355.5833	0.1869
355.7921	0.1935
356.0009	0.1893
356.2097	0.1765
356.4185	0.1882
356.6273	0.1883
356.8361	0.1899
357.0448	0.1816
357.2536	0.188
357.4623	0.1901
357.671	0.1871
357.8797	0.193
358.0884	0.1828
358.2971	0.187
358.5057	0.1862
358.7144	0.1914
358.923	0.1909
359.1316	0.1894
359.3402	0.1831
359.5488	0.1832
359.7574	0.1986
359.966	0.1888
360.1746	0.1852
360.3831	0.1968
360.5916	0.1917
360.8002	0.1966
361.0087	0.1976
361.2172	0.1864
361.4256	0.1915
361.6341	0.195
361.8426	0.1938
362.051	0.1951
362.2594	0.1941
362.4678	0.1959
362.6762	0.1927
362.8846	0.1987
363.093	0.1966
363.3014	0.1981
363.5097	0.2004
363.718	0.2041
363.9264	0.1906
364.1347	0.1973
364.343	0.1973
364.5513	0.1979
364.7595	0.2056
364.9678	0.1985
365.176	0.203
365.3842	0.2015
365.5925	0.2013
365.8007	0.2078
366.0089	0.2106
366.217	0.197
366.4252	0.2037
366.6333	0.2017
366.8415	0.2054
367.0496	0.206
367.2577	0.2049
367.4658	0.2045
367.6739	0.2054
367.882	0.2092
368.09	0.2102
368.2981	0.2151
368.5061	0.2085
368.7141	0.2084
368.9221	0.2147
369.1301	0.208
369.3381	0.2142
369.5461	0.219
369.754	0.2226
369.962	0.2168
370.1699	0.2144
370.3778	0.2205
370.5857	0.2159
370.7936	0.2182
371.0015	0.2143
371.2093	0.2148
371.4172	0.2105
371.625	0.2198
371.8328	0.21
372.0406	0.2245
372.2484	0.2153
372.4562	0.2217
372.664	0.2176
372.8717	0.2184
373.0795	0.2231
373.2872	0.2228
373.4949	0.231
373.7026	0.2202
373.9103	0.2159
374.118	0.2274
374.3256	0.2264
374.5333	0.2217
374.7409	0.2278
374.9485	0.2165
375.1561	0.2353
375.3637	0.2192
375.5713	0.2265
375.7789	0.2212
375.9864	0.2197
376.194	0.2423
376.4015	0.2296
376.609	0.2316
376.8165	0.239
377.024	0.2241
377.2315	0.2326
377.4389	0.2258
377.6464	0.2378
377.8538	0.2318
378.0612	0.2387
378.2686	0.2345
378.476	0.2469
378.6834	0.2326
378.8908	0.236
379.0981	0.2372
379.3055	0.2376
379.5128	0.2364
379.7201	0.2272
379.9274	0.2356
380.1347	0.2334
380.342	0.2403
380.5492	0.2452
380.7565	0.2427
380.9637	0.2413
381.1709	0.2336
381.3781	0.2399
381.5853	0.2317
381.7925	0.2337
381.9997	0.2506
382.2068	0.2447
382.4139	0.2337
382.6211	0.2426
382.8282	0.2465
383.0353	0.2367
383.2424	0.2437
383.4494	0.249
383.6565	0.2405
383.8635	0.241
384.0706	0.2488
384.2776	0.2408
384.4846	0.2509
384.6916	0.2453
384.8986	0.2414
385.1055	0.2468
385.3125	0.2472
385.5194	0.2515
385.7263	0.2477
385.9333	0.2458
386.1402	0.2479
386.347	0.2373
386.5539	0.2454
386.7608	0.2453
386.9676	0.2495
387.1744	0.2456
387.3813	0.2435
387.5881	0.2459
387.7948	0.2499
388.0016	0.2412
388.2084	0.2434
388.4151	0.2442
388.6219	0.2328
388.8286	0.2401
389.0353	0.2365
389.242	0.2486
389.4487	0.2332
389.6553	0.2334
389.862	0.2299
390.0686	0.2401
390.2753	0.2434
390.4819	0.2413
390.6885	0.2359
390.8951	0.2479
391.1016	0.2324
391.3082	0.24
391.5147	0.232
391.7213	0.2307
391.9278	0.2317
392.1343	0.232
392.3408	0.2297
392.5473	0.2242
392.7537	0.2258
392.9602	0.233
393.1666	0.2275
393.373	0.2227
393.5794	0.2247
393.7858	0.2307
393.9922	0.218
394.1986	0.2168
394.4049	0.2253
394.6113	0.2207
394.8176	0.2196
395.0239	0.2126
395.2302	0.22
395.4365	0.2158
395.6428	0.2096
395.8491	0.2146
396.0553	0.2022
396.2615	0.2156
396.4678	0.2212
396.674	0.2164
396.8802	0.2091
397.0863	0.2101
397.2925	0.2109
397.4987	0.211
397.7048	0.2097
397.9109	0.2123
398.117	0.2089
398.3231	0.2026
398.5292	0.1985
398.7353	0.2023
398.9413	0.2044
399.1474	0.214
399.3534	0.2055
399.5594	0.209
399.7654	0.2035
399.9714	0.2144
400.1774	0.2094
400.3833	0.2077
400.5893	0.2046
400.7952	0.2147
401.0011	0.2101
401.207	0.2029
401.4129	0.2094
401.6188	0.2056
401.8247	0.2106
402.0305	0.2034
402.2364	0.2082
402.4422	0.2023
402.648	0.2109
402.8538	0.2028
403.0596	0.2096
403.2654	0.1981
403.4711	0.2008
403.6768	0.2053
403.8826	0.1985
404.0883	0.205
404.294	0.2111
404.4997	0.1975
404.7054	0.1995
404.911	0.1993
405.1167	0.2087
405.3223	0.2024
405.5279	0.201
405.7335	0.1998
405.9391	0.197
406.1447	0.1996
406.3502	0.1984
406.5558	0.2012
406.7613	0.2017
406.9668	0.204
407.1724	0.2028
407.3778	0.1998
407.5833	0.1948
407.7888	0.1991
407.9942	0.2007
408.1997	0.1983
408.4051	0.2004
408.6105	0.2074
408.8159	0.201
409.0213	0.2036
409.2267	0.2077
409.432	0.2021
409.6374	0.2023
409.8427	0.2037
410.048	0.2061
410.2533	0.1972
410.4586	0.1902
410.6639	0.2022
410.8691	0.1923
411.0744	0.1945
411.2796	0.2026
411.4848	0.2084
411.69	0.192
411.8952	0.1998
412.1004	0.2079
412.3056	0.196
412.5107	0.1956
412.7158	0.2158
412.921	0.2053
413.1261	0.2095
413.3312	0.2039
413.5362	0.2096
413.7413	0.2053
413.9464	0.1882
414.1514	0.1971
414.3564	0.1987
414.5614	0.1988
414.7664	0.1979
414.9714	0.1814
415.1764	0.1884
415.3813	0.2011
415.5863	0.2036
415.7912	0.1958
415.9961	0.1957
416.201	0.199
416.4059	0.1922
416.6108	0.1947
416.8156	0.1901
417.0205	0.1959
417.2253	0.1997
417.4301	0.1933
417.6349	0.1938
417.8397	0.1971
418.0445	0.1908
418.2492	0.1871
418.454	0.189
418.6587	0.1917
418.8634	0.2038
419.0681	0.197
419.2728	0.2006
419.4775	0.1952
419.6822	0.1846
419.8868	0.1802
420.0915	0.1834
420.2961	0.1858
420.5007	0.185
420.7053	0.1787
420.9099	0.184
421.1144	0.1833
421.319	0.1823
421.5235	0.1796
421.728	0.1957
421.9325	0.1905
422.137	0.1744
422.3415	0.1818
422.546	0.1752
422.7504	0.1818
422.9549	0.1903
423.1593	0.1774
423.3637	0.1777
423.5681	0.1843
423.7725	0.1827
423.9769	0.1758
424.1812	0.1724
424.3856	0.177
424.5899	0.1751
424.7942	0.1726
424.9985	0.1698
425.2028	0.1809
425.4071	0.1743
425.6113	0.1876
425.8156	0.1682
426.0198	0.1816
426.224	0.1768
426.4282	0.1584
426.6324	0.1606
426.8366	0.1737
427.0407	0.1687
427.2449	0.1646
427.449	0.1649
427.6531	0.1699
427.8572	0.1725
428.0613	0.1723
428.2654	0.1701
428.4694	0.1522
428.6735	0.158
428.8775	0.1565
429.0815	0.159
429.2855	0.1458
429.4895	0.1492
429.6935	0.1527
429.8975	0.1487
430.1014	0.1525
430.3053	0.1549
430.5093	0.1449
430.7132	0.1359
430.9171	0.1454
431.1209	0.1463
431.3248	0.136
431.5286	0.143
431.7325	0.1499
431.9363	0.1355
432.1401	0.1404
432.3439	0.1431
432.5477	0.1287
432.7514	0.135
432.9552	0.1352
433.1589	0.1275
433.3627	0.1209
433.5664	0.1276
433.7701	0.1349
433.9737	0.1338
434.1774	0.1362
434.3811	0.1254
434.5847	0.1217
434.7883	0.1183
434.9919	0.1172
435.1955	0.1237
435.3991	0.1158
435.6027	0.1158
435.8062	0.1281
436.0098	0.1153
436.2133	0.1179
436.4168	0.117
436.6203	0.1083
436.8238	0.107
437.0272	0.1131
437.2307	0.1048
437.4341	0.1076
437.6375	0.111
437.841	0.0977
438.0443	0.1069
438.2477	0.0928
438.4511	0.1004
438.6545	0.1092
438.8578	0.0962
439.0611	0.0987
439.2644	0.0897
439.4677	0.1015
439.671	0.0901
439.8743	0.0954
440.0775	0.0821
440.2808	0.0931
440.484	0.0918
440.6872	0.0875
440.8904	0.0818
441.0936	0.0868
441.2967	0.0759
441.4999	0.0862
441.703	0.0768
441.9062	0.0769
442.1093	0.0842
442.3124	0.0798
442.5155	0.0709
442.7185	0.0724
442.9216	0.0694
443.1246	0.0725
443.3276	0.0811
443.5307	0.0683
443.7337	0.0753
443.9366	0.0663
444.1396	0.0645
444.3426	0.0641
444.5455	0.0673
444.7484	0.063
444.9513	0.0624
445.1542	0.0634
445.3571	0.0568
445.56	0.0558
445.7628	0.0568
445.9657	0.0632
446.1685	0.0602
446.3713	0.0585
446.5741	0.0587
446.7769	0.0652
446.9797	0.059
447.1824	0.0508
447.3852	0.042
447.5879	0.0563
447.7906	0.045
447.9933	0.0519
448.196	0.0465
448.3986	0.0469
448.6013	0.0483
448.8039	0.0557
449.0066	0.0526
449.2092	0.0553
449.4118	0.0474
449.6143	0.0462
449.8169	0.0404
450.0195	0.0353
450.222	0.0455
450.4245	0.0435
450.627	0.0485
450.8295	0.0431
451.032	0.0387
451.2345	0.0427
451.4369	0.0325
451.6394	0.0407
451.8418	0.0382
452.0442	0.0427
452.2466	0.0314
452.449	0.0276
452.6513	0.031
452.8537	0.031
453.056	0.0379
453.2583	0.0326
453.4607	0.0198
453.663	0.0373
453.8652	0.0246
454.0675	0.0343
454.2697	0.0268
454.472	0.023
454.6742	0.0354
454.8764	0.0382
455.0786	0.0222
455.2808	0.026
455.4829	0.0389
455.6851	0.0249
455.8872	0.0165
456.0893	0.0353
456.2915	0.0254
456.4935	0.0447
456.6956	0.032
456.8977	0.0227
457.0997	0.0316
457.3018	0.0222
457.5038	0.0309
457.7058	0.0283
457.9078	0.0249
458.1098	0.0228
458.3117	0.0282
458.5137	0.0058
458.7156	0.0209
458.9175	0.0218
459.1194	0.0151
459.3213	0.0202
459.5232	0.0222
459.725	0.0243
459.9269	0.0115
460.1287	0.0123
460.3305	0.0173
460.5323	0.0245
460.7341	0.0194
460.9359	0.0173
461.1376	0.0251
461.3394	0.0247
461.5411	0.0256
461.7428	0.0277
461.9445	0.0147
462.1462	0.02
462.3479	0.0111
462.5495	0.0196
462.7512	0.019
462.9528	0.0219
463.1544	0.0195
463.356	0.0102
463.5576	0.0255
463.7592	0.018
463.9607	0.017
464.1623	0.0175
464.3638	0.0051
464.5653	0.0151
464.7668	0.0189
464.9683	0.0078
465.1697	0.0161
465.3712	0.007
465.5726	0.0131
465.7741	0.024
465.9755	0.0177
466.1769	0.0027
466.3782	0.0101
466.5796	0.023
466.7809	0.0153
466.9823	0.0139
467.1836	0.0141
467.3849	0.0089
467.5862	0.0087
467.7875	0.0117
467.9887	0.012
468.19	0.0127
468.3912	0.0186
468.5924	0.0099
468.7936	0.0131
468.9948	0.0091
469.196	0.0122
469.3972	0.0021
469.5983	0.0065
469.7994	0.0129
470.0006	0.0224
470.2017	0.0153
470.4027	0.0195
470.6038	0.0145
470.8049	0.0173
471.0059	0.0182
471.2069	0.0103
471.408	0.0193
471.6089	0.0055
471.8099	0.0203
472.0109	0.0152
472.2119	0.0193
472.4128	0.0156
472.6137	0.0147
472.8146	0.0103
473.0155	0.0182
473.2164	0.017
473.4173	0.0075
473.6181	0.0072
473.819	0.0089
474.0198	0.0073
474.2206	-0.0013
474.4214	0.0099
474.6222	-0.0011
474.8229	0.01
475.0237	0.0178
475.2244	0.0129
475.4251	0.0114
475.6258	0.0111
475.8265	0.0133
476.0272	0.0068
476.2278	0.0092
476.4285	0.0131
476.6291	0.0104
476.8297	0.0154
477.0303	0.0046
477.2309	0.0136
477.4315	0.0144
477.632	0.0044
477.8326	0.0071
478.0331	0.0167
478.2336	0.011
478.4341	0.0135
478.6346	0.0009
478.8351	0.0162
479.0355	0.0157
479.236	0.0119
479.4364	0.0089
479.6368	0.0083
479.8372	0.0092
480.0376	0.0085
480.2379	0.0128
480.4383	0.0165
480.6386	0.0085
480.8389	0.003
481.0392	0.0016
481.2395	0.0197
481.4398	0.0143
481.6401	0.0161
481.8403	0.0041
482.0405	0.01
482.2408	0.0132
482.441	0.0109
482.6411	0.0096
482.8413	0.0108
483.0415	0.0194
483.2416	0.0103
483.4417	0.0077
483.6419	-0.0039
483.8419	0.0116
484.042	0.0098
484.2421	0.003
484.4422	0.0013
484.6422	0.0116
484.8422	0.0078
485.0422	0.0068
485.2422	0.008
485.4422	0.0098
485.6422	0.0061
485.8421	0.0077
486.042	0.0157
486.242	0.0081
486.4419	0.0091
486.6417	0.0032
486.8416	0.0097
487.0415	0.0097
487.2413	0.0021
487.4411	0.0153
487.641	0.012
487.8408	0.0073
488.0405	0.0186
488.2403	0.0051
488.4401	0.0078
488.6398	0.0112
488.8395	0.0178
489.0392	0.0153
489.2389	0.0084
489.4386	0.012
489.6383	0.0088
489.8379	0.0089
490.0376	0.0089
490.2372	0.0127
490.4368	0.0064
490.6364	-0.0033
490.836	0.0133
491.0355	0.0044
491.2351	0.0086
491.4346	0.0084
491.6341	-0.0001
491.8336	0.0079
492.0331	0.0068
492.2326	0.007
492.432	0.0077
492.6315	0.0112
492.8309	0.0088
493.0303	0.0046
493.2297	0.0157
493.4291	0.0089
493.6284	0.0137
493.8278	0.005
494.0271	0.0118
494.2264	0.0057
494.4257	0.012
494.625	0.0145
494.8243	0.0061
495.0236	0.0083
495.2228	0.0121
495.422	0.0127
495.6213	0.0105
495.8205	0.02
496.0196	0.0083
496.2188	0.0107
496.418	0.0119
496.6171	0.0093
496.8162	0.0057
497.0153	0.0187
497.2144	0.0207
497.4135	0.0053
497.6126	0.0142
497.8116	-0.0019
498.0107	0.01
498.2097	0.0114
498.4087	0.0026
498.6077	0.0047
498.8067	0.0107
499.0056	0.0067
499.2046	0.0093
499.4035	0.0129
499.6024	0.001
499.8013	0.0154
500.0002	0.0113
500.199	0.0131
500.3979	-0.0007
500.5967	0.0077
500.7956	0.0046
500.9944	0.012
501.1932	0.0116
501.3919	0.0127
501.5907	0.0162
501.7895	0.009
501.9882	0.0088
502.1869	0.0147
502.3856	0.0027
502.5843	0.0155
502.783	0.0122
502.9816	0.0086
503.1803	0.0112
503.3789	0.0133
503.5775	0.0031
503.7761	-0.0004
503.9747	0.0042
504.1732	0.0076
504.3718	0.017
504.5703	0.0092
504.7689	-0.0009
504.9674	0.0091
505.1658	0.0018
505.3643	0.0219
505.5628	0.0095
505.7612	0.0118
505.9597	0.0033
506.1581	0.0048
506.3565	0.0172
506.5549	0.0146
506.7532	0.0004
506.9516	0.0121
507.1499	0.0033
507.3482	0.0099
507.5465	0.0075
507.7448	0.0099
507.9431	0.0145
508.1414	0.0033
508.3396	0.0024
508.5379	0.0115
508.7361	0.0231
508.9343	0.0143
509.1325	0.0174
509.3306	0.0028
509.5288	0.0044
509.7269	0.0116
509.9251	0.0117
510.1232	0.0093
510.3213	0.0103
510.5193	0.0039
510.7174	0.0085
510.9154	0.0158
511.1135	0.0061
511.3115	-0.0052
511.5095	-0.0001
511.7075	0.0088
511.9055	0.01
512.1034	0.0095
512.3014	0.0152
512.4993	0.0116
512.6972	0.015
512.8951	0.0152
513.093	0.0091
513.2908	0.0224
513.4887	0.0088
513.6865	0.0111
513.8844	0.0203
514.0822	0.0056
514.2799	-0.0004
514.4777	0.0077
514.6755	0.0043
514.8732	0.0034
515.0709	0.0128
515.2687	0.0048
515.4664	0.013
515.664	0.0174
515.8617	0.0148
516.0594	0.019
516.257	0.0063
516.4546	0.0313
516.6522	0.0107
516.8498	0.0094
517.0474	0.0093
517.2449	0.0185
517.4425	-0.0034
517.64	0.0114
517.8375	0.0093
518.035	0.0109
518.2325	0.0133
518.43	0.0013
518.6274	0.0006
518.8249	-0.0057
519.0223	0.0112
519.2197	0.0094
519.4171	0.0002
519.6145	0.0143
519.8118	-0.0064
520.0092	0.0021
520.2065	0.0221
520.4038	0.0043
520.6011	0.0163
520.7984	0.0099
520.9956	0.0191
521.1929	0.0119
521.3901	0.0125
521.5874	0.0078
521.7846	0.0044
521.9818	0.014
522.1789	0.0075
522.3761	0.0267
522.5732	0.0059
522.7704	0.0026
522.9675	-0.0046
523.1646	0.0068
523.3617	0.0094
523.5587	0.0155
523.7558	0.0077
523.9528	0.0155
524.1498	0.0076
524.3468	0.007
524.5438	0.0072
524.7408	0.0022
524.9378	0.0112
525.1347	0.0102
525.3316	0.0014
525.5285	0.0021
525.7254	0.0073
525.9223	0.0167
526.1192	0.0071
526.316	0.0113
526.5129	0.0043
526.7097	-0.0021
526.9065	0.0151
527.1033	0.0066
527.3	0.0055
527.4968	0.0197
527.6935	-0.0002
527.8903	0.0086
528.087	0.0062
528.2837	0.0143
528.4804	0.0002
528.677	0.0077
528.8737	0.0049
529.0703	0.0125
529.2669	0.0179
529.4635	0.0038
529.6601	0.008
529.8567	-0.0047
530.0532	0.0167
530.2498	0.0053
530.4463	-0.0072
530.6428	0.0129
530.8393	0.0124
531.0358	0.0095
531.2322	-0.0006
531.4287	0.005
531.6251	-0.0117
531.8215	-0.0017
532.0179	0.0121
532.2143	0.0124
532.4107	0.0102
532.607	0.0048
532.8034	0.0093
532.9997	0.0088
533.196	0.0018
533.3923	0.0076
533.5886	0.0093
533.7848	0.0045
533.9811	0.0057
534.1773	0.0115
534.3735	0.0141
534.5697	0.0055
534.7659	0.0074
534.9621	0.0142
535.1582	0.0095
535.3544	0.0079
535.5505	0.0069
535.7466	0.0061
535.9427	0.0106
536.1387	0.0054
536.3348	0.0071
536.5308	0.0052
536.7269	0.0043
536.9229	0.0055
537.1189	0.0172
537.3148	0.0114
537.5108	0.0094
537.7068	0.0154
537.9027	-0.0058
538.0986	0.0086
538.2945	0.0052
538.4904	-0.0053
538.6863	0.0123
538.8821	0.0121
539.078	0.0082
539.2738	0.0156
539.4696	-0.0031
539.6654	0.0048
539.8611	0.0061
540.0569	0.0069
540.2526	0.0186
540.4484	-0.0055
540.6441	0.0107
540.8398	0.024
541.0355	0.004
541.2311	-0.0005
541.4268	0.0165
541.6224	0.0269
541.818	0.0038
542.0136	0.0127
542.2092	0.012
542.4048	0.0059
542.6003	0.0121
542.7959	0.0066
542.9914	0.0162
543.1869	-0.0006
543.3824	0.0125
543.5779	0.0187
543.7734	0.0207
543.9688	0.0057
544.1642	-0.0027
544.3596	0.0123
544.555	0.0084
544.7504	0.0216
544.9458	0.0104
545.1411	0.0052
545.3365	0.0018
545.5318	0.011
545.7271	0.018
545.9224	0.0044
546.1177	0.0134
546.3129	0.0053
546.5081	0.0123
546.7034	0.0124
546.8986	0.0118
547.0938	0.0115
547.289	0.0124
547.4841	0.0132
547.6793	0.0073
547.8744	0.0201
548.0695	0.0039
548.2646	0.0156
548.4597	0.0111
548.6548	0.0234
548.8498	0.0204
549.0448	0.0052
549.2399	0.0188
549.4349	0.0105
549.6298	0.019
549.8248	0.0041
550.0198	0.0099
550.2147	0.0161
550.4096	0.0066
550.6045	0.0022
550.7994	0.0126
550.9943	0.0108
551.1892	-0.0154
551.384	0.0159
551.5788	0.0071
551.7737	0.0132
551.9685	0.0095
552.1632	-0.0047
552.358	0.0062
552.5528	0.0168
552.7475	0.0092
552.9422	0.0173
553.1369	0.0062
553.3316	0.0051
553.5263	0.015
553.7209	0.0059
553.9156	0.0151
554.1102	0.013
554.3048	0.0022
554.4994	0.0057
554.694	0.0107
554.8885	0.0117
555.0831	0.0169
555.2776	0.0058
555.4721	0.0115
555.6666	0.0109
555.8611	0.0121
556.0555	0.0092
556.25	0.0172
556.4444	0.0029
556.6388	0.0016
556.8332	0.0063
557.0276	0.0057
557.222	-0.0009
557.4163	0.016
557.6107	0.0092
557.805	-0.0003
557.9993	0.0115
558.1936	0.0096
558.3879	0.0028
558.5821	0.0094
558.7764	0.0097
558.9706	0.0065
559.1648	0.0098
559.359	-0.002
559.5532	0.0055
559.7473	0.0085
559.9415	-0.0003
560.1356	0.0116
560.3297	0.0042
560.5238	0.0168
560.7179	0.0018
560.9119	0.0096
561.106	0.0028
561.3	0.0048
561.494	-0.0045
561.688	0.0062
561.882	0.0086
562.076	0.0058
562.2699	0.0167
562.4639	0.0206
562.6578	0.0179
562.8517	0.0176
563.0456	0.0189
563.2395	0.0181
563.4333	0.0127
563.6272	0.0159
563.821	0.0076
564.0148	0.0115
564.2086	0.006
564.4024	0.0204
564.5961	0.0104
564.7899	0.0113
564.9836	0.014
565.1773	0.016
565.371	0.0057
565.5647	0.0095
565.7584	0.0119
565.952	0.001
566.1456	0.0038
566.3393	0.0031
566.5329	0.0082
566.7264	0.0083
566.92	0.0102
567.1136	0.0008
567.3071	0.0006
567.5006	0.0092
567.6941	0.0067
567.8876	0.0019
568.0811	0.0261
568.2745	-0.0022
568.468	0.0086
568.6614	0.0157
568.8548	0.0051
569.0482	0.0091
569.2416	0.0102
569.4349	0.0093
569.6283	0.011
569.8216	0.0082
570.0149	0.0044
570.2082	0.0144
570.4015	0.0061
570.5947	0.0111
570.788	0.0094
570.9812	0.0048
571.1744	0.0111
571.3676	0.0049
571.5608	0.0078
571.754	0.0129
571.9471	0.0136
572.1402	0.0079
572.3333	0.007
572.5264	0.0066
572.7195	0.0094
572.9126	0.0056
573.1057	0.0103
573.2987	0.0109
573.4917	0.0102
573.6847	0.0032
573.8777	0.0101
574.0707	0.0115
574.2636	0.0103
574.4566	0.0067
574.6495	0.0057
574.8424	0.0098
575.0353	0.0076
575.2281	0.0091
575.421	0.0037
575.6138	0.0071
575.8067	0.0129
575.9995	0.0118
576.1923	0.0153
576.385	0.0115
576.5778	0.0117
576.7706	0.0097
576.9633	0.0103
577.156	0.001
577.3487	0.0074
577.5414	0.0054
577.734	0.0064
577.9267	0.0103
578.1193	0.013
578.3119	0.0079
578.5045	0.0089
578.6971	0.0058
578.8897	0.0031
579.0822	0.0129
579.2747	0.0061
579.4673	0.0094
579.6598	0.0082
579.8522	0.0084
580.0447	0.0129
580.2372	0.0143
580.4296	0.0153
580.622	0.006
580.8144	0.0065
581.0068	0.008
581.1992	0.0084
581.3915	0.0005
581.5839	0.0073
581.7762	0.0076
581.9685	0.0096
582.1608	0.0059
582.353	0.007
582.5453	0.0092
582.7375	0.0095
582.9298	0.0032
583.122	0.0027
583.3142	0.0139
583.5063	0.0075
583.6985	0.0014
583.8906	0.008
584.0827	0.0081
584.2749	0.0062
584.4669	0.0055
584.659	0.0112
584.8511	0.0139
585.0431	0.0113
585.2352	0.0077
585.4272	0.0092
585.6192	0.0094
585.8111	0.0055
586.0031	0.0058
586.195	0.0061
586.387	0.0057
586.5789	0.0085
586.7708	0.0164
586.9627	0.0091
587.1545	0.0104
587.3464	0.0128
587.5382	0.0077
587.73	0.0123
587.9218	0.0055
588.1136	0.0006
588.3053	0.0107
588.4971	0.0083
588.6888	0.0085
588.8805	0.0072
589.0722	0.009
589.2639	0.0083
589.4556	0.0067
589.6472	0.0164
589.8389	0.0095
590.0305	0.0048
590.2221	0.0135
590.4137	0.011
590.6052	0.0076
590.7968	0.0065
590.9883	0.0065
591.1798	0.0044
591.3713	0.0078
591.5628	0.0075
591.7543	0.0099
591.9458	0.0008
592.1372	0.0085
592.3286	0.0068
592.52	0.008
592.7114	0.0056
592.9028	0.0128
593.0941	0.0044
593.2855	0.0073
593.4768	0.0105
593.6681	0.0089
593.8594	0.0106
594.0506	0.0096
594.2419	0.0089
594.4331	0.0069
594.6244	0.0005
594.8156	0.0049
595.0067	0.0081
595.1979	0.0004
595.3891	0.0098
595.5802	0.0125
595.7713	0.0056
595.9624	0.0177
596.1535	0.0078
596.3446	0.0018
596.5357	0.0173
596.7267	0.0096
596.9177	0.0014
597.1087	0.0036
597.2997	0.0117
597.4907	0.0065
597.6817	0.0132
597.8726	0.0108
598.0635	0.0044
598.2544	0.0078
598.4453	0.0046
598.6362	0.0126
598.827	0.0061
599.0179	0.0067
599.2087	0.0112
599.3995	0.0113
599.5903	0.0124
599.7811	0.0122
599.9718	0.0048
600.1626	0.0015
600.3533	0.0065
600.544	0.0078
600.7347	0.0116
600.9254	0.0094
601.116	0.0053
601.3067	0.0028
601.4973	0.0069
601.6879	0.0069
601.8785	0.0101
602.0691	0.0097
602.2596	0.0109
602.4502	0.0098
602.6407	0.0085
602.8312	0.0068
603.0217	0.007
603.2122	0.008
603.4027	0.0059
603.5931	0.0062
603.7835	0.0096
603.9739	0.0053
604.1643	0.01
604.3547	0.009
604.5451	0.014
604.7354	0.0041
604.9257	0.0057
605.116	0.0051
605.3063	0.0075
605.4966	0.0077
605.6869	0.0127
605.8771	0.005
606.0673	0.0075
606.2575	0.0051
606.4477	0.0098
606.6379	0.0054
606.8281	0.0028
607.0182	0.0095
607.2083	0.0094
607.3985	0.006
607.5885	0.0089
607.7786	0.0095
607.9687	0.0057
608.1587	0.0144
608.3488	0.0108
608.5388	0.0056
608.7288	0.0021
608.9187	0.0021
609.1087	0.0128
609.2986	0.013
609.4886	0.0054
609.6785	0.0106
609.8684	0.0086
610.0582	0.004
610.2481	-0.0003
610.4379	0.0071
610.6278	0.0104
610.8176	0.0186
611.0074	0.0016
611.1971	0.0145
611.3869	0.0121
611.5766	-0.0001
611.7664	0.0072
611.9561	0.0144
612.1458	0.0011
612.3354	0.0055
612.5251	0.0043
612.7147	0.0103
612.9044	0.0016
613.094	0.0136
613.2836	0.0142
613.4731	0.0025
613.6627	0.0166
613.8522	0.0094
614.0417	0.0106
614.2313	0.0045
614.4207	0.0073
614.6102	0.017
614.7997	0.0137
614.9891	0.0123
615.1785	0.0033
615.3679	0.0152
615.5573	0.0065
615.7467	-0.005
615.9361	0.0084
616.1254	0.016
616.3147	0.0114
616.504	0.0092
616.6933	0.0029
616.8826	0.0052
617.0718	0.0086
617.2611	0.0047
617.4503	0.005
617.6395	0.0041
617.8287	0.0133
618.0179	0.0022
618.207	0.0139
618.3961	-0.0076
618.5853	0.0047
618.7744	0.0117
618.9634	0.013
619.1525	-0.0005
619.3416	-0.0011
619.5306	0.017
619.7196	0.0136
619.9086	0.0099
620.0976	0.0068
620.2866	0.013
620.4755	-0.0008
620.6645	0.0133
620.8534	0.0022
621.0423	0.0121
621.2312	0.0033
621.42	0.0041
621.6089	0.0013
621.7977	0.0131
621.9865	0.0035
622.1753	0.0046
622.3641	0.0054
622.5529	0.0051
622.7416	0.0032
622.9303	0.0048
623.1191	0.0053
623.3078	0.0095
623.4964	0.0081
623.6851	0.0106
623.8737	0.0013
624.0624	-0.0039
624.251	0.0073
624.4396	0.005
624.6282	0.0188
624.8167	0.0073
625.0053	0.0186
625.1938	0.015
625.3823	0.0068
625.5708	0.0016
625.7593	0.0058
625.9477	0.0136
626.1362	-0.0001
626.3246	0.003
626.513	0.0093
626.7014	0.0089
626.8898	0.0127
627.0781	0.0108
627.2665	0.0158
627.4548	0.0037
627.6431	0.0157
627.8314	0.0109
628.0197	0.0191
628.2079	0.0129
628.3962	0.0084
628.5844	0.0153
628.7726	0.0158
628.9608	0.0141
629.1489	0.0063
629.3371	-0.0011
629.5252	0.0135
629.7134	0.0037
629.9015	0.0167
630.0895	-0.0044
630.2776	0.0019
630.4657	0.0165
630.6537	0.0088
630.8417	-0.002
631.0297	0.0035
631.2177	0.0025
631.4057	0.0125
631.5936	0.0143
631.7815	0.0124
631.9695	0.022
632.1574	0.0069
632.3452	0.0132
632.5331	0.0087
632.7209	0.0158
632.9088	-0.0049
633.0966	0.0137
633.2844	0.0028
633.4722	0.0126
633.6599	0.0179
633.8477	0.0143
634.0354	0.0058
634.2231	-0.0051
634.4108	0.0134
634.5985	0.0141
634.7861	-0.0113
634.9738	-0.0023
635.1614	0.0183
635.349	0.0103
635.5366	0.016
635.7242	0.0044
635.9117	0.0099
636.0993	0.0148
636.2868	0.0117
636.4743	0.0138
636.6618	0.0034
636.8492	0.0238
637.0367	0.0011
637.2241	0.0059
637.4115	0.0247
637.5989	0.0068
637.7863	0.0261
637.9737	0.0044
638.161	0.0065
638.3484	-0.0103
638.5357	0.002
638.723	0.0153
638.9103	-0.0108
639.0975	-0.0027
639.2848	0.0287
639.472	0.0106
639.6592	-0.005
639.8464	0.0088
640.0336	0.016
640.2208	-0.0087
640.4079	0.009
640.595	0.0041
640.7821	0.0175
640.9692	0.0156
641.1563	0.0195
641.3434	0.0128
641.5304	0.0252
641.7174	0.0006
641.9044	0.0217
642.0914	0.0285
642.2784	-0.0076
642.4653	-0.0077
642.6523	0.0223
642.8392	0.0009
643.0261	0.0075
643.213	0.0118
643.3999	0.026
643.5867	0.0216
643.7735	0.0124
643.9604	0.0252
644.1472	0.0032
644.3339	0.0048
644.5207	-0.0024
644.7075	0.0055
644.8942	-0.0036
645.0809	-0.0061
645.2676	0.0176
645.4543	0.0019
645.6409	0.0164
645.8276	0.0068
646.0142	0.0048
646.2008	0.0016
646.3874	-0.015
646.574	-0.0085
646.7605	0.014
646.9471	0.0061
647.1336	-0.0085
647.3201	0.0066
647.5066	0.0175
647.6931	0.0076
647.8795	0.0159
648.0659	0.0084
648.2524	0.0173
648.4388	0.0058
648.6252	0.0367
648.8115	-0.0022
648.9979	0.0102
649.1842	0.0087
649.3705	0.0149
649.5568	-0.0031
649.7431	0.0093
649.9294	-0.0066
650.1156	0.0009
650.3018	0.013
650.488	0.0092
650.6742	0.0114
650.8604	0.0168
651.0466	-0.0042
651.2327	0.007
651.4188	-0.0216
651.6049	0.0028
651.791	0.0055
651.9771	0.0221
652.1632	0.0076
652.3492	-0.0066
652.5352	0.0275
652.7212	0.0055
652.9072	0.0082
653.0932	0.0094
653.2791	0.0131
653.465	-0.006
653.651	-0.008
653.8369	0.0064
654.0227	0.0023
654.2086	0.0178
654.3944	0.0219
654.5803	0.0027
654.7661	0.0043
654.9519	0.0004
655.1377	0.0002
655.3234	0.0002
655.5092	0.0002
655.6949	0.0002
655.8806	0.0002
656.0663	0.0002
656.2519	0.0002
656.4376	0.0002
656.6232	0.0002
656.8088	0.0002
656.9945	0.0002
657.18	0.0002
657.3656	0.0002
657.5511	0.0002
657.7367	0.0002
657.9222	0.0002
658.1077	0.0002
658.2932	0.0002
658.4786	0.0002
658.6641	0.0002
658.8495	0.0002
659.0349	0.0002
659.2203	0.0002
659.4057	0.0129
659.591	0.2671
659.7764	0.0213
659.9617	0.0146
660.147	0.0133
660.3323	0.0101
660.5176	0.0039
660.7028	-0.0168
660.888	0.0054
661.0733	0.0193
661.2585	-0.0129
661.4436	0.0078
661.6288	0.0238
661.8139	-0.0097
661.9991	-0.0144
662.1842	0.0039
662.3693	0.0094
662.5544	0.0105
662.7394	0.0295
662.9245	0.0113
663.1095	-0.0219
663.2945	-0.002
663.4795	0.0008
663.6644	0.0072
663.8494	0.0242
664.0343	0.0147
664.2193	0.0163
664.4042	0.0083
664.589	0.0012
664.7739	0.0084
664.9587	0.0002
665.1436	0.0036
665.3284	0.0093
665.5132	-0.0123
665.698	0.02
665.8827	0.0165
666.0675	-0.0128
666.2522	0.0347
666.4369	0.0125
666.6216	0.0254
666.8063	0.0061
666.9909	-0.0061
667.1756	0.0049
667.3602	-0.0046
667.5448	0.0012
667.7294	0.0136
667.9139	0.0169
668.0985	0.0068
668.283	-0.0048
668.4675	0.0296
668.652	0.017
668.8365	-0.0166
669.0209	-0.0036
669.2054	0.0025
669.3898	0.0276
669.5742	0.0153
669.7586	0.0224
669.943	0.0095
670.1273	0.0003
670.3117	0.018
670.496	0.0084
670.6803	0.0065
670.8646	-0.0055
671.0488	0.025
671.2331	-0.0057
671.4173	0.0079
671.6015	0.0083
671.7857	0.0102
671.9699	0.0072
672.1541	-0.0024
672.3382	0.0017
672.5223	0.0125
672.7064	-0.0022
672.8905	0.0068
673.0746	0.0107
673.2587	0.0303
673.4427	0.0141
673.6267	0.0231
673.8107	0.0224
673.9947	0.011
674.1787	-0.0114
674.3626	0.0248
674.5465	0.0079
674.7304	0.025
674.9143	0.0064
675.0982	0.008
675.2821	0.0146
675.4659	0.0062
675.6497	0.013
675.8335	-0.0133
676.0173	0.0086
676.2011	0.0219
676.3849	0.0144
676.5686	0.0222
676.7523	-0.0046
676.936	-0.005
677.1197	-0.0058
677.3034	0.0313
677.487	0.013
677.6706	0.0153
677.8542	-0.0166
678.0378	0.0105
678.2214	-0.0065
678.405	0.0121
678.5885	0.0349
678.772	0.0269
678.9555	0.0077
679.139	0.0021
679.3225	-0.0017
679.5059	0.0057
679.6894	0.0077
679.8728	0.0022
680.0562	0.0116
680.2395	-0.0126
680.4229	-0.0055
680.6062	0.0063
680.7896	0.0049
680.9729	0.0175
681.1562	0.0027
681.3394	0.0217
681.5227	-0.0038
681.7059	-0.0003
681.8891	0.0165
682.0723	-0.0205
682.2555	0.0081
682.4387	0.0167
682.6218	0.0079
682.805	0.0201
682.9881	0.0262
683.1712	0.0036
683.3542	0.0193
683.5373	0.0016
683.7203	0.0178
683.9034	0.0031
684.0864	0.0079
684.2694	-0.0055
684.4523	0.0109
684.6353	0.0213
684.8182	0.0094
685.0011	0.0072
685.184	0.0018
685.3669	0.0211
685.5498	0.0113
685.7326	-0.0091
685.9154	-0.0042
686.0982	0.0066
686.281	0.0024
686.4638	0.0119
686.6465	0.0087
686.8293	-0.0114
687.012	-0.0004
687.1947	0.0174
687.3774	0.0164
687.56	-0
687.7427	0.0157
687.9253	-0.0064
688.1079	0.008
688.2905	-0.0146
688.4731	0.0072
688.6556	0.0269
688.8382	-0.0229
689.0207	0.0135
689.2032	0.0212
689.3857	-0.0151
689.5681	-0.0022
689.7506	0.0156
689.933	-0.0034
690.1154	0.017
690.2978	0.0135
690.4802	0.0267
690.6626	0.0075
690.8449	0.0218
691.0272	-0.0017
691.2095	-0.0228
691.3918	0.0092
691.5741	0.0277
691.7563	0.0004
691.9386	0.0167
692.1208	0.0136
692.303	-0.006
692.4852	-0.0041
692.6673	0.0047
692.8495	0.0027
693.0316	0.0225
693.2137	0.0223
693.3958	0.0016
693.5778	-0.005
693.7599	0.0113
693.9419	0.0108
694.1239	0.0199
694.3059	-0.002
694.4879	-0.0007
694.6699	0.0179
694.8518	0.0032
695.0337	0.0019
695.2157	0.0209
695.3975	-0.0145
695.5794	0.0007
695.7613	-0.0005
695.9431	-0.0083
696.1249	0.011
696.3067	-0
696.4885	0.0189
696.6703	0.0091
696.852	0.0129
697.0337	0.0177
697.2154	-0.0023
697.3971	0.0054
697.5788	0.0255
697.7605	-0.0036
697.9421	0.035
698.1237	0.0285
698.3053	-0.0027
698.4869	0.0215
698.6685	-0.0027
698.85	0.0123
699.0315	-0.0004
699.213	0.0111
699.3945	0.0165
699.576	0.0169
699.7575	0.0189
699.9389	-0.0051
700.1203	-0.006
700.3017	0.0115
700.4831	0.0003
700.6645	0.0191
700.8458	0.0003
701.0271	0.0472
701.2084	0.0015
701.3897	0.0182
701.571	-0.0038
701.7523	0.0069
701.9335	0.0235
702.1147	0.0207
702.2959	-0.01
702.4771	-0.003
702.6583	0.0066
702.8394	-0.03
703.0205	0.0216
703.2016	-0.0068
703.3827	0.0054
703.5638	0.013
703.7449	0.008
703.9259	0.012
704.1069	0.009
704.2879	0.0232
704.4689	-0.0036
704.6499	0.0162
704.8308	0.0027
705.0117	0.0197
705.1927	0.0369
705.3735	-0.0044
705.5544	0.0022
705.7353	0.0092
705.9161	-0.0089
706.0969	0.006
706.2777	0.0082
706.4585	0.0033
706.6393	0.0151
706.82	0.0159
707.0007	-0.0087
707.1815	0.003
707.3621	0.0234
707.5428	0.0231
707.7235	-0.002
707.9041	0.016
708.0847	-0.0026
708.2653	0.0252
708.4459	0.0068
708.6265	-0.0044
708.807	0.0147
708.9875	0.0014
709.168	0.006
709.3485	0.0278
709.529	0.0191
709.7095	-0.0028
709.8899	0.0069
710.0703	0.0222
710.2507	-0.0004
710.4311	-0.0118
710.6115	0.031
710.7918	0.0477
710.9721	0.0198
711.1524	-0.0125
711.3327	-0.0144
711.513	-0.0241
711.6932	0.0033
711.8735	0.0249
712.0537	0.0234
712.2339	0.0044
712.4141	0.0214
712.5942	0.0106
712.7744	0.0192
712.9545	0.0145
713.1346	0.0225
713.3147	0.0093
713.4947	-0.0036
713.6748	-0.0003
713.8548	0.0161
714.0348	0.0099
714.2148	0.0058
714.3948	0.0166
714.5748	0.0049
714.7547	0.0405
714.9346	0.0098
715.1145	0.0056
715.2944	0.0025
715.4743	0.0265
715.6541	-0.0169
715.834	0.024
716.0138	0.0234
716.1936	0.008
716.3733	-0.0026
716.5531	-0.006
716.7328	0.0343
716.9126	0.022
717.0923	0.0059
717.2719	0.0232
717.4516	0.016
717.6312	-0.0137
717.8109	0.0337
717.9905	0.007
718.1701	0.0021
718.3496	-0.0005
718.5292	0.0007
718.7087	-0.003
718.8882	-0.0051
719.0677	0.0051
719.2472	-0.0058
719.4267	0.0074
719.6061	0.0004
719.7856	0.0148
719.965	0.0059
720.1443	-0.002
720.3237	-0.0242
720.5031	0.0158
720.6824	-0.0057
720.8617	-0.0162
721.041	0.0193
721.2203	0.0164
721.3995	-0.0191
721.5788	0.0184
721.758	-0.0087
721.9372	0.0024
722.1164	0.017
722.2956	0.0224
722.4747	0.0178
722.6538	0.0106
722.8329	0.0192
723.012	0.0094
723.1911	0.0042
723.3702	0.0249
723.5492	0.0287
723.7282	-0.0132
723.9072	0.0262
724.0862	-0.0019
724.2652	0.0068
724.4441	-0.0013
724.623	-0.0082
724.8019	0.0032
724.9808	0.0092
725.1597	0.001
725.3385	0.0474
725.5174	0.0388
725.6962	0.0241
725.875	0.0206
726.0538	0.0334
726.2325	0.0131
726.4112	-0.0133
726.59	-0.0004
726.7687	-0.0066
726.9474	0.0232
727.126	0.033
727.3047	-0.0159
727.4833	0.0141
727.6619	0.0171
727.8405	0.0185
728.0191	0.0296
728.1976	-0.0039
728.3762	0.0134
728.5547	0.0088
728.7332	0.0422
728.9116	0.0033
729.0901	0.0015
729.2686	-0.0057
729.447	-0.0309
729.6254	0.0095
729.8038	0.0219
729.9821	-0.001
730.1605	-0
730.3388	-0.0065
730.5171	0.0059
730.6954	-0.0067
730.8737	0.0033
731.0519	0.0043
731.2302	-0.0039
731.4084	0.0097
731.5866	-0.0032
731.7648	0.0017
731.9429	-0.0035
732.1211	-0.0048
732.2992	-0
732.4773	0.0054
732.6554	-0.0034
732.8335	0.0347
733.0115	0.0131
733.1896	-0.0082
733.3676	0.0333
733.5456	0.0071
733.7235	0.0062
733.9015	0.0052
734.0794	0.0036
734.2574	-0.0179
734.4353	0.0149
734.6131	0.0053
734.791	0.0053
734.9689	-0.0115
735.1467	-0.0258
735.3245	0.016
735.5023	0.0279
735.68	0.0019
735.8578	0.0089
736.0355	0.0398
736.2132	-0
736.3909	0.0121
736.5686	-0.0134
736.7463	-0.0048
736.9239	0.0204
737.1015	0.0333
737.2791	0.0221
737.4567	0.019
737.6343	-0.004
737.8118	0.0242
737.9894	0.0052
738.1669	0.0145
738.3444	0.0386
738.5218	-0.0003
738.6993	0.023
738.8767	0.0147
739.0541	0.0118
739.2315	-0.0105
739.4089	0.0418
739.5863	0.0164
739.7636	0.0055
739.9409	0.025
740.1182	-0.0073
740.2955	0.0062
740.4728	0.0038
740.65	-0.0422
740.8272	0.0492
741.0044	-0.0027
741.1816	0.0397
741.3588	-0.0118
741.5359	-0.0187
741.7131	0.0166
741.8902	0.0104
742.0673	-0.0042
742.2444	0.0284
742.4214	0.0264
742.5985	-0.0071
742.7755	0.0073
742.9525	-0.0413
743.1295	-0.0283
743.3064	-0.0083
743.4834	0.0234
743.6603	0.0486
743.8372	-0.0204
744.0141	0.0524
744.191	0.026
744.3678	-0.0393
744.5446	0.0017
744.7215	0.0102
744.8982	0.0304
745.075	0.0342
745.2518	0.0237
745.4285	0.0259
745.6052	-0.0155
745.7819	0.0079
745.9586	0.0118
746.1353	0.016
746.3119	0.0042
746.4885	0.0504
746.6651	0.003
746.8417	0.0119
747.0183	0.0236
747.1948	0.0131
747.3714	-0.0084
747.5479	0.0302
747.7244	-0.014
747.9008	-0.0012
748.0773	0.0749
748.2537	0.026
748.4301	0.0177
748.6065	-0.0276
748.7829	-0.014
748.9593	0.0045
749.1356	0.0069
749.3119	0.0198
749.4882	0.0192
749.6645	0.0006
749.8408	0.0063
750.017	0.0273
750.1933	-0.0054
750.3695	0.0183
750.5457	-0.0121
750.7218	0.0106
750.898	-0.0061
751.0741	0.0334
751.2502	-0.0025
751.4263	0.0015
751.6024	0.0201
751.7784	-0.0022
751.9545	0.0172
752.1305	0.0018
752.3065	0.0094
752.4825	0.0284
752.6584	0.007
752.8344	0.0081
753.0103	-0.0026
753.1862	-0.0048
753.3621	0.018
753.5379	-0.0014
753.7138	0.0081
753.8896	-0.0101
754.0654	0.0302
754.2412	0.0226
754.417	0.0316
754.5927	0.0155
754.7685	0.0028
754.9442	0.0088
755.1199	0.0204
755.2956	0.0068
755.4712	0.0035
755.6469	-0.0058
755.8225	0.0214
755.9981	0.0161
756.1736	0.017
756.3492	0.0135
756.5248	0.0201
756.7003	0.007
756.8758	0.0086
757.0513	0.0186
757.2267	0.0234
757.4022	0.011
757.5776	0.0042
757.753	0.0262
757.9284	0.0112
758.1038	0.029
758.2791	0.0005
758.4545	0.002
758.6298	0.0215
758.8051	0.0106
758.9803	0.0072
759.1556	-0.0032
759.3308	-0.007
759.506	0.0042
759.6812	0.0064
759.8564	0.0119
760.0316	0.0012
760.2067	0.0216
760.3819	0.0195
760.557	0.0176
760.732	-0.0083
760.9071	0.0142
761.0821	-0.0011
761.2572	0.0041
761.4322	0.0011
761.6072	0.0003
761.7821	-0.0444
761.9571	0.0201
762.132	-0.0139
762.3069	0.0126
762.4818	0.0127
762.6567	0.0021
762.8316	-0.0018
763.0064	-0.0011
763.1812	0.0241
763.356	-0.0087
763.5308	0.0152
763.7055	-0.0204
763.8803	0.0087
764.055	0.0025
764.2297	-0.0077
764.4044	0.0049
764.579	-0.0075
764.7537	0.0111
764.9283	0.0124
765.1029	0.0224
765.2775	0.0175
765.4521	0.0048
765.6266	0.01
765.8011	0.0341
765.9756	0.0198
766.1501	0.0119
766.3246	-0.0028
766.4991	0.0141
766.6735	0.0505
766.8479	-0.0033
767.0223	0.044
767.1967	0.0243
767.371	-0.0006
767.5454	0.0432
767.7197	0.0299
767.894	-0.0041
768.0683	0.0236
768.2425	0.0211
768.4168	0.0104
768.591	0.0077
768.7652	-0.0119
768.9394	-0.0086
769.1135	0.0163
769.2877	0.0191
769.4618	0.032
769.6359	-0.0104
769.81	0.0265
769.984	0.0223
770.1581	0.0117
770.3321	0.0338
770.5061	-0.0057
770.6801	0.006
770.8541	0.0314
771.028	0.0178
771.202	0.001
771.3759	0.0185
771.5498	0.0041
771.7236	-0.0067
771.8975	0.0252
772.0713	0.0181
772.2451	0.0024
772.4189	0.0058
772.5927	-0.038
772.7665	-0.0148
772.9402	0.0154
773.1139	-0.0039
773.2876	0.0016
773.4613	-0.0012
773.635	0.0106
773.8086	0.0375
773.9822	0.0133
774.1558	0.0284
774.3294	-0.0161
774.503	-0.0131
774.6765	0.0215
774.8501	-0.0188
775.0236	0.0544
775.1971	-0.0188
775.3705	-0.0287
775.544	-0.0243
775.7174	0.0089
775.8908	0.0241
776.0642	0.0358
776.2376	0.0529
776.4109	0.0356
776.5843	-0.0131
776.7576	-0.001
776.9309	0.0511
777.1041	-0.0318
777.2774	-0.0266
777.4506	-0.0555
777.6238	0.006
777.797	0.0335
777.9702	-0.004
778.1434	0.0061
778.3165	0.0156
778.4896	-0.0421
778.6627	0.0203
778.8358	-0.0138
779.0089	-0.02
779.1819	0.013
779.3549	-0.003
779.5279	-0.0104
779.7009	0.0363
779.8739	0.0555
780.0468	0.0298
780.2197	0.01
780.3926	-0.0395
780.5655	0.0289
780.7384	-0.0143
780.9112	0.029
781.0841	0.0266
781.2569	0.042
781.4297	0.0073
781.6024	0.0247
781.7752	0.0337
781.9479	0.053
782.1206	-0.0006
782.2933	0.0005
782.466	0.0273
782.6386	0.0005
782.8113	0.0406
782.9839	0.0366
783.1565	0.0219
783.329	-0.0001
783.5016	-0.0007
783.6741	-0.0163
783.8466	0.027
784.0191	-0.0109
784.1916	-0.0194
784.3641	-0.0398
784.5365	0.0225
784.7089	-0.0392
784.8813	0.0819
785.0537	0.0245
785.2261	-0.0161
785.3984	0.0146
785.5707	0.0073
785.743	0.068
785.9153	-0.0161
786.0876	-0.0107
786.2598	-0.0184
786.432	0.0089
786.6042	0.0362
786.7764	-0.0033
786.9486	0.0027
787.1207	-0.0032
787.2928	0.036
787.4649	0.0238
787.637	0.0149
787.8091	0.0308
787.9811	0.0331
788.1532	0.0028
788.3252	0.0195
788.4972	0.0088
788.6691	0.0221
788.8411	-0.0025
789.013	0.0344
789.1849	-0.0044
789.3568	-0.0009
789.5287	0.0188
789.7005	-0.0196
789.8723	-0.0238
790.0442	-0.0196
790.2159	-0.0002
790.3877	0.0629
790.5595	0.0332
790.7312	0.044
790.9029	-0.0384
791.0746	0.0124
791.2463	-0.0708
791.4179	-0.0188
791.5896	0.0304
791.7612	0.0245
791.9328	-0.0197
792.1044	-0.0309
792.2759	-0.0471
792.4474	0.0568
792.619	0.0032
792.7905	0.0102
792.9619	0.0135
793.1334	0.0931
793.3048	0.0083
793.4762	0.0196
793.6476	-0.0314
793.819	-0.0047
793.9904	-0.0007
794.1617	0.0138
794.333	0.0207
794.5043	0.0858
794.6756	0.0329
794.8469	0.0011
795.0181	-0.0162
795.1893	0.0196
795.3605	0.0192
795.5317	0.0227
795.7029	0.0101
795.874	0.0036
796.0452	0.0019
796.2163	0.0652
796.3873	0.0797
796.5584	0.0177
796.7294	0.0012
796.9005	-0.0258
797.0715	-0.0292
797.2425	0.0304
797.4134	0.0388
797.5844	0.0651
797.7553	-0.0435
797.9262	0.072
798.0971	0.0233
798.2679	0.0183
798.4388	0.0537
798.6096	0.015
798.7804	-0.0002
798.9512	0.057
799.122	0.0036
799.2927	0.0695
799.4635	0.0133
799.6342	-0.0284
799.8049	0.0413
799.9755	-0.0162
800.1462	0.0265
800.3168	0.0339
800.4874	-0.0454
800.658	0.0855
800.8286	-0.0003
800.9991	-0.008
801.1696	-0.0284
801.3402	0.0119
801.5106	-0.0168
801.6811	0.0123
801.8516	0.0596
802.022	0.0453
802.1924	-0.0363
802.3628	0.0343
802.5332	0.0486
802.7035	0.0482
802.8739	-0.0651
803.0442	0.0346
803.2145	0.0803
803.3847	-0.0003
803.555	0.1218
803.7252	0.0197
803.8954	-0.0349
804.0656	-0.0364
804.2358	0.0685
804.4059	-0.0064
804.5761	0.054
804.7462	0.0588
804.9163	0.0731
805.0864	-0.0401
805.2564	0.0944
805.4264	0.0047
805.5965	-0.0016
805.7665	0.0013
805.9364	0.0044
806.1064	0.0069
806.2763	0.0626
806.4462	0.0197
806.6161	0.0043
806.786	0.0277
806.9559	0.0536
807.1257	0.0227
807.2955	0.0159
807.4653	0.0423
807.6351	0.0742
807.8048	0.0236
807.9746	0.015
808.1443	-0.0315
808.314	0.0572
808.4837	0.0773
808.6533	-0.0201
808.8229	0.024
808.9926	0.0563
809.1622	0.0494
809.3317	-0.0381
809.5013	0.0071
809.6708	-0.0734
809.8403	-0.0114
810.0098	-0.0328
810.1793	-0.0326
810.3488	0.0134
810.5182	0.1312
810.6876	-0.0136
810.857	-0.0198
811.0264	-0.097
811.1958	0.1025
811.3651	-0.045
811.5344	0.0681
811.7037	0.0926
811.873	0.0763
812.0422	-0.1197
812.2115	-0.0252
812.3807	-0.1682
812.5499	0.082
812.7191	-0.0552
812.8882	-0.0932
813.0574	0.0155
813.2265	0.08
813.3956	0.1296
813.5646	0.137
813.7337	0.0312
813.9027	-0.0358
814.0718	0.0473
814.2407	0.0062
814.4097	0.1403
814.5787	0.0848
814.7476	0.0522
814.9165	0.0998
815.0854	-0.0206
815.2543	0.0091
815.4232	0.034
815.592	0.0308
815.7608	0.1193
815.9296	0.008
816.0984	-0.0311
816.2671	-0.167
816.4359	0.2672
816.6046	-0.0833
816.7733	0.0029
816.942	0.0243
817.1106	0.1112
817.2793	-0.0229
817.4479	-0.0233
817.6165	0.0346
817.785	0.0228
817.9536	-0.0129
818.1221	0.0186
818.2906	-0.0854
818.4591	-0.0178
818.6276	0.0683
818.7961	-0.01
818.9645	0.0099
819.1329	0.45
819.3013	-0.057
819.4697	0.1869
819.638	0.0319
819.8064	0.037
819.9747	0.1552
820.143	-0.1582
820.3113	0.1342
820.4795	0.1
820.6477	0.1591
820.816	0.0812
820.9842	0.011
821.1523	0.0564
821.3205	0.0627
821.4886	0.0079
821.6567	-0.0773
821.8248	0.1803
821.9929	-0.0005
822.1609	-0.017
822.329	0.027
822.497	0.1079
822.665	0.033
822.833	0.2011
823.0009	0.1108
823.1688	0.1492
823.3367	-0.1644
823.5046	0.0639
823.6725	-0.0197
823.8404	0.0341
824.0082	0.093
824.176	0.3381
824.3438	0.2914
824.5116	0.0467
824.6793	0.0767
824.847	-0.0181
825.0147	-0.0117
825.1824	-0.0301
825.3501	-0.179
825.5177	-0.0652
825.6854	-0.0299
825.853	0.0282
826.0206	-0.0077
826.1881	-0.0948
826.3557	0.0724
826.5232	0.0602
826.6907	0.0467
826.8582	0.0442
827.0257	0.3609
827.1931	0.0584
827.3605	-0.0082
827.528	0.1682
827.6953	-0.1531
827.8627	-0.0544
828.03	0.1036
828.1974	0.0416
828.3647	0.0794
828.532	0.0801
828.6992	0.1539
828.8665	-0.1488
829.0337	0.1558
829.2009	-0.0161
829.3681	-0.01
829.5352	-0.2595
829.7024	0.1424
829.8695	0.0348
830.0366	0.3446
830.2037	0.2458
830.3707	0.1901
830.5378	0.0644
830.7048	-0.0809
830.8718	0.1467
831.0388	0.1071
831.2057	0.6178
831.3727	-0.0822
831.5396	0.1546
831.7065	-0.938
831.8734	0.3408
832.0402	0.3044
832.2071	-0
832.3739	-0.0019
832.5407	-0
832.7075	-0.3334
832.8742	0.7057
833.041	0.5904
833.2077	0.0692
833.3744	-0.0244
833.541	0.1034
833.7077	-0.2394
833.8743	0.5135
834.0409	0.0774
834.2075	0.0909
834.3741	-0.3066
834.5407	0.1601
834.7072	0.134
834.8737	0.2357
835.0402	0.3709
835.2067	0.0946
835.3731	0.0565
835.5395	-0.036
835.706	-0.2143
835.8723	-0.1144
836.0387	0.1457
836.2051	0.3534
836.3714	-0
836.5377	0.2784
836.704	0.1897
836.8703	-0.0642
837.0365	-0.5634
837.2027	-0.0319
837.3689	0.2534
837.5351	0.6277
837.7013	-0.0991
837.8674	0.2307
838.0335	-0.0897
838.1997	0.1642
838.3657	-0
838.5318	-0.069
838.6978	0.2615
838.8639	-0.1895
839.0299	0.2381
839.1958	1.0865
839.3618	0.0252
839.5277	0.2053
839.6937	-0
839.8596	-0.0884
840.0254	0.1356
840.1913	-0
840.3571	0.3901
840.523	-0
840.6888	-0.1091
840.8545	-0.7098
841.0203	0.3015
841.186	-0.0695
841.3517	-0.2112
841.5174	0.2565
841.6831	0.3216
841.8488	-0.0565
842.0144	0.134
842.18	0.2876
842.3456	0.1578
842.5112	-0
842.6767	0.3716
842.8422	0.1515
843.0077	-0.0644
843.1732	-0.1882
843.3387	0.2638
843.5042	-0
843.6696	0.0991
843.835	0.1453
844.0004	-0.3519
844.1657	-0
844.3311	-0.2808
844.4964	-0
844.6617	0.1147
844.827	-0
844.9923	0.4113
845.1575	-0.2187
845.3227	-0.4198
845.4879	-0.1503
845.6531	0.0465
845.8183	0.0781
845.9834	-0
846.1485	0.8166
846.3136	-0.2928
846.4787	0.2617
846.6438	-0
846.8088	-0
846.9738	-0
847.1388	0.1562
847.3038	-0
847.4687	-0
847.6337	-0.4906
847.7986	-0.3939
847.9635	0.779
848.1284	-0
848.2932	-0
848.458	-0
848.6228	1.3202
848.7876	-0
848.9524	-0.4553
849.1172	-1.8334
849.2819	-0.5361
849.4466	-0
849.6113	0.1189
849.7759	-0
849.9406	-0.2284
850.1052	-0
850.2698	-0
850.4344	-0.3174
850.599	1.0601
850.7635	0.347
850.928	0.2539
851.0925	-0
851.257	0.0395
851.4215	0.38
851.5859	0.0502
851.7503	-0
851.9147	0.0583
852.0791	0.1631
852.2434	0.7179
852.4078	-0
852.5721	-0
852.7364	0.042
852.9007	0.3783
853.0649	-0
853.2291	0.2096
853.3934	0.7054
853.5575	-0
853.7217	0.0785
853.8859	-0
854.05	-0.2832
854.2141	0.3478
854.3782	0.3379
854.5423	0.0763
854.7063	-0.0197
854.8703	-0.0087
855.0343	0.1271
855.1983	0.3495
855.3623	-0.092
855.5262	-0
855.6901	0.1494
855.854	0.0692
856.0179	0.3351
856.1818	-0
856.3456	0.1655
856.5094	-0.4599
856.6732	-0.3355
856.837	-1.2576
857.0008	-0
857.1645	-0.1017
857.3282	-0.6268
857.4919	0.3176
857.6556	0.4158
857.8192	1.3545
857.9828	0.6444
858.1465	-0.2715
858.31	-0
858.4736	-0.8702
858.6372	-0
858.8007	0.1115
858.9642	0.3132
859.1277	-0
859.2911	-0.5613
859.4546	-1.9274
859.618	0.1189
859.7814	-0.178
859.9448	-0
860.1081	-0
860.2715	-0.9108
860.4348	-0
860.5981	0.2734
860.7614	-0
860.9246	-0.0621
861.0879	-0.0129
861.2511	-0
861.4143	-0
861.5774	0.1414
861.7406	-0.1091
861.9037	-0
862.0668	-0
862.2299	-0
862.393	-0
862.556	-0
862.7191	-0.2952
862.8821	0.2143
863.0451	0.505
863.208	-0
863.371	-0
863.5339	0.2905
863.6968	-0
863.8597	-0.5837
864.0225	-0
864.1854	-0
864.3482	-0
864.511	-0.2747
864.6737	0.4993
864.8365	-0.0186
864.9992	-0
865.1619	-0.0565
865.3246	-2.1602
865.4873	0.1202
865.65	-0
865.8126	0.6237
865.9752	0.0736
866.1378	1.1468
866.3004	-0
866.4629	-0.6734
866.6254	-0.2317
866.7879	-0.16
866.9504	-0.6474
867.1129	-0.2297
867.2753	0.0692
867.4377	0.2588
867.6001	-0.6687
867.7625	0.4287
867.9249	-0.316
868.0872	-0.0317
868.2495	-0
868.4118	0.568
868.5741	-0.1364
868.7363	-0.4771
868.8986	-0.7208
869.0608	-0.0068
869.223	-0.546
869.3851	-0.2179
869.5473	0.2162
869.7094	1.0858
869.8715	-0
870.0336	-0.0803
870.1957	-0
870.3577	0.3514
870.5197	0.1591
870.6817	-0.7698
870.8437	0.3206
871.0057	-0
871.1676	0.171
871.3295	-0.14
871.4914	-0
871.6533	0.7755
871.8151	0.7289
871.977	-0.4863
872.1388	-0
872.3006	-0
872.4623	-0
872.6241	-0
872.7858	-0.0914
872.9475	0.5521
873.1092	0.4216
873.2709	-0
873.4325	-1.3396
873.5941	-0.1266
873.7557	-0
873.9173	0.482
874.0789	0.2526
874.2404	-0
874.4019	0.1644
874.5634	-0
874.7249	0.1141
874.8863	-0.3062
875.0478	-0.028
875.2092	0.7126
875.3706	0.1433
875.5319	-0
875.6933	-0.1028
875.8546	-0
876.0159	0.2117
876.1772	-0
876.3385	-0
876.4997	-0
876.6609	-0
876.8221	-0
876.9833	-0.1156
877.1445	0.2897
877.3056	-0.4771
877.4667	-0.9325
877.6278	-0
877.7889	-0.3994
877.9499	-0
878.111	-0.5329
878.272	-0.3091
878.433	-0.0382
878.5939	-0.0828
878.7549	-0.0251
878.9158	0.0463
879.0767	-0
879.2376	-0.0057
879.3984	-0
879.5593	-0
879.7201	-1.4029
879.8809	0.543
880.0417	-0.3349
880.2024	0.7354
880.3632	-0.2736
880.5239	-0.0288
880.6846	-0.5096
880.8452	0.0154
881.0059	-0
881.1665	0.8622
881.3271	0.6517
881.4877	0.7063
881.6483	-0
881.8088	-0
881.9693	-0
882.1298	-0
882.2903	-0
