Data from D4ACN5uM420nmA_Absorbance_14-37-07-436.txt Node
Date: Fri Feb 21 14:37:07 GMT 2025
User: LASERRRRR
Spectrometer: FLMT03099
Trigger mode: 0
Integration Time (sec): 1.500000E-2
Scans to average: 1
Electric dark correction enabled: true
Nonlinearity correction enabled: false
Boxcar width: 0
XAxis mode: Wavelengths
Number of Pixels in Spectrum: 3648
>>>>>Begin Spectral Data<<<<<
179.3399	-0
179.5586	-0
179.7771	-0
179.9957	-0.1677
180.2143	-0
180.4329	0.0763
180.6514	-0
180.8699	0.2746
181.0885	-0.2845
181.307	1.0468
181.5255	0.5579
181.744	-0
181.9625	0.0809
182.181	0.4008
182.3994	-0.5664
182.6179	-0
182.8363	-0
183.0547	0.1292
183.2732	0.0614
183.4916	0.372
183.71	0.1778
183.9284	0.1567
184.1467	0.1076
184.3651	0.1037
184.5835	0.3802
184.8018	0.2995
185.0201	0.0394
185.2385	0.2298
185.4568	0.1526
185.6751	0.1222
185.8934	0.3911
186.1117	0.2764
186.3299	0.1217
186.5482	0.3504
186.7664	0.3818
186.9847	0.0122
187.2029	0.1915
187.4211	0.0909
187.6393	0.035
187.8575	0.3032
188.0757	0.6797
188.2939	0.2521
188.512	0.1852
188.7302	0.2159
188.9483	0.5959
189.1665	0.456
189.3846	0.1877
189.6027	0.1477
189.8208	0.3084
190.0389	0.1417
190.257	0.0988
190.475	0.0972
190.6931	0.0695
190.9111	0.061
191.1292	0.1909
191.3472	0.0787
191.5652	0.2261
191.7832	0.1963
192.0012	0.0769
192.2192	0.1598
192.4371	0.0564
192.6551	0.1139
192.873	0.1701
193.091	0.2757
193.3089	0.2228
193.5268	0.1918
193.7447	0.1739
193.9626	0.1371
194.1805	0.3312
194.3984	0.1818
194.6162	0.2374
194.8341	0.2759
195.0519	0.1917
195.2697	0.2429
195.4875	0.3337
195.7054	0.2626
195.9231	0.2979
196.1409	0.3047
196.3587	0.3532
196.5765	0.2541
196.7942	0.3512
197.012	0.3258
197.2297	0.3231
197.4474	0.359
197.6651	0.2969
197.8828	0.3557
198.1005	0.4418
198.3182	0.3423
198.5358	0.3467
198.7535	0.342
198.9711	0.3355
199.1888	0.3927
199.4064	0.3893
199.624	0.3445
199.8416	0.3871
200.0592	0.3812
200.2767	0.4242
200.4943	0.4491
200.7119	0.3747
200.9294	0.4014
201.1469	0.4387
201.3645	0.4538
201.582	0.3848
201.7995	0.4292
202.017	0.4089
202.2344	0.4134
202.4519	0.4177
202.6694	0.4138
202.8868	0.4016
203.1042	0.3715
203.3217	0.3905
203.5391	0.4235
203.7565	0.3688
203.9739	0.3786
204.1913	0.3583
204.4086	0.3186
204.626	0.361
204.8433	0.3328
205.0607	0.3828
205.278	0.3264
205.4953	0.3256
205.7126	0.3517
205.9299	0.3311
206.1472	0.3309
206.3644	0.3268
206.5817	0.3028
206.7989	0.3394
207.0162	0.3422
207.2334	0.2965
207.4506	0.3133
207.6678	0.3048
207.885	0.3053
208.1022	0.3174
208.3194	0.2891
208.5365	0.3137
208.7537	0.2989
208.9708	0.2856
209.1879	0.2955
209.405	0.269
209.6222	0.2816
209.8392	0.2938
210.0563	0.2978
210.2734	0.2813
210.4905	0.2864
210.7075	0.2742
210.9245	0.2716
211.1416	0.267
211.3586	0.2609
211.5756	0.2493
211.7926	0.2583
212.0096	0.2666
212.2265	0.2619
212.4435	0.2593
212.6604	0.2469
212.8774	0.2487
213.0943	0.247
213.3112	0.2779
213.5281	0.2619
213.745	0.2429
213.9619	0.2549
214.1788	0.2544
214.3956	0.2623
214.6125	0.2529
214.8293	0.2624
215.0461	0.2538
215.2629	0.2596
215.4798	0.2418
215.6965	0.2241
215.9133	0.2496
216.1301	0.2627
216.3469	0.2453
216.5636	0.2491
216.7803	0.2425
216.9971	0.2543
217.2138	0.2645
217.4305	0.2544
217.6472	0.2464
217.8639	0.2447
218.0805	0.2566
218.2972	0.2448
218.5138	0.2571
218.7305	0.263
218.9471	0.2345
219.1637	0.2619
219.3803	0.2523
219.5969	0.2472
219.8135	0.2723
220.0301	0.2528
220.2466	0.2598
220.4632	0.2633
220.6797	0.254
220.8962	0.2632
221.1127	0.2828
221.3292	0.2688
221.5457	0.2794
221.7622	0.2621
221.9787	0.2759
222.1951	0.2733
222.4116	0.2883
222.628	0.2733
222.8444	0.2726
223.0608	0.2744
223.2772	0.2905
223.4936	0.2836
223.71	0.2824
223.9264	0.2879
224.1427	0.2794
224.3591	0.2878
224.5754	0.3027
224.7917	0.2995
225.008	0.2977
225.2243	0.3071
225.4406	0.2942
225.6569	0.3215
225.8732	0.3111
226.0894	0.3026
226.3057	0.3156
226.5219	0.3098
226.7381	0.3198
226.9543	0.3194
227.1705	0.3311
227.3867	0.3263
227.6029	0.3263
227.8191	0.3493
228.0352	0.3563
228.2513	0.3524
228.4675	0.3499
228.6836	0.3455
228.8997	0.3398
229.1158	0.3534
229.3319	0.3675
229.548	0.3559
229.764	0.354
229.9801	0.3647
230.1961	0.3674
230.4121	0.3665
230.6282	0.3857
230.8442	0.388
231.0602	0.3844
231.2761	0.3814
231.4921	0.387
231.7081	0.3979
231.924	0.402
232.14	0.4124
232.3559	0.4138
232.5718	0.4172
232.7877	0.4062
233.0036	0.403
233.2195	0.4143
233.4353	0.419
233.6512	0.416
233.867	0.4213
234.0829	0.4273
234.2987	0.4322
234.5145	0.4318
234.7303	0.4314
234.9461	0.4365
235.1619	0.4404
235.3776	0.45
235.5934	0.4346
235.8091	0.4488
236.0249	0.4491
236.2406	0.4415
236.4563	0.446
236.672	0.448
236.8877	0.4627
237.1034	0.4519
237.319	0.4624
237.5347	0.4591
237.7503	0.4535
237.966	0.474
238.1816	0.4552
238.3972	0.4587
238.6128	0.4678
238.8284	0.47
239.0439	0.459
239.2595	0.4752
239.475	0.4685
239.6906	0.4583
239.9061	0.4715
240.1216	0.4667
240.3371	0.4667
240.5526	0.4678
240.7681	0.4652
240.9836	0.4652
241.199	0.4637
241.4145	0.4527
241.6299	0.4562
241.8453	0.4451
242.0607	0.4336
242.2761	0.441
242.4915	0.4303
242.7069	0.4189
242.9223	0.4226
243.1376	0.4107
243.353	0.4115
243.5683	0.3956
243.7836	0.3942
243.9989	0.3682
244.2142	0.3736
244.4295	0.375
244.6448	0.3686
244.86	0.3589
245.0753	0.3504
245.2905	0.3473
245.5057	0.3339
245.721	0.3309
245.9362	0.3309
246.1514	0.3241
246.3665	0.3136
246.5817	0.3052
246.7969	0.2998
247.012	0.298
247.2271	0.2948
247.4423	0.2862
247.6574	0.2855
247.8725	0.279
248.0876	0.2706
248.3026	0.2755
248.5177	0.2638
248.7328	0.2621
248.9478	0.2539
249.1628	0.2532
249.3779	0.2406
249.5929	0.2452
249.8079	0.2437
250.0228	0.2316
250.2378	0.2335
250.4528	0.2287
250.6677	0.2251
250.8827	0.2275
251.0976	0.2236
251.3125	0.217
251.5274	0.2144
251.7423	0.2091
251.9572	0.2144
252.172	0.2159
252.3869	0.2101
252.6017	0.2051
252.8166	0.2057
253.0314	0.2044
253.2462	0.2021
253.461	0.2065
253.6758	0.198
253.8906	0.1976
254.1053	0.2028
254.3201	0.1994
254.5348	0.1869
254.7496	0.1884
254.9643	0.1937
255.179	0.1936
255.3937	0.1831
255.6083	0.1918
255.823	0.1942
256.0377	0.1863
256.2523	0.1839
256.467	0.1885
256.6816	0.1864
256.8962	0.1857
257.1108	0.1885
257.3254	0.1942
257.54	0.1894
257.7545	0.1881
257.9691	0.182
258.1836	0.1785
258.3981	0.1886
258.6127	0.18
258.8272	0.1805
259.0417	0.1759
259.2561	0.1775
259.4706	0.1803
259.6851	0.1835
259.8995	0.1783
260.114	0.1792
260.3284	0.1742
260.5428	0.1802
260.7572	0.1753
260.9716	0.1836
261.186	0.1832
261.4003	0.1745
261.6147	0.1814
261.829	0.184
262.0433	0.1832
262.2577	0.1877
262.472	0.1824
262.6863	0.1874
262.9005	0.1771
263.1148	0.1829
263.3291	0.1799
263.5433	0.185
263.7576	0.1819
263.9718	0.1863
264.186	0.1807
264.4002	0.1846
264.6144	0.1887
264.8286	0.1867
265.0427	0.1903
265.2569	0.1882
265.471	0.1848
265.6851	0.1872
265.8993	0.1813
266.1134	0.1861
266.3275	0.1811
266.5415	0.187
266.7556	0.1844
266.9697	0.1873
267.1837	0.1864
267.3978	0.1853
267.6118	0.185
267.8258	0.1894
268.0398	0.1887
268.2538	0.1828
268.4677	0.1832
268.6817	0.1803
268.8957	0.1823
269.1096	0.1796
269.3235	0.1766
269.5374	0.1814
269.7514	0.1789
269.9652	0.1771
270.1791	0.1767
270.393	0.1748
270.6068	0.1803
270.8207	0.1762
271.0345	0.1758
271.2483	0.1739
271.4622	0.1783
271.676	0.1716
271.8897	0.1765
272.1035	0.1797
272.3173	0.1742
272.531	0.1794
272.7448	0.1741
272.9585	0.1764
273.1722	0.1731
273.3859	0.171
273.5996	0.1763
273.8133	0.18
274.0269	0.1714
274.2406	0.1814
274.4542	0.1718
274.6679	0.1798
274.8815	0.1795
275.0951	0.1829
275.3087	0.1845
275.5223	0.1791
275.7358	0.1715
275.9494	0.1826
276.1629	0.1818
276.3765	0.1803
276.59	0.1762
276.8035	0.1793
277.017	0.1824
277.2305	0.1797
277.444	0.1834
277.6574	0.1875
277.8709	0.1866
278.0843	0.1827
278.2978	0.1839
278.5112	0.1901
278.7246	0.1838
278.938	0.1812
279.1513	0.1917
279.3647	0.1905
279.5781	0.181
279.7914	0.1843
280.0047	0.1848
280.2181	0.1852
280.4314	0.1864
280.6447	0.1901
280.8579	0.1853
281.0712	0.1925
281.2845	0.1861
281.4977	0.1885
281.711	0.1882
281.9242	0.1895
282.1374	0.1888
282.3506	0.1874
282.5638	0.1842
282.7769	0.1822
282.9901	0.1856
283.2033	0.1844
283.4164	0.184
283.6295	0.1867
283.8426	0.1871
284.0557	0.1985
284.2688	0.1832
284.4819	0.1842
284.695	0.1966
284.908	0.1844
285.1211	0.1865
285.3341	0.1858
285.5471	0.1877
285.7601	0.1888
285.9731	0.1927
286.1861	0.1955
286.3991	0.1943
286.612	0.1932
286.825	0.1936
287.0379	0.1924
287.2508	0.1934
287.4637	0.1959
287.6766	0.192
287.8895	0.1883
288.1024	0.1951
288.3152	0.192
288.5281	0.1922
288.7409	0.1982
288.9538	0.1962
289.1666	0.1947
289.3794	0.1919
289.5922	0.1927
289.8049	0.2004
290.0177	0.1979
290.2304	0.2002
290.4432	0.1993
290.6559	0.195
290.8686	0.2013
291.0813	0.1954
291.294	0.2012
291.5067	0.1912
291.7194	0.1933
291.932	0.1953
292.1447	0.195
292.3573	0.2013
292.5699	0.2035
292.7825	0.1922
292.9951	0.1985
293.2077	0.1935
293.4203	0.1985
293.6328	0.198
293.8454	0.1985
294.0579	0.1946
294.2704	0.2029
294.4829	0.1966
294.6954	0.1982
294.9079	0.1963
295.1204	0.1956
295.3328	0.1989
295.5453	0.1991
295.7577	0.2019
295.9701	0.1988
296.1825	0.2008
296.3949	0.1957
296.6073	0.19
296.8197	0.2005
297.0321	0.1962
297.2444	0.1932
297.4567	0.2021
297.6691	0.1987
297.8814	0.1963
298.0937	0.1974
298.306	0.1958
298.5182	0.1994
298.7305	0.202
298.9428	0.2044
299.155	0.1962
299.3672	0.1963
299.5794	0.2015
299.7916	0.1991
300.0038	0.1974
300.216	0.1982
300.4282	0.201
300.6403	0.2058
300.8525	0.1986
301.0646	0.1987
301.2767	0.2043
301.4888	0.197
301.7009	0.1976
301.913	0.1989
302.125	0.1984
302.3371	0.1992
302.5491	0.1994
302.7612	0.2015
302.9732	0.2026
303.1852	0.1981
303.3972	0.1965
303.6092	0.1961
303.8211	0.1954
304.0331	0.1963
304.245	0.1948
304.457	0.1906
304.6689	0.1968
304.8808	0.1877
305.0927	0.1995
305.3046	0.1922
305.5164	0.1906
305.7283	0.1878
305.9401	0.1841
306.152	0.1838
306.3638	0.1858
306.5756	0.1908
306.7874	0.179
306.9992	0.181
307.2109	0.1792
307.4227	0.1783
307.6344	0.1815
307.8462	0.1778
308.0579	0.1811
308.2696	0.1707
308.4813	0.1748
308.693	0.1643
308.9046	0.172
309.1163	0.1673
309.328	0.163
309.5396	0.1608
309.7512	0.1591
309.9628	0.1603
310.1744	0.1534
310.386	0.157
310.5976	0.1538
310.8091	0.1554
311.0207	0.1525
311.2322	0.1484
311.4437	0.1458
311.6552	0.1517
311.8667	0.1502
312.0782	0.1471
312.2897	0.1512
312.5012	0.1409
312.7126	0.1427
312.924	0.1403
313.1355	0.1405
313.3469	0.1385
313.5583	0.1357
313.7696	0.1354
313.981	0.141
314.1924	0.1405
314.4037	0.1343
314.6151	0.1344
314.8264	0.1437
315.0377	0.1402
315.249	0.1429
315.4603	0.1252
315.6716	0.1346
315.8828	0.1345
316.0941	0.1329
316.3053	0.1246
316.5165	0.1324
316.7277	0.1333
316.9389	0.1398
317.1501	0.1342
317.3613	0.1285
317.5724	0.1334
317.7836	0.1283
317.9947	0.1252
318.2058	0.1292
318.417	0.1295
318.6281	0.1285
318.8391	0.1284
319.0502	0.1307
319.2613	0.1268
319.4723	0.1258
319.6834	0.1327
319.8944	0.1285
320.1054	0.1306
320.3164	0.1257
320.5274	0.128
320.7383	0.1335
320.9493	0.1239
321.1602	0.1273
321.3712	0.1332
321.5821	0.1257
321.793	0.1324
322.0039	0.129
322.2148	0.13
322.4257	0.1239
322.6365	0.1241
322.8474	0.1341
323.0582	0.1271
323.269	0.1283
323.4798	0.1275
323.6906	0.1244
323.9014	0.122
324.1122	0.1229
324.3229	0.1298
324.5337	0.1333
324.7444	0.1327
324.9551	0.1296
325.1658	0.1325
325.3765	0.1425
325.5872	0.1335
325.7979	0.1334
326.0085	0.1248
326.2192	0.126
326.4298	0.1371
326.6404	0.1363
326.851	0.1321
327.0616	0.1357
327.2722	0.1328
327.4828	0.1332
327.6933	0.145
327.9039	0.1315
328.1144	0.1297
328.3249	0.1393
328.5354	0.136
328.7459	0.1319
328.9564	0.1386
329.1669	0.1404
329.3773	0.1344
329.5878	0.1338
329.7982	0.1407
330.0086	0.1406
330.219	0.1389
330.4294	0.1423
330.6398	0.1373
330.8502	0.1407
331.0605	0.1382
331.2708	0.1322
331.4812	0.1414
331.6915	0.1432
331.9018	0.1395
332.1121	0.1501
332.3224	0.1374
332.5326	0.1364
332.7429	0.1402
332.9531	0.1467
333.1633	0.1352
333.3735	0.1416
333.5837	0.141
333.7939	0.1355
334.0041	0.1435
334.2143	0.1373
334.4244	0.1459
334.6346	0.138
334.8447	0.1443
335.0548	0.147
335.2649	0.1396
335.475	0.1407
335.685	0.1442
335.8951	0.1431
336.1051	0.1447
336.3152	0.1419
336.5252	0.1434
336.7352	0.1374
336.9452	0.1458
337.1552	0.1454
337.3652	0.1434
337.5751	0.1467
337.7851	0.1462
337.995	0.1458
338.2049	0.1442
338.4148	0.1447
338.6247	0.1459
338.8346	0.1485
339.0445	0.1402
339.2543	0.1508
339.4642	0.1483
339.674	0.1387
339.8838	0.1452
340.0936	0.1455
340.3034	0.1493
340.5132	0.1429
340.7229	0.1491
340.9327	0.1593
341.1424	0.152
341.3522	0.1448
341.5619	0.1519
341.7716	0.152
341.9813	0.1516
342.1909	0.1549
342.4006	0.1546
342.6102	0.1559
342.8199	0.151
343.0295	0.1528
343.2391	0.1577
343.4487	0.1587
343.6583	0.157
343.8679	0.1586
344.0774	0.1568
344.287	0.1555
344.4965	0.1595
344.706	0.1561
344.9155	0.1562
345.125	0.1622
345.3345	0.165
345.544	0.1658
345.7534	0.1636
345.9629	0.1588
346.1723	0.1688
346.3817	0.163
346.5911	0.1638
346.8005	0.1721
347.0099	0.1708
347.2193	0.173
347.4286	0.1764
347.638	0.1678
347.8473	0.1793
348.0566	0.1717
348.2659	0.171
348.4752	0.1711
348.6845	0.1783
348.8937	0.1726
349.103	0.1729
349.3122	0.1758
349.5214	0.1717
349.7306	0.1827
349.9398	0.1735
350.149	0.1798
350.3582	0.1772
350.5674	0.1765
350.7765	0.1774
350.9856	0.1817
351.1948	0.1791
351.4039	0.1771
351.613	0.1852
351.822	0.1887
352.0311	0.1894
352.2402	0.1876
352.4492	0.1831
352.6582	0.1846
352.8672	0.1858
353.0762	0.1905
353.2852	0.1865
353.4942	0.1889
353.7032	0.1835
353.9121	0.1865
354.1211	0.1865
354.33	0.1877
354.5389	0.1833
354.7478	0.1919
354.9567	0.189
355.1655	0.1986
355.3744	0.1829
355.5833	0.1934
355.7921	0.1942
356.0009	0.1915
356.2097	0.1836
356.4185	0.196
356.6273	0.1916
356.8361	0.1937
357.0448	0.2002
357.2536	0.1889
357.4623	0.1944
357.671	0.1966
357.8797	0.2021
358.0884	0.1942
358.2971	0.1925
358.5057	0.2054
358.7144	0.2035
358.923	0.206
359.1316	0.202
359.3402	0.2084
359.5488	0.2008
359.7574	0.2151
359.966	0.2054
360.1746	0.2021
360.3831	0.2138
360.5916	0.2096
360.8002	0.211
361.0087	0.2168
361.2172	0.2205
361.4256	0.2158
361.6341	0.2196
361.8426	0.2181
362.051	0.2168
362.2594	0.2146
362.4678	0.219
362.6762	0.2225
362.8846	0.2189
363.093	0.2228
363.3014	0.2266
363.5097	0.22
363.718	0.2289
363.9264	0.2306
364.1347	0.2225
364.343	0.2271
364.5513	0.2286
364.7595	0.234
364.9678	0.2275
365.176	0.2367
365.3842	0.2394
365.5925	0.2303
365.8007	0.2306
366.0089	0.2362
366.217	0.236
366.4252	0.2341
366.6333	0.2432
366.8415	0.2521
367.0496	0.2449
367.2577	0.2436
367.4658	0.2431
367.6739	0.2365
367.882	0.2404
368.09	0.2474
368.2981	0.2499
368.5061	0.2514
368.7141	0.2439
368.9221	0.2547
369.1301	0.2514
369.3381	0.258
369.5461	0.2597
369.754	0.2458
369.962	0.2455
370.1699	0.2553
370.3778	0.2737
370.5857	0.2553
370.7936	0.2577
371.0015	0.2582
371.2093	0.2541
371.4172	0.2559
371.625	0.2503
371.8328	0.2572
372.0406	0.2757
372.2484	0.2611
372.4562	0.2721
372.664	0.2612
372.8717	0.265
373.0795	0.2717
373.2872	0.2773
373.4949	0.274
373.7026	0.2616
373.9103	0.2614
374.118	0.2707
374.3256	0.2747
374.5333	0.2679
374.7409	0.2768
374.9485	0.2797
375.1561	0.2772
375.3637	0.2757
375.5713	0.2842
375.7789	0.2726
375.9864	0.2864
376.194	0.2872
376.4015	0.2859
376.609	0.2757
376.8165	0.2835
377.024	0.2829
377.2315	0.2851
377.4389	0.2796
377.6464	0.2854
377.8538	0.2858
378.0612	0.2894
378.2686	0.2807
378.476	0.2976
378.6834	0.2885
378.8908	0.2955
379.0981	0.2885
379.3055	0.2903
379.5128	0.2872
379.7201	0.2909
379.9274	0.2938
380.1347	0.2929
380.342	0.3025
380.5492	0.2921
380.7565	0.2946
380.9637	0.289
381.1709	0.302
381.3781	0.3042
381.5853	0.3002
381.7925	0.2989
381.9997	0.2998
382.2068	0.3036
382.4139	0.3007
382.6211	0.3054
382.8282	0.3093
383.0353	0.3126
383.2424	0.3019
383.4494	0.3029
383.6565	0.3017
383.8635	0.295
384.0706	0.3031
384.2776	0.3103
384.4846	0.3151
384.6916	0.3046
384.8986	0.3079
385.1055	0.3176
385.3125	0.3132
385.5194	0.3052
385.7263	0.2994
385.9333	0.3134
386.1402	0.3092
386.347	0.3094
386.5539	0.3029
386.7608	0.312
386.9676	0.3009
387.1744	0.3048
387.3813	0.3277
387.5881	0.2955
387.7948	0.3145
388.0016	0.3236
388.2084	0.3078
388.4151	0.3113
388.6219	0.2962
388.8286	0.3082
389.0353	0.3087
389.242	0.3011
389.4487	0.2956
389.6553	0.2959
389.862	0.3014
390.0686	0.3048
390.2753	0.302
390.4819	0.3044
390.6885	0.2917
390.8951	0.2985
391.1016	0.2987
391.3082	0.3067
391.5147	0.2886
391.7213	0.288
391.9278	0.2959
392.1343	0.2976
392.3408	0.2967
392.5473	0.2981
392.7537	0.2855
392.9602	0.2817
393.1666	0.2837
393.373	0.2781
393.5794	0.2913
393.7858	0.2867
393.9922	0.2861
394.1986	0.2775
394.4049	0.2883
394.6113	0.2793
394.8176	0.2768
395.0239	0.2775
395.2302	0.2773
395.4365	0.2771
395.6428	0.2734
395.8491	0.2735
396.0553	0.2698
396.2615	0.2805
396.4678	0.2718
396.674	0.2647
396.8802	0.2656
397.0863	0.264
397.2925	0.2671
397.4987	0.2709
397.7048	0.2689
397.9109	0.2631
398.117	0.2619
398.3231	0.2652
398.5292	0.2574
398.7353	0.2711
398.9413	0.2578
399.1474	0.2655
399.3534	0.2627
399.5594	0.2681
399.7654	0.2612
399.9714	0.2505
400.1774	0.2617
400.3833	0.2686
400.5893	0.2644
400.7952	0.2782
401.0011	0.2591
401.207	0.2627
401.4129	0.2673
401.6188	0.2584
401.8247	0.2691
402.0305	0.2601
402.2364	0.2654
402.4422	0.2624
402.648	0.2659
402.8538	0.2667
403.0596	0.2612
403.2654	0.267
403.4711	0.2527
403.6768	0.2519
403.8826	0.2708
404.0883	0.2624
404.294	0.2577
404.4997	0.2606
404.7054	0.2701
404.911	0.2588
405.1167	0.2683
405.3223	0.2561
405.5279	0.268
405.7335	0.2625
405.9391	0.2537
406.1447	0.2618
406.3502	0.2576
406.5558	0.2628
406.7613	0.2623
406.9668	0.2588
407.1724	0.2536
407.3778	0.2616
407.5833	0.2502
407.7888	0.2642
407.9942	0.263
408.1997	0.2617
408.4051	0.2625
408.6105	0.2707
408.8159	0.2533
409.0213	0.2636
409.2267	0.2687
409.432	0.2574
409.6374	0.2707
409.8427	0.2643
410.048	0.2627
410.2533	0.2664
410.4586	0.2514
410.6639	0.2669
410.8691	0.2545
411.0744	0.2612
411.2796	0.2549
411.4848	0.2517
411.69	0.2495
411.8952	0.2599
412.1004	0.264
412.3056	0.2592
412.5107	0.2579
412.7158	0.2738
412.921	0.2546
413.1261	0.2651
413.3312	0.2592
413.5362	0.2668
413.7413	0.2678
413.9464	0.2555
414.1514	0.2545
414.3564	0.2516
414.5614	0.2616
414.7664	0.2461
414.9714	0.2549
415.1764	0.2664
415.3813	0.2548
415.5863	0.2721
415.7912	0.249
415.9961	0.245
416.201	0.2568
416.4059	0.2465
416.6108	0.2477
416.8156	0.2504
417.0205	0.245
417.2253	0.2581
417.4301	0.25
417.6349	0.245
417.8397	0.2496
418.0445	0.2643
418.2492	0.2518
418.454	0.2474
418.6587	0.2502
418.8634	0.2609
419.0681	0.2574
419.2728	0.2541
419.4775	0.2489
419.6822	0.2434
419.8868	0.2372
420.0915	0.2447
420.2961	0.2382
420.5007	0.2412
420.7053	0.2442
420.9099	0.2377
421.1144	0.2401
421.319	0.2321
421.5235	0.2309
421.728	0.2419
421.9325	0.2435
422.137	0.2388
422.3415	0.2368
422.546	0.2311
422.7504	0.2312
422.9549	0.2377
423.1593	0.2293
423.3637	0.2337
423.5681	0.2265
423.7725	0.2372
423.9769	0.2397
424.1812	0.2254
424.3856	0.2252
424.5899	0.2278
424.7942	0.2246
424.9985	0.2205
425.2028	0.2327
425.4071	0.2306
425.6113	0.2247
425.8156	0.2238
426.0198	0.2279
426.224	0.2229
426.4282	0.2204
426.6324	0.2181
426.8366	0.2112
427.0407	0.2218
427.2449	0.2119
427.449	0.2142
427.6531	0.2209
427.8572	0.2163
428.0613	0.2165
428.2654	0.2201
428.4694	0.1988
428.6735	0.2024
428.8775	0.2003
429.0815	0.2023
429.2855	0.203
429.4895	0.1979
429.6935	0.1958
429.8975	0.1926
430.1014	0.1966
430.3053	0.2008
430.5093	0.1916
430.7132	0.1912
430.9171	0.1928
431.1209	0.1924
431.3248	0.1798
431.5286	0.1772
431.7325	0.1982
431.9363	0.1886
432.1401	0.1819
432.3439	0.1821
432.5477	0.1743
432.7514	0.1725
432.9552	0.17
433.1589	0.1685
433.3627	0.1726
433.5664	0.1629
433.7701	0.1665
433.9737	0.1726
434.1774	0.1658
434.3811	0.1581
434.5847	0.1634
434.7883	0.1598
434.9919	0.1496
435.1955	0.1588
435.3991	0.1604
435.6027	0.1525
435.8062	0.1617
436.0098	0.1499
436.2133	0.1471
436.4168	0.1484
436.6203	0.1398
436.8238	0.1361
437.0272	0.1441
437.2307	0.1395
437.4341	0.1383
437.6375	0.1441
437.841	0.1328
438.0443	0.1354
438.2477	0.1249
438.4511	0.1255
438.6545	0.1302
438.8578	0.1268
439.0611	0.1318
439.2644	0.1316
439.4677	0.1238
439.671	0.1137
439.8743	0.1248
440.0775	0.1136
440.2808	0.1189
440.484	0.1059
440.6872	0.1161
440.8904	0.1023
441.0936	0.1127
441.2967	0.0999
441.4999	0.0989
441.703	0.1006
441.9062	0.1085
442.1093	0.1238
442.3124	0.0988
442.5155	0.0968
442.7185	0.0957
442.9216	0.0997
443.1246	0.0959
443.3276	0.0906
443.5307	0.0912
443.7337	0.092
443.9366	0.0858
444.1396	0.0791
444.3426	0.089
444.5455	0.0811
444.7484	0.0807
444.9513	0.0843
445.1542	0.0723
445.3571	0.0883
445.56	0.0725
445.7628	0.0782
445.9657	0.0811
446.1685	0.0857
446.3713	0.0782
446.5741	0.0764
446.7769	0.0778
446.9797	0.0683
447.1824	0.0724
447.3852	0.051
447.5879	0.0667
447.7906	0.0585
447.9933	0.0593
448.196	0.0578
448.3986	0.0594
448.6013	0.0545
448.8039	0.069
449.0066	0.0675
449.2092	0.0588
449.4118	0.0578
449.6143	0.0637
449.8169	0.0527
450.0195	0.0489
450.222	0.0535
450.4245	0.0581
450.627	0.0468
450.8295	0.0417
451.032	0.0478
451.2345	0.0463
451.4369	0.0519
451.6394	0.0486
451.8418	0.0477
452.0442	0.0397
452.2466	0.0386
452.449	0.0445
452.6513	0.0422
452.8537	0.04
453.056	0.0422
453.2583	0.043
453.4607	0.0392
453.663	0.0394
453.8652	0.0295
454.0675	0.0453
454.2697	0.0318
454.472	0.0335
454.6742	0.0392
454.8764	0.0367
455.0786	0.031
455.2808	0.035
455.4829	0.0352
455.6851	0.0357
455.8872	0.0328
456.0893	0.0374
456.2915	0.0234
456.4935	0.0443
456.6956	0.0278
456.8977	0.0271
457.0997	0.0362
457.3018	0.0195
457.5038	0.0302
457.7058	0.0312
457.9078	0.0335
458.1098	0.0308
458.3117	0.0322
458.5137	0.0191
458.7156	0.0268
458.9175	0.0327
459.1194	0.0305
459.3213	0.0275
459.5232	0.0291
459.725	0.0204
459.9269	0.0297
460.1287	0.0315
460.3305	0.0309
460.5323	0.0216
460.7341	0.0179
460.9359	0.0247
461.1376	0.0289
461.3394	0.0246
461.5411	0.0291
461.7428	0.0291
461.9445	0.0189
462.1462	0.019
462.3479	0.0207
462.5495	0.0246
462.7512	0.0293
462.9528	0.0164
463.1544	0.0189
463.356	0.022
463.5576	0.0291
463.7592	0.0188
463.9607	0.0123
464.1623	0.0159
464.3638	0.0082
464.5653	0.0205
464.7668	0.0177
464.9683	0.0178
465.1697	0.0252
465.3712	0.0102
465.5726	0.0153
465.7741	0.0158
465.9755	0.0143
466.1769	0.0094
466.3782	0.0142
466.5796	0.0196
466.7809	0.0232
466.9823	0.0181
467.1836	0.0236
467.3849	0.0143
467.5862	0.0099
467.7875	0.0073
467.9887	0.0251
468.19	0.0207
468.3912	0.0261
468.5924	0.0172
468.7936	0.0115
468.9948	0.0108
469.196	0.0148
469.3972	0.0098
469.5983	0.0145
469.7994	0.0149
470.0006	0.013
470.2017	0.0099
470.4027	0.0236
470.6038	0.0106
470.8049	0.0102
471.0059	0.0179
471.2069	0.0131
471.408	0.0201
471.6089	0.0218
471.8099	0.0121
472.0109	0.0134
472.2119	0.0275
472.4128	0.0145
472.6137	0.0138
472.8146	0.0071
473.0155	0.0244
473.2164	0.0083
473.4173	0.0087
473.6181	0.0064
473.819	0.0117
474.0198	0.0073
474.2206	0.0085
474.4214	0.0097
474.6222	0.0011
474.8229	0.0101
475.0237	0.0208
475.2244	0.0176
475.4251	0.0103
475.6258	0.0013
475.8265	0.0118
476.0272	0.008
476.2278	0.0134
476.4285	0.0126
476.6291	0.0083
476.8297	0.0133
477.0303	0.0026
477.2309	0.0128
477.4315	0.0085
477.632	0.0021
477.8326	0.0129
478.0331	0.0184
478.2336	0.0079
478.4341	0.0112
478.6346	0.0057
478.8351	0.0128
479.0355	0.0221
479.236	0.0169
479.4364	0.0158
479.6368	0.0085
479.8372	0.0072
480.0376	0.0134
480.2379	0.0154
480.4383	0.0201
480.6386	0.007
480.8389	0.0168
481.0392	0.0116
481.2395	0.0185
481.4398	0.0104
481.6401	0.0183
481.8403	0.0081
482.0405	0.0146
482.2408	0.0093
482.441	0.0141
482.6411	0.0136
482.8413	0.0119
483.0415	0.0213
483.2416	0.0069
483.4417	0.0148
483.6419	0.01
483.8419	0.0125
484.042	0.0127
484.2421	0.0025
484.4422	0.0081
484.6422	0.0072
484.8422	0.0107
485.0422	0.0044
485.2422	0.0093
485.4422	0.0085
485.6422	0.0094
485.8421	0.0069
486.042	0.0183
486.242	0.0048
486.4419	0.0122
486.6417	0.0071
486.8416	0.012
487.0415	0.0052
487.2413	0.0046
487.4411	0.0133
487.641	0.0079
487.8408	0.0102
488.0405	0.0133
488.2403	0.0134
488.4401	0.0121
488.6398	0.0117
488.8395	0.015
489.0392	0.0149
489.2389	0.0132
489.4386	-0.0037
489.6383	0.0102
489.8379	0.0009
490.0376	0.0099
490.2372	0.0023
490.4368	0.0018
490.6364	-0.0008
490.836	0.0053
491.0355	0.0057
491.2351	0.0093
491.4346	0.0137
491.6341	0.0101
491.8336	0.0197
492.0331	0.0096
492.2326	0.0083
492.432	0.0135
492.6315	0.0163
492.8309	0.0157
493.0303	0.008
493.2297	0.0135
493.4291	0.0138
493.6284	0.0179
493.8278	0.0083
494.0271	0.0079
494.2264	0.0016
494.4257	0.0109
494.625	0.0094
494.8243	0.0013
495.0236	0.0051
495.2228	0.0118
495.422	0.0108
495.6213	0.014
495.8205	0.0155
496.0196	0.0132
496.2188	0.0086
496.418	0.018
496.6171	0.0057
496.8162	0.0095
497.0153	0.0121
497.2144	0.014
497.4135	0.0036
497.6126	0.0125
497.8116	0.0165
498.0107	0.0094
498.2097	0.0127
498.4087	0.0168
498.6077	-0.0051
498.8067	0.0083
499.0056	0.0052
499.2046	0.0158
499.4035	0.0096
499.6024	0.0018
499.8013	0.0102
500.0002	0.0166
500.199	0.0155
500.3979	0.0031
500.5967	0.0104
500.7956	0.0167
500.9944	0.0086
501.1932	0.0085
501.3919	0.0167
501.5907	0.0136
501.7895	0.0085
501.9882	0.0128
502.1869	0.0186
502.3856	0.0036
502.5843	0.0161
502.783	0.0078
502.9816	0.0162
503.1803	0.0155
503.3789	0.0191
503.5775	0.006
503.7761	0.0045
503.9747	0.0145
504.1732	0.0049
504.3718	0.0215
504.5703	0.013
504.7689	0.0055
504.9674	0.0096
505.1658	0.0078
505.3643	0.0208
505.5628	0.008
505.7612	0.0162
505.9597	0.0015
506.1581	0.011
506.3565	0.0135
506.5549	0.0079
506.7532	0.0063
506.9516	0.0112
507.1499	0.0085
507.3482	0.0087
507.5465	0.0157
507.7448	0.0095
507.9431	0.0208
508.1414	0.0069
508.3396	0.0119
508.5379	0.0072
508.7361	0.0109
508.9343	0.0199
509.1325	0.0173
509.3306	0.01
509.5288	-0.0028
509.7269	0.0137
509.9251	0.0119
510.1232	0.0135
510.3213	0.0096
510.5193	0.01
510.7174	0.0055
510.9154	0.0144
511.1135	0.0023
511.3115	0.0113
511.5095	0.0132
511.7075	0.006
511.9055	0.01
512.1034	0.0071
512.3014	0.0102
512.4993	0.0082
512.6972	0.0137
512.8951	0.014
513.093	0.0044
513.2908	0.0212
513.4887	0.0096
513.6865	0.0114
513.8844	0.0166
514.0822	0.007
514.2799	0.0004
514.4777	0.0017
514.6755	0.0153
514.8732	0.0015
515.0709	0.0154
515.2687	0.0127
515.4664	0.018
515.664	0.0095
515.8617	0.0148
516.0594	0.0182
516.257	0.0115
516.4546	0.0241
516.6522	0.015
516.8498	0.0064
517.0474	0.0089
517.2449	0.001
517.4425	0.0107
517.64	0.0223
517.8375	0.0167
518.035	0.0034
518.2325	0.0041
518.43	0.0144
518.6274	0.004
518.8249	0.0116
519.0223	0.0183
519.2197	0.0142
519.4171	0.0022
519.6145	0.0164
519.8118	0.0095
520.0092	0.0093
520.2065	0.023
520.4038	0.0132
520.6011	0.0113
520.7984	0.0225
520.9956	0.0174
521.1929	0.0159
521.3901	0.0076
521.5874	0.0169
521.7846	0.0146
521.9818	0.0154
522.1789	0.0047
522.3761	0.0269
522.5732	0.0033
522.7704	-0.0031
522.9675	0.0041
523.1646	0.0099
523.3617	0.0162
523.5587	0.0074
523.7558	0.0087
523.9528	0.0122
524.1498	0.0084
524.3468	0.0074
524.5438	0.0016
524.7408	0.0027
524.9378	0.0209
525.1347	0.0159
525.3316	0.0118
525.5285	0.0106
525.7254	0.0135
525.9223	0.012
526.1192	0.0166
526.316	0.02
526.5129	0.0068
526.7097	0.0053
526.9065	0.0225
527.1033	0.0064
527.3	0.0028
527.4968	0.0118
527.6935	0.0125
527.8903	0.0143
528.087	0.0061
528.2837	0.0149
528.4804	0.003
528.677	0.0065
528.8737	0.0053
529.0703	0.0078
529.2669	0.0112
529.4635	0.008
529.6601	0.0079
529.8567	-0.0003
530.0532	0.0113
530.2498	0.0064
530.4463	0.0024
530.6428	0.0135
530.8393	0.0138
531.0358	0.0116
531.2322	0.0044
531.4287	0.0107
531.6251	0.0019
531.8215	0.0152
532.0179	0.0142
532.2143	0.014
532.4107	0.0108
532.607	-0.0005
532.8034	0.0066
532.9997	0.0058
533.196	0.0071
533.3923	0.0204
533.5886	0.0162
533.7848	0.0089
533.9811	0.017
534.1773	0.0155
534.3735	0.0192
534.5697	0.0054
534.7659	0.0132
534.9621	0.0132
535.1582	0.0066
535.3544	0.0111
535.5505	0.0088
535.7466	0.0126
535.9427	0.0185
536.1387	0.005
536.3348	0.0165
536.5308	-0.0007
536.7269	0.0012
536.9229	0.0061
537.1189	0.0148
537.3148	0.0083
537.5108	0.0137
537.7068	0.0132
537.9027	-0.0056
538.0986	0.0138
538.2945	-0.0013
538.4904	0.0037
538.6863	0.0127
538.8821	0.0088
539.078	0.0128
539.2738	0.0174
539.4696	0.0073
539.6654	0.0142
539.8611	0.0096
540.0569	0.0023
540.2526	0.0186
540.4484	-0.0026
540.6441	0.0006
540.8398	0.0264
541.0355	0.0134
541.2311	0.0027
541.4268	0.013
541.6224	0.0095
541.818	0.0208
542.0136	0.0046
542.2092	0.0145
542.4048	0.007
542.6003	0.0077
542.7959	0.0177
542.9914	0.0117
543.1869	-0.0008
543.3824	0.0109
543.5779	0.0206
543.7734	0.0178
543.9688	0.0132
544.1642	0.0023
544.3596	0.0132
544.555	0.0096
544.7504	0.0112
544.9458	0.0124
545.1411	0.0075
545.3365	0.0173
545.5318	0.0159
545.7271	0.0092
545.9224	0.0031
546.1177	0.0176
546.3129	-0.0001
546.5081	0.0041
546.7034	0.0115
546.8986	0.0015
547.0938	0.0112
547.289	0.0161
547.4841	0.0041
547.6793	0.0176
547.8744	0.0079
548.0695	0.0033
548.2646	0.0125
548.4597	0.005
548.6548	0.0098
548.8498	0.0149
549.0448	0.0058
549.2399	0.0211
549.4349	0.0178
549.6298	0.0108
549.8248	0.0115
550.0198	0.0158
550.2147	0.0173
550.4096	0.0012
550.6045	0.0155
550.7994	0.0212
550.9943	0.0189
551.1892	-0.0083
551.384	0.0129
551.5788	0.017
551.7737	0.0261
551.9685	0.011
552.1632	0.0141
552.358	0.0131
552.5528	0.0093
552.7475	0.0093
552.9422	0.0228
553.1369	0.0129
553.3316	0.0163
553.5263	0.0195
553.7209	0.0086
553.9156	0.0035
554.1102	0.0051
554.3048	0.0116
554.4994	0.007
554.694	0.0197
554.8885	0.0139
555.0831	0.0226
555.2776	0.0119
555.4721	0.0135
555.6666	0.0149
555.8611	0.0074
556.0555	0.012
556.25	0.0217
556.4444	-0.0033
556.6388	0.0024
556.8332	0.0179
557.0276	0.0109
557.222	0.0001
557.4163	0.0162
557.6107	0.0136
557.805	0.0068
557.9993	0.0193
558.1936	-0.0012
558.3879	0.0091
558.5821	-0.0096
558.7764	-0.0006
558.9706	0.0091
559.1648	0.0077
559.359	0.004
559.5532	-0.0022
559.7473	0.0072
559.9415	0.0117
560.1356	0.0249
560.3297	0.0012
560.5238	0.0142
560.7179	0.0067
560.9119	0.0081
561.106	0.0077
561.3	0.0138
561.494	-0.0081
561.688	0.0016
561.882	0.0115
562.076	0.0053
562.2699	0.0126
562.4639	0.0147
562.6578	0.0226
562.8517	0.0106
563.0456	0.0164
563.2395	0.0146
563.4333	0.0172
563.6272	0.0096
563.821	0.0125
564.0148	0.008
564.2086	0.0115
564.4024	0.0218
564.5961	0.0071
564.7899	0.0164
564.9836	0.0039
565.1773	0.0151
565.371	0.0107
565.5647	0.0116
565.7584	0.0167
565.952	0.0115
566.1456	0.0019
566.3393	0.0059
566.5329	0.0082
566.7264	0.0101
566.92	0.0087
567.1136	0.0107
567.3071	0.0023
567.5006	0.0154
567.6941	0.0163
567.8876	0.0031
568.0811	0.0198
568.2745	0.0072
568.468	0.0123
568.6614	0.0133
568.8548	0.0075
569.0482	0.01
569.2416	0.0122
569.4349	0.0132
569.6283	0.002
569.8216	0.011
570.0149	0.0092
570.2082	0.0132
570.4015	0.0079
570.5947	0.0107
570.788	0.0107
570.9812	0.006
571.1744	0.0075
571.3676	0.0061
571.5608	0.0065
571.754	0.0118
571.9471	0.0095
572.1402	0.0089
572.3333	0.0126
572.5264	0.0132
572.7195	0.0084
572.9126	0.0029
573.1057	0.0103
573.2987	0.0043
573.4917	0.0089
573.6847	0.008
573.8777	0.0127
574.0707	0.0077
574.2636	0.0101
574.4566	0.0066
574.6495	0.0077
574.8424	0.0129
575.0353	0.0086
575.2281	0.0109
575.421	0.01
575.6138	0.0083
575.8067	0.0095
575.9995	0.0076
576.1923	0.0079
576.385	0.0071
576.5778	0.0093
576.7706	0.0104
576.9633	0.0098
577.156	0.0049
577.3487	0.0073
577.5414	0.0038
577.734	0.0075
577.9267	0.009
578.1193	0.0101
578.3119	0.0069
578.5045	0.0111
578.6971	0.0055
578.8897	0.0082
579.0822	0.0163
579.2747	0.009
579.4673	0.0109
579.6598	0.0115
579.8522	0.0073
580.0447	0.0054
580.2372	0.0126
580.4296	0.0118
580.622	0.0065
580.8144	0.0081
581.0068	0.0105
581.1992	0.0058
581.3915	0.0005
581.5839	0.0085
581.7762	0.0095
581.9685	0.0084
582.1608	0.0086
582.353	0.0059
582.5453	0.0112
582.7375	0.0105
582.9298	0.0048
583.122	0.0115
583.3142	0.0154
583.5063	0.0087
583.6985	0.0062
583.8906	0.0052
584.0827	0.0111
584.2749	0.0058
584.4669	0.0104
584.659	0.0108
584.8511	0.0122
585.0431	0.0122
585.2352	0.0072
585.4272	0.0137
585.6192	0.0092
585.8111	0.0051
586.0031	0.0029
586.195	0.0065
586.387	0.0041
586.5789	0.0097
586.7708	0.0123
586.9627	0.0092
587.1545	0.0092
587.3464	0.0093
587.5382	0.005
587.73	0.0148
587.9218	0.0028
588.1136	0.0057
588.3053	0.0075
588.4971	0.0108
588.6888	0.0085
588.8805	0.0089
589.0722	0.0159
589.2639	0.0071
589.4556	0.0119
589.6472	0.014
589.8389	0.0078
590.0305	0.0074
590.2221	0.0079
590.4137	0.0077
590.6052	0.008
590.7968	0.0094
590.9883	0.0057
591.1798	0.01
591.3713	0.0084
591.5628	0.0101
591.7543	0.0107
591.9458	0.0062
592.1372	0.0087
592.3286	0.0112
592.52	0.01
592.7114	0.0077
592.9028	0.0141
593.0941	0.0109
593.2855	0.0084
593.4768	0.0114
593.6681	0.0145
593.8594	0.0074
594.0506	0.0061
594.2419	0.0076
594.4331	0.0121
594.6244	0.0072
594.8156	0.0065
595.0067	0.0061
595.1979	0.0036
595.3891	0.0108
595.5802	0.0129
595.7713	0.0114
595.9624	0.0146
596.1535	0.0046
596.3446	0.0084
596.5357	0.0117
596.7267	0.0072
596.9177	0.0031
597.1087	0.005
597.2997	0.0101
597.4907	0.0042
597.6817	0.0112
597.8726	0.0152
598.0635	0.0058
598.2544	0.0145
598.4453	0.0111
598.6362	0.0091
598.827	0.0063
599.0179	0.0114
599.2087	0.0165
599.3995	0.0094
599.5903	0.0142
599.7811	0.0129
599.9718	0.0034
600.1626	0.0045
600.3533	0.0071
600.544	0.0096
600.7347	0.0109
600.9254	0.0146
601.116	0.0097
601.3067	0.0078
601.4973	0.0129
601.6879	0.0073
601.8785	0.0131
602.0691	0.0058
602.2596	0.0083
602.4502	0.0158
602.6407	0.0073
602.8312	0.0092
603.0217	0.0066
603.2122	0.0065
603.4027	0.0108
603.5931	0.0061
603.7835	0.0089
603.9739	0.0051
604.1643	0.013
604.3547	0.0068
604.5451	0.0128
604.7354	-0.0021
604.9257	0.0103
605.116	0.003
605.3063	0.0091
605.4966	0.0063
605.6869	0.0146
605.8771	0.009
606.0673	0.0106
606.2575	0.0073
606.4477	0.0159
606.6379	0.0067
606.8281	0.0052
607.0182	0.0135
607.2083	0.0144
607.3985	0.0041
607.5885	0.0053
607.7786	0.0147
607.9687	0.0149
608.1587	0.0106
608.3488	0.0091
608.5388	-0.0004
608.7288	0.0013
608.9187	0.0104
609.1087	0.0116
609.2986	0.0146
609.4886	0.0051
609.6785	0.0105
609.8684	0.0008
610.0582	0.0032
610.2481	0.0045
610.4379	0.0126
610.6278	0.0082
610.8176	0.0139
611.0074	0.0146
611.1971	0.0079
611.3869	0.0116
611.5766	-0.0002
611.7664	0.0045
611.9561	0.0094
612.1458	0.0095
612.3354	0.0068
612.5251	0.011
612.7147	0.0099
612.9044	0.009
613.094	0.0116
613.2836	0.0105
613.4731	0.0068
613.6627	0.0195
613.8522	0.0126
614.0417	0.0109
614.2313	0.0099
614.4207	0.0126
614.6102	0.0084
614.7997	0.0161
614.9891	0.0091
615.1785	0.0077
615.3679	0.0134
615.5573	0.0113
615.7467	0.004
615.9361	0.0089
616.1254	0.0093
616.3147	0.0071
616.504	0.0114
616.6933	0.0045
616.8826	0.0006
617.0718	0.0159
617.2611	0.0133
617.4503	0.0072
617.6395	0.0096
617.8287	0.0114
618.0179	0.0091
618.207	0.0157
618.3961	0.0035
618.5853	0.0069
618.7744	0.0077
618.9634	0.0207
619.1525	0.0129
619.3416	0.0089
619.5306	0.014
619.7196	0.0153
619.9086	0.012
620.0976	0.0035
620.2866	0.0047
620.4755	0.0074
620.6645	0.0186
620.8534	0.0117
621.0423	0.0103
621.2312	0.0049
621.42	0.0184
621.6089	0.0145
621.7977	0.0119
621.9865	0.007
622.1753	0.007
622.3641	0.0094
622.5529	0.0035
622.7416	0.0108
622.9303	0.0015
623.1191	0.0065
623.3078	0.01
623.4964	0.0076
623.6851	0.0155
623.8737	0.0134
624.0624	-0.0024
624.251	-0.0008
624.4396	0.0102
624.6282	0.0174
624.8167	-0.0002
625.0053	0.0143
625.1938	0.0036
625.3823	0.0126
625.5708	-0.0008
625.7593	0.0027
625.9477	0.0012
626.1362	-0.0077
626.3246	0.0055
626.513	0.0096
626.7014	0.0217
626.8898	0.0235
627.0781	0.0116
627.2665	0.0105
627.4548	0.0049
627.6431	0.014
627.8314	0.0199
628.0197	0.0137
628.2079	0.011
628.3962	0.0139
628.5844	0.0105
628.7726	-0.0013
628.9608	0.0149
629.1489	0.0176
629.3371	0.0105
629.5252	0.0063
629.7134	0.0097
629.9015	0.0195
630.0895	-0.0008
630.2776	0.0099
630.4657	0.0113
630.6537	0.0072
630.8417	-0.005
631.0297	0.0005
631.2177	0.007
631.4057	0.0118
631.5936	0.0078
631.7815	0.0093
631.9695	0.0243
632.1574	0.0167
632.3452	0.0119
632.5331	0.0007
632.7209	0.014
632.9088	0.0149
633.0966	0.0247
633.2844	-0.0013
633.4722	0.0079
633.6599	0.0185
633.8477	0.0175
634.0354	0.0246
634.2231	0.0018
634.4108	0.0029
634.5985	0.0178
634.7861	0.0169
634.9738	-0.0042
635.1614	0.0042
635.349	0.0113
635.5366	0.019
635.7242	0.0063
635.9117	0.0106
636.0993	0.0067
636.2868	0.0162
636.4743	0.0066
636.6618	0.0009
636.8492	0.0201
637.0367	0.0058
637.2241	0.0127
637.4115	0.0366
637.5989	0.0249
637.7863	0.0298
637.9737	0.0013
638.161	0.0298
638.3484	-0.0039
638.5357	0.0138
638.723	0.0302
638.9103	-0.009
639.0975	0.009
639.2848	0.026
639.472	0.021
639.6592	-0.0068
639.8464	-0.0074
640.0336	0.0037
640.2208	0.0122
640.4079	-0.009
640.595	0.0078
640.7821	0.0232
640.9692	0.0081
641.1563	0.0167
641.3434	0.0268
641.5304	0.0288
641.7174	0.0185
641.9044	0.0032
642.0914	0.0227
642.2784	0.002
642.4653	0.0063
642.6523	0.0175
642.8392	0.008
643.0261	0.007
643.213	0.0113
643.3999	0.0276
643.5867	0.0247
643.7735	0.004
643.9604	0.0225
644.1472	0.0225
644.3339	-0.0148
644.5207	-0.0013
644.7075	-0.0011
644.8942	0.0123
645.0809	0.0077
645.2676	0.0004
645.4543	0.0242
645.6409	0.0321
645.8276	0.0154
646.0142	0.0194
646.2008	0.0115
646.3874	-0.0105
646.574	0.0025
646.7605	0.011
646.9471	0.0125
647.1336	-0.0163
647.3201	0.0088
647.5066	0.0131
647.6931	-0.0053
647.8795	0.0205
648.0659	0.023
648.2524	0.0137
648.4388	0.0328
648.6252	0.0156
648.8115	0.0207
648.9979	0.01
649.1842	0.009
649.3705	0.0225
649.5568	0.0056
649.7431	-0.0056
649.9294	0.007
650.1156	0.005
650.3018	0.0114
650.488	0.0179
650.6742	0.0245
650.8604	0.0224
651.0466	-0.0086
651.2327	0.0149
651.4188	0.006
651.6049	0.0195
651.791	-0.0013
651.9771	0.0206
652.1632	0.0065
652.3492	0.0177
652.5352	0.0194
652.7212	0.0167
652.9072	0.0036
653.0932	0.0185
653.2791	0.0106
653.465	0.0026
653.651	0.0093
653.8369	0.0066
654.0227	-0.0037
654.2086	0.0169
654.3944	0.0198
654.5803	0.004
654.7661	0.0068
654.9519	0.0021
655.1377	0.0001
655.3234	0.0001
655.5092	0.0001
655.6949	0.0001
655.8806	0.0001
656.0663	0.0001
656.2519	0.0001
656.4376	0.0001
656.6232	0.0001
656.8088	0.0001
656.9945	0.0001
657.18	0.0001
657.3656	0.0001
657.5511	0.0001
657.7367	0.0001
657.9222	0.0001
658.1077	0.0001
658.2932	0.0001
658.4786	0.0001
658.6641	0.0001
658.8495	0.0001
659.0349	0.0001
659.2203	0.0001
659.4057	0.0173
659.591	0.2772
659.7764	0.0318
659.9617	0.0154
660.147	-0.001
660.3323	0.0175
660.5176	0.0052
660.7028	-0.003
660.888	0.0137
661.0733	0.0306
661.2585	-0.012
661.4436	-0.0008
661.6288	0.0165
661.8139	0.0012
661.9991	0.0025
662.1842	0.0251
662.3693	0.008
662.5544	0.0049
662.7394	0.0228
662.9245	0.0178
663.1095	-0.0041
663.2945	0.0081
663.4795	0.0021
663.6644	-0.003
663.8494	0.0133
664.0343	0.0128
664.2193	0.0135
664.4042	0.0043
664.589	0.0138
664.7739	0.0204
664.9587	-0.0006
665.1436	0.0028
665.3284	0.0029
665.5132	-0.009
665.698	0.0165
665.8827	0.0247
666.0675	-0.0092
666.2522	0.0257
666.4369	0.0128
666.6216	-0.0052
666.8063	0.0136
666.9909	-0.0127
667.1756	0.0035
667.3602	-0.0008
667.5448	0.0178
667.7294	0.0225
667.9139	-0.0001
668.0985	0.0081
668.283	0.013
668.4675	0.018
668.652	0.0103
668.8365	0.0199
669.0209	0.0113
669.2054	0.0214
669.3898	-0.0014
669.5742	0.0258
669.7586	0.0151
669.943	0.0085
670.1273	0.0011
670.3117	0.0119
670.496	0.0159
670.6803	0.0112
670.8646	0.0068
671.0488	0.0261
671.2331	-0.0117
671.4173	0.0184
671.6015	0.01
671.7857	0.0009
671.9699	0.0145
672.1541	0.0013
672.3382	0.0047
672.5223	0.0154
672.7064	0.003
672.8905	-0.0088
673.0746	0.0083
673.2587	0.0167
673.4427	0.0215
673.6267	0.0208
673.8107	0.0027
673.9947	0.018
674.1787	0.0112
674.3626	0.0168
674.5465	0.0059
674.7304	0.0117
674.9143	0.0122
675.0982	0.0105
675.2821	0.011
675.4659	0.014
675.6497	0.0199
675.8335	-0.0102
676.0173	-0.0164
676.2011	0.0107
676.3849	0.0143
676.5686	0.0328
676.7523	0.0025
676.936	0.0028
677.1197	0.0046
677.3034	0.0238
677.487	0.0151
677.6706	0.0178
677.8542	0.0026
678.0378	0.0145
678.2214	0.0081
678.405	0.0292
678.5885	-0.0069
678.772	0.0146
678.9555	0.0047
679.139	0.0087
679.3225	0.006
679.5059	0.0113
679.6894	0.0181
679.8728	0.0094
680.0562	0.0215
680.2395	0.0049
680.4229	-0.0018
680.6062	0.0165
680.7896	-0.0035
680.9729	0.0276
681.1562	0.009
681.3394	0.0077
681.5227	0.0103
681.7059	0.0074
681.8891	0.0123
682.0723	0.0031
682.2555	0.0235
682.4387	0.0227
682.6218	0.0094
682.805	0.0132
682.9881	0.0339
683.1712	0.0214
683.3542	0.013
683.5373	0.0112
683.7203	0.0125
683.9034	-0.0027
684.0864	0.0078
684.2694	0.0079
684.4523	0.018
684.6353	0.0012
684.8182	0.0085
685.0011	0.0129
685.184	0.0201
685.3669	0.0282
685.5498	-0.0123
685.7326	0.0108
685.9154	-0.0076
686.0982	0.0259
686.281	0.0082
686.4638	0.0252
686.6465	0.0005
686.8293	-0.0079
687.012	0.0175
687.1947	0.0202
687.3774	0.0132
687.56	0.0147
687.7427	0.0084
687.9253	-0.0176
688.1079	-0.0048
688.2905	0.014
688.4731	0.0065
688.6556	0.0144
688.8382	-0.0139
689.0207	0.0244
689.2032	0.0247
689.3857	0.0039
689.5681	0.0102
689.7506	0.0335
689.933	0.0067
690.1154	0.0286
690.2978	0.0154
690.4802	0.0211
690.6626	0.0072
690.8449	0.0288
691.0272	0.0054
691.2095	-0.0072
691.3918	0.0134
691.5741	0.0157
691.7563	0.0253
691.9386	0.0278
692.1208	0.0063
692.303	0.0111
692.4852	0.0168
692.6673	-0.0031
692.8495	0.0006
693.0316	0.0135
693.2137	0.0232
693.3958	0.0151
693.5778	0.029
693.7599	0.0058
693.9419	0.0143
694.1239	0.0071
694.3059	0.0212
694.4879	0.004
694.6699	-0.0001
694.8518	0.0132
695.0337	0.0095
695.2157	0.0326
695.3975	0.0138
695.5794	-0.0173
695.7613	-0.0068
695.9431	0.0026
696.1249	0.0194
696.3067	-0.0017
696.4885	0.0216
696.6703	-0.0035
696.852	0.0059
697.0337	0.0148
697.2154	0.0132
697.3971	0.0245
697.5788	0.0159
697.7605	0.0099
697.9421	0.0275
698.1237	0.0314
698.3053	-0.0004
698.4869	0.0101
698.6685	-0.0046
698.85	0.0398
699.0315	-0.0106
699.213	0.0196
699.3945	0.0221
699.576	0.0308
699.7575	0.0154
699.9389	0.0077
700.1203	0.027
700.3017	0.0203
700.4831	0.033
700.6645	0.0382
700.8458	-0.0053
701.0271	0.0526
701.2084	0.0057
701.3897	0.0236
701.571	0.0184
701.7523	0.0114
701.9335	0.0267
702.1147	0.0182
702.2959	0.018
702.4771	0.0197
702.6583	0.0081
702.8394	-0.0072
703.0205	0.0194
703.2016	0.0137
703.3827	-0.0048
703.5638	0.0137
703.7449	0.0149
703.9259	0.0244
704.1069	-0.021
704.2879	0.0387
704.4689	0.002
704.6499	0.0388
704.8308	0.0045
705.0117	0.0353
705.1927	0.033
705.3735	0.0291
705.5544	0.0573
705.7353	-0.0085
705.9161	-0.0262
706.0969	0.016
706.2777	0.0017
706.4585	0.0211
706.6393	0.0259
706.82	0.0241
707.0007	-0.0106
707.1815	-0.0031
707.3621	0.0409
707.5428	0.0269
707.7235	0.0041
707.9041	0.0199
708.0847	0.0056
708.2653	0.0382
708.4459	0.0291
708.6265	-0.0185
708.807	0.034
708.9875	0.0147
709.168	0.0109
709.3485	0.0078
709.529	0.0009
709.7095	-0.0059
709.8899	0.0135
710.0703	0.0251
710.2507	0.0179
710.4311	-0.0329
710.6115	0.0319
710.7918	0.02
710.9721	0.0054
711.1524	0.0084
711.3327	-0.0017
711.513	-0.0029
711.6932	0.0019
711.8735	0.0215
712.0537	-0.0082
712.2339	0.0251
712.4141	0.0434
712.5942	0.0028
712.7744	0.0212
712.9545	0.0279
713.1346	0.0234
713.3147	0.0189
713.4947	-0.0086
713.6748	0.0182
713.8548	0.0216
714.0348	0.0354
714.2148	0.0193
714.3948	0.0276
714.5748	0.0125
714.7547	0.0228
714.9346	0.0255
715.1145	-0.0135
715.2944	-0.0211
715.4743	0.03
715.6541	-0.0227
715.834	0.0345
716.0138	0.0022
716.1936	-0.0023
716.3733	0.012
716.5531	-0.0056
716.7328	0.0019
716.9126	0.011
717.0923	-0.0018
717.2719	0.0236
717.4516	0.0006
717.6312	0.0107
717.8109	0.0085
717.9905	0.029
718.1701	0.0248
718.3496	-0.0126
718.5292	-0.002
718.7087	0.0232
718.8882	0.0125
719.0677	0.0155
719.2472	0.0119
719.4267	0.018
719.6061	0.002
719.7856	0.0374
719.965	-0.0126
720.1443	0.0207
720.3237	0.009
720.5031	0.0103
720.6824	0.0177
720.8617	0.0213
721.041	0.0564
721.2203	-0.0062
721.3995	0.0006
721.5788	0.0118
721.758	0.0019
721.9372	0.0117
722.1164	-0.0015
722.2956	0.015
722.4747	0.0177
722.6538	-0.0024
722.8329	0.0223
723.012	0.0011
723.1911	0.0118
723.3702	0.0561
723.5492	0.0037
723.7282	-0.001
723.9072	0.0261
724.0862	-0.0024
724.2652	0.0155
724.4441	0.0177
724.623	0.0167
724.8019	0.0229
724.9808	0.0309
725.1597	-0.0032
725.3385	0.0094
725.5174	-0.0012
725.6962	0.0215
725.875	0.0035
726.0538	0.0462
726.2325	0.022
726.4112	0.001
726.59	0.01
726.7687	-0.0262
726.9474	0.0269
727.126	0.0276
727.3047	0.0038
727.4833	0.0278
727.6619	-0.0198
727.8405	0.0085
728.0191	0.0589
728.1976	0.0084
728.3762	0.0246
728.5547	0.0009
728.7332	0.0178
728.9116	0.0133
729.0901	0.0149
729.2686	0.0261
729.447	-0.0123
729.6254	0.0123
729.8038	0.004
729.9821	0.0238
730.1605	0.0329
730.3388	0.002
730.5171	0.0276
730.6954	0.0039
730.8737	0.0115
731.0519	-0.0059
731.2302	0.0181
731.4084	-0.0124
731.5866	0.0013
731.7648	0.0032
731.9429	0.0255
732.1211	0.0017
732.2992	0.0098
732.4773	0.0235
732.6554	-0.011
732.8335	0.0209
733.0115	0.0259
733.1896	-0.0028
733.3676	0.0412
733.5456	0.0185
733.7235	0.0062
733.9015	0.0058
734.0794	-0.0078
734.2574	-0.0156
734.4353	0.0138
734.6131	0.0248
734.791	0.0084
734.9689	-0.0102
735.1467	-0.0081
735.3245	0.0143
735.5023	0.0267
735.68	-0.0012
735.8578	0.0072
736.0355	0.022
736.2132	0.0076
736.3909	0.0087
736.5686	0.0271
736.7463	-0.0062
736.9239	0.03
737.1015	0.0189
737.2791	0.0287
737.4567	0.0337
737.6343	0.0188
737.8118	0.0204
737.9894	0.0069
738.1669	0.0015
738.3444	0.032
738.5218	-0.0113
738.6993	0.0065
738.8767	-0.0033
739.0541	0.011
739.2315	0.0125
739.4089	0.0329
739.5863	0.0027
739.7636	0.0068
739.9409	0.0017
740.1182	0.0297
740.2955	0.0329
740.4728	-0.0002
740.65	-0.0099
740.8272	0.0178
741.0044	0.0181
741.1816	0.0299
741.3588	0.0003
741.5359	-0.0017
741.7131	0.0137
741.8902	-0.0084
742.0673	0.0162
742.2444	0.0424
742.4214	0.0055
742.5985	0.0134
742.7755	0.0279
742.9525	-0.0204
743.1295	-0.0032
743.3064	0.0233
743.4834	0.0419
743.6603	0.05
743.8372	0.0003
744.0141	0.0172
744.191	-0.0039
744.3678	-0.0151
744.5446	0.0089
744.7215	-0.0055
744.8982	0.0129
745.075	0.0572
745.2518	0.0076
745.4285	0.0133
745.6052	-0.0292
745.7819	0.0242
745.9586	0.0464
746.1353	-0.0191
746.3119	-0.0217
746.4885	0.0354
746.6651	-0.0036
746.8417	0.0092
747.0183	0.0706
747.1948	0.0085
747.3714	0.018
747.5479	-0.0037
747.7244	-0.0058
747.9008	-0.0139
748.0773	0.0403
748.2537	0.0201
748.4301	0.0362
748.6065	0.0007
748.7829	-0.0121
748.9593	0.0118
749.1356	0.0192
749.3119	0.0184
749.4882	0.0154
749.6645	0.0177
749.8408	0.0325
750.017	0.0214
750.1933	-0.0296
750.3695	0.0195
750.5457	0.0081
750.7218	0.0164
750.898	0.0187
751.0741	-0.0058
751.2502	0.0067
751.4263	0.015
751.6024	0.0307
751.7784	-0.0129
751.9545	0.0103
752.1305	0.0263
752.3065	0.0308
752.4825	0.0091
752.6584	-0.0006
752.8344	0.0061
753.0103	0.0046
753.1862	0.0266
753.3621	0.0141
753.5379	-0.0117
753.7138	-0.0001
753.8896	0.0087
754.0654	0.005
754.2412	0.0211
754.417	0.0336
754.5927	0.0043
754.7685	0.0246
754.9442	0.021
755.1199	0.0179
755.2956	0.0186
755.4712	0.0011
755.6469	0.006
755.8225	0.0272
755.9981	0.0076
756.1736	0.0068
756.3492	-0.0023
756.5248	0.0215
756.7003	0.0101
756.8758	0.0046
757.0513	-0.0015
757.2267	0.0185
757.4022	0.0019
757.5776	-0.0009
757.753	0.0369
757.9284	0.007
758.1038	0.0203
758.2791	0.0116
758.4545	0.0048
758.6298	0.028
758.8051	-0.0023
758.9803	0.009
759.1556	-0.001
759.3308	-0.0032
759.506	0.0225
759.6812	0.0225
759.8564	0.0084
760.0316	0.0046
760.2067	0.0297
760.3819	-0.0087
760.557	-0.0001
760.732	0.0111
760.9071	0.021
761.0821	0.009
761.2572	0.0151
761.4322	0.002
761.6072	0.0272
761.7821	-0.0292
761.9571	0.0013
762.132	0.013
762.3069	0.0232
762.4818	0.0052
762.6567	0.0024
762.8316	0.0143
763.0064	0.0093
763.1812	0.0383
763.356	-0.0207
763.5308	0.0217
763.7055	-0.0051
763.8803	-0.0071
764.055	0.0007
764.2297	-0.0045
764.4044	0.0046
764.579	0.0038
764.7537	-0.0017
764.9283	0.0152
765.1029	0.013
765.2775	0.0209
765.4521	0.0061
765.6266	0.0071
765.8011	0.0304
765.9756	0.0138
766.1501	0.0263
766.3246	-0.0109
766.4991	0.0041
766.6735	0.0306
766.8479	-0.0107
767.0223	0.0494
767.1967	0.0332
767.371	-0.0099
767.5454	0.0487
767.7197	0.0197
767.894	0.0096
768.0683	0.0246
768.2425	0.0221
768.4168	0.01
768.591	0.0148
768.7652	-0.0028
768.9394	-0.0279
769.1135	-0.0079
769.2877	0.0419
769.4618	0.0301
769.6359	0.0282
769.81	0.0277
769.984	0.0013
770.1581	0.0055
770.3321	0.0397
770.5061	-0.0238
770.6801	0.0032
770.8541	0.0079
771.028	0.0342
771.202	0.0453
771.3759	0.0241
771.5498	0.0152
771.7236	0.0021
771.8975	0.0449
772.0713	0.0152
772.2451	-0.023
772.4189	0.0151
772.5927	-0.0129
772.7665	0.0068
772.9402	0.0312
773.1139	0.0432
773.2876	-0.0132
773.4613	0.0217
773.635	0.0258
773.8086	0.041
773.9822	0.0212
774.1558	0.0276
774.3294	0.0121
774.503	0.032
774.6765	0.0501
774.8501	0.0136
775.0236	0.0176
775.1971	-0.0003
775.3705	-0.0034
775.544	0.0015
775.7174	-0.0249
775.8908	0.0165
776.0642	0.0329
776.2376	0.0749
776.4109	0.0409
776.5843	-0.0039
776.7576	0.0143
776.9309	0.0453
777.1041	-0.0245
777.2774	-0.0085
777.4506	0.0252
777.6238	0.0249
777.797	0.0118
777.9702	0.0004
778.1434	0.0161
778.3165	-0.0277
778.4896	0.0016
778.6627	0.0147
778.8358	0.0021
779.0089	-0.005
779.1819	0.0607
779.3549	0.0278
779.5279	-0.0035
779.7009	0.075
779.8739	0.0638
780.0468	-0.0155
780.2197	0.0423
780.3926	-0.0201
780.5655	0.0393
780.7384	0.0081
780.9112	0.038
781.0841	0.0211
781.2569	0.0224
781.4297	0.0062
781.6024	0.0285
781.7752	0.0593
781.9479	0.0217
782.1206	-0.0332
782.2933	-0.0025
782.466	0.0283
782.6386	-0.0137
782.8113	0.0242
782.9839	-0.0164
783.1565	0.0264
783.329	0.005
783.5016	0.0274
783.6741	-0.0217
783.8466	0.0471
784.0191	0.0136
784.1916	0.0157
784.3641	-0.0178
784.5365	0.0272
784.7089	0.0005
784.8813	0.0707
785.0537	0.0272
785.2261	0.0012
785.3984	-0.0179
785.5707	-0.0282
785.743	0.0328
785.9153	0.0012
786.0876	-0.0064
786.2598	-0.0018
786.432	0.0281
786.6042	0.0539
786.7764	-0.0296
786.9486	-0.0132
787.1207	0.0507
787.2928	0.0406
787.4649	0.0162
787.637	0.047
787.8091	-0.0032
787.9811	0.0549
788.1532	0.0096
788.3252	0.0206
788.4972	0.0323
788.6691	0.0207
788.8411	0.0207
789.013	0.0067
789.1849	-0.0149
789.3568	-0.0035
789.5287	0.0598
789.7005	-0.006
789.8723	0.0024
790.0442	-0.0122
790.2159	0.0111
790.3877	0.0416
790.5595	0.023
790.7312	-0.0024
790.9029	0.0281
791.0746	0.024
791.2463	-0.0164
791.4179	-0.0004
791.5896	0.0259
791.7612	0.036
791.9328	0.0482
792.1044	0.0064
792.2759	0.0133
792.4474	0.07
792.619	-0.0016
792.7905	-0.0139
792.9619	0.1096
793.1334	0.0239
793.3048	0.1257
793.4762	0.0542
793.6476	0.0005
793.819	0.0174
793.9904	-0.0163
794.1617	0.0456
794.333	0.0115
794.5043	0.0425
794.6756	0.0044
794.8469	0.0053
795.0181	-0.0015
795.1893	0.0327
795.3605	0.0777
795.5317	0.0085
795.7029	0.0283
795.874	0.0366
796.0452	0.0605
796.2163	0.0687
796.3873	0.0714
796.5584	0.0938
796.7294	-0.0181
796.9005	-0.005
797.0715	0.0203
797.2425	0.0914
797.4134	0.0653
797.5844	0.1366
797.7553	-0.0483
797.9262	0.074
798.0971	0.0431
798.2679	0.0068
798.4388	-0.0224
798.6096	0.0469
798.7804	0.0443
798.9512	0.1179
799.122	-0.023
799.2927	0.1502
799.4635	-0.0065
799.6342	-0.0171
799.8049	0.0677
799.9755	-0.0468
800.1462	0.0751
800.3168	0.1144
800.4874	-0.0644
800.658	0.0614
800.8286	0.0216
800.9991	0.0302
801.1696	-0.0314
801.3402	-0.0242
801.5106	0.0097
801.6811	-0.0413
801.8516	0.1221
802.022	0.0224
802.1924	-0.0029
802.3628	0.0784
802.5332	0.0712
802.7035	0.1165
802.8739	0.087
803.0442	-0.0118
803.2145	0.0458
803.3847	0.0331
803.555	0.0547
803.7252	0.0852
803.8954	-0.023
804.0656	-0.0212
804.2358	-0.0026
804.4059	0.0679
804.5761	0.0011
804.7462	0.0662
804.9163	-0.0425
805.0864	0.075
805.2564	0.0429
805.4264	0.0265
805.5965	0.0811
805.7665	0.0101
805.9364	0.0573
806.1064	-0.021
806.2763	0.0421
806.4462	-0.0059
806.6161	0.04
806.786	0.0087
806.9559	0.06
807.1257	0.0036
807.2955	-0.0433
807.4653	0.0649
807.6351	0.061
807.8048	0.0276
807.9746	0.0398
808.1443	-0.0073
808.314	0.0223
808.4837	0.1014
808.6533	-0.0235
808.8229	0.0507
808.9926	0.0637
809.1622	0.1202
809.3317	-0.0092
809.5013	-0.0204
809.6708	0.0654
809.8403	0.0242
810.0098	0.0401
810.1793	0.0272
810.3488	-0.0446
810.5182	0.1158
810.6876	0.0439
810.857	0.0921
811.0264	-0.0183
811.1958	0.2672
811.3651	0.0787
811.5344	0.1602
811.7037	0.0037
811.873	0.1495
812.0422	0.0258
812.2115	0.043
812.3807	-0.0265
812.5499	0.0094
812.7191	-0.0298
812.8882	-0.0401
813.0574	0.0484
813.2265	0.1577
813.3956	0.1432
813.5646	0.0468
813.7337	-0.0268
813.9027	-0.0009
814.0718	0.0485
814.2407	0.0396
814.4097	0.0294
814.5787	0.0814
814.7476	-0.0021
814.9165	0.0132
815.0854	0.0049
815.2543	0.0564
815.4232	0.0085
815.592	0.1366
815.7608	0.045
815.9296	-0.0585
816.0984	-0.0479
816.2671	-0.0669
816.4359	0.2302
816.6046	0.1288
816.7733	0.0125
816.942	-0.0116
817.1106	0.0903
817.2793	-0.0941
817.4479	-0.001
817.6165	0.0362
817.785	0.0593
817.9536	-0.1403
818.1221	0.0447
818.2906	-0.0428
818.4591	0.0483
818.6276	-0.0059
818.7961	0.0282
818.9645	0.1016
819.1329	0.2519
819.3013	0.0115
819.4697	0.02
819.638	-0.0565
819.8064	0.2194
819.9747	-0.0267
820.143	-0.0284
820.3113	0.0925
820.4795	0.0477
820.6477	0.0994
820.816	0.0105
820.9842	-0.0312
821.1523	0.0326
821.3205	0.0861
821.4886	-0.0601
821.6567	0.0806
821.8248	0.2144
821.9929	-0.0302
822.1609	0.0262
822.329	-0.0214
822.497	0.0623
822.665	-0.0805
822.833	0.0376
823.0009	-0.0118
823.1688	0.0817
823.3367	-0.1839
823.5046	0.1274
823.6725	-0.0448
823.8404	0.1862
824.0082	-0.0015
824.176	-0.0626
824.3438	0.1568
824.5116	0.0116
824.6793	0.0727
824.847	0.4924
825.0147	0.02
825.1824	0.1102
825.3501	0.2214
825.5177	0.0163
825.6854	-0.0264
825.853	-0.0748
826.0206	-0.0327
826.1881	-0.0559
826.3557	0.1062
826.5232	0.0685
826.6907	0.0357
826.8582	-0.1891
827.0257	0.188
827.1931	0.0769
827.3605	0.0383
827.528	-0.2332
827.6953	-0.2106
827.8627	0.051
828.03	0.1461
828.1974	-0.021
828.3647	-0.0222
828.532	-0.0468
828.6992	0.1219
828.8665	0.1082
829.0337	0.0806
829.2009	-0.1024
829.3681	0.0181
829.5352	-0.1906
829.7024	0.0844
829.8695	0.0099
830.0366	0.1046
830.2037	0.122
830.3707	0.1065
830.5378	0.1245
830.7048	0.1788
830.8718	0.0113
831.0388	-0.0661
831.2057	-0.0751
831.3727	-0.1624
831.5396	0.1814
831.7065	-0.7922
831.8734	0.209
832.0402	0.2844
832.2071	-0.7355
832.3739	0.274
832.5407	-0.2341
832.7075	-0.2532
832.8742	0.6579
833.041	0.207
833.2077	0.2647
833.3744	0.2953
833.541	0.0847
833.7077	-0.0148
833.8743	0.091
834.0409	0.0054
834.2075	0.1661
834.3741	-0.244
834.5407	0.1864
834.7072	0.3545
834.8737	0.1271
835.0402	0.3044
835.2067	-0.1744
835.3731	0.037
835.5395	-0.0632
835.706	0.2675
835.8723	-0.1155
836.0387	0.1704
836.2051	0.2105
836.3714	-0.0292
836.5377	0.0211
836.704	0.2022
836.8703	0.1268
837.0365	-0.7829
837.2027	-0.0411
837.3689	0.8532
837.5351	0.3815
837.7013	-0.1315
837.8674	-0.0591
838.0335	-0.0224
838.1997	0.4289
838.3657	-0
838.5318	0.2547
838.6978	-0
838.8639	-0.6001
839.0299	0.2351
839.1958	0.137
839.3618	0.1513
839.5277	-0.0559
839.6937	0.1276
839.8596	-0.1698
840.0254	0.2654
840.1913	-0.3336
840.3571	-0.0328
840.523	-0
840.6888	-0.0434
840.8545	0.2608
841.0203	0.0251
841.186	0.3206
841.3517	-0.0876
841.5174	0.3041
841.6831	-0.0904
841.8488	0.1214
842.0144	-0.0668
842.18	0.8526
842.3456	-0.6995
842.5112	-0
842.6767	-0.1097
842.8422	0.3383
843.0077	0.0325
843.1732	-0.32
843.3387	1.212
843.5042	0.6817
843.6696	0.0411
843.835	-0.0632
844.0004	-0.1837
844.1657	-1.0792
844.3311	0.3476
844.4964	-0.7384
844.6617	0.571
844.827	-0
844.9923	0.3394
845.1575	0.366
845.3227	0.3341
845.4879	-0
845.6531	0.1589
845.8183	0.5014
845.9834	-0
846.1485	0.3311
846.3136	0.7299
846.4787	0.0161
846.6438	-0.1305
846.8088	0.5254
846.9738	-0
847.1388	0.3469
847.3038	0.1984
847.4687	0.9576
847.6337	-0.1215
847.7986	0.1238
847.9635	1.6083
848.1284	0.7103
848.2932	0.2536
848.458	-0
848.6228	0.0318
848.7876	-0
848.9524	-0
849.1172	-1.9744
849.2819	-0
849.4466	0.9006
849.6113	0.428
849.7759	-0
849.9406	-0
850.1052	-0
850.2698	-0.7275
850.4344	-0.3243
850.599	1.4995
850.7635	-0
850.928	0.8094
851.0925	0.3136
851.257	-0
851.4215	-0
851.5859	0.1837
851.7503	-0.2759
851.9147	-0.1786
852.0791	-0.1652
852.2434	0.031
852.4078	-0
852.5721	-0
852.7364	0.221
852.9007	0.0421
853.0649	-0
853.2291	-0.056
853.3934	-0
853.5575	-0
853.7217	0.7137
853.8859	-0
854.05	-0.6357
854.2141	1.1731
854.3782	-0
854.5423	0.342
854.7063	0.1497
854.8703	0.1805
855.0343	-0.1768
855.1983	0.5298
855.3623	0.2975
855.5262	-0.1271
855.6901	0.4569
855.854	-0
856.0179	-0
856.1818	-0
856.3456	-0
856.5094	-0
856.6732	-0.3195
856.837	-0.366
857.0008	-0
857.1645	-0.0091
857.3282	-0
857.4919	0.1217
857.6556	-0
857.8192	-0.036
857.9828	0.0812
858.1465	-0.0759
858.31	-0
858.4736	-0.8083
858.6372	-0.236
858.8007	0.1239
858.9642	0.235
859.1277	0.5891
859.2911	-0.3871
859.4546	-0
859.618	0.6876
859.7814	-0.159
859.9448	-0
860.1081	-0
860.2715	-1.5563
860.4348	0.2039
860.5981	0.629
860.7614	0.1607
860.9246	-0.2663
861.0879	-0.1918
861.2511	-0.5854
861.4143	-0
861.5774	-0.1408
861.7406	0.1037
861.9037	-0
862.0668	-0.4528
862.2299	0.1551
862.393	-0
862.556	-0
862.7191	-0.4701
862.8821	0.0515
863.0451	-0.124
863.208	-0
863.371	-0
863.5339	1.1198
863.6968	-0
863.8597	-0.4606
864.0225	-0.4189
864.1854	-0.0378
864.3482	-1.156
864.511	-0.0971
864.6737	-0.4521
864.8365	0.4166
864.9992	-0.2775
865.1619	-0.0626
865.3246	-2.0615
865.4873	-0
865.65	-0
865.8126	1.513
865.9752	0.0289
866.1378	-0.0853
866.3004	-0.021
866.4629	-1.4645
866.6254	-0
866.7879	-0
866.9504	0.7167
867.1129	-0
867.2753	0.0064
867.4377	-0.1121
867.6001	-0.6876
867.7625	-0.3001
867.9249	0.2746
868.0872	-0
868.2495	0.6433
868.4118	-0.0542
868.5741	-0
868.7363	-0
868.8986	-0.6189
869.0608	-0
869.223	-0.2649
869.3851	-0
869.5473	0.4487
869.7094	-0.2522
869.8715	-0.8437
870.0336	0.0683
870.1957	-0.8643
870.3577	0.2825
870.5197	-0.4004
870.6817	-0.524
870.8437	0.1865
871.0057	0.8874
871.1676	0.3039
871.3295	-0.282
871.4914	-1.7419
871.6533	-0
871.8151	-0
871.977	0.1927
872.1388	-0
872.3006	0.2547
872.4623	-0
872.6241	-0
872.7858	-0
872.9475	-0
873.1092	0.4148
873.2709	0.6401
873.4325	-0
873.5941	-0.0444
873.7557	-0
873.9173	-0.3351
874.0789	0.2237
874.2404	-0
874.4019	0.0451
874.5634	-0
874.7249	-0
874.8863	-0.3823
875.0478	-0.3562
875.2092	0.7065
875.3706	0.1228
875.5319	-0
875.6933	-0
875.8546	-0
876.0159	1.0537
876.1772	0.9815
876.3385	-0
876.4997	0.3855
876.6609	-0.0746
876.8221	-0
876.9833	-0.1809
877.1445	0.5666
877.3056	-0.8431
877.4667	-0.4664
877.6278	-0
877.7889	-0
877.9499	0.4716
878.111	0.1225
878.272	-0.2387
878.433	-0
878.5939	-0.0243
878.7549	-0
878.9158	-0
879.0767	-0
879.2376	-0.0141
879.3984	0.9227
879.5593	0.3591
879.7201	-1.9331
879.8809	0.2654
880.0417	-0.0544
880.2024	0.1589
880.3632	-0.3986
880.5239	0.269
880.6846	-0.6461
880.8452	0.2017
881.0059	-0
881.1665	-0
881.3271	0.2825
881.4877	-0
881.6483	-0
881.8088	-0
881.9693	-0
882.1298	-0
882.2903	-0
