Data from D4ACN5uM420nmA_Absorbance_14-37-07-961.txt Node
Date: Fri Feb 21 14:37:07 GMT 2025
User: LASERRRRR
Spectrometer: FLMT03099
Trigger mode: 0
Integration Time (sec): 1.500000E-2
Scans to average: 1
Electric dark correction enabled: true
Nonlinearity correction enabled: false
Boxcar width: 0
XAxis mode: Wavelengths
Number of Pixels in Spectrum: 3648
>>>>>Begin Spectral Data<<<<<
179.3399	-0.5034
179.5586	-0.5034
179.7771	-0.5034
179.9957	-0.0728
180.2143	-0
180.4329	-0.0367
180.6514	-0
180.8699	0.0945
181.0885	-0
181.307	-0.0871
181.5255	0.3032
181.744	1.0969
181.9625	0.909
182.181	-0.1595
182.3994	-0.4251
182.6179	-0
182.8363	0.7143
183.0547	0.2885
183.2732	-0.0023
183.4916	0.2652
183.71	0.5632
183.9284	0.0964
184.1467	0.3201
184.3651	0.0869
184.5835	0.1873
184.8018	0.2293
185.0201	0.2038
185.2385	0.1281
185.4568	0.1755
185.6751	0.1858
185.8934	0.2352
186.1117	-0.0363
186.3299	0.0587
186.5482	0.3263
186.7664	-0.0422
186.9847	0.1847
187.2029	0.1839
187.4211	0.1737
187.6393	0.1094
187.8575	0.2801
188.0757	0.773
188.2939	0.0255
188.512	0.2267
188.7302	0.1824
188.9483	0.5761
189.1665	0.547
189.3846	0.3905
189.6027	0.1286
189.8208	0.2096
190.0389	0.2544
190.257	0.0862
190.475	-0.0283
190.6931	0.3196
190.9111	0.0278
191.1292	0.225
191.3472	0.0643
191.5652	0.2542
191.7832	0.2487
192.0012	0.2884
192.2192	0.2293
192.4371	0.1934
192.6551	0.132
192.873	0.125
193.091	0.061
193.3089	0.2003
193.5268	0.4104
193.7447	0.1513
193.9626	0.1594
194.1805	0.3014
194.3984	0.1421
194.6162	0.2608
194.8341	0.2303
195.0519	0.1465
195.2697	0.2725
195.4875	0.3138
195.7054	0.2498
195.9231	0.2167
196.1409	0.2762
196.3587	0.2652
196.5765	0.2799
196.7942	0.2988
197.012	0.3567
197.2297	0.2869
197.4474	0.4322
197.6651	0.3424
197.8828	0.3124
198.1005	0.3834
198.3182	0.4104
198.5358	0.3763
198.7535	0.3495
198.9711	0.4143
199.1888	0.3681
199.4064	0.4164
199.624	0.3701
199.8416	0.3978
200.0592	0.3655
200.2767	0.3766
200.4943	0.3718
200.7119	0.3727
200.9294	0.4493
201.1469	0.4406
201.3645	0.421
201.582	0.3946
201.7995	0.4147
202.017	0.4096
202.2344	0.4075
202.4519	0.3958
202.6694	0.3873
202.8868	0.3639
203.1042	0.4309
203.3217	0.3875
203.5391	0.3958
203.7565	0.3667
203.9739	0.344
204.1913	0.3838
204.4086	0.3425
204.626	0.3361
204.8433	0.3713
205.0607	0.3537
205.278	0.3554
205.4953	0.352
205.7126	0.3193
205.9299	0.3424
206.1472	0.3201
206.3644	0.3183
206.5817	0.3267
206.7989	0.3354
207.0162	0.3249
207.2334	0.3351
207.4506	0.3163
207.6678	0.3072
207.885	0.3003
208.1022	0.3232
208.3194	0.2852
208.5365	0.311
208.7537	0.2863
208.9708	0.2949
209.1879	0.2958
209.405	0.2743
209.6222	0.2612
209.8392	0.3164
210.0563	0.2834
210.2734	0.2555
210.4905	0.2622
210.7075	0.2782
210.9245	0.2686
211.1416	0.2825
211.3586	0.2666
211.5756	0.2496
211.7926	0.2623
212.0096	0.2597
212.2265	0.2574
212.4435	0.2754
212.6604	0.248
212.8774	0.2575
213.0943	0.2579
213.3112	0.2583
213.5281	0.2389
213.745	0.2403
213.9619	0.2377
214.1788	0.2619
214.3956	0.2444
214.6125	0.2402
214.8293	0.2543
215.0461	0.2525
215.2629	0.2465
215.4798	0.2509
215.6965	0.2541
215.9133	0.2452
216.1301	0.2447
216.3469	0.2465
216.5636	0.2388
216.7803	0.2368
216.9971	0.267
217.2138	0.2443
217.4305	0.2528
217.6472	0.246
217.8639	0.2492
218.0805	0.2522
218.2972	0.2524
218.5138	0.2489
218.7305	0.2487
218.9471	0.255
219.1637	0.2673
219.3803	0.2473
219.5969	0.2606
219.8135	0.2536
220.0301	0.2628
220.2466	0.2663
220.4632	0.2438
220.6797	0.2605
220.8962	0.2564
221.1127	0.2739
221.3292	0.2595
221.5457	0.2733
221.7622	0.2556
221.9787	0.2855
222.1951	0.2609
222.4116	0.2749
222.628	0.2784
222.8444	0.2843
223.0608	0.2747
223.2772	0.2785
223.4936	0.2695
223.71	0.2825
223.9264	0.2927
224.1427	0.2906
224.3591	0.2895
224.5754	0.29
224.7917	0.2876
225.008	0.3017
225.2243	0.3022
225.4406	0.2913
225.6569	0.3089
225.8732	0.3138
226.0894	0.3122
226.3057	0.2951
226.5219	0.3072
226.7381	0.3284
226.9543	0.3181
227.1705	0.3114
227.3867	0.3216
227.6029	0.3193
227.8191	0.3355
228.0352	0.3485
228.2513	0.3441
228.4675	0.3558
228.6836	0.3404
228.8997	0.355
229.1158	0.3574
229.3319	0.3532
229.548	0.3534
229.764	0.3599
229.9801	0.3737
230.1961	0.3764
230.4121	0.3643
230.6282	0.3865
230.8442	0.3798
231.0602	0.3879
231.2761	0.3904
231.4921	0.4
231.7081	0.4029
231.924	0.3922
232.14	0.4049
232.3559	0.4025
232.5718	0.408
232.7877	0.411
233.0036	0.3979
233.2195	0.4059
233.4353	0.4275
233.6512	0.4189
233.867	0.425
234.0829	0.4304
234.2987	0.4179
234.5145	0.4375
234.7303	0.4322
234.9461	0.4491
235.1619	0.4509
235.3776	0.4353
235.5934	0.4257
235.8091	0.4288
236.0249	0.4552
236.2406	0.4429
236.4563	0.4615
236.672	0.4402
236.8877	0.451
237.1034	0.4398
237.319	0.4596
237.5347	0.4625
237.7503	0.455
237.966	0.4651
238.1816	0.445
238.3972	0.4646
238.6128	0.4671
238.8284	0.4643
239.0439	0.4639
239.2595	0.4633
239.475	0.4656
239.6906	0.4608
239.9061	0.468
240.1216	0.4672
240.3371	0.4648
240.5526	0.467
240.7681	0.4544
240.9836	0.4594
241.199	0.4635
241.4145	0.4599
241.6299	0.4497
241.8453	0.4386
242.0607	0.4391
242.2761	0.4366
242.4915	0.4367
242.7069	0.422
242.9223	0.4315
243.1376	0.4177
243.353	0.4069
243.5683	0.4084
243.7836	0.3947
243.9989	0.3832
244.2142	0.3792
244.4295	0.386
244.6448	0.3713
244.86	0.3624
245.0753	0.3521
245.2905	0.3492
245.5057	0.3386
245.721	0.3373
245.9362	0.3286
246.1514	0.3235
246.3665	0.3229
246.5817	0.3103
246.7969	0.3061
247.012	0.2945
247.2271	0.3014
247.4423	0.2959
247.6574	0.2854
247.8725	0.2833
248.0876	0.2802
248.3026	0.2723
248.5177	0.2572
248.7328	0.255
248.9478	0.2563
249.1628	0.2541
249.3779	0.2466
249.5929	0.2477
249.8079	0.2402
250.0228	0.2378
250.2378	0.235
250.4528	0.2308
250.6677	0.2231
250.8827	0.225
251.0976	0.2223
251.3125	0.2232
251.5274	0.2146
251.7423	0.2129
251.9572	0.2118
252.172	0.2098
252.3869	0.2104
252.6017	0.2049
252.8166	0.2048
253.0314	0.2063
253.2462	0.2013
253.461	0.1973
253.6758	0.1992
253.8906	0.2007
254.1053	0.196
254.3201	0.1992
254.5348	0.1919
254.7496	0.1889
254.9643	0.1924
255.179	0.1927
255.3937	0.1898
255.6083	0.1965
255.823	0.1875
256.0377	0.1925
256.2523	0.1832
256.467	0.1952
256.6816	0.1868
256.8962	0.1896
257.1108	0.1877
257.3254	0.1833
257.54	0.1761
257.7545	0.192
257.9691	0.1834
258.1836	0.1824
258.3981	0.1858
258.6127	0.177
258.8272	0.1794
259.0417	0.1832
259.2561	0.1807
259.4706	0.1811
259.6851	0.1801
259.8995	0.1781
260.114	0.18
260.3284	0.1771
260.5428	0.1852
260.7572	0.1792
260.9716	0.1918
261.186	0.1803
261.4003	0.1809
261.6147	0.179
261.829	0.1802
262.0433	0.1875
262.2577	0.1795
262.472	0.1779
262.6863	0.1816
262.9005	0.1809
263.1148	0.1804
263.3291	0.1907
263.5433	0.1873
263.7576	0.1807
263.9718	0.1815
264.186	0.189
264.4002	0.1883
264.6144	0.1963
264.8286	0.1875
265.0427	0.1882
265.2569	0.1874
265.471	0.1892
265.6851	0.1919
265.8993	0.1886
266.1134	0.1866
266.3275	0.1906
266.5415	0.1883
266.7556	0.1941
266.9697	0.1882
267.1837	0.1945
267.3978	0.1883
267.6118	0.1824
267.8258	0.1871
268.0398	0.1917
268.2538	0.1916
268.4677	0.186
268.6817	0.1845
268.8957	0.1809
269.1096	0.1796
269.3235	0.1845
269.5374	0.1894
269.7514	0.1864
269.9652	0.1836
270.1791	0.1813
270.393	0.1851
270.6068	0.1771
270.8207	0.1817
271.0345	0.1827
271.2483	0.176
271.4622	0.1854
271.676	0.1801
271.8897	0.181
272.1035	0.1861
272.3173	0.18
272.531	0.181
272.7448	0.1781
272.9585	0.1793
273.1722	0.1845
273.3859	0.1795
273.5996	0.1838
273.8133	0.1867
274.0269	0.177
274.2406	0.1819
274.4542	0.1808
274.6679	0.1851
274.8815	0.1912
275.0951	0.1849
275.3087	0.1912
275.5223	0.1868
275.7358	0.1904
275.9494	0.1957
276.1629	0.1934
276.3765	0.188
276.59	0.1875
276.8035	0.1855
277.017	0.1932
277.2305	0.1971
277.444	0.1933
277.6574	0.195
277.8709	0.2008
278.0843	0.1923
278.2978	0.1951
278.5112	0.197
278.7246	0.1963
278.938	0.1881
279.1513	0.1962
279.3647	0.1918
279.5781	0.1959
279.7914	0.1955
280.0047	0.1966
280.2181	0.1926
280.4314	0.1933
280.6447	0.1987
280.8579	0.1849
281.0712	0.1909
281.2845	0.1908
281.4977	0.1909
281.711	0.1905
281.9242	0.1914
282.1374	0.1939
282.3506	0.1953
282.5638	0.1872
282.7769	0.1861
282.9901	0.1883
283.2033	0.1889
283.4164	0.1908
283.6295	0.1929
283.8426	0.1855
284.0557	0.1926
284.2688	0.1861
284.4819	0.1847
284.695	0.1982
284.908	0.1895
285.1211	0.1939
285.3341	0.1878
285.5471	0.1956
285.7601	0.1881
285.9731	0.192
286.1861	0.1953
286.3991	0.193
286.612	0.1891
286.825	0.1915
287.0379	0.188
287.2508	0.19
287.4637	0.1956
287.6766	0.1939
287.8895	0.187
288.1024	0.1926
288.3152	0.1945
288.5281	0.1849
288.7409	0.1886
288.9538	0.19
289.1666	0.1891
289.3794	0.1949
289.5922	0.1886
289.8049	0.1923
290.0177	0.196
290.2304	0.1968
290.4432	0.1916
290.6559	0.1948
290.8686	0.1928
291.0813	0.1929
291.294	0.191
291.5067	0.1943
291.7194	0.1937
291.932	0.1915
292.1447	0.1966
292.3573	0.1956
292.5699	0.2027
292.7825	0.1916
292.9951	0.1941
293.2077	0.1915
293.4203	0.1916
293.6328	0.1927
293.8454	0.193
294.0579	0.1901
294.2704	0.1985
294.4829	0.1946
294.6954	0.1923
294.9079	0.1914
295.1204	0.1963
295.3328	0.1957
295.5453	0.1932
295.7577	0.1942
295.9701	0.1935
296.1825	0.2
296.3949	0.1909
296.6073	0.1861
296.8197	0.1957
297.0321	0.1966
297.2444	0.1878
297.4567	0.1939
297.6691	0.1907
297.8814	0.1954
298.0937	0.1934
298.306	0.1911
298.5182	0.1958
298.7305	0.1963
298.9428	0.1946
299.155	0.1868
299.3672	0.1949
299.5794	0.193
299.7916	0.1978
300.0038	0.1953
300.216	0.1907
300.4282	0.1882
300.6403	0.1984
300.8525	0.1962
301.0646	0.1977
301.2767	0.1934
301.4888	0.1968
301.7009	0.1963
301.913	0.1973
302.125	0.1941
302.3371	0.1925
302.5491	0.1986
302.7612	0.2057
302.9732	0.1981
303.1852	0.1924
303.3972	0.195
303.6092	0.1971
303.8211	0.1931
304.0331	0.1882
304.245	0.1903
304.457	0.19
304.6689	0.1947
304.8808	0.1898
305.0927	0.1902
305.3046	0.1897
305.5164	0.1877
305.7283	0.1891
305.9401	0.1766
306.152	0.188
306.3638	0.1858
306.5756	0.188
306.7874	0.1829
306.9992	0.1793
307.2109	0.1854
307.4227	0.1755
307.6344	0.1792
307.8462	0.1669
308.0579	0.176
308.2696	0.1796
308.4813	0.1711
308.693	0.1707
308.9046	0.1701
309.1163	0.1608
309.328	0.1683
309.5396	0.1613
309.7512	0.1619
309.9628	0.16
310.1744	0.1578
310.386	0.1544
310.5976	0.1563
310.8091	0.1588
311.0207	0.1555
311.2322	0.15
311.4437	0.1507
311.6552	0.1521
311.8667	0.155
312.0782	0.1469
312.2897	0.148
312.5012	0.1474
312.7126	0.1431
312.924	0.1487
313.1355	0.1405
313.3469	0.1446
313.5583	0.1431
313.7696	0.1409
313.981	0.1449
314.1924	0.1388
314.4037	0.1416
314.6151	0.1417
314.8264	0.142
315.0377	0.1391
315.249	0.139
315.4603	0.1376
315.6716	0.1365
315.8828	0.1405
316.0941	0.141
316.3053	0.133
316.5165	0.1436
316.7277	0.1385
316.9389	0.1356
317.1501	0.1345
317.3613	0.1392
317.5724	0.1289
317.7836	0.1289
317.9947	0.1351
318.2058	0.1288
318.417	0.1337
318.6281	0.1292
318.8391	0.1371
319.0502	0.132
319.2613	0.1345
319.4723	0.1303
319.6834	0.1346
319.8944	0.1347
320.1054	0.1315
320.3164	0.1332
320.5274	0.1303
320.7383	0.1329
320.9493	0.135
321.1602	0.13
321.3712	0.1325
321.5821	0.1304
321.793	0.1341
322.0039	0.1344
322.2148	0.1325
322.4257	0.1314
322.6365	0.1284
322.8474	0.136
323.0582	0.1368
323.269	0.1404
323.4798	0.1349
323.6906	0.1329
323.9014	0.1311
324.1122	0.1338
324.3229	0.1397
324.5337	0.137
324.7444	0.1373
324.9551	0.1332
325.1658	0.1371
325.3765	0.139
325.5872	0.136
325.7979	0.1386
326.0085	0.1392
326.2192	0.1369
326.4298	0.1401
326.6404	0.1407
326.851	0.1383
327.0616	0.1416
327.2722	0.144
327.4828	0.1406
327.6933	0.148
327.9039	0.1448
328.1144	0.1465
328.3249	0.1409
328.5354	0.1423
328.7459	0.1451
328.9564	0.1464
329.1669	0.1504
329.3773	0.1444
329.5878	0.1409
329.7982	0.1522
330.0086	0.1496
330.219	0.1409
330.4294	0.1413
330.6398	0.1505
330.8502	0.1453
331.0605	0.144
331.2708	0.1515
331.4812	0.1454
331.6915	0.1464
331.9018	0.1454
332.1121	0.1482
332.3224	0.1516
332.5326	0.1376
332.7429	0.145
332.9531	0.1533
333.1633	0.1394
333.3735	0.1429
333.5837	0.1465
333.7939	0.1439
334.0041	0.1519
334.2143	0.1482
334.4244	0.1557
334.6346	0.1455
334.8447	0.1401
335.0548	0.1533
335.2649	0.1479
335.475	0.1506
335.685	0.1464
335.8951	0.1467
336.1051	0.1488
336.3152	0.1499
336.5252	0.1484
336.7352	0.1458
336.9452	0.1468
337.1552	0.1489
337.3652	0.1423
337.5751	0.1465
337.7851	0.1473
337.995	0.1532
338.2049	0.1516
338.4148	0.1553
338.6247	0.1482
338.8346	0.1556
339.0445	0.1495
339.2543	0.1538
339.4642	0.1481
339.674	0.149
339.8838	0.1526
340.0936	0.1479
340.3034	0.1446
340.5132	0.1487
340.7229	0.1558
340.9327	0.1639
341.1424	0.159
341.3522	0.1488
341.5619	0.1516
341.7716	0.1589
341.9813	0.1607
342.1909	0.1622
342.4006	0.1619
342.6102	0.1594
342.8199	0.1602
343.0295	0.1554
343.2391	0.1573
343.4487	0.1598
343.6583	0.1687
343.8679	0.1576
344.0774	0.1596
344.287	0.1665
344.4965	0.1653
344.706	0.1614
344.9155	0.1595
345.125	0.165
345.3345	0.1727
345.544	0.1704
345.7534	0.1639
345.9629	0.1743
346.1723	0.1756
346.3817	0.1684
346.5911	0.1778
346.8005	0.1756
347.0099	0.1725
347.2193	0.1787
347.4286	0.1764
347.638	0.1856
347.8473	0.1806
348.0566	0.1748
348.2659	0.1829
348.4752	0.1832
348.6845	0.1759
348.8937	0.175
349.103	0.1798
349.3122	0.1764
349.5214	0.1799
349.7306	0.1835
349.9398	0.1841
350.149	0.1755
350.3582	0.1829
350.5674	0.1857
350.7765	0.1894
350.9856	0.1806
351.1948	0.1889
351.4039	0.1892
351.613	0.1848
351.822	0.1954
352.0311	0.1836
352.2402	0.186
352.4492	0.1835
352.6582	0.1874
352.8672	0.1869
353.0762	0.1877
353.2852	0.1783
353.4942	0.1949
353.7032	0.1846
353.9121	0.1911
354.1211	0.1887
354.33	0.1951
354.5389	0.1878
354.7478	0.1903
354.9567	0.1928
355.1655	0.1957
355.3744	0.1899
355.5833	0.1922
355.7921	0.1964
356.0009	0.1933
356.2097	0.1903
356.4185	0.1878
356.6273	0.1899
356.8361	0.1927
357.0448	0.1971
357.2536	0.1939
357.4623	0.193
357.671	0.1988
357.8797	0.1933
358.0884	0.1921
358.2971	0.1979
358.5057	0.2002
358.7144	0.1969
358.923	0.2032
359.1316	0.2042
359.3402	0.2054
359.5488	0.2038
359.7574	0.2005
359.966	0.2
360.1746	0.1977
360.3831	0.2128
360.5916	0.2054
360.8002	0.2116
361.0087	0.198
361.2172	0.2086
361.4256	0.2079
361.6341	0.217
361.8426	0.2123
362.051	0.2129
362.2594	0.2054
362.4678	0.2117
362.6762	0.2057
362.8846	0.2221
363.093	0.2198
363.3014	0.2209
363.5097	0.2165
363.718	0.2269
363.9264	0.2214
364.1347	0.2253
364.343	0.2256
364.5513	0.224
364.7595	0.2361
364.9678	0.219
365.176	0.2242
365.3842	0.2353
365.5925	0.2253
365.8007	0.2242
366.0089	0.2311
366.217	0.231
366.4252	0.2305
366.6333	0.2321
366.8415	0.2359
367.0496	0.2332
367.2577	0.2359
367.4658	0.2379
367.6739	0.235
367.882	0.2422
368.09	0.2324
368.2981	0.2373
368.5061	0.2356
368.7141	0.2412
368.9221	0.2449
369.1301	0.2436
369.3381	0.2486
369.5461	0.2463
369.754	0.234
369.962	0.2448
370.1699	0.2524
370.3778	0.2487
370.5857	0.2426
370.7936	0.2455
371.0015	0.2511
371.2093	0.2454
371.4172	0.2509
371.625	0.2453
371.8328	0.2478
372.0406	0.2574
372.2484	0.2549
372.4562	0.2545
372.664	0.2513
372.8717	0.2588
373.0795	0.258
373.2872	0.2612
373.4949	0.2603
373.7026	0.2615
373.9103	0.2596
374.118	0.2645
374.3256	0.2671
374.5333	0.2612
374.7409	0.2588
374.9485	0.2653
375.1561	0.2691
375.3637	0.2592
375.5713	0.2668
375.7789	0.2558
375.9864	0.267
376.194	0.2732
376.4015	0.2668
376.609	0.2624
376.8165	0.2716
377.024	0.275
377.2315	0.2622
377.4389	0.2726
377.6464	0.2793
377.8538	0.2755
378.0612	0.2728
378.2686	0.2705
378.476	0.2826
378.6834	0.2775
378.8908	0.2836
379.0981	0.2671
379.3055	0.2724
379.5128	0.265
379.7201	0.2836
379.9274	0.2799
380.1347	0.2682
380.342	0.2834
380.5492	0.2796
380.7565	0.2807
380.9637	0.2868
381.1709	0.2862
381.3781	0.2924
381.5853	0.2867
381.7925	0.2882
381.9997	0.2918
382.2068	0.2907
382.4139	0.2854
382.6211	0.2839
382.8282	0.2965
383.0353	0.2946
383.2424	0.2834
383.4494	0.287
383.6565	0.2911
383.8635	0.2834
384.0706	0.2976
384.2776	0.2945
384.4846	0.2867
384.6916	0.2813
384.8986	0.2938
385.1055	0.3039
385.3125	0.2957
385.5194	0.2951
385.7263	0.2906
385.9333	0.3007
386.1402	0.2922
386.347	0.286
386.5539	0.2859
386.7608	0.2888
386.9676	0.2896
387.1744	0.2957
387.3813	0.2906
387.5881	0.2807
387.7948	0.2928
388.0016	0.3134
388.2084	0.2947
388.4151	0.2916
388.6219	0.2823
388.8286	0.2866
389.0353	0.2924
389.242	0.2882
389.4487	0.2857
389.6553	0.2802
389.862	0.2825
390.0686	0.2915
390.2753	0.2839
390.4819	0.291
390.6885	0.2879
390.8951	0.282
391.1016	0.2916
391.3082	0.2935
391.5147	0.2728
391.7213	0.2846
391.9278	0.279
392.1343	0.2775
392.3408	0.2804
392.5473	0.2796
392.7537	0.2751
392.9602	0.2687
393.1666	0.2693
393.373	0.2617
393.5794	0.266
393.7858	0.267
393.9922	0.2659
394.1986	0.2624
394.4049	0.2658
394.6113	0.2628
394.8176	0.2719
395.0239	0.264
395.2302	0.2609
395.4365	0.2598
395.6428	0.259
395.8491	0.2523
396.0553	0.261
396.2615	0.2604
396.4678	0.2647
396.674	0.2435
396.8802	0.2488
397.0863	0.256
397.2925	0.253
397.4987	0.2499
397.7048	0.2569
397.9109	0.2512
398.117	0.2498
398.3231	0.2451
398.5292	0.2467
398.7353	0.2465
398.9413	0.2542
399.1474	0.2575
399.3534	0.2466
399.5594	0.2596
399.7654	0.2518
399.9714	0.2546
400.1774	0.2465
400.3833	0.2472
400.5893	0.2418
400.7952	0.2514
401.0011	0.2439
401.207	0.2482
401.4129	0.2537
401.6188	0.2513
401.8247	0.2597
402.0305	0.2564
402.2364	0.2486
402.4422	0.2483
402.648	0.2461
402.8538	0.2435
403.0596	0.2409
403.2654	0.2402
403.4711	0.2367
403.6768	0.2402
403.8826	0.248
404.0883	0.2475
404.294	0.2405
404.4997	0.2524
404.7054	0.253
404.911	0.2354
405.1167	0.2433
405.3223	0.2387
405.5279	0.2506
405.7335	0.236
405.9391	0.2343
406.1447	0.246
406.3502	0.2494
406.5558	0.2499
406.7613	0.2468
406.9668	0.249
407.1724	0.2467
407.3778	0.2494
407.5833	0.2437
407.7888	0.2487
407.9942	0.2466
408.1997	0.2473
408.4051	0.2467
408.6105	0.2512
408.8159	0.2414
409.0213	0.2505
409.2267	0.2515
409.432	0.241
409.6374	0.251
409.8427	0.2513
410.048	0.2465
410.2533	0.2422
410.4586	0.2397
410.6639	0.248
410.8691	0.2324
411.0744	0.244
411.2796	0.244
411.4848	0.2505
411.69	0.2335
411.8952	0.2439
412.1004	0.2477
412.3056	0.2383
412.5107	0.2494
412.7158	0.2509
412.921	0.244
413.1261	0.2423
413.3312	0.2464
413.5362	0.2425
413.7413	0.2443
413.9464	0.2352
414.1514	0.2445
414.3564	0.2406
414.5614	0.2376
414.7664	0.2277
414.9714	0.2338
415.1764	0.2466
415.3813	0.2284
415.5863	0.2344
415.7912	0.234
415.9961	0.235
416.201	0.2443
416.4059	0.2362
416.6108	0.244
416.8156	0.2369
417.0205	0.2451
417.2253	0.2511
417.4301	0.2421
417.6349	0.2345
417.8397	0.233
418.0445	0.2313
418.2492	0.238
418.454	0.2342
418.6587	0.2425
418.8634	0.241
419.0681	0.2247
419.2728	0.2298
419.4775	0.244
419.6822	0.2367
419.8868	0.2237
420.0915	0.2286
420.2961	0.2284
420.5007	0.232
420.7053	0.2331
420.9099	0.2269
421.1144	0.2238
421.319	0.2258
421.5235	0.2177
421.728	0.2297
421.9325	0.2227
422.137	0.2298
422.3415	0.214
422.546	0.2244
422.7504	0.2198
422.9549	0.2252
423.1593	0.2152
423.3637	0.2136
423.5681	0.2175
423.7725	0.2162
423.9769	0.2206
424.1812	0.2016
424.3856	0.2094
424.5899	0.2149
424.7942	0.2056
424.9985	0.2129
425.2028	0.2181
425.4071	0.2132
425.6113	0.2113
425.8156	0.2125
426.0198	0.219
426.224	0.2122
426.4282	0.2051
426.6324	0.2055
426.8366	0.1997
427.0407	0.2032
427.2449	0.2011
427.449	0.1974
427.6531	0.2051
427.8572	0.2055
428.0613	0.2144
428.2654	0.19
428.4694	0.1878
428.6735	0.201
428.8775	0.1901
429.0815	0.1883
429.2855	0.1829
429.4895	0.1855
429.6935	0.186
429.8975	0.1831
430.1014	0.1959
430.3053	0.1899
430.5093	0.1895
430.7132	0.1797
430.9171	0.1768
431.1209	0.1744
431.3248	0.1654
431.5286	0.1737
431.7325	0.192
431.9363	0.1749
432.1401	0.1673
432.3439	0.1719
432.5477	0.1699
432.7514	0.1644
432.9552	0.1645
433.1589	0.1676
433.3627	0.1593
433.5664	0.1524
433.7701	0.1667
433.9737	0.1598
434.1774	0.1458
434.3811	0.1409
434.5847	0.1515
434.7883	0.1507
434.9919	0.1521
435.1955	0.1527
435.3991	0.1508
435.6027	0.1362
435.8062	0.1599
436.0098	0.1349
436.2133	0.1439
436.4168	0.1395
436.6203	0.1323
436.8238	0.135
437.0272	0.1367
437.2307	0.1246
437.4341	0.1263
437.6375	0.1307
437.841	0.1241
438.0443	0.1363
438.2477	0.1135
438.4511	0.1163
438.6545	0.1241
438.8578	0.1245
439.0611	0.1203
439.2644	0.1206
439.4677	0.1131
439.671	0.1104
439.8743	0.1183
440.0775	0.1081
440.2808	0.11
440.484	0.1149
440.6872	0.112
440.8904	0.1025
441.0936	0.106
441.2967	0.092
441.4999	0.0941
441.703	0.0941
441.9062	0.0992
442.1093	0.1055
442.3124	0.0906
442.5155	0.0932
442.7185	0.0913
442.9216	0.086
443.1246	0.0948
443.3276	0.0887
443.5307	0.0854
443.7337	0.0799
443.9366	0.0837
444.1396	0.0865
444.3426	0.0719
444.5455	0.0792
444.7484	0.076
444.9513	0.0779
445.1542	0.0837
445.3571	0.0767
445.56	0.07
445.7628	0.0744
445.9657	0.0758
446.1685	0.0775
446.3713	0.0757
446.5741	0.0784
446.7769	0.0712
446.9797	0.0587
447.1824	0.0626
447.3852	0.0607
447.5879	0.0631
447.7906	0.0533
447.9933	0.0627
448.196	0.0605
448.3986	0.0577
448.6013	0.0483
448.8039	0.0644
449.0066	0.0593
449.2092	0.0657
449.4118	0.0614
449.6143	0.0529
449.8169	0.0522
450.0195	0.0487
450.222	0.0551
450.4245	0.053
450.627	0.0476
450.8295	0.0405
451.032	0.0444
451.2345	0.0425
451.4369	0.0507
451.6394	0.0433
451.8418	0.0503
452.0442	0.049
452.2466	0.0364
452.449	0.0361
452.6513	0.0319
452.8537	0.0308
453.056	0.0367
453.2583	0.039
453.4607	0.029
453.663	0.0349
453.8652	0.035
454.0675	0.0444
454.2697	0.0346
454.472	0.0202
454.6742	0.0376
454.8764	0.0422
455.0786	0.0204
455.2808	0.0248
455.4829	0.0368
455.6851	0.0268
455.8872	0.0186
456.0893	0.0394
456.2915	0.0254
456.4935	0.0416
456.6956	0.0233
456.8977	0.0206
457.0997	0.0331
457.3018	0.0221
457.5038	0.0343
457.7058	0.0358
457.9078	0.0339
458.1098	0.027
458.3117	0.0307
458.5137	0.0146
458.7156	0.0261
458.9175	0.0231
459.1194	0.0257
459.3213	0.015
459.5232	0.0318
459.725	0.0189
459.9269	0.0179
460.1287	0.0241
460.3305	0.0222
460.5323	0.0294
460.7341	0.0269
460.9359	0.0244
461.1376	0.0228
461.3394	0.0203
461.5411	0.023
461.7428	0.019
461.9445	0.0201
462.1462	0.0123
462.3479	0.0161
462.5495	0.0225
462.7512	0.0274
462.9528	0.0162
463.1544	0.0156
463.356	0.0197
463.5576	0.0359
463.7592	0.0242
463.9607	0.0172
464.1623	0.0142
464.3638	0.0146
464.5653	0.0182
464.7668	0.0186
464.9683	0.0175
465.1697	0.0133
465.3712	0.0129
465.5726	0.0163
465.7741	0.0195
465.9755	0.0188
466.1769	0.0177
466.3782	0.0133
466.5796	0.0116
466.7809	0.0222
466.9823	0.0145
467.1836	0.0193
467.3849	0.0099
467.5862	0.0112
467.7875	0.0114
467.9887	0.0261
468.19	0.0158
468.3912	0.0219
468.5924	0.0089
468.7936	0.0156
468.9948	0.0155
469.196	0.0111
469.3972	0.0097
469.5983	0.0134
469.7994	0.0188
470.0006	0.0164
470.2017	0.0167
470.4027	0.0265
470.6038	0.0152
470.8049	0.0129
471.0059	0.0169
471.2069	0.0258
471.408	0.0232
471.6089	0.0183
471.8099	0.0167
472.0109	0.0053
472.2119	0.0279
472.4128	0.0101
472.6137	0.0159
472.8146	0.0213
473.0155	0.0269
473.2164	0.0075
473.4173	0.0031
473.6181	0.0077
473.819	0.0076
474.0198	0.0067
474.2206	0.0094
474.4214	0.0227
474.6222	-0.0052
474.8229	0.0183
475.0237	0.0126
475.2244	0.0137
475.4251	0.009
475.6258	0.0089
475.8265	0.0221
476.0272	0.0146
476.2278	0.0133
476.4285	0.0144
476.6291	0.0123
476.8297	0.0171
477.0303	-0.0035
477.2309	0.0192
477.4315	0.0159
477.632	-0.0007
477.8326	0.0196
478.0331	0.0088
478.2336	0.0051
478.4341	0.0091
478.6346	0.0087
478.8351	0.0055
479.0355	0.0182
479.236	0.0183
479.4364	0.0096
479.6368	0.009
479.8372	0.0104
480.0376	0.0134
480.2379	0.0023
480.4383	0.0145
480.6386	0.0105
480.8389	0.0054
481.0392	0.0123
481.2395	0.0151
481.4398	0.0125
481.6401	0.0137
481.8403	0.0029
482.0405	0.0091
482.2408	0.012
482.441	0.0124
482.6411	0.0059
482.8413	0.0082
483.0415	0.0162
483.2416	0.0089
483.4417	0.0086
483.6419	0.0069
483.8419	0.0084
484.042	0.0086
484.2421	0.0017
484.4422	0.0114
484.6422	0.0085
484.8422	0.0058
485.0422	0.0117
485.2422	0.0089
485.4422	0.0092
485.6422	0.0043
485.8421	0.007
486.042	0.0161
486.242	0.0038
486.4419	0.0112
486.6417	0.0087
486.8416	0.0144
487.0415	0.007
487.2413	0.0041
487.4411	0.0152
487.641	0.0074
487.8408	0.014
488.0405	0.0141
488.2403	0.0072
488.4401	0.0085
488.6398	0.0129
488.8395	0.0054
489.0392	0.0108
489.2389	0.0163
489.4386	-0.0011
489.6383	0.0152
489.8379	0.0093
490.0376	0.0134
490.2372	0.0115
490.4368	0.0074
490.6364	0.0083
490.836	0.0072
491.0355	-0.0009
491.2351	0.0133
491.4346	0.0067
491.6341	0.0029
491.8336	0.0147
492.0331	0.0024
492.2326	0.0058
492.432	0.0134
492.6315	0.0165
492.8309	0.0104
493.0303	0.0129
493.2297	0.011
493.4291	0.003
493.6284	0.0129
493.8278	-0.0012
494.0271	0.0121
494.2264	0.0069
494.4257	0.0064
494.625	0.0098
494.8243	0.0079
495.0236	0.0187
495.2228	0.0141
495.422	0.0073
495.6213	0.0087
495.8205	0.009
496.0196	0.0058
496.2188	0.0128
496.418	0.0002
496.6171	0.0081
496.8162	0.0096
497.0153	0.0152
497.2144	0.0138
497.4135	0.0078
497.6126	0.0131
497.8116	0.0092
498.0107	0.0123
498.2097	0.0165
498.4087	0.0096
498.6077	0.0039
498.8067	0.011
499.0056	0.0074
499.2046	0.0116
499.4035	0.0152
499.6024	0.0002
499.8013	0.0112
500.0002	0.0141
500.199	0.0171
500.3979	0.0023
500.5967	0.0086
500.7956	0.0146
500.9944	0.009
501.1932	0.0108
501.3919	0.0175
501.5907	0.0171
501.7895	0.0038
501.9882	0.007
502.1869	0.0169
502.3856	0.011
502.5843	0.0044
502.783	0.003
502.9816	0.0159
503.1803	0.013
503.3789	0.0156
503.5775	0.0065
503.7761	0.0009
503.9747	0.0177
504.1732	0.0085
504.3718	0.0187
504.5703	0.0071
504.7689	-0.0045
504.9674	0.0028
505.1658	0.0067
505.3643	0.0151
505.5628	0.0128
505.7612	0.0105
505.9597	0.0119
506.1581	0.0056
506.3565	0.0053
506.5549	-0.0007
506.7532	0.0084
506.9516	0.0097
507.1499	0.0092
507.3482	0.0073
507.5465	0.011
507.7448	0.0073
507.9431	0.0119
508.1414	0.0086
508.3396	0.0136
508.5379	0.0112
508.7361	0.0151
508.9343	0.0207
509.1325	0.0169
509.3306	0.0049
509.5288	0.0078
509.7269	0.0112
509.9251	0.013
510.1232	0.0162
510.3213	0.0133
510.5193	0.0124
510.7174	-0
510.9154	0.0125
511.1135	-0.0021
511.3115	0.0094
511.5095	0.0083
511.7075	0.0102
511.9055	0.0026
512.1034	0.0052
512.3014	0.0046
512.4993	0.0126
512.6972	0.0139
512.8951	0.021
513.093	0.0121
513.2908	0.014
513.4887	0.0148
513.6865	0.0106
513.8844	0.0154
514.0822	0.0066
514.2799	0.0082
514.4777	0.0051
514.6755	0.0138
514.8732	-0.0011
515.0709	0.0119
515.2687	0.0059
515.4664	0.0221
515.664	0.0146
515.8617	0.0269
516.0594	0.0105
516.257	0.0159
516.4546	0.0196
516.6522	0.0164
516.8498	0.0048
517.0474	0.0184
517.2449	0.0065
517.4425	0.0061
517.64	0.0131
517.8375	0.0103
518.035	0.0012
518.2325	-0.0018
518.43	0.01
518.6274	-0.003
518.8249	0.0179
519.0223	0.013
519.2197	0.0054
519.4171	0.005
519.6145	0.0086
519.8118	0.002
520.0092	-0.0007
520.2065	0.0099
520.4038	0.009
520.6011	0.0167
520.7984	0.0047
520.9956	0.0131
521.1929	0.0123
521.3901	0.0086
521.5874	0.0141
521.7846	-0.0039
521.9818	0.005
522.1789	0.0046
522.3761	0.0226
522.5732	0.0147
522.7704	0.0044
522.9675	0.0076
523.1646	0.0032
523.3617	0.0132
523.5587	0.0096
523.7558	0.0147
523.9528	0.0128
524.1498	0.004
524.3468	0.0107
524.5438	0.0105
524.7408	-0.0011
524.9378	0.0128
525.1347	0.0127
525.3316	0.0098
525.5285	0.0024
525.7254	0.0195
525.9223	0.0158
526.1192	0.0077
526.316	0.0083
526.5129	0.0103
526.7097	0.0114
526.9065	0.0184
527.1033	0.0006
527.3	0.0081
527.4968	0.0178
527.6935	0.0065
527.8903	0.0039
528.087	0.0069
528.2837	0.0178
528.4804	0.0053
528.677	0.0175
528.8737	0.0093
529.0703	0.0072
529.2669	0.0147
529.4635	0.0041
529.6601	0.0061
529.8567	0.0058
530.0532	0.0066
530.2498	0.002
530.4463	0.0033
530.6428	0.0115
530.8393	0.0182
531.0358	0.019
531.2322	0.0059
531.4287	0.0112
531.6251	-0.0015
531.8215	-0.0034
532.0179	0.0011
532.2143	0.0034
532.4107	0.0128
532.607	0.0016
532.8034	0.0119
532.9997	0.0017
533.196	0.0052
533.3923	0.0161
533.5886	0.0152
533.7848	0.0055
533.9811	0.0114
534.1773	0.0054
534.3735	0.0075
534.5697	0.0045
534.7659	0.0096
534.9621	0.0182
535.1582	0.0116
535.3544	0.0098
535.5505	0.0166
535.7466	0.0072
535.9427	0.0048
536.1387	0.0023
536.3348	0.0171
536.5308	0.0025
536.7269	0.009
536.9229	0.0114
537.1189	0.0104
537.3148	0.0149
537.5108	0.0141
537.7068	0.0152
537.9027	-0.0029
538.0986	0.0066
538.2945	0.0063
538.4904	0.003
538.6863	0.0095
538.8821	0.0144
539.078	0.007
539.2738	0.0133
539.4696	-0
539.6654	0.0115
539.8611	0.0088
540.0569	0.0125
540.2526	0.0153
540.4484	0.0044
540.6441	0.0082
540.8398	0.0142
541.0355	0.0008
541.2311	-0.0016
541.4268	0.0174
541.6224	0.021
541.818	0.0115
542.0136	0.0116
542.2092	0.018
542.4048	0.0095
542.6003	0.0087
542.7959	0.0113
542.9914	0.0028
543.1869	0.0113
543.3824	0.0111
543.5779	0.0232
543.7734	0.0253
543.9688	0.0163
544.1642	0.0073
544.3596	0.0103
544.555	0.0117
544.7504	0.0153
544.9458	0.0104
545.1411	0.0126
545.3365	0.0054
545.5318	0.009
545.7271	0.0168
545.9224	0.0106
546.1177	0.009
546.3129	0.0102
546.5081	0.0035
546.7034	0.0011
546.8986	0.009
547.0938	0.0122
547.289	0.0107
547.4841	0.0209
547.6793	0.0118
547.8744	0.0068
548.0695	0.0098
548.2646	0.0077
548.4597	0.0184
548.6548	0.0253
548.8498	0.0162
549.0448	0.0092
549.2399	0.0209
549.4349	0.0097
549.6298	0.0087
549.8248	0.0039
550.0198	0.0099
550.2147	0.019
550.4096	0
550.6045	0.006
550.7994	0.0067
550.9943	0.018
551.1892	-0.0018
551.384	0.0037
551.5788	0.0147
551.7737	0.0139
551.9685	0.0079
552.1632	0.0051
552.358	0.0066
552.5528	0.0096
552.7475	0.0222
552.9422	0.0202
553.1369	0.0146
553.3316	0.0117
553.5263	0.0109
553.7209	0.014
553.9156	0.0129
554.1102	0.0224
554.3048	-0.0009
554.4994	0.0134
554.694	0.009
554.8885	0.0189
555.0831	0.0129
555.2776	0.0109
555.4721	0.002
555.6666	0.0078
555.8611	0.0085
556.0555	0.0039
556.25	0.0172
556.4444	0.0061
556.6388	0.001
556.8332	0.0033
557.0276	0.001
557.222	0.005
557.4163	0.0147
557.6107	0.0066
557.805	-0.0019
557.9993	0.0144
558.1936	0.0056
558.3879	0.0181
558.5821	0.0011
558.7764	0.0026
558.9706	0.0093
559.1648	0.0131
559.359	0.0022
559.5532	-0.0001
559.7473	0.0047
559.9415	0.0073
560.1356	0.0175
560.3297	0.0011
560.5238	0.0067
560.7179	0.0099
560.9119	0.0102
561.106	0.003
561.3	0.0052
561.494	0.0107
561.688	0.0108
561.882	0.0004
562.076	0.0079
562.2699	0.0162
562.4639	0.024
562.6578	0.0096
562.8517	0.0142
563.0456	0.0084
563.2395	0.011
563.4333	0.0071
563.6272	0.0149
563.821	-0.004
564.0148	0.0054
564.2086	0.0064
564.4024	0.0242
564.5961	0.0113
564.7899	0.0111
564.9836	0.012
565.1773	0.0177
565.371	0.0146
565.5647	0.0111
565.7584	0.0109
565.952	0.005
566.1456	0.0039
566.3393	0.0132
566.5329	0.0031
566.7264	0.0077
566.92	0.0096
567.1136	0.0007
567.3071	0.0103
567.5006	0.0113
567.6941	0.012
567.8876	0.0102
568.0811	0.0257
568.2745	-0.0003
568.468	0.0117
568.6614	0.0172
568.8548	0.0091
569.0482	0.0075
569.2416	0.0084
569.4349	0.01
569.6283	0.008
569.8216	0.0116
570.0149	0.0065
570.2082	0.0169
570.4015	0.0052
570.5947	0.008
570.788	0.0115
570.9812	0.0033
571.1744	0.004
571.3676	0.0039
571.5608	0.0079
571.754	0.0131
571.9471	0.0151
572.1402	0.0049
572.3333	0.0128
572.5264	0.0057
572.7195	0.0124
572.9126	0.0063
573.1057	0.012
573.2987	0.0051
573.4917	0.0062
573.6847	0.0082
573.8777	0.0129
574.0707	0.0119
574.2636	0.0087
574.4566	0.0084
574.6495	0.0043
574.8424	0.0109
575.0353	0.0102
575.2281	0.0124
575.421	0.0044
575.6138	0.0069
575.8067	0.015
575.9995	0.0125
576.1923	0.01
576.385	0.0048
576.5778	0.0147
576.7706	0.0124
576.9633	0.0133
577.156	0.0042
577.3487	0.0052
577.5414	0.0048
577.734	0.0074
577.9267	0.0081
578.1193	0.0119
578.3119	0.0056
578.5045	0.0087
578.6971	0.0045
578.8897	0.0103
579.0822	0.0135
579.2747	0.0066
579.4673	0.0096
579.6598	0.0125
579.8522	0.0086
580.0447	0.0119
580.2372	0.0105
580.4296	0.0089
580.622	0.0028
580.8144	0.0063
581.0068	0.0073
581.1992	0.0053
581.3915	0.0001
581.5839	0.0092
581.7762	0.0081
581.9685	0.008
582.1608	0.0056
582.353	0.0086
582.5453	0.0087
582.7375	0.0112
582.9298	0.0058
583.122	0.0088
583.3142	0.0117
583.5063	0.0059
583.6985	0.0015
583.8906	0.0035
584.0827	0.0067
584.2749	0.0059
584.4669	0.0069
584.659	0.0071
584.8511	0.014
585.0431	0.0095
585.2352	0.0087
585.4272	0.0084
585.6192	0.0085
585.8111	0.0069
586.0031	0.0017
586.195	0.0084
586.387	0.0066
586.5789	0.0105
586.7708	0.0125
586.9627	0.0066
587.1545	0.0111
587.3464	0.0116
587.5382	0.0108
587.73	0.0129
587.9218	0.0093
588.1136	0.0087
588.3053	0.0099
588.4971	0.0053
588.6888	0.0049
588.8805	0.006
589.0722	0.0147
589.2639	0.0071
589.4556	0.0098
589.6472	0.0141
589.8389	0.0106
590.0305	0.0029
590.2221	0.0144
590.4137	0.0045
590.6052	0.0021
590.7968	0.0083
590.9883	0.0059
591.1798	0.0017
591.3713	0.0079
591.5628	0.0124
591.7543	0.0064
591.9458	0.0102
592.1372	0.0113
592.3286	0.0104
592.52	0.0117
592.7114	0.0109
592.9028	0.011
593.0941	0.0074
593.2855	0.0093
593.4768	0.0139
593.6681	0.0128
593.8594	0.0125
594.0506	-0.0037
594.2419	0.0054
594.4331	0.0067
594.6244	0.0005
594.8156	0.0115
595.0067	0.0027
595.1979	0.0073
595.3891	0.0082
595.5802	0.0135
595.7713	0.0078
595.9624	0.0101
596.1535	0.0092
596.3446	-0.0005
596.5357	0.0081
596.7267	0.008
596.9177	0.0093
597.1087	0.0023
597.2997	0.0142
597.4907	0.0077
597.6817	0.0103
597.8726	0.0118
598.0635	0.009
598.2544	0.0091
598.4453	0.0038
598.6362	0.0033
598.827	0.0073
599.0179	0.0088
599.2087	0.0133
599.3995	0.0108
599.5903	0.016
599.7811	0.015
599.9718	0.0012
600.1626	0.0062
600.3533	0.0064
600.544	0.0084
600.7347	0.0093
600.9254	0.014
601.116	0.003
601.3067	0.0083
601.4973	0.0126
601.6879	0.0077
601.8785	0.0145
602.0691	0.0083
602.2596	0.0077
602.4502	0.0045
602.6407	0.0182
602.8312	0.0081
603.0217	0.0121
603.2122	0.0049
603.4027	0.0072
603.5931	0.0088
603.7835	0.0118
603.9739	-0.0002
604.1643	0.0158
604.3547	0.011
604.5451	0.0117
604.7354	0.0023
604.9257	0.0056
605.116	0.0006
605.3063	0.0163
605.4966	0.0088
605.6869	0.0138
605.8771	0.0094
606.0673	0.0082
606.2575	0.0123
606.4477	0.0115
606.6379	0.004
606.8281	0.0104
607.0182	0.0056
607.2083	0.0073
607.3985	0.0033
607.5885	0.0082
607.7786	0.0084
607.9687	0.0064
608.1587	0.0154
608.3488	0.0102
608.5388	-0.0028
608.7288	0.0028
608.9187	0.0114
609.1087	0.0145
609.2986	0.0137
609.4886	0.0008
609.6785	0.0104
609.8684	0.0044
610.0582	0.0049
610.2481	0.0017
610.4379	0.011
610.6278	0.0074
610.8176	0.0172
611.0074	0.0167
611.1971	0.0133
611.3869	0.0142
611.5766	0.0038
611.7664	0.0115
611.9561	0.016
612.1458	0.0088
612.3354	-0.002
612.5251	0.007
612.7147	0.0147
612.9044	0.0063
613.094	0.0081
613.2836	0.0036
613.4731	0.0064
613.6627	0.0083
613.8522	0.0086
614.0417	0.0152
614.2313	0.0022
614.4207	0.0117
614.6102	0.012
614.7997	0.0125
614.9891	0.0128
615.1785	0.0098
615.3679	0.0119
615.5573	0.0098
615.7467	0.0023
615.9361	0.0076
616.1254	0.0138
616.3147	0.0075
616.504	0.0052
616.6933	0.0103
616.8826	0.0069
617.0718	0.0108
617.2611	0.0054
617.4503	0.0056
617.6395	0.0107
617.8287	0.0169
618.0179	0.01
618.207	0.0129
618.3961	0.0089
618.5853	0.005
618.7744	0.0185
618.9634	0.0171
619.1525	0.0027
619.3416	0.0059
619.5306	0.0163
619.7196	0.0157
619.9086	0.0132
620.0976	-0.0012
620.2866	0.0134
620.4755	0.0025
620.6645	0.0144
620.8534	0.0016
621.0423	0.0155
621.2312	0.0116
621.42	0.0031
621.6089	0.0046
621.7977	0.0145
621.9865	0.0107
622.1753	-0.0008
622.3641	-0.0016
622.5529	0.0052
622.7416	0.0075
622.9303	0.0007
623.1191	0.0171
623.3078	0.0082
623.4964	0.0072
623.6851	0.004
623.8737	0.0074
624.0624	0.0015
624.251	0.0096
624.4396	0.0049
624.6282	0.0141
624.8167	0.0088
625.0053	0.0126
625.1938	0.0162
625.3823	0.0159
625.5708	0.0029
625.7593	0.0042
625.9477	0.003
626.1362	0.0087
626.3246	0.0101
626.513	0.0074
626.7014	0.0143
626.8898	0.0181
627.0781	0.0093
627.2665	0.0167
627.4548	0.0024
627.6431	0.0071
627.8314	0.0175
628.0197	0.0062
628.2079	-0.0056
628.3962	0.0111
628.5844	0.0153
628.7726	0.0006
628.9608	0.0136
629.1489	0.0087
629.3371	-0.0093
629.5252	0.0105
629.7134	-0.0032
629.9015	0.0169
630.0895	-0.0019
630.2776	0.0106
630.4657	0.0059
630.6537	0.003
630.8417	-0.0033
631.0297	0.0103
631.2177	0.0163
631.4057	0.0225
631.5936	-0.0081
631.7815	0.0203
631.9695	0.0248
632.1574	0.017
632.3452	0.0102
632.5331	0.0085
632.7209	0.0067
632.9088	0.0033
633.0966	0.0339
633.2844	0.0025
633.4722	0.0189
633.6599	0.0259
633.8477	0.0105
634.0354	0.0263
634.2231	0.0077
634.4108	-0.0053
634.5985	0.0185
634.7861	-0.002
634.9738	0.0056
635.1614	0.0201
635.349	0.0091
635.5366	-0.0004
635.7242	0.0206
635.9117	0.0169
636.0993	0.015
636.2868	-0.0075
636.4743	0.0125
636.6618	0.0108
636.8492	0.0257
637.0367	0.0151
637.2241	0.0046
637.4115	0.0271
637.5989	0.0094
637.7863	0.0406
637.9737	0.0071
638.161	0.0189
638.3484	0.0017
638.5357	0.0124
638.723	0.0242
638.9103	-0.0074
639.0975	0.0204
639.2848	0.0091
639.472	0.0331
639.6592	-0.0032
639.8464	0.0022
640.0336	0.0047
640.2208	0.0154
640.4079	0.0018
640.595	0.0005
640.7821	0.0136
640.9692	-0.0012
641.1563	0.0072
641.3434	0.0238
641.5304	0.0247
641.7174	0.0254
641.9044	0.0066
642.0914	0.027
642.2784	0.0066
642.4653	0.0051
642.6523	0.0252
642.8392	0.0048
643.0261	0.0058
643.213	0.0063
643.3999	0.0082
643.5867	0.0215
643.7735	-0.0006
643.9604	0.0042
644.1472	0.0175
644.3339	-0.0001
644.5207	0.0084
644.7075	0.0159
644.8942	0.0179
645.0809	-0.0064
645.2676	-0.01
645.4543	-0.0013
645.6409	0.0251
645.8276	0.0261
646.0142	0.02
646.2008	0.0103
646.3874	-0.0081
646.574	0.0073
646.7605	0.0049
646.9471	-0.0002
647.1336	-0.0036
647.3201	-0.0021
647.5066	0.0239
647.6931	0.0242
647.8795	0.0133
648.0659	-0.0035
648.2524	0.0162
648.4388	0.0061
648.6252	0.014
648.8115	0.0087
648.9979	0.0215
649.1842	0.0011
649.3705	0.0203
649.5568	-0.0061
649.7431	-0.0008
649.9294	0.0049
650.1156	-0.005
650.3018	0.0222
650.488	0.0249
650.6742	0.015
650.8604	0.0227
651.0466	-0.0091
651.2327	0.0046
651.4188	0.0044
651.6049	0.014
651.791	0.0111
651.9771	0.0122
652.1632	0.0105
652.3492	0.0152
652.5352	0.012
652.7212	0.0126
652.9072	0.0158
653.0932	0.016
653.2791	0.0202
653.465	0.0034
653.651	0.0026
653.8369	0.0116
654.0227	0.0039
654.2086	0.0196
654.3944	0.0125
654.5803	0.0173
654.7661	-0.0006
654.9519	0.0019
655.1377	0.0001
655.3234	0.0001
655.5092	0.0001
655.6949	0.0001
655.8806	0.0001
656.0663	0.0001
656.2519	0.0001
656.4376	0.0001
656.6232	0.0001
656.8088	0.0001
656.9945	0.0001
657.18	0.0001
657.3656	0.0001
657.5511	0.0001
657.7367	0.0001
657.9222	0.0001
658.1077	0.0001
658.2932	0.0001
658.4786	0.0001
658.6641	0.0001
658.8495	0.0001
659.0349	0.0001
659.2203	0.0001
659.4057	0.0186
659.591	0.3163
659.7764	0.0244
659.9617	0.0159
660.147	0.0037
660.3323	0.0154
660.5176	0.008
660.7028	0.0133
660.888	0.0208
661.0733	0.0197
661.2585	-0.0006
661.4436	0.0236
661.6288	0.0409
661.8139	0.0069
661.9991	0.0004
662.1842	-0.008
662.3693	-0.0054
662.5544	0.0303
662.7394	0.0283
662.9245	0.0042
663.1095	-0.0179
663.2945	-0.0146
663.4795	0.0162
663.6644	0.0087
663.8494	0.023
664.0343	-0.0014
664.2193	0.0038
664.4042	0.0029
664.589	0.0088
664.7739	0.0118
664.9587	0.0083
665.1436	-0.0248
665.3284	-0.0019
665.5132	-0.009
665.698	0.0282
665.8827	0.0182
666.0675	-0.0049
666.2522	0.0137
666.4369	0.0014
666.6216	0.0188
666.8063	0.0118
666.9909	0.0069
667.1756	-0.0097
667.3602	-0.0159
667.5448	0.0269
667.7294	0.0381
667.9139	-0.0054
668.0985	0.0171
668.283	0.0229
668.4675	0.0142
668.652	0.0206
668.8365	-0.0051
669.0209	0.0155
669.2054	0.0043
669.3898	-0.0018
669.5742	0.0158
669.7586	0.0287
669.943	0.0137
670.1273	0.003
670.3117	0.0233
670.496	0.0105
670.6803	-0.0054
670.8646	-0.0086
671.0488	0.0102
671.2331	0.0095
671.4173	0.0022
671.6015	0.003
671.7857	0.0079
671.9699	0.0165
672.1541	0.0008
672.3382	0.0008
672.5223	0.0033
672.7064	0.0103
672.8905	-0.0004
673.0746	0.0166
673.2587	0.0228
673.4427	0.0235
673.6267	0.0171
673.8107	0.0311
673.9947	0.0108
674.1787	-0.0089
674.3626	0.0158
674.5465	0.0273
674.7304	-0.026
674.9143	0.0095
675.0982	0.0229
675.2821	-0.0025
675.4659	0.0039
675.6497	0.0135
675.8335	-0.002
676.0173	0.0017
676.2011	0.04
676.3849	0.0182
676.5686	0.0391
676.7523	0.0058
676.936	0.0136
677.1197	0.0007
677.3034	0.0413
677.487	0.0124
677.6706	0.0093
677.8542	0.0062
678.0378	0.0236
678.2214	0.0045
678.405	0.008
678.5885	0.0025
678.772	0.0182
678.9555	0.0003
679.139	0.0167
679.3225	0.0006
679.5059	0.0066
679.6894	0.0055
679.8728	0.0132
680.0562	0.01
680.2395	0.0001
680.4229	0.0205
680.6062	0.0045
680.7896	-0.0043
680.9729	0.0181
681.1562	0.0099
681.3394	0.0178
681.5227	0.012
681.7059	0.0153
681.8891	0.0084
682.0723	0.0085
682.2555	-0.01
682.4387	0.0132
682.6218	0.01
682.805	-0.0027
682.9881	0.0193
683.1712	0.0184
683.3542	0.0139
683.5373	0.0034
683.7203	0.0079
683.9034	-0.0076
684.0864	0.0112
684.2694	0.0087
684.4523	0.0066
684.6353	0.0053
684.8182	0.0068
685.0011	0.0203
685.184	0.0068
685.3669	0.0426
685.5498	0.0071
685.7326	0.0222
685.9154	0.0047
686.0982	0.0231
686.281	-0.0106
686.4638	0.0265
686.6465	0.019
686.8293	-0.0049
687.012	0.0224
687.1947	0.019
687.3774	0.0108
687.56	-0.0107
687.7427	0.0156
687.9253	-0.0137
688.1079	0.009
688.2905	0.0029
688.4731	0.0182
688.6556	0.0115
688.8382	-0.0148
689.0207	0.0123
689.2032	0.0257
689.3857	0.0081
689.5681	-0.0067
689.7506	0.0337
689.933	0.0026
690.1154	0.0255
690.2978	0.0114
690.4802	0.0333
690.6626	0.0111
690.8449	0.0226
691.0272	0.006
691.2095	-0.0156
691.3918	0.0192
691.5741	0.0103
691.7563	0.0096
691.9386	0.0305
692.1208	0.0026
692.303	0.0016
692.4852	0.0173
692.6673	0.0102
692.8495	-0.0193
693.0316	0.0032
693.2137	0.0318
693.3958	0.0153
693.5778	0.0401
693.7599	0.0238
693.9419	-0.0125
694.1239	0.0215
694.3059	0.0289
694.4879	-0.0002
694.6699	0.003
694.8518	-0.0004
695.0337	0.0401
695.2157	0.0122
695.3975	-0.0011
695.5794	0.0039
695.7613	0.0078
695.9431	0.0045
696.1249	0.0299
696.3067	-0.0092
696.4885	0.0126
696.6703	0.0025
696.852	0.0039
697.0337	0.0201
697.2154	0.0147
697.3971	0.0263
697.5788	0.0128
697.7605	0.0037
697.9421	0.0197
698.1237	0.0167
698.3053	0.0141
698.4869	0.0057
698.6685	0.0007
698.85	0.0382
699.0315	-0.0002
699.213	0.0415
699.3945	0.0094
699.576	0.0196
699.7575	0.0342
699.9389	-0.0029
700.1203	0.0144
700.3017	0.0017
700.4831	0.0249
700.6645	0.0406
700.8458	0.0014
701.0271	0.0385
701.2084	0.0165
701.3897	0.0306
701.571	-0.0103
701.7523	-0.0012
701.9335	0.0079
702.1147	0.0172
702.2959	-0.0041
702.4771	0.0265
702.6583	0.0036
702.8394	-0.0174
703.0205	0.0186
703.2016	0.0023
703.3827	-0.0082
703.5638	0.0109
703.7449	0.0423
703.9259	0.0141
704.1069	-0.0167
704.2879	0.0365
704.4689	0.0241
704.6499	0.0468
704.8308	0.0451
705.0117	0.0048
705.1927	0.0198
705.3735	0.0163
705.5544	0.0199
705.7353	-0.0023
705.9161	-0.0221
706.0969	0.0112
706.2777	0.0215
706.4585	0.0261
706.6393	0.0252
706.82	0.0175
707.0007	-0.0073
707.1815	-0.0038
707.3621	0.0258
707.5428	0.0176
707.7235	0.0119
707.9041	0.004
708.0847	-0.0027
708.2653	0.0222
708.4459	0.0067
708.6265	0.0069
708.807	0.0178
708.9875	-0.0009
709.168	-0.0086
709.3485	0.0133
709.529	0.0142
709.7095	-0.0342
709.8899	-0.0041
710.0703	0.0303
710.2507	0.0001
710.4311	-0.018
710.6115	0.0178
710.7918	0.0108
710.9721	-0.0071
711.1524	0.0031
711.3327	0.0077
711.513	0.0046
711.6932	0.001
711.8735	0.0222
712.0537	0.0043
712.2339	0.0217
712.4141	0.0384
712.5942	0.0203
712.7744	0.0284
712.9545	0.0177
713.1346	0.0278
713.3147	0.02
713.4947	-0.0035
713.6748	0.0152
713.8548	0.0224
714.0348	0.0237
714.2148	0.0245
714.3948	0.0272
714.5748	0.0182
714.7547	0.0171
714.9346	0.0296
715.1145	-0.0107
715.2944	-0.0072
715.4743	0.0385
715.6541	-0.0079
715.834	0.0298
716.0138	0.0059
716.1936	0.005
716.3733	0.0473
716.5531	0.0309
716.7328	0.0358
716.9126	-0.0023
717.0923	-0.0254
717.2719	0.0108
717.4516	0.0339
717.6312	-0.0081
717.8109	0.0244
717.9905	0.0297
718.1701	0.0181
718.3496	0.0045
718.5292	-0.0058
718.7087	0.0299
718.8882	0.0059
719.0677	0.0087
719.2472	0.006
719.4267	0.0069
719.6061	-0.0203
719.7856	0.0326
719.965	0.0147
720.1443	-0.0072
720.3237	0.0073
720.5031	0.0002
720.6824	0.0032
720.8617	0.0276
721.041	0.0281
721.2203	-0.0295
721.3995	0.0245
721.5788	-0.001
721.758	-0.0113
721.9372	0.017
722.1164	0.0195
722.2956	0.0163
722.4747	0.0286
722.6538	0.0127
722.8329	0.0468
723.012	0.0347
723.1911	0.0053
723.3702	0.0498
723.5492	0.0217
723.7282	0.0168
723.9072	-0.0036
724.0862	-0.0091
724.2652	0.0019
724.4441	0.013
724.623	0.0185
724.8019	0.0037
724.9808	0.0233
725.1597	0.0164
725.3385	0.023
725.5174	0.0087
725.6962	0.0005
725.875	-0.0045
726.0538	0.0135
726.2325	0.0265
726.4112	-0.0105
726.59	-0.0063
726.7687	0.006
726.9474	0.032
727.126	0.0005
727.3047	-0.0107
727.4833	0.0147
727.6619	0.0144
727.8405	0.005
728.0191	0.0526
728.1976	0.029
728.3762	0.0151
728.5547	-0.0163
728.7332	0.0275
728.9116	0.021
729.0901	-0.0111
729.2686	-0.0033
729.447	0.0046
729.6254	0.027
729.8038	0.0139
729.9821	-0.0043
730.1605	0.0078
730.3388	0.0033
730.5171	0.0177
730.6954	0.0026
730.8737	0.0073
731.0519	-0.0012
731.2302	0.0348
731.4084	0.0065
731.5866	0.001
731.7648	0.0016
731.9429	-0.001
732.1211	0.004
732.2992	0.0226
732.4773	-0.0021
732.6554	-0.0157
732.8335	0.0557
733.0115	0.0287
733.1896	-0.007
733.3676	0.02
733.5456	0.0196
733.7235	0.0061
733.9015	0.0207
734.0794	0.0205
734.2574	-0.0078
734.4353	0.0233
734.6131	0.012
734.791	0.0004
734.9689	-0.0016
735.1467	-0.0054
735.3245	0.0324
735.5023	0.0026
735.68	-0.005
735.8578	0.016
736.0355	0.0106
736.2132	0.006
736.3909	0.0422
736.5686	0.0176
736.7463	-0.0278
736.9239	0.0223
737.1015	0.0142
737.2791	0.004
737.4567	0.0157
737.6343	0.0143
737.8118	0.017
737.9894	0.0072
738.1669	-0.0091
738.3444	0.0198
738.5218	-0.0016
738.6993	0.0115
738.8767	-0.0004
739.0541	0.0074
739.2315	0.0049
739.4089	0.0386
739.5863	-0.0011
739.7636	0.0167
739.9409	-0.0074
740.1182	0.0119
740.2955	0.0233
740.4728	-0.036
740.65	0.0077
740.8272	0.0297
741.0044	0.0115
741.1816	0.0055
741.3588	-0.0035
741.5359	0.0047
741.7131	0.0136
741.8902	-0.0052
742.0673	-0.0231
742.2444	0.0395
742.4214	0.0082
742.5985	-0.0036
742.7755	-0.0041
742.9525	-0.0093
743.1295	-0.019
743.3064	-0.023
743.4834	0.0343
743.6603	0.0581
743.8372	-0.026
744.0141	0.0442
744.191	0.0213
744.3678	-0.0268
744.5446	0.0172
744.7215	0.0358
744.8982	0.0175
745.075	0.0405
745.2518	-0.0079
745.4285	0.0308
745.6052	-0.0119
745.7819	0.0149
745.9586	-0.0201
746.1353	0.0023
746.3119	-0.0169
746.4885	0.0353
746.6651	0.0232
746.8417	-0.004
747.0183	0.0238
747.1948	0.0269
747.3714	0.039
747.5479	0.0209
747.7244	-0.0186
747.9008	0.007
748.0773	0.0408
748.2537	0.0217
748.4301	0.0165
748.6065	0.002
748.7829	-0.0182
748.9593	-0.0048
749.1356	0.0367
749.3119	0.0186
749.4882	0.0123
749.6645	0.0124
749.8408	0.0098
750.017	0.0087
750.1933	-0.0142
750.3695	0.0185
750.5457	0.0135
750.7218	0.0033
750.898	0.0076
751.0741	-0.0002
751.2502	0.0203
751.4263	0.0071
751.6024	0.017
751.7784	0.0023
751.9545	0.0046
752.1305	0.0128
752.3065	-0.0151
752.4825	-0.014
752.6584	0.008
752.8344	-0.0046
753.0103	-0.0144
753.1862	0.0166
753.3621	0.0064
753.5379	0.0176
753.7138	0.0245
753.8896	0.0079
754.0654	0.0024
754.2412	0.0399
754.417	-0.0131
754.5927	-0.0066
754.7685	0.0317
754.9442	0.009
755.1199	0.0098
755.2956	0.0273
755.4712	-0.0031
755.6469	0.0198
755.8225	0.0043
755.9981	0.0273
756.1736	0.0148
756.3492	0.0112
756.5248	0.0186
756.7003	0.0162
756.8758	-0.0046
757.0513	0.0148
757.2267	0.0193
757.4022	0.0027
757.5776	0.0086
757.753	0.0413
757.9284	0.004
758.1038	0.0176
758.2791	0.0214
758.4545	-0.0155
758.6298	0.0189
758.8051	0.0051
758.9803	0.0006
759.1556	0.001
759.3308	0.0095
759.506	0.0034
759.6812	0.0094
759.8564	-0.0001
760.0316	-0.0046
760.2067	0.0435
760.3819	0.0144
760.557	0.0039
760.732	0.0014
760.9071	0.0249
761.0821	-0.018
761.2572	0.0153
761.4322	0.013
761.6072	0.0022
761.7821	-0.0319
761.9571	0.0154
762.132	0.0102
762.3069	0.0183
762.4818	0.0137
762.6567	0.0009
762.8316	0.0029
763.0064	0.0144
763.1812	0.0151
763.356	0.0008
763.5308	0.0281
763.7055	-0.0161
763.8803	0.0135
764.055	0.0075
764.2297	-0.0078
764.4044	-0.0047
764.579	0.0179
764.7537	0.0062
764.9283	0.0301
765.1029	0.0159
765.2775	0.0328
765.4521	0.0265
765.6266	0.0029
765.8011	0.0253
765.9756	0.0342
766.1501	-0.0176
766.3246	0.0131
766.4991	0.0537
766.6735	0.0513
766.8479	-0.0061
767.0223	0.0152
767.1967	0.0399
767.371	0.0101
767.5454	0.0414
767.7197	0.0302
767.894	-0.0302
768.0683	0.0377
768.2425	0.0037
768.4168	0.0096
768.591	0.025
768.7652	-0.0066
768.9394	0.0018
769.1135	0.0125
769.2877	0.0427
769.4618	0.0121
769.6359	0.0112
769.81	0.0383
769.984	0.0066
770.1581	0.0236
770.3321	0.034
770.5061	-0.0045
770.6801	-0.0002
770.8541	0.0342
771.028	0.0258
771.202	0.0232
771.3759	-0.006
771.5498	0.0069
771.7236	0.0231
771.8975	0.0155
772.0713	-0.0093
772.2451	-0.0322
772.4189	0.0584
772.5927	-0.0135
772.7665	0.017
772.9402	-0.0182
773.1139	-0.0139
773.2876	-0.0117
773.4613	0.0076
773.635	0.0381
773.8086	0.051
773.9822	0.0365
774.1558	0.0534
774.3294	0.0191
774.503	0.0401
774.6765	0.05
774.8501	0.0051
775.0236	0.0385
775.1971	-0.0147
775.3705	0.0162
775.544	-0.0353
775.7174	0.0308
775.8908	0.0146
776.0642	0.0345
776.2376	0.0807
776.4109	0.0427
776.5843	-0.0564
776.7576	0.0572
776.9309	0.0442
777.1041	0.0204
777.2774	-0.0362
777.4506	-0.0081
777.6238	-0.043
777.797	0.0234
777.9702	0.0183
778.1434	0.0147
778.3165	-0.0107
778.4896	-0.0352
778.6627	0.0114
778.8358	-0.0157
779.0089	-0.0344
779.1819	0.0177
779.3549	0.0156
779.5279	-0.0207
779.7009	0.0564
779.8739	0.0529
780.0468	0.0168
780.2197	0.0249
780.3926	-0.0114
780.5655	0.0287
780.7384	0.0075
780.9112	0.0333
781.0841	-0.0007
781.2569	0.0024
781.4297	0.0117
781.6024	0.0231
781.7752	0.0325
781.9479	0.0441
782.1206	-0.0066
782.2933	0.0265
782.466	0.0305
782.6386	0.0089
782.8113	-0.0089
782.9839	0.0097
783.1565	0.0086
783.329	0.0096
783.5016	0.0189
783.6741	0.0133
783.8466	0.0425
784.0191	0.0256
784.1916	0.0059
784.3641	-0.0517
784.5365	0.0246
784.7089	-0.0418
784.8813	0.0713
785.0537	-0.0038
785.2261	-0.0214
785.3984	0.0378
785.5707	-0.0041
785.743	0.0362
785.9153	0.0115
786.0876	-0.0277
786.2598	-0.0027
786.432	-0.0107
786.6042	0.0296
786.7764	-0.0107
786.9486	0.0066
787.1207	0.0316
787.2928	0.046
787.4649	0.0402
787.637	-0.0114
787.8091	-0.0027
787.9811	0.034
788.1532	0.0311
788.3252	0.0205
788.4972	0.0052
788.6691	0.0085
788.8411	-0.0186
789.013	0.0234
789.1849	-0.0312
789.3568	0.0043
789.5287	0.0682
789.7005	-0.0253
789.8723	0.0285
790.0442	-0.0275
790.2159	0.0382
790.3877	0.0385
790.5595	0.0522
790.7312	0.0095
790.9029	-0.0077
791.0746	-0.0018
791.2463	-0.0406
791.4179	0.0004
791.5896	0.0054
791.7612	0.0219
791.9328	-0.0296
792.1044	0.0074
792.2759	-0.0248
792.4474	0.0808
792.619	-0.0206
792.7905	0.0167
792.9619	0.0835
793.1334	0.0463
793.3048	0.0671
793.4762	0.0363
793.6476	-0.0175
793.819	0.0023
793.9904	0.0176
794.1617	-0.009
794.333	0.0296
794.5043	0.0455
794.6756	0.0084
794.8469	0.0003
795.0181	0.0255
795.1893	-0.0041
795.3605	0.048
795.5317	0.0394
795.7029	0.0106
795.874	0.0254
796.0452	0.0697
796.2163	0.0723
796.3873	0.1186
796.5584	0.1097
796.7294	0.099
796.9005	0.047
797.0715	-0.0103
797.2425	0.1338
797.4134	0.0394
797.5844	0.0106
797.7553	-0.0217
797.9262	0.0592
798.0971	0.025
798.2679	-0.0185
798.4388	0.0431
798.6096	0.0033
798.7804	0.0592
798.9512	0.022
799.122	0.0096
799.2927	0.1049
799.4635	-0.0337
799.6342	0.0084
799.8049	0.0777
799.9755	0.038
800.1462	-0.0398
800.3168	0.0333
800.4874	-0.0897
800.658	-0.0011
800.8286	0.0533
800.9991	-0.0193
801.1696	-0.0317
801.3402	0.0172
801.5106	0.0842
801.6811	0.034
801.8516	0.0853
802.022	0.0724
802.1924	0.0136
802.3628	-0.0332
802.5332	0.0852
802.7035	0.0422
802.8739	0.0331
803.0442	0.0027
803.2145	0.0401
803.3847	0.0116
803.555	0.0178
803.7252	0.0171
803.8954	-0.0534
804.0656	0.0006
804.2358	0.0194
804.4059	0.1113
804.5761	0.0302
804.7462	0.0025
804.9163	0.0524
805.0864	-0.018
805.2564	-0.0214
805.4264	-0.055
805.5965	0.0466
805.7665	-0.0024
805.9364	0.0053
806.1064	0.0064
806.2763	0.044
806.4462	0.0041
806.6161	0.0303
806.786	0.023
806.9559	0.0359
807.1257	-0.0136
807.2955	-0.0495
807.4653	0.083
807.6351	0.0348
807.8048	0.0317
807.9746	0.0261
808.1443	0.0328
808.314	0.0715
808.4837	0.098
808.6533	-0.0222
808.8229	0.0397
808.9926	0.006
809.1622	0.0148
809.3317	-0.0466
809.5013	-0.0394
809.6708	-0.0188
809.8403	-0.0321
810.0098	0.0208
810.1793	0.0543
810.3488	0.0696
810.5182	0.1594
810.6876	-0.0218
810.857	-0.0164
811.0264	-0.0187
811.1958	0.0346
811.3651	0.0353
811.5344	0.0916
811.7037	0.0104
811.873	0.0598
812.0422	-0.1485
812.2115	0.0128
812.3807	-0.1251
812.5499	0.0564
812.7191	-0.1364
812.8882	-0.0111
813.0574	0.0144
813.2265	-0.0043
813.3956	0.0201
813.5646	0.0219
813.7337	-0.0354
813.9027	-0.0477
814.0718	-0.0008
814.2407	-0.0288
814.4097	0.055
814.5787	0.1204
814.7476	0.0276
814.9165	0.0067
815.0854	-0.0232
815.2543	0.0533
815.4232	0.0556
815.592	0.1029
815.7608	-0.0927
815.9296	-0.0564
816.0984	0.2102
816.2671	-0.0785
816.4359	0.0354
816.6046	0.1042
816.7733	-0.0121
816.942	0.0231
817.1106	0.0814
817.2793	-0.0505
817.4479	-0.048
817.6165	0.0806
817.785	0.0462
817.9536	-0.0492
818.1221	0.0702
818.2906	-0.031
818.4591	0.0054
818.6276	-0.0087
818.7961	-0.0174
818.9645	0.0731
819.1329	0.1006
819.3013	-0.1616
819.4697	0.0365
819.638	0.0446
819.8064	-0.0364
819.9747	0.2953
820.143	0.1875
820.3113	0.0477
820.4795	0.0094
820.6477	0.1815
820.816	0.1228
820.9842	0.0336
821.1523	0.0273
821.3205	0.1111
821.4886	-0.055
821.6567	-0.0404
821.8248	0.1105
821.9929	-0.119
822.1609	0.0364
822.329	-0.0105
822.497	0.0135
822.665	0.0315
822.833	-0.139
823.0009	-0.0158
823.1688	-0.0108
823.3367	-0.014
823.5046	0.0039
823.6725	0.008
823.8404	-0.0349
824.0082	0.0912
824.176	-0.1239
824.3438	0.3438
824.5116	0.0144
824.6793	0.0471
824.847	-0.1451
825.0147	-0.0494
825.1824	0.1654
825.3501	0.0444
825.5177	-0.0123
825.6854	-0.2154
825.853	-0.0481
826.0206	-0.0265
826.1881	0.1084
826.3557	0.0543
826.5232	0.2965
826.6907	0.0483
826.8582	-0.0872
827.0257	0.0649
827.1931	0.1882
827.3605	-0.0625
827.528	0.0347
827.6953	-0.1953
827.8627	-0.0281
828.03	0.0487
828.1974	-0.0053
828.3647	0.0177
828.532	0.1021
828.6992	0.0459
828.8665	-0.1558
829.0337	-0.0241
829.2009	-0.0998
829.3681	0.0666
829.5352	-0.2839
829.7024	0.2487
829.8695	-0.0967
830.0366	0.3047
830.2037	0.0587
830.3707	0.0754
830.5378	-0.05
830.7048	-0.0423
830.8718	0.2608
831.0388	0.2026
831.2057	0.2151
831.3727	-0.2784
831.5396	0.2518
831.7065	-0.8029
831.8734	0.4776
832.0402	0.2323
832.2071	0.2738
832.3739	0.0048
832.5407	-1.8158
832.7075	-0.3812
832.8742	1.6701
833.041	-0.0029
833.2077	0.8189
833.3744	0.1403
833.541	0.5215
833.7077	0.363
833.8743	0.0953
834.0409	0.0296
834.2075	0.025
834.3741	-0.1036
834.5407	-0.0901
834.7072	0.1055
834.8737	0.1116
835.0402	0.0861
835.2067	0.0028
835.3731	0.0419
835.5395	0.0015
835.706	-0.1712
835.8723	-0.0262
836.0387	0.3351
836.2051	-0.0281
836.3714	0.0029
836.5377	0.2575
836.704	0.1161
836.8703	-0.0044
837.0365	-0.4658
837.2027	0.1909
837.3689	0.1752
837.5351	0.4918
837.7013	-0.2481
837.8674	-0.1812
838.0335	-0.0998
838.1997	-0.0067
838.3657	0.6674
838.5318	-0.3499
838.6978	0.4783
838.8639	0.0098
839.0299	-0.0366
839.1958	0.0208
839.3618	0.8932
839.5277	0.0641
839.6937	-0.0547
839.8596	2.3865
840.0254	0.2476
840.1913	0.1314
840.3571	0.0355
840.523	-0
840.6888	0.0693
840.8545	-0.5699
841.0203	0.0473
841.186	-0.0258
841.3517	-0.202
841.5174	0.1674
841.6831	-0.0527
841.8488	0.1424
842.0144	1.1486
842.18	0.0466
842.3456	0.1878
842.5112	-0
842.6767	-0.0181
842.8422	0.1896
843.0077	0.0387
843.1732	-0.2448
843.3387	-0.3855
843.5042	-0
843.6696	0.3709
843.835	-0.1868
844.0004	-0.0882
844.1657	-0
844.3311	-0
844.4964	-0.648
844.6617	-0.0184
844.827	1.2735
844.9923	0.1729
845.1575	-0
845.3227	1.2672
845.4879	-0.4098
845.6531	0.6295
845.8183	-0.1561
845.9834	0.3846
846.1485	0.165
846.3136	0.1918
846.4787	-0
846.6438	-0.2044
846.8088	-0
846.9738	-0.4583
847.1388	0.6192
847.3038	-0.0178
847.4687	0.2912
847.6337	0.4048
847.7986	-0.3218
847.9635	-0.1006
848.1284	-0
848.2932	0.7378
848.458	-0
848.6228	-0
848.7876	-0
848.9524	-0.2319
849.1172	-1.9431
849.2819	-0.1289
849.4466	0.0977
849.6113	-0.164
849.7759	-0
849.9406	-0.0434
850.1052	-0
850.2698	-0.3482
850.4344	-0.6408
850.599	-0.1151
850.7635	-0
850.928	0.1918
851.0925	0.0585
851.257	-0.0687
851.4215	0.0357
851.5859	0.5618
851.7503	-0
851.9147	0.0126
852.0791	-0.005
852.2434	2.6015
852.4078	-0
852.5721	1.1769
852.7364	-0.0359
852.9007	-0.1187
853.0649	-0
853.2291	0.0331
853.3934	-0
853.5575	-0.0396
853.7217	0.3961
853.8859	0.1693
854.05	-0.2756
854.2141	0.9851
854.3782	0.2271
854.5423	-0.3132
854.7063	-0.0492
854.8703	-0.098
855.0343	-0.2054
855.1983	0.1786
855.3623	1.0927
855.5262	-0
855.6901	0.2097
855.854	0.133
856.0179	-0
856.1818	0.8591
856.3456	-0
856.5094	-0
856.6732	-0.7441
856.837	-1.0952
857.0008	0.8667
857.1645	-0
857.3282	-0.1818
857.4919	-0.175
857.6556	0.0938
857.8192	-0.1281
857.9828	0.3778
858.1465	0.0612
858.31	0.1472
858.4736	-0.3408
858.6372	-0.1317
858.8007	0.7488
858.9642	0.4952
859.1277	0.573
859.2911	-0.5411
859.4546	-0
859.618	0.0939
859.7814	1.0249
859.9448	-0.2144
860.1081	-0
860.2715	-1.8889
860.4348	0.8129
860.5981	1.2745
860.7614	-0
860.9246	-0.2674
861.0879	-0.1783
861.2511	-0
861.4143	-0.4583
861.5774	-0.4616
861.7406	0.3719
861.9037	-0.6949
862.0668	-0
862.2299	-0.189
862.393	-0
862.556	-0.2618
862.7191	-0
862.8821	0.2263
863.0451	0.1572
863.208	-0
863.371	-0
863.5339	-0
863.6968	0.0267
863.8597	-0.0899
864.0225	-0.2682
864.1854	-0.2884
864.3482	-0.9527
864.511	0.5271
864.6737	-0.0436
864.8365	-0.1446
864.9992	-0
865.1619	-0.499
865.3246	-1.5798
865.4873	-0
865.65	0.5123
865.8126	-0
865.9752	0.4284
866.1378	-0.1375
866.3004	0.1968
866.4629	-1.4427
866.6254	-0
866.7879	0.0542
866.9504	0.4342
867.1129	-0.3823
867.2753	-0.1672
867.4377	-0.2695
867.6001	-0.301
867.7625	0.0392
867.9249	-0.1536
868.0872	0.4939
868.2495	-0
868.4118	-0.0509
868.5741	-0
868.7363	0.2704
868.8986	-0.7636
869.0608	-0
869.223	-0.6941
869.3851	-0
869.5473	-0.0531
869.7094	-0
869.8715	-0
870.0336	0.0365
870.1957	0.6128
870.3577	0.0276
870.5197	-0.131
870.6817	-0.882
870.8437	-0.3588
871.0057	-0
871.1676	0.14
871.3295	-0.1263
871.4914	-1.7388
871.6533	-0.3471
871.8151	-0
871.977	0.4026
872.1388	1.2249
872.3006	-0.7274
872.4623	0.1052
872.6241	0.2326
872.7858	0.3046
872.9475	-0
873.1092	0.4677
873.2709	0.4304
873.4325	-0
873.5941	-0
873.7557	0.7578
873.9173	0.2902
874.0789	0.9125
874.2404	-0
874.4019	0.0353
874.5634	-0
874.7249	-0
874.8863	-0.3806
875.0478	0.2084
875.2092	1.626
875.3706	0.3075
875.5319	-0
875.6933	0.2029
875.8546	-0
876.0159	0.7048
876.1772	0.0695
876.3385	0.1015
876.4997	1.4325
876.6609	-0.0282
876.8221	-0
876.9833	0.767
877.1445	0.6259
877.3056	-1.1917
877.4667	-0
877.6278	0.2436
877.7889	0.6218
877.9499	-0.0331
878.111	-0.5699
878.272	-0
878.433	0.2213
878.5939	0.5353
878.7549	-0.0127
878.9158	0.296
879.0767	-0
879.2376	-0.301
879.3984	-0
879.5593	0.6276
879.7201	-1.8889
879.8809	-0.0396
880.0417	-0.171
880.2024	0.0423
880.3632	-0.4698
880.5239	0.0654
880.6846	0.0783
880.8452	1.2607
881.0059	-0
881.1665	-0.2476
881.3271	0.7812
881.4877	0.3496
881.6483	-1.2073
881.8088	-0
881.9693	-0
882.1298	-0
882.2903	-0
