Data from D4ACN5uM420nmA_Absorbance_14-37-09-071.txt Node
Date: Fri Feb 21 14:37:09 GMT 2025
User: LASERRRRR
Spectrometer: FLMT03099
Trigger mode: 0
Integration Time (sec): 1.500000E-2
Scans to average: 1
Electric dark correction enabled: true
Nonlinearity correction enabled: false
Boxcar width: 0
XAxis mode: Wavelengths
Number of Pixels in Spectrum: 3648
>>>>>Begin Spectral Data<<<<<
179.3399	-0
179.5586	-0
179.7771	-0
179.9957	0.0096
180.2143	-1.5546
180.4329	0.0386
180.6514	-0.7314
180.8699	-0
181.0885	-0
181.307	0.0177
181.5255	-0.0512
181.744	-0.3062
181.9625	0.224
182.181	-0
182.3994	-0.3162
182.6179	0.2677
182.8363	-0.3976
183.0547	0.6359
183.2732	0.2381
183.4916	0.1401
183.71	0.3722
183.9284	0.0027
184.1467	0.5579
184.3651	0.2915
184.5835	0.2696
184.8018	0.2061
185.0201	0.3201
185.2385	0.2795
185.4568	0.4453
185.6751	0.1225
185.8934	0.2757
186.1117	-0.0132
186.3299	0.2885
186.5482	0.3004
186.7664	0.1181
186.9847	0.2395
187.2029	0.2875
187.4211	0.2721
187.6393	0.3366
187.8575	0.2347
188.0757	1.386
188.2939	0.1225
188.512	0.2803
188.7302	0.0815
188.9483	0.4634
189.1665	0.9701
189.3846	0.3925
189.6027	0.0183
189.8208	0.2062
190.0389	0.5234
190.257	0.0119
190.475	0.6379
190.6931	0.2244
190.9111	0.1019
191.1292	0.2025
191.3472	0.1266
191.5652	0.3423
191.7832	0.1324
192.0012	0.1401
192.2192	0.1441
192.4371	0.2252
192.6551	0.1544
192.873	0.2412
193.091	0.1544
193.3089	0.1199
193.5268	0.1724
193.7447	0.2302
193.9626	0.1274
194.1805	0.1507
194.3984	0.1512
194.6162	0.2052
194.8341	0.3324
195.0519	0.2496
195.2697	0.2587
195.4875	0.3207
195.7054	0.3096
195.9231	0.282
196.1409	0.3249
196.3587	0.3357
196.5765	0.3094
196.7942	0.2159
197.012	0.3274
197.2297	0.3095
197.4474	0.3823
197.6651	0.3691
197.8828	0.3832
198.1005	0.4357
198.3182	0.318
198.5358	0.3853
198.7535	0.4098
198.9711	0.3862
199.1888	0.366
199.4064	0.4085
199.624	0.3726
199.8416	0.3926
200.0592	0.4016
200.2767	0.3958
200.4943	0.4403
200.7119	0.4224
200.9294	0.4153
201.1469	0.4096
201.3645	0.4903
201.582	0.3832
201.7995	0.4002
202.017	0.4468
202.2344	0.387
202.4519	0.4007
202.6694	0.4112
202.8868	0.4025
203.1042	0.4311
203.3217	0.3941
203.5391	0.405
203.7565	0.3729
203.9739	0.3588
204.1913	0.3414
204.4086	0.3674
204.626	0.3665
204.8433	0.3557
205.0607	0.3455
205.278	0.3635
205.4953	0.356
205.7126	0.3244
205.9299	0.3301
206.1472	0.3083
206.3644	0.3556
206.5817	0.3189
206.7989	0.3145
207.0162	0.3173
207.2334	0.3344
207.4506	0.3177
207.6678	0.3213
207.885	0.3198
208.1022	0.325
208.3194	0.2811
208.5365	0.3185
208.7537	0.2784
208.9708	0.2746
209.1879	0.2929
209.405	0.2434
209.6222	0.238
209.8392	0.3172
210.0563	0.2757
210.2734	0.2647
210.4905	0.2562
210.7075	0.2706
210.9245	0.2569
211.1416	0.2779
211.3586	0.2667
211.5756	0.2433
211.7926	0.2598
212.0096	0.2785
212.2265	0.2617
212.4435	0.25
212.6604	0.2492
212.8774	0.2278
213.0943	0.2387
213.3112	0.2285
213.5281	0.2473
213.745	0.2281
213.9619	0.2335
214.1788	0.2604
214.3956	0.242
214.6125	0.2464
214.8293	0.2466
215.0461	0.2421
215.2629	0.2539
215.4798	0.2282
215.6965	0.2452
215.9133	0.2367
216.1301	0.2305
216.3469	0.2396
216.5636	0.2436
216.7803	0.2442
216.9971	0.2533
217.2138	0.2363
217.4305	0.2475
217.6472	0.2494
217.8639	0.2586
218.0805	0.2617
218.2972	0.239
218.5138	0.238
218.7305	0.2454
218.9471	0.2438
219.1637	0.2647
219.3803	0.2493
219.5969	0.2377
219.8135	0.235
220.0301	0.2509
220.2466	0.2457
220.4632	0.2435
220.6797	0.2636
220.8962	0.2471
221.1127	0.2592
221.3292	0.2724
221.5457	0.267
221.7622	0.2592
221.9787	0.2835
222.1951	0.2634
222.4116	0.2827
222.628	0.2818
222.8444	0.2751
223.0608	0.2733
223.2772	0.2779
223.4936	0.2854
223.71	0.3015
223.9264	0.2935
224.1427	0.2865
224.3591	0.2856
224.5754	0.2815
224.7917	0.2874
225.008	0.2943
225.2243	0.2949
225.4406	0.2929
225.6569	0.299
225.8732	0.3108
226.0894	0.2997
226.3057	0.3144
226.5219	0.3194
226.7381	0.3199
226.9543	0.3069
227.1705	0.3145
227.3867	0.3123
227.6029	0.3239
227.8191	0.3317
228.0352	0.3405
228.2513	0.3461
228.4675	0.3404
228.6836	0.341
228.8997	0.3415
229.1158	0.3571
229.3319	0.3656
229.548	0.3492
229.764	0.3532
229.9801	0.3718
230.1961	0.3728
230.4121	0.3733
230.6282	0.3865
230.8442	0.3908
231.0602	0.3833
231.2761	0.3851
231.4921	0.3938
231.7081	0.3845
231.924	0.3971
232.14	0.4116
232.3559	0.4134
232.5718	0.4143
232.7877	0.4132
233.0036	0.4036
233.2195	0.4215
233.4353	0.417
233.6512	0.4225
233.867	0.4376
234.0829	0.4229
234.2987	0.4284
234.5145	0.4347
234.7303	0.4443
234.9461	0.4459
235.1619	0.4491
235.3776	0.4362
235.5934	0.4383
235.8091	0.4436
236.0249	0.4508
236.2406	0.4497
236.4563	0.4548
236.672	0.44
236.8877	0.4536
237.1034	0.4543
237.319	0.4495
237.5347	0.4575
237.7503	0.4446
237.966	0.4653
238.1816	0.4486
238.3972	0.457
238.6128	0.4678
238.8284	0.4669
239.0439	0.4666
239.2595	0.4599
239.475	0.4707
239.6906	0.4557
239.9061	0.4681
240.1216	0.4735
240.3371	0.4684
240.5526	0.4658
240.7681	0.4626
240.9836	0.4613
241.199	0.454
241.4145	0.462
241.6299	0.4444
241.8453	0.4415
242.0607	0.4472
242.2761	0.4409
242.4915	0.437
242.7069	0.4185
242.9223	0.4311
243.1376	0.4233
243.353	0.4123
243.5683	0.4148
243.7836	0.4015
243.9989	0.3912
244.2142	0.3801
244.4295	0.3765
244.6448	0.3833
244.86	0.3721
245.0753	0.361
245.2905	0.349
245.5057	0.345
245.721	0.3503
245.9362	0.3399
246.1514	0.3341
246.3665	0.3278
246.5817	0.3053
246.7969	0.3006
247.012	0.3017
247.2271	0.301
247.4423	0.3001
247.6574	0.2888
247.8725	0.2847
248.0876	0.2785
248.3026	0.2741
248.5177	0.2608
248.7328	0.2599
248.9478	0.2598
249.1628	0.2546
249.3779	0.2475
249.5929	0.2482
249.8079	0.2435
250.0228	0.2389
250.2378	0.2391
250.4528	0.238
250.6677	0.228
250.8827	0.2188
251.0976	0.2168
251.3125	0.2231
251.5274	0.2167
251.7423	0.2166
251.9572	0.2062
252.172	0.2119
252.3869	0.2134
252.6017	0.2058
252.8166	0.2131
253.0314	0.1972
253.2462	0.204
253.461	0.1983
253.6758	0.2039
253.8906	0.1961
254.1053	0.1936
254.3201	0.1985
254.5348	0.1912
254.7496	0.1897
254.9643	0.195
255.179	0.185
255.3937	0.1919
255.6083	0.1927
255.823	0.1882
256.0377	0.1827
256.2523	0.1902
256.467	0.1911
256.6816	0.1869
256.8962	0.1878
257.1108	0.1884
257.3254	0.1862
257.54	0.185
257.7545	0.1851
257.9691	0.1857
258.1836	0.172
258.3981	0.1824
258.6127	0.1809
258.8272	0.1849
259.0417	0.1784
259.2561	0.1776
259.4706	0.1762
259.6851	0.181
259.8995	0.1847
260.114	0.186
260.3284	0.182
260.5428	0.1787
260.7572	0.1845
260.9716	0.1914
261.186	0.1812
261.4003	0.1843
261.6147	0.1776
261.829	0.1866
262.0433	0.1799
262.2577	0.1868
262.472	0.1841
262.6863	0.1943
262.9005	0.1847
263.1148	0.1853
263.3291	0.1932
263.5433	0.1936
263.7576	0.194
263.9718	0.183
264.186	0.1924
264.4002	0.1912
264.6144	0.1921
264.8286	0.1957
265.0427	0.1943
265.2569	0.198
265.471	0.1894
265.6851	0.1941
265.8993	0.1851
266.1134	0.1939
266.3275	0.1948
266.5415	0.1913
266.7556	0.1997
266.9697	0.1969
267.1837	0.1959
267.3978	0.1929
267.6118	0.1885
267.8258	0.1958
268.0398	0.2005
268.2538	0.1963
268.4677	0.1941
268.6817	0.1982
268.8957	0.1913
269.1096	0.1892
269.3235	0.1903
269.5374	0.1936
269.7514	0.1879
269.9652	0.192
270.1791	0.1927
270.393	0.1907
270.6068	0.1964
270.8207	0.1889
271.0345	0.1859
271.2483	0.1882
271.4622	0.1907
271.676	0.1871
271.8897	0.1847
272.1035	0.1939
272.3173	0.189
272.531	0.187
272.7448	0.1917
272.9585	0.1884
273.1722	0.1885
273.3859	0.1945
273.5996	0.1946
273.8133	0.2003
274.0269	0.1911
274.2406	0.1931
274.4542	0.1974
274.6679	0.2005
274.8815	0.2008
275.0951	0.2027
275.3087	0.2033
275.5223	0.1961
275.7358	0.2009
275.9494	0.2017
276.1629	0.2018
276.3765	0.2074
276.59	0.2018
276.8035	0.2019
277.017	0.2131
277.2305	0.2164
277.444	0.2129
277.6574	0.2064
277.8709	0.2116
278.0843	0.2102
278.2978	0.2122
278.5112	0.2083
278.7246	0.2025
278.938	0.2012
279.1513	0.2098
279.3647	0.2092
279.5781	0.206
279.7914	0.1968
280.0047	0.2023
280.2181	0.2035
280.4314	0.2013
280.6447	0.2081
280.8579	0.1925
281.0712	0.2014
281.2845	0.2024
281.4977	0.2008
281.711	0.1978
281.9242	0.195
282.1374	0.1911
282.3506	0.1968
282.5638	0.1952
282.7769	0.1937
282.9901	0.1925
283.2033	0.1931
283.4164	0.192
283.6295	0.1944
283.8426	0.1902
284.0557	0.1966
284.2688	0.1917
284.4819	0.1895
284.695	0.1909
284.908	0.1943
285.1211	0.1927
285.3341	0.1922
285.5471	0.1909
285.7601	0.188
285.9731	0.1954
286.1861	0.1956
286.3991	0.1909
286.612	0.1908
286.825	0.1918
287.0379	0.1841
287.2508	0.1885
287.4637	0.1977
287.6766	0.1946
287.8895	0.1916
288.1024	0.1936
288.3152	0.1879
288.5281	0.1854
288.7409	0.1942
288.9538	0.1887
289.1666	0.1926
289.3794	0.1858
289.5922	0.1842
289.8049	0.1901
290.0177	0.1883
290.2304	0.1902
290.4432	0.1923
290.6559	0.1911
290.8686	0.1932
291.0813	0.1928
291.294	0.1879
291.5067	0.1909
291.7194	0.1839
291.932	0.1875
292.1447	0.1893
292.3573	0.1918
292.5699	0.196
292.7825	0.1869
292.9951	0.1886
293.2077	0.1847
293.4203	0.1919
293.6328	0.1819
293.8454	0.1973
294.0579	0.1848
294.2704	0.1905
294.4829	0.178
294.6954	0.1934
294.9079	0.1893
295.1204	0.1816
295.3328	0.1916
295.5453	0.1892
295.7577	0.1877
295.9701	0.1884
296.1825	0.1984
296.3949	0.1891
296.6073	0.1815
296.8197	0.1902
297.0321	0.1908
297.2444	0.185
297.4567	0.1895
297.6691	0.1871
297.8814	0.1861
298.0937	0.187
298.306	0.1813
298.5182	0.1938
298.7305	0.1904
298.9428	0.1836
299.155	0.1816
299.3672	0.189
299.5794	0.1867
299.7916	0.1904
300.0038	0.1879
300.216	0.1865
300.4282	0.1835
300.6403	0.1917
300.8525	0.1918
301.0646	0.188
301.2767	0.1853
301.4888	0.1836
301.7009	0.1883
301.913	0.1865
302.125	0.1892
302.3371	0.1911
302.5491	0.1922
302.7612	0.1956
302.9732	0.1925
303.1852	0.1882
303.3972	0.1899
303.6092	0.1851
303.8211	0.1912
304.0331	0.1896
304.245	0.1863
304.457	0.1881
304.6689	0.1889
304.8808	0.1841
305.0927	0.1839
305.3046	0.188
305.5164	0.1832
305.7283	0.1828
305.9401	0.1768
306.152	0.1802
306.3638	0.1767
306.5756	0.1823
306.7874	0.1774
306.9992	0.1775
307.2109	0.1744
307.4227	0.1725
307.6344	0.1804
307.8462	0.1732
308.0579	0.1704
308.2696	0.1692
308.4813	0.1688
308.693	0.1671
308.9046	0.178
309.1163	0.1648
309.328	0.1631
309.5396	0.1611
309.7512	0.1573
309.9628	0.1602
310.1744	0.154
310.386	0.1545
310.5976	0.1509
310.8091	0.1577
311.0207	0.156
311.2322	0.1589
311.4437	0.1534
311.6552	0.1542
311.8667	0.1596
312.0782	0.1541
312.2897	0.1503
312.5012	0.1543
312.7126	0.1496
312.924	0.1531
313.1355	0.1465
313.3469	0.1497
313.5583	0.1441
313.7696	0.1485
313.981	0.1515
314.1924	0.1433
314.4037	0.1439
314.6151	0.1433
314.8264	0.1439
315.0377	0.1466
315.249	0.146
315.4603	0.1389
315.6716	0.148
315.8828	0.1409
316.0941	0.1436
316.3053	0.1386
316.5165	0.1473
316.7277	0.1417
316.9389	0.1436
317.1501	0.1488
317.3613	0.1385
317.5724	0.1348
317.7836	0.135
317.9947	0.143
318.2058	0.1388
318.417	0.1384
318.6281	0.1368
318.8391	0.139
319.0502	0.1404
319.2613	0.1356
319.4723	0.1319
319.6834	0.144
319.8944	0.1355
320.1054	0.1445
320.3164	0.1393
320.5274	0.1403
320.7383	0.1447
320.9493	0.1384
321.1602	0.1366
321.3712	0.1373
321.5821	0.1404
321.793	0.1469
322.0039	0.1406
322.2148	0.1381
322.4257	0.1378
322.6365	0.136
322.8474	0.1467
323.0582	0.1413
323.269	0.1477
323.4798	0.1437
323.6906	0.1366
323.9014	0.137
324.1122	0.1348
324.3229	0.1508
324.5337	0.1413
324.7444	0.1457
324.9551	0.1472
325.1658	0.1418
325.3765	0.1473
325.5872	0.1452
325.7979	0.1425
326.0085	0.1481
326.2192	0.1399
326.4298	0.1518
326.6404	0.1482
326.851	0.1482
327.0616	0.1533
327.2722	0.1478
327.4828	0.145
327.6933	0.1611
327.9039	0.1441
328.1144	0.1514
328.3249	0.1557
328.5354	0.1505
328.7459	0.1541
328.9564	0.1497
329.1669	0.1551
329.3773	0.1574
329.5878	0.1536
329.7982	0.1522
330.0086	0.1537
330.219	0.1515
330.4294	0.1561
330.6398	0.1561
330.8502	0.1598
331.0605	0.1505
331.2708	0.1602
331.4812	0.1519
331.6915	0.1617
331.9018	0.1615
332.1121	0.1628
332.3224	0.1541
332.5326	0.1523
332.7429	0.156
332.9531	0.1615
333.1633	0.1507
333.3735	0.1559
333.5837	0.1536
333.7939	0.1615
334.0041	0.1639
334.2143	0.1546
334.4244	0.1613
334.6346	0.1552
334.8447	0.1594
335.0548	0.1579
335.2649	0.1597
335.475	0.1552
335.685	0.1594
335.8951	0.1561
336.1051	0.1577
336.3152	0.1587
336.5252	0.155
336.7352	0.1574
336.9452	0.1525
337.1552	0.1569
337.3652	0.1553
337.5751	0.1523
337.7851	0.1578
337.995	0.1549
338.2049	0.1581
338.4148	0.1581
338.6247	0.1603
338.8346	0.1551
339.0445	0.153
339.2543	0.159
339.4642	0.1549
339.674	0.1506
339.8838	0.1531
340.0936	0.1618
340.3034	0.1563
340.5132	0.1546
340.7229	0.1592
340.9327	0.1674
341.1424	0.1646
341.3522	0.1493
341.5619	0.1599
341.7716	0.164
341.9813	0.1649
342.1909	0.1657
342.4006	0.1659
342.6102	0.1617
342.8199	0.167
343.0295	0.1614
343.2391	0.1704
343.4487	0.1662
343.6583	0.1788
343.8679	0.1742
344.0774	0.1591
344.287	0.1718
344.4965	0.1777
344.706	0.1732
344.9155	0.1684
345.125	0.1754
345.3345	0.1804
345.544	0.1731
345.7534	0.1794
345.9629	0.1789
346.1723	0.1759
346.3817	0.1775
346.5911	0.1805
346.8005	0.1836
347.0099	0.1818
347.2193	0.187
347.4286	0.1912
347.638	0.1862
347.8473	0.1884
348.0566	0.183
348.2659	0.1847
348.4752	0.1872
348.6845	0.1854
348.8937	0.1865
349.103	0.1945
349.3122	0.1969
349.5214	0.1926
349.7306	0.1964
349.9398	0.1842
350.149	0.1907
350.3582	0.1979
350.5674	0.1895
350.7765	0.1906
350.9856	0.1878
351.1948	0.1951
351.4039	0.194
351.613	0.1949
351.822	0.1956
352.0311	0.1936
352.2402	0.1989
352.4492	0.1884
352.6582	0.1922
352.8672	0.1909
353.0762	0.1886
353.2852	0.1923
353.4942	0.1944
353.7032	0.1845
353.9121	0.1883
354.1211	0.1949
354.33	0.1954
354.5389	0.1874
354.7478	0.1873
354.9567	0.1939
355.1655	0.1899
355.3744	0.1892
355.5833	0.1862
355.7921	0.1959
356.0009	0.1826
356.2097	0.1804
356.4185	0.1896
356.6273	0.1883
356.8361	0.1901
357.0448	0.1852
357.2536	0.1958
357.4623	0.1946
357.671	0.202
357.8797	0.1966
358.0884	0.1936
358.2971	0.1884
358.5057	0.1899
358.7144	0.1893
358.923	0.1935
359.1316	0.1973
359.3402	0.1945
359.5488	0.1887
359.7574	0.1948
359.966	0.2009
360.1746	0.1986
360.3831	0.1999
360.5916	0.2013
360.8002	0.2
361.0087	0.1972
361.2172	0.2046
361.4256	0.1955
361.6341	0.2004
361.8426	0.1976
362.051	0.1986
362.2594	0.195
362.4678	0.1949
362.6762	0.2063
362.8846	0.2077
363.093	0.2117
363.3014	0.208
363.5097	0.21
363.718	0.2128
363.9264	0.2104
364.1347	0.2086
364.343	0.21
364.5513	0.2094
364.7595	0.2131
364.9678	0.2133
365.176	0.2197
365.3842	0.2179
365.5925	0.2129
365.8007	0.2082
366.0089	0.2182
366.217	0.2157
366.4252	0.2165
366.6333	0.2141
366.8415	0.2219
367.0496	0.2136
367.2577	0.2206
367.4658	0.2128
367.6739	0.2172
367.882	0.2231
368.09	0.2157
368.2981	0.2271
368.5061	0.2278
368.7141	0.2219
368.9221	0.2376
369.1301	0.2242
369.3381	0.2315
369.5461	0.2284
369.754	0.2266
369.962	0.2307
370.1699	0.2306
370.3778	0.2367
370.5857	0.2327
370.7936	0.2396
371.0015	0.2337
371.2093	0.2247
371.4172	0.2322
371.625	0.2331
371.8328	0.2318
372.0406	0.2435
372.2484	0.2322
372.4562	0.2351
372.664	0.2388
372.8717	0.2351
373.0795	0.242
373.2872	0.2368
373.4949	0.2428
373.7026	0.2329
373.9103	0.2296
374.118	0.2424
374.3256	0.2436
374.5333	0.2486
374.7409	0.2463
374.9485	0.2411
375.1561	0.2434
375.3637	0.241
375.5713	0.2418
375.7789	0.2367
375.9864	0.2443
376.194	0.2462
376.4015	0.2446
376.609	0.2452
376.8165	0.247
377.024	0.2479
377.2315	0.2461
377.4389	0.2403
377.6464	0.252
377.8538	0.2472
378.0612	0.2545
378.2686	0.2515
378.476	0.2556
378.6834	0.2555
378.8908	0.263
379.0981	0.259
379.3055	0.2597
379.5128	0.2517
379.7201	0.256
379.9274	0.2604
380.1347	0.2541
380.342	0.2598
380.5492	0.2494
380.7565	0.254
380.9637	0.2508
381.1709	0.2552
381.3781	0.2668
381.5853	0.2661
381.7925	0.2542
381.9997	0.2605
382.2068	0.2626
382.4139	0.2556
382.6211	0.2685
382.8282	0.2619
383.0353	0.2616
383.2424	0.2602
383.4494	0.2647
383.6565	0.2639
383.8635	0.2627
384.0706	0.2711
384.2776	0.2553
384.4846	0.2636
384.6916	0.2684
384.8986	0.2692
385.1055	0.27
385.3125	0.2815
385.5194	0.2719
385.7263	0.2576
385.9333	0.2722
386.1402	0.2704
386.347	0.2604
386.5539	0.2642
386.7608	0.268
386.9676	0.2718
387.1744	0.27
387.3813	0.2546
387.5881	0.2671
387.7948	0.2565
388.0016	0.2741
388.2084	0.269
388.4151	0.2601
388.6219	0.261
388.8286	0.2639
389.0353	0.2646
389.242	0.2703
389.4487	0.2681
389.6553	0.2567
389.862	0.2485
390.0686	0.2638
390.2753	0.2653
390.4819	0.2574
390.6885	0.2662
390.8951	0.2591
391.1016	0.257
391.3082	0.2577
391.5147	0.2499
391.7213	0.2482
391.9278	0.2515
392.1343	0.247
392.3408	0.2483
392.5473	0.2493
392.7537	0.2428
392.9602	0.2439
393.1666	0.2406
393.373	0.244
393.5794	0.2464
393.7858	0.239
393.9922	0.2372
394.1986	0.2418
394.4049	0.2305
394.6113	0.2378
394.8176	0.2392
395.0239	0.2339
395.2302	0.2491
395.4365	0.2439
395.6428	0.234
395.8491	0.2383
396.0553	0.2316
396.2615	0.2418
396.4678	0.2414
396.674	0.2267
396.8802	0.2342
397.0863	0.231
397.2925	0.2246
397.4987	0.2363
397.7048	0.2431
397.9109	0.2307
398.117	0.2255
398.3231	0.2223
398.5292	0.2259
398.7353	0.2298
398.9413	0.2341
399.1474	0.2286
399.3534	0.2277
399.5594	0.2286
399.7654	0.2219
399.9714	0.2248
400.1774	0.2172
400.3833	0.2185
400.5893	0.2252
400.7952	0.2282
401.0011	0.2264
401.207	0.227
401.4129	0.223
401.6188	0.2213
401.8247	0.2252
402.0305	0.2159
402.2364	0.2272
402.4422	0.2305
402.648	0.226
402.8538	0.2202
403.0596	0.2232
403.2654	0.2239
403.4711	0.2154
403.6768	0.2181
403.8826	0.2285
404.0883	0.2256
404.294	0.22
404.4997	0.2252
404.7054	0.2273
404.911	0.2209
405.1167	0.2229
405.3223	0.2217
405.5279	0.2259
405.7335	0.2123
405.9391	0.2168
406.1447	0.2279
406.3502	0.2206
406.5558	0.2151
406.7613	0.2252
406.9668	0.225
407.1724	0.2197
407.3778	0.2235
407.5833	0.2168
407.7888	0.218
407.9942	0.2197
408.1997	0.2195
408.4051	0.2236
408.6105	0.2217
408.8159	0.2214
409.0213	0.2249
409.2267	0.2237
409.432	0.2178
409.6374	0.2295
409.8427	0.2381
410.048	0.2158
410.2533	0.2321
410.4586	0.2077
410.6639	0.2222
410.8691	0.2103
411.0744	0.2204
411.2796	0.2217
411.4848	0.215
411.69	0.2087
411.8952	0.2174
412.1004	0.2196
412.3056	0.212
412.5107	0.2225
412.7158	0.2361
412.921	0.2199
413.1261	0.2138
413.3312	0.2199
413.5362	0.2314
413.7413	0.2207
413.9464	0.2129
414.1514	0.2111
414.3564	0.2154
414.5614	0.2181
414.7664	0.2193
414.9714	0.2063
415.1764	0.2218
415.3813	0.2089
415.5863	0.2206
415.7912	0.2064
415.9961	0.2142
416.201	0.2165
416.4059	0.2105
416.6108	0.2184
416.8156	0.2158
417.0205	0.2146
417.2253	0.2111
417.4301	0.2211
417.6349	0.2073
417.8397	0.2163
418.0445	0.2069
418.2492	0.2142
418.454	0.2139
418.6587	0.2169
418.8634	0.2157
419.0681	0.2166
419.2728	0.2077
419.4775	0.2128
419.6822	0.2101
419.8868	0.2003
420.0915	0.2084
420.2961	0.1943
420.5007	0.2123
420.7053	0.2071
420.9099	0.2029
421.1144	0.2028
421.319	0.2032
421.5235	0.1993
421.728	0.2072
421.9325	0.206
422.137	0.1955
422.3415	0.1993
422.546	0.1983
422.7504	0.2063
422.9549	0.2019
423.1593	0.1918
423.3637	0.1908
423.5681	0.206
423.7725	0.1975
423.9769	0.1993
424.1812	0.1816
424.3856	0.1897
424.5899	0.1907
424.7942	0.1997
424.9985	0.1875
425.2028	0.2016
425.4071	0.1868
425.6113	0.1968
425.8156	0.1848
426.0198	0.1835
426.224	0.1862
426.4282	0.1739
426.6324	0.173
426.8366	0.1811
427.0407	0.1849
427.2449	0.1782
427.449	0.1825
427.6531	0.1876
427.8572	0.1895
428.0613	0.1824
428.2654	0.184
428.4694	0.1703
428.6735	0.1668
428.8775	0.1788
429.0815	0.1715
429.2855	0.1718
429.4895	0.1674
429.6935	0.1747
429.8975	0.1571
430.1014	0.1671
430.3053	0.1758
430.5093	0.1653
430.7132	0.1596
430.9171	0.158
431.1209	0.1585
431.3248	0.1573
431.5286	0.1592
431.7325	0.1665
431.9363	0.1527
432.1401	0.1587
432.3439	0.1511
432.5477	0.1391
432.7514	0.1478
432.9552	0.1521
433.1589	0.1445
433.3627	0.151
433.5664	0.133
433.7701	0.1402
433.9737	0.1426
434.1774	0.1384
434.3811	0.1434
434.5847	0.1378
434.7883	0.1364
434.9919	0.1262
435.1955	0.1306
435.3991	0.1406
435.6027	0.1267
435.8062	0.1313
436.0098	0.118
436.2133	0.1298
436.4168	0.1241
436.6203	0.1145
436.8238	0.1212
437.0272	0.1215
437.2307	0.1109
437.4341	0.1222
437.6375	0.1252
437.841	0.1084
438.0443	0.116
438.2477	0.1078
438.4511	0.1094
438.6545	0.1059
438.8578	0.1075
439.0611	0.1106
439.2644	0.1031
439.4677	0.1107
439.671	0.1061
439.8743	0.1095
440.0775	0.0945
440.2808	0.1048
440.484	0.0957
440.6872	0.0974
440.8904	0.0877
441.0936	0.0924
441.2967	0.078
441.4999	0.0919
441.703	0.0822
441.9062	0.0905
442.1093	0.0917
442.3124	0.0821
442.5155	0.084
442.7185	0.0806
442.9216	0.0839
443.1246	0.0822
443.3276	0.0792
443.5307	0.0739
443.7337	0.0748
443.9366	0.0783
444.1396	0.0706
444.3426	0.0665
444.5455	0.0719
444.7484	0.0752
444.9513	0.0686
445.1542	0.0692
445.3571	0.0678
445.56	0.0679
445.7628	0.0641
445.9657	0.0657
446.1685	0.0716
446.3713	0.0683
446.5741	0.0646
446.7769	0.067
446.9797	0.0604
447.1824	0.0616
447.3852	0.0488
447.5879	0.0553
447.7906	0.0458
447.9933	0.0637
448.196	0.054
448.3986	0.0619
448.6013	0.0414
448.8039	0.059
449.0066	0.0542
449.2092	0.0529
449.4118	0.0408
449.6143	0.0511
449.8169	0.0499
450.0195	0.043
450.222	0.0439
450.4245	0.0569
450.627	0.0516
450.8295	0.0492
451.032	0.0429
451.2345	0.041
451.4369	0.0372
451.6394	0.0435
451.8418	0.0367
452.0442	0.0265
452.2466	0.0396
452.449	0.0437
452.6513	0.0351
452.8537	0.0348
453.056	0.0393
453.2583	0.0286
453.4607	0.035
453.663	0.0337
453.8652	0.0275
454.0675	0.0384
454.2697	0.0293
454.472	0.0331
454.6742	0.0397
454.8764	0.0329
455.0786	0.0253
455.2808	0.0265
455.4829	0.0323
455.6851	0.0358
455.8872	0.0335
456.0893	0.0316
456.2915	0.0282
456.4935	0.0341
456.6956	0.0205
456.8977	0.0255
457.0997	0.0396
457.3018	0.0203
457.5038	0.0315
457.7058	0.0317
457.9078	0.0282
458.1098	0.0239
458.3117	0.0263
458.5137	0.0146
458.7156	0.0214
458.9175	0.027
459.1194	0.0248
459.3213	0.0152
459.5232	0.0261
459.725	0.0254
459.9269	0.0238
460.1287	0.0223
460.3305	0.0256
460.5323	0.0214
460.7341	0.0223
460.9359	0.0178
461.1376	0.0215
461.3394	0.021
461.5411	0.0272
461.7428	0.0166
461.9445	0.0207
462.1462	0.0174
462.3479	0.0181
462.5495	0.0228
462.7512	0.0253
462.9528	0.0156
463.1544	0.0173
463.356	0.0109
463.5576	0.0334
463.7592	0.0212
463.9607	0.0212
464.1623	0.0146
464.3638	0.012
464.5653	0.012
464.7668	0.0181
464.9683	0.0134
465.1697	0.015
465.3712	0.0141
465.5726	0.0076
465.7741	0.0232
465.9755	0.011
466.1769	0.0108
466.3782	0.0079
466.5796	0.0143
466.7809	0.0179
466.9823	0.0106
467.1836	0.0108
467.3849	0.0086
467.5862	0.0017
467.7875	0.0133
467.9887	0.0181
468.19	0.0082
468.3912	0.0153
468.5924	0.0143
468.7936	0.0202
468.9948	0.0082
469.196	0.0118
469.3972	0.0125
469.5983	0.02
469.7994	0.0214
470.0006	0.0118
470.2017	0.0161
470.4027	0.022
470.6038	0.0182
470.8049	0.0207
471.0059	0.0179
471.2069	0.0213
471.408	0.0162
471.6089	0.014
471.8099	0.0163
472.0109	0.0106
472.2119	0.0199
472.4128	0.0126
472.6137	0.0123
472.8146	0.0107
473.0155	0.0224
473.2164	0.0098
473.4173	0.0079
473.6181	0.0008
473.819	0.0103
474.0198	0.0015
474.2206	0.0053
474.4214	0.0107
474.6222	0.0021
474.8229	0.0139
475.0237	0.0166
475.2244	0.0148
475.4251	0.0116
475.6258	0.0112
475.8265	0.0126
476.0272	0.0095
476.2278	0.0168
476.4285	0.0215
476.6291	0.0102
476.8297	0.0141
477.0303	0.0109
477.2309	0.014
477.4315	0.014
477.632	0.0068
477.8326	0.0131
478.0331	0.0143
478.2336	0.015
478.4341	0.0137
478.6346	0.008
478.8351	0.0002
479.0355	0.0219
479.236	0.0147
479.4364	0.013
479.6368	0.0097
479.8372	0.012
480.0376	0.004
480.2379	0.0059
480.4383	0.0136
480.6386	0.0012
480.8389	0.013
481.0392	0.0102
481.2395	0.0103
481.4398	0.0124
481.6401	0.0077
481.8403	0.0047
482.0405	0.0106
482.2408	0.0101
482.441	0.0123
482.6411	0.0158
482.8413	0.0055
483.0415	0.0161
483.2416	0.0104
483.4417	0.0106
483.6419	0.002
483.8419	0.0127
484.042	0.009
484.2421	-0.0042
484.4422	0.0087
484.6422	0.0131
484.8422	0.0114
485.0422	0.0094
485.2422	0.0066
485.4422	0.0085
485.6422	0.0029
485.8421	0.0076
486.042	0.0186
486.242	0.0067
486.4419	0.0129
486.6417	0.0065
486.8416	0.0104
487.0415	0.0065
487.2413	0.0028
487.4411	0.0127
487.641	0.0078
487.8408	0.0128
488.0405	0.0165
488.2403	0.0047
488.4401	0.0093
488.6398	0.0218
488.8395	0.0087
489.0392	0.0118
489.2389	0.0127
489.4386	-0.0016
489.6383	0.0151
489.8379	0.0035
490.0376	0.0074
490.2372	0.0059
490.4368	0.0068
490.6364	0.0036
490.836	0.01
491.0355	0.0012
491.2351	0.0029
491.4346	0.0077
491.6341	0.0051
491.8336	0.0121
492.0331	0.008
492.2326	0.0142
492.432	0.0058
492.6315	0.0125
492.8309	0.0131
493.0303	0.0114
493.2297	0.0115
493.4291	0.0037
493.6284	0.013
493.8278	0.0102
494.0271	0.0121
494.2264	0.0029
494.4257	0.0175
494.625	0.0046
494.8243	0.0029
495.0236	0.007
495.2228	0.0132
495.422	0.0135
495.6213	0.0091
495.8205	0.0136
496.0196	0.0092
496.2188	0.008
496.418	0.0106
496.6171	0.0115
496.8162	0.0113
497.0153	0.0121
497.2144	0.0115
497.4135	0.0101
497.6126	0.0111
497.8116	0.0005
498.0107	0.0074
498.2097	0.0152
498.4087	0.0102
498.6077	-0.0001
498.8067	0.012
499.0056	0.0038
499.2046	0.0142
499.4035	0.0016
499.6024	0.0003
499.8013	0.0146
500.0002	0.0149
500.199	0.009
500.3979	0.012
500.5967	0.0037
500.7956	0.014
500.9944	0.0071
501.1932	0.0148
501.3919	0.0158
501.5907	0.0106
501.7895	0.0114
501.9882	0.0113
502.1869	0.0177
502.3856	0.008
502.5843	0.0061
502.783	0.0067
502.9816	0.0163
503.1803	0.0058
503.3789	0.0136
503.5775	0.0127
503.7761	0.0074
503.9747	0.0122
504.1732	0.0016
504.3718	0.018
504.5703	0.0023
504.7689	-0.0008
504.9674	0.0086
505.1658	0.007
505.3643	0.0124
505.5628	0.0101
505.7612	0.0148
505.9597	0.0026
506.1581	0.0076
506.3565	0.0129
506.5549	0.0021
506.7532	0.0015
506.9516	0.0175
507.1499	0.0098
507.3482	0.0142
507.5465	0.0133
507.7448	0.0107
507.9431	0.0103
508.1414	0.0032
508.3396	0.014
508.5379	0.0039
508.7361	0.0151
508.9343	0.0153
509.1325	0.0245
509.3306	0.0118
509.5288	0.0083
509.7269	0.0144
509.9251	0.0199
510.1232	0.0077
510.3213	0.0098
510.5193	0.0126
510.7174	0.004
510.9154	0.0106
511.1135	0.0071
511.3115	0.0069
511.5095	0.0035
511.7075	0.011
511.9055	0.009
512.1034	0.0073
512.3014	0.0066
512.4993	0.0187
512.6972	0.0015
512.8951	0.0082
513.093	0.0055
513.2908	0.0132
513.4887	0.0074
513.6865	0.0105
513.8844	0.0192
514.0822	0.0022
514.2799	0.0012
514.4777	0.003
514.6755	0.0109
514.8732	0.0127
515.0709	0.0045
515.2687	0.0129
515.4664	0.0148
515.664	0.0208
515.8617	0.0082
516.0594	0.0089
516.257	0.0101
516.4546	0.0204
516.6522	0.0143
516.8498	0.0075
517.0474	0.0028
517.2449	0.0043
517.4425	0.0177
517.64	0.0129
517.8375	0.0171
518.035	-0.0014
518.2325	0.0037
518.43	0.0019
518.6274	0.0051
518.8249	-0.0023
519.0223	0.0234
519.2197	0.0047
519.4171	-0.0008
519.6145	0.009
519.8118	-0.0076
520.0092	-0.0021
520.2065	0.0197
520.4038	0.0068
520.6011	0.0241
520.7984	0.013
520.9956	0.0129
521.1929	0.0123
521.3901	0.011
521.5874	0.0204
521.7846	-0.0021
521.9818	0.0085
522.1789	0.001
522.3761	0.02
522.5732	0.0046
522.7704	-0.0057
522.9675	-0.0023
523.1646	0.0063
523.3617	0.0104
523.5587	0.0131
523.7558	0.0129
523.9528	0.0151
524.1498	0.0054
524.3468	0.017
524.5438	0.0054
524.7408	0.0112
524.9378	0.0157
525.1347	0.0173
525.3316	0.0031
525.5285	0.013
525.7254	0.0166
525.9223	0.0203
526.1192	0.0029
526.316	0.0105
526.5129	0.0193
526.7097	0.0045
526.9065	0.007
527.1033	0.0055
527.3	0.0048
527.4968	0.0173
527.6935	0.0044
527.8903	0.0107
528.087	0.0101
528.2837	0.0207
528.4804	-0.0023
528.677	0.0087
528.8737	0.0082
529.0703	0.0118
529.2669	0.0149
529.4635	0.006
529.6601	0.004
529.8567	0.0016
530.0532	0.0154
530.2498	0.0061
530.4463	0.0053
530.6428	0.0086
530.8393	0.0161
531.0358	0.0018
531.2322	0.0131
531.4287	0.0109
531.6251	0.0008
531.8215	0.0022
532.0179	0.0099
532.2143	0.0145
532.4107	0.0115
532.607	0.0002
532.8034	0.0007
532.9997	0.0102
533.196	0.0123
533.3923	0.0114
533.5886	0.0087
533.7848	-0.0051
533.9811	0.0174
534.1773	0.011
534.3735	0.0202
534.5697	0.01
534.7659	0.0064
534.9621	0.0106
535.1582	0.0056
535.3544	0.0075
535.5505	0.0092
535.7466	0.0078
535.9427	0.0076
536.1387	-0.0024
536.3348	0.0191
536.5308	0.0032
536.7269	0.0069
536.9229	0.0182
537.1189	0.0095
537.3148	0.0076
537.5108	0.0086
537.7068	0.0105
537.9027	-0.0065
538.0986	0.008
538.2945	-0.0003
538.4904	0.0056
538.6863	0.0108
538.8821	0.0128
539.078	0.0062
539.2738	0.0102
539.4696	-0.0051
539.6654	0.004
539.8611	0.0153
540.0569	0.0121
540.2526	0.0176
540.4484	-0.0084
540.6441	0.0155
540.8398	0.0155
541.0355	0.0014
541.2311	0.0036
541.4268	0.0133
541.6224	0.0167
541.818	0.0092
542.0136	0.0163
542.2092	0.0181
542.4048	0.0118
542.6003	0.0134
542.7959	0.0214
542.9914	0.0191
543.1869	0.009
543.3824	0.0021
543.5779	0.0166
543.7734	0.0219
543.9688	0.0189
544.1642	0.0068
544.3596	0.0087
544.555	0.0046
544.7504	0.0258
544.9458	0.0076
545.1411	-0.0006
545.3365	0.0097
545.5318	0.0222
545.7271	0.004
545.9224	0.0014
546.1177	0.0086
546.3129	0.0116
546.5081	0.0071
546.7034	0.0054
546.8986	0.0071
547.0938	0.0182
547.289	0.0147
547.4841	0.0158
547.6793	0.0116
547.8744	0.0144
548.0695	0.004
548.2646	0.0113
548.4597	0.0047
548.6548	0.0174
548.8498	0.016
549.0448	0.0033
549.2399	0.0266
549.4349	0.0041
549.6298	0.0153
549.8248	0.0114
550.0198	0.0189
550.2147	0.0055
550.4096	0.0048
550.6045	0.009
550.7994	0.0081
550.9943	0.0241
551.1892	-0.0139
551.384	0.0089
551.5788	0.0095
551.7737	0.0107
551.9685	0.012
552.1632	0.0089
552.358	0.0068
552.5528	0.0161
552.7475	0.0097
552.9422	0.0163
553.1369	0.0213
553.3316	0.0113
553.5263	0.0121
553.7209	0.008
553.9156	0.015
554.1102	0.0206
554.3048	0.0012
554.4994	0.0108
554.694	0.009
554.8885	0.0101
555.0831	0.0129
555.2776	0.0113
555.4721	-0.0008
555.6666	0.0064
555.8611	0.0113
556.0555	0.0192
556.25	0.0183
556.4444	0.006
556.6388	0.0033
556.8332	0.0075
557.0276	0.0065
557.222	0.003
557.4163	0.018
557.6107	0.0078
557.805	-0.0055
557.9993	0.0128
558.1936	0.0039
558.3879	0.0076
558.5821	0.0063
558.7764	-0.0009
558.9706	0.0115
559.1648	0.01
559.359	-0.0056
559.5532	0.0094
559.7473	0.0086
559.9415	0.0052
560.1356	0.0219
560.3297	0.0017
560.5238	0.015
560.7179	0.0027
560.9119	-0.0013
561.106	0.0005
561.3	0.0063
561.494	0.0001
561.688	0.0164
561.882	-0.0006
562.076	0.0073
562.2699	0.0156
562.4639	0.0173
562.6578	0.0228
562.8517	0.0044
563.0456	0.0093
563.2395	0.0161
563.4333	0.0088
563.6272	0.0152
563.821	0.0075
564.0148	0.0059
564.2086	0.0056
564.4024	0.0164
564.5961	0.0097
564.7899	0.0126
564.9836	0.0041
565.1773	0.0225
565.371	0.0085
565.5647	0.0121
565.7584	0.023
565.952	0.0044
566.1456	-0.0039
566.3393	0.0108
566.5329	0.0039
566.7264	0.016
566.92	0.0075
567.1136	0.0034
567.3071	0.0019
567.5006	0.0102
567.6941	0.0044
567.8876	0.0035
568.0811	0.0274
568.2745	0.0054
568.468	0.0127
568.6614	0.0102
568.8548	0.0109
569.0482	0.0114
569.2416	0.0129
569.4349	0.014
569.6283	0.0056
569.8216	0.0074
570.0149	0.0065
570.2082	0.0181
570.4015	0.0044
570.5947	0.0092
570.788	0.0096
570.9812	0.0074
571.1744	0.0101
571.3676	0.0099
571.5608	0.0075
571.754	0.0132
571.9471	0.0123
572.1402	0.0113
572.3333	0.0076
572.5264	0.0076
572.7195	0.0079
572.9126	0.0041
573.1057	0.0072
573.2987	0.006
573.4917	0.0087
573.6847	0.0037
573.8777	0.0094
574.0707	0.0105
574.2636	0.0121
574.4566	0.0097
574.6495	0.0037
574.8424	0.0086
575.0353	0.0076
575.2281	0.0094
575.421	0.007
575.6138	0.0101
575.8067	0.0135
575.9995	0.007
576.1923	0.0115
576.385	0.0074
576.5778	0.0104
576.7706	0.0073
576.9633	0.0104
577.156	0.0003
577.3487	0.0086
577.5414	0.0062
577.734	0.005
577.9267	0.0115
578.1193	0.0126
578.3119	0.0074
578.5045	0.0102
578.6971	0.0082
578.8897	0.0034
579.0822	0.0113
579.2747	0.0069
579.4673	0.0083
579.6598	0.0126
579.8522	0.0089
580.0447	0.0118
580.2372	0.0118
580.4296	0.0125
580.622	0.0036
580.8144	0.0089
581.0068	0.0073
581.1992	0.0059
581.3915	0.001
581.5839	0.0091
581.7762	0.0046
581.9685	0.0076
582.1608	0.0116
582.353	0.0087
582.5453	0.0096
582.7375	0.0087
582.9298	0.0027
583.122	0.0065
583.3142	0.0074
583.5063	0.0069
583.6985	0.0067
583.8906	0.0036
584.0827	0.0115
584.2749	0.0091
584.4669	0.005
584.659	0.0095
584.8511	0.0122
585.0431	0.0097
585.2352	0.0066
585.4272	0.0098
585.6192	0.0079
585.8111	0.0072
586.0031	0.006
586.195	0.0084
586.387	0.0057
586.5789	0.0089
586.7708	0.0152
586.9627	0.0066
587.1545	0.0058
587.3464	0.0103
587.5382	0.0091
587.73	0.0139
587.9218	0.0045
588.1136	0.0051
588.3053	0.0095
588.4971	0.0109
588.6888	0.0052
588.8805	0.0078
589.0722	0.0108
589.2639	0.0089
589.4556	0.0105
589.6472	0.0143
589.8389	0.0128
590.0305	0.0019
590.2221	0.0117
590.4137	0.0061
590.6052	0.0018
590.7968	0.0064
590.9883	0.011
591.1798	0.0126
591.3713	0.0088
591.5628	0.01
591.7543	0.0115
591.9458	0.0053
592.1372	0.0099
592.3286	0.005
592.52	0.0088
592.7114	0.0089
592.9028	0.0137
593.0941	0.0072
593.2855	0.0105
593.4768	0.0132
593.6681	0.0133
593.8594	0.0101
594.0506	0.0082
594.2419	0.0133
594.4331	0.007
594.6244	0.0069
594.8156	0.0075
595.0067	0.003
595.1979	0.0024
595.3891	0.0091
595.5802	0.0141
595.7713	0.0105
595.9624	0.017
596.1535	0.0018
596.3446	0.0027
596.5357	0.0129
596.7267	0.0084
596.9177	0.0073
597.1087	0.0032
597.2997	0.0081
597.4907	0.0039
597.6817	0.0132
597.8726	0.0094
598.0635	0.0084
598.2544	0.0097
598.4453	0.0098
598.6362	0.0102
598.827	0.0058
599.0179	0.0106
599.2087	0.0143
599.3995	0.0093
599.5903	0.0126
599.7811	0.0162
599.9718	0.0031
600.1626	0.0049
600.3533	0.0082
600.544	0.0075
600.7347	0.0121
600.9254	0.0122
601.116	0.0096
601.3067	0.0081
601.4973	0.0077
601.6879	0.0071
601.8785	0.0079
602.0691	0.005
602.2596	0.0125
602.4502	0.0107
602.6407	0.0086
602.8312	0.0092
603.0217	0.0105
603.2122	0.0071
603.4027	0.013
603.5931	0.0021
603.7835	0.0072
603.9739	0.0031
604.1643	0.0138
604.3547	0.0116
604.5451	0.0138
604.7354	0.0003
604.9257	0.0032
605.116	0.002
605.3063	0.0109
605.4966	0.0039
605.6869	0.0136
605.8771	0.009
606.0673	0.0036
606.2575	0.0017
606.4477	0.0155
606.6379	0.0052
606.8281	0.0078
607.0182	0.0055
607.2083	0.009
607.3985	0.0105
607.5885	0.007
607.7786	0.0045
607.9687	0.007
608.1587	0.0098
608.3488	0.0077
608.5388	-0.0012
608.7288	0.0055
608.9187	0.0069
609.1087	0.0175
609.2986	0.0121
609.4886	0.0012
609.6785	0.0118
609.8684	0.0026
610.0582	0.0055
610.2481	-0.0004
610.4379	0.0076
610.6278	0.0043
610.8176	0.0188
611.0074	0.0053
611.1971	0.0133
611.3869	0.0062
611.5766	0.0005
611.7664	0.0122
611.9561	0.0096
612.1458	0.0121
612.3354	0.0071
612.5251	0.0058
612.7147	0.0095
612.9044	0.0039
613.094	0.0158
613.2836	0.0061
613.4731	0.012
613.6627	0.0063
613.8522	0.0119
614.0417	0.0169
614.2313	0.0106
614.4207	0.0086
614.6102	0.0082
614.7997	0.0144
614.9891	0.0143
615.1785	0.0015
615.3679	0.0118
615.5573	0.0069
615.7467	0.0033
615.9361	0.003
616.1254	0.0183
616.3147	0.0066
616.504	0.0093
616.6933	0.0048
616.8826	0.0029
617.0718	0.0196
617.2611	0.0073
617.4503	0.0043
617.6395	0.0071
617.8287	0.0135
618.0179	0.0073
618.207	0.0103
618.3961	-0.0024
618.5853	0.0074
618.7744	0.0093
618.9634	0.0142
619.1525	0.0118
619.3416	0.0011
619.5306	0.0157
619.7196	0.0132
619.9086	0.0085
620.0976	-0.0025
620.2866	0.0061
620.4755	0.0012
620.6645	0.0204
620.8534	0.0169
621.0423	0.0094
621.2312	-0.0007
621.42	0.0034
621.6089	0.0057
621.7977	0.0166
621.9865	0.0157
622.1753	0.0085
622.3641	-0.0012
622.5529	0.0044
622.7416	0.0055
622.9303	0.0021
623.1191	0.0044
623.3078	0.0167
623.4964	0.0068
623.6851	0.0144
623.8737	0.009
624.0624	-0.0063
624.251	0.0063
624.4396	0.0065
624.6282	0.0154
624.8167	0.0044
625.0053	0.021
625.1938	0.0073
625.3823	0.0114
625.5708	0.0026
625.7593	0.0108
625.9477	0.0087
626.1362	0.0003
626.3246	0.009
626.513	0.007
626.7014	0.0029
626.8898	0.022
627.0781	0.0022
627.2665	0.0151
627.4548	0.0042
627.6431	0.0148
627.8314	0.0162
628.0197	0.0186
628.2079	0.004
628.3962	0.0007
628.5844	0.0033
628.7726	0.0032
628.9608	0.0119
629.1489	0.0096
629.3371	-0.0015
629.5252	0.0136
629.7134	0.005
629.9015	0.0185
630.0895	0.0029
630.2776	0.0112
630.4657	0.0178
630.6537	0.0102
630.8417	0.0006
631.0297	0.0113
631.2177	0.0031
631.4057	0.0025
631.5936	-0.0013
631.7815	0.0089
631.9695	0.0284
632.1574	0.0227
632.3452	0.0197
632.5331	0.022
632.7209	0.0235
632.9088	0.006
633.0966	0.0202
633.2844	0.0099
633.4722	0.017
633.6599	0.0271
633.8477	0.0184
634.0354	0.0221
634.2231	-0.0087
634.4108	0.0119
634.5985	0.0137
634.7861	0.0025
634.9738	-0.0001
635.1614	0.008
635.349	0.005
635.5366	0.0034
635.7242	0.0071
635.9117	0.0164
636.0993	0.0093
636.2868	0.0042
636.4743	0.0101
636.6618	-0.0042
636.8492	0.0089
637.0367	-0.002
637.2241	0.0196
637.4115	0.0354
637.5989	0.0051
637.7863	0.0401
637.9737	-0.0026
638.161	0.012
638.3484	-0.006
638.5357	0.0061
638.723	0.0194
638.9103	-0.0173
639.0975	0.0025
639.2848	0.0165
639.472	0.0163
639.6592	-0.0077
639.8464	0.0082
640.0336	0.0174
640.2208	0.0019
640.4079	-0.0093
640.595	-0.0052
640.7821	0.008
640.9692	0.0049
641.1563	0.0068
641.3434	0.0163
641.5304	0.0247
641.7174	-0.0019
641.9044	-0.0037
642.0914	0.02
642.2784	0.0059
642.4653	-0.0008
642.6523	0.003
642.8392	0.0148
643.0261	0.0265
643.213	-0.0007
643.3999	0.0072
643.5867	0.0287
643.7735	0.0097
643.9604	0.0175
644.1472	0.0228
644.3339	0.0207
644.5207	-0.0168
644.7075	0.0074
644.8942	0.0006
645.0809	-0.0024
645.2676	-0.0095
645.4543	-0.0148
645.6409	0.0104
645.8276	0.01
646.0142	0.0086
646.2008	0.0152
646.3874	0.0032
646.574	0.0138
646.7605	-0.0074
646.9471	0.0063
647.1336	-0.0071
647.3201	0.0213
647.5066	0.0006
647.6931	-0.0065
647.8795	0.0092
648.0659	0.0052
648.2524	0.0146
648.4388	-0.0072
648.6252	0.0164
648.8115	0.0086
648.9979	0.0015
649.1842	0.0067
649.3705	0.0252
649.5568	0.0009
649.7431	0.004
649.9294	-0.0019
650.1156	-0.0107
650.3018	0.0363
650.488	0.0097
650.6742	0.0235
650.8604	0.024
651.0466	-0.0057
651.2327	0.0058
651.4188	0.0011
651.6049	0.0174
651.791	-0.0027
651.9771	-0.005
652.1632	0.0031
652.3492	0.0082
652.5352	0.0082
652.7212	0.0035
652.9072	0.0042
653.0932	0.0045
653.2791	0.0122
653.465	0.0181
653.651	0.0133
653.8369	0.0147
654.0227	0.0051
654.2086	0.003
654.3944	0.014
654.5803	0.0063
654.7661	0.0095
654.9519	0.0002
655.1377	0.0003
655.3234	0.0003
655.5092	0.0003
655.6949	0.0003
655.8806	0.0003
656.0663	0.0003
656.2519	0.0003
656.4376	0.0003
656.6232	0.0003
656.8088	0.0003
656.9945	0.0003
657.18	0.0003
657.3656	0.0003
657.5511	0.0003
657.7367	0.0003
657.9222	0.0003
658.1077	0.0003
658.2932	0.0003
658.4786	0.0003
658.6641	0.0003
658.8495	0.0003
659.0349	0.0003
659.2203	0.0003
659.4057	0.0119
659.591	0.2614
659.7764	0.0407
659.9617	0.0193
660.147	0.0019
660.3323	0.0165
660.5176	0.013
660.7028	-0.0151
660.888	0.0045
661.0733	0.0238
661.2585	0.0066
661.4436	0.0142
661.6288	0.0152
661.8139	0.0098
661.9991	0.0077
662.1842	-0.0035
662.3693	0.0045
662.5544	0.0177
662.7394	0.0326
662.9245	0.0172
663.1095	-0.0049
663.2945	0.0119
663.4795	-0.005
663.6644	0.0023
663.8494	0.0147
664.0343	0.0197
664.2193	-0.0084
664.4042	0.0135
664.589	0.0123
664.7739	0.0233
664.9587	-0.0106
665.1436	0.0141
665.3284	0.0124
665.5132	-0.0264
665.698	0.0135
665.8827	0.0301
666.0675	0.0056
666.2522	0.0354
666.4369	0.0035
666.6216	0.0057
666.8063	0.0002
666.9909	-0.0048
667.1756	-0.0163
667.3602	0.0118
667.5448	0.0178
667.7294	0.0324
667.9139	-0.0056
668.0985	0.0026
668.283	0.005
668.4675	0.0278
668.652	0.0183
668.8365	0.0297
669.0209	0.0146
669.2054	0.0312
669.3898	0.0037
669.5742	0.0271
669.7586	0.0145
669.943	0.0063
670.1273	-0.0101
670.3117	0.0292
670.496	-0.0106
670.6803	-0.0056
670.8646	-0.0053
671.0488	0.0243
671.2331	-0.0076
671.4173	0.0058
671.6015	0.0135
671.7857	0.0117
671.9699	0.0122
672.1541	0.0027
672.3382	0.0071
672.5223	-0.0039
672.7064	0.0129
672.8905	-0.0051
673.0746	0.013
673.2587	0.0196
673.4427	-0.0004
673.6267	0.0125
673.8107	0.0154
673.9947	0.0335
674.1787	0.0075
674.3626	0.0078
674.5465	0.0187
674.7304	0.0054
674.9143	-0.0177
675.0982	0.0137
675.2821	0.0134
675.4659	-0.0241
675.6497	0.0274
675.8335	0.0032
676.0173	-0.0053
676.2011	0.0144
676.3849	-0.0004
676.5686	0.0144
676.7523	-0.0079
676.936	-0.0022
677.1197	-0.0058
677.3034	0.0173
677.487	0.0168
677.6706	0.015
677.8542	0.0049
678.0378	0.0085
678.2214	0.0104
678.405	0.0055
678.5885	0.0024
678.772	0.0157
678.9555	0.0052
679.139	0.0054
679.3225	0.0131
679.5059	0.0065
679.6894	0.009
679.8728	0.003
680.0562	0.0001
680.2395	-0.0017
680.4229	-0.005
680.6062	0.0072
680.7896	-0.0015
680.9729	0.0109
681.1562	0.0015
681.3394	0.0149
681.5227	0.006
681.7059	0.0059
681.8891	0.0066
682.0723	-0.0068
682.2555	-0.0026
682.4387	0.017
682.6218	0.017
682.805	0.0141
682.9881	0.0127
683.1712	0.0298
683.3542	0.014
683.5373	0.0119
683.7203	0.0155
683.9034	0.0035
684.0864	-0.0036
684.2694	0.0156
684.4523	0.0137
684.6353	0.0033
684.8182	0.0151
685.0011	0.0115
685.184	0.0087
685.3669	0.0291
685.5498	-0.0058
685.7326	-0.0003
685.9154	-0.0032
686.0982	0.0086
686.281	-0.0005
686.4638	-0.0061
686.6465	0.0037
686.8293	-0.0011
687.012	0.0176
687.1947	0.008
687.3774	0.0367
687.56	-0.0087
687.7427	0.0031
687.9253	-0.005
688.1079	0.0192
688.2905	-0.0076
688.4731	0.0106
688.6556	0.0013
688.8382	-0.0178
689.0207	0.0073
689.2032	0.0119
689.3857	0.0042
689.5681	0.0179
689.7506	0.0374
689.933	0.0058
690.1154	0.0123
690.2978	0.0024
690.4802	0.0212
690.6626	-0.0057
690.8449	0.0172
691.0272	-0.0124
691.2095	0.003
691.3918	0.0094
691.5741	0.0056
691.7563	0.0186
691.9386	0.0172
692.1208	0.0034
692.303	-0.0053
692.4852	0.0037
692.6673	0.0134
692.8495	-0.0001
693.0316	0.0145
693.2137	0.0263
693.3958	0.0199
693.5778	0.0067
693.7599	-0.0241
693.9419	-0.0073
694.1239	0.0285
694.3059	0.0373
694.4879	-0.0045
694.6699	-0.0146
694.8518	0.0191
695.0337	0.019
695.2157	0.0253
695.3975	-0.0151
695.5794	0.0177
695.7613	0.0046
695.9431	-0.0201
696.1249	-0.001
696.3067	-0.0014
696.4885	0.0191
696.6703	0.0074
696.852	0.0078
697.0337	0.0236
697.2154	0.012
697.3971	0.004
697.5788	0.0042
697.7605	0.0126
697.9421	0.0014
698.1237	0.0306
698.3053	0.0071
698.4869	-0.0004
698.6685	-0.0022
698.85	0.0122
699.0315	0.0116
699.213	0.0234
699.3945	-0.0042
699.576	0.0081
699.7575	0.0203
699.9389	-0.0236
700.1203	-0.0033
700.3017	0.0253
700.4831	0.0063
700.6645	0.0326
700.8458	0.0038
701.0271	0.0026
701.2084	-0.0021
701.3897	0.012
701.571	-0.0161
701.7523	0.0139
701.9335	-0.0047
702.1147	0.0206
702.2959	0.0114
702.4771	0.0026
702.6583	0.0059
702.8394	-0.0091
703.0205	0.0153
703.2016	-0.0205
703.3827	-0.0145
703.5638	0.0165
703.7449	0.0453
703.9259	0.0221
704.1069	-0.0138
704.2879	0.024
704.4689	-0.0023
704.6499	0.0156
704.8308	0.0022
705.0117	0.0381
705.1927	0.0215
705.3735	-0.0021
705.5544	0.0172
705.7353	-0.0056
705.9161	-0.0294
706.0969	0.0011
706.2777	0.0141
706.4585	0.0057
706.6393	0.019
706.82	0.0156
707.0007	0.0015
707.1815	0.0001
707.3621	0.0272
707.5428	0.0224
707.7235	0.0054
707.9041	0.0178
708.0847	0.0134
708.2653	0.0406
708.4459	0.0044
708.6265	-0.0008
708.807	0.0072
708.9875	0.0002
709.168	0.0176
709.3485	0.0155
709.529	0.0201
709.7095	-0.0143
709.8899	0.0182
710.0703	0.0215
710.2507	0.015
710.4311	-0.0198
710.6115	0.0326
710.7918	0.0287
710.9721	0.0165
711.1524	0.0176
711.3327	0.0212
711.513	0.0095
711.6932	0.0166
711.8735	0.0232
712.0537	-0.02
712.2339	-0.016
712.4141	0.0241
712.5942	-0.028
712.7744	0.0261
712.9545	0.0188
713.1346	0.017
713.3147	0.0142
713.4947	0.0013
713.6748	0.023
713.8548	0.0295
714.0348	0.008
714.2148	0.0089
714.3948	0.0144
714.5748	0.0262
714.7547	0.0175
714.9346	0.0204
715.1145	-0.0024
715.2944	-0.026
715.4743	0.0432
715.6541	-0.0137
715.834	0.0398
716.0138	0.0134
716.1936	-0.0039
716.3733	-0.012
716.5531	0.0102
716.7328	0.0183
716.9126	0.0044
717.0923	0.002
717.2719	0.0246
717.4516	0.0058
717.6312	-0.0344
717.8109	0.0218
717.9905	0.0108
718.1701	0.019
718.3496	0.0159
718.5292	-0.0149
718.7087	0.0017
718.8882	0.0074
719.0677	-0.0085
719.2472	0.0024
719.4267	0.0153
719.6061	0.002
719.7856	0.0119
719.965	0.0372
720.1443	-0.009
720.3237	-0.0133
720.5031	-0.0081
720.6824	0.0022
720.8617	-0.0005
721.041	0.0189
721.2203	-0.0081
721.3995	0.0099
721.5788	0.011
721.758	-0.0088
721.9372	0.0205
722.1164	-0.0149
722.2956	0.0187
722.4747	0.0145
722.6538	0.0025
722.8329	0.021
723.012	0.0063
723.1911	0.0007
723.3702	0.0231
723.5492	0.0129
723.7282	0.0029
723.9072	0.0154
724.0862	0.0025
724.2652	0.0147
724.4441	-0.0034
724.623	0.0086
724.8019	0.0074
724.9808	0.0159
725.1597	0.0109
725.3385	0.0126
725.5174	0.0029
725.6962	-0.0011
725.875	0.0045
726.0538	-0.0039
726.2325	0.034
726.4112	-0.0057
726.59	-0.0097
726.7687	-0.0273
726.9474	0.013
727.126	0.0387
727.3047	-0.019
727.4833	0.004
727.6619	0.0002
727.8405	0.0213
728.0191	0.0488
728.1976	0.0045
728.3762	0.0123
728.5547	-0.0148
728.7332	0.025
728.9116	-0.0001
729.0901	-0.0054
729.2686	-0.007
729.447	-0.008
729.6254	0.0117
729.8038	0.0008
729.9821	-0.0039
730.1605	0.0315
730.3388	-0.0097
730.5171	0.0201
730.6954	0.0002
730.8737	0.0222
731.0519	-0.0014
731.2302	0.0335
731.4084	0.0013
731.5866	0.0037
731.7648	-0.0031
731.9429	0.0161
732.1211	-0.0135
732.2992	0.0101
732.4773	0.0099
732.6554	-0.0129
732.8335	0.0106
733.0115	0.0316
733.1896	-0.0067
733.3676	0.0159
733.5456	0.0068
733.7235	0.0105
733.9015	0.0006
734.0794	-0.0103
734.2574	-0.0172
734.4353	0.0105
734.6131	0.003
734.791	-0.0079
734.9689	-0.0066
735.1467	0.01
735.3245	0.0086
735.5023	0.0037
735.68	-0.0069
735.8578	0.0042
736.0355	0.012
736.2132	0.0263
736.3909	0.0128
736.5686	0.0015
736.7463	-0.0238
736.9239	0.0143
737.1015	0.0195
737.2791	0.0184
737.4567	-0.0001
737.6343	-0.0037
737.8118	0.0267
737.9894	0.0203
738.1669	0.0022
738.3444	0.0274
738.5218	0.0022
738.6993	0.0188
738.8767	0.0118
739.0541	0.018
739.2315	0.0058
739.4089	0.0381
739.5863	-0.0092
739.7636	0.0075
739.9409	0.0203
740.1182	0.0219
740.2955	0.0181
740.4728	-0.0142
740.65	-0.002
740.8272	-0.0007
741.0044	-0.0111
741.1816	0.0146
741.3588	-0.0228
741.5359	-0.0096
741.7131	0.0391
741.8902	0.0146
742.0673	-0.023
742.2444	0.0491
742.4214	0.0188
742.5985	0.0011
742.7755	0.0042
742.9525	-0.0157
743.1295	-0.0387
743.3064	0.0008
743.4834	-0.0071
743.6603	0.0405
743.8372	-0.0224
744.0141	0.0301
744.191	0.0103
744.3678	-0.0276
744.5446	0.0136
744.7215	0.0003
744.8982	-0.0011
745.075	0.0491
745.2518	0.0044
745.4285	0.0111
745.6052	-0.0016
745.7819	0.0208
745.9586	0.0173
746.1353	-0.0239
746.3119	0.022
746.4885	0.0241
746.6651	-0.0141
746.8417	0.0162
747.0183	0.0209
747.1948	0.0166
747.3714	0.0108
747.5479	0.0163
747.7244	0.0089
747.9008	-0.0128
748.0773	0.0317
748.2537	-0.0132
748.4301	0.0151
748.6065	-0.0006
748.7829	-0.0377
748.9593	-0.026
749.1356	0.0206
749.3119	0.0241
749.4882	0.0133
749.6645	0.0023
749.8408	0.0316
750.017	-0.0022
750.1933	-0.0327
750.3695	0.031
750.5457	0.0009
750.7218	-0.002
750.898	-0.0169
751.0741	-0.0049
751.2502	0.0165
751.4263	0.0385
751.6024	0.009
751.7784	-0.0132
751.9545	-0.0045
752.1305	0.0224
752.3065	0.0149
752.4825	-0.0131
752.6584	0.0046
752.8344	0.0092
753.0103	-0.0065
753.1862	0.0147
753.3621	-0.0082
753.5379	-0.0136
753.7138	0.0242
753.8896	0.0084
754.0654	-0.0067
754.2412	0.0168
754.417	0.0355
754.5927	0.0054
754.7685	0.0243
754.9442	0.0275
755.1199	0.0168
755.2956	0.0274
755.4712	0.0228
755.6469	0.0244
755.8225	0.0035
755.9981	0.0082
756.1736	0.0114
756.3492	0.0115
756.5248	0.0194
756.7003	0.0059
756.8758	0.0127
757.0513	0.008
757.2267	0.0113
757.4022	0.0061
757.5776	0.0043
757.753	0.0145
757.9284	0.0124
758.1038	0.0208
758.2791	0.0088
758.4545	-0.007
758.6298	0.0266
758.8051	0.008
758.9803	0.0137
759.1556	0.0043
759.3308	0.0047
759.506	0.0084
759.6812	0.001
759.8564	-0.0015
760.0316	-0.0035
760.2067	0.0285
760.3819	0.0028
760.557	0.0056
760.732	0.0072
760.9071	0.0205
761.0821	-0.0185
761.2572	0.0122
761.4322	0.0071
761.6072	-0.0011
761.7821	-0.0066
761.9571	0.0466
762.132	0.0079
762.3069	0.0274
762.4818	0.0126
762.6567	-0.0109
762.8316	0.0157
763.0064	0.008
763.1812	0.0073
763.356	-0.0033
763.5308	0.024
763.7055	0.0005
763.8803	-0.0076
764.055	-0.0074
764.2297	-0.0169
764.4044	0.0203
764.579	-0.0033
764.7537	-0.0071
764.9283	-0.008
765.1029	0.0202
765.2775	-0.0022
765.4521	0.0387
765.6266	0.0074
765.8011	0.02
765.9756	0.0205
766.1501	-0.0122
766.3246	0.0039
766.4991	0.015
766.6735	0.0385
766.8479	0.0211
767.0223	0.0081
767.1967	0.0206
767.371	0.0209
767.5454	0.0313
767.7197	0.0343
767.894	0.0084
768.0683	0.0231
768.2425	0.0087
768.4168	0.0138
768.591	-0.0196
768.7652	0.0098
768.9394	0.0007
769.1135	0.0212
769.2877	0.0239
769.4618	0.0181
769.6359	0.0221
769.81	0.0511
769.984	-0.005
770.1581	-0.0079
770.3321	0.0397
770.5061	-0.0111
770.6801	0.0182
770.8541	0.0125
771.028	0.0455
771.202	0.0438
771.3759	0.0006
771.5498	0.0143
771.7236	-0.0015
771.8975	0.0223
772.0713	0.0277
772.2451	-0.0164
772.4189	0.0028
772.5927	-0.0266
772.7665	0.0074
772.9402	0.0387
773.1139	0.011
773.2876	-0.0195
773.4613	0.0387
773.635	0.0656
773.8086	0.0106
773.9822	0.02
774.1558	0.0608
774.3294	0.0352
774.503	-0.005
774.6765	-0.0143
774.8501	-0.0023
775.0236	0.0448
775.1971	0.0185
775.3705	0.0237
775.544	-0.0421
775.7174	0.0232
775.8908	0.0023
776.0642	-0.0219
776.2376	0.0344
776.4109	0.0066
776.5843	-0.0349
776.7576	0.0232
776.9309	0.0299
777.1041	-0.0401
777.2774	-0.0314
777.4506	0.0524
777.6238	0.0112
777.797	0.0192
777.9702	0.0192
778.1434	0.0054
778.3165	-0.0027
778.4896	-0.0237
778.6627	0.0319
778.8358	0.0236
779.0089	0.0004
779.1819	-0.0018
779.3549	0.0181
779.5279	0.0063
779.7009	0.0676
779.8739	0.0441
780.0468	0.0335
780.2197	0.0588
780.3926	0.0296
780.5655	0.024
780.7384	0.014
780.9112	0.021
781.0841	0.0101
781.2569	0.0419
781.4297	0.0319
781.6024	0.0271
781.7752	0.0346
781.9479	0.0197
782.1206	0.0344
782.2933	0.0237
782.466	0.033
782.6386	-0.0279
782.8113	-0.0156
782.9839	-0.0037
783.1565	0.0172
783.329	-0.0099
783.5016	0.0329
783.6741	-0.0158
783.8466	0.0104
784.0191	0.0193
784.1916	0.0402
784.3641	-0.0497
784.5365	0.0707
784.7089	0.0116
784.8813	0.0738
785.0537	0.0646
785.2261	0.0042
785.3984	-0.0204
785.5707	-0.0119
785.743	0.0343
785.9153	0.0248
786.0876	-0.0123
786.2598	0.0012
786.432	0.0141
786.6042	0.0431
786.7764	-0.019
786.9486	-0.0118
787.1207	0.0305
787.2928	0.0178
787.4649	0.0176
787.637	0.016
787.8091	0.0377
787.9811	0.03
788.1532	0.0179
788.3252	0.0045
788.4972	0.0323
788.6691	-0.0014
788.8411	0.0022
789.013	-0.0039
789.1849	-0.023
789.3568	0.0207
789.5287	0.0616
789.7005	-0.0143
789.8723	-0.0275
790.0442	-0.0217
790.2159	0.0186
790.3877	0.0234
790.5595	0.0166
790.7312	-0.0255
790.9029	0.0058
791.0746	0.0065
791.2463	-0.0252
791.4179	0.0314
791.5896	-0.0158
791.7612	0.0139
791.9328	0.0046
792.1044	0.0182
792.2759	-0.0078
792.4474	-0.0015
792.619	-0.0656
792.7905	0.0364
792.9619	0.0703
793.1334	0.0773
793.3048	0.0743
793.4762	0.0257
793.6476	0.0045
793.819	-0.0016
793.9904	0.0065
794.1617	0.0061
794.333	0.036
794.5043	0.0294
794.6756	0.0371
794.8469	-0.0026
795.0181	0.0324
795.1893	0.0576
795.3605	0.0147
795.5317	-0.0324
795.7029	0.0006
795.874	-0.0479
796.0452	0.0017
796.2163	0.0896
796.3873	0.0572
796.5584	0.0242
796.7294	0.1108
796.9005	0.0976
797.0715	0.0657
797.2425	0.0859
797.4134	0.0571
797.5844	0.0901
797.7553	-0.0471
797.9262	0.0822
798.0971	0.0478
798.2679	-0.0182
798.4388	0.0348
798.6096	-0.0032
798.7804	0.002
798.9512	0.0528
799.122	-0.0646
799.2927	0.0418
799.4635	0.0302
799.6342	-0.0683
799.8049	0.0438
799.9755	-0.0165
800.1462	-0.0059
800.3168	0.0511
800.4874	-0.0425
800.658	0.0412
800.8286	0.0555
800.9991	0.0337
801.1696	-0.0148
801.3402	-0.0027
801.5106	0.0035
801.6811	0.0602
801.8516	0.1245
802.022	-0.0118
802.1924	0.057
802.3628	0.0579
802.5332	-0.0106
802.7035	0.0622
802.8739	0.0111
803.0442	0.0031
803.2145	0.0077
803.3847	0.0809
803.555	0.0519
803.7252	0.0138
803.8954	-0.0471
804.0656	0.0456
804.2358	-0.0405
804.4059	0.1199
804.5761	0.041
804.7462	0.0064
804.9163	0.022
805.0864	-0.0023
805.2564	-0.042
805.4264	-0.0618
805.5965	0.0455
805.7665	-0.0095
805.9364	0.1043
806.1064	0.0412
806.2763	0.0219
806.4462	0.0955
806.6161	0.0287
806.786	0.0027
806.9559	0.0236
807.1257	-0.0084
807.2955	0.0251
807.4653	0.0203
807.6351	0.1295
807.8048	0.0688
807.9746	0.0426
808.1443	-0.0004
808.314	0.0261
808.4837	0.0292
808.6533	0.0122
808.8229	0.0136
808.9926	0.056
809.1622	0.0439
809.3317	-0.0207
809.5013	-0.0538
809.6708	-0.0039
809.8403	0.0418
810.0098	0.0048
810.1793	0.0947
810.3488	0.0481
810.5182	0.2355
810.6876	0.0505
810.857	0.0037
811.0264	0.0119
811.1958	0.0949
811.3651	0.0334
811.5344	0.2634
811.7037	-0.0054
811.873	0.1357
812.0422	-0.0373
812.2115	-0.0491
812.3807	-0.0781
812.5499	-0.006
812.7191	-0.0014
812.8882	-0.054
813.0574	0.0097
813.2265	0.0449
813.3956	0.0523
813.5646	0.0812
813.7337	0.0177
813.9027	0.0225
814.0718	0.0393
814.2407	0.1061
814.4097	0.0681
814.5787	0.1258
814.7476	0.0438
814.9165	0.0149
815.0854	0.0187
815.2543	-0.0146
815.4232	0.0645
815.592	-0.0157
815.7608	-0.1881
815.9296	0.0047
816.0984	0.2232
816.2671	0.0587
816.4359	-0.0108
816.6046	-0.007
816.7733	0.0574
816.942	-0.0166
817.1106	0.1382
817.2793	0.0078
817.4479	-0.0538
817.6165	0.1213
817.785	0.1175
817.9536	-0.0182
818.1221	-0.0188
818.2906	-0.0364
818.4591	0.082
818.6276	0.0041
818.7961	0.0118
818.9645	0.2411
819.1329	0.1407
819.3013	0.0458
819.4697	0.0092
819.638	0.1403
819.8064	-0.0326
819.9747	0.0975
820.143	-0.0463
820.3113	0.2789
820.4795	0.1739
820.6477	0.0377
820.816	0.1117
820.9842	0.0857
821.1523	-0.0099
821.3205	0.1117
821.4886	0.0446
821.6567	-0.0079
821.8248	0.1824
821.9929	-0.0701
822.1609	0.1352
822.329	0.0872
822.497	0.0949
822.665	0.0959
822.833	0.0179
823.0009	0.0431
823.1688	0.0872
823.3367	0.083
823.5046	0.1947
823.6725	-0.0356
823.8404	0.0332
824.0082	-0.0953
824.176	0.1119
824.3438	0.3606
824.5116	0.0253
824.6793	0.2396
824.847	0.2202
825.0147	0.2114
825.1824	0.0891
825.3501	0.1899
825.5177	0.0872
825.6854	-0.0665
825.853	0.1091
826.0206	0.0482
826.1881	0.0446
826.3557	-0.0605
826.5232	0.2495
826.6907	0.036
826.8582	-0.139
827.0257	0.1884
827.1931	0.1409
827.3605	0.1112
827.528	-0.1069
827.6953	-0.1007
827.8627	-0.1118
828.03	0.2105
828.1974	0.056
828.3647	0.1767
828.532	0.0461
828.6992	0.1185
828.8665	0.0119
829.0337	0.1043
829.2009	0.0397
829.3681	-0.0257
829.5352	-0.2061
829.7024	0.0443
829.8695	0.12
830.0366	0.1694
830.2037	0.0533
830.3707	0.1941
830.5378	-0.0127
830.7048	-0.0328
830.8718	0.3599
831.0388	0.009
831.2057	-0
831.3727	0.4747
831.5396	-0.0159
831.7065	-0.9119
831.8734	-0.0709
832.0402	0.2614
832.2071	-0
832.3739	0.2982
832.5407	-1.9054
832.7075	-0.2687
832.8742	0.0751
833.041	0.1921
833.2077	0.3364
833.3744	-0.0689
833.541	0.1656
833.7077	0.1356
833.8743	0.0966
834.0409	0.255
834.2075	0.1443
834.3741	-0.0793
834.5407	0.2075
834.7072	0.1171
834.8737	0.2221
835.0402	0.0536
835.2067	-0.0087
835.3731	-0.1465
835.5395	-0.1335
835.706	0.062
835.8723	0.016
836.0387	0.1356
836.2051	0.299
836.3714	0.3898
836.5377	-0.0332
836.704	-0.0363
836.8703	0.1277
837.0365	-0
837.2027	-0
837.3689	0.6555
837.5351	0.0489
837.7013	0.1219
837.8674	-0
838.0335	0.1098
838.1997	0.0848
838.3657	0.9503
838.5318	-0.4555
838.6978	-0
838.8639	-0.3097
839.0299	0.1139
839.1958	0.0842
839.3618	-0
839.5277	-0.0979
839.6937	0.4452
839.8596	-0.1392
840.0254	-0.0863
840.1913	0.4921
840.3571	-0.199
840.523	-0
840.6888	-0.02
840.8545	-0.0645
841.0203	0.0313
841.186	-0.083
841.3517	-0.1764
841.5174	0.0541
841.6831	0.152
841.8488	0.0505
842.0144	-0
842.18	0.1963
842.3456	-0.0739
842.5112	-0.1675
842.6767	0.5055
842.8422	0.4958
843.0077	0.2729
843.1732	-0.0466
843.3387	0.6731
843.5042	-0
843.6696	0.1356
843.835	0.699
844.0004	-0.1963
844.1657	-0
844.3311	-0
844.4964	-0.5122
844.6617	0.4983
844.827	-0
844.9923	0.182
845.1575	1.3069
845.3227	0.7412
845.4879	-0.3247
845.6531	0.357
845.8183	0.7789
845.9834	0.0501
846.1485	0.4462
846.3136	0.3731
846.4787	-0
846.6438	0.009
846.8088	-0
846.9738	-0
847.1388	1.1063
847.3038	0.3759
847.4687	-0
847.6337	-0
847.7986	0.5353
847.9635	-0.0811
848.1284	-0
848.2932	0.7069
848.458	-1.4969
848.6228	0.0203
848.7876	-0
848.9524	0.1828
849.1172	-1.5109
849.2819	-0
849.4466	-0
849.6113	-0.1338
849.7759	0.1416
849.9406	0.2606
850.1052	-0
850.2698	-0
850.4344	-0.1165
850.599	-0.1229
850.7635	-0
850.928	1.1196
851.0925	1.4922
851.257	-0.0989
851.4215	-0.2542
851.5859	0.0729
851.7503	-0
851.9147	-0
852.0791	0.1029
852.2434	-0
852.4078	-0.3045
852.5721	0.3367
852.7364	-0.1286
852.9007	0.0729
853.0649	-0.1195
853.2291	0.4664
853.3934	-0
853.5575	0.1291
853.7217	0.8517
853.8859	0.0744
854.05	-0.5177
854.2141	0.0769
854.3782	-0.3073
854.5423	0.2487
854.7063	0.1252
854.8703	-0.1143
855.0343	-0.204
855.1983	0.3467
855.3623	-0.2165
855.5262	-0.3298
855.6901	-0
855.854	-0
856.0179	-0.192
856.1818	0.1188
856.3456	0.3829
856.5094	-0
856.6732	-0
856.837	-0.9665
857.0008	-0
857.1645	-0.1693
857.3282	-0.1566
857.4919	0.2145
857.6556	-0.2308
857.8192	0.0303
857.9828	-0.1031
858.1465	-0.1544
858.31	0.4379
858.4736	-0.5959
858.6372	-0
858.8007	0.0777
858.9642	0.4648
859.1277	0.5498
859.2911	-0.4968
859.4546	-0
859.618	0.2832
859.7814	-0.1755
859.9448	0.3211
860.1081	0.8089
860.2715	-1.074
860.4348	0.1853
860.5981	0.2198
860.7614	0.7813
860.9246	0.0359
861.0879	0.5483
861.2511	-0.8474
861.4143	-0
861.5774	-0
861.7406	-0.0067
861.9037	-0.6826
862.0668	-0.7175
862.2299	-0
862.393	-0
862.556	-0
862.7191	-0
862.8821	0.4718
863.0451	-0.0151
863.208	0.2013
863.371	0.0351
863.5339	0.3846
863.6968	-0
863.8597	-0
864.0225	-0
864.1854	-0.2916
864.3482	-0
864.511	0.3467
864.6737	-0.3051
864.8365	0.4185
864.9992	-0
865.1619	-0
865.3246	-1.9494
865.4873	-0
865.65	-0.0549
865.8126	-0
865.9752	0.3943
866.1378	0.881
866.3004	0.8632
866.4629	-1.4359
866.6254	-0
866.7879	-0.2984
866.9504	-0.0645
867.1129	-0
867.2753	-0.2941
867.4377	0.2029
867.6001	-0
867.7625	0.2983
867.9249	1.3916
868.0872	0.9912
868.2495	-0
868.4118	-0
868.5741	-0
868.7363	-0
868.8986	-0
869.0608	0.5597
869.223	-0.3281
869.3851	-0
869.5473	0.4508
869.7094	-0
869.8715	-0.1374
870.0336	0.0321
870.1957	-1.1747
870.3577	1.2801
870.5197	0.2872
870.6817	0.0464
870.8437	-0
871.0057	1.3039
871.1676	0.3355
871.3295	-0
871.4914	-1.7796
871.6533	-0.0787
871.8151	-0
871.977	-0
872.1388	-0
872.3006	-0.479
872.4623	-0.1779
872.6241	1.6353
872.7858	-0
872.9475	-0
873.1092	0.0288
873.2709	-0
873.4325	-1.7515
873.5941	1.8129
873.7557	-0
873.9173	0.4747
874.0789	0.3542
874.2404	0.1136
874.4019	0.9806
874.5634	0.4358
874.7249	-0
874.8863	-0.1917
875.0478	0.3393
875.2092	1.0116
875.3706	-0.0539
875.5319	-0
875.6933	0.7938
875.8546	-0.3536
876.0159	-0
876.1772	-0.0148
876.3385	1.2687
876.4997	-0
876.6609	-0
876.8221	-0
876.9833	-0.2414
877.1445	-0
877.3056	-0
877.4667	-0.8658
877.6278	-0
877.7889	-0
877.9499	-0
878.111	-0.3402
878.272	-0.1481
878.433	0.3345
878.5939	-0
878.7549	-0
878.9158	-0
879.0767	0.0456
879.2376	-0
879.3984	1.1749
879.5593	-0
879.7201	-1.4624
879.8809	-0
880.0417	0.2482
880.2024	0.1734
880.3632	-0.1645
880.5239	0.6596
880.6846	-0
880.8452	-0.262
881.0059	-0
881.1665	-0.073
881.3271	-0
881.4877	-0
881.6483	-1.4295
881.8088	-0.699
881.9693	0.1165
882.1298	0.1165
882.2903	0.1165
