Data from D4ACN5uM420nmA_Absorbance_14-37-07-241.txt Node
Date: Fri Feb 21 14:37:07 GMT 2025
User: LASERRRRR
Spectrometer: FLMT03099
Trigger mode: 0
Integration Time (sec): 1.500000E-2
Scans to average: 1
Electric dark correction enabled: true
Nonlinearity correction enabled: false
Boxcar width: 0
XAxis mode: Wavelengths
Number of Pixels in Spectrum: 3648
>>>>>Begin Spectral Data<<<<<
179.3399	-0
179.5586	-0
179.7771	-0
179.9957	-0
180.2143	-0
180.4329	0.0685
180.6514	-0
180.8699	-0
181.0885	0.2111
181.307	-0.1786
181.5255	0.0175
181.744	-0
181.9625	-0
182.181	0.2199
182.3994	-0
182.6179	-0
182.8363	0.4543
183.0547	0.1629
183.2732	0.1829
183.4916	0.4401
183.71	0.2715
183.9284	-0.0706
184.1467	0.1494
184.3651	0.2104
184.5835	0.2381
184.8018	0.2267
185.0201	0.4044
185.2385	0.2643
185.4568	0.236
185.6751	0.3387
185.8934	0.3773
186.1117	-0.0385
186.3299	0.2207
186.5482	0.8796
186.7664	0.3661
186.9847	0.1611
187.2029	0.3523
187.4211	0.1206
187.6393	0.6093
187.8575	0.4477
188.0757	-0
188.2939	0.1967
188.512	0.6865
188.7302	0.1406
188.9483	1.0123
189.1665	0.427
189.3846	0.226
189.6027	0.2235
189.8208	0.4795
190.0389	0.2624
190.257	0.2481
190.475	0.3561
190.6931	0.0475
190.9111	0.0215
191.1292	0.2523
191.3472	0.0942
191.5652	0.2458
191.7832	0.4816
192.0012	0.126
192.2192	0.2716
192.4371	0.1891
192.6551	0.2223
192.873	0.1982
193.091	0.1988
193.3089	0.224
193.5268	0.3808
193.7447	0.2497
193.9626	0.1801
194.1805	0.2037
194.3984	0.1518
194.6162	0.2598
194.8341	0.2117
195.0519	0.272
195.2697	0.2031
195.4875	0.4202
195.7054	0.2729
195.9231	0.2392
196.1409	0.3628
196.3587	0.326
196.5765	0.3489
196.7942	0.3748
197.012	0.3733
197.2297	0.3182
197.4474	0.4297
197.6651	0.332
197.8828	0.3305
198.1005	0.4182
198.3182	0.4029
198.5358	0.4104
198.7535	0.4052
198.9711	0.4137
199.1888	0.3723
199.4064	0.4171
199.624	0.4276
199.8416	0.3727
200.0592	0.4298
200.2767	0.4149
200.4943	0.431
200.7119	0.393
200.9294	0.434
201.1469	0.4194
201.3645	0.4542
201.582	0.4348
201.7995	0.4325
202.017	0.4215
202.2344	0.3999
202.4519	0.409
202.6694	0.3718
202.8868	0.398
203.1042	0.4189
203.3217	0.4173
203.5391	0.4209
203.7565	0.3678
203.9739	0.3655
204.1913	0.3663
204.4086	0.3931
204.626	0.3704
204.8433	0.3862
205.0607	0.3671
205.278	0.3813
205.4953	0.3662
205.7126	0.3461
205.9299	0.3069
206.1472	0.3275
206.3644	0.3531
206.5817	0.3102
206.7989	0.3479
207.0162	0.3286
207.2334	0.3407
207.4506	0.2919
207.6678	0.2957
207.885	0.3131
208.1022	0.309
208.3194	0.3166
208.5365	0.3041
208.7537	0.2837
208.9708	0.2991
209.1879	0.2975
209.405	0.2702
209.6222	0.2556
209.8392	0.282
210.0563	0.2759
210.2734	0.2619
210.4905	0.2792
210.7075	0.2757
210.9245	0.2717
211.1416	0.2808
211.3586	0.2841
211.5756	0.244
211.7926	0.2599
212.0096	0.267
212.2265	0.2745
212.4435	0.2448
212.6604	0.247
212.8774	0.2474
213.0943	0.2627
213.3112	0.2463
213.5281	0.2532
213.745	0.2396
213.9619	0.2487
214.1788	0.2778
214.3956	0.2528
214.6125	0.2621
214.8293	0.2682
215.0461	0.2576
215.2629	0.2583
215.4798	0.2492
215.6965	0.2514
215.9133	0.2352
216.1301	0.2446
216.3469	0.256
216.5636	0.2516
216.7803	0.2454
216.9971	0.2631
217.2138	0.2583
217.4305	0.2794
217.6472	0.2348
217.8639	0.2533
218.0805	0.2646
218.2972	0.2487
218.5138	0.26
218.7305	0.2648
218.9471	0.26
219.1637	0.2708
219.3803	0.28
219.5969	0.2602
219.8135	0.2715
220.0301	0.267
220.2466	0.2732
220.4632	0.2489
220.6797	0.2712
220.8962	0.2723
221.1127	0.2809
221.3292	0.2779
221.5457	0.281
221.7622	0.2739
221.9787	0.2949
222.1951	0.2783
222.4116	0.2801
222.628	0.2865
222.8444	0.2836
223.0608	0.2772
223.2772	0.2847
223.4936	0.2827
223.71	0.2893
223.9264	0.2852
224.1427	0.2828
224.3591	0.2901
224.5754	0.2942
224.7917	0.3052
225.008	0.3086
225.2243	0.3102
225.4406	0.2985
225.6569	0.3046
225.8732	0.3251
226.0894	0.3147
226.3057	0.3174
226.5219	0.3216
226.7381	0.3235
226.9543	0.3194
227.1705	0.3187
227.3867	0.3215
227.6029	0.3321
227.8191	0.341
228.0352	0.3515
228.2513	0.35
228.4675	0.3374
228.6836	0.3489
228.8997	0.3485
229.1158	0.3576
229.3319	0.3609
229.548	0.3642
229.764	0.3586
229.9801	0.3721
230.1961	0.3777
230.4121	0.3748
230.6282	0.3797
230.8442	0.3934
231.0602	0.3886
231.2761	0.3776
231.4921	0.3985
231.7081	0.4035
231.924	0.4064
232.14	0.4098
232.3559	0.4084
232.5718	0.422
232.7877	0.4188
233.0036	0.4035
233.2195	0.416
233.4353	0.4242
233.6512	0.4221
233.867	0.4292
234.0829	0.424
234.2987	0.4178
234.5145	0.4352
234.7303	0.4338
234.9461	0.4386
235.1619	0.4478
235.3776	0.4376
235.5934	0.4469
235.8091	0.4415
236.0249	0.4471
236.2406	0.4465
236.4563	0.4542
236.672	0.4427
236.8877	0.447
237.1034	0.4494
237.319	0.4574
237.5347	0.4571
237.7503	0.4613
237.966	0.4664
238.1816	0.4609
238.3972	0.4624
238.6128	0.4675
238.8284	0.4702
239.0439	0.47
239.2595	0.4769
239.475	0.4632
239.6906	0.4521
239.9061	0.4645
240.1216	0.469
240.3371	0.4624
240.5526	0.4531
240.7681	0.4656
240.9836	0.4571
241.199	0.4611
241.4145	0.4547
241.6299	0.4502
241.8453	0.4447
242.0607	0.4416
242.2761	0.4397
242.4915	0.4281
242.7069	0.4245
242.9223	0.4235
243.1376	0.4052
243.353	0.4105
243.5683	0.3971
243.7836	0.3926
243.9989	0.383
244.2142	0.3785
244.4295	0.3704
244.6448	0.3643
244.86	0.3525
245.0753	0.3458
245.2905	0.342
245.5057	0.3395
245.721	0.3416
245.9362	0.3275
246.1514	0.3213
246.3665	0.3155
246.5817	0.2975
246.7969	0.3036
247.012	0.2932
247.2271	0.2931
247.4423	0.2879
247.6574	0.2855
247.8725	0.2665
248.0876	0.272
248.3026	0.2741
248.5177	0.2639
248.7328	0.2563
248.9478	0.2509
249.1628	0.2542
249.3779	0.245
249.5929	0.2438
249.8079	0.2446
250.0228	0.2292
250.2378	0.2374
250.4528	0.2361
250.6677	0.2289
250.8827	0.2265
251.0976	0.2154
251.3125	0.2219
251.5274	0.2139
251.7423	0.2148
251.9572	0.2111
252.172	0.2101
252.3869	0.2115
252.6017	0.2089
252.8166	0.2075
253.0314	0.2037
253.2462	0.199
253.461	0.2003
253.6758	0.1981
253.8906	0.1966
254.1053	0.1984
254.3201	0.1981
254.5348	0.1878
254.7496	0.1831
254.9643	0.193
255.179	0.1886
255.3937	0.1923
255.6083	0.1953
255.823	0.1894
256.0377	0.1875
256.2523	0.1922
256.467	0.1891
256.6816	0.1868
256.8962	0.1899
257.1108	0.1891
257.3254	0.1827
257.54	0.1811
257.7545	0.1968
257.9691	0.1841
258.1836	0.1813
258.3981	0.187
258.6127	0.182
258.8272	0.1882
259.0417	0.1806
259.2561	0.1859
259.4706	0.1819
259.6851	0.1808
259.8995	0.1827
260.114	0.1809
260.3284	0.1798
260.5428	0.1786
260.7572	0.1776
260.9716	0.1877
261.186	0.1753
261.4003	0.1825
261.6147	0.1756
261.829	0.1812
262.0433	0.1753
262.2577	0.1842
262.472	0.1802
262.6863	0.1828
262.9005	0.1804
263.1148	0.1773
263.3291	0.1842
263.5433	0.1782
263.7576	0.1874
263.9718	0.1811
264.186	0.1843
264.4002	0.1803
264.6144	0.1866
264.8286	0.185
265.0427	0.1876
265.2569	0.1891
265.471	0.1826
265.6851	0.1865
265.8993	0.1816
266.1134	0.182
266.3275	0.1818
266.5415	0.1841
266.7556	0.1872
266.9697	0.1853
267.1837	0.1792
267.3978	0.1879
267.6118	0.1809
267.8258	0.1903
268.0398	0.1857
268.2538	0.1839
268.4677	0.178
268.6817	0.1798
268.8957	0.1751
269.1096	0.1736
269.3235	0.1777
269.5374	0.1827
269.7514	0.1783
269.9652	0.1768
270.1791	0.1786
270.393	0.176
270.6068	0.1758
270.8207	0.175
271.0345	0.1726
271.2483	0.1736
271.4622	0.1758
271.676	0.1715
271.8897	0.1733
272.1035	0.1798
272.3173	0.1731
272.531	0.1731
272.7448	0.1701
272.9585	0.1717
273.1722	0.1708
273.3859	0.174
273.5996	0.1743
273.8133	0.1748
274.0269	0.1707
274.2406	0.1718
274.4542	0.1694
274.6679	0.1753
274.8815	0.1778
275.0951	0.1806
275.3087	0.1816
275.5223	0.1707
275.7358	0.1792
275.9494	0.1808
276.1629	0.181
276.3765	0.1781
276.59	0.1741
276.8035	0.1764
277.017	0.1802
277.2305	0.1836
277.444	0.1816
277.6574	0.1813
277.8709	0.1893
278.0843	0.1826
278.2978	0.18
278.5112	0.1839
278.7246	0.1741
278.938	0.1775
279.1513	0.183
279.3647	0.1857
279.5781	0.1883
279.7914	0.1791
280.0047	0.1804
280.2181	0.1847
280.4314	0.1818
280.6447	0.1905
280.8579	0.1819
281.0712	0.1787
281.2845	0.1834
281.4977	0.1827
281.711	0.1804
281.9242	0.1865
282.1374	0.1857
282.3506	0.1835
282.5638	0.1825
282.7769	0.1836
282.9901	0.1846
283.2033	0.1814
283.4164	0.1815
283.6295	0.184
283.8426	0.1902
284.0557	0.1914
284.2688	0.1907
284.4819	0.1814
284.695	0.1915
284.908	0.1835
285.1211	0.1842
285.3341	0.1839
285.5471	0.1958
285.7601	0.1907
285.9731	0.1931
286.1861	0.1917
286.3991	0.1898
286.612	0.1932
286.825	0.1945
287.0379	0.1884
287.2508	0.1939
287.4637	0.1973
287.6766	0.1972
287.8895	0.1888
288.1024	0.199
288.3152	0.1958
288.5281	0.1905
288.7409	0.2016
288.9538	0.1997
289.1666	0.1954
289.3794	0.1942
289.5922	0.196
289.8049	0.2007
290.0177	0.1963
290.2304	0.1978
290.4432	0.1966
290.6559	0.1991
290.8686	0.2002
291.0813	0.2037
291.294	0.1993
291.5067	0.1943
291.7194	0.1991
291.932	0.1964
292.1447	0.2025
292.3573	0.2032
292.5699	0.203
292.7825	0.1938
292.9951	0.1966
293.2077	0.1976
293.4203	0.1997
293.6328	0.1983
293.8454	0.2059
294.0579	0.199
294.2704	0.2045
294.4829	0.1973
294.6954	0.2037
294.9079	0.1989
295.1204	0.1983
295.3328	0.2036
295.5453	0.1981
295.7577	0.1992
295.9701	0.1996
296.1825	0.1999
296.3949	0.1955
296.6073	0.1965
296.8197	0.1988
297.0321	0.2002
297.2444	0.1973
297.4567	0.1988
297.6691	0.1991
297.8814	0.2
298.0937	0.1993
298.306	0.1963
298.5182	0.2069
298.7305	0.2041
298.9428	0.2028
299.155	0.1976
299.3672	0.2003
299.5794	0.1972
299.7916	0.2041
300.0038	0.2002
300.216	0.1983
300.4282	0.2016
300.6403	0.2041
300.8525	0.199
301.0646	0.2068
301.2767	0.1947
301.4888	0.2007
301.7009	0.1997
301.913	0.2003
302.125	0.2005
302.3371	0.2035
302.5491	0.2035
302.7612	0.2005
302.9732	0.2043
303.1852	0.1988
303.3972	0.1962
303.6092	0.1992
303.8211	0.2005
304.0331	0.1956
304.245	0.1896
304.457	0.1978
304.6689	0.1974
304.8808	0.1941
305.0927	0.2016
305.3046	0.1915
305.5164	0.1924
305.7283	0.1907
305.9401	0.1826
306.152	0.1854
306.3638	0.1862
306.5756	0.1903
306.7874	0.1816
306.9992	0.1785
307.2109	0.179
307.4227	0.1744
307.6344	0.1792
307.8462	0.1748
308.0579	0.1763
308.2696	0.174
308.4813	0.1773
308.693	0.1628
308.9046	0.1745
309.1163	0.1651
309.328	0.1663
309.5396	0.1617
309.7512	0.1607
309.9628	0.1593
310.1744	0.1529
310.386	0.1479
310.5976	0.1477
310.8091	0.1524
311.0207	0.1519
311.2322	0.1439
311.4437	0.1509
311.6552	0.1497
311.8667	0.1536
312.0782	0.1481
312.2897	0.1506
312.5012	0.1463
312.7126	0.1426
312.924	0.1423
313.1355	0.1363
313.3469	0.1383
313.5583	0.1343
313.7696	0.1314
313.981	0.1495
314.1924	0.1321
314.4037	0.1343
314.6151	0.1296
314.8264	0.1385
315.0377	0.1333
315.249	0.135
315.4603	0.128
315.6716	0.1312
315.8828	0.1299
316.0941	0.1361
316.3053	0.1318
316.5165	0.1324
316.7277	0.1251
316.9389	0.1316
317.1501	0.1312
317.3613	0.1289
317.5724	0.125
317.7836	0.1262
317.9947	0.1308
318.2058	0.1305
318.417	0.1293
318.6281	0.125
318.8391	0.129
319.0502	0.1238
319.2613	0.1284
319.4723	0.1227
319.6834	0.131
319.8944	0.1264
320.1054	0.1289
320.3164	0.1294
320.5274	0.129
320.7383	0.1286
320.9493	0.1275
321.1602	0.1281
321.3712	0.1252
321.5821	0.1198
321.793	0.1343
322.0039	0.1286
322.2148	0.1284
322.4257	0.1298
322.6365	0.1251
322.8474	0.1334
323.0582	0.129
323.269	0.1289
323.4798	0.1296
323.6906	0.1236
323.9014	0.1217
324.1122	0.1258
324.3229	0.132
324.5337	0.1337
324.7444	0.1314
324.9551	0.1315
325.1658	0.1296
325.3765	0.1309
325.5872	0.133
325.7979	0.1296
326.0085	0.1297
326.2192	0.123
326.4298	0.1295
326.6404	0.1377
326.851	0.1245
327.0616	0.1298
327.2722	0.1343
327.4828	0.131
327.6933	0.1453
327.9039	0.1301
328.1144	0.1342
328.3249	0.1388
328.5354	0.132
328.7459	0.1401
328.9564	0.1333
329.1669	0.1359
329.3773	0.1324
329.5878	0.1347
329.7982	0.1349
330.0086	0.138
330.219	0.1349
330.4294	0.1359
330.6398	0.1329
330.8502	0.141
331.0605	0.135
331.2708	0.1359
331.4812	0.1369
331.6915	0.1352
331.9018	0.1392
332.1121	0.1456
332.3224	0.1354
332.5326	0.1319
332.7429	0.1383
332.9531	0.1403
333.1633	0.1351
333.3735	0.1358
333.5837	0.1395
333.7939	0.1347
334.0041	0.1436
334.2143	0.1422
334.4244	0.143
334.6346	0.1397
334.8447	0.1346
335.0548	0.1455
335.2649	0.1394
335.475	0.1464
335.685	0.1419
335.8951	0.1368
336.1051	0.1391
336.3152	0.1407
336.5252	0.1376
336.7352	0.1349
336.9452	0.1431
337.1552	0.1411
337.3652	0.1425
337.5751	0.1401
337.7851	0.1478
337.995	0.1431
338.2049	0.136
338.4148	0.1485
338.6247	0.1442
338.8346	0.1439
339.0445	0.1446
339.2543	0.1434
339.4642	0.1461
339.674	0.1419
339.8838	0.148
340.0936	0.1502
340.3034	0.1452
340.5132	0.1466
340.7229	0.1478
340.9327	0.1582
341.1424	0.1511
341.3522	0.1383
341.5619	0.1522
341.7716	0.1558
341.9813	0.1539
342.1909	0.1575
342.4006	0.1575
342.6102	0.1543
342.8199	0.1493
343.0295	0.1483
343.2391	0.1535
343.4487	0.16
343.6583	0.1579
343.8679	0.1522
344.0774	0.1569
344.287	0.1564
344.4965	0.1583
344.706	0.1544
344.9155	0.1649
345.125	0.1571
345.3345	0.1709
345.544	0.161
345.7534	0.1622
345.9629	0.1658
346.1723	0.1656
346.3817	0.1646
346.5911	0.1639
346.8005	0.167
347.0099	0.1618
347.2193	0.1658
347.4286	0.1791
347.638	0.1664
347.8473	0.1714
348.0566	0.1761
348.2659	0.1751
348.4752	0.172
348.6845	0.1715
348.8937	0.1716
349.103	0.1738
349.3122	0.1754
349.5214	0.172
349.7306	0.1818
349.9398	0.1767
350.149	0.1749
350.3582	0.1794
350.5674	0.1752
350.7765	0.1805
350.9856	0.1763
351.1948	0.1818
351.4039	0.1756
351.613	0.1773
351.822	0.1952
352.0311	0.177
352.2402	0.1878
352.4492	0.1795
352.6582	0.1903
352.8672	0.1809
353.0762	0.192
353.2852	0.1854
353.4942	0.1958
353.7032	0.1781
353.9121	0.186
354.1211	0.1904
354.33	0.1885
354.5389	0.1884
354.7478	0.1818
354.9567	0.1911
355.1655	0.1866
355.3744	0.1967
355.5833	0.1856
355.7921	0.1991
356.0009	0.1948
356.2097	0.1901
356.4185	0.1963
356.6273	0.205
356.8361	0.1968
357.0448	0.1972
357.2536	0.1965
357.4623	0.1964
357.671	0.1926
357.8797	0.2081
358.0884	0.1961
358.2971	0.197
358.5057	0.2029
358.7144	0.2024
358.923	0.2048
359.1316	0.2111
359.3402	0.2071
359.5488	0.1996
359.7574	0.2053
359.966	0.2076
360.1746	0.2129
360.3831	0.2233
360.5916	0.21
360.8002	0.2135
361.0087	0.2172
361.2172	0.2191
361.4256	0.2145
361.6341	0.2227
361.8426	0.2199
362.051	0.2254
362.2594	0.2232
362.4678	0.2153
362.6762	0.2241
362.8846	0.2209
363.093	0.2224
363.3014	0.2238
363.5097	0.2293
363.718	0.2248
363.9264	0.2346
364.1347	0.236
364.343	0.2341
364.5513	0.2299
364.7595	0.2457
364.9678	0.2397
365.176	0.2378
365.3842	0.2399
365.5925	0.2388
365.8007	0.2314
366.0089	0.2476
366.217	0.2503
366.4252	0.2528
366.6333	0.2416
366.8415	0.2456
367.0496	0.2498
367.2577	0.245
367.4658	0.2488
367.6739	0.244
367.882	0.2608
368.09	0.2445
368.2981	0.2548
368.5061	0.2516
368.7141	0.2465
368.9221	0.2523
369.1301	0.2578
369.3381	0.257
369.5461	0.2607
369.754	0.2628
369.962	0.2554
370.1699	0.2642
370.3778	0.2645
370.5857	0.2638
370.7936	0.2668
371.0015	0.2612
371.2093	0.2662
371.4172	0.2629
371.625	0.2675
371.8328	0.2652
372.0406	0.2796
372.2484	0.2694
372.4562	0.2704
372.664	0.2681
372.8717	0.2667
373.0795	0.2772
373.2872	0.277
373.4949	0.2828
373.7026	0.2679
373.9103	0.2721
374.118	0.2781
374.3256	0.2829
374.5333	0.2813
374.7409	0.2892
374.9485	0.2855
375.1561	0.2824
375.3637	0.2833
375.5713	0.2902
375.7789	0.2782
375.9864	0.2841
376.194	0.292
376.4015	0.291
376.609	0.2934
376.8165	0.2863
377.024	0.285
377.2315	0.288
377.4389	0.2888
377.6464	0.294
377.8538	0.2888
378.0612	0.2995
378.2686	0.3023
378.476	0.3038
378.6834	0.2918
378.8908	0.301
379.0981	0.2988
379.3055	0.2985
379.5128	0.2894
379.7201	0.2996
379.9274	0.3076
380.1347	0.3038
380.342	0.3099
380.5492	0.2989
380.7565	0.3067
380.9637	0.3058
381.1709	0.3032
381.3781	0.3207
381.5853	0.3062
381.7925	0.3109
381.9997	0.3118
382.2068	0.3048
382.4139	0.3037
382.6211	0.3132
382.8282	0.3135
383.0353	0.3119
383.2424	0.306
383.4494	0.3149
383.6565	0.3117
383.8635	0.3087
384.0706	0.322
384.2776	0.3107
384.4846	0.3217
384.6916	0.3177
384.8986	0.312
385.1055	0.3193
385.3125	0.3151
385.5194	0.3192
385.7263	0.3112
385.9333	0.3173
386.1402	0.3113
386.347	0.3081
386.5539	0.323
386.7608	0.3226
386.9676	0.3115
387.1744	0.3191
387.3813	0.3186
387.5881	0.3036
387.7948	0.3148
388.0016	0.3265
388.2084	0.3159
388.4151	0.3172
388.6219	0.3141
388.8286	0.3173
389.0353	0.3132
389.242	0.3116
389.4487	0.3057
389.6553	0.3105
389.862	0.3031
390.0686	0.3139
390.2753	0.3107
390.4819	0.3156
390.6885	0.3147
390.8951	0.3197
391.1016	0.302
391.3082	0.3091
391.5147	0.3042
391.7213	0.3062
391.9278	0.2938
392.1343	0.301
392.3408	0.3061
392.5473	0.2917
392.7537	0.2968
392.9602	0.2917
393.1666	0.2913
393.373	0.2933
393.5794	0.2932
393.7858	0.2904
393.9922	0.2846
394.1986	0.2991
394.4049	0.2933
394.6113	0.2864
394.8176	0.2901
395.0239	0.2774
395.2302	0.2881
395.4365	0.2813
395.6428	0.2881
395.8491	0.2903
396.0553	0.2818
396.2615	0.2801
396.4678	0.2797
396.674	0.2772
396.8802	0.28
397.0863	0.2619
397.2925	0.2851
397.4987	0.265
397.7048	0.2871
397.9109	0.2734
398.117	0.2736
398.3231	0.271
398.5292	0.267
398.7353	0.2691
398.9413	0.2616
399.1474	0.2742
399.3534	0.2737
399.5594	0.2698
399.7654	0.276
399.9714	0.2721
400.1774	0.2735
400.3833	0.2661
400.5893	0.2703
400.7952	0.2757
401.0011	0.2655
401.207	0.2693
401.4129	0.2693
401.6188	0.2633
401.8247	0.2736
402.0305	0.2663
402.2364	0.2727
402.4422	0.2645
402.648	0.2645
402.8538	0.2734
403.0596	0.2642
403.2654	0.2675
403.4711	0.2787
403.6768	0.2589
403.8826	0.2738
404.0883	0.2597
404.294	0.2638
404.4997	0.2607
404.7054	0.2741
404.911	0.2744
405.1167	0.2675
405.3223	0.2672
405.5279	0.2701
405.7335	0.2642
405.9391	0.2658
406.1447	0.2678
406.3502	0.2701
406.5558	0.2766
406.7613	0.2673
406.9668	0.2736
407.1724	0.2696
407.3778	0.2704
407.5833	0.2629
407.7888	0.2631
407.9942	0.2682
408.1997	0.2763
408.4051	0.2685
408.6105	0.2728
408.8159	0.2615
409.0213	0.2711
409.2267	0.2717
409.432	0.2574
409.6374	0.2696
409.8427	0.2744
410.048	0.2624
410.2533	0.2718
410.4586	0.2617
410.6639	0.2747
410.8691	0.264
411.0744	0.2671
411.2796	0.2667
411.4848	0.27
411.69	0.2596
411.8952	0.2756
412.1004	0.2592
412.3056	0.2697
412.5107	0.2761
412.7158	0.2746
412.921	0.2682
413.1261	0.2644
413.3312	0.2658
413.5362	0.2736
413.7413	0.2629
413.9464	0.257
414.1514	0.2604
414.3564	0.2679
414.5614	0.2582
414.7664	0.255
414.9714	0.2614
415.1764	0.2621
415.3813	0.2553
415.5863	0.2603
415.7912	0.2652
415.9961	0.2625
416.201	0.2704
416.4059	0.2734
416.6108	0.2666
416.8156	0.2587
417.0205	0.2639
417.2253	0.262
417.4301	0.269
417.6349	0.2677
417.8397	0.2566
418.0445	0.2587
418.2492	0.2648
418.454	0.2544
418.6587	0.266
418.8634	0.2648
419.0681	0.2649
419.2728	0.2526
419.4775	0.2611
419.6822	0.2492
419.8868	0.2545
420.0915	0.2521
420.2961	0.2481
420.5007	0.2523
420.7053	0.2552
420.9099	0.2448
421.1144	0.2477
421.319	0.2482
421.5235	0.2366
421.728	0.2485
421.9325	0.2544
422.137	0.2486
422.3415	0.2438
422.546	0.24
422.7504	0.2473
422.9549	0.2426
423.1593	0.2286
423.3637	0.2363
423.5681	0.2431
423.7725	0.2291
423.9769	0.2414
424.1812	0.2257
424.3856	0.2336
424.5899	0.2372
424.7942	0.2337
424.9985	0.2308
425.2028	0.2361
425.4071	0.2309
425.6113	0.2318
425.8156	0.2257
426.0198	0.2305
426.224	0.2285
426.4282	0.2258
426.6324	0.2215
426.8366	0.2297
427.0407	0.2287
427.2449	0.2195
427.449	0.2174
427.6531	0.2219
427.8572	0.2248
428.0613	0.2289
428.2654	0.2257
428.4694	0.2007
428.6735	0.2086
428.8775	0.2151
429.0815	0.2097
429.2855	0.2039
429.4895	0.21
429.6935	0.2008
429.8975	0.2056
430.1014	0.2091
430.3053	0.2103
430.5093	0.2025
430.7132	0.1961
430.9171	0.1968
431.1209	0.2101
431.3248	0.185
431.5286	0.187
431.7325	0.2007
431.9363	0.1849
432.1401	0.1817
432.3439	0.1981
432.5477	0.179
432.7514	0.1773
432.9552	0.1842
433.1589	0.1714
433.3627	0.174
433.5664	0.1765
433.7701	0.1698
433.9737	0.1745
434.1774	0.1764
434.3811	0.1679
434.5847	0.168
434.7883	0.1572
434.9919	0.1624
435.1955	0.1597
435.3991	0.1602
435.6027	0.1544
435.8062	0.1688
436.0098	0.1501
436.2133	0.1512
436.4168	0.1551
436.6203	0.1447
436.8238	0.1571
437.0272	0.1401
437.2307	0.1433
437.4341	0.1479
437.6375	0.1459
437.841	0.1362
438.0443	0.1414
438.2477	0.1351
438.4511	0.1182
438.6545	0.1359
438.8578	0.1279
439.0611	0.1378
439.2644	0.1339
439.4677	0.1275
439.671	0.1168
439.8743	0.122
440.0775	0.1181
440.2808	0.1148
440.484	0.1133
440.6872	0.1135
440.8904	0.1087
441.0936	0.1128
441.2967	0.1054
441.4999	0.111
441.703	0.1068
441.9062	0.1078
442.1093	0.1099
442.3124	0.1023
442.5155	0.1023
442.7185	0.1038
442.9216	0.093
443.1246	0.095
443.3276	0.0934
443.5307	0.0872
443.7337	0.0995
443.9366	0.0852
444.1396	0.0945
444.3426	0.085
444.5455	0.0844
444.7484	0.0826
444.9513	0.088
445.1542	0.0852
445.3571	0.0819
445.56	0.0691
445.7628	0.0818
445.9657	0.0817
446.1685	0.0785
446.3713	0.0852
446.5741	0.0767
446.7769	0.0867
446.9797	0.0706
447.1824	0.066
447.3852	0.0591
447.5879	0.0715
447.7906	0.0665
447.9933	0.0695
448.196	0.055
448.3986	0.0629
448.6013	0.054
448.8039	0.0636
449.0066	0.0656
449.2092	0.073
449.4118	0.0647
449.6143	0.0571
449.8169	0.0628
450.0195	0.0574
450.222	0.0541
450.4245	0.0508
450.627	0.0516
450.8295	0.059
451.032	0.0526
451.2345	0.0446
451.4369	0.0602
451.6394	0.0493
451.8418	0.0503
452.0442	0.058
452.2466	0.0369
452.449	0.0504
452.6513	0.038
452.8537	0.0405
453.056	0.0418
453.2583	0.0457
453.4607	0.0318
453.663	0.0454
453.8652	0.0375
454.0675	0.0401
454.2697	0.041
454.472	0.037
454.6742	0.0469
454.8764	0.0466
455.0786	0.0265
455.2808	0.0348
455.4829	0.0409
455.6851	0.031
455.8872	0.0242
456.0893	0.0389
456.2915	0.0266
456.4935	0.0419
456.6956	0.0291
456.8977	0.0274
457.0997	0.034
457.3018	0.0283
457.5038	0.0399
457.7058	0.0377
457.9078	0.0323
458.1098	0.0338
458.3117	0.0285
458.5137	0.021
458.7156	0.0281
458.9175	0.0271
459.1194	0.0253
459.3213	0.0299
459.5232	0.0289
459.725	0.0204
459.9269	0.0288
460.1287	0.0196
460.3305	0.0327
460.5323	0.029
460.7341	0.0214
460.9359	0.0181
461.1376	0.029
461.3394	0.0322
461.5411	0.0219
461.7428	0.0147
461.9445	0.0253
462.1462	0.0189
462.3479	0.0183
462.5495	0.0214
462.7512	0.0266
462.9528	0.0198
463.1544	0.0183
463.356	0.0178
463.5576	0.029
463.7592	0.0153
463.9607	0.0212
464.1623	0.0153
464.3638	0.0177
464.5653	0.0169
464.7668	0.0303
464.9683	0.023
465.1697	0.0195
465.3712	0.0154
465.5726	0.0081
465.7741	0.0235
465.9755	0.0195
466.1769	0.0132
466.3782	0.0144
466.5796	0.0101
466.7809	0.0245
466.9823	0.0243
467.1836	0.0137
467.3849	0.0155
467.5862	0.0057
467.7875	0.0133
467.9887	0.0144
468.19	0.0164
468.3912	0.0254
468.5924	0.0243
468.7936	0.0192
468.9948	0.0177
469.196	0.0124
469.3972	0.0138
469.5983	0.0173
469.7994	0.0236
470.0006	0.02
470.2017	0.0164
470.4027	0.023
470.6038	0.0088
470.8049	0.0107
471.0059	0.0225
471.2069	0.016
471.408	0.019
471.6089	0.0198
471.8099	0.0186
472.0109	0.0161
472.2119	0.0222
472.4128	0.0113
472.6137	0.0143
472.8146	0.0111
473.0155	0.0211
473.2164	0.0102
473.4173	0.0009
473.6181	0.0111
473.819	0.0146
474.0198	0.0129
474.2206	0.0073
474.4214	0.0088
474.6222	0.0085
474.8229	0.0138
475.0237	0.0182
475.2244	0.017
475.4251	0.0135
475.6258	0.02
475.8265	0.0144
476.0272	0.0117
476.2278	0.0126
476.4285	0.013
476.6291	0.0135
476.8297	0.0197
477.0303	0.0074
477.2309	0.0054
477.4315	0.0055
477.632	0.0075
477.8326	0.0146
478.0331	0.0145
478.2336	0.008
478.4341	0.0083
478.6346	0.0112
478.8351	0.0035
479.0355	0.0223
479.236	0.0195
479.4364	0.0116
479.6368	0.01
479.8372	0.0144
480.0376	0.0119
480.2379	0.011
480.4383	0.0184
480.6386	0.0053
480.8389	0.0123
481.0392	0.003
481.2395	0.0142
481.4398	0.0181
481.6401	0.0122
481.8403	0.0059
482.0405	0.01
482.2408	0.0186
482.441	0.0133
482.6411	0.0135
482.8413	0.009
483.0415	0.0196
483.2416	0.0097
483.4417	0.0138
483.6419	0.0028
483.8419	0.0105
484.042	0.0144
484.2421	0.0076
484.4422	0.0073
484.6422	0.0181
484.8422	0.0147
485.0422	0.0052
485.2422	0.0067
485.4422	0.0103
485.6422	0.0065
485.8421	0.0098
486.042	0.0176
486.242	0.0071
486.4419	0.0137
486.6417	0.0039
486.8416	0.0089
487.0415	0.0039
487.2413	0.0081
487.4411	0.0138
487.641	0.0088
487.8408	0.0126
488.0405	0.0233
488.2403	0.008
488.4401	0.0115
488.6398	0.0104
488.8395	0.0176
489.0392	0.0089
489.2389	0.0203
489.4386	0.0041
489.6383	0.0071
489.8379	0.0097
490.0376	0.013
490.2372	0.0119
490.4368	0.004
490.6364	0.006
490.836	0.0033
491.0355	0.0068
491.2351	0.0134
491.4346	0.0142
491.6341	0.0111
491.8336	0.0118
492.0331	0.0102
492.2326	0.0067
492.432	0.011
492.6315	0.0199
492.8309	0.0192
493.0303	0.0115
493.2297	0.015
493.4291	0.0117
493.6284	0.0144
493.8278	0.0064
494.0271	0.0129
494.2264	0.0115
494.4257	0.0111
494.625	0.0041
494.8243	0.006
495.0236	0.0193
495.2228	0.0179
495.422	0.0136
495.6213	0.0076
495.8205	0.012
496.0196	0.0063
496.2188	0.0029
496.418	0.0131
496.6171	0.006
496.8162	0.0084
497.0153	0.0107
497.2144	0.0094
497.4135	0.0115
497.6126	0.0148
497.8116	0.0122
498.0107	0.012
498.2097	0.0092
498.4087	0.0073
498.6077	0.0037
498.8067	0.0126
499.0056	0.0118
499.2046	0.0148
499.4035	0.0189
499.6024	0.0041
499.8013	0.0184
500.0002	0.0147
500.199	0.0243
500.3979	0.0133
500.5967	0.0113
500.7956	0.0066
500.9944	0.0107
501.1932	0.012
501.3919	0.0084
501.5907	0.0198
501.7895	0.014
501.9882	0.0109
502.1869	0.0219
502.3856	0.0066
502.5843	0.0115
502.783	0.0017
502.9816	0.0142
503.1803	0.0129
503.3789	0.0158
503.5775	0.0056
503.7761	0.0116
503.9747	0.0131
504.1732	0.0019
504.3718	0.0194
504.5703	0.0087
504.7689	-0.0064
504.9674	0.0065
505.1658	0.0063
505.3643	0.0234
505.5628	0.0221
505.7612	0.0158
505.9597	0.0074
506.1581	0.0077
506.3565	0.0115
506.5549	0.0107
506.7532	-0.0022
506.9516	0.0057
507.1499	0.0081
507.3482	0.0126
507.5465	0.0074
507.7448	0.0142
507.9431	0.0138
508.1414	0.0083
508.3396	0.0112
508.5379	0.0094
508.7361	0.0128
508.9343	0.0151
509.1325	0.0199
509.3306	0.0092
509.5288	-0.0048
509.7269	0.014
509.9251	0.0171
510.1232	0.0131
510.3213	0.0125
510.5193	0.0163
510.7174	-0.0007
510.9154	0.0228
511.1135	0.0077
511.3115	0.0086
511.5095	0.0058
511.7075	0.0138
511.9055	0.0137
512.1034	0.0032
512.3014	0.0074
512.4993	0.0095
512.6972	0.0072
512.8951	0.0231
513.093	0.0036
513.2908	0.0189
513.4887	0.0065
513.6865	0.0133
513.8844	0.0134
514.0822	0.0096
514.2799	0.0085
514.4777	0.0078
514.6755	0.0103
514.8732	0.0084
515.0709	0.0017
515.2687	0.0099
515.4664	0.0114
515.664	0.0147
515.8617	0.0178
516.0594	0.019
516.257	0.0067
516.4546	0.0253
516.6522	0.0211
516.8498	0.0052
517.0474	0.0042
517.2449	0.0031
517.4425	0.0027
517.64	0.0147
517.8375	0.0181
518.035	0.0083
518.2325	0.0041
518.43	0.0028
518.6274	0.0146
518.8249	0.0085
519.0223	0.0209
519.2197	0.0082
519.4171	0.0031
519.6145	0.0208
519.8118	-0.0014
520.0092	0.0009
520.2065	0.0207
520.4038	0.0121
520.6011	0.0247
520.7984	0.0099
520.9956	0.0172
521.1929	0.0131
521.3901	0.0145
521.5874	0.0203
521.7846	0.0094
521.9818	0.0156
522.1789	0.0078
522.3761	0.0258
522.5732	0.0113
522.7704	0.0039
522.9675	0.0128
523.1646	0.0086
523.3617	0.0178
523.5587	0.0161
523.7558	0.005
523.9528	0.0133
524.1498	0.0111
524.3468	0.0096
524.5438	0.0054
524.7408	0.0039
524.9378	0.0177
525.1347	0.0075
525.3316	0.0046
525.5285	0.0129
525.7254	0.0114
525.9223	0.0214
526.1192	0.0163
526.316	0.021
526.5129	0.0148
526.7097	0.0089
526.9065	0.0153
527.1033	0.0155
527.3	0.015
527.4968	0.0115
527.6935	0.0096
527.8903	0.0047
528.087	-0.0026
528.2837	0.0183
528.4804	0.0187
528.677	0.0087
528.8737	0.0157
529.0703	0.0095
529.2669	0.0212
529.4635	-0.0018
529.6601	0.0036
529.8567	0.0048
530.0532	0.0028
530.2498	0.0183
530.4463	-0.0022
530.6428	0.0029
530.8393	0.0225
531.0358	0.0107
531.2322	0.0092
531.4287	0.0059
531.6251	-0.0004
531.8215	0.0124
532.0179	0.022
532.2143	0.0152
532.4107	0.01
532.607	0.0151
532.8034	0.0088
532.9997	0.003
533.196	0.006
533.3923	0.0288
533.5886	0.0134
533.7848	0.0129
533.9811	0.0153
534.1773	0.0159
534.3735	0.0152
534.5697	0.0073
534.7659	0.0113
534.9621	0.0177
535.1582	0.0144
535.3544	0.0107
535.5505	0.0145
535.7466	0.0054
535.9427	0.0057
536.1387	0.0054
536.3348	0.0164
536.5308	0.0072
536.7269	0.0194
536.9229	0.0074
537.1189	0.0139
537.3148	0.0143
537.5108	0.0176
537.7068	0.0228
537.9027	0.0058
538.0986	0.0202
538.2945	0.0081
538.4904	0.006
538.6863	0.0072
538.8821	0.0133
539.078	0.0168
539.2738	0.0015
539.4696	-0.0052
539.6654	0.0073
539.8611	0.007
540.0569	0.0053
540.2526	0.0154
540.4484	0.0094
540.6441	0.005
540.8398	0.011
541.0355	0.0033
541.2311	0.0088
541.4268	0.0088
541.6224	0.0171
541.818	0.0155
542.0136	0.0242
542.2092	0.014
542.4048	0.0181
542.6003	0.0028
542.7959	0.0135
542.9914	0.0129
543.1869	0.0088
543.3824	0.0071
543.5779	0.0171
543.7734	0.0202
543.9688	0.0094
544.1642	0.0128
544.3596	0.0119
544.555	0.0158
544.7504	0.0164
544.9458	0.014
545.1411	0.0073
545.3365	0.0123
545.5318	0.0133
545.7271	0.0136
545.9224	0.0051
546.1177	0.0196
546.3129	0.0124
546.5081	0.0014
546.7034	0.0004
546.8986	0.0043
547.0938	0.02
547.289	0.0106
547.4841	0.0137
547.6793	0.0085
547.8744	0.0071
548.0695	0.012
548.2646	0.013
548.4597	0.0116
548.6548	0.0242
548.8498	0.0148
549.0448	0.0181
549.2399	0.0252
549.4349	0.0101
549.6298	0.0173
549.8248	0.012
550.0198	0.0126
550.2147	0.0109
550.4096	0.0013
550.6045	0.0083
550.7994	0.0132
550.9943	0.0204
551.1892	0.0046
551.384	0.0158
551.5788	0.0144
551.7737	0.0075
551.9685	0.0117
552.1632	0.0084
552.358	0.0093
552.5528	0.014
552.7475	0.0077
552.9422	0.0073
553.1369	0.0162
553.3316	0.0062
553.5263	0.0088
553.7209	0.0043
553.9156	0.0091
554.1102	0.0101
554.3048	0.0042
554.4994	0.0117
554.694	0.0116
554.8885	0.0091
555.0831	0.017
555.2776	0.0056
555.4721	0.0147
555.6666	0.0099
555.8611	0.0104
556.0555	0.0174
556.25	0.01
556.4444	0.0064
556.6388	0.0103
556.8332	0.0122
557.0276	0.0155
557.222	0.0139
557.4163	0.0192
557.6107	0.0047
557.805	-0.0015
557.9993	0.0128
558.1936	-0.0049
558.3879	0.008
558.5821	0.003
558.7764	0.0041
558.9706	0.0088
559.1648	0.0186
559.359	0.0069
559.5532	0.0057
559.7473	0.0094
559.9415	0.0112
560.1356	0.0225
560.3297	0.0111
560.5238	0.0163
560.7179	0.0008
560.9119	0.0078
561.106	0.005
561.3	0.0091
561.494	0.0028
561.688	0.0085
561.882	0.0077
562.076	0.0222
562.2699	0.0118
562.4639	0.02
562.6578	0.0176
562.8517	0.0063
563.0456	0.0105
563.2395	0.0156
563.4333	0.0126
563.6272	0.0159
563.821	0.0147
564.0148	0.0075
564.2086	0.0077
564.4024	0.0158
564.5961	0.005
564.7899	0.0219
564.9836	0.0027
565.1773	0.0168
565.371	0.007
565.5647	0.0125
565.7584	0.0231
565.952	0.0105
566.1456	0.0068
566.3393	0.013
566.5329	0.0055
566.7264	0.0073
566.92	0.0109
567.1136	0.0059
567.3071	-0.0001
567.5006	0.0164
567.6941	0.0057
567.8876	0.0016
568.0811	0.0258
568.2745	0.0109
568.468	0.0096
568.6614	0.0089
568.8548	0.0137
569.0482	0.0165
569.2416	0.011
569.4349	0.0139
569.6283	0.0042
569.8216	0.0118
570.0149	0.0104
570.2082	0.0099
570.4015	0.0086
570.5947	0.0058
570.788	0.0112
570.9812	0.0104
571.1744	0.0107
571.3676	0.014
571.5608	0.004
571.754	0.0145
571.9471	0.0132
572.1402	0.0078
572.3333	0.0097
572.5264	0.0104
572.7195	0.0062
572.9126	0.0072
573.1057	0.0068
573.2987	0.0111
573.4917	0.0108
573.6847	0.0059
573.8777	0.0131
574.0707	0.0077
574.2636	0.0074
574.4566	0.0093
574.6495	0.0048
574.8424	0.0097
575.0353	0.0126
575.2281	0.0134
575.421	0.004
575.6138	0.0088
575.8067	0.0111
575.9995	0.0055
576.1923	0.0131
576.385	0.0079
576.5778	0.0163
576.7706	0.0088
576.9633	0.0108
577.156	0.0042
577.3487	0.0071
577.5414	0.008
577.734	0.0076
577.9267	0.0093
578.1193	0.0115
578.3119	0.0071
578.5045	0.0063
578.6971	0.0068
578.8897	0.0092
579.0822	0.0129
579.2747	0.0068
579.4673	0.0095
579.6598	0.0123
579.8522	0.0069
580.0447	0.0092
580.2372	0.0118
580.4296	0.0122
580.622	0.0081
580.8144	0.0094
581.0068	0.0093
581.1992	0.0081
581.3915	0.0011
581.5839	0.0091
581.7762	0.0055
581.9685	0.008
582.1608	0.0088
582.353	0.0082
582.5453	0.0114
582.7375	0.0103
582.9298	0.005
583.122	0.0083
583.3142	0.0084
583.5063	0.0059
583.6985	0.009
583.8906	0.0054
584.0827	0.0097
584.2749	0.0069
584.4669	0.0053
584.659	0.0117
584.8511	0.007
585.0431	0.0108
585.2352	0.0048
585.4272	0.0095
585.6192	0.0104
585.8111	0.0099
586.0031	0.004
586.195	0.0048
586.387	0.0077
586.5789	0.0113
586.7708	0.0098
586.9627	0.0062
587.1545	0.0095
587.3464	0.0074
587.5382	0.0083
587.73	0.0138
587.9218	0.0098
588.1136	0.0015
588.3053	0.0111
588.4971	0.0074
588.6888	0.0082
588.8805	0.0093
589.0722	0.0173
589.2639	0.0083
589.4556	0.0088
589.6472	0.0182
589.8389	0.0073
590.0305	0.0103
590.2221	0.0144
590.4137	0.0104
590.6052	0.0082
590.7968	0.0105
590.9883	0.0088
591.1798	0.0094
591.3713	0.0082
591.5628	0.0125
591.7543	0.007
591.9458	0.0121
592.1372	0.0101
592.3286	0.0068
592.52	0.0125
592.7114	0.0109
592.9028	0.0153
593.0941	0.0078
593.2855	0.0091
593.4768	0.0158
593.6681	0.0109
593.8594	0.01
594.0506	0.0106
594.2419	0.0064
594.4331	0.0112
594.6244	0.0029
594.8156	0.009
595.0067	0.0076
595.1979	0.006
595.3891	0.0109
595.5802	0.0141
595.7713	0.014
595.9624	0.0111
596.1535	0.0086
596.3446	0.0026
596.5357	0.0093
596.7267	0.008
596.9177	0.0045
597.1087	-0.0003
597.2997	0.0123
597.4907	0.0043
597.6817	0.0146
597.8726	0.0117
598.0635	0.0112
598.2544	0.0064
598.4453	0.0097
598.6362	0.0057
598.827	0.0096
599.0179	0.0109
599.2087	0.0136
599.3995	0.0114
599.5903	0.0106
599.7811	0.0112
599.9718	0.0027
600.1626	0.0098
600.3533	0.0082
600.544	0.0089
600.7347	0.013
600.9254	0.0096
601.116	0.0068
601.3067	0.0075
601.4973	0.0134
601.6879	-0.0007
601.8785	0.0139
602.0691	0.0072
602.2596	0.0059
602.4502	0.012
602.6407	0.0137
602.8312	0.0116
603.0217	0.0096
603.2122	0.0035
603.4027	0.0097
603.5931	0.008
603.7835	0.0109
603.9739	0.0109
604.1643	0.0142
604.3547	0.0123
604.5451	0.013
604.7354	0.0079
604.9257	0.0087
605.116	0.0044
605.3063	0.0091
605.4966	0.0121
605.6869	0.0147
605.8771	0.0082
606.0673	0.0082
606.2575	0.0028
606.4477	0.0153
606.6379	0.0066
606.8281	0.0052
607.0182	0.0027
607.2083	0.0116
607.3985	0.0057
607.5885	0.0108
607.7786	0.0133
607.9687	0.0166
608.1587	0.0141
608.3488	0.0061
608.5388	0.0028
608.7288	0.0008
608.9187	0.0051
609.1087	0.0095
609.2986	0.0165
609.4886	0.0088
609.6785	0.0056
609.8684	0.0046
610.0582	0.006
610.2481	-0.0027
610.4379	0.0151
610.6278	0.0159
610.8176	0.0166
611.0074	0.0068
611.1971	0.0094
611.3869	0.0093
611.5766	0.008
611.7664	0.0157
611.9561	0.0121
612.1458	0.0151
612.3354	0.0067
612.5251	0.0073
612.7147	0.0107
612.9044	0.0068
613.094	0.011
613.2836	0.0075
613.4731	0.009
613.6627	0.0134
613.8522	0.0115
614.0417	0.0087
614.2313	0.0085
614.4207	0.0113
614.6102	0.0149
614.7997	0.013
614.9891	0.0097
615.1785	0.0008
615.3679	0.0151
615.5573	0.0099
615.7467	0.0072
615.9361	0.0044
616.1254	0.0156
616.3147	0.0069
616.504	0.0126
616.6933	0.0068
616.8826	0.0073
617.0718	0.0079
617.2611	0.004
617.4503	0.0089
617.6395	0.0059
617.8287	0.0147
618.0179	0.008
618.207	0.0243
618.3961	0.0005
618.5853	0.008
618.7744	0.0025
618.9634	0.0152
619.1525	0.0093
619.3416	0.0057
619.5306	0.016
619.7196	0.0111
619.9086	0.0089
620.0976	-0.0015
620.2866	0.0157
620.4755	0.006
620.6645	0.0117
620.8534	0.0177
621.0423	0.0152
621.2312	-0.0006
621.42	0.0022
621.6089	0.0095
621.7977	0.0218
621.9865	0.0025
622.1753	-0.0036
622.3641	0.0046
622.5529	0.0097
622.7416	0.0062
622.9303	0.0122
623.1191	0.0088
623.3078	0.015
623.4964	0.0091
623.6851	0.0147
623.8737	0.008
624.0624	-0.0052
624.251	0.0109
624.4396	0.0086
624.6282	0.0184
624.8167	0.0091
625.0053	0.0169
625.1938	0.0016
625.3823	0.0156
625.5708	0.0053
625.7593	0.0085
625.9477	0.0101
626.1362	0.0087
626.3246	0.0045
626.513	0.015
626.7014	0.0174
626.8898	0.0167
627.0781	0.0164
627.2665	0.0171
627.4548	0.0028
627.6431	0.0179
627.8314	0.0209
628.0197	0.0266
628.2079	0.0059
628.3962	0.0103
628.5844	0.0277
628.7726	-0.0002
628.9608	0.0098
629.1489	0.0017
629.3371	0.0004
629.5252	0.0118
629.7134	0.0023
629.9015	0.021
630.0895	-0.0051
630.2776	0.0144
630.4657	0.017
630.6537	0.0113
630.8417	0.0043
631.0297	0.0208
631.2177	0.0159
631.4057	0.0169
631.5936	-0
631.7815	0.0155
631.9695	0.0348
632.1574	0.0247
632.3452	0.0124
632.5331	0.0174
632.7209	0.0197
632.9088	-0
633.0966	0.0218
633.2844	0.0039
633.4722	0.031
633.6599	0.0204
633.8477	0.0248
634.0354	0.0285
634.2231	0.0055
634.4108	0.0102
634.5985	0.0164
634.7861	0.016
634.9738	-0.0076
635.1614	0.0007
635.349	0.0044
635.5366	0.0202
635.7242	0.0028
635.9117	0.0099
636.0993	0.0278
636.2868	0.0047
636.4743	0.008
636.6618	-0.0051
636.8492	0.0213
637.0367	-0.0023
637.2241	0.0054
637.4115	0.023
637.5989	0.0199
637.7863	0.0201
637.9737	0.0125
638.161	0.0121
638.3484	-0.0023
638.5357	0.012
638.723	0.0227
638.9103	-0.0086
639.0975	0.0027
639.2848	0.0143
639.472	0.025
639.6592	0.0031
639.8464	0.0243
640.0336	0.0317
640.2208	0.0029
640.4079	-0.0116
640.595	-0
640.7821	0.0198
640.9692	0.0084
641.1563	0.024
641.3434	0.017
641.5304	0.0368
641.7174	0.019
641.9044	0.0052
642.0914	0.0321
642.2784	-0.0002
642.4653	-0.0039
642.6523	0.0194
642.8392	0.0177
643.0261	0.0113
643.213	0.0173
643.3999	0.0291
643.5867	0.0129
643.7735	0.008
643.9604	0.0139
644.1472	0.0113
644.3339	0.0058
644.5207	0.0111
644.7075	0.0007
644.8942	0.0052
645.0809	0.0105
645.2676	-0.0049
645.4543	0.0085
645.6409	0.0294
645.8276	0.0221
646.0142	0.0137
646.2008	0.0044
646.3874	0.0135
646.574	0.0113
646.7605	0.0152
646.9471	0.0283
647.1336	-0.0073
647.3201	0.0089
647.5066	0.01
647.6931	0.0045
647.8795	0.009
648.0659	0.0146
648.2524	0.0172
648.4388	0.0121
648.6252	0.0107
648.8115	0.0007
648.9979	0.0251
649.1842	0.0211
649.3705	0.0102
649.5568	-0.0018
649.7431	-0.0013
649.9294	0.0179
650.1156	-0.006
650.3018	0.0213
650.488	0.0332
650.6742	0.027
650.8604	0.0097
651.0466	0.0136
651.2327	0.017
651.4188	0.0107
651.6049	0.0107
651.791	0.0159
651.9771	0.0176
652.1632	0.006
652.3492	0.0087
652.5352	0.0191
652.7212	0.0024
652.9072	-0.0004
653.0932	0.0161
653.2791	0.0199
653.465	0.0138
653.651	0.0083
653.8369	0.0154
654.0227	0.0134
654.2086	0.018
654.3944	0.0099
654.5803	0.0104
654.7661	0.0122
654.9519	0.001
655.1377	0.0003
655.3234	0.0003
655.5092	0.0003
655.6949	0.0003
655.8806	0.0003
656.0663	0.0003
656.2519	0.0003
656.4376	0.0003
656.6232	0.0003
656.8088	0.0003
656.9945	0.0003
657.18	0.0003
657.3656	0.0003
657.5511	0.0003
657.7367	0.0003
657.9222	0.0003
658.1077	0.0003
658.2932	0.0003
658.4786	0.0003
658.6641	0.0003
658.8495	0.0003
659.0349	0.0003
659.2203	0.0003
659.4057	0.0192
659.591	0.3063
659.7764	0.0364
659.9617	0.0103
660.147	0.0083
660.3323	0.0121
660.5176	0.0253
660.7028	0.0052
660.888	0.0157
661.0733	0.0239
661.2585	0.0158
661.4436	0.0153
661.6288	0.0203
661.8139	0.0086
661.9991	-0.0163
662.1842	0.0011
662.3693	0.0073
662.5544	0.0257
662.7394	0.0251
662.9245	0.0128
663.1095	-0.0051
663.2945	0.0057
663.4795	-0.0065
663.6644	0.0173
663.8494	0.0172
664.0343	0.0122
664.2193	-0.015
664.4042	0.0136
664.589	-0.0029
664.7739	0.0044
664.9587	0.0052
665.1436	0.0142
665.3284	0.0127
665.5132	0.0038
665.698	-0.0014
665.8827	0.0245
666.0675	-0.0078
666.2522	0.0245
666.4369	0.0089
666.6216	0.0092
666.8063	0.012
666.9909	0.0078
667.1756	0.0046
667.3602	0.0003
667.5448	-0.0019
667.7294	0.0136
667.9139	0.0102
668.0985	0.0349
668.283	0.0117
668.4675	0.0368
668.652	0.0121
668.8365	0.0094
669.0209	0.0401
669.2054	0.001
669.3898	0.0247
669.5742	0.016
669.7586	0.0209
669.943	-0.0069
670.1273	-0.0103
670.3117	0.0155
670.496	0.0104
670.6803	0.0186
670.8646	-0.0011
671.0488	0.036
671.2331	-0.0041
671.4173	0.013
671.6015	0.0205
671.7857	0.006
671.9699	0.0207
672.1541	0.0098
672.3382	0.02
672.5223	-0.0053
672.7064	0.0053
672.8905	0.0086
673.0746	0.0319
673.2587	0.0062
673.4427	0.0253
673.6267	0.0148
673.8107	0.0092
673.9947	0.0305
674.1787	0.0263
674.3626	0.0278
674.5465	0.0367
674.7304	0.0223
674.9143	-0.0057
675.0982	0.0241
675.2821	0.0338
675.4659	0.0025
675.6497	0.0182
675.8335	0.0168
676.0173	0.0062
676.2011	0.0321
676.3849	-0.0025
676.5686	0.0253
676.7523	0.0296
676.936	0.0225
677.1197	-0.0082
677.3034	0.0513
677.487	0.0147
677.6706	0.019
677.8542	0.0135
678.0378	0.0059
678.2214	0.0126
678.405	0.0067
678.5885	0.0163
678.772	-0.0024
678.9555	-0.0017
679.139	0.0025
679.3225	0.0119
679.5059	0.0097
679.6894	0.0114
679.8728	0.0078
680.0562	0.0147
680.2395	0.0031
680.4229	0.0073
680.6062	0.0171
680.7896	-0.0032
680.9729	0.0189
681.1562	0.0136
681.3394	0.0007
681.5227	0.0191
681.7059	0.0075
681.8891	0.0094
682.0723	0.0021
682.2555	0.0069
682.4387	0.0218
682.6218	0.0428
682.805	0.0373
682.9881	0.0372
683.1712	0.0223
683.3542	0.0257
683.5373	-0.0042
683.7203	0.0322
683.9034	0.0018
684.0864	0.0088
684.2694	0.0048
684.4523	0.0114
684.6353	0.0127
684.8182	-0.0064
685.0011	0.0247
685.184	0.007
685.3669	0.0259
685.5498	-0.0018
685.7326	0.0153
685.9154	-0.0043
686.0982	0.0307
686.281	-0.0035
686.4638	0.0244
686.6465	0.013
686.8293	0.0134
687.012	0.0189
687.1947	0.0216
687.3774	0.0043
687.56	-0.0234
687.7427	0.0008
687.9253	-0.0049
688.1079	0.0131
688.2905	0.0049
688.4731	0.016
688.6556	0.0051
688.8382	0.0034
689.0207	0.0143
689.2032	0.0155
689.3857	0.0075
689.5681	0.0042
689.7506	0.0265
689.933	0.0031
690.1154	0.0248
690.2978	0.0228
690.4802	0.0227
690.6626	0.0108
690.8449	0.0095
691.0272	0.0165
691.2095	-0.0013
691.3918	0.0072
691.5741	0.0054
691.7563	0.0213
691.9386	0.0389
692.1208	0.0137
692.303	0.012
692.4852	0.0125
692.6673	0.0157
692.8495	-0.001
693.0316	0.0336
693.2137	0.0166
693.3958	0.0231
693.5778	0.0313
693.7599	0.0053
693.9419	0.0035
694.1239	-0.0088
694.3059	0.0006
694.4879	0.0028
694.6699	0.0034
694.8518	0.0161
695.0337	0.0208
695.2157	0.042
695.3975	-0.0063
695.5794	0.0067
695.7613	0.0249
695.9431	0.0008
696.1249	0.0301
696.3067	0.0138
696.4885	0.0238
696.6703	0.01
696.852	0.0067
697.0337	0.0155
697.2154	0.0154
697.3971	0.0096
697.5788	0.0253
697.7605	0.0117
697.9421	0.0216
698.1237	0.0299
698.3053	-0.0047
698.4869	0.0127
698.6685	0.003
698.85	0.0207
699.0315	-0.005
699.213	0.0287
699.3945	0.012
699.576	0.032
699.7575	0.027
699.9389	0.0151
700.1203	0.0217
700.3017	0.0381
700.4831	0.0315
700.6645	0.0319
700.8458	0.0207
701.0271	0.0502
701.2084	0.0228
701.3897	0.0171
701.571	0.0072
701.7523	0.0234
701.9335	0.0171
702.1147	0.0098
702.2959	-0.0006
702.4771	0.0395
702.6583	0.0067
702.8394	-0.0103
703.0205	0.022
703.2016	-0.0061
703.3827	-0.0008
703.5638	0.0221
703.7449	0.0119
703.9259	0.0188
704.1069	0.0091
704.2879	0.0414
704.4689	-0.0013
704.6499	0.0287
704.8308	-0.0046
705.0117	0.0119
705.1927	0.029
705.3735	0.0257
705.5544	0.0341
705.7353	0.0193
705.9161	0.0179
706.0969	0.0141
706.2777	0.0228
706.4585	0.0079
706.6393	0.0173
706.82	0.0181
707.0007	-0.0013
707.1815	0.0111
707.3621	0.0341
707.5428	0.0119
707.7235	-0.0015
707.9041	0.0246
708.0847	0.0156
708.2653	0.0383
708.4459	0.0308
708.6265	-0.0148
708.807	0.0297
708.9875	-0.0151
709.168	-0.0146
709.3485	0.0304
709.529	0.0232
709.7095	-0.0254
709.8899	0.0136
710.0703	0.0292
710.2507	0.0219
710.4311	-0.0269
710.6115	0.0307
710.7918	0.0232
710.9721	0.0254
711.1524	-0.0066
711.3327	-0.0031
711.513	-0.0087
711.6932	-0.0067
711.8735	0.0089
712.0537	0.0062
712.2339	0.0106
712.4141	0.0087
712.5942	-0.0072
712.7744	0.011
712.9545	0.0297
713.1346	0.0473
713.3147	0.0134
713.4947	0.0006
713.6748	0.0222
713.8548	0.0132
714.0348	0.0324
714.2148	0.015
714.3948	0.0256
714.5748	0.0181
714.7547	0.03
714.9346	0.0396
715.1145	0.0169
715.2944	-0.0033
715.4743	0.0174
715.6541	0.006
715.834	0.0296
716.0138	0.0424
716.1936	0.032
716.3733	0.0426
716.5531	0.017
716.7328	0.0316
716.9126	0.0179
717.0923	0.0261
717.2719	0.0233
717.4516	0.0194
717.6312	-0.002
717.8109	0.0443
717.9905	0.0174
718.1701	0.0123
718.3496	0.0119
718.5292	0.0107
718.7087	0.0313
718.8882	0.0432
719.0677	0.0092
719.2472	0.0113
719.4267	0.0205
719.6061	0.0139
719.7856	0.0445
719.965	-0.0067
720.1443	0.0308
720.3237	0.0149
720.5031	0.0038
720.6824	-0.0109
720.8617	0.003
721.041	0.0483
721.2203	-0.0012
721.3995	0.0104
721.5788	0.0335
721.758	0.0017
721.9372	0.0287
722.1164	0.0095
722.2956	0.029
722.4747	0.0313
722.6538	0.0171
722.8329	0.0211
723.012	0.0195
723.1911	0.019
723.3702	0.0113
723.5492	0.0091
723.7282	0.0405
723.9072	0.0236
724.0862	0.0072
724.2652	0.0413
724.4441	0.0141
724.623	0.0133
724.8019	-0.006
724.9808	0.021
725.1597	0.0489
725.3385	0.0414
725.5174	0.0222
725.6962	0.01
725.875	0.0287
726.0538	0.0184
726.2325	0.0288
726.4112	0.0015
726.59	-0.0122
726.7687	0.022
726.9474	0.0267
727.126	0.0372
727.3047	-0.0245
727.4833	0.02
727.6619	-0.0007
727.8405	0.016
728.0191	0.0319
728.1976	0.0285
728.3762	0.0359
728.5547	0.0055
728.7332	0.0215
728.9116	0.0345
729.0901	0.0196
729.2686	0.0057
729.447	-0.0038
729.6254	0.0098
729.8038	0.006
729.9821	0.0102
730.1605	0.0196
730.3388	0.0326
730.5171	0.0296
730.6954	-0.0108
730.8737	0.0368
731.0519	0.0067
731.2302	0.0244
731.4084	0.0274
731.5866	0.007
731.7648	0.0265
731.9429	0.0429
732.1211	0.0132
732.2992	0.0029
732.4773	0.0011
732.6554	0.0112
732.8335	0.0166
733.0115	0.026
733.1896	0.0073
733.3676	0.0109
733.5456	0.0083
733.7235	0.0011
733.9015	0.007
734.0794	-0.0127
734.2574	-0.0106
734.4353	0.0121
734.6131	0.0036
734.791	0.0219
734.9689	0.0264
735.1467	0.0158
735.3245	0.0254
735.5023	0.0355
735.68	-0.0081
735.8578	0.0268
736.0355	0.0064
736.2132	0.0151
736.3909	-0.0087
736.5686	0.013
736.7463	-0.0033
736.9239	0.0406
737.1015	0.0012
737.2791	0.009
737.4567	0.0027
737.6343	0.0094
737.8118	0.0359
737.9894	0.032
738.1669	0.0074
738.3444	0.0272
738.5218	-0.0095
738.6993	0.0106
738.8767	0.0137
739.0541	-0.0002
739.2315	0.014
739.4089	0.0459
739.5863	0.0214
739.7636	0.0101
739.9409	-0.0022
740.1182	0.0213
740.2955	0.0563
740.4728	0.0048
740.65	0.0037
740.8272	0.0135
741.0044	-0.0005
741.1816	0.0324
741.3588	0.0199
741.5359	0.0365
741.7131	0.019
741.8902	0.0238
742.0673	-0.0114
742.2444	0.0269
742.4214	0.0213
742.5985	-0.007
742.7755	0.0221
742.9525	-0.0133
743.1295	-0.0035
743.3064	0.0108
743.4834	0.0219
743.6603	0.0512
743.8372	-0.0052
744.0141	0.0638
744.191	0.0052
744.3678	-0.0177
744.5446	-0.0045
744.7215	0.0356
744.8982	0.0344
745.075	0.054
745.2518	0.0295
745.4285	0.0399
745.6052	-0.0239
745.7819	-0.0165
745.9586	0.0328
746.1353	0.0145
746.3119	0.0347
746.4885	0.0374
746.6651	0.0087
746.8417	-0.0021
747.0183	0.0562
747.1948	0.014
747.3714	0.0306
747.5479	0.0292
747.7244	0.0023
747.9008	0.0073
748.0773	0.0285
748.2537	0.041
748.4301	0.046
748.6065	0.0377
748.7829	-0.0087
748.9593	0.01
749.1356	0.0182
749.3119	0.0265
749.4882	0.0223
749.6645	0.0207
749.8408	0.0162
750.017	0.0219
750.1933	0.001
750.3695	0.0231
750.5457	0.0137
750.7218	0.0064
750.898	0.0147
751.0741	0.0156
751.2502	0.0339
751.4263	0.0057
751.6024	0.0026
751.7784	0.0142
751.9545	0.0015
752.1305	0.0174
752.3065	0.0386
752.4825	-0.0048
752.6584	0.0266
752.8344	-0.0173
753.0103	-0.0142
753.1862	0.0154
753.3621	0.0013
753.5379	0.041
753.7138	0.0075
753.8896	0.0201
754.0654	0.0119
754.2412	0.0084
754.417	0.0327
754.5927	0.0093
754.7685	0.0288
754.9442	0.0315
755.1199	0.01
755.2956	0.0129
755.4712	0.0133
755.6469	0.0242
755.8225	0.0096
755.9981	0.0191
756.1736	0.0082
756.3492	0.0118
756.5248	0.0341
756.7003	0.0037
756.8758	0.0264
757.0513	0.0252
757.2267	0.0338
757.4022	0.0074
757.5776	0.0117
757.753	0.0228
757.9284	0.023
758.1038	0.0161
758.2791	0.0233
758.4545	0.0009
758.6298	0.0141
758.8051	0.0199
758.9803	0.0094
759.1556	0.0048
759.3308	0.0045
759.506	0.0143
759.6812	0.0028
759.8564	0.0143
760.0316	0.0056
760.2067	0.0201
760.3819	0.0094
760.557	0.0163
760.732	0
760.9071	0.0179
761.0821	0.0029
761.2572	0.0201
761.4322	0.0144
761.6072	0.0068
761.7821	-0.0114
761.9571	0.0029
762.132	-0.0023
762.3069	0.0189
762.4818	0.0275
762.6567	0.0015
762.8316	0.0162
763.0064	0.043
763.1812	0.0238
763.356	-0.0011
763.5308	0.0266
763.7055	0.0003
763.8803	0.0082
764.055	0.0205
764.2297	0.0054
764.4044	0.0069
764.579	-0.0014
764.7537	0.0131
764.9283	0.022
765.1029	0.0095
765.2775	0.02
765.4521	0.0276
765.6266	0.0098
765.8011	0.0251
765.9756	0.029
766.1501	0.0017
766.3246	0.0138
766.4991	0.037
766.6735	0.0462
766.8479	0.0179
767.0223	0.0144
767.1967	0.0286
767.371	0.0099
767.5454	0.0186
767.7197	0.0256
767.894	-0.0162
768.0683	0.0494
768.2425	0.0245
768.4168	0.0285
768.591	0.0186
768.7652	0.0145
768.9394	-0.0141
769.1135	0.0026
769.2877	0.0312
769.4618	0.0338
769.6359	-0.0012
769.81	0.0426
769.984	0.0219
770.1581	-0.0022
770.3321	0.0343
770.5061	-0.0036
770.6801	0.0307
770.8541	0.0241
771.028	0.0518
771.202	0.0443
771.3759	0.0267
771.5498	0.0004
771.7236	-0.0071
771.8975	0.0172
772.0713	0.0422
772.2451	0.022
772.4189	0.0271
772.5927	-0.023
772.7665	0.0278
772.9402	0.0226
773.1139	0.0215
773.2876	0.0174
773.4613	0.0167
773.635	0.0391
773.8086	0.052
773.9822	0.0291
774.1558	0.0785
774.3294	0.0376
774.503	0.0021
774.6765	-0.0054
774.8501	0.0246
775.0236	0.0593
775.1971	0.0163
775.3705	0.024
775.544	-0.0113
775.7174	0.0235
775.8908	0.0062
776.0642	0.045
776.2376	0.0447
776.4109	0.0052
776.5843	0.0385
776.7576	0.0389
776.9309	0.0608
777.1041	0.0081
777.2774	0.0008
777.4506	-0.011
777.6238	-0.0255
777.797	0.0668
777.9702	0.0412
778.1434	0.0268
778.3165	0.0037
778.4896	-0.0343
778.6627	0.0074
778.8358	0.0201
779.0089	-0.0066
779.1819	0.0092
779.3549	0.0029
779.5279	-0.0159
779.7009	0.0518
779.8739	0.0541
780.0468	0.0453
780.2197	0.0412
780.3926	-0.0065
780.5655	0.0075
780.7384	0.0244
780.9112	0.0533
781.0841	0.0184
781.2569	0.0322
781.4297	0.0248
781.6024	0.0336
781.7752	0.0568
781.9479	0.0809
782.1206	-0.0011
782.2933	0.0063
782.466	0.0309
782.6386	0.0092
782.8113	0.0275
782.9839	0.0018
783.1565	0.0645
783.329	0.0189
783.5016	0.0162
783.6741	-0.0079
783.8466	0.0613
784.0191	0.0371
784.1916	-0.026
784.3641	0.008
784.5365	0.0736
784.7089	-0.0025
784.8813	0.1025
785.0537	0.0577
785.2261	0.006
785.3984	0.014
785.5707	-0.023
785.743	0.041
785.9153	0.0189
786.0876	0.0299
786.2598	-0
786.432	0.0198
786.6042	0.0484
786.7764	-0.0133
786.9486	0.0007
787.1207	0.0347
787.2928	0.0313
787.4649	0.0013
787.637	0.0035
787.8091	0.0315
787.9811	0.0608
788.1532	0.0627
788.3252	0.0088
788.4972	0.0325
788.6691	0.0328
788.8411	-0.0036
789.013	0.0095
789.1849	0.013
789.3568	0.012
789.5287	0.0443
789.7005	-0.0354
789.8723	0.0133
790.0442	-0.0069
790.2159	-0.0328
790.3877	0.0661
790.5595	0.0684
790.7312	-0.001
790.9029	-0.0071
791.0746	0.0138
791.2463	-0.0149
791.4179	0.0491
791.5896	0.0049
791.7612	0.0565
791.9328	0.0643
792.1044	0.0811
792.2759	-0.0074
792.4474	0.0047
792.619	-0.021
792.7905	0.0306
792.9619	0.0481
793.1334	0.0513
793.3048	0.0294
793.4762	0.0603
793.6476	0.0269
793.819	-0.0131
793.9904	0.0262
794.1617	-0.0006
794.333	0.0451
794.5043	0.079
794.6756	0.007
794.8469	0.0469
795.0181	0.018
795.1893	0.033
795.3605	0.0336
795.5317	-0.0063
795.7029	0.0068
795.874	0.0774
796.0452	0.0072
796.2163	0.0808
796.3873	0.1151
796.5584	0.0547
796.7294	0.0438
796.9005	0.0089
797.0715	-0.0589
797.2425	0.0948
797.4134	0.1075
797.5844	0.0554
797.7553	-0.0421
797.9262	0.1041
798.0971	0.0795
798.2679	0.0249
798.4388	0.0829
798.6096	0.0124
798.7804	0.0382
798.9512	0.0749
799.122	0.021
799.2927	0.0957
799.4635	-0.0464
799.6342	-0.0046
799.8049	0.0429
799.9755	-0
800.1462	0.049
800.3168	0.0728
800.4874	-0.0592
800.658	0.2224
800.8286	0.0457
800.9991	0.0047
801.1696	-0.0199
801.3402	0.0555
801.5106	0.1094
801.6811	0.0294
801.8516	0.0473
802.022	0.0134
802.1924	-0.0379
802.3628	0.1508
802.5332	0.0842
802.7035	0.1364
802.8739	-0.0058
803.0442	0.0114
803.2145	0.0201
803.3847	0.0405
803.555	0.0657
803.7252	-0.039
803.8954	-0.0177
804.0656	0.0445
804.2358	0.1999
804.4059	0.1772
804.5761	0.0809
804.7462	0.0158
804.9163	0.057
805.0864	-0.0171
805.2564	-0.0203
805.4264	0.0676
805.5965	0.0085
805.7665	-0.0105
805.9364	0.0239
806.1064	0.0696
806.2763	0.0323
806.4462	0.0604
806.6161	0.0501
806.786	-0.0419
806.9559	0.0219
807.1257	0.0585
807.2955	0.0196
807.4653	0.0412
807.6351	0.0832
807.8048	0.0238
807.9746	0.0893
808.1443	0.0014
808.314	0.0302
808.4837	0.0658
808.6533	-0.0474
808.8229	0.0184
808.9926	0.055
809.1622	0.0291
809.3317	-0.0579
809.5013	0.0757
809.6708	0.0221
809.8403	0.0049
810.0098	0.0609
810.1793	0.0303
810.3488	-0.066
810.5182	0.1724
810.6876	0.2456
810.857	0.0369
811.0264	0.0563
811.1958	0.1569
811.3651	-0
811.5344	0.1273
811.7037	0.1292
811.873	0.044
812.0422	-0.075
812.2115	0.0142
812.3807	-0.0578
812.5499	0.0379
812.7191	-0.0863
812.8882	0.0533
813.0574	0.0768
813.2265	0.111
813.3956	0.0063
813.5646	0.0023
813.7337	0.0183
813.9027	-0.0181
814.0718	-0
814.2407	0.0868
814.4097	0.1483
814.5787	0.0687
814.7476	0.046
814.9165	0.0796
815.0854	-0.0567
815.2543	0.1594
815.4232	0.1395
815.592	0.0922
815.7608	-0.0386
815.9296	0.0289
816.0984	0.2022
816.2671	-0.1915
816.4359	0.1908
816.6046	0.0764
816.7733	0.0706
816.942	0.0853
817.1106	0.1058
817.2793	-0.0439
817.4479	0.0659
817.6165	0.1555
817.785	0.0927
817.9536	-0.0456
818.1221	0.0572
818.2906	-0.1489
818.4591	0.1754
818.6276	0.1335
818.7961	0.146
818.9645	0.0456
819.1329	0.5298
819.3013	0.1037
819.4697	0.0521
819.638	0.3074
819.8064	0.1072
819.9747	0.156
820.143	-0.0117
820.3113	0.2633
820.4795	0.0938
820.6477	0.2015
820.816	0.0844
820.9842	0.0601
821.1523	-0.0334
821.3205	0.0447
821.4886	-0.0181
821.6567	-0.0257
821.8248	0.163
821.9929	-0.0769
822.1609	0.0572
822.329	0.0603
822.497	0.099
822.665	0.0699
822.833	0.0232
823.0009	-0
823.1688	0.1624
823.3367	-0.032
823.5046	0.1632
823.6725	-0.0097
823.8404	0.1893
824.0082	0.0216
824.176	0.1623
824.3438	0.3556
824.5116	0.0582
824.6793	0.2318
824.847	0.0832
825.0147	0.0167
825.1824	0.2633
825.3501	0.0887
825.5177	-0.0103
825.6854	-0.0694
825.853	0.1336
826.0206	-0.0445
826.1881	0.0459
826.3557	0.2651
826.5232	0.397
826.6907	0.0714
826.8582	0.0546
827.0257	0.2384
827.1931	0.0527
827.3605	0.1491
827.528	0.1931
827.6953	-0.0198
827.8627	-0.015
828.03	0.1303
828.1974	-0.0415
828.3647	0.4306
828.532	0.161
828.6992	0.0944
828.8665	0.0292
829.0337	0.1255
829.2009	0.0079
829.3681	0.1118
829.5352	0.0085
829.7024	-0.0171
829.8695	-0.0328
830.0366	0.2737
830.2037	0.2863
830.3707	0.0125
830.5378	0.072
830.7048	-0.0046
830.8718	0.4637
831.0388	0.0508
831.2057	-0
831.3727	0.0984
831.5396	0.6831
831.7065	-0.5447
831.8734	0.4519
832.0402	0.0225
832.2071	-0
832.3739	0.2615
832.5407	-0
832.7075	-0.2154
832.8742	0.5732
833.041	0.3724
833.2077	0.2693
833.3744	-0.0948
833.541	-0.0092
833.7077	0.4345
833.8743	0.255
834.0409	0.0863
834.2075	0.1639
834.3741	-0.1378
834.5407	1.0829
834.7072	0.2606
834.8737	0.2368
835.0402	0.2434
835.2067	0.0878
835.3731	0.1772
835.5395	0.0509
835.706	0.1162
835.8723	-0
836.0387	0.4699
836.2051	-0
836.3714	0.5582
836.5377	0.6041
836.704	0.2679
836.8703	0.2473
837.0365	-0.4543
837.2027	-0
837.3689	0.1874
837.5351	0.1672
837.7013	0.2487
837.8674	-0
838.0335	0.2539
838.1997	0.7565
838.3657	0.1394
838.5318	-0.4635
838.6978	0.2658
838.8639	-0.2303
839.0299	0.0584
839.1958	0.1333
839.3618	-0
839.5277	0.0194
839.6937	-0.1634
839.8596	-0.1594
840.0254	0.0936
840.1913	-0.2868
840.3571	0.2667
840.523	-0
840.6888	0.0319
840.8545	-0.1703
841.0203	0.1589
841.186	-0
841.3517	-0.1926
841.5174	0.2216
841.6831	0.3523
841.8488	-0.0908
842.0144	0.3573
842.18	0.1632
842.3456	-0.1453
842.5112	-0.9427
842.6767	0.3917
842.8422	0.4755
843.0077	0.5342
843.1732	0.0216
843.3387	0.2439
843.5042	-0
843.6696	0.3231
843.835	-0.0475
844.0004	-0.2549
844.1657	-0
844.3311	-0
844.4964	-0.3582
844.6617	0.4832
844.827	0.0396
844.9923	0.1699
845.1575	-0
845.3227	-0.2292
845.4879	0.9785
845.6531	0.4848
845.8183	0.1262
845.9834	0.4056
846.1485	0.5142
846.3136	0.7565
846.4787	0.1873
846.6438	0.0569
846.8088	-0
846.9738	-0
847.1388	0.3396
847.3038	0.4169
847.4687	0.0163
847.6337	0.091
847.7986	1.0733
847.9635	1.8424
848.1284	-0
848.2932	1.3328
848.458	-0
848.6228	-0
848.7876	-0.2806
848.9524	-0
849.1172	-0
849.2819	-0
849.4466	0.501
849.6113	0.5652
849.7759	-0
849.9406	0.7057
850.1052	-0
850.2698	-0.1286
850.4344	-0.1017
850.599	0.2798
850.7635	0.4121
850.928	-0
851.0925	0.4309
851.257	-0
851.4215	-0.0778
851.5859	0.1473
851.7503	-0
851.9147	-0
852.0791	0.2961
852.2434	-0
852.4078	-0
852.5721	-0
852.7364	-0.2173
852.9007	0.1692
853.0649	-0
853.2291	-0
853.3934	-0
853.5575	-0.2283
853.7217	0.5172
853.8859	-0
854.05	0.8329
854.2141	0.441
854.3782	-0.1309
854.5423	-0.211
854.7063	0.0599
854.8703	0.8804
855.0343	-0.1628
855.1983	0.2473
855.3623	0.0732
855.5262	-0.4224
855.6901	0.501
855.854	0.2479
856.0179	0.0327
856.1818	1.8833
856.3456	0.0756
856.5094	-0
856.6732	-0
856.837	-0.8797
857.0008	-0
857.1645	0.3582
857.3282	-0.1053
857.4919	0.3043
857.6556	-0.3182
857.8192	-0.0418
857.9828	0.1784
858.1465	0.3931
858.31	-0
858.4736	-0.1099
858.6372	-0.1555
858.8007	0.659
858.9642	-0
859.1277	0.3144
859.2911	0.9931
859.4546	-1.4742
859.618	-0
859.7814	-0.3594
859.9448	-0
860.1081	-0
860.2715	-1.4538
860.4348	0.2126
860.5981	-0
860.7614	-0
860.9246	-0.0603
861.0879	0.3173
861.2511	-0.8085
861.4143	-0
861.5774	-0.05
861.7406	0.1703
861.9037	-0.597
862.0668	0.249
862.2299	-0
862.393	0.3451
862.556	-0
862.7191	-0
862.8821	0.2309
863.0451	0.5112
863.208	-0
863.371	0.0538
863.5339	0.5107
863.6968	0.2948
863.8597	0.3742
864.0225	-0
864.1854	-0.3547
864.3482	-1.0285
864.511	0.1343
864.6737	-0
864.8365	0.5955
864.9992	-0
865.1619	0.5315
865.3246	-2.1392
865.4873	-0
865.65	0.3778
865.8126	0.3203
865.9752	0.1455
866.1378	0.3129
866.3004	-0.1931
866.4629	-1.9381
866.6254	-0
866.7879	-0
866.9504	-0.4654
867.1129	-0
867.2753	0.1729
867.4377	-0
867.6001	-0.6479
867.7625	0.0225
867.9249	-0
868.0872	0.4746
868.2495	-0
868.4118	0
868.5741	-0
868.7363	-0.9904
868.8986	-0.6814
869.0608	-0
869.223	-0.1589
869.3851	-0
869.5473	0.2634
869.7094	-0
869.8715	-0.7148
870.0336	0.3878
870.1957	-0
870.3577	1.3328
870.5197	0.6527
870.6817	-0.5895
870.8437	0.171
871.0057	-0
871.1676	1.2005
871.3295	-0.0309
871.4914	-1.5391
871.6533	-0
871.8151	0.7357
871.977	-0.5198
872.1388	-0.2076
872.3006	-0.0332
872.4623	-0
872.6241	-0
872.7858	-0
872.9475	-0
873.1092	0.2848
873.2709	-0
873.4325	-1.8734
873.5941	-0
873.7557	-0
873.9173	0.7242
874.0789	0.2967
874.2404	-0
874.4019	0.3801
874.5634	-0
874.7249	-0
874.8863	-0
875.0478	-0.2397
875.2092	-0
875.3706	0.075
875.5319	-0
875.6933	-0
875.8546	0.3454
876.0159	1.9868
876.1772	-0
876.3385	-0
876.4997	-0
876.6609	-0
876.8221	-0
876.9833	0.4804
877.1445	0.3572
877.3056	-0
877.4667	-0.92
877.6278	-0
877.7889	-0.428
877.9499	-0
878.111	0.1823
878.272	-0
878.433	-0.2463
878.5939	0.7295
878.7549	-0
878.9158	-0.1228
879.0767	-0.2477
879.2376	-0.0929
879.3984	-0
879.5593	0.0684
879.7201	-1.0525
879.8809	-0
880.0417	-0.0408
880.2024	0.3856
880.3632	-0
880.5239	-0.0638
880.6846	-0
880.8452	-0.3175
881.0059	-0
881.1665	0.5574
881.3271	0.2631
881.4877	0.3612
881.6483	-0.7189
881.8088	-0
881.9693	-0
882.1298	-0
882.2903	-0
