Data from MonoPyChalIsomerACN10uM420nmA_Absorbance_15-09-57-734.txt Node
Date: Fri Jul 05 15:09:57 BST 2024
User: LASERRRRR
Spectrometer: FLMT03099
Trigger mode: 0
Integration Time (sec): 1.000000E-1
Scans to average: 1
Electric dark correction enabled: true
Nonlinearity correction enabled: false
Boxcar width: 0
XAxis mode: Wavelengths
Number of Pixels in Spectrum: 3648
>>>>>Begin Spectral Data<<<<<
179.3399	-0.0465
179.5586	-0.0465
179.7771	-0.0465
179.9957	-0
180.2143	-0
180.4329	-0
180.6514	0.1528
180.8699	-0
181.0885	-0.2557
181.307	1.0734
181.5255	-0.9348
181.744	-0.7306
181.9625	0.5031
182.181	-0.6749
182.3994	-0
182.6179	0.6255
182.8363	0.0559
183.0547	-0.2532
183.2732	-0.0238
183.4916	0.1909
183.71	0.2589
183.9284	0.3263
184.1467	-0.0839
184.3651	-0.0369
184.5835	-0.0266
184.8018	0.0053
185.0201	0.1036
185.2385	0.1879
185.4568	0.1846
185.6751	0.0483
185.8934	0.21
186.1117	-0.043
186.3299	-0.0039
186.5482	0.1053
186.7664	0.0241
186.9847	-0.1494
187.2029	0.0197
187.4211	0.0191
187.6393	0.2787
187.8575	-0.1191
188.0757	0.1544
188.2939	0.0274
188.512	0.5799
188.7302	0.1201
188.9483	0.3982
189.1665	0.1926
189.3846	-0.1123
189.6027	0.1221
189.8208	0.1617
190.0389	0.0864
190.257	0.306
190.475	-0.0132
190.6931	0.2935
190.9111	0.9933
191.1292	0.1895
191.3472	0.3825
191.5652	0.3709
191.7832	0.2846
192.0012	0.4845
192.2192	0.2936
192.4371	0.6407
192.6551	0.2962
192.873	0.4562
193.091	0.3328
193.3089	0.9805
193.5268	0.4828
193.7447	0.5584
193.9626	0.5303
194.1805	0.6154
194.3984	0.9059
194.6162	0.5406
194.8341	0.6246
195.0519	0.5334
195.2697	0.7446
195.4875	0.7097
195.7054	0.7789
195.9231	0.5094
196.1409	0.4153
196.3587	0.7386
196.5765	0.6013
196.7942	0.7205
197.012	0.4886
197.2297	0.4736
197.4474	0.7376
197.6651	0.5318
197.8828	0.7585
198.1005	0.6004
198.3182	0.6856
198.5358	0.7443
198.7535	0.6053
198.9711	0.6398
199.1888	0.5083
199.4064	0.7228
199.624	0.5431
199.8416	0.5186
200.0592	0.6504
200.2767	0.7586
200.4943	0.7173
200.7119	0.7697
200.9294	0.7133
201.1469	0.6807
201.3645	0.6983
201.582	0.6156
201.7995	0.8739
202.017	0.6392
202.2344	0.6179
202.4519	0.6558
202.6694	0.6159
202.8868	0.7989
203.1042	0.8283
203.3217	0.7288
203.5391	0.6568
203.7565	0.5796
203.9739	0.6582
204.1913	0.6359
204.4086	0.6051
204.626	0.6789
204.8433	0.6607
205.0607	0.6295
205.278	0.6406
205.4953	0.6272
205.7126	0.6917
205.9299	0.8665
206.1472	0.6524
206.3644	0.6328
206.5817	0.7622
206.7989	0.6989
207.0162	0.7291
207.2334	0.8168
207.4506	0.666
207.6678	0.6833
207.885	0.7325
208.1022	0.7683
208.3194	0.7428
208.5365	0.653
208.7537	0.7333
208.9708	0.5748
209.1879	0.708
209.405	0.7954
209.6222	0.7008
209.8392	0.6689
210.0563	0.6522
210.2734	0.6292
210.4905	0.6731
210.7075	0.598
210.9245	0.633
211.1416	0.6561
211.3586	0.5771
211.5756	0.6678
211.7926	0.5985
212.0096	0.6672
212.2265	0.6114
212.4435	0.6396
212.6604	0.6235
212.8774	0.6088
213.0943	0.6232
213.3112	0.544
213.5281	0.5502
213.745	0.5392
213.9619	0.4905
214.1788	0.4986
214.3956	0.4631
214.6125	0.4661
214.8293	0.4589
215.0461	0.4505
215.2629	0.4802
215.4798	0.4494
215.6965	0.463
215.9133	0.4581
216.1301	0.4292
216.3469	0.4144
216.5636	0.4161
216.7803	0.3614
216.9971	0.4131
217.2138	0.3798
217.4305	0.361
217.6472	0.3586
217.8639	0.3878
218.0805	0.3549
218.2972	0.3321
218.5138	0.3341
218.7305	0.3079
218.9471	0.3246
219.1637	0.2949
219.3803	0.2874
219.5969	0.2753
219.8135	0.2505
220.0301	0.2793
220.2466	0.2818
220.4632	0.2528
220.6797	0.2539
220.8962	0.2585
221.1127	0.2551
221.3292	0.2592
221.5457	0.2302
221.7622	0.2278
221.9787	0.2527
222.1951	0.2438
222.4116	0.2758
222.628	0.2484
222.8444	0.2527
223.0608	0.2458
223.2772	0.2445
223.4936	0.2542
223.71	0.2423
223.9264	0.2575
224.1427	0.2581
224.3591	0.237
224.5754	0.277
224.7917	0.2513
225.008	0.2669
225.2243	0.2522
225.4406	0.2799
225.6569	0.2624
225.8732	0.2801
226.0894	0.2593
226.3057	0.2674
226.5219	0.2658
226.7381	0.2777
226.9543	0.2756
227.1705	0.2878
227.3867	0.2634
227.6029	0.2952
227.8191	0.2724
228.0352	0.2962
228.2513	0.2932
228.4675	0.3019
228.6836	0.2998
228.8997	0.3018
229.1158	0.2986
229.3319	0.3053
229.548	0.3126
229.764	0.3304
229.9801	0.3379
230.1961	0.313
230.4121	0.3274
230.6282	0.3404
230.8442	0.3317
231.0602	0.3475
231.2761	0.3432
231.4921	0.3331
231.7081	0.3576
231.924	0.3487
232.14	0.3619
232.3559	0.3544
232.5718	0.3582
232.7877	0.373
233.0036	0.3304
233.2195	0.3662
233.4353	0.3593
233.6512	0.3726
233.867	0.3642
234.0829	0.3656
234.2987	0.3695
234.5145	0.3573
234.7303	0.3656
234.9461	0.3664
235.1619	0.3772
235.3776	0.3833
235.5934	0.4021
235.8091	0.3597
236.0249	0.3667
236.2406	0.386
236.4563	0.3714
236.672	0.4026
236.8877	0.4027
237.1034	0.3931
237.319	0.3973
237.5347	0.4029
237.7503	0.3879
237.966	0.4058
238.1816	0.4001
238.3972	0.4055
238.6128	0.3834
238.8284	0.3862
239.0439	0.419
239.2595	0.3957
239.475	0.4245
239.6906	0.4056
239.9061	0.4139
240.1216	0.4161
240.3371	0.4113
240.5526	0.4012
240.7681	0.4137
240.9836	0.3978
241.199	0.4166
241.4145	0.3994
241.6299	0.3923
241.8453	0.381
242.0607	0.4023
242.2761	0.3824
242.4915	0.3803
242.7069	0.4001
242.9223	0.3742
243.1376	0.3596
243.353	0.3815
243.5683	0.3566
243.7836	0.3591
243.9989	0.3592
244.2142	0.3428
244.4295	0.349
244.6448	0.3495
244.86	0.3295
245.0753	0.317
245.2905	0.3239
245.5057	0.309
245.721	0.2938
245.9362	0.3103
246.1514	0.3014
246.3665	0.2937
246.5817	0.2953
246.7969	0.2818
247.012	0.2674
247.2271	0.2651
247.4423	0.2651
247.6574	0.2703
247.8725	0.259
248.0876	0.249
248.3026	0.2473
248.5177	0.253
248.7328	0.2347
248.9478	0.2397
249.1628	0.2412
249.3779	0.2354
249.5929	0.2324
249.8079	0.2378
250.0228	0.2184
250.2378	0.2219
250.4528	0.2159
250.6677	0.1956
250.8827	0.2014
251.0976	0.2081
251.3125	0.1916
251.5274	0.1954
251.7423	0.1954
251.9572	0.2047
252.172	0.2046
252.3869	0.1975
252.6017	0.1881
252.8166	0.1855
253.0314	0.1662
253.2462	0.1777
253.461	0.1827
253.6758	0.183
253.8906	0.1908
254.1053	0.175
254.3201	0.1878
254.5348	0.2051
254.7496	0.1886
254.9643	0.1826
255.179	0.1768
255.3937	0.1823
255.6083	0.1789
255.823	0.1732
256.0377	0.1744
256.2523	0.1756
256.467	0.1622
256.6816	0.189
256.8962	0.1799
257.1108	0.1694
257.3254	0.179
257.54	0.1704
257.7545	0.1737
257.9691	0.1826
258.1836	0.174
258.3981	0.1851
258.6127	0.1812
258.8272	0.1678
259.0417	0.1711
259.2561	0.1696
259.4706	0.1623
259.6851	0.1818
259.8995	0.1678
260.114	0.1695
260.3284	0.1657
260.5428	0.1695
260.7572	0.1788
260.9716	0.1762
261.186	0.1687
261.4003	0.1715
261.6147	0.172
261.829	0.1635
262.0433	0.174
262.2577	0.1615
262.472	0.1756
262.6863	0.1656
262.9005	0.1775
263.1148	0.1713
263.3291	0.1643
263.5433	0.173
263.7576	0.1839
263.9718	0.1791
264.186	0.1695
264.4002	0.1626
264.6144	0.1608
264.8286	0.183
265.0427	0.1762
265.2569	0.1779
265.471	0.1696
265.6851	0.1704
265.8993	0.1718
266.1134	0.1748
266.3275	0.1579
266.5415	0.1715
266.7556	0.1819
266.9697	0.1752
267.1837	0.1714
267.3978	0.1804
267.6118	0.1874
267.8258	0.1929
268.0398	0.1692
268.2538	0.18
268.4677	0.1857
268.6817	0.1769
268.8957	0.1862
269.1096	0.1867
269.3235	0.2003
269.5374	0.1758
269.7514	0.1728
269.9652	0.1714
270.1791	0.1762
270.393	0.1655
270.6068	0.1852
270.8207	0.1713
271.0345	0.1666
271.2483	0.1805
271.4622	0.1706
271.676	0.1656
271.8897	0.1667
272.1035	0.1726
272.3173	0.1654
272.531	0.173
272.7448	0.1605
272.9585	0.1659
273.1722	0.1646
273.3859	0.1764
273.5996	0.1677
273.8133	0.1785
274.0269	0.1643
274.2406	0.1604
274.4542	0.1814
274.6679	0.165
274.8815	0.1608
275.0951	0.1612
275.3087	0.17
275.5223	0.1702
275.7358	0.1765
275.9494	0.1757
276.1629	0.1805
276.3765	0.1724
276.59	0.1738
276.8035	0.1762
277.017	0.1742
277.2305	0.1705
277.444	0.1792
277.6574	0.1625
277.8709	0.1736
278.0843	0.1655
278.2978	0.1826
278.5112	0.1579
278.7246	0.1704
278.938	0.1709
279.1513	0.1751
279.3647	0.184
279.5781	0.1847
279.7914	0.1803
280.0047	0.1901
280.2181	0.1767
280.4314	0.1798
280.6447	0.1849
280.8579	0.1749
281.0712	0.1911
281.2845	0.193
281.4977	0.1806
281.711	0.1656
281.9242	0.184
282.1374	0.171
282.3506	0.1756
282.5638	0.1948
282.7769	0.1804
282.9901	0.1842
283.2033	0.1893
283.4164	0.1768
283.6295	0.1717
283.8426	0.1782
284.0557	0.1771
284.2688	0.1858
284.4819	0.1749
284.695	0.1678
284.908	0.1733
285.1211	0.1556
285.3341	0.1701
285.5471	0.1809
285.7601	0.1764
285.9731	0.1671
286.1861	0.1588
286.3991	0.1701
286.612	0.1709
286.825	0.1736
287.0379	0.166
287.2508	0.1592
287.4637	0.1666
287.6766	0.1587
287.8895	0.1682
288.1024	0.1794
288.3152	0.1614
288.5281	0.1526
288.7409	0.1578
288.9538	0.1612
289.1666	0.1617
289.3794	0.1637
289.5922	0.1585
289.8049	0.1554
290.0177	0.1552
290.2304	0.1614
290.4432	0.1504
290.6559	0.1576
290.8686	0.1557
291.0813	0.1509
291.294	0.1559
291.5067	0.1586
291.7194	0.1518
291.932	0.1681
292.1447	0.1517
292.3573	0.1437
292.5699	0.1601
292.7825	0.1422
292.9951	0.1482
293.2077	0.1458
293.4203	0.1513
293.6328	0.141
293.8454	0.1582
294.0579	0.1427
294.2704	0.1478
294.4829	0.1476
294.6954	0.1474
294.9079	0.1577
295.1204	0.1525
295.3328	0.1417
295.5453	0.1535
295.7577	0.1553
295.9701	0.1398
296.1825	0.1501
296.3949	0.1425
296.6073	0.1436
296.8197	0.1445
297.0321	0.1546
297.2444	0.1354
297.4567	0.147
297.6691	0.1566
297.8814	0.1414
298.0937	0.1451
298.306	0.1516
298.5182	0.1415
298.7305	0.1559
298.9428	0.1406
299.155	0.1463
299.3672	0.1364
299.5794	0.1441
299.7916	0.1445
300.0038	0.1519
300.216	0.1414
300.4282	0.1535
300.6403	0.128
300.8525	0.1535
301.0646	0.1382
301.2767	0.1479
301.4888	0.1398
301.7009	0.1399
301.913	0.1447
302.125	0.1561
302.3371	0.1381
302.5491	0.1498
302.7612	0.1487
302.9732	0.1411
303.1852	0.1457
303.3972	0.1388
303.6092	0.144
303.8211	0.1372
304.0331	0.1335
304.245	0.1368
304.457	0.1364
304.6689	0.1354
304.8808	0.1491
305.0927	0.1395
305.3046	0.1476
305.5164	0.1463
305.7283	0.1325
305.9401	0.1383
306.152	0.1323
306.3638	0.1347
306.5756	0.126
306.7874	0.1367
306.9992	0.1456
307.2109	0.131
307.4227	0.1217
307.6344	0.1343
307.8462	0.1238
308.0579	0.1223
308.2696	0.1205
308.4813	0.1233
308.693	0.1317
308.9046	0.1277
309.1163	0.1266
309.328	0.1262
309.5396	0.1259
309.7512	0.1239
309.9628	0.1198
310.1744	0.1226
310.386	0.1221
310.5976	0.124
310.8091	0.1131
311.0207	0.1153
311.2322	0.1226
311.4437	0.1112
311.6552	0.1126
311.8667	0.1238
312.0782	0.1025
312.2897	0.1062
312.5012	0.1302
312.7126	0.1143
312.924	0.1174
313.1355	0.1255
313.3469	0.1133
313.5583	0.1219
313.7696	0.1176
313.981	0.1217
314.1924	0.1148
314.4037	0.112
314.6151	0.1204
314.8264	0.1036
315.0377	0.1203
315.249	0.1093
315.4603	0.1136
315.6716	0.1201
315.8828	0.1038
316.0941	0.1036
316.3053	0.1165
316.5165	0.107
316.7277	0.1061
316.9389	0.1197
317.1501	0.1041
317.3613	0.1144
317.5724	0.1107
317.7836	0.1145
317.9947	0.116
318.2058	0.1195
318.417	0.1112
318.6281	0.1094
318.8391	0.1184
319.0502	0.1088
319.2613	0.1199
319.4723	0.1175
319.6834	0.1141
319.8944	0.1023
320.1054	0.1222
320.3164	0.1223
320.5274	0.1012
320.7383	0.1237
320.9493	0.1176
321.1602	0.1228
321.3712	0.1104
321.5821	0.1136
321.793	0.1219
322.0039	0.1264
322.2148	0.1211
322.4257	0.1181
322.6365	0.1216
322.8474	0.1305
323.0582	0.1092
323.269	0.1258
323.4798	0.1318
323.6906	0.1301
323.9014	0.1254
324.1122	0.1309
324.3229	0.1148
324.5337	0.121
324.7444	0.106
324.9551	0.1277
325.1658	0.1282
325.3765	0.1244
325.5872	0.1215
325.7979	0.1163
326.0085	0.1179
326.2192	0.1278
326.4298	0.1221
326.6404	0.1331
326.851	0.1288
327.0616	0.1222
327.2722	0.1251
327.4828	0.138
327.6933	0.1219
327.9039	0.1266
328.1144	0.1304
328.3249	0.1261
328.5354	0.1246
328.7459	0.1092
328.9564	0.1191
329.1669	0.124
329.3773	0.1306
329.5878	0.12
329.7982	0.1251
330.0086	0.1205
330.219	0.1229
330.4294	0.1231
330.6398	0.1341
330.8502	0.1228
331.0605	0.1351
331.2708	0.1245
331.4812	0.1332
331.6915	0.1303
331.9018	0.123
332.1121	0.1293
332.3224	0.121
332.5326	0.1413
332.7429	0.1252
332.9531	0.1377
333.1633	0.1335
333.3735	0.1306
333.5837	0.1259
333.7939	0.1284
334.0041	0.1375
334.2143	0.127
334.4244	0.1405
334.6346	0.1127
334.8447	0.149
335.0548	0.1236
335.2649	0.1091
335.475	0.1396
335.685	0.1324
335.8951	0.1372
336.1051	0.1271
336.3152	0.1377
336.5252	0.127
336.7352	0.1347
336.9452	0.138
337.1552	0.1395
337.3652	0.1395
337.5751	0.1449
337.7851	0.1438
337.995	0.1312
338.2049	0.1185
338.4148	0.1366
338.6247	0.1529
338.8346	0.1313
339.0445	0.1264
339.2543	0.1272
339.4642	0.1219
339.674	0.1325
339.8838	0.1334
340.0936	0.1357
340.3034	0.15
340.5132	0.1302
340.7229	0.1441
340.9327	0.1352
341.1424	0.1359
341.3522	0.1564
341.5619	0.1398
341.7716	0.1381
341.9813	0.1373
342.1909	0.141
342.4006	0.1584
342.6102	0.1463
342.8199	0.1436
343.0295	0.1494
343.2391	0.1513
343.4487	0.1466
343.6583	0.1472
343.8679	0.1315
344.0774	0.1457
344.287	0.1419
344.4965	0.1403
344.706	0.1504
344.9155	0.1433
345.125	0.1463
345.3345	0.1561
345.544	0.1426
345.7534	0.1485
345.9629	0.1418
346.1723	0.1326
346.3817	0.1526
346.5911	0.145
346.8005	0.1577
347.0099	0.135
347.2193	0.142
347.4286	0.1467
347.638	0.1601
347.8473	0.1594
348.0566	0.1435
348.2659	0.1504
348.4752	0.1511
348.6845	0.1383
348.8937	0.1421
349.103	0.1679
349.3122	0.1477
349.5214	0.1512
349.7306	0.164
349.9398	0.1487
350.149	0.1522
350.3582	0.1463
350.5674	0.1735
350.7765	0.1489
350.9856	0.1577
351.1948	0.1508
351.4039	0.1349
351.613	0.1434
351.822	0.1565
352.0311	0.1578
352.2402	0.1553
352.4492	0.1689
352.6582	0.1596
352.8672	0.1518
353.0762	0.1734
353.2852	0.1504
353.4942	0.1383
353.7032	0.1506
353.9121	0.1573
354.1211	0.1654
354.33	0.1689
354.5389	0.1572
354.7478	0.1741
354.9567	0.1637
355.1655	0.1587
355.3744	0.1547
355.5833	0.1794
355.7921	0.1736
356.0009	0.1645
356.2097	0.1838
356.4185	0.1779
356.6273	0.174
356.8361	0.1588
357.0448	0.1583
357.2536	0.1609
357.4623	0.1572
357.671	0.1699
357.8797	0.1651
358.0884	0.1753
358.2971	0.1634
358.5057	0.1725
358.7144	0.1791
358.923	0.1658
359.1316	0.1642
359.3402	0.1629
359.5488	0.1673
359.7574	0.1658
359.966	0.1803
360.1746	0.166
360.3831	0.1723
360.5916	0.1619
360.8002	0.1608
361.0087	0.1801
361.2172	0.1626
361.4256	0.166
361.6341	0.1644
361.8426	0.1727
362.051	0.1653
362.2594	0.1694
362.4678	0.1603
362.6762	0.2067
362.8846	0.1766
363.093	0.1708
363.3014	0.1863
363.5097	0.1628
363.718	0.1914
363.9264	0.1754
364.1347	0.1785
364.343	0.1792
364.5513	0.1855
364.7595	0.1897
364.9678	0.1781
365.176	0.1655
365.3842	0.1858
365.5925	0.1718
365.8007	0.1758
366.0089	0.1753
366.217	0.1745
366.4252	0.1879
366.6333	0.2085
366.8415	0.1918
367.0496	0.1661
367.2577	0.1892
367.4658	0.1987
367.6739	0.1974
367.882	0.1948
368.09	0.1771
368.2981	0.1896
368.5061	0.1794
368.7141	0.1964
368.9221	0.1954
369.1301	0.1975
369.3381	0.1899
369.5461	0.1833
369.754	0.1931
369.962	0.1973
370.1699	0.1746
370.3778	0.1801
370.5857	0.1662
370.7936	0.1859
371.0015	0.1814
371.2093	0.1892
371.4172	0.2074
371.625	0.1785
371.8328	0.1969
372.0406	0.1817
372.2484	0.1962
372.4562	0.2012
372.664	0.2005
372.8717	0.1906
373.0795	0.1738
373.2872	0.2099
373.4949	0.1899
373.7026	0.2018
373.9103	0.189
374.118	0.1877
374.3256	0.1938
374.5333	0.1911
374.7409	0.197
374.9485	0.2015
375.1561	0.1912
375.3637	0.1904
375.5713	0.2041
375.7789	0.1951
375.9864	0.193
376.194	0.1915
376.4015	0.1845
376.609	0.2014
376.8165	0.1968
377.024	0.189
377.2315	0.1898
377.4389	0.1863
377.6464	0.2048
377.8538	0.1897
378.0612	0.1827
378.2686	0.209
378.476	0.2145
378.6834	0.1971
378.8908	0.1958
379.0981	0.2055
379.3055	0.2023
379.5128	0.1854
379.7201	0.209
379.9274	0.1927
380.1347	0.1995
380.342	0.1971
380.5492	0.1871
380.7565	0.1836
380.9637	0.1913
381.1709	0.2036
381.3781	0.1967
381.5853	0.1861
381.7925	0.1981
381.9997	0.2049
382.2068	0.2002
382.4139	0.1996
382.6211	0.1825
382.8282	0.1991
383.0353	0.1933
383.2424	0.1836
383.4494	0.1947
383.6565	0.1948
383.8635	0.1803
384.0706	0.1883
384.2776	0.19
384.4846	0.195
384.6916	0.2
384.8986	0.1938
385.1055	0.1993
385.3125	0.1944
385.5194	0.1792
385.7263	0.1998
385.9333	0.1939
386.1402	0.1931
386.347	0.1898
386.5539	0.191
386.7608	0.2018
386.9676	0.1751
387.1744	0.1978
387.3813	0.1825
387.5881	0.1922
387.7948	0.1812
388.0016	0.1982
388.2084	0.2011
388.4151	0.177
388.6219	0.1902
388.8286	0.1806
389.0353	0.2063
389.242	0.1904
389.4487	0.1894
389.6553	0.1809
389.862	0.1623
390.0686	0.1832
390.2753	0.2001
390.4819	0.191
390.6885	0.1736
390.8951	0.1776
391.1016	0.1803
391.3082	0.1727
391.5147	0.1987
391.7213	0.1718
391.9278	0.1703
392.1343	0.1686
392.3408	0.1815
392.5473	0.1816
392.7537	0.1532
392.9602	0.1557
393.1666	0.1755
393.373	0.1715
393.5794	0.1869
393.7858	0.1666
393.9922	0.1703
394.1986	0.1789
394.4049	0.1743
394.6113	0.168
394.8176	0.1646
395.0239	0.175
395.2302	0.1646
395.4365	0.1682
395.6428	0.1714
395.8491	0.1679
396.0553	0.1644
396.2615	0.1634
396.4678	0.1651
396.674	0.1531
396.8802	0.1612
397.0863	0.1695
397.2925	0.1603
397.4987	0.1528
397.7048	0.1478
397.9109	0.1726
398.117	0.1387
398.3231	0.1563
398.5292	0.1574
398.7353	0.1588
398.9413	0.1459
399.1474	0.1479
399.3534	0.1519
399.5594	0.1484
399.7654	0.1571
399.9714	0.1539
400.1774	0.1605
400.3833	0.1542
400.5893	0.1627
400.7952	0.1493
401.0011	0.1599
401.207	0.1701
401.4129	0.1498
401.6188	0.1551
401.8247	0.1551
402.0305	0.1534
402.2364	0.1507
402.4422	0.1528
402.648	0.1491
402.8538	0.168
403.0596	0.1517
403.2654	0.1684
403.4711	0.1598
403.6768	0.1678
403.8826	0.159
404.0883	0.1556
404.294	0.1624
404.4997	0.1439
404.7054	0.1525
404.911	0.1286
405.1167	0.1398
405.3223	0.1484
405.5279	0.1614
405.7335	0.1613
405.9391	0.1642
406.1447	0.1528
406.3502	0.1557
406.5558	0.1406
406.7613	0.1553
406.9668	0.1426
407.1724	0.1331
407.3778	0.1578
407.5833	0.1536
407.7888	0.1347
407.9942	0.1565
408.1997	0.1425
408.4051	0.1487
408.6105	0.1634
408.8159	0.1429
409.0213	0.1442
409.2267	0.1777
409.432	0.1429
409.6374	0.1468
409.8427	0.1322
410.048	0.1442
410.2533	0.1469
410.4586	0.1615
410.6639	0.1421
410.8691	0.1424
411.0744	0.1369
411.2796	0.1458
411.4848	0.1331
411.69	0.1303
411.8952	0.1598
412.1004	0.1393
412.3056	0.1488
412.5107	0.1221
412.7158	0.1514
412.921	0.1478
413.1261	0.1616
413.3312	0.1281
413.5362	0.1463
413.7413	0.1393
413.9464	0.1417
414.1514	0.1499
414.3564	0.1547
414.5614	0.1351
414.7664	0.1363
414.9714	0.1331
415.1764	0.1511
415.3813	0.163
415.5863	0.1377
415.7912	0.1512
415.9961	0.1471
416.201	0.1487
416.4059	0.1333
416.6108	0.1291
416.8156	0.1302
417.0205	0.1457
417.2253	0.1291
417.4301	0.1292
417.6349	0.1443
417.8397	0.1194
418.0445	0.1308
418.2492	0.1391
418.454	0.1418
418.6587	0.1221
418.8634	0.1458
419.0681	0.1233
419.2728	0.1334
419.4775	0.129
419.6822	0.1168
419.8868	0.1119
420.0915	0.1277
420.2961	0.1143
420.5007	0.1207
420.7053	0.1278
420.9099	0.1337
421.1144	0.1305
421.319	0.1311
421.5235	0.129
421.728	0.14
421.9325	0.1208
422.137	0.1382
422.3415	0.1138
422.546	0.1381
422.7504	0.1302
422.9549	0.1154
423.1593	0.1239
423.3637	0.1253
423.5681	0.1194
423.7725	0.1105
423.9769	0.1089
424.1812	0.1058
424.3856	0.1282
424.5899	0.1126
424.7942	0.1193
424.9985	0.1278
425.2028	0.1194
425.4071	0.1429
425.6113	0.1166
425.8156	0.1183
426.0198	0.1408
426.224	0.1089
426.4282	0.1043
426.6324	0.11
426.8366	0.1141
427.0407	0.1132
427.2449	0.1136
427.449	0.1156
427.6531	0.0884
427.8572	0.0913
428.0613	0.1064
428.2654	0.109
428.4694	0.098
428.6735	0.1035
428.8775	0.1079
429.0815	0.1124
429.2855	0.1081
429.4895	0.1191
429.6935	0.1113
429.8975	0.1088
430.1014	0.0869
430.3053	0.0962
430.5093	0.1052
430.7132	0.0825
430.9171	0.0984
431.1209	0.1049
431.3248	0.0946
431.5286	0.0765
431.7325	0.0953
431.9363	0.0801
432.1401	0.0885
432.3439	0.0877
432.5477	0.0686
432.7514	0.0813
432.9552	0.0834
433.1589	0.0803
433.3627	0.0708
433.5664	0.081
433.7701	0.0704
433.9737	0.072
434.1774	0.0691
434.3811	0.0785
434.5847	0.0673
434.7883	0.0734
434.9919	0.0759
435.1955	0.0731
435.3991	0.0735
435.6027	0.08
435.8062	0.0716
436.0098	0.0628
436.2133	0.0663
436.4168	0.0537
436.6203	0.0609
436.8238	0.0696
437.0272	0.0751
437.2307	0.0616
437.4341	0.0757
437.6375	0.071
437.841	0.0452
438.0443	0.0749
438.2477	0.0669
438.4511	0.062
438.6545	0.0566
438.8578	0.062
439.0611	0.0662
439.2644	0.0502
439.4677	0.0434
439.671	0.0431
439.8743	0.0659
440.0775	0.0649
440.2808	0.0546
440.484	0.0441
440.6872	0.0412
440.8904	0.05
441.0936	0.0617
441.2967	0.0536
441.4999	0.0627
441.703	0.0349
441.9062	0.0426
442.1093	0.0348
442.3124	0.0595
442.5155	0.0237
442.7185	0.0468
442.9216	0.0249
443.1246	0.0423
443.3276	0.0459
443.5307	0.0407
443.7337	0.0464
443.9366	0.0346
444.1396	0.0227
444.3426	0.0384
444.5455	0.0463
444.7484	0.0234
444.9513	0.0354
445.1542	0.0416
445.3571	0.0413
445.56	0.0392
445.7628	0.0266
445.9657	0.0308
446.1685	0.0325
446.3713	0.0367
446.5741	0.0262
446.7769	0.0226
446.9797	0.0387
447.1824	0.0275
447.3852	0.0281
447.5879	0.0335
447.7906	0.0367
447.9933	0.0316
448.196	0.017
448.3986	0.0147
448.6013	0.0244
448.8039	0.0185
449.0066	0.0189
449.2092	0.0272
449.4118	0.0314
449.6143	0.0219
449.8169	0.03
450.0195	0.0127
450.222	-0.0016
450.4245	0.0183
450.627	0.0224
450.8295	0.0088
451.032	0.0027
451.2345	0.0268
451.4369	0.0264
451.6394	0.0242
451.8418	0.0162
452.0442	0.0128
452.2466	0.0189
452.449	0.0073
452.6513	0.0165
452.8537	0.0107
453.056	-0.002
453.2583	-0.002
453.4607	0.0101
453.663	0.0276
453.8652	0.0253
454.0675	-0.0036
454.2697	0.0108
454.472	0.0009
454.6742	0.0137
454.8764	0.0186
455.0786	0.0173
455.2808	0.0271
455.4829	0.0174
455.6851	0.0103
455.8872	0.0108
456.0893	0.0062
456.2915	-0.0172
456.4935	0.0081
456.6956	-0.0012
456.8977	0.0083
457.0997	0.0067
457.3018	-0.0047
457.5038	0.011
457.7058	-0.0056
457.9078	0.005
458.1098	0.0146
458.3117	0.0237
458.5137	0.0116
458.7156	0.0077
458.9175	-0.0065
459.1194	0.0008
459.3213	-0.0056
459.5232	0.0023
459.725	-0.0158
459.9269	-0.0017
460.1287	0.0052
460.3305	0.0011
460.5323	0.0043
460.7341	0.0105
460.9359	-0.0013
461.1376	0.0111
461.3394	-0.0036
461.5411	0.0073
461.7428	-0.0004
461.9445	0.0102
462.1462	0.0098
462.3479	0.0106
462.5495	-0.0031
462.7512	0.0012
462.9528	0.0044
463.1544	-0.0148
463.356	-0.0095
463.5576	0.0047
463.7592	0.0003
463.9607	0.0113
464.1623	0.0147
464.3638	0.0097
464.5653	-0.0079
464.7668	0.0067
464.9683	0.0118
465.1697	0.0088
465.3712	-0.0034
465.5726	-0.0125
465.7741	0.0022
465.9755	-0.007
466.1769	-0.0051
466.3782	0.0033
466.5796	-0.012
466.7809	0.0145
466.9823	-0.0164
467.1836	0.0001
467.3849	-0.015
467.5862	0.0033
467.7875	-0.0184
467.9887	0.0194
468.19	0.0034
468.3912	-0.0061
468.5924	-0.0113
468.7936	-0.0113
468.9948	0.0151
469.196	0.0117
469.3972	-0.0056
469.5983	0.0106
469.7994	-0.0241
470.0006	-0.001
470.2017	-0.0155
470.4027	-0.0162
470.6038	0.0007
470.8049	-0.0189
471.0059	-0.0083
471.2069	-0.0285
471.408	-0.0015
471.6089	-0.0063
471.8099	-0.0017
472.0109	0.0167
472.2119	-0.0056
472.4128	-0.0036
472.6137	0.0044
472.8146	-0.0189
473.0155	-0.007
473.2164	0.0103
473.4173	-0.0048
473.6181	0.0087
473.819	0.0026
474.0198	-0.0048
474.2206	-0.0024
474.4214	-0.0046
474.6222	-0.0082
474.8229	-0.0184
475.0237	-0.0152
475.2244	-0.006
475.4251	-0.0037
475.6258	0.0085
475.8265	-0.0079
476.0272	0.0016
476.2278	0.0017
476.4285	-0.0025
476.6291	-0.0061
476.8297	-0.007
477.0303	-0.0098
477.2309	-0.0016
477.4315	-0.0129
477.632	-0.0119
477.8326	-0.0062
478.0331	0.0013
478.2336	-0.01
478.4341	-0.0098
478.6346	0.0023
478.8351	0.0041
479.0355	-0.0017
479.236	-0.014
479.4364	0.0032
479.6368	-0.0023
479.8372	-0.0106
480.0376	0.003
480.2379	-0.0215
480.4383	-0.0078
480.6386	0.0078
480.8389	-0.0013
481.0392	-0.0144
481.2395	-0.0065
481.4398	0.0035
481.6401	-0.0013
481.8403	-0.0043
482.0405	0.0029
482.2408	-0.0046
482.441	0.0025
482.6411	-0.0092
482.8413	-0.0002
483.0415	-0.0082
483.2416	-0.0129
483.4417	-0
483.6419	-0.0028
483.8419	-0.0023
484.042	0.0083
484.2421	0.0023
484.4422	-0.0017
484.6422	-0.0029
484.8422	-0.0053
485.0422	-0.0083
485.2422	-0.0052
485.4422	-0.0139
485.6422	-0.0111
485.8421	-0.0055
486.042	-0.0057
486.242	-0.004
486.4419	-0.011
486.6417	-0.0085
486.8416	-0.0002
487.0415	-0.0064
487.2413	-0.0012
487.4411	-0.0099
487.641	-0.012
487.8408	0.0003
488.0405	-0.0112
488.2403	-0.0107
488.4401	0.0032
488.6398	-0.0057
488.8395	-0.0147
489.0392	-0.0008
489.2389	-0.0109
489.4386	-0.009
489.6383	0.0001
489.8379	0.0035
490.0376	-0.0141
490.2372	-0.0052
490.4368	-0.0109
490.6364	-0.0063
490.836	-0.0154
491.0355	-0.0025
491.2351	-0.0057
491.4346	-0.0179
491.6341	-0.0145
491.8336	0.005
492.0331	-0.0127
492.2326	-0.0132
492.432	0.0012
492.6315	-0.0148
492.8309	-0.0194
493.0303	-0.0068
493.2297	-0.007
493.4291	-0.0039
493.6284	-0.0104
493.8278	-0.0014
494.0271	0.0004
494.2264	0.0042
494.4257	-0.0143
494.625	-0.0058
494.8243	-0.0156
495.0236	-0.0123
495.2228	-0.0097
495.422	0.0034
495.6213	-0.0072
495.8205	-0.0058
496.0196	-0.0068
496.2188	0.0013
496.418	-0.0038
496.6171	-0.0123
496.8162	-0.0137
497.0153	0.0068
497.2144	-0.0079
497.4135	-0.0021
497.6126	-0.0086
497.8116	-0.0092
498.0107	-0.0098
498.2097	-0.018
498.4087	-0.0078
498.6077	-0.0039
498.8067	-0.0147
499.0056	-0.0044
499.2046	0.0015
499.4035	-0.0267
499.6024	-0.0045
499.8013	0.0018
500.0002	-0.0062
500.199	-0.0082
500.3979	-0.0174
500.5967	-0.0162
500.7956	-0.0052
500.9944	-0.0078
501.1932	-0.0127
501.3919	-0.0171
501.5907	-0.0132
501.7895	-0.0047
501.9882	-0.0119
502.1869	-0.0033
502.3856	-0.012
502.5843	-0.0164
502.783	-0.014
502.9816	-0.0117
503.1803	-0.0108
503.3789	-0.0056
503.5775	-0.0052
503.7761	-0.0051
503.9747	-0.0054
504.1732	-0.0024
504.3718	-0.0045
504.5703	-0.0031
504.7689	-0.012
504.9674	-0.0025
505.1658	-0.0043
505.3643	-0.0066
505.5628	-0.0102
505.7612	-0.0085
505.9597	0.0054
506.1581	-0.0097
506.3565	0.0119
506.5549	-0.0079
506.7532	-0.0135
506.9516	-0.0056
507.1499	-0.0027
507.3482	-0.0119
507.5465	-0.0211
507.7448	-0.0011
507.9431	-0.0079
508.1414	-0.0037
508.3396	-0.0057
508.5379	-0.0067
508.7361	-0.0149
508.9343	-0.0013
509.1325	0.0002
509.3306	-0.0069
509.5288	-0.0105
509.7269	-0.0095
509.9251	-0.0041
510.1232	-0.0128
510.3213	-0.0066
510.5193	0.0001
510.7174	-0.0126
510.9154	-0.0139
511.1135	-0.0129
511.3115	-0.0073
511.5095	-0.0091
511.7075	-0.0046
511.9055	-0.0075
512.1034	-0.0035
512.3014	-0.0084
512.4993	0.0006
512.6972	-0.0094
512.8951	-0.0216
513.093	-0.0175
513.2908	-0.007
513.4887	-0.0065
513.6865	-0.0112
513.8844	-0.0094
514.0822	-0.0093
514.2799	-0.0144
514.4777	-0.0102
514.6755	-0.0065
514.8732	-0.018
515.0709	-0.015
515.2687	-0.0017
515.4664	-0.0025
515.664	-0.0172
515.8617	-0.0111
516.0594	-0.0082
516.257	-0.0026
516.4546	-0.0208
516.6522	-0.001
516.8498	-0.0106
517.0474	-0.004
517.2449	-0.0015
517.4425	-0.0154
517.64	-0.0056
517.8375	0.0012
518.035	-0.0094
518.2325	-0.0064
518.43	0.0009
518.6274	-0.0036
518.8249	-0.0037
519.0223	-0.0006
519.2197	-0.0002
519.4171	-0.0066
519.6145	-0.0116
519.8118	-0.004
520.0092	-0.0132
520.2065	-0.0099
520.4038	-0.0108
520.6011	0.0004
520.7984	-0.0109
520.9956	-0.0063
521.1929	-0.0132
521.3901	-0.0048
521.5874	0.0038
521.7846	-0.0166
521.9818	-0.0075
522.1789	-0.0062
522.3761	-0.0027
522.5732	-0.005
522.7704	-0.0124
522.9675	-0.0088
523.1646	-0.0084
523.3617	-0.0065
523.5587	-0.0052
523.7558	-0.0044
523.9528	-0.0034
524.1498	0.0015
524.3468	-0.0124
524.5438	-0.0074
524.7408	-0.0153
524.9378	0.0074
525.1347	-0.0035
525.3316	-0.0045
525.5285	-0.0106
525.7254	-0.0086
525.9223	-0.0043
526.1192	-0.0132
526.316	-0.0065
526.5129	0.0063
526.7097	-0.0057
526.9065	-0.0027
527.1033	-0.0097
527.3	0.0017
527.4968	0.0019
527.6935	-0.0058
527.8903	-0.0107
528.087	-0.0009
528.2837	-0.0057
528.4804	0.0044
528.677	-0.007
528.8737	0.0053
529.0703	0.0003
529.2669	-0.0051
529.4635	-0.0058
529.6601	0.0087
529.8567	-0.0109
530.0532	-0.0075
530.2498	0.003
530.4463	0.0009
530.6428	-0.0024
530.8393	0.0139
531.0358	-0.0004
531.2322	0.0034
531.4287	-0.0043
531.6251	-0.0105
531.8215	0.0106
532.0179	-0.0074
532.2143	0.001
532.4107	0.0005
532.607	-0.0052
532.8034	0.0069
532.9997	-0.0114
533.196	0.0057
533.3923	-0.0128
533.5886	0.0025
533.7848	0.0047
533.9811	-0.0042
534.1773	-0.0028
534.3735	0.0076
534.5697	0.0002
534.7659	-0.0039
534.9621	-0.0001
535.1582	-0.012
535.3544	-0.0121
535.5505	-0.0147
535.7466	-0.0098
535.9427	-0.0115
536.1387	-0.0164
536.3348	-0.0115
536.5308	-0.0015
536.7269	-0.0138
536.9229	-0.0061
537.1189	-0.005
537.3148	-0.0089
537.5108	-0.0059
537.7068	0.0049
537.9027	-0.0119
538.0986	-0.0098
538.2945	-0.0075
538.4904	-0.0139
538.6863	-0.0038
538.8821	-0.0058
539.078	-0.0101
539.2738	-0.0029
539.4696	-0.0018
539.6654	0.0042
539.8611	0.0135
540.0569	-0.0059
540.2526	-0.0093
540.4484	-0.0004
540.6441	0.0056
540.8398	-0.0006
541.0355	-0.0034
541.2311	-0.0071
541.4268	-0.0162
541.6224	0.0034
541.818	0.0017
542.0136	-0.0099
542.2092	-0.0014
542.4048	-0.0058
542.6003	-0.0017
542.7959	-0.0052
542.9914	-0.0076
543.1869	-0.0025
543.3824	-0.0037
543.5779	-0.0137
543.7734	-0.0034
543.9688	-0
544.1642	0.0032
544.3596	0.0069
544.555	-0.0003
544.7504	0.0039
544.9458	-0.0029
545.1411	0.0009
545.3365	-0.0037
545.5318	-0.0085
545.7271	-0.0045
545.9224	-0.0041
546.1177	0.0003
546.3129	0.0014
546.5081	-0.0069
546.7034	0.001
546.8986	-0.0104
547.0938	-0.0039
547.289	-0.0065
547.4841	-0.0059
547.6793	0.0031
547.8744	-0.0067
548.0695	-0.0002
548.2646	-0.0079
548.4597	0.0081
548.6548	-0.0017
548.8498	-0.0044
549.0448	0.0096
549.2399	-0.0049
549.4349	0.0025
549.6298	0.0079
549.8248	0.0033
550.0198	-0.0013
550.2147	-0.0086
550.4096	-0.0004
550.6045	-0.0002
550.7994	0.0032
550.9943	-0.0005
551.1892	0.0057
551.384	-0.0037
551.5788	-0.0107
551.7737	0.0023
551.9685	-0.0003
552.1632	-0.0006
552.358	0.0036
552.5528	0.0111
552.7475	-0.0039
552.9422	-0.003
553.1369	-0.0022
553.3316	-0.0002
553.5263	-0.0029
553.7209	0.005
553.9156	-0.0113
554.1102	-0.0067
554.3048	-0.003
554.4994	0.0101
554.694	0.0038
554.8885	-0.0001
555.0831	-0.0051
555.2776	-0.0033
555.4721	-0.0029
555.6666	-0.0049
555.8611	0.0046
556.0555	-0.0034
556.25	-0.005
556.4444	-0.0002
556.6388	-0.0007
556.8332	-0.005
557.0276	-0.0015
557.222	-0.0061
557.4163	0.0023
557.6107	-0.0048
557.805	0.0091
557.9993	-0.0008
558.1936	-0.0084
558.3879	0.0085
558.5821	0.0011
558.7764	-0.0057
558.9706	0.0053
559.1648	0.0074
559.359	-0.0024
559.5532	-0.0006
559.7473	-0.0042
559.9415	-0.0024
560.1356	-0.0051
560.3297	-0.007
560.5238	-0.004
560.7179	-0.0029
560.9119	0.0013
561.106	-0.0016
561.3	0.0008
561.494	0.0011
561.688	-0.0083
561.882	-0.0073
562.076	-0.0038
562.2699	-0.0004
562.4639	-0.0064
562.6578	0.0029
562.8517	0.0016
563.0456	0.0003
563.2395	0.0081
563.4333	0.0018
563.6272	0.0057
563.821	-0.0018
564.0148	0.0058
564.2086	-0.0084
564.4024	0.0081
564.5961	0.0065
564.7899	0.0069
564.9836	-0.0049
565.1773	-0.0004
565.371	0.0047
565.5647	0.0059
565.7584	-0.0009
565.952	0.0042
566.1456	0.0037
566.3393	-0.0038
566.5329	-0.0011
566.7264	-0.0058
566.92	-0.0083
567.1136	0.0046
567.3071	-0.005
567.5006	0.0091
567.6941	0.0066
567.8876	0.0039
568.0811	-0.0002
568.2745	0.0035
568.468	0.0145
568.6614	0.0053
568.8548	-0.0024
569.0482	-0.0027
569.2416	-0.0001
569.4349	-0.0015
569.6283	0.0065
569.8216	0.0008
570.0149	-0.0076
570.2082	0.0034
570.4015	0.0126
570.5947	0.009
570.788	0.0024
570.9812	0.005
571.1744	-0.0029
571.3676	-0.013
571.5608	-0.0003
571.754	0.0033
571.9471	-0.0009
572.1402	-0.004
572.3333	-0.0043
572.5264	-0.0057
572.7195	-0.0025
572.9126	0.0009
573.1057	-0.0053
573.2987	-0.0101
573.4917	-0.0001
573.6847	-0.0071
573.8777	0.006
574.0707	0.0014
574.2636	-0.001
574.4566	-0.0005
574.6495	0.005
574.8424	-0.0077
575.0353	-0.0047
575.2281	0.0063
575.421	0.0085
575.6138	0.0027
575.8067	-0.0023
575.9995	-0.0012
576.1923	-0.0008
576.385	-0.004
576.5778	0.0025
576.7706	-0.0023
576.9633	-0.0033
577.156	0.0004
577.3487	0.0033
577.5414	0.0033
577.734	-0.0098
577.9267	0.0018
578.1193	-0.0126
578.3119	-0.0114
578.5045	-0.0093
578.6971	-0.0033
578.8897	0.0034
579.0822	-0.0014
579.2747	0.002
579.4673	-0.0053
579.6598	-0.0002
579.8522	-0.0037
580.0447	-0.0061
580.2372	-0.0004
580.4296	0.0045
580.622	-0.0034
580.8144	-0.0034
581.0068	-0.0043
581.1992	-0.0178
581.3915	-0.0093
581.5839	-0.0035
581.7762	-0.0123
581.9685	-0.0015
582.1608	-0.0019
582.353	-0.0044
582.5453	-0.0027
582.7375	0.0015
582.9298	0.0031
583.122	0.0016
583.3142	-0.0041
583.5063	-0.0068
583.6985	0.0017
583.8906	-0.006
584.0827	-0.0018
584.2749	0.0058
584.4669	-0.0024
584.659	-0.0012
584.8511	-0.0055
585.0431	-0.0084
585.2352	0.0013
585.4272	-0.0012
585.6192	0.0036
585.8111	-0.0002
586.0031	-0.0011
586.195	-0.003
586.387	0.0045
586.5789	0.0022
586.7708	0.002
586.9627	-0.0031
587.1545	-0.0032
587.3464	0.0035
587.5382	0.0025
587.73	0.0043
587.9218	0.006
588.1136	-0.006
588.3053	0.0016
588.4971	0.0005
588.6888	-0.0099
588.8805	0.0011
589.0722	0.0032
589.2639	0.0049
589.4556	0.0009
589.6472	-0.0003
589.8389	-0.0055
590.0305	-0.0126
590.2221	-0.0026
590.4137	-0.0125
590.6052	-0.0018
590.7968	-0.0001
590.9883	0.0026
591.1798	0.0001
591.3713	0.0028
591.5628	0.0056
591.7543	0.0102
591.9458	-0.0017
592.1372	0.0067
592.3286	0.008
592.52	0.0058
592.7114	-0.0035
592.9028	-0.0037
593.0941	-0.0005
593.2855	0.0047
593.4768	-0.0014
593.6681	-0.0087
593.8594	-0.0034
594.0506	0.0003
594.2419	0.0074
594.4331	0.0018
594.6244	0.0046
594.8156	-0.0038
595.0067	-0.0009
595.1979	0.0025
595.3891	-0.0034
595.5802	-0.004
595.7713	-0.0008
595.9624	-0.0033
596.1535	0.0083
596.3446	0.0048
596.5357	0.0019
596.7267	0.008
596.9177	-0.0046
597.1087	-0.0045
597.2997	-0.0011
597.4907	0.0066
597.6817	-0.0028
597.8726	0.0032
598.0635	-0.0008
598.2544	0.0023
598.4453	0.001
598.6362	-0.0032
598.827	-0.0048
599.0179	0.0052
599.2087	0.0022
599.3995	0.0032
599.5903	0.0016
599.7811	0.0017
599.9718	0.0062
600.1626	0.0002
600.3533	-0.0091
600.544	0.0045
600.7347	0.0012
600.9254	0.0024
601.116	-0.0058
601.3067	0.0004
601.4973	-0.0014
601.6879	0.0092
601.8785	-0.004
602.0691	0.0053
602.2596	0.0103
602.4502	0.0066
602.6407	0.0024
602.8312	0.0047
603.0217	-0.0062
603.2122	0.0046
603.4027	0.0047
603.5931	0.007
603.7835	0.0007
603.9739	-0.0014
604.1643	0.0077
604.3547	-0.0066
604.5451	0.0005
604.7354	0.0052
604.9257	0.003
605.116	-0.0031
605.3063	0.0033
605.4966	-0.0042
605.6869	0.0028
605.8771	0.0117
606.0673	0.005
606.2575	0.0064
606.4477	0.0055
606.6379	-0.0039
606.8281	-0.0006
607.0182	-0.0006
607.2083	0.007
607.3985	-0.0024
607.5885	-0.0029
607.7786	-0.0012
607.9687	-0.0041
608.1587	0.0039
608.3488	0.0036
608.5388	0.0106
608.7288	-0.0073
608.9187	-0.0041
609.1087	-0.002
609.2986	-0.0119
609.4886	0.0059
609.6785	0.0002
609.8684	0.0013
610.0582	0.0018
610.2481	-0.0021
610.4379	-0.0018
610.6278	-0.0073
610.8176	-0.0056
611.0074	-0.0074
611.1971	-0.0011
611.3869	-0.0003
611.5766	-0.0084
611.7664	0.0017
611.9561	0.0081
612.1458	0.0001
612.3354	-0.0077
612.5251	0.0004
612.7147	0.0023
612.9044	0.0097
613.094	-0.0058
613.2836	0.0004
613.4731	-0.0009
613.6627	0.0004
613.8522	0.0061
614.0417	0.0057
614.2313	-0.0026
614.4207	-0.013
614.6102	-0.0054
614.7997	-0.0039
614.9891	-0.0097
615.1785	0.0001
615.3679	-0.0103
615.5573	0.0014
615.7467	0.0046
615.9361	-0.0029
616.1254	0.0005
616.3147	-0.0053
616.504	0.0087
616.6933	0.001
616.8826	0.0024
617.0718	0.0012
617.2611	0.0036
617.4503	0.0057
617.6395	-0.005
617.8287	-0.0024
618.0179	-0.0009
618.207	0.0109
618.3961	-0.0027
618.5853	-0.0022
618.7744	0.0061
618.9634	0.0047
619.1525	0.0071
619.3416	0.0049
619.5306	0.0079
619.7196	-0.0031
619.9086	0.002
620.0976	0.0024
620.2866	-0.0004
620.4755	-0.0002
620.6645	0.0041
620.8534	0.0075
621.0423	0.0033
621.2312	0.0051
621.42	-0.0007
621.6089	-0.0025
621.7977	0.0106
621.9865	-0.0056
622.1753	0.0049
622.3641	-0.0021
622.5529	0.0073
622.7416	0.0041
622.9303	-0.0044
623.1191	0.0055
623.3078	-0.0065
623.4964	0.0025
623.6851	-0.0022
623.8737	0.0002
624.0624	0.0063
624.251	0.0054
624.4396	-0.0012
624.6282	-0.0021
624.8167	0.0006
625.0053	0.0047
625.1938	0.0096
625.3823	0.0013
625.5708	-0.0029
625.7593	-0.0029
625.9477	0.0011
626.1362	0.0031
626.3246	0.0005
626.513	0.007
626.7014	0.0051
626.8898	0.0054
627.0781	0.0003
627.2665	-0.0008
627.4548	0.0014
627.6431	0.0013
627.8314	0.0028
628.0197	0.007
628.2079	0.0015
628.3962	-0.0033
628.5844	0.0123
628.7726	0.0079
628.9608	0.0139
629.1489	0.0055
629.3371	0.0094
629.5252	0.0038
629.7134	0.009
629.9015	0.0006
630.0895	-0.0051
630.2776	0.0072
630.4657	-0.0007
630.6537	0.0039
630.8417	0.0003
631.0297	-0.0035
631.2177	0.0036
631.4057	-0.0041
631.5936	-0.0019
631.7815	0.002
631.9695	0.0031
632.1574	0.0067
632.3452	0.0091
632.5331	0.0009
632.7209	-0.0015
632.9088	0.0093
633.0966	0.0167
633.2844	-0.0046
633.4722	0.0041
633.6599	0.0113
633.8477	0.0038
634.0354	0.0097
634.2231	0.0048
634.4108	0.0064
634.5985	0.0182
634.7861	0.0034
634.9738	0.0011
635.1614	0.0004
635.349	-0.0024
635.5366	-0.0033
635.7242	-0.0009
635.9117	0.0125
636.0993	-0.0061
636.2868	0.0093
636.4743	-0.0036
636.6618	0.0099
636.8492	-0.0016
637.0367	0.0039
637.2241	0.002
637.4115	0.001
637.5989	-0.0029
637.7863	-0.0049
637.9737	-0.0035
638.161	-0.0032
638.3484	-0.0003
638.5357	0.0055
638.723	0.001
638.9103	0.0096
639.0975	0.0066
639.2848	-0.0001
639.472	-0.0057
639.6592	0.0095
639.8464	0.0144
640.0336	0.0079
640.2208	0.0047
640.4079	0.0023
640.595	0.0029
640.7821	0.0066
640.9692	0.0014
641.1563	0.0013
641.3434	0.001
641.5304	0.0039
641.7174	0.0007
641.9044	0.0019
642.0914	0.0046
642.2784	0.0006
642.4653	0.007
642.6523	-0.0005
642.8392	0.0064
643.0261	0.0038
643.213	-0.0033
643.3999	0.0029
643.5867	-0.0029
643.7735	0.0035
643.9604	-0.0012
644.1472	0.0068
644.3339	0.0063
644.5207	0.002
644.7075	0.0051
644.8942	0.0105
645.0809	0.0109
645.2676	0.004
645.4543	0.0055
645.6409	0.01
645.8276	0.0014
646.0142	0.0052
646.2008	0.0019
646.3874	-0.0007
646.574	0.0002
646.7605	0.0016
646.9471	-0.0044
647.1336	0.0004
647.3201	0.0021
647.5066	0.001
647.6931	0.0061
647.8795	0.0005
648.0659	0.0063
648.2524	0.0112
648.4388	0.0013
648.6252	0.0065
648.8115	0.0011
648.9979	-0.0009
649.1842	0.0012
649.3705	0.0118
649.5568	0.0037
649.7431	0.006
649.9294	-0.0026
650.1156	0.0103
650.3018	0.0043
650.488	0.0034
650.6742	0.0122
650.8604	-0.0021
651.0466	-0.0025
651.2327	0.0032
651.4188	0.0066
651.6049	0.0087
651.791	0.0004
651.9771	0.0042
652.1632	0.0048
652.3492	0.0024
652.5352	0.0074
652.7212	0.0009
652.9072	0.0049
653.0932	0.0052
653.2791	0.0016
653.465	0.0037
653.651	-0.0032
653.8369	-0.0001
654.0227	-0.0013
654.2086	0.0026
654.3944	-0.0002
654.5803	0.0024
654.7661	-0.0033
654.9519	0.0044
655.1377	-0.0002
655.3234	-0.0034
655.5092	-0.0041
655.6949	-0.0056
655.8806	-0.005
656.0663	-0.0052
656.2519	-0.007
656.4376	-0.005
656.6232	0.0038
656.8088	0.0014
656.9945	0.0019
657.18	0.0054
657.3656	0.0026
657.5511	0.0002
657.7367	0.0008
657.9222	0.0089
658.1077	0.0012
658.2932	0.0049
658.4786	-0.007
658.6641	0.0041
658.8495	0.0008
659.0349	-0.0002
659.2203	0.0111
659.4057	0.0053
659.591	0.003
659.7764	-0.0021
659.9617	0.0098
660.147	-0.0015
660.3323	0.0081
660.5176	0.0066
660.7028	0.0113
660.888	0.0051
661.0733	0.0055
661.2585	-0.0022
661.4436	0.0051
661.6288	-0.0019
661.8139	0.0025
661.9991	0.009
662.1842	0.0024
662.3693	-0.0038
662.5544	-0.0036
662.7394	0.0022
662.9245	0.0015
663.1095	-0
663.2945	-0.004
663.4795	-0.0013
663.6644	0.0018
663.8494	0.0009
664.0343	-0.0041
664.2193	-0.0042
664.4042	0.0005
664.589	-0.0101
664.7739	0.0041
664.9587	-0.006
665.1436	-0.0005
665.3284	0.0083
665.5132	-0.0037
665.698	0.0031
665.8827	0.0053
666.0675	-0.0048
666.2522	0.001
666.4369	0.0054
666.6216	0.0121
666.8063	0.0037
666.9909	0.0011
667.1756	0.0037
667.3602	0.0071
667.5448	0.0037
667.7294	0.006
667.9139	0.0051
668.0985	0.0116
668.283	-0.0004
668.4675	0.0001
668.652	-0.0005
668.8365	-0
669.0209	0.0102
669.2054	0.0092
669.3898	-0.0001
669.5742	-0.0029
669.7586	0.0093
669.943	0.0167
670.1273	0.0101
670.3117	0.0071
670.496	0.0028
670.6803	0.0111
670.8646	0.0082
671.0488	0.0044
671.2331	0.0119
671.4173	0.012
671.6015	0.0001
671.7857	0.0039
671.9699	0.0089
672.1541	0.0094
672.3382	0.0112
672.5223	0.0139
672.7064	0.0099
672.8905	0.0116
673.0746	0.0043
673.2587	0.0024
673.4427	0.0151
673.6267	0.0112
673.8107	0.0135
673.9947	0.0063
674.1787	0.0068
674.3626	-0.0051
674.5465	0.0023
674.7304	0.0089
674.9143	0.0138
675.0982	0.0049
675.2821	0.0005
675.4659	0.0178
675.6497	0.0057
675.8335	0.0017
676.0173	0.0065
676.2011	0.0059
676.3849	0.0072
676.5686	-0.0019
676.7523	0.0007
676.936	0.0071
677.1197	-0.0033
677.3034	0.0018
677.487	0.0102
677.6706	0.0081
677.8542	0.0112
678.0378	0.0065
678.2214	0.007
678.405	0.0022
678.5885	0.0024
678.772	0.0066
678.9555	-0.0019
679.139	-0.0021
679.3225	0.0005
679.5059	0.0041
679.6894	0.0056
679.8728	0.0025
680.0562	-0.0059
680.2395	0.0038
680.4229	0.0015
680.6062	0.009
680.7896	-0.0009
680.9729	-0
681.1562	0.0108
681.3394	0.0014
681.5227	-0.0009
681.7059	0.005
681.8891	-0.0005
682.0723	0.0066
682.2555	0.0091
682.4387	-0.0003
682.6218	0
682.805	0.0083
682.9881	0.006
683.1712	0.0034
683.3542	-0.0078
683.5373	0.007
683.7203	0.0008
683.9034	0.0035
684.0864	-0.0068
684.2694	0.0079
684.4523	0.0059
684.6353	0.0017
684.8182	0.0078
685.0011	-0.004
685.184	0.0019
685.3669	0.0035
685.5498	0.0113
685.7326	0.0063
685.9154	-0.0045
686.0982	0.0083
686.281	0.0115
686.4638	0.0048
686.6465	0.0048
686.8293	0.0095
687.012	0.0111
687.1947	-0.0103
687.3774	0.0082
687.56	0.0015
687.7427	0.0046
687.9253	-0.0054
688.1079	-0.002
688.2905	0.0084
688.4731	0.0027
688.6556	-0.0032
688.8382	-0.0008
689.0207	0.0077
689.2032	-0.0003
689.3857	-0.0005
689.5681	-0.0014
689.7506	-0.0013
689.933	-0.0021
690.1154	0.0015
690.2978	0.0074
690.4802	0.0036
690.6626	-0.0087
690.8449	-0.0045
691.0272	0.0067
691.2095	-0.0033
691.3918	-0.0014
691.5741	0.0012
691.7563	-0.0074
691.9386	0.0024
692.1208	0.0036
692.303	0.0003
692.4852	0.0049
692.6673	0.0015
692.8495	-0.0014
693.0316	-0.0019
693.2137	0.002
693.3958	0.0065
693.5778	-0.0021
693.7599	0.0003
693.9419	0.0019
694.1239	0.0002
694.3059	-0.0006
694.4879	0.0135
694.6699	0.0099
694.8518	0.0083
695.0337	-0.002
695.2157	0.0069
695.3975	-0.0015
695.5794	0.0026
695.7613	0.0004
695.9431	-0.0072
696.1249	0.0074
696.3067	0.0047
696.4885	-0.0003
696.6703	-0.0128
696.852	0.0017
697.0337	0.0041
697.2154	0.0043
697.3971	0.0136
697.5788	0.0064
697.7605	0.0027
697.9421	0.0089
698.1237	0.0026
698.3053	0.0039
698.4869	0.0006
698.6685	-0.009
698.85	-0.0019
699.0315	0.0075
699.213	-0.0027
699.3945	0.0033
699.576	0.0115
699.7575	0.0067
699.9389	0.0115
700.1203	-0.0052
700.3017	-0.0107
700.4831	-0.0076
700.6645	-0.005
700.8458	0.0033
701.0271	-0.0057
701.2084	-0.0001
701.3897	-0.0026
701.571	-0.0016
701.7523	-0.0116
701.9335	-0.001
702.1147	-0.006
702.2959	0.0021
702.4771	0.003
702.6583	0.0027
702.8394	-0.004
703.0205	0.0074
703.2016	0.0003
703.3827	-0.0011
703.5638	0.003
703.7449	0.0071
703.9259	0.0134
704.1069	-0.0045
704.2879	0.0051
704.4689	0.0126
704.6499	-0.0005
704.8308	0.0038
705.0117	0.0015
705.1927	0.0104
705.3735	-0.0022
705.5544	0.0022
705.7353	-0.0016
705.9161	-0.0015
706.0969	-0.0001
706.2777	0.0012
706.4585	-0.001
706.6393	-0.0008
706.82	-0.0041
707.0007	-0.0005
707.1815	-0.0016
707.3621	0.012
707.5428	0.0025
707.7235	0.0055
707.9041	0.0003
708.0847	-0.0079
708.2653	0.004
708.4459	-0.0053
708.6265	-0.007
708.807	-0.0017
708.9875	-0.0018
709.168	0.0008
709.3485	-0.0038
709.529	-0.0002
709.7095	-0.0058
709.8899	0.0038
710.0703	-0.0099
710.2507	-0.0029
710.4311	0.0031
710.6115	-0.0086
710.7918	-0.01
710.9721	-0
711.1524	-0.0052
711.3327	-0.0026
711.513	0.0035
711.6932	0.0063
711.8735	0.0063
712.0537	-0.0012
712.2339	-0.0023
712.4141	-0.0062
712.5942	-0.0025
712.7744	0.0018
712.9545	-0.003
713.1346	0.0036
713.3147	0.0006
713.4947	-0.0078
713.6748	0.0007
713.8548	-0.0003
714.0348	0.0021
714.2148	0.0005
714.3948	0.0071
714.5748	0.0042
714.7547	0.003
714.9346	0.0125
715.1145	0.0051
715.2944	-0.0001
715.4743	0.0094
715.6541	0.0036
715.834	0.0066
716.0138	0.0033
716.1936	-0.0064
716.3733	-0.0018
716.5531	0.0089
716.7328	-0.0028
716.9126	-0.0033
717.0923	0.0048
717.2719	0.0103
717.4516	0.0115
717.6312	0.011
717.8109	0.0031
717.9905	0.0061
718.1701	0.0033
718.3496	-0.0018
718.5292	0.0021
718.7087	0.0013
718.8882	0.0044
719.0677	0.0129
719.2472	0.0067
719.4267	0.0079
719.6061	0.0051
719.7856	0.006
719.965	0.0092
720.1443	-0.0008
720.3237	0.0219
720.5031	0.0035
720.6824	0.0087
720.8617	0.0039
721.041	0.0037
721.2203	0.0109
721.3995	-0.0012
721.5788	-0.0025
721.758	0.0067
721.9372	0.0107
722.1164	-0.0017
722.2956	0.0112
722.4747	0.0044
722.6538	0.0003
722.8329	0.0033
723.012	0.0039
723.1911	0.0013
723.3702	0.0005
723.5492	0.0066
723.7282	-0.0049
723.9072	-0.0001
724.0862	0.0002
724.2652	-0.0064
724.4441	-0.0046
724.623	0.0076
724.8019	0.0055
724.9808	0.0055
725.1597	-0.0128
725.3385	0.0043
725.5174	0.0012
725.6962	0.002
725.875	0.006
726.0538	0.0054
726.2325	-0.0044
726.4112	0.0024
726.59	-0.0019
726.7687	-0.0024
726.9474	0.008
727.126	-0.0025
727.3047	-0.0037
727.4833	0.0067
727.6619	-0.009
727.8405	-0.0019
728.0191	-0.0009
728.1976	-0.0041
728.3762	-0.0104
728.5547	-0.0023
728.7332	-0.0105
728.9116	0.0012
729.0901	0.0021
729.2686	-0.0043
729.447	-0.0003
729.6254	-0.0062
729.8038	-0.0035
729.9821	-0.0082
730.1605	0.0037
730.3388	-0.002
730.5171	0.0026
730.6954	-0.0011
730.8737	0.0034
731.0519	0.0053
731.2302	0.0038
731.4084	0.014
731.5866	0.0065
731.7648	0.0022
731.9429	0.0005
732.1211	-0.0067
732.2992	0.0045
732.4773	-0.0043
732.6554	0.0039
732.8335	-0.0057
733.0115	0.0078
733.1896	0.0079
733.3676	-0.005
733.5456	0.0119
733.7235	0.0161
733.9015	0.0005
734.0794	0.0052
734.2574	-0.0015
734.4353	-0.005
734.6131	0.0025
734.791	0.0068
734.9689	0.0001
735.1467	-0.0015
735.3245	-0.0024
735.5023	0.0004
735.68	-0.0001
735.8578	0.002
736.0355	-0.0174
736.2132	-0.0069
736.3909	0.0087
736.5686	-0.0142
736.7463	0.004
736.9239	-0.0091
737.1015	-0.0035
737.2791	-0.0007
737.4567	-0.0045
737.6343	0.0006
737.8118	-0.0055
737.9894	0.0045
738.1669	-0.0081
738.3444	0.0002
738.5218	-0.0016
738.6993	0.0024
738.8767	0.0026
739.0541	0.0079
739.2315	-0.0033
739.4089	0.0012
739.5863	0.0072
739.7636	-0.0028
739.9409	-0.002
740.1182	0.0054
740.2955	0.014
740.4728	0.0019
740.65	-0.0031
740.8272	-0.0016
741.0044	-0.0015
741.1816	0.0101
741.3588	-0.0013
741.5359	-0.0012
741.7131	-0.0127
741.8902	-0.0021
742.0673	-0.003
742.2444	-0.0068
742.4214	-0.0043
742.5985	-0.0043
742.7755	-0.0044
742.9525	-0.0056
743.1295	0.0046
743.3064	0.0083
743.4834	0.006
743.6603	-0.0013
743.8372	-0.0051
744.0141	0.0119
744.191	0.0017
744.3678	0.0062
744.5446	-0.0023
744.7215	0.0029
744.8982	-0.0073
745.075	-0.0117
745.2518	0.0011
745.4285	0.0012
745.6052	-0.0029
745.7819	-0.0001
745.9586	-0.0039
746.1353	-0.0036
746.3119	-0.0101
746.4885	-0.0041
746.6651	-0.0053
746.8417	0.0013
747.0183	-0.0071
747.1948	0.0026
747.3714	0.002
747.5479	0.0047
747.7244	-0.0001
747.9008	0.0071
748.0773	0.0062
748.2537	0.0049
748.4301	-0.0054
748.6065	0.0074
748.7829	0.0038
748.9593	-0.0011
749.1356	0.0023
749.3119	0.0039
749.4882	-0.0058
749.6645	0.0107
749.8408	-0.0044
750.017	-0.0089
750.1933	0.0096
750.3695	-0.0093
750.5457	-0.0011
750.7218	-0.0029
750.898	0.0037
751.0741	-0.0053
751.2502	-0.0043
751.4263	-0.0103
751.6024	-0.0085
751.7784	-0.0064
751.9545	-0.0121
752.1305	-0.0034
752.3065	-0.0035
752.4825	0.0018
752.6584	-0.0072
752.8344	-0.0072
753.0103	-0.0076
753.1862	-0.0068
753.3621	-0.0054
753.5379	-0.0075
753.7138	-0.0063
753.8896	0.0023
754.0654	-0.0004
754.2412	0.012
754.417	-0.0008
754.5927	-0.0135
754.7685	0.0008
754.9442	-0.0008
755.1199	0.0056
755.2956	-0.0024
755.4712	-0.0063
755.6469	-0.0002
755.8225	0.0066
755.9981	-0.0087
756.1736	0.0007
756.3492	-0.0008
756.5248	-0.0004
756.7003	-0.0067
756.8758	0.0006
757.0513	-0.0121
757.2267	-0.0029
757.4022	0.0065
757.5776	-0.011
757.753	0.004
757.9284	0.002
758.1038	0.009
758.2791	0.0052
758.4545	-0.0029
758.6298	0.0114
758.8051	0.0033
758.9803	0.0076
759.1556	-0.0005
759.3308	-0.0025
759.506	0.0074
759.6812	0.0002
759.8564	0.0095
760.0316	0.0105
760.2067	0.0067
760.3819	0.0076
760.557	0.0125
760.732	-0.0015
760.9071	-0.0147
761.0821	-0.0027
761.2572	0.0037
761.4322	-0.0052
761.6072	0.0004
761.7821	-0.0117
761.9571	0.0094
762.132	-0.0028
762.3069	-0.0079
762.4818	-0.0032
762.6567	0.0051
762.8316	-0.0016
763.0064	0.0019
763.1812	0.0042
763.356	-0.0111
763.5308	-0.0041
763.7055	-0.0013
763.8803	-0.0038
764.055	-0.0039
764.2297	-0.005
764.4044	-0.0134
764.579	-0.0103
764.7537	-0.0053
764.9283	-0.0087
765.1029	-0.0133
765.2775	-0.016
765.4521	-0.0068
765.6266	-0.0089
765.8011	-0.0072
765.9756	-0.006
766.1501	-0.001
766.3246	0.0091
766.4991	-0.0041
766.6735	0.0075
766.8479	-0.0149
767.0223	0.0149
767.1967	0.0021
767.371	-0.0027
767.5454	0.0061
767.7197	0.0041
767.894	-0.0094
768.0683	-0.0045
768.2425	-0.0022
768.4168	0.004
768.591	0.0027
768.7652	0.0013
768.9394	-0.007
769.1135	-0.0023
769.2877	-0.0023
769.4618	-0.0025
769.6359	0.0056
769.81	0.0026
769.984	0.0027
770.1581	-0.0033
770.3321	0.0026
770.5061	-0.0092
770.6801	-0.0112
770.8541	-0.0032
771.028	0.0075
771.202	-0.0116
771.3759	-0.0044
771.5498	-0.0111
771.7236	-0.0016
771.8975	0.0015
772.0713	-0.0017
772.2451	0.001
772.4189	0.013
772.5927	0.0078
772.7665	-0.0047
772.9402	-0.004
773.1139	0.0005
773.2876	0.0073
773.4613	0.0111
773.635	0.0024
773.8086	-0.0149
773.9822	0.0016
774.1558	0.0141
774.3294	-0.0009
774.503	-0.0028
774.6765	0.0059
774.8501	0.008
775.0236	0.0126
775.1971	0.0127
775.3705	-0.013
775.544	0.0006
775.7174	0.0004
775.8908	0.0015
776.0642	-0.014
776.2376	0.0066
776.4109	-0.011
776.5843	0.0053
776.7576	-0.0008
776.9309	-0.0006
777.1041	0.0029
777.2774	0.0028
777.4506	-0.0145
777.6238	0.0006
777.797	0.0043
777.9702	0.0065
778.1434	0.0039
778.3165	-0.0094
778.4896	-0.0032
778.6627	0.0003
778.8358	0.0007
779.0089	0.0059
779.1819	0.0054
779.3549	0.0149
779.5279	0.0194
779.7009	0.0069
779.8739	0.0166
780.0468	0.0135
780.2197	0.0139
780.3926	0.0021
780.5655	0.0007
780.7384	0.014
780.9112	0.007
781.0841	0.0031
781.2569	0.0025
781.4297	0.0025
781.6024	0.0174
781.7752	0.0089
781.9479	0.0104
782.1206	0.0061
782.2933	-0.0037
782.466	0.0074
782.6386	0.0115
782.8113	0.0095
782.9839	0.0147
783.1565	0.0081
783.329	0.0092
783.5016	0.0133
783.6741	0.0131
783.8466	-0.0098
784.0191	0.0105
784.1916	-0.0058
784.3641	0.0048
784.5365	-0.0034
784.7089	0.0001
784.8813	0.0043
785.0537	0.0025
785.2261	-0.0037
785.3984	0.0005
785.5707	0.0045
785.743	-0.012
785.9153	-0.0105
786.0876	-0.0071
786.2598	-0.0041
786.432	-0.0064
786.6042	0.0099
786.7764	-0.0134
786.9486	-0.0006
787.1207	-0.0117
787.2928	-0.0023
787.4649	0.011
787.637	0.0024
787.8091	-0.0132
787.9811	-0.0184
788.1532	0.0093
788.3252	0.0145
788.4972	-0.0016
788.6691	0.0007
788.8411	-0.0034
789.013	-0.0202
789.1849	-0.0057
789.3568	-0.0084
789.5287	0.0087
789.7005	0.0098
789.8723	0.0016
790.0442	0.0251
790.2159	0.0009
790.3877	0.0001
790.5595	-0.0126
790.7312	0.0039
790.9029	-0.0161
791.0746	-0.018
791.2463	-0.0154
791.4179	-0.0094
791.5896	-0.0299
791.7612	0.0034
791.9328	-0.009
792.1044	0.0013
792.2759	-0.027
792.4474	-0.01
792.619	-0.0066
792.7905	0.0128
792.9619	0.0105
793.1334	-0.002
793.3048	-0.0049
793.4762	0.0069
793.6476	0.0058
793.819	-0.0108
793.9904	0.0033
794.1617	-0.0066
794.333	-0.0024
794.5043	-0.0087
794.6756	-0
794.8469	0.0003
795.0181	-0.0084
795.1893	-0.0035
795.3605	0.008
795.5317	-0.0146
795.7029	-0.0102
795.874	-0.0019
796.0452	-0.0062
796.2163	-0.004
796.3873	0.0079
796.5584	-0.0005
796.7294	-0.002
796.9005	0.0003
797.0715	-0.0012
797.2425	-0.0204
797.4134	-0.0024
797.5844	0.0027
797.7553	-0.033
797.9262	-0.0188
798.0971	-0.0212
798.2679	-0.0136
798.4388	-0.0245
798.6096	-0.0299
798.7804	0.0053
798.9512	0.003
799.122	-0.0068
799.2927	-0.0067
799.4635	0.0088
799.6342	-0.0207
799.8049	-0.02
799.9755	-0.0155
800.1462	-0.0195
800.3168	-0.0042
800.4874	0.0041
800.658	0.0023
800.8286	-0.0022
800.9991	0.0017
801.1696	0.0019
801.3402	0.0052
801.5106	-0.0085
801.6811	0.0002
801.8516	0.0125
802.022	0.0093
802.1924	0.0016
802.3628	0.0195
802.5332	-0.0035
802.7035	0.0091
802.8739	0.001
803.0442	-0.0219
803.2145	-0.0043
803.3847	-0.0188
803.555	-0.0128
803.7252	-0.0175
803.8954	-0.0281
804.0656	-0.0153
804.2358	-0.0208
804.4059	0.0025
804.5761	-0.0077
804.7462	-0.0286
804.9163	-0.0223
805.0864	-0.0256
805.2564	-0.0116
805.4264	0.0009
805.5965	-0.0229
805.7665	0.003
805.9364	-0.004
806.1064	0.0192
806.2763	0.0032
806.4462	0.0106
806.6161	-0
806.786	0.0119
806.9559	0.0089
807.1257	-0.0033
807.2955	0.0082
807.4653	-0.0124
807.6351	-0.014
807.8048	-0.007
807.9746	-0.0052
808.1443	0.0009
808.314	-0.0022
808.4837	-0.0135
808.6533	0.0052
808.8229	0.0005
808.9926	-0.004
809.1622	0.0024
809.3317	-0.0229
809.5013	-0.0222
809.6708	-0.0032
809.8403	-0.0074
810.0098	-0.0081
810.1793	-0.0117
810.3488	0.0002
810.5182	-0.0215
810.6876	0.0112
810.857	-0.0139
811.0264	0.0052
811.1958	-0.0134
811.3651	0.0013
811.5344	0.0013
811.7037	-0.0047
811.873	-0.025
812.0422	-0.0021
812.2115	-0.0141
812.3807	-0.0311
812.5499	0.0076
812.7191	-0.0119
812.8882	-0.0071
813.0574	0.0011
813.2265	-0.0197
813.3956	0.0021
813.5646	0.0112
813.7337	-0.0309
813.9027	0.0085
814.0718	0.0073
814.2407	0.0303
814.4097	-0.011
814.5787	-0.0129
814.7476	0.0017
814.9165	0.0061
815.0854	0.0092
815.2543	-0.0077
815.4232	0.0147
815.592	0.0143
815.7608	0.0029
815.9296	-0.0041
816.0984	0.0115
816.2671	0.0032
816.4359	-0.0116
816.6046	0.0104
816.7733	-0.0088
816.942	-0.0025
817.1106	0.006
817.2793	-0.0053
817.4479	-0.0052
817.6165	0.013
817.785	0.0003
817.9536	-0.0085
818.1221	-0.0133
818.2906	-0.0076
818.4591	-0.0007
818.6276	-0.0215
818.7961	-0.0229
818.9645	-0.0201
819.1329	-0.0043
819.3013	0.001
819.4697	-0.0007
819.638	-0.0051
819.8064	-0.0084
819.9747	-0.0049
820.143	-0.0072
820.3113	-0.038
820.4795	-0.008
820.6477	-0.0048
820.816	0.0063
820.9842	-0.0124
821.1523	-0.0156
821.3205	-0.0178
821.4886	-0.031
821.6567	-0.023
821.8248	0.0045
821.9929	0.0097
822.1609	-0.0071
822.329	0.019
822.497	0.0427
822.665	-0.009
822.833	-0.0088
823.0009	0.0087
823.1688	0.0219
823.3367	0.0248
823.5046	0.0019
823.6725	0.0493
823.8404	-0.0268
824.0082	0.0295
824.176	0.0103
824.3438	-0.0012
824.5116	-0.0092
824.6793	0.0188
824.847	-0.023
825.0147	-0.0184
825.1824	0.0062
825.3501	0.0083
825.5177	-0.0187
825.6854	-0
825.853	0.011
826.0206	-0.0254
826.1881	-0.0165
826.3557	-0.0217
826.5232	0.007
826.6907	-0.0203
826.8582	-0.0014
827.0257	-0.029
827.1931	-0.0129
827.3605	0.0031
827.528	-0.0191
827.6953	-0.0208
827.8627	0.0084
828.03	0.0083
828.1974	-0.0047
828.3647	-0.0588
828.532	-0.0179
828.6992	-0.0273
828.8665	0.0033
829.0337	-0.041
829.2009	0.0235
829.3681	-0.0141
829.5352	0.0495
829.7024	-0.0281
829.8695	-0.0507
830.0366	0.0047
830.2037	-0.0016
830.3707	0.0171
830.5378	-0.0183
830.7048	-0
830.8718	0.0054
831.0388	-0.0229
831.2057	-0.0095
831.3727	0.0164
831.5396	-0.0102
831.7065	-0.0422
831.8734	-0
832.0402	-0.0147
832.2071	-0.0156
832.3739	-0.0119
832.5407	-0.0036
832.7075	-0.04
832.8742	-0.0025
833.041	-0.0503
833.2077	-0.0261
833.3744	-0.003
833.541	0.014
833.7077	-0.0308
833.8743	-0.0483
834.0409	-0.0139
834.2075	0.0247
834.3741	-0.04
834.5407	0.0148
834.7072	-0.0107
834.8737	-0.0034
835.0402	-0.008
835.2067	0.0088
835.3731	-0.0156
835.5395	-0.0261
835.706	-0.0065
835.8723	-0.0292
836.0387	-0.0034
836.2051	-0.0178
836.3714	0.0195
836.5377	-0.0248
836.704	-0.0175
836.8703	0.0454
837.0365	-0.0256
837.2027	0.0216
837.3689	-0.0077
837.5351	-0.0415
837.7013	-0.0143
837.8674	-0.0305
838.0335	-0.0209
838.1997	-0.0914
838.3657	-0.0699
838.5318	-0.0323
838.6978	-0.0058
838.8639	0.0259
839.0299	-0.0411
839.1958	-0.0439
839.3618	0.0077
839.5277	-0.0111
839.6937	0.0083
839.8596	-0.001
840.0254	-0.0265
840.1913	-0.0342
840.3571	-0.0239
840.523	-0.0205
840.6888	-0.036
840.8545	-0.0492
841.0203	0.0336
841.186	0.0291
841.3517	0.0315
841.5174	-0.028
841.6831	-0.0221
841.8488	-0.0237
842.0144	-0.0046
842.18	0.0071
842.3456	-0.0238
842.5112	0.0112
842.6767	-0.0404
842.8422	0.0107
843.0077	-0.0337
843.1732	-0.0401
843.3387	0.0329
843.5042	-0.0497
843.6696	-0.0037
843.835	-0.0108
844.0004	0.0406
844.1657	-0.0375
844.3311	-0.0444
844.4964	-0.0414
844.6617	-0.1174
844.827	-0.0379
844.9923	-0.0341
845.1575	0.0231
845.3227	0.0261
845.4879	-0.0156
845.6531	-0.0817
845.8183	-0.0416
845.9834	-0.0267
846.1485	-0.0326
846.3136	-0.0703
846.4787	-0.0703
846.6438	0.0169
846.8088	-0.0185
846.9738	-0.0879
847.1388	-0.0456
847.3038	0.0248
847.4687	-0.0564
847.6337	0.0157
847.7986	-0.0246
847.9635	-0.0045
848.1284	0.0806
848.2932	0.0576
848.458	0.0371
848.6228	0.0576
848.7876	0.0682
848.9524	-0.1237
849.1172	-0.0497
849.2819	-0.0489
849.4466	-0.1092
849.6113	-0.0066
849.7759	-0.065
849.9406	-0.1141
850.1052	0.0025
850.2698	-0.0502
850.4344	-0.0966
850.599	-0.0471
850.7635	0.018
850.928	0.0019
851.0925	0.0018
851.257	-0.0124
851.4215	0.0029
851.5859	0.02
851.7503	0.0607
851.9147	0.0467
852.0791	-0.0765
852.2434	0.0075
852.4078	0.0185
852.5721	0.1553
852.7364	-0.0316
852.9007	-0.1531
853.0649	0.0541
853.2291	-0.0338
853.3934	-0.0933
853.5575	-0.0126
853.7217	-0.0667
853.8859	-0.1331
854.05	-0.0863
854.2141	0.0103
854.3782	0.0477
854.5423	-0.1158
854.7063	0.0922
854.8703	-0.0784
855.0343	-0.1155
855.1983	-0.1713
855.3623	0.1349
855.5262	0.0223
855.6901	-0.0262
855.854	-0.0124
856.0179	0.011
856.1818	-0.0311
856.3456	-0.0297
856.5094	-0.1659
856.6732	-0.136
856.837	-0.0319
857.0008	0.0505
857.1645	-0.1258
857.3282	-0.1958
857.4919	0.0127
857.6556	0.0249
857.8192	-0.0755
857.9828	0.0142
858.1465	0.1052
858.31	0.0551
858.4736	-0.0099
858.6372	-0.0155
858.8007	-0.1828
858.9642	-0.0478
859.1277	0.1279
859.2911	0.086
859.4546	-0.0279
859.618	-0.3183
859.7814	-0.135
859.9448	0.13
860.1081	0.0743
860.2715	0.1237
860.4348	-0.173
860.5981	0.0238
860.7614	0.1091
860.9246	-0.127
861.0879	0.0715
861.2511	0.0769
861.4143	-0.2443
861.5774	0.0214
861.7406	-0.1286
861.9037	-0.0003
862.0668	-0.1167
862.2299	-0.0078
862.393	-0.4362
862.556	-0.0735
862.7191	-0.001
862.8821	-0.3145
863.0451	0.1888
863.208	0.1711
863.371	0.0418
863.5339	-0.1606
863.6968	0.0865
863.8597	0.047
864.0225	-0.2604
864.1854	-0.3311
864.3482	-0
864.511	-0.046
864.6737	0.0553
864.8365	-0.0224
864.9992	0.3182
865.1619	-0.0717
865.3246	0.3573
865.4873	0.0095
865.65	-0.2766
865.8126	0.1159
865.9752	0.1943
866.1378	-0.0777
866.3004	1.3968
866.4629	0.4306
866.6254	0.18
866.7879	-0.0463
866.9504	0.0809
867.1129	-0
867.2753	0.1192
867.4377	-0.0413
867.6001	-0.3083
867.7625	-0.0771
867.9249	0.8151
868.0872	-0.0937
868.2495	0.2124
868.4118	-0.3581
868.5741	-0.5508
868.7363	-0.3879
868.8986	0.0225
869.0608	-0.0167
869.223	0.0359
869.3851	0.406
869.5473	0.2691
869.7094	0.1076
869.8715	-0.4975
870.0336	-0.9413
870.1957	-0.7352
870.3577	-0
870.5197	0.0545
870.6817	-0.1961
870.8437	-0.0904
871.0057	-0
871.1676	-0
871.3295	-0
871.4914	-0
871.6533	-0.2734
871.8151	-0.3132
871.977	-0
872.1388	-0
872.3006	-0
872.4623	-0
872.6241	1.6121
872.7858	0.7115
872.9475	0.4326
873.1092	0.2324
873.2709	-0.1982
873.4325	-0.025
873.5941	-0.598
873.7557	-0.2803
873.9173	-0.2748
874.0789	-0.0402
874.2404	-0.1958
874.4019	0.6174
874.5634	-0.1024
874.7249	-0.0008
874.8863	0.1268
875.0478	0.1122
875.2092	-0
875.3706	0.4913
875.5319	-1.0521
875.6933	-0
875.8546	-0.3222
876.0159	-0.2909
876.1772	-0.0418
876.3385	-0
876.4997	0.3051
876.6609	-0
876.8221	-0.2382
876.9833	-0.3015
877.1445	0.3703
877.3056	-0.1191
877.4667	-0.0021
877.6278	-0
877.7889	-0.6316
877.9499	-0
878.111	-0.5932
878.272	-0
878.433	-0
878.5939	0.3507
878.7549	0.1073
878.9158	-0
879.0767	0.1577
879.2376	0.8213
879.3984	-0.1405
879.5593	-0
879.7201	-0
879.8809	-0.081
880.0417	0.1297
880.2024	-0.001
880.3632	-0
880.5239	0.4926
880.6846	-0
880.8452	-2.6826
881.0059	-0
881.1665	-0.034
881.3271	0.2149
881.4877	-0
881.6483	-0.5264
881.8088	-0.1097
881.9693	-0
882.1298	-0
882.2903	-0
