Data from MonoPyChalIsomerACN10uM420nmA_Absorbance_15-09-51-434.txt Node
Date: Fri Jul 05 15:09:51 BST 2024
User: LASERRRRR
Spectrometer: FLMT03099
Trigger mode: 0
Integration Time (sec): 1.000000E-1
Scans to average: 1
Electric dark correction enabled: true
Nonlinearity correction enabled: false
Boxcar width: 0
XAxis mode: Wavelengths
Number of Pixels in Spectrum: 3648
>>>>>Begin Spectral Data<<<<<
179.3399	-0.4653
179.5586	-0.4653
179.7771	-0.4653
179.9957	1.3234
180.2143	-0
180.4329	0.0282
180.6514	-0
180.8699	0.3923
181.0885	-0.4085
181.307	0.0486
181.5255	0.7347
181.744	-0
181.9625	0.6557
182.181	-0
182.3994	0.3899
182.6179	-0
182.8363	-0
183.0547	-0.0864
183.2732	-0.0436
183.4916	0.0804
183.71	-0.0353
183.9284	-0.0187
184.1467	-0.1155
184.3651	-0.0759
184.5835	-0.0723
184.8018	-0.0753
185.0201	0.0834
185.2385	-0.0546
185.4568	0.0271
185.6751	0.1157
185.8934	0.3085
186.1117	0.0022
186.3299	0.1003
186.5482	-0.0361
186.7664	0.0377
186.9847	-0.0691
187.2029	-0.0046
187.4211	0.0488
187.6393	0.2372
187.8575	0.0409
188.0757	0.2008
188.2939	0.0875
188.512	0.1473
188.7302	0.3069
188.9483	0.2252
189.1665	0.0975
189.3846	-0.0956
189.6027	0.1206
189.8208	0.1365
190.0389	0.0852
190.257	0.2532
190.475	0.1499
190.6931	0.2323
190.9111	1.5154
191.1292	0.0574
191.3472	0.4104
191.5652	0.2419
191.7832	0.2042
192.0012	0.7668
192.2192	0.4352
192.4371	0.5083
192.6551	0.4558
192.873	0.6153
193.091	0.562
193.3089	1.1152
193.5268	0.3557
193.7447	0.3554
193.9626	0.4798
194.1805	0.5794
194.3984	0.626
194.6162	0.4573
194.8341	0.4495
195.0519	0.576
195.2697	0.779
195.4875	0.5731
195.7054	0.6104
195.9231	0.5684
196.1409	0.737
196.3587	0.624
196.5765	0.5124
196.7942	0.5265
197.012	0.5414
197.2297	0.6508
197.4474	0.9215
197.6651	0.6272
197.8828	0.5284
198.1005	0.6028
198.3182	0.7051
198.5358	0.7151
198.7535	0.5244
198.9711	0.4919
199.1888	0.6943
199.4064	0.815
199.624	0.6436
199.8416	0.5371
200.0592	0.5808
200.2767	0.6857
200.4943	0.6998
200.7119	0.6565
200.9294	0.7924
201.1469	0.5501
201.3645	0.5861
201.582	0.6199
201.7995	0.5954
202.017	0.6039
202.2344	0.5829
202.4519	0.6924
202.6694	0.6275
202.8868	0.7067
203.1042	0.6789
203.3217	0.8
203.5391	0.7414
203.7565	0.553
203.9739	0.5856
204.1913	0.6925
204.4086	0.8015
204.626	0.7152
204.8433	0.6663
205.0607	0.6053
205.278	0.6923
205.4953	0.6991
205.7126	0.7139
205.9299	0.7743
206.1472	0.7484
206.3644	0.6965
206.5817	0.747
206.7989	0.6885
207.0162	0.6793
207.2334	0.6894
207.4506	0.6689
207.6678	0.6519
207.885	0.6844
208.1022	0.7002
208.3194	0.7939
208.5365	0.6343
208.7537	0.6421
208.9708	0.5433
209.1879	0.6318
209.405	0.7606
209.6222	0.6767
209.8392	0.6006
210.0563	0.6194
210.2734	0.6465
210.4905	0.6574
210.7075	0.6902
210.9245	0.5849
211.1416	0.6899
211.3586	0.6669
211.5756	0.6174
211.7926	0.6471
212.0096	0.5964
212.2265	0.6322
212.4435	0.6
212.6604	0.6994
212.8774	0.6143
213.0943	0.5874
213.3112	0.5672
213.5281	0.5158
213.745	0.5135
213.9619	0.4955
214.1788	0.4899
214.3956	0.4535
214.6125	0.4644
214.8293	0.4616
215.0461	0.5287
215.2629	0.4211
215.4798	0.5093
215.6965	0.435
215.9133	0.4494
216.1301	0.4415
216.3469	0.4623
216.5636	0.4507
216.7803	0.372
216.9971	0.4203
217.2138	0.3883
217.4305	0.3921
217.6472	0.3728
217.8639	0.3964
218.0805	0.3547
218.2972	0.3232
218.5138	0.3139
218.7305	0.3209
218.9471	0.3023
219.1637	0.3105
219.3803	0.2743
219.5969	0.2962
219.8135	0.2719
220.0301	0.2969
220.2466	0.2687
220.4632	0.2585
220.6797	0.2244
220.8962	0.2574
221.1127	0.2539
221.3292	0.2518
221.5457	0.2619
221.7622	0.2454
221.9787	0.2663
222.1951	0.2388
222.4116	0.289
222.628	0.2449
222.8444	0.2618
223.0608	0.2595
223.2772	0.2579
223.4936	0.2684
223.71	0.2614
223.9264	0.282
224.1427	0.2623
224.3591	0.2346
224.5754	0.2891
224.7917	0.2751
225.008	0.2621
225.2243	0.2654
225.4406	0.2852
225.6569	0.2683
225.8732	0.2694
226.0894	0.279
226.3057	0.2735
226.5219	0.2802
226.7381	0.2808
226.9543	0.2566
227.1705	0.2848
227.3867	0.2804
227.6029	0.2937
227.8191	0.3138
228.0352	0.2892
228.2513	0.3188
228.4675	0.326
228.6836	0.2889
228.8997	0.3212
229.1158	0.3157
229.3319	0.3178
229.548	0.3296
229.764	0.3257
229.9801	0.3207
230.1961	0.3242
230.4121	0.3309
230.6282	0.361
230.8442	0.3147
231.0602	0.3662
231.2761	0.3437
231.4921	0.3576
231.7081	0.3472
231.924	0.3484
232.14	0.3623
232.3559	0.3389
232.5718	0.3743
232.7877	0.369
233.0036	0.3541
233.2195	0.3686
233.4353	0.3513
233.6512	0.3661
233.867	0.3803
234.0829	0.355
234.2987	0.3637
234.5145	0.3709
234.7303	0.3798
234.9461	0.3932
235.1619	0.3911
235.3776	0.3741
235.5934	0.3873
235.8091	0.3651
236.0249	0.3892
236.2406	0.3857
236.4563	0.3826
236.672	0.3962
236.8877	0.4062
237.1034	0.4024
237.319	0.3999
237.5347	0.3923
237.7503	0.4065
237.966	0.4111
238.1816	0.4177
238.3972	0.3953
238.6128	0.4025
238.8284	0.4101
239.0439	0.4026
239.2595	0.3962
239.475	0.4102
239.6906	0.4033
239.9061	0.4128
240.1216	0.4163
240.3371	0.419
240.5526	0.3929
240.7681	0.4059
240.9836	0.3922
241.199	0.4128
241.4145	0.395
241.6299	0.3983
241.8453	0.3868
242.0607	0.3959
242.2761	0.3659
242.4915	0.379
242.7069	0.3617
242.9223	0.3576
243.1376	0.365
243.353	0.3532
243.5683	0.3537
243.7836	0.3429
243.9989	0.3494
244.2142	0.316
244.4295	0.3286
244.6448	0.3179
244.86	0.3045
245.0753	0.3174
245.2905	0.2922
245.5057	0.3003
245.721	0.2906
245.9362	0.2888
246.1514	0.2727
246.3665	0.2715
246.5817	0.2702
246.7969	0.2756
247.012	0.2546
247.2271	0.2387
247.4423	0.259
247.6574	0.2511
247.8725	0.2488
248.0876	0.2282
248.3026	0.2415
248.5177	0.2188
248.7328	0.2247
248.9478	0.2237
249.1628	0.2209
249.3779	0.2181
249.5929	0.2037
249.8079	0.2181
250.0228	0.1985
250.2378	0.2125
250.4528	0.2184
250.6677	0.1971
250.8827	0.21
251.0976	0.2021
251.3125	0.1961
251.5274	0.1931
251.7423	0.1848
251.9572	0.2013
252.172	0.1892
252.3869	0.1828
252.6017	0.1975
252.8166	0.1798
253.0314	0.1683
253.2462	0.1686
253.461	0.1857
253.6758	0.1744
253.8906	0.1904
254.1053	0.1689
254.3201	0.1784
254.5348	0.1902
254.7496	0.1947
254.9643	0.1833
255.179	0.1765
255.3937	0.1738
255.6083	0.1822
255.823	0.1804
256.0377	0.1795
256.2523	0.1722
256.467	0.1638
256.6816	0.1876
256.8962	0.1779
257.1108	0.1674
257.3254	0.1716
257.54	0.1657
257.7545	0.1727
257.9691	0.1754
258.1836	0.179
258.3981	0.1814
258.6127	0.1671
258.8272	0.1702
259.0417	0.1662
259.2561	0.1826
259.4706	0.1769
259.6851	0.1761
259.8995	0.1714
260.114	0.1679
260.3284	0.1766
260.5428	0.1697
260.7572	0.1618
260.9716	0.1788
261.186	0.1653
261.4003	0.1725
261.6147	0.1767
261.829	0.1776
262.0433	0.1577
262.2577	0.1785
262.472	0.1708
262.6863	0.169
262.9005	0.1754
263.1148	0.1702
263.3291	0.157
263.5433	0.1584
263.7576	0.1766
263.9718	0.1628
264.186	0.1687
264.4002	0.165
264.6144	0.165
264.8286	0.1763
265.0427	0.1634
265.2569	0.1688
265.471	0.1627
265.6851	0.1635
265.8993	0.1682
266.1134	0.1603
266.3275	0.1675
266.5415	0.1673
266.7556	0.1787
266.9697	0.168
267.1837	0.1677
267.3978	0.1576
267.6118	0.1718
267.8258	0.1867
268.0398	0.159
268.2538	0.1716
268.4677	0.1716
268.6817	0.1718
268.8957	0.1781
269.1096	0.1703
269.3235	0.1664
269.5374	0.1587
269.7514	0.1542
269.9652	0.1583
270.1791	0.1542
270.393	0.1684
270.6068	0.1651
270.8207	0.1632
271.0345	0.1542
271.2483	0.164
271.4622	0.1574
271.676	0.1613
271.8897	0.1564
272.1035	0.1524
272.3173	0.1605
272.531	0.1611
272.7448	0.1443
272.9585	0.1488
273.1722	0.1474
273.3859	0.1544
273.5996	0.1518
273.8133	0.1552
274.0269	0.1505
274.2406	0.1369
274.4542	0.1626
274.6679	0.1324
274.8815	0.1444
275.0951	0.1475
275.3087	0.1574
275.5223	0.1446
275.7358	0.1532
275.9494	0.154
276.1629	0.157
276.3765	0.1453
276.59	0.1657
276.8035	0.1538
277.017	0.1555
277.2305	0.1522
277.444	0.1489
277.6574	0.148
277.8709	0.165
278.0843	0.1517
278.2978	0.1529
278.5112	0.1471
278.7246	0.1511
278.938	0.1586
279.1513	0.1528
279.3647	0.167
279.5781	0.1591
279.7914	0.1488
280.0047	0.1681
280.2181	0.154
280.4314	0.1641
280.6447	0.1609
280.8579	0.1523
281.0712	0.1725
281.2845	0.167
281.4977	0.1621
281.711	0.1473
281.9242	0.1674
282.1374	0.159
282.3506	0.1609
282.5638	0.1606
282.7769	0.1576
282.9901	0.161
283.2033	0.1666
283.4164	0.172
283.6295	0.1545
283.8426	0.1482
284.0557	0.1547
284.2688	0.1686
284.4819	0.1721
284.695	0.1675
284.908	0.1689
285.1211	0.1534
285.3341	0.1535
285.5471	0.1736
285.7601	0.1539
285.9731	0.1541
286.1861	0.1502
286.3991	0.1734
286.612	0.1607
286.825	0.1639
287.0379	0.1738
287.2508	0.1594
287.4637	0.1654
287.6766	0.152
287.8895	0.1706
288.1024	0.1878
288.3152	0.1703
288.5281	0.1569
288.7409	0.1548
288.9538	0.1662
289.1666	0.1599
289.3794	0.1705
289.5922	0.162
289.8049	0.1594
290.0177	0.1633
290.2304	0.1707
290.4432	0.1643
290.6559	0.1637
290.8686	0.1719
291.0813	0.1709
291.294	0.1651
291.5067	0.1684
291.7194	0.1721
291.932	0.1676
292.1447	0.1712
292.3573	0.1526
292.5699	0.1675
292.7825	0.1709
292.9951	0.1518
293.2077	0.1633
293.4203	0.1633
293.6328	0.1506
293.8454	0.1719
294.0579	0.1587
294.2704	0.1597
294.4829	0.1611
294.6954	0.1653
294.9079	0.1599
295.1204	0.1584
295.3328	0.1594
295.5453	0.17
295.7577	0.1649
295.9701	0.145
296.1825	0.1733
296.3949	0.1555
296.6073	0.1493
296.8197	0.1613
297.0321	0.1697
297.2444	0.1521
297.4567	0.1569
297.6691	0.165
297.8814	0.1442
298.0937	0.1562
298.306	0.1725
298.5182	0.1632
298.7305	0.1655
298.9428	0.1679
299.155	0.1696
299.3672	0.1494
299.5794	0.153
299.7916	0.1621
300.0038	0.1587
300.216	0.1738
300.4282	0.1715
300.6403	0.1599
300.8525	0.1764
301.0646	0.1628
301.2767	0.1646
301.4888	0.1602
301.7009	0.16
301.913	0.1658
302.125	0.1657
302.3371	0.1557
302.5491	0.1622
302.7612	0.164
302.9732	0.1627
303.1852	0.1553
303.3972	0.156
303.6092	0.1462
303.8211	0.1524
304.0331	0.1521
304.245	0.1531
304.457	0.145
304.6689	0.1476
304.8808	0.1612
305.0927	0.1608
305.3046	0.1657
305.5164	0.1542
305.7283	0.1402
305.9401	0.1543
306.152	0.1517
306.3638	0.1628
306.5756	0.1521
306.7874	0.1487
306.9992	0.1602
307.2109	0.1367
307.4227	0.1352
307.6344	0.1381
307.8462	0.1396
308.0579	0.1368
308.2696	0.1444
308.4813	0.1297
308.693	0.1356
308.9046	0.1342
309.1163	0.1371
309.328	0.1278
309.5396	0.1251
309.7512	0.1284
309.9628	0.1263
310.1744	0.1249
310.386	0.1192
310.5976	0.1225
310.8091	0.1188
311.0207	0.1214
311.2322	0.1262
311.4437	0.1137
311.6552	0.1157
311.8667	0.1278
312.0782	0.1073
312.2897	0.1046
312.5012	0.1181
312.7126	0.1205
312.924	0.095
313.1355	0.1204
313.3469	0.112
313.5583	0.1116
313.7696	0.1014
313.981	0.1054
314.1924	0.0994
314.4037	0.1129
314.6151	0.1171
314.8264	0.0997
315.0377	0.0973
315.249	0.11
315.4603	0.1178
315.6716	0.1004
315.8828	0.1091
316.0941	0.1069
316.3053	0.0875
316.5165	0.0942
316.7277	0.0966
316.9389	0.1103
317.1501	0.0947
317.3613	0.1109
317.5724	0.0879
317.7836	0.11
317.9947	0.0976
318.2058	0.1004
318.417	0.1013
318.6281	0.0934
318.8391	0.1134
319.0502	0.0953
319.2613	0.1045
319.4723	0.1024
319.6834	0.1066
319.8944	0.0977
320.1054	0.1049
320.3164	0.1056
320.5274	0.1037
320.7383	0.0995
320.9493	0.0948
321.1602	0.1159
321.3712	0.1016
321.5821	0.1066
321.793	0.101
322.0039	0.0987
322.2148	0.0997
322.4257	0.0999
322.6365	0.1058
322.8474	0.112
323.0582	0.1115
323.269	0.1072
323.4798	0.1109
323.6906	0.1078
323.9014	0.1073
324.1122	0.1018
324.3229	0.0997
324.5337	0.0989
324.7444	0.0964
324.9551	0.1198
325.1658	0.1081
325.3765	0.1096
325.5872	0.1018
325.7979	0.1016
326.0085	0.1105
326.2192	0.1005
326.4298	0.1074
326.6404	0.1024
326.851	0.1024
327.0616	0.0926
327.2722	0.1036
327.4828	0.1093
327.6933	0.1085
327.9039	0.1048
328.1144	0.1217
328.3249	0.1076
328.5354	0.101
328.7459	0.108
328.9564	0.106
329.1669	0.1077
329.3773	0.1126
329.5878	0.1139
329.7982	0.1163
330.0086	0.1069
330.219	0.1052
330.4294	0.1146
330.6398	0.1163
330.8502	0.1036
331.0605	0.1117
331.2708	0.1111
331.4812	0.1225
331.6915	0.125
331.9018	0.1063
332.1121	0.1035
332.3224	0.1145
332.5326	0.1102
332.7429	0.1112
332.9531	0.1307
333.1633	0.1166
333.3735	0.1087
333.5837	0.118
333.7939	0.1142
334.0041	0.1157
334.2143	0.1084
334.4244	0.1118
334.6346	0.0877
334.8447	0.1306
335.0548	0.1046
335.2649	0.1011
335.475	0.1149
335.685	0.1162
335.8951	0.1135
336.1051	0.1191
336.3152	0.1213
336.5252	0.1169
336.7352	0.1205
336.9452	0.1165
337.1552	0.1134
337.3652	0.1219
337.5751	0.117
337.7851	0.1138
337.995	0.1045
338.2049	0.1199
338.4148	0.1142
338.6247	0.1171
338.8346	0.1209
339.0445	0.1175
339.2543	0.1118
339.4642	0.1128
339.674	0.1061
339.8838	0.1155
340.0936	0.1107
340.3034	0.1299
340.5132	0.125
340.7229	0.1195
340.9327	0.1168
341.1424	0.1165
341.3522	0.1333
341.5619	0.1207
341.7716	0.1305
341.9813	0.1168
342.1909	0.1206
342.4006	0.1444
342.6102	0.1279
342.8199	0.1314
343.0295	0.1296
343.2391	0.1297
343.4487	0.1219
343.6583	0.1213
343.8679	0.1391
344.0774	0.1404
344.287	0.1276
344.4965	0.1305
344.706	0.1294
344.9155	0.1173
345.125	0.1247
345.3345	0.1418
345.544	0.1436
345.7534	0.1324
345.9629	0.1264
346.1723	0.1284
346.3817	0.1282
346.5911	0.1374
346.8005	0.134
347.0099	0.1279
347.2193	0.1452
347.4286	0.1353
347.638	0.1372
347.8473	0.1442
348.0566	0.1413
348.2659	0.1419
348.4752	0.1377
348.6845	0.1404
348.8937	0.1234
349.103	0.1455
349.3122	0.1274
349.5214	0.1308
349.7306	0.1445
349.9398	0.142
350.149	0.1574
350.3582	0.1344
350.5674	0.1502
350.7765	0.1487
350.9856	0.1531
351.1948	0.1444
351.4039	0.1284
351.613	0.1352
351.822	0.1504
352.0311	0.15
352.2402	0.1373
352.4492	0.1471
352.6582	0.1392
352.8672	0.1464
353.0762	0.1528
353.2852	0.1467
353.4942	0.1296
353.7032	0.1589
353.9121	0.1504
354.1211	0.1444
354.33	0.1616
354.5389	0.1561
354.7478	0.1551
354.9567	0.1548
355.1655	0.1432
355.3744	0.156
355.5833	0.1446
355.7921	0.1811
356.0009	0.1708
356.2097	0.1713
356.4185	0.1575
356.6273	0.1611
356.8361	0.1613
357.0448	0.1563
357.2536	0.148
357.4623	0.1416
357.671	0.1634
357.8797	0.1799
358.0884	0.1443
358.2971	0.1643
358.5057	0.1577
358.7144	0.1739
358.923	0.1654
359.1316	0.1769
359.3402	0.1719
359.5488	0.1582
359.7574	0.1527
359.966	0.1825
360.1746	0.1743
360.3831	0.1781
360.5916	0.1705
360.8002	0.1661
361.0087	0.1847
361.2172	0.171
361.4256	0.1692
361.6341	0.1949
361.8426	0.1746
362.051	0.1826
362.2594	0.1855
362.4678	0.1738
362.6762	0.1929
362.8846	0.18
363.093	0.1745
363.3014	0.1676
363.5097	0.1758
363.718	0.1843
363.9264	0.1789
364.1347	0.1891
364.343	0.2023
364.5513	0.1921
364.7595	0.1961
364.9678	0.2065
365.176	0.1847
365.3842	0.2031
365.5925	0.1976
365.8007	0.1919
366.0089	0.1948
366.217	0.1819
366.4252	0.1997
366.6333	0.2077
366.8415	0.205
367.0496	0.185
367.2577	0.2069
367.4658	0.1947
367.6739	0.1933
367.882	0.2012
368.09	0.1927
368.2981	0.189
368.5061	0.2057
368.7141	0.2039
368.9221	0.2072
369.1301	0.1994
369.3381	0.2027
369.5461	0.2152
369.754	0.2006
369.962	0.225
370.1699	0.2174
370.3778	0.1981
370.5857	0.1933
370.7936	0.2025
371.0015	0.2158
371.2093	0.2113
371.4172	0.2222
371.625	0.209
371.8328	0.2284
372.0406	0.2072
372.2484	0.2205
372.4562	0.217
372.664	0.2107
372.8717	0.2354
373.0795	0.1892
373.2872	0.2293
373.4949	0.225
373.7026	0.2146
373.9103	0.2322
374.118	0.2091
374.3256	0.2085
374.5333	0.2373
374.7409	0.2292
374.9485	0.2477
375.1561	0.2295
375.3637	0.2224
375.5713	0.2392
375.7789	0.2328
375.9864	0.2095
376.194	0.2192
376.4015	0.2431
376.609	0.2317
376.8165	0.2284
377.024	0.2163
377.2315	0.2126
377.4389	0.2275
377.6464	0.2331
377.8538	0.2425
378.0612	0.2392
378.2686	0.2327
378.476	0.243
378.6834	0.2446
378.8908	0.2505
379.0981	0.2264
379.3055	0.2368
379.5128	0.2262
379.7201	0.224
379.9274	0.238
380.1347	0.2331
380.342	0.2441
380.5492	0.231
380.7565	0.2449
380.9637	0.2543
381.1709	0.2405
381.3781	0.2287
381.5853	0.2494
381.7925	0.2312
381.9997	0.2439
382.2068	0.2671
382.4139	0.2502
382.6211	0.2208
382.8282	0.2411
383.0353	0.2494
383.2424	0.238
383.4494	0.2437
383.6565	0.2398
383.8635	0.247
384.0706	0.2507
384.2776	0.2639
384.4846	0.2248
384.6916	0.2493
384.8986	0.2457
385.1055	0.2584
385.3125	0.2382
385.5194	0.23
385.7263	0.2693
385.9333	0.2452
386.1402	0.2449
386.347	0.2356
386.5539	0.2372
386.7608	0.2521
386.9676	0.2426
387.1744	0.2455
387.3813	0.2199
387.5881	0.2624
387.7948	0.2489
388.0016	0.2327
388.2084	0.2377
388.4151	0.2307
388.6219	0.2422
388.8286	0.2382
389.0353	0.259
389.242	0.2499
389.4487	0.2409
389.6553	0.2265
389.862	0.2114
390.0686	0.2227
390.2753	0.2468
390.4819	0.2342
390.6885	0.2235
390.8951	0.2357
391.1016	0.2305
391.3082	0.2237
391.5147	0.2391
391.7213	0.2308
391.9278	0.2156
392.1343	0.2167
392.3408	0.2382
392.5473	0.2208
392.7537	0.2351
392.9602	0.2105
393.1666	0.2093
393.373	0.2231
393.5794	0.2268
393.7858	0.2159
393.9922	0.2053
394.1986	0.2402
394.4049	0.2151
394.6113	0.1945
394.8176	0.1913
395.0239	0.2103
395.2302	0.2194
395.4365	0.1988
395.6428	0.2088
395.8491	0.2042
396.0553	0.2111
396.2615	0.2081
396.4678	0.2013
396.674	0.1952
396.8802	0.1951
397.0863	0.2251
397.2925	0.1987
397.4987	0.1966
397.7048	0.2149
397.9109	0.2169
398.117	0.19
398.3231	0.1873
398.5292	0.212
398.7353	0.2217
398.9413	0.1985
399.1474	0.2012
399.3534	0.2005
399.5594	0.1859
399.7654	0.2024
399.9714	0.2189
400.1774	0.1993
400.3833	0.1859
400.5893	0.2031
400.7952	0.213
401.0011	0.2022
401.207	0.2048
401.4129	0.1999
401.6188	0.2325
401.8247	0.2103
402.0305	0.1976
402.2364	0.2021
402.4422	0.2119
402.648	0.2066
402.8538	0.2114
403.0596	0.1726
403.2654	0.1994
403.4711	0.2051
403.6768	0.2041
403.8826	0.2052
404.0883	0.2103
404.294	0.205
404.4997	0.1959
404.7054	0.1978
404.911	0.1947
405.1167	0.1984
405.3223	0.2192
405.5279	0.2232
405.7335	0.2047
405.9391	0.2026
406.1447	0.1909
406.3502	0.2148
406.5558	0.1977
406.7613	0.207
406.9668	0.2014
407.1724	0.1906
407.3778	0.1778
407.5833	0.2101
407.7888	0.1878
407.9942	0.222
408.1997	0.1956
408.4051	0.1854
408.6105	0.2094
408.8159	0.1881
409.0213	0.1887
409.2267	0.2125
409.432	0.1884
409.6374	0.2127
409.8427	0.1932
410.048	0.1989
410.2533	0.1855
410.4586	0.2052
410.6639	0.1912
410.8691	0.1969
411.0744	0.1964
411.2796	0.1997
411.4848	0.1915
411.69	0.1685
411.8952	0.2202
412.1004	0.1917
412.3056	0.215
412.5107	0.1919
412.7158	0.221
412.921	0.1863
413.1261	0.1982
413.3312	0.1868
413.5362	0.1835
413.7413	0.1791
413.9464	0.2051
414.1514	0.1888
414.3564	0.2073
414.5614	0.1852
414.7664	0.2124
414.9714	0.1971
415.1764	0.1813
415.3813	0.2177
415.5863	0.1799
415.7912	0.1855
415.9961	0.1929
416.201	0.1752
416.4059	0.2124
416.6108	0.1818
416.8156	0.2
417.0205	0.183
417.2253	0.1751
417.4301	0.2012
417.6349	0.1884
417.8397	0.1953
418.0445	0.1833
418.2492	0.1848
418.454	0.1796
418.6587	0.2006
418.8634	0.1866
419.0681	0.1778
419.2728	0.1784
419.4775	0.182
419.6822	0.1864
419.8868	0.1779
420.0915	0.1678
420.2961	0.1771
420.5007	0.1836
420.7053	0.1801
420.9099	0.1842
421.1144	0.1799
421.319	0.172
421.5235	0.1776
421.728	0.1769
421.9325	0.1767
422.137	0.191
422.3415	0.1633
422.546	0.1757
422.7504	0.1813
422.9549	0.1796
423.1593	0.1611
423.3637	0.1789
423.5681	0.165
423.7725	0.1625
423.9769	0.1566
424.1812	0.1697
424.3856	0.1757
424.5899	0.1734
424.7942	0.162
424.9985	0.1749
425.2028	0.1719
425.4071	0.1888
425.6113	0.1637
425.8156	0.1671
426.0198	0.1723
426.224	0.1372
426.4282	0.1495
426.6324	0.1611
426.8366	0.1508
427.0407	0.1483
427.2449	0.1499
427.449	0.1494
427.6531	0.1387
427.8572	0.1403
428.0613	0.1611
428.2654	0.1493
428.4694	0.1398
428.6735	0.1403
428.8775	0.1674
429.0815	0.1415
429.2855	0.1284
429.4895	0.155
429.6935	0.1484
429.8975	0.134
430.1014	0.1353
430.3053	0.1265
430.5093	0.1396
430.7132	0.1309
430.9171	0.1282
431.1209	0.1404
431.3248	0.1231
431.5286	0.1453
431.7325	0.136
431.9363	0.1172
432.1401	0.1334
432.3439	0.1236
432.5477	0.0962
432.7514	0.1131
432.9552	0.118
433.1589	0.1134
433.3627	0.1074
433.5664	0.1252
433.7701	0.1073
433.9737	0.0928
434.1774	0.1077
434.3811	0.1049
434.5847	0.1252
434.7883	0.1123
434.9919	0.1143
435.1955	0.1134
435.3991	0.0936
435.6027	0.1082
435.8062	0.1019
436.0098	0.0904
436.2133	0.1093
436.4168	0.0914
436.6203	0.0995
436.8238	0.0947
437.0272	0.083
437.2307	0.0986
437.4341	0.0904
437.6375	0.0817
437.841	0.0904
438.0443	0.0959
438.2477	0.0858
438.4511	0.0772
438.6545	0.0596
438.8578	0.0827
439.0611	0.0762
439.2644	0.076
439.4677	0.0783
439.671	0.0585
439.8743	0.0784
440.0775	0.0692
440.2808	0.0614
440.484	0.0586
440.6872	0.0719
440.8904	0.0759
441.0936	0.0858
441.2967	0.0681
441.4999	0.0692
441.703	0.054
441.9062	0.0613
442.1093	0.0595
442.3124	0.0651
442.5155	0.0571
442.7185	0.0648
442.9216	0.0318
443.1246	0.0762
443.3276	0.0752
443.5307	0.0463
443.7337	0.062
443.9366	0.0591
444.1396	0.0634
444.3426	0.0353
444.5455	0.054
444.7484	0.0199
444.9513	0.048
445.1542	0.0603
445.3571	0.0346
445.56	0.0541
445.7628	0.0347
445.9657	0.034
446.1685	0.0568
446.3713	0.0513
446.5741	0.0407
446.7769	0.0241
446.9797	0.0333
447.1824	0.0513
447.3852	0.0342
447.5879	0.0388
447.7906	0.0365
447.9933	0.0358
448.196	0.032
448.3986	0.0386
448.6013	0.0303
448.8039	0.0077
449.0066	0.0276
449.2092	0.0353
449.4118	0.0364
449.6143	0.0403
449.8169	0.0291
450.0195	0.0361
450.222	0.0111
450.4245	0.0255
450.627	0.0307
450.8295	0.0254
451.032	0.0166
451.2345	0.0164
451.4369	0.0179
451.6394	0.0301
451.8418	0.0029
452.0442	0.012
452.2466	0.0391
452.449	-0.0057
452.6513	0.0233
452.8537	0.0116
453.056	0.01
453.2583	0.023
453.4607	0.0188
453.663	0.0216
453.8652	0.021
454.0675	0.0211
454.2697	0.0198
454.472	-0.0022
454.6742	0.0179
454.8764	0.0027
455.0786	0.0121
455.2808	0.0125
455.4829	0.0165
455.6851	0.0123
455.8872	0.0256
456.0893	0.0148
456.2915	0.0035
456.4935	0.0181
456.6956	0.0018
456.8977	0.0094
457.0997	0.0154
457.3018	-0.0049
457.5038	0.0207
457.7058	0.0057
457.9078	0.0024
458.1098	-0.0009
458.3117	0.0069
458.5137	0.0081
458.7156	0.0155
458.9175	-0.0056
459.1194	0.0111
459.3213	0.0153
459.5232	0.0021
459.725	-0.0041
459.9269	0.0017
460.1287	-0.0065
460.3305	-0.0001
460.5323	0.0081
460.7341	0.0159
460.9359	-0.0001
461.1376	0.0089
461.3394	-0.0077
461.5411	0.0006
461.7428	0.0022
461.9445	0.0016
462.1462	0.0161
462.3479	0.003
462.5495	0.002
462.7512	0.0146
462.9528	-0.0056
463.1544	-0.0152
463.356	0.0056
463.5576	0.0129
463.7592	-0.0007
463.9607	0.0047
464.1623	0.0016
464.3638	0.0162
464.5653	-0.0102
464.7668	0.0083
464.9683	0.0107
465.1697	0.0169
465.3712	-0.0047
465.5726	-0.0132
465.7741	0.004
465.9755	-0.0073
466.1769	0.0005
466.3782	-0.0085
466.5796	-0.0057
466.7809	0.014
466.9823	-0.0028
467.1836	-0.0032
467.3849	-0.0007
467.5862	0.0084
467.7875	0.0017
467.9887	0.0134
468.19	-0.0037
468.3912	-0.0128
468.5924	-0.0098
468.7936	-0.0056
468.9948	-0.0084
469.196	-0.0076
469.3972	-0.0096
469.5983	-0.0036
469.7994	-0.0221
470.0006	-0.0221
470.2017	-0.0051
470.4027	-0.0121
470.6038	-0.0029
470.8049	-0.0257
471.0059	-0.0163
471.2069	-0.0106
471.408	0.0065
471.6089	0.0125
471.8099	-0.0047
472.0109	0.0098
472.2119	-0.0037
472.4128	-0.0177
472.6137	-0.0119
472.8146	-0.0115
473.0155	-0.0181
473.2164	-0.013
473.4173	0.0023
473.6181	-0.0025
473.819	0.0091
474.0198	-0.0091
474.2206	-0.0068
474.4214	-0.0135
474.6222	0.0002
474.8229	0.0009
475.0237	-0.0135
475.2244	-0.0135
475.4251	-0.0034
475.6258	0.0027
475.8265	-0.0068
476.0272	0.0126
476.2278	-0.0027
476.4285	-0.0027
476.6291	-0.0187
476.8297	-0.0121
477.0303	0.0042
477.2309	0.0048
477.4315	-0.0139
477.632	-0.0119
477.8326	-0.0051
478.0331	0.0032
478.2336	0.0101
478.4341	-0.0073
478.6346	-0.0134
478.8351	0.0033
479.0355	-0.0014
479.236	-0.0115
479.4364	0.005
479.6368	-0.0091
479.8372	-0.016
480.0376	0.0043
480.2379	-0.0186
480.4383	-0.0206
480.6386	0.0076
480.8389	-0.007
481.0392	-0.0136
481.2395	-0.0188
481.4398	-0.0032
481.6401	0.0059
481.8403	-0.0148
482.0405	-0.0067
482.2408	-0.0058
482.441	0.0064
482.6411	-0.0019
482.8413	-0.0124
483.0415	-0.0141
483.2416	-0.0253
483.4417	-0.0075
483.6419	-0.011
483.8419	0.0016
484.042	0.0117
484.2421	0.0036
484.4422	-0.0057
484.6422	-0.0098
484.8422	-0.0063
485.0422	-0.0121
485.2422	-0.0024
485.4422	-0.0104
485.6422	-0.0117
485.8421	-0.0126
486.042	-0.0085
486.242	-0.0105
486.4419	-0.0027
486.6417	-0.005
486.8416	-0.0039
487.0415	-0.0067
487.2413	-0.0123
487.4411	-0.0063
487.641	-0.0131
487.8408	0.0073
488.0405	-0.0102
488.2403	-0.0026
488.4401	0.0022
488.6398	0.0007
488.8395	-0.0124
489.0392	0.0023
489.2389	-0.0109
489.4386	-0.0015
489.6383	-0.0119
489.8379	0.0002
490.0376	-0.012
490.2372	-0.0198
490.4368	-0.0112
490.6364	-0.0087
490.836	-0.0104
491.0355	-0.0039
491.2351	-0.0059
491.4346	0.0009
491.6341	-0.0106
491.8336	-0.0087
492.0331	-0.0221
492.2326	-0.0137
492.432	-0.0096
492.6315	-0.0046
492.8309	-0.0061
493.0303	-0.0185
493.2297	-0.0012
493.4291	-0.0103
493.6284	-0.012
493.8278	-0.0048
494.0271	0.0067
494.2264	0.0087
494.4257	-0.0179
494.625	-0.001
494.8243	-0.0236
495.0236	-0.0269
495.2228	-0.0193
495.422	-0.0074
495.6213	-0.0109
495.8205	-0.0103
496.0196	-0.0143
496.2188	-0.003
496.418	-0.0129
496.6171	-0.0082
496.8162	-0.0099
497.0153	-0.0056
497.2144	-0.0177
497.4135	-0.013
497.6126	-0.0175
497.8116	-0.0224
498.0107	-0.0084
498.2097	-0.0237
498.4087	-0.015
498.6077	-0.0006
498.8067	-0.0107
499.0056	-0.0045
499.2046	-0.0088
499.4035	-0.0146
499.6024	-0.0054
499.8013	-0.0118
500.0002	-0.0171
500.199	-0.0033
500.3979	-0.0159
500.5967	-0.0295
500.7956	-0.0121
500.9944	-0.0141
501.1932	-0.0114
501.3919	-0.0074
501.5907	-0.0145
501.7895	-0.0067
501.9882	-0.0124
502.1869	-0.0127
502.3856	-0.0095
502.5843	-0.0122
502.783	-0.0023
502.9816	-0.0059
503.1803	-0.0221
503.3789	-0.0141
503.5775	-0.0039
503.7761	-0.0069
503.9747	-0.0092
504.1732	-0.0149
504.3718	-0.0045
504.5703	-0.0163
504.7689	-0.0166
504.9674	-0.0118
505.1658	-0.0176
505.3643	-0.0037
505.5628	-0.0161
505.7612	-0.0212
505.9597	-0.0019
506.1581	-0.0145
506.3565	-0.0017
506.5549	-0.0082
506.7532	-0.0233
506.9516	-0.0092
507.1499	-0.0107
507.3482	-0.0162
507.5465	-0.0025
507.7448	-0.01
507.9431	-0.0091
508.1414	-0.009
508.3396	-0.0085
508.5379	-0.0048
508.7361	-0.0168
508.9343	-0.0108
509.1325	-0.0027
509.3306	-0.0044
509.5288	-0.0123
509.7269	-0.0109
509.9251	-0.0103
510.1232	-0.0183
510.3213	-0.0062
510.5193	-0.0032
510.7174	-0.0066
510.9154	-0.0174
511.1135	-0.0139
511.3115	-0.0156
511.5095	-0.0064
511.7075	-0.0017
511.9055	-0.0008
512.1034	-0.0192
512.3014	-0.0047
512.4993	-0.0044
512.6972	-0.0133
512.8951	-0.0078
513.093	-0.0005
513.2908	-0.0085
513.4887	-0.0093
513.6865	-0.0056
513.8844	-0.0065
514.0822	-0.0103
514.2799	-0.0211
514.4777	-0.0168
514.6755	-0.0068
514.8732	-0.0131
515.0709	-0.0147
515.2687	-0.0151
515.4664	-0.0166
515.664	-0.0115
515.8617	-0.0174
516.0594	-0.0143
516.257	-0.0123
516.4546	-0.0231
516.6522	-0.0058
516.8498	-0.0092
517.0474	-0.0027
517.2449	-0.0022
517.4425	-0.0124
517.64	-0.0093
517.8375	-0.0005
518.035	-0.0081
518.2325	-0.014
518.43	-0.0116
518.6274	-0.0199
518.8249	-0.0245
519.0223	0.0085
519.2197	-0.0123
519.4171	-0.0116
519.6145	-0.0136
519.8118	-0.0023
520.0092	-0.0078
520.2065	-0.0118
520.4038	-0.0094
520.6011	-0.0097
520.7984	-0.0085
520.9956	-0.0259
521.1929	-0.0075
521.3901	-0.0077
521.5874	-0.0149
521.7846	-0
521.9818	-0.02
522.1789	-0.0032
522.3761	-0.0185
522.5732	-0.0094
522.7704	-0.0122
522.9675	-0.012
523.1646	-0.015
523.3617	-0.0065
523.5587	-0.0018
523.7558	-0.0091
523.9528	-0.0109
524.1498	-0.0116
524.3468	-0.0088
524.5438	-0.0165
524.7408	-0.0104
524.9378	-0.0063
525.1347	-0.0103
525.3316	0.002
525.5285	-0.0141
525.7254	-0.0096
525.9223	0.0007
526.1192	-0.0109
526.316	-0.0157
526.5129	-0.0004
526.7097	0.004
526.9065	-0.0112
527.1033	-0.0125
527.3	-0.0039
527.4968	-0.0109
527.6935	-0.0115
527.8903	-0.0054
528.087	-0.0099
528.2837	-0.0049
528.4804	-0.0083
528.677	-0.0069
528.8737	-0.0014
529.0703	-0.0081
529.2669	-0.0024
529.4635	-0.0069
529.6601	-0.0007
529.8567	-0.001
530.0532	-0.0102
530.2498	-0.0007
530.4463	0.0073
530.6428	-0.0002
530.8393	-0.001
531.0358	-0.0026
531.2322	0.0001
531.4287	-0.007
531.6251	-0.0052
531.8215	-0.0031
532.0179	0.0087
532.2143	-0.0025
532.4107	-0.0077
532.607	0.0014
532.8034	-0.0034
532.9997	-0.0067
533.196	-0.0145
533.3923	-0.0048
533.5886	0.0043
533.7848	-0.0048
533.9811	-0.0048
534.1773	0.0016
534.3735	0.0035
534.5697	-0.0032
534.7659	-0.0066
534.9621	-0
535.1582	-0.0173
535.3544	-0.0098
535.5505	-0.0152
535.7466	-0.0023
535.9427	-0.0053
536.1387	-0.0155
536.3348	-0.0094
536.5308	-0.004
536.7269	-0.0119
536.9229	0.0021
537.1189	-0.0041
537.3148	-0.0068
537.5108	-0.0118
537.7068	-0.0142
537.9027	-0.0053
538.0986	-0.0091
538.2945	-0.01
538.4904	-0.0074
538.6863	-0.0094
538.8821	-0.0056
539.078	-0.0091
539.2738	-0.0017
539.4696	-0.0132
539.6654	0.0018
539.8611	0.0089
540.0569	-0.004
540.2526	-0.0074
540.4484	-0.0053
540.6441	0.0008
540.8398	-0.0075
541.0355	-0.0037
541.2311	-0.0007
541.4268	-0.0152
541.6224	-0.0037
541.818	-0.0042
542.0136	-0.0039
542.2092	0.0012
542.4048	0.0025
542.6003	-0.0004
542.7959	-0.0056
542.9914	0.0003
543.1869	-0.0047
543.3824	-0.0049
543.5779	-0.006
543.7734	-0.0035
543.9688	-0.015
544.1642	-0.0011
544.3596	-0.0075
544.555	-0.0036
544.7504	-0.0071
544.9458	-0.0059
545.1411	-0.0063
545.3365	-0.0067
545.5318	-0.0109
545.7271	0.0043
545.9224	-0.0028
546.1177	-0.0055
546.3129	0.0065
546.5081	-0.0083
546.7034	-0.0078
546.8986	-0.0057
547.0938	-0.0073
547.289	-0.0065
547.4841	-0.008
547.6793	0.0068
547.8744	-0.0085
548.0695	-0.0039
548.2646	-0.0012
548.4597	-0.0067
548.6548	-0.0003
548.8498	0.0033
549.0448	0.0085
549.2399	0.0046
549.4349	0.0078
549.6298	-0.0033
549.8248	-0.0002
550.0198	-0.0038
550.2147	-0.0034
550.4096	-0.0109
550.6045	-0.0051
550.7994	0.0061
550.9943	-0.001
551.1892	-0.0054
551.384	0.0043
551.5788	-0.015
551.7737	0.0039
551.9685	-0.0057
552.1632	0.0009
552.358	0.0018
552.5528	-0.0024
552.7475	-0.0004
552.9422	0.0038
553.1369	-0.0001
553.3316	-0.0001
553.5263	-0.0069
553.7209	0.0027
553.9156	-0.0054
554.1102	-0.0103
554.3048	-0.0038
554.4994	0.0068
554.694	-0.0004
554.8885	-0.0009
555.0831	-0.0062
555.2776	-0.0066
555.4721	0.0081
555.6666	-0.003
555.8611	0.0028
556.0555	0.0011
556.25	0.0067
556.4444	-0.0201
556.6388	0.002
556.8332	-0.0122
557.0276	-0.007
557.222	-0.007
557.4163	0.0059
557.6107	-0.0095
557.805	0.0073
557.9993	-0.0062
558.1936	0.0057
558.3879	-0.0041
558.5821	-0.0064
558.7764	-0.0055
558.9706	0.0006
559.1648	0.0021
559.359	-0.0084
559.5532	-0.0065
559.7473	-0.007
559.9415	0.0012
560.1356	-0.0052
560.3297	-0.0106
560.5238	-0.0042
560.7179	-0.0063
560.9119	-0.0084
561.106	-0.0023
561.3	0.0039
561.494	-0.0083
561.688	-0.0064
561.882	-0.0064
562.076	-0.015
562.2699	-0.0001
562.4639	-0.0043
562.6578	0.005
562.8517	0.0024
563.0456	0.0125
563.2395	0.0079
563.4333	0.0002
563.6272	0.0091
563.821	-0.0023
564.0148	0.0043
564.2086	-0.0103
564.4024	-0.0011
564.5961	-0.0045
564.7899	0.0027
564.9836	-0.0029
565.1773	0.0075
565.371	0.0116
565.5647	0.0042
565.7584	-0.002
565.952	-0.0069
566.1456	-0.0081
566.3393	0.0035
566.5329	-0.0036
566.7264	0.004
566.92	-0.0079
567.1136	0.0022
567.3071	-0.0087
567.5006	0.0004
567.6941	0.0027
567.8876	-0.006
568.0811	0.002
568.2745	0.0029
568.468	0.0024
568.6614	-0.0036
568.8548	-0.0003
569.0482	-0.0001
569.2416	-0.002
569.4349	-0.0056
569.6283	0.004
569.8216	-0.0048
570.0149	-0.0096
570.2082	0.0054
570.4015	0.0042
570.5947	0.0059
570.788	0.0045
570.9812	-0.0001
571.1744	-0.0048
571.3676	-0.0075
571.5608	-0.0035
571.754	0.0003
571.9471	0.0034
572.1402	-0.0006
572.3333	-0.008
572.5264	0.004
572.7195	-0.0028
572.9126	0.0047
573.1057	0.0012
573.2987	-0.0092
573.4917	0.0033
573.6847	-0.0107
573.8777	-0.0005
574.0707	0.0019
574.2636	-0.0023
574.4566	-0.0017
574.6495	0.0048
574.8424	-0.0013
575.0353	-0.0009
575.2281	0.0046
575.421	-0.0034
575.6138	0.0092
575.8067	-0.0031
575.9995	0.0046
576.1923	0.0047
576.385	0.0014
576.5778	-0.004
576.7706	-0.0069
576.9633	0.006
577.156	0.0018
577.3487	0.0025
577.5414	-0.0024
577.734	-0.0072
577.9267	-0.0002
578.1193	-0.0131
578.3119	-0.0105
578.5045	-0.002
578.6971	-0.0021
578.8897	0.001
579.0822	0.001
579.2747	-0.0019
579.4673	0.0041
579.6598	-0.0061
579.8522	-0.0039
580.0447	-0.004
580.2372	-0.0048
580.4296	-0.0026
580.622	-0.0016
580.8144	-0.0023
581.0068	-0.0036
581.1992	-0.0171
581.3915	-0.0061
581.5839	-0.0097
581.7762	-0.0051
581.9685	-0.001
582.1608	0.0018
582.353	-0.0001
582.5453	-0.0065
582.7375	-0.0035
582.9298	0.0011
583.122	0.0004
583.3142	-0.0022
583.5063	-0.0035
583.6985	-0.002
583.8906	-0.0012
584.0827	-0.0064
584.2749	0.0023
584.4669	0.0008
584.659	-0.0006
584.8511	-0.0075
585.0431	-0.0045
585.2352	-0.0026
585.4272	-0.0042
585.6192	0.0023
585.8111	0.0031
586.0031	-0.0024
586.195	-0.0068
586.387	0.005
586.5789	-0
586.7708	0.0035
586.9627	-0.0003
587.1545	-0.0031
587.3464	-0.0016
587.5382	0.0056
587.73	0.0005
587.9218	0.0034
588.1136	0.0017
588.3053	-0.0042
588.4971	-0.0038
588.6888	-0.0082
588.8805	-0.0026
589.0722	0.0057
589.2639	-0.0028
589.4556	0.001
589.6472	-0.0027
589.8389	-0.008
590.0305	-0.0142
590.2221	0.0018
590.4137	-0.0132
590.6052	0.0042
590.7968	-0.0046
590.9883	0.0014
591.1798	-0.0012
591.3713	-0.0024
591.5628	0.0061
591.7543	0.0058
591.9458	0.0062
592.1372	0.0045
592.3286	0.0057
592.52	0.0099
592.7114	-0.006
592.9028	-0.0043
593.0941	-0.0034
593.2855	-0.002
593.4768	-0.0012
593.6681	0.0003
593.8594	-0.012
594.0506	-0.0027
594.2419	0.0015
594.4331	-0.0023
594.6244	-0.0002
594.8156	-0.0127
595.0067	0.0014
595.1979	0.0033
595.3891	0.0001
595.5802	-0.0086
595.7713	-0.0013
595.9624	-0.0062
596.1535	0.0037
596.3446	0.0072
596.5357	-0.0049
596.7267	0.01
596.9177	-0.0016
597.1087	-0.0031
597.2997	-0.0033
597.4907	0.0014
597.6817	0.0013
597.8726	-0.0013
598.0635	0.002
598.2544	0.004
598.4453	-0.0057
598.6362	-0.0028
598.827	-0.0018
599.0179	0.0061
599.2087	0.0059
599.3995	0.0043
599.5903	0.0011
599.7811	0.0009
599.9718	0.0023
600.1626	-0.0027
600.3533	-0.0061
600.544	0.0034
600.7347	0.0001
600.9254	-0.0001
601.116	-0.0079
601.3067	0.0036
601.4973	-0.0045
601.6879	0.0026
601.8785	-0.0019
602.0691	0.0059
602.2596	0.0034
602.4502	0.0094
602.6407	-0.0005
602.8312	-0.0019
603.0217	0.0008
603.2122	0.0029
603.4027	-0.0027
603.5931	-0.0004
603.7835	-0.0021
603.9739	-0.002
604.1643	-0.0019
604.3547	-0.001
604.5451	-0.0005
604.7354	-0.0005
604.9257	0.0004
605.116	-0.0003
605.3063	0.0065
605.4966	0.0036
605.6869	0.0093
605.8771	0.0031
606.0673	0.0067
606.2575	0.0073
606.4477	0.0093
606.6379	-0.0005
606.8281	-0.0022
607.0182	-0.0071
607.2083	0.0101
607.3985	-0.0027
607.5885	-0.0043
607.7786	-0.0023
607.9687	-0.0068
608.1587	0.0027
608.3488	0.0007
608.5388	0.0019
608.7288	-0.005
608.9187	-0.0047
609.1087	-0.0061
609.2986	-0.0057
609.4886	0.0013
609.6785	0.0042
609.8684	0.0058
610.0582	0.0058
610.2481	-0.0038
610.4379	0.0026
610.6278	-0.0022
610.8176	-0.0081
611.0074	-0.0041
611.1971	-0.0026
611.3869	0.0005
611.5766	-0.0029
611.7664	0.0021
611.9561	0.0024
612.1458	-0.002
612.3354	-0.0058
612.5251	-0.0003
612.7147	0.0036
612.9044	0.0083
613.094	-0.0111
613.2836	-0.0015
613.4731	0.0009
613.6627	-0.0071
613.8522	0.0082
614.0417	0.0013
614.2313	-0.0045
614.4207	-0.0084
614.6102	0.0038
614.7997	-0.0066
614.9891	-0.0127
615.1785	0.0008
615.3679	-0.0116
615.5573	0.0048
615.7467	-0.0016
615.9361	-0.0074
616.1254	-0.0028
616.3147	0.0009
616.504	-0.0027
616.6933	0.0049
616.8826	0.0026
617.0718	-0.0031
617.2611	0.0004
617.4503	-0.0034
617.6395	-0.0006
617.8287	-0.0023
618.0179	-0.0001
618.207	0.0057
618.3961	0.0017
618.5853	0.0003
618.7744	0.0016
618.9634	0.0026
619.1525	-0.0008
619.3416	0.0032
619.5306	0.0055
619.7196	-0.0011
619.9086	-0.0026
620.0976	0.0027
620.2866	-0.005
620.4755	-0.0005
620.6645	-0.0027
620.8534	0.0072
621.0423	0.0051
621.2312	0.0097
621.42	-0.0006
621.6089	0.0003
621.7977	-0.002
621.9865	-0.0075
622.1753	0.0032
622.3641	0.0009
622.5529	0.0017
622.7416	0.009
622.9303	-0.0062
623.1191	0.0065
623.3078	0.0012
623.4964	0.0052
623.6851	-0.0028
623.8737	-0.0055
624.0624	0.0086
624.251	-0.0031
624.4396	-0.0012
624.6282	0.0003
624.8167	-0.0037
625.0053	0.0017
625.1938	0.0062
625.3823	0.0026
625.5708	0.0032
625.7593	-0.0024
625.9477	0.0013
626.1362	-0.0019
626.3246	0.0008
626.513	0.0104
626.7014	0.0108
626.8898	0.0049
627.0781	0.0013
627.2665	-0.0019
627.4548	0.0116
627.6431	0.0012
627.8314	0.0068
628.0197	0.0058
628.2079	-0.006
628.3962	0.0041
628.5844	0.0083
628.7726	0.0084
628.9608	0.0088
629.1489	0.0062
629.3371	0.0045
629.5252	0.0071
629.7134	0.0133
629.9015	0.0007
630.0895	0.0038
630.2776	0.0034
630.4657	0.0075
630.6537	0.0009
630.8417	-0.0001
631.0297	-0.0045
631.2177	-0.0027
631.4057	-0.0039
631.5936	0.0017
631.7815	0.005
631.9695	0.005
632.1574	0.0101
632.3452	0.0113
632.5331	-0.0022
632.7209	0.0049
632.9088	0.0137
633.0966	0.0089
633.2844	-0.0051
633.4722	0.0048
633.6599	0.0138
633.8477	0.0084
634.0354	0
634.2231	-0.0006
634.4108	0.0101
634.5985	0.005
634.7861	0.0057
634.9738	-0.002
635.1614	0.0008
635.349	-0.0001
635.5366	-0.0097
635.7242	-0.0046
635.9117	0.0014
636.0993	-0.0031
636.2868	-0.0002
636.4743	-0.0039
636.6618	0.0133
636.8492	0.0011
637.0367	-0.0011
637.2241	-0.001
637.4115	-0.0025
637.5989	-0.0039
637.7863	0.001
637.9737	0.0007
638.161	-0.0047
638.3484	-0.0039
638.5357	0.0058
638.723	0.0023
638.9103	0.0064
639.0975	0.0053
639.2848	0.0118
639.472	0.0033
639.6592	0.007
639.8464	0.0079
640.0336	0.0093
640.2208	0.0019
640.4079	0.0005
640.595	0.0046
640.7821	0.0033
640.9692	0.0039
641.1563	0.0056
641.3434	0.0056
641.5304	-0.0032
641.7174	0.0025
641.9044	0.0004
642.0914	0.0018
642.2784	0.0115
642.4653	0.0114
642.6523	0.0071
642.8392	0.0062
643.0261	0.0059
643.213	0.0079
643.3999	0.0066
643.5867	0.0041
643.7735	0.0048
643.9604	-0.0021
644.1472	0.0049
644.3339	0.0111
644.5207	0.0043
644.7075	-0.0008
644.8942	0.0031
645.0809	0.0082
645.2676	0.0058
645.4543	-0.0014
645.6409	0.0077
645.8276	0.004
646.0142	-0.0006
646.2008	0
646.3874	0.0057
646.574	0.0095
646.7605	-0.0049
646.9471	-0.0063
647.1336	0.0076
647.3201	0.0073
647.5066	-0.0054
647.6931	0.0069
647.8795	0.0037
648.0659	0.0065
648.2524	0.0072
648.4388	-0.0029
648.6252	-0.0005
648.8115	0.0016
648.9979	-0.0022
649.1842	0.0041
649.3705	0.0073
649.5568	0.0036
649.7431	0.0103
649.9294	-0.0046
650.1156	0.0057
650.3018	-0.0026
650.488	0.0013
650.6742	0.0062
650.8604	0.0081
651.0466	-0.0083
651.2327	0.0037
651.4188	0.0003
651.6049	0.0045
651.791	-0.0003
651.9771	0.0033
652.1632	0.0075
652.3492	-0.0011
652.5352	0.0084
652.7212	-0.0028
652.9072	0.0124
653.0932	-0.0054
653.2791	-0.0049
653.465	0.0068
653.651	-0.005
653.8369	0.0036
654.0227	0.0067
654.2086	-0.0022
654.3944	0.011
654.5803	0.0062
654.7661	0.0018
654.9519	0.0025
655.1377	0.0014
655.3234	-0.0003
655.5092	-0.003
655.6949	-0.0036
655.8806	-0.0044
656.0663	-0.0002
656.2519	-0.0046
656.4376	-0.0016
656.6232	0.0076
656.8088	-0.0025
656.9945	0.0062
657.18	0.0062
657.3656	0.0065
657.5511	-0.0043
657.7367	-0.005
657.9222	0.0018
658.1077	0.004
658.2932	0.0071
658.4786	-0.0013
658.6641	-0.0045
658.8495	0.0052
659.0349	-0.0004
659.2203	0.009
659.4057	0.0074
659.591	0.0028
659.7764	0.0051
659.9617	0.0055
660.147	0.0046
660.3323	0.0079
660.5176	0.0154
660.7028	0.0041
660.888	0.0003
661.0733	0.0096
661.2585	-0.0005
661.4436	0.0066
661.6288	-0.0035
661.8139	0.0023
661.9991	0.0141
662.1842	-0.0013
662.3693	0.0087
662.5544	0.0042
662.7394	0.0006
662.9245	-0.0006
663.1095	0.001
663.2945	-0
663.4795	-0.0046
663.6644	0.0011
663.8494	0.0068
664.0343	0.0008
664.2193	-0.0134
664.4042	-0.0045
664.589	-0.0034
664.7739	-0.0029
664.9587	-0.0053
665.1436	0.0041
665.3284	0.0035
665.5132	0.0021
665.698	0.006
665.8827	0.0053
666.0675	-0.0063
666.2522	-0.0073
666.4369	0.0029
666.6216	0.008
666.8063	0.0022
666.9909	0.0057
667.1756	-0.0023
667.3602	0.0029
667.5448	0.0013
667.7294	0.0049
667.9139	0.0072
668.0985	0.0121
668.283	-0.0014
668.4675	0.0027
668.652	0.003
668.8365	-0.003
669.0209	0.0137
669.2054	0.0111
669.3898	-0.002
669.5742	0.0072
669.7586	0.0098
669.943	0.0121
670.1273	0.0126
670.3117	0.0056
670.496	0.0109
670.6803	0.0112
670.8646	0.0099
671.0488	0.0023
671.2331	0.0055
671.4173	0.0077
671.6015	0.0017
671.7857	0.0096
671.9699	0.0039
672.1541	0.0102
672.3382	0.005
672.5223	0.0084
672.7064	0.0123
672.8905	0.0092
673.0746	0.0079
673.2587	0.0055
673.4427	0.0123
673.6267	0.0136
673.8107	0.0131
673.9947	0.005
674.1787	0.0011
674.3626	-0.0001
674.5465	0.0196
674.7304	0.0109
674.9143	0.0059
675.0982	0.0131
675.2821	0.0035
675.4659	0.0068
675.6497	0.0062
675.8335	0.0054
676.0173	0.0076
676.2011	0.0036
676.3849	0.0087
676.5686	-0.0037
676.7523	0.0027
676.936	-0.0014
677.1197	0.0011
677.3034	-0.0053
677.487	0.0067
677.6706	0.0081
677.8542	0.0084
678.0378	0.0091
678.2214	0.0087
678.405	0.0034
678.5885	-0.0004
678.772	0.0083
678.9555	0.0042
679.139	0.006
679.3225	0.0098
679.5059	0.0049
679.6894	0.0102
679.8728	0.0002
680.0562	-0.0078
680.2395	-0.0069
680.4229	-0.0043
680.6062	0.0046
680.7896	0.0024
680.9729	0.002
681.1562	0.0053
681.3394	0.009
681.5227	-0.0058
681.7059	-0.0026
681.8891	0.0013
682.0723	0.0105
682.2555	0.009
682.4387	0.0021
682.6218	-0.0007
682.805	0.008
682.9881	0.0037
683.1712	-0.0011
683.3542	-0.0013
683.5373	0.0051
683.7203	-0.0011
683.9034	0.0053
684.0864	-0.0029
684.2694	0.0087
684.4523	0.0043
684.6353	0.0008
684.8182	0.0036
685.0011	-0.0031
685.184	0.0026
685.3669	0.006
685.5498	0.0096
685.7326	0.0035
685.9154	-0.0001
686.0982	0.0076
686.281	0.0076
686.4638	0.0093
686.6465	0.006
686.8293	-0.0007
687.012	0.0082
687.1947	-0.0028
687.3774	0.0031
687.56	-0.0034
687.7427	0.0051
687.9253	0.0032
688.1079	-0.0032
688.2905	0.0104
688.4731	-0.0089
688.6556	0.0045
688.8382	0.0032
689.0207	0.0018
689.2032	-0.0063
689.3857	0.0011
689.5681	0.0015
689.7506	-0.0049
689.933	-0.0012
690.1154	0.0009
690.2978	0.0002
690.4802	0.0014
690.6626	-0.0004
690.8449	-0.003
691.0272	0.01
691.2095	0.0008
691.3918	-0.0038
691.5741	0.0001
691.7563	-0.0025
691.9386	-0.0012
692.1208	-0.0012
692.303	0.0008
692.4852	0.0048
692.6673	-0.0011
692.8495	0.0017
693.0316	0.0057
693.2137	0
693.3958	0.0016
693.5778	0.0067
693.7599	0.0085
693.9419	-0.0004
694.1239	0.0048
694.3059	0.0013
694.4879	0.0106
694.6699	0.0061
694.8518	0.0049
695.0337	-0.0054
695.2157	0.006
695.3975	-0.0015
695.5794	-0.0026
695.7613	0.0052
695.9431	-0.0022
696.1249	-0.0006
696.3067	0.0052
696.4885	0.0069
696.6703	-0.0084
696.852	0.0105
697.0337	0.0021
697.2154	0.0065
697.3971	-0.0013
697.5788	0.0058
697.7605	0.0057
697.9421	0.0091
698.1237	0.0024
698.3053	0.0042
698.4869	-0.0009
698.6685	-0.005
698.85	0.0046
699.0315	0.0086
699.213	0.0041
699.3945	0.0095
699.576	0.0063
699.7575	0.0056
699.9389	0.008
700.1203	-0.0045
700.3017	-0.0064
700.4831	-0.0066
700.6645	-0.0086
700.8458	-0.0017
701.0271	-0.0078
701.2084	0.0029
701.3897	-0.0014
701.571	0.0048
701.7523	-0.0056
701.9335	-0.0026
702.1147	-0.0025
702.2959	0.0021
702.4771	0.0044
702.6583	0.0037
702.8394	-0.0075
703.0205	0.01
703.2016	-0.0059
703.3827	-0.0027
703.5638	0.0068
703.7449	-0.0005
703.9259	0.0153
704.1069	0.0019
704.2879	0.0082
704.4689	0.0043
704.6499	0.0008
704.8308	0.004
705.0117	0.0014
705.1927	0.0048
705.3735	-0.0094
705.5544	-0.0036
705.7353	-0.0049
705.9161	-0.0061
706.0969	-0.0043
706.2777	-0.0009
706.4585	0.0013
706.6393	0.0032
706.82	-0.002
707.0007	-0.0033
707.1815	0.0079
707.3621	0.0101
707.5428	0.0013
707.7235	0.0064
707.9041	0.0149
708.0847	-0.0088
708.2653	0.0026
708.4459	-0.0155
708.6265	-0.0007
708.807	0.0011
708.9875	-0.0029
709.168	-0.0031
709.3485	-0.0049
709.529	-0.002
709.7095	-0.0127
709.8899	0.0022
710.0703	-0.0085
710.2507	0.0089
710.4311	-0.0082
710.6115	-0.0103
710.7918	-0.0125
710.9721	-0.0046
711.1524	-0.0039
711.3327	-0.0009
711.513	0.0004
711.6932	0.0033
711.8735	0.0067
712.0537	-0.001
712.2339	-0.0067
712.4141	-0.0076
712.5942	0.0014
712.7744	0.0025
712.9545	-0.0112
713.1346	-0.002
713.3147	-0.0051
713.4947	0.0008
713.6748	-0.0021
713.8548	0.0033
714.0348	0.0044
714.2148	0.0019
714.3948	0.0121
714.5748	-0.0015
714.7547	0.0045
714.9346	0.0104
715.1145	-0.0046
715.2944	-0.0024
715.4743	0.0072
715.6541	0.0057
715.834	0.009
716.0138	-0.0043
716.1936	-0.0058
716.3733	-0.0027
716.5531	0.0005
716.7328	-0.0028
716.9126	-0.0084
717.0923	-0.0016
717.2719	0.0093
717.4516	0.004
717.6312	0.0003
717.8109	-0.0006
717.9905	0.0036
718.1701	-0.0017
718.3496	-0.003
718.5292	0.0019
718.7087	-0.001
718.8882	-0.0004
719.0677	0.0019
719.2472	-0.0016
719.4267	0.0052
719.6061	-0.0008
719.7856	0.0021
719.965	0.0099
720.1443	0.013
720.3237	0.0085
720.5031	0.0022
720.6824	0.0098
720.8617	0.0019
721.041	0.0061
721.2203	0.0095
721.3995	-0.0002
721.5788	-0.0027
721.758	0.0102
721.9372	0.0047
722.1164	0.0148
722.2956	0.0032
722.4747	0.0032
722.6538	-0.0003
722.8329	0.0104
723.012	0.0039
723.1911	-0.0054
723.3702	0.0035
723.5492	0.004
723.7282	-0.0019
723.9072	-0.0016
724.0862	-0.0059
724.2652	-0.0026
724.4441	0.0073
724.623	0.0067
724.8019	-0.0024
724.9808	0.0019
725.1597	-0.0055
725.3385	0.0096
725.5174	0.0096
725.6962	0.0057
725.875	0.0064
726.0538	0.0097
726.2325	0.0098
726.4112	0.0038
726.59	-0.0039
726.7687	-0
726.9474	0.001
727.126	0.0004
727.3047	-0.0089
727.4833	-0.005
727.6619	-0.0028
727.8405	-0.0091
728.0191	-0.0004
728.1976	0.0023
728.3762	0.0022
728.5547	0.0056
728.7332	-0.014
728.9116	0.0067
729.0901	0.0081
729.2686	-0.0059
729.447	-0.0062
729.6254	0.0013
729.8038	0.0003
729.9821	-0.0061
730.1605	0.0025
730.3388	0.0002
730.5171	0.0023
730.6954	-0.0034
730.8737	0.0001
731.0519	-0.0011
731.2302	-0.0004
731.4084	0.0095
731.5866	0.0044
731.7648	0.0071
731.9429	-0.0014
732.1211	-0.0047
732.2992	0.0003
732.4773	-0.0022
732.6554	0.0076
732.8335	0.0094
733.0115	0.0062
733.1896	0.0098
733.3676	0.0034
733.5456	0.0049
733.7235	0.0049
733.9015	0.0044
734.0794	-0.0037
734.2574	0.0019
734.4353	0.0016
734.6131	0.0038
734.791	0.0023
734.9689	0.0025
735.1467	-0.0021
735.3245	-0.0113
735.5023	0.0016
735.68	0.0015
735.8578	0.0057
736.0355	-0.014
736.2132	-0.0023
736.3909	-0.0011
736.5686	-0.0112
736.7463	0.0019
736.9239	-0.0085
737.1015	-0.0123
737.2791	-0.0005
737.4567	-0.0028
737.6343	-0.015
737.8118	-0.0044
737.9894	0.0013
738.1669	-0.0116
738.3444	-0.0059
738.5218	0.0082
738.6993	-0
738.8767	0.0016
739.0541	0.007
739.2315	-0.0133
739.4089	-0
739.5863	0.0038
739.7636	-0.0052
739.9409	0.0026
740.1182	0.0118
740.2955	0.0041
740.4728	0.001
740.65	-0.0003
740.8272	-0.0049
741.0044	-0.0071
741.1816	0.0029
741.3588	-0.0002
741.5359	0.0072
741.7131	-0.0071
741.8902	0.0027
742.0673	-0.0028
742.2444	-0.0117
742.4214	-0.0066
742.5985	0.0053
742.7755	-0.0038
742.9525	-0.0096
743.1295	-0.0027
743.3064	0.0087
743.4834	0.0075
743.6603	-0.0043
743.8372	-0.0021
744.0141	0.0094
744.191	0.0043
744.3678	-0.0019
744.5446	0.0032
744.7215	0.0021
744.8982	-0.0033
745.075	0.0001
745.2518	0.0084
745.4285	-0.0033
745.6052	0.0002
745.7819	-0.0009
745.9586	-0.0037
746.1353	-0.0016
746.3119	-0.0135
746.4885	-0.0037
746.6651	-0.0085
746.8417	0.0064
747.0183	0.0006
747.1948	0.0003
747.3714	-0.0069
747.5479	0.0093
747.7244	-0
747.9008	0.0054
748.0773	0.0043
748.2537	-0.0084
748.4301	-0.0036
748.6065	-0.0015
748.7829	0.0018
748.9593	-0.0003
749.1356	-0.0001
749.3119	0.0125
749.4882	-0.0106
749.6645	0.0053
749.8408	-0.0057
750.017	-0.0038
750.1933	0.0034
750.3695	-0.0116
750.5457	0.0034
750.7218	-0.0063
750.898	0.0022
751.0741	-0.0099
751.2502	0.0029
751.4263	-0.0034
751.6024	-0.007
751.7784	-0.0043
751.9545	-0.0035
752.1305	-0.009
752.3065	-0.0032
752.4825	0.003
752.6584	-0.0024
752.8344	-0.0173
753.0103	-0.0106
753.1862	-0.0077
753.3621	-0.0028
753.5379	-0.0104
753.7138	0.0031
753.8896	-0.0066
754.0654	0.0104
754.2412	0.0034
754.417	-0.0012
754.5927	-0.0032
754.7685	-0.0068
754.9442	0.0023
755.1199	0.0101
755.2956	-0.0057
755.4712	-0.0008
755.6469	-0.0055
755.8225	-0.0003
755.9981	-0.0058
756.1736	-0.0029
756.3492	-0.0003
756.5248	0.0012
756.7003	-0.007
756.8758	0.0058
757.0513	-0.0183
757.2267	-0.0092
757.4022	-0.0025
757.5776	-0.0062
757.753	0.0035
757.9284	0.0065
758.1038	0.0082
758.2791	0.0057
758.4545	-0.0087
758.6298	0.0037
758.8051	0.0105
758.9803	-0.0034
759.1556	0.0037
759.3308	-0.0064
759.506	0.017
759.6812	0.0037
759.8564	0.0046
760.0316	0.0033
760.2067	0.011
760.3819	0.0103
760.557	0.0248
760.732	0.0015
760.9071	-0.0116
761.0821	0.003
761.2572	0.0065
761.4322	0.0007
761.6072	-0.0014
761.7821	-0.0103
761.9571	0.0094
762.132	-0.0001
762.3069	-0.0011
762.4818	0.0024
762.6567	0.0026
762.8316	-0.0022
763.0064	-0.0022
763.1812	-0.0088
763.356	-0.0118
763.5308	-0.0026
763.7055	0.0003
763.8803	-0.0104
764.055	0.0003
764.2297	-0.0027
764.4044	-0.0167
764.579	-0.0024
764.7537	-0.0206
764.9283	0.0014
765.1029	-0.0123
765.2775	-0.0091
765.4521	-0.0077
765.6266	-0.0061
765.8011	-0.0025
765.9756	-0.0077
766.1501	0.0068
766.3246	-0.0098
766.4991	0.0038
766.6735	-0.0014
766.8479	-0.0055
767.0223	0.0029
767.1967	0.0064
767.371	-0.004
767.5454	-0.0071
767.7197	0.0037
767.894	-0.0007
768.0683	-0.0152
768.2425	0.0029
768.4168	0.0115
768.591	-0.0133
768.7652	-0.0011
768.9394	-0.0122
769.1135	-0.003
769.2877	0.0067
769.4618	-0.0038
769.6359	0.0024
769.81	0.0069
769.984	-0.0059
770.1581	-0.009
770.3321	-0.0124
770.5061	-0.0033
770.6801	-0.0105
770.8541	-0.0023
771.028	0.0035
771.202	-0.0042
771.3759	0.0046
771.5498	-0.0065
771.7236	-0.0036
771.8975	-0.0012
772.0713	0.0104
772.2451	-0.0026
772.4189	0.0106
772.5927	0.0112
772.7665	0.0025
772.9402	0.0061
773.1139	0.0036
773.2876	-0.0037
773.4613	0.0048
773.635	0.0099
773.8086	-0.0074
773.9822	0.0036
774.1558	0.01
774.3294	-0.0103
774.503	-0.0023
774.6765	-0.008
774.8501	0.0004
775.0236	0.0107
775.1971	0.0023
775.3705	-0.0159
775.544	0.014
775.7174	-0.0095
775.8908	-0.0079
776.0642	0.0008
776.2376	0.0049
776.4109	0.0009
776.5843	-0.0071
776.7576	0.0082
776.9309	0.019
777.1041	-0.0071
777.2774	0.004
777.4506	-0.0012
777.6238	-0.0065
777.797	0.0061
777.9702	-0.0015
778.1434	-0.0074
778.3165	-0.0133
778.4896	0.0076
778.6627	0.015
778.8358	0.0057
779.0089	-0.0048
779.1819	0.0042
779.3549	0.0128
779.5279	0.0208
779.7009	0.0062
779.8739	0.0006
780.0468	0.0111
780.2197	0.0096
780.3926	0.0045
780.5655	0.0053
780.7384	-0.0009
780.9112	0.0078
781.0841	-0.0057
781.2569	0.0061
781.4297	0.0112
781.6024	0.0137
781.7752	0.0079
781.9479	0.0162
782.1206	0.0007
782.2933	-0.0081
782.466	-0.0004
782.6386	0.0016
782.8113	0.003
782.9839	0.0104
783.1565	0.0087
783.329	0.0011
783.5016	0.0021
783.6741	0.0005
783.8466	-0.0045
784.0191	-0.0004
784.1916	-0.0015
784.3641	0.0022
784.5365	0.0085
784.7089	0.0067
784.8813	-0.0042
785.0537	-0.005
785.2261	-0.0061
785.3984	-0.0186
785.5707	-0.012
785.743	0.0006
785.9153	-0.0199
786.0876	0.0046
786.2598	-0.0068
786.432	-0.0206
786.6042	0.0004
786.7764	-0.0182
786.9486	-0.0005
787.1207	-0.012
787.2928	0.0073
787.4649	-0.0034
787.637	0.0015
787.8091	0.0012
787.9811	-0.0066
788.1532	-0.013
788.3252	0.0037
788.4972	-0.0085
788.6691	0.0012
788.8411	-0.0011
789.013	-0.0021
789.1849	-0.0053
789.3568	-0.0005
789.5287	0.0028
789.7005	0.0001
789.8723	0.0117
790.0442	0.0142
790.2159	0.0074
790.3877	0.0063
790.5595	-0.0052
790.7312	-0.0004
790.9029	-0.0038
791.0746	-0.0238
791.2463	-0.0084
791.4179	-0.01
791.5896	-0.0173
791.7612	-0.0098
791.9328	-0.0061
792.1044	-0.0174
792.2759	-0.0277
792.4474	-0.0226
792.619	-0.0065
792.7905	-0.0052
792.9619	-0.007
793.1334	-0.0049
793.3048	0.0047
793.4762	0.0036
793.6476	0.0049
793.819	0.0006
793.9904	0.008
794.1617	-0.0163
794.333	0.0034
794.5043	-0.0039
794.6756	-0.0002
794.8469	0.009
795.0181	0.0017
795.1893	0.0021
795.3605	0.0077
795.5317	-0.0101
795.7029	-0.0228
795.874	0.0016
796.0452	-0.0115
796.2163	-0.0086
796.3873	0.0106
796.5584	-0.0038
796.7294	-0.0141
796.9005	-0.0009
797.0715	0.0034
797.2425	-0.0161
797.4134	-0.0055
797.5844	-0.0148
797.7553	-0.0145
797.9262	-0.0166
798.0971	-0.0188
798.2679	-0.0194
798.4388	-0.0316
798.6096	-0.0103
798.7804	-0.0031
798.9512	0.0012
799.122	-0.0186
799.2927	-0.0166
799.4635	-0.0012
799.6342	-0.0173
799.8049	-0.0168
799.9755	-0.0167
800.1462	-0.0055
800.3168	-0.0026
800.4874	-0.0005
800.658	0.0145
800.8286	-0.0024
800.9991	0.003
801.1696	-0.0082
801.3402	0.0065
801.5106	-0.0117
801.6811	-0.0038
801.8516	0.0175
802.022	0.0042
802.1924	-0.0157
802.3628	0.0207
802.5332	0.0063
802.7035	0.0114
802.8739	-0.0132
803.0442	-0.0197
803.2145	-0.0046
803.3847	-0.0332
803.555	-0.0194
803.7252	-0.0341
803.8954	-0.0213
804.0656	-0.0184
804.2358	-0.0102
804.4059	-0.0088
804.5761	-0.0161
804.7462	-0.0038
804.9163	-0.0222
805.0864	-0.0197
805.2564	-0.0188
805.4264	-0.0097
805.5965	-0.0198
805.7665	0.0038
805.9364	0.0089
806.1064	0.0266
806.2763	-0.0104
806.4462	0.0145
806.6161	0.0056
806.786	0.0107
806.9559	-0.0108
807.1257	0.0046
807.2955	-0.0017
807.4653	-0.027
807.6351	-0.012
807.8048	0.0037
807.9746	-0.0003
808.1443	-0.0044
808.314	0.003
808.4837	-0.0041
808.6533	-0.0003
808.8229	0.0061
808.9926	-0.0116
809.1622	-0.0145
809.3317	-0.0156
809.5013	-0.0215
809.6708	-0.0028
809.8403	0.0041
810.0098	-0.0314
810.1793	0.0032
810.3488	-0.0337
810.5182	-0.0158
810.6876	-0.0103
810.857	-0.0202
811.0264	0.0021
811.1958	-0.0024
811.3651	-0.0094
811.5344	-0.0136
811.7037	-0.0231
811.873	-0.0199
812.0422	-0.0074
812.2115	-0.0084
812.3807	-0.0291
812.5499	-0.0123
812.7191	-0.0057
812.8882	-0.0389
813.0574	-0.0214
813.2265	-0.0192
813.3956	-0.0089
813.5646	-0.0094
813.7337	-0.0236
813.9027	0.0375
814.0718	0.0245
814.2407	0.002
814.4097	0.0063
814.5787	0.0102
814.7476	-0.0116
814.9165	-0.0173
815.0854	0.0064
815.2543	-0.003
815.4232	-0.0225
815.592	0.0022
815.7608	-0.008
815.9296	-0.0128
816.0984	0.0079
816.2671	-0.0161
816.4359	-0.0135
816.6046	-0.0091
816.7733	0.0148
816.942	-0.0033
817.1106	-0.0317
817.2793	-0.0051
817.4479	0.0136
817.6165	0.0008
817.785	0.0005
817.9536	-0.0014
818.1221	-0.0081
818.2906	0.0047
818.4591	-0.0124
818.6276	-0.019
818.7961	-0.0034
818.9645	-0.0054
819.1329	-0.0048
819.3013	-0.0098
819.4697	-0.0083
819.638	-0.0283
819.8064	-0.0142
819.9747	0.0072
820.143	-0.0087
820.3113	-0.0334
820.4795	-0.0064
820.6477	-0.03
820.816	-0.0308
820.9842	-0.0069
821.1523	-0.0324
821.3205	-0.0246
821.4886	0.006
821.6567	0.0067
821.8248	0.0086
821.9929	-0.0077
822.1609	0.001
822.329	-0.0041
822.497	0.012
822.665	0.0074
822.833	-0.0063
823.0009	0.012
823.1688	0.0163
823.3367	0.0083
823.5046	-0.0211
823.6725	0.0431
823.8404	0.0062
824.0082	0.003
824.176	0.011
824.3438	0.0002
824.5116	-0.0097
824.6793	0.014
824.847	-0.0035
825.0147	-0.0082
825.1824	0.0136
825.3501	-0.0013
825.5177	-0.05
825.6854	-0.0428
825.853	0.0002
826.0206	-0.0389
826.1881	-0.0083
826.3557	-0.0237
826.5232	-0.0079
826.6907	-0.0377
826.8582	-0.014
827.0257	-0.0052
827.1931	-0.0096
827.3605	-0.0356
827.528	-0.0179
827.6953	-0.0131
827.8627	-0.0339
828.03	0.0388
828.1974	-0.0222
828.3647	-0.0199
828.532	-0.0352
828.6992	-0.0171
828.8665	-0.0059
829.0337	-0.0379
829.2009	0.0003
829.3681	-0.0401
829.5352	-0.0035
829.7024	-0.0186
829.8695	-0.0367
830.0366	0.0257
830.2037	0.008
830.3707	0.0123
830.5378	-0.0123
830.7048	-0.0235
830.8718	0.0169
831.0388	-0.0237
831.2057	0.0155
831.3727	0.0441
831.5396	0.0055
831.7065	-0.016
831.8734	0.0453
832.0402	-0.0273
832.2071	-0.0152
832.3739	-0.0144
832.5407	-0.0224
832.7075	-0.0192
832.8742	-0.035
833.041	-0.0366
833.2077	-0.0111
833.3744	-0.0159
833.541	0.0151
833.7077	-0.0402
833.8743	-0.0029
834.0409	-0.0228
834.2075	-0.0314
834.3741	-0.007
834.5407	0.0146
834.7072	-0.0165
834.8737	-0.021
835.0402	-0.037
835.2067	-0.0215
835.3731	0.005
835.5395	-0.0275
835.706	0.0102
835.8723	-0.0172
836.0387	0.0127
836.2051	-0.0298
836.3714	-0.0157
836.5377	0.0094
836.704	-0.0252
836.8703	-0.014
837.0365	-0.0251
837.2027	-0.0188
837.3689	0.0058
837.5351	-0.0048
837.7013	-0.0104
837.8674	-0.0133
838.0335	-0.0608
838.1997	-0.0147
838.3657	-0.0834
838.5318	-0.0061
838.6978	0.0092
838.8639	0.0288
839.0299	-0.023
839.1958	0.0238
839.3618	0.0031
839.5277	-0.0661
839.6937	-0.0165
839.8596	-0.0293
840.0254	0.02
840.1913	-0.0181
840.3571	0.0202
840.523	-0.018
840.6888	-0.0711
840.8545	-0.0229
841.0203	-0.0167
841.186	0.0118
841.3517	-0.0213
841.5174	-0.0073
841.6831	-0.0286
841.8488	-0.0048
842.0144	-0.0218
842.18	-0.003
842.3456	0.0307
842.5112	-0.027
842.6767	-0.0522
842.8422	-0.0602
843.0077	-0.0076
843.1732	-0.0264
843.3387	-0.0215
843.5042	-0.0143
843.6696	-0.0505
843.835	0.0297
844.0004	0.0329
844.1657	-0.0074
844.3311	-0.046
844.4964	-0.0816
844.6617	-0.0851
844.827	-0.0559
844.9923	-0.0173
845.1575	0.0802
845.3227	0.0136
845.4879	-0.0072
845.6531	-0.0908
845.8183	-0.0444
845.9834	-0.003
846.1485	-0.0237
846.3136	-0.0204
846.4787	-0.0708
846.6438	0.0622
846.8088	-0.025
846.9738	-0.0367
847.1388	-0.0252
847.3038	0.0116
847.4687	-0.098
847.6337	0.0207
847.7986	-0.0084
847.9635	0.0251
848.1284	0.0218
848.2932	0.0623
848.458	-0.035
848.6228	0.0164
848.7876	0.081
848.9524	-0.0274
849.1172	-0.103
849.2819	0.0022
849.4466	-0.1434
849.6113	-0.0923
849.7759	-0.0279
849.9406	-0.0368
850.1052	0.0933
850.2698	-0.0801
850.4344	-0.0778
850.599	-0.067
850.7635	0.0672
850.928	-0.0753
851.0925	0.0521
851.257	0.0459
851.4215	-0.0169
851.5859	-0.1432
851.7503	0.004
851.9147	0.0076
852.0791	-0.089
852.2434	-0.0211
852.4078	0.0266
852.5721	0.0058
852.7364	0.0264
852.9007	-0.1819
853.0649	0.0172
853.2291	0.004
853.3934	-0.0749
853.5575	0.033
853.7217	-0.0174
853.8859	-0.0998
854.05	-0.0366
854.2141	0.0121
854.3782	-0.0857
854.5423	-0.1003
854.7063	0.1958
854.8703	0.0974
855.0343	-0.0227
855.1983	-0.1649
855.3623	0.2072
855.5262	0.0016
855.6901	-0.027
855.854	0.0683
856.0179	0.0762
856.1818	0.0415
856.3456	-0.0952
856.5094	-0.1413
856.6732	-0.1305
856.837	-0.0687
857.0008	0.0463
857.1645	-0.0658
857.3282	-0.1209
857.4919	-0.035
857.6556	0.0595
857.8192	-0.068
857.9828	-0.0259
858.1465	-0.1834
858.31	-0.2341
858.4736	-0.1473
858.6372	-0.3383
858.8007	-0.1084
858.9642	0.1617
859.1277	0.1412
859.2911	-0.0372
859.4546	0.0017
859.618	-0.459
859.7814	-0.0211
859.9448	0.1839
860.1081	0.2465
860.2715	0.1399
860.4348	-0.1158
860.5981	0.1822
860.7614	0.0516
860.9246	-0.373
861.0879	-0.23
861.2511	0.024
861.4143	-0.4007
861.5774	0.1056
861.7406	-0.0743
861.9037	0.0228
862.0668	-0.0757
862.2299	0.1302
862.393	-0.5573
862.556	0.0235
862.7191	-0.1163
862.8821	-0.2879
863.0451	0.0201
863.208	-0.0846
863.371	-0.0319
863.5339	-0.3404
863.6968	-0.1176
863.8597	0.0687
864.0225	0.0475
864.1854	-0.0298
864.3482	-0
864.511	0.1122
864.6737	0.2017
864.8365	0.2652
864.9992	-0.3517
865.1619	-0.4606
865.3246	-0
865.4873	0.1558
865.65	0.5161
865.8126	-0.1131
865.9752	0.0872
866.1378	0.0728
866.3004	0.5122
866.4629	0.2426
866.6254	0.2383
866.7879	0.1838
866.9504	-0
867.1129	-0
867.2753	0.3689
867.4377	0.1383
867.6001	-0.0654
867.7625	-0.0489
867.9249	-0.4959
868.0872	-0.0523
868.2495	-0.0638
868.4118	-0.0064
868.5741	0.5309
868.7363	-0.3519
868.8986	-0.0945
869.0608	-0.1585
869.223	0.158
869.3851	-0
869.5473	-0.0115
869.7094	0.1055
869.8715	0.2053
870.0336	-0
870.1957	-0.5903
870.3577	-0.5441
870.5197	-0.1604
870.6817	-0.3426
870.8437	-0.2054
871.0057	-0.5223
871.1676	-0
871.3295	-0.2537
871.4914	-0
871.6533	-0.1658
871.8151	-0.3889
871.977	-0
872.1388	-0
872.3006	1.4886
872.4623	-0.254
872.6241	0.0797
872.7858	-0.2453
872.9475	0.2756
873.1092	0.1399
873.2709	0.8704
873.4325	-0.3708
873.5941	-0
873.7557	-0
873.9173	-0.3213
874.0789	-0.2656
874.2404	-0.5693
874.4019	0.0657
874.5634	-0.2113
874.7249	-0.1751
874.8863	-0.2739
875.0478	0.4931
875.2092	-0
875.3706	-0.0414
875.5319	0.052
875.6933	0.9754
875.8546	-0
876.0159	-0
876.1772	-0
876.3385	-0
876.4997	0.2548
876.6609	-0.6175
876.8221	-0
876.9833	0.1492
877.1445	-0
877.3056	0.0035
877.4667	-0.156
877.6278	-0
877.7889	-0.7243
877.9499	-0
878.111	-0
878.272	-0.12
878.433	0.5175
878.5939	0.9554
878.7549	-0.3533
878.9158	-0
879.0767	0.2594
879.2376	1.0376
879.3984	-0.3426
879.5593	-0
879.7201	0.1177
879.8809	-0.5058
880.0417	-0
880.2024	0.212
880.3632	-0.5979
880.5239	0.2766
880.6846	0.8724
880.8452	-2.4464
881.0059	-1.1732
881.1665	-0
881.3271	-0.0709
881.4877	-0.6516
881.6483	-0.0135
881.8088	-0.3952
881.9693	-0
882.1298	-0
882.2903	-0
