Data from MonoPyChalIsomerACN10uM420nmA_Absorbance_15-09-53-635.txt Node
Date: Fri Jul 05 15:09:53 BST 2024
User: LASERRRRR
Spectrometer: FLMT03099
Trigger mode: 0
Integration Time (sec): 1.000000E-1
Scans to average: 1
Electric dark correction enabled: true
Nonlinearity correction enabled: false
Boxcar width: 0
XAxis mode: Wavelengths
Number of Pixels in Spectrum: 3648
>>>>>Begin Spectral Data<<<<<
179.3399	0.1022
179.5586	0.1022
179.7771	0.1022
179.9957	-0
180.2143	-0
180.4329	0.2678
180.6514	0.5041
180.8699	-0
181.0885	-0.2012
181.307	0.2941
181.5255	-0.6633
181.744	-0.0356
181.9625	-0.1262
182.181	-1.1497
182.3994	0.9328
182.6179	-0.3961
182.8363	0.0054
183.0547	-0.1843
183.2732	0.1225
183.4916	0.4925
183.71	0.0522
183.9284	0.0945
184.1467	0.0678
184.3651	-0.1356
184.5835	-0.0323
184.8018	0.1447
185.0201	0.3869
185.2385	-0.0591
185.4568	0.1612
185.6751	0.5841
185.8934	0.1626
186.1117	-0.0574
186.3299	0.0567
186.5482	0.1577
186.7664	-0.0114
186.9847	-0.1473
187.2029	0.0289
187.4211	0.1096
187.6393	0.0479
187.8575	0.0542
188.0757	0.174
188.2939	0.1823
188.512	0.0944
188.7302	0.0094
188.9483	0.2252
189.1665	0.0142
189.3846	0.2645
189.6027	0.1487
189.8208	-0.0095
190.0389	0.1843
190.257	0.1799
190.475	0.1362
190.6931	0.2914
190.9111	0.4395
191.1292	0.0899
191.3472	0.307
191.5652	0.3739
191.7832	0.2679
192.0012	0.9922
192.2192	0.4744
192.4371	0.4326
192.6551	0.2449
192.873	0.313
193.091	0.4608
193.3089	1.144
193.5268	0.6736
193.7447	0.535
193.9626	0.4447
194.1805	0.5479
194.3984	0.7536
194.6162	0.5087
194.8341	0.7729
195.0519	0.5321
195.2697	0.9684
195.4875	0.4885
195.7054	0.5501
195.9231	0.6851
196.1409	0.5581
196.3587	0.6941
196.5765	0.473
196.7942	0.5508
197.012	0.5137
197.2297	0.4967
197.4474	0.5442
197.6651	0.5246
197.8828	0.555
198.1005	0.6065
198.3182	0.6343
198.5358	0.764
198.7535	0.8291
198.9711	0.5555
199.1888	0.5803
199.4064	0.7215
199.624	0.5744
199.8416	0.6991
200.0592	0.5672
200.2767	0.5807
200.4943	0.6686
200.7119	0.8464
200.9294	0.6991
201.1469	0.6374
201.3645	0.5794
201.582	0.5476
201.7995	0.7139
202.017	0.6411
202.2344	0.6729
202.4519	0.6088
202.6694	0.6532
202.8868	0.6246
203.1042	0.6952
203.3217	0.71
203.5391	0.5998
203.7565	0.6966
203.9739	0.6421
204.1913	0.5774
204.4086	0.7133
204.626	0.6672
204.8433	0.6815
205.0607	0.56
205.278	0.6442
205.4953	0.5439
205.7126	0.6365
205.9299	0.6945
206.1472	0.7123
206.3644	0.6359
206.5817	0.6575
206.7989	0.727
207.0162	0.7121
207.2334	0.6281
207.4506	0.6187
207.6678	0.6998
207.885	0.621
208.1022	0.6781
208.3194	0.616
208.5365	0.6343
208.7537	0.6515
208.9708	0.6121
209.1879	0.5809
209.405	0.7761
209.6222	0.7431
209.8392	0.67
210.0563	0.6406
210.2734	0.6541
210.4905	0.6271
210.7075	0.6529
210.9245	0.6444
211.1416	0.6771
211.3586	0.6729
211.5756	0.5772
211.7926	0.6593
212.0096	0.5569
212.2265	0.5233
212.4435	0.5502
212.6604	0.6395
212.8774	0.5867
213.0943	0.5586
213.3112	0.5543
213.5281	0.5382
213.745	0.5233
213.9619	0.5596
214.1788	0.5009
214.3956	0.4505
214.6125	0.4469
214.8293	0.47
215.0461	0.4692
215.2629	0.4981
215.4798	0.4681
215.6965	0.4423
215.9133	0.46
216.1301	0.4395
216.3469	0.426
216.5636	0.3992
216.7803	0.4061
216.9971	0.3755
217.2138	0.4013
217.4305	0.3737
217.6472	0.362
217.8639	0.3784
218.0805	0.3347
218.2972	0.3372
218.5138	0.3261
218.7305	0.306
218.9471	0.2883
219.1637	0.2749
219.3803	0.2807
219.5969	0.2938
219.8135	0.2544
220.0301	0.29
220.2466	0.277
220.4632	0.2617
220.6797	0.2534
220.8962	0.2422
221.1127	0.2451
221.3292	0.2394
221.5457	0.2281
221.7622	0.2173
221.9787	0.2427
222.1951	0.2369
222.4116	0.2573
222.628	0.2501
222.8444	0.2485
223.0608	0.2343
223.2772	0.2517
223.4936	0.2562
223.71	0.2617
223.9264	0.2496
224.1427	0.2489
224.3591	0.2431
224.5754	0.2756
224.7917	0.2837
225.008	0.2603
225.2243	0.2623
225.4406	0.2781
225.6569	0.2742
225.8732	0.2748
226.0894	0.2856
226.3057	0.259
226.5219	0.2733
226.7381	0.2928
226.9543	0.2806
227.1705	0.2871
227.3867	0.2764
227.6029	0.2943
227.8191	0.3104
228.0352	0.3085
228.2513	0.313
228.4675	0.3151
228.6836	0.2867
228.8997	0.302
229.1158	0.2906
229.3319	0.3209
229.548	0.3233
229.764	0.3317
229.9801	0.3314
230.1961	0.3203
230.4121	0.3398
230.6282	0.3312
230.8442	0.33
231.0602	0.3518
231.2761	0.3533
231.4921	0.333
231.7081	0.345
231.924	0.3531
232.14	0.3709
232.3559	0.3445
232.5718	0.3714
232.7877	0.3471
233.0036	0.3538
233.2195	0.3609
233.4353	0.3456
233.6512	0.3717
233.867	0.3687
234.0829	0.3499
234.2987	0.3645
234.5145	0.3646
234.7303	0.3687
234.9461	0.3927
235.1619	0.3787
235.3776	0.3909
235.5934	0.3817
235.8091	0.3552
236.0249	0.3942
236.2406	0.3818
236.4563	0.3864
236.672	0.3867
236.8877	0.3926
237.1034	0.4007
237.319	0.3969
237.5347	0.4066
237.7503	0.3851
237.966	0.4089
238.1816	0.421
238.3972	0.407
238.6128	0.3869
238.8284	0.4139
239.0439	0.4144
239.2595	0.4068
239.475	0.4312
239.6906	0.3981
239.9061	0.3916
240.1216	0.3929
240.3371	0.4094
240.5526	0.4157
240.7681	0.4126
240.9836	0.389
241.199	0.4123
241.4145	0.4009
241.6299	0.4127
241.8453	0.3825
242.0607	0.4055
242.2761	0.3718
242.4915	0.3928
242.7069	0.374
242.9223	0.3744
243.1376	0.3664
243.353	0.3664
243.5683	0.3652
243.7836	0.336
243.9989	0.3483
244.2142	0.3313
244.4295	0.3359
244.6448	0.3301
244.86	0.3089
245.0753	0.3071
245.2905	0.3114
245.5057	0.3028
245.721	0.2945
245.9362	0.2841
246.1514	0.2767
246.3665	0.2765
246.5817	0.2613
246.7969	0.2761
247.012	0.2652
247.2271	0.2574
247.4423	0.2623
247.6574	0.2558
247.8725	0.2431
248.0876	0.2429
248.3026	0.2387
248.5177	0.2329
248.7328	0.2388
248.9478	0.2189
249.1628	0.2268
249.3779	0.229
249.5929	0.2236
249.8079	0.2264
250.0228	0.2156
250.2378	0.2066
250.4528	0.2087
250.6677	0.1923
250.8827	0.2082
251.0976	0.2157
251.3125	0.2008
251.5274	0.1852
251.7423	0.1833
251.9572	0.1997
252.172	0.1945
252.3869	0.1972
252.6017	0.1788
252.8166	0.1864
253.0314	0.1723
253.2462	0.1665
253.461	0.1892
253.6758	0.1758
253.8906	0.1893
254.1053	0.1726
254.3201	0.1758
254.5348	0.1875
254.7496	0.1825
254.9643	0.1749
255.179	0.1825
255.3937	0.1741
255.6083	0.1825
255.823	0.1727
256.0377	0.1714
256.2523	0.1695
256.467	0.1608
256.6816	0.1781
256.8962	0.1757
257.1108	0.1733
257.3254	0.1739
257.54	0.1734
257.7545	0.1758
257.9691	0.1794
258.1836	0.1774
258.3981	0.175
258.6127	0.1839
258.8272	0.1663
259.0417	0.173
259.2561	0.1626
259.4706	0.1776
259.6851	0.1707
259.8995	0.161
260.114	0.1743
260.3284	0.174
260.5428	0.1462
260.7572	0.1677
260.9716	0.1821
261.186	0.1598
261.4003	0.1758
261.6147	0.1748
261.829	0.1853
262.0433	0.1744
262.2577	0.1716
262.472	0.171
262.6863	0.1641
262.9005	0.1642
263.1148	0.175
263.3291	0.1553
263.5433	0.1678
263.7576	0.162
263.9718	0.1742
264.186	0.1722
264.4002	0.1735
264.6144	0.1701
264.8286	0.1712
265.0427	0.1625
265.2569	0.1686
265.471	0.169
265.6851	0.1733
265.8993	0.1644
266.1134	0.1555
266.3275	0.1697
266.5415	0.1721
266.7556	0.179
266.9697	0.1769
267.1837	0.1708
267.3978	0.1667
267.6118	0.1817
267.8258	0.1878
268.0398	0.1641
268.2538	0.1775
268.4677	0.1811
268.6817	0.1648
268.8957	0.1706
269.1096	0.1711
269.3235	0.1697
269.5374	0.1619
269.7514	0.1687
269.9652	0.177
270.1791	0.1597
270.393	0.1703
270.6068	0.1529
270.8207	0.1565
271.0345	0.1676
271.2483	0.1648
271.4622	0.1725
271.676	0.1634
271.8897	0.1491
272.1035	0.1618
272.3173	0.1549
272.531	0.1639
272.7448	0.1595
272.9585	0.1528
273.1722	0.1622
273.3859	0.1532
273.5996	0.1458
273.8133	0.1604
274.0269	0.1608
274.2406	0.1639
274.4542	0.1486
274.6679	0.1497
274.8815	0.1519
275.0951	0.1643
275.3087	0.1779
275.5223	0.1628
275.7358	0.161
275.9494	0.1735
276.1629	0.1579
276.3765	0.1565
276.59	0.1631
276.8035	0.155
277.017	0.1684
277.2305	0.1626
277.444	0.1616
277.6574	0.1553
277.8709	0.1572
278.0843	0.163
278.2978	0.1652
278.5112	0.1552
278.7246	0.1604
278.938	0.1719
279.1513	0.1683
279.3647	0.1777
279.5781	0.1603
279.7914	0.1623
280.0047	0.1774
280.2181	0.162
280.4314	0.1727
280.6447	0.1626
280.8579	0.1702
281.0712	0.171
281.2845	0.1644
281.4977	0.1614
281.711	0.1703
281.9242	0.1626
282.1374	0.1659
282.3506	0.1565
282.5638	0.1735
282.7769	0.1789
282.9901	0.1588
283.2033	0.1744
283.4164	0.1703
283.6295	0.1613
283.8426	0.1458
284.0557	0.1755
284.2688	0.1776
284.4819	0.1661
284.695	0.1681
284.908	0.174
285.1211	0.1516
285.3341	0.1679
285.5471	0.1647
285.7601	0.1604
285.9731	0.1644
286.1861	0.1565
286.3991	0.1682
286.612	0.1644
286.825	0.1649
287.0379	0.1615
287.2508	0.1467
287.4637	0.1717
287.6766	0.1568
287.8895	0.1652
288.1024	0.1813
288.3152	0.1731
288.5281	0.1507
288.7409	0.1633
288.9538	0.1593
289.1666	0.1613
289.3794	0.1768
289.5922	0.1558
289.8049	0.1687
290.0177	0.1523
290.2304	0.1683
290.4432	0.1592
290.6559	0.1578
290.8686	0.1664
291.0813	0.1497
291.294	0.1579
291.5067	0.1607
291.7194	0.1609
291.932	0.1724
292.1447	0.1713
292.3573	0.1662
292.5699	0.1536
292.7825	0.1701
292.9951	0.1522
293.2077	0.1672
293.4203	0.1697
293.6328	0.1447
293.8454	0.1574
294.0579	0.1625
294.2704	0.1557
294.4829	0.1528
294.6954	0.1571
294.9079	0.1635
295.1204	0.157
295.3328	0.1491
295.5453	0.1729
295.7577	0.1481
295.9701	0.1476
296.1825	0.1517
296.3949	0.1519
296.6073	0.1526
296.8197	0.1419
297.0321	0.1752
297.2444	0.1391
297.4567	0.1608
297.6691	0.1566
297.8814	0.1371
298.0937	0.148
298.306	0.1631
298.5182	0.1427
298.7305	0.1696
298.9428	0.1513
299.155	0.1584
299.3672	0.1489
299.5794	0.1481
299.7916	0.147
300.0038	0.1457
300.216	0.1586
300.4282	0.1594
300.6403	0.1595
300.8525	0.1624
301.0646	0.145
301.2767	0.1517
301.4888	0.1409
301.7009	0.1581
301.913	0.1458
302.125	0.1653
302.3371	0.1521
302.5491	0.1548
302.7612	0.1473
302.9732	0.1599
303.1852	0.1499
303.3972	0.1545
303.6092	0.1443
303.8211	0.145
304.0331	0.134
304.245	0.139
304.457	0.1423
304.6689	0.1525
304.8808	0.1628
305.0927	0.1392
305.3046	0.1364
305.5164	0.1654
305.7283	0.1415
305.9401	0.1458
306.152	0.1389
306.3638	0.153
306.5756	0.1421
306.7874	0.1482
306.9992	0.1428
307.2109	0.1343
307.4227	0.1167
307.6344	0.1316
307.8462	0.1297
308.0579	0.1381
308.2696	0.1354
308.4813	0.1373
308.693	0.1265
308.9046	0.1396
309.1163	0.1158
309.328	0.1299
309.5396	0.1174
309.7512	0.1114
309.9628	0.1145
310.1744	0.1263
310.386	0.1226
310.5976	0.1195
310.8091	0.1287
311.0207	0.1214
311.2322	0.13
311.4437	0.1027
311.6552	0.1155
311.8667	0.1127
312.0782	0.1111
312.2897	0.108
312.5012	0.1206
312.7126	0.1085
312.924	0.1047
313.1355	0.1208
313.3469	0.111
313.5583	0.1173
313.7696	0.1063
313.981	0.1109
314.1924	0.0985
314.4037	0.1099
314.6151	0.1158
314.8264	0.106
315.0377	0.0948
315.249	0.1077
315.4603	0.1111
315.6716	0.1072
315.8828	0.1032
316.0941	0.097
316.3053	0.1067
316.5165	0.1019
316.7277	0.1019
316.9389	0.1058
317.1501	0.1074
317.3613	0.1015
317.5724	0.0952
317.7836	0.1088
317.9947	0.1008
318.2058	0.1114
318.417	0.0929
318.6281	0.0919
318.8391	0.1012
319.0502	0.0933
319.2613	0.1083
319.4723	0.1036
319.6834	0.1036
319.8944	0.0914
320.1054	0.1149
320.3164	0.1087
320.5274	0.1111
320.7383	0.1064
320.9493	0.1009
321.1602	0.1256
321.3712	0.1029
321.5821	0.1168
321.793	0.1122
322.0039	0.1065
322.2148	0.0961
322.4257	0.1069
322.6365	0.1163
322.8474	0.1094
323.0582	0.1036
323.269	0.1041
323.4798	0.1206
323.6906	0.1129
323.9014	0.1129
324.1122	0.1063
324.3229	0.111
324.5337	0.1161
324.7444	0.1089
324.9551	0.1185
325.1658	0.1097
325.3765	0.1179
325.5872	0.1245
325.7979	0.1089
326.0085	0.1078
326.2192	0.1221
326.4298	0.1132
326.6404	0.1108
326.851	0.1119
327.0616	0.1082
327.2722	0.1188
327.4828	0.1209
327.6933	0.1106
327.9039	0.1252
328.1144	0.1233
328.3249	0.1113
328.5354	0.1022
328.7459	0.1125
328.9564	0.1078
329.1669	0.1157
329.3773	0.1199
329.5878	0.1104
329.7982	0.12
330.0086	0.1203
330.219	0.1135
330.4294	0.1005
330.6398	0.1194
330.8502	0.1078
331.0605	0.1085
331.2708	0.1148
331.4812	0.1242
331.6915	0.1315
331.9018	0.1275
332.1121	0.1166
332.3224	0.1194
332.5326	0.1153
332.7429	0.1129
332.9531	0.1285
333.1633	0.115
333.3735	0.1098
333.5837	0.1121
333.7939	0.1132
334.0041	0.1317
334.2143	0.1293
334.4244	0.1163
334.6346	0.1005
334.8447	0.1193
335.0548	0.1079
335.2649	0.1198
335.475	0.1296
335.685	0.1164
335.8951	0.1305
336.1051	0.126
336.3152	0.1293
336.5252	0.1198
336.7352	0.119
336.9452	0.1171
337.1552	0.128
337.3652	0.1207
337.5751	0.123
337.7851	0.1172
337.995	0.1078
338.2049	0.1143
338.4148	0.1191
338.6247	0.1257
338.8346	0.1214
339.0445	0.113
339.2543	0.1197
339.4642	0.1261
339.674	0.1144
339.8838	0.1209
340.0936	0.1305
340.3034	0.1292
340.5132	0.1368
340.7229	0.1332
340.9327	0.1261
341.1424	0.1188
341.3522	0.1352
341.5619	0.1334
341.7716	0.1342
341.9813	0.1406
342.1909	0.1148
342.4006	0.1447
342.6102	0.1313
342.8199	0.1322
343.0295	0.1394
343.2391	0.1303
343.4487	0.1361
343.6583	0.1278
343.8679	0.1322
344.0774	0.143
344.287	0.1412
344.4965	0.1329
344.706	0.1368
344.9155	0.135
345.125	0.1308
345.3345	0.1342
345.544	0.1351
345.7534	0.1374
345.9629	0.1296
346.1723	0.1358
346.3817	0.1322
346.5911	0.12
346.8005	0.1494
347.0099	0.1292
347.2193	0.134
347.4286	0.1398
347.638	0.1537
347.8473	0.1533
348.0566	0.1425
348.2659	0.1396
348.4752	0.1463
348.6845	0.1344
348.8937	0.1319
349.103	0.1496
349.3122	0.1382
349.5214	0.1431
349.7306	0.1461
349.9398	0.1427
350.149	0.1559
350.3582	0.1405
350.5674	0.1629
350.7765	0.1443
350.9856	0.1398
351.1948	0.1494
351.4039	0.1376
351.613	0.1423
351.822	0.1409
352.0311	0.1708
352.2402	0.1498
352.4492	0.1499
352.6582	0.1561
352.8672	0.1441
353.0762	0.1493
353.2852	0.1533
353.4942	0.1355
353.7032	0.1575
353.9121	0.1448
354.1211	0.1554
354.33	0.1667
354.5389	0.1395
354.7478	0.1667
354.9567	0.1463
355.1655	0.1452
355.3744	0.1555
355.5833	0.1467
355.7921	0.1848
356.0009	0.1577
356.2097	0.1745
356.4185	0.1648
356.6273	0.1588
356.8361	0.1499
357.0448	0.1572
357.2536	0.1631
357.4623	0.1576
357.671	0.1657
357.8797	0.1675
358.0884	0.1636
358.2971	0.1667
358.5057	0.1636
358.7144	0.1707
358.923	0.1688
359.1316	0.1682
359.3402	0.1955
359.5488	0.1652
359.7574	0.1675
359.966	0.1811
360.1746	0.1748
360.3831	0.1793
360.5916	0.1746
360.8002	0.1632
361.0087	0.18
361.2172	0.1712
361.4256	0.1754
361.6341	0.1829
361.8426	0.188
362.051	0.1757
362.2594	0.1772
362.4678	0.171
362.6762	0.2014
362.8846	0.181
363.093	0.1823
363.3014	0.1758
363.5097	0.1464
363.718	0.1808
363.9264	0.1797
364.1347	0.1645
364.343	0.1849
364.5513	0.1833
364.7595	0.1984
364.9678	0.1859
365.176	0.1829
365.3842	0.1927
365.5925	0.1801
365.8007	0.1895
366.0089	0.1971
366.217	0.1704
366.4252	0.1941
366.6333	0.203
366.8415	0.1934
367.0496	0.1888
367.2577	0.1856
367.4658	0.2059
367.6739	0.1928
367.882	0.191
368.09	0.1872
368.2981	0.1945
368.5061	0.1831
368.7141	0.2044
368.9221	0.1985
369.1301	0.1955
369.3381	0.205
369.5461	0.1962
369.754	0.1972
369.962	0.2144
370.1699	0.2035
370.3778	0.1925
370.5857	0.1825
370.7936	0.1985
371.0015	0.1884
371.2093	0.214
371.4172	0.2005
371.625	0.196
371.8328	0.201
372.0406	0.2018
372.2484	0.197
372.4562	0.2039
372.664	0.1982
372.8717	0.2233
373.0795	0.1856
373.2872	0.21
373.4949	0.2025
373.7026	0.2004
373.9103	0.215
374.118	0.2205
374.3256	0.2093
374.5333	0.2055
374.7409	0.2088
374.9485	0.2149
375.1561	0.2106
375.3637	0.2256
375.5713	0.2137
375.7789	0.1974
375.9864	0.2195
376.194	0.2031
376.4015	0.2275
376.609	0.2279
376.8165	0.2159
377.024	0.2129
377.2315	0.2172
377.4389	0.2198
377.6464	0.2142
377.8538	0.2218
378.0612	0.1914
378.2686	0.2106
378.476	0.2408
378.6834	0.2145
378.8908	0.2259
379.0981	0.2315
379.3055	0.221
379.5128	0.2171
379.7201	0.21
379.9274	0.215
380.1347	0.2314
380.342	0.2344
380.5492	0.2134
380.7565	0.207
380.9637	0.2295
381.1709	0.2421
381.3781	0.2111
381.5853	0.2226
381.7925	0.2205
381.9997	0.2134
382.2068	0.2255
382.4139	0.218
382.6211	0.223
382.8282	0.2172
383.0353	0.2332
383.2424	0.2246
383.4494	0.2165
383.6565	0.2313
383.8635	0.238
384.0706	0.2132
384.2776	0.2342
384.4846	0.2199
384.6916	0.2235
384.8986	0.2192
385.1055	0.2248
385.3125	0.2171
385.5194	0.219
385.7263	0.2417
385.9333	0.2123
386.1402	0.2444
386.347	0.2523
386.5539	0.2254
386.7608	0.2361
386.9676	0.2034
387.1744	0.214
387.3813	0.1956
387.5881	0.2247
387.7948	0.2248
388.0016	0.2226
388.2084	0.2104
388.4151	0.2111
388.6219	0.2254
388.8286	0.2253
389.0353	0.2253
389.242	0.2152
389.4487	0.2027
389.6553	0.2055
389.862	0.1925
390.0686	0.2174
390.2753	0.2291
390.4819	0.2175
390.6885	0.203
390.8951	0.2045
391.1016	0.2114
391.3082	0.2099
391.5147	0.2104
391.7213	0.212
391.9278	0.1913
392.1343	0.2058
392.3408	0.2097
392.5473	0.1997
392.7537	0.1941
392.9602	0.1872
393.1666	0.2001
393.373	0.2045
393.5794	0.2049
393.7858	0.1834
393.9922	0.1868
394.1986	0.2015
394.4049	0.2092
394.6113	0.1869
394.8176	0.1761
395.0239	0.1856
395.2302	0.1845
395.4365	0.182
395.6428	0.1891
395.8491	0.1826
396.0553	0.1839
396.2615	0.1928
396.4678	0.1895
396.674	0.1742
396.8802	0.1946
397.0863	0.1897
397.2925	0.1696
397.4987	0.1897
397.7048	0.1842
397.9109	0.1806
398.117	0.1829
398.3231	0.1852
398.5292	0.1897
398.7353	0.1837
398.9413	0.178
399.1474	0.1729
399.3534	0.1792
399.5594	0.1731
399.7654	0.1785
399.9714	0.1904
400.1774	0.19
400.3833	0.1619
400.5893	0.1809
400.7952	0.18
401.0011	0.1924
401.207	0.1962
401.4129	0.1891
401.6188	0.1858
401.8247	0.1875
402.0305	0.1732
402.2364	0.1816
402.4422	0.1898
402.648	0.1793
402.8538	0.1873
403.0596	0.1824
403.2654	0.179
403.4711	0.1734
403.6768	0.1777
403.8826	0.2
404.0883	0.1619
404.294	0.185
404.4997	0.1763
404.7054	0.1943
404.911	0.1609
405.1167	0.1862
405.3223	0.1857
405.5279	0.1883
405.7335	0.188
405.9391	0.179
406.1447	0.1781
406.3502	0.1956
406.5558	0.1755
406.7613	0.1881
406.9668	0.1835
407.1724	0.1825
407.3778	0.1757
407.5833	0.1699
407.7888	0.1709
407.9942	0.2074
408.1997	0.1813
408.4051	0.1682
408.6105	0.1762
408.8159	0.1806
409.0213	0.1633
409.2267	0.1919
409.432	0.164
409.6374	0.1953
409.8427	0.1863
410.048	0.1882
410.2533	0.1753
410.4586	0.1795
410.6639	0.1751
410.8691	0.1589
411.0744	0.1665
411.2796	0.178
411.4848	0.1611
411.69	0.173
411.8952	0.1788
412.1004	0.1531
412.3056	0.1812
412.5107	0.1636
412.7158	0.181
412.921	0.1754
413.1261	0.1706
413.3312	0.1669
413.5362	0.1767
413.7413	0.1716
413.9464	0.1624
414.1514	0.1643
414.3564	0.1637
414.5614	0.1606
414.7664	0.1696
414.9714	0.1815
415.1764	0.1668
415.3813	0.1775
415.5863	0.1718
415.7912	0.1771
415.9961	0.1704
416.201	0.1764
416.4059	0.1699
416.6108	0.1604
416.8156	0.1689
417.0205	0.164
417.2253	0.1723
417.4301	0.1853
417.6349	0.1619
417.8397	0.1627
418.0445	0.1532
418.2492	0.1875
418.454	0.1695
418.6587	0.1522
418.8634	0.1794
419.0681	0.1429
419.2728	0.1532
419.4775	0.1468
419.6822	0.1654
419.8868	0.131
420.0915	0.155
420.2961	0.16
420.5007	0.1675
420.7053	0.1619
420.9099	0.1709
421.1144	0.153
421.319	0.1507
421.5235	0.152
421.728	0.1693
421.9325	0.1591
422.137	0.1645
422.3415	0.1437
422.546	0.1489
422.7504	0.1567
422.9549	0.1611
423.1593	0.1592
423.3637	0.1627
423.5681	0.1517
423.7725	0.1477
423.9769	0.1447
424.1812	0.1398
424.3856	0.1425
424.5899	0.1503
424.7942	0.1408
424.9985	0.137
425.2028	0.1361
425.4071	0.1775
425.6113	0.1284
425.8156	0.1439
426.0198	0.158
426.224	0.1409
426.4282	0.1349
426.6324	0.1408
426.8366	0.1519
427.0407	0.1347
427.2449	0.1328
427.449	0.1444
427.6531	0.1213
427.8572	0.1299
428.0613	0.131
428.2654	0.1432
428.4694	0.1227
428.6735	0.1355
428.8775	0.1468
429.0815	0.1329
429.2855	0.1093
429.4895	0.1286
429.6935	0.146
429.8975	0.1199
430.1014	0.1265
430.3053	0.1119
430.5093	0.1315
430.7132	0.107
430.9171	0.1259
431.1209	0.125
431.3248	0.1059
431.5286	0.107
431.7325	0.1154
431.9363	0.1082
432.1401	0.1281
432.3439	0.1086
432.5477	0.0985
432.7514	0.1068
432.9552	0.1111
433.1589	0.0949
433.3627	0.0952
433.5664	0.0913
433.7701	0.1079
433.9737	0.0897
434.1774	0.0958
434.3811	0.0999
434.5847	0.0983
434.7883	0.0918
434.9919	0.1053
435.1955	0.0876
435.3991	0.0829
435.6027	0.0832
435.8062	0.085
436.0098	0.0823
436.2133	0.0798
436.4168	0.0796
436.6203	0.0849
436.8238	0.0945
437.0272	0.0716
437.2307	0.07
437.4341	0.0889
437.6375	0.0841
437.841	0.0579
438.0443	0.0747
438.2477	0.0845
438.4511	0.0656
438.6545	0.0628
438.8578	0.0696
439.0611	0.0786
439.2644	0.0605
439.4677	0.0552
439.671	0.0602
439.8743	0.075
440.0775	0.0704
440.2808	0.0664
440.484	0.0602
440.6872	0.0474
440.8904	0.0519
441.0936	0.0717
441.2967	0.0563
441.4999	0.0641
441.703	0.0663
441.9062	0.0495
442.1093	0.0484
442.3124	0.0668
442.5155	0.0532
442.7185	0.0379
442.9216	0.0418
443.1246	0.0642
443.3276	0.0418
443.5307	0.0492
443.7337	0.0431
443.9366	0.0484
444.1396	0.0463
444.3426	0.0508
444.5455	0.0517
444.7484	0.0453
444.9513	0.0398
445.1542	0.056
445.3571	0.0456
445.56	0.0382
445.7628	0.0286
445.9657	0.0255
446.1685	0.0371
446.3713	0.0388
446.5741	0.037
446.7769	0.0276
446.9797	0.0406
447.1824	0.0253
447.3852	0.0214
447.5879	0.0268
447.7906	0.0468
447.9933	0.0374
448.196	0.0276
448.3986	0.0329
448.6013	0.0246
448.8039	0.0088
449.0066	0.025
449.2092	0.0323
449.4118	0.0228
449.6143	0.0235
449.8169	0.0308
450.0195	0.0217
450.222	-0.0027
450.4245	0.0216
450.627	0.0272
450.8295	0.0239
451.032	0.0144
451.2345	0.0131
451.4369	0.0423
451.6394	0.0216
451.8418	0.0146
452.0442	0.0029
452.2466	0.0193
452.449	0.0003
452.6513	0.0169
452.8537	0.0068
453.056	0.0065
453.2583	0.0309
453.4607	0.016
453.663	0.0238
453.8652	0.0205
454.0675	-0.0006
454.2697	0.0115
454.472	-0.0028
454.6742	0.0124
454.8764	-0.0009
455.0786	0.0397
455.2808	0.017
455.4829	0.0211
455.6851	0.0069
455.8872	0.0203
456.0893	0.0237
456.2915	-0.0064
456.4935	0.0162
456.6956	0.0143
456.8977	0.0152
457.0997	0.0073
457.3018	0.0032
457.5038	0.0049
457.7058	0.0019
457.9078	0.0185
458.1098	0.0154
458.3117	0.0106
458.5137	0.0244
458.7156	-0.0012
458.9175	-0.0138
459.1194	0.0035
459.3213	0.0044
459.5232	-0.0113
459.725	-0.0113
459.9269	-0.0088
460.1287	0.0136
460.3305	0.0063
460.5323	0.0002
460.7341	0.0001
460.9359	0.0033
461.1376	-0.0067
461.3394	-0.0001
461.5411	0.011
461.7428	0.0003
461.9445	0.0111
462.1462	0.0216
462.3479	-0.0146
462.5495	0.0055
462.7512	0.0038
462.9528	-0.0065
463.1544	-0.0144
463.356	-0.0028
463.5576	-0.0057
463.7592	-0.0019
463.9607	0.0023
464.1623	0.0116
464.3638	0.0101
464.5653	-0.0113
464.7668	-0.0013
464.9683	0.0127
465.1697	0.0043
465.3712	-0.007
465.5726	-0.008
465.7741	-0.0024
465.9755	-0.0148
466.1769	0.0071
466.3782	-0.0095
466.5796	-0.01
466.7809	0.0144
466.9823	-0.0012
467.1836	-0.0034
467.3849	-0.0084
467.5862	0.005
467.7875	-0.0006
467.9887	0.019
468.19	-0.0037
468.3912	-0.0203
468.5924	-0.0103
468.7936	-0.0004
468.9948	0.0091
469.196	0.0029
469.3972	-0.0249
469.5983	-0.0061
469.7994	-0.0254
470.0006	-0.0085
470.2017	-0.0282
470.4027	0.0078
470.6038	-0.0012
470.8049	-0.0171
471.0059	-0.0077
471.2069	-0.0363
471.408	0.006
471.6089	0.0026
471.8099	0.0022
472.0109	-0.0011
472.2119	-0.027
472.4128	-0.0179
472.6137	-0.0079
472.8146	-0.0253
473.0155	-0.0027
473.2164	0.0026
473.4173	-0.0042
473.6181	0.0015
473.819	-0.0113
474.0198	-0.0103
474.2206	-0.0048
474.4214	-0.0064
474.6222	-0.0039
474.8229	-0.0038
475.0237	-0.0108
475.2244	-0.0067
475.4251	-0.0069
475.6258	-0.0102
475.8265	-0.0078
476.0272	0.008
476.2278	-0.0027
476.4285	-0.0046
476.6291	-0.0138
476.8297	-0.0098
477.0303	-0.0007
477.2309	0.0007
477.4315	-0.0174
477.632	-0.0115
477.8326	-0.0175
478.0331	-0.0045
478.2336	0.0023
478.4341	-0.0052
478.6346	-0.0139
478.8351	-0.0112
479.0355	0.0011
479.236	-0.0042
479.4364	-0.0003
479.6368	0.0085
479.8372	-0.0129
480.0376	-0.0085
480.2379	-0.0294
480.4383	-0.0136
480.6386	0.0035
480.8389	-0.008
481.0392	-0.0159
481.2395	-0.0085
481.4398	0.0013
481.6401	-0.0041
481.8403	-0.006
482.0405	-0.01
482.2408	-0.0102
482.441	0.0016
482.6411	-0.0089
482.8413	-0.0184
483.0415	-0.0177
483.2416	-0.0135
483.4417	-0.0056
483.6419	-0.0096
483.8419	0.0023
484.042	0.0049
484.2421	-0.0062
484.4422	0.0015
484.6422	-0.004
484.8422	-0.0054
485.0422	-0.0135
485.2422	0.0005
485.4422	-0.0121
485.6422	-0.0168
485.8421	-0.0081
486.042	-0.0036
486.242	-0
486.4419	-0.0117
486.6417	-0.0074
486.8416	-0.0017
487.0415	-0.0145
487.2413	-0.0146
487.4411	-0.0044
487.641	-0.0069
487.8408	0.0012
488.0405	-0.0054
488.2403	-0.0099
488.4401	-0.0038
488.6398	-0.0042
488.8395	-0.0194
489.0392	0.0041
489.2389	-0.0056
489.4386	-0.0049
489.6383	-0.0006
489.8379	0.001
490.0376	-0.0104
490.2372	-0.02
490.4368	-0.0193
490.6364	-0.0155
490.836	-0.0109
491.0355	-0.0114
491.2351	-0.0175
491.4346	-0.0044
491.6341	-0.0142
491.8336	-0.0052
492.0331	-0.0189
492.2326	-0.0147
492.432	-0.0147
492.6315	-0.0074
492.8309	-0.0266
493.0303	-0.0127
493.2297	-0.008
493.4291	-0.0095
493.6284	-0.0081
493.8278	-0.0041
494.0271	0.0031
494.2264	-0.0052
494.4257	-0.0272
494.625	-0.0142
494.8243	-0.0179
495.0236	-0.0083
495.2228	-0.0057
495.422	-0.0073
495.6213	-0.006
495.8205	0.0015
496.0196	-0.0111
496.2188	-0.0042
496.418	-0.0187
496.6171	0.0001
496.8162	-0.0223
497.0153	0.0096
497.2144	-0.0162
497.4135	-0.0075
497.6126	-0.0089
497.8116	-0.0074
498.0107	-0.0037
498.2097	-0.0137
498.4087	-0.0205
498.6077	-0.0065
498.8067	-0.0161
499.0056	0.0024
499.2046	-0.0106
499.4035	-0.0171
499.6024	-0.0031
499.8013	-0.0025
500.0002	-0.0155
500.199	-0.0047
500.3979	-0.0157
500.5967	-0.0266
500.7956	-0.0009
500.9944	-0.004
501.1932	-0.0174
501.3919	-0.0056
501.5907	-0.021
501.7895	-0.0039
501.9882	-0.0112
502.1869	-0.0051
502.3856	-0.0133
502.5843	-0.0222
502.783	-0.0135
502.9816	-0.0057
503.1803	-0.0183
503.3789	-0.0114
503.5775	0.002
503.7761	-0.0055
503.9747	-0.002
504.1732	-0.0098
504.3718	-0.0017
504.5703	-0.0076
504.7689	-0.0105
504.9674	-0.0149
505.1658	-0.0107
505.3643	-0.0114
505.5628	-0.0124
505.7612	-0.0147
505.9597	-0.0056
506.1581	-0.0196
506.3565	0.0005
506.5549	-0.0174
506.7532	-0.0159
506.9516	-0.0068
507.1499	-0.0096
507.3482	-0.0211
507.5465	-0.0088
507.7448	-0.0046
507.9431	-0.0099
508.1414	-0.0029
508.3396	-0.0176
508.5379	-0.0145
508.7361	-0.0155
508.9343	-0.01
509.1325	-0.0045
509.3306	-0.0021
509.5288	-0.0065
509.7269	-0.0095
509.9251	-0.0099
510.1232	-0.0046
510.3213	-0.0012
510.5193	-0.0055
510.7174	-0.0192
510.9154	-0.0099
511.1135	-0.0179
511.3115	-0.0114
511.5095	-0.0038
511.7075	-0.0033
511.9055	-0.0012
512.1034	-0.0096
512.3014	0.0026
512.4993	-0.0092
512.6972	-0.0168
512.8951	-0.0289
513.093	-0.0064
513.2908	-0.0065
513.4887	-0.0095
513.6865	-0.0036
513.8844	-0.023
514.0822	-0.0152
514.2799	-0.0025
514.4777	-0.0167
514.6755	-0.0043
514.8732	-0.0174
515.0709	-0.0043
515.2687	-0.0141
515.4664	-0.0051
515.664	-0.0096
515.8617	-0.012
516.0594	-0.0214
516.257	-0.009
516.4546	-0.0247
516.6522	-0.0079
516.8498	-0.0098
517.0474	-0.0047
517.2449	0.0028
517.4425	-0.0112
517.64	-0.0169
517.8375	-0.0015
518.035	-0.0059
518.2325	-0.009
518.43	-0.0129
518.6274	-0.0134
518.8249	-0.0113
519.0223	-0.0006
519.2197	-0.0049
519.4171	-0.0119
519.6145	-0.011
519.8118	-0.0005
520.0092	-0.0061
520.2065	-0.0253
520.4038	-0.0177
520.6011	0.0013
520.7984	-0.0178
520.9956	-0.0052
521.1929	-0.0199
521.3901	-0.008
521.5874	-0.0136
521.7846	-0.0055
521.9818	-0.0114
522.1789	-0.0116
522.3761	-0.0173
522.5732	-0.0073
522.7704	-0.0124
522.9675	-0.0019
523.1646	-0.0058
523.3617	-0
523.5587	-0.008
523.7558	-0.0077
523.9528	-0.0046
524.1498	0.0029
524.3468	-0.004
524.5438	-0.0108
524.7408	-0.009
524.9378	-0.0012
525.1347	-0.0089
525.3316	-0.0027
525.5285	-0.0186
525.7254	-0.0178
525.9223	-0.0094
526.1192	0.0001
526.316	-0.0088
526.5129	-0.0011
526.7097	-0.0052
526.9065	-0.0078
527.1033	-0.0085
527.3	-0.0011
527.4968	-0.0027
527.6935	-0.0069
527.8903	-0.0163
528.087	-0.0079
528.2837	-0.0079
528.4804	-0.0007
528.677	-0.0107
528.8737	-0.0051
529.0703	-0.0078
529.2669	-0.0082
529.4635	-0.0025
529.6601	0.0062
529.8567	-0.0015
530.0532	-0.0097
530.2498	-0.0046
530.4463	-0.0074
530.6428	-0.0133
530.8393	0.0079
531.0358	-0.0032
531.2322	-0.0104
531.4287	-0.0162
531.6251	-0.006
531.8215	0.0078
532.0179	-0.0055
532.2143	0.0076
532.4107	-0.0084
532.607	-0.0095
532.8034	-0.0119
532.9997	0.0022
533.196	-0.0018
533.3923	-0.0072
533.5886	0.0021
533.7848	0.0019
533.9811	-0.0011
534.1773	-0.0087
534.3735	0.0023
534.5697	-0.0058
534.7659	-0.0098
534.9621	-0.0058
535.1582	-0.0005
535.3544	-0.0142
535.5505	-0.0183
535.7466	-0.0109
535.9427	-0.0076
536.1387	-0.0115
536.3348	-0.021
536.5308	0.0081
536.7269	-0.0236
536.9229	-0.0029
537.1189	-0.0038
537.3148	-0.0054
537.5108	-0.0117
537.7068	0.0019
537.9027	-0.0062
538.0986	-0.0027
538.2945	-0.0013
538.4904	-0.0163
538.6863	-0.0009
538.8821	-0.002
539.078	-0.0046
539.2738	-0.0032
539.4696	-0.0108
539.6654	0.0089
539.8611	0.0056
540.0569	-0.0037
540.2526	-0.0074
540.4484	-0.0045
540.6441	0.0094
540.8398	0.0029
541.0355	0.002
541.2311	-0.0078
541.4268	-0.0163
541.6224	0.0029
541.818	-0.0051
542.0136	-0.0082
542.2092	0.0063
542.4048	0.0034
542.6003	-0.0036
542.7959	-0.0005
542.9914	-0.0059
543.1869	0.0011
543.3824	-0.0057
543.5779	-0.01
543.7734	-0.0053
543.9688	-0.014
544.1642	-0.0052
544.3596	-0.0006
544.555	-0.0054
544.7504	0.0071
544.9458	-0.0003
545.1411	-0.0048
545.3365	-0.0022
545.5318	-0.0086
545.7271	-0.0035
545.9224	-0.0143
546.1177	-0.0003
546.3129	-0.0035
546.5081	-0.0042
546.7034	-0.0154
546.8986	-0.0028
547.0938	-0.0089
547.289	-0.0041
547.4841	0.001
547.6793	0.0043
547.8744	-0.0094
548.0695	0.0008
548.2646	-0.0032
548.4597	0.0012
548.6548	-0.0027
548.8498	-0.0056
549.0448	0.0026
549.2399	-0.0066
549.4349	0.0056
549.6298	-0.0002
549.8248	0.0004
550.0198	-0.0019
550.2147	-0.0055
550.4096	-0.0016
550.6045	-0.0021
550.7994	0.0034
550.9943	0.0005
551.1892	0.0039
551.384	0.0009
551.5788	-0.0054
551.7737	0.0023
551.9685	-0.0013
552.1632	-0.0028
552.358	0.0005
552.5528	-0.0055
552.7475	-0.0063
552.9422	0.0038
553.1369	-0.0015
553.3316	0.0154
553.5263	-0.0067
553.7209	0.0127
553.9156	-0.0026
554.1102	-0.0099
554.3048	-0.0054
554.4994	0.0078
554.694	-0.008
554.8885	0.0035
555.0831	-0.0109
555.2776	-0.0058
555.4721	-0.0049
555.6666	-0.0011
555.8611	0.0035
556.0555	0.0064
556.25	0.0052
556.4444	-0.0088
556.6388	0.0024
556.8332	-0.0005
557.0276	0.002
557.222	-0.0046
557.4163	0.0001
557.6107	-0.0126
557.805	0.0026
557.9993	-0.0092
558.1936	-0.0077
558.3879	0.0056
558.5821	0.0003
558.7764	0.0052
558.9706	-0.0009
559.1648	0.0005
559.359	-0.0121
559.5532	-0.0038
559.7473	-0.0034
559.9415	-0.0025
560.1356	-0.0114
560.3297	-0.0102
560.5238	-0.0011
560.7179	-0.0022
560.9119	-0.0072
561.106	-0.0034
561.3	-0.0079
561.494	0.0043
561.688	-0.0041
561.882	-0.0073
562.076	0.0001
562.2699	0.0004
562.4639	-0.0047
562.6578	0.0055
562.8517	-0.0012
563.0456	0.0006
563.2395	0.0076
563.4333	-0.0005
563.6272	0.0052
563.821	-0.0025
564.0148	0.0002
564.2086	-0.0093
564.4024	-0.0116
564.5961	-0.001
564.7899	0.004
564.9836	0.0008
565.1773	0.0008
565.371	0.0071
565.5647	-0.0006
565.7584	0.0075
565.952	-0.0004
566.1456	0.002
566.3393	-0.0007
566.5329	-0.0083
566.7264	-0.0071
566.92	-0.0064
567.1136	-0.0047
567.3071	-0.0031
567.5006	0.0021
567.6941	0.0008
567.8876	0.0005
568.0811	-0.0014
568.2745	0.0014
568.468	0.0069
568.6614	0.0046
568.8548	-0.0014
569.0482	-0.0085
569.2416	0.002
569.4349	-0.0008
569.6283	0.0033
569.8216	-0.006
570.0149	-0.0024
570.2082	0.004
570.4015	0.0033
570.5947	0.001
570.788	0.005
570.9812	0.0027
571.1744	-0.0045
571.3676	-0.0096
571.5608	-0.0016
571.754	0.0012
571.9471	0.0021
572.1402	-0.002
572.3333	-0.001
572.5264	-0.0022
572.7195	-0.0029
572.9126	0.0022
573.1057	0.0012
573.2987	0.0033
573.4917	0.0019
573.6847	-0.0122
573.8777	0.0043
574.0707	0.0072
574.2636	-0.0051
574.4566	-0.003
574.6495	0.0115
574.8424	0.0024
575.0353	0.0011
575.2281	0.0064
575.421	-0.0015
575.6138	0.0037
575.8067	-0.0007
575.9995	-0.0047
576.1923	0.0037
576.385	-0.0003
576.5778	-0.007
576.7706	-0.0056
576.9633	-0.0023
577.156	0.0045
577.3487	-0.0049
577.5414	0.0008
577.734	-0.0079
577.9267	-0.0016
578.1193	-0.0113
578.3119	-0.009
578.5045	-0.0049
578.6971	-0.0028
578.8897	-0.0023
579.0822	0.0003
579.2747	0.0012
579.4673	-0.007
579.6598	-0.0041
579.8522	-0.0075
580.0447	-0.0033
580.2372	-0.0008
580.4296	0.0072
580.622	-0.0056
580.8144	0.002
581.0068	-0.0022
581.1992	-0.0104
581.3915	-0.0115
581.5839	-0.0128
581.7762	-0.0029
581.9685	-0.0091
582.1608	0.0011
582.353	-0.0053
582.5453	-0.0014
582.7375	0.0015
582.9298	-0.0015
583.122	-0.0031
583.3142	-0.007
583.5063	-0.0065
583.6985	-0.0079
583.8906	-0.0016
584.0827	-0.0011
584.2749	-0.0015
584.4669	0.0022
584.659	-0.0053
584.8511	-0.005
585.0431	-0.0075
585.2352	-0.0024
585.4272	-0.0033
585.6192	0.0001
585.8111	0.0006
586.0031	0.0007
586.195	0.0038
586.387	0.0049
586.5789	-0.0018
586.7708	0.0027
586.9627	0.0047
587.1545	-0.0025
587.3464	0.0038
587.5382	0.0006
587.73	-0.0016
587.9218	0.0024
588.1136	-0.004
588.3053	0.0054
588.4971	-0.0058
588.6888	-0.0155
588.8805	0.0014
589.0722	0.0051
589.2639	0.0009
589.4556	-0.0033
589.6472	-0.0019
589.8389	-0.004
590.0305	-0.0069
590.2221	0.0007
590.4137	-0.0189
590.6052	0.0001
590.7968	0.0008
590.9883	0.0001
591.1798	0.0013
591.3713	-0.0004
591.5628	0.0033
591.7543	0.0025
591.9458	-0.0001
592.1372	0.0033
592.3286	-0.0015
592.52	0.0032
592.7114	-0.0078
592.9028	-0.0026
593.0941	-0.0045
593.2855	0.0006
593.4768	-0.0001
593.6681	-0.0088
593.8594	-0.0074
594.0506	-0.0041
594.2419	0.0067
594.4331	-0.0009
594.6244	0.0073
594.8156	-0.0063
595.0067	0.0015
595.1979	0.009
595.3891	-0.0003
595.5802	-0.0006
595.7713	-0.0073
595.9624	-0.0033
596.1535	0.008
596.3446	0.0003
596.5357	0.0069
596.7267	0.0103
596.9177	-0.0033
597.1087	-0.0029
597.2997	-0.0003
597.4907	0.0033
597.6817	-0.0041
597.8726	0.0014
598.0635	-0.0006
598.2544	0.0026
598.4453	-0.0015
598.6362	0.0005
598.827	-0.001
599.0179	0.0058
599.2087	0.0048
599.3995	-0.0004
599.5903	0.0055
599.7811	0.0025
599.9718	0.0025
600.1626	-0.0039
600.3533	-0.0007
600.544	-0.002
600.7347	-0.0035
600.9254	0.0019
601.116	-0.0039
601.3067	-0.0073
601.4973	-0.0029
601.6879	0.0067
601.8785	-0.0004
602.0691	-0
602.2596	0.012
602.4502	0.0116
602.6407	0.0013
602.8312	0.0029
603.0217	-0.0031
603.2122	0.0072
603.4027	0.0021
603.5931	0.0066
603.7835	-0.0013
603.9739	-0.0027
604.1643	-0.0003
604.3547	-0.0051
604.5451	0.0098
604.7354	0.0006
604.9257	-0.0011
605.116	-0.0048
605.3063	0.0026
605.4966	0.0002
605.6869	0.0073
605.8771	0.0057
606.0673	0.0066
606.2575	0.0037
606.4477	0.0086
606.6379	0.0022
606.8281	0.0028
607.0182	-0.0013
607.2083	0.0099
607.3985	0.0011
607.5885	0.0025
607.7786	0.0063
607.9687	-0.0003
608.1587	0.0048
608.3488	0.0034
608.5388	0.0006
608.7288	-0.008
608.9187	-0.0083
609.1087	-0.005
609.2986	-0.0067
609.4886	-0.0032
609.6785	-0.0035
609.8684	0.0001
610.0582	-0.0051
610.2481	-0.0057
610.4379	-0.0066
610.6278	-0.0072
610.8176	-0.0039
611.0074	-0.0059
611.1971	-0.0033
611.3869	-0.0014
611.5766	-0.0099
611.7664	0.0028
611.9561	-0.0021
612.1458	-0.0001
612.3354	-0.0094
612.5251	-0.0024
612.7147	0.0028
612.9044	0.0118
613.094	-0.0076
613.2836	0.0006
613.4731	-0.0001
613.6627	-0.0005
613.8522	0.0016
614.0417	0.0057
614.2313	-0.0041
614.4207	0.0017
614.6102	0.0029
614.7997	-0.0017
614.9891	-0.0051
615.1785	0.001
615.3679	-0.0048
615.5573	0.0084
615.7467	-0.0052
615.9361	-0.0072
616.1254	-0.0076
616.3147	-0.0013
616.504	0.006
616.6933	0.002
616.8826	0.0021
617.0718	0.0039
617.2611	-0.004
617.4503	0.0006
617.6395	-0.0017
617.8287	-0.0063
618.0179	0.0013
618.207	0.006
618.3961	0.0011
618.5853	0.0002
618.7744	0.0018
618.9634	0.0091
619.1525	0.0043
619.3416	0.0032
619.5306	-0.0005
619.7196	0.0058
619.9086	-0.0004
620.0976	0.0035
620.2866	-0.0014
620.4755	0.0078
620.6645	-0.0017
620.8534	-0.0007
621.0423	-0.001
621.2312	-0.0012
621.42	-0.0021
621.6089	0.0004
621.7977	0.0038
621.9865	-0.0048
622.1753	0.0025
622.3641	-0.0028
622.5529	0.0091
622.7416	0.0056
622.9303	-0.002
623.1191	0.0057
623.3078	-0.0046
623.4964	-0.0009
623.6851	-0.0039
623.8737	0.0011
624.0624	0.005
624.251	-0.0082
624.4396	0.0017
624.6282	-0.0065
624.8167	0.0068
625.0053	-0.0016
625.1938	-0
625.3823	0.0053
625.5708	0.0006
625.7593	-0.0044
625.9477	-0.0033
626.1362	0.0034
626.3246	0.0034
626.513	0.0155
626.7014	0.0045
626.8898	0.0012
627.0781	0.0023
627.2665	-0.0017
627.4548	0.005
627.6431	0.0029
627.8314	0.0076
628.0197	0.006
628.2079	-0.0029
628.3962	0.0002
628.5844	0.0043
628.7726	0.0091
628.9608	0.0113
629.1489	0.0002
629.3371	0.007
629.5252	-0.0017
629.7134	0.0083
629.9015	0.0037
630.0895	0.0039
630.2776	0.0068
630.4657	-0.0033
630.6537	0.002
630.8417	-0.0039
631.0297	-0.0016
631.2177	0.0003
631.4057	-0.008
631.5936	0.0024
631.7815	-0.0043
631.9695	0.0026
632.1574	0.001
632.3452	0.0096
632.5331	0.0031
632.7209	-0.002
632.9088	0.0142
633.0966	0.0091
633.2844	0.002
633.4722	0.0032
633.6599	0.0028
633.8477	0.0059
634.0354	0.0015
634.2231	-0.0004
634.4108	0.0065
634.5985	0.0064
634.7861	0.0006
634.9738	-0.0001
635.1614	-0.0031
635.349	0.0101
635.5366	0.0032
635.7242	0.0024
635.9117	0.0022
636.0993	0.0007
636.2868	0.0085
636.4743	-0.0019
636.6618	0.0152
636.8492	0.0054
637.0367	-0.0013
637.2241	-0.0057
637.4115	-0.0056
637.5989	-0.0051
637.7863	0.0022
637.9737	0.0005
638.161	-0.0016
638.3484	0.0038
638.5357	0.0027
638.723	-0.0046
638.9103	0.0028
639.0975	0.0077
639.2848	0.0002
639.472	0.009
639.6592	0.0099
639.8464	0.012
640.0336	0.0067
640.2208	-0.0023
640.4079	0.0006
640.595	0.0024
640.7821	0.0053
640.9692	-0.0003
641.1563	0.0059
641.3434	0.0017
641.5304	0.0031
641.7174	-0.0012
641.9044	0.0024
642.0914	0.0037
642.2784	0.0056
642.4653	0.0104
642.6523	0.0059
642.8392	0.0002
643.0261	0.0015
643.213	0.0018
643.3999	-0.003
643.5867	0.0003
643.7735	0.0024
643.9604	-0.0012
644.1472	0.0058
644.3339	0.0089
644.5207	-0.0029
644.7075	-0.0011
644.8942	0.0095
645.0809	0.008
645.2676	0.0064
645.4543	-0.0006
645.6409	0.0008
645.8276	0.0038
646.0142	0.0095
646.2008	0.0002
646.3874	0.0007
646.574	0.007
646.7605	-0.0055
646.9471	-0.0059
647.1336	0.0009
647.3201	0.007
647.5066	-0.0057
647.6931	0.0005
647.8795	0.0102
648.0659	0.0015
648.2524	0.0058
648.4388	-0.004
648.6252	-0.0023
648.8115	0.0013
648.9979	-0.0031
649.1842	0.0047
649.3705	0.0025
649.5568	0.0031
649.7431	0.0035
649.9294	-0.0009
650.1156	0.002
650.3018	-0.0036
650.488	0.0011
650.6742	0.001
650.8604	0.0031
651.0466	0.0044
651.2327	0.0007
651.4188	0.0038
651.6049	-0.0001
651.791	0.0027
651.9771	0.0046
652.1632	0.0027
652.3492	0.0009
652.5352	0.0018
652.7212	-0.0044
652.9072	0.007
653.0932	0.0018
653.2791	0.0026
653.465	0.0047
653.651	0.0023
653.8369	-0.0003
654.0227	-0.0016
654.2086	0.004
654.3944	0.0075
654.5803	0.0012
654.7661	0.0052
654.9519	0.0062
655.1377	-0.0047
655.3234	-0.003
655.5092	-0.0052
655.6949	-0.0072
655.8806	-0.008
656.0663	-0.0043
656.2519	-0.004
656.4376	-0.0051
656.6232	0.0029
656.8088	-0.0007
656.9945	-0.0003
657.18	0.0022
657.3656	-0.002
657.5511	0.0042
657.7367	0
657.9222	0.0071
658.1077	0.0008
658.2932	-0.0019
658.4786	-0.0083
658.6641	0.0042
658.8495	-0.0031
659.0349	-0.0048
659.2203	0.0073
659.4057	0.0047
659.591	0.0132
659.7764	0.0029
659.9617	0.0041
660.147	0.0079
660.3323	0.0067
660.5176	0.0106
660.7028	0.0091
660.888	0.0121
661.0733	0.005
661.2585	-0.0049
661.4436	-0.0037
661.6288	0.0003
661.8139	0.0069
661.9991	0.0166
662.1842	-0.0016
662.3693	0.0083
662.5544	-0.0012
662.7394	0.0033
662.9245	-0.0027
663.1095	0.0017
663.2945	-0.0078
663.4795	0.0005
663.6644	0.0055
663.8494	-0.0051
664.0343	0.0038
664.2193	-0.0075
664.4042	0.0025
664.589	-0.003
664.7739	-0.0017
664.9587	-0.007
665.1436	-0.0005
665.3284	-0.0011
665.5132	-0.0033
665.698	-0.0042
665.8827	0.01
666.0675	0.0055
666.2522	-0.0035
666.4369	0.0068
666.6216	0.0107
666.8063	0.0043
666.9909	0.0045
667.1756	0.006
667.3602	0.003
667.5448	0.001
667.7294	0.0072
667.9139	0.0005
668.0985	0.0084
668.283	-0.0007
668.4675	0.0023
668.652	-0.0068
668.8365	-0.0041
669.0209	0.0049
669.2054	0.0101
669.3898	0.0053
669.5742	0.0023
669.7586	0.0052
669.943	0.0092
670.1273	0.0117
670.3117	0.0049
670.496	0.0099
670.6803	0.014
670.8646	0.0119
671.0488	-0.0034
671.2331	0.0103
671.4173	0.0066
671.6015	0.0013
671.7857	0.0031
671.9699	0.0084
672.1541	0.0052
672.3382	0.0065
672.5223	0.0099
672.7064	0.0109
672.8905	0.0101
673.0746	0.0113
673.2587	0.0001
673.4427	0.0114
673.6267	0.0095
673.8107	0.0092
673.9947	0.0092
674.1787	0.0002
674.3626	0.004
674.5465	0.0001
674.7304	-0.0006
674.9143	0.0073
675.0982	0.0089
675.2821	-0.0033
675.4659	0.0053
675.6497	0.0049
675.8335	0.0094
676.0173	0.0056
676.2011	0.0034
676.3849	0.0077
676.5686	-0.0031
676.7523	-0.0024
676.936	-0.0004
677.1197	-0.002
677.3034	-0.0007
677.487	0.0094
677.6706	0.0023
677.8542	0.0029
678.0378	-0.0059
678.2214	0.007
678.405	0.004
678.5885	-0.0034
678.772	0.0039
678.9555	-0.0014
679.139	-0.005
679.3225	0.0019
679.5059	0.0035
679.6894	0.0019
679.8728	0.0003
680.0562	-0.0104
680.2395	-0.0004
680.4229	0.0022
680.6062	0.0066
680.7896	0.0055
680.9729	-0.0005
681.1562	0.0079
681.3394	0.0042
681.5227	-0.0056
681.7059	0.0036
681.8891	-0.0048
682.0723	0.0094
682.2555	0.0067
682.4387	-0.0011
682.6218	-0.0011
682.805	0.0081
682.9881	0.0034
683.1712	-0.0029
683.3542	0.0032
683.5373	0.0009
683.7203	-0.0038
683.9034	0.0018
684.0864	0.0003
684.2694	0.0014
684.4523	0.0036
684.6353	0.0022
684.8182	0.0078
685.0011	-0.0025
685.184	0.0101
685.3669	0.0091
685.5498	0.0062
685.7326	0.0145
685.9154	-0.0013
686.0982	0.0131
686.281	0.0127
686.4638	0.0066
686.6465	-0.0004
686.8293	0.006
687.012	0.0041
687.1947	0.0031
687.3774	-0.0025
687.56	-0.0004
687.7427	0.0044
687.9253	-0.0026
688.1079	0.0053
688.2905	0.0073
688.4731	0.0012
688.6556	0.0008
688.8382	0.0048
689.0207	0.0082
689.2032	-0.0042
689.3857	-0.0025
689.5681	0.0066
689.7506	-0.0003
689.933	-0.0038
690.1154	0.0035
690.2978	0.0027
690.4802	0.0052
690.6626	-0.0042
690.8449	0.0011
691.0272	0.0058
691.2095	-0.0008
691.3918	-0.0062
691.5741	0.0043
691.7563	-0.0039
691.9386	0.0025
692.1208	-0.0035
692.303	-0.0026
692.4852	-0.0006
692.6673	-0.0028
692.8495	0.0036
693.0316	0.0036
693.2137	0.0018
693.3958	-0.0028
693.5778	-0.0047
693.7599	-0.0043
693.9419	0.0039
694.1239	0.0075
694.3059	-0.0023
694.4879	0.0034
694.6699	0.0089
694.8518	0.0075
695.0337	-0.0063
695.2157	0.0064
695.3975	0.0023
695.5794	0.0034
695.7613	0.0054
695.9431	-0.0021
696.1249	0.003
696.3067	0.0039
696.4885	0.007
696.6703	-0.0023
696.852	0.0036
697.0337	0.0021
697.2154	0.0024
697.3971	0.0049
697.5788	0.0064
697.7605	0.0058
697.9421	0.0064
698.1237	-0.0012
698.3053	0.005
698.4869	-0.007
698.6685	-0.0123
698.85	0.0046
699.0315	0.0109
699.213	0.0034
699.3945	-0.0015
699.576	0.0026
699.7575	0.0121
699.9389	0.0073
700.1203	-0.0026
700.3017	-0.0121
700.4831	-0.0108
700.6645	-0.0021
700.8458	-0.0012
701.0271	-0.0024
701.2084	0.0065
701.3897	-0.0044
701.571	0.0013
701.7523	-0.0068
701.9335	-0.0005
702.1147	0.0024
702.2959	-0.003
702.4771	0.0046
702.6583	-0.0006
702.8394	-0.0081
703.0205	0.0031
703.2016	-0.0005
703.3827	0.0018
703.5638	0.012
703.7449	0.0063
703.9259	0.013
704.1069	0.0008
704.2879	0.007
704.4689	0.0082
704.6499	0.0054
704.8308	0.0035
705.0117	0.0062
705.1927	-0.0016
705.3735	0.0009
705.5544	-0.0017
705.7353	-0.0075
705.9161	-0.0018
706.0969	-0.0063
706.2777	0.0058
706.4585	-0.0058
706.6393	0.005
706.82	0.0021
707.0007	0.0004
707.1815	0.0091
707.3621	0.0022
707.5428	0.0011
707.7235	0.004
707.9041	0.0086
708.0847	-0.0036
708.2653	-0.0023
708.4459	-0.0088
708.6265	0.0033
708.807	0.0061
708.9875	-0.0032
709.168	0.0008
709.3485	-0.0079
709.529	-0.0009
709.7095	-0.009
709.8899	0.0055
710.0703	-0.0058
710.2507	-0.001
710.4311	-0.0008
710.6115	-0.0047
710.7918	-0.0049
710.9721	-0.006
711.1524	-0.003
711.3327	0.002
711.513	0.0029
711.6932	0.0053
711.8735	0.0103
712.0537	0.0087
712.2339	-0.0069
712.4141	-0.0039
712.5942	-0.0093
712.7744	0.0036
712.9545	-0.0043
713.1346	-0.0004
713.3147	0.0012
713.4947	-0.0005
713.6748	-0.0017
713.8548	0.001
714.0348	-0.0019
714.2148	-0.0052
714.3948	0.0129
714.5748	0.0085
714.7547	0.0043
714.9346	0.0098
715.1145	0.002
715.2944	-0.0015
715.4743	-0.0038
715.6541	-0.0068
715.834	0.011
716.0138	0.0072
716.1936	-0.0098
716.3733	0.0035
716.5531	0.0025
716.7328	-0.0031
716.9126	0.0048
717.0923	0.0007
717.2719	0.002
717.4516	0.0103
717.6312	0.003
717.8109	-0.0097
717.9905	-0.004
718.1701	-0.0043
718.3496	-0.0015
718.5292	0.0015
718.7087	0.0034
718.8882	-0.0028
719.0677	0.0134
719.2472	0.0026
719.4267	0.0063
719.6061	0.0023
719.7856	0.0139
719.965	0.0127
720.1443	0.0015
720.3237	0.0158
720.5031	0.0104
720.6824	0.0156
720.8617	0.003
721.041	0
721.2203	0.0085
721.3995	0.004
721.5788	0.0068
721.758	0.0104
721.9372	-0.002
722.1164	0.0027
722.2956	0.0033
722.4747	0.0089
722.6538	-0.0011
722.8329	0.0097
723.012	0.0051
723.1911	0.001
723.3702	0.0065
723.5492	-0.0062
723.7282	-0.0065
723.9072	-0.008
724.0862	-0.0047
724.2652	-0.0071
724.4441	0.001
724.623	0.0041
724.8019	0.0007
724.9808	-0.0009
725.1597	-0
725.3385	0.0065
725.5174	0.0078
725.6962	0.0051
725.875	-0
726.0538	0.0035
726.2325	-0.0063
726.4112	0.0036
726.59	0.0027
726.7687	-0.0045
726.9474	0.0028
727.126	-0.0001
727.3047	-0.0056
727.4833	0.0011
727.6619	-0.0105
727.8405	-0.0036
728.0191	-0.0023
728.1976	0.0028
728.3762	-0.0042
728.5547	-0.0024
728.7332	-0.0168
728.9116	0.0017
729.0901	0.0008
729.2686	-0.0009
729.447	0.003
729.6254	0.0099
729.8038	-0.0015
729.9821	-0.0097
730.1605	0.0011
730.3388	-0.0038
730.5171	0
730.6954	-0.0138
730.8737	-0.0016
731.0519	0.0026
731.2302	0.0037
731.4084	0.0038
731.5866	0.0073
731.7648	-0.0049
731.9429	0.0028
732.1211	-0.0062
732.2992	0.0049
732.4773	-0.0022
732.6554	-0.004
732.8335	0.0071
733.0115	0.0054
733.1896	0.0108
733.3676	-0.0041
733.5456	0.0065
733.7235	0.007
733.9015	0.0099
734.0794	0.004
734.2574	0.0052
734.4353	-0.0043
734.6131	0.0096
734.791	0.0043
734.9689	0.002
735.1467	0.002
735.3245	-0.0151
735.5023	-0.0113
735.68	0.0046
735.8578	-0.0014
736.0355	-0.0178
736.2132	0.0028
736.3909	-0.0106
736.5686	-0.0046
736.7463	-0.0014
736.9239	-0.0131
737.1015	-0.0104
737.2791	-0.0028
737.4567	-0.004
737.6343	-0.0117
737.8118	-0.0046
737.9894	-0.0038
738.1669	-0.0076
738.3444	-0.0114
738.5218	0.0007
738.6993	0.0051
738.8767	-0.0027
739.0541	0.006
739.2315	-0.0045
739.4089	0.001
739.5863	0.0072
739.7636	0.0056
739.9409	0.0052
740.1182	0.011
740.2955	0.0114
740.4728	0.0069
740.65	-0.0012
740.8272	0.0001
741.0044	-0.0016
741.1816	-0.0012
741.3588	-0.0036
741.5359	-0.0009
741.7131	-0.0141
741.8902	-0.0005
742.0673	-0.0002
742.2444	-0.0141
742.4214	-0.0059
742.5985	-0.0045
742.7755	-0.0028
742.9525	-0.0082
743.1295	0.0032
743.3064	-0.0002
743.4834	0.0067
743.6603	0.0089
743.8372	-0.0028
744.0141	0.0051
744.191	0.0094
744.3678	-0.0058
744.5446	0.0034
744.7215	0.0021
744.8982	-0.0004
745.075	-0.0037
745.2518	0.0025
745.4285	0.0066
745.6052	-0.0054
745.7819	-0.0011
745.9586	0.005
746.1353	0.0017
746.3119	0.0011
746.4885	-0.0027
746.6651	-0.0022
746.8417	0.0019
747.0183	-0.0041
747.1948	0.0027
747.3714	-0.0003
747.5479	0.0035
747.7244	-0.0025
747.9008	0.0091
748.0773	0.0089
748.2537	-0.0024
748.4301	-0.0075
748.6065	0.0095
748.7829	0.0059
748.9593	-0.0067
749.1356	-0.0042
749.3119	-0.0032
749.4882	-0.0114
749.6645	0.0098
749.8408	-0.0037
750.017	0.0028
750.1933	-0.0005
750.3695	-0.0108
750.5457	-0.0038
750.7218	-0.0018
750.898	0.0084
751.0741	-0.0028
751.2502	0.0017
751.4263	-0.0057
751.6024	-0.0005
751.7784	-0.0049
751.9545	-0.0072
752.1305	-0.0041
752.3065	-0.0075
752.4825	0.002
752.6584	-0.0089
752.8344	-0.0202
753.0103	-0.0052
753.1862	-0.0159
753.3621	0.0003
753.5379	-0.0097
753.7138	-0.0021
753.8896	-0.0033
754.0654	0.0071
754.2412	0.0028
754.417	0.0066
754.5927	-0.0014
754.7685	-0.0073
754.9442	-0.0082
755.1199	0.0037
755.2956	-0.004
755.4712	0.007
755.6469	0.0014
755.8225	-0.0055
755.9981	-0.008
756.1736	0.0062
756.3492	-0.0006
756.5248	-0.01
756.7003	-0.0034
756.8758	0.0046
757.0513	-0.0135
757.2267	-0.0037
757.4022	-0.0032
757.5776	-0.0051
757.753	0.0052
757.9284	0.0024
758.1038	0.0146
758.2791	0.0113
758.4545	-0.0119
758.6298	-0.0024
758.8051	0.0003
758.9803	0.0083
759.1556	0.0101
759.3308	0.0016
759.506	0.0127
759.6812	0.0005
759.8564	0.0135
760.0316	-0.0021
760.2067	0.0092
760.3819	0.0109
760.557	0.0132
760.732	0.0001
760.9071	-0.0094
761.0821	0.0025
761.2572	0.0088
761.4322	0
761.6072	0.0007
761.7821	-0.0106
761.9571	0.0035
762.132	0.0003
762.3069	-0.0095
762.4818	-0.0098
762.6567	0.0025
762.8316	0.0037
763.0064	-0.0019
763.1812	-0.0071
763.356	-0.0208
763.5308	-0.0007
763.7055	-0.0028
763.8803	-0.0064
764.055	-0.0073
764.2297	0.0012
764.4044	-0.0066
764.579	0.0018
764.7537	-0.0166
764.9283	-0.0007
765.1029	-0.0003
765.2775	-0.0067
765.4521	-0.0104
765.6266	-0.0075
765.8011	-0.0112
765.9756	-0.0077
766.1501	0.0007
766.3246	0.004
766.4991	0.0021
766.6735	-0.0093
766.8479	-0.0036
767.0223	0.0072
767.1967	-0.0055
767.371	-0.0011
767.5454	-0.0116
767.7197	0.0058
767.894	-0.0026
768.0683	-0.012
768.2425	-0.008
768.4168	-0.0013
768.591	0.003
768.7652	0.0063
768.9394	-0.0051
769.1135	-0.0108
769.2877	-0.0011
769.4618	-0.0065
769.6359	0.0003
769.81	-0.0089
769.984	0.0044
770.1581	-0.0066
770.3321	0.0037
770.5061	0.0001
770.6801	-0.0054
770.8541	-0.0029
771.028	-0.0067
771.202	-0.0085
771.3759	-0.0014
771.5498	-0.0054
771.7236	0.0073
771.8975	0.0097
772.0713	0.0077
772.2451	0.0068
772.4189	0.0121
772.5927	0.0224
772.7665	0.0211
772.9402	0.0029
773.1139	0.0023
773.2876	0.0073
773.4613	0.0179
773.635	0.0148
773.8086	0.0035
773.9822	0.0095
774.1558	0.0058
774.3294	-0.0069
774.503	0.0045
774.6765	0.0052
774.8501	0.0032
775.0236	0.0031
775.1971	0.0135
775.3705	-0.004
775.544	0.0037
775.7174	-0.0084
775.8908	-0.0035
776.0642	-0.0042
776.2376	0.0035
776.4109	-0.0116
776.5843	-0.0073
776.7576	0.007
776.9309	0.002
777.1041	0.0056
777.2774	-0
777.4506	-0.0022
777.6238	-0.0004
777.797	0.0027
777.9702	-0.0073
778.1434	-0.0017
778.3165	-0.0172
778.4896	-0.0086
778.6627	0.0057
778.8358	0.0019
779.0089	-0.0028
779.1819	0.0043
779.3549	0.0147
779.5279	0.012
779.7009	0.0056
779.8739	0.0074
780.0468	0.0192
780.2197	0.0009
780.3926	0.0081
780.5655	0.0034
780.7384	-0.0052
780.9112	-0.0011
781.0841	-0.0014
781.2569	0.0076
781.4297	0.014
781.6024	0.0021
781.7752	0.0169
781.9479	0.01
782.1206	-0.0097
782.2933	-0.0083
782.466	0.0062
782.6386	0.0062
782.8113	-0.0001
782.9839	0.0169
783.1565	0.0178
783.329	0.0031
783.5016	0.0171
783.6741	0.0016
783.8466	-0.0131
784.0191	0.0176
784.1916	-0.0087
784.3641	0.0074
784.5365	0.0194
784.7089	-0.0048
784.8813	-0.0006
785.0537	0.0006
785.2261	-0.0035
785.3984	-0.0101
785.5707	-0.0021
785.743	-0.003
785.9153	-0.0081
786.0876	-0.009
786.2598	-0.0135
786.432	-0.0099
786.6042	0.003
786.7764	-0.0095
786.9486	-0.0015
787.1207	-0.0167
787.2928	-0.0048
787.4649	-0.0082
787.637	-0.0097
787.8091	0.0035
787.9811	-0.009
788.1532	-0.0111
788.3252	0.0011
788.4972	-0.006
788.6691	-0.0043
788.8411	0.0046
789.013	-0.0263
789.1849	-0.0069
789.3568	-0.0125
789.5287	0.0054
789.7005	-0.0132
789.8723	-0.002
790.0442	0.0073
790.2159	0.0019
790.3877	-0.0037
790.5595	-0.0147
790.7312	0.0037
790.9029	-0.0138
791.0746	-0.0013
791.2463	-0.0138
791.4179	-0.0112
791.5896	-0.0123
791.7612	-0.0101
791.9328	-0.0096
792.1044	-0.0234
792.2759	-0.0196
792.4474	-0.0092
792.619	0.0055
792.7905	0.001
792.9619	-0.0089
793.1334	-0.0004
793.3048	0.0014
793.4762	-0.0023
793.6476	0.0111
793.819	-0.0078
793.9904	0.0117
794.1617	-0.0068
794.333	-0.0019
794.5043	-0.011
794.6756	-0.0038
794.8469	-0.0107
795.0181	-0.0069
795.1893	-0.0111
795.3605	0.0082
795.5317	-0.0081
795.7029	-0.0074
795.874	-0.0016
796.0452	-0.0039
796.2163	-0.0016
796.3873	0.0013
796.5584	-0.0043
796.7294	-0.001
796.9005	0.008
797.0715	0.005
797.2425	-0.0259
797.4134	-0.0161
797.5844	-0.0021
797.7553	-0.0165
797.9262	-0.0041
798.0971	-0.0221
798.2679	-0.0066
798.4388	-0.0242
798.6096	-0.0116
798.7804	-0.0042
798.9512	-0.0018
799.122	-0.0054
799.2927	-0.006
799.4635	0.0093
799.6342	-0.0211
799.8049	-0.0266
799.9755	-0.0085
800.1462	-0.0035
800.3168	-0.0026
800.4874	-0.0102
800.658	0.0063
800.8286	0.0027
800.9991	-0.0108
801.1696	-0.0018
801.3402	-0.0041
801.5106	-0.0299
801.6811	-0.0077
801.8516	0.0052
802.022	-0.0072
802.1924	0.0075
802.3628	-0.0001
802.5332	0.0003
802.7035	0.0035
802.8739	0.0106
803.0442	-0.0018
803.2145	-0.0044
803.3847	-0.0287
803.555	-0.0083
803.7252	-0.023
803.8954	-0.0238
804.0656	-0.0186
804.2358	-0.0016
804.4059	0.0084
804.5761	-0.0061
804.7462	-0.026
804.9163	-0.0153
805.0864	-0.0297
805.2564	-0.0231
805.4264	-0.0043
805.5965	-0.015
805.7665	-0.0014
805.9364	-0.0092
806.1064	0.0146
806.2763	0.0033
806.4462	0.0153
806.6161	0.0137
806.786	0.0175
806.9559	-0.0144
807.1257	-0.0068
807.2955	-0.001
807.4653	-0.0221
807.6351	-0.0074
807.8048	-0.0119
807.9746	-0.0022
808.1443	-0.0071
808.314	-0.0216
808.4837	-0.0194
808.6533	-0.009
808.8229	0.0016
808.9926	-0.0329
809.1622	-0.0089
809.3317	-0.0201
809.5013	-0.0095
809.6708	0.0041
809.8403	-0.0151
810.0098	-0.0173
810.1793	-0.0016
810.3488	0.0062
810.5182	-0.0079
810.6876	-0.0029
810.857	-0.0293
811.0264	0.0175
811.1958	-0.0303
811.3651	-0.0112
811.5344	-0.0022
811.7037	-0.0082
811.873	-0.0132
812.0422	-0.0146
812.2115	-0.0227
812.3807	-0.0267
812.5499	-0.0128
812.7191	-0.0125
812.8882	-0.0308
813.0574	-0.0182
813.2265	-0.0293
813.3956	-0.0209
813.5646	-0.0148
813.7337	-0.0206
813.9027	-0.0023
814.0718	0.013
814.2407	0.0174
814.4097	0.0004
814.5787	-0.0022
814.7476	-0.0015
814.9165	-0.004
815.0854	-0.0034
815.2543	0.0013
815.4232	0.0041
815.592	0.0071
815.7608	0.014
815.9296	-0.0065
816.0984	0.0058
816.2671	0.0002
816.4359	-0.0061
816.6046	0.004
816.7733	-0.0157
816.942	-0.0029
817.1106	0.0011
817.2793	-0.002
817.4479	0.0036
817.6165	0.0136
817.785	-0.0104
817.9536	-0.0121
818.1221	-0.003
818.2906	-0.0244
818.4591	-0.0268
818.6276	-0.0151
818.7961	-0.0109
818.9645	0.0178
819.1329	-0.0174
819.3013	0.0022
819.4697	0.004
819.638	-0.0264
819.8064	0.0067
819.9747	0.0002
820.143	-0.0297
820.3113	-0.013
820.4795	-0.0084
820.6477	-0.0249
820.816	0.0027
820.9842	-0.0153
821.1523	-0.0327
821.3205	-0.0365
821.4886	-0.0447
821.6567	-0.003
821.8248	0.0075
821.9929	0.016
822.1609	-0.012
822.329	0.0125
822.497	0.0266
822.665	-0.0225
822.833	-0.0157
823.0009	0.0101
823.1688	0.0194
823.3367	0.019
823.5046	0.0218
823.6725	0.0459
823.8404	-0.0302
824.0082	0.0073
824.176	0.0258
824.3438	0.0227
824.5116	-0.0072
824.6793	0.0089
824.847	-0.0247
825.0147	-0.033
825.1824	0.0149
825.3501	0.0172
825.5177	-0.0011
825.6854	-0.0241
825.853	0.0036
826.0206	-0.0376
826.1881	0.0116
826.3557	-0.0237
826.5232	-0.0006
826.6907	-0.0454
826.8582	-0.0118
827.0257	-0.0386
827.1931	-0.0213
827.3605	0.0012
827.528	-0.0188
827.6953	-0.0179
827.8627	-0.0011
828.03	0.0159
828.1974	-0.0297
828.3647	-0.053
828.532	-0.0434
828.6992	-0.0251
828.8665	0.0032
829.0337	-0.0204
829.2009	-0.0106
829.3681	-0.0182
829.5352	0.004
829.7024	-0.0248
829.8695	-0.0393
830.0366	0.0389
830.2037	-0.0012
830.3707	-0.0128
830.5378	-0.019
830.7048	-0.0271
830.8718	0.0047
831.0388	-0.0621
831.2057	-0.0081
831.3727	-0.0007
831.5396	-0.0267
831.7065	-0.0248
831.8734	0.0063
832.0402	-0.0367
832.2071	-0.0174
832.3739	-0.0304
832.5407	-0.0439
832.7075	-0.0257
832.8742	-0.0063
833.041	-0.054
833.2077	-0.0348
833.3744	-0.0067
833.541	-0.0191
833.7077	-0.0287
833.8743	-0.0635
834.0409	0.0109
834.2075	-0.0164
834.3741	0.0122
834.5407	-0.0153
834.7072	0.0081
834.8737	-0.0461
835.0402	-0.0282
835.2067	0.03
835.3731	0.0172
835.5395	-0.0053
835.706	-0.0035
835.8723	-0.0046
836.0387	-0.0181
836.2051	-0.0085
836.3714	-0.0057
836.5377	-0.0145
836.704	-0.0449
836.8703	0.0012
837.0365	-0.0299
837.2027	-0.0246
837.3689	0.0113
837.5351	-0.0092
837.7013	-0.0063
837.8674	-0.0291
838.0335	-0.0526
838.1997	-0.0309
838.3657	-0.0125
838.5318	-0.0339
838.6978	0.007
838.8639	0.0156
839.0299	-0.0156
839.1958	-0.0142
839.3618	-0.0277
839.5277	-0.0046
839.6937	-0.0291
839.8596	-0.0216
840.0254	0.0349
840.1913	0.0071
840.3571	0.0467
840.523	0.0026
840.6888	-0.0466
840.8545	-0.0777
841.0203	-0.0021
841.186	-0.0309
841.3517	0.0188
841.5174	-0.0291
841.6831	-0.0468
841.8488	-0.0357
842.0144	-0.0049
842.18	-0.0039
842.3456	-0.0004
842.5112	-0.041
842.6767	-0.0335
842.8422	0.0203
843.0077	-0.0195
843.1732	-0.055
843.3387	-0.0567
843.5042	-0.0653
843.6696	0.0154
843.835	-0.0069
844.0004	-0.01
844.1657	0.0006
844.3311	-0.0785
844.4964	-0.088
844.6617	-0.0664
844.827	-0.0253
844.9923	-0.0313
845.1575	0.0303
845.3227	0.0306
845.4879	-0.0543
845.6531	-0.0534
845.8183	-0.0584
845.9834	-0.0341
846.1485	0.015
846.3136	-0.037
846.4787	-0.1051
846.6438	-0.0076
846.8088	-0.0856
846.9738	-0.0614
847.1388	0.0225
847.3038	-0.0241
847.4687	-0.2032
847.6337	0.0139
847.7986	0.0254
847.9635	-0.0277
848.1284	0.0561
848.2932	0.0517
848.458	-0.0381
848.6228	0.0355
848.7876	0.0468
848.9524	-0.0601
849.1172	-0.0595
849.2819	-0.0456
849.4466	-0.0668
849.6113	-0.1341
849.7759	-0.0858
849.9406	-0.0109
850.1052	0.0583
850.2698	-0.0817
850.4344	-0.0067
850.599	-0.0429
850.7635	0.0409
850.928	-0.0425
851.0925	0.0188
851.257	-0.0112
851.4215	-0.0154
851.5859	-0.0181
851.7503	-0.0082
851.9147	-0.0759
852.0791	-0.1262
852.2434	-0.0817
852.4078	0.0319
852.5721	0.0786
852.7364	-0.0434
852.9007	-0.092
853.0649	0.0275
853.2291	-0.0181
853.3934	0.0227
853.5575	0.0849
853.7217	-0.1332
853.8859	-0.143
854.05	-0.0317
854.2141	-0.0263
854.3782	-0.1039
854.5423	-0.066
854.7063	0.0604
854.8703	0.0453
855.0343	-0.0653
855.1983	-0.1721
855.3623	0.1863
855.5262	-0.06
855.6901	0.0189
855.854	0.0012
856.0179	0.0312
856.1818	0.0383
856.3456	-0.0276
856.5094	-0.0856
856.6732	-0.0275
856.837	-0.0987
857.0008	-0.0439
857.1645	0.0048
857.3282	-0.0439
857.4919	0.0317
857.6556	-0.1281
857.8192	-0.0479
857.9828	-0.0568
858.1465	0.0392
858.31	-0.0869
858.4736	-0.1262
858.6372	-0.1096
858.8007	-0.1636
858.9642	0.182
859.1277	-0.1323
859.2911	0.1915
859.4546	0.0344
859.618	-0.4713
859.7814	-0.0146
859.9448	-0.0508
860.1081	-0.0611
860.2715	0.0835
860.4348	-0.2536
860.5981	-0.0631
860.7614	0.0412
860.9246	-0.2903
861.0879	-0.2444
861.2511	0.0405
861.4143	-0.0248
861.5774	0.1287
861.7406	-0.18
861.9037	0.0145
862.0668	-0.1382
862.2299	-0.0991
862.393	-0.5776
862.556	-0.0119
862.7191	-0.3252
862.8821	-0.1321
863.0451	0.1234
863.208	0.1629
863.371	0.0501
863.5339	-0.2351
863.6968	-0.2178
863.8597	-0.0372
864.0225	-0.1674
864.1854	-0.0298
864.3482	-0.1788
864.511	0.0691
864.6737	-0.0027
864.8365	-0.0652
864.9992	-0.6078
865.1619	-0.5687
865.3246	-0.233
865.4873	-0.0069
865.65	-0.2091
865.8126	-0.1646
865.9752	0.175
866.1378	-0.2715
866.3004	-0
866.4629	0.1187
866.6254	-0.2529
866.7879	-0.1275
866.9504	0.042
867.1129	-0
867.2753	0.0645
867.4377	0.0385
867.6001	-0.3554
867.7625	0.0645
867.9249	-0.9942
868.0872	0.1874
868.2495	-0.037
868.4118	-0.1135
868.5741	-0.6013
868.7363	0.1958
868.8986	-0.292
869.0608	-0.2362
869.223	0.1236
869.3851	0.1069
869.5473	-0
869.7094	0.24
869.8715	0.0213
870.0336	-0.2814
870.1957	-0.6516
870.3577	-1.4882
870.5197	0.0139
870.6817	-0.1738
870.8437	-0.0813
871.0057	-0
871.1676	-0.1855
871.3295	-0.2402
871.4914	-0
871.6533	-0.2001
871.8151	-0.2769
871.977	-0
872.1388	-0
872.3006	1.4886
872.4623	-0
872.6241	-0.0119
872.7858	-0.1791
872.9475	-0.4904
873.1092	-0.1038
873.2709	0.7283
873.4325	0.0606
873.5941	-0.7048
873.7557	-0
873.9173	-0
874.0789	-0.0851
874.2404	-0.7636
874.4019	0.1272
874.5634	0.0075
874.7249	0.0761
874.8863	0.3732
875.0478	1.827
875.2092	-0
875.3706	0.0367
875.5319	-0.8129
875.6933	-0
875.8546	-0.3467
876.0159	-0.1077
876.1772	0.4024
876.3385	-0
876.4997	0.213
876.6609	-0.3994
876.8221	0.5012
876.9833	0.2443
877.1445	-0
877.3056	0.061
877.4667	-0.1899
877.6278	-0
877.7889	-0.6966
877.9499	-0
878.111	-0.6594
878.272	-0
878.433	-0
878.5939	-0
878.7549	-0.1788
878.9158	-0.3506
879.0767	-0
879.2376	0.2046
879.3984	0.4458
879.5593	-0
879.7201	-0.4035
879.8809	-0.2847
880.0417	-0.0882
880.2024	-0.1127
880.3632	-1.3417
880.5239	0.2887
880.6846	-0
880.8452	-2.4464
881.0059	-1.0531
881.1665	-0.1124
881.3271	-0
881.4877	-0.7823
881.6483	-0
881.8088	-0.2719
881.9693	-0
882.1298	-0
882.2903	-0
