Data from MonoPyChalIsomerACN10uM420nmA_Absorbance_15-09-53-834.txt Node
Date: Fri Jul 05 15:09:53 BST 2024
User: LASERRRRR
Spectrometer: FLMT03099
Trigger mode: 0
Integration Time (sec): 1.000000E-1
Scans to average: 1
Electric dark correction enabled: true
Nonlinearity correction enabled: false
Boxcar width: 0
XAxis mode: Wavelengths
Number of Pixels in Spectrum: 3648
>>>>>Begin Spectral Data<<<<<
179.3399	-0
179.5586	-0
179.7771	-0
179.9957	-0
180.2143	-0
180.4329	-0.054
180.6514	-0
180.8699	-0
181.0885	-0.3546
181.307	0.0415
181.5255	-0
181.744	-0
181.9625	-0
182.181	-1.1035
182.3994	0.1546
182.6179	-0
182.8363	0.339
183.0547	-0.3579
183.2732	-0.1105
183.4916	-0.0102
183.71	0.0438
183.9284	-0.1048
184.1467	-0.0714
184.3651	-0.1212
184.5835	-0.0564
184.8018	-0.0797
185.0201	0.039
185.2385	0.0354
185.4568	0.2528
185.6751	-0.0559
185.8934	0.0934
186.1117	0.0297
186.3299	-0.0259
186.5482	0.3801
186.7664	-0.1878
186.9847	-0.1932
187.2029	-0.0502
187.4211	-0.0628
187.6393	0.2029
187.8575	0.0481
188.0757	0.1966
188.2939	0.0685
188.512	0.0854
188.7302	-0.1652
188.9483	0.1852
189.1665	0.1774
189.3846	-0.0042
189.6027	0.2347
189.8208	0.2768
190.0389	-0.0181
190.257	0.0911
190.475	0.1104
190.6931	0.1169
190.9111	0.1876
191.1292	0.1759
191.3472	0.5332
191.5652	0.3742
191.7832	0.4057
192.0012	0.6672
192.2192	0.1962
192.4371	0.3601
192.6551	0.3118
192.873	0.4901
193.091	0.2996
193.3089	0.4186
193.5268	0.4969
193.7447	0.4466
193.9626	0.3589
194.1805	0.5141
194.3984	0.4819
194.6162	0.4845
194.8341	0.5488
195.0519	0.394
195.2697	0.5084
195.4875	0.5647
195.7054	0.4747
195.9231	0.543
196.1409	0.6134
196.3587	0.5142
196.5765	0.5827
196.7942	0.5884
197.012	0.4714
197.2297	0.5672
197.4474	0.6277
197.6651	0.5941
197.8828	0.8284
198.1005	0.5818
198.3182	0.5897
198.5358	0.6097
198.7535	0.5952
198.9711	0.6421
199.1888	0.6279
199.4064	0.7704
199.624	0.5839
199.8416	0.5785
200.0592	0.6245
200.2767	0.5732
200.4943	0.657
200.7119	0.7802
200.9294	0.7808
201.1469	0.6244
201.3645	0.5239
201.582	0.5568
201.7995	0.6392
202.017	0.6413
202.2344	0.4903
202.4519	0.6207
202.6694	0.5714
202.8868	0.6092
203.1042	0.6311
203.3217	0.722
203.5391	0.6488
203.7565	0.5829
203.9739	0.6031
204.1913	0.5812
204.4086	0.6087
204.626	0.6442
204.8433	0.5576
205.0607	0.5868
205.278	0.6488
205.4953	0.5917
205.7126	0.6347
205.9299	0.7378
206.1472	0.6997
206.3644	0.5508
206.5817	0.6773
206.7989	0.749
207.0162	0.5599
207.2334	0.7381
207.4506	0.6638
207.6678	0.6735
207.885	0.6768
208.1022	0.6322
208.3194	0.6235
208.5365	0.6033
208.7537	0.6301
208.9708	0.5902
209.1879	0.6289
209.405	0.6466
209.6222	0.7558
209.8392	0.6063
210.0563	0.5773
210.2734	0.6496
210.4905	0.623
210.7075	0.664
210.9245	0.6366
211.1416	0.7273
211.3586	0.6263
211.5756	0.5761
211.7926	0.6252
212.0096	0.5473
212.2265	0.5437
212.4435	0.5609
212.6604	0.5676
212.8774	0.5947
213.0943	0.6253
213.3112	0.5428
213.5281	0.5122
213.745	0.5023
213.9619	0.511
214.1788	0.4477
214.3956	0.4621
214.6125	0.4964
214.8293	0.449
215.0461	0.4963
215.2629	0.4875
215.4798	0.5008
215.6965	0.4228
215.9133	0.4418
216.1301	0.4068
216.3469	0.4148
216.5636	0.4352
216.7803	0.3826
216.9971	0.4081
217.2138	0.382
217.4305	0.3662
217.6472	0.3682
217.8639	0.3663
218.0805	0.3383
218.2972	0.3168
218.5138	0.3452
218.7305	0.3056
218.9471	0.2888
219.1637	0.2841
219.3803	0.3096
219.5969	0.2651
219.8135	0.2574
220.0301	0.2889
220.2466	0.2875
220.4632	0.2563
220.6797	0.2581
220.8962	0.2289
221.1127	0.2626
221.3292	0.2681
221.5457	0.2311
221.7622	0.2183
221.9787	0.2367
222.1951	0.2369
222.4116	0.2577
222.628	0.2401
222.8444	0.2308
223.0608	0.2665
223.2772	0.2722
223.4936	0.2677
223.71	0.2368
223.9264	0.2653
224.1427	0.2608
224.3591	0.2471
224.5754	0.2644
224.7917	0.2541
225.008	0.2451
225.2243	0.2465
225.4406	0.2796
225.6569	0.2581
225.8732	0.2587
226.0894	0.2536
226.3057	0.2653
226.5219	0.2791
226.7381	0.2635
226.9543	0.2778
227.1705	0.2846
227.3867	0.2574
227.6029	0.3138
227.8191	0.296
228.0352	0.2893
228.2513	0.3108
228.4675	0.3124
228.6836	0.298
228.8997	0.3029
229.1158	0.3022
229.3319	0.317
229.548	0.3142
229.764	0.3201
229.9801	0.3309
230.1961	0.3217
230.4121	0.3141
230.6282	0.3358
230.8442	0.3212
231.0602	0.3292
231.2761	0.3474
231.4921	0.3312
231.7081	0.3587
231.924	0.3597
232.14	0.3528
232.3559	0.3259
232.5718	0.3609
232.7877	0.3538
233.0036	0.3363
233.2195	0.384
233.4353	0.3653
233.6512	0.3667
233.867	0.3745
234.0829	0.3561
234.2987	0.3702
234.5145	0.3679
234.7303	0.3642
234.9461	0.3782
235.1619	0.3669
235.3776	0.3792
235.5934	0.3823
235.8091	0.3636
236.0249	0.3645
236.2406	0.3807
236.4563	0.3745
236.672	0.3924
236.8877	0.3997
237.1034	0.3855
237.319	0.3825
237.5347	0.3991
237.7503	0.4121
237.966	0.4047
238.1816	0.4019
238.3972	0.401
238.6128	0.3915
238.8284	0.4118
239.0439	0.4123
239.2595	0.3985
239.475	0.4094
239.6906	0.418
239.9061	0.3968
240.1216	0.3977
240.3371	0.4105
240.5526	0.3878
240.7681	0.4305
240.9836	0.3932
241.199	0.4045
241.4145	0.404
241.6299	0.3968
241.8453	0.3849
242.0607	0.3907
242.2761	0.3666
242.4915	0.3703
242.7069	0.3883
242.9223	0.3775
243.1376	0.383
243.353	0.3561
243.5683	0.3659
243.7836	0.3421
243.9989	0.357
244.2142	0.3401
244.4295	0.3318
244.6448	0.3343
244.86	0.3268
245.0753	0.3071
245.2905	0.2956
245.5057	0.2829
245.721	0.2831
245.9362	0.2778
246.1514	0.2919
246.3665	0.2685
246.5817	0.2451
246.7969	0.2592
247.012	0.2672
247.2271	0.2438
247.4423	0.2511
247.6574	0.2594
247.8725	0.2444
248.0876	0.2416
248.3026	0.243
248.5177	0.2472
248.7328	0.2178
248.9478	0.223
249.1628	0.2286
249.3779	0.2268
249.5929	0.2208
249.8079	0.236
250.0228	0.2058
250.2378	0.2049
250.4528	0.2039
250.6677	0.1944
250.8827	0.2145
251.0976	0.2032
251.3125	0.2029
251.5274	0.1934
251.7423	0.1903
251.9572	0.1992
252.172	0.1876
252.3869	0.1959
252.6017	0.192
252.8166	0.1743
253.0314	0.1716
253.2462	0.1802
253.461	0.1745
253.6758	0.1678
253.8906	0.1939
254.1053	0.1729
254.3201	0.1781
254.5348	0.1826
254.7496	0.1906
254.9643	0.1813
255.179	0.1754
255.3937	0.1762
255.6083	0.1763
255.823	0.1733
256.0377	0.1688
256.2523	0.1802
256.467	0.1497
256.6816	0.1845
256.8962	0.17
257.1108	0.1605
257.3254	0.1717
257.54	0.158
257.7545	0.1754
257.9691	0.161
258.1836	0.1705
258.3981	0.1668
258.6127	0.1806
258.8272	0.16
259.0417	0.1699
259.2561	0.1805
259.4706	0.1819
259.6851	0.1714
259.8995	0.1812
260.114	0.1702
260.3284	0.1734
260.5428	0.1714
260.7572	0.1756
260.9716	0.1751
261.186	0.1636
261.4003	0.1761
261.6147	0.1754
261.829	0.1737
262.0433	0.172
262.2577	0.1814
262.472	0.1779
262.6863	0.1604
262.9005	0.1618
263.1148	0.158
263.3291	0.1416
263.5433	0.1732
263.7576	0.1662
263.9718	0.1799
264.186	0.1725
264.4002	0.1624
264.6144	0.1741
264.8286	0.1812
265.0427	0.1667
265.2569	0.1719
265.471	0.1667
265.6851	0.1633
265.8993	0.1554
266.1134	0.1614
266.3275	0.1686
266.5415	0.1645
266.7556	0.168
266.9697	0.1673
267.1837	0.1772
267.3978	0.1754
267.6118	0.1846
267.8258	0.1841
268.0398	0.1618
268.2538	0.1719
268.4677	0.1758
268.6817	0.1737
268.8957	0.1801
269.1096	0.1663
269.3235	0.1749
269.5374	0.1731
269.7514	0.1657
269.9652	0.1573
270.1791	0.1621
270.393	0.1699
270.6068	0.1622
270.8207	0.1542
271.0345	0.152
271.2483	0.1691
271.4622	0.1679
271.676	0.1715
271.8897	0.1592
272.1035	0.1539
272.3173	0.1577
272.531	0.1583
272.7448	0.1597
272.9585	0.1506
273.1722	0.1576
273.3859	0.1709
273.5996	0.1509
273.8133	0.1624
274.0269	0.1558
274.2406	0.1546
274.4542	0.168
274.6679	0.1428
274.8815	0.1703
275.0951	0.1586
275.3087	0.1775
275.5223	0.165
275.7358	0.1598
275.9494	0.1692
276.1629	0.154
276.3765	0.1621
276.59	0.1551
276.8035	0.1612
277.017	0.1581
277.2305	0.1565
277.444	0.1632
277.6574	0.1573
277.8709	0.1598
278.0843	0.159
278.2978	0.1532
278.5112	0.1597
278.7246	0.1597
278.938	0.1677
279.1513	0.1661
279.3647	0.1773
279.5781	0.1588
279.7914	0.1726
280.0047	0.1662
280.2181	0.1681
280.4314	0.1621
280.6447	0.1691
280.8579	0.1585
281.0712	0.1655
281.2845	0.1803
281.4977	0.1709
281.711	0.165
281.9242	0.1742
282.1374	0.1726
282.3506	0.1641
282.5638	0.1617
282.7769	0.158
282.9901	0.1562
283.2033	0.1911
283.4164	0.1705
283.6295	0.1582
283.8426	0.1436
284.0557	0.1702
284.2688	0.1735
284.4819	0.1678
284.695	0.1552
284.908	0.1721
285.1211	0.1657
285.3341	0.173
285.5471	0.1662
285.7601	0.1602
285.9731	0.1526
286.1861	0.1575
286.3991	0.1768
286.612	0.1686
286.825	0.167
287.0379	0.1673
287.2508	0.1641
287.4637	0.1588
287.6766	0.1552
287.8895	0.1646
288.1024	0.1783
288.3152	0.1643
288.5281	0.1553
288.7409	0.1596
288.9538	0.16
289.1666	0.159
289.3794	0.1637
289.5922	0.1539
289.8049	0.1644
290.0177	0.1494
290.2304	0.1651
290.4432	0.1633
290.6559	0.1569
290.8686	0.1698
291.0813	0.1593
291.294	0.1511
291.5067	0.1664
291.7194	0.1576
291.932	0.1624
292.1447	0.16
292.3573	0.1495
292.5699	0.1651
292.7825	0.1649
292.9951	0.1608
293.2077	0.1573
293.4203	0.1526
293.6328	0.1467
293.8454	0.1636
294.0579	0.1547
294.2704	0.1569
294.4829	0.1535
294.6954	0.1597
294.9079	0.1629
295.1204	0.1589
295.3328	0.1588
295.5453	0.1462
295.7577	0.1539
295.9701	0.1342
296.1825	0.1583
296.3949	0.158
296.6073	0.1514
296.8197	0.1522
297.0321	0.1664
297.2444	0.141
297.4567	0.168
297.6691	0.1537
297.8814	0.1475
298.0937	0.1602
298.306	0.1539
298.5182	0.1515
298.7305	0.1605
298.9428	0.1479
299.155	0.1555
299.3672	0.1425
299.5794	0.1477
299.7916	0.1506
300.0038	0.1669
300.216	0.1577
300.4282	0.155
300.6403	0.1583
300.8525	0.1568
301.0646	0.146
301.2767	0.1581
301.4888	0.1452
301.7009	0.1524
301.913	0.1555
302.125	0.163
302.3371	0.1329
302.5491	0.1434
302.7612	0.1684
302.9732	0.1501
303.1852	0.1561
303.3972	0.1556
303.6092	0.154
303.8211	0.1452
304.0331	0.1522
304.245	0.1532
304.457	0.1357
304.6689	0.1465
304.8808	0.152
305.0927	0.1386
305.3046	0.1409
305.5164	0.1533
305.7283	0.1333
305.9401	0.1466
306.152	0.1484
306.3638	0.1533
306.5756	0.1454
306.7874	0.1413
306.9992	0.1413
307.2109	0.1351
307.4227	0.1227
307.6344	0.1527
307.8462	0.1316
308.0579	0.1357
308.2696	0.1344
308.4813	0.1271
308.693	0.1298
308.9046	0.1383
309.1163	0.124
309.328	0.1289
309.5396	0.13
309.7512	0.1264
309.9628	0.1157
310.1744	0.1227
310.386	0.1259
310.5976	0.1226
310.8091	0.1248
311.0207	0.12
311.2322	0.1267
311.4437	0.1216
311.6552	0.1091
311.8667	0.11
312.0782	0.1028
312.2897	0.1059
312.5012	0.1064
312.7126	0.1092
312.924	0.1092
313.1355	0.1231
313.3469	0.1108
313.5583	0.1222
313.7696	0.1119
313.981	0.1069
314.1924	0.1026
314.4037	0.1044
314.6151	0.1135
314.8264	0.1042
315.0377	0.0964
315.249	0.1132
315.4603	0.1127
315.6716	0.1103
315.8828	0.0985
316.0941	0.1006
316.3053	0.1002
316.5165	0.103
316.7277	0.1004
316.9389	0.1035
317.1501	0.0968
317.3613	0.1137
317.5724	0.0997
317.7836	0.1063
317.9947	0.1036
318.2058	0.1044
318.417	0.1012
318.6281	0.101
318.8391	0.0934
319.0502	0.098
319.2613	0.113
319.4723	0.1108
319.6834	0.1107
319.8944	0.0967
320.1054	0.1002
320.3164	0.1112
320.5274	0.1032
320.7383	0.102
320.9493	0.1041
321.1602	0.1163
321.3712	0.0983
321.5821	0.1177
321.793	0.1174
322.0039	0.106
322.2148	0.1038
322.4257	0.1175
322.6365	0.1236
322.8474	0.1064
323.0582	0.1084
323.269	0.1059
323.4798	0.1175
323.6906	0.1097
323.9014	0.103
324.1122	0.1117
324.3229	0.1106
324.5337	0.1157
324.7444	0.1063
324.9551	0.1279
325.1658	0.1079
325.3765	0.1132
325.5872	0.1056
325.7979	0.1149
326.0085	0.1203
326.2192	0.1221
326.4298	0.1249
326.6404	0.1146
326.851	0.0995
327.0616	0.114
327.2722	0.1103
327.4828	0.1112
327.6933	0.1111
327.9039	0.1132
328.1144	0.1253
328.3249	0.1251
328.5354	0.1077
328.7459	0.1148
328.9564	0.1065
329.1669	0.1104
329.3773	0.1247
329.5878	0.1172
329.7982	0.1193
330.0086	0.1178
330.219	0.1259
330.4294	0.1179
330.6398	0.1112
330.8502	0.1112
331.0605	0.1296
331.2708	0.1262
331.4812	0.1159
331.6915	0.1133
331.9018	0.1246
332.1121	0.1095
332.3224	0.1212
332.5326	0.1184
332.7429	0.124
332.9531	0.1263
333.1633	0.1154
333.3735	0.1196
333.5837	0.1179
333.7939	0.1175
334.0041	0.1386
334.2143	0.1169
334.4244	0.1163
334.6346	0.0933
334.8447	0.1285
335.0548	0.1143
335.2649	0.1117
335.475	0.1157
335.685	0.1127
335.8951	0.1254
336.1051	0.1224
336.3152	0.1263
336.5252	0.1221
336.7352	0.1173
336.9452	0.1216
337.1552	0.1163
337.3652	0.118
337.5751	0.1292
337.7851	0.1182
337.995	0.1095
338.2049	0.1264
338.4148	0.1261
338.6247	0.1338
338.8346	0.1182
339.0445	0.1195
339.2543	0.1295
339.4642	0.1239
339.674	0.1216
339.8838	0.1164
340.0936	0.126
340.3034	0.1337
340.5132	0.1268
340.7229	0.1232
340.9327	0.1288
341.1424	0.1131
341.3522	0.1372
341.5619	0.1345
341.7716	0.1302
341.9813	0.1351
342.1909	0.1121
342.4006	0.1186
342.6102	0.1473
342.8199	0.1216
343.0295	0.1387
343.2391	0.135
343.4487	0.1359
343.6583	0.1253
343.8679	0.123
344.0774	0.1333
344.287	0.1379
344.4965	0.1294
344.706	0.1346
344.9155	0.124
345.125	0.1349
345.3345	0.1273
345.544	0.1292
345.7534	0.1314
345.9629	0.1381
346.1723	0.1429
346.3817	0.1141
346.5911	0.1333
346.8005	0.1398
347.0099	0.1408
347.2193	0.1503
347.4286	0.1385
347.638	0.1372
347.8473	0.1472
348.0566	0.1438
348.2659	0.1448
348.4752	0.1489
348.6845	0.134
348.8937	0.1342
349.103	0.1535
349.3122	0.1401
349.5214	0.1374
349.7306	0.1495
349.9398	0.1415
350.149	0.1505
350.3582	0.1412
350.5674	0.1699
350.7765	0.1482
350.9856	0.1456
351.1948	0.1452
351.4039	0.1307
351.613	0.1407
351.822	0.1501
352.0311	0.1539
352.2402	0.1499
352.4492	0.1466
352.6582	0.1425
352.8672	0.1535
353.0762	0.151
353.2852	0.1478
353.4942	0.144
353.7032	0.1497
353.9121	0.1581
354.1211	0.1554
354.33	0.1695
354.5389	0.1537
354.7478	0.1479
354.9567	0.1493
355.1655	0.1449
355.3744	0.1608
355.5833	0.167
355.7921	0.1729
356.0009	0.1723
356.2097	0.1783
356.4185	0.1725
356.6273	0.1639
356.8361	0.1589
357.0448	0.1527
357.2536	0.1577
357.4623	0.1618
357.671	0.1561
357.8797	0.1562
358.0884	0.1608
358.2971	0.1594
358.5057	0.1598
358.7144	0.1608
358.923	0.1682
359.1316	0.1726
359.3402	0.1635
359.5488	0.1657
359.7574	0.1595
359.966	0.1732
360.1746	0.1694
360.3831	0.1786
360.5916	0.1684
360.8002	0.1711
361.0087	0.1885
361.2172	0.1722
361.4256	0.1862
361.6341	0.1805
361.8426	0.176
362.051	0.18
362.2594	0.1939
362.4678	0.1753
362.6762	0.1948
362.8846	0.1665
363.093	0.1799
363.3014	0.171
363.5097	0.1567
363.718	0.1801
363.9264	0.1829
364.1347	0.1712
364.343	0.1929
364.5513	0.1907
364.7595	0.1965
364.9678	0.1907
365.176	0.1914
365.3842	0.1757
365.5925	0.1984
365.8007	0.2006
366.0089	0.1742
366.217	0.1819
366.4252	0.2001
366.6333	0.1917
366.8415	0.1869
367.0496	0.1868
367.2577	0.2101
367.4658	0.2054
367.6739	0.1977
367.882	0.1944
368.09	0.1889
368.2981	0.1989
368.5061	0.1906
368.7141	0.2056
368.9221	0.207
369.1301	0.1882
369.3381	0.187
369.5461	0.1956
369.754	0.1853
369.962	0.2001
370.1699	0.1954
370.3778	0.215
370.5857	0.2027
370.7936	0.1943
371.0015	0.1957
371.2093	0.2037
371.4172	0.2189
371.625	0.198
371.8328	0.2019
372.0406	0.2107
372.2484	0.1861
372.4562	0.2126
372.664	0.1968
372.8717	0.2327
373.0795	0.1791
373.2872	0.2036
373.4949	0.1814
373.7026	0.1998
373.9103	0.2211
374.118	0.2122
374.3256	0.2159
374.5333	0.1962
374.7409	0.2098
374.9485	0.2108
375.1561	0.2175
375.3637	0.2154
375.5713	0.2029
375.7789	0.21
375.9864	0.2112
376.194	0.2078
376.4015	0.2192
376.609	0.2008
376.8165	0.2055
377.024	0.2066
377.2315	0.1994
377.4389	0.2087
377.6464	0.2206
377.8538	0.2034
378.0612	0.2117
378.2686	0.2232
378.476	0.2231
378.6834	0.2307
378.8908	0.2177
379.0981	0.2147
379.3055	0.208
379.5128	0.1944
379.7201	0.2308
379.9274	0.2148
380.1347	0.2312
380.342	0.2316
380.5492	0.2099
380.7565	0.2219
380.9637	0.2299
381.1709	0.2149
381.3781	0.2021
381.5853	0.2277
381.7925	0.207
381.9997	0.2238
382.2068	0.2287
382.4139	0.215
382.6211	0.2098
382.8282	0.2226
383.0353	0.221
383.2424	0.1989
383.4494	0.2159
383.6565	0.2094
383.8635	0.2141
384.0706	0.2171
384.2776	0.2217
384.4846	0.2154
384.6916	0.2302
384.8986	0.2195
385.1055	0.2145
385.3125	0.2135
385.5194	0.2101
385.7263	0.2269
385.9333	0.2242
386.1402	0.2083
386.347	0.2143
386.5539	0.2131
386.7608	0.2137
386.9676	0.1954
387.1744	0.2114
387.3813	0.2038
387.5881	0.2176
387.7948	0.1911
388.0016	0.2127
388.2084	0.2102
388.4151	0.2059
388.6219	0.2173
388.8286	0.1904
389.0353	0.2205
389.242	0.2152
389.4487	0.204
389.6553	0.2071
389.862	0.2024
390.0686	0.1976
390.2753	0.235
390.4819	0.2233
390.6885	0.2167
390.8951	0.2089
391.1016	0.1944
391.3082	0.2059
391.5147	0.2083
391.7213	0.1883
391.9278	0.1915
392.1343	0.188
392.3408	0.2028
392.5473	0.2059
392.7537	0.1899
392.9602	0.1984
393.1666	0.1937
393.373	0.2039
393.5794	0.2149
393.7858	0.1832
393.9922	0.1838
394.1986	0.2015
394.4049	0.2008
394.6113	0.1783
394.8176	0.1736
395.0239	0.1914
395.2302	0.1679
395.4365	0.1943
395.6428	0.1976
395.8491	0.1773
396.0553	0.1945
396.2615	0.1898
396.4678	0.1869
396.674	0.1797
396.8802	0.1892
397.0863	0.2068
397.2925	0.1821
397.4987	0.172
397.7048	0.1679
397.9109	0.193
398.117	0.1728
398.3231	0.1839
398.5292	0.1852
398.7353	0.1824
398.9413	0.1631
399.1474	0.1774
399.3534	0.1747
399.5594	0.16
399.7654	0.1806
399.9714	0.1927
400.1774	0.1772
400.3833	0.1761
400.5893	0.1848
400.7952	0.1766
401.0011	0.1798
401.207	0.1745
401.4129	0.172
401.6188	0.1845
401.8247	0.1757
402.0305	0.1734
402.2364	0.1705
402.4422	0.1894
402.648	0.1796
402.8538	0.1867
403.0596	0.1764
403.2654	0.1863
403.4711	0.1869
403.6768	0.177
403.8826	0.1864
404.0883	0.1813
404.294	0.1751
404.4997	0.1636
404.7054	0.1815
404.911	0.1658
405.1167	0.1774
405.3223	0.1971
405.5279	0.1863
405.7335	0.1897
405.9391	0.1816
406.1447	0.182
406.3502	0.1911
406.5558	0.1814
406.7613	0.1747
406.9668	0.1583
407.1724	0.1782
407.3778	0.1565
407.5833	0.165
407.7888	0.1881
407.9942	0.179
408.1997	0.1764
408.4051	0.1572
408.6105	0.1623
408.8159	0.1592
409.0213	0.1735
409.2267	0.1871
409.432	0.16
409.6374	0.1923
409.8427	0.1682
410.048	0.1664
410.2533	0.1547
410.4586	0.1634
410.6639	0.1582
410.8691	0.1605
411.0744	0.1584
411.2796	0.159
411.4848	0.1741
411.69	0.1793
411.8952	0.1962
412.1004	0.1625
412.3056	0.1693
412.5107	0.1652
412.7158	0.1858
412.921	0.181
413.1261	0.1605
413.3312	0.1741
413.5362	0.1758
413.7413	0.158
413.9464	0.1622
414.1514	0.1645
414.3564	0.1637
414.5614	0.1586
414.7664	0.1729
414.9714	0.1656
415.1764	0.1675
415.3813	0.1713
415.5863	0.1543
415.7912	0.1601
415.9961	0.1577
416.201	0.1719
416.4059	0.1849
416.6108	0.1494
416.8156	0.1693
417.0205	0.1604
417.2253	0.1477
417.4301	0.18
417.6349	0.1644
417.8397	0.1578
418.0445	0.1622
418.2492	0.155
418.454	0.1585
418.6587	0.1631
418.8634	0.1612
419.0681	0.1644
419.2728	0.1579
419.4775	0.1555
419.6822	0.1389
419.8868	0.1374
420.0915	0.1543
420.2961	0.1311
420.5007	0.1607
420.7053	0.1625
420.9099	0.1481
421.1144	0.1671
421.319	0.1423
421.5235	0.1532
421.728	0.1514
421.9325	0.1628
422.137	0.1621
422.3415	0.1468
422.546	0.1675
422.7504	0.1504
422.9549	0.1556
423.1593	0.1495
423.3637	0.1702
423.5681	0.145
423.7725	0.1327
423.9769	0.1297
424.1812	0.1384
424.3856	0.1451
424.5899	0.1477
424.7942	0.1345
424.9985	0.1549
425.2028	0.14
425.4071	0.1576
425.6113	0.1361
425.8156	0.1433
426.0198	0.1297
426.224	0.133
426.4282	0.1318
426.6324	0.1334
426.8366	0.122
427.0407	0.1244
427.2449	0.1281
427.449	0.1335
427.6531	0.1161
427.8572	0.1253
428.0613	0.1334
428.2654	0.1292
428.4694	0.1318
428.6735	0.1363
428.8775	0.1307
429.0815	0.133
429.2855	0.1044
429.4895	0.1428
429.6935	0.115
429.8975	0.1275
430.1014	0.1159
430.3053	0.1076
430.5093	0.1185
430.7132	0.1054
430.9171	0.1061
431.1209	0.1007
431.3248	0.103
431.5286	0.1274
431.7325	0.1043
431.9363	0.0804
432.1401	0.111
432.3439	0.0988
432.5477	0.079
432.7514	0.0995
432.9552	0.1095
433.1589	0.0854
433.3627	0.0932
433.5664	0.094
433.7701	0.0972
433.9737	0.086
434.1774	0.0888
434.3811	0.0919
434.5847	0.0994
434.7883	0.0987
434.9919	0.0855
435.1955	0.0862
435.3991	0.0936
435.6027	0.0812
435.8062	0.0894
436.0098	0.0811
436.2133	0.0814
436.4168	0.0744
436.6203	0.067
436.8238	0.0906
437.0272	0.0823
437.2307	0.0761
437.4341	0.0817
437.6375	0.0739
437.841	0.0626
438.0443	0.0724
438.2477	0.0786
438.4511	0.0662
438.6545	0.0692
438.8578	0.0818
439.0611	0.0588
439.2644	0.067
439.4677	0.052
439.671	0.0575
439.8743	0.0722
440.0775	0.0693
440.2808	0.0569
440.484	0.0493
440.6872	0.0397
440.8904	0.0468
441.0936	0.0764
441.2967	0.0577
441.4999	0.0659
441.703	0.05
441.9062	0.0457
442.1093	0.0515
442.3124	0.0533
442.5155	0.0342
442.7185	0.0399
442.9216	0.0319
443.1246	0.0595
443.3276	0.0428
443.5307	0.0444
443.7337	0.0471
443.9366	0.0546
444.1396	0.0441
444.3426	0.039
444.5455	0.0493
444.7484	0.0238
444.9513	0.0294
445.1542	0.0396
445.3571	0.0367
445.56	0.0268
445.7628	0.0261
445.9657	0.0376
446.1685	0.0506
446.3713	0.0415
446.5741	0.0388
446.7769	0.0378
446.9797	0.0292
447.1824	0.0239
447.3852	0.0277
447.5879	0.0393
447.7906	0.0556
447.9933	0.0369
448.196	0.0234
448.3986	0.0207
448.6013	0.0213
448.8039	0.0095
449.0066	0.0278
449.2092	0.0325
449.4118	0.0241
449.6143	0.0167
449.8169	0.0188
450.0195	0.0153
450.222	-0.001
450.4245	0.0205
450.627	0.0294
450.8295	0.0186
451.032	0.0223
451.2345	0.0131
451.4369	0.0264
451.6394	0.0289
451.8418	0.0029
452.0442	0.0188
452.2466	0.0225
452.449	0.0001
452.6513	0.0191
452.8537	0.0263
453.056	-0.0024
453.2583	0.0241
453.4607	0.0123
453.663	0.0098
453.8652	0.0259
454.0675	0.0088
454.2697	0.0124
454.472	-0.0084
454.6742	0.0174
454.8764	0.0125
455.0786	0.0174
455.2808	0.0179
455.4829	0.0056
455.6851	0.0178
455.8872	0.0159
456.0893	0.03
456.2915	-0.0052
456.4935	0.0089
456.6956	-0.0115
456.8977	0.0098
457.0997	0.002
457.3018	-0.0116
457.5038	0.0113
457.7058	0.0006
457.9078	0.0111
458.1098	0.0075
458.3117	0.0101
458.5137	-0.0001
458.7156	0.0139
458.9175	-0.0057
459.1194	0.0166
459.3213	0.01
459.5232	-0.0023
459.725	-0.0136
459.9269	-0.0124
460.1287	-0.0093
460.3305	-0.0062
460.5323	0.0058
460.7341	0.0004
460.9359	0.0044
461.1376	0.007
461.3394	-0.0043
461.5411	0.0119
461.7428	-0.0022
461.9445	0.002
462.1462	0.0147
462.3479	0.0019
462.5495	0.0164
462.7512	0.0041
462.9528	-0.006
463.1544	-0.0185
463.356	0.0088
463.5576	0.0072
463.7592	0.0095
463.9607	-0.0015
464.1623	0.0072
464.3638	0.0218
464.5653	-0.0027
464.7668	0.0039
464.9683	0.0147
465.1697	0.0102
465.3712	0.0022
465.5726	-0.015
465.7741	0.0019
465.9755	-0.0155
466.1769	0.0012
466.3782	0.0015
466.5796	-0.0004
466.7809	-0.0039
466.9823	-0.0072
467.1836	0.009
467.3849	-0.0084
467.5862	-0.0021
467.7875	-0.0076
467.9887	0.0001
468.19	0.0035
468.3912	-0.0255
468.5924	-0.0124
468.7936	-0.004
468.9948	0.0032
469.196	-0.0022
469.3972	-0.0214
469.5983	-0.0034
469.7994	-0.0131
470.0006	-0.0007
470.2017	-0.014
470.4027	-0.0057
470.6038	0.0099
470.8049	-0.0076
471.0059	-0.0007
471.2069	-0.0332
471.408	-0.0022
471.6089	0.0009
471.8099	0.0023
472.0109	-0.0037
472.2119	-0.0172
472.4128	-0.009
472.6137	0.0035
472.8146	-0.0231
473.0155	-0.0072
473.2164	-0.015
473.4173	-0.004
473.6181	0.0069
473.819	0.0078
474.0198	-0.0147
474.2206	-0.0107
474.4214	-0.0109
474.6222	-0.0085
474.8229	-0.0216
475.0237	-0.0044
475.2244	-0.0149
475.4251	0.0008
475.6258	-0.01
475.8265	-0.0065
476.0272	0.0029
476.2278	-0.0087
476.4285	-0.0118
476.6291	0.0015
476.8297	-0.0025
477.0303	-0.0029
477.2309	-0.0045
477.4315	-0.0148
477.632	-0.0013
477.8326	-0.0125
478.0331	0.003
478.2336	0.0024
478.4341	-0.0198
478.6346	-0.0117
478.8351	-0.0146
479.0355	-0.0028
479.236	-0.0216
479.4364	0.0005
479.6368	-0.0047
479.8372	-0.0052
480.0376	-0.0039
480.2379	-0.0156
480.4383	-0.0163
480.6386	0.0106
480.8389	-0.0098
481.0392	-0.0135
481.2395	-0.0085
481.4398	0.0146
481.6401	-0.0045
481.8403	-0.0071
482.0405	-0.0118
482.2408	-0.0138
482.441	-0.0006
482.6411	0.0011
482.8413	-0.0091
483.0415	-0.0111
483.2416	-0.0063
483.4417	-0.0043
483.6419	-0.0004
483.8419	-0.0173
484.042	0.0083
484.2421	-0.0114
484.4422	0.0005
484.6422	-0.0013
484.8422	-0.0077
485.0422	-0.01
485.2422	-0.002
485.4422	-0.0178
485.6422	-0.0198
485.8421	-0.0064
486.042	-0.0046
486.242	-0.0078
486.4419	-0.0079
486.6417	-0.0139
486.8416	-0.0025
487.0415	-0.006
487.2413	-0.0187
487.4411	-0.0137
487.641	-0.0108
487.8408	-0.0022
488.0405	-0.0003
488.2403	-0.0107
488.4401	-0.0056
488.6398	-0.0043
488.8395	-0.0148
489.0392	0.0019
489.2389	-0.0064
489.4386	-0.0074
489.6383	-0.0016
489.8379	0.003
490.0376	-0.0144
490.2372	-0.0104
490.4368	-0.0229
490.6364	-0.0069
490.836	-0.0029
491.0355	-0.0118
491.2351	-0.0134
491.4346	-0.0021
491.6341	-0.0167
491.8336	-0.0047
492.0331	-0.0144
492.2326	-0.021
492.432	-0.0083
492.6315	-0.0161
492.8309	-0.0198
493.0303	-0.0228
493.2297	-0.0157
493.4291	-0.0047
493.6284	-0.0001
493.8278	-0.0146
494.0271	-0
494.2264	0.001
494.4257	-0.0187
494.625	-0.0003
494.8243	-0.0156
495.0236	-0.0181
495.2228	-0.0269
495.422	-0.0097
495.6213	-0.0034
495.8205	-0.0014
496.0196	-0.0021
496.2188	-0.0008
496.418	-0.0116
496.6171	-0.0096
496.8162	-0.0128
497.0153	-0.002
497.2144	-0.007
497.4135	-0.0108
497.6126	-0.0116
497.8116	-0.0105
498.0107	-0.0075
498.2097	-0.0233
498.4087	-0.0134
498.6077	-0.0003
498.8067	-0.0165
499.0056	-0.0009
499.2046	-0.0176
499.4035	-0.0221
499.6024	-0.0096
499.8013	-0.0023
500.0002	-0.0162
500.199	-0.0016
500.3979	-0.007
500.5967	-0.0246
500.7956	-0.0075
500.9944	-0.0088
501.1932	-0.0047
501.3919	-0.0138
501.5907	-0.0171
501.7895	-0.0028
501.9882	-0.0154
502.1869	-0.0119
502.3856	-0.0168
502.5843	-0.0151
502.783	-0.0093
502.9816	-0.0228
503.1803	-0.0228
503.3789	-0.0153
503.5775	-0.0085
503.7761	-0.0092
503.9747	-0.0122
504.1732	-0.0108
504.3718	-0.0108
504.5703	-0.0091
504.7689	-0.0108
504.9674	-0.0073
505.1658	-0.0157
505.3643	-0.0168
505.5628	-0.0205
505.7612	-0.0142
505.9597	0.0028
506.1581	-0.0106
506.3565	0.0013
506.5549	-0.0085
506.7532	-0.0227
506.9516	-0.0041
507.1499	-0.0134
507.3482	-0.0189
507.5465	-0.0187
507.7448	-0.0082
507.9431	-0.0101
508.1414	-0.0058
508.3396	-0.0064
508.5379	-0.0163
508.7361	-0.0017
508.9343	-0.0111
509.1325	-0.0071
509.3306	-0.0097
509.5288	-0.0151
509.7269	-0.0232
509.9251	-0.0084
510.1232	-0.0112
510.3213	-0.0043
510.5193	0.0013
510.7174	-0.0143
510.9154	-0.015
511.1135	-0.015
511.3115	-0.0142
511.5095	-0.0064
511.7075	-0.0103
511.9055	-0.0071
512.1034	-0.0126
512.3014	-0.0096
512.4993	-0.0058
512.6972	-0.0162
512.8951	-0.0234
513.093	-0.0069
513.2908	-0.0045
513.4887	-0.0052
513.6865	-0.0134
513.8844	-0.0136
514.0822	-0.0077
514.2799	-0.0168
514.4777	-0.0123
514.6755	-0.0151
514.8732	-0.0086
515.0709	-0.0009
515.2687	0.0004
515.4664	-0.0081
515.664	-0.0088
515.8617	-0.0101
516.0594	-0.0141
516.257	-0.0113
516.4546	-0.0209
516.6522	-0.0068
516.8498	-0.0056
517.0474	-0.0036
517.2449	-0.0034
517.4425	-0.0225
517.64	-0.0097
517.8375	-0.0013
518.035	-0.0078
518.2325	-0.0088
518.43	-0.0061
518.6274	-0.0042
518.8249	-0.0137
519.0223	-0.0022
519.2197	-0.0105
519.4171	-0.0089
519.6145	-0.0211
519.8118	-0.0035
520.0092	-0.0006
520.2065	-0.0125
520.4038	-0.0191
520.6011	-0.01
520.7984	-0.0162
520.9956	-0.0153
521.1929	-0.0194
521.3901	0.0027
521.5874	-0.0056
521.7846	-0.0082
521.9818	-0.0148
522.1789	-0.0162
522.3761	-0.0035
522.5732	-0.009
522.7704	-0.0115
522.9675	-0.0096
523.1646	-0.009
523.3617	-0.0039
523.5587	-0.0108
523.7558	-0.0043
523.9528	-0.0226
524.1498	-0.0054
524.3468	-0.0165
524.5438	-0.0111
524.7408	-0.0003
524.9378	-0.002
525.1347	-0.0153
525.3316	-0.0034
525.5285	-0.0105
525.7254	-0.0132
525.9223	-0.0084
526.1192	-0.0081
526.316	-0.0013
526.5129	0.0048
526.7097	0.0017
526.9065	-0.0059
527.1033	-0.0054
527.3	0.0006
527.4968	-0.0041
527.6935	-0.0057
527.8903	-0.0098
528.087	-0.0117
528.2837	-0.0004
528.4804	-0.0039
528.677	-0.0093
528.8737	0.0001
529.0703	-0.0029
529.2669	-0.0087
529.4635	-0.0143
529.6601	-0.0099
529.8567	-0.0013
530.0532	-0.0153
530.2498	-0.01
530.4463	-0.0054
530.6428	0.0008
530.8393	0.0078
531.0358	-0.0101
531.2322	-0.003
531.4287	-0.0022
531.6251	-0.009
531.8215	0.0103
532.0179	0.0028
532.2143	-0.0006
532.4107	0.0029
532.607	-0.0081
532.8034	-0.006
532.9997	-0.0086
533.196	-0.0031
533.3923	-0.0115
533.5886	-0.0025
533.7848	0.0004
533.9811	-0.0056
534.1773	-0.0069
534.3735	0.0013
534.5697	-0.0075
534.7659	0.0019
534.9621	-0.0074
535.1582	-0.0106
535.3544	-0.0072
535.5505	-0.0109
535.7466	-0.0079
535.9427	-0.0131
536.1387	-0.0134
536.3348	-0.009
536.5308	0.0075
536.7269	-0.0211
536.9229	-0.0012
537.1189	0.0002
537.3148	-0.0062
537.5108	-0.0118
537.7068	-0.0052
537.9027	-0.0047
538.0986	-0.0031
538.2945	-0.0141
538.4904	-0.0075
538.6863	-0.0057
538.8821	-0.0061
539.078	-0.005
539.2738	-0.0018
539.4696	-0.0027
539.6654	0.0018
539.8611	0.0041
540.0569	-0.0055
540.2526	-0.004
540.4484	-0.0088
540.6441	0.0108
540.8398	-0.0046
541.0355	-0.004
541.2311	-0.0121
541.4268	-0.0156
541.6224	0.002
541.818	-0.0045
542.0136	-0.0061
542.2092	-0.0013
542.4048	-0.0028
542.6003	0.004
542.7959	-0.0005
542.9914	-0.0039
543.1869	0.0027
543.3824	-0.0064
543.5779	-0.006
543.7734	-0.0026
543.9688	-0.0083
544.1642	0.0052
544.3596	0.0064
544.555	-0.0052
544.7504	0.0011
544.9458	-0.0012
545.1411	0.0029
545.3365	-0.0073
545.5318	-0.0149
545.7271	-0.005
545.9224	-0.002
546.1177	-0.0019
546.3129	-0.0046
546.5081	-0.0105
546.7034	-0.0146
546.8986	-0.0175
547.0938	-0.0154
547.289	0.0003
547.4841	-0.0005
547.6793	0.0113
547.8744	-0.0097
548.0695	0.0041
548.2646	-0.0093
548.4597	-0.0032
548.6548	-0.0079
548.8498	-0.0038
549.0448	-0.0032
549.2399	-0.0042
549.4349	0.0004
549.6298	0.0016
549.8248	-0.0047
550.0198	-0.003
550.2147	0.0007
550.4096	-0.0096
550.6045	-0.0022
550.7994	-0.0035
550.9943	-0.0022
551.1892	-0.0003
551.384	0.0077
551.5788	-0.0162
551.7737	0.0035
551.9685	-0.0051
552.1632	-0.0051
552.358	-0.0043
552.5528	-0.0061
552.7475	-0.0068
552.9422	-0.0023
553.1369	-0.001
553.3316	0.0005
553.5263	-0.0105
553.7209	0.0065
553.9156	-0.0095
554.1102	-0.002
554.3048	-0.0055
554.4994	0.0093
554.694	-0.014
554.8885	-0.0008
555.0831	-0.0061
555.2776	-0.0098
555.4721	-0.0061
555.6666	-0.0091
555.8611	0.0063
556.0555	-0.0042
556.25	-0.0025
556.4444	-0.0108
556.6388	-0.0002
556.8332	0.0007
557.0276	-0.005
557.222	-0.0101
557.4163	-0.0002
557.6107	-0.0139
557.805	0.0069
557.9993	-0.0103
558.1936	-0.0045
558.3879	0.0057
558.5821	-0.0066
558.7764	-0.0019
558.9706	0.0081
559.1648	0.0024
559.359	-0.0038
559.5532	-0.0068
559.7473	0.0021
559.9415	-0.0002
560.1356	-0.0106
560.3297	-0.0122
560.5238	-0.007
560.7179	-0.0081
560.9119	-0.0043
561.106	-0.0057
561.3	-0.0106
561.494	-0.0024
561.688	-0.0065
561.882	-0.0117
562.076	-0.009
562.2699	-0.0068
562.4639	0.0053
562.6578	-0.0082
562.8517	0.0028
563.0456	0.0002
563.2395	-0.0014
563.4333	-0.002
563.6272	0.0017
563.821	-0.0037
564.0148	-0.0082
564.2086	-0.0116
564.4024	-0.0028
564.5961	-0.0054
564.7899	0.0043
564.9836	-0.0016
565.1773	0.0028
565.371	0.01
565.5647	0.0092
565.7584	0.0077
565.952	0.0014
566.1456	0.004
566.3393	-0.0023
566.5329	-0.0027
566.7264	-0.0055
566.92	-0.004
567.1136	0.0136
567.3071	-0.0099
567.5006	-0.0009
567.6941	0.0049
567.8876	-0.0004
568.0811	-0.0045
568.2745	-0.0021
568.468	0.0023
568.6614	0.0065
568.8548	0.0018
569.0482	-0.0039
569.2416	0.0062
569.4349	-0.0105
569.6283	0.0003
569.8216	-0.0067
570.0149	-0.007
570.2082	0.0049
570.4015	0.0093
570.5947	0.0023
570.788	0.0004
570.9812	-0.0023
571.1744	-0.0032
571.3676	-0.0034
571.5608	-0.0079
571.754	0.0011
571.9471	-0.0002
572.1402	0.0004
572.3333	-0.0034
572.5264	-0.0022
572.7195	-0.0039
572.9126	-0.001
573.1057	-0.006
573.2987	-0.0054
573.4917	-0.009
573.6847	-0.0108
573.8777	0.0013
574.0707	-0.0024
574.2636	-0.0055
574.4566	0.0032
574.6495	0
574.8424	-0.0034
575.0353	-0.0038
575.2281	0.0077
575.421	0.003
575.6138	0.001
575.8067	-0.0008
575.9995	-0.0027
576.1923	0.0034
576.385	0.0022
576.5778	-0.0047
576.7706	-0.0024
576.9633	-0.0027
577.156	-0.0012
577.3487	-0.0036
577.5414	-0.0008
577.734	-0.0073
577.9267	0.0025
578.1193	-0.0123
578.3119	-0.0114
578.5045	-0.0042
578.6971	-0.0071
578.8897	0.0001
579.0822	0.0042
579.2747	-0.0018
579.4673	-0.009
579.6598	-0.0051
579.8522	0.0014
580.0447	-0.0043
580.2372	-0.0059
580.4296	-0.0024
580.622	-0.0066
580.8144	-0.0081
581.0068	-0.0063
581.1992	-0.0054
581.3915	-0.0122
581.5839	-0.0121
581.7762	-0.0166
581.9685	-0.0037
582.1608	-0.0054
582.353	-0.0069
582.5453	-0.0009
582.7375	-0.002
582.9298	-0.0001
583.122	-0.0058
583.3142	-0.0025
583.5063	0.0018
583.6985	-0.006
583.8906	-0.0011
584.0827	-0.007
584.2749	0.004
584.4669	-0.0014
584.659	-0.0044
584.8511	-0.0001
585.0431	-0.0067
585.2352	-0.0028
585.4272	-0.0088
585.6192	-0.0029
585.8111	-0.0026
586.0031	-0.0059
586.195	-0.0101
586.387	0.0048
586.5789	-0.0013
586.7708	0.0049
586.9627	-0.0017
587.1545	-0.0064
587.3464	0.0091
587.5382	0.0056
587.73	0.0002
587.9218	0.0103
588.1136	-0.0016
588.3053	0.0072
588.4971	-0.0018
588.6888	-0.0138
588.8805	0.0078
589.0722	0.0032
589.2639	-0.0004
589.4556	-0.0048
589.6472	-0.0068
589.8389	-0.0097
590.0305	-0.013
590.2221	0.0048
590.4137	-0.0098
590.6052	-0.0035
590.7968	-0.0015
590.9883	0.0005
591.1798	0.0019
591.3713	-0.0051
591.5628	0.003
591.7543	0.0068
591.9458	-0.001
592.1372	0.0032
592.3286	0.0081
592.52	0.0116
592.7114	-0.0096
592.9028	-0.0008
593.0941	-0.0025
593.2855	-0.003
593.4768	-0.0082
593.6681	-0.0119
593.8594	-0.0077
594.0506	-0.0055
594.2419	0.006
594.4331	0.0056
594.6244	0.0034
594.8156	-0.0083
595.0067	-0.0009
595.1979	0.0015
595.3891	-0.0018
595.5802	-0.0036
595.7713	-0.0055
595.9624	-0.0041
596.1535	0.0032
596.3446	0.0001
596.5357	-0.0036
596.7267	0.0048
596.9177	-0.007
597.1087	-0.0043
597.2997	-0.0013
597.4907	0.0063
597.6817	-0.0004
597.8726	-0.0027
598.0635	-0.005
598.2544	0.0048
598.4453	0.0035
598.6362	-0.0022
598.827	0.0019
599.0179	0.0019
599.2087	0.0023
599.3995	0.0056
599.5903	0.0038
599.7811	0.0046
599.9718	0.0022
600.1626	-0.0007
600.3533	-0.0037
600.544	-0.0031
600.7347	-0.0018
600.9254	0.0079
601.116	-0.0043
601.3067	-0.0008
601.4973	0.0023
601.6879	0.0114
601.8785	0.0027
602.0691	0.0097
602.2596	0.0029
602.4502	0.0056
602.6407	0.0022
602.8312	0.0151
603.0217	0.0015
603.2122	0.0026
603.4027	0.0014
603.5931	-0.0014
603.7835	0.0009
603.9739	0.0036
604.1643	0.0004
604.3547	-0.0037
604.5451	0.0045
604.7354	-0.004
604.9257	-0.0005
605.116	-0.0012
605.3063	0.0064
605.4966	0.0066
605.6869	0.0012
605.8771	0.0122
606.0673	0.007
606.2575	0.0055
606.4477	-0.002
606.6379	-0.0023
606.8281	-0.0011
607.0182	-0.0036
607.2083	0.0112
607.3985	-0.0016
607.5885	-0.0005
607.7786	-0.0026
607.9687	-0.0022
608.1587	0.0076
608.3488	-0.0039
608.5388	0.0018
608.7288	0.001
608.9187	-0.0059
609.1087	-0.0023
609.2986	-0.002
609.4886	0.0032
609.6785	-0.0064
609.8684	0.0028
610.0582	0.0026
610.2481	0.003
610.4379	-0.0035
610.6278	-0.0029
610.8176	0.001
611.0074	-0.0117
611.1971	-0.0038
611.3869	-0.0033
611.5766	-0.0093
611.7664	0.0026
611.9561	0.0061
612.1458	-0.0009
612.3354	-0.0037
612.5251	0.0022
612.7147	0.0038
612.9044	0.0065
613.094	-0.0074
613.2836	-0.0028
613.4731	0.0011
613.6627	-0.0053
613.8522	0.008
614.0417	0.0008
614.2313	-0.002
614.4207	-0.0107
614.6102	0.0007
614.7997	-0.0043
614.9891	-0.0061
615.1785	-0.0033
615.3679	-0.004
615.5573	0.0085
615.7467	-0.0058
615.9361	-0.0041
616.1254	-0.0032
616.3147	-0.0019
616.504	-0.0065
616.6933	0.0024
616.8826	0.0056
617.0718	0.0021
617.2611	0.0037
617.4503	-0.0011
617.6395	0.0004
617.8287	0.0028
618.0179	-0.0027
618.207	0.0093
618.3961	-0.0054
618.5853	-0.0009
618.7744	0.0137
618.9634	0.0045
619.1525	0.0071
619.3416	0.0053
619.5306	0.0063
619.7196	0.0001
619.9086	0.0026
620.0976	-0.0003
620.2866	-0.0048
620.4755	0.0002
620.6645	0.0031
620.8534	0.0085
621.0423	0.0067
621.2312	0.0009
621.42	-0.0005
621.6089	-0.0036
621.7977	0.003
621.9865	-0.0052
622.1753	0.0041
622.3641	-0.0013
622.5529	0.0076
622.7416	0.0007
622.9303	0.0002
623.1191	0.0025
623.3078	-0.0003
623.4964	0.0031
623.6851	-0.0003
623.8737	-0.0077
624.0624	0.0041
624.251	-0.0027
624.4396	0.0019
624.6282	-0.0066
624.8167	-0.0022
625.0053	0.002
625.1938	0.0057
625.3823	0.0081
625.5708	0.0045
625.7593	-0.0018
625.9477	-0.0004
626.1362	-0.0045
626.3246	0.0083
626.513	0.0073
626.7014	0.0088
626.8898	-0.0014
627.0781	0.0005
627.2665	-0.004
627.4548	0.0123
627.6431	0.0049
627.8314	-0.0027
628.0197	0.0063
628.2079	-0.0029
628.3962	-0.0012
628.5844	0.0056
628.7726	0.0068
628.9608	0.0057
629.1489	0.0131
629.3371	0.0042
629.5252	-0.0062
629.7134	0.0028
629.9015	0.0016
630.0895	0.0027
630.2776	0.0045
630.4657	-0.0036
630.6537	0.0022
630.8417	-0.0004
631.0297	0.0009
631.2177	-0.0006
631.4057	-0.0078
631.5936	-0.0057
631.7815	0.005
631.9695	-0.0006
632.1574	0.0049
632.3452	0.0121
632.5331	0.001
632.7209	-0.0005
632.9088	0.0092
633.0966	0.0057
633.2844	0.0016
633.4722	0.0048
633.6599	0.0129
633.8477	0.012
634.0354	0.0051
634.2231	0.0034
634.4108	0
634.5985	0.0028
634.7861	0.0039
634.9738	-0.0026
635.1614	-0.0012
635.349	0.0043
635.5366	-0.0015
635.7242	0.0007
635.9117	-0.003
636.0993	-0.0063
636.2868	0.0079
636.4743	-0.0073
636.6618	0.0132
636.8492	-0.0006
637.0367	0.0046
637.2241	-0.0089
637.4115	0.0026
637.5989	-0.0006
637.7863	-0.0024
637.9737	0.0006
638.161	0.0001
638.3484	0.005
638.5357	0.0006
638.723	0.0038
638.9103	0.0111
639.0975	0.0051
639.2848	0.0072
639.472	-0.0003
639.6592	0.0137
639.8464	0.0095
640.0336	-0.0001
640.2208	0.0001
640.4079	-0.0007
640.595	0.0017
640.7821	-0.0005
640.9692	0.0056
641.1563	0.0004
641.3434	0.0087
641.5304	0.0042
641.7174	-0.0007
641.9044	0.0013
642.0914	0.0087
642.2784	0.0095
642.4653	0.002
642.6523	0.0023
642.8392	-0.0048
643.0261	0.0086
643.213	0.0007
643.3999	-0.0046
643.5867	-0.0011
643.7735	0.0055
643.9604	-0.0043
644.1472	-0.0035
644.3339	0.007
644.5207	0.0041
644.7075	-0.0101
644.8942	0.0057
645.0809	0.0131
645.2676	0.011
645.4543	-0.0002
645.6409	0.0114
645.8276	0.0025
646.0142	0.0072
646.2008	-0.0054
646.3874	0.0004
646.574	-0.0007
646.7605	0.0001
646.9471	-0.0108
647.1336	-0.0033
647.3201	-0.0025
647.5066	-0.0002
647.6931	0.0091
647.8795	0.0011
648.0659	0.0062
648.2524	0.0132
648.4388	-0.0008
648.6252	-0.0002
648.8115	0.002
648.9979	-0.0052
649.1842	0.0059
649.3705	0.0049
649.5568	0.0023
649.7431	0.0089
649.9294	-0.0019
650.1156	0.0049
650.3018	-0.0043
650.488	-0.0001
650.6742	0.0079
650.8604	0.0043
651.0466	-0.0023
651.2327	-0.0027
651.4188	0.0016
651.6049	0.0033
651.791	0
651.9771	0.0068
652.1632	0.0105
652.3492	-0.0016
652.5352	0.0032
652.7212	0.0068
652.9072	0.0062
653.0932	-0.003
653.2791	-0.0033
653.465	0.0079
653.651	-0.0019
653.8369	0.0015
654.0227	-0.0023
654.2086	0.0164
654.3944	0.0098
654.5803	0.0029
654.7661	-0.0008
654.9519	0.0043
655.1377	0.0026
655.3234	-0.0019
655.5092	-0.0061
655.6949	-0.006
655.8806	-0.0093
656.0663	0.0007
656.2519	-0.0045
656.4376	-0.0044
656.6232	0.0033
656.8088	0.0023
656.9945	-0.0036
657.18	0.0023
657.3656	0.0081
657.5511	-0.0012
657.7367	0.0003
657.9222	0.0024
658.1077	-0.0015
658.2932	0.0066
658.4786	-0.0024
658.6641	0.0006
658.8495	-0.0027
659.0349	-0.0034
659.2203	0.0079
659.4057	0.0032
659.591	0.0051
659.7764	0.0028
659.9617	0.002
660.147	0.0041
660.3323	0.0116
660.5176	0.0128
660.7028	0.0146
660.888	0.005
661.0733	0.0008
661.2585	-0.0006
661.4436	0.0005
661.6288	0.0012
661.8139	0.0003
661.9991	0.002
662.1842	-0.0031
662.3693	0.0064
662.5544	0.0007
662.7394	0.0026
662.9245	0.0011
663.1095	0.0031
663.2945	0.0006
663.4795	0.0014
663.6644	0.0017
663.8494	-0.0007
664.0343	0.0007
664.2193	-0.0097
664.4042	0.0009
664.589	-0.0064
664.7739	-0.0041
664.9587	-0.0152
665.1436	-0.0005
665.3284	0.002
665.5132	-0.0031
665.698	-0.0012
665.8827	0.0043
666.0675	0.0028
666.2522	0.001
666.4369	0.0015
666.6216	0.0087
666.8063	0.0023
666.9909	0.0075
667.1756	0.0027
667.3602	0.0039
667.5448	-0.0006
667.7294	0.0074
667.9139	0.0041
668.0985	0.0117
668.283	0.0029
668.4675	0.003
668.652	-0.0014
668.8365	0.002
669.0209	0.0087
669.2054	0.014
669.3898	0.0001
669.5742	0.0037
669.7586	0.0041
669.943	0.0167
670.1273	0.0124
670.3117	0.0018
670.496	0.0014
670.6803	0.0164
670.8646	0.0104
671.0488	0.0043
671.2331	0.0084
671.4173	0.0084
671.6015	0.0079
671.7857	0.0076
671.9699	0.0062
672.1541	0.0093
672.3382	0.0127
672.5223	0.011
672.7064	0.0106
672.8905	0.0124
673.0746	-0.0007
673.2587	0.0039
673.4427	0.0076
673.6267	0.0114
673.8107	0.0134
673.9947	0.001
674.1787	0.0021
674.3626	0.0013
674.5465	0.0009
674.7304	0.0027
674.9143	0.0099
675.0982	0.0063
675.2821	0.0026
675.4659	0.0098
675.6497	-0.0027
675.8335	-0.0028
676.0173	0.0044
676.2011	0.0053
676.3849	0.0049
676.5686	-0.0004
676.7523	0.007
676.936	-0.0017
677.1197	-0.0054
677.3034	0.0003
677.487	0.0047
677.6706	0.0039
677.8542	0.01
678.0378	0.0051
678.2214	-0.0037
678.405	0.0033
678.5885	-0.0005
678.772	0.0068
678.9555	-0.0032
679.139	-0.0026
679.3225	0.0067
679.5059	-0.0001
679.6894	0.0129
679.8728	-0.0029
680.0562	-0.0102
680.2395	0.0036
680.4229	-0.0047
680.6062	0.0088
680.7896	0.0026
680.9729	0.0014
681.1562	0.007
681.3394	0.003
681.5227	0.0028
681.7059	0.0039
681.8891	0.0037
682.0723	0.0056
682.2555	0.0038
682.4387	-0.0038
682.6218	-0.0026
682.805	0.0033
682.9881	0.009
683.1712	0.0007
683.3542	0.0042
683.5373	0.0062
683.7203	0.0037
683.9034	-0.0015
684.0864	-0.0005
684.2694	0.0002
684.4523	0.0094
684.6353	-0.0003
684.8182	0.0007
685.0011	-0.0018
685.184	0.0084
685.3669	0.0052
685.5498	0.0095
685.7326	0.002
685.9154	-0.0059
686.0982	0.0133
686.281	0.0015
686.4638	0.0102
686.6465	0.0059
686.8293	-0.0039
687.012	0.0002
687.1947	-0.0017
687.3774	0.0082
687.56	0.0028
687.7427	0.0059
687.9253	-0.0053
688.1079	0.0013
688.2905	0.0083
688.4731	0.0031
688.6556	0.0057
688.8382	0.0076
689.0207	0.0005
689.2032	-0.0042
689.3857	-0.0024
689.5681	0.0004
689.7506	-0.001
689.933	0.0007
690.1154	0.0009
690.2978	0.0026
690.4802	0.01
690.6626	-0.0047
690.8449	-0.0048
691.0272	0.005
691.2095	-0.0032
691.3918	-0.0041
691.5741	0.0031
691.7563	0.0025
691.9386	-0.0028
692.1208	-0.0035
692.303	-0.0027
692.4852	-0.0001
692.6673	-0.0027
692.8495	-0.0006
693.0316	-0.0029
693.2137	-0.0045
693.3958	0.0034
693.5778	0.0035
693.7599	0.0038
693.9419	0.0019
694.1239	0.0009
694.3059	0.0045
694.4879	0.0125
694.6699	0.0053
694.8518	0.0012
695.0337	-0.0054
695.2157	0.0059
695.3975	-0.0034
695.5794	0.0008
695.7613	-0.0039
695.9431	0.0008
696.1249	0.0021
696.3067	-0.0005
696.4885	0.0015
696.6703	-0.0142
696.852	-0.0013
697.0337	-0.0015
697.2154	0.0064
697.3971	0.0041
697.5788	0.0035
697.7605	0.003
697.9421	0.0052
698.1237	0.0037
698.3053	0.0034
698.4869	-0.0055
698.6685	-0.0081
698.85	-0
699.0315	0.0065
699.213	0.0001
699.3945	0.0002
699.576	0.0056
699.7575	0.0028
699.9389	0.0075
700.1203	-0.0069
700.3017	-0.006
700.4831	-0.0087
700.6645	0.0022
700.8458	0.0062
701.0271	-0.0007
701.2084	-0.0006
701.3897	-0.0024
701.571	0.0042
701.7523	-0.0079
701.9335	-0.0103
702.1147	-0.0025
702.2959	-0.0002
702.4771	-0.0033
702.6583	-0.0004
702.8394	-0.0021
703.0205	0.0088
703.2016	-0.0023
703.3827	0.0034
703.5638	0.0086
703.7449	0.003
703.9259	0.0131
704.1069	0.0007
704.2879	0.0024
704.4689	-0.002
704.6499	-0.0037
704.8308	-0.0038
705.0117	0.0036
705.1927	0.0037
705.3735	-0.0021
705.5544	-0.0056
705.7353	-0.003
705.9161	-0.0053
706.0969	-0.0082
706.2777	-0.0034
706.4585	-0.003
706.6393	0.0029
706.82	0.0036
707.0007	0.0009
707.1815	0.01
707.3621	0.0023
707.5428	0.003
707.7235	0.008
707.9041	0.0002
708.0847	-0.0046
708.2653	-0.0015
708.4459	-0.01
708.6265	-0.0041
708.807	-0.0049
708.9875	-0.0028
709.168	-0.0051
709.3485	-0.0034
709.529	-0.0086
709.7095	-0.0061
709.8899	-0.0043
710.0703	-0.0138
710.2507	0.0046
710.4311	-0.0047
710.6115	-0.0092
710.7918	-0.0083
710.9721	-0.0093
711.1524	-0.0059
711.3327	0.0015
711.513	-0.0001
711.6932	-0.0033
711.8735	0.0106
712.0537	0.0009
712.2339	-0.0121
712.4141	-0.0101
712.5942	-0.0058
712.7744	0.0079
712.9545	0.002
713.1346	-0.0015
713.3147	-0.0001
713.4947	-0.0063
713.6748	0.0018
713.8548	0.0005
714.0348	-0.0052
714.2148	0.0054
714.3948	0.0076
714.5748	0.0047
714.7547	-0.0012
714.9346	0.0049
715.1145	0.0112
715.2944	0.0044
715.4743	0.0057
715.6541	0.0047
715.834	0.012
716.0138	-0.0049
716.1936	-0.0056
716.3733	0.0041
716.5531	0.0099
716.7328	-0.0048
716.9126	-0.0096
717.0923	-0.0006
717.2719	-0.001
717.4516	-0.0076
717.6312	-0.0021
717.8109	-0.0077
717.9905	0.0006
718.1701	0.0038
718.3496	-0.0108
718.5292	0.0034
718.7087	-0.0021
718.8882	-0.0007
719.0677	0.0157
719.2472	-0.0011
719.4267	-0.0016
719.6061	0.0072
719.7856	0.0007
719.965	0.0086
720.1443	-0.0028
720.3237	0.0105
720.5031	-0.0002
720.6824	0.0086
720.8617	0.0035
721.041	0.0036
721.2203	0.0126
721.3995	-0.0064
721.5788	0.0013
721.758	0.01
721.9372	0.0057
722.1164	0.0013
722.2956	0.006
722.4747	0.0021
722.6538	-0.0072
722.8329	0.0139
723.012	0.0021
723.1911	-0.0019
723.3702	-0.0007
723.5492	-0.0018
723.7282	-0.0016
723.9072	-0.0002
724.0862	-0.0041
724.2652	-0.0135
724.4441	-0.0023
724.623	-0.0005
724.8019	-0.0006
724.9808	0.0003
725.1597	-0.009
725.3385	0.0127
725.5174	0.0039
725.6962	0.002
725.875	0.0005
726.0538	0.0117
726.2325	0.0059
726.4112	0.0121
726.59	0.0002
726.7687	-0.0066
726.9474	0.0032
727.126	-0.0014
727.3047	0.0065
727.4833	-0.0003
727.6619	-0.0033
727.8405	-0.0059
728.0191	-0.0091
728.1976	0.0006
728.3762	-0.0049
728.5547	-0.0029
728.7332	-0.0084
728.9116	0.0034
729.0901	0.0102
729.2686	0.0046
729.447	-0.0079
729.6254	0.0063
729.8038	0.0046
729.9821	-0.0073
730.1605	0.0044
730.3388	-0.007
730.5171	0.0039
730.6954	-0.0059
730.8737	0.0023
731.0519	0.0026
731.2302	0.0033
731.4084	-0.0019
731.5866	0.0067
731.7648	-0.005
731.9429	0.006
732.1211	-0.01
732.2992	0.003
732.4773	-0.0038
732.6554	0.0038
732.8335	0.0009
733.0115	0.0009
733.1896	0.0039
733.3676	0.0029
733.5456	0.013
733.7235	0.0026
733.9015	-0.0038
734.0794	0.0058
734.2574	-0.0023
734.4353	-0.0044
734.6131	0.0021
734.791	-0.0052
734.9689	-0.0019
735.1467	0.0005
735.3245	-0.0127
735.5023	-0.0042
735.68	0.0021
735.8578	0.0068
736.0355	-0.0091
736.2132	-0.0042
736.3909	-0.0026
736.5686	-0.0058
736.7463	0.0012
736.9239	-0.0083
737.1015	-0.0094
737.2791	-0.0014
737.4567	-0.0036
737.6343	-0.0048
737.8118	-0.0072
737.9894	-0.0037
738.1669	-0.0087
738.3444	-0.0045
738.5218	0.0031
738.6993	-0.0107
738.8767	-0.0066
739.0541	0.0113
739.2315	-0.0093
739.4089	0.0061
739.5863	0.011
739.7636	-0.005
739.9409	0.0077
740.1182	0.0087
740.2955	0.0057
740.4728	0.0006
740.65	0.0043
740.8272	-0.0041
741.0044	-0.0076
741.1816	0.0105
741.3588	0.0022
741.5359	0.0017
741.7131	-0.0068
741.8902	-0.0066
742.0673	-0.0028
742.2444	-0.0074
742.4214	0.0018
742.5985	-0.0045
742.7755	-0.0063
742.9525	-0.021
743.1295	0.0019
743.3064	0.0041
743.4834	0.0021
743.6603	-0.0087
743.8372	-0.0008
744.0141	0.0052
744.191	0.0066
744.3678	-0.0016
744.5446	0.0011
744.7215	0.0038
744.8982	-0.0111
745.075	-0.0083
745.2518	0.0036
745.4285	0.0087
745.6052	0.0023
745.7819	0.003
745.9586	0.0037
746.1353	-0.0024
746.3119	-0.0035
746.4885	-0.0028
746.6651	-0.0059
746.8417	-0.0041
747.0183	-0.007
747.1948	-0.0002
747.3714	0.0022
747.5479	0.0085
747.7244	-0.0028
747.9008	0.0034
748.0773	0.0026
748.2537	-0.0047
748.4301	-0.0085
748.6065	-0.0005
748.7829	0.0077
748.9593	-0.0006
749.1356	0.0008
749.3119	0.0066
749.4882	-0.0004
749.6645	-0.0035
749.8408	-0.004
750.017	-0.0024
750.1933	0.0022
750.3695	-0.0102
750.5457	0.0006
750.7218	-0.0103
750.898	0.0013
751.0741	-0.0112
751.2502	-0.0104
751.4263	-0.0026
751.6024	-0.0039
751.7784	-0.0075
751.9545	-0.0104
752.1305	0.0018
752.3065	-0.0015
752.4825	-0.0058
752.6584	-0.0037
752.8344	-0.0024
753.0103	-0.0049
753.1862	-0.01
753.3621	-0.0131
753.5379	-0.0075
753.7138	0.0028
753.8896	-0.0033
754.0654	0.0034
754.2412	0.0031
754.417	0.0057
754.5927	-0.0068
754.7685	-0.0141
754.9442	0.0013
755.1199	0.0063
755.2956	-0.0074
755.4712	-0.0044
755.6469	-0.0034
755.8225	-0.0081
755.9981	-0.0055
756.1736	-0.002
756.3492	-0.0058
756.5248	-0.0034
756.7003	-0.004
756.8758	-0.0048
757.0513	-0.0161
757.2267	-0.0046
757.4022	0.0061
757.5776	-0.0121
757.753	0.0033
757.9284	-0.0005
758.1038	0.0156
758.2791	0.0105
758.4545	-0.0095
758.6298	0.0009
758.8051	0.0035
758.9803	-0.0003
759.1556	-0.0009
759.3308	-0.0007
759.506	0.0076
759.6812	0.0023
759.8564	0.0012
760.0316	-0.0002
760.2067	0.0154
760.3819	0.0042
760.557	0.0187
760.732	0.0033
760.9071	-0.0072
761.0821	-0.0006
761.2572	0.011
761.4322	0.0013
761.6072	-0.0057
761.7821	-0.004
761.9571	0.0093
762.132	-0.0029
762.3069	-0.0117
762.4818	-0.0035
762.6567	-0.0008
762.8316	-0
763.0064	-0.0003
763.1812	0.0016
763.356	-0.0161
763.5308	-0.0069
763.7055	-0.0024
763.8803	-0.0152
764.055	-0.0023
764.2297	-0.0091
764.4044	-0.0113
764.579	-0.0132
764.7537	-0.0161
764.9283	-0.0031
765.1029	-0.0104
765.2775	-0.0143
765.4521	-0.0097
765.6266	-0.0079
765.8011	-0.0011
765.9756	-0.0086
766.1501	0.0042
766.3246	-0.0027
766.4991	-0.0035
766.6735	-0.0077
766.8479	-0.0088
767.0223	0.0106
767.1967	-0.0002
767.371	0.0017
767.5454	-0.0039
767.7197	0.0057
767.894	0.0046
768.0683	-0.0011
768.2425	0.0021
768.4168	-0.0026
768.591	0.0027
768.7652	-0.0035
768.9394	-0.0052
769.1135	-0.0027
769.2877	-0.0008
769.4618	-0.007
769.6359	-0.0021
769.81	-0.0003
769.984	0.006
770.1581	-0.0092
770.3321	0.0017
770.5061	-0.0011
770.6801	-0.011
770.8541	-0.0021
771.028	0.0067
771.202	-0.0241
771.3759	0.0059
771.5498	-0.0009
771.7236	-0.0046
771.8975	-0.0021
772.0713	0.0118
772.2451	0.0007
772.4189	0.0113
772.5927	0.0182
772.7665	0.0064
772.9402	-0.0032
773.1139	0.0039
773.2876	-0.0046
773.4613	0.0121
773.635	0.0032
773.8086	0.0047
773.9822	-0.0055
774.1558	0.0062
774.3294	-0.0096
774.503	-0.0019
774.6765	0.0084
774.8501	-0.0006
775.0236	0.002
775.1971	0.0022
775.3705	-0.0173
775.544	0.007
775.7174	-0.0126
775.8908	-0.0047
776.0642	-0.0053
776.2376	-0.0084
776.4109	-0.0149
776.5843	-0.0073
776.7576	0.0046
776.9309	0.0024
777.1041	0.0054
777.2774	0.0073
777.4506	-0.0038
777.6238	-0.0136
777.797	-0.0096
777.9702	0.0025
778.1434	-0.0074
778.3165	-0.0194
778.4896	-0.0029
778.6627	0.004
778.8358	0.0053
779.0089	0.0008
779.1819	0.0039
779.3549	0.0147
779.5279	0.0116
779.7009	0.002
779.8739	0.0109
780.0468	0.0137
780.2197	0.0142
780.3926	-0.0057
780.5655	0.0002
780.7384	0.0026
780.9112	-0.0005
781.0841	-0.004
781.2569	-0.0045
781.4297	-0.0014
781.6024	0.0108
781.7752	0.0021
781.9479	0.0041
782.1206	0.0121
782.2933	-0.0094
782.466	0.007
782.6386	-0.0002
782.8113	0.0006
782.9839	-0.0133
783.1565	0.0146
783.329	0.0097
783.5016	0.0133
783.6741	0.0077
783.8466	-0.0145
784.0191	0.0079
784.1916	-0.0015
784.3641	-0.0063
784.5365	0.0051
784.7089	-0.0034
784.8813	0.0013
785.0537	-0.0095
785.2261	-0.0051
785.3984	-0.0067
785.5707	-0.004
785.743	-0.0118
785.9153	-0.0108
786.0876	-0.0065
786.2598	-0.0098
786.432	-0.011
786.6042	0.0062
786.7764	0.0018
786.9486	0.0014
787.1207	-0.0166
787.2928	0.0018
787.4649	-0.0082
787.637	0.0078
787.8091	-0.0044
787.9811	0.0033
788.1532	-0.0097
788.3252	0.0054
788.4972	-0.0085
788.6691	0.0018
788.8411	-0.0191
789.013	-0.0126
789.1849	-0.0101
789.3568	-0.0059
789.5287	-0.004
789.7005	-0.0079
789.8723	-0.0002
790.0442	0.0192
790.2159	0.003
790.3877	-0.0077
790.5595	-0.0089
790.7312	-0.0025
790.9029	-0.0062
791.0746	0.0021
791.2463	-0.0091
791.4179	-0.0105
791.5896	-0.007
791.7612	-0.0007
791.9328	0.0048
792.1044	-0.0271
792.2759	-0.0195
792.4474	-0.0133
792.619	-0.0038
792.7905	0.0123
792.9619	0.0073
793.1334	0.0007
793.3048	0.0018
793.4762	-0.0043
793.6476	0.0039
793.819	-0.0124
793.9904	0.0074
794.1617	-0.0211
794.333	-0.0041
794.5043	-0.0077
794.6756	0.0116
794.8469	-0.0112
795.0181	-0.0067
795.1893	-0.0045
795.3605	0.0107
795.5317	-0.0082
795.7029	-0.0025
795.874	0.0034
796.0452	-0.0165
796.2163	-0.0197
796.3873	0.0083
796.5584	-0.0065
796.7294	-0.0075
796.9005	0.0107
797.0715	-0.0025
797.2425	-0.013
797.4134	-0.0076
797.5844	-0.0035
797.7553	-0.0169
797.9262	-0.0046
798.0971	-0.0269
798.2679	-0.0131
798.4388	-0.0225
798.6096	0.0009
798.7804	-0.0121
798.9512	-0.014
799.122	-0.0188
799.2927	-0.0069
799.4635	0.0001
799.6342	-0.0273
799.8049	-0.018
799.9755	-0.0192
800.1462	-0.0092
800.3168	-0.0126
800.4874	0.0032
800.658	0.0098
800.8286	0.0001
800.9991	0.0069
801.1696	0.0056
801.3402	0.0059
801.5106	-0.0075
801.6811	-0.0189
801.8516	0.0077
802.022	-0.0106
802.1924	0.0119
802.3628	0.0077
802.5332	-0.0078
802.7035	0.0102
802.8739	-0.0093
803.0442	-0.013
803.2145	0.0165
803.3847	-0.035
803.555	-0.0188
803.7252	-0.0135
803.8954	-0.0288
804.0656	-0.0226
804.2358	-0.0205
804.4059	-0.0045
804.5761	-0.0134
804.7462	-0.0191
804.9163	-0.0083
805.0864	-0.0207
805.2564	-0.0218
805.4264	-0.0131
805.5965	-0.0359
805.7665	0.0049
805.9364	-0.0016
806.1064	0.0041
806.2763	-0.0081
806.4462	0.0121
806.6161	0.0065
806.786	0.0001
806.9559	-0.0152
807.1257	-0.0058
807.2955	0.0024
807.4653	-0.0111
807.6351	-0.0198
807.8048	-0.0005
807.9746	-0.0172
808.1443	0.0011
808.314	-0.0084
808.4837	-0.0286
808.6533	-0.0194
808.8229	0.0241
808.9926	-0.0006
809.1622	-0.0081
809.3317	-0.0196
809.5013	0.0009
809.6708	-0.0032
809.8403	-0.0144
810.0098	-0.0226
810.1793	-0.0101
810.3488	0.0034
810.5182	-0.0384
810.6876	-0.0048
810.857	-0.0181
811.0264	0.0139
811.1958	-0.0034
811.3651	-0.0037
811.5344	-0.0056
811.7037	-0.0107
811.873	-0.0248
812.0422	0.0119
812.2115	-0.0162
812.3807	-0.0298
812.5499	-0.0133
812.7191	-0.0259
812.8882	-0.0121
813.0574	-0.0158
813.2265	-0.0166
813.3956	-0.0047
813.5646	-0.0243
813.7337	-0.0164
813.9027	-0.0057
814.0718	0.0138
814.2407	0.0147
814.4097	-0.0152
814.5787	-0.013
814.7476	-0.0021
814.9165	0.0055
815.0854	0.0104
815.2543	-0.0055
815.4232	-0.0173
815.592	0.0045
815.7608	0.0017
815.9296	0.0142
816.0984	-0.0099
816.2671	-0.0132
816.4359	-0.012
816.6046	0.0002
816.7733	-0.005
816.942	-0.0336
817.1106	0.0066
817.2793	0.0075
817.4479	-0.0231
817.6165	-0.0104
817.785	-0.0273
817.9536	-0.005
818.1221	-0.0165
818.2906	-0.0014
818.4591	-0.0233
818.6276	-0.0151
818.7961	-0.0118
818.9645	0.0052
819.1329	-0.0241
819.3013	0.0043
819.4697	0.0086
819.638	-0.0312
819.8064	-0.0155
819.9747	-0.0241
820.143	-0.0293
820.3113	-0.0447
820.4795	-0.0149
820.6477	-0.0271
820.816	-0.0379
820.9842	-0.0073
821.1523	-0.034
821.3205	-0.0236
821.4886	-0.0331
821.6567	-0.0251
821.8248	0.0006
821.9929	0.0142
822.1609	0.0144
822.329	0.0253
822.497	0.007
822.665	-0.0021
822.833	-0.0311
823.0009	0.0186
823.1688	0.0025
823.3367	0.0283
823.5046	0.0064
823.6725	0.0351
823.8404	0.0022
824.0082	0.0203
824.176	0.0135
824.3438	-0.0029
824.5116	-0.0182
824.6793	0.0102
824.847	-0.0079
825.0147	0.0054
825.1824	0.0136
825.3501	0.0184
825.5177	-0.0184
825.6854	0.0033
825.853	0.0178
826.0206	-0.0171
826.1881	0.0046
826.3557	-0.0514
826.5232	0.0095
826.6907	-0.0199
826.8582	-0.0332
827.0257	-0.0543
827.1931	-0.0204
827.3605	-0.0139
827.528	-0.0048
827.6953	-0.0281
827.8627	-0.0299
828.03	0.0146
828.1974	-0.0099
828.3647	-0.0237
828.532	-0.06
828.6992	-0.0482
828.8665	-0.0324
829.0337	-0.06
829.2009	0.0104
829.3681	-0.0235
829.5352	0.0289
829.7024	-0.0682
829.8695	-0.0593
830.0366	-0.0016
830.2037	0.0159
830.3707	-0.026
830.5378	-0.0345
830.7048	0.0058
830.8718	-0.048
831.0388	-0.0176
831.2057	-0.0091
831.3727	0.0009
831.5396	0.0015
831.7065	-0.0444
831.8734	0.0271
832.0402	-0.0125
832.2071	-0.0119
832.3739	-0.0381
832.5407	-0.0229
832.7075	-0.0447
832.8742	-0.0456
833.041	-0.0546
833.2077	-0.0415
833.3744	0.0022
833.541	-0.0191
833.7077	-0.0402
833.8743	-0.0232
834.0409	-0.0222
834.2075	-0.009
834.3741	-0.0379
834.5407	0.0043
834.7072	-0.0164
834.8737	-0.0455
835.0402	-0.0206
835.2067	-0.0209
835.3731	-0.0055
835.5395	0.0255
835.706	-0.0277
835.8723	-0.0413
836.0387	0.0269
836.2051	-0.0349
836.3714	-0.0254
836.5377	-0.0084
836.704	-0.017
836.8703	0.0301
837.0365	-0.0132
837.2027	-0.033
837.3689	-0.0003
837.5351	-0.0376
837.7013	-0.0446
837.8674	-0.0491
838.0335	-0.0487
838.1997	-0.0376
838.3657	-0.0716
838.5318	-0.0312
838.6978	0.0144
838.8639	-0.0002
839.0299	-0.0302
839.1958	-0.042
839.3618	-0.0594
839.5277	-0.0395
839.6937	-0.0068
839.8596	-0.0547
840.0254	0.0115
840.1913	-0.0027
840.3571	0.0517
840.523	-0.042
840.6888	-0.0096
840.8545	-0.0381
841.0203	-0.0055
841.186	-0.0316
841.3517	0.0143
841.5174	-0.0298
841.6831	-0.0761
841.8488	-0.017
842.0144	0.0006
842.18	-0.0142
842.3456	-0.0328
842.5112	-0.0123
842.6767	-0.0233
842.8422	-0.0212
843.0077	-0.0263
843.1732	-0.0847
843.3387	-0.031
843.5042	-0.0468
843.6696	-0.0169
843.835	-0.0204
844.0004	0.0155
844.1657	-0.018
844.3311	-0.0244
844.4964	-0.0626
844.6617	-0.0682
844.827	-0.0141
844.9923	-0.0172
845.1575	0.0253
845.3227	-0.0705
845.4879	-0.036
845.6531	-0.1047
845.8183	-0.0819
845.9834	-0.0211
846.1485	-0.0185
846.3136	-0.0618
846.4787	-0.0901
846.6438	-0.0075
846.8088	0.0122
846.9738	-0.0846
847.1388	-0.0961
847.3038	-0.065
847.4687	-0.1932
847.6337	-0.0081
847.7986	-0.0109
847.9635	0.0145
848.1284	0.0176
848.2932	0.0249
848.458	-0.0963
848.6228	-0.0114
848.7876	0.0038
848.9524	-0.0305
849.1172	-0.0831
849.2819	-0.0566
849.4466	-0.1378
849.6113	-0.1276
849.7759	-0.108
849.9406	-0.0816
850.1052	-0.0241
850.2698	-0.0939
850.4344	-0.0593
850.599	-0.1088
850.7635	0.0425
850.928	-0.0591
851.0925	-0.0426
851.257	0.0402
851.4215	0.0025
851.5859	-0.1303
851.7503	0.0263
851.9147	-0.0442
852.0791	-0.1296
852.2434	-0.1119
852.4078	0.0285
852.5721	0.0312
852.7364	-0.0684
852.9007	-0.1866
853.0649	-0.0728
853.2291	-0.0823
853.3934	-0.0649
853.5575	0.047
853.7217	-0.0504
853.8859	-0.2208
854.05	-0.0315
854.2141	-0.0285
854.3782	-0.1381
854.5423	-0.098
854.7063	0.0495
854.8703	0.0335
855.0343	0.0383
855.1983	-0.1598
855.3623	0.0329
855.5262	-0.0275
855.6901	-0.0152
855.854	-0.0728
856.0179	0.029
856.1818	0.1504
856.3456	-0.1698
856.5094	-0.0599
856.6732	-0.1463
856.837	-0.1043
857.0008	0.0724
857.1645	-0.1895
857.3282	-0.2366
857.4919	-0.1127
857.6556	-0.0252
857.8192	-0.0621
857.9828	-0.0414
858.1465	0.1567
858.31	-0.2936
858.4736	-0.0999
858.6372	-0.2407
858.8007	-0.2451
858.9642	-0.0878
859.1277	-0.0566
859.2911	-0.0695
859.4546	-0.0204
859.618	-0.4089
859.7814	-0.0693
859.9448	-0.0225
860.1081	-0.1805
860.2715	0.0394
860.4348	0.1113
860.5981	-0.1609
860.7614	0.0847
860.9246	0.1754
861.0879	0.0317
861.2511	0.0375
861.4143	-0.3609
861.5774	0.0798
861.7406	-0.2367
861.9037	-0.1248
862.0668	0.1022
862.2299	-0.1043
862.393	-0.7303
862.556	-0.137
862.7191	-0.4189
862.8821	-0.2777
863.0451	0.0323
863.208	-0.0373
863.371	0.0872
863.5339	-0.429
863.6968	0.1564
863.8597	-0.0149
864.0225	-0.0574
864.1854	-0.0291
864.3482	-0.2088
864.511	-0.0186
864.6737	0.0763
864.8365	0.0701
864.9992	-0.3834
865.1619	0.0172
865.3246	-0.3164
865.4873	-0.1097
865.65	-0.353
865.8126	-0.0876
865.9752	0.062
866.1378	-0.2645
866.3004	0.2037
866.4629	0.1917
866.6254	-0.409
866.7879	0.0925
866.9504	0.8367
867.1129	-0
867.2753	0.0572
867.4377	0.068
867.6001	-0.14
867.7625	-0.1631
867.9249	-0.1487
868.0872	-0.1353
868.2495	-0.2573
868.4118	-0.5735
868.5741	-0
868.7363	-0.0049
868.8986	-0.1473
869.0608	-0.1465
869.223	0.1515
869.3851	-0
869.5473	-0
869.7094	0.081
869.8715	-0.4267
870.0336	-0
870.1957	-0.76
870.3577	-0
870.5197	-0.1775
870.6817	-0.4632
870.8437	-0.3211
871.0057	-0
871.1676	-0.5306
871.3295	-0.3691
871.4914	-0
871.6533	-0.3905
871.8151	-0.4588
871.977	-0
872.1388	-0
872.3006	-0
872.4623	-0
872.6241	-0.1006
872.7858	0.0231
872.9475	-0.2611
873.1092	-0.0182
873.2709	-0
873.4325	0.2561
873.5941	-0.5144
873.7557	-0.0285
873.9173	-0.7544
874.0789	-0.2845
874.2404	-0.7413
874.4019	0.3337
874.5634	-0.3881
874.7249	-0.2043
874.8863	0.496
875.0478	0.4026
875.2092	-0
875.3706	-0
875.5319	-1.0757
875.6933	-0
875.8546	-0.2677
876.0159	-0
876.1772	0.5848
876.3385	-0
876.4997	-0.0081
876.6609	-0.3628
876.8221	-0
876.9833	1.1563
877.1445	-0
877.3056	-0.1157
877.4667	-0.5881
877.6278	-0
877.7889	-0.5756
877.9499	-0
878.111	-0
878.272	-0
878.433	-0
878.5939	-0
878.7549	-0.302
878.9158	-0.9351
879.0767	-0
879.2376	0.0976
879.3984	-0.1727
879.5593	-0
879.7201	-0.296
879.8809	-0.7292
880.0417	0.5277
880.2024	0.0913
880.3632	-0
880.5239	0.0106
880.6846	0.1104
880.8452	-2.6201
881.0059	-1.2405
881.1665	-0
881.3271	-0
881.4877	-0.4161
881.6483	-0.6089
881.8088	-0.3776
881.9693	-0
882.1298	-0
882.2903	-0
