Data from MonoPyChalIsomerACN10uM420nmA_Absorbance_15-09-52-134.txt Node
Date: Fri Jul 05 15:09:52 BST 2024
User: LASERRRRR
Spectrometer: FLMT03099
Trigger mode: 0
Integration Time (sec): 1.000000E-1
Scans to average: 1
Electric dark correction enabled: true
Nonlinearity correction enabled: false
Boxcar width: 0
XAxis mode: Wavelengths
Number of Pixels in Spectrum: 3648
>>>>>Begin Spectral Data<<<<<
179.3399	-0.3714
179.5586	-0.3714
179.7771	-0.3714
179.9957	0.0811
180.2143	0.4316
180.4329	0.0944
180.6514	-0
180.8699	-0
181.0885	-0.4215
181.307	0.8274
181.5255	-1.0341
181.744	-0.4824
181.9625	-0.0611
182.181	-1.0665
182.3994	-0
182.6179	-0
182.8363	0.1186
183.0547	-0.1177
183.2732	0.0933
183.4916	-0.0091
183.71	0.2381
183.9284	0.2429
184.1467	-0.1576
184.3651	0.1194
184.5835	0.0679
184.8018	0.0606
185.0201	0.4554
185.2385	0.204
185.4568	0.2145
185.6751	0.0889
185.8934	0.2411
186.1117	-0.015
186.3299	-0.0111
186.5482	-0.0388
186.7664	-0.1516
186.9847	-0.1329
187.2029	0.22
187.4211	0.0756
187.6393	0.2223
187.8575	0.0497
188.0757	0.2023
188.2939	0.1676
188.512	-0.0007
188.7302	0.1201
188.9483	0.1592
189.1665	0.1926
189.3846	0.0118
189.6027	0.2999
189.8208	0.1536
190.0389	0.2638
190.257	0.1385
190.475	0.1468
190.6931	0.1013
190.9111	0.2721
191.1292	0.1083
191.3472	0.2736
191.5652	0.3136
191.7832	0.3388
192.0012	0.5116
192.2192	0.4094
192.4371	0.541
192.6551	0.4821
192.873	0.3793
193.091	0.3598
193.3089	2.2109
193.5268	0.4631
193.7447	0.6214
193.9626	0.491
194.1805	0.7706
194.3984	0.7561
194.6162	0.6361
194.8341	0.3902
195.0519	0.8649
195.2697	0.7105
195.4875	0.5321
195.7054	0.6387
195.9231	0.5161
196.1409	0.5516
196.3587	0.6663
196.5765	0.5535
196.7942	0.574
197.012	0.4044
197.2297	0.7038
197.4474	0.8528
197.6651	0.6733
197.8828	0.5477
198.1005	0.5657
198.3182	0.4938
198.5358	0.8958
198.7535	0.5692
198.9711	0.6549
199.1888	0.5838
199.4064	0.6896
199.624	0.6377
199.8416	0.5765
200.0592	0.6283
200.2767	0.6252
200.4943	0.6322
200.7119	0.8091
200.9294	0.5488
201.1469	0.6225
201.3645	0.6898
201.582	0.6342
201.7995	0.7049
202.017	0.7177
202.2344	0.6684
202.4519	0.6688
202.6694	0.6732
202.8868	0.7273
203.1042	0.719
203.3217	0.6615
203.5391	0.7245
203.7565	0.6389
203.9739	0.5569
204.1913	0.6237
204.4086	0.6385
204.626	0.7487
204.8433	0.6185
205.0607	0.604
205.278	0.6811
205.4953	0.6354
205.7126	0.7266
205.9299	0.7486
206.1472	0.7886
206.3644	0.6291
206.5817	0.7028
206.7989	0.7363
207.0162	0.6931
207.2334	0.6286
207.4506	0.6607
207.6678	0.7479
207.885	0.644
208.1022	0.7489
208.3194	0.6224
208.5365	0.619
208.7537	0.626
208.9708	0.596
209.1879	0.6561
209.405	0.6338
209.6222	0.7045
209.8392	0.6466
210.0563	0.6244
210.2734	0.6849
210.4905	0.6746
210.7075	0.7045
210.9245	0.5899
211.1416	0.7385
211.3586	0.6239
211.5756	0.6229
211.7926	0.6242
212.0096	0.6549
212.2265	0.5901
212.4435	0.5341
212.6604	0.6513
212.8774	0.6218
213.0943	0.6164
213.3112	0.5374
213.5281	0.5328
213.745	0.5563
213.9619	0.5253
214.1788	0.4952
214.3956	0.5229
214.6125	0.474
214.8293	0.4398
215.0461	0.5082
215.2629	0.4487
215.4798	0.4719
215.6965	0.432
215.9133	0.4359
216.1301	0.4246
216.3469	0.4577
216.5636	0.4373
216.7803	0.3745
216.9971	0.3745
217.2138	0.357
217.4305	0.36
217.6472	0.3606
217.8639	0.4056
218.0805	0.3507
218.2972	0.334
218.5138	0.3345
218.7305	0.3394
218.9471	0.3116
219.1637	0.2897
219.3803	0.2965
219.5969	0.2757
219.8135	0.2697
220.0301	0.2913
220.2466	0.2995
220.4632	0.2644
220.6797	0.2436
220.8962	0.2433
221.1127	0.2537
221.3292	0.2512
221.5457	0.2554
221.7622	0.2278
221.9787	0.2463
222.1951	0.2533
222.4116	0.2631
222.628	0.2502
222.8444	0.2437
223.0608	0.2634
223.2772	0.2531
223.4936	0.2588
223.71	0.2465
223.9264	0.2647
224.1427	0.2517
224.3591	0.2723
224.5754	0.277
224.7917	0.2597
225.008	0.2684
225.2243	0.2444
225.4406	0.2894
225.6569	0.2746
225.8732	0.2752
226.0894	0.2636
226.3057	0.2651
226.5219	0.2899
226.7381	0.2614
226.9543	0.2642
227.1705	0.2827
227.3867	0.2799
227.6029	0.2941
227.8191	0.2953
228.0352	0.2904
228.2513	0.3273
228.4675	0.3261
228.6836	0.3
228.8997	0.2932
229.1158	0.3047
229.3319	0.3219
229.548	0.3246
229.764	0.3221
229.9801	0.3199
230.1961	0.3224
230.4121	0.3391
230.6282	0.3268
230.8442	0.3279
231.0602	0.3763
231.2761	0.3391
231.4921	0.371
231.7081	0.3647
231.924	0.3383
232.14	0.3597
232.3559	0.3401
232.5718	0.365
232.7877	0.3579
233.0036	0.3702
233.2195	0.3684
233.4353	0.3386
233.6512	0.3618
233.867	0.3804
234.0829	0.372
234.2987	0.3857
234.5145	0.374
234.7303	0.3761
234.9461	0.3685
235.1619	0.3702
235.3776	0.3812
235.5934	0.3779
235.8091	0.366
236.0249	0.3971
236.2406	0.3638
236.4563	0.3711
236.672	0.3921
236.8877	0.3954
237.1034	0.4067
237.319	0.3751
237.5347	0.416
237.7503	0.4068
237.966	0.3956
238.1816	0.4084
238.3972	0.3905
238.6128	0.3968
238.8284	0.4041
239.0439	0.4092
239.2595	0.3872
239.475	0.4237
239.6906	0.4198
239.9061	0.409
240.1216	0.3985
240.3371	0.402
240.5526	0.411
240.7681	0.4057
240.9836	0.4058
241.199	0.3979
241.4145	0.3941
241.6299	0.3855
241.8453	0.3789
242.0607	0.3874
242.2761	0.3541
242.4915	0.3779
242.7069	0.3856
242.9223	0.3672
243.1376	0.3644
243.353	0.3546
243.5683	0.3626
243.7836	0.3458
243.9989	0.3462
244.2142	0.329
244.4295	0.3209
244.6448	0.3221
244.86	0.3105
245.0753	0.3012
245.2905	0.313
245.5057	0.302
245.721	0.2832
245.9362	0.2919
246.1514	0.2844
246.3665	0.2767
246.5817	0.2619
246.7969	0.2671
247.012	0.2545
247.2271	0.2445
247.4423	0.2478
247.6574	0.2496
247.8725	0.2447
248.0876	0.2273
248.3026	0.2451
248.5177	0.2269
248.7328	0.2203
248.9478	0.2006
249.1628	0.2274
249.3779	0.2278
249.5929	0.2218
249.8079	0.218
250.0228	0.2098
250.2378	0.2089
250.4528	0.218
250.6677	0.1968
250.8827	0.2005
251.0976	0.1997
251.3125	0.1974
251.5274	0.1825
251.7423	0.1928
251.9572	0.1941
252.172	0.194
252.3869	0.1975
252.6017	0.1943
252.8166	0.1773
253.0314	0.1837
253.2462	0.1719
253.461	0.1819
253.6758	0.1785
253.8906	0.1782
254.1053	0.1702
254.3201	0.1823
254.5348	0.1918
254.7496	0.1904
254.9643	0.1841
255.179	0.1886
255.3937	0.1636
255.6083	0.182
255.823	0.1809
256.0377	0.1671
256.2523	0.1801
256.467	0.1607
256.6816	0.1758
256.8962	0.1694
257.1108	0.1684
257.3254	0.1786
257.54	0.1653
257.7545	0.1843
257.9691	0.1838
258.1836	0.1702
258.3981	0.1885
258.6127	0.1862
258.8272	0.1737
259.0417	0.1695
259.2561	0.1605
259.4706	0.1723
259.6851	0.1751
259.8995	0.1657
260.114	0.1601
260.3284	0.1726
260.5428	0.1589
260.7572	0.1763
260.9716	0.1851
261.186	0.158
261.4003	0.1805
261.6147	0.168
261.829	0.1664
262.0433	0.1714
262.2577	0.1686
262.472	0.1868
262.6863	0.1545
262.9005	0.1713
263.1148	0.1736
263.3291	0.1518
263.5433	0.1637
263.7576	0.1757
263.9718	0.17
264.186	0.1699
264.4002	0.1707
264.6144	0.1638
264.8286	0.1737
265.0427	0.1746
265.2569	0.1647
265.471	0.171
265.6851	0.1666
265.8993	0.179
266.1134	0.1607
266.3275	0.1641
266.5415	0.1642
266.7556	0.1769
266.9697	0.1724
267.1837	0.1661
267.3978	0.18
267.6118	0.1717
267.8258	0.1845
268.0398	0.1706
268.2538	0.1735
268.4677	0.1658
268.6817	0.1574
268.8957	0.1757
269.1096	0.1738
269.3235	0.1711
269.5374	0.164
269.7514	0.1618
269.9652	0.1561
270.1791	0.1675
270.393	0.1631
270.6068	0.165
270.8207	0.1599
271.0345	0.1615
271.2483	0.1567
271.4622	0.169
271.676	0.1634
271.8897	0.145
272.1035	0.1578
272.3173	0.1502
272.531	0.16
272.7448	0.16
272.9585	0.1472
273.1722	0.15
273.3859	0.1645
273.5996	0.1519
273.8133	0.1606
274.0269	0.1573
274.2406	0.1387
274.4542	0.1524
274.6679	0.1442
274.8815	0.154
275.0951	0.1625
275.3087	0.1692
275.5223	0.1724
275.7358	0.1567
275.9494	0.1603
276.1629	0.1457
276.3765	0.148
276.59	0.1502
276.8035	0.1631
277.017	0.1618
277.2305	0.1584
277.444	0.1689
277.6574	0.1498
277.8709	0.1606
278.0843	0.1554
278.2978	0.162
278.5112	0.1522
278.7246	0.162
278.938	0.1538
279.1513	0.158
279.3647	0.1568
279.5781	0.1484
279.7914	0.1691
280.0047	0.1639
280.2181	0.1584
280.4314	0.1617
280.6447	0.1672
280.8579	0.1623
281.0712	0.1571
281.2845	0.1733
281.4977	0.1631
281.711	0.1597
281.9242	0.1602
282.1374	0.1696
282.3506	0.1555
282.5638	0.1664
282.7769	0.1714
282.9901	0.1619
283.2033	0.1754
283.4164	0.1773
283.6295	0.144
283.8426	0.1626
284.0557	0.168
284.2688	0.1824
284.4819	0.169
284.695	0.1617
284.908	0.1731
285.1211	0.1659
285.3341	0.1584
285.5471	0.1639
285.7601	0.1563
285.9731	0.1572
286.1861	0.1575
286.3991	0.1646
286.612	0.1598
286.825	0.1722
287.0379	0.1719
287.2508	0.1657
287.4637	0.1705
287.6766	0.1542
287.8895	0.1712
288.1024	0.1856
288.3152	0.1723
288.5281	0.1614
288.7409	0.1677
288.9538	0.168
289.1666	0.1598
289.3794	0.1629
289.5922	0.1609
289.8049	0.1716
290.0177	0.1607
290.2304	0.1603
290.4432	0.1625
290.6559	0.1564
290.8686	0.1692
291.0813	0.1691
291.294	0.1726
291.5067	0.1736
291.7194	0.1646
291.932	0.1774
292.1447	0.164
292.3573	0.1516
292.5699	0.1748
292.7825	0.1687
292.9951	0.1645
293.2077	0.1559
293.4203	0.165
293.6328	0.1522
293.8454	0.1763
294.0579	0.1627
294.2704	0.1613
294.4829	0.1654
294.6954	0.172
294.9079	0.1639
295.1204	0.1684
295.3328	0.1516
295.5453	0.1618
295.7577	0.1637
295.9701	0.1542
296.1825	0.163
296.3949	0.1622
296.6073	0.1583
296.8197	0.1522
297.0321	0.1695
297.2444	0.1504
297.4567	0.1727
297.6691	0.1538
297.8814	0.1463
298.0937	0.1618
298.306	0.1652
298.5182	0.1575
298.7305	0.1671
298.9428	0.1569
299.155	0.1657
299.3672	0.152
299.5794	0.166
299.7916	0.1518
300.0038	0.1722
300.216	0.175
300.4282	0.1639
300.6403	0.1608
300.8525	0.1689
301.0646	0.1538
301.2767	0.1593
301.4888	0.1625
301.7009	0.1646
301.913	0.1577
302.125	0.1626
302.3371	0.1473
302.5491	0.1623
302.7612	0.1672
302.9732	0.1619
303.1852	0.1579
303.3972	0.1581
303.6092	0.1554
303.8211	0.1547
304.0331	0.1594
304.245	0.1444
304.457	0.148
304.6689	0.1591
304.8808	0.1586
305.0927	0.15
305.3046	0.1502
305.5164	0.1599
305.7283	0.1447
305.9401	0.1462
306.152	0.1449
306.3638	0.1627
306.5756	0.1444
306.7874	0.1525
306.9992	0.1538
307.2109	0.1337
307.4227	0.1261
307.6344	0.1345
307.8462	0.135
308.0579	0.1393
308.2696	0.1375
308.4813	0.1331
308.693	0.1349
308.9046	0.1354
309.1163	0.1304
309.328	0.1276
309.5396	0.1292
309.7512	0.1213
309.9628	0.1187
310.1744	0.1223
310.386	0.1233
310.5976	0.124
310.8091	0.1156
311.0207	0.1126
311.2322	0.1254
311.4437	0.1087
311.6552	0.1213
311.8667	0.1282
312.0782	0.1004
312.2897	0.1011
312.5012	0.1224
312.7126	0.0987
312.924	0.0985
313.1355	0.1222
313.3469	0.114
313.5583	0.1069
313.7696	0.1151
313.981	0.1073
314.1924	0.1089
314.4037	0.1042
314.6151	0.1101
314.8264	0.0984
315.0377	0.11
315.249	0.1056
315.4603	0.119
315.6716	0.1085
315.8828	0.1023
316.0941	0.098
316.3053	0.101
316.5165	0.097
316.7277	0.0957
316.9389	0.1137
317.1501	0.1027
317.3613	0.1077
317.5724	0.0944
317.7836	0.1166
317.9947	0.0979
318.2058	0.1
318.417	0.0992
318.6281	0.0933
318.8391	0.102
319.0502	0.1042
319.2613	0.0985
319.4723	0.1125
319.6834	0.1096
319.8944	0.0903
320.1054	0.1119
320.3164	0.1007
320.5274	0.1002
320.7383	0.1061
320.9493	0.0936
321.1602	0.1146
321.3712	0.1023
321.5821	0.1004
321.793	0.1022
322.0039	0.1049
322.2148	0.1036
322.4257	0.1069
322.6365	0.1155
322.8474	0.1157
323.0582	0.1116
323.269	0.1121
323.4798	0.1172
323.6906	0.1034
323.9014	0.0999
324.1122	0.1175
324.3229	0.1033
324.5337	0.1161
324.7444	0.1005
324.9551	0.1226
325.1658	0.1099
325.3765	0.1048
325.5872	0.1175
325.7979	0.1134
326.0085	0.1055
326.2192	0.1221
326.4298	0.1097
326.6404	0.0942
326.851	0.0959
327.0616	0.0951
327.2722	0.1144
327.4828	0.1096
327.6933	0.0954
327.9039	0.122
328.1144	0.1275
328.3249	0.1119
328.5354	0.1097
328.7459	0.1104
328.9564	0.0971
329.1669	0.1047
329.3773	0.1154
329.5878	0.1169
329.7982	0.1092
330.0086	0.109
330.219	0.1061
330.4294	0.1123
330.6398	0.1171
330.8502	0.11
331.0605	0.1185
331.2708	0.1133
331.4812	0.1196
331.6915	0.1142
331.9018	0.1216
332.1121	0.1
332.3224	0.1135
332.5326	0.1158
332.7429	0.1119
332.9531	0.1284
333.1633	0.1217
333.3735	0.1214
333.5837	0.1009
333.7939	0.099
334.0041	0.1233
334.2143	0.1326
334.4244	0.1159
334.6346	0.1055
334.8447	0.1181
335.0548	0.1126
335.2649	0.1065
335.475	0.1127
335.685	0.1056
335.8951	0.1281
336.1051	0.1283
336.3152	0.1261
336.5252	0.115
336.7352	0.1199
336.9452	0.1187
337.1552	0.1222
337.3652	0.1136
337.5751	0.1182
337.7851	0.1299
337.995	0.1165
338.2049	0.117
338.4148	0.1266
338.6247	0.1264
338.8346	0.1174
339.0445	0.1114
339.2543	0.1095
339.4642	0.1106
339.674	0.1185
339.8838	0.1225
340.0936	0.1223
340.3034	0.1334
340.5132	0.1283
340.7229	0.1217
340.9327	0.1199
341.1424	0.1306
341.3522	0.1452
341.5619	0.1247
341.7716	0.1124
341.9813	0.1225
342.1909	0.1367
342.4006	0.1343
342.6102	0.1348
342.8199	0.1255
343.0295	0.1296
343.2391	0.1371
343.4487	0.1317
343.6583	0.1264
343.8679	0.1341
344.0774	0.129
344.287	0.1356
344.4965	0.1208
344.706	0.1351
344.9155	0.135
345.125	0.1292
345.3345	0.1422
345.544	0.1295
345.7534	0.1345
345.9629	0.1308
346.1723	0.1363
346.3817	0.1283
346.5911	0.13
346.8005	0.1375
347.0099	0.141
347.2193	0.1367
347.4286	0.1348
347.638	0.1314
347.8473	0.1366
348.0566	0.1322
348.2659	0.1353
348.4752	0.144
348.6845	0.1362
348.8937	0.1443
349.103	0.1537
349.3122	0.1395
349.5214	0.1377
349.7306	0.1365
349.9398	0.1313
350.149	0.1465
350.3582	0.147
350.5674	0.1498
350.7765	0.1444
350.9856	0.1411
351.1948	0.1433
351.4039	0.1425
351.613	0.1424
351.822	0.1523
352.0311	0.1552
352.2402	0.1383
352.4492	0.1517
352.6582	0.1529
352.8672	0.1554
353.0762	0.1587
353.2852	0.1521
353.4942	0.1413
353.7032	0.1501
353.9121	0.1507
354.1211	0.1506
354.33	0.1715
354.5389	0.1718
354.7478	0.159
354.9567	0.1535
355.1655	0.1413
355.3744	0.1587
355.5833	0.1659
355.7921	0.1675
356.0009	0.1542
356.2097	0.1644
356.4185	0.1608
356.6273	0.161
356.8361	0.1649
357.0448	0.1624
357.2536	0.1654
357.4623	0.1548
357.671	0.1689
357.8797	0.1609
358.0884	0.1674
358.2971	0.1604
358.5057	0.1708
358.7144	0.1651
358.923	0.1607
359.1316	0.1694
359.3402	0.1711
359.5488	0.1665
359.7574	0.1736
359.966	0.1702
360.1746	0.1683
360.3831	0.183
360.5916	0.1762
360.8002	0.1794
361.0087	0.1802
361.2172	0.1681
361.4256	0.1884
361.6341	0.1844
361.8426	0.1944
362.051	0.1838
362.2594	0.1708
362.4678	0.1721
362.6762	0.197
362.8846	0.1754
363.093	0.1648
363.3014	0.1709
363.5097	0.1698
363.718	0.1822
363.9264	0.1817
364.1347	0.181
364.343	0.1812
364.5513	0.1914
364.7595	0.1919
364.9678	0.1898
365.176	0.1993
365.3842	0.184
365.5925	0.1945
365.8007	0.1836
366.0089	0.1879
366.217	0.1941
366.4252	0.1994
366.6333	0.2014
366.8415	0.2036
367.0496	0.1903
367.2577	0.2167
367.4658	0.2193
367.6739	0.2224
367.882	0.1954
368.09	0.1873
368.2981	0.2016
368.5061	0.1992
368.7141	0.1964
368.9221	0.2044
369.1301	0.2079
369.3381	0.2041
369.5461	0.1995
369.754	0.2027
369.962	0.2143
370.1699	0.1962
370.3778	0.225
370.5857	0.2014
370.7936	0.2129
371.0015	0.2212
371.2093	0.2048
371.4172	0.2147
371.625	0.2062
371.8328	0.2145
372.0406	0.2108
372.2484	0.2009
372.4562	0.2277
372.664	0.1937
372.8717	0.228
373.0795	0.2028
373.2872	0.2267
373.4949	0.213
373.7026	0.2167
373.9103	0.2245
374.118	0.2207
374.3256	0.2192
374.5333	0.2164
374.7409	0.2199
374.9485	0.2443
375.1561	0.2241
375.3637	0.2389
375.5713	0.2386
375.7789	0.2186
375.9864	0.2193
376.194	0.2182
376.4015	0.2215
376.609	0.2342
376.8165	0.2316
377.024	0.2152
377.2315	0.2114
377.4389	0.2396
377.6464	0.2413
377.8538	0.2369
378.0612	0.2228
378.2686	0.2303
378.476	0.2393
378.6834	0.2348
378.8908	0.2269
379.0981	0.2377
379.3055	0.2447
379.5128	0.2252
379.7201	0.2455
379.9274	0.2293
380.1347	0.2265
380.342	0.2523
380.5492	0.2264
380.7565	0.2375
380.9637	0.235
381.1709	0.2301
381.3781	0.2422
381.5853	0.245
381.7925	0.2498
381.9997	0.2527
382.2068	0.2451
382.4139	0.2439
382.6211	0.2307
382.8282	0.2336
383.0353	0.2319
383.2424	0.2416
383.4494	0.2631
383.6565	0.2334
383.8635	0.2198
384.0706	0.2417
384.2776	0.2501
384.4846	0.236
384.6916	0.2461
384.8986	0.2333
385.1055	0.2455
385.3125	0.2411
385.5194	0.2164
385.7263	0.2473
385.9333	0.2328
386.1402	0.2409
386.347	0.2395
386.5539	0.2307
386.7608	0.2436
386.9676	0.2268
387.1744	0.2376
387.3813	0.2329
387.5881	0.2419
387.7948	0.238
388.0016	0.2266
388.2084	0.2343
388.4151	0.2196
388.6219	0.2513
388.8286	0.2368
389.0353	0.2282
389.242	0.2559
389.4487	0.2125
389.6553	0.2198
389.862	0.2082
390.0686	0.2291
390.2753	0.2364
390.4819	0.2302
390.6885	0.2204
390.8951	0.2329
391.1016	0.2072
391.3082	0.2123
391.5147	0.2327
391.7213	0.2186
391.9278	0.2136
392.1343	0.2085
392.3408	0.2138
392.5473	0.2221
392.7537	0.2091
392.9602	0.2339
393.1666	0.2159
393.373	0.2145
393.5794	0.2305
393.7858	0.2256
393.9922	0.2121
394.1986	0.2346
394.4049	0.2056
394.6113	0.2125
394.8176	0.2069
395.0239	0.2015
395.2302	0.2153
395.4365	0.2
395.6428	0.2138
395.8491	0.1855
396.0553	0.2072
396.2615	0.2155
396.4678	0.2038
396.674	0.1777
396.8802	0.1951
397.0863	0.2082
397.2925	0.199
397.4987	0.1946
397.7048	0.1855
397.9109	0.1996
398.117	0.1945
398.3231	0.2076
398.5292	0.2105
398.7353	0.2115
398.9413	0.1918
399.1474	0.2017
399.3534	0.1897
399.5594	0.1865
399.7654	0.2231
399.9714	0.2098
400.1774	0.1806
400.3833	0.1872
400.5893	0.2095
400.7952	0.1988
401.0011	0.2149
401.207	0.2001
401.4129	0.2011
401.6188	0.1981
401.8247	0.1865
402.0305	0.1913
402.2364	0.192
402.4422	0.1882
402.648	0.1936
402.8538	0.2119
403.0596	0.1815
403.2654	0.2077
403.4711	0.1964
403.6768	0.2012
403.8826	0.1839
404.0883	0.2076
404.294	0.2132
404.4997	0.1878
404.7054	0.2026
404.911	0.1964
405.1167	0.1909
405.3223	0.1982
405.5279	0.2025
405.7335	0.2043
405.9391	0.2009
406.1447	0.1816
406.3502	0.2107
406.5558	0.1912
406.7613	0.1953
406.9668	0.2069
407.1724	0.1874
407.3778	0.1671
407.5833	0.1947
407.7888	0.1884
407.9942	0.2027
408.1997	0.1907
408.4051	0.197
408.6105	0.1977
408.8159	0.1739
409.0213	0.1823
409.2267	0.1942
409.432	0.1854
409.6374	0.1954
409.8427	0.1919
410.048	0.189
410.2533	0.201
410.4586	0.2023
410.6639	0.1829
410.8691	0.1854
411.0744	0.1714
411.2796	0.1741
411.4848	0.1938
411.69	0.1882
411.8952	0.1986
412.1004	0.1708
412.3056	0.1887
412.5107	0.1951
412.7158	0.2194
412.921	0.2067
413.1261	0.199
413.3312	0.1679
413.5362	0.1752
413.7413	0.1921
413.9464	0.1919
414.1514	0.1831
414.3564	0.1889
414.5614	0.1783
414.7664	0.1774
414.9714	0.1809
415.1764	0.1826
415.3813	0.2087
415.5863	0.1774
415.7912	0.1776
415.9961	0.1917
416.201	0.1903
416.4059	0.1719
416.6108	0.1851
416.8156	0.1791
417.0205	0.1836
417.2253	0.1653
417.4301	0.2033
417.6349	0.1777
417.8397	0.1743
418.0445	0.1815
418.2492	0.195
418.454	0.1862
418.6587	0.1783
418.8634	0.1819
419.0681	0.176
419.2728	0.1757
419.4775	0.1684
419.6822	0.1653
419.8868	0.1615
420.0915	0.1602
420.2961	0.1724
420.5007	0.1677
420.7053	0.19
420.9099	0.1655
421.1144	0.1782
421.319	0.1701
421.5235	0.1871
421.728	0.1668
421.9325	0.1705
422.137	0.1817
422.3415	0.1694
422.546	0.1634
422.7504	0.1769
422.9549	0.1758
423.1593	0.1865
423.3637	0.1794
423.5681	0.1575
423.7725	0.1651
423.9769	0.1366
424.1812	0.159
424.3856	0.1661
424.5899	0.146
424.7942	0.1678
424.9985	0.1588
425.2028	0.1495
425.4071	0.1689
425.6113	0.1541
425.8156	0.1564
426.0198	0.1568
426.224	0.1559
426.4282	0.1508
426.6324	0.1525
426.8366	0.1536
427.0407	0.1495
427.2449	0.1412
427.449	0.157
427.6531	0.1355
427.8572	0.1513
428.0613	0.1343
428.2654	0.1554
428.4694	0.122
428.6735	0.1354
428.8775	0.1475
429.0815	0.1521
429.2855	0.1449
429.4895	0.1394
429.6935	0.151
429.8975	0.1358
430.1014	0.1239
430.3053	0.1226
430.5093	0.1356
430.7132	0.1301
430.9171	0.1263
431.1209	0.1218
431.3248	0.1308
431.5286	0.1271
431.7325	0.1224
431.9363	0.125
432.1401	0.1247
432.3439	0.1135
432.5477	0.1062
432.7514	0.1164
432.9552	0.1108
433.1589	0.099
433.3627	0.1079
433.5664	0.125
433.7701	0.1122
433.9737	0.1065
434.1774	0.1058
434.3811	0.0787
434.5847	0.1081
434.7883	0.1146
434.9919	0.0984
435.1955	0.0898
435.3991	0.1003
435.6027	0.092
435.8062	0.088
436.0098	0.0915
436.2133	0.0895
436.4168	0.0842
436.6203	0.0678
436.8238	0.0947
437.0272	0.0834
437.2307	0.0924
437.4341	0.0852
437.6375	0.0748
437.841	0.0834
438.0443	0.0913
438.2477	0.0921
438.4511	0.0494
438.6545	0.0856
438.8578	0.0952
439.0611	0.0796
439.2644	0.0696
439.4677	0.0824
439.671	0.0676
439.8743	0.0796
440.0775	0.0753
440.2808	0.0746
440.484	0.0524
440.6872	0.0532
440.8904	0.0599
441.0936	0.0721
441.2967	0.0545
441.4999	0.0582
441.703	0.0521
441.9062	0.054
442.1093	0.0618
442.3124	0.0573
442.5155	0.0503
442.7185	0.0529
442.9216	0.0364
443.1246	0.058
443.3276	0.0554
443.5307	0.0577
443.7337	0.0495
443.9366	0.0531
444.1396	0.0641
444.3426	0.0504
444.5455	0.0542
444.7484	0.0458
444.9513	0.0513
445.1542	0.0483
445.3571	0.0588
445.56	0.0503
445.7628	0.0238
445.9657	0.0383
446.1685	0.0583
446.3713	0.044
446.5741	0.0469
446.7769	0.0248
446.9797	0.0415
447.1824	0.0317
447.3852	0.034
447.5879	0.0447
447.7906	0.0376
447.9933	0.0494
448.196	0.044
448.3986	0.0387
448.6013	0.0323
448.8039	0.0121
449.0066	0.0323
449.2092	0.0298
449.4118	0.0313
449.6143	0.0226
449.8169	0.029
450.0195	0.021
450.222	0.0036
450.4245	0.0299
450.627	0.0218
450.8295	0.0203
451.032	0.0332
451.2345	0.026
451.4369	0.0264
451.6394	0.0157
451.8418	0.016
452.0442	0.021
452.2466	0.0315
452.449	0.0191
452.6513	0.0161
452.8537	0.0207
453.056	0.0051
453.2583	0.0161
453.4607	0.0187
453.663	0.0063
453.8652	0.0146
454.0675	0.0094
454.2697	0.0152
454.472	-0.0029
454.6742	0.0299
454.8764	0.0184
455.0786	0.0218
455.2808	0.0178
455.4829	0.0161
455.6851	0.0261
455.8872	0.0209
456.0893	0.0237
456.2915	-0.0014
456.4935	0.0298
456.6956	0.0078
456.8977	0.01
457.0997	-0.0015
457.3018	0.0053
457.5038	0.0102
457.7058	0.0133
457.9078	0.0025
458.1098	0.0133
458.3117	0.0119
458.5137	0.0148
458.7156	0.0217
458.9175	0.0011
459.1194	0.0087
459.3213	0.0116
459.5232	0.0016
459.725	-0.0155
459.9269	0.0039
460.1287	-0.0019
460.3305	0.0095
460.5323	-0.0027
460.7341	0.0121
460.9359	0.0075
461.1376	0.0085
461.3394	-0.0088
461.5411	0.0168
461.7428	-0.0012
461.9445	-0
462.1462	0.0271
462.3479	0.0039
462.5495	0.0113
462.7512	0.0175
462.9528	-0.0068
463.1544	-0.0061
463.356	0.0041
463.5576	0.0079
463.7592	0.0066
463.9607	0.0074
464.1623	0.0229
464.3638	0.0143
464.5653	0.0006
464.7668	0.0087
464.9683	0.0152
465.1697	0.0135
465.3712	-0.0082
465.5726	-0.0156
465.7741	0.0029
465.9755	-0.0117
466.1769	0.0015
466.3782	-0.0069
466.5796	-0.0205
466.7809	0.014
466.9823	-0.0003
467.1836	-0.0063
467.3849	-0.0103
467.5862	-0.001
467.7875	-0.0008
467.9887	0.0174
468.19	0.0047
468.3912	-0.0191
468.5924	-0.0023
468.7936	-0.0052
468.9948	-0.0056
469.196	0.0023
469.3972	-0.022
469.5983	0.0057
469.7994	-0.0045
470.0006	-0.0149
470.2017	-0.0083
470.4027	-0.0084
470.6038	-0.0088
470.8049	-0.0116
471.0059	-0.0141
471.2069	-0.0187
471.408	0.0052
471.6089	-0.0015
471.8099	-0.0003
472.0109	0.003
472.2119	-0.0216
472.4128	-0.0123
472.6137	0.0072
472.8146	-0.0208
473.0155	-0.0139
473.2164	-0.0014
473.4173	0.0053
473.6181	0.0038
473.819	-0.0011
474.0198	-0.01
474.2206	-0.0098
474.4214	-0.0126
474.6222	-0.0042
474.8229	-0.0078
475.0237	-0.0145
475.2244	-0.0055
475.4251	-0.0062
475.6258	-0.0078
475.8265	-0.0032
476.0272	0.0047
476.2278	-0.0157
476.4285	-0.0016
476.6291	-0.0124
476.8297	-0.0057
477.0303	0.0056
477.2309	-0.0043
477.4315	-0.014
477.632	-0.0076
477.8326	-0.0058
478.0331	-0.0097
478.2336	-0.0021
478.4341	-0.0091
478.6346	-0.0073
478.8351	-0.0064
479.0355	-0.0084
479.236	-0.0117
479.4364	0.0054
479.6368	-0.0059
479.8372	-0.0172
480.0376	-0.004
480.2379	-0.0294
480.4383	-0.006
480.6386	-0.0044
480.8389	-0.0002
481.0392	-0.0087
481.2395	-0.012
481.4398	0.0049
481.6401	-0.0042
481.8403	0.0061
482.0405	-0.0102
482.2408	0.0001
482.441	0.001
482.6411	0.0007
482.8413	-0.0116
483.0415	-0.0181
483.2416	-0.0099
483.4417	-0.011
483.6419	-0.0078
483.8419	-0.0075
484.042	0.0139
484.2421	0.0111
484.4422	-0.0107
484.6422	-0.0046
484.8422	-0.0113
485.0422	-0.01
485.2422	0.0085
485.4422	-0.0104
485.6422	-0.0128
485.8421	-0.008
486.042	0.0032
486.242	-0.0056
486.4419	-0.0126
486.6417	0.0011
486.8416	0.0077
487.0415	-0.0023
487.2413	-0.0074
487.4411	-0.0051
487.641	-0.0074
487.8408	0.0069
488.0405	-0.0111
488.2403	-0.0121
488.4401	0.006
488.6398	-0.0035
488.8395	-0.0132
489.0392	-0.0007
489.2389	-0.0109
489.4386	-0.0055
489.6383	-0.0037
489.8379	0.0075
490.0376	-0.0056
490.2372	-0.0168
490.4368	-0.0096
490.6364	-0.0116
490.836	0.0007
491.0355	-0.0134
491.2351	-0.01
491.4346	-0.0108
491.6341	-0.0189
491.8336	0.0045
492.0331	-0.0017
492.2326	-0.0112
492.432	-0.0106
492.6315	-0.0065
492.8309	-0.0019
493.0303	-0.0111
493.2297	-0.0124
493.4291	-0.0104
493.6284	0.0001
493.8278	0.0008
494.0271	-0.0052
494.2264	-0.0064
494.4257	-0.0125
494.625	-0.0128
494.8243	-0.007
495.0236	-0.0103
495.2228	-0.0141
495.422	-0.0084
495.6213	-0.014
495.8205	-0.0085
496.0196	-0.0086
496.2188	-0.01
496.418	-0.0173
496.6171	-0.009
496.8162	-0.0171
497.0153	-0.0026
497.2144	-0.0194
497.4135	-0.0092
497.6126	-0.0226
497.8116	-0.0159
498.0107	-0.0094
498.2097	-0.0183
498.4087	-0.0169
498.6077	-0.0073
498.8067	-0.0161
499.0056	-0.0004
499.2046	-0.0144
499.4035	-0.0197
499.6024	-0.0058
499.8013	-0.0172
500.0002	-0.0108
500.199	-0.0131
500.3979	-0.0136
500.5967	-0.0249
500.7956	0.0101
500.9944	-0.0112
501.1932	-0.0143
501.3919	-0.0195
501.5907	-0.0156
501.7895	-0.0075
501.9882	-0.011
502.1869	-0.0112
502.3856	-0.0165
502.5843	-0.0184
502.783	-0.0064
502.9816	-0.0078
503.1803	-0.009
503.3789	-0.0268
503.5775	-0.0014
503.7761	-0.0177
503.9747	-0.0063
504.1732	-0.0054
504.3718	-0.0066
504.5703	-0.0109
504.7689	-0.0122
504.9674	0.0004
505.1658	-0.0098
505.3643	-0.0045
505.5628	-0.0078
505.7612	-0.0219
505.9597	-0.0012
506.1581	-0.0104
506.3565	0.0022
506.5549	-0.0108
506.7532	-0.0191
506.9516	-0.0146
507.1499	-0.0041
507.3482	-0.0143
507.5465	-0.0181
507.7448	-0.0064
507.9431	-0.0086
508.1414	-0.0137
508.3396	-0.012
508.5379	-0.0021
508.7361	-0.008
508.9343	-0.0066
509.1325	-0.0074
509.3306	-0.0155
509.5288	-0.0151
509.7269	-0.0154
509.9251	0.0003
510.1232	-0.0122
510.3213	-0.0066
510.5193	-0.0015
510.7174	-0.0175
510.9154	-0.01
511.1135	-0.0075
511.3115	-0.0126
511.5095	-0.0062
511.7075	-0.0047
511.9055	-0.0136
512.1034	-0.0111
512.3014	-0.0078
512.4993	-0.004
512.6972	-0.0126
512.8951	-0.019
513.093	-0.009
513.2908	-0.0022
513.4887	-0.0058
513.6865	-0.0042
513.8844	-0.0079
514.0822	-0.0205
514.2799	-0.0169
514.4777	-0.0204
514.6755	-0.0141
514.8732	-0.0179
515.0709	-0.0025
515.2687	-0.0139
515.4664	-0.0034
515.664	-0.0107
515.8617	-0.0208
516.0594	-0.0197
516.257	-0.0075
516.4546	-0.0212
516.6522	-0.0032
516.8498	-0.008
517.0474	-0.0019
517.2449	-0.0051
517.4425	-0.013
517.64	-0.0101
517.8375	0.0085
518.035	-0.0054
518.2325	-0.0117
518.43	-0.0065
518.6274	-0.0023
518.8249	-0.0271
519.0223	-0.0043
519.2197	0.0028
519.4171	-0.0114
519.6145	-0.011
519.8118	-0.0081
520.0092	-0.0026
520.2065	-0.013
520.4038	-0.0167
520.6011	-0.0023
520.7984	-0.0029
520.9956	-0.0163
521.1929	-0.0067
521.3901	-0.0088
521.5874	-0.0081
521.7846	-0.008
521.9818	-0.0149
522.1789	-0.014
522.3761	-0.0097
522.5732	-0.0027
522.7704	-0.0061
522.9675	-0.0125
523.1646	-0.0105
523.3617	-0.0012
523.5587	-0.0051
523.7558	-0.0041
523.9528	-0.0071
524.1498	-0.0078
524.3468	-0.0092
524.5438	-0.0088
524.7408	-0.0009
524.9378	0.0028
525.1347	-0.0073
525.3316	-0.0036
525.5285	-0.0226
525.7254	-0.0096
525.9223	-0.0093
526.1192	-0.0105
526.316	-0.0151
526.5129	0.0036
526.7097	-0.005
526.9065	-0.0048
527.1033	-0.0075
527.3	-0.0024
527.4968	-0.0028
527.6935	-0.0032
527.8903	-0.0108
528.087	-0.0027
528.2837	-0.0075
528.4804	-0.0063
528.677	-0.0064
528.8737	0.0016
529.0703	-0.0049
529.2669	-0.0061
529.4635	-0.0026
529.6601	-0.0036
529.8567	-0.0095
530.0532	-0.0008
530.2498	0.0057
530.4463	0.0081
530.6428	-0.0105
530.8393	-0.0039
531.0358	-0.0172
531.2322	-0.0026
531.4287	-0.0041
531.6251	-0.0079
531.8215	0.0011
532.0179	0.0011
532.2143	-0.0048
532.4107	0.0023
532.607	-0.002
532.8034	0.0011
532.9997	-0.0028
533.196	-0.0084
533.3923	-0.0123
533.5886	-0.0074
533.7848	-0.0071
533.9811	0.0066
534.1773	0.0039
534.3735	0.0034
534.5697	-0.008
534.7659	-0.005
534.9621	-0.0017
535.1582	-0.01
535.3544	-0.012
535.5505	-0.0094
535.7466	-0.0065
535.9427	-0.0098
536.1387	-0.0189
536.3348	-0.0028
536.5308	-0.0001
536.7269	-0.0126
536.9229	-0.0109
537.1189	-0.0066
537.3148	-0.011
537.5108	-0.0068
537.7068	-0.0066
537.9027	-0.0038
538.0986	-0.0036
538.2945	-0.0082
538.4904	-0.0034
538.6863	-0.0055
538.8821	-0.0018
539.078	-0.0087
539.2738	-0.0007
539.4696	-0.0037
539.6654	-0.005
539.8611	0.0074
540.0569	-0.0009
540.2526	-0.0127
540.4484	-0.0093
540.6441	0.0051
540.8398	0.0017
541.0355	-0.0021
541.2311	-0.0037
541.4268	-0.0061
541.6224	0.0056
541.818	-0.0011
542.0136	-0.0032
542.2092	-0.0003
542.4048	-0.005
542.6003	-0.0033
542.7959	0.0021
542.9914	-0.0069
543.1869	-0.0012
543.3824	-0.0012
543.5779	0.0014
543.7734	-0.0014
543.9688	-0.0105
544.1642	0.0008
544.3596	0.0018
544.555	-0.0057
544.7504	0.0047
544.9458	-0.0124
545.1411	-0.0049
545.3365	0.0031
545.5318	-0.0094
545.7271	-0.0038
545.9224	-0.0115
546.1177	0.0036
546.3129	0.0014
546.5081	-0.014
546.7034	-0.0078
546.8986	-0.014
547.0938	-0.0088
547.289	-0.0094
547.4841	-0.0035
547.6793	0.0047
547.8744	-0.0041
548.0695	-0.0022
548.2646	-0.0039
548.4597	-0.0021
548.6548	0.0051
548.8498	-0.0008
549.0448	0.0072
549.2399	-0.0042
549.4349	0.0028
549.6298	-0.0097
549.8248	0.0001
550.0198	0.0065
550.2147	0.003
550.4096	-0.0023
550.6045	-0.002
550.7994	0.0032
550.9943	0.0039
551.1892	-0.0056
551.384	0.0002
551.5788	-0.0048
551.7737	0.0035
551.9685	0.0027
552.1632	-0.0012
552.358	-0.0034
552.5528	0.0039
552.7475	-0.0038
552.9422	-0.0002
553.1369	0.0024
553.3316	0.0003
553.5263	-0.0061
553.7209	0.0082
553.9156	-0.0103
554.1102	-0.0067
554.3048	-0.0087
554.4994	0.0125
554.694	0.0001
554.8885	-0.0008
555.0831	-0.0031
555.2776	-0.0047
555.4721	-0.0027
555.6666	-0.0069
555.8611	0.0093
556.0555	0.0031
556.25	-0.01
556.4444	-0.011
556.6388	0.0044
556.8332	0.0034
557.0276	0.0009
557.222	-0.0001
557.4163	-0.0029
557.6107	-0.0082
557.805	0.0084
557.9993	-0.0026
558.1936	-0.0031
558.3879	-0.0023
558.5821	0.0053
558.7764	-0.0048
558.9706	-0.0036
559.1648	0.0015
559.359	-0.0063
559.5532	-0.0027
559.7473	-0.0026
559.9415	-0.0045
560.1356	0.0003
560.3297	-0.0069
560.5238	-0.0027
560.7179	-0.0056
560.9119	-0.0031
561.106	-0.003
561.3	-0.0122
561.494	-0.0028
561.688	-0.0111
561.882	-0.0067
562.076	-0.0089
562.2699	0.0069
562.4639	0.0023
562.6578	0.013
562.8517	0.0012
563.0456	0.0027
563.2395	-0.0006
563.4333	-0.0015
563.6272	0.0072
563.821	-0.0001
564.0148	-0.0016
564.2086	-0.0039
564.4024	-0.0042
564.5961	-0.0053
564.7899	0.005
564.9836	0.0001
565.1773	0.0073
565.371	0.0056
565.5647	0.0052
565.7584	-0.0025
565.952	-0.0048
566.1456	0.0032
566.3393	-0.0071
566.5329	-0.0019
566.7264	-0.0063
566.92	-0.0073
567.1136	-0.0001
567.3071	-0.0056
567.5006	0.0035
567.6941	-0.0001
567.8876	0.0023
568.0811	0.0007
568.2745	0.0038
568.468	0.0067
568.6614	0.0058
568.8548	0.0051
569.0482	-0.0016
569.2416	0.0002
569.4349	-0.0037
569.6283	0.0084
569.8216	-0.0014
570.0149	-0.0065
570.2082	0.0021
570.4015	-0.002
570.5947	0.0029
570.788	0.0008
570.9812	0.0047
571.1744	-0.0023
571.3676	-0.0141
571.5608	0.0029
571.754	0.0034
571.9471	-0.0052
572.1402	0.0097
572.3333	-0.0052
572.5264	-0.0073
572.7195	-0.0008
572.9126	0.0027
573.1057	0.0021
573.2987	-0.0077
573.4917	0.0024
573.6847	-0.0175
573.8777	0.004
574.0707	0.0069
574.2636	-0.0038
574.4566	-0.0018
574.6495	0.0055
574.8424	-0.0022
575.0353	-0.0029
575.2281	0.0043
575.421	0.0002
575.6138	0.0035
575.8067	-0.0045
575.9995	0.0002
576.1923	-0
576.385	-0.0007
576.5778	-0.0078
576.7706	-0.0017
576.9633	0.0045
577.156	-0.0039
577.3487	-0.0033
577.5414	-0.0023
577.734	-0.0067
577.9267	-0.0011
578.1193	-0.0198
578.3119	-0.01
578.5045	-0.0025
578.6971	-0.0012
578.8897	0.0023
579.0822	-0.0058
579.2747	0.0006
579.4673	-0.0037
579.6598	-0.0043
579.8522	-0.0032
580.0447	-0.0048
580.2372	-0.0046
580.4296	0.0052
580.622	-0.0112
580.8144	-0.0018
581.0068	-0.004
581.1992	-0.0139
581.3915	-0.0016
581.5839	-0.0072
581.7762	-0.0128
581.9685	-0.0008
582.1608	-0.0061
582.353	-0.0044
582.5453	-0.0011
582.7375	0.0029
582.9298	0.0025
583.122	-0.0034
583.3142	-0.0011
583.5063	0.0008
583.6985	-0.0033
583.8906	-0.005
584.0827	-0.0026
584.2749	0.001
584.4669	-0.0002
584.659	0.0009
584.8511	-0.0027
585.0431	-0.0038
585.2352	-0.0008
585.4272	0.001
585.6192	0.0089
585.8111	0.0001
586.0031	0.0028
586.195	-0.005
586.387	0.0014
586.5789	0.0008
586.7708	-0.0005
586.9627	0.0004
587.1545	-0.0127
587.3464	0.0027
587.5382	-0.0007
587.73	0.005
587.9218	0.0008
588.1136	-0.0023
588.3053	0.0042
588.4971	-0.0065
588.6888	-0.0057
588.8805	-0.0022
589.0722	0.0034
589.2639	0.0069
589.4556	-0.0016
589.6472	-0.0066
589.8389	-0.0027
590.0305	-0.0073
590.2221	-0.0001
590.4137	-0.0117
590.6052	0.0009
590.7968	-0.0014
590.9883	-0.0009
591.1798	-0.0026
591.3713	0.0006
591.5628	0.0045
591.7543	0.0082
591.9458	0.0021
592.1372	0.0091
592.3286	0.0028
592.52	0.01
592.7114	-0.0003
592.9028	-0.0012
593.0941	-0.0103
593.2855	-0.0005
593.4768	-0.0062
593.6681	-0.0018
593.8594	-0.0103
594.0506	-0.0057
594.2419	0.0079
594.4331	0.0021
594.6244	0.0065
594.8156	-0.0072
595.0067	0.0012
595.1979	0.0064
595.3891	-0.0003
595.5802	-0.0033
595.7713	-0.0028
595.9624	0.0031
596.1535	0.0093
596.3446	0.0047
596.5357	0.0033
596.7267	0.003
596.9177	-0.0046
597.1087	-0.0067
597.2997	-0.0046
597.4907	0.0018
597.6817	-0.0023
597.8726	0.0027
598.0635	-0.0046
598.2544	0.0088
598.4453	-0.0017
598.6362	-0.0013
598.827	-0.0048
599.0179	0.0062
599.2087	0.0064
599.3995	0.0043
599.5903	-0.0004
599.7811	0.0045
599.9718	0.003
600.1626	-0.0018
600.3533	-0.0011
600.544	0.0023
600.7347	-0.0022
600.9254	0.0064
601.116	-0.004
601.3067	0.002
601.4973	0.0014
601.6879	0.0093
601.8785	0.0045
602.0691	0.0055
602.2596	0.0095
602.4502	0.0059
602.6407	0.0061
602.8312	0.0081
603.0217	0.0025
603.2122	0.0056
603.4027	0.0023
603.5931	0.0017
603.7835	0.004
603.9739	0.0043
604.1643	0.0016
604.3547	-0.0007
604.5451	0.0007
604.7354	0.0006
604.9257	0.0038
605.116	-0.0033
605.3063	0.005
605.4966	0.005
605.6869	0.0041
605.8771	0.0075
606.0673	0.0089
606.2575	0.0016
606.4477	0.0086
606.6379	0.0019
606.8281	-0.0043
607.0182	-0.0014
607.2083	0.0138
607.3985	-0.0002
607.5885	0.0008
607.7786	0.0021
607.9687	-0.0009
608.1587	0.0024
608.3488	-0.0007
608.5388	0.0003
608.7288	-0.0001
608.9187	-0.0049
609.1087	-0.0038
609.2986	-0.0081
609.4886	-0.0001
609.6785	-0.002
609.8684	0.0056
610.0582	0.0026
610.2481	0.0008
610.4379	-0.0008
610.6278	-0.0025
610.8176	-0.0016
611.0074	-0.0075
611.1971	0.0021
611.3869	-0.0033
611.5766	-0.0035
611.7664	-0.0001
611.9561	0.0007
612.1458	0.0042
612.3354	-0.0077
612.5251	-0.0009
612.7147	0.0044
612.9044	0.0055
613.094	-0.0035
613.2836	0.0036
613.4731	-0.0026
613.6627	-0.0013
613.8522	0.006
614.0417	0.0092
614.2313	-0.0011
614.4207	-0.0074
614.6102	0.0089
614.7997	-0.0038
614.9891	-0.0002
615.1785	-0.0016
615.3679	-0.0063
615.5573	0.005
615.7467	-0.0035
615.9361	-0.0052
616.1254	0.0044
616.3147	0.0023
616.504	0.0079
616.6933	-0.0022
616.8826	0.0041
617.0718	-0.0024
617.2611	0.0025
617.4503	-0.0022
617.6395	-0.0035
617.8287	0.0001
618.0179	-0.0005
618.207	0.0077
618.3961	0.0052
618.5853	-0.0067
618.7744	0.004
618.9634	0.0125
619.1525	0.0048
619.3416	0.0029
619.5306	0.0052
619.7196	0.0016
619.9086	-0.001
620.0976	0.0026
620.2866	-0.0041
620.4755	0.0049
620.6645	-0.001
620.8534	0.0081
621.0423	0.0093
621.2312	0.0069
621.42	0.0022
621.6089	0.005
621.7977	-0.0009
621.9865	-0.0093
622.1753	0.0013
622.3641	-0.0081
622.5529	0.004
622.7416	0.0028
622.9303	-0.004
623.1191	0.0084
623.3078	-0.0082
623.4964	-0.0026
623.6851	-0.0023
623.8737	0.0018
624.0624	0.0018
624.251	-0.0041
624.4396	-0.0032
624.6282	-0.007
624.8167	0.0046
625.0053	0.0071
625.1938	0.002
625.3823	0.0017
625.5708	0.001
625.7593	-0.0045
625.9477	-0.0035
626.1362	-0.0018
626.3246	-0.0029
626.513	0.0076
626.7014	0.0089
626.8898	0.0029
627.0781	0.0003
627.2665	-0.0031
627.4548	0.0085
627.6431	0.0044
627.8314	0.0007
628.0197	0.0011
628.2079	-0.0004
628.3962	-0.0046
628.5844	0.01
628.7726	0.0106
628.9608	0.0112
629.1489	0.0027
629.3371	0.0031
629.5252	-0.0014
629.7134	0.0105
629.9015	-0.003
630.0895	-0.0037
630.2776	0.0138
630.4657	-0.0002
630.6537	0.0093
630.8417	0.0018
631.0297	0.0095
631.2177	-0.0013
631.4057	-0.0066
631.5936	0.0017
631.7815	-0.0005
631.9695	0.0014
632.1574	-0.0013
632.3452	0.0136
632.5331	0.0044
632.7209	-0.0026
632.9088	0.0098
633.0966	0.0114
633.2844	0.0039
633.4722	0.0035
633.6599	0.009
633.8477	0.0077
634.0354	0.0052
634.2231	-0.0003
634.4108	0.0048
634.5985	0.0089
634.7861	0.0008
634.9738	-0.0012
635.1614	-0.0044
635.349	-0.0008
635.5366	-0.0006
635.7242	-0.0028
635.9117	0.0049
636.0993	-0.0044
636.2868	0.0001
636.4743	-0.0019
636.6618	0.0083
636.8492	0.0009
637.0367	0.0068
637.2241	-0.0048
637.4115	-0.0053
637.5989	-0.0006
637.7863	-0.0014
637.9737	-0.0038
638.161	0.0002
638.3484	-0.0006
638.5357	0.008
638.723	0.0008
638.9103	0.0133
639.0975	0.0091
639.2848	0.0039
639.472	0.0003
639.6592	0.0092
639.8464	0.0102
640.0336	0.0033
640.2208	0.0063
640.4079	-0.0009
640.595	0.0075
640.7821	0.0037
640.9692	0.0042
641.1563	0.01
641.3434	0.0053
641.5304	-0.002
641.7174	-0.001
641.9044	0.0073
642.0914	0.0042
642.2784	0.0059
642.4653	0.0088
642.6523	0.0097
642.8392	-0.0047
643.0261	0.0028
643.213	0.0048
643.3999	0.0023
643.5867	-0.0041
643.7735	0.0047
643.9604	-0.0021
644.1472	0.0003
644.3339	0.0049
644.5207	0.0045
644.7075	-0.0003
644.8942	0.0108
645.0809	0.0083
645.2676	0.0124
645.4543	0.0058
645.6409	0.0003
645.8276	0.01
646.0142	0.0078
646.2008	-0.0006
646.3874	-0.0009
646.574	0.0047
646.7605	-0.0016
646.9471	-0.0063
647.1336	0.0009
647.3201	0.0031
647.5066	-0.0022
647.6931	0.0051
647.8795	-0.0043
648.0659	0.0076
648.2524	0.0127
648.4388	-0.0023
648.6252	0.0028
648.8115	0.0019
648.9979	0.0015
649.1842	-0.0031
649.3705	0.0065
649.5568	0.0032
649.7431	0.0063
649.9294	0.0013
650.1156	-0.0012
650.3018	-0.0024
650.488	0.0029
650.6742	0.0048
650.8604	0.0079
651.0466	-0.0032
651.2327	0.0033
651.4188	0.0051
651.6049	0.0007
651.791	0.0045
651.9771	0.011
652.1632	0.0047
652.3492	0.0011
652.5352	0.0039
652.7212	0.005
652.9072	0.0132
653.0932	0.0064
653.2791	0.0047
653.465	0.0054
653.651	-0.0012
653.8369	-0.0019
654.0227	0.0028
654.2086	0.0088
654.3944	0.0089
654.5803	0.0032
654.7661	0.0035
654.9519	0.0074
655.1377	-0.0011
655.3234	-0.0002
655.5092	-0.0067
655.6949	-0.0087
655.8806	-0.0077
656.0663	-0.0006
656.2519	-0.006
656.4376	-0.0055
656.6232	0.0071
656.8088	0.003
656.9945	0.0071
657.18	-0.0005
657.3656	-0.0005
657.5511	0.0003
657.7367	-0.0042
657.9222	0.009
658.1077	0.0019
658.2932	0.0095
658.4786	-0.0036
658.6641	-0.0035
658.8495	0.0051
659.0349	0.0047
659.2203	0.0076
659.4057	0.003
659.591	0.0095
659.7764	0.0023
659.9617	0.0027
660.147	0.0081
660.3323	0.0101
660.5176	0.0131
660.7028	0.0061
660.888	0.0092
661.0733	0.0068
661.2585	0.0029
661.4436	0.0081
661.6288	0.0024
661.8139	0.0026
661.9991	0.0046
662.1842	0.0046
662.3693	0.01
662.5544	0.0055
662.7394	0.0009
662.9245	0.0021
663.1095	-0.001
663.2945	-0.0011
663.4795	-0.0008
663.6644	0.0074
663.8494	-0.0015
664.0343	-0.0025
664.2193	-0.0117
664.4042	-0.0016
664.589	-0.008
664.7739	-0.0001
664.9587	-0.0073
665.1436	-0.004
665.3284	0.0059
665.5132	0.0045
665.698	0.0016
665.8827	0.0016
666.0675	-0.0006
666.2522	-0.0017
666.4369	0.0066
666.6216	0.0097
666.8063	0.0058
666.9909	0.0063
667.1756	0.0014
667.3602	0.0051
667.5448	-0.0003
667.7294	0.0093
667.9139	0.0034
668.0985	0.0179
668.283	-0.0076
668.4675	0.0016
668.652	0.0027
668.8365	-0.0017
669.0209	0.0099
669.2054	0.0104
669.3898	-0.0034
669.5742	0.0127
669.7586	0.0094
669.943	0.0092
670.1273	0.0128
670.3117	0.0137
670.496	0.0075
670.6803	0.009
670.8646	0.0076
671.0488	-0.0012
671.2331	0.0102
671.4173	0.0116
671.6015	-0.0006
671.7857	0.0074
671.9699	0.0077
672.1541	0.008
672.3382	0.013
672.5223	0.0113
672.7064	0.0093
672.8905	0.0128
673.0746	0.0086
673.2587	0.0039
673.4427	0.0087
673.6267	0.0015
673.8107	0.0125
673.9947	0.0073
674.1787	0.0052
674.3626	-0.0028
674.5465	0.0048
674.7304	0.0018
674.9143	0.0095
675.0982	0.0137
675.2821	0.0017
675.4659	0.0055
675.6497	0.0089
675.8335	0.0049
676.0173	0.0104
676.2011	0.002
676.3849	0.0053
676.5686	-0.0069
676.7523	0.0014
676.936	0.0007
677.1197	0.0024
677.3034	0.0032
677.487	0.0022
677.6706	0.0023
677.8542	0.0102
678.0378	0.0047
678.2214	0.0065
678.405	-0.002
678.5885	-0.0018
678.772	0.0027
678.9555	-0.0001
679.139	-0.0013
679.3225	0.0117
679.5059	-0.0024
679.6894	0.0019
679.8728	0.0015
680.0562	-0.0083
680.2395	0.0002
680.4229	0.003
680.6062	0.009
680.7896	0.0066
680.9729	0.0017
681.1562	0.0007
681.3394	0.008
681.5227	-0.0042
681.7059	0.0035
681.8891	0.0009
682.0723	0.0042
682.2555	0.0079
682.4387	-0.0028
682.6218	-0.0019
682.805	0.0036
682.9881	0.0089
683.1712	-0.0027
683.3542	0.0033
683.5373	-0.0006
683.7203	-0.0046
683.9034	0.0049
684.0864	-0.0037
684.2694	0.0043
684.4523	0.014
684.6353	-0.0017
684.8182	0.0012
685.0011	0.0017
685.184	0.0062
685.3669	-0.0018
685.5498	0.006
685.7326	-0.001
685.9154	0.0057
686.0982	0.0109
686.281	0.0111
686.4638	0.0102
686.6465	0.0029
686.8293	0.0062
687.012	0.007
687.1947	-0.003
687.3774	0.0078
687.56	0.0041
687.7427	0.0081
687.9253	-0.0068
688.1079	0.0004
688.2905	0.0074
688.4731	0.0048
688.6556	0
688.8382	0.0007
689.0207	0.0046
689.2032	-0.0064
689.3857	0.0003
689.5681	0.0023
689.7506	-0.0008
689.933	-0.0033
690.1154	-0.003
690.2978	-0.0011
690.4802	0.0077
690.6626	-0.0092
690.8449	-0.0016
691.0272	0.0049
691.2095	-0.0019
691.3918	-0.0046
691.5741	0.0101
691.7563	-0.0022
691.9386	-0.0006
692.1208	0.0027
692.303	0.0012
692.4852	-0.0059
692.6673	0.0061
692.8495	-0.0017
693.0316	0.0043
693.2137	0.0031
693.3958	0.0015
693.5778	0.0056
693.7599	0.005
693.9419	0.0028
694.1239	0.0025
694.3059	0.0037
694.4879	0.0109
694.6699	0.0054
694.8518	0.0094
695.0337	-0.0022
695.2157	0.0011
695.3975	-0.0057
695.5794	0.0032
695.7613	0.0085
695.9431	0.004
696.1249	0.0055
696.3067	0.0001
696.4885	0.0053
696.6703	0.0001
696.852	0.0006
697.0337	0.0059
697.2154	0.0045
697.3971	0.0041
697.5788	0.0126
697.7605	0.0024
697.9421	0.0121
698.1237	0.0001
698.3053	0.006
698.4869	0.0059
698.6685	-0.0038
698.85	0.0003
699.0315	0.0063
699.213	0.0022
699.3945	-0.0021
699.576	0.008
699.7575	0.0036
699.9389	-0.0001
700.1203	0.0025
700.3017	-0.0107
700.4831	-0.0066
700.6645	-0.0018
700.8458	-0.0029
701.0271	0.0018
701.2084	0.006
701.3897	-0.0009
701.571	0.0043
701.7523	-0.0067
701.9335	0.0009
702.1147	-0.0005
702.2959	0.0005
702.4771	0.0007
702.6583	0.0016
702.8394	-0.0064
703.0205	-0.0014
703.2016	-0.0079
703.3827	-0.0002
703.5638	0.0018
703.7449	0.0021
703.9259	0.0067
704.1069	-0.0108
704.2879	0.001
704.4689	0.0007
704.6499	-0.004
704.8308	0.0054
705.0117	0.0027
705.1927	0.0028
705.3735	-0.0027
705.5544	-0.0001
705.7353	-0.0043
705.9161	-0.0041
706.0969	-0.001
706.2777	0.0015
706.4585	-0.0035
706.6393	0.0012
706.82	-0.001
707.0007	0.0011
707.1815	0.0012
707.3621	0.0172
707.5428	0.0023
707.7235	0.0032
707.9041	0.0085
708.0847	-0.0024
708.2653	-0.0064
708.4459	-0.0116
708.6265	-0.0038
708.807	0.0017
708.9875	-0.0079
709.168	-0.0033
709.3485	-0.0028
709.529	-0.0053
709.7095	-0.0108
709.8899	0.0019
710.0703	-0.0061
710.2507	-0.0025
710.4311	-0.0032
710.6115	-0.0089
710.7918	-0.0051
710.9721	-0.0034
711.1524	-0.0085
711.3327	0.0028
711.513	0.006
711.6932	-0.0031
711.8735	0.007
712.0537	-0.0029
712.2339	0.0025
712.4141	-0.0008
712.5942	-0.0053
712.7744	0.0041
712.9545	-0.0026
713.1346	-0.0028
713.3147	0.0052
713.4947	-0.0014
713.6748	0.0066
713.8548	-0.0016
714.0348	0.0059
714.2148	0.0032
714.3948	0.0119
714.5748	0.0078
714.7547	-0.0013
714.9346	0.0097
715.1145	0.0048
715.2944	0.0027
715.4743	0.0114
715.6541	0.01
715.834	0.0088
716.0138	0.011
716.1936	-0.0126
716.3733	0.0016
716.5531	0.0061
716.7328	-0.004
716.9126	-0.0057
717.0923	0.0077
717.2719	-0.0034
717.4516	0.0054
717.6312	0.0016
717.8109	-0.0084
717.9905	0.0062
718.1701	0.0017
718.3496	-0.0092
718.5292	0.0099
718.7087	-0.0015
718.8882	0.0026
719.0677	0.0071
719.2472	0.0099
719.4267	-0
719.6061	0.0077
719.7856	0.0074
719.965	0.0095
720.1443	0.0007
720.3237	0.0133
720.5031	0.0038
720.6824	0.0153
720.8617	0.003
721.041	0.0114
721.2203	0.0126
721.3995	0.003
721.5788	-0.0046
721.758	0.0083
721.9372	-0.0052
722.1164	-0.0002
722.2956	0.0058
722.4747	-0.0018
722.6538	0.0055
722.8329	0.0096
723.012	0.0072
723.1911	-0.0009
723.3702	-0.0032
723.5492	-0.0029
723.7282	-0.0043
723.9072	0.0024
724.0862	-0.0046
724.2652	-0.0075
724.4441	-0.0021
724.623	0.0018
724.8019	-0.0001
724.9808	0.0056
725.1597	-0.0035
725.3385	0.0057
725.5174	0.002
725.6962	-0.0018
725.875	0.0052
726.0538	0.0094
726.2325	0.0006
726.4112	0.0092
726.59	-0.0031
726.7687	-0.002
726.9474	0.0007
727.126	0.0035
727.3047	-0.0023
727.4833	-0.0034
727.6619	-0.0035
727.8405	-0.0108
728.0191	-0.0021
728.1976	0.0027
728.3762	0.0031
728.5547	0.0001
728.7332	-0.0063
728.9116	0.0104
729.0901	0.0053
729.2686	-0.0054
729.447	-0.0026
729.6254	-0.001
729.8038	0.0037
729.9821	-0.0098
730.1605	0.0037
730.3388	0.0043
730.5171	0.003
730.6954	-0.0098
730.8737	0.009
731.0519	-0.0006
731.2302	-0.0004
731.4084	0.0102
731.5866	0.0059
731.7648	-0.0015
731.9429	0.0015
732.1211	-0.0053
732.2992	0.0025
732.4773	-0.0087
732.6554	-0.0047
732.8335	-0.0035
733.0115	0.0027
733.1896	0.0125
733.3676	-0.0042
733.5456	0.0053
733.7235	0.0086
733.9015	0.0009
734.0794	0.0064
734.2574	-0.0027
734.4353	0.0035
734.6131	0.0072
734.791	0.003
734.9689	-0.0001
735.1467	0.0031
735.3245	-0.0017
735.5023	-0.0056
735.68	0.0023
735.8578	0.0039
736.0355	-0.0183
736.2132	-0.0071
736.3909	-0.0065
736.5686	-0.0055
736.7463	0.0037
736.9239	-0.0051
737.1015	0.0013
737.2791	0.0013
737.4567	-0.0022
737.6343	-0.0113
737.8118	0.0015
737.9894	-0.0026
738.1669	-0.0087
738.3444	-0.0021
738.5218	-0.0012
738.6993	-0.0042
738.8767	-0.0008
739.0541	0.013
739.2315	0.0023
739.4089	0.0004
739.5863	0.0138
739.7636	0.0018
739.9409	0.0036
740.1182	0.0122
740.2955	0.0152
740.4728	-0.0072
740.65	-0.0044
740.8272	-0.0017
741.0044	-0.002
741.1816	0.0049
741.3588	0.0005
741.5359	0.0034
741.7131	-0.0126
741.8902	0.0042
742.0673	0.0021
742.2444	-0.0041
742.4214	-0.0068
742.5985	0.0029
742.7755	-0.0038
742.9525	-0.017
743.1295	-0.0006
743.3064	0.0009
743.4834	0.0025
743.6603	0.0035
743.8372	-0.0021
744.0141	0.0034
744.191	0.0096
744.3678	-0.0015
744.5446	0.0055
744.7215	0.0039
744.8982	-0.0045
745.075	-0.0075
745.2518	0.0018
745.4285	0.0076
745.6052	0.0081
745.7819	-0.002
745.9586	-0.0052
746.1353	-0.0033
746.3119	-0.0072
746.4885	-0.0035
746.6651	-0.0078
746.8417	0.0015
747.0183	-0.0007
747.1948	-0.0002
747.3714	0.0081
747.5479	0.01
747.7244	-0.0089
747.9008	0.0112
748.0773	0.0013
748.2537	-0.0007
748.4301	-0.0089
748.6065	0.0161
748.7829	0.0043
748.9593	0.0035
749.1356	0.0082
749.3119	0.0022
749.4882	-0.0036
749.6645	0.0052
749.8408	-0.0066
750.017	-0.0022
750.1933	-0.0026
750.3695	-0.0098
750.5457	0.0078
750.7218	-0.0115
750.898	0.0012
751.0741	-0.0083
751.2502	-0.0057
751.4263	-0.0038
751.6024	-0.0038
751.7784	-0.0039
751.9545	-0.0068
752.1305	-0.0016
752.3065	-0.0076
752.4825	0.0001
752.6584	-0.0096
752.8344	-0.002
753.0103	-0.0191
753.1862	-0.0068
753.3621	-0.0104
753.5379	-0.0081
753.7138	0.0015
753.8896	-0.0029
754.0654	0.0011
754.2412	0.0132
754.417	0.0034
754.5927	-0.0054
754.7685	-0.0091
754.9442	-0.0041
755.1199	0.0106
755.2956	-0.0091
755.4712	0.0019
755.6469	0.004
755.8225	-0.0044
755.9981	-0.0114
756.1736	0.0066
756.3492	-0.0044
756.5248	-0.0052
756.7003	-0.0066
756.8758	0.006
757.0513	-0.0114
757.2267	-0.002
757.4022	0.0105
757.5776	-0.0054
757.753	0.0042
757.9284	0.0033
758.1038	0.0103
758.2791	0.0041
758.4545	-0.0071
758.6298	0.0043
758.8051	0.012
758.9803	0.0121
759.1556	0.0057
759.3308	-0.0018
759.506	0.0137
759.6812	0.0097
759.8564	0.0115
760.0316	0.0032
760.2067	0.0018
760.3819	0.0068
760.557	0.0108
760.732	0.0012
760.9071	-0.0051
761.0821	0.0128
761.2572	0.02
761.4322	-0.0089
761.6072	-0.0055
761.7821	-0.0046
761.9571	0.0112
762.132	-0.0043
762.3069	-0.0054
762.4818	-0.0108
762.6567	-0.0085
762.8316	0.0038
763.0064	-0.0027
763.1812	0.0034
763.356	-0.0116
763.5308	-0.0068
763.7055	-0.0063
763.8803	-0.0046
764.055	0.0042
764.2297	-0.005
764.4044	-0.0149
764.579	-0.0082
764.7537	-0.0165
764.9283	-0.0037
765.1029	-0.0086
765.2775	-0.0135
765.4521	-0.0161
765.6266	-0.0094
765.8011	-0.0074
765.9756	-0.0009
766.1501	0.0073
766.3246	-0.0058
766.4991	-0.0014
766.6735	0.0007
766.8479	-0.005
767.0223	0.0164
767.1967	0.0009
767.371	-0.0009
767.5454	-0.0059
767.7197	0.0075
767.894	-0.0059
768.0683	-0.0112
768.2425	0.0034
768.4168	0.0037
768.591	0.0017
768.7652	-0.0112
768.9394	-0.0033
769.1135	-0.0082
769.2877	0.0049
769.4618	-0.0047
769.6359	-0.0046
769.81	0.0002
769.984	-0.001
770.1581	-0.0081
770.3321	-0.0034
770.5061	-0.006
770.6801	-0
770.8541	0.0012
771.028	0.0052
771.202	-0.011
771.3759	0.0045
771.5498	-0.0005
771.7236	0.003
771.8975	0.0152
772.0713	0.0019
772.2451	0.0071
772.4189	0.0141
772.5927	0.0052
772.7665	0.0152
772.9402	-0.0041
773.1139	0.0187
773.2876	-0.009
773.4613	0.0163
773.635	0.0182
773.8086	-0.0065
773.9822	-0.0032
774.1558	0.0033
774.3294	0.0049
774.503	0.0045
774.6765	0.0012
774.8501	0.0062
775.0236	0.015
775.1971	0.0097
775.3705	-0.0076
775.544	0.0168
775.7174	-0.0067
775.8908	-0.0054
776.0642	-0.0046
776.2376	0.0099
776.4109	0.0003
776.5843	-0.0113
776.7576	0.0052
776.9309	0.0088
777.1041	0.0086
777.2774	0.0077
777.4506	-0.0009
777.6238	-0.0116
777.797	-0.0066
777.9702	0.0009
778.1434	-0.0065
778.3165	-0.005
778.4896	-0.0048
778.6627	0.0139
778.8358	0.0058
779.0089	0.0072
779.1819	0.0107
779.3549	0.0205
779.5279	0.0098
779.7009	0.0134
779.8739	-0.0026
780.0468	0.0075
780.2197	0.0067
780.3926	0.0029
780.5655	0.0021
780.7384	0.0077
780.9112	0.0017
781.0841	-0.0153
781.2569	0.0103
781.4297	0.0091
781.6024	0.0008
781.7752	-0.006
781.9479	0.013
782.1206	0.0048
782.2933	-0.0079
782.466	0.0022
782.6386	0.0033
782.8113	0.0144
782.9839	0.0026
783.1565	0.019
783.329	-0.0005
783.5016	0.0033
783.6741	0.001
783.8466	-0.0049
784.0191	0.0128
784.1916	0.0107
784.3641	-0
784.5365	-0.0036
784.7089	-0.0106
784.8813	-0.0071
785.0537	-0.006
785.2261	-0.0074
785.3984	-0.0096
785.5707	0.002
785.743	-0.0039
785.9153	-0.0061
786.0876	0.0024
786.2598	-0.0087
786.432	-0.0038
786.6042	0.0008
786.7764	-0.0084
786.9486	-0.0106
787.1207	-0.0052
787.2928	-0.0018
787.4649	0.0076
787.637	-0.0021
787.8091	-0.0058
787.9811	-0.0002
788.1532	-0.0035
788.3252	0.0093
788.4972	-0.0083
788.6691	-0.0052
788.8411	0.0012
789.013	-0.0019
789.1849	0.0029
789.3568	0.0024
789.5287	-0.0039
789.7005	0.0019
789.8723	0.0144
790.0442	0.0171
790.2159	0.0069
790.3877	0.0003
790.5595	-0.0036
790.7312	0.0032
790.9029	-0.0037
791.0746	-0.0136
791.2463	-0.0031
791.4179	-0.0014
791.5896	-0.0123
791.7612	0.0083
791.9328	-0.0052
792.1044	-0.0098
792.2759	-0.0218
792.4474	-0.0045
792.619	0.0135
792.7905	0.0012
792.9619	-0.0005
793.1334	0.0022
793.3048	0.0058
793.4762	0.0053
793.6476	-0.002
793.819	-0.0036
793.9904	0.0079
794.1617	-0.0113
794.333	0.0108
794.5043	-0.0035
794.6756	-0.0147
794.8469	0.0178
795.0181	-0.0073
795.1893	-0.0048
795.3605	0.0181
795.5317	-0.0108
795.7029	-0.0127
795.874	-0.0149
796.0452	-0.0071
796.2163	-0.0063
796.3873	0.0128
796.5584	0.0007
796.7294	-0.009
796.9005	-0.0021
797.0715	0.0133
797.2425	-0.0198
797.4134	0.0016
797.5844	0.0007
797.7553	-0.0157
797.9262	-0.0165
798.0971	-0.0126
798.2679	-0.019
798.4388	-0.0258
798.6096	-0.0081
798.7804	-0.0076
798.9512	-0.0013
799.122	-0.0044
799.2927	-0.0125
799.4635	0.0096
799.6342	-0.0229
799.8049	-0.0031
799.9755	-0.0073
800.1462	-0.0122
800.3168	-0.0101
800.4874	-0.0109
800.658	0.0174
800.8286	-0.0033
800.9991	0.0029
801.1696	-0.0037
801.3402	0.0029
801.5106	-0.0071
801.6811	0.011
801.8516	0.0104
802.022	0.0014
802.1924	-0.0111
802.3628	0.0041
802.5332	-0.0075
802.7035	0.0012
802.8739	-0.0231
803.0442	-0.0105
803.2145	-0.0002
803.3847	-0.0347
803.555	-0.0109
803.7252	-0.0377
803.8954	-0.0319
804.0656	-0.0202
804.2358	-0.0183
804.4059	0.0023
804.5761	-0.014
804.7462	0.0048
804.9163	-0.0099
805.0864	-0.0111
805.2564	-0.0176
805.4264	0.0048
805.5965	-0.0097
805.7665	-0.0072
805.9364	0.0058
806.1064	0.0146
806.2763	0.0021
806.4462	0.0108
806.6161	0.0083
806.786	0.0168
806.9559	0.0011
807.1257	-0.0056
807.2955	-0.0136
807.4653	0.0036
807.6351	-0.0197
807.8048	-0.015
807.9746	0.0031
808.1443	0.0107
808.314	-0.0012
808.4837	0.009
808.6533	-0.0225
808.8229	0.0169
808.9926	-0.0165
809.1622	0.0024
809.3317	-0.0117
809.5013	-0.0252
809.6708	0.0044
809.8403	0.0072
810.0098	-0.0242
810.1793	0.0043
810.3488	-0.0003
810.5182	-0.0255
810.6876	0.0076
810.857	-0.0085
811.0264	0.0107
811.1958	0.0007
811.3651	0.0092
811.5344	-0.0176
811.7037	-0.0137
811.873	-0.0285
812.0422	-0.0083
812.2115	-0.0094
812.3807	-0.0214
812.5499	0.0029
812.7191	-0.0064
812.8882	-0.0272
813.0574	-0.0247
813.2265	-0.0248
813.3956	0.006
813.5646	-0.0213
813.7337	-0.0104
813.9027	0.0024
814.0718	0.0189
814.2407	0.0109
814.4097	-0.008
814.5787	-0.0191
814.7476	0.0054
814.9165	-0.0031
815.0854	0.0038
815.2543	-0.0303
815.4232	0.0085
815.592	0.0176
815.7608	0.0077
815.9296	0.0083
816.0984	0.0041
816.2671	-0.0085
816.4359	-0.0099
816.6046	-0.0019
816.7733	-0.0171
816.942	-0.0185
817.1106	0.0009
817.2793	0.0208
817.4479	-0.0133
817.6165	0.0096
817.785	0.0009
817.9536	-0.0249
818.1221	-0.022
818.2906	-0.0105
818.4591	-0.0226
818.6276	-0.0186
818.7961	-0.002
818.9645	0.0046
819.1329	0.0016
819.3013	-0.0077
819.4697	0.0061
819.638	-0.0208
819.8064	-0.0213
819.9747	-0.0018
820.143	-0.0096
820.3113	-0.0423
820.4795	0.0106
820.6477	-0.027
820.816	-0.0201
820.9842	-0.0114
821.1523	-0.0079
821.3205	-0.0235
821.4886	-0.0191
821.6567	-0.0015
821.8248	0.013
821.9929	-0
822.1609	-0.0101
822.329	0.016
822.497	-0.0073
822.665	-0.0106
822.833	-0.0096
823.0009	0.0064
823.1688	-0.0064
823.3367	0.0136
823.5046	0.0272
823.6725	0.0104
823.8404	-0.0098
824.0082	0.0031
824.176	0.014
824.3438	0.022
824.5116	0.0029
824.6793	0.0167
824.847	-0.0103
825.0147	-0.0097
825.1824	0.0083
825.3501	0.0397
825.5177	-0.0204
825.6854	0.0017
825.853	0.0209
826.0206	0.0023
826.1881	0.0153
826.3557	-0.0509
826.5232	0.0227
826.6907	-0.0304
826.8582	-0.0177
827.0257	-0.0092
827.1931	-0.0107
827.3605	-0.0334
827.528	-0.0092
827.6953	-0.0094
827.8627	-0.0061
828.03	0.0225
828.1974	-0.0033
828.3647	-0.0446
828.532	0.0044
828.6992	0.0059
828.8665	-0.0067
829.0337	-0.0066
829.2009	0.004
829.3681	-0.0131
829.5352	0.0255
829.7024	-0.0381
829.8695	-0.0482
830.0366	0.0258
830.2037	0.0103
830.3707	-0.0208
830.5378	-0.0249
830.7048	-0.0028
830.8718	-0.0065
831.0388	-0.024
831.2057	0.0297
831.3727	-0.0108
831.5396	-0.0135
831.7065	-0.0284
831.8734	0.012
832.0402	-0.0012
832.2071	0.0243
832.3739	-0.0171
832.5407	-0.0054
832.7075	-0.0099
832.8742	-0.0157
833.041	-0.0677
833.2077	-0.0226
833.3744	0.0192
833.541	0.0091
833.7077	-0.0243
833.8743	-0.0448
834.0409	-0.0307
834.2075	-0.0277
834.3741	-0.0187
834.5407	-0.0325
834.7072	-0.0205
834.8737	-0.0264
835.0402	-0.0178
835.2067	-0.0019
835.3731	0.0033
835.5395	0.0162
835.706	0.0131
835.8723	-0.0051
836.0387	0.0033
836.2051	-0.0184
836.3714	-0.0188
836.5377	0.0175
836.704	-0.0008
836.8703	-0.0241
837.0365	0.0029
837.2027	-0.0008
837.3689	-0.0121
837.5351	-0.0075
837.7013	0.0025
837.8674	-0.0657
838.0335	-0.0584
838.1997	-0.0411
838.3657	-0.0669
838.5318	0.027
838.6978	0.0131
838.8639	-0.0132
839.0299	-0.0427
839.1958	0.0126
839.3618	-0.0111
839.5277	-0.0282
839.6937	-0.0115
839.8596	-0.0222
840.0254	-0.0139
840.1913	-0.005
840.3571	0.0088
840.523	-0.0782
840.6888	-0.0604
840.8545	-0.037
841.0203	-0.0189
841.186	-0.0136
841.3517	0.022
841.5174	-0.013
841.6831	-0.0557
841.8488	0.0434
842.0144	-0.0189
842.18	-0.02
842.3456	-0.0029
842.5112	-0.0295
842.6767	0.0059
842.8422	-0.0127
843.0077	-0.0533
843.1732	-0.0358
843.3387	-0.0554
843.5042	-0.0359
843.6696	-0.0061
843.835	-0.0393
844.0004	0.0087
844.1657	0.009
844.3311	-0.0594
844.4964	-0.0402
844.6617	-0.0404
844.827	0.0177
844.9923	-0.0373
845.1575	0.0821
845.3227	-0.0035
845.4879	0.0183
845.6531	-0.0738
845.8183	-0.0546
845.9834	0.0322
846.1485	-0.0076
846.3136	-0.0985
846.4787	-0.0703
846.6438	0.0333
846.8088	-0.0587
846.9738	-0.0087
847.1388	-0.0043
847.3038	-0.0222
847.4687	-0.13
847.6337	0.0507
847.7986	0.0189
847.9635	-0.0408
848.1284	0.0957
848.2932	0.0336
848.458	-0.0069
848.6228	0.0656
848.7876	0.1675
848.9524	-0.0928
849.1172	-0.0402
849.2819	-0.0098
849.4466	-0.1388
849.6113	-0.1123
849.7759	-0.1138
849.9406	-0.0053
850.1052	-0.0001
850.2698	0.0437
850.4344	-0.0537
850.599	-0.0501
850.7635	-0.0055
850.928	-0.1052
851.0925	0.0235
851.257	0.0292
851.4215	0.0561
851.5859	-0.0961
851.7503	0.0155
851.9147	0.0115
852.0791	0.0268
852.2434	-0.0205
852.4078	0.1393
852.5721	0.0585
852.7364	-0.0201
852.9007	-0.1711
853.0649	0.0475
853.2291	-0.0628
853.3934	-0.0183
853.5575	0.0258
853.7217	-0.0244
853.8859	0.0206
854.05	-0.1544
854.2141	0.0522
854.3782	-0.0731
854.5423	0.005
854.7063	0.1346
854.8703	-0.0373
855.0343	-0.1297
855.1983	-0.1713
855.3623	0.1873
855.5262	-0.0421
855.6901	-0.0239
855.854	0.0061
856.0179	0.1246
856.1818	0.1392
856.3456	-0.0543
856.5094	-0.1295
856.6732	-0.0303
856.837	-0.0319
857.0008	0.1699
857.1645	-0.0267
857.3282	-0.1555
857.4919	0.0363
857.6556	-0.0821
857.8192	-0.044
857.9828	-0.0087
858.1465	-0.1506
858.31	0.0551
858.4736	0.0193
858.6372	-0.1736
858.8007	-0.2053
858.9642	0.0795
859.1277	0.0361
859.2911	0.2476
859.4546	0.0385
859.618	-0.3937
859.7814	-0.1636
859.9448	0.1541
860.1081	0.0499
860.2715	0.1899
860.4348	0.6225
860.5981	-0.1082
860.7614	0.329
860.9246	-0.127
861.0879	-0.0697
861.2511	-0.0551
861.4143	-0.0951
861.5774	0.1807
861.7406	-0.1543
861.9037	-0.0384
862.0668	0.1489
862.2299	-0.0795
862.393	-0.5555
862.556	-0.1137
862.7191	-0.4839
862.8821	-0.0454
863.0451	0.0278
863.208	0.0973
863.371	0.0568
863.5339	-0.2587
863.6968	0.0865
863.8597	0.0599
864.0225	-0.0005
864.1854	0.0083
864.3482	0.2519
864.511	0.2311
864.6737	0.2735
864.8365	0.3983
864.9992	-0.5865
865.1619	0.0238
865.3246	-0
865.4873	0.0095
865.65	-0.1441
865.8126	0.1945
865.9752	-0.0971
866.1378	-0.2144
866.3004	0.3715
866.4629	0.1308
866.6254	-0.2504
866.7879	0.2038
866.9504	-0
867.1129	-0
867.2753	0.2718
867.4377	0.2549
867.6001	-0.1006
867.7625	0.1379
867.9249	-0.4153
868.0872	-0.0574
868.2495	1.2299
868.4118	0.2665
868.5741	-0.6329
868.7363	-0.4116
868.8986	-0.4588
869.0608	-0.1788
869.223	0.2307
869.3851	-0.1582
869.5473	0.0017
869.7094	0.0531
869.8715	-0
870.0336	-0
870.1957	-0.6763
870.3577	-0
870.5197	-0.2453
870.6817	-0.257
870.8437	-0.2323
871.0057	-0
871.1676	-0
871.3295	-0.506
871.4914	-0
871.6533	-0.4672
871.8151	-0
871.977	-0
872.1388	-0
872.3006	-0.2087
872.4623	-0
872.6241	0.1497
872.7858	-0
872.9475	-0.3837
873.1092	-0.1321
873.2709	-0.1528
873.4325	0.1614
873.5941	-0.3368
873.7557	-0
873.9173	-0
874.0789	0.252
874.2404	-0.492
874.4019	-0.0534
874.5634	0.0529
874.7249	0.018
874.8863	0.7326
875.0478	0.4096
875.2092	-0
875.3706	0.0297
875.5319	-0.6532
875.6933	-0
875.8546	-0
876.0159	-0
876.1772	0.4285
876.3385	-0
876.4997	-0.0356
876.6609	-0.4607
876.8221	-0.2823
876.9833	0.357
877.1445	-0
877.3056	-0.1411
877.4667	-0.1676
877.6278	-0
877.7889	-0.3851
877.9499	-0
878.111	-0
878.272	-0
878.433	-0
878.5939	0.0954
878.7549	-0.2563
878.9158	-0.8215
879.0767	-0
879.2376	0.3616
879.3984	-0
879.5593	-0
879.7201	0.5922
879.8809	-0.9235
880.0417	-0
880.2024	0.08
880.3632	-0.5807
880.5239	0.5125
880.6846	-0.1499
880.8452	-2.4241
881.0059	-1.749
881.1665	-0.0867
881.3271	0.0552
881.4877	-0
881.6483	0.3236
881.8088	-0.2215
881.9693	0.2904
882.1298	0.2904
882.2903	0.2904
