Data from MonoPyChalIsomerACN10uM420nmA_Absorbance_15-09-54-235.txt Node
Date: Fri Jul 05 15:09:54 BST 2024
User: LASERRRRR
Spectrometer: FLMT03099
Trigger mode: 0
Integration Time (sec): 1.000000E-1
Scans to average: 1
Electric dark correction enabled: true
Nonlinearity correction enabled: false
Boxcar width: 0
XAxis mode: Wavelengths
Number of Pixels in Spectrum: 3648
>>>>>Begin Spectral Data<<<<<
179.3399	-0.0042
179.5586	-0.0042
179.7771	-0.0042
179.9957	-0
180.2143	-0
180.4329	-0.1032
180.6514	-0
180.8699	-0
181.0885	0.1508
181.307	0.0308
181.5255	-0
181.744	0.2236
181.9625	-0
182.181	-0
182.3994	1.5431
182.6179	0.4154
182.8363	0.1853
183.0547	0.3214
183.2732	0.0345
183.4916	0.2292
183.71	0.3746
183.9284	0.1036
184.1467	-0.2325
184.3651	0.006
184.5835	0.0149
184.8018	-0.2078
185.0201	0.2185
185.2385	0.0857
185.4568	0.0255
185.6751	0.0314
185.8934	0.4164
186.1117	-0.0839
186.3299	0.2638
186.5482	-0.1295
186.7664	0.0308
186.9847	-0.0034
187.2029	0.1853
187.4211	0.0137
187.6393	-0.0935
187.8575	-0.1038
188.0757	0.1355
188.2939	0.1933
188.512	0.0443
188.7302	-0.1162
188.9483	-0.0636
189.1665	0.0227
189.3846	-0.109
189.6027	0.0444
189.8208	0.2246
190.0389	0.0501
190.257	-0.0052
190.475	0.2891
190.6931	0.2416
190.9111	0.399
191.1292	0.3019
191.3472	0.5652
191.5652	0.2745
191.7832	0.1862
192.0012	0.1988
192.2192	0.3528
192.4371	0.5305
192.6551	0.3885
192.873	0.3211
193.091	0.3416
193.3089	0.6855
193.5268	0.4896
193.7447	0.6337
193.9626	0.4498
194.1805	0.6057
194.3984	0.7366
194.6162	0.575
194.8341	0.4657
195.0519	0.5052
195.2697	0.6514
195.4875	0.7849
195.7054	0.5641
195.9231	0.4848
196.1409	0.4678
196.3587	0.6269
196.5765	0.5953
196.7942	0.5425
197.012	0.473
197.2297	0.6765
197.4474	0.5844
197.6651	0.582
197.8828	0.5199
198.1005	0.5874
198.3182	0.6259
198.5358	0.7375
198.7535	0.5819
198.9711	0.5264
199.1888	0.5563
199.4064	0.6468
199.624	0.6424
199.8416	0.8067
200.0592	0.8009
200.2767	0.7297
200.4943	0.7722
200.7119	0.8274
200.9294	0.6494
201.1469	0.6105
201.3645	0.6035
201.582	0.6324
201.7995	0.6994
202.017	0.6185
202.2344	0.5247
202.4519	0.6465
202.6694	0.5907
202.8868	0.7429
203.1042	0.623
203.3217	0.7953
203.5391	0.6453
203.7565	0.5938
203.9739	0.547
204.1913	0.6471
204.4086	0.685
204.626	0.6978
204.8433	0.683
205.0607	0.7002
205.278	0.6567
205.4953	0.7031
205.7126	0.7155
205.9299	0.7653
206.1472	0.6843
206.3644	0.5517
206.5817	0.7187
206.7989	0.6366
207.0162	0.6659
207.2334	0.7554
207.4506	0.6883
207.6678	0.6325
207.885	0.6341
208.1022	0.6079
208.3194	0.7169
208.5365	0.6056
208.7537	0.6061
208.9708	0.5587
209.1879	0.6802
209.405	0.6771
209.6222	0.694
209.8392	0.6456
210.0563	0.6101
210.2734	0.6168
210.4905	0.628
210.7075	0.6477
210.9245	0.5719
211.1416	0.6765
211.3586	0.6563
211.5756	0.6259
211.7926	0.5918
212.0096	0.6043
212.2265	0.5603
212.4435	0.5572
212.6604	0.6226
212.8774	0.6151
213.0943	0.633
213.3112	0.5042
213.5281	0.5495
213.745	0.5141
213.9619	0.466
214.1788	0.4574
214.3956	0.4713
214.6125	0.5022
214.8293	0.448
215.0461	0.5144
215.2629	0.436
215.4798	0.4685
215.6965	0.4434
215.9133	0.445
216.1301	0.4639
216.3469	0.4152
216.5636	0.4286
216.7803	0.3882
216.9971	0.3983
217.2138	0.3766
217.4305	0.3948
217.6472	0.3271
217.8639	0.3946
218.0805	0.3416
218.2972	0.3356
218.5138	0.3403
218.7305	0.3377
218.9471	0.3048
219.1637	0.267
219.3803	0.255
219.5969	0.2866
219.8135	0.248
220.0301	0.2786
220.2466	0.2693
220.4632	0.2682
220.6797	0.2403
220.8962	0.2304
221.1127	0.259
221.3292	0.236
221.5457	0.2504
221.7622	0.2315
221.9787	0.2416
222.1951	0.2573
222.4116	0.2433
222.628	0.2439
222.8444	0.2572
223.0608	0.2535
223.2772	0.2519
223.4936	0.2608
223.71	0.2499
223.9264	0.2543
224.1427	0.2422
224.3591	0.2475
224.5754	0.2627
224.7917	0.2522
225.008	0.2788
225.2243	0.2556
225.4406	0.298
225.6569	0.2773
225.8732	0.2586
226.0894	0.2566
226.3057	0.264
226.5219	0.2871
226.7381	0.2581
226.9543	0.2744
227.1705	0.2887
227.3867	0.2693
227.6029	0.3031
227.8191	0.2965
228.0352	0.3047
228.2513	0.3034
228.4675	0.3213
228.6836	0.2971
228.8997	0.2983
229.1158	0.2908
229.3319	0.3045
229.548	0.3075
229.764	0.3331
229.9801	0.3288
230.1961	0.3367
230.4121	0.3148
230.6282	0.3334
230.8442	0.3299
231.0602	0.3306
231.2761	0.3472
231.4921	0.3503
231.7081	0.3617
231.924	0.3452
232.14	0.3669
232.3559	0.3314
232.5718	0.3648
232.7877	0.3648
233.0036	0.3435
233.2195	0.3503
233.4353	0.3361
233.6512	0.3567
233.867	0.3618
234.0829	0.3657
234.2987	0.3661
234.5145	0.381
234.7303	0.3598
234.9461	0.3979
235.1619	0.3689
235.3776	0.3867
235.5934	0.3889
235.8091	0.3593
236.0249	0.3801
236.2406	0.397
236.4563	0.3865
236.672	0.3879
236.8877	0.399
237.1034	0.3857
237.319	0.386
237.5347	0.3927
237.7503	0.3858
237.966	0.4088
238.1816	0.4029
238.3972	0.4038
238.6128	0.3792
238.8284	0.4279
239.0439	0.409
239.2595	0.4148
239.475	0.4188
239.6906	0.4148
239.9061	0.3985
240.1216	0.4138
240.3371	0.43
240.5526	0.4071
240.7681	0.4166
240.9836	0.3939
241.199	0.4001
241.4145	0.3947
241.6299	0.3954
241.8453	0.3853
242.0607	0.3909
242.2761	0.3617
242.4915	0.3893
242.7069	0.3866
242.9223	0.3598
243.1376	0.3552
243.353	0.3649
243.5683	0.3704
243.7836	0.356
243.9989	0.3511
244.2142	0.3182
244.4295	0.3377
244.6448	0.3223
244.86	0.3123
245.0753	0.307
245.2905	0.2961
245.5057	0.2917
245.721	0.2869
245.9362	0.282
246.1514	0.3103
246.3665	0.2877
246.5817	0.2735
246.7969	0.2859
247.012	0.2835
247.2271	0.2591
247.4423	0.2624
247.6574	0.2719
247.8725	0.2438
248.0876	0.2397
248.3026	0.2398
248.5177	0.2588
248.7328	0.2533
248.9478	0.2274
249.1628	0.24
249.3779	0.2199
249.5929	0.2225
249.8079	0.231
250.0228	0.2172
250.2378	0.2019
250.4528	0.2088
250.6677	0.1966
250.8827	0.2144
251.0976	0.2138
251.3125	0.1877
251.5274	0.1901
251.7423	0.1849
251.9572	0.1908
252.172	0.1821
252.3869	0.1901
252.6017	0.182
252.8166	0.1778
253.0314	0.182
253.2462	0.1763
253.461	0.2009
253.6758	0.1846
253.8906	0.182
254.1053	0.1761
254.3201	0.1764
254.5348	0.1886
254.7496	0.1853
254.9643	0.1684
255.179	0.1725
255.3937	0.1727
255.6083	0.18
255.823	0.163
256.0377	0.1677
256.2523	0.1803
256.467	0.16
256.6816	0.1863
256.8962	0.1714
257.1108	0.1655
257.3254	0.1782
257.54	0.1628
257.7545	0.1676
257.9691	0.1715
258.1836	0.1691
258.3981	0.1776
258.6127	0.1772
258.8272	0.1602
259.0417	0.1732
259.2561	0.1612
259.4706	0.1743
259.6851	0.172
259.8995	0.1766
260.114	0.172
260.3284	0.1684
260.5428	0.1538
260.7572	0.1718
260.9716	0.1774
261.186	0.1627
261.4003	0.1732
261.6147	0.1776
261.829	0.1803
262.0433	0.1687
262.2577	0.1658
262.472	0.161
262.6863	0.1601
262.9005	0.173
263.1148	0.1637
263.3291	0.1577
263.5433	0.1706
263.7576	0.1764
263.9718	0.1556
264.186	0.1704
264.4002	0.1651
264.6144	0.1599
264.8286	0.1716
265.0427	0.1661
265.2569	0.1661
265.471	0.1668
265.6851	0.1575
265.8993	0.1623
266.1134	0.1729
266.3275	0.1734
266.5415	0.1582
266.7556	0.1758
266.9697	0.1719
267.1837	0.1697
267.3978	0.1809
267.6118	0.173
267.8258	0.1765
268.0398	0.1603
268.2538	0.1769
268.4677	0.1767
268.6817	0.1638
268.8957	0.1749
269.1096	0.1813
269.3235	0.1862
269.5374	0.157
269.7514	0.1748
269.9652	0.1692
270.1791	0.1627
270.393	0.1564
270.6068	0.1739
270.8207	0.1561
271.0345	0.1661
271.2483	0.1781
271.4622	0.1568
271.676	0.1665
271.8897	0.1572
272.1035	0.1561
272.3173	0.1588
272.531	0.1649
272.7448	0.1519
272.9585	0.1475
273.1722	0.1618
273.3859	0.1535
273.5996	0.1453
273.8133	0.165
274.0269	0.1743
274.2406	0.1568
274.4542	0.1577
274.6679	0.1548
274.8815	0.1675
275.0951	0.1508
275.3087	0.1743
275.5223	0.1697
275.7358	0.183
275.9494	0.1682
276.1629	0.1636
276.3765	0.1588
276.59	0.1622
276.8035	0.1728
277.017	0.165
277.2305	0.1659
277.444	0.1769
277.6574	0.1583
277.8709	0.1653
278.0843	0.1554
278.2978	0.1531
278.5112	0.1523
278.7246	0.1675
278.938	0.1706
279.1513	0.1644
279.3647	0.1822
279.5781	0.1609
279.7914	0.1645
280.0047	0.188
280.2181	0.161
280.4314	0.174
280.6447	0.1758
280.8579	0.1747
281.0712	0.18
281.2845	0.1833
281.4977	0.166
281.711	0.1582
281.9242	0.1632
282.1374	0.1809
282.3506	0.1574
282.5638	0.1736
282.7769	0.1638
282.9901	0.162
283.2033	0.1663
283.4164	0.176
283.6295	0.1589
283.8426	0.1564
284.0557	0.1716
284.2688	0.1676
284.4819	0.168
284.695	0.1769
284.908	0.167
285.1211	0.1548
285.3341	0.1624
285.5471	0.1627
285.7601	0.1581
285.9731	0.1498
286.1861	0.1524
286.3991	0.1759
286.612	0.1718
286.825	0.1663
287.0379	0.1782
287.2508	0.1671
287.4637	0.168
287.6766	0.1626
287.8895	0.1685
288.1024	0.1799
288.3152	0.163
288.5281	0.1583
288.7409	0.1531
288.9538	0.1626
289.1666	0.1617
289.3794	0.1522
289.5922	0.1554
289.8049	0.1644
290.0177	0.1576
290.2304	0.1772
290.4432	0.1631
290.6559	0.1589
290.8686	0.1674
291.0813	0.1562
291.294	0.1556
291.5067	0.1594
291.7194	0.161
291.932	0.1665
292.1447	0.165
292.3573	0.1506
292.5699	0.1609
292.7825	0.1517
292.9951	0.1576
293.2077	0.1598
293.4203	0.1525
293.6328	0.1499
293.8454	0.1489
294.0579	0.1527
294.2704	0.1603
294.4829	0.1395
294.6954	0.1558
294.9079	0.1517
295.1204	0.1514
295.3328	0.1539
295.5453	0.1583
295.7577	0.1566
295.9701	0.1517
296.1825	0.1521
296.3949	0.149
296.6073	0.1586
296.8197	0.1464
297.0321	0.1617
297.2444	0.1358
297.4567	0.1576
297.6691	0.1553
297.8814	0.1451
298.0937	0.1471
298.306	0.156
298.5182	0.1506
298.7305	0.1622
298.9428	0.1456
299.155	0.16
299.3672	0.1553
299.5794	0.1542
299.7916	0.1467
300.0038	0.1614
300.216	0.1573
300.4282	0.1566
300.6403	0.1464
300.8525	0.1575
301.0646	0.1508
301.2767	0.1591
301.4888	0.1564
301.7009	0.1582
301.913	0.1494
302.125	0.1559
302.3371	0.1494
302.5491	0.1562
302.7612	0.1563
302.9732	0.1532
303.1852	0.1555
303.3972	0.1461
303.6092	0.1568
303.8211	0.142
304.0331	0.1452
304.245	0.1471
304.457	0.1479
304.6689	0.1345
304.8808	0.1526
305.0927	0.1408
305.3046	0.1322
305.5164	0.1436
305.7283	0.1283
305.9401	0.1363
306.152	0.1425
306.3638	0.1383
306.5756	0.1379
306.7874	0.1366
306.9992	0.1489
307.2109	0.1323
307.4227	0.1256
307.6344	0.1316
307.8462	0.132
308.0579	0.1255
308.2696	0.1315
308.4813	0.1292
308.693	0.129
308.9046	0.1289
309.1163	0.1196
309.328	0.1245
309.5396	0.1287
309.7512	0.127
309.9628	0.1176
310.1744	0.1162
310.386	0.1112
310.5976	0.1234
310.8091	0.1169
311.0207	0.1077
311.2322	0.1212
311.4437	0.1156
311.6552	0.1196
311.8667	0.1241
312.0782	0.1117
312.2897	0.1053
312.5012	0.1219
312.7126	0.1045
312.924	0.1166
313.1355	0.1256
313.3469	0.1146
313.5583	0.1201
313.7696	0.1046
313.981	0.1188
314.1924	0.105
314.4037	0.1193
314.6151	0.1129
314.8264	0.1076
315.0377	0.1096
315.249	0.1076
315.4603	0.118
315.6716	0.1125
315.8828	0.1028
316.0941	0.1177
316.3053	0.1028
316.5165	0.102
316.7277	0.1037
316.9389	0.1213
317.1501	0.0957
317.3613	0.1125
317.5724	0.093
317.7836	0.1206
317.9947	0.1005
318.2058	0.0989
318.417	0.0995
318.6281	0.106
318.8391	0.108
319.0502	0.1039
319.2613	0.1026
319.4723	0.1117
319.6834	0.1078
319.8944	0.1039
320.1054	0.1067
320.3164	0.1108
320.5274	0.0983
320.7383	0.103
320.9493	0.1136
321.1602	0.1175
321.3712	0.1021
321.5821	0.1021
321.793	0.1238
322.0039	0.1121
322.2148	0.1024
322.4257	0.1048
322.6365	0.1182
322.8474	0.1181
323.0582	0.1076
323.269	0.1186
323.4798	0.1211
323.6906	0.1123
323.9014	0.1128
324.1122	0.1102
324.3229	0.1077
324.5337	0.1146
324.7444	0.1001
324.9551	0.1276
325.1658	0.1214
325.3765	0.1081
325.5872	0.1157
325.7979	0.1302
326.0085	0.1175
326.2192	0.1182
326.4298	0.1225
326.6404	0.1033
326.851	0.0955
327.0616	0.111
327.2722	0.1276
327.4828	0.1311
327.6933	0.1202
327.9039	0.1221
328.1144	0.1271
328.3249	0.115
328.5354	0.1143
328.7459	0.1121
328.9564	0.1105
329.1669	0.1205
329.3773	0.1107
329.5878	0.1184
329.7982	0.1079
330.0086	0.1171
330.219	0.1234
330.4294	0.1112
330.6398	0.1117
330.8502	0.1152
331.0605	0.1195
331.2708	0.1171
331.4812	0.1347
331.6915	0.1242
331.9018	0.1262
332.1121	0.1197
332.3224	0.119
332.5326	0.1365
332.7429	0.1144
332.9531	0.1279
333.1633	0.1192
333.3735	0.1152
333.5837	0.1216
333.7939	0.1183
334.0041	0.1276
334.2143	0.1312
334.4244	0.1127
334.6346	0.1029
334.8447	0.1309
335.0548	0.113
335.2649	0.1144
335.475	0.1303
335.685	0.1073
335.8951	0.1172
336.1051	0.1271
336.3152	0.131
336.5252	0.1097
336.7352	0.1346
336.9452	0.1177
337.1552	0.1252
337.3652	0.1239
337.5751	0.1312
337.7851	0.1123
337.995	0.1106
338.2049	0.1317
338.4148	0.1279
338.6247	0.1138
338.8346	0.1215
339.0445	0.1262
339.2543	0.1257
339.4642	0.128
339.674	0.1005
339.8838	0.1266
340.0936	0.117
340.3034	0.1317
340.5132	0.1285
340.7229	0.1423
340.9327	0.1228
341.1424	0.129
341.3522	0.1419
341.5619	0.1288
341.7716	0.1337
341.9813	0.1347
342.1909	0.1315
342.4006	0.1406
342.6102	0.1391
342.8199	0.1332
343.0295	0.1375
343.2391	0.1424
343.4487	0.1394
343.6583	0.1235
343.8679	0.1385
344.0774	0.1294
344.287	0.1407
344.4965	0.1325
344.706	0.1364
344.9155	0.1529
345.125	0.1381
345.3345	0.1475
345.544	0.1246
345.7534	0.1322
345.9629	0.1235
346.1723	0.143
346.3817	0.1386
346.5911	0.145
346.8005	0.1444
347.0099	0.1402
347.2193	0.1485
347.4286	0.14
347.638	0.1555
347.8473	0.148
348.0566	0.1475
348.2659	0.1509
348.4752	0.1378
348.6845	0.1391
348.8937	0.1434
349.103	0.1547
349.3122	0.1391
349.5214	0.143
349.7306	0.1452
349.9398	0.1356
350.149	0.1436
350.3582	0.1421
350.5674	0.1577
350.7765	0.1441
350.9856	0.1512
351.1948	0.1507
351.4039	0.1383
351.613	0.1446
351.822	0.1492
352.0311	0.1467
352.2402	0.1518
352.4492	0.1574
352.6582	0.1431
352.8672	0.1579
353.0762	0.1402
353.2852	0.1534
353.4942	0.1438
353.7032	0.1662
353.9121	0.1505
354.1211	0.1528
354.33	0.1493
354.5389	0.1715
354.7478	0.1578
354.9567	0.16
355.1655	0.1529
355.3744	0.1378
355.5833	0.1598
355.7921	0.1782
356.0009	0.1532
356.2097	0.1659
356.4185	0.1773
356.6273	0.1749
356.8361	0.1601
357.0448	0.169
357.2536	0.1461
357.4623	0.1458
357.671	0.159
357.8797	0.1678
358.0884	0.1662
358.2971	0.1573
358.5057	0.1753
358.7144	0.1655
358.923	0.1628
359.1316	0.1627
359.3402	0.1612
359.5488	0.1705
359.7574	0.1605
359.966	0.1768
360.1746	0.1721
360.3831	0.1787
360.5916	0.1652
360.8002	0.1638
361.0087	0.1867
361.2172	0.1788
361.4256	0.1795
361.6341	0.1836
361.8426	0.164
362.051	0.1807
362.2594	0.1764
362.4678	0.1782
362.6762	0.1921
362.8846	0.1894
363.093	0.1859
363.3014	0.1747
363.5097	0.1605
363.718	0.19
363.9264	0.1789
364.1347	0.1666
364.343	0.1922
364.5513	0.2095
364.7595	0.1841
364.9678	0.1807
365.176	0.1832
365.3842	0.1741
365.5925	0.1804
365.8007	0.1779
366.0089	0.1773
366.217	0.1688
366.4252	0.1831
366.6333	0.2106
366.8415	0.1941
367.0496	0.1748
367.2577	0.2022
367.4658	0.2073
367.6739	0.196
367.882	0.1981
368.09	0.1733
368.2981	0.1948
368.5061	0.1944
368.7141	0.2015
368.9221	0.2096
369.1301	0.198
369.3381	0.1829
369.5461	0.1959
369.754	0.1966
369.962	0.1901
370.1699	0.2039
370.3778	0.2072
370.5857	0.1964
370.7936	0.1906
371.0015	0.2013
371.2093	0.1965
371.4172	0.2042
371.625	0.19
371.8328	0.1962
372.0406	0.1907
372.2484	0.1907
372.4562	0.1958
372.664	0.2081
372.8717	0.2124
373.0795	0.192
373.2872	0.1957
373.4949	0.1989
373.7026	0.1958
373.9103	0.224
374.118	0.2016
374.3256	0.1984
374.5333	0.198
374.7409	0.1992
374.9485	0.2214
375.1561	0.2006
375.3637	0.2207
375.5713	0.2165
375.7789	0.1999
375.9864	0.2014
376.194	0.1912
376.4015	0.2062
376.609	0.2149
376.8165	0.2035
377.024	0.211
377.2315	0.2081
377.4389	0.2107
377.6464	0.2079
377.8538	0.2304
378.0612	0.2116
378.2686	0.2135
378.476	0.2267
378.6834	0.2127
378.8908	0.2236
379.0981	0.2092
379.3055	0.209
379.5128	0.21
379.7201	0.2193
379.9274	0.2039
380.1347	0.2055
380.342	0.2188
380.5492	0.2173
380.7565	0.2147
380.9637	0.2123
381.1709	0.2171
381.3781	0.2067
381.5853	0.2238
381.7925	0.2112
381.9997	0.2066
382.2068	0.2372
382.4139	0.2347
382.6211	0.2024
382.8282	0.218
383.0353	0.2122
383.2424	0.2091
383.4494	0.2328
383.6565	0.2064
383.8635	0.2179
384.0706	0.2359
384.2776	0.213
384.4846	0.2008
384.6916	0.2286
384.8986	0.2152
385.1055	0.2188
385.3125	0.234
385.5194	0.2158
385.7263	0.2176
385.9333	0.2212
386.1402	0.2169
386.347	0.2196
386.5539	0.2137
386.7608	0.2097
386.9676	0.1846
387.1744	0.2177
387.3813	0.2076
387.5881	0.2182
387.7948	0.2093
388.0016	0.2101
388.2084	0.2219
388.4151	0.2026
388.6219	0.2212
388.8286	0.2199
389.0353	0.2177
389.242	0.2104
389.4487	0.2074
389.6553	0.2145
389.862	0.1871
390.0686	0.208
390.2753	0.2181
390.4819	0.1978
390.6885	0.2073
390.8951	0.2005
391.1016	0.2042
391.3082	0.1956
391.5147	0.2105
391.7213	0.1983
391.9278	0.1964
392.1343	0.2084
392.3408	0.2042
392.5473	0.2001
392.7537	0.1864
392.9602	0.2037
393.1666	0.194
393.373	0.1971
393.5794	0.1866
393.7858	0.1806
393.9922	0.1793
394.1986	0.21
394.4049	0.1888
394.6113	0.1755
394.8176	0.1666
395.0239	0.1755
395.2302	0.193
395.4365	0.1777
395.6428	0.1866
395.8491	0.1715
396.0553	0.2114
396.2615	0.183
396.4678	0.1831
396.674	0.178
396.8802	0.1963
397.0863	0.2078
397.2925	0.1787
397.4987	0.1596
397.7048	0.1701
397.9109	0.176
398.117	0.1672
398.3231	0.1652
398.5292	0.1985
398.7353	0.1931
398.9413	0.1723
399.1474	0.1773
399.3534	0.1788
399.5594	0.1521
399.7654	0.1874
399.9714	0.1866
400.1774	0.1774
400.3833	0.1711
400.5893	0.1769
400.7952	0.166
401.0011	0.1776
401.207	0.1749
401.4129	0.1741
401.6188	0.1827
401.8247	0.1903
402.0305	0.1647
402.2364	0.1602
402.4422	0.1913
402.648	0.1702
402.8538	0.172
403.0596	0.1781
403.2654	0.1731
403.4711	0.1753
403.6768	0.1787
403.8826	0.1806
404.0883	0.1865
404.294	0.182
404.4997	0.1872
404.7054	0.1767
404.911	0.1799
405.1167	0.1802
405.3223	0.1801
405.5279	0.1868
405.7335	0.1875
405.9391	0.1798
406.1447	0.1719
406.3502	0.1967
406.5558	0.171
406.7613	0.1842
406.9668	0.1858
407.1724	0.1743
407.3778	0.1502
407.5833	0.1578
407.7888	0.1812
407.9942	0.1802
408.1997	0.1822
408.4051	0.1624
408.6105	0.1719
408.8159	0.1665
409.0213	0.1729
409.2267	0.1797
409.432	0.1532
409.6374	0.1661
409.8427	0.1709
410.048	0.1681
410.2533	0.1754
410.4586	0.1742
410.6639	0.147
410.8691	0.1747
411.0744	0.1592
411.2796	0.1642
411.4848	0.1698
411.69	0.1584
411.8952	0.1994
412.1004	0.1494
412.3056	0.1707
412.5107	0.1561
412.7158	0.1875
412.921	0.16
413.1261	0.1772
413.3312	0.1527
413.5362	0.1591
413.7413	0.1704
413.9464	0.1553
414.1514	0.1746
414.3564	0.1878
414.5614	0.1568
414.7664	0.1616
414.9714	0.1564
415.1764	0.1567
415.3813	0.1601
415.5863	0.1807
415.7912	0.1728
415.9961	0.1622
416.201	0.1864
416.4059	0.1815
416.6108	0.1488
416.8156	0.175
417.0205	0.1704
417.2253	0.1529
417.4301	0.1561
417.6349	0.1776
417.8397	0.161
418.0445	0.1726
418.2492	0.16
418.454	0.1702
418.6587	0.1674
418.8634	0.1602
419.0681	0.1535
419.2728	0.1471
419.4775	0.1527
419.6822	0.1558
419.8868	0.1457
420.0915	0.1629
420.2961	0.1428
420.5007	0.1387
420.7053	0.1583
420.9099	0.1492
421.1144	0.1505
421.319	0.1385
421.5235	0.1575
421.728	0.144
421.9325	0.1451
422.137	0.1533
422.3415	0.1511
422.546	0.1512
422.7504	0.1507
422.9549	0.1482
423.1593	0.157
423.3637	0.1616
423.5681	0.1436
423.7725	0.1313
423.9769	0.1318
424.1812	0.1285
424.3856	0.1362
424.5899	0.1271
424.7942	0.1526
424.9985	0.142
425.2028	0.1327
425.4071	0.1471
425.6113	0.1202
425.8156	0.1455
426.0198	0.1446
426.224	0.1213
426.4282	0.1353
426.6324	0.1363
426.8366	0.1447
427.0407	0.1344
427.2449	0.1417
427.449	0.1411
427.6531	0.1084
427.8572	0.1269
428.0613	0.1221
428.2654	0.1095
428.4694	0.1332
428.6735	0.1282
428.8775	0.1457
429.0815	0.1422
429.2855	0.1174
429.4895	0.13
429.6935	0.1158
429.8975	0.1271
430.1014	0.1074
430.3053	0.0968
430.5093	0.1055
430.7132	0.1067
430.9171	0.1218
431.1209	0.11
431.3248	0.1114
431.5286	0.1114
431.7325	0.098
431.9363	0.0983
432.1401	0.1149
432.3439	0.0897
432.5477	0.1049
432.7514	0.0992
432.9552	0.1008
433.1589	0.0884
433.3627	0.0925
433.5664	0.0952
433.7701	0.108
433.9737	0.0973
434.1774	0.0914
434.3811	0.083
434.5847	0.0987
434.7883	0.0906
434.9919	0.0809
435.1955	0.0897
435.3991	0.0879
435.6027	0.0826
435.8062	0.0819
436.0098	0.0792
436.2133	0.0837
436.4168	0.0816
436.6203	0.0763
436.8238	0.0798
437.0272	0.0824
437.2307	0.0787
437.4341	0.0894
437.6375	0.0848
437.841	0.0569
438.0443	0.0802
438.2477	0.0856
438.4511	0.0626
438.6545	0.07
438.8578	0.0806
439.0611	0.0851
439.2644	0.0872
439.4677	0.0512
439.671	0.0538
439.8743	0.0682
440.0775	0.0781
440.2808	0.067
440.484	0.0531
440.6872	0.0405
440.8904	0.0586
441.0936	0.0721
441.2967	0.0639
441.4999	0.0507
441.703	0.0486
441.9062	0.0541
442.1093	0.0618
442.3124	0.0532
442.5155	0.043
442.7185	0.0486
442.9216	0.0272
443.1246	0.0597
443.3276	0.0447
443.5307	0.0409
443.7337	0.0508
443.9366	0.0371
444.1396	0.0412
444.3426	0.0378
444.5455	0.0452
444.7484	0.0332
444.9513	0.0311
445.1542	0.0438
445.3571	0.0366
445.56	0.0437
445.7628	0.0338
445.9657	0.0327
446.1685	0.0523
446.3713	0.0325
446.5741	0.0404
446.7769	0.035
446.9797	0.025
447.1824	0.0358
447.3852	0.0247
447.5879	0.0441
447.7906	0.0396
447.9933	0.0285
448.196	0.0358
448.3986	0.0268
448.6013	0.0282
448.8039	0.0084
449.0066	0.0305
449.2092	0.0387
449.4118	0.0172
449.6143	0.0215
449.8169	0.0316
450.0195	0.0184
450.222	0.0013
450.4245	0.0125
450.627	0.0275
450.8295	0.0162
451.032	0.0172
451.2345	0.0226
451.4369	0.0245
451.6394	0.0211
451.8418	0.0005
452.0442	0.0011
452.2466	0.0285
452.449	0.0119
452.6513	0.0235
452.8537	0.0116
453.056	0.0063
453.2583	0.0167
453.4607	0.0102
453.663	-0.002
453.8652	0.0225
454.0675	0.0067
454.2697	0.0045
454.472	0.0035
454.6742	0.0206
454.8764	0.0151
455.0786	0.0027
455.2808	0.0173
455.4829	-0.0006
455.6851	0.0165
455.8872	0.015
456.0893	0.0319
456.2915	-0.0023
456.4935	0.017
456.6956	0.019
456.8977	0.0136
457.0997	0.0069
457.3018	-0.005
457.5038	0.0104
457.7058	0.0016
457.9078	0.0105
458.1098	0.0179
458.3117	0.0105
458.5137	0.0063
458.7156	0.0099
458.9175	0.0049
459.1194	0.0041
459.3213	0.0153
459.5232	0.0048
459.725	-0.01
459.9269	-0.0026
460.1287	-0.0062
460.3305	0.0019
460.5323	-0.0001
460.7341	0.006
460.9359	-0.0089
461.1376	-0.002
461.3394	-0.006
461.5411	-0.0075
461.7428	-0.0079
461.9445	0.0106
462.1462	0.0169
462.3479	-0.0156
462.5495	-0.0007
462.7512	0.0025
462.9528	-0.0014
463.1544	-0.0089
463.356	-0.0105
463.5576	0.0083
463.7592	-0.0073
463.9607	0.0104
464.1623	0.018
464.3638	0.0302
464.5653	-0.0058
464.7668	-0.0043
464.9683	-0.0023
465.1697	0.0103
465.3712	-0.0163
465.5726	-0.0187
465.7741	-0.0045
465.9755	-0.0172
466.1769	-0.0043
466.3782	-0.0134
466.5796	-0.0088
466.7809	0.0129
466.9823	0.0026
467.1836	-0.0144
467.3849	-0.0078
467.5862	0.0056
467.7875	-0.0061
467.9887	0.02
468.19	-0.0084
468.3912	-0.0078
468.5924	-0.0033
468.7936	-0.0183
468.9948	0
469.196	0.0028
469.3972	-0.0152
469.5983	0.0041
469.7994	-0.0178
470.0006	0.0113
470.2017	-0.0074
470.4027	-0.0087
470.6038	0.0026
470.8049	-0.0271
471.0059	-0.0238
471.2069	-0.0298
471.408	-0.0053
471.6089	0.0075
471.8099	-0.0065
472.0109	-0.0005
472.2119	-0.0066
472.4128	-0.0201
472.6137	-0.0021
472.8146	-0.0203
473.0155	-0.015
473.2164	-0.0007
473.4173	0.0027
473.6181	-0.0083
473.819	0.0172
474.0198	-0.0093
474.2206	-0.0084
474.4214	-0.0262
474.6222	-0.0048
474.8229	-0.0081
475.0237	-0.0218
475.2244	-0.0171
475.4251	-0.0061
475.6258	-0.0064
475.8265	-0.0033
476.0272	0.0088
476.2278	-0.0081
476.4285	-0.0021
476.6291	-0.0205
476.8297	-0.0148
477.0303	-0.0095
477.2309	0.0004
477.4315	-0.0196
477.632	-0.0071
477.8326	-0.0079
478.0331	-0.0054
478.2336	-0.0023
478.4341	-0.0045
478.6346	-0.0038
478.8351	-0.0156
479.0355	-0.0089
479.236	-0.0196
479.4364	0.0018
479.6368	-0.0142
479.8372	-0.0116
480.0376	0.003
480.2379	-0.0284
480.4383	-0.0045
480.6386	0.0097
480.8389	-0.0018
481.0392	-0.0108
481.2395	-0.0028
481.4398	0.0087
481.6401	0.0023
481.8403	-0.0048
482.0405	-0.0126
482.2408	-0.0054
482.441	0.0018
482.6411	-0.0098
482.8413	0.0014
483.0415	-0.0085
483.2416	-0.0123
483.4417	-0.0082
483.6419	-0.0074
483.8419	-0.0127
484.042	0.0038
484.2421	0.007
484.4422	-0.007
484.6422	-0.0044
484.8422	-0.0064
485.0422	-0.0058
485.2422	-0.0086
485.4422	-0.0085
485.6422	-0.0132
485.8421	-0.0037
486.042	-0.0057
486.242	-0.0126
486.4419	-0.0141
486.6417	-0.0135
486.8416	-0.001
487.0415	-0.014
487.2413	-0.002
487.4411	-0.0039
487.641	-0.0106
487.8408	-0.0062
488.0405	-0.011
488.2403	-0.0147
488.4401	-0.0033
488.6398	-0.0034
488.8395	-0.0164
489.0392	-0.01
489.2389	-0.0071
489.4386	-0.0114
489.6383	-0.0146
489.8379	0.0038
490.0376	-0.0064
490.2372	-0.0102
490.4368	-0.0116
490.6364	-0.0034
490.836	-0.0052
491.0355	-0.0008
491.2351	-0.0167
491.4346	-0.0027
491.6341	-0.0231
491.8336	-0.003
492.0331	-0.0217
492.2326	-0.0198
492.432	-0.0047
492.6315	-0.0055
492.8309	-0.0162
493.0303	-0.0144
493.2297	-0.0098
493.4291	-0.0108
493.6284	-0.0052
493.8278	-0.0038
494.0271	0.0091
494.2264	-0.0088
494.4257	-0.019
494.625	-0.017
494.8243	-0.0302
495.0236	-0.0079
495.2228	-0.0191
495.422	-0.0053
495.6213	-0.0149
495.8205	-0.0062
496.0196	-0.0068
496.2188	0.002
496.418	-0.013
496.6171	-0.0099
496.8162	-0.0227
497.0153	-0.0071
497.2144	-0.0122
497.4135	-0.0099
497.6126	-0.0145
497.8116	-0.0074
498.0107	-0.0052
498.2097	-0.0175
498.4087	-0.0014
498.6077	-0.0061
498.8067	-0.0054
499.0056	-0.0049
499.2046	-0.0123
499.4035	-0.0225
499.6024	-0.0112
499.8013	-0.0025
500.0002	-0.0057
500.199	-0.0112
500.3979	-0.0121
500.5967	-0.0158
500.7956	0.0019
500.9944	-0.0083
501.1932	-0.0144
501.3919	-0.0202
501.5907	-0.0139
501.7895	-0.0084
501.9882	-0.0174
502.1869	-0.0098
502.3856	-0.0087
502.5843	-0.0082
502.783	-0.012
502.9816	-0.0148
503.1803	-0.027
503.3789	-0.0123
503.5775	-0.0009
503.7761	-0.0126
503.9747	-0.0147
504.1732	-0.0117
504.3718	-0.0059
504.5703	-0.0003
504.7689	-0.0103
504.9674	-0.0168
505.1658	-0.0108
505.3643	-0.0105
505.5628	-0.0144
505.7612	-0.0107
505.9597	-0.0122
506.1581	-0.0148
506.3565	-0.0048
506.5549	-0.0057
506.7532	-0.0177
506.9516	-0.0098
507.1499	-0.0029
507.3482	-0.0179
507.5465	-0.0194
507.7448	-0.0053
507.9431	-0.0139
508.1414	-0.0048
508.3396	-0.008
508.5379	-0.0034
508.7361	-0.013
508.9343	-0.0062
509.1325	0.0091
509.3306	-0.008
509.5288	-0.0063
509.7269	-0.0116
509.9251	-0.0024
510.1232	-0.0127
510.3213	-0.0063
510.5193	-0.0031
510.7174	-0.0067
510.9154	-0.0205
511.1135	-0.0237
511.3115	-0.0075
511.5095	-0.0023
511.7075	-0.0034
511.9055	-0.0116
512.1034	-0.0142
512.3014	-0.0083
512.4993	0.0023
512.6972	-0.024
512.8951	-0.0269
513.093	-0.0104
513.2908	0.0027
513.4887	-0.0126
513.6865	-0.0111
513.8844	-0.0197
514.0822	-0.0238
514.2799	-0.0136
514.4777	-0.0158
514.6755	-0.0158
514.8732	-0.0111
515.0709	-0.0133
515.2687	-0.0071
515.4664	-0.0081
515.664	-0.0128
515.8617	-0.0182
516.0594	-0.013
516.257	-0.0157
516.4546	-0.0191
516.6522	-0.0021
516.8498	-0.01
517.0474	-0.004
517.2449	-0.0093
517.4425	-0.014
517.64	-0.0093
517.8375	-0.0101
518.035	-0.0036
518.2325	-0.0126
518.43	-0.0088
518.6274	-0.0129
518.8249	-0.0192
519.0223	-0.0014
519.2197	-0.0041
519.4171	-0.0072
519.6145	-0.0135
519.8118	0.0109
520.0092	-0.024
520.2065	-0.0181
520.4038	-0.0241
520.6011	-0.0121
520.7984	-0.0174
520.9956	-0.0017
521.1929	-0.0143
521.3901	-0.0089
521.5874	-0.0085
521.7846	-0.0034
521.9818	-0.0128
522.1789	-0.0076
522.3761	-0.0132
522.5732	-0.0094
522.7704	-0.0037
522.9675	-0.0075
523.1646	-0.0139
523.3617	-0.0068
523.5587	0.0027
523.7558	-0.0023
523.9528	-0.0088
524.1498	-0.0105
524.3468	-0.0089
524.5438	-0.0145
524.7408	-0.0085
524.9378	0.0027
525.1347	-0.0096
525.3316	-0.0083
525.5285	-0.0117
525.7254	-0.0086
525.9223	-0.0053
526.1192	-0.0075
526.316	-0.0228
526.5129	-0.0021
526.7097	-0.0066
526.9065	-0.0083
527.1033	-0.0108
527.3	-0.0005
527.4968	-0.001
527.6935	-0.0099
527.8903	-0.019
528.087	-0.0114
528.2837	-0.0117
528.4804	-0.0066
528.677	-0.0112
528.8737	0.0081
529.0703	-0.0055
529.2669	0.0055
529.4635	-0.0065
529.6601	0.0004
529.8567	-0.0056
530.0532	-0.0037
530.2498	0.0021
530.4463	-0.0017
530.6428	-0.0068
530.8393	0.0015
531.0358	-0.0122
531.2322	-0.0069
531.4287	-0.0073
531.6251	-0.0162
531.8215	-0.0004
532.0179	-0.0122
532.2143	-0.0034
532.4107	-0.0031
532.607	-0.0053
532.8034	-0.0007
532.9997	-0.0051
533.196	-0.0007
533.3923	-0.0059
533.5886	-0.0067
533.7848	-0.0023
533.9811	-0.005
534.1773	0.0008
534.3735	-0.0044
534.5697	-0.0039
534.7659	-0.0025
534.9621	0.0014
535.1582	-0.0074
535.3544	-0.0106
535.5505	-0.0048
535.7466	-0.0045
535.9427	-0.0118
536.1387	-0.0112
536.3348	-0.0004
536.5308	-0.0027
536.7269	-0.0284
536.9229	-0.004
537.1189	-0.0118
537.3148	-0.0055
537.5108	-0.0093
537.7068	-0.0076
537.9027	-0.0038
538.0986	-0.0029
538.2945	-0.0064
538.4904	-0.0107
538.6863	-0.0069
538.8821	-0.0117
539.078	-0.0078
539.2738	-0.0059
539.4696	-0.007
539.6654	0
539.8611	0.0056
540.0569	-0.0048
540.2526	-0.0031
540.4484	-0.0078
540.6441	-0.0013
540.8398	-0.0094
541.0355	-0.0036
541.2311	-0.0064
541.4268	-0.008
541.6224	-0.0057
541.818	-0.0027
542.0136	-0.0039
542.2092	0.0028
542.4048	0.0019
542.6003	-0.0022
542.7959	-0.0073
542.9914	-0.0147
543.1869	0.0061
543.3824	-0.0081
543.5779	-0.0059
543.7734	-0.0048
543.9688	-0.0137
544.1642	0.0076
544.3596	0.002
544.555	-0.0022
544.7504	-0.0132
544.9458	-0.0033
545.1411	-0.0087
545.3365	-0.0006
545.5318	-0.0053
545.7271	-0.0086
545.9224	-0.0098
546.1177	-0.0006
546.3129	-0.0004
546.5081	-0.008
546.7034	-0.0066
546.8986	-0.0063
547.0938	-0.0093
547.289	-0.0072
547.4841	-0.0059
547.6793	0.0004
547.8744	-0.0096
548.0695	0.0019
548.2646	-0.0139
548.4597	0.0025
548.6548	-0.0065
548.8498	-0.0002
549.0448	0.0054
549.2399	-0.0133
549.4349	0.0047
549.6298	-0.001
549.8248	-0.002
550.0198	0.0006
550.2147	-0.0083
550.4096	-0.0094
550.6045	-0.0037
550.7994	0.0043
550.9943	0.0007
551.1892	-0.0013
551.384	0.0024
551.5788	-0.006
551.7737	0.0001
551.9685	-0.0019
552.1632	0.0037
552.358	-0.0202
552.5528	-0.0039
552.7475	-0.0082
552.9422	-0.0032
553.1369	-0.002
553.3316	-0.0094
553.5263	-0.0155
553.7209	0.0093
553.9156	-0.0063
554.1102	-0.0079
554.3048	-0.002
554.4994	0.0103
554.694	-0.0052
554.8885	0.0041
555.0831	-0.0112
555.2776	-0.0121
555.4721	0.0009
555.6666	-0.0033
555.8611	0.003
556.0555	-0.0013
556.25	-0.0029
556.4444	-0.0066
556.6388	0.0018
556.8332	-0.0045
557.0276	0.0006
557.222	0.0033
557.4163	0.0021
557.6107	-0.0087
557.805	0.0066
557.9993	-0.0065
558.1936	-0.0031
558.3879	-0.0023
558.5821	0.0078
558.7764	0.0027
558.9706	0.0043
559.1648	0
559.359	0.0044
559.5532	-0.0006
559.7473	-0.003
559.9415	0.001
560.1356	-0.007
560.3297	-0.0081
560.5238	-0.0065
560.7179	-0.0036
560.9119	-0.0113
561.106	-0.0035
561.3	-0.008
561.494	0.0031
561.688	0
561.882	-0.0143
562.076	-0.0071
562.2699	0.0025
562.4639	0.0022
562.6578	0.0033
562.8517	0.0015
563.0456	0.0014
563.2395	0.0013
563.4333	0.0033
563.6272	0.0113
563.821	-0.0062
564.0148	-0.0017
564.2086	-0.004
564.4024	-0.0056
564.5961	-0.0064
564.7899	0.0025
564.9836	-0.0017
565.1773	0.0015
565.371	0.0059
565.5647	0.0078
565.7584	0.0005
565.952	-0.0075
566.1456	0.0016
566.3393	0.0011
566.5329	-0.0046
566.7264	0.0002
566.92	-0.0053
567.1136	-0.0022
567.3071	-0.0069
567.5006	0.0007
567.6941	0.0069
567.8876	-0.0012
568.0811	-0.0062
568.2745	0.0029
568.468	0.0057
568.6614	-0.003
568.8548	0.0025
569.0482	-0.0012
569.2416	0.0009
569.4349	-0.0026
569.6283	0.0021
569.8216	-0.0021
570.0149	-0.0089
570.2082	0.0035
570.4015	0.0043
570.5947	0.0046
570.788	0.0006
570.9812	-0.0011
571.1744	-0.004
571.3676	-0.007
571.5608	-0.0043
571.754	-0.0022
571.9471	0.0003
572.1402	-0.0006
572.3333	-0.0005
572.5264	-0.0022
572.7195	0.0004
572.9126	-0.0073
573.1057	0.0004
573.2987	-0.0063
573.4917	0.0055
573.6847	-0.0115
573.8777	0.0043
574.0707	0.0027
574.2636	-0.0024
574.4566	0.0039
574.6495	0.0017
574.8424	-0.0054
575.0353	-0.0062
575.2281	0.0082
575.421	0.0002
575.6138	-0.0047
575.8067	-0.0004
575.9995	-0.0051
576.1923	0.0034
576.385	0.0011
576.5778	-0.0065
576.7706	-0.0009
576.9633	0.0026
577.156	-0.0047
577.3487	0.0022
577.5414	-0.0031
577.734	-0.0144
577.9267	-0.0059
578.1193	-0.0157
578.3119	-0.0054
578.5045	-0.0065
578.6971	-0.0046
578.8897	0.0042
579.0822	0.0004
579.2747	0.0038
579.4673	-0.0044
579.6598	-0.0023
579.8522	-0.0041
580.0447	-0.0063
580.2372	-0.0022
580.4296	0.0024
580.622	-0.0039
580.8144	-0.0053
581.0068	-0.0033
581.1992	-0.0119
581.3915	-0.0099
581.5839	-0.0056
581.7762	-0.0084
581.9685	-0.0058
582.1608	0.0015
582.353	-0.0052
582.5453	-0.0083
582.7375	-0.0072
582.9298	0.0008
583.122	-0.0001
583.3142	-0.0008
583.5063	-0.0119
583.6985	-0.0046
583.8906	-0.0042
584.0827	-0.0065
584.2749	-0.0013
584.4669	0.0034
584.659	0.0012
584.8511	-0.0014
585.0431	-0.0012
585.2352	-0.0042
585.4272	-0.0059
585.6192	0.0049
585.8111	-0.0042
586.0031	-0.003
586.195	-0.0017
586.387	0.0062
586.5789	0.0043
586.7708	0.0045
586.9627	-0.0001
587.1545	-0.0014
587.3464	-0.0031
587.5382	0.0033
587.73	0.0018
587.9218	0.006
588.1136	-0.0086
588.3053	0.0024
588.4971	0.002
588.6888	-0.01
588.8805	-0.0045
589.0722	-0.004
589.2639	0.0005
589.4556	-0.002
589.6472	-0.0044
589.8389	-0.006
590.0305	-0.0105
590.2221	0.0003
590.4137	-0.0089
590.6052	0.0052
590.7968	-0.0009
590.9883	0.001
591.1798	-0.0028
591.3713	-0.0016
591.5628	-0.0016
591.7543	0.0084
591.9458	0.0063
592.1372	0.0024
592.3286	0.0052
592.52	0.0018
592.7114	-0.0013
592.9028	-0.0078
593.0941	-0.0032
593.2855	-0.0028
593.4768	-0.0067
593.6681	-0.0087
593.8594	-0.0116
594.0506	-0.0023
594.2419	0.0014
594.4331	-0.0039
594.6244	0.0048
594.8156	-0.0035
595.0067	-0.0054
595.1979	0.0003
595.3891	0.0028
595.5802	-0.0019
595.7713	0.001
595.9624	-0.0026
596.1535	0.0061
596.3446	0.0038
596.5357	-0.0015
596.7267	0.0134
596.9177	0.0006
597.1087	-0.0104
597.2997	-0.0049
597.4907	0.0024
597.6817	-0.0001
597.8726	-0.0032
598.0635	-0.0127
598.2544	0.004
598.4453	0.0028
598.6362	0.0027
598.827	-0.0004
599.0179	0.0074
599.2087	0.0027
599.3995	0.0023
599.5903	-0.0038
599.7811	0.0015
599.9718	0.0015
600.1626	-0.0073
600.3533	-0.006
600.544	0.001
600.7347	-0.001
600.9254	0.0071
601.116	-0.0128
601.3067	-0.0006
601.4973	-0.0006
601.6879	0.0147
601.8785	-0.0019
602.0691	0.0067
602.2596	0.0089
602.4502	0.006
602.6407	0.004
602.8312	0.0017
603.0217	-0.0037
603.2122	0.0031
603.4027	0.007
603.5931	0.0031
603.7835	-0.008
603.9739	-0.0036
604.1643	0.0043
604.3547	-0.0028
604.5451	0.01
604.7354	-0.0026
604.9257	-0.0012
605.116	-0.0026
605.3063	0.002
605.4966	0.0011
605.6869	0.0047
605.8771	0.0025
606.0673	0.0058
606.2575	0.0062
606.4477	0.0042
606.6379	-0.0007
606.8281	0.0004
607.0182	-0.0008
607.2083	0.004
607.3985	-0.0076
607.5885	0.0006
607.7786	0.004
607.9687	-0.0027
608.1587	0.0018
608.3488	-0.002
608.5388	-0.0014
608.7288	-0.0045
608.9187	-0.0085
609.1087	-0.0039
609.2986	-0.0049
609.4886	-0.0064
609.6785	-0.0018
609.8684	0.0024
610.0582	0.0019
610.2481	0.0016
610.4379	-0.0037
610.6278	-0.0075
610.8176	-0.0015
611.0074	-0.0114
611.1971	-0.0041
611.3869	-0.0013
611.5766	-0.0101
611.7664	0.0054
611.9561	0.0119
612.1458	0.0005
612.3354	-0.0042
612.5251	0.0001
612.7147	0.0057
612.9044	0.0096
613.094	-0.0097
613.2836	0.0003
613.4731	-0.0004
613.6627	-0.0036
613.8522	0.0063
614.0417	0.0049
614.2313	-0.0022
614.4207	-0.0055
614.6102	0.0024
614.7997	-0.0048
614.9891	-0.003
615.1785	0.0008
615.3679	-0.0046
615.5573	0.0116
615.7467	-0.003
615.9361	-0.0048
616.1254	0.0032
616.3147	0.0017
616.504	0.0012
616.6933	-0.0022
616.8826	-0
617.0718	0.0046
617.2611	0.0065
617.4503	-0.0021
617.6395	0.0009
617.8287	-0.0055
618.0179	-0.0019
618.207	0.0015
618.3961	0
618.5853	-0.005
618.7744	-0.0004
618.9634	0.0034
619.1525	0.0016
619.3416	-0.0006
619.5306	0.0057
619.7196	-0.004
619.9086	-0.0011
620.0976	0.012
620.2866	-0.0026
620.4755	0.003
620.6645	-0.004
620.8534	0.0053
621.0423	0.0025
621.2312	0.0075
621.42	-0.0009
621.6089	-0.0023
621.7977	0.0107
621.9865	-0.0079
622.1753	0.0018
622.3641	-0.0004
622.5529	0.007
622.7416	-0.0018
622.9303	0.0028
623.1191	0.0047
623.3078	-0.0092
623.4964	0.0011
623.6851	-0.0045
623.8737	0.0009
624.0624	0.0067
624.251	0.0039
624.4396	0.002
624.6282	-0.0064
624.8167	0.0043
625.0053	0.0035
625.1938	0.0015
625.3823	0.0001
625.5708	0.0021
625.7593	-0.0018
625.9477	-0.0017
626.1362	0.0013
626.3246	0.005
626.513	0.0018
626.7014	0.0073
626.8898	0.0057
627.0781	0.0032
627.2665	0.0017
627.4548	0.0099
627.6431	0.0022
627.8314	-0.0009
628.0197	0.0037
628.2079	-0.0072
628.3962	-0.0027
628.5844	0.0045
628.7726	0.0019
628.9608	0.003
629.1489	-0.0021
629.3371	0.007
629.5252	-0.0046
629.7134	0.0131
629.9015	0.0052
630.0895	0.0014
630.2776	0.012
630.4657	0.0007
630.6537	0.002
630.8417	0.0004
631.0297	-0.0018
631.2177	-0.0011
631.4057	-0.0044
631.5936	0.0036
631.7815	0.0038
631.9695	0.0061
632.1574	0.0107
632.3452	0.0088
632.5331	-0
632.7209	0.0028
632.9088	0.0141
633.0966	0.0062
633.2844	-0.0058
633.4722	0.004
633.6599	0.004
633.8477	0.0006
634.0354	0.0016
634.2231	0.0047
634.4108	0.0048
634.5985	-0
634.7861	-0.0052
634.9738	-0.0089
635.1614	0.0017
635.349	0.0043
635.5366	-0.0041
635.7242	0.0013
635.9117	0.0032
636.0993	-0.0032
636.2868	0.0039
636.4743	-0.0045
636.6618	0.0085
636.8492	0.0031
637.0367	0.0003
637.2241	-0.0011
637.4115	-0.0051
637.5989	0.0013
637.7863	0.0015
637.9737	-0.001
638.161	0.0018
638.3484	0.0006
638.5357	0.0048
638.723	-0.0011
638.9103	0.0003
639.0975	0.0126
639.2848	0.0077
639.472	0.001
639.6592	0.0095
639.8464	0.0093
640.0336	0.0066
640.2208	-0.0019
640.4079	-0.0052
640.595	0.0044
640.7821	0.0011
640.9692	0.0022
641.1563	0.0096
641.3434	0.0072
641.5304	0.0013
641.7174	0.0019
641.9044	0.002
642.0914	0.0113
642.2784	0.0087
642.4653	0.0068
642.6523	0.0057
642.8392	-0.0015
643.0261	0.0033
643.213	0.0082
643.3999	-0.0029
643.5867	-0.0036
643.7735	-0.0021
643.9604	-0.0024
644.1472	0.0025
644.3339	0.0091
644.5207	-0.0009
644.7075	0.0061
644.8942	0.0061
645.0809	0.0059
645.2676	0.0091
645.4543	0.0038
645.6409	0.0105
645.8276	-0.0024
646.0142	0.0023
646.2008	-0.0044
646.3874	0.0001
646.574	-0.0024
646.7605	-0.004
646.9471	-0.0122
647.1336	0.001
647.3201	0.0033
647.5066	-0.0036
647.6931	0.0095
647.8795	-0
648.0659	0.0045
648.2524	0.0041
648.4388	-0.0031
648.6252	0.0004
648.8115	-0.0057
648.9979	-0.006
649.1842	0.0009
649.3705	0.01
649.5568	0.0034
649.7431	0.0047
649.9294	0.0005
650.1156	0.0078
650.3018	-0.0053
650.488	0.0061
650.6742	0.0043
650.8604	0.0045
651.0466	0.0006
651.2327	0.0018
651.4188	-0.0025
651.6049	0.0032
651.791	-0.0014
651.9771	0.0037
652.1632	0.0048
652.3492	0.0038
652.5352	0.0003
652.7212	-0.0016
652.9072	0.0058
653.0932	0.0042
653.2791	-0.0046
653.465	-0.0012
653.651	-0.0002
653.8369	0.0014
654.0227	-0.0029
654.2086	0.0033
654.3944	0.0075
654.5803	0.0019
654.7661	0.0006
654.9519	-0.0011
655.1377	-0.0052
655.3234	-0.0066
655.5092	-0.007
655.6949	-0.0041
655.8806	-0.0092
656.0663	-0.0054
656.2519	0.0002
656.4376	-0.0072
656.6232	0.0063
656.8088	0.0001
656.9945	-0.0003
657.18	0.0064
657.3656	0.0067
657.5511	-0.0024
657.7367	0.0015
657.9222	0.0081
658.1077	0.0048
658.2932	0.0031
658.4786	0.0008
658.6641	0.0048
658.8495	0.0045
659.0349	0.0018
659.2203	0.0088
659.4057	-0.0008
659.591	0.0019
659.7764	0.0004
659.9617	0.0065
660.147	0.0041
660.3323	0.0068
660.5176	0.009
660.7028	0.0052
660.888	0.0049
661.0733	0.0077
661.2585	-0.0064
661.4436	-0.002
661.6288	0.0014
661.8139	0.009
661.9991	0.0079
662.1842	0.0073
662.3693	0.0038
662.5544	-0.0003
662.7394	0.0014
662.9245	-0.0044
663.1095	-0.0028
663.2945	-0.0035
663.4795	-0.003
663.6644	0.0026
663.8494	-0.0019
664.0343	-0.0005
664.2193	-0.0078
664.4042	0.0023
664.589	-0.003
664.7739	-0.0027
664.9587	0.0007
665.1436	-0.0004
665.3284	0.0045
665.5132	-0.0015
665.698	0.0037
665.8827	0.0095
666.0675	-0.0066
666.2522	-0.0007
666.4369	0.0073
666.6216	0.0081
666.8063	0.0053
666.9909	0.0088
667.1756	-0.003
667.3602	0.0001
667.5448	-0.0057
667.7294	0.0121
667.9139	0.0009
668.0985	0.0141
668.283	-0.001
668.4675	0.0006
668.652	0.0018
668.8365	-0.0034
669.0209	0.0087
669.2054	0.0122
669.3898	0.0046
669.5742	0.0024
669.7586	0.0139
669.943	0.012
670.1273	0.0102
670.3117	0.0059
670.496	0.0047
670.6803	0.0147
670.8646	0.0041
671.0488	-0.0001
671.2331	0.0005
671.4173	0.0044
671.6015	0.0045
671.7857	0.0062
671.9699	0.0061
672.1541	0.0092
672.3382	0.0045
672.5223	0.0073
672.7064	0.0093
672.8905	0.011
673.0746	0.0083
673.2587	-0.0048
673.4427	0.0068
673.6267	0.0138
673.8107	0.0138
673.9947	0.0023
674.1787	0.0052
674.3626	0.0032
674.5465	0.0034
674.7304	0.0023
674.9143	0.0122
675.0982	0.012
675.2821	0.0017
675.4659	0.011
675.6497	0.0088
675.8335	-0.0003
676.0173	0.0049
676.2011	0.0049
676.3849	0.0115
676.5686	-0.0055
676.7523	0.0067
676.936	0.0038
677.1197	-0.0041
677.3034	-0.0002
677.487	0.0071
677.6706	-0.0019
677.8542	0.0055
678.0378	0.0022
678.2214	0.0034
678.405	0.0003
678.5885	0.0028
678.772	0.0055
678.9555	0.0014
679.139	-0.0006
679.3225	0.0122
679.5059	0.0086
679.6894	0.002
679.8728	-0.0024
680.0562	-0.0074
680.2395	-0.0047
680.4229	0.0005
680.6062	0.005
680.7896	0.003
680.9729	-0.0044
681.1562	0.0023
681.3394	0.0064
681.5227	-0.0068
681.7059	-0.0023
681.8891	0.0009
682.0723	0.0047
682.2555	0.0075
682.4387	0.0003
682.6218	0.0008
682.805	0.0099
682.9881	0.0076
683.1712	0.0031
683.3542	0.0036
683.5373	0.0111
683.7203	-0.003
683.9034	0.0063
684.0864	-0.0057
684.2694	0.0004
684.4523	-0.0008
684.6353	-0.0009
684.8182	0.0092
685.0011	-0.0036
685.184	0.0035
685.3669	-0.0008
685.5498	0.0157
685.7326	0.011
685.9154	-0.001
686.0982	0.005
686.281	0.0075
686.4638	0.009
686.6465	0.0019
686.8293	-0.0014
687.012	0.0038
687.1947	0
687.3774	0.0048
687.56	-0.002
687.7427	0.003
687.9253	-0.0065
688.1079	-0.0057
688.2905	0.0124
688.4731	-0.0021
688.6556	-0.0029
688.8382	-0.0021
689.0207	-0.0021
689.2032	-0.0049
689.3857	0.0022
689.5681	0.0025
689.7506	-0.0038
689.933	-0.0014
690.1154	0.0041
690.2978	-0.0027
690.4802	0.0056
690.6626	-0.0103
690.8449	0.0022
691.0272	0.0032
691.2095	-0.0074
691.3918	-0.0082
691.5741	-0.0058
691.7563	-0.0028
691.9386	-0.0011
692.1208	-0.0062
692.303	0.0058
692.4852	-0.004
692.6673	0.0008
692.8495	-0.0032
693.0316	0.0071
693.2137	0.0051
693.3958	0.0072
693.5778	0.0065
693.7599	0.0047
693.9419	-0
694.1239	0.0022
694.3059	-0.0033
694.4879	0.0048
694.6699	0.0042
694.8518	0.0058
695.0337	-0.0029
695.2157	0.0072
695.3975	-0.0037
695.5794	-0.0007
695.7613	-0.0025
695.9431	-0.0015
696.1249	-0.0025
696.3067	0.0074
696.4885	0.0024
696.6703	-0.0036
696.852	0.0046
697.0337	0.0055
697.2154	0.0056
697.3971	0.0003
697.5788	-0.0017
697.7605	0.0023
697.9421	0.0048
698.1237	0.0046
698.3053	0.0036
698.4869	-0.0039
698.6685	-0.0009
698.85	0.002
699.0315	0.0061
699.213	0.0078
699.3945	0.0043
699.576	0.0101
699.7575	0.0038
699.9389	0.0039
700.1203	0.0003
700.3017	-0.0098
700.4831	-0.0093
700.6645	-0.0029
700.8458	-0.0029
701.0271	-0.0079
701.2084	0.0022
701.3897	-0.0051
701.571	0.0043
701.7523	-0.0089
701.9335	-0.0033
702.1147	-0.0063
702.2959	-0.0018
702.4771	0.0031
702.6583	0.0042
702.8394	0.0003
703.0205	0.0077
703.2016	-0.0012
703.3827	0.0062
703.5638	0.0177
703.7449	0.0011
703.9259	0.0103
704.1069	-0.0006
704.2879	0.0034
704.4689	0.0046
704.6499	0.0034
704.8308	0.0006
705.0117	0.0011
705.1927	0.0059
705.3735	-0.0032
705.5544	-0.0049
705.7353	0.004
705.9161	-0.0032
706.0969	-0.0015
706.2777	-0.0009
706.4585	-0.0081
706.6393	0.0058
706.82	0.0026
707.0007	0.0059
707.1815	0.0026
707.3621	0.0099
707.5428	0.0021
707.7235	0.0054
707.9041	0.0102
708.0847	-0.0042
708.2653	0.0002
708.4459	-0.0106
708.6265	0.002
708.807	0.0033
708.9875	0.0043
709.168	-0.0039
709.3485	-0.0044
709.529	-0.0002
709.7095	-0.0102
709.8899	0.0026
710.0703	-0.0037
710.2507	-0.0014
710.4311	-0
710.6115	-0.0035
710.7918	-0.0101
710.9721	-0.0042
711.1524	-0.0068
711.3327	-0.0045
711.513	0.0049
711.6932	0.005
711.8735	0.0079
712.0537	0.0039
712.2339	0.0017
712.4141	-0.0078
712.5942	-0.0099
712.7744	-0.0043
712.9545	-0.0034
713.1346	-0.0045
713.3147	0.0007
713.4947	-0.0034
713.6748	0.0055
713.8548	0.0074
714.0348	0.0055
714.2148	0.0019
714.3948	0.0135
714.5748	0.0058
714.7547	-0.0046
714.9346	0.0078
715.1145	0.0074
715.2944	0.0019
715.4743	0.0028
715.6541	0.0006
715.834	0.0031
716.0138	0.0092
716.1936	-0.011
716.3733	-0.0065
716.5531	0.0051
716.7328	0.0002
716.9126	-0.003
717.0923	0.0068
717.2719	-0.0051
717.4516	0.0074
717.6312	0.0136
717.8109	0.0009
717.9905	0.0079
718.1701	-0.0018
718.3496	-0.0049
718.5292	0.0044
718.7087	0.0032
718.8882	0.0018
719.0677	0.0039
719.2472	-0.0029
719.4267	0.0065
719.6061	0.0099
719.7856	0.0111
719.965	0.0074
720.1443	0.0028
720.3237	0.0171
720.5031	0.0071
720.6824	0.0103
720.8617	0.0044
721.041	-0.0037
721.2203	0.0097
721.3995	0.0028
721.5788	-0.0032
721.758	0.0105
721.9372	-0
722.1164	-0.0018
722.2956	0.0019
722.4747	0.0008
722.6538	0.0044
722.8329	0.0143
723.012	0.0035
723.1911	0
723.3702	0.0036
723.5492	0.0001
723.7282	-0.0083
723.9072	-0.001
724.0862	-0.0057
724.2652	-0.0017
724.4441	0.003
724.623	0.0013
724.8019	-0.0016
724.9808	0.0034
725.1597	0.0007
725.3385	0.007
725.5174	-0.0024
725.6962	0.0029
725.875	0.0005
726.0538	0.0126
726.2325	0.0043
726.4112	0.0062
726.59	-0.0006
726.7687	-0.0025
726.9474	-0.0027
727.126	0.0008
727.3047	-0.0041
727.4833	0.0068
727.6619	-0.0059
727.8405	-0.0046
728.0191	-0.0057
728.1976	-0.0033
728.3762	-0.0007
728.5547	-0.0011
728.7332	-0.0117
728.9116	-0.0001
729.0901	0.0027
729.2686	0.0006
729.447	0.0004
729.6254	-0.007
729.8038	0.0081
729.9821	-0.0086
730.1605	-0.0058
730.3388	0.0038
730.5171	0.0022
730.6954	-0.0125
730.8737	0.0055
731.0519	0.0063
731.2302	-0.0023
731.4084	0.0088
731.5866	0.0077
731.7648	-0.0001
731.9429	0.0035
732.1211	0.0003
732.2992	0.0006
732.4773	-0.0025
732.6554	-0.0026
732.8335	0.009
733.0115	0.0048
733.1896	0.0039
733.3676	0.001
733.5456	0.0055
733.7235	0.0053
733.9015	0.0015
734.0794	0.0023
734.2574	-0.0052
734.4353	0.0022
734.6131	0.0053
734.791	-0.0011
734.9689	-0.0065
735.1467	0.0021
735.3245	-0.006
735.5023	-0.0032
735.68	-0.0005
735.8578	0.0019
736.0355	-0.0095
736.2132	-0.0085
736.3909	-0.0119
736.5686	-0.0009
736.7463	0.0003
736.9239	-0.0021
737.1015	-0.0101
737.2791	-0.0057
737.4567	-0.0031
737.6343	-0.007
737.8118	0.0084
737.9894	0.0087
738.1669	-0.0106
738.3444	-0.0033
738.5218	0.0088
738.6993	-0.0023
738.8767	0.0004
739.0541	0.0074
739.2315	-0.0103
739.4089	0.0002
739.5863	-0.0001
739.7636	0.0009
739.9409	0.0023
740.1182	0.0071
740.2955	0.0041
740.4728	0.0114
740.65	-0.0022
740.8272	0.0061
741.0044	-0.0053
741.1816	-0.0011
741.3588	0.003
741.5359	-0.003
741.7131	-0.0099
741.8902	-0.0101
742.0673	0.0005
742.2444	-0.0083
742.4214	-0.0034
742.5985	-0.0043
742.7755	0.0001
742.9525	-0.0234
743.1295	0.0037
743.3064	0.0004
743.4834	0.0069
743.6603	0.0014
743.8372	-0.0088
744.0141	0.0107
744.191	0.0067
744.3678	0.0037
744.5446	-0.0011
744.7215	0.0008
744.8982	-0.0012
745.075	-0.007
745.2518	0.007
745.4285	-0.0021
745.6052	-0.0035
745.7819	0.0005
745.9586	-0.0019
746.1353	0.0006
746.3119	-0.0071
746.4885	-0.0117
746.6651	0.0008
746.8417	-0.0034
747.0183	-0.0033
747.1948	0.0021
747.3714	-0.0062
747.5479	0
747.7244	-0.0048
747.9008	0.0027
748.0773	0.0069
748.2537	0.0033
748.4301	-0.0033
748.6065	0.0004
748.7829	0.0059
748.9593	-0.0068
749.1356	0.0044
749.3119	0.0143
749.4882	-0.0067
749.6645	0.0027
749.8408	-0.0013
750.017	-0.0079
750.1933	0.0036
750.3695	-0.0017
750.5457	0.0023
750.7218	0.0018
750.898	0.0031
751.0741	-0.0103
751.2502	-0.0006
751.4263	-0.0146
751.6024	-0.0065
751.7784	-0.0024
751.9545	-0.0038
752.1305	-0.0091
752.3065	-0.0065
752.4825	0.003
752.6584	-0.0058
752.8344	-0.0018
753.0103	-0.0053
753.1862	-0.0094
753.3621	-0.0051
753.5379	-0.0125
753.7138	-0.0089
753.8896	0.0071
754.0654	-0.0034
754.2412	0.0071
754.417	-0.0026
754.5927	-0.0045
754.7685	0.0001
754.9442	-0.0056
755.1199	0.005
755.2956	-0.0022
755.4712	0.0021
755.6469	-0.0048
755.8225	-0.0131
755.9981	-0.0064
756.1736	-0.0023
756.3492	-0.0066
756.5248	-0.0039
756.7003	-0.0085
756.8758	0.0027
757.0513	-0.0162
757.2267	-0.0111
757.4022	-0.0007
757.5776	-0.0157
757.753	-0.0052
757.9284	-0.006
758.1038	0.0117
758.2791	0.0086
758.4545	-0.0015
758.6298	-0.0017
758.8051	0.0108
758.9803	0.0008
759.1556	-0.0028
759.3308	-0.0028
759.506	0.007
759.6812	0.0099
759.8564	0.0085
760.0316	0.0048
760.2067	0.0101
760.3819	0.0152
760.557	0.0116
760.732	0.003
760.9071	-0.0142
761.0821	-0.0024
761.2572	0.0073
761.4322	-0.0137
761.6072	-0.0093
761.7821	-0.0076
761.9571	0.0027
762.132	0.008
762.3069	-0.0067
762.4818	-0.0046
762.6567	-0.0052
762.8316	-0.0007
763.0064	-0.0044
763.1812	-0.0037
763.356	-0.0158
763.5308	0.0016
763.7055	-0.0022
763.8803	-0.0102
764.055	-0.0106
764.2297	-0.0053
764.4044	-0.0096
764.579	-0.0155
764.7537	-0.0231
764.9283	-0.0007
765.1029	-0.0129
765.2775	-0.0043
765.4521	-0.0083
765.6266	-0.0072
765.8011	-0.0072
765.9756	-0.0111
766.1501	-0.0046
766.3246	-0.0037
766.4991	-0.012
766.6735	-0.0048
766.8479	-0.0096
767.0223	-0.0015
767.1967	0.0062
767.371	-0.0014
767.5454	0.0013
767.7197	-0.0001
767.894	-0.0055
768.0683	-0.0056
768.2425	-0.0034
768.4168	-0.0081
768.591	0.0007
768.7652	-0.0103
768.9394	0.0003
769.1135	-0.0046
769.2877	-0.0048
769.4618	-0.0119
769.6359	-0.005
769.81	-0.002
769.984	-0.003
770.1581	-0.0161
770.3321	-0.002
770.5061	-0.0068
770.6801	-0.0064
770.8541	-0.0069
771.028	0.0023
771.202	-0.0098
771.3759	0.0029
771.5498	-0.0086
771.7236	-0.0044
771.8975	-0.0026
772.0713	0.0004
772.2451	-0.0031
772.4189	0.0063
772.5927	0.0177
772.7665	0.0078
772.9402	0.0027
773.1139	0.0104
773.2876	-0.0082
773.4613	0.0083
773.635	0.0142
773.8086	-0.005
773.9822	0.0059
774.1558	0.0076
774.3294	-0.0185
774.503	-0.0014
774.6765	0.0072
774.8501	0.0038
775.0236	0.0002
775.1971	0.0036
775.3705	-0.0099
775.544	0.0008
775.7174	-0.0079
775.8908	-0.0092
776.0642	-0.0171
776.2376	-0.0009
776.4109	-0.0038
776.5843	0.0014
776.7576	0.0017
776.9309	0.0099
777.1041	0.0011
777.2774	0.0052
777.4506	-0.001
777.6238	-0.0054
777.797	0.0017
777.9702	0.0038
778.1434	-0.0045
778.3165	-0.0086
778.4896	-0.0095
778.6627	-0.0007
778.8358	-0.0039
779.0089	-0.0012
779.1819	0.0143
779.3549	0.0099
779.5279	0.0072
779.7009	0.0078
779.8739	0.0104
780.0468	0.0104
780.2197	0.007
780.3926	0.0088
780.5655	0.0054
780.7384	-0.0013
780.9112	0.0173
781.0841	-0.0008
781.2569	-0.0008
781.4297	0.0047
781.6024	0.0033
781.7752	0.008
781.9479	0.014
782.1206	0.0034
782.2933	-0.0143
782.466	0.0079
782.6386	0.0119
782.8113	0.0057
782.9839	0.0091
783.1565	0.0033
783.329	0.0006
783.5016	0.0055
783.6741	0.0007
783.8466	-0.0087
784.0191	0.0132
784.1916	-0.002
784.3641	-0.0055
784.5365	0.0068
784.7089	-0.0045
784.8813	-0.0112
785.0537	-0.0072
785.2261	-0.0043
785.3984	-0.019
785.5707	-0.0065
785.743	-0.0075
785.9153	-0.0254
786.0876	0.0021
786.2598	-0.0108
786.432	-0.0143
786.6042	0.0039
786.7764	-0.0114
786.9486	0.0026
787.1207	0.0003
787.2928	-0.0131
787.4649	0.0058
787.637	0.0068
787.8091	-0.0133
787.9811	-0.0048
788.1532	-0.0164
788.3252	0.0079
788.4972	-0.016
788.6691	-0.0032
788.8411	-0.0084
789.013	-0.0111
789.1849	0.0008
789.3568	-0.0105
789.5287	-0.0055
789.7005	-0.0047
789.8723	0.0035
790.0442	0.016
790.2159	0.0026
790.3877	-0.0013
790.5595	-0.0045
790.7312	-0.0025
790.9029	-0.003
791.0746	-0.0247
791.2463	-0.0069
791.4179	-0.0054
791.5896	-0.0074
791.7612	0.0058
791.9328	0.0007
792.1044	-0.0086
792.2759	-0.0213
792.4474	-0.009
792.619	-0.0081
792.7905	0.0058
792.9619	-0.0034
793.1334	0.0172
793.3048	-0.0007
793.4762	0.0091
793.6476	0.0011
793.819	-0.0075
793.9904	0.0084
794.1617	-0.0136
794.333	-0.0127
794.5043	-0.012
794.6756	0.0111
794.8469	-0.0164
795.0181	-0.0019
795.1893	-0.001
795.3605	-0.0091
795.5317	0.0155
795.7029	-0.0098
795.874	-0.0042
796.0452	0.0025
796.2163	0.0041
796.3873	-0.0048
796.5584	0.0093
796.7294	-0.0051
796.9005	0.011
797.0715	-0.0027
797.2425	-0.0235
797.4134	-0.0073
797.5844	-0.003
797.7553	-0.0333
797.9262	-0.0074
798.0971	-0.0266
798.2679	-0.0094
798.4388	-0.025
798.6096	-0.0126
798.7804	-0.018
798.9512	-0.0187
799.122	-0.017
799.2927	-0.0015
799.4635	-0.0161
799.6342	-0.0242
799.8049	-0.0118
799.9755	-0.0045
800.1462	-0.0048
800.3168	-0.0061
800.4874	-0.0046
800.658	0.0031
800.8286	-0.0034
800.9991	0
801.1696	0.0081
801.3402	0.001
801.5106	-0.0074
801.6811	-0.0055
801.8516	0.0039
802.022	-0.0252
802.1924	-0.0044
802.3628	-0.0054
802.5332	0.0089
802.7035	0.0085
802.8739	-0.0035
803.0442	-0.011
803.2145	0.0061
803.3847	-0.0335
803.555	0.0009
803.7252	-0.0187
803.8954	-0.0342
804.0656	-0.0242
804.2358	-0.021
804.4059	-0.0064
804.5761	-0.0193
804.7462	-0.003
804.9163	-0.0062
805.0864	-0.0213
805.2564	-0.0091
805.4264	0.0056
805.5965	-0.0205
805.7665	0.0005
805.9364	-0.0123
806.1064	0.0128
806.2763	0.0026
806.4462	0.0177
806.6161	-0.0072
806.786	-0.0079
806.9559	0.0016
807.1257	0.0012
807.2955	-0.0128
807.4653	-0.0058
807.6351	0.007
807.8048	-0.0106
807.9746	-0.0065
808.1443	-0.0036
808.314	-0.0014
808.4837	-0.0289
808.6533	-0.0037
808.8229	0.0109
808.9926	-0.0002
809.1622	-0.0061
809.3317	-0.0152
809.5013	-0.0192
809.6708	-0.0045
809.8403	-0.0058
810.0098	-0.006
810.1793	0.0103
810.3488	-0.0109
810.5182	-0.0241
810.6876	-0.0185
810.857	-0.0399
811.0264	0.0068
811.1958	0.0029
811.3651	-0.0051
811.5344	-0.0251
811.7037	-0.0093
811.873	-0.013
812.0422	-0.0129
812.2115	-0.0156
812.3807	-0.0205
812.5499	-0.0071
812.7191	-0.0021
812.8882	-0.0327
813.0574	-0.0246
813.2265	-0.0144
813.3956	-0.0203
813.5646	-0.0181
813.7337	-0.0179
813.9027	-0.0077
814.0718	0.0026
814.2407	0.0224
814.4097	0.0031
814.5787	-0.0083
814.7476	-0.0198
814.9165	0.02
815.0854	-0.0244
815.2543	-0.0144
815.4232	-0.0271
815.592	0.0068
815.7608	-0.0017
815.9296	0.0039
816.0984	0.0189
816.2671	-0.0096
816.4359	-0.018
816.6046	-0.0049
816.7733	-0.0303
816.942	-0.0244
817.1106	-0.0236
817.2793	0.0067
817.4479	-0.0217
817.6165	0.0113
817.785	-0.0108
817.9536	0.0007
818.1221	-0.0345
818.2906	-0.0128
818.4591	-0.0131
818.6276	-0.0296
818.7961	0.0115
818.9645	-0.021
819.1329	-0.0022
819.3013	0.023
819.4697	-0.0171
819.638	-0.0233
819.8064	-0.0013
819.9747	0.0124
820.143	0.014
820.3113	-0.0146
820.4795	-0.0013
820.6477	0.0053
820.816	-0.0273
820.9842	-0.0148
821.1523	-0.0172
821.3205	-0.0073
821.4886	-0.0197
821.6567	0.0026
821.8248	-0.0102
821.9929	-0.0033
822.1609	-0.0003
822.329	0.0121
822.497	0.0082
822.665	-0.0192
822.833	0.0024
823.0009	0.0208
823.1688	0.0046
823.3367	0.0059
823.5046	0.0253
823.6725	0.0219
823.8404	0.0137
824.0082	0.0076
824.176	0.0117
824.3438	0.0069
824.5116	-0.0345
824.6793	0.0203
824.847	-0.0121
825.0147	-0.0304
825.1824	0.0084
825.3501	0.0033
825.5177	-0.0312
825.6854	-0.0184
825.853	0.0137
826.0206	-0.023
826.1881	-0.0278
826.3557	-0.0349
826.5232	-0.0012
826.6907	-0.0398
826.8582	0.0148
827.0257	-0.0237
827.1931	-0.0123
827.3605	-0.0158
827.528	-0.0221
827.6953	-0.0482
827.8627	-0.0186
828.03	0.014
828.1974	0.0149
828.3647	-0.0264
828.532	-0.0243
828.6992	-0.0313
828.8665	0.0011
829.0337	-0.0235
829.2009	-0.0063
829.3681	0.0073
829.5352	0.0125
829.7024	-0.0369
829.8695	-0.0201
830.0366	0.025
830.2037	0.0073
830.3707	0.0152
830.5378	-0.0323
830.7048	-0.0148
830.8718	-0.0338
831.0388	0.0036
831.2057	0.0012
831.3727	0.0144
831.5396	-0.0094
831.7065	-0.0266
831.8734	-0.0351
832.0402	-0.032
832.2071	-0.0293
832.3739	-0.0438
832.5407	0.0129
832.7075	-0.0398
832.8742	-0.0102
833.041	-0.063
833.2077	-0.0023
833.3744	0.0055
833.541	0.0008
833.7077	-0.0341
833.8743	0.0002
834.0409	-0.0089
834.2075	-0.0209
834.3741	-0.0096
834.5407	-0.024
834.7072	-0.0005
834.8737	-0.0281
835.0402	-0.017
835.2067	-0.0115
835.3731	-0.023
835.5395	-0.0106
835.706	0.018
835.8723	0.0031
836.0387	-0.0138
836.2051	-0.0101
836.3714	-0.0073
836.5377	-0.0265
836.704	-0.0553
836.8703	0.0264
837.0365	0.0151
837.2027	-0.011
837.3689	-0.0301
837.5351	-0.0323
837.7013	-0.0465
837.8674	-0.0875
838.0335	-0.0083
838.1997	0.0429
838.3657	-0.0489
838.5318	-0.0428
838.6978	0.0038
838.8639	0.0325
839.0299	-0.0117
839.1958	-0.0159
839.3618	0.0177
839.5277	-0.0182
839.6937	-0.0176
839.8596	-0.0396
840.0254	-0.0039
840.1913	-0.0006
840.3571	-0.017
840.523	-0.0115
840.6888	-0.0954
840.8545	-0.0899
841.0203	-0.022
841.186	-0.0191
841.3517	0.0232
841.5174	0.0108
841.6831	-0.0368
841.8488	-0.0327
842.0144	0.0208
842.18	0.0092
842.3456	-0.0314
842.5112	-0.0395
842.6767	-0.0392
842.8422	-0.0124
843.0077	-0.0391
843.1732	-0.0744
843.3387	-0.0678
843.5042	-0.0647
843.6696	-0.0289
843.835	-0.038
844.0004	0.0041
844.1657	-0.039
844.3311	-0.0285
844.4964	-0.0653
844.6617	-0.0298
844.827	-0.0234
844.9923	-0.0209
845.1575	-0.0091
845.3227	0.0096
845.4879	0.0059
845.6531	-0.0689
845.8183	-0.0736
845.9834	-0.0132
846.1485	-0.022
846.3136	-0.0315
846.4787	-0.1199
846.6438	0.0495
846.8088	-0.0443
846.9738	-0.1106
847.1388	-0.0135
847.3038	-0.0189
847.4687	-0.1674
847.6337	0.0135
847.7986	0.0003
847.9635	-0.0676
848.1284	0.0114
848.2932	0.0762
848.458	0.0178
848.6228	0.0487
848.7876	0.0574
848.9524	-0.0739
849.1172	-0.1157
849.2819	0.0145
849.4466	-0.0983
849.6113	-0.1033
849.7759	-0.0504
849.9406	-0.0528
850.1052	-0.0435
850.2698	0.0402
850.4344	-0.0478
850.599	-0.1583
850.7635	-0.001
850.928	-0.0635
851.0925	-0.0346
851.257	-0.0031
851.4215	-0.0245
851.5859	-0.0938
851.7503	0.0389
851.9147	0.0584
852.0791	0.0252
852.2434	-0.0513
852.4078	0.0863
852.5721	0.0998
852.7364	-0.0585
852.9007	-0.1548
853.0649	-0.0443
853.2291	0.0651
853.3934	0.0367
853.5575	0.1027
853.7217	-0.1633
853.8859	-0.1913
854.05	-0.0877
854.2141	0.0387
854.3782	-0.1285
854.5423	-0.0508
854.7063	0.224
854.8703	-0.1045
855.0343	-0.0898
855.1983	-0.1753
855.3623	0.0404
855.5262	-0.0655
855.6901	-0.009
855.854	-0.0015
856.0179	0.0997
856.1818	0.0341
856.3456	-0.2305
856.5094	-0.1354
856.6732	-0.125
856.837	-0.0759
857.0008	0.0452
857.1645	-0.1805
857.3282	-0.2744
857.4919	0.2102
857.6556	-0.0111
857.8192	-0.162
857.9828	-0.0577
858.1465	0.0335
858.31	-0.0039
858.4736	-0.197
858.6372	-0.3565
858.8007	-0.3
858.9642	0.0151
859.1277	-0.1025
859.2911	0.0449
859.4546	-0.0296
859.618	-0.3339
859.7814	0.047
859.9448	0.0616
860.1081	-0.1956
860.2715	0.0919
860.4348	-0.0069
860.5981	-0.107
860.7614	0.2302
860.9246	-0.3033
861.0879	-0.1572
861.2511	0.0229
861.4143	-0.0379
861.5774	0.078
861.7406	-0.0455
861.9037	-0.0261
862.0668	0.1246
862.2299	0.0241
862.393	-0.5792
862.556	-0.1865
862.7191	-0.4629
862.8821	-0.4035
863.0451	0.1283
863.208	-0.1696
863.371	-0.0804
863.5339	-0.15
863.6968	0.0062
863.8597	-0.0707
864.0225	-0.1482
864.1854	0.0926
864.3482	-0.2405
864.511	0.2116
864.6737	0.097
864.8365	0.0171
864.9992	-0.4636
865.1619	0.1585
865.3246	-0.3395
865.4873	0.1751
865.65	-0.3421
865.8126	0.0703
865.9752	0.072
866.1378	-0.1814
866.3004	0.0325
866.4629	0.0169
866.6254	-0.1045
866.7879	0.4016
866.9504	-0.4806
867.1129	-0
867.2753	-0.032
867.4377	0.4039
867.6001	-0.4405
867.7625	-0.1405
867.9249	-0.2315
868.0872	-0.1799
868.2495	0.0665
868.4118	-0.5367
868.5741	-0.4322
868.7363	-0.4211
868.8986	0.9767
869.0608	-0.193
869.223	0.0958
869.3851	-0.0975
869.5473	1.3044
869.7094	0.4179
869.8715	-0.6301
870.0336	-0
870.1957	-0.7704
870.3577	-0.7814
870.5197	-0.1968
870.6817	-0.4519
870.8437	-0.1046
871.0057	-0
871.1676	-0.1364
871.3295	-0.2309
871.4914	-0
871.6533	-0.3176
871.8151	-0.7355
871.977	-0
872.1388	-0
872.3006	-0
872.4623	-0
872.6241	0.2954
872.7858	0.6675
872.9475	1.5585
873.1092	-0.238
873.2709	0.2445
873.4325	-0.2526
873.5941	-0.1539
873.7557	-0.621
873.9173	-0.0643
874.0789	0.1494
874.2404	-0.7458
874.4019	0.7193
874.5634	-0.341
874.7249	-0.0581
874.8863	0.0889
875.0478	0.0625
875.2092	-0
875.3706	0.0779
875.5319	-0.8042
875.6933	-0.0231
875.8546	-0.441
876.0159	-0
876.1772	-0
876.3385	-0
876.4997	0.1718
876.6609	-0.4107
876.8221	-0
876.9833	-0.0698
877.1445	-0
877.3056	-0.0044
877.4667	0.6418
877.6278	0.3436
877.7889	-0.3146
877.9499	-0
878.111	-0.7168
878.272	-0.8855
878.433	-0
878.5939	0.6388
878.7549	-0.0318
878.9158	0.751
879.0767	-0.139
879.2376	-0
879.3984	-0
879.5593	0.3286
879.7201	-0.3603
879.8809	-0.5102
880.0417	-0.3744
880.2024	0.3725
880.3632	-0.5628
880.5239	0.3095
880.6846	-0
880.8452	-2.4005
881.0059	-1.6117
881.1665	-0.2098
881.3271	-0.2015
881.4877	-0.3133
881.6483	-0.3105
881.8088	-0.5127
881.9693	-0
882.1298	-0
882.2903	-0
