Data from MonoPyChalIsomerACN10uM420nmA_Absorbance_15-09-53-335.txt Node
Date: Fri Jul 05 15:09:53 BST 2024
User: LASERRRRR
Spectrometer: FLMT03099
Trigger mode: 0
Integration Time (sec): 1.000000E-1
Scans to average: 1
Electric dark correction enabled: true
Nonlinearity correction enabled: false
Boxcar width: 0
XAxis mode: Wavelengths
Number of Pixels in Spectrum: 3648
>>>>>Begin Spectral Data<<<<<
179.3399	-0.3209
179.5586	-0.3209
179.7771	-0.3209
179.9957	-0
180.2143	-0
180.4329	-0
180.6514	0.5277
180.8699	-0
181.0885	-0.1596
181.307	1.0215
181.5255	-0.4958
181.744	-0.5817
181.9625	-0
182.181	-1.0429
182.3994	-0
182.6179	-0
182.8363	-0
183.0547	0.263
183.2732	0.2021
183.4916	0.2602
183.71	0.1069
183.9284	0.0981
184.1467	0.1723
184.3651	-0.0266
184.5835	-0.0295
184.8018	0.031
185.0201	0.0586
185.2385	-0.0425
185.4568	0.551
185.6751	0.0253
185.8934	1.0307
186.1117	0.2268
186.3299	0.0046
186.5482	0.1819
186.7664	-0.1227
186.9847	0.153
187.2029	0.1425
187.4211	0.0548
187.6393	0.6155
187.8575	0.2419
188.0757	0.351
188.2939	0.0831
188.512	0.2578
188.7302	-0.1669
188.9483	0.0212
189.1665	0.0562
189.3846	-0.0888
189.6027	0.2206
189.8208	0.1314
190.0389	0.0534
190.257	0.086
190.475	0.2077
190.6931	0.4123
190.9111	0.3197
191.1292	0.099
191.3472	0.4511
191.5652	0.3552
191.7832	0.3833
192.0012	0.5069
192.2192	0.483
192.4371	0.4617
192.6551	0.4597
192.873	0.3598
193.091	0.643
193.3089	0.5526
193.5268	0.5558
193.7447	0.569
193.9626	0.4028
194.1805	0.6115
194.3984	0.7738
194.6162	0.692
194.8341	0.4383
195.0519	0.8515
195.2697	0.5827
195.4875	1.0195
195.7054	0.5759
195.9231	0.5105
196.1409	0.6792
196.3587	0.6446
196.5765	0.6364
196.7942	0.6107
197.012	0.5341
197.2297	0.6321
197.4474	0.6965
197.6651	0.6108
197.8828	0.5971
198.1005	0.6052
198.3182	0.6084
198.5358	1.1239
198.7535	0.6391
198.9711	0.5596
199.1888	0.6797
199.4064	1.0371
199.624	0.5704
199.8416	0.7351
200.0592	0.645
200.2767	0.6622
200.4943	0.7052
200.7119	0.7635
200.9294	0.7246
201.1469	0.5364
201.3645	0.6851
201.582	0.5743
201.7995	0.6864
202.017	0.6687
202.2344	0.5865
202.4519	0.6887
202.6694	0.6367
202.8868	0.6495
203.1042	0.8691
203.3217	0.7062
203.5391	0.6356
203.7565	0.5597
203.9739	0.7266
204.1913	0.6325
204.4086	0.7444
204.626	0.7292
204.8433	0.72
205.0607	0.7026
205.278	0.6915
205.4953	0.6935
205.7126	0.6319
205.9299	0.7817
206.1472	0.64
206.3644	0.6526
206.5817	0.7254
206.7989	0.6744
207.0162	0.6659
207.2334	0.7091
207.4506	0.7437
207.6678	0.6673
207.885	0.6055
208.1022	0.6497
208.3194	0.6584
208.5365	0.6102
208.7537	0.6478
208.9708	0.6259
209.1879	0.6567
209.405	0.7245
209.6222	0.6977
209.8392	0.6827
210.0563	0.7125
210.2734	0.7092
210.4905	0.683
210.7075	0.604
210.9245	0.6144
211.1416	0.7711
211.3586	0.6591
211.5756	0.6711
211.7926	0.6812
212.0096	0.6202
212.2265	0.5581
212.4435	0.5625
212.6604	0.6029
212.8774	0.6433
213.0943	0.6661
213.3112	0.577
213.5281	0.5407
213.745	0.5257
213.9619	0.5227
214.1788	0.4748
214.3956	0.477
214.6125	0.5022
214.8293	0.4682
215.0461	0.4523
215.2629	0.4545
215.4798	0.4982
215.6965	0.4598
215.9133	0.4706
216.1301	0.4373
216.3469	0.4265
216.5636	0.4163
216.7803	0.4116
216.9971	0.4352
217.2138	0.3637
217.4305	0.3644
217.6472	0.3644
217.8639	0.3787
218.0805	0.3566
218.2972	0.3015
218.5138	0.3436
218.7305	0.3367
218.9471	0.2979
219.1637	0.2882
219.3803	0.2806
219.5969	0.3182
219.8135	0.2577
220.0301	0.2801
220.2466	0.28
220.4632	0.2448
220.6797	0.2501
220.8962	0.2506
221.1127	0.2656
221.3292	0.2654
221.5457	0.2349
221.7622	0.2267
221.9787	0.2524
222.1951	0.2465
222.4116	0.2541
222.628	0.2485
222.8444	0.255
223.0608	0.256
223.2772	0.2609
223.4936	0.2595
223.71	0.2598
223.9264	0.3011
224.1427	0.2585
224.3591	0.2883
224.5754	0.2694
224.7917	0.2687
225.008	0.2846
225.2243	0.2423
225.4406	0.2971
225.6569	0.2496
225.8732	0.2534
226.0894	0.2657
226.3057	0.2875
226.5219	0.3089
226.7381	0.2631
226.9543	0.2892
227.1705	0.2977
227.3867	0.2951
227.6029	0.295
227.8191	0.2998
228.0352	0.3045
228.2513	0.3159
228.4675	0.2982
228.6836	0.3197
228.8997	0.2941
229.1158	0.3091
229.3319	0.326
229.548	0.3171
229.764	0.2973
229.9801	0.3371
230.1961	0.3344
230.4121	0.3215
230.6282	0.3543
230.8442	0.3277
231.0602	0.3622
231.2761	0.356
231.4921	0.3489
231.7081	0.349
231.924	0.3694
232.14	0.3711
232.3559	0.3293
232.5718	0.3665
232.7877	0.3787
233.0036	0.354
233.2195	0.3733
233.4353	0.3507
233.6512	0.3567
233.867	0.3645
234.0829	0.3608
234.2987	0.3679
234.5145	0.3929
234.7303	0.3625
234.9461	0.3973
235.1619	0.3838
235.3776	0.3786
235.5934	0.4137
235.8091	0.3648
236.0249	0.3747
236.2406	0.3964
236.4563	0.3757
236.672	0.3802
236.8877	0.3865
237.1034	0.3851
237.319	0.4009
237.5347	0.4147
237.7503	0.3981
237.966	0.3918
238.1816	0.426
238.3972	0.4022
238.6128	0.3943
238.8284	0.4114
239.0439	0.4197
239.2595	0.4082
239.475	0.4246
239.6906	0.3972
239.9061	0.4076
240.1216	0.3935
240.3371	0.4154
240.5526	0.4047
240.7681	0.4122
240.9836	0.3995
241.199	0.406
241.4145	0.3962
241.6299	0.3893
241.8453	0.3925
242.0607	0.3807
242.2761	0.3663
242.4915	0.3685
242.7069	0.3843
242.9223	0.3769
243.1376	0.3695
243.353	0.3707
243.5683	0.3576
243.7836	0.3474
243.9989	0.3593
244.2142	0.3362
244.4295	0.333
244.6448	0.3215
244.86	0.3196
245.0753	0.3005
245.2905	0.3125
245.5057	0.2968
245.721	0.287
245.9362	0.2897
246.1514	0.3035
246.3665	0.2762
246.5817	0.2688
246.7969	0.273
247.012	0.2583
247.2271	0.2637
247.4423	0.2723
247.6574	0.2571
247.8725	0.2334
248.0876	0.2519
248.3026	0.2447
248.5177	0.231
248.7328	0.2303
248.9478	0.2161
249.1628	0.2212
249.3779	0.2315
249.5929	0.2136
249.8079	0.2224
250.0228	0.2143
250.2378	0.2153
250.4528	0.2234
250.6677	0.1948
250.8827	0.2069
251.0976	0.1999
251.3125	0.1965
251.5274	0.1774
251.7423	0.1987
251.9572	0.2017
252.172	0.1863
252.3869	0.1881
252.6017	0.1851
252.8166	0.1838
253.0314	0.1774
253.2462	0.1714
253.461	0.1794
253.6758	0.1815
253.8906	0.1883
254.1053	0.17
254.3201	0.184
254.5348	0.1862
254.7496	0.1892
254.9643	0.1764
255.179	0.1727
255.3937	0.1774
255.6083	0.1827
255.823	0.1717
256.0377	0.1741
256.2523	0.1846
256.467	0.1654
256.6816	0.1736
256.8962	0.1627
257.1108	0.1727
257.3254	0.1807
257.54	0.1625
257.7545	0.1736
257.9691	0.1792
258.1836	0.1747
258.3981	0.181
258.6127	0.1815
258.8272	0.1695
259.0417	0.1652
259.2561	0.1728
259.4706	0.1793
259.6851	0.1728
259.8995	0.1688
260.114	0.1748
260.3284	0.1753
260.5428	0.1678
260.7572	0.1715
260.9716	0.1765
261.186	0.1606
261.4003	0.1714
261.6147	0.1795
261.829	0.1831
262.0433	0.1771
262.2577	0.1538
262.472	0.1833
262.6863	0.16
262.9005	0.178
263.1148	0.1714
263.3291	0.1582
263.5433	0.1675
263.7576	0.1725
263.9718	0.1726
264.186	0.1651
264.4002	0.171
264.6144	0.1587
264.8286	0.1696
265.0427	0.1672
265.2569	0.1733
265.471	0.1711
265.6851	0.1678
265.8993	0.1585
266.1134	0.1648
266.3275	0.1724
266.5415	0.1666
266.7556	0.181
266.9697	0.1862
267.1837	0.1739
267.3978	0.1773
267.6118	0.1653
267.8258	0.1921
268.0398	0.1616
268.2538	0.1822
268.4677	0.1679
268.6817	0.1588
268.8957	0.1685
269.1096	0.1638
269.3235	0.1802
269.5374	0.1643
269.7514	0.1617
269.9652	0.1824
270.1791	0.1577
270.393	0.1621
270.6068	0.1771
270.8207	0.1616
271.0345	0.1413
271.2483	0.1664
271.4622	0.1568
271.676	0.1722
271.8897	0.1689
272.1035	0.1649
272.3173	0.1584
272.531	0.1696
272.7448	0.1622
272.9585	0.153
273.1722	0.1525
273.3859	0.1629
273.5996	0.1463
273.8133	0.1544
274.0269	0.1604
274.2406	0.1501
274.4542	0.1552
274.6679	0.1464
274.8815	0.1644
275.0951	0.1569
275.3087	0.1641
275.5223	0.1641
275.7358	0.1571
275.9494	0.1597
276.1629	0.1601
276.3765	0.1594
276.59	0.1634
276.8035	0.1647
277.017	0.157
277.2305	0.1539
277.444	0.1734
277.6574	0.1645
277.8709	0.1768
278.0843	0.1559
278.2978	0.1597
278.5112	0.1583
278.7246	0.1677
278.938	0.1737
279.1513	0.1637
279.3647	0.1698
279.5781	0.1639
279.7914	0.1556
280.0047	0.1904
280.2181	0.1686
280.4314	0.1665
280.6447	0.1599
280.8579	0.1717
281.0712	0.1739
281.2845	0.1749
281.4977	0.1634
281.711	0.1447
281.9242	0.1645
282.1374	0.171
282.3506	0.1599
282.5638	0.1698
282.7769	0.1638
282.9901	0.1632
283.2033	0.1732
283.4164	0.1695
283.6295	0.1528
283.8426	0.1669
284.0557	0.1664
284.2688	0.175
284.4819	0.1773
284.695	0.1736
284.908	0.1756
285.1211	0.1572
285.3341	0.1671
285.5471	0.1815
285.7601	0.1652
285.9731	0.1546
286.1861	0.1646
286.3991	0.1802
286.612	0.1768
286.825	0.1626
287.0379	0.1551
287.2508	0.1605
287.4637	0.1626
287.6766	0.1523
287.8895	0.1653
288.1024	0.1713
288.3152	0.177
288.5281	0.1576
288.7409	0.166
288.9538	0.1585
289.1666	0.1638
289.3794	0.1613
289.5922	0.1658
289.8049	0.1675
290.0177	0.1698
290.2304	0.1496
290.4432	0.1737
290.6559	0.1645
290.8686	0.1683
291.0813	0.1509
291.294	0.1624
291.5067	0.1611
291.7194	0.1639
291.932	0.1691
292.1447	0.1582
292.3573	0.1473
292.5699	0.1613
292.7825	0.1627
292.9951	0.1594
293.2077	0.1602
293.4203	0.1651
293.6328	0.1492
293.8454	0.1647
294.0579	0.1602
294.2704	0.1534
294.4829	0.158
294.6954	0.1644
294.9079	0.158
295.1204	0.1641
295.3328	0.1539
295.5453	0.1586
295.7577	0.1621
295.9701	0.1475
296.1825	0.1479
296.3949	0.1544
296.6073	0.1577
296.8197	0.1489
297.0321	0.1638
297.2444	0.1423
297.4567	0.1585
297.6691	0.1574
297.8814	0.1458
298.0937	0.1638
298.306	0.1603
298.5182	0.1627
298.7305	0.1725
298.9428	0.1628
299.155	0.156
299.3672	0.1539
299.5794	0.147
299.7916	0.1516
300.0038	0.1534
300.216	0.1534
300.4282	0.1679
300.6403	0.1528
300.8525	0.166
301.0646	0.1583
301.2767	0.1583
301.4888	0.149
301.7009	0.1636
301.913	0.1489
302.125	0.1605
302.3371	0.1537
302.5491	0.1519
302.7612	0.1686
302.9732	0.1534
303.1852	0.1585
303.3972	0.1553
303.6092	0.1429
303.8211	0.1409
304.0331	0.1428
304.245	0.1428
304.457	0.1493
304.6689	0.1416
304.8808	0.1629
305.0927	0.1407
305.3046	0.1571
305.5164	0.1511
305.7283	0.1383
305.9401	0.1407
306.152	0.1523
306.3638	0.147
306.5756	0.1438
306.7874	0.1564
306.9992	0.1488
307.2109	0.1282
307.4227	0.135
307.6344	0.1377
307.8462	0.134
308.0579	0.1365
308.2696	0.1349
308.4813	0.1361
308.693	0.1354
308.9046	0.1305
309.1163	0.1279
309.328	0.1252
309.5396	0.1175
309.7512	0.126
309.9628	0.1188
310.1744	0.1262
310.386	0.1268
310.5976	0.1271
310.8091	0.1133
311.0207	0.1173
311.2322	0.1216
311.4437	0.1105
311.6552	0.1159
311.8667	0.1158
312.0782	0.1103
312.2897	0.1009
312.5012	0.1122
312.7126	0.1176
312.924	0.1088
313.1355	0.1258
313.3469	0.1065
313.5583	0.1107
313.7696	0.1213
313.981	0.1155
314.1924	0.1094
314.4037	0.111
314.6151	0.1199
314.8264	0.111
315.0377	0.1226
315.249	0.1054
315.4603	0.1227
315.6716	0.1055
315.8828	0.1027
316.0941	0.1073
316.3053	0.0926
316.5165	0.1153
316.7277	0.102
316.9389	0.1217
317.1501	0.0937
317.3613	0.1093
317.5724	0.083
317.7836	0.1137
317.9947	0.1133
318.2058	0.1067
318.417	0.0961
318.6281	0.0973
318.8391	0.1053
319.0502	0.1058
319.2613	0.1095
319.4723	0.1134
319.6834	0.1104
319.8944	0.0994
320.1054	0.1078
320.3164	0.1146
320.5274	0.1096
320.7383	0.1006
320.9493	0.1053
321.1602	0.1206
321.3712	0.0983
321.5821	0.1108
321.793	0.1106
322.0039	0.1031
322.2148	0.1055
322.4257	0.1132
322.6365	0.1127
322.8474	0.1142
323.0582	0.1008
323.269	0.1206
323.4798	0.1132
323.6906	0.1123
323.9014	0.1164
324.1122	0.123
324.3229	0.1088
324.5337	0.1058
324.7444	0.0856
324.9551	0.1148
325.1658	0.1217
325.3765	0.1186
325.5872	0.1065
325.7979	0.111
326.0085	0.115
326.2192	0.1183
326.4298	0.113
326.6404	0.1103
326.851	0.1015
327.0616	0.1059
327.2722	0.1137
327.4828	0.1165
327.6933	0.1135
327.9039	0.1224
328.1144	0.1205
328.3249	0.1155
328.5354	0.1035
328.7459	0.1169
328.9564	0.1002
329.1669	0.1132
329.3773	0.1176
329.5878	0.1239
329.7982	0.123
330.0086	0.1163
330.219	0.1149
330.4294	0.1172
330.6398	0.1137
330.8502	0.1053
331.0605	0.1232
331.2708	0.1195
331.4812	0.1097
331.6915	0.1129
331.9018	0.1195
332.1121	0.1166
332.3224	0.1068
332.5326	0.1411
332.7429	0.1324
332.9531	0.1325
333.1633	0.1207
333.3735	0.1247
333.5837	0.1175
333.7939	0.1234
334.0041	0.1143
334.2143	0.1135
334.4244	0.1207
334.6346	0.0998
334.8447	0.1235
335.0548	0.1213
335.2649	0.1014
335.475	0.127
335.685	0.1234
335.8951	0.1309
336.1051	0.1231
336.3152	0.1272
336.5252	0.1119
336.7352	0.1249
336.9452	0.1148
337.1552	0.1356
337.3652	0.1255
337.5751	0.1199
337.7851	0.1361
337.995	0.1182
338.2049	0.1177
338.4148	0.1221
338.6247	0.1306
338.8346	0.1188
339.0445	0.1235
339.2543	0.1346
339.4642	0.1225
339.674	0.1212
339.8838	0.1204
340.0936	0.1357
340.3034	0.1257
340.5132	0.1261
340.7229	0.1307
340.9327	0.1178
341.1424	0.1251
341.3522	0.1335
341.5619	0.1198
341.7716	0.1232
341.9813	0.1324
342.1909	0.1369
342.4006	0.1337
342.6102	0.1397
342.8199	0.1251
343.0295	0.1389
343.2391	0.1427
343.4487	0.1326
343.6583	0.1268
343.8679	0.136
344.0774	0.1346
344.287	0.1362
344.4965	0.1267
344.706	0.1372
344.9155	0.1349
345.125	0.1231
345.3345	0.1426
345.544	0.137
345.7534	0.1374
345.9629	0.1317
346.1723	0.1368
346.3817	0.1313
346.5911	0.1321
346.8005	0.1487
347.0099	0.1365
347.2193	0.1441
347.4286	0.1378
347.638	0.1434
347.8473	0.1453
348.0566	0.1412
348.2659	0.1415
348.4752	0.1474
348.6845	0.1289
348.8937	0.136
349.103	0.1463
349.3122	0.138
349.5214	0.1363
349.7306	0.1544
349.9398	0.1434
350.149	0.1464
350.3582	0.1522
350.5674	0.1533
350.7765	0.1437
350.9856	0.1532
351.1948	0.1439
351.4039	0.1486
351.613	0.1288
351.822	0.1448
352.0311	0.1574
352.2402	0.1502
352.4492	0.1569
352.6582	0.1654
352.8672	0.1401
353.0762	0.1586
353.2852	0.1458
353.4942	0.148
353.7032	0.1389
353.9121	0.1486
354.1211	0.1507
354.33	0.1521
354.5389	0.1586
354.7478	0.1504
354.9567	0.1547
355.1655	0.1459
355.3744	0.1615
355.5833	0.1568
355.7921	0.1695
356.0009	0.1623
356.2097	0.1794
356.4185	0.19
356.6273	0.1662
356.8361	0.1627
357.0448	0.1467
357.2536	0.1508
357.4623	0.1529
357.671	0.1703
357.8797	0.165
358.0884	0.1625
358.2971	0.1648
358.5057	0.1739
358.7144	0.1795
358.923	0.1657
359.1316	0.1639
359.3402	0.1755
359.5488	0.1763
359.7574	0.1565
359.966	0.1788
360.1746	0.1765
360.3831	0.1698
360.5916	0.1766
360.8002	0.1572
361.0087	0.1806
361.2172	0.1769
361.4256	0.1769
361.6341	0.1932
361.8426	0.1788
362.051	0.1756
362.2594	0.1802
362.4678	0.1711
362.6762	0.1864
362.8846	0.1871
363.093	0.1856
363.3014	0.1766
363.5097	0.1655
363.718	0.1885
363.9264	0.1906
364.1347	0.1659
364.343	0.1723
364.5513	0.1979
364.7595	0.1907
364.9678	0.1819
365.176	0.1839
365.3842	0.1959
365.5925	0.2021
365.8007	0.2084
366.0089	0.1863
366.217	0.1799
366.4252	0.2147
366.6333	0.203
366.8415	0.1922
367.0496	0.1663
367.2577	0.2098
367.4658	0.2035
367.6739	0.2079
367.882	0.2029
368.09	0.1938
368.2981	0.1943
368.5061	0.1903
368.7141	0.2063
368.9221	0.1995
369.1301	0.2039
369.3381	0.2015
369.5461	0.2082
369.754	0.2043
369.962	0.2126
370.1699	0.1989
370.3778	0.2278
370.5857	0.1859
370.7936	0.1877
371.0015	0.2155
371.2093	0.2105
371.4172	0.1965
371.625	0.1922
371.8328	0.2008
372.0406	0.2033
372.2484	0.1977
372.4562	0.2093
372.664	0.2081
372.8717	0.222
373.0795	0.1819
373.2872	0.204
373.4949	0.2223
373.7026	0.2087
373.9103	0.2204
374.118	0.2225
374.3256	0.2143
374.5333	0.2013
374.7409	0.2048
374.9485	0.2306
375.1561	0.2114
375.3637	0.2257
375.5713	0.216
375.7789	0.2109
375.9864	0.2141
376.194	0.2116
376.4015	0.2235
376.609	0.2229
376.8165	0.2183
377.024	0.2108
377.2315	0.2026
377.4389	0.2179
377.6464	0.2087
377.8538	0.2217
378.0612	0.2092
378.2686	0.2206
378.476	0.2372
378.6834	0.2201
378.8908	0.2287
379.0981	0.229
379.3055	0.2219
379.5128	0.2225
379.7201	0.2197
379.9274	0.209
380.1347	0.2198
380.342	0.2211
380.5492	0.2139
380.7565	0.2186
380.9637	0.2346
381.1709	0.2226
381.3781	0.2213
381.5853	0.2281
381.7925	0.2381
381.9997	0.2219
382.2068	0.2476
382.4139	0.2371
382.6211	0.2275
382.8282	0.2272
383.0353	0.2391
383.2424	0.2288
383.4494	0.248
383.6565	0.2266
383.8635	0.2125
384.0706	0.2316
384.2776	0.2439
384.4846	0.2284
384.6916	0.2388
384.8986	0.2228
385.1055	0.2432
385.3125	0.2377
385.5194	0.1961
385.7263	0.231
385.9333	0.2182
386.1402	0.218
386.347	0.207
386.5539	0.2162
386.7608	0.2447
386.9676	0.199
387.1744	0.2273
387.3813	0.2105
387.5881	0.2134
387.7948	0.2289
388.0016	0.2241
388.2084	0.2249
388.4151	0.2265
388.6219	0.2212
388.8286	0.2407
389.0353	0.2372
389.242	0.223
389.4487	0.2095
389.6553	0.2134
389.862	0.1924
390.0686	0.2055
390.2753	0.2354
390.4819	0.2194
390.6885	0.213
390.8951	0.2263
391.1016	0.2027
391.3082	0.2105
391.5147	0.2202
391.7213	0.2191
391.9278	0.1962
392.1343	0.2065
392.3408	0.2092
392.5473	0.213
392.7537	0.206
392.9602	0.212
393.1666	0.1937
393.373	0.2016
393.5794	0.2089
393.7858	0.2026
393.9922	0.1899
394.1986	0.2081
394.4049	0.1861
394.6113	0.1932
394.8176	0.1791
395.0239	0.206
395.2302	0.2003
395.4365	0.1957
395.6428	0.2036
395.8491	0.2005
396.0553	0.1979
396.2615	0.2025
396.4678	0.1943
396.674	0.1785
396.8802	0.1967
397.0863	0.2076
397.2925	0.1911
397.4987	0.1789
397.7048	0.1772
397.9109	0.1934
398.117	0.1716
398.3231	0.175
398.5292	0.201
398.7353	0.187
398.9413	0.1803
399.1474	0.1782
399.3534	0.1893
399.5594	0.1793
399.7654	0.1928
399.9714	0.201
400.1774	0.1842
400.3833	0.1792
400.5893	0.1825
400.7952	0.1818
401.0011	0.1915
401.207	0.1911
401.4129	0.1847
401.6188	0.2
401.8247	0.1993
402.0305	0.1734
402.2364	0.1746
402.4422	0.2069
402.648	0.1953
402.8538	0.197
403.0596	0.1893
403.2654	0.1936
403.4711	0.1924
403.6768	0.1958
403.8826	0.2166
404.0883	0.1844
404.294	0.2012
404.4997	0.2011
404.7054	0.2018
404.911	0.1775
405.1167	0.1901
405.3223	0.2053
405.5279	0.2056
405.7335	0.1996
405.9391	0.1817
406.1447	0.1649
406.3502	0.1931
406.5558	0.1783
406.7613	0.1869
406.9668	0.1823
407.1724	0.1868
407.3778	0.1829
407.5833	0.1969
407.7888	0.1899
407.9942	0.2092
408.1997	0.1919
408.4051	0.1794
408.6105	0.1795
408.8159	0.1916
409.0213	0.1771
409.2267	0.2103
409.432	0.1661
409.6374	0.192
409.8427	0.1771
410.048	0.1785
410.2533	0.1729
410.4586	0.1742
410.6639	0.1618
410.8691	0.1823
411.0744	0.1852
411.2796	0.1756
411.4848	0.1914
411.69	0.1718
411.8952	0.1964
412.1004	0.1483
412.3056	0.182
412.5107	0.1842
412.7158	0.1888
412.921	0.1809
413.1261	0.1798
413.3312	0.1792
413.5362	0.1635
413.7413	0.1621
413.9464	0.1689
414.1514	0.1663
414.3564	0.1759
414.5614	0.1751
414.7664	0.15
414.9714	0.1746
415.1764	0.1616
415.3813	0.18
415.5863	0.1765
415.7912	0.1863
415.9961	0.1758
416.201	0.1918
416.4059	0.1699
416.6108	0.177
416.8156	0.1874
417.0205	0.1617
417.2253	0.1636
417.4301	0.1843
417.6349	0.1703
417.8397	0.1687
418.0445	0.1678
418.2492	0.1731
418.454	0.177
418.6587	0.1884
418.8634	0.1902
419.0681	0.1467
419.2728	0.1505
419.4775	0.1727
419.6822	0.1547
419.8868	0.1538
420.0915	0.1572
420.2961	0.1527
420.5007	0.1543
420.7053	0.1666
420.9099	0.1568
421.1144	0.1438
421.319	0.1533
421.5235	0.1665
421.728	0.1606
421.9325	0.1619
422.137	0.1808
422.3415	0.1632
422.546	0.1573
422.7504	0.1536
422.9549	0.1698
423.1593	0.1721
423.3637	0.1678
423.5681	0.1679
423.7725	0.135
423.9769	0.1559
424.1812	0.14
424.3856	0.1439
424.5899	0.1458
424.7942	0.1573
424.9985	0.1532
425.2028	0.142
425.4071	0.1492
425.6113	0.1444
425.8156	0.1471
426.0198	0.1536
426.224	0.1258
426.4282	0.1516
426.6324	0.1318
426.8366	0.142
427.0407	0.1476
427.2449	0.1445
427.449	0.1409
427.6531	0.1229
427.8572	0.1334
428.0613	0.1221
428.2654	0.1434
428.4694	0.1263
428.6735	0.1456
428.8775	0.141
429.0815	0.1288
429.2855	0.1428
429.4895	0.1371
429.6935	0.1329
429.8975	0.1355
430.1014	0.1237
430.3053	0.1129
430.5093	0.1137
430.7132	0.1191
430.9171	0.118
431.1209	0.1193
431.3248	0.1158
431.5286	0.1226
431.7325	0.1168
431.9363	0.0912
432.1401	0.1181
432.3439	0.1118
432.5477	0.0901
432.7514	0.1012
432.9552	0.1127
433.1589	0.0878
433.3627	0.095
433.5664	0.0954
433.7701	0.1121
433.9737	0.0975
434.1774	0.0999
434.3811	0.0957
434.5847	0.1082
434.7883	0.0931
434.9919	0.0729
435.1955	0.0959
435.3991	0.1008
435.6027	0.0968
435.8062	0.0842
436.0098	0.0972
436.2133	0.0823
436.4168	0.0776
436.6203	0.0784
436.8238	0.1022
437.0272	0.0886
437.2307	0.0645
437.4341	0.0887
437.6375	0.0931
437.841	0.0705
438.0443	0.0795
438.2477	0.0841
438.4511	0.0663
438.6545	0.0892
438.8578	0.0828
439.0611	0.076
439.2644	0.0673
439.4677	0.0652
439.671	0.0708
439.8743	0.0731
440.0775	0.0849
440.2808	0.0676
440.484	0.0519
440.6872	0.0392
440.8904	0.049
441.0936	0.0707
441.2967	0.07
441.4999	0.0654
441.703	0.0522
441.9062	0.0537
442.1093	0.0718
442.3124	0.0422
442.5155	0.0401
442.7185	0.0541
442.9216	0.03
443.1246	0.0657
443.3276	0.0563
443.5307	0.0556
443.7337	0.0431
443.9366	0.0547
444.1396	0.0378
444.3426	0.0693
444.5455	0.044
444.7484	0.0384
444.9513	0.0375
445.1542	0.0471
445.3571	0.0444
445.56	0.0464
445.7628	0.0323
445.9657	0.0388
446.1685	0.0485
446.3713	0.0416
446.5741	0.045
446.7769	0.0469
446.9797	0.0363
447.1824	0.0321
447.3852	0.029
447.5879	0.0354
447.7906	0.0519
447.9933	0.02
448.196	0.0198
448.3986	0.0322
448.6013	0.0356
448.8039	0.0206
449.0066	0.017
449.2092	0.0278
449.4118	0.0291
449.6143	0.0139
449.8169	0.0421
450.0195	0.0064
450.222	0.0151
450.4245	0.0155
450.627	0.0323
450.8295	0.0255
451.032	0.0188
451.2345	0.0339
451.4369	0.0268
451.6394	0.0251
451.8418	0.0002
452.0442	0.0148
452.2466	0.0285
452.449	0.0045
452.6513	0.0219
452.8537	0.0054
453.056	0.0073
453.2583	0.0246
453.4607	0.017
453.663	0.0067
453.8652	0.0144
454.0675	-0.0015
454.2697	0.0219
454.472	0.0188
454.6742	0.0161
454.8764	0.0253
455.0786	0.0203
455.2808	-0.0017
455.4829	0.0083
455.6851	0.0144
455.8872	0.0208
456.0893	0.0294
456.2915	0.0012
456.4935	0.0115
456.6956	0.0065
456.8977	0.005
457.0997	0.0092
457.3018	0.0009
457.5038	0.0059
457.7058	0.0139
457.9078	-0.0031
458.1098	0.0174
458.3117	0.006
458.5137	0.0171
458.7156	0.0156
458.9175	-0.0055
459.1194	0.0046
459.3213	0.0002
459.5232	-0.0003
459.725	-0.0091
459.9269	-0.0009
460.1287	0.0029
460.3305	0.0025
460.5323	0.0021
460.7341	-0.0037
460.9359	0.0018
461.1376	0.0135
461.3394	0.0047
461.5411	0.0198
461.7428	0.0004
461.9445	0.009
462.1462	0.0133
462.3479	-0.0086
462.5495	0.0027
462.7512	0.0106
462.9528	0.0029
463.1544	-0.0086
463.356	0.0114
463.5576	0.0127
463.7592	0.0014
463.9607	0.0114
464.1623	0.0091
464.3638	0.0206
464.5653	-0.0045
464.7668	0.0058
464.9683	0.0179
465.1697	-0.0007
465.3712	-0.0005
465.5726	-0.0082
465.7741	0.0014
465.9755	-0.0032
466.1769	-0.0117
466.3782	0.0057
466.5796	-0.0142
466.7809	0.0098
466.9823	0.0047
467.1836	0.0039
467.3849	-0.0148
467.5862	-0.0011
467.7875	-0.0159
467.9887	0.0135
468.19	-0.0041
468.3912	0.0047
468.5924	-0.0003
468.7936	-0.0066
468.9948	0.0057
469.196	0.0071
469.3972	-0.0027
469.5983	0.0041
469.7994	-0.0159
470.0006	-0.0119
470.2017	-0.0136
470.4027	0.0007
470.6038	-0.0038
470.8049	-0.0201
471.0059	-0.0113
471.2069	-0.0269
471.408	0.0023
471.6089	-0.0026
471.8099	-0.0141
472.0109	-0.0106
472.2119	-0.0097
472.4128	-0.0148
472.6137	-0.0021
472.8146	-0.0267
473.0155	-0.005
473.2164	-0.0207
473.4173	-0.0017
473.6181	-0.014
473.819	-0.0078
474.0198	0.0096
474.2206	-0.0162
474.4214	-0.0058
474.6222	-0.0066
474.8229	-0.0083
475.0237	-0.0149
475.2244	-0.0106
475.4251	-0.011
475.6258	-0.0128
475.8265	-0.0103
476.0272	0.0044
476.2278	-0.0008
476.4285	-0.0111
476.6291	-0.0044
476.8297	-0.0075
477.0303	-0.0164
477.2309	-0.0036
477.4315	-0.0118
477.632	-0.0191
477.8326	-0.0197
478.0331	-0.0059
478.2336	-0.006
478.4341	-0.0073
478.6346	-0.0142
478.8351	-0.0126
479.0355	-0.0086
479.236	-0.0108
479.4364	0
479.6368	-0.0133
479.8372	-0.0116
480.0376	-0.0037
480.2379	-0.0178
480.4383	-0.0051
480.6386	0.0061
480.8389	-0.0064
481.0392	-0.0136
481.2395	-0.0111
481.4398	-0.0017
481.6401	0.0008
481.8403	-0.0054
482.0405	-0.0047
482.2408	-0.001
482.441	0.0044
482.6411	-0.0075
482.8413	-0.0176
483.0415	-0.0112
483.2416	-0.0076
483.4417	-0.0113
483.6419	-0.012
483.8419	-0.0098
484.042	0.0063
484.2421	0.0036
484.4422	0.0041
484.6422	-0.0036
484.8422	0.0118
485.0422	-0.0175
485.2422	-0.0098
485.4422	-0.0183
485.6422	-0.012
485.8421	-0.0099
486.042	-0.001
486.242	0.0044
486.4419	-0.0066
486.6417	-0.011
486.8416	0.0046
487.0415	-0.0078
487.2413	-0.018
487.4411	0.001
487.641	-0.0111
487.8408	-0.0045
488.0405	-0.0072
488.2403	-0.0038
488.4401	-0.0012
488.6398	-0.0055
488.8395	-0.002
489.0392	-0.0026
489.2389	-0.005
489.4386	-0.0076
489.6383	-0.0083
489.8379	0.0012
490.0376	-0.0075
490.2372	-0.0189
490.4368	-0.0115
490.6364	-0.0138
490.836	-0.0132
491.0355	0.0069
491.2351	-0.0145
491.4346	-0.0057
491.6341	-0.017
491.8336	-0.005
492.0331	-0.0161
492.2326	-0.0199
492.432	0.0027
492.6315	-0.009
492.8309	-0.0047
493.0303	-0.015
493.2297	-0.0163
493.4291	-0.0015
493.6284	-0.0106
493.8278	-0.0009
494.0271	0.0054
494.2264	0.0022
494.4257	-0.0225
494.625	-0.0185
494.8243	-0.0251
495.0236	-0.0174
495.2228	-0.021
495.422	-0.004
495.6213	-0.011
495.8205	-0.0071
496.0196	0.0002
496.2188	0.0017
496.418	-0.0075
496.6171	-0.0076
496.8162	-0.0059
497.0153	-0.0044
497.2144	-0.0097
497.4135	-0.0072
497.6126	-0.0256
497.8116	-0.0123
498.0107	-0.005
498.2097	-0.0186
498.4087	-0.0116
498.6077	0.0027
498.8067	-0.0087
499.0056	-0.0046
499.2046	-0.013
499.4035	-0.0193
499.6024	-0.0044
499.8013	0.0064
500.0002	-0.0145
500.199	-0.0111
500.3979	-0.0071
500.5967	-0.025
500.7956	-0.0098
500.9944	-0.0117
501.1932	-0.0139
501.3919	-0.0163
501.5907	-0.02
501.7895	-0.0091
501.9882	-0.0149
502.1869	-0.0102
502.3856	-0.0183
502.5843	-0.0108
502.783	-0.0174
502.9816	-0.0029
503.1803	-0.0125
503.3789	-0.0091
503.5775	0.0012
503.7761	-0.0085
503.9747	-0.0132
504.1732	-0.0023
504.3718	-0.006
504.5703	0
504.7689	-0.0098
504.9674	-0.0078
505.1658	-0.0154
505.3643	-0.0105
505.5628	-0.0123
505.7612	-0.0097
505.9597	-0.0054
506.1581	-0.0122
506.3565	0.0012
506.5549	-0.0105
506.7532	-0.019
506.9516	-0.0064
507.1499	0.0032
507.3482	-0.0217
507.5465	-0.008
507.7448	-0.005
507.9431	-0.0028
508.1414	-0.0087
508.3396	-0.0153
508.5379	-0.0113
508.7361	-0.01
508.9343	-0.0037
509.1325	0.0014
509.3306	-0.0073
509.5288	-0.0011
509.7269	-0.0155
509.9251	-0.0044
510.1232	-0.0139
510.3213	0.0061
510.5193	-0.0043
510.7174	-0.0157
510.9154	-0.0104
511.1135	-0.0094
511.3115	-0.009
511.5095	-0.0109
511.7075	-0.0094
511.9055	-0.0125
512.1034	-0.0081
512.3014	-0.0036
512.4993	-0.0029
512.6972	-0.0091
512.8951	-0.0194
513.093	-0.0081
513.2908	-0.0048
513.4887	-0.0074
513.6865	-0.0117
513.8844	-0.011
514.0822	-0.0229
514.2799	-0.0146
514.4777	-0.0157
514.6755	-0.0187
514.8732	-0.0229
515.0709	-0.0106
515.2687	-0.0028
515.4664	-0.0034
515.664	-0.0088
515.8617	-0.0156
516.0594	-0.0204
516.257	-0.0074
516.4546	-0.0175
516.6522	-0.0014
516.8498	-0.0066
517.0474	0.006
517.2449	-0.0031
517.4425	-0.0136
517.64	-0.0162
517.8375	0.0038
518.035	-0.0185
518.2325	-0.0159
518.43	-0.0018
518.6274	-0.0157
518.8249	-0.0134
519.0223	-0.0094
519.2197	-0.0166
519.4171	-0.0115
519.6145	-0.0177
519.8118	0.0023
520.0092	-0.0118
520.2065	-0.0243
520.4038	-0.0155
520.6011	-0.0056
520.7984	-0.0134
520.9956	-0.0066
521.1929	-0.0128
521.3901	-0.007
521.5874	-0.0081
521.7846	-0.0047
521.9818	-0.0137
522.1789	-0.0147
522.3761	-0.0071
522.5732	-0.0072
522.7704	-0.0199
522.9675	-0.0147
523.1646	-0.017
523.3617	-0.0074
523.5587	-0.0085
523.7558	0.0027
523.9528	-0.0041
524.1498	-0.009
524.3468	-0.0107
524.5438	-0.0153
524.7408	-0.0069
524.9378	0.0008
525.1347	-0.0044
525.3316	-0.0027
525.5285	-0.0187
525.7254	-0.0119
525.9223	-0.0029
526.1192	0.0021
526.316	-0.0069
526.5129	-0.0044
526.7097	-0.0016
526.9065	-0.0034
527.1033	-0.0101
527.3	-0.0018
527.4968	-0.009
527.6935	-0.0091
527.8903	-0.0222
528.087	0.0006
528.2837	-0.0128
528.4804	0.0077
528.677	-0.0196
528.8737	-0.0055
529.0703	-0.0034
529.2669	-0.0003
529.4635	-0.0087
529.6601	0.0017
529.8567	-0.0112
530.0532	-0.0062
530.2498	-0.0057
530.4463	0.0044
530.6428	-0.0036
530.8393	0.0042
531.0358	-0.0017
531.2322	-0.0073
531.4287	-0.003
531.6251	-0.0028
531.8215	-0.0034
532.0179	-0.0056
532.2143	0.0053
532.4107	-0.0122
532.607	-0.0087
532.8034	0.0023
532.9997	-0.0111
533.196	-0.0135
533.3923	-0.0163
533.5886	-0.0001
533.7848	0.0027
533.9811	-0.0022
534.1773	-0.0061
534.3735	0.0068
534.5697	0.0059
534.7659	0.0062
534.9621	0.0098
535.1582	-0.0126
535.3544	-0.0077
535.5505	-0.0115
535.7466	-0.0043
535.9427	-0.0107
536.1387	-0.0146
536.3348	-0.0138
536.5308	0.0063
536.7269	-0.0055
536.9229	-0.0007
537.1189	-0.006
537.3148	-0.0021
537.5108	-0.0056
537.7068	-0.0087
537.9027	0.0006
538.0986	0.0017
538.2945	-0.0091
538.4904	-0.0052
538.6863	-0.0051
538.8821	-0.004
539.078	-0.0046
539.2738	0.0106
539.4696	-0.0076
539.6654	0.0074
539.8611	0.012
540.0569	0.001
540.2526	-0.0046
540.4484	-0.0046
540.6441	0.0028
540.8398	-0.0054
541.0355	-0.0009
541.2311	-0.005
541.4268	-0.0138
541.6224	-0.0015
541.818	0.005
542.0136	-0.0133
542.2092	-0.0035
542.4048	0.0014
542.6003	-0.0017
542.7959	-0.0088
542.9914	-0.0073
543.1869	-0.0006
543.3824	0.0021
543.5779	-0.0002
543.7734	-0.0087
543.9688	-0.0108
544.1642	0.0001
544.3596	0.002
544.555	-0.0049
544.7504	-0.0041
544.9458	-0.0107
545.1411	0.001
545.3365	0.0016
545.5318	-0.0087
545.7271	-0.0029
545.9224	-0.0058
546.1177	0.0013
546.3129	0.0066
546.5081	-0.005
546.7034	-0.0041
546.8986	-0.0108
547.0938	-0.0104
547.289	-0.0052
547.4841	-0.0105
547.6793	0.0014
547.8744	-0.0073
548.0695	-0.007
548.2646	-0.0142
548.4597	0.0026
548.6548	-0.0093
548.8498	-0.0016
549.0448	-0.0049
549.2399	-0.0077
549.4349	0.0002
549.6298	0.001
549.8248	-0.0045
550.0198	0.0016
550.2147	-0.0007
550.4096	-0.0032
550.6045	-0.0008
550.7994	-0.0011
550.9943	0.0021
551.1892	0.0015
551.384	0.0062
551.5788	-0.0109
551.7737	0.001
551.9685	-0.0045
552.1632	0.0026
552.358	-0.0031
552.5528	0.0011
552.7475	-0.0036
552.9422	-0.0035
553.1369	0.0002
553.3316	-0.0008
553.5263	-0.0024
553.7209	0.0019
553.9156	0.0003
554.1102	-0.0042
554.3048	-0.0075
554.4994	0.0127
554.694	-0.0004
554.8885	0.0068
555.0831	0.0009
555.2776	-0.0018
555.4721	-0.0064
555.6666	0.0067
555.8611	0.0131
556.0555	0.0023
556.25	-0.0037
556.4444	-0.0073
556.6388	-0.0004
556.8332	0.0004
557.0276	0.0016
557.222	-0.009
557.4163	0.0023
557.6107	-0.0076
557.805	0.0063
557.9993	-0.0063
558.1936	-0.0028
558.3879	-0.0004
558.5821	-0.0017
558.7764	-0.005
558.9706	0.0031
559.1648	0.0037
559.359	-0.0009
559.5532	-0.0041
559.7473	0.0013
559.9415	0.0025
560.1356	-0.0042
560.3297	-0.0141
560.5238	-0.0025
560.7179	-0.0097
560.9119	-0.0043
561.106	-0.0044
561.3	-0.005
561.494	-0.0006
561.688	-0.0045
561.882	-0.0071
562.076	-0.0093
562.2699	0.0042
562.4639	-0.0056
562.6578	-0.0029
562.8517	0.0004
563.0456	-0.0072
563.2395	0
563.4333	-0.0021
563.6272	0.0105
563.821	-0.0019
564.0148	-0.0026
564.2086	-0.0089
564.4024	-0.0055
564.5961	-0.0123
564.7899	0.001
564.9836	0.0037
565.1773	-0.0002
565.371	0.0077
565.5647	0.002
565.7584	-0.0032
565.952	-0.0038
566.1456	-0.0042
566.3393	0.0026
566.5329	-0.0056
566.7264	-0.0031
566.92	-0.0036
567.1136	0.0041
567.3071	-0.0033
567.5006	0.0096
567.6941	-0.0008
567.8876	-0.0043
568.0811	-0.0005
568.2745	-0.0022
568.468	0.0053
568.6614	0.0012
568.8548	0.0014
569.0482	-0.0055
569.2416	-0.0037
569.4349	0.0023
569.6283	0.0013
569.8216	0.0025
570.0149	-0.0062
570.2082	-0.0013
570.4015	0.0103
570.5947	0.001
570.788	0.0057
570.9812	0.002
571.1744	0.0016
571.3676	-0.0132
571.5608	-0.001
571.754	0.0055
571.9471	-0.0031
572.1402	-0.0019
572.3333	-0.0072
572.5264	-0.0046
572.7195	-0.0059
572.9126	-0.0012
573.1057	-0.0044
573.2987	-0.0001
573.4917	0.0025
573.6847	-0.0111
573.8777	0.0046
574.0707	0.0027
574.2636	0.0047
574.4566	-0.0029
574.6495	0.007
574.8424	-0.0038
575.0353	0
575.2281	0.0034
575.421	0.0027
575.6138	0.0069
575.8067	0.0007
575.9995	0.0026
576.1923	-0.0047
576.385	-0.0006
576.5778	-0.0002
576.7706	-0.0063
576.9633	-0.0031
577.156	-0.0001
577.3487	-0.0052
577.5414	-0.0006
577.734	-0.0047
577.9267	0.0018
578.1193	-0.0131
578.3119	-0.0078
578.5045	-0.0011
578.6971	-0.0029
578.8897	0.0046
579.0822	-0.0016
579.2747	0.0013
579.4673	-0.0033
579.6598	-0.0045
579.8522	-0.0026
580.0447	-0.0086
580.2372	-0.0038
580.4296	-0.0019
580.622	0.0007
580.8144	0.0066
581.0068	-0.0021
581.1992	-0.0153
581.3915	-0.0101
581.5839	-0.0089
581.7762	-0.0081
581.9685	-0.0033
582.1608	0.0007
582.353	-0.0068
582.5453	-0.0044
582.7375	0.0036
582.9298	0.0025
583.122	0.0058
583.3142	-0.0038
583.5063	0.0005
583.6985	-0.0059
583.8906	-0.0014
584.0827	-0.0085
584.2749	0.0023
584.4669	0.0046
584.659	0.0015
584.8511	-0.0076
585.0431	-0.0052
585.2352	0.003
585.4272	-0.0037
585.6192	0.0006
585.8111	0.0022
586.0031	0.0022
586.195	0.001
586.387	0.0071
586.5789	-0.0062
586.7708	0.0011
586.9627	-0.0015
587.1545	-0.0015
587.3464	-0.0045
587.5382	0.0007
587.73	-0
587.9218	0.0037
588.1136	-0.0056
588.3053	0.0071
588.4971	0.001
588.6888	-0.0014
588.8805	-0.0011
589.0722	0.0053
589.2639	-0.0046
589.4556	-0.0024
589.6472	-0.0068
589.8389	-0.0088
590.0305	-0.0091
590.2221	0.0017
590.4137	-0.006
590.6052	-0.0006
590.7968	-0.0003
590.9883	-0.0011
591.1798	0.0008
591.3713	-0.0002
591.5628	0.0044
591.7543	0.0047
591.9458	-0.0023
592.1372	0.0066
592.3286	0.013
592.52	0.0054
592.7114	0.0009
592.9028	-0.0007
593.0941	-0.0057
593.2855	-0.0019
593.4768	-0.0047
593.6681	-0.0046
593.8594	-0.0044
594.0506	-0.0011
594.2419	0.0044
594.4331	0.0051
594.6244	0.0048
594.8156	-0.0037
595.0067	0.0052
595.1979	0.0035
595.3891	-0.0001
595.5802	-0.0053
595.7713	-0.0022
595.9624	-0.0053
596.1535	0.0074
596.3446	0.0026
596.5357	-0.0012
596.7267	0.0067
596.9177	0.0069
597.1087	-0.0014
597.2997	-0.0024
597.4907	0.0042
597.6817	-0.0018
597.8726	0.0061
598.0635	-0.0042
598.2544	0.002
598.4453	-0.0027
598.6362	0.0033
598.827	-0.0015
599.0179	0.0078
599.2087	0.0034
599.3995	0.0038
599.5903	-0.0001
599.7811	0.0043
599.9718	0.0017
600.1626	-0.0052
600.3533	-0.0047
600.544	0.0068
600.7347	-0.0017
600.9254	0.0042
601.116	-0.0073
601.3067	0.0062
601.4973	-0.0014
601.6879	0.0084
601.8785	-0.0008
602.0691	0.0122
602.2596	0.0029
602.4502	0.0065
602.6407	0.0039
602.8312	0.003
603.0217	-0.0008
603.2122	-0.0027
603.4027	0.001
603.5931	0.004
603.7835	0.0043
603.9739	-0.0002
604.1643	0.0061
604.3547	-0.0091
604.5451	-0.0003
604.7354	0.0055
604.9257	0.003
605.116	-0.0003
605.3063	0.0013
605.4966	-0.0013
605.6869	-0.001
605.8771	0.0072
606.0673	0.0056
606.2575	0.0035
606.4477	0.0057
606.6379	0.0025
606.8281	0.0005
607.0182	-0.0042
607.2083	0.0102
607.3985	-0
607.5885	0.0012
607.7786	-0.0002
607.9687	-0.0044
608.1587	0.0053
608.3488	0.0066
608.5388	0.0033
608.7288	-0.0049
608.9187	-0.0051
609.1087	-0.0068
609.2986	-0.0056
609.4886	-0.0007
609.6785	-0.0022
609.8684	0.0038
610.0582	-0.0002
610.2481	-0.0021
610.4379	-0.0064
610.6278	-0.0031
610.8176	-0.0005
611.0074	-0.0058
611.1971	-0.002
611.3869	-0.0075
611.5766	-0.0046
611.7664	-0.0015
611.9561	-0.0031
612.1458	-0.0007
612.3354	-0.0062
612.5251	0.0006
612.7147	0.0042
612.9044	0.0024
613.094	-0.0051
613.2836	-0.0026
613.4731	-0.0126
613.6627	-0.0011
613.8522	0.0029
614.0417	0.0013
614.2313	-0.0034
614.4207	-0.0042
614.6102	0.0039
614.7997	-0.0029
614.9891	-0.0057
615.1785	-0.0014
615.3679	-0.0049
615.5573	0.0066
615.7467	-0.0058
615.9361	-0.0001
616.1254	-0.008
616.3147	0.0005
616.504	0.0035
616.6933	0.0041
616.8826	0.0043
617.0718	0.0028
617.2611	0.0051
617.4503	-0.0022
617.6395	0.0039
617.8287	-0.0069
618.0179	0.0013
618.207	0.0089
618.3961	0.0035
618.5853	-0.0003
618.7744	0.0115
618.9634	0.0017
619.1525	0.0084
619.3416	0.0002
619.5306	0.0042
619.7196	0.0033
619.9086	-0.005
620.0976	0.0096
620.2866	0.0001
620.4755	0.0063
620.6645	-0.0017
620.8534	-0.002
621.0423	0.0098
621.2312	0.005
621.42	-0.0006
621.6089	0.0009
621.7977	0.0066
621.9865	-0.0044
622.1753	0.0027
622.3641	-0.0032
622.5529	0.0052
622.7416	0.0041
622.9303	-0.0073
623.1191	-0.0009
623.3078	-0.0057
623.4964	0.0026
623.6851	0.0011
623.8737	-0
624.0624	0.0076
624.251	0.0035
624.4396	-0.0057
624.6282	-0.0006
624.8167	0.0007
625.0053	0.0054
625.1938	0.0037
625.3823	0.0052
625.5708	0.0003
625.7593	-0.0035
625.9477	-0.0044
626.1362	0.0039
626.3246	0.0015
626.513	0.0079
626.7014	0.0106
626.8898	0.0091
627.0781	-0.0012
627.2665	0.001
627.4548	0.0092
627.6431	-0.0009
627.8314	0.0037
628.0197	0.0026
628.2079	-0.0036
628.3962	0.0015
628.5844	0.0091
628.7726	0.0099
628.9608	0.0165
629.1489	0.0054
629.3371	0.0099
629.5252	0.0006
629.7134	0.0129
629.9015	0.0048
630.0895	0.0043
630.2776	0.0084
630.4657	0.0004
630.6537	0.0037
630.8417	-0.001
631.0297	-0.0075
631.2177	0.0003
631.4057	-0.0022
631.5936	0.0019
631.7815	-0.0038
631.9695	0.0019
632.1574	0.0089
632.3452	0.0105
632.5331	0.0013
632.7209	0.0022
632.9088	0.0084
633.0966	0.0074
633.2844	-0.0012
633.4722	0.0061
633.6599	0.0142
633.8477	0.0055
634.0354	0.0025
634.2231	0.003
634.4108	0.0069
634.5985	0.0061
634.7861	0.0038
634.9738	-0
635.1614	-0.0021
635.349	0.0041
635.5366	0.001
635.7242	-0.0057
635.9117	0.0089
636.0993	-0.0022
636.2868	0.0018
636.4743	-0.0056
636.6618	0.0095
636.8492	-0.0007
637.0367	0.0041
637.2241	0.0034
637.4115	-0.0029
637.5989	-0.0011
637.7863	-0.0028
637.9737	-0.002
638.161	0.0041
638.3484	-0.0042
638.5357	0.0115
638.723	-0.0024
638.9103	0.0066
639.0975	0.005
639.2848	0.0055
639.472	0.0069
639.6592	0.006
639.8464	0.0111
640.0336	0.0119
640.2208	0.0027
640.4079	0.0058
640.595	0.0004
640.7821	0.0079
640.9692	0.0045
641.1563	0.0064
641.3434	0.0075
641.5304	0.0073
641.7174	0.0013
641.9044	0.0053
642.0914	0.0051
642.2784	0.0005
642.4653	0.0197
642.6523	-0.0013
642.8392	0.0041
643.0261	0.0083
643.213	0.003
643.3999	0.0024
643.5867	0.001
643.7735	0.0091
643.9604	0.0051
644.1472	0.0019
644.3339	0.016
644.5207	0.0051
644.7075	0.0056
644.8942	0.0029
645.0809	0.0086
645.2676	0.0077
645.4543	0.0017
645.6409	0.0109
645.8276	0.005
646.0142	0.0041
646.2008	-0.0011
646.3874	0.0042
646.574	0.0051
646.7605	0.0029
646.9471	-0.0081
647.1336	0.0027
647.3201	0.002
647.5066	-0.006
647.6931	0.0103
647.8795	0.0046
648.0659	0.0092
648.2524	0.0081
648.4388	-0.0054
648.6252	0.0028
648.8115	0.0039
648.9979	0.0008
649.1842	0.0152
649.3705	0.0049
649.5568	0.0079
649.7431	0.0118
649.9294	0.003
650.1156	0.0094
650.3018	-0.0005
650.488	0.0015
650.6742	0.01
650.8604	-0.0015
651.0466	-0.0069
651.2327	0.0007
651.4188	-0.001
651.6049	-0.0018
651.791	0.0042
651.9771	0.003
652.1632	0.0081
652.3492	0.0044
652.5352	0.0061
652.7212	-0.003
652.9072	0.0099
653.0932	-0.0006
653.2791	-0.0038
653.465	0.0082
653.651	-0.0022
653.8369	0.006
654.0227	-0.004
654.2086	0.0089
654.3944	0.0044
654.5803	-0.0054
654.7661	-0.0024
654.9519	0.006
655.1377	-0.0063
655.3234	-0.0062
655.5092	-0.0042
655.6949	-0.0045
655.8806	-0.0063
656.0663	-0.0028
656.2519	-0.0095
656.4376	-0.0051
656.6232	0.0027
656.8088	-0.001
656.9945	0.0065
657.18	0.0024
657.3656	0.0023
657.5511	0.002
657.7367	-0.0081
657.9222	0.0044
658.1077	0.0013
658.2932	0.0066
658.4786	-0.0032
658.6641	-0.0031
658.8495	0.0005
659.0349	0.0019
659.2203	0.0038
659.4057	0.006
659.591	0.0077
659.7764	0.0061
659.9617	0.0016
660.147	0.007
660.3323	0.0128
660.5176	0.0136
660.7028	0.0073
660.888	0.0044
661.0733	0.0082
661.2585	-0.0047
661.4436	0.0027
661.6288	0.0009
661.8139	-0.0004
661.9991	0.0092
662.1842	0.0069
662.3693	0.0057
662.5544	-0.0012
662.7394	0.0011
662.9245	-0.0002
663.1095	-0.0055
663.2945	-0.0005
663.4795	-0.0021
663.6644	-0.0001
663.8494	-0.0014
664.0343	-0.0013
664.2193	-0.0053
664.4042	-0.007
664.589	-0.0036
664.7739	0.0004
664.9587	-0.0072
665.1436	-0.0002
665.3284	0.0018
665.5132	-0.0025
665.698	0.0024
665.8827	0.0015
666.0675	-0.0011
666.2522	-0.0046
666.4369	0.0107
666.6216	0.0163
666.8063	0.0072
666.9909	0.0059
667.1756	0.0043
667.3602	0.0039
667.5448	0.0051
667.7294	0.0098
667.9139	0.0043
668.0985	0.0124
668.283	0.0017
668.4675	-0.0018
668.652	-0.0045
668.8365	0.0039
669.0209	0.0096
669.2054	0.0116
669.3898	0.0063
669.5742	0.0053
669.7586	0.0118
669.943	0.013
670.1273	0.0075
670.3117	0.0082
670.496	0.0022
670.6803	0.0122
670.8646	0.001
671.0488	0.0068
671.2331	0.0083
671.4173	0.0091
671.6015	-0.0016
671.7857	0.0066
671.9699	0.0138
672.1541	0.0189
672.3382	0.0124
672.5223	0.013
672.7064	0.016
672.8905	0.0137
673.0746	0.0107
673.2587	0.0048
673.4427	0.0059
673.6267	0.0044
673.8107	0.015
673.9947	0.0033
674.1787	0.0078
674.3626	-0.0043
674.5465	0.0112
674.7304	0.0052
674.9143	0.0105
675.0982	0.01
675.2821	0.0027
675.4659	0.0087
675.6497	0.0041
675.8335	0.0036
676.0173	0.0083
676.2011	0.005
676.3849	0.006
676.5686	-0.0001
676.7523	0.0056
676.936	-0.0033
677.1197	0.0027
677.3034	-0.0017
677.487	0.009
677.6706	0.0023
677.8542	0.0016
678.0378	0.0077
678.2214	0.0008
678.405	0.0078
678.5885	-0.0011
678.772	0.0108
678.9555	0.0001
679.139	0.0089
679.3225	0.0018
679.5059	0.0038
679.6894	0.0008
679.8728	0.007
680.0562	-0.0057
680.2395	-0.0076
680.4229	0.0034
680.6062	0.0073
680.7896	0.0026
680.9729	0.0009
681.1562	0.0066
681.3394	0.0101
681.5227	-0.001
681.7059	0.0006
681.8891	0.0044
682.0723	0.0061
682.2555	0.0101
682.4387	-0.0009
682.6218	-0.0066
682.805	0.0139
682.9881	0.0017
683.1712	0.0006
683.3542	0.0011
683.5373	0.0042
683.7203	-0.0077
683.9034	0.0023
684.0864	-0.0083
684.2694	0.0063
684.4523	0.013
684.6353	-0.0022
684.8182	0.002
685.0011	0.0002
685.184	0.0053
685.3669	0.0023
685.5498	0.0045
685.7326	0.0056
685.9154	0.0011
686.0982	0.0059
686.281	0.0104
686.4638	0.0071
686.6465	0.0013
686.8293	-0
687.012	0.0051
687.1947	-0.0049
687.3774	0.0065
687.56	0.0053
687.7427	0.0062
687.9253	0.0004
688.1079	0.0061
688.2905	0.0114
688.4731	-0.0012
688.6556	-0.0008
688.8382	0.0002
689.0207	0.0096
689.2032	-0.003
689.3857	-0.004
689.5681	0.0059
689.7506	-0.0043
689.933	-0.0006
690.1154	-0.0028
690.2978	0.0003
690.4802	0.0071
690.6626	-0.0052
690.8449	0.0006
691.0272	0.0054
691.2095	-0.0104
691.3918	-0.0064
691.5741	-0.0049
691.7563	-0.003
691.9386	-0.0011
692.1208	-0.0017
692.303	-0.0059
692.4852	-0.0029
692.6673	0.0008
692.8495	-0.0023
693.0316	-0.0013
693.2137	0.002
693.3958	0.0008
693.5778	-0.0019
693.7599	0.0064
693.9419	0.0018
694.1239	0.0068
694.3059	0.0027
694.4879	0.0089
694.6699	0.0024
694.8518	0.0024
695.0337	-0.0027
695.2157	0.0012
695.3975	0.0042
695.5794	0.0041
695.7613	0.0085
695.9431	-0.0005
696.1249	0.0028
696.3067	0.0056
696.4885	0.0033
696.6703	-0.0054
696.852	0.0087
697.0337	0.0034
697.2154	0.0064
697.3971	0.0039
697.5788	0.0077
697.7605	0.0072
697.9421	0.0049
698.1237	0.0051
698.3053	0.0072
698.4869	-0.0018
698.6685	-0.0034
698.85	0.0036
699.0315	0.0073
699.213	-0.0002
699.3945	0.0115
699.576	0.0078
699.7575	0.0093
699.9389	0.0088
700.1203	0.0032
700.3017	-0.01
700.4831	-0.0091
700.6645	-0.0041
700.8458	0.0027
701.0271	-0.0028
701.2084	0.0014
701.3897	-0.0016
701.571	0.0106
701.7523	-0.0055
701.9335	0.0011
702.1147	0.0012
702.2959	-0.0062
702.4771	0.0003
702.6583	-0.0033
702.8394	-0.0024
703.0205	0.0043
703.2016	-0.0042
703.3827	0.0032
703.5638	0.0068
703.7449	0.0048
703.9259	0.0139
704.1069	-0.0042
704.2879	0.001
704.4689	0.0051
704.6499	0.0075
704.8308	-0.0043
705.0117	0.0083
705.1927	0.0054
705.3735	-0.0022
705.5544	-0.0118
705.7353	0.006
705.9161	-0.0024
706.0969	-0.0096
706.2777	-0.0008
706.4585	-0.0021
706.6393	0.0047
706.82	-0.0019
707.0007	0.004
707.1815	-0.0018
707.3621	0.0112
707.5428	0.0071
707.7235	0.0055
707.9041	0.0109
708.0847	-0.0012
708.2653	-0.0032
708.4459	-0.0102
708.6265	-0.0032
708.807	0.0018
708.9875	-0.0051
709.168	0.0018
709.3485	-0.0055
709.529	0.0044
709.7095	-0.0092
709.8899	-0.0026
710.0703	-0.0066
710.2507	-0.0023
710.4311	0.0058
710.6115	-0.0126
710.7918	-0.0063
710.9721	-0.0057
711.1524	-0.0088
711.3327	0.0051
711.513	0.0076
711.6932	-0.0031
711.8735	0.0152
712.0537	0.0047
712.2339	-0.0126
712.4141	-0.0048
712.5942	-0.0059
712.7744	0.0047
712.9545	-0.006
713.1346	-0.0056
713.3147	-0.0015
713.4947	0.0025
713.6748	0.0085
713.8548	-0.0009
714.0348	0.0074
714.2148	0.0077
714.3948	0.0135
714.5748	0.0082
714.7547	-0.0024
714.9346	0.0069
715.1145	0.0036
715.2944	0.0049
715.4743	0.0013
715.6541	0.0006
715.834	0.0068
716.0138	-0.0012
716.1936	0.0018
716.3733	-0.0029
716.5531	-0.0003
716.7328	-0.0041
716.9126	-0.0004
717.0923	0.0074
717.2719	0.0006
717.4516	0.0037
717.6312	-0.0016
717.8109	-0.0021
717.9905	0.0066
718.1701	0.0008
718.3496	-0.0025
718.5292	0.0065
718.7087	0.0085
718.8882	0.0044
719.0677	0.0072
719.2472	0.0062
719.4267	0.0129
719.6061	0.0075
719.7856	0.0105
719.965	0.0114
720.1443	0.001
720.3237	0.0172
720.5031	0.0121
720.6824	0.0056
720.8617	-0.0006
721.041	0.0056
721.2203	0.0083
721.3995	-0.0006
721.5788	0.0063
721.758	0.0097
721.9372	-0.0038
722.1164	0.0044
722.2956	0.0013
722.4747	0.0053
722.6538	0.0056
722.8329	0.0166
723.012	0.002
723.1911	-0.0037
723.3702	-0.0049
723.5492	0.0032
723.7282	-0.0062
723.9072	-0.0036
724.0862	-0.0064
724.2652	-0.0013
724.4441	-0.0026
724.623	-0.0011
724.8019	0.0045
724.9808	0.0077
725.1597	-0.005
725.3385	0.0104
725.5174	0.0011
725.6962	0.0078
725.875	0.0099
726.0538	0.0077
726.2325	-0.0025
726.4112	0.0075
726.59	-0.0035
726.7687	0.0011
726.9474	-0.0027
727.126	0.0036
727.3047	0.0003
727.4833	0.0032
727.6619	-0.0016
727.8405	-0.0038
728.0191	0.0065
728.1976	0.0009
728.3762	-0.0041
728.5547	-0.0003
728.7332	-0.0138
728.9116	0.0051
729.0901	0.0057
729.2686	-0.0003
729.447	0.0013
729.6254	0.0058
729.8038	-0.0002
729.9821	-0.0121
730.1605	0.0035
730.3388	-0.0027
730.5171	-0.0016
730.6954	-0.0051
730.8737	0.003
731.0519	0.0058
731.2302	0.0022
731.4084	0.004
731.5866	0.0053
731.7648	0.0057
731.9429	-0.0011
732.1211	0.0021
732.2992	0.003
732.4773	-0.0011
732.6554	-0.002
732.8335	0.0055
733.0115	0.0119
733.1896	0.0103
733.3676	-0.0109
733.5456	0.0085
733.7235	0.0096
733.9015	-0.002
734.0794	-0.0009
734.2574	-0.0005
734.4353	-0.0044
734.6131	0
734.791	0.0042
734.9689	-0.0058
735.1467	-0.0009
735.3245	-0.0081
735.5023	-0.0031
735.68	0.001
735.8578	0.0072
736.0355	-0.0219
736.2132	-0.0015
736.3909	0.0067
736.5686	-0.0048
736.7463	0.0002
736.9239	-0.0078
737.1015	-0.0114
737.2791	-0.004
737.4567	-0.0044
737.6343	-0.0149
737.8118	0.0034
737.9894	0.001
738.1669	-0.0113
738.3444	-0.0072
738.5218	-0.0005
738.6993	-0.0017
738.8767	0.0075
739.0541	0.0092
739.2315	-0.0057
739.4089	0.0038
739.5863	0.0023
739.7636	-0.0096
739.9409	0.0025
740.1182	0.0095
740.2955	0.0043
740.4728	-0.0051
740.65	0
740.8272	-0.0019
741.0044	-0.004
741.1816	-0.0035
741.3588	0.0003
741.5359	-0.001
741.7131	-0.0109
741.8902	-0.0023
742.0673	0.0031
742.2444	-0.0013
742.4214	-0.0071
742.5985	-0.0076
742.7755	-0.007
742.9525	-0.0131
743.1295	0.0021
743.3064	0.0012
743.4834	0.0082
743.6603	-0.0002
743.8372	-0.0007
744.0141	0.0063
744.191	-0.0013
744.3678	0.0041
744.5446	0.0029
744.7215	0.0074
744.8982	0.0051
745.075	-0.0022
745.2518	0.0059
745.4285	0.0047
745.6052	0.0005
745.7819	0.0015
745.9586	-0.0037
746.1353	-0.005
746.3119	0.0003
746.4885	-0.0068
746.6651	-0.0004
746.8417	-0.0043
747.0183	-0.0024
747.1948	-0.0023
747.3714	0.0026
747.5479	-0.0029
747.7244	0.0017
747.9008	0.0064
748.0773	0.0094
748.2537	0.0002
748.4301	-0.0018
748.6065	0.0105
748.7829	-0.0014
748.9593	-0.0034
749.1356	0.0085
749.3119	0.0169
749.4882	-0.0102
749.6645	0.0038
749.8408	-0.0049
750.017	-0.0064
750.1933	0.0032
750.3695	-0.0022
750.5457	0.0064
750.7218	-0.008
750.898	0.0056
751.0741	-0.0015
751.2502	-0.0101
751.4263	0.0022
751.6024	-0.0007
751.7784	-0.0047
751.9545	0.0004
752.1305	-0.0071
752.3065	-0.0073
752.4825	-0.0036
752.6584	-0.0101
752.8344	-0.0019
753.0103	-0.0038
753.1862	-0.0152
753.3621	-0.0039
753.5379	-0.0058
753.7138	-0.0108
753.8896	0.0021
754.0654	0.0058
754.2412	0.0007
754.417	0.0027
754.5927	-0.0066
754.7685	-0.0042
754.9442	-0.0035
755.1199	0.0098
755.2956	-0.0087
755.4712	0.0125
755.6469	0.0011
755.8225	-0.0072
755.9981	-0.0031
756.1736	0.0025
756.3492	-0.0078
756.5248	-0.0051
756.7003	-0.0023
756.8758	-0.001
757.0513	-0.0144
757.2267	-0.0101
757.4022	0.005
757.5776	-0.003
757.753	0.0035
757.9284	0.0032
758.1038	0.0126
758.2791	0.0028
758.4545	-0.0023
758.6298	0.0046
758.8051	0.0077
758.9803	0.0056
759.1556	0.0021
759.3308	-0.0023
759.506	0.0122
759.6812	0.0138
759.8564	0.0012
760.0316	0.0056
760.2067	0.0047
760.3819	0.0116
760.557	0.0103
760.732	0.0015
760.9071	-0.0049
761.0821	0.0058
761.2572	0.012
761.4322	0.0002
761.6072	-0.0027
761.7821	-0.0051
761.9571	0.0047
762.132	-0.0044
762.3069	-0.0016
762.4818	-0.0149
762.6567	-0.0022
762.8316	0.0038
763.0064	0.0057
763.1812	-0.0038
763.356	-0.0094
763.5308	-0.0059
763.7055	-0.0011
763.8803	-0.007
764.055	-0.0077
764.2297	-0.0107
764.4044	-0.011
764.579	0.0025
764.7537	-0.0142
764.9283	-0.0023
765.1029	-0.0083
765.2775	-0.0089
765.4521	-0.0066
765.6266	-0.0198
765.8011	-0.008
765.9756	-0.0056
766.1501	-0.0002
766.3246	0.0045
766.4991	-0.0048
766.6735	0.0013
766.8479	-0.001
767.0223	0.0103
767.1967	-0.0004
767.371	0.0006
767.5454	-0.0004
767.7197	0.0069
767.894	0.0009
768.0683	-0.0048
768.2425	-0.0002
768.4168	-0.0066
768.591	-0.0023
768.7652	0.0035
768.9394	-0.0023
769.1135	0.001
769.2877	0.0031
769.4618	-0.0001
769.6359	0.0076
769.81	0.0054
769.984	-0.0067
770.1581	-0.0012
770.3321	-0.0058
770.5061	-0.0014
770.6801	0.0029
770.8541	0.0031
771.028	0.004
771.202	-0.0069
771.3759	0.0029
771.5498	0.0046
771.7236	-0.0111
771.8975	-0.0047
772.0713	0.0022
772.2451	0.0121
772.4189	0.0063
772.5927	0.0047
772.7665	0.0202
772.9402	-0.0071
773.1139	0.0126
773.2876	-0.0017
773.4613	0.0107
773.635	0.0134
773.8086	-0.0136
773.9822	0.0037
774.1558	0.0085
774.3294	-0.0089
774.503	0.0078
774.6765	-0.0006
774.8501	-0.006
775.0236	0.0056
775.1971	-0.0035
775.3705	0.0001
775.544	-0.0032
775.7174	-0.0183
775.8908	-0.004
776.0642	-0.0042
776.2376	-0.0029
776.4109	-0.0033
776.5843	-0.0092
776.7576	-0.0037
776.9309	0.0147
777.1041	0.0042
777.2774	0.0038
777.4506	-0.0167
777.6238	-0.0067
777.797	0.0028
777.9702	0.0029
778.1434	0.0017
778.3165	-0.0025
778.4896	-0.0075
778.6627	0.0099
778.8358	-0.0097
779.0089	0.0086
779.1819	0.0004
779.3549	0.0105
779.5279	0.0097
779.7009	0.0089
779.8739	0.0078
780.0468	0.0083
780.2197	0.0051
780.3926	0.0042
780.5655	0.0125
780.7384	0.0091
780.9112	0.0036
781.0841	0.0045
781.2569	-0.003
781.4297	0.0032
781.6024	-0.0056
781.7752	0.0008
781.9479	0.0049
782.1206	0.0014
782.2933	-0.0126
782.466	0.0163
782.6386	0.0098
782.8113	0.0106
782.9839	0.0045
783.1565	0.035
783.329	0.0117
783.5016	0.0044
783.6741	0.0036
783.8466	-0.0057
784.0191	0.0101
784.1916	0.0035
784.3641	0.0045
784.5365	0.003
784.7089	0.0117
784.8813	-0.0124
785.0537	-0.0038
785.2261	0.0014
785.3984	-0.0105
785.5707	0.0119
785.743	-0.0004
785.9153	-0.0059
786.0876	-0.0004
786.2598	-0.0079
786.432	-0.0032
786.6042	0.0075
786.7764	-0.0151
786.9486	0.0127
787.1207	-0.0098
787.2928	-0.0069
787.4649	0.0064
787.637	-0.0012
787.8091	-0.0061
787.9811	-0.015
788.1532	-0.0074
788.3252	-0.0005
788.4972	-0.0181
788.6691	-0.0059
788.8411	-0.0037
789.013	-0.0016
789.1849	-0.0025
789.3568	0.0003
789.5287	-0.0048
789.7005	0.0088
789.8723	-0.0041
790.0442	0.0121
790.2159	0.0128
790.3877	-0.0066
790.5595	-0.0226
790.7312	0.004
790.9029	-0.004
791.0746	-0.0116
791.2463	-0.008
791.4179	-0.011
791.5896	-0.0105
791.7612	0.0062
791.9328	-0.0063
792.1044	-0.012
792.2759	-0.0178
792.4474	0
792.619	0.0034
792.7905	0.0005
792.9619	-0.0041
793.1334	0.0027
793.3048	0.016
793.4762	0.0003
793.6476	0.0058
793.819	-0.0034
793.9904	-0.0089
794.1617	0.0083
794.333	-0.0096
794.5043	-0.0057
794.6756	-0.0037
794.8469	-0.0119
795.0181	-0.0027
795.1893	-0.0088
795.3605	0.0015
795.5317	0.0058
795.7029	-0.015
795.874	-0.0049
796.0452	-0.0097
796.2163	-0.0079
796.3873	-0.0015
796.5584	0.0105
796.7294	-0.0134
796.9005	0.002
797.0715	-0.0069
797.2425	-0.0242
797.4134	-0.0073
797.5844	-0.0051
797.7553	-0.0243
797.9262	-0.0085
798.0971	-0.0137
798.2679	-0.0145
798.4388	-0.0268
798.6096	-0.0257
798.7804	-0.0151
798.9512	0.003
799.122	-0.0232
799.2927	-0.012
799.4635	0.0089
799.6342	-0.031
799.8049	-0.0034
799.9755	-0.0116
800.1462	-0.0168
800.3168	-0.0093
800.4874	-0.0151
800.658	0.006
800.8286	-0.0119
800.9991	-0.0001
801.1696	0.0038
801.3402	-0.0057
801.5106	-0.0308
801.6811	-0.0029
801.8516	-0.0102
802.022	-0.0103
802.1924	-0.0066
802.3628	0.0156
802.5332	0.0121
802.7035	0.0069
802.8739	-0.0096
803.0442	0.0016
803.2145	0.0077
803.3847	-0.0399
803.555	-0.0061
803.7252	-0.0153
803.8954	-0.0197
804.0656	-0.0276
804.2358	-0.0197
804.4059	-0.0027
804.5761	-0.0168
804.7462	-0.0013
804.9163	-0.0206
805.0864	-0.0297
805.2564	-0.0195
805.4264	-0.0093
805.5965	-0.0352
805.7665	-0.0032
805.9364	-0.0121
806.1064	0.0156
806.2763	-0.0034
806.4462	-0.0004
806.6161	-0.0098
806.786	0.0009
806.9559	-0.0013
807.1257	-0.0057
807.2955	-0.01
807.4653	-0.0074
807.6351	-0.0126
807.8048	-0.0133
807.9746	-0.0053
808.1443	0.0012
808.314	-0.005
808.4837	-0.0088
808.6533	-0.0021
808.8229	0.0255
808.9926	-0.0131
809.1622	0.0022
809.3317	-0.0116
809.5013	-0.0296
809.6708	0.0037
809.8403	0.0065
810.0098	-0.0255
810.1793	-0.0025
810.3488	-0.0186
810.5182	-0.0281
810.6876	0.0003
810.857	-0.0377
811.0264	0.0244
811.1958	-0.0136
811.3651	0.0075
811.5344	-0.0221
811.7037	-0.0301
811.873	-0.0322
812.0422	-0.022
812.2115	-0.0286
812.3807	0.0015
812.5499	0.0099
812.7191	0.0085
812.8882	-0.0153
813.0574	-0.0138
813.2265	-0.0133
813.3956	0.0003
813.5646	0.0242
813.7337	-0.0137
813.9027	0.0138
814.0718	0.0161
814.2407	0.0077
814.4097	0.0017
814.5787	-0.0031
814.7476	-0.0056
814.9165	0.0006
815.0854	-0.0055
815.2543	0.0097
815.4232	0.0105
815.592	0.0109
815.7608	0.0033
815.9296	0.0066
816.0984	0.0162
816.2671	0.0045
816.4359	0.0105
816.6046	0.0048
816.7733	-0.0084
816.942	-0.0261
817.1106	0.0022
817.2793	-0.0077
817.4479	-0.0027
817.6165	0.0106
817.785	-0.0188
817.9536	-0.0106
818.1221	-0.006
818.2906	-0.0214
818.4591	0.0063
818.6276	0.0038
818.7961	-0.012
818.9645	0.017
819.1329	0.0174
819.3013	0.0191
819.4697	0.016
819.638	-0.0091
819.8064	0.009
819.9747	0.0011
820.143	-0.0192
820.3113	-0.0212
820.4795	-0.0075
820.6477	-0.0044
820.816	-0.018
820.9842	-0.0063
821.1523	-0.0196
821.3205	-0.0227
821.4886	-0.0269
821.6567	0.0113
821.8248	0.0149
821.9929	0.0123
822.1609	-0.0223
822.329	0.0019
822.497	0.0184
822.665	-0.0267
822.833	0.0235
823.0009	-0.0018
823.1688	0.0329
823.3367	0.0389
823.5046	0.0055
823.6725	0.0293
823.8404	0.0109
824.0082	0.0116
824.176	0.0294
824.3438	0.02
824.5116	-0.0041
824.6793	-0.01
824.847	-0.0161
825.0147	-0.0183
825.1824	0.0186
825.3501	0.017
825.5177	-0.0203
825.6854	-0.0055
825.853	-0.0118
826.0206	-0.0136
826.1881	0.0014
826.3557	-0.0336
826.5232	0.0058
826.6907	-0.0265
826.8582	0.0006
827.0257	-0.014
827.1931	-0.0132
827.3605	0.0001
827.528	-0.0013
827.6953	-0.0159
827.8627	-0.0146
828.03	0.0226
828.1974	-0.0036
828.3647	-0.0468
828.532	-0.0077
828.6992	-0.0149
828.8665	0.002
829.0337	-0.039
829.2009	0.0041
829.3681	-0.01
829.5352	-0.0092
829.7024	-0.0418
829.8695	-0.041
830.0366	0.0336
830.2037	0.0073
830.3707	0.0096
830.5378	-0.0288
830.7048	0.0062
830.8718	-0.0272
831.0388	-0.0425
831.2057	0.0214
831.3727	0.0242
831.5396	-0.0171
831.7065	-0.014
831.8734	0.0116
832.0402	-0.0016
832.2071	-0.0588
832.3739	-0.0378
832.5407	-0.0304
832.7075	-0.0158
832.8742	-0.0226
833.041	-0.076
833.2077	-0.0361
833.3744	0.0288
833.541	-0.0023
833.7077	0.0187
833.8743	-0.0428
834.0409	0.0094
834.2075	-0.0093
834.3741	-0.0226
834.5407	-0.0011
834.7072	-0.0005
834.8737	-0.0005
835.0402	-0.0144
835.2067	0.0167
835.3731	-0.0005
835.5395	-0.0229
835.706	0.0073
835.8723	-0.0357
836.0387	0.0042
836.2051	0.0065
836.3714	0.0321
836.5377	-0.0019
836.704	-0.0254
836.8703	-0.0318
837.0365	-0.0085
837.2027	-0.0205
837.3689	-0.0193
837.5351	-0.0124
837.7013	-0.0309
837.8674	-0.0041
838.0335	-0.0015
838.1997	-0.046
838.3657	-0.0489
838.5318	-0.0184
838.6978	0.0339
838.8639	0.0215
839.0299	0.0543
839.1958	-0.03
839.3618	-0.0149
839.5277	0.0071
839.6937	-0.0064
839.8596	-0.0167
840.0254	0.0223
840.1913	0.0473
840.3571	0.0046
840.523	-0.0277
840.6888	-0.0253
840.8545	-0.0402
841.0203	-0.005
841.186	0.0415
841.3517	0.0176
841.5174	0.0273
841.6831	0.0002
841.8488	-0.02
842.0144	-0.0307
842.18	0.0248
842.3456	-0.0035
842.5112	-0.0176
842.6767	0.0022
842.8422	0.0177
843.0077	-0.0286
843.1732	0.0145
843.3387	-0.025
843.5042	-0.0247
843.6696	0.0421
843.835	0.0617
844.0004	0.0357
844.1657	0.0003
844.3311	-0.059
844.4964	-0.0979
844.6617	-0.0421
844.827	0.0303
844.9923	-0.0198
845.1575	-0.0033
845.3227	-0.0122
845.4879	0.0059
845.6531	-0.0597
845.8183	-0.1026
845.9834	-0.0071
846.1485	-0.0168
846.3136	-0.0677
846.4787	-0.0454
846.6438	0.0617
846.8088	-0.0568
846.9738	-0.049
847.1388	0.0945
847.3038	-0.0203
847.4687	-0.1244
847.6337	-0.0074
847.7986	0.048
847.9635	-0.1209
848.1284	0.0114
848.2932	0.1569
848.458	-0.0371
848.6228	0.0246
848.7876	0.162
848.9524	-0.0214
849.1172	-0.0615
849.2819	0.0233
849.4466	-0.0459
849.6113	-0.1548
849.7759	-0.0575
849.9406	-0.0213
850.1052	0.0578
850.2698	0.0179
850.4344	0.0005
850.599	0.0361
850.7635	0.0389
850.928	0.0263
851.0925	-0.0399
851.257	0.0512
851.4215	0.0887
851.5859	-0.0472
851.7503	-0.0011
851.9147	-0.0157
852.0791	-0.0798
852.2434	-0.0462
852.4078	0.0803
852.5721	0.0219
852.7364	-0.0944
852.9007	-0.2019
853.0649	0.0289
853.2291	-0.0533
853.3934	-0.0982
853.5575	0.1156
853.7217	-0.0822
853.8859	-0.0775
854.05	-0.0984
854.2141	0.1095
854.3782	-0.0399
854.5423	-0.0122
854.7063	0.0655
854.8703	0.0091
855.0343	0.1677
855.1983	-0.0267
855.3623	0.1971
855.5262	0.041
855.6901	0.0336
855.854	0.1241
856.0179	0.203
856.1818	0.0404
856.3456	-0.0412
856.5094	-0.1506
856.6732	0.0893
856.837	-0.0539
857.0008	0.1314
857.1645	-0.1273
857.3282	-0.2151
857.4919	0.0271
857.6556	0.0486
857.8192	0.0459
857.9828	-0.0187
858.1465	0.2907
858.31	-0.0619
858.4736	0.0261
858.6372	-0.1289
858.8007	-0.2228
858.9642	-0.0704
859.1277	0.0319
859.2911	-0.008
859.4546	0.0892
859.618	-0.2991
859.7814	-0.0157
859.9448	-0.1389
860.1081	0.1672
860.2715	0.1248
860.4348	0.982
860.5981	0.0356
860.7614	0.2044
860.9246	-0.0825
861.0879	-0.2116
861.2511	0.0782
861.4143	-0.2542
861.5774	0.1933
861.7406	-0.2814
861.9037	-0.1548
862.0668	0.3381
862.2299	-0.0714
862.393	-0.5841
862.556	-0.2117
862.7191	0.0271
862.8821	-0.0425
863.0451	0.0862
863.208	0.286
863.371	0.2323
863.5339	-0.2691
863.6968	0.1606
863.8597	1.2991
864.0225	-0.1846
864.1854	0.4295
864.3482	-0.113
864.511	0.0623
864.6737	-0.1185
864.8365	0.2343
864.9992	-0.3083
865.1619	-0.3325
865.3246	-0.2522
865.4873	-0.032
865.65	-0.3421
865.8126	0.0181
865.9752	0.0984
866.1378	-0
866.3004	0.2168
866.4629	0.3224
866.6254	0.0315
866.7879	0.8827
866.9504	-0
867.1129	-0
867.2753	-0.0752
867.4377	0.2897
867.6001	-0.0419
867.7625	0.2147
867.9249	-0.5639
868.0872	0.1103
868.2495	0.0393
868.4118	-0.0262
868.5741	-0.4188
868.7363	-0.3198
868.8986	-0.3079
869.0608	-0.193
869.223	0.1628
869.3851	-0.1857
869.5473	0.555
869.7094	1.6528
869.8715	-0.1431
870.0336	-0
870.1957	-0.4064
870.3577	-0
870.5197	-0.1251
870.6817	-0.2755
870.8437	-0.1899
871.0057	-0
871.1676	-0
871.3295	-0.3079
871.4914	-0.8083
871.6533	-0.2849
871.8151	-0.3586
871.977	0.0727
872.1388	-0
872.3006	-0.3401
872.4623	-0.1445
872.6241	0.0285
872.7858	-0
872.9475	-0.2711
873.1092	0.0801
873.2709	-0.1139
873.4325	0.0157
873.5941	-0
873.7557	-0
873.9173	-0
874.0789	-0.614
874.2404	-0.6621
874.4019	0.0594
874.5634	0.0877
874.7249	0.1306
874.8863	-0.3657
875.0478	-0
875.2092	-0
875.3706	0.8052
875.5319	-0.1267
875.6933	0.2419
875.8546	-0
876.0159	-0
876.1772	0.2273
876.3385	-0
876.4997	0.4223
876.6609	-0.5461
876.8221	2.1139
876.9833	-0
877.1445	0.1174
877.3056	0.2317
877.4667	0.7698
877.6278	-0
877.7889	-0.7091
877.9499	-0
878.111	-0.4605
878.272	-0.7814
878.433	-0.006
878.5939	1
878.7549	0.0409
878.9158	-0.6469
879.0767	-0
879.2376	-0
879.3984	-0
879.5593	-0
879.7201	0.3846
879.8809	-0.3336
880.0417	0.4088
880.2024	-0
880.3632	-0
880.5239	0.2073
880.6846	1.2511
880.8452	-2.3086
881.0059	-0
881.1665	0.0618
881.3271	-0.1074
881.4877	-0.0309
881.6483	-0.5425
881.8088	-0.1918
881.9693	-0
882.1298	-0
882.2903	-0
