Data from MonoPyChalIsomerACN10uM420nmA_Absorbance_15-09-56-134.txt Node
Date: Fri Jul 05 15:09:56 BST 2024
User: LASERRRRR
Spectrometer: FLMT03099
Trigger mode: 0
Integration Time (sec): 1.000000E-1
Scans to average: 1
Electric dark correction enabled: true
Nonlinearity correction enabled: false
Boxcar width: 0
XAxis mode: Wavelengths
Number of Pixels in Spectrum: 3648
>>>>>Begin Spectral Data<<<<<
179.3399	0.1184
179.5586	0.1184
179.7771	0.1184
179.9957	0.6508
180.2143	-0
180.4329	0.0926
180.6514	-0
180.8699	0.2617
181.0885	0.5368
181.307	0.2976
181.5255	-0
181.744	-0.1506
181.9625	-0
182.181	-0.9505
182.3994	-0
182.6179	-0
182.8363	-0
183.0547	-0.1072
183.2732	-0.0047
183.4916	0.0313
183.71	0.0901
183.9284	-0.038
184.1467	-0.106
184.3651	-0.0868
184.5835	0.0622
184.8018	-0.0644
185.0201	0.2483
185.2385	0.1085
185.4568	0.2138
185.6751	0.1918
185.8934	-0.0361
186.1117	-0.0433
186.3299	-0.0042
186.5482	0.3124
186.7664	-0.0459
186.9847	-0.0946
187.2029	0.2249
187.4211	0.1402
187.6393	0.4187
187.8575	-0.0184
188.0757	0.396
188.2939	0.03
188.512	0.0233
188.7302	0.186
188.9483	0.0459
189.1665	0.1302
189.3846	-0.2323
189.6027	0.5913
189.8208	0.1909
190.0389	0.1043
190.257	0.1548
190.475	-0.0501
190.6931	0.1394
190.9111	0.593
191.1292	0.3279
191.3472	0.3774
191.5652	0.2363
191.7832	0.1805
192.0012	0.263
192.2192	0.3213
192.4371	0.4867
192.6551	0.5074
192.873	0.5094
193.091	0.3882
193.3089	0.4927
193.5268	0.5714
193.7447	0.6158
193.9626	0.5081
194.1805	0.6456
194.3984	0.6681
194.6162	0.4509
194.8341	0.5087
195.0519	0.6075
195.2697	0.6433
195.4875	0.5698
195.7054	0.7658
195.9231	0.5329
196.1409	0.4729
196.3587	0.5878
196.5765	0.6799
196.7942	0.6342
197.012	0.5788
197.2297	0.5197
197.4474	0.8378
197.6651	0.4709
197.8828	0.5265
198.1005	0.5459
198.3182	0.532
198.5358	0.7651
198.7535	0.6549
198.9711	0.5209
199.1888	0.589
199.4064	0.7037
199.624	0.5101
199.8416	0.5872
200.0592	0.7316
200.2767	0.6735
200.4943	0.794
200.7119	0.5975
200.9294	0.5994
201.1469	0.5462
201.3645	0.6049
201.582	0.5438
201.7995	0.7251
202.017	0.6616
202.2344	0.6298
202.4519	0.8496
202.6694	0.6513
202.8868	0.6992
203.1042	0.7428
203.3217	0.5767
203.5391	0.7042
203.7565	0.5833
203.9739	0.5463
204.1913	0.5724
204.4086	0.5834
204.626	0.5997
204.8433	0.7412
205.0607	0.5536
205.278	0.7963
205.4953	0.6652
205.7126	0.6871
205.9299	0.6928
206.1472	0.7466
206.3644	0.6037
206.5817	0.7112
206.7989	0.7383
207.0162	0.6527
207.2334	0.7209
207.4506	0.6402
207.6678	0.6488
207.885	0.7524
208.1022	0.7122
208.3194	0.6741
208.5365	0.6772
208.7537	0.6829
208.9708	0.5747
209.1879	0.6463
209.405	0.6537
209.6222	0.6842
209.8392	0.6837
210.0563	0.5489
210.2734	0.6529
210.4905	0.6518
210.7075	0.6306
210.9245	0.5338
211.1416	0.7119
211.3586	0.6068
211.5756	0.6101
211.7926	0.5697
212.0096	0.6741
212.2265	0.5577
212.4435	0.5933
212.6604	0.618
212.8774	0.6517
213.0943	0.6231
213.3112	0.5575
213.5281	0.5403
213.745	0.5129
213.9619	0.5724
214.1788	0.4737
214.3956	0.4856
214.6125	0.5359
214.8293	0.4249
215.0461	0.5315
215.2629	0.4514
215.4798	0.4828
215.6965	0.3939
215.9133	0.4468
216.1301	0.4383
216.3469	0.4358
216.5636	0.4353
216.7803	0.3928
216.9971	0.391
217.2138	0.3741
217.4305	0.375
217.6472	0.3393
217.8639	0.3742
218.0805	0.3491
218.2972	0.3165
218.5138	0.3312
218.7305	0.3026
218.9471	0.3169
219.1637	0.2957
219.3803	0.276
219.5969	0.2655
219.8135	0.2523
220.0301	0.2871
220.2466	0.2714
220.4632	0.2637
220.6797	0.2485
220.8962	0.2453
221.1127	0.2428
221.3292	0.2529
221.5457	0.2398
221.7622	0.2215
221.9787	0.2578
222.1951	0.2441
222.4116	0.248
222.628	0.2471
222.8444	0.2282
223.0608	0.247
223.2772	0.2567
223.4936	0.2428
223.71	0.2625
223.9264	0.2613
224.1427	0.2487
224.3591	0.252
224.5754	0.2534
224.7917	0.2565
225.008	0.258
225.2243	0.2416
225.4406	0.2855
225.6569	0.2722
225.8732	0.2604
226.0894	0.2703
226.3057	0.2576
226.5219	0.2893
226.7381	0.2611
226.9543	0.2934
227.1705	0.2754
227.3867	0.2731
227.6029	0.2851
227.8191	0.2928
228.0352	0.2871
228.2513	0.325
228.4675	0.3022
228.6836	0.3019
228.8997	0.2979
229.1158	0.2989
229.3319	0.3091
229.548	0.3066
229.764	0.3261
229.9801	0.3183
230.1961	0.3108
230.4121	0.3147
230.6282	0.3404
230.8442	0.3111
231.0602	0.3365
231.2761	0.3347
231.4921	0.3386
231.7081	0.3481
231.924	0.3465
232.14	0.3491
232.3559	0.342
232.5718	0.3573
232.7877	0.3649
233.0036	0.3596
233.2195	0.3591
233.4353	0.3637
233.6512	0.3538
233.867	0.3671
234.0829	0.3577
234.2987	0.3465
234.5145	0.3922
234.7303	0.3704
234.9461	0.3913
235.1619	0.3641
235.3776	0.3966
235.5934	0.3763
235.8091	0.3652
236.0249	0.3954
236.2406	0.3852
236.4563	0.3889
236.672	0.3793
236.8877	0.3809
237.1034	0.3784
237.319	0.3962
237.5347	0.4043
237.7503	0.3714
237.966	0.3979
238.1816	0.399
238.3972	0.4133
238.6128	0.3947
238.8284	0.3836
239.0439	0.4021
239.2595	0.3914
239.475	0.4135
239.6906	0.4124
239.9061	0.3964
240.1216	0.4238
240.3371	0.41
240.5526	0.3952
240.7681	0.415
240.9836	0.4058
241.199	0.415
241.4145	0.3961
241.6299	0.3928
241.8453	0.3914
242.0607	0.3852
242.2761	0.389
242.4915	0.3791
242.7069	0.3777
242.9223	0.3766
243.1376	0.3621
243.353	0.363
243.5683	0.3698
243.7836	0.3506
243.9989	0.3447
244.2142	0.3294
244.4295	0.3386
244.6448	0.3314
244.86	0.3179
245.0753	0.3184
245.2905	0.3146
245.5057	0.292
245.721	0.2966
245.9362	0.2806
246.1514	0.2869
246.3665	0.2852
246.5817	0.2767
246.7969	0.2708
247.012	0.2707
247.2271	0.2538
247.4423	0.2584
247.6574	0.2608
247.8725	0.2656
248.0876	0.2423
248.3026	0.2422
248.5177	0.2347
248.7328	0.2439
248.9478	0.2234
249.1628	0.2394
249.3779	0.2354
249.5929	0.2183
249.8079	0.235
250.0228	0.2026
250.2378	0.2345
250.4528	0.2175
250.6677	0.202
250.8827	0.2104
251.0976	0.2029
251.3125	0.2072
251.5274	0.1937
251.7423	0.1989
251.9572	0.1933
252.172	0.1951
252.3869	0.1959
252.6017	0.1921
252.8166	0.1839
253.0314	0.1709
253.2462	0.178
253.461	0.1884
253.6758	0.179
253.8906	0.1878
254.1053	0.1718
254.3201	0.1751
254.5348	0.1955
254.7496	0.185
254.9643	0.1707
255.179	0.1736
255.3937	0.1678
255.6083	0.174
255.823	0.1701
256.0377	0.1611
256.2523	0.1722
256.467	0.1681
256.6816	0.1989
256.8962	0.1715
257.1108	0.1733
257.3254	0.1761
257.54	0.173
257.7545	0.1707
257.9691	0.187
258.1836	0.1706
258.3981	0.1863
258.6127	0.1829
258.8272	0.1716
259.0417	0.1654
259.2561	0.1653
259.4706	0.1672
259.6851	0.1706
259.8995	0.1745
260.114	0.1772
260.3284	0.1643
260.5428	0.1605
260.7572	0.1763
260.9716	0.1776
261.186	0.178
261.4003	0.1657
261.6147	0.1762
261.829	0.1734
262.0433	0.167
262.2577	0.1685
262.472	0.1663
262.6863	0.1633
262.9005	0.1679
263.1148	0.1746
263.3291	0.1539
263.5433	0.1756
263.7576	0.1691
263.9718	0.1685
264.186	0.1749
264.4002	0.1634
264.6144	0.1706
264.8286	0.1813
265.0427	0.1735
265.2569	0.1752
265.471	0.1696
265.6851	0.1747
265.8993	0.1669
266.1134	0.163
266.3275	0.168
266.5415	0.1683
266.7556	0.1743
266.9697	0.1707
267.1837	0.1684
267.3978	0.1682
267.6118	0.1806
267.8258	0.1891
268.0398	0.1666
268.2538	0.178
268.4677	0.1883
268.6817	0.1685
268.8957	0.1849
269.1096	0.1717
269.3235	0.1877
269.5374	0.1644
269.7514	0.1654
269.9652	0.1649
270.1791	0.1752
270.393	0.1624
270.6068	0.1603
270.8207	0.1661
271.0345	0.1658
271.2483	0.177
271.4622	0.1729
271.676	0.1834
271.8897	0.155
272.1035	0.1531
272.3173	0.1783
272.531	0.1631
272.7448	0.1546
272.9585	0.1679
273.1722	0.162
273.3859	0.1636
273.5996	0.1565
273.8133	0.1619
274.0269	0.1555
274.2406	0.163
274.4542	0.172
274.6679	0.1603
274.8815	0.1751
275.0951	0.1825
275.3087	0.1785
275.5223	0.1732
275.7358	0.1783
275.9494	0.1724
276.1629	0.1583
276.3765	0.1718
276.59	0.1841
276.8035	0.1659
277.017	0.1794
277.2305	0.1652
277.444	0.1796
277.6574	0.1569
277.8709	0.1776
278.0843	0.1643
278.2978	0.1618
278.5112	0.1751
278.7246	0.1608
278.938	0.1819
279.1513	0.1815
279.3647	0.1833
279.5781	0.1649
279.7914	0.1716
280.0047	0.1811
280.2181	0.1757
280.4314	0.1714
280.6447	0.178
280.8579	0.1695
281.0712	0.1815
281.2845	0.1797
281.4977	0.1761
281.711	0.1721
281.9242	0.1695
282.1374	0.175
282.3506	0.1701
282.5638	0.167
282.7769	0.1761
282.9901	0.1671
283.2033	0.1759
283.4164	0.172
283.6295	0.1696
283.8426	0.1582
284.0557	0.1711
284.2688	0.1846
284.4819	0.1724
284.695	0.1626
284.908	0.1862
285.1211	0.1753
285.3341	0.1678
285.5471	0.1761
285.7601	0.155
285.9731	0.1589
286.1861	0.1496
286.3991	0.1772
286.612	0.1721
286.825	0.1675
287.0379	0.1639
287.2508	0.1555
287.4637	0.1689
287.6766	0.1587
287.8895	0.1699
288.1024	0.1688
288.3152	0.1565
288.5281	0.1688
288.7409	0.1638
288.9538	0.1601
289.1666	0.1559
289.3794	0.1598
289.5922	0.1571
289.8049	0.1646
290.0177	0.1599
290.2304	0.1568
290.4432	0.1512
290.6559	0.1574
290.8686	0.1631
291.0813	0.1544
291.294	0.1545
291.5067	0.1587
291.7194	0.1574
291.932	0.1726
292.1447	0.1492
292.3573	0.1431
292.5699	0.1609
292.7825	0.1504
292.9951	0.153
293.2077	0.158
293.4203	0.155
293.6328	0.147
293.8454	0.1615
294.0579	0.1509
294.2704	0.163
294.4829	0.1401
294.6954	0.1517
294.9079	0.1535
295.1204	0.1491
295.3328	0.1463
295.5453	0.1497
295.7577	0.1552
295.9701	0.1402
296.1825	0.1556
296.3949	0.143
296.6073	0.1579
296.8197	0.139
297.0321	0.1642
297.2444	0.1357
297.4567	0.1507
297.6691	0.1368
297.8814	0.1468
298.0937	0.1449
298.306	0.1622
298.5182	0.1506
298.7305	0.1592
298.9428	0.1425
299.155	0.1466
299.3672	0.1391
299.5794	0.1387
299.7916	0.1533
300.0038	0.1637
300.216	0.1493
300.4282	0.154
300.6403	0.1392
300.8525	0.1529
301.0646	0.1455
301.2767	0.1566
301.4888	0.1491
301.7009	0.1411
301.913	0.1428
302.125	0.1509
302.3371	0.1464
302.5491	0.1418
302.7612	0.1601
302.9732	0.155
303.1852	0.1506
303.3972	0.154
303.6092	0.1441
303.8211	0.1454
304.0331	0.1508
304.245	0.1414
304.457	0.1401
304.6689	0.1432
304.8808	0.15
305.0927	0.1404
305.3046	0.1399
305.5164	0.1501
305.7283	0.1444
305.9401	0.1307
306.152	0.1319
306.3638	0.1415
306.5756	0.1326
306.7874	0.1404
306.9992	0.1425
307.2109	0.1441
307.4227	0.1244
307.6344	0.1268
307.8462	0.127
308.0579	0.1359
308.2696	0.1394
308.4813	0.1353
308.693	0.1255
308.9046	0.1334
309.1163	0.1172
309.328	0.1216
309.5396	0.118
309.7512	0.1155
309.9628	0.1111
310.1744	0.1157
310.386	0.1239
310.5976	0.1222
310.8091	0.1207
311.0207	0.1198
311.2322	0.1351
311.4437	0.1113
311.6552	0.1083
311.8667	0.1117
312.0782	0.1036
312.2897	0.114
312.5012	0.1165
312.7126	0.1141
312.924	0.1146
313.1355	0.1275
313.3469	0.1159
313.5583	0.1237
313.7696	0.1132
313.981	0.1146
314.1924	0.1249
314.4037	0.1058
314.6151	0.1233
314.8264	0.094
315.0377	0.1065
315.249	0.1146
315.4603	0.1211
315.6716	0.1068
315.8828	0.102
316.0941	0.112
316.3053	0.105
316.5165	0.1039
316.7277	0.11
316.9389	0.1263
317.1501	0.1125
317.3613	0.121
317.5724	0.1022
317.7836	0.12
317.9947	0.1082
318.2058	0.1069
318.417	0.0997
318.6281	0.0967
318.8391	0.1075
319.0502	0.1072
319.2613	0.1098
319.4723	0.1214
319.6834	0.1064
319.8944	0.1254
320.1054	0.1127
320.3164	0.1125
320.5274	0.1119
320.7383	0.1064
320.9493	0.1036
321.1602	0.1209
321.3712	0.0955
321.5821	0.119
321.793	0.1107
322.0039	0.118
322.2148	0.1095
322.4257	0.1245
322.6365	0.1142
322.8474	0.1278
323.0582	0.1189
323.269	0.1267
323.4798	0.1305
323.6906	0.1173
323.9014	0.1163
324.1122	0.1241
324.3229	0.1137
324.5337	0.1168
324.7444	0.1097
324.9551	0.1401
325.1658	0.1194
325.3765	0.1314
325.5872	0.122
325.7979	0.1128
326.0085	0.1097
326.2192	0.1206
326.4298	0.1209
326.6404	0.1104
326.851	0.1185
327.0616	0.1146
327.2722	0.12
327.4828	0.1337
327.6933	0.1058
327.9039	0.1256
328.1144	0.1263
328.3249	0.1299
328.5354	0.1151
328.7459	0.1134
328.9564	0.1213
329.1669	0.1197
329.3773	0.1233
329.5878	0.1177
329.7982	0.1156
330.0086	0.1158
330.219	0.1273
330.4294	0.1151
330.6398	0.1159
330.8502	0.1107
331.0605	0.1316
331.2708	0.1207
331.4812	0.1302
331.6915	0.1287
331.9018	0.1247
332.1121	0.1181
332.3224	0.1193
332.5326	0.1316
332.7429	0.1301
332.9531	0.1291
333.1633	0.1235
333.3735	0.125
333.5837	0.121
333.7939	0.1161
334.0041	0.1356
334.2143	0.1307
334.4244	0.1343
334.6346	0.1051
334.8447	0.1366
335.0548	0.1241
335.2649	0.1142
335.475	0.1364
335.685	0.1279
335.8951	0.1304
336.1051	0.1395
336.3152	0.1282
336.5252	0.1329
336.7352	0.1241
336.9452	0.1399
337.1552	0.1417
337.3652	0.1283
337.5751	0.1182
337.7851	0.128
337.995	0.1132
338.2049	0.1323
338.4148	0.1358
338.6247	0.1262
338.8346	0.1245
339.0445	0.13
339.2543	0.1221
339.4642	0.1353
339.674	0.13
339.8838	0.1298
340.0936	0.1344
340.3034	0.1461
340.5132	0.1448
340.7229	0.1398
340.9327	0.1308
341.1424	0.1248
341.3522	0.1475
341.5619	0.1297
341.7716	0.1359
341.9813	0.1378
342.1909	0.1194
342.4006	0.1259
342.6102	0.1373
342.8199	0.1401
343.0295	0.1263
343.2391	0.138
343.4487	0.1473
343.6583	0.1245
343.8679	0.1386
344.0774	0.1448
344.287	0.1356
344.4965	0.1467
344.706	0.1429
344.9155	0.1323
345.125	0.1316
345.3345	0.1509
345.544	0.1337
345.7534	0.1451
345.9629	0.1375
346.1723	0.1415
346.3817	0.1294
346.5911	0.1357
346.8005	0.1508
347.0099	0.1431
347.2193	0.1379
347.4286	0.1401
347.638	0.1461
347.8473	0.1397
348.0566	0.1569
348.2659	0.1505
348.4752	0.1498
348.6845	0.1449
348.8937	0.1355
349.103	0.1495
349.3122	0.1353
349.5214	0.1364
349.7306	0.1527
349.9398	0.1489
350.149	0.1416
350.3582	0.1351
350.5674	0.1662
350.7765	0.1552
350.9856	0.1571
351.1948	0.1446
351.4039	0.1425
351.613	0.1447
351.822	0.1461
352.0311	0.1538
352.2402	0.1526
352.4492	0.1683
352.6582	0.1506
352.8672	0.1463
353.0762	0.1437
353.2852	0.1391
353.4942	0.1441
353.7032	0.1428
353.9121	0.1524
354.1211	0.1526
354.33	0.1607
354.5389	0.1544
354.7478	0.1577
354.9567	0.1644
355.1655	0.1424
355.3744	0.1566
355.5833	0.1655
355.7921	0.1703
356.0009	0.147
356.2097	0.1775
356.4185	0.1596
356.6273	0.175
356.8361	0.1596
357.0448	0.161
357.2536	0.1407
357.4623	0.1524
357.671	0.1663
357.8797	0.1644
358.0884	0.1669
358.2971	0.1592
358.5057	0.1713
358.7144	0.1639
358.923	0.1613
359.1316	0.1625
359.3402	0.161
359.5488	0.1715
359.7574	0.1544
359.966	0.1916
360.1746	0.1711
360.3831	0.1632
360.5916	0.1685
360.8002	0.1653
361.0087	0.1794
361.2172	0.1735
361.4256	0.175
361.6341	0.1812
361.8426	0.1759
362.051	0.1709
362.2594	0.1731
362.4678	0.1691
362.6762	0.1959
362.8846	0.1976
363.093	0.169
363.3014	0.1644
363.5097	0.1588
363.718	0.1884
363.9264	0.1738
364.1347	0.1744
364.343	0.1851
364.5513	0.1823
364.7595	0.1915
364.9678	0.179
365.176	0.1942
365.3842	0.1843
365.5925	0.1772
365.8007	0.1851
366.0089	0.1796
366.217	0.1849
366.4252	0.1853
366.6333	0.2053
366.8415	0.1909
367.0496	0.1746
367.2577	0.192
367.4658	0.196
367.6739	0.1969
367.882	0.2042
368.09	0.1848
368.2981	0.184
368.5061	0.1873
368.7141	0.19
368.9221	0.201
369.1301	0.187
369.3381	0.1963
369.5461	0.1943
369.754	0.1896
369.962	0.1951
370.1699	0.1969
370.3778	0.2057
370.5857	0.1829
370.7936	0.1831
371.0015	0.2014
371.2093	0.2022
371.4172	0.1865
371.625	0.183
371.8328	0.1965
372.0406	0.1896
372.2484	0.2039
372.4562	0.181
372.664	0.1877
372.8717	0.1935
373.0795	0.1695
373.2872	0.2013
373.4949	0.1931
373.7026	0.2008
373.9103	0.2048
374.118	0.1921
374.3256	0.2041
374.5333	0.1911
374.7409	0.2026
374.9485	0.2225
375.1561	0.1973
375.3637	0.2099
375.5713	0.2059
375.7789	0.2074
375.9864	0.1977
376.194	0.1893
376.4015	0.2023
376.609	0.2002
376.8165	0.1991
377.024	0.1946
377.2315	0.1978
377.4389	0.2098
377.6464	0.2127
377.8538	0.1951
378.0612	0.1857
378.2686	0.2023
378.476	0.215
378.6834	0.204
378.8908	0.2017
379.0981	0.2031
379.3055	0.2196
379.5128	0.1991
379.7201	0.2134
379.9274	0.1968
380.1347	0.2055
380.342	0.2245
380.5492	0.2197
380.7565	0.1978
380.9637	0.2046
381.1709	0.2023
381.3781	0.2105
381.5853	0.2078
381.7925	0.2122
381.9997	0.2234
382.2068	0.2229
382.4139	0.2098
382.6211	0.1953
382.8282	0.2035
383.0353	0.2217
383.2424	0.2015
383.4494	0.2203
383.6565	0.2088
383.8635	0.1932
384.0706	0.2014
384.2776	0.2088
384.4846	0.2062
384.6916	0.2033
384.8986	0.2136
385.1055	0.2139
385.3125	0.2012
385.5194	0.1932
385.7263	0.2191
385.9333	0.2068
386.1402	0.2039
386.347	0.2182
386.5539	0.1998
386.7608	0.2102
386.9676	0.1995
387.1744	0.1985
387.3813	0.1921
387.5881	0.2023
387.7948	0.1972
388.0016	0.199
388.2084	0.2041
388.4151	0.1937
388.6219	0.2084
388.8286	0.186
389.0353	0.2173
389.242	0.1945
389.4487	0.201
389.6553	0.1862
389.862	0.1845
390.0686	0.1851
390.2753	0.1936
390.4819	0.203
390.6885	0.1919
390.8951	0.1928
391.1016	0.1976
391.3082	0.1866
391.5147	0.1841
391.7213	0.1832
391.9278	0.1877
392.1343	0.1829
392.3408	0.1867
392.5473	0.181
392.7537	0.1807
392.9602	0.1832
393.1666	0.1823
393.373	0.1772
393.5794	0.1873
393.7858	0.1762
393.9922	0.1807
394.1986	0.1933
394.4049	0.187
394.6113	0.1824
394.8176	0.157
395.0239	0.1849
395.2302	0.1817
395.4365	0.1682
395.6428	0.1675
395.8491	0.1685
396.0553	0.185
396.2615	0.1774
396.4678	0.153
396.674	0.1621
396.8802	0.1811
397.0863	0.1876
397.2925	0.1612
397.4987	0.1692
397.7048	0.1649
397.9109	0.1675
398.117	0.1566
398.3231	0.1698
398.5292	0.1706
398.7353	0.1747
398.9413	0.163
399.1474	0.1618
399.3534	0.1594
399.5594	0.1471
399.7654	0.1698
399.9714	0.1651
400.1774	0.1653
400.3833	0.1522
400.5893	0.1669
400.7952	0.1611
401.0011	0.1597
401.207	0.178
401.4129	0.174
401.6188	0.1749
401.8247	0.1719
402.0305	0.1508
402.2364	0.1484
402.4422	0.1669
402.648	0.1575
402.8538	0.1672
403.0596	0.1672
403.2654	0.1692
403.4711	0.157
403.6768	0.159
403.8826	0.1698
404.0883	0.16
404.294	0.1673
404.4997	0.1473
404.7054	0.1603
404.911	0.1537
405.1167	0.1606
405.3223	0.1599
405.5279	0.1741
405.7335	0.1573
405.9391	0.167
406.1447	0.1515
406.3502	0.1749
406.5558	0.1643
406.7613	0.1705
406.9668	0.1622
407.1724	0.1506
407.3778	0.1639
407.5833	0.159
407.7888	0.1434
407.9942	0.1876
408.1997	0.1498
408.4051	0.1562
408.6105	0.1696
408.8159	0.1551
409.0213	0.1638
409.2267	0.1692
409.432	0.1409
409.6374	0.1739
409.8427	0.1529
410.048	0.1636
410.2533	0.1509
410.4586	0.1534
410.6639	0.1409
410.8691	0.1518
411.0744	0.1427
411.2796	0.168
411.4848	0.154
411.69	0.1475
411.8952	0.1789
412.1004	0.1347
412.3056	0.1717
412.5107	0.1488
412.7158	0.1518
412.921	0.1555
413.1261	0.1558
413.3312	0.165
413.5362	0.1522
413.7413	0.1474
413.9464	0.1459
414.1514	0.1385
414.3564	0.1415
414.5614	0.1364
414.7664	0.1581
414.9714	0.1561
415.1764	0.1476
415.3813	0.1487
415.5863	0.1452
415.7912	0.1494
415.9961	0.1399
416.201	0.1489
416.4059	0.1486
416.6108	0.1455
416.8156	0.1537
417.0205	0.1391
417.2253	0.1388
417.4301	0.1537
417.6349	0.1356
417.8397	0.1604
418.0445	0.1591
418.2492	0.1409
418.454	0.1548
418.6587	0.1342
418.8634	0.1466
419.0681	0.1452
419.2728	0.1341
419.4775	0.137
419.6822	0.1534
419.8868	0.1224
420.0915	0.1451
420.2961	0.1357
420.5007	0.1123
420.7053	0.142
420.9099	0.1418
421.1144	0.1536
421.319	0.1318
421.5235	0.145
421.728	0.1415
421.9325	0.1469
422.137	0.1514
422.3415	0.1287
422.546	0.1328
422.7504	0.1386
422.9549	0.133
423.1593	0.1376
423.3637	0.1378
423.5681	0.1378
423.7725	0.1073
423.9769	0.1135
424.1812	0.1339
424.3856	0.1404
424.5899	0.129
424.7942	0.1226
424.9985	0.1284
425.2028	0.1067
425.4071	0.1464
425.6113	0.1003
425.8156	0.1214
426.0198	0.1289
426.224	0.1272
426.4282	0.1195
426.6324	0.1174
426.8366	0.1083
427.0407	0.1323
427.2449	0.1348
427.449	0.1256
427.6531	0.1014
427.8572	0.1096
428.0613	0.1113
428.2654	0.1222
428.4694	0.1048
428.6735	0.1091
428.8775	0.1332
429.0815	0.1238
429.2855	0.0959
429.4895	0.1129
429.6935	0.1118
429.8975	0.1159
430.1014	0.11
430.3053	0.0895
430.5093	0.1054
430.7132	0.1011
430.9171	0.0938
431.1209	0.0981
431.3248	0.0917
431.5286	0.1126
431.7325	0.0935
431.9363	0.0921
432.1401	0.0971
432.3439	0.0875
432.5477	0.0943
432.7514	0.0914
432.9552	0.0953
433.1589	0.0838
433.3627	0.0808
433.5664	0.0759
433.7701	0.0839
433.9737	0.0937
434.1774	0.0794
434.3811	0.0787
434.5847	0.0978
434.7883	0.0787
434.9919	0.0769
435.1955	0.0767
435.3991	0.0834
435.6027	0.0704
435.8062	0.0646
436.0098	0.0704
436.2133	0.0719
436.4168	0.087
436.6203	0.0611
436.8238	0.0636
437.0272	0.0615
437.2307	0.0627
437.4341	0.0711
437.6375	0.0732
437.841	0.0624
438.0443	0.0735
438.2477	0.0631
438.4511	0.0582
438.6545	0.0634
438.8578	0.0739
439.0611	0.0726
439.2644	0.0624
439.4677	0.037
439.671	0.0559
439.8743	0.0602
440.0775	0.0701
440.2808	0.0593
440.484	0.0531
440.6872	0.0342
440.8904	0.047
441.0936	0.0661
441.2967	0.0349
441.4999	0.0618
441.703	0.0463
441.9062	0.0412
442.1093	0.0361
442.3124	0.0545
442.5155	0.0326
442.7185	0.0397
442.9216	0.0176
443.1246	0.0562
443.3276	0.0305
443.5307	0.0442
443.7337	0.0637
443.9366	0.0462
444.1396	0.0337
444.3426	0.0293
444.5455	0.0314
444.7484	0.0351
444.9513	0.0248
445.1542	0.0408
445.3571	0.0358
445.56	0.0481
445.7628	0.0302
445.9657	0.0258
446.1685	0.0395
446.3713	0.0424
446.5741	0.0278
446.7769	0.0175
446.9797	0.0312
447.1824	0.0291
447.3852	0.0401
447.5879	0.0317
447.7906	0.0394
447.9933	0.0334
448.196	0.0196
448.3986	0.0179
448.6013	0.024
448.8039	0.0085
449.0066	0.0186
449.2092	0.0239
449.4118	0.0289
449.6143	0.0195
449.8169	0.0203
450.0195	0.0173
450.222	0.0154
450.4245	0.0228
450.627	0.014
450.8295	0.0176
451.032	0.0229
451.2345	0.0171
451.4369	0.025
451.6394	0.0136
451.8418	-0.0048
452.0442	0.0115
452.2466	0.0335
452.449	0.0059
452.6513	0.0161
452.8537	0.0137
453.056	0.0062
453.2583	0.0169
453.4607	0.0048
453.663	0.0172
453.8652	0.0158
454.0675	0.0061
454.2697	0.0267
454.472	-0.0016
454.6742	0.016
454.8764	0.0168
455.0786	0.0199
455.2808	0.0066
455.4829	0.0087
455.6851	0.0157
455.8872	0.0184
456.0893	0.0121
456.2915	-0.0025
456.4935	0.0108
456.6956	0.0131
456.8977	0.0243
457.0997	0.0068
457.3018	0.0008
457.5038	0.0137
457.7058	0.0056
457.9078	0.003
458.1098	0.0102
458.3117	0.0074
458.5137	0.0088
458.7156	0.0097
458.9175	-0.0161
459.1194	0.0001
459.3213	0.0006
459.5232	0.001
459.725	0.0023
459.9269	-0.0185
460.1287	-0.0046
460.3305	-0.004
460.5323	0.017
460.7341	0.0042
460.9359	-0.008
461.1376	-0.0021
461.3394	0.0031
461.5411	-0.0202
461.7428	0.0049
461.9445	0.0074
462.1462	0.0112
462.3479	-0.0083
462.5495	0.0045
462.7512	0.013
462.9528	-0.0025
463.1544	-0.0036
463.356	0.0017
463.5576	0.0106
463.7592	-0.0088
463.9607	0.0046
464.1623	0.0066
464.3638	0.0001
464.5653	0.0014
464.7668	0.0042
464.9683	0.0095
465.1697	0.0135
465.3712	-0.0022
465.5726	-0.0194
465.7741	-0.0067
465.9755	-0.0062
466.1769	0.0065
466.3782	0.011
466.5796	-0.0132
466.7809	0.0121
466.9823	0.0035
467.1836	-0.0121
467.3849	-0.008
467.5862	0.003
467.7875	0.0065
467.9887	0.0176
468.19	-0.0161
468.3912	-0.0088
468.5924	-0.0003
468.7936	-0.0062
468.9948	0.0052
469.196	0.0113
469.3972	-0.021
469.5983	-0.0097
469.7994	-0.0231
470.0006	-0.0086
470.2017	-0.0118
470.4027	-0.0045
470.6038	-0.0045
470.8049	-0.0227
471.0059	-0.0187
471.2069	-0.0287
471.408	0.017
471.6089	-0.0031
471.8099	-0.0178
472.0109	-0.0051
472.2119	-0.012
472.4128	-0.0261
472.6137	0.0029
472.8146	-0.0159
473.0155	-0.0102
473.2164	-0.0228
473.4173	0.0063
473.6181	0.0114
473.819	-0.0086
474.0198	-0.007
474.2206	-0.0077
474.4214	-0.0106
474.6222	0.0007
474.8229	-0.0075
475.0237	-0.0141
475.2244	-0.014
475.4251	-0.0028
475.6258	-0.0045
475.8265	-0.0144
476.0272	0.0086
476.2278	-0.005
476.4285	-0.015
476.6291	0.0025
476.8297	-0.019
477.0303	-0.0186
477.2309	0.0039
477.4315	-0.0046
477.632	-0.0075
477.8326	-0.0095
478.0331	0.0011
478.2336	0.0012
478.4341	-0.0199
478.6346	0.0025
478.8351	-0.0034
479.0355	-0.0073
479.236	-0.0152
479.4364	0.0067
479.6368	-0.0124
479.8372	-0.025
480.0376	-0.0047
480.2379	-0.0258
480.4383	-0.0138
480.6386	-0.002
480.8389	-0.0003
481.0392	-0.0033
481.2395	-0.0106
481.4398	0.0002
481.6401	-0.006
481.8403	-0.0084
482.0405	-0.0142
482.2408	-0.009
482.441	0.0059
482.6411	-0.01
482.8413	-0.0077
483.0415	-0.0088
483.2416	-0.0139
483.4417	-0.0063
483.6419	-0.005
483.8419	-0.0068
484.042	-0.004
484.2421	0.0022
484.4422	-0.0023
484.6422	-0.0051
484.8422	-0.0047
485.0422	-0.0144
485.2422	0.0048
485.4422	-0.0097
485.6422	-0.0114
485.8421	-0.0031
486.042	-0.0063
486.242	-0.0037
486.4419	-0.002
486.6417	-0.0125
486.8416	-0.0132
487.0415	-0.0059
487.2413	-0.0122
487.4411	-0.0129
487.641	-0.0108
487.8408	0.0024
488.0405	-0.0064
488.2403	-0.006
488.4401	-0.0034
488.6398	-0.0125
488.8395	-0.0029
489.0392	-0.0034
489.2389	-0.0119
489.4386	-0.0173
489.6383	-0.0004
489.8379	0.0056
490.0376	-0.0023
490.2372	-0.0154
490.4368	-0.0102
490.6364	-0.0021
490.836	-0.0132
491.0355	-0.012
491.2351	-0.0161
491.4346	-0.0125
491.6341	-0.0127
491.8336	0.0004
492.0331	-0.0149
492.2326	-0.0069
492.432	-0.0126
492.6315	0.0033
492.8309	-0.0162
493.0303	-0.0065
493.2297	-0.0032
493.4291	-0.0109
493.6284	0.0026
493.8278	-0.0104
494.0271	-0.0072
494.2264	0.0024
494.4257	-0.0127
494.625	-0.012
494.8243	-0.0233
495.0236	-0.0146
495.2228	-0.0106
495.422	-0.0061
495.6213	-0.0083
495.8205	-0.0063
496.0196	-0.0044
496.2188	-0.0076
496.418	-0.0106
496.6171	-0.0149
496.8162	-0.0127
497.0153	-0.0061
497.2144	-0.0096
497.4135	-0.0023
497.6126	-0.0197
497.8116	-0.0056
498.0107	-0.0008
498.2097	-0.0165
498.4087	-0.0111
498.6077	-0.0044
498.8067	-0.0194
499.0056	0.0074
499.2046	-0.0029
499.4035	-0.0175
499.6024	-0.0033
499.8013	0.0026
500.0002	-0.0219
500.199	-0.0107
500.3979	-0.0078
500.5967	-0.0225
500.7956	-0.0033
500.9944	-0.0051
501.1932	-0.0226
501.3919	-0.0211
501.5907	-0.0147
501.7895	0.0013
501.9882	-0.0152
502.1869	-0.0114
502.3856	-0.0123
502.5843	-0.0143
502.783	-0.0189
502.9816	-0.002
503.1803	-0.0186
503.3789	-0.0156
503.5775	-0.0119
503.7761	-0.0091
503.9747	-0.0093
504.1732	-0.0139
504.3718	-0.0111
504.5703	-0.0013
504.7689	-0.0067
504.9674	-0.0109
505.1658	-0.0063
505.3643	-0.0022
505.5628	-0.0075
505.7612	-0.0117
505.9597	0.0019
506.1581	-0.0054
506.3565	0.0057
506.5549	-0.0114
506.7532	-0.018
506.9516	-0.0049
507.1499	-0.0046
507.3482	-0.0223
507.5465	-0.0073
507.7448	-0.0089
507.9431	-0.0068
508.1414	0.0041
508.3396	-0.0127
508.5379	0.0001
508.7361	-0.0133
508.9343	-0.0064
509.1325	-0.0021
509.3306	-0.0098
509.5288	-0.0062
509.7269	-0.0096
509.9251	-0.0044
510.1232	-0.0129
510.3213	-0.0045
510.5193	-0.007
510.7174	-0.0126
510.9154	-0.0058
511.1135	-0.0116
511.3115	-0.0157
511.5095	-0.0038
511.7075	-0.0137
511.9055	-0.0048
512.1034	-0.0114
512.3014	-0.0036
512.4993	0.0024
512.6972	-0.0171
512.8951	-0.0224
513.093	-0.0123
513.2908	-0.009
513.4887	-0.0109
513.6865	-0.0081
513.8844	-0.0145
514.0822	-0.0125
514.2799	-0.0143
514.4777	-0.0114
514.6755	-0.0094
514.8732	-0.0125
515.0709	-0.0144
515.2687	-0.0134
515.4664	-0.0099
515.664	-0.0022
515.8617	-0.0047
516.0594	-0.0252
516.257	-0.0079
516.4546	-0.016
516.6522	-0.003
516.8498	-0.0055
517.0474	-0.0029
517.2449	-0.0044
517.4425	-0.0114
517.64	-0.0051
517.8375	-0.0019
518.035	-0.0015
518.2325	-0.0118
518.43	-0.0016
518.6274	-0.0064
518.8249	-0.0173
519.0223	-0.0083
519.2197	-0.0097
519.4171	-0.0086
519.6145	-0.0146
519.8118	-0.001
520.0092	-0.0125
520.2065	-0.0055
520.4038	-0.0158
520.6011	-0.0108
520.7984	-0.0139
520.9956	-0.0084
521.1929	-0.0169
521.3901	0.0033
521.5874	0.0001
521.7846	-0.0097
521.9818	-0.0179
522.1789	-0.0166
522.3761	-0.0066
522.5732	-0.0127
522.7704	-0.0057
522.9675	-0.0102
523.1646	-0.009
523.3617	-0.0046
523.5587	-0.0043
523.7558	-0.002
523.9528	0.0002
524.1498	-0.0081
524.3468	-0.0069
524.5438	-0.0075
524.7408	-0.0116
524.9378	-0.0001
525.1347	-0.0037
525.3316	0.0076
525.5285	-0.0063
525.7254	0.0005
525.9223	0.0048
526.1192	-0.0088
526.316	-0.0155
526.5129	0.0084
526.7097	-0.0087
526.9065	-0.0087
527.1033	-0.0083
527.3	0.0004
527.4968	-0.0091
527.6935	-0.0041
527.8903	-0.0216
528.087	-0.0064
528.2837	-0.0103
528.4804	-0.0089
528.677	-0.0126
528.8737	0.0031
529.0703	0.0081
529.2669	0.0042
529.4635	-0.0079
529.6601	-0.0025
529.8567	-0.0033
530.0532	-0.0097
530.2498	0.0064
530.4463	-0.0014
530.6428	-0.0054
530.8393	0.001
531.0358	-0.003
531.2322	-0.0021
531.4287	-0.0058
531.6251	0.0005
531.8215	-0.0012
532.0179	-0.0055
532.2143	0.0024
532.4107	-0.009
532.607	0.0025
532.8034	-0.0006
532.9997	-0.0033
533.196	-0.001
533.3923	-0.0215
533.5886	0.0016
533.7848	-0.0019
533.9811	-0.0041
534.1773	0.0005
534.3735	0.0094
534.5697	-0.0047
534.7659	-0.0083
534.9621	0.0077
535.1582	-0.0139
535.3544	-0.0126
535.5505	-0.0037
535.7466	-0.0102
535.9427	-0.0063
536.1387	-0.0067
536.3348	-0.0072
536.5308	0.0018
536.7269	-0.0242
536.9229	0.0016
537.1189	-0.0054
537.3148	-0.0062
537.5108	-0.0021
537.7068	0.0028
537.9027	-0.0068
538.0986	-0.0094
538.2945	-0.0119
538.4904	-0.0092
538.6863	0.0015
538.8821	-0.0029
539.078	-0.0055
539.2738	-0.0081
539.4696	-0.006
539.6654	0.0051
539.8611	0.0084
540.0569	-0.0028
540.2526	-0.0142
540.4484	0.0001
540.6441	0.003
540.8398	-0.0009
541.0355	0.0027
541.2311	0.0034
541.4268	-0.0074
541.6224	-0.0049
541.818	-0.003
542.0136	-0.0032
542.2092	0.0003
542.4048	-0.0068
542.6003	-0.0066
542.7959	-0.0066
542.9914	-0.0031
543.1869	-0.0046
543.3824	0.0008
543.5779	-0.01
543.7734	-0.0016
543.9688	-0.0061
544.1642	-0.0042
544.3596	-0.007
544.555	-0.0063
544.7504	-0.0022
544.9458	0.0068
545.1411	0.0012
545.3365	-0.0022
545.5318	-0.0106
545.7271	-0.0039
545.9224	-0.0017
546.1177	-0.0043
546.3129	0.0064
546.5081	-0.0092
546.7034	-0.0044
546.8986	-0.0107
547.0938	-0.0161
547.289	-0.0042
547.4841	-0.0004
547.6793	0.0012
547.8744	-0.0112
548.0695	-0.0062
548.2646	-0.0096
548.4597	0.0087
548.6548	-0.0011
548.8498	0.0034
549.0448	0.0045
549.2399	-0.0002
549.4349	0.0001
549.6298	0.0004
549.8248	-0.0008
550.0198	0.0013
550.2147	0.0001
550.4096	-0.0019
550.6045	-0.0061
550.7994	0.0025
550.9943	0.0006
551.1892	-0.0035
551.384	0.0023
551.5788	-0.0035
551.7737	0.0045
551.9685	0.0019
552.1632	-0.0002
552.358	-0.0081
552.5528	-0.0025
552.7475	-0.0089
552.9422	0.0008
553.1369	-0.0043
553.3316	0.0037
553.5263	-0.0059
553.7209	0.0029
553.9156	-0.0031
554.1102	-0.0027
554.3048	-0.0058
554.4994	0.0084
554.694	-0.0131
554.8885	0.0072
555.0831	-0.0139
555.2776	-0.0073
555.4721	0.0019
555.6666	0.0015
555.8611	0.0126
556.0555	0.0047
556.25	0.0025
556.4444	-0.0091
556.6388	0.0093
556.8332	-0.0084
557.0276	0.0006
557.222	-0.0075
557.4163	0.0004
557.6107	-0.0093
557.805	0.0014
557.9993	-0.0063
558.1936	-0.0045
558.3879	0.0002
558.5821	0.0015
558.7764	0.0039
558.9706	0.0019
559.1648	0.0037
559.359	0.0019
559.5532	-0.0062
559.7473	-0.0055
559.9415	-0.0033
560.1356	-0.0061
560.3297	-0.0059
560.5238	-0.0033
560.7179	-0.006
560.9119	-0.0125
561.106	0.0048
561.3	-0.0085
561.494	0.0079
561.688	0.002
561.882	-0.0129
562.076	-0.0011
562.2699	0.0017
562.4639	0.0056
562.6578	-0.0033
562.8517	-0.0077
563.0456	-0.0007
563.2395	0.0037
563.4333	-0.0033
563.6272	0.0091
563.821	0.0065
564.0148	0.0002
564.2086	-0.0072
564.4024	0.0007
564.5961	-0.0053
564.7899	0.0001
564.9836	0.0031
565.1773	0.0019
565.371	0.0075
565.5647	0.0097
565.7584	0.0059
565.952	0.0025
566.1456	-0.003
566.3393	0.0019
566.5329	-0.0019
566.7264	-0.0048
566.92	-0.003
567.1136	-0.0007
567.3071	0.0008
567.5006	0.0004
567.6941	0.0081
567.8876	0.001
568.0811	-0.0013
568.2745	0.0072
568.468	0.0031
568.6614	0.0007
568.8548	0.0124
569.0482	-0.0044
569.2416	-0.0019
569.4349	-0.0008
569.6283	-0.0023
569.8216	-0.0075
570.0149	-0.0095
570.2082	0.0022
570.4015	0.0017
570.5947	-0.0001
570.788	0.0036
570.9812	-0.0019
571.1744	-0.0004
571.3676	-0.0077
571.5608	-0.0008
571.754	0.0067
571.9471	-0.0029
572.1402	0.0004
572.3333	-0.0005
572.5264	-0.0037
572.7195	-0.0005
572.9126	-0.0024
573.1057	-0.0029
573.2987	-0.0078
573.4917	-0.0017
573.6847	-0.0125
573.8777	0.0071
574.0707	0.001
574.2636	-0.0012
574.4566	-0.0058
574.6495	0.0052
574.8424	0.0022
575.0353	-0.0044
575.2281	0.0054
575.421	-0.0008
575.6138	0.0012
575.8067	-0.0028
575.9995	-0.0048
576.1923	0.0015
576.385	-0.0026
576.5778	-0.0032
576.7706	-0.0058
576.9633	-0.0046
577.156	0.0056
577.3487	-0.0019
577.5414	-0.0041
577.734	-0.002
577.9267	-0.0018
578.1193	-0.0135
578.3119	-0.0159
578.5045	-0.0112
578.6971	-0.0015
578.8897	0.005
579.0822	-0.0025
579.2747	0.0025
579.4673	-0.0036
579.6598	-0.0074
579.8522	-0.003
580.0447	-0.0051
580.2372	-0.0058
580.4296	-0.0031
580.622	-0.004
580.8144	-0.0002
581.0068	-0.0011
581.1992	-0.0144
581.3915	-0.0123
581.5839	-0.0144
581.7762	-0.0094
581.9685	-0.0037
582.1608	-0.0018
582.353	-0.0068
582.5453	-0.0012
582.7375	-0.0014
582.9298	-0.0012
583.122	-0.0081
583.3142	-0.0037
583.5063	0.0045
583.6985	0.0016
583.8906	-0.003
584.0827	-0.0106
584.2749	-0.0049
584.4669	-0.0019
584.659	-0.001
584.8511	0.0021
585.0431	-0.0036
585.2352	0.0002
585.4272	-0.001
585.6192	0.004
585.8111	0.0039
586.0031	-0.0016
586.195	-0.0005
586.387	0.0043
586.5789	-0.0022
586.7708	0.002
586.9627	-0
587.1545	-0.0048
587.3464	-0.0025
587.5382	0.0071
587.73	0.0035
587.9218	0.0037
588.1136	0.0009
588.3053	0.0055
588.4971	-0.0083
588.6888	-0.0127
588.8805	0.0004
589.0722	-0.0004
589.2639	0.0071
589.4556	-0.0025
589.6472	-0.0046
589.8389	-0.0106
590.0305	-0.0051
590.2221	0.0042
590.4137	-0.0118
590.6052	0.0034
590.7968	-0.002
590.9883	0.002
591.1798	-0.0039
591.3713	-0.0054
591.5628	0.0027
591.7543	0.0078
591.9458	0.0011
592.1372	0.0069
592.3286	0.009
592.52	0.0048
592.7114	0.002
592.9028	0.0016
593.0941	-0.0082
593.2855	-0.006
593.4768	-0.0089
593.6681	-0.0073
593.8594	-0.0067
594.0506	-0.0041
594.2419	0.0091
594.4331	0.0006
594.6244	-0.0019
594.8156	-0.003
595.0067	0.0051
595.1979	0.0017
595.3891	0.0016
595.5802	0.0051
595.7713	-0.0024
595.9624	0.0061
596.1535	0.0069
596.3446	-0.0005
596.5357	0.004
596.7267	0.0075
596.9177	0.002
597.1087	-0.003
597.2997	-0.0048
597.4907	0.0007
597.6817	-0.0012
597.8726	0.0043
598.0635	-0.0036
598.2544	-0.0013
598.4453	-0.0004
598.6362	-0.002
598.827	-0.0055
599.0179	0.0096
599.2087	-0.0014
599.3995	0.0075
599.5903	0.004
599.7811	0.003
599.9718	0.002
600.1626	-0.0066
600.3533	-0.0029
600.544	0.0019
600.7347	-0.0026
600.9254	0.0022
601.116	-0.0056
601.3067	-0.0025
601.4973	-0.0016
601.6879	0.0076
601.8785	0.0024
602.0691	0.0051
602.2596	-0.0014
602.4502	0.0009
602.6407	0.0045
602.8312	0.0078
603.0217	-0.001
603.2122	0.0037
603.4027	0.0033
603.5931	-0.0042
603.7835	0.0006
603.9739	-0.0028
604.1643	0.0053
604.3547	-0.0048
604.5451	0.0027
604.7354	-0.0005
604.9257	-0.0019
605.116	-0.0071
605.3063	0.0023
605.4966	-0.0009
605.6869	0.0044
605.8771	0.0114
606.0673	0.007
606.2575	0.0077
606.4477	0.0087
606.6379	-0.0045
606.8281	0.0029
607.0182	-0.0058
607.2083	0.0077
607.3985	0.0004
607.5885	-0.0008
607.7786	0.0024
607.9687	-0.0013
608.1587	0.0071
608.3488	0.0018
608.5388	0.0062
608.7288	0.0019
608.9187	-0.0023
609.1087	0.0005
609.2986	-0.0053
609.4886	0.0017
609.6785	0.0014
609.8684	0.0017
610.0582	-0.0006
610.2481	0.0015
610.4379	-0.006
610.6278	-0.0092
610.8176	-0.0108
611.0074	-0.006
611.1971	-0.0027
611.3869	-0.0056
611.5766	-0.01
611.7664	0.0037
611.9561	0.0032
612.1458	0.0012
612.3354	-0.0017
612.5251	0.0044
612.7147	-0.0003
612.9044	0.001
613.094	-0.0111
613.2836	0.0018
613.4731	-0.003
613.6627	-0.0008
613.8522	0.0027
614.0417	0.0041
614.2313	-0.0005
614.4207	-0.0037
614.6102	-0.0049
614.7997	-0.0045
614.9891	-0.0069
615.1785	-0.0033
615.3679	-0.0023
615.5573	0.0065
615.7467	-0.0005
615.9361	-0.0087
616.1254	-0.0054
616.3147	-0.002
616.504	0.0057
616.6933	0.0023
616.8826	0.0108
617.0718	0.0072
617.2611	0.0076
617.4503	0.0022
617.6395	-0.0029
617.8287	-0.009
618.0179	-0.0022
618.207	0.0002
618.3961	-0.0039
618.5853	0.0016
618.7744	0.0025
618.9634	0.0093
619.1525	-0.0029
619.3416	0.0026
619.5306	-0.0029
619.7196	0.0077
619.9086	-0.0064
620.0976	-0.0004
620.2866	0.0005
620.4755	-0.0034
620.6645	0.0073
620.8534	0.013
621.0423	0.0018
621.2312	0.0015
621.42	0.0014
621.6089	-0.0078
621.7977	0.0015
621.9865	-0.0041
622.1753	-0.0016
622.3641	-0.0083
622.5529	-0.0011
622.7416	0.0052
622.9303	0.0019
623.1191	-0.0006
623.3078	-0.0062
623.4964	0.0006
623.6851	-0.0041
623.8737	-0.003
624.0624	-0.0008
624.251	0.0021
624.4396	0.0023
624.6282	-0.0071
624.8167	0.0062
625.0053	0.0048
625.1938	0.0033
625.3823	-0.0003
625.5708	-0.001
625.7593	-0.0036
625.9477	0.0016
626.1362	0.002
626.3246	0.0023
626.513	0.0101
626.7014	0.0083
626.8898	0.0068
627.0781	0.0017
627.2665	-0.0027
627.4548	0.0057
627.6431	0.0091
627.8314	0.0054
628.0197	0.0008
628.2079	-0.0003
628.3962	-0.0027
628.5844	0.0062
628.7726	0.0047
628.9608	0.0059
629.1489	0.0079
629.3371	0.0108
629.5252	0.0019
629.7134	0.0106
629.9015	-0.0054
630.0895	0.0043
630.2776	0.0031
630.4657	0.0025
630.6537	0.0038
630.8417	0.0069
631.0297	-0.0038
631.2177	0.002
631.4057	-0.0072
631.5936	0.0035
631.7815	0.0008
631.9695	-0.006
632.1574	0.0073
632.3452	0.0155
632.5331	0.0113
632.7209	-0.0005
632.9088	0.0043
633.0966	0.0081
633.2844	0.0008
633.4722	0.0083
633.6599	0.0095
633.8477	0.0031
634.0354	0.0039
634.2231	-0.0005
634.4108	0.0121
634.5985	0.0127
634.7861	0.0073
634.9738	0.002
635.1614	-0.0033
635.349	-0.0028
635.5366	0.0002
635.7242	-0.0003
635.9117	0.0003
636.0993	0.0015
636.2868	0.0033
636.4743	-0.0034
636.6618	0.0101
636.8492	0.0066
637.0367	0.0022
637.2241	-0.0032
637.4115	-0.0039
637.5989	-0.0079
637.7863	-0.0014
637.9737	-0.0011
638.161	-0
638.3484	0.0013
638.5357	0.0065
638.723	-0.0012
638.9103	0.0006
639.0975	0.0132
639.2848	0.0044
639.472	0.0033
639.6592	0.0074
639.8464	0.0082
640.0336	0.006
640.2208	-0.0026
640.4079	0.0008
640.595	0.0045
640.7821	0.0014
640.9692	0.0054
641.1563	0.0077
641.3434	0.0072
641.5304	0.0032
641.7174	0.002
641.9044	0.003
642.0914	0.0056
642.2784	0.0065
642.4653	0.0078
642.6523	0.0044
642.8392	0.001
643.0261	0.007
643.213	0.0056
643.3999	-0.0063
643.5867	0.0035
643.7735	0.0138
643.9604	0.0008
644.1472	-0
644.3339	0.0064
644.5207	0.0073
644.7075	0.0056
644.8942	0.0048
645.0809	0.011
645.2676	0.0153
645.4543	0.0053
645.6409	0.0047
645.8276	0.0009
646.0142	0.0094
646.2008	-0.0069
646.3874	-0.0023
646.574	0.0001
646.7605	0.0002
646.9471	-0.0068
647.1336	0.0008
647.3201	0.0058
647.5066	-0.0056
647.6931	0.0067
647.8795	0.0029
648.0659	0.0049
648.2524	0.0091
648.4388	-0.0034
648.6252	0.0048
648.8115	-0.0013
648.9979	0.0007
649.1842	0.0002
649.3705	0.0025
649.5568	0.0046
649.7431	0.0093
649.9294	-0.0004
650.1156	0.0062
650.3018	-0.0025
650.488	0.0047
650.6742	0.0083
650.8604	0.0013
651.0466	-0.0074
651.2327	0.0029
651.4188	0.0005
651.6049	0.0002
651.791	0.0054
651.9771	0.0055
652.1632	0.0093
652.3492	0.008
652.5352	0.0008
652.7212	-0.0031
652.9072	0.0122
653.0932	0.0048
653.2791	-0.0011
653.465	0.0022
653.651	-0.0044
653.8369	-0.0027
654.0227	0.0052
654.2086	0.0083
654.3944	0.0028
654.5803	0.0038
654.7661	0.0081
654.9519	0.0033
655.1377	-0.0025
655.3234	0.0003
655.5092	-0.008
655.6949	-0.0056
655.8806	-0.0064
656.0663	-0.0051
656.2519	-0.0038
656.4376	-0.001
656.6232	0.0047
656.8088	0.0045
656.9945	0.0029
657.18	0.0037
657.3656	0.0032
657.5511	0.0029
657.7367	-0.0052
657.9222	0.0045
658.1077	0.0005
658.2932	0.0074
658.4786	-0.0031
658.6641	0.0004
658.8495	-0.0041
659.0349	0.0039
659.2203	0.0053
659.4057	-0.0036
659.591	0.0038
659.7764	0.0041
659.9617	0.0062
660.147	0.0017
660.3323	0.0094
660.5176	0.0109
660.7028	0.0027
660.888	0.0075
661.0733	0.0049
661.2585	-0.009
661.4436	0.0016
661.6288	0.0063
661.8139	0.0016
661.9991	0.0061
662.1842	0.0026
662.3693	0.0023
662.5544	-0.0068
662.7394	-0.0027
662.9245	0.0038
663.1095	-0.0039
663.2945	-0.0021
663.4795	-0.0045
663.6644	0.0043
663.8494	-0.0004
664.0343	-0.0002
664.2193	-0.0087
664.4042	0.0051
664.589	-0.0016
664.7739	-0.0061
664.9587	-0.0021
665.1436	0.0037
665.3284	0.0016
665.5132	0.0004
665.698	-0
665.8827	0.0074
666.0675	-0.0048
666.2522	-0.0057
666.4369	0.0079
666.6216	0.007
666.8063	0.0067
666.9909	0.0025
667.1756	0.0039
667.3602	0.0019
667.5448	0.0039
667.7294	0.0037
667.9139	0.0035
668.0985	0.0146
668.283	0.0034
668.4675	0.0024
668.652	0.002
668.8365	-0.0038
669.0209	0.0088
669.2054	0.0119
669.3898	0.0015
669.5742	0.0076
669.7586	0.0081
669.943	0.0113
670.1273	0.011
670.3117	0.013
670.496	0.0045
670.6803	0.0143
670.8646	0.0115
671.0488	0.0045
671.2331	0.0139
671.4173	0.0069
671.6015	-0.0045
671.7857	0.0076
671.9699	0.0053
672.1541	0.0118
672.3382	0.0098
672.5223	0.0106
672.7064	0.0132
672.8905	0.0137
673.0746	0.0064
673.2587	-0.0037
673.4427	0.0013
673.6267	0.0101
673.8107	0.016
673.9947	0.0076
674.1787	0.0054
674.3626	-0.0086
674.5465	0.0082
674.7304	0.0018
674.9143	0.0036
675.0982	0.0096
675.2821	-0
675.4659	0.0119
675.6497	0.0054
675.8335	0.0062
676.0173	0.0098
676.2011	0.0106
676.3849	0.0032
676.5686	-0.0014
676.7523	0.0066
676.936	0.0019
677.1197	0.003
677.3034	-0.0015
677.487	0.011
677.6706	0.0084
677.8542	0.0023
678.0378	-0.001
678.2214	0.0039
678.405	0.0079
678.5885	0.0033
678.772	0.0012
678.9555	-0.0042
679.139	0.0026
679.3225	0.0071
679.5059	0.0035
679.6894	0.009
679.8728	-0.0015
680.0562	-0.0074
680.2395	-0.0048
680.4229	0.0045
680.6062	0.0149
680.7896	-0.0049
680.9729	-0.0043
681.1562	0.0046
681.3394	0.0037
681.5227	-0.005
681.7059	0.0078
681.8891	-0.0007
682.0723	0.0063
682.2555	0.0037
682.4387	0.0037
682.6218	0.0028
682.805	0.0127
682.9881	0.0038
683.1712	-0.0009
683.3542	0.0041
683.5373	0.005
683.7203	-0.0062
683.9034	0.0059
684.0864	-0.0058
684.2694	-0
684.4523	0.0137
684.6353	-0.0006
684.8182	0.0078
685.0011	-0.0013
685.184	0.0091
685.3669	0.0049
685.5498	0.002
685.7326	0.0075
685.9154	-0.0001
686.0982	0.0093
686.281	0.0105
686.4638	0.0058
686.6465	-0.0005
686.8293	0.0047
687.012	0.0102
687.1947	0.006
687.3774	0.0038
687.56	-0.0004
687.7427	0.0036
687.9253	0.0024
688.1079	-0.0012
688.2905	0.0036
688.4731	0.0012
688.6556	-0.0039
688.8382	-0.0003
689.0207	-0.0025
689.2032	-0.0067
689.3857	-0.0021
689.5681	0.0067
689.7506	-0.0011
689.933	0.0011
690.1154	-0.0018
690.2978	0.0036
690.4802	0.0031
690.6626	-0.0097
690.8449	-0.0076
691.0272	0.0079
691.2095	-0.0028
691.3918	-0.0058
691.5741	0.0076
691.7563	-0.0049
691.9386	0.0017
692.1208	0.0003
692.303	-0.0007
692.4852	0.0018
692.6673	-0.0022
692.8495	0.0033
693.0316	0.0008
693.2137	-0.0036
693.3958	0.0079
693.5778	0.0023
693.7599	0.0026
693.9419	0.0068
694.1239	0.0069
694.3059	-0.0011
694.4879	0.0109
694.6699	0.0064
694.8518	0.0047
695.0337	0.0012
695.2157	0.0113
695.3975	-0.002
695.5794	0.0089
695.7613	0.0003
695.9431	-0.0035
696.1249	0.0014
696.3067	0.0014
696.4885	0.004
696.6703	-0.0084
696.852	0.0002
697.0337	-0.003
697.2154	-0.0011
697.3971	0.0103
697.5788	0.0064
697.7605	0.0067
697.9421	0.0119
698.1237	0.0019
698.3053	0.0059
698.4869	-0.007
698.6685	-0.0053
698.85	-0.0023
699.0315	0.012
699.213	-0.0049
699.3945	0.0053
699.576	0.0034
699.7575	0.0086
699.9389	0.0047
700.1203	0.004
700.3017	-0.0027
700.4831	-0.0073
700.6645	0.0008
700.8458	-0.0038
701.0271	-0.0093
701.2084	-0.0053
701.3897	-0.0019
701.571	0.0025
701.7523	-0.0066
701.9335	-0.004
702.1147	0.0026
702.2959	-0.0031
702.4771	-0.0029
702.6583	-0.0006
702.8394	0.0012
703.0205	0.0059
703.2016	0.0033
703.3827	0.0029
703.5638	0.0135
703.7449	0.0011
703.9259	0.0149
704.1069	-0.004
704.2879	0.0031
704.4689	0.0032
704.6499	-0.0021
704.8308	-0.0055
705.0117	0.0003
705.1927	0.0013
705.3735	-0.0001
705.5544	-0.0041
705.7353	-0.0008
705.9161	-0.0026
706.0969	-0.0094
706.2777	0.0021
706.4585	-0.0041
706.6393	0.006
706.82	0.0023
707.0007	0.0087
707.1815	0.003
707.3621	0.0067
707.5428	0.0059
707.7235	0.0088
707.9041	0.0054
708.0847	-0.0019
708.2653	-0.0022
708.4459	-0.0107
708.6265	-0.0005
708.807	0.0006
708.9875	-0.0057
709.168	-0.0076
709.3485	-0.0053
709.529	-0.0043
709.7095	-0.0069
709.8899	-0.003
710.0703	-0.0125
710.2507	0.0028
710.4311	-0.0008
710.6115	-0.004
710.7918	-0.0045
710.9721	-0.0073
711.1524	-0.0051
711.3327	-0.0048
711.513	-0.0016
711.6932	0.0053
711.8735	0.0121
712.0537	0.0025
712.2339	-0.0068
712.4141	-0.004
712.5942	-0.0034
712.7744	-0.0022
712.9545	-0.0039
713.1346	0.0001
713.3147	0.008
713.4947	0.0014
713.6748	0.0013
713.8548	0.0054
714.0348	0.0009
714.2148	-0.005
714.3948	0.0124
714.5748	0.0011
714.7547	0.0077
714.9346	0.0087
715.1145	-0
715.2944	0.0083
715.4743	0.0026
715.6541	0.008
715.834	0.0108
716.0138	0.001
716.1936	-0.0085
716.3733	0.0012
716.5531	0.0085
716.7328	-0.0065
716.9126	-0.0006
717.0923	0.0037
717.2719	0.0084
717.4516	0.0028
717.6312	0.0024
717.8109	-0.0006
717.9905	0.0039
718.1701	-0.0035
718.3496	-0.0077
718.5292	0.0027
718.7087	-0.0055
718.8882	-0.0034
719.0677	0.0059
719.2472	-0.0043
719.4267	0.0087
719.6061	0.0043
719.7856	0.0052
719.965	0.0103
720.1443	0.0013
720.3237	0.0225
720.5031	0.0097
720.6824	0.0105
720.8617	-0.0023
721.041	0.0088
721.2203	0.0085
721.3995	0.0038
721.5788	0.0115
721.758	0.0033
721.9372	0.0035
722.1164	0.0032
722.2956	0.0047
722.4747	-0
722.6538	-0.002
722.8329	0.0094
723.012	-0.0042
723.1911	-0.0012
723.3702	-0.0037
723.5492	0.0006
723.7282	-0.0067
723.9072	-0.002
724.0862	-0.0022
724.2652	-0.0082
724.4441	0.0007
724.623	0.005
724.8019	0.0025
724.9808	-0.0016
725.1597	-0.006
725.3385	0.0086
725.5174	-0.0016
725.6962	0.0054
725.875	0.0033
726.0538	0.0071
726.2325	0.0062
726.4112	0.0065
726.59	-0.0037
726.7687	-0.0037
726.9474	0.0047
727.126	0.0048
727.3047	0.0013
727.4833	-0.004
727.6619	-0.0014
727.8405	-0.009
728.0191	-0.0138
728.1976	0.0009
728.3762	-0.0041
728.5547	-0.0001
728.7332	-0.0087
728.9116	-0.002
729.0901	0.0093
729.2686	-0.0047
729.447	0.0033
729.6254	0.0006
729.8038	0.0057
729.9821	-0.0113
730.1605	0.0015
730.3388	-0.0029
730.5171	0.0014
730.6954	-0.0001
730.8737	0.0086
731.0519	0.003
731.2302	0.0024
731.4084	0.0046
731.5866	0.0051
731.7648	0.0102
731.9429	0.003
732.1211	-0.0053
732.2992	0.0007
732.4773	-0.0052
732.6554	0.0051
732.8335	0.0009
733.0115	0.0064
733.1896	0.0147
733.3676	-0.0082
733.5456	0.0106
733.7235	0.0101
733.9015	-0.0042
734.0794	0.0087
734.2574	-0.0062
734.4353	0.0069
734.6131	0.0103
734.791	-0.0019
734.9689	-0.0034
735.1467	-0.0018
735.3245	-0.0065
735.5023	-0.0081
735.68	-0.0058
735.8578	-0.001
736.0355	-0.0074
736.2132	-0.0008
736.3909	-0.0061
736.5686	-0.0104
736.7463	-0.0003
736.9239	-0.0106
737.1015	-0.0092
737.2791	0.0028
737.4567	0.0009
737.6343	-0.0132
737.8118	-0.0018
737.9894	0.0067
738.1669	-0.01
738.3444	-0.0135
738.5218	0.0018
738.6993	-0.0011
738.8767	-0.0121
739.0541	0.0168
739.2315	-0.0085
739.4089	0.0063
739.5863	0.0074
739.7636	-0.0072
739.9409	0.0033
740.1182	0.0098
740.2955	0.0048
740.4728	0.0031
740.65	0.0069
740.8272	-0.0004
741.0044	-0.0036
741.1816	-0.0034
741.3588	0.0016
741.5359	0.0115
741.7131	-0.0113
741.8902	-0.0045
742.0673	0.0004
742.2444	-0.0104
742.4214	-0.0071
742.5985	0.0013
742.7755	-0.0044
742.9525	-0.0162
743.1295	0.0021
743.3064	0.0036
743.4834	0.0085
743.6603	-0.0042
743.8372	-0.0063
744.0141	0.011
744.191	0.0008
744.3678	0.0072
744.5446	0.0014
744.7215	0.0118
744.8982	-0.0051
745.075	-0.0094
745.2518	0.0071
745.4285	0.009
745.6052	-0.006
745.7819	-0.0054
745.9586	0.0029
746.1353	-0.0022
746.3119	-0.0048
746.4885	-0.0032
746.6651	-0.0021
746.8417	0.0022
747.0183	0.0018
747.1948	0.0012
747.3714	0.0061
747.5479	0.003
747.7244	-0.0045
747.9008	0.0099
748.0773	0.0032
748.2537	0.0018
748.4301	-0.0013
748.6065	0.0049
748.7829	0.004
748.9593	-0.0054
749.1356	0.0047
749.3119	0.0088
749.4882	-0.0048
749.6645	0.0062
749.8408	-0.0086
750.017	-0.0049
750.1933	-0.002
750.3695	-0.0113
750.5457	0.0028
750.7218	-0.0075
750.898	0.0031
751.0741	-0.0074
751.2502	-0.001
751.4263	-0.0033
751.6024	-0.0019
751.7784	-0.0028
751.9545	-0.004
752.1305	-0.002
752.3065	-0.0132
752.4825	-0.0042
752.6584	-0.0154
752.8344	-0.0192
753.0103	-0.0084
753.1862	-0.0109
753.3621	-0.0083
753.5379	-0.006
753.7138	-0.0013
753.8896	-0.0011
754.0654	-0.0063
754.2412	0.0012
754.417	0.009
754.5927	-0.0122
754.7685	-0.0048
754.9442	-0.0002
755.1199	0.0064
755.2956	-0.0016
755.4712	0.0056
755.6469	-0.0033
755.8225	-0.0095
755.9981	-0.0057
756.1736	0.005
756.3492	-0.0064
756.5248	-0.0127
756.7003	-0.0069
756.8758	0.0002
757.0513	-0.0185
757.2267	-0.0071
757.4022	0.0074
757.5776	-0.0085
757.753	-0.0051
757.9284	-0.0005
758.1038	0.0032
758.2791	0.0121
758.4545	-0.0021
758.6298	-0.0008
758.8051	0.0058
758.9803	0.0001
759.1556	0.0067
759.3308	0.0042
759.506	0.013
759.6812	0.0016
759.8564	0.0147
760.0316	-0.0033
760.2067	0.012
760.3819	0.0117
760.557	0.014
760.732	-0.0006
760.9071	-0.0053
761.0821	0.0097
761.2572	0.0065
761.4322	-0.0052
761.6072	-0.0022
761.7821	-0.0054
761.9571	-0.0005
762.132	0.0025
762.3069	-0.0131
762.4818	-0.0006
762.6567	-0
762.8316	-0.0094
763.0064	-0.0075
763.1812	-0.0065
763.356	-0.0111
763.5308	0.0034
763.7055	-0.0042
763.8803	-0.0087
764.055	-0.0137
764.2297	0.0019
764.4044	-0
764.579	-0.0108
764.7537	-0.0073
764.9283	-0.0029
765.1029	-0.004
765.2775	-0.0043
765.4521	-0.0098
765.6266	-0.0101
765.8011	-0.0095
765.9756	-0.0135
766.1501	-0.0004
766.3246	0.0025
766.4991	-0.004
766.6735	-0.0008
766.8479	-0.0075
767.0223	0.0037
767.1967	0.0039
767.371	-0.002
767.5454	0.0028
767.7197	-0.0081
767.894	0.0034
768.0683	-0.0093
768.2425	0.0101
768.4168	-0.0027
768.591	-0.009
768.7652	-0.0066
768.9394	-0.0027
769.1135	0.0044
769.2877	0.0065
769.4618	-0.0065
769.6359	0.0036
769.81	0.0022
769.984	-0.007
770.1581	-0.009
770.3321	-0.0034
770.5061	-0.0106
770.6801	-0.0086
770.8541	-0.003
771.028	0.0084
771.202	-0.0165
771.3759	0.005
771.5498	-0.008
771.7236	-0.002
771.8975	0.0005
772.0713	0.0051
772.2451	0.0013
772.4189	0.0067
772.5927	0.0072
772.7665	0.0097
772.9402	0.0099
773.1139	0.0006
773.2876	-0.0065
773.4613	0.0085
773.635	0.01
773.8086	-0.0077
773.9822	0.0027
774.1558	0.0034
774.3294	-0.013
774.503	-0.003
774.6765	-0.0005
774.8501	0.0079
775.0236	0.0066
775.1971	0.0058
775.3705	-0.0015
775.544	-0.0074
775.7174	-0.0172
775.8908	-0.0094
776.0642	-0.0021
776.2376	-0.0059
776.4109	-0.0146
776.5843	-0.0101
776.7576	-0.006
776.9309	0.0065
777.1041	0.0018
777.2774	0.001
777.4506	-0.0075
777.6238	-0.0005
777.797	-0.0037
777.9702	-0.0026
778.1434	-0.0006
778.3165	-0.0135
778.4896	-0.0123
778.6627	-0.0008
778.8358	-0.0046
779.0089	-0.0005
779.1819	0.0168
779.3549	0.0121
779.5279	0.0085
779.7009	0.009
779.8739	0.0084
780.0468	0.0038
780.2197	0.0008
780.3926	-0.0003
780.5655	0.0044
780.7384	0.0067
780.9112	-0.0049
781.0841	0.0011
781.2569	-0.0049
781.4297	0.0073
781.6024	0.0151
781.7752	0.015
781.9479	0.0069
782.1206	0.0046
782.2933	-0.0109
782.466	0.0063
782.6386	0.0102
782.8113	-0.0067
782.9839	0.0108
783.1565	0.0072
783.329	0.0043
783.5016	-0.0004
783.6741	0.0054
783.8466	0.0037
784.0191	0.0092
784.1916	-0.0056
784.3641	0.0063
784.5365	0.0004
784.7089	-0.0067
784.8813	-0.0126
785.0537	-0.0118
785.2261	-0.0076
785.3984	-0.0086
785.5707	-0.0007
785.743	-0.0004
785.9153	-0.0027
786.0876	0.0076
786.2598	-0.0124
786.432	-0.0051
786.6042	-0.003
786.7764	0.0044
786.9486	0.0025
787.1207	-0.0124
787.2928	-0.0059
787.4649	-0.0115
787.637	-0.0043
787.8091	-0.0041
787.9811	0.0023
788.1532	-0.0157
788.3252	0.004
788.4972	-0.0161
788.6691	-0.002
788.8411	-0
789.013	-0.0062
789.1849	-0.0105
789.3568	-0.0021
789.5287	0.0028
789.7005	-0.0018
789.8723	0.0034
790.0442	0.017
790.2159	0.0225
790.3877	-0.0129
790.5595	-0.0167
790.7312	-0.0128
790.9029	0.0014
791.0746	-0.0099
791.2463	-0.0011
791.4179	-0.0085
791.5896	-0.0128
791.7612	-0.0109
791.9328	-0.0049
792.1044	-0.0109
792.2759	-0.0346
792.4474	-0.0229
792.619	-0.0099
792.7905	-0.0084
792.9619	0.0074
793.1334	0.0053
793.3048	0.0004
793.4762	0.0061
793.6476	-0.0008
793.819	0.0052
793.9904	0.0124
794.1617	-0.0008
794.333	-0.014
794.5043	-0.0175
794.6756	-0.0114
794.8469	-0.0008
795.0181	-0.0018
795.1893	0.0001
795.3605	0.0081
795.5317	-0.0071
795.7029	-0.0135
795.874	-0.0033
796.0452	-0.0057
796.2163	-0.0023
796.3873	-0.0179
796.5584	-0.006
796.7294	-0.0052
796.9005	0.0022
797.0715	-0.0102
797.2425	-0.018
797.4134	-0.0089
797.5844	-0.0149
797.7553	-0.0233
797.9262	-0.0186
798.0971	-0.0184
798.2679	-0.0215
798.4388	-0.0126
798.6096	-0.0185
798.7804	-0.0137
798.9512	-0.0048
799.122	-0.0231
799.2927	-0.0082
799.4635	-0.0024
799.6342	-0.0154
799.8049	-0.02
799.9755	-0.0214
800.1462	-0.0043
800.3168	-0.0025
800.4874	-0.0073
800.658	0.0065
800.8286	0.0041
800.9991	0.0009
801.1696	0.0011
801.3402	0.0013
801.5106	-0.0083
801.6811	0.0006
801.8516	0.0184
802.022	-0.0159
802.1924	-0.0061
802.3628	0.002
802.5332	0.0141
802.7035	-0
802.8739	-0.015
803.0442	-0.0092
803.2145	-0.0002
803.3847	-0.0372
803.555	-0.006
803.7252	-0.0096
803.8954	-0.0159
804.0656	-0.0301
804.2358	-0.0211
804.4059	-0.0009
804.5761	-0.0056
804.7462	-0.0111
804.9163	-0.0026
805.0864	-0.0275
805.2564	-0.0266
805.4264	-0.0103
805.5965	-0.0115
805.7665	-0.011
805.9364	-0.0104
806.1064	0.0168
806.2763	-0.0049
806.4462	0.0115
806.6161	0.0056
806.786	0.0143
806.9559	-0.0114
807.1257	0.0098
807.2955	-0.011
807.4653	-0.0088
807.6351	-0.0147
807.8048	-0.0075
807.9746	-0.0196
808.1443	-0.003
808.314	-0.0072
808.4837	-0.0274
808.6533	-0.0205
808.8229	-0.001
808.9926	-0.0081
809.1622	-0.0249
809.3317	0.0005
809.5013	-0.02
809.6708	0.0039
809.8403	-0.0153
810.0098	-0.0259
810.1793	-0.0078
810.3488	-0.0083
810.5182	-0.025
810.6876	0.0073
810.857	-0.0229
811.0264	0.0059
811.1958	-0
811.3651	-0.0071
811.5344	-0.0143
811.7037	-0.0114
811.873	-0.0038
812.0422	0.0005
812.2115	-0.0131
812.3807	-0.0094
812.5499	0.0114
812.7191	0.0029
812.8882	-0.0043
813.0574	-0.0263
813.2265	-0.0046
813.3956	0.0024
813.5646	-0.0009
813.7337	-0.023
813.9027	0.0157
814.0718	0.0173
814.2407	0.0195
814.4097	-0.0017
814.5787	-0.0096
814.7476	0.0039
814.9165	0.0058
815.0854	-0.0091
815.2543	-0.0061
815.4232	-0.012
815.592	0.0173
815.7608	0.011
815.9296	-0.0021
816.0984	0.0002
816.2671	0.0181
816.4359	-0.0253
816.6046	-0.0038
816.7733	0.0061
816.942	-0.031
817.1106	-0.0142
817.2793	-0.0181
817.4479	0.013
817.6165	-0.0151
817.785	-0.0041
817.9536	-0.018
818.1221	0.0003
818.2906	-0.001
818.4591	0.0003
818.6276	-0.036
818.7961	-0.0047
818.9645	0.0179
819.1329	-0.0148
819.3013	-0.0074
819.4697	0.0109
819.638	-0.0165
819.8064	-0.0121
819.9747	-0.0073
820.143	-0.0011
820.3113	-0.0272
820.4795	-0.0219
820.6477	0.0069
820.816	-0.0124
820.9842	-0.0269
821.1523	-0.0399
821.3205	-0.0215
821.4886	-0.0267
821.6567	-0.012
821.8248	-0.0038
821.9929	0.0041
822.1609	-0.0231
822.329	0.005
822.497	0.0153
822.665	-0.0141
822.833	-0.007
823.0009	-0.0001
823.1688	0.018
823.3367	0.0116
823.5046	0.01
823.6725	0.0199
823.8404	0.0087
824.0082	0.013
824.176	0.0156
824.3438	0.0019
824.5116	-0.008
824.6793	0.0179
824.847	-0.0163
825.0147	-0.0225
825.1824	0.012
825.3501	0.0169
825.5177	-0.0272
825.6854	-0.0252
825.853	-0.0112
826.0206	-0.0232
826.1881	0.027
826.3557	-0.0359
826.5232	-0.012
826.6907	-0.0351
826.8582	-0.0268
827.0257	-0.0199
827.1931	0.01
827.3605	-0.016
827.528	0.0151
827.6953	-0.0173
827.8627	-0.012
828.03	0.0147
828.1974	-0.0167
828.3647	-0.0423
828.532	-0.0264
828.6992	-0.031
828.8665	0.0057
829.0337	-0.0488
829.2009	-0.0026
829.3681	-0.0386
829.5352	0.0458
829.7024	-0.0231
829.8695	-0.0443
830.0366	0.0365
830.2037	-0.0432
830.3707	-0.0118
830.5378	-0.024
830.7048	-0.0234
830.8718	-0.0028
831.0388	-0.0219
831.2057	-0.0043
831.3727	0.0153
831.5396	0.001
831.7065	-0.0494
831.8734	0.0026
832.0402	-0.0621
832.2071	0.0266
832.3739	-0.0195
832.5407	-0.0154
832.7075	-0.0332
832.8742	-0.0297
833.041	-0.0462
833.2077	0.003
833.3744	-0.039
833.541	-0.036
833.7077	-0.0623
833.8743	-0.0286
834.0409	-0.0447
834.2075	-0.0342
834.3741	-0.0429
834.5407	0.0405
834.7072	-0.0058
834.8737	-0.0308
835.0402	-0.0198
835.2067	-0.002
835.3731	-0.0021
835.5395	-0.0262
835.706	-0.0141
835.8723	0.0049
836.0387	-0.0081
836.2051	-0.0335
836.3714	-0.0195
836.5377	-0.0196
836.704	-0.0079
836.8703	-0.0197
837.0365	-0.0264
837.2027	0.0304
837.3689	0.0029
837.5351	-0.0756
837.7013	-0.0727
837.8674	-0.0536
838.0335	-0.0362
838.1997	-0.033
838.3657	-0.0166
838.5318	-0.0344
838.6978	0.0478
838.8639	-0.0118
839.0299	-0.0261
839.1958	-0.0155
839.3618	-0.0145
839.5277	-0.0652
839.6937	-0.0018
839.8596	-0.0038
840.0254	0.0272
840.1913	-0.0026
840.3571	0.0223
840.523	-0.0355
840.6888	-0.0514
840.8545	-0.037
841.0203	0.0159
841.186	0.0383
841.3517	0.0163
841.5174	0.0025
841.6831	-0.038
841.8488	-0.0169
842.0144	-0.0267
842.18	0.0061
842.3456	0.0526
842.5112	-0.0436
842.6767	-0.0606
842.8422	-0.0809
843.0077	-0.0232
843.1732	0.0477
843.3387	-0.0653
843.5042	-0.0435
843.6696	0.0536
843.835	0.0254
844.0004	0.0269
844.1657	-0.013
844.3311	-0.1205
844.4964	0.0091
844.6617	-0.0271
844.827	0.008
844.9923	-0.0289
845.1575	-0.0289
845.3227	-0.0194
845.4879	-0.058
845.6531	-0.0636
845.8183	-0.0872
845.9834	-0.0315
846.1485	-0.0034
846.3136	-0.0471
846.4787	-0.0665
846.6438	-0.0026
846.8088	-0.0231
846.9738	-0.0973
847.1388	-0.0058
847.3038	-0.0763
847.4687	-0.0976
847.6337	0.021
847.7986	-0.0146
847.9635	-0.0554
848.1284	0.0165
848.2932	0.0419
848.458	0.0351
848.6228	0.087
848.7876	0.0567
848.9524	-0.0582
849.1172	-0.0667
849.2819	0.0595
849.4466	-0.1093
849.6113	-0.1191
849.7759	0.0372
849.9406	-0.1035
850.1052	0.0316
850.2698	-0.017
850.4344	-0.0379
850.599	-0.0379
850.7635	0.055
850.928	-0.0325
851.0925	-0.0336
851.257	-0.0277
851.4215	0.0089
851.5859	-0.0997
851.7503	-0.0682
851.9147	0.0014
852.0791	-0.1019
852.2434	-0.0207
852.4078	0.0342
852.5721	0.0772
852.7364	0.0335
852.9007	-0.2235
853.0649	0.0036
853.2291	-0.0476
853.3934	0.075
853.5575	0.0255
853.7217	-0.1307
853.8859	-0.079
854.05	-0.0211
854.2141	0.0347
854.3782	-0.1078
854.5423	-0.1559
854.7063	0.1434
854.8703	-0.0763
855.0343	-0.096
855.1983	-0.1948
855.3623	0.0395
855.5262	-0.0872
855.6901	-0.102
855.854	-0.0564
856.0179	0.0018
856.1818	0.1193
856.3456	-0.03
856.5094	-0.0924
856.6732	-0.1426
856.837	-0.0679
857.0008	-0.0116
857.1645	0.0375
857.3282	-0.3575
857.4919	0.0027
857.6556	0.1211
857.8192	0.0265
857.9828	0.0474
858.1465	0.169
858.31	-0.2769
858.4736	-0.1289
858.6372	-0.24
858.8007	-0.1662
858.9642	0.0474
859.1277	-0.0401
859.2911	-0.0766
859.4546	-0.0033
859.618	-0.3754
859.7814	0.0096
859.9448	0.1661
860.1081	0.0152
860.2715	0.1976
860.4348	-0.0451
860.5981	-0.0281
860.7614	0.1378
860.9246	0.0225
861.0879	-0.1359
861.2511	0.0587
861.4143	-0.2072
861.5774	0.089
861.7406	-0.3934
861.9037	-0.0669
862.0668	-0.0077
862.2299	-0.0678
862.393	-0.4228
862.556	-0.0697
862.7191	-0.1806
862.8821	-0.3541
863.0451	-0.0064
863.208	0.0765
863.371	0.0615
863.5339	-0.2953
863.6968	0.1576
863.8597	-0.0131
864.0225	-0.2088
864.1854	-0.1189
864.3482	-0.301
864.511	0.0357
864.6737	-0.2413
864.8365	-0.21
864.9992	-0.5237
865.1619	-0.5804
865.3246	-0
865.4873	0.0458
865.65	-0.2345
865.8126	-0.0013
865.9752	0.3943
866.1378	-0.1076
866.3004	0.2806
866.4629	0.0152
866.6254	0.2943
866.7879	0.2511
866.9504	0.8667
867.1129	-0
867.2753	-0.0149
867.4377	0.1899
867.6001	-0.3393
867.7625	0.0276
867.9249	-0.3268
868.0872	0.1522
868.2495	-0.0778
868.4118	0.8129
868.5741	-0.1279
868.7363	-0.2194
868.8986	0.1029
869.0608	-0.2205
869.223	0.0871
869.3851	0.2924
869.5473	-0
869.7094	0.0304
869.8715	-0.4869
870.0336	0.0263
870.1957	0.3704
870.3577	-0
870.5197	0.0636
870.6817	-0.4173
870.8437	0.1389
871.0057	-0
871.1676	-0.5531
871.3295	-0.3875
871.4914	-0
871.6533	-0.3265
871.8151	0.1944
871.977	-0
872.1388	-0
872.3006	0.5441
872.4623	0.6353
872.6241	0.36
872.7858	0.2685
872.9475	-0.1357
873.1092	-0.1815
873.2709	-0
873.4325	-0.0142
873.5941	0.2463
873.7557	-0
873.9173	-0
874.0789	-0.7867
874.2404	-0
874.4019	0.2506
874.5634	-0.2323
874.7249	-0.128
874.8863	0.2249
875.0478	-0
875.2092	-0
875.3706	-0
875.5319	-0.9031
875.6933	-0
875.8546	-0.3231
876.0159	-0.0947
876.1772	-0
876.3385	-0
876.4997	0.024
876.6609	-0.497
876.8221	-0
876.9833	-0
877.1445	-0
877.3056	0.1891
877.4667	0.4331
877.6278	-0
877.7889	-0.0078
877.9499	-0
878.111	-0
878.272	-0
878.433	-0
878.5939	-0
878.7549	-0.1169
878.9158	-0.9799
879.0767	0.4078
879.2376	-0
879.3984	0.3114
879.5593	-0
879.7201	-0.1435
879.8809	-0.7945
880.0417	-0.3794
880.2024	0.0938
880.3632	-0
880.5239	0.2132
880.6846	0.732
880.8452	-2.6064
881.0059	-0
881.1665	-0.1147
881.3271	-0
881.4877	0.0864
881.6483	-0.4162
881.8088	-0.2906
881.9693	-0
882.1298	-0
882.2903	-0
