Data from MonoPyChalIsomerACN10uM420nmA_Absorbance_15-09-52-035.txt Node
Date: Fri Jul 05 15:09:52 BST 2024
User: LASERRRRR
Spectrometer: FLMT03099
Trigger mode: 0
Integration Time (sec): 1.000000E-1
Scans to average: 1
Electric dark correction enabled: true
Nonlinearity correction enabled: false
Boxcar width: 0
XAxis mode: Wavelengths
Number of Pixels in Spectrum: 3648
>>>>>Begin Spectral Data<<<<<
179.3399	-0.3087
179.5586	-0.3087
179.7771	-0.3087
179.9957	-0.1003
180.2143	-0
180.4329	-0.1359
180.6514	0.3387
180.8699	-0
181.0885	-0.1003
181.307	0.0741
181.5255	-0
181.744	-0
181.9625	-0
182.181	-0
182.3994	-0
182.6179	0.7874
182.8363	0.0439
183.0547	0.1341
183.2732	0.1026
183.4916	0.2329
183.71	0.1743
183.9284	0.185
184.1467	-0.1148
184.3651	-0.1315
184.5835	-0.1389
184.8018	-0.0933
185.0201	0.0558
185.2385	0.0645
185.4568	0.1169
185.6751	0.1021
185.8934	0.4413
186.1117	0.0143
186.3299	0.0532
186.5482	0.0218
186.7664	-0.1522
186.9847	0.2428
187.2029	0.0853
187.4211	0.1907
187.6393	-0.0066
187.8575	0.2578
188.0757	0.1748
188.2939	0.3046
188.512	-0.0685
188.7302	0.0891
188.9483	0.0179
189.1665	0.1467
189.3846	-0.0395
189.6027	0.2411
189.8208	0.1905
190.0389	0.2223
190.257	0.1898
190.475	0.1999
190.6931	0.532
190.9111	0.529
191.1292	0.1184
191.3472	0.4374
191.5652	0.2763
191.7832	0.2543
192.0012	0.3641
192.2192	0.4221
192.4371	0.5093
192.6551	0.3615
192.873	0.477
193.091	0.4008
193.3089	0.6907
193.5268	0.6233
193.7447	0.653
193.9626	0.4421
194.1805	0.823
194.3984	0.9257
194.6162	0.4809
194.8341	0.5895
195.0519	0.6255
195.2697	1.0209
195.4875	0.616
195.7054	0.6288
195.9231	0.6046
196.1409	0.6369
196.3587	0.6291
196.5765	0.5434
196.7942	0.5887
197.012	0.4556
197.2297	0.4559
197.4474	0.5985
197.6651	0.4396
197.8828	0.561
198.1005	0.6071
198.3182	0.5584
198.5358	0.9314
198.7535	0.5894
198.9711	0.5864
199.1888	0.6949
199.4064	0.8608
199.624	0.6442
199.8416	0.646
200.0592	0.6309
200.2767	0.6765
200.4943	0.6752
200.7119	0.8998
200.9294	0.7734
201.1469	0.592
201.3645	0.6921
201.582	0.5685
201.7995	0.6171
202.017	0.7171
202.2344	0.5966
202.4519	0.7591
202.6694	0.6204
202.8868	0.6459
203.1042	0.6559
203.3217	0.7193
203.5391	0.6876
203.7565	0.5717
203.9739	0.7
204.1913	0.7246
204.4086	0.6936
204.626	0.7254
204.8433	0.6731
205.0607	0.6715
205.278	0.7125
205.4953	0.6013
205.7126	0.7262
205.9299	0.756
206.1472	0.6616
206.3644	0.6458
206.5817	0.7643
206.7989	0.6888
207.0162	0.6543
207.2334	0.6249
207.4506	0.6237
207.6678	0.6646
207.885	0.6332
208.1022	0.6522
208.3194	0.6756
208.5365	0.6282
208.7537	0.6828
208.9708	0.593
209.1879	0.6478
209.405	0.7356
209.6222	0.7234
209.8392	0.7223
210.0563	0.6816
210.2734	0.7014
210.4905	0.5963
210.7075	0.6738
210.9245	0.604
211.1416	0.7257
211.3586	0.6746
211.5756	0.6412
211.7926	0.6342
212.0096	0.6323
212.2265	0.5554
212.4435	0.6049
212.6604	0.6152
212.8774	0.6277
213.0943	0.605
213.3112	0.5584
213.5281	0.5336
213.745	0.4766
213.9619	0.5416
214.1788	0.4934
214.3956	0.4733
214.6125	0.5089
214.8293	0.4411
215.0461	0.4834
215.2629	0.4727
215.4798	0.4661
215.6965	0.4241
215.9133	0.4412
216.1301	0.4245
216.3469	0.4576
216.5636	0.4093
216.7803	0.4176
216.9971	0.4336
217.2138	0.3786
217.4305	0.3934
217.6472	0.3814
217.8639	0.3882
218.0805	0.3622
218.2972	0.3492
218.5138	0.3013
218.7305	0.3214
218.9471	0.299
219.1637	0.2939
219.3803	0.2844
219.5969	0.2983
219.8135	0.2597
220.0301	0.2829
220.2466	0.2654
220.4632	0.26
220.6797	0.245
220.8962	0.255
221.1127	0.2669
221.3292	0.2466
221.5457	0.2502
221.7622	0.2398
221.9787	0.2664
222.1951	0.261
222.4116	0.2392
222.628	0.2345
222.8444	0.2396
223.0608	0.2807
223.2772	0.262
223.4936	0.2659
223.71	0.2646
223.9264	0.2879
224.1427	0.2439
224.3591	0.23
224.5754	0.2629
224.7917	0.2599
225.008	0.2519
225.2243	0.2907
225.4406	0.3028
225.6569	0.2451
225.8732	0.266
226.0894	0.2691
226.3057	0.2741
226.5219	0.2907
226.7381	0.2644
226.9543	0.2737
227.1705	0.2798
227.3867	0.2776
227.6029	0.3024
227.8191	0.3028
228.0352	0.2979
228.2513	0.3166
228.4675	0.3055
228.6836	0.3227
228.8997	0.2923
229.1158	0.2969
229.3319	0.3282
229.548	0.2907
229.764	0.3355
229.9801	0.337
230.1961	0.338
230.4121	0.334
230.6282	0.3217
230.8442	0.3259
231.0602	0.3562
231.2761	0.3522
231.4921	0.3499
231.7081	0.3635
231.924	0.3473
232.14	0.3676
232.3559	0.3417
232.5718	0.3721
232.7877	0.3549
233.0036	0.3316
233.2195	0.3504
233.4353	0.359
233.6512	0.3653
233.867	0.3707
234.0829	0.3489
234.2987	0.3654
234.5145	0.391
234.7303	0.3838
234.9461	0.4011
235.1619	0.385
235.3776	0.3855
235.5934	0.3807
235.8091	0.3705
236.0249	0.3738
236.2406	0.3865
236.4563	0.3797
236.672	0.3889
236.8877	0.4032
237.1034	0.3966
237.319	0.3975
237.5347	0.3976
237.7503	0.3967
237.966	0.4203
238.1816	0.4125
238.3972	0.4008
238.6128	0.4023
238.8284	0.4064
239.0439	0.4152
239.2595	0.4092
239.475	0.4189
239.6906	0.4065
239.9061	0.4121
240.1216	0.4209
240.3371	0.4177
240.5526	0.3865
240.7681	0.3999
240.9836	0.3912
241.199	0.4113
241.4145	0.3843
241.6299	0.3986
241.8453	0.3967
242.0607	0.3844
242.2761	0.3732
242.4915	0.3829
242.7069	0.3811
242.9223	0.386
243.1376	0.3771
243.353	0.3646
243.5683	0.348
243.7836	0.3344
243.9989	0.3404
244.2142	0.3142
244.4295	0.3171
244.6448	0.3278
244.86	0.3037
245.0753	0.3
245.2905	0.2932
245.5057	0.2809
245.721	0.2726
245.9362	0.2843
246.1514	0.2847
246.3665	0.2852
246.5817	0.261
246.7969	0.2754
247.012	0.2539
247.2271	0.2542
247.4423	0.2611
247.6574	0.2604
247.8725	0.2328
248.0876	0.2332
248.3026	0.2364
248.5177	0.2154
248.7328	0.2268
248.9478	0.2212
249.1628	0.2202
249.3779	0.2308
249.5929	0.2121
249.8079	0.2194
250.0228	0.2143
250.2378	0.2257
250.4528	0.2029
250.6677	0.1953
250.8827	0.2122
251.0976	0.1983
251.3125	0.1963
251.5274	0.1847
251.7423	0.2078
251.9572	0.1977
252.172	0.1978
252.3869	0.1892
252.6017	0.1771
252.8166	0.1753
253.0314	0.183
253.2462	0.1747
253.461	0.1952
253.6758	0.178
253.8906	0.1873
254.1053	0.1766
254.3201	0.1882
254.5348	0.1849
254.7496	0.1955
254.9643	0.1751
255.179	0.1805
255.3937	0.1677
255.6083	0.1866
255.823	0.1791
256.0377	0.1669
256.2523	0.1714
256.467	0.1538
256.6816	0.1788
256.8962	0.1809
257.1108	0.1758
257.3254	0.1876
257.54	0.1716
257.7545	0.1829
257.9691	0.1707
258.1836	0.1697
258.3981	0.1713
258.6127	0.1825
258.8272	0.1704
259.0417	0.1629
259.2561	0.1687
259.4706	0.1648
259.6851	0.1816
259.8995	0.1736
260.114	0.1725
260.3284	0.1597
260.5428	0.1609
260.7572	0.1692
260.9716	0.1808
261.186	0.1717
261.4003	0.1677
261.6147	0.1646
261.829	0.1605
262.0433	0.177
262.2577	0.1579
262.472	0.1824
262.6863	0.1645
262.9005	0.1746
263.1148	0.1676
263.3291	0.1649
263.5433	0.1688
263.7576	0.1803
263.9718	0.1739
264.186	0.1673
264.4002	0.1649
264.6144	0.1671
264.8286	0.1806
265.0427	0.1805
265.2569	0.166
265.471	0.1669
265.6851	0.1558
265.8993	0.1652
266.1134	0.1631
266.3275	0.1671
266.5415	0.1724
266.7556	0.1742
266.9697	0.1713
267.1837	0.1729
267.3978	0.1663
267.6118	0.1671
267.8258	0.1721
268.0398	0.163
268.2538	0.1751
268.4677	0.1609
268.6817	0.1567
268.8957	0.1714
269.1096	0.1653
269.3235	0.1737
269.5374	0.1728
269.7514	0.1669
269.9652	0.1641
270.1791	0.1572
270.393	0.1608
270.6068	0.1674
270.8207	0.1544
271.0345	0.1608
271.2483	0.1712
271.4622	0.1575
271.676	0.1557
271.8897	0.157
272.1035	0.1493
272.3173	0.1574
272.531	0.1491
272.7448	0.1572
272.9585	0.1551
273.1722	0.1532
273.3859	0.155
273.5996	0.1509
273.8133	0.1522
274.0269	0.1615
274.2406	0.1506
274.4542	0.1562
274.6679	0.1484
274.8815	0.1508
275.0951	0.1621
275.3087	0.1666
275.5223	0.1537
275.7358	0.1534
275.9494	0.1577
276.1629	0.1487
276.3765	0.1519
276.59	0.1555
276.8035	0.166
277.017	0.1638
277.2305	0.1508
277.444	0.1637
277.6574	0.1449
277.8709	0.16
278.0843	0.154
278.2978	0.1605
278.5112	0.153
278.7246	0.1485
278.938	0.1636
279.1513	0.1549
279.3647	0.1574
279.5781	0.15
279.7914	0.1555
280.0047	0.1721
280.2181	0.16
280.4314	0.1623
280.6447	0.1695
280.8579	0.1623
281.0712	0.1531
281.2845	0.1693
281.4977	0.1721
281.711	0.1487
281.9242	0.1642
282.1374	0.1671
282.3506	0.1606
282.5638	0.1521
282.7769	0.1556
282.9901	0.1565
283.2033	0.1755
283.4164	0.1679
283.6295	0.1571
283.8426	0.1615
284.0557	0.1585
284.2688	0.1757
284.4819	0.165
284.695	0.1758
284.908	0.1729
285.1211	0.1613
285.3341	0.1636
285.5471	0.1613
285.7601	0.1667
285.9731	0.162
286.1861	0.1524
286.3991	0.1736
286.612	0.1826
286.825	0.1591
287.0379	0.158
287.2508	0.1622
287.4637	0.1665
287.6766	0.1517
287.8895	0.1674
288.1024	0.1791
288.3152	0.1728
288.5281	0.1664
288.7409	0.1624
288.9538	0.1754
289.1666	0.1612
289.3794	0.1616
289.5922	0.1657
289.8049	0.1625
290.0177	0.1651
290.2304	0.1676
290.4432	0.1644
290.6559	0.1671
290.8686	0.1618
291.0813	0.1692
291.294	0.1816
291.5067	0.1678
291.7194	0.1653
291.932	0.1657
292.1447	0.1597
292.3573	0.159
292.5699	0.1581
292.7825	0.1693
292.9951	0.1604
293.2077	0.1622
293.4203	0.1577
293.6328	0.1524
293.8454	0.1622
294.0579	0.1588
294.2704	0.1571
294.4829	0.1601
294.6954	0.166
294.9079	0.1653
295.1204	0.1552
295.3328	0.1524
295.5453	0.1634
295.7577	0.1546
295.9701	0.1562
296.1825	0.1608
296.3949	0.1648
296.6073	0.1525
296.8197	0.1504
297.0321	0.1651
297.2444	0.1461
297.4567	0.1551
297.6691	0.161
297.8814	0.1632
298.0937	0.1574
298.306	0.1686
298.5182	0.1621
298.7305	0.1669
298.9428	0.15
299.155	0.1647
299.3672	0.1543
299.5794	0.1502
299.7916	0.1516
300.0038	0.1663
300.216	0.1622
300.4282	0.1712
300.6403	0.1556
300.8525	0.1738
301.0646	0.1504
301.2767	0.166
301.4888	0.1717
301.7009	0.1527
301.913	0.1486
302.125	0.1702
302.3371	0.1559
302.5491	0.1599
302.7612	0.1634
302.9732	0.1618
303.1852	0.1579
303.3972	0.1589
303.6092	0.1533
303.8211	0.1501
304.0331	0.1436
304.245	0.1449
304.457	0.1399
304.6689	0.1548
304.8808	0.1584
305.0927	0.1474
305.3046	0.1468
305.5164	0.1565
305.7283	0.1444
305.9401	0.1541
306.152	0.1461
306.3638	0.1471
306.5756	0.1411
306.7874	0.1503
306.9992	0.1464
307.2109	0.1473
307.4227	0.1245
307.6344	0.1397
307.8462	0.137
308.0579	0.1311
308.2696	0.1454
308.4813	0.1276
308.693	0.1471
308.9046	0.1418
309.1163	0.1294
309.328	0.1351
309.5396	0.1248
309.7512	0.1315
309.9628	0.1204
310.1744	0.1335
310.386	0.1258
310.5976	0.1213
310.8091	0.13
311.0207	0.1161
311.2322	0.1238
311.4437	0.1125
311.6552	0.1081
311.8667	0.1218
312.0782	0.1101
312.2897	0.1212
312.5012	0.1159
312.7126	0.1103
312.924	0.1089
313.1355	0.1187
313.3469	0.1115
313.5583	0.1184
313.7696	0.1156
313.981	0.1105
314.1924	0.1168
314.4037	0.0991
314.6151	0.1139
314.8264	0.104
315.0377	0.1101
315.249	0.1131
315.4603	0.1092
315.6716	0.1193
315.8828	0.104
316.0941	0.102
316.3053	0.1099
316.5165	0.0917
316.7277	0.1006
316.9389	0.1043
317.1501	0.1087
317.3613	0.1145
317.5724	0.0896
317.7836	0.1021
317.9947	0.1025
318.2058	0.1075
318.417	0.0901
318.6281	0.1012
318.8391	0.0995
319.0502	0.1013
319.2613	0.1051
319.4723	0.1118
319.6834	0.1108
319.8944	0.0959
320.1054	0.1011
320.3164	0.1161
320.5274	0.1042
320.7383	0.1024
320.9493	0.1036
321.1602	0.1117
321.3712	0.0978
321.5821	0.104
321.793	0.1085
322.0039	0.1012
322.2148	0.1026
322.4257	0.1017
322.6365	0.1119
322.8474	0.1125
323.0582	0.1093
323.269	0.1169
323.4798	0.1108
323.6906	0.1067
323.9014	0.1082
324.1122	0.1159
324.3229	0.1082
324.5337	0.1121
324.7444	0.0991
324.9551	0.1094
325.1658	0.1162
325.3765	0.1195
325.5872	0.1155
325.7979	0.1154
326.0085	0.1031
326.2192	0.1192
326.4298	0.118
326.6404	0.1042
326.851	0.1078
327.0616	0.1044
327.2722	0.1192
327.4828	0.1148
327.6933	0.1097
327.9039	0.1103
328.1144	0.1203
328.3249	0.1192
328.5354	0.1083
328.7459	0.1127
328.9564	0.1096
329.1669	0.1139
329.3773	0.1136
329.5878	0.103
329.7982	0.1109
330.0086	0.0993
330.219	0.1097
330.4294	0.1074
330.6398	0.107
330.8502	0.1084
331.0605	0.1163
331.2708	0.106
331.4812	0.1138
331.6915	0.1112
331.9018	0.1151
332.1121	0.1032
332.3224	0.1107
332.5326	0.1209
332.7429	0.1114
332.9531	0.1191
333.1633	0.121
333.3735	0.1059
333.5837	0.1169
333.7939	0.1003
334.0041	0.1166
334.2143	0.1129
334.4244	0.1115
334.6346	0.107
334.8447	0.1224
335.0548	0.124
335.2649	0.1081
335.475	0.1253
335.685	0.1044
335.8951	0.1173
336.1051	0.1158
336.3152	0.117
336.5252	0.1069
336.7352	0.1224
336.9452	0.1203
337.1552	0.1149
337.3652	0.1138
337.5751	0.1143
337.7851	0.1067
337.995	0.1058
338.2049	0.1261
338.4148	0.1213
338.6247	0.1285
338.8346	0.104
339.0445	0.1022
339.2543	0.1133
339.4642	0.1186
339.674	0.1083
339.8838	0.1179
340.0936	0.1215
340.3034	0.1228
340.5132	0.1311
340.7229	0.1274
340.9327	0.112
341.1424	0.1214
341.3522	0.1189
341.5619	0.131
341.7716	0.1243
341.9813	0.1273
342.1909	0.1234
342.4006	0.1377
342.6102	0.1371
342.8199	0.13
343.0295	0.1271
343.2391	0.1356
343.4487	0.1424
343.6583	0.1237
343.8679	0.1393
344.0774	0.1254
344.287	0.1453
344.4965	0.1288
344.706	0.1377
344.9155	0.1216
345.125	0.1342
345.3345	0.1326
345.544	0.1261
345.7534	0.1343
345.9629	0.1258
346.1723	0.1419
346.3817	0.1329
346.5911	0.1318
346.8005	0.1436
347.0099	0.1358
347.2193	0.1431
347.4286	0.1362
347.638	0.1412
347.8473	0.1343
348.0566	0.1349
348.2659	0.1407
348.4752	0.1349
348.6845	0.1408
348.8937	0.1342
349.103	0.1396
349.3122	0.1344
349.5214	0.1387
349.7306	0.1359
349.9398	0.1535
350.149	0.145
350.3582	0.1329
350.5674	0.1594
350.7765	0.1336
350.9856	0.1395
351.1948	0.1494
351.4039	0.1445
351.613	0.1373
351.822	0.1436
352.0311	0.1548
352.2402	0.1427
352.4492	0.1504
352.6582	0.1427
352.8672	0.1546
353.0762	0.1452
353.2852	0.1477
353.4942	0.147
353.7032	0.1569
353.9121	0.1526
354.1211	0.1609
354.33	0.1543
354.5389	0.1618
354.7478	0.1488
354.9567	0.1495
355.1655	0.1555
355.3744	0.1634
355.5833	0.1629
355.7921	0.1718
356.0009	0.1561
356.2097	0.1705
356.4185	0.1643
356.6273	0.1719
356.8361	0.161
357.0448	0.1592
357.2536	0.1556
357.4623	0.1538
357.671	0.1806
357.8797	0.1598
358.0884	0.1714
358.2971	0.1592
358.5057	0.1671
358.7144	0.1764
358.923	0.1616
359.1316	0.1662
359.3402	0.161
359.5488	0.1678
359.7574	0.1574
359.966	0.1743
360.1746	0.1973
360.3831	0.1706
360.5916	0.1746
360.8002	0.1648
361.0087	0.1807
361.2172	0.1819
361.4256	0.1774
361.6341	0.1948
361.8426	0.1646
362.051	0.1767
362.2594	0.1728
362.4678	0.1714
362.6762	0.2063
362.8846	0.1913
363.093	0.1862
363.3014	0.1868
363.5097	0.162
363.718	0.1991
363.9264	0.192
364.1347	0.1831
364.343	0.1997
364.5513	0.1958
364.7595	0.1967
364.9678	0.1889
365.176	0.1932
365.3842	0.196
365.5925	0.1954
365.8007	0.194
366.0089	0.1962
366.217	0.1906
366.4252	0.2098
366.6333	0.2031
366.8415	0.1941
367.0496	0.187
367.2577	0.197
367.4658	0.2096
367.6739	0.2084
367.882	0.2071
368.09	0.2088
368.2981	0.2125
368.5061	0.1915
368.7141	0.2205
368.9221	0.1974
369.1301	0.1965
369.3381	0.2002
369.5461	0.2046
369.754	0.2123
369.962	0.2127
370.1699	0.1927
370.3778	0.1948
370.5857	0.1963
370.7936	0.2289
371.0015	0.2079
371.2093	0.2104
371.4172	0.2313
371.625	0.2028
371.8328	0.1973
372.0406	0.2069
372.2484	0.2102
372.4562	0.2359
372.664	0.2095
372.8717	0.2219
373.0795	0.1948
373.2872	0.2096
373.4949	0.1969
373.7026	0.2232
373.9103	0.2289
374.118	0.2173
374.3256	0.214
374.5333	0.2125
374.7409	0.2057
374.9485	0.2316
375.1561	0.2183
375.3637	0.2235
375.5713	0.2292
375.7789	0.2225
375.9864	0.2372
376.194	0.2249
376.4015	0.2263
376.609	0.2353
376.8165	0.2258
377.024	0.2357
377.2315	0.2205
377.4389	0.2238
377.6464	0.2406
377.8538	0.2428
378.0612	0.2328
378.2686	0.2353
378.476	0.2287
378.6834	0.2329
378.8908	0.2342
379.0981	0.2346
379.3055	0.227
379.5128	0.2449
379.7201	0.2456
379.9274	0.2258
380.1347	0.2443
380.342	0.2361
380.5492	0.2272
380.7565	0.2335
380.9637	0.2434
381.1709	0.2285
381.3781	0.2303
381.5853	0.2465
381.7925	0.2278
381.9997	0.2544
382.2068	0.2558
382.4139	0.2352
382.6211	0.2254
382.8282	0.2286
383.0353	0.2469
383.2424	0.233
383.4494	0.2453
383.6565	0.2239
383.8635	0.2224
384.0706	0.2378
384.2776	0.2393
384.4846	0.2409
384.6916	0.2272
384.8986	0.2348
385.1055	0.2392
385.3125	0.2517
385.5194	0.2195
385.7263	0.237
385.9333	0.2407
386.1402	0.2312
386.347	0.2365
386.5539	0.2242
386.7608	0.2579
386.9676	0.2328
387.1744	0.2361
387.3813	0.2274
387.5881	0.2445
387.7948	0.2298
388.0016	0.2279
388.2084	0.2526
388.4151	0.2259
388.6219	0.2423
388.8286	0.2428
389.0353	0.2545
389.242	0.2314
389.4487	0.2194
389.6553	0.2223
389.862	0.2068
390.0686	0.2256
390.2753	0.2273
390.4819	0.2349
390.6885	0.2178
390.8951	0.2351
391.1016	0.2256
391.3082	0.2061
391.5147	0.2203
391.7213	0.2177
391.9278	0.2148
392.1343	0.2096
392.3408	0.2128
392.5473	0.2107
392.7537	0.2101
392.9602	0.2147
393.1666	0.2215
393.373	0.227
393.5794	0.2281
393.7858	0.2093
393.9922	0.2094
394.1986	0.2109
394.4049	0.2211
394.6113	0.1997
394.8176	0.2017
395.0239	0.2128
395.2302	0.1927
395.4365	0.2096
395.6428	0.192
395.8491	0.2094
396.0553	0.1901
396.2615	0.2023
396.4678	0.2206
396.674	0.1962
396.8802	0.207
397.0863	0.2166
397.2925	0.1832
397.4987	0.1883
397.7048	0.2098
397.9109	0.2081
398.117	0.1805
398.3231	0.1623
398.5292	0.2036
398.7353	0.2044
398.9413	0.1917
399.1474	0.2061
399.3534	0.1957
399.5594	0.1843
399.7654	0.2004
399.9714	0.2138
400.1774	0.2117
400.3833	0.1829
400.5893	0.2025
400.7952	0.1981
401.0011	0.1944
401.207	0.1958
401.4129	0.2046
401.6188	0.2073
401.8247	0.1994
402.0305	0.2
402.2364	0.1851
402.4422	0.1972
402.648	0.201
402.8538	0.2015
403.0596	0.1986
403.2654	0.2061
403.4711	0.1891
403.6768	0.1914
403.8826	0.2149
404.0883	0.1962
404.294	0.1924
404.4997	0.1915
404.7054	0.2032
404.911	0.1816
405.1167	0.1997
405.3223	0.2091
405.5279	0.1953
405.7335	0.1947
405.9391	0.1961
406.1447	0.1976
406.3502	0.229
406.5558	0.1932
406.7613	0.2184
406.9668	0.2024
407.1724	0.2058
407.3778	0.1962
407.5833	0.1855
407.7888	0.1834
407.9942	0.2223
408.1997	0.1902
408.4051	0.202
408.6105	0.2008
408.8159	0.1806
409.0213	0.1879
409.2267	0.1955
409.432	0.191
409.6374	0.2135
409.8427	0.1873
410.048	0.1883
410.2533	0.205
410.4586	0.1929
410.6639	0.186
410.8691	0.1984
411.0744	0.1986
411.2796	0.203
411.4848	0.1858
411.69	0.1865
411.8952	0.2021
412.1004	0.1868
412.3056	0.2165
412.5107	0.1936
412.7158	0.1953
412.921	0.1713
413.1261	0.1858
413.3312	0.1797
413.5362	0.1935
413.7413	0.1995
413.9464	0.1888
414.1514	0.1893
414.3564	0.1694
414.5614	0.1703
414.7664	0.1799
414.9714	0.1927
415.1764	0.1935
415.3813	0.1918
415.5863	0.19
415.7912	0.1828
415.9961	0.2033
416.201	0.1805
416.4059	0.1747
416.6108	0.1569
416.8156	0.1957
417.0205	0.1664
417.2253	0.188
417.4301	0.1954
417.6349	0.1755
417.8397	0.181
418.0445	0.1915
418.2492	0.2051
418.454	0.1723
418.6587	0.1852
418.8634	0.1773
419.0681	0.174
419.2728	0.1824
419.4775	0.1598
419.6822	0.1757
419.8868	0.1601
420.0915	0.1617
420.2961	0.1728
420.5007	0.1819
420.7053	0.1747
420.9099	0.1712
421.1144	0.1786
421.319	0.161
421.5235	0.1714
421.728	0.1853
421.9325	0.1767
422.137	0.1949
422.3415	0.1582
422.546	0.1774
422.7504	0.158
422.9549	0.1745
423.1593	0.1882
423.3637	0.183
423.5681	0.1709
423.7725	0.1743
423.9769	0.1685
424.1812	0.1672
424.3856	0.1574
424.5899	0.1646
424.7942	0.1589
424.9985	0.1678
425.2028	0.1622
425.4071	0.1813
425.6113	0.1587
425.8156	0.1593
426.0198	0.1757
426.224	0.1414
426.4282	0.155
426.6324	0.1469
426.8366	0.1432
427.0407	0.1573
427.2449	0.1462
427.449	0.1642
427.6531	0.1543
427.8572	0.1508
428.0613	0.1417
428.2654	0.1478
428.4694	0.1372
428.6735	0.148
428.8775	0.1731
429.0815	0.1517
429.2855	0.1409
429.4895	0.1541
429.6935	0.1376
429.8975	0.1377
430.1014	0.125
430.3053	0.126
430.5093	0.1343
430.7132	0.1244
430.9171	0.1253
431.1209	0.1359
431.3248	0.1308
431.5286	0.1245
431.7325	0.1228
431.9363	0.1174
432.1401	0.1314
432.3439	0.1195
432.5477	0.1004
432.7514	0.1043
432.9552	0.1193
433.1589	0.0904
433.3627	0.1043
433.5664	0.109
433.7701	0.1144
433.9737	0.0993
434.1774	0.0917
434.3811	0.0929
434.5847	0.1122
434.7883	0.1041
434.9919	0.1028
435.1955	0.0936
435.3991	0.0991
435.6027	0.0978
435.8062	0.0958
436.0098	0.0875
436.2133	0.093
436.4168	0.0822
436.6203	0.0863
436.8238	0.0872
437.0272	0.0823
437.2307	0.0819
437.4341	0.1021
437.6375	0.0757
437.841	0.0727
438.0443	0.0814
438.2477	0.0691
438.4511	0.0759
438.6545	0.0742
438.8578	0.0941
439.0611	0.0923
439.2644	0.0742
439.4677	0.0848
439.671	0.0786
439.8743	0.0842
440.0775	0.0739
440.2808	0.0686
440.484	0.0599
440.6872	0.0374
440.8904	0.0635
441.0936	0.0755
441.2967	0.0669
441.4999	0.0627
441.703	0.0526
441.9062	0.0571
442.1093	0.0694
442.3124	0.0665
442.5155	0.0399
442.7185	0.0645
442.9216	0.0402
443.1246	0.0534
443.3276	0.0495
443.5307	0.0509
443.7337	0.055
443.9366	0.0467
444.1396	0.0494
444.3426	0.0459
444.5455	0.048
444.7484	0.0477
444.9513	0.0456
445.1542	0.066
445.3571	0.0478
445.56	0.0536
445.7628	0.0478
445.9657	0.0448
446.1685	0.043
446.3713	0.0364
446.5741	0.0317
446.7769	0.0275
446.9797	0.0469
447.1824	0.0482
447.3852	0.0261
447.5879	0.0403
447.7906	0.041
447.9933	0.0485
448.196	0.0171
448.3986	0.0307
448.6013	0.0237
448.8039	0.0111
449.0066	0.0239
449.2092	0.0334
449.4118	0.0341
449.6143	0.0311
449.8169	0.0318
450.0195	0.015
450.222	-0.0024
450.4245	0.0228
450.627	0.0545
450.8295	0.0247
451.032	0.0325
451.2345	0.0187
451.4369	0.0184
451.6394	0.0183
451.8418	-0.0028
452.0442	0.0077
452.2466	0.0347
452.449	0.0127
452.6513	0.023
452.8537	0.0193
453.056	0.0056
453.2583	0.0155
453.4607	0.0084
453.663	0.0255
453.8652	0.0284
454.0675	0.0131
454.2697	0.0306
454.472	0.0159
454.6742	0.0169
454.8764	0.012
455.0786	0.013
455.2808	0.0156
455.4829	0.0112
455.6851	0.0115
455.8872	0.0165
456.0893	0.0159
456.2915	-0.0035
456.4935	0.0074
456.6956	0.0033
456.8977	0.0029
457.0997	0.0046
457.3018	-0.0071
457.5038	0.0184
457.7058	0.0116
457.9078	0.0035
458.1098	0.0185
458.3117	-0.0018
458.5137	0.013
458.7156	0.0159
458.9175	-0.0051
459.1194	0.0124
459.3213	0.0109
459.5232	0.0109
459.725	-0.0014
459.9269	-0.0014
460.1287	0.0076
460.3305	0.0003
460.5323	0.0052
460.7341	0.0006
460.9359	0.016
461.1376	0.0164
461.3394	-0.0054
461.5411	0.005
461.7428	0.0052
461.9445	0.0164
462.1462	0.0334
462.3479	0.0037
462.5495	0.0093
462.7512	0.005
462.9528	-0.0066
463.1544	-0.0094
463.356	0.0003
463.5576	0.0082
463.7592	-0.0009
463.9607	-0.0052
464.1623	0.0176
464.3638	0.0165
464.5653	-0.0116
464.7668	-0.0027
464.9683	0.0141
465.1697	0.0214
465.3712	-0.0037
465.5726	-0.0108
465.7741	-0.0005
465.9755	-0.0083
466.1769	-0.0154
466.3782	0.0001
466.5796	-0.0031
466.7809	0.001
466.9823	-0.0072
467.1836	0.0103
467.3849	-0.0138
467.5862	0.0022
467.7875	-0.0095
467.9887	0.0107
468.19	-0.0164
468.3912	-0.0148
468.5924	-0.0191
468.7936	-0.0136
468.9948	-0.0031
469.196	0.0035
469.3972	-0.0199
469.5983	0.0046
469.7994	-0.0113
470.0006	-0.0135
470.2017	-0.0194
470.4027	-0.0119
470.6038	0.0028
470.8049	-0.0289
471.0059	-0.0127
471.2069	-0.0231
471.408	0.0045
471.6089	0.0077
471.8099	0.0039
472.0109	0.0005
472.2119	-0.0178
472.4128	-0.0197
472.6137	0.0095
472.8146	-0.0202
473.0155	-0.0106
473.2164	-0.0048
473.4173	0.0024
473.6181	0.0001
473.819	0.0148
474.0198	-0.0106
474.2206	-0.0105
474.4214	-0.0031
474.6222	0.0004
474.8229	-0.0128
475.0237	-0.0263
475.2244	-0.0116
475.4251	-0.012
475.6258	-0.0097
475.8265	-0.0107
476.0272	0.0079
476.2278	0.0077
476.4285	-0.0198
476.6291	-0.0039
476.8297	-0.0011
477.0303	-0.0063
477.2309	-0.0046
477.4315	-0.0087
477.632	-0.0073
477.8326	-0.0084
478.0331	0.0039
478.2336	0.0063
478.4341	-0.0065
478.6346	-0.0216
478.8351	-0.0045
479.0355	0.0044
479.236	-0.0045
479.4364	-0.0022
479.6368	-0.01
479.8372	-0.0215
480.0376	-0.0046
480.2379	-0.0232
480.4383	-0.0281
480.6386	0.0039
480.8389	-0.0035
481.0392	-0.0233
481.2395	-0.0149
481.4398	-0.0025
481.6401	0.0001
481.8403	-0.0076
482.0405	-0.0084
482.2408	0.0062
482.441	-0.0022
482.6411	-0.0035
482.8413	-0.0096
483.0415	-0.0037
483.2416	-0.0208
483.4417	-0.0107
483.6419	-0.0024
483.8419	-0.0148
484.042	0.005
484.2421	-0.0095
484.4422	-0.0085
484.6422	-0.0057
484.8422	0.0054
485.0422	-0.0159
485.2422	-0.0043
485.4422	-0.0064
485.6422	-0.0055
485.8421	-0.0149
486.042	0.0018
486.242	-0.0091
486.4419	-0.0105
486.6417	-0.0138
486.8416	-0.0127
487.0415	-0.0183
487.2413	-0.0111
487.4411	-0.006
487.641	-0.0117
487.8408	-0.0002
488.0405	-0.0101
488.2403	-0.0058
488.4401	0.0019
488.6398	0.0022
488.8395	-0.0079
489.0392	-0.0086
489.2389	-0.014
489.4386	-0.007
489.6383	-0.0083
489.8379	-0.0091
490.0376	-0.0126
490.2372	-0.0172
490.4368	-0.0181
490.6364	-0.0041
490.836	-0.0123
491.0355	-0.0159
491.2351	-0.0136
491.4346	-0.0113
491.6341	-0.0045
491.8336	0.0031
492.0331	-0.0135
492.2326	-0.0129
492.432	-0.0058
492.6315	-0.0124
492.8309	-0.0119
493.0303	-0.0107
493.2297	-0.0145
493.4291	-0.0109
493.6284	-0.0063
493.8278	-0.0079
494.0271	-0.0061
494.2264	0.0066
494.4257	-0.0136
494.625	-0.0094
494.8243	-0.0126
495.0236	-0.0159
495.2228	-0.0175
495.422	-0.0082
495.6213	-0.0094
495.8205	-0.0047
496.0196	-0.0055
496.2188	-0.008
496.418	-0.0205
496.6171	-0.0076
496.8162	-0.019
497.0153	-0.0008
497.2144	-0.0178
497.4135	-0.0066
497.6126	-0.0149
497.8116	-0.0185
498.0107	-0.0012
498.2097	-0.0179
498.4087	-0.0172
498.6077	-0.0182
498.8067	-0.0091
499.0056	-0.0019
499.2046	-0.0103
499.4035	-0.0271
499.6024	-0.0108
499.8013	-0.0181
500.0002	-0.0138
500.199	-0.0078
500.3979	-0.0045
500.5967	-0.0146
500.7956	-0.0035
500.9944	-0.0107
501.1932	-0.0172
501.3919	-0.0279
501.5907	-0.019
501.7895	-0.0131
501.9882	-0.0132
502.1869	-0.0093
502.3856	-0.0135
502.5843	-0.0113
502.783	-0.0131
502.9816	-0.009
503.1803	-0.0204
503.3789	-0.0147
503.5775	-0.0028
503.7761	-0.0182
503.9747	-0.0114
504.1732	-0.0086
504.3718	0.0044
504.5703	-0.0041
504.7689	-0.0173
504.9674	-0.0093
505.1658	-0.0187
505.3643	-0.0126
505.5628	-0.0173
505.7612	-0.0208
505.9597	0.0082
506.1581	-0.0089
506.3565	-0.0057
506.5549	-0.0145
506.7532	-0.0264
506.9516	-0.0189
507.1499	-0.011
507.3482	-0.023
507.5465	-0.012
507.7448	-0.0103
507.9431	-0.0022
508.1414	0.0005
508.3396	-0.0136
508.5379	-0.0093
508.7361	-0.0213
508.9343	-0.0057
509.1325	0.0003
509.3306	-0.0114
509.5288	-0.0037
509.7269	-0.0152
509.9251	0.0005
510.1232	-0.0158
510.3213	-0.0138
510.5193	-0.0115
510.7174	-0.0144
510.9154	-0.015
511.1135	-0.0114
511.3115	-0.0076
511.5095	-0.0045
511.7075	-0.0122
511.9055	-0.0116
512.1034	-0.0102
512.3014	-0.0093
512.4993	-0.0011
512.6972	-0.0057
512.8951	-0.0245
513.093	-0.0034
513.2908	-0.0044
513.4887	-0.0074
513.6865	-0.0173
513.8844	-0.0134
514.0822	-0.0156
514.2799	-0.0161
514.4777	-0.011
514.6755	-0.0083
514.8732	-0.0129
515.0709	-0.0136
515.2687	0.0004
515.4664	-0.0143
515.664	-0.0199
515.8617	-0.0107
516.0594	-0.0193
516.257	-0.0118
516.4546	-0.0253
516.6522	0.008
516.8498	-0.0036
517.0474	-0.0019
517.2449	0.0058
517.4425	-0.022
517.64	-0.0107
517.8375	-0.0017
518.035	-0.0142
518.2325	-0.0156
518.43	-0.0128
518.6274	-0.014
518.8249	-0.0185
519.0223	-0.006
519.2197	-0.0042
519.4171	-0.0064
519.6145	-0.0168
519.8118	0.0023
520.0092	-0.0024
520.2065	-0.0138
520.4038	-0.0092
520.6011	-0.0058
520.7984	-0.0115
520.9956	-0.0114
521.1929	-0.0239
521.3901	-0.0024
521.5874	-0.0036
521.7846	-0.0097
521.9818	-0.0067
522.1789	-0.0116
522.3761	-0.0001
522.5732	-0.0129
522.7704	-0.0076
522.9675	-0.001
523.1646	-0.013
523.3617	0.0002
523.5587	-0.0027
523.7558	0.0012
523.9528	-0.0085
524.1498	-0.0095
524.3468	-0.0083
524.5438	-0.0157
524.7408	-0.0033
524.9378	0.0018
525.1347	-0.0035
525.3316	0.0011
525.5285	-0.0139
525.7254	-0.0096
525.9223	-0.0175
526.1192	-0.0067
526.316	-0.0135
526.5129	-0.0059
526.7097	-0.0034
526.9065	-0.0082
527.1033	-0.0009
527.3	-0.0087
527.4968	-0.0141
527.6935	-0
527.8903	-0.0113
528.087	-0.003
528.2837	-0.0027
528.4804	0.0051
528.677	-0.0114
528.8737	-0.0034
529.0703	-0.0006
529.2669	0.0004
529.4635	-0.006
529.6601	-0.0008
529.8567	-0.0097
530.0532	-0.0131
530.2498	-0.0027
530.4463	0.0022
530.6428	-0.0132
530.8393	0.006
531.0358	-0.0066
531.2322	-0.0085
531.4287	-0.0057
531.6251	-0.0128
531.8215	0.0046
532.0179	-0.0015
532.2143	0.0005
532.4107	-0.0146
532.607	-0.0057
532.8034	-0.0017
532.9997	-0.0033
533.196	-0.006
533.3923	-0.0131
533.5886	0.0013
533.7848	-0.0088
533.9811	-0.0122
534.1773	0.0014
534.3735	0.0037
534.5697	-0.0125
534.7659	-0.0088
534.9621	0.0041
535.1582	-0.0085
535.3544	-0.0121
535.5505	-0.0078
535.7466	-0.003
535.9427	-0.0103
536.1387	-0.0006
536.3348	-0.0073
536.5308	-0.0039
536.7269	-0.0193
536.9229	-0.0034
537.1189	-0.0032
537.3148	-0.0073
537.5108	-0.0106
537.7068	-0.0095
537.9027	-0.0065
538.0986	0.0013
538.2945	-0.0161
538.4904	-0.0016
538.6863	-0.0123
538.8821	-0.0067
539.078	-0.0051
539.2738	-0.0081
539.4696	-0.01
539.6654	0.0044
539.8611	0.0054
540.0569	-0.0027
540.2526	-0.0106
540.4484	-0.0015
540.6441	0.0008
540.8398	-0.0063
541.0355	0.008
541.2311	-0.0059
541.4268	-0.0031
541.6224	0.003
541.818	-0.0082
542.0136	-0.0129
542.2092	-0.0025
542.4048	-0.0016
542.6003	0.0031
542.7959	-0.0042
542.9914	-0.0001
543.1869	-0.0006
543.3824	-0.0034
543.5779	-0.0091
543.7734	-0.0057
543.9688	-0.0128
544.1642	-0.0009
544.3596	-0.0031
544.555	-0.0043
544.7504	0.006
544.9458	-0.0016
545.1411	-0.0038
545.3365	-0.0075
545.5318	-0.006
545.7271	-0.004
545.9224	-0.0055
546.1177	-0.0005
546.3129	-0.0001
546.5081	-0.0088
546.7034	-0.0131
546.8986	-0.0093
547.0938	-0.0085
547.289	-0.0021
547.4841	-0.015
547.6793	0.0069
547.8744	-0.0134
548.0695	-0.0035
548.2646	-0.009
548.4597	0.0065
548.6548	0.0013
548.8498	0.0012
549.0448	-0.0058
549.2399	-0.0022
549.4349	0.0042
549.6298	0.001
549.8248	0.0031
550.0198	-0.0087
550.2147	-0.0065
550.4096	-0.0082
550.6045	-0.0002
550.7994	-0.0036
550.9943	-0.0014
551.1892	0.0015
551.384	0.0026
551.5788	-0.0094
551.7737	-0.0105
551.9685	-0.0024
552.1632	-0.0003
552.358	-0.0023
552.5528	0.0003
552.7475	0.0015
552.9422	-0.0004
553.1369	-0.0043
553.3316	0.0029
553.5263	-0.014
553.7209	0.0011
553.9156	-0.0049
554.1102	-0.0003
554.3048	-0.0052
554.4994	0.0073
554.694	-0.0007
554.8885	-0.0023
555.0831	-0.0099
555.2776	-0.0109
555.4721	-0.0038
555.6666	-0.0091
555.8611	0.0066
556.0555	-0.0017
556.25	-0.0012
556.4444	0.0042
556.6388	0.0032
556.8332	-0.0007
557.0276	0.0074
557.222	-0.0075
557.4163	-0.0047
557.6107	-0.0062
557.805	0.0087
557.9993	-0.0057
558.1936	-0.0027
558.3879	0.0001
558.5821	0.0019
558.7764	0.0007
558.9706	0.0063
559.1648	-0.0013
559.359	0.0006
559.5532	-0.0016
559.7473	0.0016
559.9415	0.0001
560.1356	0.0095
560.3297	-0.0102
560.5238	-0.0044
560.7179	-0.0074
560.9119	-0.0104
561.106	-0.0052
561.3	-0.0056
561.494	-0.0066
561.688	-0.0059
561.882	-0.0071
562.076	-0.0101
562.2699	0.006
562.4639	-0.0101
562.6578	-0.0049
562.8517	-0.0019
563.0456	0.0028
563.2395	-0.0082
563.4333	0.0039
563.6272	0.0019
563.821	-0.0025
564.0148	0.0001
564.2086	-0.0011
564.4024	-0.0073
564.5961	-0.0069
564.7899	0.0055
564.9836	0.0076
565.1773	0.0018
565.371	0.0098
565.5647	-0.0012
565.7584	-0.0051
565.952	-0.0052
566.1456	0.0023
566.3393	-0.0063
566.5329	0.0006
566.7264	-0.0086
566.92	-0.004
567.1136	0.0012
567.3071	-0.0089
567.5006	-0.0014
567.6941	-0.0065
567.8876	0.0006
568.0811	-0.0078
568.2745	0.0035
568.468	0.0037
568.6614	0.002
568.8548	-0.0013
569.0482	-0.0021
569.2416	0.0009
569.4349	0.001
569.6283	-0.0011
569.8216	0.0005
570.0149	-0.0043
570.2082	0.0041
570.4015	0.006
570.5947	-0.0016
570.788	0.0008
570.9812	0.001
571.1744	-0.0039
571.3676	-0.0038
571.5608	-0.007
571.754	0.0046
571.9471	-0.0058
572.1402	0.0027
572.3333	-0.0045
572.5264	-0.0059
572.7195	0.0034
572.9126	-0.0065
573.1057	-0.0016
573.2987	-0.0047
573.4917	0.001
573.6847	-0.0096
573.8777	0.0016
574.0707	0.0027
574.2636	-0.003
574.4566	-0.0031
574.6495	0.0058
574.8424	-0.004
575.0353	-0.0005
575.2281	0.0101
575.421	0.001
575.6138	0.0043
575.8067	-0.0032
575.9995	0.0052
576.1923	0.0025
576.385	0.0024
576.5778	-0.0044
576.7706	-0.0059
576.9633	-0.0001
577.156	-0.0014
577.3487	-0.0043
577.5414	0.0044
577.734	-0.0042
577.9267	0.001
578.1193	-0.0119
578.3119	-0.0108
578.5045	-0.0015
578.6971	-0.0011
578.8897	0.0013
579.0822	-0.0094
579.2747	-0.0005
579.4673	-0.0068
579.6598	0.0006
579.8522	-0.0015
580.0447	-0.0021
580.2372	-0.0034
580.4296	0.0033
580.622	-0.0072
580.8144	-0.004
581.0068	-0.0015
581.1992	-0.0141
581.3915	-0.0088
581.5839	-0.0157
581.7762	-0.0085
581.9685	-0.0056
582.1608	-0.001
582.353	-0.0042
582.5453	-0.0038
582.7375	0.0008
582.9298	-0.0009
583.122	-0.0031
583.3142	-0.0002
583.5063	-0.0078
583.6985	-0.0024
583.8906	-0.0027
584.0827	-0.0055
584.2749	0.0009
584.4669	-0.0006
584.659	-0.0002
584.8511	-0.0041
585.0431	-0.0027
585.2352	-0.0025
585.4272	-0.0068
585.6192	0.0052
585.8111	0.006
586.0031	-0.0038
586.195	0.0031
586.387	0.0064
586.5789	-0.0077
586.7708	0.0035
586.9627	-0.0033
587.1545	-0.0102
587.3464	0.0073
587.5382	0.0051
587.73	0.0044
587.9218	0.0065
588.1136	-0
588.3053	0.0027
588.4971	-0.0023
588.6888	-0.008
588.8805	0.0028
589.0722	0.0037
589.2639	0.0037
589.4556	-0.002
589.6472	-0.004
589.8389	-0.0039
590.0305	-0.0122
590.2221	-0.003
590.4137	-0.0083
590.6052	0.0013
590.7968	0.0008
590.9883	0.0071
591.1798	0.0007
591.3713	0.0024
591.5628	0.0075
591.7543	0.0043
591.9458	-0.0048
592.1372	0.0104
592.3286	0.0027
592.52	0.0018
592.7114	-0.0037
592.9028	-0.0032
593.0941	-0.0017
593.2855	0.0014
593.4768	-0.003
593.6681	-0.0049
593.8594	-0.006
594.0506	-0.0009
594.2419	-0.0017
594.4331	0.0046
594.6244	0.0002
594.8156	-0.0028
595.0067	0.0003
595.1979	-0.0002
595.3891	0.0033
595.5802	-0.0021
595.7713	0.005
595.9624	-0.0044
596.1535	-0.0033
596.3446	0.0058
596.5357	0.0028
596.7267	0.0091
596.9177	0.0009
597.1087	-0.0059
597.2997	-0.0027
597.4907	0.0075
597.6817	-0.0053
597.8726	0.007
598.0635	-0.006
598.2544	-0.0054
598.4453	-0.0019
598.6362	-0.0026
598.827	-0.0055
599.0179	0.0075
599.2087	0.0037
599.3995	-0.0019
599.5903	0.0009
599.7811	0.0033
599.9718	0.0051
600.1626	0.0024
600.3533	-0.0087
600.544	0.0019
600.7347	0.0029
600.9254	0.0052
601.116	-0.0056
601.3067	-0.0028
601.4973	-0.0026
601.6879	0.0049
601.8785	-0.0024
602.0691	0.0114
602.2596	0.0136
602.4502	0.0091
602.6407	0.002
602.8312	0.0035
603.0217	0.0019
603.2122	0.0057
603.4027	0.0074
603.5931	0.0029
603.7835	-0.0015
603.9739	-0
604.1643	-0.003
604.3547	-0.0053
604.5451	0.0066
604.7354	0.0015
604.9257	-0.0059
605.116	-0.0075
605.3063	0.0043
605.4966	0.0039
605.6869	0.0039
605.8771	0.0059
606.0673	0.0072
606.2575	0.0091
606.4477	0.0102
606.6379	0.0048
606.8281	0.0011
607.0182	-0.0038
607.2083	0.0042
607.3985	0.0025
607.5885	0.0047
607.7786	-0.0001
607.9687	-0.0019
608.1587	0.0059
608.3488	0.0042
608.5388	0
608.7288	-0.0016
608.9187	-0.0039
609.1087	-0.0001
609.2986	-0.0022
609.4886	-0.0037
609.6785	-0.0004
609.8684	-0.0023
610.0582	0.0031
610.2481	0.0006
610.4379	-0.0042
610.6278	-0.0065
610.8176	-0.0022
611.0074	-0.0045
611.1971	-0.004
611.3869	-0.0032
611.5766	-0.009
611.7664	0.0007
611.9561	0.0094
612.1458	0.0001
612.3354	-0.0025
612.5251	-0.0006
612.7147	0.0008
612.9044	0.0059
613.094	-0.0023
613.2836	0.0003
613.4731	-0.007
613.6627	-0.0048
613.8522	0.0034
614.0417	0.0006
614.2313	-0.0042
614.4207	-0.0044
614.6102	0.0001
614.7997	0.0005
614.9891	-0.0041
615.1785	-0.0028
615.3679	-0.0082
615.5573	0.0061
615.7467	-0.0003
615.9361	-0.0029
616.1254	0.0017
616.3147	-0.0032
616.504	-0.0039
616.6933	0.0001
616.8826	0.0098
617.0718	0.0015
617.2611	-0.0014
617.4503	0.0017
617.6395	-0.0015
617.8287	-0.0029
618.0179	-0.0054
618.207	0.0048
618.3961	-0.0066
618.5853	-0.0019
618.7744	0.0002
618.9634	0.001
619.1525	0.0099
619.3416	-0.0023
619.5306	0.0015
619.7196	0.0038
619.9086	0.0026
620.0976	0.0023
620.2866	-0.003
620.4755	0.002
620.6645	0.0001
620.8534	0.0051
621.0423	0.0089
621.2312	0.0071
621.42	0.0019
621.6089	-0.0004
621.7977	0.0039
621.9865	-0.0135
622.1753	0.0062
622.3641	-0.0067
622.5529	0.0025
622.7416	0.0104
622.9303	-0.0074
623.1191	0.0041
623.3078	-0.0085
623.4964	0.0068
623.6851	-0.001
623.8737	-0.0017
624.0624	0.0072
624.251	0.0017
624.4396	0.002
624.6282	-0.0061
624.8167	0.0004
625.0053	0.0058
625.1938	0.0131
625.3823	-0.0031
625.5708	0.0026
625.7593	-0.0046
625.9477	-0.0039
626.1362	0.005
626.3246	0.0027
626.513	0.0084
626.7014	0.0035
626.8898	0.0023
627.0781	0.0061
627.2665	-0.0043
627.4548	0.0028
627.6431	0.0025
627.8314	0.01
628.0197	0.0092
628.2079	-0.0043
628.3962	0.0022
628.5844	0.0048
628.7726	0.0055
628.9608	0.0006
629.1489	0.0038
629.3371	0.0028
629.5252	0.0001
629.7134	0.011
629.9015	0.0003
630.0895	-0.0017
630.2776	0.006
630.4657	-0.0013
630.6537	0.0073
630.8417	-0.0002
631.0297	-0.0097
631.2177	0.004
631.4057	0.002
631.5936	0.0018
631.7815	0.0074
631.9695	0.0044
632.1574	0.0076
632.3452	0.0102
632.5331	0.0013
632.7209	-0.0042
632.9088	0.0108
633.0966	0.0161
633.2844	-0.0051
633.4722	-0.0026
633.6599	0.0109
633.8477	0.001
634.0354	0.0007
634.2231	0.0028
634.4108	0.01
634.5985	0.0077
634.7861	0.0055
634.9738	-0.0021
635.1614	-0.0039
635.349	0.0049
635.5366	-0.0025
635.7242	0.0015
635.9117	0.0029
636.0993	0.0016
636.2868	0.0041
636.4743	-0.0025
636.6618	0.0087
636.8492	-0.0007
637.0367	0.0042
637.2241	-0.0079
637.4115	0.0005
637.5989	0.0021
637.7863	-0.0018
637.9737	0.0038
638.161	0.003
638.3484	0.0026
638.5357	0.0095
638.723	0.0011
638.9103	0.0037
639.0975	0.0061
639.2848	0.0046
639.472	0.0061
639.6592	0.0085
639.8464	0.0127
640.0336	0.011
640.2208	0.0001
640.4079	0.002
640.595	0.0034
640.7821	0.0047
640.9692	0.0038
641.1563	0.0145
641.3434	0.005
641.5304	0.0038
641.7174	0.0031
641.9044	0.0032
642.0914	0.0015
642.2784	0.0066
642.4653	0.0109
642.6523	-0.0008
642.8392	-0.0005
643.0261	0.0059
643.213	0.0101
643.3999	0.0029
643.5867	0.0008
643.7735	0.0086
643.9604	-0.0005
644.1472	-0.0014
644.3339	0.0074
644.5207	0.0036
644.7075	0.0011
644.8942	0.0062
645.0809	0.0016
645.2676	0.0124
645.4543	0.0053
645.6409	0.0104
645.8276	0.0042
646.0142	0.0089
646.2008	-0.0021
646.3874	-0.0027
646.574	0.0031
646.7605	-0.003
646.9471	-0.012
647.1336	0.004
647.3201	0.0077
647.5066	0.0005
647.6931	0.0032
647.8795	0.0012
648.0659	0.0075
648.2524	0.0062
648.4388	-0.0016
648.6252	-0.0014
648.8115	0.0018
648.9979	-0.0006
649.1842	0.0075
649.3705	0.008
649.5568	0.0065
649.7431	0.0086
649.9294	-0.0009
650.1156	-0.0009
650.3018	-0.0013
650.488	0.0019
650.6742	0.0082
650.8604	0.005
651.0466	-0.0024
651.2327	0.005
651.4188	0.0041
651.6049	0.0015
651.791	0.0003
651.9771	0.0062
652.1632	0.0039
652.3492	0.0041
652.5352	0.0024
652.7212	0.0037
652.9072	0.0125
653.0932	0.0027
653.2791	-0.0003
653.465	0.0062
653.651	-0.0007
653.8369	-0.0064
654.0227	0.0004
654.2086	0.0066
654.3944	0.0044
654.5803	0.0034
654.7661	-0.0015
654.9519	0.0003
655.1377	-0.0004
655.3234	0.0005
655.5092	-0.0074
655.6949	-0.0062
655.8806	-0.0011
656.0663	-0.0043
656.2519	-0.0037
656.4376	-0.002
656.6232	0.0049
656.8088	0.0057
656.9945	0.0002
657.18	0.003
657.3656	0.0074
657.5511	0.0008
657.7367	0.0044
657.9222	0.0029
658.1077	0.0051
658.2932	0.0011
658.4786	-0.0004
658.6641	-0.0055
658.8495	0.0023
659.0349	-0.0038
659.2203	0.0048
659.4057	0.0019
659.591	0.0047
659.7764	-0.0037
659.9617	0.0025
660.147	0.0121
660.3323	0.005
660.5176	0.0153
660.7028	0.0085
660.888	0.0138
661.0733	0.0111
661.2585	0.0015
661.4436	0.0011
661.6288	0.0021
661.8139	0.0034
661.9991	0.011
662.1842	-0.0004
662.3693	0.0074
662.5544	0.0004
662.7394	0.0047
662.9245	0.0022
663.1095	0.0009
663.2945	-0.0001
663.4795	0.0036
663.6644	0.0007
663.8494	0.003
664.0343	0
664.2193	-0.0028
664.4042	0.0018
664.589	-0.0076
664.7739	0.003
664.9587	-0.0066
665.1436	-0.0014
665.3284	0.0043
665.5132	-0.0004
665.698	-0.0014
665.8827	0.0075
666.0675	-0.0048
666.2522	-0.0038
666.4369	0.0048
666.6216	0.0089
666.8063	0.0023
666.9909	0.006
667.1756	0.0029
667.3602	0.0115
667.5448	-0.0016
667.7294	0.0157
667.9139	0.0112
668.0985	0.0122
668.283	0.0025
668.4675	-0.0012
668.652	0.0056
668.8365	-0.0023
669.0209	0.0094
669.2054	0.0073
669.3898	0.0004
669.5742	0.006
669.7586	0.0118
669.943	0.0144
670.1273	0.0153
670.3117	0.0027
670.496	0.0053
670.6803	0.0095
670.8646	0.0058
671.0488	-0.0046
671.2331	0.0092
671.4173	0.0119
671.6015	0.0027
671.7857	0.002
671.9699	0.0071
672.1541	0.0084
672.3382	0.011
672.5223	0.0113
672.7064	0.0064
672.8905	0.0109
673.0746	0.001
673.2587	0.001
673.4427	0.0073
673.6267	0.0104
673.8107	0.0091
673.9947	0.0105
674.1787	0.0079
674.3626	-0.0083
674.5465	0.0143
674.7304	0.0057
674.9143	0.0153
675.0982	0.019
675.2821	0.0012
675.4659	0.0098
675.6497	0.0074
675.8335	0.0064
676.0173	0.0094
676.2011	0.0077
676.3849	0.0031
676.5686	-0.0019
676.7523	0.0077
676.936	0.001
677.1197	-0.0058
677.3034	-0.0062
677.487	0.0088
677.6706	0.0044
677.8542	0.0025
678.0378	0.0057
678.2214	0.0022
678.405	0.013
678.5885	-0.0051
678.772	0.0013
678.9555	-0.0016
679.139	-0.0012
679.3225	0.0051
679.5059	0.0068
679.6894	-0.0039
679.8728	-0.0002
680.0562	-0.0071
680.2395	-0.007
680.4229	-0.0033
680.6062	0
680.7896	-0.0018
680.9729	-0.0054
681.1562	0.0065
681.3394	0.0009
681.5227	-0.004
681.7059	0.0009
681.8891	-0.0012
682.0723	0.0074
682.2555	0.01
682.4387	0.0007
682.6218	-0.0024
682.805	-0.0002
682.9881	0.006
683.1712	0.0002
683.3542	-0.0029
683.5373	0.011
683.7203	0.0007
683.9034	0.0089
684.0864	-0.0031
684.2694	0.0018
684.4523	0.0056
684.6353	0.0019
684.8182	0.0038
685.0011	-0.0008
685.184	0.0094
685.3669	-0
685.5498	0.0118
685.7326	0.0043
685.9154	-0.0001
686.0982	0.0143
686.281	0.0192
686.4638	0.0025
686.6465	-0.0001
686.8293	0.0099
687.012	0.0027
687.1947	-0.0023
687.3774	0.0086
687.56	-0.0014
687.7427	0.012
687.9253	-0.003
688.1079	-0.0054
688.2905	0.011
688.4731	0.0023
688.6556	0.0031
688.8382	0.0064
689.0207	0.0077
689.2032	0.0032
689.3857	0.0004
689.5681	0.0035
689.7506	0.0002
689.933	0.0033
690.1154	0.0047
690.2978	0.0001
690.4802	-0.0021
690.6626	-0.0027
690.8449	-0.0037
691.0272	0.0062
691.2095	-0.0035
691.3918	-0.0095
691.5741	0.0058
691.7563	-0.0038
691.9386	-0.0076
692.1208	0.005
692.303	-0.0076
692.4852	-0.0072
692.6673	0.0042
692.8495	0.001
693.0316	-0.0027
693.2137	0.0002
693.3958	0.0008
693.5778	0.0028
693.7599	-0.0046
693.9419	0.0019
694.1239	0.0021
694.3059	0.0003
694.4879	0.0083
694.6699	0.0023
694.8518	0.0048
695.0337	-0.0018
695.2157	-0.0015
695.3975	-0.0032
695.5794	0.011
695.7613	0.0083
695.9431	-0.0016
696.1249	0.0024
696.3067	0.0048
696.4885	0.0074
696.6703	-0.0004
696.852	0.0032
697.0337	0.006
697.2154	0.0028
697.3971	0.0009
697.5788	0.0065
697.7605	0.007
697.9421	0.0068
698.1237	0.0044
698.3053	0.001
698.4869	-0.0016
698.6685	-0.0061
698.85	0.0027
699.0315	0.009
699.213	-0.0033
699.3945	-0.002
699.576	-0.0012
699.7575	0.0017
699.9389	0.0056
700.1203	0.0009
700.3017	-0.0084
700.4831	-0.0063
700.6645	-0.0018
700.8458	0.0009
701.0271	-0.0037
701.2084	0.0026
701.3897	-0.0007
701.571	-0.0001
701.7523	-0.014
701.9335	-0.0011
702.1147	0.0002
702.2959	-0.0028
702.4771	-0.0026
702.6583	-0.0017
702.8394	-0.0039
703.0205	-0.0003
703.2016	-0.0024
703.3827	-0.0021
703.5638	0.0108
703.7449	0.0079
703.9259	0.0089
704.1069	0.0041
704.2879	-0.0005
704.4689	0.0026
704.6499	-0.0002
704.8308	0.0071
705.0117	0.0078
705.1927	0.0019
705.3735	-0.0034
705.5544	-0.0039
705.7353	-0.0045
705.9161	0.0007
706.0969	-0.0073
706.2777	0.0036
706.4585	0.0044
706.6393	0.0006
706.82	-0.0087
707.0007	0.0034
707.1815	-0.0018
707.3621	0.0022
707.5428	0.0083
707.7235	0.004
707.9041	0.0039
708.0847	-0.0023
708.2653	0.0044
708.4459	-0.0089
708.6265	0.0057
708.807	-0.0018
708.9875	-0.0071
709.168	-0.0053
709.3485	-0.0064
709.529	0.0022
709.7095	-0.0106
709.8899	0.006
710.0703	-0.0056
710.2507	-0.0042
710.4311	0.0007
710.6115	-0.0124
710.7918	-0.0038
710.9721	-0.0016
711.1524	-0.0015
711.3327	-0.0013
711.513	0.0092
711.6932	0.0034
711.8735	0.0073
712.0537	0.006
712.2339	0.0004
712.4141	-0.0075
712.5942	-0.0036
712.7744	0.0099
712.9545	-0.0075
713.1346	-0.0032
713.3147	0.0087
713.4947	0.0014
713.6748	0.0029
713.8548	0.0015
714.0348	0.0011
714.2148	-0.0001
714.3948	0.011
714.5748	0.0035
714.7547	0.0032
714.9346	0.0041
715.1145	0.0017
715.2944	0.0046
715.4743	0.0054
715.6541	-0.0022
715.834	0.0059
716.0138	0.0098
716.1936	-0.0016
716.3733	-0.0008
716.5531	0.0077
716.7328	-0.0031
716.9126	-0.0093
717.0923	-0.0031
717.2719	-0.0051
717.4516	0.0057
717.6312	0.003
717.8109	0.0037
717.9905	0.0067
718.1701	-0.0014
718.3496	-0.0008
718.5292	0.0004
718.7087	0.0017
718.8882	0.0007
719.0677	0.006
719.2472	0.0001
719.4267	0.0055
719.6061	0.0088
719.7856	0.007
719.965	0.0079
720.1443	0.0012
720.3237	0.0182
720.5031	0.0064
720.6824	0.0131
720.8617	-0
721.041	0.0021
721.2203	0.0087
721.3995	0.004
721.5788	-0.0003
721.758	0.002
721.9372	-0.0026
722.1164	0.0028
722.2956	-0.0001
722.4747	0.0069
722.6538	-0.003
722.8329	0.0056
723.012	-0.0041
723.1911	-0.0056
723.3702	0.0024
723.5492	-0.0036
723.7282	-0.0019
723.9072	-0.0021
724.0862	-0.0095
724.2652	-0.0031
724.4441	0.0013
724.623	0.0065
724.8019	0.0076
724.9808	-0.0013
725.1597	-0.0114
725.3385	0.0027
725.5174	-0.0035
725.6962	0.0053
725.875	0.0041
726.0538	0.009
726.2325	0.0021
726.4112	0.0028
726.59	-0.0026
726.7687	-0.0044
726.9474	0.0158
727.126	-0.0085
727.3047	0.0038
727.4833	0.0064
727.6619	-0.0034
727.8405	-0.0036
728.0191	-0.0011
728.1976	0.0055
728.3762	-0.003
728.5547	0.0044
728.7332	-0.0108
728.9116	-0.0062
729.0901	0.0079
729.2686	-0.0045
729.447	0.0056
729.6254	-0.0027
729.8038	0.0032
729.9821	-0.0069
730.1605	-0.0044
730.3388	0.0008
730.5171	-0.0043
730.6954	-0.0079
730.8737	0.006
731.0519	0.0038
731.2302	0.0013
731.4084	0.0112
731.5866	0.0144
731.7648	0.0014
731.9429	0.0059
732.1211	-0.0028
732.2992	0.0025
732.4773	0.0019
732.6554	0.0055
732.8335	0.0052
733.0115	0.0062
733.1896	0.0046
733.3676	0.0024
733.5456	0.0077
733.7235	0.0036
733.9015	0.0011
734.0794	0.0072
734.2574	-0.0022
734.4353	0.0006
734.6131	0.0012
734.791	0.0033
734.9689	0.0022
735.1467	0.003
735.3245	-0.0031
735.5023	-0.0088
735.68	-0.0039
735.8578	0.0046
736.0355	-0.0217
736.2132	-0.0034
736.3909	-0.0018
736.5686	-0.0107
736.7463	0.003
736.9239	-0.0083
737.1015	-0.0068
737.2791	-0.0058
737.4567	-0.0092
737.6343	-0.0064
737.8118	0.001
737.9894	0.0049
738.1669	-0.0038
738.3444	-0.0096
738.5218	0.0033
738.6993	0.0033
738.8767	-0.0032
739.0541	0.0108
739.2315	-0.0002
739.4089	0.0042
739.5863	0.0104
739.7636	-0.0022
739.9409	0.0098
740.1182	0.0065
740.2955	0.0042
740.4728	0.001
740.65	0.0046
740.8272	0.0009
741.0044	-0.0058
741.1816	0.0031
741.3588	-0.0061
741.5359	-0.0044
741.7131	-0.0113
741.8902	-0.0057
742.0673	-0.0082
742.2444	-0.0102
742.4214	-0.0082
742.5985	0.0004
742.7755	-0.0038
742.9525	-0.0184
743.1295	-0.0012
743.3064	0.0009
743.4834	0.0055
743.6603	0.0001
743.8372	-0.0016
744.0141	0.0105
744.191	0.007
744.3678	0.0047
744.5446	0.004
744.7215	0.009
744.8982	0.0063
745.075	-0.0106
745.2518	0.0074
745.4285	0.0022
745.6052	0.0038
745.7819	-0.0007
745.9586	-0.0148
746.1353	0.0004
746.3119	-0.0046
746.4885	-0.006
746.6651	-0.0025
746.8417	0.0016
747.0183	-0.0108
747.1948	-0.0005
747.3714	0.0031
747.5479	-0.0001
747.7244	-0.0077
747.9008	0.0069
748.0773	0.0018
748.2537	0.0034
748.4301	-0.0056
748.6065	-0.0012
748.7829	-0.0059
748.9593	0.005
749.1356	-0.0064
749.3119	0.0069
749.4882	-0.0052
749.6645	0.0148
749.8408	0.0012
750.017	-0.0037
750.1933	0.0022
750.3695	-0.0079
750.5457	0.0043
750.7218	-0.0112
750.898	0.0022
751.0741	-0.0042
751.2502	-0.006
751.4263	-0.0074
751.6024	-0.0061
751.7784	-0.0084
751.9545	-0.0035
752.1305	0.0026
752.3065	-0.0048
752.4825	0.0075
752.6584	0.0015
752.8344	-0.0182
753.0103	-0.0081
753.1862	-0.0086
753.3621	-0.0072
753.5379	-0.0048
753.7138	-0.0024
753.8896	-0.0136
754.0654	0.0035
754.2412	0.0018
754.417	0.002
754.5927	-0.0108
754.7685	-0.0068
754.9442	0.0004
755.1199	0.0125
755.2956	0.0014
755.4712	0.004
755.6469	-0.0042
755.8225	-0.0089
755.9981	-0.0091
756.1736	-0.0052
756.3492	0.0046
756.5248	-0.0046
756.7003	-0.0062
756.8758	0.003
757.0513	-0.0096
757.2267	-0.0102
757.4022	-0.0022
757.5776	-0.0148
757.753	0.0037
757.9284	0.0081
758.1038	0.01
758.2791	0.0106
758.4545	-0.0087
758.6298	0.0024
758.8051	0.0052
758.9803	0.0105
759.1556	0.0092
759.3308	0.0091
759.506	0.0136
759.6812	0.0038
759.8564	0.0048
760.0316	-0.0014
760.2067	0.0137
760.3819	0.0073
760.557	0.0126
760.732	-0.0021
760.9071	-0.0087
761.0821	-0.0018
761.2572	0.005
761.4322	0.001
761.6072	0.0021
761.7821	-0.0088
761.9571	0.0081
762.132	0.0086
762.3069	-0.011
762.4818	0.0013
762.6567	0.0029
762.8316	0.0014
763.0064	0.0026
763.1812	-0.0042
763.356	-0.0066
763.5308	0.0018
763.7055	-0.0027
763.8803	-0.012
764.055	-0.0032
764.2297	-0.003
764.4044	-0.0078
764.579	-0.0122
764.7537	-0.0172
764.9283	-0.003
765.1029	-0.0175
765.2775	-0.0185
765.4521	-0.0123
765.6266	-0.0131
765.8011	-0.0089
765.9756	-0.0033
766.1501	0.0036
766.3246	-0.0071
766.4991	-0.0041
766.6735	0.0029
766.8479	-0.0081
767.0223	0.011
767.1967	0.0015
767.371	0.0017
767.5454	-0.0005
767.7197	-0.0024
767.894	-0.0022
768.0683	-0.0119
768.2425	0.0057
768.4168	0.0103
768.591	-0.0051
768.7652	-0.0058
768.9394	-0.0004
769.1135	-0.0049
769.2877	0.0043
769.4618	0.0013
769.6359	-0.0028
769.81	-0.0006
769.984	0.0048
770.1581	-0.0087
770.3321	-0.0012
770.5061	-0.0027
770.6801	-0.0106
770.8541	-0.0078
771.028	0.008
771.202	-0.0132
771.3759	0.0035
771.5498	-0.0048
771.7236	0.0094
771.8975	0.0057
772.0713	-0.0003
772.2451	0.003
772.4189	0.0042
772.5927	0.0219
772.7665	0.0064
772.9402	-0.0027
773.1139	-0
773.2876	0.0046
773.4613	0.0073
773.635	0.016
773.8086	-0.0048
773.9822	0.0109
774.1558	0.0178
774.3294	-0.007
774.503	-0.002
774.6765	0.0087
774.8501	-0.0005
775.0236	0.007
775.1971	0.0027
775.3705	-0.007
775.544	0.006
775.7174	0.002
775.8908	-0.0001
776.0642	-0.0028
776.2376	0.0048
776.4109	-0.0057
776.5843	0.0008
776.7576	0.0049
776.9309	0.002
777.1041	0.0042
777.2774	0.0036
777.4506	-0.0011
777.6238	-0.0035
777.797	0.0008
777.9702	0.0008
778.1434	0.0055
778.3165	-0.009
778.4896	-0.0151
778.6627	0.0026
778.8358	0.0027
779.0089	0.0001
779.1819	-0.0011
779.3549	0.0235
779.5279	0.0025
779.7009	0.0069
779.8739	0.0028
780.0468	0.0094
780.2197	0.0193
780.3926	0.012
780.5655	0.0044
780.7384	-0.0068
780.9112	0.0005
781.0841	-0.0027
781.2569	-0.0011
781.4297	0.0055
781.6024	0.0093
781.7752	0.0056
781.9479	0.0042
782.1206	0.0162
782.2933	-0.0055
782.466	-0
782.6386	0.0071
782.8113	-0.0012
782.9839	-0.0002
783.1565	0.017
783.329	0.0121
783.5016	0.0081
783.6741	0.0047
783.8466	-0.0081
784.0191	0.0089
784.1916	-0.007
784.3641	-0.0038
784.5365	0.0047
784.7089	-0.0044
784.8813	0.0013
785.0537	0.0005
785.2261	-0.0068
785.3984	-0.0134
785.5707	-0.0045
785.743	0.0028
785.9153	-0.0047
786.0876	-0.0064
786.2598	-0.0086
786.432	-0.0227
786.6042	0.0123
786.7764	-0.0131
786.9486	-0.0087
787.1207	-0.0133
787.2928	0.0053
787.4649	-0.0042
787.637	0.0015
787.8091	-0.0052
787.9811	-0.0076
788.1532	-0.0083
788.3252	0.0004
788.4972	-0.0127
788.6691	-0.0054
788.8411	-0.0054
789.013	-0.009
789.1849	-0.0057
789.3568	-0.0188
789.5287	-0.0005
789.7005	-0.007
789.8723	-0.0006
790.0442	0.0145
790.2159	-0.0076
790.3877	-0.0032
790.5595	-0.01
790.7312	-0.0122
790.9029	-0.0024
791.0746	-0.0075
791.2463	-0.0171
791.4179	-0.0079
791.5896	-0.0134
791.7612	-0.0058
791.9328	0.0012
792.1044	-0.0112
792.2759	-0.0253
792.4474	-0.0059
792.619	-0
792.7905	0.004
792.9619	-0.0109
793.1334	0.0034
793.3048	0.0085
793.4762	0.0036
793.6476	0.0083
793.819	-0.0027
793.9904	0.0111
794.1617	-0.0005
794.333	0.0157
794.5043	-0.0077
794.6756	-0.01
794.8469	-0.0086
795.0181	-0.0049
795.1893	-0.0052
795.3605	0.0042
795.5317	0.0121
795.7029	-0.0028
795.874	0.0025
796.0452	0.005
796.2163	-0.0054
796.3873	0.0087
796.5584	0.006
796.7294	-0.0102
796.9005	-0.0039
797.0715	0.0014
797.2425	-0.0179
797.4134	-0.0341
797.5844	-0.0077
797.7553	-0.0183
797.9262	-0.0221
798.0971	-0.0237
798.2679	-0.0217
798.4388	-0.0236
798.6096	-0.02
798.7804	-0.0108
798.9512	-0.001
799.122	-0.0144
799.2927	0.0005
799.4635	0.0027
799.6342	-0.0278
799.8049	-0.0168
799.9755	-0.0081
800.1462	-0.001
800.3168	0.0071
800.4874	0.0095
800.658	0.022
800.8286	-0.0004
800.9991	0.0163
801.1696	-0.0076
801.3402	0.0087
801.5106	-0.0033
801.6811	-0.0069
801.8516	-0.0025
802.022	-0.0033
802.1924	-0.0043
802.3628	-0.0121
802.5332	0.0151
802.7035	0.002
802.8739	-0.0084
803.0442	-0.0254
803.2145	-0.0013
803.3847	-0.051
803.555	-0.0058
803.7252	-0.0169
803.8954	-0.0415
804.0656	-0.0245
804.2358	-0.0159
804.4059	-0.0011
804.5761	-0.0192
804.7462	-0.0126
804.9163	-0.0186
805.0864	-0.0209
805.2564	-0.0157
805.4264	-0.0269
805.5965	-0.0016
805.7665	-0.0035
805.9364	-0.0009
806.1064	0.0222
806.2763	-0.0108
806.4462	0.0169
806.6161	0.0078
806.786	-0.0052
806.9559	-0.0134
807.1257	-0.0074
807.2955	0.0022
807.4653	-0.0117
807.6351	-0.0066
807.8048	0.0037
807.9746	0.0037
808.1443	-0.0217
808.314	-0.0091
808.4837	-0.0057
808.6533	-0.0071
808.8229	0.0057
808.9926	-0.0033
809.1622	-0.0065
809.3317	-0.0217
809.5013	-0.0082
809.6708	-0.0149
809.8403	0.0112
810.0098	-0.0182
810.1793	-0.0186
810.3488	-0.0031
810.5182	-0.0277
810.6876	-0.0258
810.857	-0.0329
811.0264	0.0237
811.1958	-0.0102
811.3651	-0.0022
811.5344	0.0026
811.7037	-0.0165
811.873	-0.0163
812.0422	-0.0037
812.2115	-0.0033
812.3807	-0.0263
812.5499	0.0005
812.7191	-0.0233
812.8882	-0.0082
813.0574	-0.0083
813.2265	0.0005
813.3956	-0.0025
813.5646	0.0069
813.7337	-0.026
813.9027	0.0073
814.0718	0.0143
814.2407	0.022
814.4097	-0.0239
814.5787	-0.0138
814.7476	-0.017
814.9165	0.0008
815.0854	-0.0094
815.2543	-0.0047
815.4232	-0.0155
815.592	0.0002
815.7608	0.0047
815.9296	-0.0071
816.0984	0.0064
816.2671	0.0131
816.4359	-0.007
816.6046	-0.0063
816.7733	-0.0121
816.942	-0.0272
817.1106	0.0011
817.2793	0.0002
817.4479	0.0005
817.6165	0.0092
817.785	-0.0131
817.9536	-0.0117
818.1221	-0.0223
818.2906	-0.0023
818.4591	0.0009
818.6276	-0.0065
818.7961	-0.0232
818.9645	0.0117
819.1329	-0.0103
819.3013	-0.0071
819.4697	0.0129
819.638	-0.0202
819.8064	0.0092
819.9747	-0.0165
820.143	-0.033
820.3113	-0.0397
820.4795	-0.0084
820.6477	-0.0156
820.816	-0.0111
820.9842	-0.0256
821.1523	0.0024
821.3205	-0.0309
821.4886	-0.0147
821.6567	-0.0284
821.8248	-0.0213
821.9929	0.0236
822.1609	0.0195
822.329	-0.0037
822.497	0.0175
822.665	0.0015
822.833	-0.0168
823.0009	-0.002
823.1688	0.0242
823.3367	0.0329
823.5046	0.0115
823.6725	0.0319
823.8404	-0.0021
824.0082	0.0236
824.176	-0.0064
824.3438	-0.0161
824.5116	0.0041
824.6793	0.0028
824.847	-0.0013
825.0147	-0.0193
825.1824	0.0158
825.3501	0.0043
825.5177	-0.0272
825.6854	0.0034
825.853	0.0062
826.0206	-0.007
826.1881	-0.0244
826.3557	-0.0263
826.5232	0.0221
826.6907	-0.0347
826.8582	-0.0352
827.0257	-0.0186
827.1931	-0.0042
827.3605	-0.005
827.528	-0.0084
827.6953	-0.013
827.8627	-0.013
828.03	-0.0026
828.1974	-0.018
828.3647	-0.0521
828.532	-0.0118
828.6992	-0.006
828.8665	-0.0044
829.0337	-0.0061
829.2009	0.0219
829.3681	-0.0152
829.5352	0.0036
829.7024	-0.0128
829.8695	-0.0597
830.0366	0.0143
830.2037	-0.0195
830.3707	0.0337
830.5378	-0.031
830.7048	-0.0072
830.8718	0.025
831.0388	-0.0181
831.2057	-0.0049
831.3727	0.0256
831.5396	-0.0108
831.7065	0.0045
831.8734	-0.0087
832.0402	-0.0272
832.2071	-0.0035
832.3739	-0.043
832.5407	-0.0084
832.7075	-0.0452
832.8742	-0.045
833.041	-0.0241
833.2077	-0.0216
833.3744	0.0088
833.541	-0.012
833.7077	-0.0161
833.8743	-0.0467
834.0409	-0.005
834.2075	-0.0139
834.3741	-0.0159
834.5407	0.016
834.7072	-0.0224
834.8737	-0.0158
835.0402	-0.0331
835.2067	0.0093
835.3731	-0.0061
835.5395	-0.0201
835.706	0.0237
835.8723	-0.0294
836.0387	0.0156
836.2051	-0.0251
836.3714	-0.015
836.5377	-0.032
836.704	-0.0377
836.8703	-0.0213
837.0365	-0.0089
837.2027	-0.0143
837.3689	0.0399
837.5351	-0.0403
837.7013	-0.0453
837.8674	-0.0857
838.0335	-0.0045
838.1997	-0.0353
838.3657	-0.0389
838.5318	-0.0378
838.6978	0.0189
838.8639	-0.0024
839.0299	0.0094
839.1958	-0.001
839.3618	-0.0434
839.5277	-0.0028
839.6937	-0.0434
839.8596	0.0136
840.0254	-0.0259
840.1913	0.0422
840.3571	0.0033
840.523	-0.075
840.6888	-0.0464
840.8545	-0.0209
841.0203	-0.0089
841.186	-0.007
841.3517	0.0342
841.5174	0.0158
841.6831	-0.0249
841.8488	-0.0047
842.0144	0.036
842.18	0.0042
842.3456	-0.0371
842.5112	-0.0172
842.6767	-0.0185
842.8422	-0.0535
843.0077	0.0165
843.1732	-0.0549
843.3387	-0.0515
843.5042	-0.0118
843.6696	-0.0824
843.835	-0.0088
844.0004	-0.0031
844.1657	0.0352
844.3311	-0.0411
844.4964	-0.0835
844.6617	0.0179
844.827	-0.0049
844.9923	-0.0343
845.1575	-0.005
845.3227	0.0032
845.4879	-0.0048
845.6531	-0.046
845.8183	-0.0382
845.9834	0.0022
846.1485	-0.0121
846.3136	-0.0297
846.4787	-0.1263
846.6438	0.0736
846.8088	-0.0262
846.9738	-0.12
847.1388	0.0568
847.3038	0.0425
847.4687	-0.1368
847.6337	0.0806
847.7986	0.0399
847.9635	-0.0619
848.1284	-0.0432
848.2932	0.0626
848.458	-0.041
848.6228	0.0038
848.7876	0.0287
848.9524	-0.0944
849.1172	-0.0727
849.2819	-0.0168
849.4466	-0.0839
849.6113	-0.0759
849.7759	-0.0722
849.9406	-0.0428
850.1052	-0.0104
850.2698	-0.067
850.4344	-0.0326
850.599	-0.0253
850.7635	0.1163
850.928	-0.0088
851.0925	0.0547
851.257	0.1284
851.4215	-0.0004
851.5859	-0.0857
851.7503	-0.0125
851.9147	-0.0053
852.0791	-0.1095
852.2434	-0.0298
852.4078	0.0523
852.5721	0.0656
852.7364	-0.0785
852.9007	-0.1292
853.0649	0.0035
853.2291	0.0784
853.3934	0.0255
853.5575	-0.0681
853.7217	-0.0477
853.8859	-0.1484
854.05	-0.1139
854.2141	0.1961
854.3782	-0.0564
854.5423	-0.07
854.7063	0.0515
854.8703	-0.0062
855.0343	-0.0594
855.1983	-0.0727
855.3623	0.2396
855.5262	0.0939
855.6901	-0.0266
855.854	-0.062
856.0179	0.1182
856.1818	0.0294
856.3456	-0.0334
856.5094	-0.0926
856.6732	0.0169
856.837	-0.065
857.0008	0.1109
857.1645	0.021
857.3282	-0.1033
857.4919	0.091
857.6556	-0.0547
857.8192	0.0091
857.9828	0.1623
858.1465	0.0946
858.31	-0.2631
858.4736	-0.0246
858.6372	-0.3377
858.8007	-0.075
858.9642	0.1562
859.1277	0.0044
859.2911	-0.0731
859.4546	0.0079
859.618	-0.3276
859.7814	0.0025
859.9448	0.0641
860.1081	-0.0914
860.2715	0.0598
860.4348	0.2518
860.5981	0.0647
860.7614	0.1417
860.9246	-0.1337
861.0879	-0.0262
861.2511	0.0619
861.4143	-0.0966
861.5774	0.0208
861.7406	-0.2021
861.9037	-0.0462
862.0668	-0.1325
862.2299	-0.1622
862.393	-0.495
862.556	-0.0393
862.7191	0.5126
862.8821	-0.2131
863.0451	0.2814
863.208	-0.0593
863.371	-0.0516
863.5339	0.1766
863.6968	-0.0522
863.8597	-0.2841
864.0225	0.0978
864.1854	0.2292
864.3482	-0
864.511	0.1874
864.6737	0.154
864.8365	-0.1618
864.9992	-0.0535
865.1619	-0.5743
865.3246	-0.2641
865.4873	-0.0478
865.65	-0.3242
865.8126	0.1572
865.9752	0.3309
866.1378	-0.23
866.3004	-0
866.4629	0.1044
866.6254	0.0243
866.7879	-0.2505
866.9504	-0
867.1129	-0
867.2753	0.9862
867.4377	0.1574
867.6001	-0.1831
867.7625	-0.0722
867.9249	0.5288
868.0872	-0.0807
868.2495	0.4048
868.4118	-0.4818
868.5741	-0.717
868.7363	-0.4816
868.8986	-0.3784
869.0608	-0.1158
869.223	0.2831
869.3851	-0.0904
869.5473	0.1194
869.7094	0.1263
869.8715	-0.5815
870.0336	-0.6807
870.1957	-0.542
870.3577	-0
870.5197	-0.1153
870.6817	-0.2111
870.8437	-0.2047
871.0057	-0
871.1676	-0.1205
871.3295	-0.2647
871.4914	-0
871.6533	-0.1365
871.8151	0.0206
871.977	-0
872.1388	-0
872.3006	-0
872.4623	-0
872.6241	0.0614
872.7858	-0
872.9475	0.3054
873.1092	1.1105
873.2709	0.7489
873.4325	0.049
873.5941	-0.0797
873.7557	-0
873.9173	-0
874.0789	-0.3901
874.2404	-0
874.4019	-0.0061
874.5634	-0.21
874.7249	-0.3733
874.8863	-0.101
875.0478	0.4989
875.2092	-0
875.3706	-0
875.5319	-0.6919
875.6933	-0
875.8546	-0.2667
876.0159	-0
876.1772	0.296
876.3385	-0
876.4997	0.2678
876.6609	-0.1489
876.8221	-0.5402
876.9833	-0
877.1445	-0
877.3056	-0.1627
877.4667	0.501
877.6278	0.1874
877.7889	-0.6853
877.9499	-0
878.111	-0.5968
878.272	-0
878.433	-0
878.5939	-0
878.7549	0.0091
878.9158	-0.836
879.0767	-0.0886
879.2376	0.8046
879.3984	0.5919
879.5593	-0
879.7201	0.0091
879.8809	-0.774
880.0417	-0.0071
880.2024	0.5722
880.3632	-0
880.5239	0.2668
880.6846	-0
880.8452	-2.3627
881.0059	-1.4871
881.1665	0.1297
881.3271	-0
881.4877	-0.3623
881.6483	-0.5831
881.8088	-0.4409
881.9693	0.038
882.1298	0.038
882.2903	0.038
