Data from MonoPyChalIsomerACN10uM420nmA_Absorbance_15-09-53-434.txt Node
Date: Fri Jul 05 15:09:53 BST 2024
User: LASERRRRR
Spectrometer: FLMT03099
Trigger mode: 0
Integration Time (sec): 1.000000E-1
Scans to average: 1
Electric dark correction enabled: true
Nonlinearity correction enabled: false
Boxcar width: 0
XAxis mode: Wavelengths
Number of Pixels in Spectrum: 3648
>>>>>Begin Spectral Data<<<<<
179.3399	-0.3773
179.5586	-0.3773
179.7771	-0.3773
179.9957	1.2751
180.2143	-0.0555
180.4329	-0.0043
180.6514	-0
180.8699	-0
181.0885	-0.1841
181.307	0.209
181.5255	-0.5171
181.744	-0
181.9625	-0
182.181	-0
182.3994	-0
182.6179	-0
182.8363	0.0887
183.0547	0.2239
183.2732	-0.001
183.4916	0.1505
183.71	-0.0454
183.9284	0.0211
184.1467	-0.1064
184.3651	-0.0712
184.5835	-0.1119
184.8018	0.4132
185.0201	-0.1121
185.2385	0.0143
185.4568	0.023
185.6751	0.0877
185.8934	0.1971
186.1117	0.0947
186.3299	-0.0587
186.5482	0.1992
186.7664	-0.1136
186.9847	-0.1811
187.2029	0.0893
187.4211	0.0219
187.6393	0.248
187.8575	-0.0871
188.0757	0.235
188.2939	0.1669
188.512	-0.1551
188.7302	0.0612
188.9483	-0.0016
189.1665	0.0757
189.3846	-0.3016
189.6027	0.0906
189.8208	0.0693
190.0389	0.0232
190.257	0.0665
190.475	0.1507
190.6931	0.2277
190.9111	0.3609
191.1292	0.206
191.3472	0.4829
191.5652	0.259
191.7832	0.2267
192.0012	0.2627
192.2192	0.283
192.4371	0.4643
192.6551	0.2492
192.873	0.3104
193.091	0.5444
193.3089	0.3468
193.5268	0.3032
193.7447	0.4434
193.9626	0.5896
194.1805	0.931
194.3984	0.6439
194.6162	0.4617
194.8341	0.5449
195.0519	0.5252
195.2697	0.6429
195.4875	0.4928
195.7054	0.566
195.9231	0.4801
196.1409	0.5172
196.3587	0.5605
196.5765	0.5661
196.7942	0.6046
197.012	0.5549
197.2297	0.5532
197.4474	0.8233
197.6651	0.4844
197.8828	0.63
198.1005	0.6454
198.3182	0.5318
198.5358	0.8558
198.7535	0.5716
198.9711	0.5344
199.1888	0.6462
199.4064	0.6925
199.624	0.6406
199.8416	0.523
200.0592	0.6278
200.2767	0.5487
200.4943	0.6401
200.7119	0.7094
200.9294	0.6508
201.1469	0.6143
201.3645	0.5668
201.582	0.5242
201.7995	0.6117
202.017	0.6884
202.2344	0.5535
202.4519	0.6985
202.6694	0.6699
202.8868	0.6318
203.1042	0.7746
203.3217	0.6934
203.5391	0.664
203.7565	0.6703
203.9739	0.6556
204.1913	0.6174
204.4086	0.7322
204.626	0.7483
204.8433	0.7618
205.0607	0.5451
205.278	0.6297
205.4953	0.5595
205.7126	0.676
205.9299	0.7256
206.1472	0.6674
206.3644	0.6536
206.5817	0.6877
206.7989	0.7768
207.0162	0.6062
207.2334	0.6266
207.4506	0.6221
207.6678	0.67
207.885	0.7006
208.1022	0.6307
208.3194	0.6221
208.5365	0.6916
208.7537	0.6581
208.9708	0.5877
209.1879	0.6336
209.405	0.6656
209.6222	0.6823
209.8392	0.6179
210.0563	0.6008
210.2734	0.6482
210.4905	0.6273
210.7075	0.6626
210.9245	0.6052
211.1416	0.6528
211.3586	0.6224
211.5756	0.6112
211.7926	0.6043
212.0096	0.5837
212.2265	0.5785
212.4435	0.5631
212.6604	0.6454
212.8774	0.5589
213.0943	0.6324
213.3112	0.5954
213.5281	0.5422
213.745	0.5145
213.9619	0.5083
214.1788	0.4942
214.3956	0.4614
214.6125	0.4858
214.8293	0.4557
215.0461	0.4601
215.2629	0.4527
215.4798	0.4661
215.6965	0.4325
215.9133	0.4688
216.1301	0.4409
216.3469	0.4383
216.5636	0.4154
216.7803	0.394
216.9971	0.433
217.2138	0.3984
217.4305	0.3717
217.6472	0.357
217.8639	0.396
218.0805	0.3574
218.2972	0.3325
218.5138	0.3162
218.7305	0.3223
218.9471	0.3454
219.1637	0.3147
219.3803	0.2861
219.5969	0.2674
219.8135	0.2406
220.0301	0.2751
220.2466	0.2688
220.4632	0.2816
220.6797	0.2542
220.8962	0.2627
221.1127	0.263
221.3292	0.2358
221.5457	0.2237
221.7622	0.2421
221.9787	0.2389
222.1951	0.2444
222.4116	0.2505
222.628	0.2511
222.8444	0.2651
223.0608	0.2587
223.2772	0.2355
223.4936	0.2523
223.71	0.2488
223.9264	0.2503
224.1427	0.258
224.3591	0.2459
224.5754	0.2558
224.7917	0.2524
225.008	0.2624
225.2243	0.2552
225.4406	0.287
225.6569	0.2522
225.8732	0.2599
226.0894	0.2607
226.3057	0.2656
226.5219	0.2876
226.7381	0.2711
226.9543	0.2879
227.1705	0.2734
227.3867	0.2639
227.6029	0.2864
227.8191	0.3053
228.0352	0.2937
228.2513	0.3111
228.4675	0.3214
228.6836	0.3052
228.8997	0.3063
229.1158	0.2807
229.3319	0.3008
229.548	0.3001
229.764	0.3358
229.9801	0.3295
230.1961	0.319
230.4121	0.3179
230.6282	0.3364
230.8442	0.3134
231.0602	0.3357
231.2761	0.3355
231.4921	0.3459
231.7081	0.3508
231.924	0.3481
232.14	0.3577
232.3559	0.3384
232.5718	0.3548
232.7877	0.366
233.0036	0.3509
233.2195	0.3642
233.4353	0.3684
233.6512	0.3645
233.867	0.3647
234.0829	0.3618
234.2987	0.3705
234.5145	0.3693
234.7303	0.3916
234.9461	0.3861
235.1619	0.3804
235.3776	0.3858
235.5934	0.3719
235.8091	0.3721
236.0249	0.3688
236.2406	0.3821
236.4563	0.3867
236.672	0.3948
236.8877	0.3858
237.1034	0.3874
237.319	0.3909
237.5347	0.3997
237.7503	0.3977
237.966	0.4114
238.1816	0.399
238.3972	0.3892
238.6128	0.3842
238.8284	0.4025
239.0439	0.3988
239.2595	0.4121
239.475	0.4203
239.6906	0.4075
239.9061	0.4209
240.1216	0.4005
240.3371	0.4147
240.5526	0.3973
240.7681	0.4118
240.9836	0.3912
241.199	0.4126
241.4145	0.3928
241.6299	0.3802
241.8453	0.3691
242.0607	0.3937
242.2761	0.3646
242.4915	0.3717
242.7069	0.3673
242.9223	0.369
243.1376	0.3683
243.353	0.3814
243.5683	0.3454
243.7836	0.3458
243.9989	0.3486
244.2142	0.3207
244.4295	0.3314
244.6448	0.3233
244.86	0.2958
245.0753	0.3043
245.2905	0.307
245.5057	0.278
245.721	0.2729
245.9362	0.2961
246.1514	0.2762
246.3665	0.2776
246.5817	0.2878
246.7969	0.2706
247.012	0.2665
247.2271	0.246
247.4423	0.2503
247.6574	0.2417
247.8725	0.2411
248.0876	0.2341
248.3026	0.25
248.5177	0.2458
248.7328	0.2235
248.9478	0.2085
249.1628	0.2205
249.3779	0.2325
249.5929	0.2127
249.8079	0.2216
250.0228	0.2165
250.2378	0.2132
250.4528	0.2153
250.6677	0.2017
250.8827	0.2237
251.0976	0.1996
251.3125	0.1919
251.5274	0.1705
251.7423	0.1964
251.9572	0.1981
252.172	0.1937
252.3869	0.1864
252.6017	0.1871
252.8166	0.164
253.0314	0.1703
253.2462	0.1768
253.461	0.1836
253.6758	0.1782
253.8906	0.1907
254.1053	0.1759
254.3201	0.1705
254.5348	0.1877
254.7496	0.193
254.9643	0.1643
255.179	0.1746
255.3937	0.1714
255.6083	0.18
255.823	0.1761
256.0377	0.1556
256.2523	0.1779
256.467	0.1551
256.6816	0.1783
256.8962	0.181
257.1108	0.1682
257.3254	0.1732
257.54	0.1648
257.7545	0.1672
257.9691	0.1833
258.1836	0.1749
258.3981	0.1651
258.6127	0.1647
258.8272	0.1706
259.0417	0.1625
259.2561	0.1679
259.4706	0.1685
259.6851	0.1686
259.8995	0.1739
260.114	0.1621
260.3284	0.1645
260.5428	0.1687
260.7572	0.1804
260.9716	0.1717
261.186	0.1747
261.4003	0.1549
261.6147	0.1652
261.829	0.1642
262.0433	0.1708
262.2577	0.1784
262.472	0.1757
262.6863	0.16
262.9005	0.1665
263.1148	0.1757
263.3291	0.1637
263.5433	0.1751
263.7576	0.1769
263.9718	0.168
264.186	0.1583
264.4002	0.1696
264.6144	0.1604
264.8286	0.1872
265.0427	0.1722
265.2569	0.1542
265.471	0.1688
265.6851	0.1646
265.8993	0.1561
266.1134	0.1691
266.3275	0.1736
266.5415	0.1687
266.7556	0.1687
266.9697	0.1763
267.1837	0.1722
267.3978	0.175
267.6118	0.1845
267.8258	0.1819
268.0398	0.1558
268.2538	0.1853
268.4677	0.1817
268.6817	0.173
268.8957	0.1771
269.1096	0.1688
269.3235	0.1808
269.5374	0.1656
269.7514	0.157
269.9652	0.1614
270.1791	0.1683
270.393	0.1649
270.6068	0.1777
270.8207	0.1574
271.0345	0.162
271.2483	0.1568
271.4622	0.1657
271.676	0.173
271.8897	0.1534
272.1035	0.1485
272.3173	0.1628
272.531	0.1485
272.7448	0.1494
272.9585	0.146
273.1722	0.1588
273.3859	0.1542
273.5996	0.143
273.8133	0.1572
274.0269	0.1444
274.2406	0.1443
274.4542	0.1436
274.6679	0.1467
274.8815	0.1589
275.0951	0.1673
275.3087	0.1665
275.5223	0.1605
275.7358	0.1628
275.9494	0.16
276.1629	0.1629
276.3765	0.1522
276.59	0.1651
276.8035	0.1652
277.017	0.1581
277.2305	0.151
277.444	0.1653
277.6574	0.1541
277.8709	0.1659
278.0843	0.1566
278.2978	0.1554
278.5112	0.1528
278.7246	0.1595
278.938	0.1726
279.1513	0.1684
279.3647	0.1814
279.5781	0.1685
279.7914	0.1614
280.0047	0.1611
280.2181	0.1586
280.4314	0.1666
280.6447	0.1739
280.8579	0.1539
281.0712	0.1774
281.2845	0.1592
281.4977	0.1563
281.711	0.1467
281.9242	0.1599
282.1374	0.1763
282.3506	0.1618
282.5638	0.1719
282.7769	0.1672
282.9901	0.1652
283.2033	0.1833
283.4164	0.1765
283.6295	0.1611
283.8426	0.1616
284.0557	0.1706
284.2688	0.1821
284.4819	0.169
284.695	0.1575
284.908	0.1654
285.1211	0.1641
285.3341	0.1638
285.5471	0.1611
285.7601	0.1615
285.9731	0.1556
286.1861	0.1537
286.3991	0.1666
286.612	0.1611
286.825	0.1674
287.0379	0.1733
287.2508	0.17
287.4637	0.1723
287.6766	0.1579
287.8895	0.1712
288.1024	0.1794
288.3152	0.1619
288.5281	0.1502
288.7409	0.1564
288.9538	0.1474
289.1666	0.1579
289.3794	0.1622
289.5922	0.1586
289.8049	0.1559
290.0177	0.1509
290.2304	0.1663
290.4432	0.1599
290.6559	0.1735
290.8686	0.1661
291.0813	0.1665
291.294	0.1677
291.5067	0.1647
291.7194	0.1592
291.932	0.1868
292.1447	0.1606
292.3573	0.1535
292.5699	0.1524
292.7825	0.164
292.9951	0.1632
293.2077	0.1607
293.4203	0.1593
293.6328	0.1492
293.8454	0.1538
294.0579	0.1548
294.2704	0.1603
294.4829	0.1471
294.6954	0.158
294.9079	0.1669
295.1204	0.1463
295.3328	0.1542
295.5453	0.158
295.7577	0.1537
295.9701	0.1498
296.1825	0.158
296.3949	0.1509
296.6073	0.1562
296.8197	0.1461
297.0321	0.161
297.2444	0.142
297.4567	0.1536
297.6691	0.1441
297.8814	0.1448
298.0937	0.1496
298.306	0.1534
298.5182	0.152
298.7305	0.1644
298.9428	0.1439
299.155	0.154
299.3672	0.156
299.5794	0.1421
299.7916	0.1445
300.0038	0.1658
300.216	0.1553
300.4282	0.1541
300.6403	0.1571
300.8525	0.1627
301.0646	0.15
301.2767	0.1549
301.4888	0.1504
301.7009	0.1531
301.913	0.1586
302.125	0.1596
302.3371	0.1471
302.5491	0.1592
302.7612	0.1576
302.9732	0.1563
303.1852	0.1582
303.3972	0.1544
303.6092	0.1432
303.8211	0.1477
304.0331	0.1485
304.245	0.1443
304.457	0.1417
304.6689	0.141
304.8808	0.155
305.0927	0.1438
305.3046	0.1421
305.5164	0.152
305.7283	0.1419
305.9401	0.1411
306.152	0.1415
306.3638	0.1447
306.5756	0.1328
306.7874	0.1383
306.9992	0.1411
307.2109	0.1402
307.4227	0.1222
307.6344	0.1414
307.8462	0.1317
308.0579	0.1343
308.2696	0.1354
308.4813	0.1268
308.693	0.1318
308.9046	0.1434
309.1163	0.1256
309.328	0.1217
309.5396	0.1203
309.7512	0.1175
309.9628	0.1195
310.1744	0.1253
310.386	0.117
310.5976	0.1179
310.8091	0.1324
311.0207	0.1184
311.2322	0.1215
311.4437	0.1114
311.6552	0.1227
311.8667	0.1278
312.0782	0.1077
312.2897	0.1062
312.5012	0.1222
312.7126	0.1091
312.924	0.1069
313.1355	0.1272
313.3469	0.1132
313.5583	0.1152
313.7696	0.1157
313.981	0.1271
314.1924	0.117
314.4037	0.109
314.6151	0.1177
314.8264	0.1104
315.0377	0.1095
315.249	0.1057
315.4603	0.1133
315.6716	0.1078
315.8828	0.0946
316.0941	0.0972
316.3053	0.1051
316.5165	0.0998
316.7277	0.0941
316.9389	0.1112
317.1501	0.0984
317.3613	0.1047
317.5724	0.1028
317.7836	0.1136
317.9947	0.099
318.2058	0.1052
318.417	0.0984
318.6281	0.0879
318.8391	0.1081
319.0502	0.1022
319.2613	0.1042
319.4723	0.1081
319.6834	0.1122
319.8944	0.0984
320.1054	0.1118
320.3164	0.1102
320.5274	0.0919
320.7383	0.0994
320.9493	0.1137
321.1602	0.1181
321.3712	0.1016
321.5821	0.1016
321.793	0.1167
322.0039	0.1064
322.2148	0.109
322.4257	0.1083
322.6365	0.1186
322.8474	0.1106
323.0582	0.0973
323.269	0.101
323.4798	0.1181
323.6906	0.1043
323.9014	0.1222
324.1122	0.1193
324.3229	0.1182
324.5337	0.1165
324.7444	0.0908
324.9551	0.1215
325.1658	0.1101
325.3765	0.1163
325.5872	0.1103
325.7979	0.106
326.0085	0.1106
326.2192	0.1222
326.4298	0.1175
326.6404	0.1037
326.851	0.1053
327.0616	0.1082
327.2722	0.1189
327.4828	0.1154
327.6933	0.1162
327.9039	0.1139
328.1144	0.1189
328.3249	0.1114
328.5354	0.1038
328.7459	0.1196
328.9564	0.1151
329.1669	0.1177
329.3773	0.1167
329.5878	0.1149
329.7982	0.1193
330.0086	0.1002
330.219	0.1244
330.4294	0.1175
330.6398	0.1001
330.8502	0.1003
331.0605	0.1119
331.2708	0.1171
331.4812	0.1267
331.6915	0.1161
331.9018	0.1027
332.1121	0.1159
332.3224	0.126
332.5326	0.1226
332.7429	0.1193
332.9531	0.1209
333.1633	0.127
333.3735	0.1146
333.5837	0.1173
333.7939	0.1118
334.0041	0.1338
334.2143	0.1336
334.4244	0.1242
334.6346	0.1012
334.8447	0.1214
335.0548	0.1176
335.2649	0.1125
335.475	0.1259
335.685	0.1132
335.8951	0.1234
336.1051	0.1199
336.3152	0.1205
336.5252	0.1275
336.7352	0.1212
336.9452	0.1208
337.1552	0.1168
337.3652	0.1202
337.5751	0.1208
337.7851	0.1318
337.995	0.1117
338.2049	0.1195
338.4148	0.1202
338.6247	0.1157
338.8346	0.1218
339.0445	0.1212
339.2543	0.1142
339.4642	0.1147
339.674	0.1251
339.8838	0.122
340.0936	0.128
340.3034	0.1293
340.5132	0.128
340.7229	0.129
340.9327	0.1324
341.1424	0.1228
341.3522	0.1389
341.5619	0.1197
341.7716	0.1207
341.9813	0.1241
342.1909	0.1343
342.4006	0.1325
342.6102	0.1344
342.8199	0.1235
343.0295	0.1268
343.2391	0.1439
343.4487	0.1389
343.6583	0.1263
343.8679	0.1318
344.0774	0.1246
344.287	0.1384
344.4965	0.1287
344.706	0.1384
344.9155	0.1305
345.125	0.1299
345.3345	0.1454
345.544	0.1263
345.7534	0.1316
345.9629	0.1311
346.1723	0.1465
346.3817	0.1343
346.5911	0.1321
346.8005	0.1395
347.0099	0.1277
347.2193	0.1364
347.4286	0.1432
347.638	0.1454
347.8473	0.1307
348.0566	0.1498
348.2659	0.138
348.4752	0.1383
348.6845	0.137
348.8937	0.1381
349.103	0.1478
349.3122	0.128
349.5214	0.139
349.7306	0.1532
349.9398	0.145
350.149	0.1392
350.3582	0.1427
350.5674	0.1623
350.7765	0.1502
350.9856	0.1327
351.1948	0.1506
351.4039	0.1406
351.613	0.1306
351.822	0.1535
352.0311	0.1341
352.2402	0.1436
352.4492	0.1475
352.6582	0.1591
352.8672	0.1506
353.0762	0.1489
353.2852	0.1497
353.4942	0.1515
353.7032	0.1648
353.9121	0.1502
354.1211	0.1527
354.33	0.1465
354.5389	0.1545
354.7478	0.158
354.9567	0.145
355.1655	0.1503
355.3744	0.1571
355.5833	0.1703
355.7921	0.1788
356.0009	0.1405
356.2097	0.1578
356.4185	0.1579
356.6273	0.1683
356.8361	0.1474
357.0448	0.1656
357.2536	0.1548
357.4623	0.1491
357.671	0.17
357.8797	0.1746
358.0884	0.1682
358.2971	0.1607
358.5057	0.1617
358.7144	0.1766
358.923	0.1584
359.1316	0.1689
359.3402	0.1633
359.5488	0.1771
359.7574	0.1651
359.966	0.1727
360.1746	0.1725
360.3831	0.1791
360.5916	0.1558
360.8002	0.1662
361.0087	0.1809
361.2172	0.1665
361.4256	0.1685
361.6341	0.1901
361.8426	0.1755
362.051	0.1799
362.2594	0.1819
362.4678	0.164
362.6762	0.2051
362.8846	0.1858
363.093	0.174
363.3014	0.1747
363.5097	0.1535
363.718	0.1787
363.9264	0.177
364.1347	0.1806
364.343	0.1991
364.5513	0.1811
364.7595	0.1803
364.9678	0.1969
365.176	0.2017
365.3842	0.2002
365.5925	0.1819
365.8007	0.1889
366.0089	0.196
366.217	0.1817
366.4252	0.1804
366.6333	0.1963
366.8415	0.1704
367.0496	0.1779
367.2577	0.1906
367.4658	0.2083
367.6739	0.1956
367.882	0.1889
368.09	0.188
368.2981	0.1993
368.5061	0.1879
368.7141	0.2029
368.9221	0.2072
369.1301	0.2005
369.3381	0.1945
369.5461	0.1964
369.754	0.2075
369.962	0.2083
370.1699	0.2015
370.3778	0.2023
370.5857	0.2023
370.7936	0.1943
371.0015	0.1973
371.2093	0.1982
371.4172	0.224
371.625	0.1894
371.8328	0.1969
372.0406	0.1961
372.2484	0.2152
372.4562	0.1948
372.664	0.2045
372.8717	0.2132
373.0795	0.194
373.2872	0.1997
373.4949	0.1935
373.7026	0.2083
373.9103	0.2156
374.118	0.2085
374.3256	0.2005
374.5333	0.2047
374.7409	0.2057
374.9485	0.2092
375.1561	0.2107
375.3637	0.2256
375.5713	0.2105
375.7789	0.211
375.9864	0.2204
376.194	0.2015
376.4015	0.213
376.609	0.2077
376.8165	0.2188
377.024	0.2005
377.2315	0.2051
377.4389	0.2272
377.6464	0.2171
377.8538	0.2292
378.0612	0.2303
378.2686	0.2152
378.476	0.2258
378.6834	0.2329
378.8908	0.2212
379.0981	0.2313
379.3055	0.2184
379.5128	0.2188
379.7201	0.2237
379.9274	0.2087
380.1347	0.2189
380.342	0.2456
380.5492	0.2184
380.7565	0.2302
380.9637	0.2154
381.1709	0.2187
381.3781	0.2303
381.5853	0.221
381.7925	0.2235
381.9997	0.2284
382.2068	0.2399
382.4139	0.227
382.6211	0.2144
382.8282	0.2178
383.0353	0.2288
383.2424	0.2251
383.4494	0.2131
383.6565	0.2243
383.8635	0.2167
384.0706	0.2031
384.2776	0.2262
384.4846	0.2367
384.6916	0.2244
384.8986	0.2348
385.1055	0.2231
385.3125	0.2225
385.5194	0.2132
385.7263	0.2408
385.9333	0.2128
386.1402	0.243
386.347	0.2195
386.5539	0.222
386.7608	0.2288
386.9676	0.2111
387.1744	0.22
387.3813	0.2071
387.5881	0.2318
387.7948	0.221
388.0016	0.2128
388.2084	0.213
388.4151	0.2032
388.6219	0.2142
388.8286	0.2187
389.0353	0.2286
389.242	0.2234
389.4487	0.213
389.6553	0.2186
389.862	0.1951
390.0686	0.2124
390.2753	0.2185
390.4819	0.2101
390.6885	0.2127
390.8951	0.222
391.1016	0.2065
391.3082	0.2024
391.5147	0.205
391.7213	0.2082
391.9278	0.1927
392.1343	0.2021
392.3408	0.191
392.5473	0.2015
392.7537	0.1971
392.9602	0.2175
393.1666	0.2038
393.373	0.1836
393.5794	0.2051
393.7858	0.1936
393.9922	0.1817
394.1986	0.2023
394.4049	0.201
394.6113	0.1904
394.8176	0.1934
395.0239	0.1836
395.2302	0.1823
395.4365	0.1849
395.6428	0.1861
395.8491	0.1856
396.0553	0.1825
396.2615	0.1944
396.4678	0.1996
396.674	0.1882
396.8802	0.1844
397.0863	0.2008
397.2925	0.1743
397.4987	0.1773
397.7048	0.1806
397.9109	0.1795
398.117	0.1734
398.3231	0.1767
398.5292	0.1888
398.7353	0.2059
398.9413	0.1872
399.1474	0.1975
399.3534	0.1915
399.5594	0.1665
399.7654	0.1998
399.9714	0.1871
400.1774	0.1793
400.3833	0.1819
400.5893	0.1844
400.7952	0.1809
401.0011	0.1923
401.207	0.1892
401.4129	0.1727
401.6188	0.193
401.8247	0.1911
402.0305	0.1855
402.2364	0.1834
402.4422	0.1905
402.648	0.1948
402.8538	0.1996
403.0596	0.1894
403.2654	0.1893
403.4711	0.1749
403.6768	0.1878
403.8826	0.1824
404.0883	0.1843
404.294	0.1922
404.4997	0.188
404.7054	0.1828
404.911	0.1612
405.1167	0.1724
405.3223	0.1947
405.5279	0.1729
405.7335	0.1769
405.9391	0.182
406.1447	0.1782
406.3502	0.1947
406.5558	0.1781
406.7613	0.183
406.9668	0.1834
407.1724	0.1848
407.3778	0.1777
407.5833	0.1873
407.7888	0.1755
407.9942	0.1905
408.1997	0.1922
408.4051	0.175
408.6105	0.1808
408.8159	0.1609
409.0213	0.1772
409.2267	0.1987
409.432	0.1576
409.6374	0.1732
409.8427	0.1752
410.048	0.1709
410.2533	0.1784
410.4586	0.1835
410.6639	0.1759
410.8691	0.1817
411.0744	0.1752
411.2796	0.1788
411.4848	0.1806
411.69	0.1773
411.8952	0.1969
412.1004	0.1771
412.3056	0.1676
412.5107	0.175
412.7158	0.1839
412.921	0.1732
413.1261	0.1648
413.3312	0.1541
413.5362	0.1586
413.7413	0.1739
413.9464	0.1841
414.1514	0.1648
414.3564	0.1619
414.5614	0.1587
414.7664	0.159
414.9714	0.1823
415.1764	0.1712
415.3813	0.1766
415.5863	0.1776
415.7912	0.1781
415.9961	0.1814
416.201	0.1719
416.4059	0.1785
416.6108	0.1661
416.8156	0.1735
417.0205	0.165
417.2253	0.1495
417.4301	0.1864
417.6349	0.1637
417.8397	0.1759
418.0445	0.1798
418.2492	0.1853
418.454	0.1614
418.6587	0.1772
418.8634	0.1603
419.0681	0.1493
419.2728	0.1591
419.4775	0.174
419.6822	0.14
419.8868	0.1418
420.0915	0.1499
420.2961	0.1357
420.5007	0.1515
420.7053	0.1596
420.9099	0.1613
421.1144	0.1538
421.319	0.1538
421.5235	0.1605
421.728	0.1689
421.9325	0.153
422.137	0.1557
422.3415	0.1487
422.546	0.1578
422.7504	0.1695
422.9549	0.1623
423.1593	0.1746
423.3637	0.1523
423.5681	0.1558
423.7725	0.1472
423.9769	0.1533
424.1812	0.1467
424.3856	0.1508
424.5899	0.1636
424.7942	0.1423
424.9985	0.1357
425.2028	0.1343
425.4071	0.1818
425.6113	0.1369
425.8156	0.1458
426.0198	0.1511
426.224	0.1326
426.4282	0.1366
426.6324	0.1315
426.8366	0.1529
427.0407	0.1268
427.2449	0.144
427.449	0.155
427.6531	0.1298
427.8572	0.1363
428.0613	0.1362
428.2654	0.1214
428.4694	0.1312
428.6735	0.1371
428.8775	0.1454
429.0815	0.1334
429.2855	0.1219
429.4895	0.1317
429.6935	0.1259
429.8975	0.143
430.1014	0.1328
430.3053	0.1113
430.5093	0.1248
430.7132	0.1165
430.9171	0.1135
431.1209	0.1236
431.3248	0.1174
431.5286	0.1418
431.7325	0.1141
431.9363	0.101
432.1401	0.112
432.3439	0.11
432.5477	0.0936
432.7514	0.086
432.9552	0.1095
433.1589	0.1069
433.3627	0.1049
433.5664	0.0974
433.7701	0.1017
433.9737	0.0901
434.1774	0.088
434.3811	0.0997
434.5847	0.0996
434.7883	0.0872
434.9919	0.0849
435.1955	0.0922
435.3991	0.0832
435.6027	0.1007
435.8062	0.0786
436.0098	0.0772
436.2133	0.0923
436.4168	0.0688
436.6203	0.0803
436.8238	0.1003
437.0272	0.0807
437.2307	0.0799
437.4341	0.088
437.6375	0.0717
437.841	0.057
438.0443	0.0826
438.2477	0.0709
438.4511	0.0642
438.6545	0.077
438.8578	0.0916
439.0611	0.0685
439.2644	0.0638
439.4677	0.0774
439.671	0.0539
439.8743	0.076
440.0775	0.0708
440.2808	0.0618
440.484	0.0509
440.6872	0.0435
440.8904	0.0444
441.0936	0.0695
441.2967	0.0565
441.4999	0.0645
441.703	0.0629
441.9062	0.0533
442.1093	0.0623
442.3124	0.0577
442.5155	0.0211
442.7185	0.0619
442.9216	0.0204
443.1246	0.0606
443.3276	0.0388
443.5307	0.0571
443.7337	0.055
443.9366	0.0521
444.1396	0.0488
444.3426	0.0408
444.5455	0.0355
444.7484	0.0381
444.9513	0.0466
445.1542	0.0459
445.3571	0.0237
445.56	0.0371
445.7628	0.0347
445.9657	0.0317
446.1685	0.0489
446.3713	0.0352
446.5741	0.0439
446.7769	0.0262
446.9797	0.0351
447.1824	0.0361
447.3852	0.0284
447.5879	0.0342
447.7906	0.0292
447.9933	0.0344
448.196	0.017
448.3986	0.0261
448.6013	0.0201
448.8039	0.0142
449.0066	0.0179
449.2092	0.0404
449.4118	0.0351
449.6143	0.0338
449.8169	0.0197
450.0195	0.0243
450.222	-0.0022
450.4245	0.0228
450.627	0.0167
450.8295	0.0264
451.032	0.0249
451.2345	0.0171
451.4369	0.0282
451.6394	0.0257
451.8418	0.0136
452.0442	0.0166
452.2466	0.0137
452.449	0.0044
452.6513	0.0154
452.8537	0.0156
453.056	0.0093
453.2583	0.0141
453.4607	0.0173
453.663	0.0161
453.8652	0.0217
454.0675	0.0096
454.2697	0.0164
454.472	-0.0095
454.6742	0.0036
454.8764	0.0099
455.0786	0.0178
455.2808	0.0145
455.4829	0.0052
455.6851	0.0353
455.8872	0.0129
456.0893	0.0172
456.2915	-0.0134
456.4935	0.0137
456.6956	-0.0041
456.8977	0.0038
457.0997	-0.0023
457.3018	-0.0109
457.5038	0.0159
457.7058	0.0045
457.9078	0.0168
458.1098	0.0158
458.3117	0.0158
458.5137	0.0142
458.7156	0.0064
458.9175	-0.0105
459.1194	0.006
459.3213	-0.0097
459.5232	-0.0076
459.725	-0.0065
459.9269	0.0018
460.1287	0.0025
460.3305	-0.0028
460.5323	0.0011
460.7341	0.005
460.9359	0.0058
461.1376	0.0097
461.3394	-0.0189
461.5411	0.014
461.7428	-0.0087
461.9445	0.0115
462.1462	0.0141
462.3479	-0.0114
462.5495	0.0098
462.7512	0.001
462.9528	-0.0084
463.1544	-0.013
463.356	0.0109
463.5576	-0.0161
463.7592	-0.0189
463.9607	0.0039
464.1623	0.0017
464.3638	0.0206
464.5653	-0.0066
464.7668	-0.0036
464.9683	0.0081
465.1697	0.0198
465.3712	-0.0119
465.5726	-0.0191
465.7741	0.0052
465.9755	-0.0152
466.1769	-0.003
466.3782	0.005
466.5796	-0.014
466.7809	0.0129
466.9823	0.0024
467.1836	-0.0034
467.3849	0.0039
467.5862	0.0019
467.7875	-0.009
467.9887	0.011
468.19	-0.0063
468.3912	-0.0232
468.5924	-0.0159
468.7936	-0.0048
468.9948	-0.009
469.196	-0.0087
469.3972	-0.0275
469.5983	0.017
469.7994	-0.0245
470.0006	-0.0149
470.2017	-0.0104
470.4027	0.0001
470.6038	-0.0068
470.8049	-0.0176
471.0059	-0.009
471.2069	-0.0104
471.408	0.0026
471.6089	0.0034
471.8099	-0.0032
472.0109	0.006
472.2119	-0.0205
472.4128	-0.0144
472.6137	0.0067
472.8146	-0.0202
473.0155	0.0033
473.2164	-0.0105
473.4173	-0.0062
473.6181	0.0039
473.819	-0.0082
474.0198	-0.0085
474.2206	-0.0083
474.4214	-0.0145
474.6222	-0.0024
474.8229	-0.0063
475.0237	-0.015
475.2244	-0.0006
475.4251	-0.0067
475.6258	-0.0004
475.8265	0.0049
476.0272	0.0024
476.2278	-0.01
476.4285	-0.0012
476.6291	-0.0097
476.8297	-0.0056
477.0303	-0.0127
477.2309	-0.0041
477.4315	-0.0127
477.632	0.0005
477.8326	-0.0049
478.0331	-0.0102
478.2336	0.006
478.4341	-0.0093
478.6346	-0.0158
478.8351	-0.0004
479.0355	0.0004
479.236	-0.0013
479.4364	-0.0021
479.6368	-0.0008
479.8372	-0.0149
480.0376	-0.0071
480.2379	-0.03
480.4383	-0.0096
480.6386	-0.0009
480.8389	-0.0034
481.0392	-0.0188
481.2395	-0.0056
481.4398	0.0033
481.6401	0.0009
481.8403	-0.0097
482.0405	-0.0048
482.2408	-0.005
482.441	0.0014
482.6411	-0.0076
482.8413	-0.0203
483.0415	-0.0126
483.2416	-0.0212
483.4417	-0.0097
483.6419	-0.0088
483.8419	-0.0126
484.042	0.0099
484.2421	0.0055
484.4422	-0.0064
484.6422	-0.008
484.8422	-0.0053
485.0422	-0.0014
485.2422	0.0059
485.4422	-0.0137
485.6422	-0.0094
485.8421	-0.0115
486.042	-0.0095
486.242	-0.0107
486.4419	-0.0092
486.6417	-0.0101
486.8416	-0.0066
487.0415	-0.0039
487.2413	-0.0015
487.4411	-0.0024
487.641	-0.0203
487.8408	-0.0053
488.0405	-0.0103
488.2403	-0.008
488.4401	-0.0063
488.6398	-0.011
488.8395	-0.0065
489.0392	-0.01
489.2389	-0.004
489.4386	-0.0136
489.6383	-0.0134
489.8379	-0.0108
490.0376	-0.0093
490.2372	-0.0125
490.4368	-0.0148
490.6364	-0.0192
490.836	-0.0204
491.0355	-0.0084
491.2351	-0.0082
491.4346	-0.0132
491.6341	-0.0167
491.8336	-0.0025
492.0331	-0.0253
492.2326	-0.0142
492.432	-0.0011
492.6315	-0.0093
492.8309	-0.0078
493.0303	-0.0206
493.2297	-0.0204
493.4291	0.0027
493.6284	-0.0084
493.8278	-0.0066
494.0271	-0.0107
494.2264	0.0063
494.4257	-0.0208
494.625	-0.0083
494.8243	-0.013
495.0236	-0.0188
495.2228	-0.0181
495.422	-0.004
495.6213	-0.0213
495.8205	-0.012
496.0196	-0.0132
496.2188	-0.0107
496.418	-0.0112
496.6171	-0.0091
496.8162	-0.0077
497.0153	-0.0083
497.2144	-0.01
497.4135	-0.0014
497.6126	-0.0189
497.8116	-0.0077
498.0107	-0.0039
498.2097	-0.0136
498.4087	-0.0193
498.6077	-0.0073
498.8067	-0.0143
499.0056	-0.0089
499.2046	-0.0154
499.4035	-0.0177
499.6024	-0.0068
499.8013	-0.0165
500.0002	-0.0063
500.199	-0.0201
500.3979	-0.0152
500.5967	-0.0157
500.7956	-0.0107
500.9944	-0.0113
501.1932	-0.0181
501.3919	-0.0208
501.5907	-0.019
501.7895	-0.0082
501.9882	-0.0141
502.1869	-0.0107
502.3856	-0.0106
502.5843	-0.0113
502.783	-0.0135
502.9816	-0.01
503.1803	-0.0212
503.3789	-0.019
503.5775	-0.0023
503.7761	-0.0108
503.9747	-0.0053
504.1732	-0.0098
504.3718	-0.0062
504.5703	-0.0021
504.7689	-0.0183
504.9674	-0.0074
505.1658	-0.0193
505.3643	-0.0022
505.5628	-0.0043
505.7612	-0.0131
505.9597	-0
506.1581	-0.0155
506.3565	0.0002
506.5549	-0.0069
506.7532	-0.0154
506.9516	-0.0078
507.1499	-0.0149
507.3482	-0.0193
507.5465	-0.0233
507.7448	0.0025
507.9431	-0.0116
508.1414	-0.0024
508.3396	-0.0079
508.5379	-0.0109
508.7361	-0.0148
508.9343	-0.0071
509.1325	-0.0097
509.3306	-0.0209
509.5288	-0.0069
509.7269	-0.0116
509.9251	-0.0146
510.1232	-0.0155
510.3213	-0.0043
510.5193	-0.0033
510.7174	-0.0143
510.9154	-0.0112
511.1135	-0.0131
511.3115	-0.0173
511.5095	-0.004
511.7075	-0.0144
511.9055	-0.0096
512.1034	-0.0127
512.3014	-0.0011
512.4993	-0.0055
512.6972	-0.0049
512.8951	-0.0169
513.093	-0.0048
513.2908	-0.0143
513.4887	-0.0165
513.6865	-0.017
513.8844	-0.009
514.0822	-0.0169
514.2799	-0.0099
514.4777	-0.0237
514.6755	-0.0151
514.8732	-0.018
515.0709	-0.0079
515.2687	-0.0113
515.4664	-0.0116
515.664	-0.0114
515.8617	-0.0105
516.0594	-0.0223
516.257	-0.0073
516.4546	-0.0206
516.6522	-0.0035
516.8498	-0.01
517.0474	-0.0039
517.2449	0.001
517.4425	-0.0173
517.64	-0.0128
517.8375	-0.0124
518.035	-0.0035
518.2325	-0.0158
518.43	-0.0023
518.6274	-0.0186
518.8249	-0.0222
519.0223	-0.0055
519.2197	-0.0134
519.4171	-0.0098
519.6145	-0.0076
519.8118	-0.0074
520.0092	-0.008
520.2065	-0.0058
520.4038	-0.0153
520.6011	-0.0016
520.7984	-0.0243
520.9956	-0.0135
521.1929	-0.0118
521.3901	0.0019
521.5874	-0.0061
521.7846	-0.0111
521.9818	-0.0087
522.1789	-0.0118
522.3761	-0.0102
522.5732	-0.0056
522.7704	-0.0125
522.9675	-0.0121
523.1646	-0.0194
523.3617	-0.0104
523.5587	-0.0137
523.7558	-0.007
523.9528	-0.0165
524.1498	-0.002
524.3468	-0.0166
524.5438	-0.0128
524.7408	-0.0112
524.9378	0.001
525.1347	-0.0036
525.3316	-0.0057
525.5285	-0.0145
525.7254	-0.0163
525.9223	-0.0047
526.1192	-0.0019
526.316	-0.0157
526.5129	-0.0007
526.7097	-0.0023
526.9065	-0.001
527.1033	-0.0082
527.3	0.0047
527.4968	-0.0024
527.6935	-0.0029
527.8903	-0.0164
528.087	-0.0061
528.2837	-0.0069
528.4804	0.0069
528.677	-0.0142
528.8737	0.0089
529.0703	-0.0004
529.2669	-0.0075
529.4635	-0.0082
529.6601	-0.0084
529.8567	-0.004
530.0532	-0.006
530.2498	0.002
530.4463	0.0046
530.6428	-0.0118
530.8393	0.0091
531.0358	-0.0045
531.2322	-0.0022
531.4287	-0.0087
531.6251	-0.0102
531.8215	-0.0006
532.0179	-0.0073
532.2143	0.0004
532.4107	-0.0121
532.607	-0.0024
532.8034	-0.0058
532.9997	-0.0106
533.196	-0.0062
533.3923	-0.0067
533.5886	0.0005
533.7848	-0.0043
533.9811	-0.0163
534.1773	-0.0063
534.3735	0.0081
534.5697	-0.0152
534.7659	-0.0045
534.9621	-0.0039
535.1582	-0.0174
535.3544	-0.0162
535.5505	-0.0084
535.7466	-0.0119
535.9427	-0.0158
536.1387	-0.0141
536.3348	-0.0049
536.5308	0.0028
536.7269	-0.0198
536.9229	0.0016
537.1189	-0.0089
537.3148	-0.0076
537.5108	-0.0077
537.7068	-0.0096
537.9027	-0.0099
538.0986	0.0008
538.2945	-0.0129
538.4904	0.0003
538.6863	-0.0047
538.8821	-0.0103
539.078	-0.0095
539.2738	-0.0016
539.4696	-0.0007
539.6654	-0.0057
539.8611	0.0081
540.0569	-0.0065
540.2526	-0.0029
540.4484	-0.0012
540.6441	0.0035
540.8398	-0.0021
541.0355	-0.005
541.2311	-0.0036
541.4268	-0.0095
541.6224	-0.0002
541.818	-0
542.0136	-0.0046
542.2092	-0.0025
542.4048	0.0005
542.6003	-0.005
542.7959	-0.0038
542.9914	-0.0033
543.1869	0.0016
543.3824	-0.0095
543.5779	-0.0035
543.7734	-0.011
543.9688	-0.0085
544.1642	0.0017
544.3596	-0.0006
544.555	-0.0071
544.7504	-0.0051
544.9458	-0.0171
545.1411	-0.0031
545.3365	-0.0003
545.5318	-0.0087
545.7271	-0.0043
545.9224	-0.0006
546.1177	0.0017
546.3129	-0.0059
546.5081	-0.0162
546.7034	-0.0027
546.8986	-0.0104
547.0938	-0.0062
547.289	-0.0089
547.4841	-0.0011
547.6793	0.0081
547.8744	-0.012
548.0695	0.001
548.2646	-0.0139
548.4597	-0.0037
548.6548	0.0013
548.8498	-0.0016
549.0448	-0.0036
549.2399	0.0001
549.4349	-0.0039
549.6298	-0.0027
549.8248	-0.0002
550.0198	-0.0004
550.2147	-0.0042
550.4096	-0.0173
550.6045	-0.0013
550.7994	0.0046
550.9943	-0.0043
551.1892	-0.008
551.384	0.0054
551.5788	-0.0002
551.7737	-0.0048
551.9685	-0.001
552.1632	0.0014
552.358	-0.0042
552.5528	0.0068
552.7475	-0.0046
552.9422	-0.0031
553.1369	-0.002
553.3316	-0.0001
553.5263	-0.0058
553.7209	0.0058
553.9156	-0.0081
554.1102	0.0006
554.3048	-0.0046
554.4994	0.0091
554.694	-0.0057
554.8885	0.0017
555.0831	-0.0053
555.2776	-0.0131
555.4721	-0.0042
555.6666	-0.0013
555.8611	0.0041
556.0555	-0.0053
556.25	-0.0008
556.4444	-0.0078
556.6388	-0.0034
556.8332	-0.0003
557.0276	-0.0021
557.222	-0.0046
557.4163	-0.0073
557.6107	-0.0011
557.805	0.0069
557.9993	-0.0034
558.1936	-0.0024
558.3879	-0.0003
558.5821	-0.0013
558.7764	-0.0004
558.9706	0.0018
559.1648	0.0078
559.359	-0.0013
559.5532	-0.0074
559.7473	0.0032
559.9415	-0.0011
560.1356	-0.0066
560.3297	-0.0041
560.5238	-0.0041
560.7179	-0.0055
560.9119	-0.0002
561.106	0.0012
561.3	-0.0063
561.494	0.0009
561.688	0.0001
561.882	-0.0113
562.076	-0.0051
562.2699	0.0058
562.4639	0.0003
562.6578	0.003
562.8517	-0.0099
563.0456	0.0042
563.2395	0.0029
563.4333	-0.0055
563.6272	0.0059
563.821	-0.0081
564.0148	0.0028
564.2086	-0.0094
564.4024	-0.0065
564.5961	-0.0037
564.7899	0.004
564.9836	0.0017
565.1773	0.0011
565.371	0.006
565.5647	-0.0021
565.7584	-0.0002
565.952	0.0023
566.1456	-0.0054
566.3393	-0.0076
566.5329	-0.0034
566.7264	-0.0075
566.92	-0.012
567.1136	0.0034
567.3071	-0.0084
567.5006	0.0032
567.6941	-0.0048
567.8876	-0.0081
568.0811	-0.0023
568.2745	-0.0017
568.468	0.0043
568.6614	0.0089
568.8548	0.0029
569.0482	0.0012
569.2416	-0.0043
569.4349	0.0008
569.6283	0.0063
569.8216	-0.0017
570.0149	-0.0093
570.2082	0.0009
570.4015	0.001
570.5947	-0.0016
570.788	0.0018
570.9812	0.0019
571.1744	-0.004
571.3676	-0.0094
571.5608	-0.001
571.754	-0.0004
571.9471	-0.0005
572.1402	-0.0052
572.3333	-0.0023
572.5264	-0.0052
572.7195	0.0059
572.9126	-0.0018
573.1057	-0.003
573.2987	-0.0012
573.4917	-0.0038
573.6847	-0.0103
573.8777	0.0063
574.0707	0.0002
574.2636	-0.0047
574.4566	0.0001
574.6495	0.0044
574.8424	-0.0072
575.0353	-0.0063
575.2281	0.0019
575.421	0.0069
575.6138	0.0076
575.8067	-0.0024
575.9995	-0.0014
576.1923	0.0037
576.385	0.0016
576.5778	-0.0007
576.7706	-0.0087
576.9633	-0.0064
577.156	-0.0034
577.3487	-0.0035
577.5414	0.0009
577.734	-0.0027
577.9267	0.0012
578.1193	-0.0114
578.3119	-0.0083
578.5045	-0.007
578.6971	-0.0048
578.8897	-0.001
579.0822	0.0036
579.2747	-0.0028
579.4673	-0.0067
579.6598	-0.0059
579.8522	-0.0054
580.0447	0.0004
580.2372	-0.0044
580.4296	0.0038
580.622	-0.0046
580.8144	-0.0018
581.0068	-0.0075
581.1992	-0.0143
581.3915	-0.007
581.5839	-0.0139
581.7762	-0.0063
581.9685	-0.0093
582.1608	-0.0016
582.353	-0.0029
582.5453	0.0016
582.7375	0.0024
582.9298	0.0012
583.122	-0.0058
583.3142	-0.0038
583.5063	-0.0069
583.6985	-0.0019
583.8906	-0.0067
584.0827	-0.0053
584.2749	-0.0056
584.4669	-0.0012
584.659	-0.0032
584.8511	-0.0032
585.0431	-0.0067
585.2352	-0.0033
585.4272	-0.0011
585.6192	-0.0004
585.8111	0.0015
586.0031	0.004
586.195	-0.0034
586.387	0.0038
586.5789	-0.0005
586.7708	-0.003
586.9627	0.0048
587.1545	-0.0038
587.3464	0.0026
587.5382	0.0085
587.73	0.0015
587.9218	0.0057
588.1136	-0.0044
588.3053	0.0018
588.4971	-0.0045
588.6888	-0.0143
588.8805	0.0021
589.0722	0.0037
589.2639	0.0021
589.4556	-0.0026
589.6472	-0.0004
589.8389	-0.0047
590.0305	-0.0102
590.2221	-0.0009
590.4137	-0.0088
590.6052	0.0017
590.7968	-0.0005
590.9883	-0.0023
591.1798	-0.0046
591.3713	-0.0022
591.5628	0.0025
591.7543	0.0071
591.9458	0.0007
592.1372	0.0027
592.3286	0.0085
592.52	0.0119
592.7114	-0.0018
592.9028	-0.0043
593.0941	-0.0011
593.2855	-0.0032
593.4768	-0.0067
593.6681	-0.0076
593.8594	-0.0053
594.0506	0.006
594.2419	0.0079
594.4331	0.0017
594.6244	0.0011
594.8156	-0.0135
595.0067	-0.0014
595.1979	-0.0003
595.3891	0.0003
595.5802	-0.0087
595.7713	-0.0078
595.9624	-0.0056
596.1535	0.0048
596.3446	-0.0047
596.5357	-0.0029
596.7267	0.0024
596.9177	0.0021
597.1087	0.0002
597.2997	0.0033
597.4907	0.0063
597.6817	0.0057
597.8726	-0.0016
598.0635	0.0012
598.2544	-0.0016
598.4453	-0.0023
598.6362	0.0015
598.827	-0.0014
599.0179	0.0054
599.2087	0.0058
599.3995	0.0044
599.5903	0.007
599.7811	0.0002
599.9718	0.0021
600.1626	-0.005
600.3533	-0.0004
600.544	0.0039
600.7347	0.0043
600.9254	0.0036
601.116	-0.0096
601.3067	-0.0002
601.4973	-0.0053
601.6879	0.0107
601.8785	-0.011
602.0691	0.0075
602.2596	0.0091
602.4502	0.0097
602.6407	0.0051
602.8312	0.0058
603.0217	-0.0041
603.2122	-0.0007
603.4027	0.0037
603.5931	0.0023
603.7835	-0.0005
603.9739	-0.0013
604.1643	0.0062
604.3547	-0.0053
604.5451	0.0054
604.7354	-0.0058
604.9257	0.0088
605.116	-0.0029
605.3063	0.0027
605.4966	0.002
605.6869	0.0033
605.8771	0.0057
606.0673	0.0047
606.2575	0.0058
606.4477	0.009
606.6379	0.0047
606.8281	0.0038
607.0182	-0.005
607.2083	0.0042
607.3985	-0.0043
607.5885	0.0065
607.7786	0.0042
607.9687	-0.0036
608.1587	0.0027
608.3488	0.0005
608.5388	0.0006
608.7288	-0.0039
608.9187	-0.0023
609.1087	0.0012
609.2986	-0.0047
609.4886	0.0016
609.6785	-0.0044
609.8684	0.0001
610.0582	-0.0019
610.2481	-0.0042
610.4379	-0.004
610.6278	-0.0019
610.8176	-0.0023
611.0074	-0.0031
611.1971	-0.0037
611.3869	-0.0005
611.5766	-0.0057
611.7664	-0.0034
611.9561	0.0075
612.1458	0.0005
612.3354	-0.0093
612.5251	0.0007
612.7147	0.0015
612.9044	0.0014
613.094	-0.0087
613.2836	-0.0001
613.4731	-0.0046
613.6627	-0.0019
613.8522	0.004
614.0417	0.0087
614.2313	-0.0041
614.4207	-0.0077
614.6102	0.0059
614.7997	-0.0032
614.9891	0.0001
615.1785	-0.0057
615.3679	-0.0116
615.5573	0.0082
615.7467	-0.0035
615.9361	-0.0038
616.1254	-0.0031
616.3147	-0.0031
616.504	-0.0075
616.6933	-0.006
616.8826	0.0024
617.0718	-0.0013
617.2611	0.0064
617.4503	-0.0031
617.6395	-0.0008
617.8287	-0.0026
618.0179	-0.0007
618.207	0.0093
618.3961	0.0009
618.5853	-0.0079
618.7744	0.0053
618.9634	0.004
619.1525	0.0026
619.3416	0.0037
619.5306	0.0075
619.7196	0.0034
619.9086	0.0006
620.0976	0.003
620.2866	0.0019
620.4755	0.0021
620.6645	0.004
620.8534	0.0058
621.0423	0.0011
621.2312	0.0131
621.42	0.0025
621.6089	-0.0078
621.7977	0.006
621.9865	-0.0112
622.1753	0.0025
622.3641	0.0004
622.5529	0.0049
622.7416	0.0021
622.9303	-0.0013
623.1191	-0.001
623.3078	-0.0081
623.4964	0.0024
623.6851	-0.0068
623.8737	0.0029
624.0624	0.0041
624.251	-0.0052
624.4396	0.001
624.6282	-0.0082
624.8167	0.0024
625.0053	0.0003
625.1938	0.0069
625.3823	0.0028
625.5708	-0.0045
625.7593	-0.0027
625.9477	-0.0014
626.1362	0
626.3246	-0.0005
626.513	0.0091
626.7014	0.0075
626.8898	0.0063
627.0781	0.0055
627.2665	-0.001
627.4548	0.0001
627.6431	-0.0002
627.8314	0.0027
628.0197	0.008
628.2079	-0.0054
628.3962	-0.0005
628.5844	0.0047
628.7726	0.0029
628.9608	0.0057
629.1489	0.0039
629.3371	0.0067
629.5252	-0.0007
629.7134	0.0064
629.9015	0.0013
630.0895	0.0027
630.2776	0.0032
630.4657	0.0019
630.6537	0.0079
630.8417	-0.0021
631.0297	0.0002
631.2177	0.0005
631.4057	-0.008
631.5936	0.0087
631.7815	-0.0028
631.9695	-0
632.1574	0.0089
632.3452	0.0047
632.5331	-0.0006
632.7209	0.0001
632.9088	0.0062
633.0966	0.0019
633.2844	0.0006
633.4722	-0.0004
633.6599	0.0077
633.8477	0.0081
634.0354	0.0097
634.2231	0.0064
634.4108	0.0044
634.5985	0.0063
634.7861	0.0088
634.9738	0.0023
635.1614	-0.0001
635.349	0.0021
635.5366	-0.0031
635.7242	0.0021
635.9117	0.0037
636.0993	-0.0082
636.2868	0.0021
636.4743	-0.0049
636.6618	0.008
636.8492	0.0044
637.0367	0.004
637.2241	-0.0046
637.4115	-0.01
637.5989	0.0021
637.7863	-0.0017
637.9737	-0.0106
638.161	-0.0026
638.3484	-0.0038
638.5357	0.0009
638.723	-0.0003
638.9103	0.0071
639.0975	0.0069
639.2848	0.008
639.472	0.0038
639.6592	0.0065
639.8464	0.0101
640.0336	0.0097
640.2208	0.0017
640.4079	-0.0003
640.595	0.0029
640.7821	0.0071
640.9692	0.004
641.1563	0.0051
641.3434	0.004
641.5304	0.0026
641.7174	0.0038
641.9044	0.0018
642.0914	0.0003
642.2784	0.0076
642.4653	0.0087
642.6523	0.0079
642.8392	0.0002
643.0261	0.003
643.213	0.0012
643.3999	0.0045
643.5867	0.0022
643.7735	0.0044
643.9604	-0.0048
644.1472	0.0032
644.3339	0.0047
644.5207	0.004
644.7075	0.0033
644.8942	0.007
645.0809	0.0068
645.2676	0.0083
645.4543	0.006
645.6409	0.01
645.8276	0.0038
646.0142	0.0045
646.2008	-0.0075
646.3874	0.0029
646.574	0.0019
646.7605	-0.0006
646.9471	-0.0083
647.1336	-0.0014
647.3201	0.0071
647.5066	-0.0035
647.6931	0.0055
647.8795	0.0002
648.0659	0.0081
648.2524	0.0101
648.4388	-0.007
648.6252	-0.0051
648.8115	0.002
648.9979	0.0013
649.1842	0.002
649.3705	-0.0008
649.5568	0.006
649.7431	0.006
649.9294	0.0013
650.1156	0.0068
650.3018	-0.008
650.488	0.0009
650.6742	0.0021
650.8604	0.002
651.0466	-0.0037
651.2327	0.0032
651.4188	0.0066
651.6049	0.0051
651.791	-0.0041
651.9771	0.0033
652.1632	0.003
652.3492	0.0016
652.5352	0.0027
652.7212	0.0046
652.9072	0.0097
653.0932	-0.0007
653.2791	0.0016
653.465	0.007
653.651	-0.0064
653.8369	0.0004
654.0227	-0.0003
654.2086	0.0084
654.3944	0.0052
654.5803	0.0001
654.7661	0.0056
654.9519	0.0013
655.1377	-0.003
655.3234	-0.0041
655.5092	-0.0018
655.6949	-0.0074
655.8806	-0.0116
656.0663	0.0019
656.2519	-0.0077
656.4376	-0.0041
656.6232	0.0014
656.8088	0.0024
656.9945	-0.0022
657.18	0.0021
657.3656	0.0034
657.5511	-0.0002
657.7367	-0.0012
657.9222	0.0033
658.1077	-0.0008
658.2932	0.0024
658.4786	-0.0063
658.6641	0.0035
658.8495	0.0041
659.0349	-0.001
659.2203	0.011
659.4057	0.0026
659.591	-0.0005
659.7764	0.0055
659.9617	0.0071
660.147	0.0015
660.3323	0.002
660.5176	0.0102
660.7028	0.0025
660.888	0.0101
661.0733	0.0088
661.2585	-0.0003
661.4436	0.0024
661.6288	0.0031
661.8139	0.0045
661.9991	0.0138
662.1842	0.0019
662.3693	0.0015
662.5544	-0.0018
662.7394	0.0011
662.9245	0.0038
663.1095	-0.0037
663.2945	-0.0002
663.4795	-0.0055
663.6644	0.0022
663.8494	-0.0014
664.0343	-0.004
664.2193	-0.0037
664.4042	-0.0066
664.589	-0.0054
664.7739	-0.0026
664.9587	-0.0041
665.1436	0.0013
665.3284	-0.0016
665.5132	-0.0007
665.698	0.0013
665.8827	0.0064
666.0675	0.0063
666.2522	-0.0032
666.4369	0.0083
666.6216	0.0107
666.8063	0.0082
666.9909	0.003
667.1756	0.0042
667.3602	0.0029
667.5448	0.0052
667.7294	0.0091
667.9139	0.007
668.0985	0.0157
668.283	-0.0082
668.4675	-0.003
668.652	-0.0019
668.8365	-0.0025
669.0209	0.0057
669.2054	0.0136
669.3898	0.0068
669.5742	0.0016
669.7586	0.0124
669.943	0.008
670.1273	0.0041
670.3117	0.0032
670.496	0.0086
670.6803	0.0106
670.8646	0.0092
671.0488	0.0022
671.2331	0.0034
671.4173	0.0025
671.6015	0.003
671.7857	0.0105
671.9699	0.0092
672.1541	0
672.3382	0.0061
672.5223	0.0117
672.7064	0.0058
672.8905	0.0056
673.0746	0.0069
673.2587	-0.0012
673.4427	0.0027
673.6267	0.0103
673.8107	0.0027
673.9947	0.0049
674.1787	0.0023
674.3626	-0.0014
674.5465	0.0097
674.7304	0.0143
674.9143	0.0066
675.0982	0.0127
675.2821	-0.005
675.4659	0.008
675.6497	0.0104
675.8335	0.0095
676.0173	0.0064
676.2011	0.001
676.3849	-0.0045
676.5686	-0.0001
676.7523	-0.0018
676.936	0.0016
677.1197	0.0013
677.3034	-0.0036
677.487	0.0041
677.6706	0.0043
677.8542	0.009
678.0378	-0.0049
678.2214	0.002
678.405	0.0083
678.5885	-0.0066
678.772	0.0001
678.9555	-0.0018
679.139	0.0057
679.3225	0.0039
679.5059	0.001
679.6894	-0.0009
679.8728	0.0043
680.0562	-0.0041
680.2395	-0.0099
680.4229	-0.0022
680.6062	0.0068
680.7896	0.0007
680.9729	-0.0016
681.1562	0.005
681.3394	0.0052
681.5227	-0.0044
681.7059	0.0091
681.8891	0.0058
682.0723	0.0083
682.2555	0.0081
682.4387	-0.0036
682.6218	-0.0008
682.805	0.0055
682.9881	0.0038
683.1712	0.0035
683.3542	-0.006
683.5373	0.0054
683.7203	0.0063
683.9034	0.008
684.0864	0.0034
684.2694	0.0054
684.4523	0.0076
684.6353	0.0005
684.8182	0.003
685.0011	-0.0045
685.184	0.0111
685.3669	0.0085
685.5498	0.0055
685.7326	0.0032
685.9154	-0.0066
686.0982	0.0095
686.281	0.01
686.4638	0.0076
686.6465	0.005
686.8293	0.0004
687.012	0.0076
687.1947	-0.0065
687.3774	0.0079
687.56	0.0007
687.7427	0.0082
687.9253	-0.0036
688.1079	0.0025
688.2905	0.0069
688.4731	0.0075
688.6556	-0
688.8382	0.0003
689.0207	0.0036
689.2032	-0.0019
689.3857	-0.0045
689.5681	0.0015
689.7506	-0.001
689.933	-0.0007
690.1154	-0.0009
690.2978	-0.0038
690.4802	0.0036
690.6626	-0.0087
690.8449	0.0053
691.0272	0.0045
691.2095	-0.0074
691.3918	-0.0021
691.5741	0.0059
691.7563	-0.0026
691.9386	-0.0051
692.1208	0.0001
692.303	-0.0028
692.4852	0.0022
692.6673	0.0048
692.8495	-0.0004
693.0316	0.0036
693.2137	0.0052
693.3958	-0.0008
693.5778	0.0012
693.7599	0.0043
693.9419	-0.0018
694.1239	0.0076
694.3059	-0.0023
694.4879	0.0044
694.6699	0.0085
694.8518	0.0045
695.0337	-0.0026
695.2157	0.0097
695.3975	0.003
695.5794	0.0017
695.7613	0.0007
695.9431	-0.005
696.1249	-0.001
696.3067	0.0067
696.4885	0.0078
696.6703	-0.0069
696.852	0.0035
697.0337	0.0013
697.2154	0.001
697.3971	-0.0005
697.5788	0.0018
697.7605	-0.0051
697.9421	0.003
698.1237	0.0019
698.3053	-0.0038
698.4869	-0.0022
698.6685	-0.008
698.85	0.006
699.0315	0.0106
699.213	0.0007
699.3945	0.0036
699.576	0.0009
699.7575	0.0082
699.9389	0.0161
700.1203	-0.0049
700.3017	-0.0063
700.4831	-0.0081
700.6645	-0.0043
700.8458	0.0042
701.0271	-0.0046
701.2084	-0.0011
701.3897	-0.0074
701.571	0.0004
701.7523	-0.0139
701.9335	0.0044
702.1147	-0.0105
702.2959	-0.0052
702.4771	-0.0003
702.6583	-0.0011
702.8394	-0.0115
703.0205	0.0038
703.2016	-0.0038
703.3827	-0.0008
703.5638	0.0088
703.7449	0.0072
703.9259	0.0148
704.1069	0.0006
704.2879	0.0019
704.4689	0.0013
704.6499	0.004
704.8308	-0.0008
705.0117	-0.0053
705.1927	0.0015
705.3735	-0.0043
705.5544	-0.0037
705.7353	0.0018
705.9161	0.0037
706.0969	-0.0017
706.2777	0.0016
706.4585	-0.003
706.6393	-0.0015
706.82	-0.0009
707.0007	0.0025
707.1815	0.0057
707.3621	0.0021
707.5428	0.0053
707.7235	0.0089
707.9041	0.0036
708.0847	-0.0114
708.2653	-0.0016
708.4459	-0.0057
708.6265	-0.0032
708.807	-0.002
708.9875	-0.0028
709.168	-0.001
709.3485	-0.0035
709.529	0.0005
709.7095	-0.0146
709.8899	0.0021
710.0703	-0.0081
710.2507	0.0038
710.4311	-0.0035
710.6115	-0.0048
710.7918	-0.0076
710.9721	0
711.1524	-0.0035
711.3327	-0.0042
711.513	0.0115
711.6932	0.0001
711.8735	0.016
712.0537	-0.0049
712.2339	0.0077
712.4141	-0.0102
712.5942	-0.0026
712.7744	0.0032
712.9545	-0.0054
713.1346	-0.0065
713.3147	0.0061
713.4947	-0.0022
713.6748	-0.0028
713.8548	0.0045
714.0348	-0.0011
714.2148	0
714.3948	0.0095
714.5748	-0.0013
714.7547	0.008
714.9346	0.0107
715.1145	0.0027
715.2944	-0.0006
715.4743	0.004
715.6541	0.0092
715.834	0.005
716.0138	-0.0037
716.1936	-0.0112
716.3733	0.0002
716.5531	0.0054
716.7328	0.0009
716.9126	-0.0086
717.0923	0.0024
717.2719	0.0021
717.4516	0.0062
717.6312	-0.003
717.8109	-0.0026
717.9905	0.003
718.1701	-0.0077
718.3496	-0.0003
718.5292	0.0007
718.7087	-0.0031
718.8882	0.0015
719.0677	0.0062
719.2472	0.0066
719.4267	0.0044
719.6061	-0.0016
719.7856	0.0035
719.965	0.0063
720.1443	-0.0013
720.3237	0.0153
720.5031	0.011
720.6824	0.0123
720.8617	-0.0035
721.041	0.0051
721.2203	0.0101
721.3995	0.0049
721.5788	-0.0021
721.758	0.0127
721.9372	-0.0007
722.1164	-0.0024
722.2956	0.0068
722.4747	0.0027
722.6538	0.0059
722.8329	0.0139
723.012	0.0049
723.1911	-0.0047
723.3702	-0.0016
723.5492	-0.0032
723.7282	-0.0062
723.9072	0.0014
724.0862	-0.0046
724.2652	0.001
724.4441	0.0052
724.623	-0.0074
724.8019	0.0034
724.9808	0.0016
725.1597	-0.0098
725.3385	0.0054
725.5174	0.006
725.6962	-0.001
725.875	0.0056
726.0538	0.002
726.2325	-0.0004
726.4112	0.0015
726.59	0.0027
726.7687	-0.0006
726.9474	0.0032
727.126	-0.0037
727.3047	-0.0104
727.4833	-0.0012
727.6619	-0.0056
727.8405	-0.0067
728.0191	-0.0021
728.1976	0.0016
728.3762	-0.0057
728.5547	0.0048
728.7332	-0.0089
728.9116	0.0015
729.0901	0.0053
729.2686	-0.0071
729.447	0.0074
729.6254	-0.007
729.8038	0.0061
729.9821	-0.0109
730.1605	0.0006
730.3388	0.0057
730.5171	0.0015
730.6954	-0.0051
730.8737	0.0024
731.0519	0.0111
731.2302	0.0068
731.4084	0.0116
731.5866	-0.0033
731.7648	0.0079
731.9429	0.0078
732.1211	-0.0037
732.2992	0.0023
732.4773	-0.0031
732.6554	0.0065
732.8335	0.0102
733.0115	0.0062
733.1896	0.0172
733.3676	-0.0016
733.5456	0.0011
733.7235	0.0105
733.9015	-0.0076
734.0794	-0.0001
734.2574	0.0039
734.4353	0.0049
734.6131	0.0098
734.791	-0.0014
734.9689	-0.0002
735.1467	0.002
735.3245	-0.01
735.5023	-0.013
735.68	0.0041
735.8578	0.0068
736.0355	-0.0144
736.2132	-0.0011
736.3909	-0.0025
736.5686	-0.0062
736.7463	0.0142
736.9239	-0.0009
737.1015	-0.0033
737.2791	-0.0002
737.4567	0.0003
737.6343	-0
737.8118	-0.0057
737.9894	0.0012
738.1669	-0.0048
738.3444	-0.0033
738.5218	-0.0099
738.6993	0.0028
738.8767	-0.0112
739.0541	0.0064
739.2315	-0.0098
739.4089	-0.0028
739.5863	0.0091
739.7636	-0.0036
739.9409	0.0033
740.1182	0.0142
740.2955	0.01
740.4728	0.0022
740.65	-0.0003
740.8272	0.0057
741.0044	0.0039
741.1816	-0.0075
741.3588	0.0041
741.5359	0.0036
741.7131	-0.0166
741.8902	0.0011
742.0673	0.0053
742.2444	-0.0119
742.4214	-0.0089
742.5985	0.0035
742.7755	-0.005
742.9525	-0.0065
743.1295	0.0023
743.3064	-0.0028
743.4834	0.0099
743.6603	0.0016
743.8372	-0.0062
744.0141	0.0034
744.191	-0.0012
744.3678	-0.0056
744.5446	0.0072
744.7215	0.0006
744.8982	-0.0002
745.075	-0.0051
745.2518	0.0101
745.4285	-0.0022
745.6052	-0.0031
745.7819	-0.0049
745.9586	-0.0062
746.1353	0.001
746.3119	-0.0077
746.4885	-0.0044
746.6651	-0.0071
746.8417	-0.0023
747.0183	0.0003
747.1948	0.0006
747.3714	0.0035
747.5479	0.0001
747.7244	-0.005
747.9008	0.0098
748.0773	0.0058
748.2537	-0.0008
748.4301	-0.0146
748.6065	0.0024
748.7829	-0.0005
748.9593	-0.0053
749.1356	-0.0009
749.3119	0.0106
749.4882	-0.0095
749.6645	0.0095
749.8408	-0.0072
750.017	-0.0046
750.1933	0.0053
750.3695	-0.0101
750.5457	0.0021
750.7218	-0.0078
750.898	0.0014
751.0741	0.0022
751.2502	0.0019
751.4263	-0.0016
751.6024	-0.0006
751.7784	-0.0079
751.9545	-0.014
752.1305	-0.0011
752.3065	-0.013
752.4825	0.0001
752.6584	-0.0071
752.8344	-0.0039
753.0103	-0.0124
753.1862	-0.0074
753.3621	-0.0045
753.5379	-0.0101
753.7138	-0.0008
753.8896	-0.0063
754.0654	-0.0002
754.2412	-0
754.417	-0.0055
754.5927	-0.0002
754.7685	-0.0088
754.9442	-0.0011
755.1199	0.0094
755.2956	-0.003
755.4712	-0.0019
755.6469	0.0043
755.8225	-0.0083
755.9981	0.0019
756.1736	-0.0034
756.3492	0.0003
756.5248	-0.0031
756.7003	-0.0023
756.8758	0.0014
757.0513	-0.0107
757.2267	-0.0083
757.4022	-0.0025
757.5776	-0.0107
757.753	0.0155
757.9284	-0.0018
758.1038	0.0114
758.2791	0.005
758.4545	-0.0038
758.6298	0.0011
758.8051	0.0011
758.9803	0.0038
759.1556	0.0046
759.3308	0.0087
759.506	0.0078
759.6812	0.0091
759.8564	0.0081
760.0316	-0.0017
760.2067	0.0141
760.3819	0.0091
760.557	0.0093
760.732	0.0022
760.9071	-0.0095
761.0821	0.0045
761.2572	0.0033
761.4322	-0.0113
761.6072	-0.0012
761.7821	-0.0091
761.9571	0.0068
762.132	-0.0044
762.3069	0.0071
762.4818	-0.0073
762.6567	0.0055
762.8316	-0
763.0064	-0.0056
763.1812	-0.0011
763.356	-0.0034
763.5308	-0.0058
763.7055	0.0016
763.8803	-0.003
764.055	-0.0011
764.2297	-0.006
764.4044	-0.0063
764.579	-0.0108
764.7537	-0.0152
764.9283	-0.0008
765.1029	-0.0172
765.2775	-0.0037
765.4521	-0.0093
765.6266	-0.0186
765.8011	-0.0065
765.9756	-0.0095
766.1501	0.0032
766.3246	-0.0114
766.4991	-0.0092
766.6735	-0.0067
766.8479	-0.0083
767.0223	-0.0014
767.1967	0.0057
767.371	-0.0055
767.5454	-0.0091
767.7197	0.0052
767.894	-0.0062
768.0683	-0.0101
768.2425	0.0035
768.4168	-0.0025
768.591	-0.0085
768.7652	-0.003
768.9394	-0.003
769.1135	-0.001
769.2877	0.0007
769.4618	-0.0045
769.6359	-0.0057
769.81	-0.0034
769.984	-0.0018
770.1581	-0.007
770.3321	0.002
770.5061	-0.012
770.6801	0.0031
770.8541	0.0063
771.028	0.0032
771.202	-0.0118
771.3759	0.0021
771.5498	-0.0059
771.7236	0.0037
771.8975	-0.0068
772.0713	0.0023
772.2451	0.0089
772.4189	0.01
772.5927	0.016
772.7665	0.0019
772.9402	0.0033
773.1139	0.0074
773.2876	0.0015
773.4613	0.0062
773.635	0.0116
773.8086	-0.0045
773.9822	-0.0008
774.1558	0.011
774.3294	-0.0134
774.503	0.005
774.6765	0.0129
774.8501	0.002
775.0236	0.0075
775.1971	0.0031
775.3705	-0.0104
775.544	0.0046
775.7174	-0.0023
775.8908	-0.0069
776.0642	-0.0043
776.2376	0.0039
776.4109	-0.01
776.5843	0.0007
776.7576	-0.0018
776.9309	0.0086
777.1041	0.0058
777.2774	0.0044
777.4506	-0.0056
777.6238	-0.0101
777.797	-0.0032
777.9702	0.0046
778.1434	-0.0093
778.3165	-0.0104
778.4896	-0.0009
778.6627	0.0111
778.8358	0.0061
779.0089	0.0074
779.1819	-0.0027
779.3549	0.0221
779.5279	0.0205
779.7009	0.0055
779.8739	0.0085
780.0468	0.0072
780.2197	0.0153
780.3926	0.0039
780.5655	-0.0082
780.7384	0.0009
780.9112	0.0045
781.0841	-0.0024
781.2569	0.0046
781.4297	0.0081
781.6024	0.0142
781.7752	0.0103
781.9479	0.0026
782.1206	0.0012
782.2933	-0.0014
782.466	0.0002
782.6386	-0
782.8113	0.0128
782.9839	0.0157
783.1565	0.0048
783.329	0.0044
783.5016	0.0025
783.6741	-0.0028
783.8466	-0.0031
784.0191	0.0156
784.1916	-0.0078
784.3641	0.0078
784.5365	-0.0028
784.7089	-0.0016
784.8813	-0.0148
785.0537	0.0028
785.2261	-0.0217
785.3984	-0.0078
785.5707	-0.0146
785.743	-0.0035
785.9153	-0.0105
786.0876	-0.0011
786.2598	-0.0124
786.432	-0.01
786.6042	-0.002
786.7764	-0.0116
786.9486	0.0072
787.1207	-0.0065
787.2928	0.0045
787.4649	0.0012
787.637	-0.0017
787.8091	-0.0108
787.9811	-0.0181
788.1532	-0.0107
788.3252	0.0093
788.4972	-0.0114
788.6691	-0.0038
788.8411	-0.0086
789.013	-0.0094
789.1849	-0.0038
789.3568	-0.0081
789.5287	-0.0039
789.7005	-0.0021
789.8723	-0.0063
790.0442	0.017
790.2159	-0.004
790.3877	0.0041
790.5595	-0.0206
790.7312	0.0019
790.9029	-0.0101
791.0746	-0.0057
791.2463	-0.0073
791.4179	-0.0055
791.5896	-0.0251
791.7612	-0.0011
791.9328	-0.0073
792.1044	-0.0166
792.2759	-0.0261
792.4474	-0.0067
792.619	-0.0076
792.7905	-0.0034
792.9619	-0.0095
793.1334	0.0036
793.3048	0.0084
793.4762	0.001
793.6476	0.0103
793.819	-0.0087
793.9904	0.0013
794.1617	-0.0058
794.333	0.0017
794.5043	-0.0167
794.6756	-0.0103
794.8469	-0.002
795.0181	-0.0041
795.1893	-0.0009
795.3605	0.0071
795.5317	-0.0056
795.7029	-0.0129
795.874	-0.0029
796.0452	-0.0155
796.2163	-0.0148
796.3873	-0.0026
796.5584	-0.0049
796.7294	-0.0156
796.9005	-0.0032
797.0715	-0.0076
797.2425	-0.0319
797.4134	-0.0115
797.5844	-0.0102
797.7553	-0.0117
797.9262	0.0045
798.0971	-0.0195
798.2679	-0.023
798.4388	-0.0177
798.6096	-0.0128
798.7804	-0.0068
798.9512	-0.0151
799.122	-0.004
799.2927	-0.0078
799.4635	0.0025
799.6342	-0.0295
799.8049	-0.0255
799.9755	-0.0158
800.1462	-0.0128
800.3168	-0.005
800.4874	-0.0189
800.658	0.005
800.8286	0.0088
800.9991	0.0074
801.1696	0.0009
801.3402	0.0073
801.5106	-0.016
801.6811	-0.0067
801.8516	-0.0023
802.022	-0.0053
802.1924	0.0043
802.3628	0.0098
802.5332	-0.0159
802.7035	0.0242
802.8739	-0.0017
803.0442	-0.0252
803.2145	-0.004
803.3847	-0.0291
803.555	-0.0099
803.7252	-0.0122
803.8954	-0.0242
804.0656	-0.0322
804.2358	-0.0315
804.4059	-0.0125
804.5761	-0.0239
804.7462	-0.0111
804.9163	-0.0104
805.0864	-0.0207
805.2564	-0.0157
805.4264	-0.0096
805.5965	-0.0176
805.7665	0.004
805.9364	-0.0063
806.1064	0.0088
806.2763	-0.0018
806.4462	0.0189
806.6161	-0.0201
806.786	0.0056
806.9559	-0.005
807.1257	-0.0158
807.2955	-0.0001
807.4653	0.0018
807.6351	-0.0064
807.8048	-0.0215
807.9746	0.0006
808.1443	-0.0138
808.314	-0.0022
808.4837	-0.0103
808.6533	0.0007
808.8229	0.0016
808.9926	-0.0177
809.1622	-0.0084
809.3317	-0.0206
809.5013	-0.0107
809.6708	-0.008
809.8403	-0.0148
810.0098	-0.0086
810.1793	-0.0003
810.3488	-0.0154
810.5182	-0.0158
810.6876	-0.0053
810.857	-0.0196
811.0264	-0.0091
811.1958	-0.0199
811.3651	-0.005
811.5344	-0.0209
811.7037	-0.022
811.873	-0.0115
812.0422	-0.0089
812.2115	-0.0112
812.3807	-0.0226
812.5499	-0.0025
812.7191	-0.0261
812.8882	-0.0154
813.0574	-0.026
813.2265	-0.0116
813.3956	-0.0084
813.5646	-0.0102
813.7337	-0.0255
813.9027	0.0029
814.0718	0.0287
814.2407	0.0043
814.4097	-0.02
814.5787	-0.015
814.7476	-0.0026
814.9165	0.0058
815.0854	-0.0097
815.2543	0.0209
815.4232	0.0036
815.592	-0.0038
815.7608	0.0143
815.9296	0.0139
816.0984	0.0002
816.2671	-0.01
816.4359	-0.0123
816.6046	-0.006
816.7733	-0.0148
816.942	-0.0257
817.1106	-0.0111
817.2793	0.0059
817.4479	0.013
817.6165	-0.0022
817.785	-0.0026
817.9536	-0.0152
818.1221	-0.0217
818.2906	-0.0099
818.4591	-0.0053
818.6276	-0.0144
818.7961	-0.0125
818.9645	0.0036
819.1329	-0.0054
819.3013	0.0147
819.4697	0.0102
819.638	-0.0175
819.8064	-0.0078
819.9747	-0.0073
820.143	-0.0033
820.3113	-0.0133
820.4795	-0.0043
820.6477	-0.0338
820.816	-0.0053
820.9842	-0.0283
821.1523	-0.0303
821.3205	-0.0219
821.4886	-0.0287
821.6567	-0.0142
821.8248	-0.0134
821.9929	0.0055
822.1609	0.0052
822.329	0.0017
822.497	0.0208
822.665	-0.0001
822.833	-0.0263
823.0009	0.0175
823.1688	-0.0178
823.3367	0.0191
823.5046	0.0175
823.6725	0.0359
823.8404	-0.0179
824.0082	-0.0136
824.176	0.0119
824.3438	0.0178
824.5116	-0.0096
824.6793	0.0015
824.847	-0.0083
825.0147	-0.0172
825.1824	0.0296
825.3501	0.0135
825.5177	-0.0006
825.6854	-0.0264
825.853	-0.0248
826.0206	-0.0431
826.1881	0.0073
826.3557	-0.0377
826.5232	0.0008
826.6907	-0.049
826.8582	0.0123
827.0257	-0.0381
827.1931	0.0063
827.3605	-0.0284
827.528	-0.0174
827.6953	-0.0352
827.8627	-0.0171
828.03	0.0045
828.1974	-0.0313
828.3647	-0.0362
828.532	-0.032
828.6992	-0.0264
828.8665	-0.0156
829.0337	-0.0484
829.2009	0.0095
829.3681	-0.0042
829.5352	0.0074
829.7024	-0.0436
829.8695	-0.0372
830.0366	0.0217
830.2037	-0.0277
830.3707	0.0094
830.5378	-0.0245
830.7048	-0.0093
830.8718	-0.0182
831.0388	-0.0252
831.2057	-0.0091
831.3727	-0.0001
831.5396	-0.0377
831.7065	-0.0247
831.8734	0.0169
832.0402	-0.0437
832.2071	-0.0107
832.3739	-0.0297
832.5407	-0.0417
832.7075	-0.0491
832.8742	-0.057
833.041	-0.0633
833.2077	-0.0409
833.3744	0.0064
833.541	-0.0327
833.7077	-0.0315
833.8743	-0.0156
834.0409	0.0192
834.2075	-0.0206
834.3741	-0.0026
834.5407	-0.0027
834.7072	-0.0242
834.8737	-0.0087
835.0402	-0.0381
835.2067	-0.0008
835.3731	0.0105
835.5395	-0.0189
835.706	0.0313
835.8723	0.0219
836.0387	0.0059
836.2051	-0.077
836.3714	0.0046
836.5377	-0.0117
836.704	-0.0291
836.8703	-0.0242
837.0365	-0.0138
837.2027	-0.0301
837.3689	0.0006
837.5351	-0.0361
837.7013	-0.0345
837.8674	-0.0482
838.0335	-0.0275
838.1997	-0.0083
838.3657	-0.0365
838.5318	-0.0229
838.6978	0.0071
838.8639	-0.0112
839.0299	-0.0334
839.1958	-0.0125
839.3618	-0.0011
839.5277	-0.026
839.6937	0.0081
839.8596	-0.0392
840.0254	-0.0305
840.1913	0.0314
840.3571	0.0325
840.523	-0.042
840.6888	-0.0456
840.8545	-0.0903
841.0203	-0.0451
841.186	-0.0332
841.3517	0.018
841.5174	0.0033
841.6831	-0.0276
841.8488	-0.0152
842.0144	-0.0285
842.18	-0.0037
842.3456	0.0083
842.5112	0.0069
842.6767	-0.0632
842.8422	-0.0282
843.0077	-0.0272
843.1732	-0.0207
843.3387	-0.0104
843.5042	-0.0819
843.6696	-0.0372
843.835	-0.013
844.0004	0.0512
844.1657	-0.0092
844.3311	-0.0773
844.4964	-0.0911
844.6617	-0.0652
844.827	-0.0568
844.9923	0.0125
845.1575	-0.0246
845.3227	0.0055
845.4879	-0.0431
845.6531	-0.1098
845.8183	-0.0785
845.9834	-0.004
846.1485	-0.0437
846.3136	-0.0297
846.4787	-0.1205
846.6438	0.1277
846.8088	-0.045
846.9738	-0.0928
847.1388	-0.0716
847.3038	-0.0609
847.4687	-0.1771
847.6337	-0.0055
847.7986	-0.0134
847.9635	0.0207
848.1284	0.0024
848.2932	0.068
848.458	-0.0105
848.6228	0.0038
848.7876	0.0486
848.9524	-0.1121
849.1172	-0.1373
849.2819	-0.0638
849.4466	-0.0484
849.6113	-0.1989
849.7759	-0.0276
849.9406	0.0243
850.1052	0.001
850.2698	-0.0154
850.4344	-0.0709
850.599	-0.0682
850.7635	0.0093
850.928	-0.0479
851.0925	-0.0934
851.257	0.0251
851.4215	0.0507
851.5859	-0.0281
851.7503	0.0232
851.9147	-0.0411
852.0791	-0.1039
852.2434	-0.0333
852.4078	0.0773
852.5721	-0.0052
852.7364	-0.054
852.9007	-0.2601
853.0649	-0.0044
853.2291	0.1567
853.3934	-0.036
853.5575	0.0253
853.7217	-0.1605
853.8859	-0.0287
854.05	-0.1434
854.2141	-0.0234
854.3782	-0.1521
854.5423	-0.045
854.7063	0.0478
854.8703	0.0278
855.0343	-0.0101
855.1983	-0.2641
855.3623	0.0477
855.5262	-0.045
855.6901	0.027
855.854	-0.0167
856.0179	0.0611
856.1818	-0.0094
856.3456	-0.0893
856.5094	-0.1495
856.6732	-0.0431
856.837	-0.0682
857.0008	0.0794
857.1645	-0.044
857.3282	-0.1076
857.4919	0.141
857.6556	0.0464
857.8192	-0.0201
857.9828	0.1081
858.1465	-0.076
858.31	-0.1853
858.4736	-0.1702
858.6372	-0.3051
858.8007	-0.1767
858.9642	-0.0057
859.1277	-0.0405
859.2911	0.0274
859.4546	-0.031
859.618	-0.3833
859.7814	-0.182
859.9448	-0.0727
860.1081	-0.0013
860.2715	0.0045
860.4348	-0.0202
860.5981	-0.0542
860.7614	0.0889
860.9246	-0.1821
861.0879	-0.1933
861.2511	0.0149
861.4143	-0.1049
861.5774	0.1961
861.7406	-0.0612
861.9037	0.1117
862.0668	-0.1746
862.2299	-0.0296
862.393	-0.6742
862.556	-0.0867
862.7191	-0.2455
862.8821	-0.3942
863.0451	-0.0765
863.208	0.1233
863.371	-0.0436
863.5339	-0.2535
863.6968	0.3496
863.8597	0.4877
864.0225	-0.1014
864.1854	-0.2488
864.3482	-0.3524
864.511	0.1676
864.6737	-0.2379
864.8365	-0.083
864.9992	-0.4503
865.1619	-0.6485
865.3246	-0.2143
865.4873	-0.1531
865.65	-0.2697
865.8126	-0.002
865.9752	0.0442
866.1378	-0.3015
866.3004	0.3348
866.4629	0.1516
866.6254	-0.463
866.7879	-0.0302
866.9504	-0.1872
867.1129	-0
867.2753	-0
867.4377	0.2536
867.6001	-0.325
867.7625	-0.1579
867.9249	-0.7546
868.0872	0.2785
868.2495	-0.0015
868.4118	-0.0038
868.5741	-0.6814
868.7363	-0.2628
868.8986	-0.0507
869.0608	-0.1095
869.223	0.2292
869.3851	0.5766
869.5473	-0
869.7094	0.2977
869.8715	-0.4256
870.0336	-0
870.1957	0.082
870.3577	-0.6704
870.5197	-0.2311
870.6817	-0.5956
870.8437	-0.1921
871.0057	-0.5879
871.1676	0.137
871.3295	-0.5497
871.4914	-0.1342
871.6533	-0.4159
871.8151	-0.4764
871.977	-0
872.1388	-0
872.3006	-0
872.4623	-0
872.6241	0.1359
872.7858	0.3798
872.9475	0.3054
873.1092	-0
873.2709	0.4123
873.4325	-0.2053
873.5941	-0.7744
873.7557	-0
873.9173	-0
874.0789	-0.476
874.2404	0.048
874.4019	-0.0142
874.5634	-0.21
874.7249	-0.0375
874.8863	0.1393
875.0478	0.2234
875.2092	-0
875.3706	1.1115
875.5319	-0.0205
875.6933	-0.1125
875.8546	-0.2146
876.0159	0.0777
876.1772	-0.1034
876.3385	-0
876.4997	0.1673
876.6609	-0.1334
876.8221	-0.5945
876.9833	0.4545
877.1445	-0
877.3056	-0.1708
877.4667	1.0834
877.6278	-0
877.7889	-0.587
877.9499	-0
878.111	-0.7554
878.272	-0
878.433	-0
878.5939	-0.024
878.7549	-0.0892
878.9158	-0.5968
879.0767	-0
879.2376	-0.0742
879.3984	-0.312
879.5593	-0
879.7201	0.9132
879.8809	-0.4759
880.0417	-0.4858
880.2024	0.258
880.3632	-0.4715
880.5239	0.9148
880.6846	0.4396
880.8452	-2.3149
881.0059	-0.4914
881.1665	0.6206
881.3271	0.1671
881.4877	-0.1517
881.6483	-0.5281
881.8088	-0.4555
881.9693	0.4041
882.1298	0.4041
882.2903	0.4041
