Data from MonoPyChalIsomerACN10uM420nmA_Absorbance_15-09-49-434.txt Node
Date: Fri Jul 05 15:09:49 BST 2024
User: LASERRRRR
Spectrometer: FLMT03099
Trigger mode: 0
Integration Time (sec): 1.000000E-1
Scans to average: 1
Electric dark correction enabled: true
Nonlinearity correction enabled: false
Boxcar width: 0
XAxis mode: Wavelengths
Number of Pixels in Spectrum: 3648
>>>>>Begin Spectral Data<<<<<
179.3399	0.026
179.5586	0.026
179.7771	0.026
179.9957	-0
180.2143	-0
180.4329	-0.2492
180.6514	0.382
180.8699	1.6767
181.0885	-0
181.307	-0.0737
181.5255	-0
181.744	-0.771
181.9625	-0
182.181	-0
182.3994	-0
182.6179	1.6767
182.8363	-0.031
183.0547	-0.1851
183.2732	-0.0686
183.4916	0.0022
183.71	0.0474
183.9284	0.164
184.1467	-0.0486
184.3651	-0.0842
184.5835	0.1099
184.8018	-0.0561
185.0201	-0.0306
185.2385	0.0999
185.4568	0.1816
185.6751	0.0393
185.8934	0.5547
186.1117	0.1029
186.3299	-0.0196
186.5482	0.1571
186.7664	-0.1394
186.9847	-0.1343
187.2029	0.0252
187.4211	0.0593
187.6393	-0.0281
187.8575	-0.0931
188.0757	0.4805
188.2939	0.0319
188.512	0.0741
188.7302	0.1169
188.9483	-0.1334
189.1665	0.1631
189.3846	-0.2771
189.6027	0.2456
189.8208	0.2164
190.0389	0.0745
190.257	0.1796
190.475	0.1883
190.6931	0.1848
190.9111	0.2337
191.1292	0.2229
191.3472	0.362
191.5652	0.3007
191.7832	0.2725
192.0012	0.5524
192.2192	0.3656
192.4371	0.7251
192.6551	0.2986
192.873	0.4586
193.091	0.3426
193.3089	0.7319
193.5268	0.5756
193.7447	0.6141
193.9626	0.4475
194.1805	0.5845
194.3984	0.9691
194.6162	0.557
194.8341	0.6027
195.0519	0.6197
195.2697	0.7487
195.4875	0.5107
195.7054	0.5423
195.9231	0.5875
196.1409	0.6501
196.3587	0.8092
196.5765	0.524
196.7942	0.7684
197.012	0.4988
197.2297	0.589
197.4474	0.6098
197.6651	0.6117
197.8828	0.563
198.1005	0.6287
198.3182	0.5925
198.5358	0.5856
198.7535	0.6468
198.9711	0.5553
199.1888	0.528
199.4064	0.7025
199.624	0.6578
199.8416	0.5224
200.0592	0.649
200.2767	0.5602
200.4943	0.6338
200.7119	0.7757
200.9294	0.7687
201.1469	0.5748
201.3645	0.6329
201.582	0.6094
201.7995	0.6445
202.017	0.6754
202.2344	0.617
202.4519	0.7121
202.6694	0.6557
202.8868	0.6336
203.1042	0.676
203.3217	0.7429
203.5391	0.6459
203.7565	0.5884
203.9739	0.6484
204.1913	0.5975
204.4086	0.6464
204.626	0.6961
204.8433	0.5691
205.0607	0.5739
205.278	0.7516
205.4953	0.6535
205.7126	0.6041
205.9299	0.7908
206.1472	0.7231
206.3644	0.6814
206.5817	0.6573
206.7989	0.6353
207.0162	0.6539
207.2334	0.651
207.4506	0.6413
207.6678	0.6431
207.885	0.6523
208.1022	0.6982
208.3194	0.701
208.5365	0.7256
208.7537	0.7067
208.9708	0.5847
209.1879	0.6522
209.405	0.7151
209.6222	0.7229
209.8392	0.619
210.0563	0.5907
210.2734	0.62
210.4905	0.6382
210.7075	0.7364
210.9245	0.6185
211.1416	0.7937
211.3586	0.6181
211.5756	0.6289
211.7926	0.5783
212.0096	0.6144
212.2265	0.5638
212.4435	0.619
212.6604	0.6071
212.8774	0.5889
213.0943	0.6285
213.3112	0.5867
213.5281	0.5688
213.745	0.4853
213.9619	0.5335
214.1788	0.4932
214.3956	0.4317
214.6125	0.4871
214.8293	0.4608
215.0461	0.4676
215.2629	0.474
215.4798	0.4738
215.6965	0.4139
215.9133	0.439
216.1301	0.4454
216.3469	0.4748
216.5636	0.4428
216.7803	0.4086
216.9971	0.3822
217.2138	0.3983
217.4305	0.3842
217.6472	0.3249
217.8639	0.3853
218.0805	0.361
218.2972	0.3296
218.5138	0.3143
218.7305	0.3213
218.9471	0.304
219.1637	0.2874
219.3803	0.2876
219.5969	0.3233
219.8135	0.2757
220.0301	0.2747
220.2466	0.2705
220.4632	0.2702
220.6797	0.2362
220.8962	0.2381
221.1127	0.258
221.3292	0.2637
221.5457	0.2467
221.7622	0.2371
221.9787	0.2757
222.1951	0.2229
222.4116	0.2691
222.628	0.2828
222.8444	0.2538
223.0608	0.2564
223.2772	0.2585
223.4936	0.2728
223.71	0.2439
223.9264	0.2785
224.1427	0.2595
224.3591	0.2583
224.5754	0.2619
224.7917	0.2664
225.008	0.2832
225.2243	0.2628
225.4406	0.3188
225.6569	0.2872
225.8732	0.2601
226.0894	0.2725
226.3057	0.2779
226.5219	0.2898
226.7381	0.2691
226.9543	0.2997
227.1705	0.2992
227.3867	0.2853
227.6029	0.3165
227.8191	0.3106
228.0352	0.2989
228.2513	0.3088
228.4675	0.3123
228.6836	0.3068
228.8997	0.3074
229.1158	0.32
229.3319	0.3155
229.548	0.3408
229.764	0.3349
229.9801	0.336
230.1961	0.3417
230.4121	0.3367
230.6282	0.3499
230.8442	0.3294
231.0602	0.3628
231.2761	0.3719
231.4921	0.3484
231.7081	0.3547
231.924	0.3458
232.14	0.3528
232.3559	0.3575
232.5718	0.3731
232.7877	0.3476
233.0036	0.357
233.2195	0.3527
233.4353	0.3656
233.6512	0.3538
233.867	0.3627
234.0829	0.3542
234.2987	0.3862
234.5145	0.3763
234.7303	0.3812
234.9461	0.3935
235.1619	0.3773
235.3776	0.3871
235.5934	0.3993
235.8091	0.3918
236.0249	0.3708
236.2406	0.3954
236.4563	0.3794
236.672	0.4089
236.8877	0.4056
237.1034	0.4108
237.319	0.4097
237.5347	0.4156
237.7503	0.4109
237.966	0.4146
238.1816	0.4249
238.3972	0.4012
238.6128	0.4038
238.8284	0.3917
239.0439	0.4031
239.2595	0.412
239.475	0.4142
239.6906	0.4195
239.9061	0.4058
240.1216	0.4136
240.3371	0.4179
240.5526	0.412
240.7681	0.4097
240.9836	0.4054
241.199	0.4047
241.4145	0.3788
241.6299	0.3714
241.8453	0.3947
242.0607	0.3617
242.2761	0.36
242.4915	0.3768
242.7069	0.3756
242.9223	0.3673
243.1376	0.3493
243.353	0.3529
243.5683	0.3543
243.7836	0.336
243.9989	0.3346
244.2142	0.3049
244.4295	0.3091
244.6448	0.3105
244.86	0.2942
245.0753	0.2819
245.2905	0.289
245.5057	0.282
245.721	0.2802
245.9362	0.2621
246.1514	0.2788
246.3665	0.2481
246.5817	0.2431
246.7969	0.24
247.012	0.2353
247.2271	0.2362
247.4423	0.2522
247.6574	0.2496
247.8725	0.2468
248.0876	0.2222
248.3026	0.2233
248.5177	0.2192
248.7328	0.217
248.9478	0.214
249.1628	0.2169
249.3779	0.2094
249.5929	0.1987
249.8079	0.2249
250.0228	0.1837
250.2378	0.2088
250.4528	0.2031
250.6677	0.1933
250.8827	0.2034
251.0976	0.192
251.3125	0.1883
251.5274	0.1793
251.7423	0.1921
251.9572	0.1933
252.172	0.1737
252.3869	0.1934
252.6017	0.1842
252.8166	0.1811
253.0314	0.1731
253.2462	0.1689
253.461	0.1812
253.6758	0.1737
253.8906	0.1844
254.1053	0.1704
254.3201	0.1672
254.5348	0.1801
254.7496	0.1775
254.9643	0.1758
255.179	0.1778
255.3937	0.1782
255.6083	0.1772
255.823	0.1806
256.0377	0.1514
256.2523	0.1801
256.467	0.1546
256.6816	0.1772
256.8962	0.1793
257.1108	0.1626
257.3254	0.1776
257.54	0.1627
257.7545	0.1657
257.9691	0.1828
258.1836	0.1754
258.3981	0.1817
258.6127	0.1748
258.8272	0.1592
259.0417	0.1589
259.2561	0.176
259.4706	0.1642
259.6851	0.1656
259.8995	0.1642
260.114	0.1747
260.3284	0.1658
260.5428	0.1527
260.7572	0.1739
260.9716	0.175
261.186	0.1623
261.4003	0.1597
261.6147	0.1698
261.829	0.1685
262.0433	0.1726
262.2577	0.1549
262.472	0.1644
262.6863	0.1627
262.9005	0.1774
263.1148	0.1623
263.3291	0.1438
263.5433	0.1659
263.7576	0.1737
263.9718	0.167
264.186	0.1764
264.4002	0.1687
264.6144	0.1697
264.8286	0.1669
265.0427	0.1622
265.2569	0.1677
265.471	0.1536
265.6851	0.1578
265.8993	0.166
266.1134	0.1631
266.3275	0.164
266.5415	0.1683
266.7556	0.1696
266.9697	0.1633
267.1837	0.1572
267.3978	0.1755
267.6118	0.1606
267.8258	0.1802
268.0398	0.148
268.2538	0.1756
268.4677	0.1636
268.6817	0.1485
268.8957	0.1688
269.1096	0.1653
269.3235	0.1611
269.5374	0.1569
269.7514	0.1468
269.9652	0.1574
270.1791	0.1468
270.393	0.1326
270.6068	0.1603
270.8207	0.1367
271.0345	0.1443
271.2483	0.146
271.4622	0.1422
271.676	0.1568
271.8897	0.1457
272.1035	0.1413
272.3173	0.1397
272.531	0.148
272.7448	0.1456
272.9585	0.1422
273.1722	0.1499
273.3859	0.1529
273.5996	0.1333
273.8133	0.1435
274.0269	0.1426
274.2406	0.1395
274.4542	0.135
274.6679	0.1412
274.8815	0.1407
275.0951	0.1394
275.3087	0.1551
275.5223	0.1506
275.7358	0.1466
275.9494	0.1484
276.1629	0.1374
276.3765	0.1441
276.59	0.1402
276.8035	0.1439
277.017	0.1433
277.2305	0.1444
277.444	0.1393
277.6574	0.1308
277.8709	0.1381
278.0843	0.1393
278.2978	0.146
278.5112	0.1438
278.7246	0.1443
278.938	0.1509
279.1513	0.1564
279.3647	0.1531
279.5781	0.1393
279.7914	0.1464
280.0047	0.1522
280.2181	0.144
280.4314	0.1495
280.6447	0.1525
280.8579	0.146
281.0712	0.1555
281.2845	0.1504
281.4977	0.1574
281.711	0.1382
281.9242	0.1438
282.1374	0.1639
282.3506	0.145
282.5638	0.157
282.7769	0.1563
282.9901	0.1464
283.2033	0.1587
283.4164	0.1577
283.6295	0.1426
283.8426	0.1404
284.0557	0.1634
284.2688	0.1571
284.4819	0.1465
284.695	0.1595
284.908	0.1658
285.1211	0.1576
285.3341	0.1524
285.5471	0.1643
285.7601	0.1531
285.9731	0.1547
286.1861	0.1448
286.3991	0.1723
286.612	0.1679
286.825	0.1677
287.0379	0.1604
287.2508	0.1615
287.4637	0.1613
287.6766	0.1574
287.8895	0.1657
288.1024	0.1666
288.3152	0.1734
288.5281	0.1597
288.7409	0.1663
288.9538	0.1646
289.1666	0.1654
289.3794	0.1699
289.5922	0.1642
289.8049	0.1683
290.0177	0.1641
290.2304	0.1739
290.4432	0.164
290.6559	0.1633
290.8686	0.1658
291.0813	0.1598
291.294	0.1664
291.5067	0.1799
291.7194	0.1622
291.932	0.1701
292.1447	0.181
292.3573	0.1562
292.5699	0.1712
292.7825	0.175
292.9951	0.1702
293.2077	0.1744
293.4203	0.1732
293.6328	0.1576
293.8454	0.1662
294.0579	0.1641
294.2704	0.1538
294.4829	0.1692
294.6954	0.1862
294.9079	0.1659
295.1204	0.1673
295.3328	0.1735
295.5453	0.1663
295.7577	0.167
295.9701	0.1713
296.1825	0.1731
296.3949	0.1814
296.6073	0.1625
296.8197	0.1558
297.0321	0.175
297.2444	0.1571
297.4567	0.171
297.6691	0.1761
297.8814	0.1755
298.0937	0.168
298.306	0.1793
298.5182	0.1623
298.7305	0.1771
298.9428	0.1607
299.155	0.1717
299.3672	0.1641
299.5794	0.1676
299.7916	0.1722
300.0038	0.1731
300.216	0.1683
300.4282	0.1767
300.6403	0.1628
300.8525	0.1761
301.0646	0.1591
301.2767	0.1651
301.4888	0.1659
301.7009	0.1737
301.913	0.1691
302.125	0.1724
302.3371	0.1614
302.5491	0.1812
302.7612	0.1715
302.9732	0.1687
303.1852	0.167
303.3972	0.1693
303.6092	0.1653
303.8211	0.1618
304.0331	0.1578
304.245	0.1589
304.457	0.16
304.6689	0.1654
304.8808	0.1654
305.0927	0.155
305.3046	0.1593
305.5164	0.1636
305.7283	0.1488
305.9401	0.161
306.152	0.1567
306.3638	0.1646
306.5756	0.148
306.7874	0.1542
306.9992	0.1491
307.2109	0.1418
307.4227	0.132
307.6344	0.1456
307.8462	0.1351
308.0579	0.1329
308.2696	0.1317
308.4813	0.1297
308.693	0.1312
308.9046	0.1477
309.1163	0.1309
309.328	0.1258
309.5396	0.1249
309.7512	0.1155
309.9628	0.1293
310.1744	0.1231
310.386	0.126
310.5976	0.1192
310.8091	0.1151
311.0207	0.1306
311.2322	0.123
311.4437	0.1068
311.6552	0.1093
311.8667	0.1231
312.0782	0.0983
312.2897	0.105
312.5012	0.1131
312.7126	0.1037
312.924	0.0989
313.1355	0.1167
313.3469	0.1104
313.5583	0.1111
313.7696	0.1016
313.981	0.1045
314.1924	0.1078
314.4037	0.0972
314.6151	0.1128
314.8264	0.092
315.0377	0.0958
315.249	0.1047
315.4603	0.1046
315.6716	0.11
315.8828	0.0987
316.0941	0.1021
316.3053	0.0871
316.5165	0.099
316.7277	0.0894
316.9389	0.1063
317.1501	0.0944
317.3613	0.0932
317.5724	0.0851
317.7836	0.1029
317.9947	0.0918
318.2058	0.0836
318.417	0.0838
318.6281	0.0827
318.8391	0.096
319.0502	0.091
319.2613	0.1057
319.4723	0.0981
319.6834	0.1032
319.8944	0.0787
320.1054	0.1042
320.3164	0.0909
320.5274	0.0955
320.7383	0.0879
320.9493	0.1012
321.1602	0.1107
321.3712	0.0739
321.5821	0.0948
321.793	0.0975
322.0039	0.093
322.2148	0.0844
322.4257	0.1035
322.6365	0.1173
322.8474	0.1005
323.0582	0.0993
323.269	0.1
323.4798	0.1055
323.6906	0.0957
323.9014	0.105
324.1122	0.1065
324.3229	0.0923
324.5337	0.0943
324.7444	0.0946
324.9551	0.1019
325.1658	0.1013
325.3765	0.1065
325.5872	0.1013
325.7979	0.1054
326.0085	0.0986
326.2192	0.0943
326.4298	0.0905
326.6404	0.1046
326.851	0.0899
327.0616	0.0961
327.2722	0.1062
327.4828	0.1054
327.6933	0.0981
327.9039	0.1008
328.1144	0.1043
328.3249	0.1056
328.5354	0.1013
328.7459	0.1089
328.9564	0.092
329.1669	0.111
329.3773	0.1109
329.5878	0.1023
329.7982	0.0885
330.0086	0.0985
330.219	0.0981
330.4294	0.1047
330.6398	0.0961
330.8502	0.0999
331.0605	0.1093
331.2708	0.107
331.4812	0.0929
331.6915	0.1021
331.9018	0.1095
332.1121	0.106
332.3224	0.0934
332.5326	0.1084
332.7429	0.0981
332.9531	0.1133
333.1633	0.1089
333.3735	0.1072
333.5837	0.0974
333.7939	0.0949
334.0041	0.1228
334.2143	0.1136
334.4244	0.1051
334.6346	0.0914
334.8447	0.1286
335.0548	0.0997
335.2649	0.113
335.475	0.1138
335.685	0.1108
335.8951	0.1202
336.1051	0.1143
336.3152	0.1077
336.5252	0.0984
336.7352	0.1017
336.9452	0.1069
337.1552	0.1086
337.3652	0.1004
337.5751	0.1067
337.7851	0.1264
337.995	0.0937
338.2049	0.1054
338.4148	0.1142
338.6247	0.1123
338.8346	0.1127
339.0445	0.1048
339.2543	0.1067
339.4642	0.1079
339.674	0.0942
339.8838	0.1087
340.0936	0.1103
340.3034	0.1096
340.5132	0.1094
340.7229	0.1126
340.9327	0.1118
341.1424	0.1179
341.3522	0.1153
341.5619	0.118
341.7716	0.1092
341.9813	0.1043
342.1909	0.1083
342.4006	0.1245
342.6102	0.1248
342.8199	0.1157
343.0295	0.1262
343.2391	0.127
343.4487	0.1309
343.6583	0.1113
343.8679	0.1249
344.0774	0.125
344.287	0.127
344.4965	0.1216
344.706	0.1157
344.9155	0.1151
345.125	0.1185
345.3345	0.1384
345.544	0.1269
345.7534	0.1375
345.9629	0.1193
346.1723	0.1101
346.3817	0.1218
346.5911	0.1333
346.8005	0.1297
347.0099	0.1365
347.2193	0.1394
347.4286	0.131
347.638	0.1281
347.8473	0.1354
348.0566	0.1384
348.2659	0.1327
348.4752	0.1263
348.6845	0.1212
348.8937	0.1288
349.103	0.1446
349.3122	0.1255
349.5214	0.1336
349.7306	0.1403
349.9398	0.1402
350.149	0.1417
350.3582	0.1311
350.5674	0.1384
350.7765	0.1385
350.9856	0.1395
351.1948	0.1433
351.4039	0.1351
351.613	0.1172
351.822	0.1398
352.0311	0.1383
352.2402	0.1455
352.4492	0.1423
352.6582	0.1438
352.8672	0.1431
353.0762	0.1407
353.2852	0.1394
353.4942	0.1375
353.7032	0.1469
353.9121	0.1568
354.1211	0.1491
354.33	0.1637
354.5389	0.1561
354.7478	0.1458
354.9567	0.1545
355.1655	0.1425
355.3744	0.1493
355.5833	0.143
355.7921	0.1675
356.0009	0.159
356.2097	0.1732
356.4185	0.1668
356.6273	0.1637
356.8361	0.1779
357.0448	0.1528
357.2536	0.1433
357.4623	0.1535
357.671	0.164
357.8797	0.1627
358.0884	0.1521
358.2971	0.1513
358.5057	0.1729
358.7144	0.1631
358.923	0.1685
359.1316	0.1619
359.3402	0.1698
359.5488	0.1623
359.7574	0.1641
359.966	0.1727
360.1746	0.1799
360.3831	0.1757
360.5916	0.166
360.8002	0.1746
361.0087	0.1803
361.2172	0.1773
361.4256	0.17
361.6341	0.1953
361.8426	0.1666
362.051	0.1867
362.2594	0.1715
362.4678	0.1772
362.6762	0.1906
362.8846	0.2021
363.093	0.1983
363.3014	0.1724
363.5097	0.1629
363.718	0.1942
363.9264	0.1882
364.1347	0.1715
364.343	0.1914
364.5513	0.1928
364.7595	0.2098
364.9678	0.1952
365.176	0.1937
365.3842	0.1961
365.5925	0.1865
365.8007	0.1977
366.0089	0.2061
366.217	0.1969
366.4252	0.2163
366.6333	0.2041
366.8415	0.218
367.0496	0.2127
367.2577	0.2142
367.4658	0.2101
367.6739	0.2215
367.882	0.2137
368.09	0.1977
368.2981	0.2088
368.5061	0.2053
368.7141	0.218
368.9221	0.2155
369.1301	0.2185
369.3381	0.2083
369.5461	0.2063
369.754	0.2182
369.962	0.2389
370.1699	0.2107
370.3778	0.2241
370.5857	0.2059
370.7936	0.2274
371.0015	0.2213
371.2093	0.2212
371.4172	0.2315
371.625	0.2351
371.8328	0.2252
372.0406	0.2144
372.2484	0.2287
372.4562	0.2293
372.664	0.225
372.8717	0.2398
373.0795	0.2108
373.2872	0.213
373.4949	0.2196
373.7026	0.2246
373.9103	0.2318
374.118	0.2434
374.3256	0.2117
374.5333	0.2339
374.7409	0.235
374.9485	0.2643
375.1561	0.2225
375.3637	0.2296
375.5713	0.2357
375.7789	0.2511
375.9864	0.2274
376.194	0.2392
376.4015	0.251
376.609	0.2427
376.8165	0.2368
377.024	0.2496
377.2315	0.2319
377.4389	0.2486
377.6464	0.2636
377.8538	0.2473
378.0612	0.2413
378.2686	0.244
378.476	0.2676
378.6834	0.246
378.8908	0.27
379.0981	0.2608
379.3055	0.2811
379.5128	0.239
379.7201	0.2529
379.9274	0.2498
380.1347	0.2524
380.342	0.2738
380.5492	0.251
380.7565	0.2692
380.9637	0.2563
381.1709	0.2715
381.3781	0.2601
381.5853	0.2642
381.7925	0.2666
381.9997	0.2615
382.2068	0.2747
382.4139	0.2575
382.6211	0.2601
382.8282	0.2509
383.0353	0.2505
383.2424	0.2752
383.4494	0.2732
383.6565	0.256
383.8635	0.2559
384.0706	0.2587
384.2776	0.2624
384.4846	0.2543
384.6916	0.2754
384.8986	0.2683
385.1055	0.2747
385.3125	0.2696
385.5194	0.2489
385.7263	0.272
385.9333	0.2665
386.1402	0.2524
386.347	0.2675
386.5539	0.2417
386.7608	0.2615
386.9676	0.2558
387.1744	0.2756
387.3813	0.2415
387.5881	0.279
387.7948	0.2528
388.0016	0.2516
388.2084	0.2514
388.4151	0.2487
388.6219	0.2749
388.8286	0.2444
389.0353	0.2692
389.242	0.2734
389.4487	0.2516
389.6553	0.2754
389.862	0.2329
390.0686	0.2464
390.2753	0.2666
390.4819	0.2632
390.6885	0.243
390.8951	0.2515
391.1016	0.2564
391.3082	0.2329
391.5147	0.2459
391.7213	0.2565
391.9278	0.2354
392.1343	0.2499
392.3408	0.2368
392.5473	0.2514
392.7537	0.2336
392.9602	0.2384
393.1666	0.2364
393.373	0.2265
393.5794	0.2477
393.7858	0.2266
393.9922	0.2129
394.1986	0.2406
394.4049	0.2356
394.6113	0.2336
394.8176	0.2244
395.0239	0.2379
395.2302	0.2161
395.4365	0.2401
395.6428	0.2375
395.8491	0.223
396.0553	0.2346
396.2615	0.2217
396.4678	0.2279
396.674	0.2066
396.8802	0.2234
397.0863	0.2501
397.2925	0.2229
397.4987	0.2046
397.7048	0.2205
397.9109	0.2235
398.117	0.2165
398.3231	0.2128
398.5292	0.2362
398.7353	0.2434
398.9413	0.2153
399.1474	0.2052
399.3534	0.2294
399.5594	0.1947
399.7654	0.2401
399.9714	0.2262
400.1774	0.223
400.3833	0.2344
400.5893	0.2286
400.7952	0.224
401.0011	0.2207
401.207	0.216
401.4129	0.2329
401.6188	0.2263
401.8247	0.2147
402.0305	0.2213
402.2364	0.2133
402.4422	0.2325
402.648	0.2233
402.8538	0.2378
403.0596	0.1909
403.2654	0.2273
403.4711	0.2235
403.6768	0.2083
403.8826	0.2284
404.0883	0.2322
404.294	0.2271
404.4997	0.2205
404.7054	0.2257
404.911	0.2132
405.1167	0.2113
405.3223	0.228
405.5279	0.2239
405.7335	0.2413
405.9391	0.2228
406.1447	0.2298
406.3502	0.2384
406.5558	0.2144
406.7613	0.2247
406.9668	0.2184
407.1724	0.2036
407.3778	0.221
407.5833	0.2173
407.7888	0.2187
407.9942	0.2314
408.1997	0.2272
408.4051	0.2104
408.6105	0.2046
408.8159	0.2346
409.0213	0.2218
409.2267	0.2392
409.432	0.2125
409.6374	0.2398
409.8427	0.21
410.048	0.2105
410.2533	0.2359
410.4586	0.2181
410.6639	0.2037
410.8691	0.2117
411.0744	0.2057
411.2796	0.2123
411.4848	0.2168
411.69	0.2034
411.8952	0.2424
412.1004	0.2078
412.3056	0.2083
412.5107	0.217
412.7158	0.2137
412.921	0.2284
413.1261	0.2182
413.3312	0.2091
413.5362	0.1981
413.7413	0.2197
413.9464	0.2229
414.1514	0.2156
414.3564	0.1955
414.5614	0.204
414.7664	0.218
414.9714	0.2083
415.1764	0.2238
415.3813	0.2182
415.5863	0.1928
415.7912	0.2085
415.9961	0.227
416.201	0.213
416.4059	0.2257
416.6108	0.2008
416.8156	0.2175
417.0205	0.2214
417.2253	0.1988
417.4301	0.2192
417.6349	0.2049
417.8397	0.1998
418.0445	0.2128
418.2492	0.2229
418.454	0.201
418.6587	0.2087
418.8634	0.2041
419.0681	0.2079
419.2728	0.2038
419.4775	0.1957
419.6822	0.2044
419.8868	0.1844
420.0915	0.2028
420.2961	0.1947
420.5007	0.1961
420.7053	0.2
420.9099	0.2033
421.1144	0.1903
421.319	0.2058
421.5235	0.2124
421.728	0.1954
421.9325	0.2032
422.137	0.2149
422.3415	0.2003
422.546	0.1882
422.7504	0.1833
422.9549	0.1983
423.1593	0.2138
423.3637	0.2038
423.5681	0.1963
423.7725	0.1788
423.9769	0.1892
424.1812	0.191
424.3856	0.1888
424.5899	0.1992
424.7942	0.1772
424.9985	0.1942
425.2028	0.1701
425.4071	0.2012
425.6113	0.1646
425.8156	0.1715
426.0198	0.1867
426.224	0.1595
426.4282	0.1843
426.6324	0.1727
426.8366	0.1627
427.0407	0.1662
427.2449	0.1755
427.449	0.1712
427.6531	0.1604
427.8572	0.1631
428.0613	0.1675
428.2654	0.1613
428.4694	0.1716
428.6735	0.1612
428.8775	0.1739
429.0815	0.1514
429.2855	0.1527
429.4895	0.1588
429.6935	0.153
429.8975	0.1633
430.1014	0.1493
430.3053	0.1512
430.5093	0.1474
430.7132	0.1455
430.9171	0.1306
431.1209	0.141
431.3248	0.1327
431.5286	0.1395
431.7325	0.153
431.9363	0.1437
432.1401	0.1291
432.3439	0.1344
432.5477	0.1155
432.7514	0.14
432.9552	0.1352
433.1589	0.1202
433.3627	0.1149
433.5664	0.1117
433.7701	0.1266
433.9737	0.1317
434.1774	0.1224
434.3811	0.1105
434.5847	0.1344
434.7883	0.104
434.9919	0.1069
435.1955	0.1041
435.3991	0.1216
435.6027	0.1053
435.8062	0.1108
436.0098	0.0967
436.2133	0.1076
436.4168	0.1025
436.6203	0.0987
436.8238	0.1078
437.0272	0.1061
437.2307	0.0995
437.4341	0.1038
437.6375	0.1095
437.841	0.089
438.0443	0.0806
438.2477	0.0829
438.4511	0.0802
438.6545	0.104
438.8578	0.1021
439.0611	0.105
439.2644	0.0986
439.4677	0.0861
439.671	0.0868
439.8743	0.108
440.0775	0.096
440.2808	0.0634
440.484	0.0853
440.6872	0.0546
440.8904	0.0775
441.0936	0.0796
441.2967	0.0594
441.4999	0.0773
441.703	0.0627
441.9062	0.0587
442.1093	0.0697
442.3124	0.0753
442.5155	0.0434
442.7185	0.0622
442.9216	0.0315
443.1246	0.0762
443.3276	0.06
443.5307	0.068
443.7337	0.0757
443.9366	0.0534
444.1396	0.0611
444.3426	0.0569
444.5455	0.0673
444.7484	0.0444
444.9513	0.0601
445.1542	0.0625
445.3571	0.0463
445.56	0.0558
445.7628	0.0411
445.9657	0.0395
446.1685	0.0471
446.3713	0.0385
446.5741	0.0547
446.7769	0.0365
446.9797	0.0367
447.1824	0.048
447.3852	0.0345
447.5879	0.047
447.7906	0.0536
447.9933	0.0192
448.196	0.0263
448.3986	0.0265
448.6013	0.0326
448.8039	0.0262
449.0066	0.0256
449.2092	0.0349
449.4118	0.0327
449.6143	0.0215
449.8169	0.0399
450.0195	0.022
450.222	0.0174
450.4245	0.0315
450.627	0.0467
450.8295	0.012
451.032	0.0327
451.2345	0.0218
451.4369	0.0257
451.6394	0.028
451.8418	0.0084
452.0442	0.0207
452.2466	0.0439
452.449	0.0023
452.6513	0.0211
452.8537	0.0235
453.056	-0.0034
453.2583	0.022
453.4607	0.0183
453.663	0.0177
453.8652	0.029
454.0675	0.015
454.2697	0.0082
454.472	0.0057
454.6742	0.0271
454.8764	0.0025
455.0786	0.0095
455.2808	0.0161
455.4829	0.0139
455.6851	0.0255
455.8872	0.0282
456.0893	0.0238
456.2915	0.0013
456.4935	0.0253
456.6956	0.0204
456.8977	0.017
457.0997	-0.0075
457.3018	0.004
457.5038	0.0138
457.7058	0.0012
457.9078	-0.0062
458.1098	0.0058
458.3117	0.0149
458.5137	0.0232
458.7156	0.0158
458.9175	0.0002
459.1194	0.0091
459.3213	0.0001
459.5232	-0.0032
459.725	-0.0077
459.9269	-0.0119
460.1287	-0.0054
460.3305	-0.0019
460.5323	0.0174
460.7341	-0.0012
460.9359	0.004
461.1376	0.0084
461.3394	0.0035
461.5411	0.0009
461.7428	0.0064
461.9445	-0.0026
462.1462	0.0188
462.3479	-0.0104
462.5495	-0.0051
462.7512	0.0066
462.9528	-0.012
463.1544	-0.0149
463.356	0.0125
463.5576	-0.0004
463.7592	-0.0141
463.9607	0.0125
464.1623	0.0166
464.3638	0.0269
464.5653	-0.0121
464.7668	-0.0134
464.9683	0.0045
465.1697	0.0248
465.3712	-0.0105
465.5726	-0.0106
465.7741	-0.0008
465.9755	0.0005
466.1769	-0.0037
466.3782	-0.0065
466.5796	-0.0094
466.7809	0.0068
466.9823	-0.0185
467.1836	-0.0073
467.3849	0.0002
467.5862	-0.0065
467.7875	-0.0036
467.9887	0.0155
468.19	-0.0104
468.3912	-0.007
468.5924	-0.0084
468.7936	-0.0019
468.9948	-0.0046
469.196	0.0058
469.3972	-0.0154
469.5983	-0.0103
469.7994	-0.0176
470.0006	0.0026
470.2017	-0.0239
470.4027	-0.018
470.6038	-0.0042
470.8049	-0.0236
471.0059	-0.02
471.2069	-0.0297
471.408	0.0001
471.6089	-0.0098
471.8099	-0.0096
472.0109	-0.0026
472.2119	-0.006
472.4128	-0.0291
472.6137	-0.0103
472.8146	-0.0281
473.0155	-0.0135
473.2164	-0.0054
473.4173	-0.006
473.6181	0.0064
473.819	-0.0055
474.0198	-0.0151
474.2206	-0.0103
474.4214	0.0062
474.6222	-0.0015
474.8229	-0.0057
475.0237	-0.0274
475.2244	-0.0115
475.4251	-0.0142
475.6258	-0.0099
475.8265	-0.0112
476.0272	0.004
476.2278	0.0058
476.4285	-0.0049
476.6291	-0.0175
476.8297	-0.006
477.0303	-0.0085
477.2309	-0.0083
477.4315	-0.0174
477.632	-0.0182
477.8326	-0.0014
478.0331	-0.0021
478.2336	-0.0068
478.4341	-0.0079
478.6346	-0.0065
478.8351	0.0014
479.0355	0.0005
479.236	-0.0086
479.4364	-0.0047
479.6368	-0.0033
479.8372	-0.0188
480.0376	0.005
480.2379	-0.0276
480.4383	-0.0199
480.6386	-0.0037
480.8389	-0.008
481.0392	-0.0098
481.2395	-0.0039
481.4398	-0.0058
481.6401	-0.0041
481.8403	-0.0146
482.0405	-0.011
482.2408	-0.0062
482.441	0.001
482.6411	-0.007
482.8413	-0.0198
483.0415	-0.0106
483.2416	-0.0181
483.4417	0.0032
483.6419	-0.0083
483.8419	-0.0153
484.042	0.0006
484.2421	-0.0074
484.4422	-0.0123
484.6422	-0.0171
484.8422	-0.011
485.0422	-0.0111
485.2422	0.0006
485.4422	-0.0168
485.6422	-0.016
485.8421	-0.0004
486.042	-0.0094
486.242	-0.0073
486.4419	-0.0117
486.6417	-0.0133
486.8416	-0.0107
487.0415	-0.0083
487.2413	-0.0087
487.4411	-0.0161
487.641	-0.0108
487.8408	-0.003
488.0405	-0.0134
488.2403	-0.0122
488.4401	-0.008
488.6398	-0.0043
488.8395	-0.0194
489.0392	-0.0069
489.2389	-0.015
489.4386	-0.0074
489.6383	-0.013
489.8379	-0.0082
490.0376	-0.0086
490.2372	-0.0185
490.4368	-0.0145
490.6364	-0.0172
490.836	-0.0131
491.0355	-0.0125
491.2351	-0.0189
491.4346	-0.0118
491.6341	-0.0125
491.8336	-0.0011
492.0331	-0.0213
492.2326	-0.0144
492.432	-0.0105
492.6315	-0.0028
492.8309	-0.0125
493.0303	-0.0172
493.2297	-0.008
493.4291	-0.0144
493.6284	-0.0211
493.8278	-0.0233
494.0271	-0.0073
494.2264	-0.0028
494.4257	-0.0225
494.625	-0.0107
494.8243	-0.0198
495.0236	-0.0225
495.2228	-0.0205
495.422	-0.0021
495.6213	-0.0045
495.8205	-0.0039
496.0196	-0.0054
496.2188	-0.0045
496.418	-0.0125
496.6171	-0.0162
496.8162	-0.0143
497.0153	-0.0075
497.2144	-0.0137
497.4135	-0.0004
497.6126	-0.0277
497.8116	-0.0183
498.0107	-0.0059
498.2097	-0.0244
498.4087	-0.0096
498.6077	-0.0124
498.8067	-0.0165
499.0056	0.0046
499.2046	-0.0126
499.4035	-0.0235
499.6024	-0.0005
499.8013	-0.0069
500.0002	-0.0106
500.199	-0.0115
500.3979	-0.0115
500.5967	-0.0223
500.7956	-0.015
500.9944	-0.0003
501.1932	-0.015
501.3919	-0.0138
501.5907	-0.0145
501.7895	-0.0102
501.9882	-0.0139
502.1869	-0.012
502.3856	-0.0065
502.5843	-0.0184
502.783	-0.0077
502.9816	-0.0151
503.1803	-0.0162
503.3789	-0.0197
503.5775	-0.0116
503.7761	-0.0079
503.9747	-0.0084
504.1732	-0.0119
504.3718	-0.0057
504.5703	-0.0205
504.7689	-0.0088
504.9674	-0.0057
505.1658	-0.0097
505.3643	-0.0094
505.5628	-0.0141
505.7612	-0.0151
505.9597	-0.0058
506.1581	-0.014
506.3565	-0.0023
506.5549	-0.0138
506.7532	-0.023
506.9516	-0.0083
507.1499	-0.0157
507.3482	-0.0209
507.5465	-0.0087
507.7448	-0.0207
507.9431	-0.0099
508.1414	-0.0052
508.3396	-0.0134
508.5379	-0.015
508.7361	-0.0149
508.9343	-0.0089
509.1325	-0.0006
509.3306	-0.0179
509.5288	-0.0145
509.7269	-0.008
509.9251	-0.0032
510.1232	-0.0127
510.3213	-0.0053
510.5193	-0.005
510.7174	-0.0131
510.9154	-0.0184
511.1135	-0.0183
511.3115	-0.0164
511.5095	-0.0136
511.7075	-0.004
511.9055	-0.0047
512.1034	-0.0181
512.3014	-0.0114
512.4993	-0.001
512.6972	-0.0142
512.8951	-0.0192
513.093	-0.0099
513.2908	-0.0044
513.4887	-0.0141
513.6865	-0.0117
513.8844	-0.0151
514.0822	-0.0112
514.2799	-0.0179
514.4777	-0.0118
514.6755	-0.0209
514.8732	-0.0166
515.0709	-0.0097
515.2687	-0.0135
515.4664	-0.0101
515.664	-0.0088
515.8617	-0.0161
516.0594	-0.013
516.257	-0.0146
516.4546	-0.0196
516.6522	-0.0111
516.8498	-0.0246
517.0474	-0.0051
517.2449	-0.0109
517.4425	-0.0136
517.64	-0.0122
517.8375	0.002
518.035	-0.0057
518.2325	-0.017
518.43	-0.0133
518.6274	-0.0131
518.8249	-0.0172
519.0223	-0.0192
519.2197	-0.0124
519.4171	-0.0132
519.6145	-0.0142
519.8118	-0.0078
520.0092	-0.0087
520.2065	-0.0049
520.4038	-0.0153
520.6011	-0.0082
520.7984	-0.0212
520.9956	-0.0165
521.1929	-0.0181
521.3901	-0.0137
521.5874	-0.0136
521.7846	-0.0079
521.9818	-0.0132
522.1789	-0.0159
522.3761	-0.0132
522.5732	-0.016
522.7704	-0.0211
522.9675	-0.0138
523.1646	-0.0131
523.3617	-0.0079
523.5587	-0.0046
523.7558	-0.0098
523.9528	-0.0136
524.1498	-0.0085
524.3468	-0.004
524.5438	-0.0098
524.7408	-0.0177
524.9378	-0.0025
525.1347	-0.0088
525.3316	-0.0021
525.5285	-0.018
525.7254	-0.0147
525.9223	-0.0098
526.1192	-0.007
526.316	-0.0113
526.5129	-0.0053
526.7097	0.0035
526.9065	-0.0076
527.1033	-0.0169
527.3	-0.0026
527.4968	-0.0128
527.6935	-0.0076
527.8903	-0.0211
528.087	-0.011
528.2837	-0.0109
528.4804	-0.004
528.677	-0.0115
528.8737	-0.003
529.0703	0.0022
529.2669	-0.0039
529.4635	-0.0083
529.6601	-0.0067
529.8567	-0.007
530.0532	-0.0119
530.2498	-0.0077
530.4463	-0.0022
530.6428	-0.0168
530.8393	0.0083
531.0358	-0.0037
531.2322	0.0015
531.4287	-0.002
531.6251	-0.0178
531.8215	0.0034
532.0179	-0.0027
532.2143	-0.0084
532.4107	-0.0096
532.607	-0.012
532.8034	-0.0006
532.9997	-0.009
533.196	-0.012
533.3923	-0.0104
533.5886	-0.0055
533.7848	-0.0056
533.9811	-0.0079
534.1773	-0.0035
534.3735	0.0014
534.5697	0.0008
534.7659	-0.0127
534.9621	-0.0117
535.1582	-0.0175
535.3544	-0.0162
535.5505	-0.0143
535.7466	-0.013
535.9427	-0.0007
536.1387	-0.018
536.3348	-0.0123
536.5308	0.0067
536.7269	-0.0157
536.9229	0.0008
537.1189	-0.0046
537.3148	-0.008
537.5108	-0.0107
537.7068	-0.0077
537.9027	-0.0116
538.0986	-0.002
538.2945	-0.0103
538.4904	-0.009
538.6863	-0.0118
538.8821	-0.0032
539.078	-0.0044
539.2738	-0.004
539.4696	-0.0105
539.6654	-0.0024
539.8611	0.0015
540.0569	-0.0097
540.2526	-0.0022
540.4484	-0.0062
540.6441	-0.0009
540.8398	-0.0079
541.0355	-0.0083
541.2311	-0.0115
541.4268	-0.0115
541.6224	-0.0024
541.818	-0.008
542.0136	-0.0145
542.2092	-0.0042
542.4048	0.0021
542.6003	-0.007
542.7959	0.0091
542.9914	-0.0037
543.1869	-0.0095
543.3824	-0.0077
543.5779	-0.0117
543.7734	-0.0091
543.9688	-0.0039
544.1642	0.0006
544.3596	0.0084
544.555	-0.0023
544.7504	-0.007
544.9458	-0.0059
545.1411	-0.0018
545.3365	-0.0092
545.5318	-0.0084
545.7271	-0.0029
545.9224	-0.0066
546.1177	-0.0028
546.3129	-0.0032
546.5081	-0.0097
546.7034	-0.001
546.8986	-0.004
547.0938	-0.0118
547.289	-0.0077
547.4841	-0.0076
547.6793	0.0056
547.8744	-0.0198
548.0695	-0.0012
548.2646	-0.0128
548.4597	0.0005
548.6548	-0.0087
548.8498	-0.0036
549.0448	-0.0019
549.2399	-0.0057
549.4349	0.005
549.6298	-0.0008
549.8248	-0.0075
550.0198	0.0007
550.2147	-0.0103
550.4096	-0.0125
550.6045	0
550.7994	0.0075
550.9943	-0.0041
551.1892	-0.0165
551.384	0.0014
551.5788	-0.0098
551.7737	0.0025
551.9685	0.0016
552.1632	0.0021
552.358	-0.0072
552.5528	-0.0034
552.7475	-0.0071
552.9422	-0.0044
553.1369	-0.0052
553.3316	0.0016
553.5263	-0.015
553.7209	0.0024
553.9156	-0.0026
554.1102	-0.0068
554.3048	-0.0121
554.4994	0.0066
554.694	-0.0072
554.8885	-0.0048
555.0831	-0.0066
555.2776	-0.0013
555.4721	-0.0042
555.6666	-0.0129
555.8611	0.003
556.0555	-0.0064
556.25	0
556.4444	-0.0076
556.6388	-0.0035
556.8332	0.0005
557.0276	-0.009
557.222	0.0016
557.4163	-0.0028
557.6107	-0.0129
557.805	-0.0034
557.9993	-0.011
558.1936	0.0045
558.3879	0.0009
558.5821	-0.0041
558.7764	0.0008
558.9706	0.0034
559.1648	0.0016
559.359	0.0005
559.5532	-0.0099
559.7473	-0.0045
559.9415	-0.0013
560.1356	-0.0079
560.3297	-0.0071
560.5238	-0.0044
560.7179	-0.0046
560.9119	-0.0065
561.106	-0.004
561.3	-0.008
561.494	-0.0021
561.688	-0.0078
561.882	-0.0066
562.076	-0.0145
562.2699	0.0002
562.4639	0.0046
562.6578	0.0029
562.8517	-0.0067
563.0456	-0.001
563.2395	0.0006
563.4333	-0.0032
563.6272	0.0016
563.821	-0.0039
564.0148	0.006
564.2086	-0.0122
564.4024	-0.0033
564.5961	-0.0151
564.7899	0.0048
564.9836	-0.0001
565.1773	-0.0089
565.371	0.0063
565.5647	0.0057
565.7584	0.0101
565.952	-0.0093
566.1456	0.0077
566.3393	0.0068
566.5329	0.0015
566.7264	-0.0064
566.92	-0.0112
567.1136	0.0053
567.3071	-0.0026
567.5006	0.0011
567.6941	0.0022
567.8876	-0.003
568.0811	-0.0026
568.2745	0.0049
568.468	0.0024
568.6614	0.0023
568.8548	0.0027
569.0482	-0.0062
569.2416	-0.0038
569.4349	-0.0065
569.6283	-0.0029
569.8216	-0.0092
570.0149	-0.0082
570.2082	0.0006
570.4015	0.0072
570.5947	-0.0006
570.788	-0.0008
570.9812	0.0011
571.1744	-0.0058
571.3676	-0.0034
571.5608	-0.0101
571.754	0.0048
571.9471	-0.0012
572.1402	-0.0087
572.3333	-0.0076
572.5264	-0.0114
572.7195	-0.004
572.9126	0.0035
573.1057	-0.001
573.2987	-0.0059
573.4917	0.0025
573.6847	-0.0079
573.8777	0.0086
574.0707	-0.0036
574.2636	-0.0071
574.4566	-0.0058
574.6495	0.0053
574.8424	-0.0053
575.0353	-0.0058
575.2281	0.0101
575.421	0.0042
575.6138	-0.0016
575.8067	0.0021
575.9995	-0.0039
576.1923	0.0007
576.385	-0.0039
576.5778	-0.0054
576.7706	-0.0033
576.9633	-0.0057
577.156	0.0011
577.3487	-0.0083
577.5414	-0.0019
577.734	-0.0038
577.9267	0.0004
578.1193	-0.0172
578.3119	-0.0104
578.5045	-0.0042
578.6971	-0.0043
578.8897	0.0021
579.0822	-0.0037
579.2747	0.0021
579.4673	-0.0019
579.6598	-0.0059
579.8522	-0.0013
580.0447	-0.0043
580.2372	-0.0066
580.4296	0.0017
580.622	-0.0026
580.8144	-0.0056
581.0068	-0.0074
581.1992	-0.0144
581.3915	-0.0074
581.5839	-0.0117
581.7762	-0.0078
581.9685	-0.0068
582.1608	-0.002
582.353	-0.0072
582.5453	-0.0037
582.7375	0.0008
582.9298	-0.0059
583.122	-0.006
583.3142	-0.0045
583.5063	-0.0122
583.6985	0.001
583.8906	-0.008
584.0827	-0.0069
584.2749	0.0066
584.4669	-0.0027
584.659	0.0007
584.8511	-0.0059
585.0431	-0.0082
585.2352	-0.0071
585.4272	-0.006
585.6192	-0.0019
585.8111	0.0005
586.0031	-0.0012
586.195	-0.0057
586.387	0.0067
586.5789	0.0021
586.7708	-0.0009
586.9627	-0.0002
587.1545	-0.0057
587.3464	0.0037
587.5382	0.0059
587.73	0.001
587.9218	0.0109
588.1136	-0.0064
588.3053	0.0052
588.4971	-0.0008
588.6888	-0.0077
588.8805	-0.0044
589.0722	0.0056
589.2639	0.0061
589.4556	-0.0045
589.6472	0.0002
589.8389	-0.0033
590.0305	-0.018
590.2221	0.0057
590.4137	-0.0087
590.6052	0.0005
590.7968	0.0015
590.9883	-0.0058
591.1798	-0.0045
591.3713	0.0013
591.5628	0.0014
591.7543	0.0016
591.9458	0.0003
592.1372	0.0014
592.3286	0.0055
592.52	0.0029
592.7114	-0.011
592.9028	-0.0045
593.0941	-0.0067
593.2855	-0.0028
593.4768	-0.0083
593.6681	-0.0089
593.8594	-0.0072
594.0506	-0.0021
594.2419	0.0063
594.4331	-0.0034
594.6244	-0.0002
594.8156	-0.0058
595.0067	0.0025
595.1979	0.0036
595.3891	0.0044
595.5802	0.0007
595.7713	0.0015
595.9624	-0.0005
596.1535	0.0002
596.3446	0.0059
596.5357	0.0011
596.7267	0.0069
596.9177	-0.0071
597.1087	-0.0058
597.2997	-0.0062
597.4907	0.0093
597.6817	0
597.8726	0.0003
598.0635	-0.0007
598.2544	0.001
598.4453	-0.0007
598.6362	-0.0012
598.827	-0.0026
599.0179	0.0063
599.2087	0.007
599.3995	0.0044
599.5903	0.0016
599.7811	0.0024
599.9718	0.0004
600.1626	0.0003
600.3533	-0.0026
600.544	0.0016
600.7347	0.0034
600.9254	0.005
601.116	-0.0032
601.3067	-0.0004
601.4973	-0.0004
601.6879	0.0019
601.8785	-0.0076
602.0691	0.0098
602.2596	0.0072
602.4502	0.0069
602.6407	0.0053
602.8312	0.0022
603.0217	-0.0059
603.2122	-0.0012
603.4027	0.0042
603.5931	0.0077
603.7835	-0.0074
603.9739	-0.0003
604.1643	0.0004
604.3547	-0.0024
604.5451	-0
604.7354	-0.0026
604.9257	-0.0008
605.116	-0.001
605.3063	0.004
605.4966	0.0069
605.6869	0.0036
605.8771	0.0115
606.0673	0.002
606.2575	0.0075
606.4477	0.0045
606.6379	0.0038
606.8281	-0.0017
607.0182	0.0021
607.2083	0.0115
607.3985	-0.0037
607.5885	0.0005
607.7786	0.0023
607.9687	-0.001
608.1587	0.0101
608.3488	-0.0029
608.5388	-0.0007
608.7288	-0.004
608.9187	-0.0041
609.1087	-0.0026
609.2986	-0.0036
609.4886	0.0012
609.6785	-0.0024
609.8684	0.0062
610.0582	-0.0013
610.2481	-0.0023
610.4379	-0.0013
610.6278	-0.0052
610.8176	-0.0049
611.0074	-0.0051
611.1971	-0.0039
611.3869	-0.0042
611.5766	-0.0123
611.7664	0.0007
611.9561	0.0087
612.1458	-0.0005
612.3354	-0.009
612.5251	0.0003
612.7147	0.0045
612.9044	0.0069
613.094	-0.0042
613.2836	0.0028
613.4731	-0.0028
613.6627	-0.0029
613.8522	0.0059
614.0417	0.0018
614.2313	0.0043
614.4207	-0.0106
614.6102	-0.0006
614.7997	-0.0049
614.9891	-0.01
615.1785	-0.0011
615.3679	-0.0042
615.5573	0.0052
615.7467	0.0028
615.9361	0.0011
616.1254	0.005
616.3147	-0.0003
616.504	-0.0034
616.6933	-0.0011
616.8826	0.0068
617.0718	0.0097
617.2611	0.0038
617.4503	0.0027
617.6395	0.002
617.8287	-0.0007
618.0179	-0.0031
618.207	0.0076
618.3961	-0.0023
618.5853	-0.0059
618.7744	0.0036
618.9634	0.0066
619.1525	0.0075
619.3416	0.0032
619.5306	-0.0046
619.7196	-0.0024
619.9086	-0.0024
620.0976	0.0108
620.2866	0.0041
620.4755	0.006
620.6645	0.0074
620.8534	0.0022
621.0423	0.0006
621.2312	0.0068
621.42	0.0051
621.6089	0.0024
621.7977	0.0065
621.9865	-0.0056
622.1753	0.0022
622.3641	-0.0038
622.5529	0.0072
622.7416	0.002
622.9303	-0.006
623.1191	0.0063
623.3078	-0.003
623.4964	0.005
623.6851	-0.0031
623.8737	-0.0042
624.0624	0.006
624.251	-0.0102
624.4396	0.0025
624.6282	-0.0067
624.8167	-0.0058
625.0053	0.0059
625.1938	0.0035
625.3823	0.0022
625.5708	0.0015
625.7593	-0.0039
625.9477	-0.0017
626.1362	-0.0035
626.3246	-0.003
626.513	0.0097
626.7014	0.0103
626.8898	-0.0042
627.0781	0.0059
627.2665	0.0052
627.4548	0.0084
627.6431	0.0056
627.8314	0.0049
628.0197	0.0091
628.2079	-0.0094
628.3962	-0.0028
628.5844	0.0088
628.7726	0.0064
628.9608	0.007
629.1489	0.0061
629.3371	0.0028
629.5252	-0.0013
629.7134	0.0065
629.9015	0.001
630.0895	0.0044
630.2776	0.0065
630.4657	0.0004
630.6537	-0.0016
630.8417	-0.0017
631.0297	-0.0019
631.2177	0.0007
631.4057	-0.01
631.5936	-0.0043
631.7815	0.0045
631.9695	-0.0033
632.1574	0.01
632.3452	0.0089
632.5331	0.0062
632.7209	-0.0009
632.9088	0.0009
633.0966	0.0047
633.2844	-0.0058
633.4722	0.0036
633.6599	0.0115
633.8477	0.0084
634.0354	0.0033
634.2231	-0.0062
634.4108	0.0053
634.5985	0.0008
634.7861	0.0005
634.9738	-0.0047
635.1614	0.0011
635.349	-0.0021
635.5366	-0.0036
635.7242	0.002
635.9117	0.0085
636.0993	-0.0014
636.2868	0.0061
636.4743	0.0009
636.6618	0.0175
636.8492	0.0029
637.0367	0.0017
637.2241	-0.0043
637.4115	-0.004
637.5989	-0.006
637.7863	-0.001
637.9737	0.0008
638.161	0.0006
638.3484	0.0057
638.5357	0.0029
638.723	0
638.9103	0.0038
639.0975	0.0055
639.2848	0.0027
639.472	0.0049
639.6592	0.0026
639.8464	0.0082
640.0336	0.0103
640.2208	-0.001
640.4079	0.0011
640.595	0.0044
640.7821	0.0081
640.9692	0.0082
641.1563	0.0007
641.3434	0.0106
641.5304	0.0035
641.7174	-0.002
641.9044	-0.0015
642.0914	0.0023
642.2784	0.0089
642.4653	0.0168
642.6523	-0.0007
642.8392	-0.0065
643.0261	0.0066
643.213	-0.0012
643.3999	0.0068
643.5867	0.0015
643.7735	-0.001
643.9604	-0.0062
644.1472	-0.0008
644.3339	0.0024
644.5207	-0.002
644.7075	0.002
644.8942	0.0057
645.0809	0.0028
645.2676	0.0045
645.4543	-0.0011
645.6409	0.011
645.8276	0.0041
646.0142	0.0037
646.2008	-0.0008
646.3874	0.0025
646.574	0.0038
646.7605	-0.0008
646.9471	-0.0096
647.1336	0.0026
647.3201	0.0059
647.5066	-0.0025
647.6931	0.0109
647.8795	0.0055
648.0659	0.0124
648.2524	0.0086
648.4388	-0.0032
648.6252	0.0006
648.8115	0.0061
648.9979	-0.0065
649.1842	-0.0014
649.3705	0.0071
649.5568	0.0048
649.7431	0.0042
649.9294	0.0004
650.1156	0.0079
650.3018	-0.0044
650.488	0.0017
650.6742	0.0032
650.8604	0.0082
651.0466	-0.0066
651.2327	-0.0009
651.4188	0.0027
651.6049	0.0037
651.791	0.0032
651.9771	0.0035
652.1632	0.003
652.3492	0.0007
652.5352	0.0027
652.7212	0.0029
652.9072	0.0043
653.0932	0.0042
653.2791	0.0001
653.465	0.0015
653.651	-0.0041
653.8369	-0.0046
654.0227	0.0072
654.2086	0.0024
654.3944	0.0029
654.5803	0.005
654.7661	-0.0017
654.9519	0.0096
655.1377	-0.0034
655.3234	-0.0029
655.5092	-0.0044
655.6949	-0.0069
655.8806	-0.0049
656.0663	-0.0068
656.2519	-0.0026
656.4376	-0.0016
656.6232	0.0067
656.8088	0.0005
656.9945	0.0076
657.18	0.0035
657.3656	0.0031
657.5511	-0.0016
657.7367	-0.0038
657.9222	0.0049
658.1077	0.0047
658.2932	0.0055
658.4786	-0.0026
658.6641	-0.0031
658.8495	-0.0002
659.0349	0.0042
659.2203	0.0048
659.4057	0.0063
659.591	0.0065
659.7764	0.0032
659.9617	0.0075
660.147	0.0063
660.3323	0.0076
660.5176	0.015
660.7028	0.0158
660.888	0.0031
661.0733	0.004
661.2585	0.0023
661.4436	0.0007
661.6288	-0.0041
661.8139	0.0056
661.9991	0.0141
662.1842	0.0029
662.3693	0.0062
662.5544	0.0043
662.7394	-0.0017
662.9245	-0.0062
663.1095	-0.0078
663.2945	-0.0012
663.4795	-0.0043
663.6644	0.0018
663.8494	-0.004
664.0343	-0.0009
664.2193	-0.006
664.4042	0.0041
664.589	-0.0144
664.7739	-0.002
664.9587	-0.0033
665.1436	-0.0015
665.3284	0.0044
665.5132	-0.0088
665.698	0.002
665.8827	0.002
666.0675	0.0015
666.2522	-0.0049
666.4369	0.0032
666.6216	0.0116
666.8063	0.0037
666.9909	-0.001
667.1756	0.0025
667.3602	0.0026
667.5448	-0.0024
667.7294	0.0144
667.9139	0.0062
668.0985	0.0134
668.283	0.0016
668.4675	0.0024
668.652	0.0025
668.8365	-0.009
669.0209	0.0045
669.2054	0.0031
669.3898	0.0001
669.5742	0.0133
669.7586	0.0117
669.943	0.0132
670.1273	0.0107
670.3117	0.0095
670.496	0.0058
670.6803	0.0119
670.8646	0.0116
671.0488	-0.0015
671.2331	-0.0027
671.4173	0.0082
671.6015	-0.0014
671.7857	0.0035
671.9699	0.0103
672.1541	0.0018
672.3382	0.0059
672.5223	0.0091
672.7064	0.0088
672.8905	0.0066
673.0746	0.0036
673.2587	-0.0002
673.4427	0.0073
673.6267	0.0159
673.8107	0.0063
673.9947	0.0036
674.1787	0.0019
674.3626	-0.0059
674.5465	0.0131
674.7304	-0.0005
674.9143	0.0068
675.0982	0.0078
675.2821	0.0001
675.4659	0.0119
675.6497	0.0047
675.8335	0.0022
676.0173	0.0028
676.2011	0.0029
676.3849	0.0079
676.5686	-0.0079
676.7523	0.0006
676.936	-0.0052
677.1197	-0.0029
677.3034	-0.005
677.487	0.0075
677.6706	-0.0036
677.8542	0.0126
678.0378	0.0099
678.2214	0.0052
678.405	0.005
678.5885	0.0016
678.772	0.0035
678.9555	0.0029
679.139	-0.0021
679.3225	0.005
679.5059	-0.0021
679.6894	0.0066
679.8728	-0.0021
680.0562	-0.0052
680.2395	-0.0008
680.4229	0.0009
680.6062	0.0108
680.7896	0.0001
680.9729	0.0022
681.1562	0.0075
681.3394	0.0025
681.5227	-0.0062
681.7059	-0.0038
681.8891	0.0003
682.0723	0.0084
682.2555	0.0043
682.4387	-0.0025
682.6218	-0.0002
682.805	0.0048
682.9881	0.0076
683.1712	-0.006
683.3542	0
683.5373	0.004
683.7203	0.0016
683.9034	-0.0007
684.0864	-0.0062
684.2694	0.0014
684.4523	0.0024
684.6353	0.0007
684.8182	0.006
685.0011	0.0011
685.184	0.0136
685.3669	0.0067
685.5498	0.0106
685.7326	0.0009
685.9154	-0.0001
686.0982	0.0114
686.281	0.0113
686.4638	0.0022
686.6465	0.0015
686.8293	-0.0012
687.012	0.0043
687.1947	-0.0003
687.3774	0.0083
687.56	0.0024
687.7427	0.0062
687.9253	-0.0019
688.1079	-0.0003
688.2905	0.0075
688.4731	-0.0056
688.6556	-0.0057
688.8382	0.002
689.0207	-0.0017
689.2032	-0.0085
689.3857	-0.0026
689.5681	0.0014
689.7506	0.0019
689.933	-0.003
690.1154	-0.0003
690.2978	-0.0001
690.4802	0.0043
690.6626	-0.0106
690.8449	-0.0019
691.0272	0.0058
691.2095	-0.0062
691.3918	-0.008
691.5741	0.0046
691.7563	0.0025
691.9386	0.0002
692.1208	0.0015
692.303	-0.0033
692.4852	-0.0026
692.6673	0.0034
692.8495	0.003
693.0316	0.0036
693.2137	0.0014
693.3958	0.0085
693.5778	-0.0023
693.7599	0.0048
693.9419	0.006
694.1239	0.0044
694.3059	-0.0045
694.4879	0.01
694.6699	0.0083
694.8518	0.0046
695.0337	0.0001
695.2157	0.0016
695.3975	0.0019
695.5794	0.0018
695.7613	-0.0012
695.9431	-0.0112
696.1249	-0.0031
696.3067	-0.0018
696.4885	0.0084
696.6703	-0.0038
696.852	-0.0022
697.0337	0.0051
697.2154	0.0028
697.3971	0.0084
697.5788	0.0101
697.7605	-0.0002
697.9421	0.0006
698.1237	0.0038
698.3053	0.0041
698.4869	0.0015
698.6685	-0.0065
698.85	0.0003
699.0315	0.0086
699.213	-0.0043
699.3945	-0
699.576	0.0134
699.7575	0.0049
699.9389	0.011
700.1203	-0.0013
700.3017	-0.0056
700.4831	-0.0103
700.6645	-0.0039
700.8458	-0.005
701.0271	-0.0046
701.2084	0.0019
701.3897	-0.0006
701.571	0.0057
701.7523	-0.0181
701.9335	-0.0108
702.1147	-0.0023
702.2959	-0.0058
702.4771	0.0073
702.6583	-0.0003
702.8394	-0.0033
703.0205	-0.0013
703.2016	-0.0079
703.3827	-0.0028
703.5638	0.0073
703.7449	0.0051
703.9259	0.0106
704.1069	-0.0054
704.2879	0.006
704.4689	0.0037
704.6499	0.0019
704.8308	0.0002
705.0117	-0.0064
705.1927	-0.0001
705.3735	-0.0043
705.5544	0.003
705.7353	0.0047
705.9161	-0.0024
706.0969	-0.0038
706.2777	-0.0005
706.4585	-0.0096
706.6393	-0.0016
706.82	-0.0041
707.0007	0.0062
707.1815	0.0021
707.3621	0.0077
707.5428	0.0047
707.7235	0.0144
707.9041	0.0045
708.0847	-0.0042
708.2653	-0.0028
708.4459	-0.0033
708.6265	0.0037
708.807	0.0033
708.9875	0.0003
709.168	-0
709.3485	-0.003
709.529	-0.0043
709.7095	-0.0082
709.8899	-0.0008
710.0703	-0.0052
710.2507	0.0021
710.4311	0.0033
710.6115	-0.0105
710.7918	-0.0093
710.9721	-0.0049
711.1524	-0.009
711.3327	0.0031
711.513	-0.0032
711.6932	0.0026
711.8735	0.0044
712.0537	-0.0007
712.2339	-0.0028
712.4141	-0.0051
712.5942	-0.0089
712.7744	-0.0047
712.9545	0.0018
713.1346	-0.0028
713.3147	-0.0002
713.4947	-0.0005
713.6748	0.0037
713.8548	-0.006
714.0348	0.0005
714.2148	0.0054
714.3948	0.0112
714.5748	0.0063
714.7547	0.0072
714.9346	0.0062
715.1145	0.0074
715.2944	0.0036
715.4743	0.0063
715.6541	0.0042
715.834	0.0083
716.0138	0.0082
716.1936	0.0004
716.3733	0.0012
716.5531	0.0085
716.7328	-0.0079
716.9126	0.0028
717.0923	0.0084
717.2719	0.0034
717.4516	0.004
717.6312	0.0057
717.8109	-0.0021
717.9905	0.01
718.1701	-0.0032
718.3496	0.0003
718.5292	0.001
718.7087	0.0009
718.8882	-0.0064
719.0677	0.0085
719.2472	0.0013
719.4267	0.0025
719.6061	0.0019
719.7856	0.0135
719.965	0.0129
720.1443	0.0004
720.3237	0.0147
720.5031	0.0059
720.6824	0.0066
720.8617	0.0007
721.041	-0.0001
721.2203	0.0146
721.3995	0.0112
721.5788	0.0088
721.758	0.0077
721.9372	0.0004
722.1164	-0.005
722.2956	0.0096
722.4747	0.0035
722.6538	0.0021
722.8329	0.008
723.012	0.0049
723.1911	0.0008
723.3702	-0.0018
723.5492	-0.0004
723.7282	-0.007
723.9072	-0.0052
724.0862	-0.0074
724.2652	-0.001
724.4441	-0.0041
724.623	-0.0062
724.8019	-0.0023
724.9808	0.0048
725.1597	-0.0145
725.3385	0.0038
725.5174	0.0095
725.6962	0.0061
725.875	-0.003
726.0538	0.0043
726.2325	-0.0008
726.4112	0.0143
726.59	-0.0047
726.7687	-0.0027
726.9474	0.0065
727.126	-0.0051
727.3047	-0.0052
727.4833	-0.0045
727.6619	-0.0059
727.8405	-0.0048
728.0191	-0.0059
728.1976	0.0007
728.3762	0.0073
728.5547	0.0058
728.7332	-0.0085
728.9116	0.0003
729.0901	0.0027
729.2686	-0.0062
729.447	-0.0023
729.6254	0.0022
729.8038	0.0066
729.9821	-0.0009
730.1605	-0.0011
730.3388	0.0015
730.5171	-0.0003
730.6954	-0.0051
730.8737	0.0028
731.0519	-0.002
731.2302	0.0037
731.4084	0.0064
731.5866	0.0058
731.7648	-0.0003
731.9429	0.007
732.1211	-0.0067
732.2992	0.0045
732.4773	-0.0009
732.6554	-0.0049
732.8335	0.0091
733.0115	0.0082
733.1896	0.0087
733.3676	-0.0053
733.5456	0.0137
733.7235	0.0028
733.9015	-0.0006
734.0794	0.0047
734.2574	0.0032
734.4353	0.0021
734.6131	0.0018
734.791	0.0038
734.9689	-0.0081
735.1467	-0.0099
735.3245	-0.0048
735.5023	-0.0072
735.68	-0.0042
735.8578	0.0006
736.0355	-0.0135
736.2132	0.0004
736.3909	0.0014
736.5686	-0.0075
736.7463	0.006
736.9239	-0.0034
737.1015	-0.0036
737.2791	0.0019
737.4567	-0.0124
737.6343	-0.0101
737.8118	-0.0028
737.9894	0.0006
738.1669	-0.006
738.3444	-0.007
738.5218	-0.0026
738.6993	-0.0048
738.8767	-0.003
739.0541	0.0065
739.2315	-0.0074
739.4089	0.0043
739.5863	0.0115
739.7636	-0.0054
739.9409	0.0022
740.1182	0.0121
740.2955	0.0128
740.4728	0.0089
740.65	-0.0006
740.8272	-0.0003
741.0044	-0.0037
741.1816	0.0044
741.3588	-0.0074
741.5359	-0.0066
741.7131	-0
741.8902	-0.0057
742.0673	-0.0022
742.2444	0
742.4214	-0.0061
742.5985	0.0056
742.7755	0.0007
742.9525	-0.012
743.1295	0.0024
743.3064	0.003
743.4834	0.0104
743.6603	0.0051
743.8372	-0.0076
744.0141	0.0087
744.191	0.0015
744.3678	0.0019
744.5446	-0.0057
744.7215	0.0031
744.8982	-0.003
745.075	-0.0157
745.2518	0.0018
745.4285	0.0094
745.6052	0.0048
745.7819	-0.0028
745.9586	-0.0026
746.1353	-0.0001
746.3119	-0.0062
746.4885	-0.0023
746.6651	-0.0019
746.8417	-0.0076
747.0183	-0.0053
747.1948	-0.0035
747.3714	0.0093
747.5479	0.0083
747.7244	-0.0032
747.9008	0.0076
748.0773	0.0026
748.2537	0.0017
748.4301	-0.0058
748.6065	0.005
748.7829	0.0096
748.9593	-0.007
749.1356	-0.005
749.3119	0.0106
749.4882	-0.0055
749.6645	0.002
749.8408	-0.0021
750.017	-0.0049
750.1933	-0.0036
750.3695	-0.0068
750.5457	0.0077
750.7218	-0.0016
750.898	0.0034
751.0741	-0.0094
751.2502	-0.0101
751.4263	-0.0075
751.6024	-0.0057
751.7784	0.0033
751.9545	-0.0081
752.1305	-0.0028
752.3065	-0.0064
752.4825	0.0034
752.6584	-0.0063
752.8344	-0.0071
753.0103	-0.01
753.1862	-0.0038
753.3621	-0.0119
753.5379	-0.008
753.7138	-0.0058
753.8896	-0.0064
754.0654	0.0029
754.2412	0.0079
754.417	0.0071
754.5927	-0.0102
754.7685	-0.0095
754.9442	0.0034
755.1199	0.0009
755.2956	-0.0064
755.4712	0.0063
755.6469	-0.0009
755.8225	-0.0129
755.9981	-0.0045
756.1736	-0.0005
756.3492	-0.0051
756.5248	-0.0013
756.7003	-0.0039
756.8758	0.0065
757.0513	-0.0123
757.2267	-0.0128
757.4022	-0.0054
757.5776	-0.0003
757.753	-0.0029
757.9284	0.0085
758.1038	0.0133
758.2791	0.0114
758.4545	-0.0053
758.6298	0.0087
758.8051	0.0056
758.9803	0.0027
759.1556	0.0065
759.3308	-0.0042
759.506	0.0139
759.6812	0.0062
759.8564	0.0154
760.0316	0.0059
760.2067	0.0113
760.3819	0.001
760.557	0.0151
760.732	-0.0054
760.9071	-0.0006
761.0821	-0.0069
761.2572	0.0073
761.4322	0.0021
761.6072	-0.0073
761.7821	-0.0047
761.9571	0.0074
762.132	-0.0008
762.3069	-0.0072
762.4818	0.0024
762.6567	0.0011
762.8316	0.0009
763.0064	-0.0014
763.1812	-0.0025
763.356	-0.017
763.5308	-0.0069
763.7055	-0.0006
763.8803	-0.0072
764.055	-0.0117
764.2297	-0.0052
764.4044	-0.0181
764.579	-0.0187
764.7537	-0.0119
764.9283	0.0056
765.1029	-0.0184
765.2775	-0.018
765.4521	-0.0027
765.6266	-0.0036
765.8011	-0.0098
765.9756	-0.0055
766.1501	-0.0043
766.3246	-0.0103
766.4991	-0.0026
766.6735	-0.0064
766.8479	-0.0112
767.0223	0.0079
767.1967	-0.0033
767.371	-0.0057
767.5454	-0.0091
767.7197	-0.0068
767.894	-0.0035
768.0683	-0.0076
768.2425	-0.0037
768.4168	0.0007
768.591	0.0006
768.7652	-0.001
768.9394	-0.0036
769.1135	-0.0039
769.2877	0.0073
769.4618	-0.0004
769.6359	-0.0025
769.81	-0.0047
769.984	-0.0012
770.1581	-0.0054
770.3321	0.0093
770.5061	0.002
770.6801	0.0013
770.8541	-0.0084
771.028	0.0068
771.202	-0.0147
771.3759	0.0035
771.5498	-0.0073
771.7236	-0.0055
771.8975	0.0038
772.0713	0.0153
772.2451	0.0021
772.4189	0.0034
772.5927	0.0036
772.7665	0.0038
772.9402	-0.0081
773.1139	0.0057
773.2876	0.0015
773.4613	0.0036
773.635	0.0167
773.8086	-0.0022
773.9822	0.0046
774.1558	0.0054
774.3294	-0.0107
774.503	0.0008
774.6765	0.0051
774.8501	0.0013
775.0236	0.0001
775.1971	0.0043
775.3705	-0.0108
775.544	0.0007
775.7174	-0.0113
775.8908	-0.0075
776.0642	-0.0145
776.2376	-0.0013
776.4109	-0.0029
776.5843	-0.0042
776.7576	-0.0025
776.9309	0.0072
777.1041	-0.0037
777.2774	0.0094
777.4506	-0.0036
777.6238	-0.0105
777.797	0.0074
777.9702	0.0021
778.1434	-0.0028
778.3165	-0.012
778.4896	0.0057
778.6627	0.0114
778.8358	-0.0058
779.0089	0.0003
779.1819	-0.0046
779.3549	0.0171
779.5279	0.0067
779.7009	0.0068
779.8739	0.0081
780.0468	0.0127
780.2197	0.0195
780.3926	-0.0057
780.5655	0.0085
780.7384	-0.0033
780.9112	-0.0001
781.0841	0.0028
781.2569	-0.0021
781.4297	0.0167
781.6024	0.0067
781.7752	0.0097
781.9479	-0.0003
782.1206	-0.0053
782.2933	-0.0149
782.466	0.0121
782.6386	0.0045
782.8113	0.0084
782.9839	0.0061
783.1565	0.0159
783.329	0.0044
783.5016	0.008
783.6741	0.0169
783.8466	-0.0099
784.0191	0.0086
784.1916	-0.0002
784.3641	-0.0052
784.5365	0.0047
784.7089	-0.0144
784.8813	-0.009
785.0537	0.0061
785.2261	0.002
785.3984	-0.0195
785.5707	0.0044
785.743	-0.006
785.9153	-0.0158
786.0876	0.009
786.2598	-0.0037
786.432	-0.0186
786.6042	0.0023
786.7764	-0.0211
786.9486	-0.0013
787.1207	-0.0077
787.2928	0.0023
787.4649	0.0068
787.637	-0.0034
787.8091	0.0005
787.9811	-0.0149
788.1532	-0.0191
788.3252	-0.011
788.4972	-0.0077
788.6691	-0.0134
788.8411	0.0018
789.013	-0.0138
789.1849	-0.0033
789.3568	0.0022
789.5287	-0.0034
789.7005	0.0155
789.8723	0.0004
790.0442	0.0101
790.2159	0.0005
790.3877	0.0108
790.5595	-0.0169
790.7312	-0.0076
790.9029	0.003
791.0746	-0.0119
791.2463	-0.0059
791.4179	-0.0111
791.5896	-0.014
791.7612	-0.0069
791.9328	-0.0027
792.1044	-0.0285
792.2759	-0.016
792.4474	-0.0091
792.619	0.0037
792.7905	0.0075
792.9619	-0.0023
793.1334	-0.0117
793.3048	0.012
793.4762	0.0129
793.6476	-0.0013
793.819	-0.0043
793.9904	0.0125
794.1617	-0.0096
794.333	-0.0016
794.5043	-0.013
794.6756	-0.0025
794.8469	-0.0022
795.0181	0.0012
795.1893	-0.0137
795.3605	0.005
795.5317	-0.0044
795.7029	0.0009
795.874	-0.0031
796.0452	-0.0095
796.2163	-0.0105
796.3873	-0.0037
796.5584	-0.0031
796.7294	0.0022
796.9005	0.0076
797.0715	0.0105
797.2425	-0.0252
797.4134	-0.0186
797.5844	-0.0028
797.7553	-0.0131
797.9262	-0.0131
798.0971	-0.0213
798.2679	-0.0075
798.4388	-0.024
798.6096	-0.0215
798.7804	-0.0027
798.9512	-0.0158
799.122	-0.0135
799.2927	-0.0118
799.4635	-0.0006
799.6342	-0.0249
799.8049	-0.0152
799.9755	-0.0091
800.1462	-0.011
800.3168	-0.0047
800.4874	-0.021
800.658	0.0157
800.8286	-0.0072
800.9991	-0.0079
801.1696	-0.0017
801.3402	0.0102
801.5106	-0.0001
801.6811	-0.0048
801.8516	-0.0164
802.022	0.0011
802.1924	-0.004
802.3628	0.006
802.5332	0.0036
802.7035	0.0231
802.8739	0.0027
803.0442	-0.0078
803.2145	0.0034
803.3847	-0.0281
803.555	0.0057
803.7252	-0.0354
803.8954	-0.0399
804.0656	-0.0288
804.2358	-0.0253
804.4059	0.0088
804.5761	-0.0168
804.7462	-0.0023
804.9163	-0.0195
805.0864	-0.0284
805.2564	-0.0088
805.4264	-0.001
805.5965	-0.0247
805.7665	0.009
805.9364	0.0015
806.1064	0.0248
806.2763	-0.0077
806.4462	-0.0014
806.6161	0.0093
806.786	-0.0014
806.9559	-0.0064
807.1257	-0.0066
807.2955	0.0046
807.4653	-0.0037
807.6351	-0.0022
807.8048	-0.0162
807.9746	-0.009
808.1443	-0.0096
808.314	-0.0054
808.4837	-0.017
808.6533	-0.0107
808.8229	0.0073
808.9926	-0.0178
809.1622	-0.0089
809.3317	-0.0258
809.5013	-0.027
809.6708	-0.0038
809.8403	0.0066
810.0098	-0.03
810.1793	-0.0104
810.3488	-0.0132
810.5182	-0.0241
810.6876	-0.0106
810.857	-0.0156
811.0264	0.0162
811.1958	0.005
811.3651	-0.0092
811.5344	-0.003
811.7037	-0.0211
811.873	-0.0052
812.0422	-0.0074
812.2115	-0.0173
812.3807	-0.0188
812.5499	-0.0063
812.7191	-0.0097
812.8882	-0.0108
813.0574	-0.0153
813.2265	-0.0087
813.3956	-0.015
813.5646	-0.0062
813.7337	-0.0236
813.9027	0.0092
814.0718	0.0114
814.2407	0.0074
814.4097	-0.0136
814.5787	-0.0184
814.7476	0.0058
814.9165	-0.0018
815.0854	-0.0158
815.2543	-0.0024
815.4232	-0.0115
815.592	0.0051
815.7608	-0.0144
815.9296	0.0102
816.0984	-0.0048
816.2671	-0.0028
816.4359	-0.01
816.6046	0.0052
816.7733	-0.0017
816.942	-0.034
817.1106	-0.0031
817.2793	0.0093
817.4479	0.0057
817.6165	0.0054
817.785	-0.0157
817.9536	-0.0191
818.1221	-0.0175
818.2906	0.0037
818.4591	-0.0252
818.6276	-0.0164
818.7961	-0.0301
818.9645	-0.0038
819.1329	-0.0107
819.3013	0.0108
819.4697	0.0244
819.638	-0.0127
819.8064	-0.0195
819.9747	0.0033
820.143	-0.0246
820.3113	-0.0401
820.4795	-0.0193
820.6477	-0.0134
820.816	-0.0061
820.9842	-0.0105
821.1523	-0.0084
821.3205	-0.033
821.4886	-0.0088
821.6567	-0.0002
821.8248	0.01
821.9929	-0.0022
822.1609	0.0074
822.329	0.0248
822.497	0.0177
822.665	-0.0322
822.833	0.0104
823.0009	0.0158
823.1688	0.0253
823.3367	0.023
823.5046	0.0374
823.6725	0.0346
823.8404	0.0106
824.0082	0.0343
824.176	0.0086
824.3438	-0.0077
824.5116	-0.0093
824.6793	0.0178
824.847	0.0132
825.0147	-0.0149
825.1824	0.0035
825.3501	0.0221
825.5177	-0.0094
825.6854	-0.0096
825.853	-0.0182
826.0206	-0.0549
826.1881	-0.0053
826.3557	-0.0114
826.5232	-0.0067
826.6907	-0.0298
826.8582	-0.0291
827.0257	-0.0121
827.1931	-0.0074
827.3605	-0.0034
827.528	-0.0333
827.6953	-0.0209
827.8627	-0.0365
828.03	0.015
828.1974	-0.0063
828.3647	-0.0267
828.532	-0.0376
828.6992	-0.0047
828.8665	-0.0315
829.0337	-0.0281
829.2009	-0.0002
829.3681	0.0013
829.5352	-0.0145
829.7024	-0.0412
829.8695	-0.0295
830.0366	0.0499
830.2037	-0.0093
830.3707	0.0037
830.5378	-0.0201
830.7048	0.0025
830.8718	0.0107
831.0388	-0.0009
831.2057	0.0149
831.3727	0.0205
831.5396	-0.0159
831.7065	-0.0408
831.8734	0.0019
832.0402	-0.0529
832.2071	-0.0008
832.3739	-0.071
832.5407	-0.0252
832.7075	-0.0186
832.8742	-0.0528
833.041	-0.0523
833.2077	0.0021
833.3744	0.0068
833.541	-0.0186
833.7077	-0.0084
833.8743	-0.0532
834.0409	-0.0182
834.2075	-0.0041
834.3741	-0.0009
834.5407	-0.0054
834.7072	-0.0362
834.8737	-0.0204
835.0402	0.0017
835.2067	-0.0046
835.3731	-0.0146
835.5395	0.0029
835.706	0.0036
835.8723	-0.0221
836.0387	-0.0188
836.2051	-0.0266
836.3714	-0.0236
836.5377	-0.0159
836.704	-0.0359
836.8703	-0.0258
837.0365	-0.0154
837.2027	-0.0449
837.3689	-0.0057
837.5351	0.0011
837.7013	-0.0539
837.8674	-0.0381
838.0335	-0.0542
838.1997	-0.0241
838.3657	-0.0649
838.5318	-0.0272
838.6978	-0.0138
838.8639	0.0071
839.0299	-0.0375
839.1958	-0.0004
839.3618	-0.0278
839.5277	-0.0213
839.6937	-0.0142
839.8596	-0.046
840.0254	0.0062
840.1913	-0.0078
840.3571	0.0294
840.523	-0.052
840.6888	-0.0696
840.8545	-0.0794
841.0203	-0.0333
841.186	-0.0246
841.3517	0.015
841.5174	-0.0125
841.6831	-0.0287
841.8488	0.0095
842.0144	0.0014
842.18	-0.0254
842.3456	0.0061
842.5112	-0.0035
842.6767	-0.0478
842.8422	-0.0649
843.0077	0.0067
843.1732	-0.0489
843.3387	-0.0385
843.5042	-0.0342
843.6696	-0.0386
843.835	-0.0456
844.0004	0.0214
844.1657	0.0382
844.3311	-0.1089
844.4964	-0.106
844.6617	-0.0469
844.827	-0.0436
844.9923	-0.0085
845.1575	-0.0248
845.3227	-0.0339
845.4879	-0.0392
845.6531	-0.1173
845.8183	-0.0551
845.9834	0.033
846.1485	0.0116
846.3136	0.0019
846.4787	-0.1623
846.6438	0.0264
846.8088	-0.0177
846.9738	-0.08
847.1388	-0.0077
847.3038	-0.0793
847.4687	-0.1963
847.6337	-0.0006
847.7986	0.0047
847.9635	-0.0333
848.1284	0.0498
848.2932	0.0533
848.458	-0.0042
848.6228	-0.0223
848.7876	0.0328
848.9524	-0.048
849.1172	-0.0488
849.2819	0.0092
849.4466	-0.1213
849.6113	-0.0691
849.7759	-0.0892
849.9406	-0.0732
850.1052	-0.0107
850.2698	-0.0755
850.4344	0.013
850.599	-0.0672
850.7635	0.0007
850.928	-0.0214
851.0925	-0.0179
851.257	-0.0332
851.4215	-0.0451
851.5859	-0.0506
851.7503	-0.0173
851.9147	0.0245
852.0791	-0.0442
852.2434	-0.0658
852.4078	-0.0171
852.5721	0.067
852.7364	-0.0704
852.9007	-0.1408
853.0649	0.0466
853.2291	-0.0183
853.3934	0.0579
853.5575	-0.0112
853.7217	-0.1293
853.8859	-0.2212
854.05	-0.1304
854.2141	-0.1066
854.3782	-0.0789
854.5423	-0.075
854.7063	0.1659
854.8703	-0.0483
855.0343	-0.0736
855.1983	-0.1577
855.3623	0.2226
855.5262	0.0328
855.6901	0.0422
855.854	0.0515
856.0179	0.1004
856.1818	0.0476
856.3456	0.0797
856.5094	-0.1564
856.6732	-0.0361
856.837	-0.0751
857.0008	-0.0014
857.1645	0.0889
857.3282	-0.0492
857.4919	-0.0323
857.6556	0.0452
857.8192	-0.1161
857.9828	0.0339
858.1465	-0.0735
858.31	-0.1616
858.4736	-0.0391
858.6372	-0.2326
858.8007	-0.2003
858.9642	-0.0771
859.1277	-0.1537
859.2911	-0.0114
859.4546	-0.0648
859.618	-0.4433
859.7814	0.0517
859.9448	-0.1412
860.1081	-0.2178
860.2715	0.1155
860.4348	-0.072
860.5981	0.0267
860.7614	0.0917
860.9246	-0.0809
861.0879	-0.2768
861.2511	-0.0015
861.4143	-0.3233
861.5774	0.1784
861.7406	0.0036
861.9037	-0.0912
862.0668	-0.029
862.2299	-0.2059
862.393	-0.5926
862.556	-0.1725
862.7191	-0.3873
862.8821	-0.2735
863.0451	0.0812
863.208	-0.0341
863.371	0.0808
863.5339	-0.1055
863.6968	-0.0661
863.8597	0.0545
864.0225	-0.037
864.1854	-0.1476
864.3482	-0.297
864.511	-0.0065
864.6737	0.1906
864.8365	0.1245
864.9992	-0.541
865.1619	-0.6981
865.3246	-0.2814
865.4873	-0.129
865.65	-0.288
865.8126	-0.0822
865.9752	-0.1074
866.1378	-0.3991
866.3004	-0
866.4629	0.1968
866.6254	-0.2755
866.7879	0.0456
866.9504	1.4108
867.1129	-0
867.2753	0.3362
867.4377	0.1497
867.6001	-0.4672
867.7625	-0.1393
867.9249	-0.5453
868.0872	0.0603
868.2495	0.1127
868.4118	-0.3609
868.5741	0.5209
868.7363	-0.4024
868.8986	-0
869.0608	-0.2459
869.223	0.1794
869.3851	0.0088
869.5473	0.1002
869.7094	0.1383
869.8715	-0.6364
870.0336	-0.7866
870.1957	-0.6021
870.3577	-0
870.5197	-0.1842
870.6817	-0.4353
870.8437	0.0763
871.0057	-0.716
871.1676	-0
871.3295	-0.5711
871.4914	-0
871.6533	-0.3032
871.8151	-0.4961
871.977	-0
872.1388	-0
872.3006	-0
872.4623	0.3343
872.6241	0.7711
872.7858	0.0814
872.9475	-0.209
873.1092	0.0517
873.2709	-0.3771
873.4325	-0.0523
873.5941	-0.492
873.7557	-0.1929
873.9173	-0.1604
874.0789	-0
874.2404	-0
874.4019	-0.0922
874.5634	-0.2837
874.7249	0.1214
874.8863	-0
875.0478	-0.1448
875.2092	-0
875.3706	-0
875.5319	-0.7874
875.6933	-0
875.8546	-0.1748
876.0159	-0
876.1772	-0
876.3385	-0
876.4997	0.0219
876.6609	-0.4251
876.8221	-0
876.9833	0.0583
877.1445	-0
877.3056	0.1682
877.4667	-0.2376
877.6278	-0
877.7889	-0.3736
877.9499	-0
878.111	-0.1714
878.272	-0
878.433	-0
878.5939	-0
878.7549	0.0311
878.9158	-0.9915
879.0767	-0.0349
879.2376	-0.2002
879.3984	-0.0101
879.5593	-0
879.7201	0.0442
879.8809	-0.6618
880.0417	-0.2611
880.2024	-0.094
880.3632	-0
880.5239	-0.0503
880.6846	0.3118
880.8452	-2.5888
881.0059	-0
881.1665	0.54
881.3271	-0
881.4877	-0.0598
881.6483	-0.5003
881.8088	-0.3526
881.9693	-0
882.1298	-0
882.2903	-0
