Data from MonoPyChalIsomerACN10uM420nmA_Absorbance_15-09-50-334.txt Node
Date: Fri Jul 05 15:09:50 BST 2024
User: LASERRRRR
Spectrometer: FLMT03099
Trigger mode: 0
Integration Time (sec): 1.000000E-1
Scans to average: 1
Electric dark correction enabled: true
Nonlinearity correction enabled: false
Boxcar width: 0
XAxis mode: Wavelengths
Number of Pixels in Spectrum: 3648
>>>>>Begin Spectral Data<<<<<
179.3399	-0
179.5586	-0
179.7771	-0
179.9957	-0
180.2143	-0
180.4329	-0
180.6514	0.393
180.8699	-0
181.0885	0.4433
181.307	0.1888
181.5255	-0
181.744	-0.4824
181.9625	-0
182.181	-0
182.3994	1.1385
182.6179	-0
182.8363	-0
183.0547	-0.2929
183.2732	0.0418
183.4916	0.2342
183.71	-0.0081
183.9284	0.1929
184.1467	-0.0466
184.3651	-0.0865
184.5835	-0.0934
184.8018	-0.0386
185.0201	0.0195
185.2385	0.0099
185.4568	0.1179
185.6751	-0.1163
185.8934	0.2347
186.1117	-0.0849
186.3299	0.326
186.5482	0.4927
186.7664	-0.0412
186.9847	-0.0559
187.2029	0.094
187.4211	0.0258
187.6393	0.1206
187.8575	-0.1053
188.0757	0.0115
188.2939	-0.0055
188.512	-0.0808
188.7302	0.0054
188.9483	-0.0068
189.1665	0.0481
189.3846	0.4455
189.6027	0.0546
189.8208	0.2091
190.0389	0.0759
190.257	0.1906
190.475	0.5385
190.6931	0.4817
190.9111	0.2211
191.1292	0.2024
191.3472	0.3504
191.5652	0.3496
191.7832	0.2551
192.0012	0.3003
192.2192	0.3673
192.4371	0.574
192.6551	0.3087
192.873	0.3422
193.091	0.5454
193.3089	0.398
193.5268	0.5141
193.7447	0.4994
193.9626	0.4396
194.1805	0.4879
194.3984	0.5806
194.6162	0.4125
194.8341	0.6731
195.0519	0.3757
195.2697	0.7105
195.4875	0.7037
195.7054	0.6527
195.9231	0.5774
196.1409	0.5595
196.3587	0.5151
196.5765	0.5836
196.7942	0.5629
197.012	0.6546
197.2297	0.6224
197.4474	0.7265
197.6651	0.554
197.8828	0.5586
198.1005	0.7397
198.3182	0.6142
198.5358	0.7011
198.7535	0.7156
198.9711	0.5055
199.1888	0.6688
199.4064	0.9758
199.624	0.6171
199.8416	0.5379
200.0592	0.6314
200.2767	0.6738
200.4943	0.6578
200.7119	0.5731
200.9294	0.597
201.1469	0.5924
201.3645	0.5283
201.582	0.613
201.7995	0.736
202.017	0.6737
202.2344	0.5127
202.4519	0.8964
202.6694	0.6087
202.8868	0.6784
203.1042	0.8063
203.3217	0.7635
203.5391	0.667
203.7565	0.6637
203.9739	0.5939
204.1913	0.535
204.4086	0.6585
204.626	0.653
204.8433	0.6607
205.0607	0.6719
205.278	0.6788
205.4953	0.6272
205.7126	0.7008
205.9299	0.7435
206.1472	0.7685
206.3644	0.6865
206.5817	0.7292
206.7989	0.691
207.0162	0.7148
207.2334	0.6445
207.4506	0.6821
207.6678	0.656
207.885	0.6283
208.1022	0.7143
208.3194	0.693
208.5365	0.63
208.7537	0.6171
208.9708	0.6342
209.1879	0.6578
209.405	0.647
209.6222	0.6916
209.8392	0.6771
210.0563	0.6538
210.2734	0.6915
210.4905	0.6374
210.7075	0.6248
210.9245	0.6681
211.1416	0.6888
211.3586	0.6855
211.5756	0.6114
211.7926	0.6155
212.0096	0.5693
212.2265	0.4977
212.4435	0.5731
212.6604	0.5986
212.8774	0.6267
213.0943	0.565
213.3112	0.5675
213.5281	0.5662
213.745	0.5505
213.9619	0.5262
214.1788	0.481
214.3956	0.4357
214.6125	0.452
214.8293	0.4574
215.0461	0.5015
215.2629	0.4765
215.4798	0.4792
215.6965	0.432
215.9133	0.4777
216.1301	0.412
216.3469	0.445
216.5636	0.4431
216.7803	0.4032
216.9971	0.4186
217.2138	0.395
217.4305	0.3403
217.6472	0.3617
217.8639	0.3889
218.0805	0.3409
218.2972	0.3279
218.5138	0.2958
218.7305	0.3629
218.9471	0.3314
219.1637	0.3001
219.3803	0.2862
219.5969	0.2873
219.8135	0.2704
220.0301	0.2781
220.2466	0.2943
220.4632	0.2626
220.6797	0.2377
220.8962	0.2526
221.1127	0.2712
221.3292	0.2474
221.5457	0.2408
221.7622	0.2452
221.9787	0.2569
222.1951	0.2312
222.4116	0.2537
222.628	0.2607
222.8444	0.2543
223.0608	0.266
223.2772	0.2758
223.4936	0.2573
223.71	0.272
223.9264	0.2892
224.1427	0.2496
224.3591	0.2681
224.5754	0.2669
224.7917	0.2683
225.008	0.2637
225.2243	0.2699
225.4406	0.297
225.6569	0.2684
225.8732	0.2588
226.0894	0.2876
226.3057	0.2712
226.5219	0.2933
226.7381	0.2678
226.9543	0.2986
227.1705	0.3
227.3867	0.2857
227.6029	0.3151
227.8191	0.3017
228.0352	0.3144
228.2513	0.3089
228.4675	0.3077
228.6836	0.2959
228.8997	0.2924
229.1158	0.3196
229.3319	0.3347
229.548	0.3176
229.764	0.3318
229.9801	0.3177
230.1961	0.3357
230.4121	0.3391
230.6282	0.3459
230.8442	0.3276
231.0602	0.3709
231.2761	0.3494
231.4921	0.3689
231.7081	0.3696
231.924	0.3479
232.14	0.3624
232.3559	0.3319
232.5718	0.3689
232.7877	0.3617
233.0036	0.3432
233.2195	0.3772
233.4353	0.3587
233.6512	0.3656
233.867	0.3644
234.0829	0.3804
234.2987	0.3684
234.5145	0.3837
234.7303	0.3786
234.9461	0.3724
235.1619	0.3818
235.3776	0.3855
235.5934	0.3855
235.8091	0.3509
236.0249	0.3722
236.2406	0.3918
236.4563	0.39
236.672	0.3785
236.8877	0.4014
237.1034	0.3939
237.319	0.3912
237.5347	0.4
237.7503	0.3959
237.966	0.4207
238.1816	0.429
238.3972	0.4179
238.6128	0.3901
238.8284	0.411
239.0439	0.4161
239.2595	0.4182
239.475	0.4143
239.6906	0.4253
239.9061	0.4027
240.1216	0.4036
240.3371	0.4164
240.5526	0.4142
240.7681	0.4176
240.9836	0.3968
241.199	0.4061
241.4145	0.4041
241.6299	0.3761
241.8453	0.3742
242.0607	0.3874
242.2761	0.368
242.4915	0.3815
242.7069	0.3734
242.9223	0.3733
243.1376	0.3697
243.353	0.3486
243.5683	0.3359
243.7836	0.3378
243.9989	0.3349
244.2142	0.309
244.4295	0.3225
244.6448	0.3124
244.86	0.2981
245.0753	0.2897
245.2905	0.3007
245.5057	0.2766
245.721	0.2761
245.9362	0.2894
246.1514	0.2762
246.3665	0.2661
246.5817	0.2796
246.7969	0.2615
247.012	0.2571
247.2271	0.2483
247.4423	0.2531
247.6574	0.2429
247.8725	0.2439
248.0876	0.2384
248.3026	0.2335
248.5177	0.2237
248.7328	0.2118
248.9478	0.2188
249.1628	0.2159
249.3779	0.2287
249.5929	0.2007
249.8079	0.2119
250.0228	0.199
250.2378	0.2129
250.4528	0.2119
250.6677	0.1909
250.8827	0.1935
251.0976	0.2041
251.3125	0.1872
251.5274	0.1758
251.7423	0.1763
251.9572	0.1944
252.172	0.1897
252.3869	0.198
252.6017	0.1766
252.8166	0.1672
253.0314	0.1582
253.2462	0.1774
253.461	0.1734
253.6758	0.1683
253.8906	0.1922
254.1053	0.1653
254.3201	0.1835
254.5348	0.1824
254.7496	0.1813
254.9643	0.1723
255.179	0.1806
255.3937	0.1763
255.6083	0.1798
255.823	0.1823
256.0377	0.1747
256.2523	0.1728
256.467	0.1537
256.6816	0.1839
256.8962	0.1751
257.1108	0.1712
257.3254	0.1741
257.54	0.1686
257.7545	0.1703
257.9691	0.1726
258.1836	0.1667
258.3981	0.1781
258.6127	0.1918
258.8272	0.1658
259.0417	0.1695
259.2561	0.1632
259.4706	0.1802
259.6851	0.1787
259.8995	0.1741
260.114	0.1655
260.3284	0.1637
260.5428	0.1601
260.7572	0.1711
260.9716	0.1687
261.186	0.1652
261.4003	0.1717
261.6147	0.1696
261.829	0.1689
262.0433	0.1764
262.2577	0.1694
262.472	0.1638
262.6863	0.1671
262.9005	0.1668
263.1148	0.1696
263.3291	0.1422
263.5433	0.1695
263.7576	0.1616
263.9718	0.1658
264.186	0.1656
264.4002	0.1724
264.6144	0.1695
264.8286	0.1788
265.0427	0.1794
265.2569	0.1709
265.471	0.1649
265.6851	0.16
265.8993	0.1633
266.1134	0.1513
266.3275	0.1693
266.5415	0.1606
266.7556	0.1568
266.9697	0.166
267.1837	0.1782
267.3978	0.172
267.6118	0.168
267.8258	0.1744
268.0398	0.1562
268.2538	0.1636
268.4677	0.1703
268.6817	0.1655
268.8957	0.1653
269.1096	0.1655
269.3235	0.1715
269.5374	0.1604
269.7514	0.1569
269.9652	0.1641
270.1791	0.1602
270.393	0.1542
270.6068	0.1588
270.8207	0.1554
271.0345	0.1411
271.2483	0.1569
271.4622	0.1494
271.676	0.1552
271.8897	0.1504
272.1035	0.1452
272.3173	0.1411
272.531	0.156
272.7448	0.1438
272.9585	0.1474
273.1722	0.1466
273.3859	0.1555
273.5996	0.1433
273.8133	0.1529
274.0269	0.1407
274.2406	0.1393
274.4542	0.1327
274.6679	0.1465
274.8815	0.1414
275.0951	0.1529
275.3087	0.1573
275.5223	0.1624
275.7358	0.1649
275.9494	0.1628
276.1629	0.1528
276.3765	0.1442
276.59	0.1501
276.8035	0.1571
277.017	0.1465
277.2305	0.148
277.444	0.1554
277.6574	0.1408
277.8709	0.1603
278.0843	0.1409
278.2978	0.1496
278.5112	0.1426
278.7246	0.1388
278.938	0.155
279.1513	0.1511
279.3647	0.1568
279.5781	0.1472
279.7914	0.1461
280.0047	0.1581
280.2181	0.1549
280.4314	0.1519
280.6447	0.1562
280.8579	0.1571
281.0712	0.1482
281.2845	0.1523
281.4977	0.1448
281.711	0.1465
281.9242	0.1498
282.1374	0.1679
282.3506	0.1429
282.5638	0.1641
282.7769	0.1611
282.9901	0.1673
283.2033	0.1654
283.4164	0.1616
283.6295	0.1476
283.8426	0.1533
284.0557	0.1556
284.2688	0.1716
284.4819	0.1598
284.695	0.1515
284.908	0.1575
285.1211	0.1551
285.3341	0.1554
285.5471	0.1695
285.7601	0.1675
285.9731	0.1546
286.1861	0.1532
286.3991	0.1602
286.612	0.1658
286.825	0.1592
287.0379	0.175
287.2508	0.1615
287.4637	0.1716
287.6766	0.159
287.8895	0.1713
288.1024	0.1861
288.3152	0.1768
288.5281	0.1513
288.7409	0.1674
288.9538	0.1697
289.1666	0.1568
289.3794	0.1666
289.5922	0.1582
289.8049	0.1673
290.0177	0.171
290.2304	0.1711
290.4432	0.1743
290.6559	0.1689
290.8686	0.172
291.0813	0.1681
291.294	0.1722
291.5067	0.17
291.7194	0.1595
291.932	0.189
292.1447	0.1816
292.3573	0.1609
292.5699	0.1651
292.7825	0.1711
292.9951	0.1703
293.2077	0.1687
293.4203	0.1618
293.6328	0.1584
293.8454	0.1711
294.0579	0.1723
294.2704	0.177
294.4829	0.1523
294.6954	0.1771
294.9079	0.1594
295.1204	0.1702
295.3328	0.1576
295.5453	0.1795
295.7577	0.1658
295.9701	0.1602
296.1825	0.1663
296.3949	0.1617
296.6073	0.1635
296.8197	0.1615
297.0321	0.1857
297.2444	0.1581
297.4567	0.1667
297.6691	0.1668
297.8814	0.1533
298.0937	0.1597
298.306	0.1682
298.5182	0.1702
298.7305	0.1833
298.9428	0.1651
299.155	0.1689
299.3672	0.1612
299.5794	0.1555
299.7916	0.1558
300.0038	0.1725
300.216	0.1677
300.4282	0.1664
300.6403	0.1642
300.8525	0.1696
301.0646	0.162
301.2767	0.1701
301.4888	0.1703
301.7009	0.1664
301.913	0.1718
302.125	0.1828
302.3371	0.1569
302.5491	0.1705
302.7612	0.1708
302.9732	0.1672
303.1852	0.1795
303.3972	0.1622
303.6092	0.1643
303.8211	0.1544
304.0331	0.1573
304.245	0.1596
304.457	0.148
304.6689	0.1597
304.8808	0.1577
305.0927	0.1516
305.3046	0.148
305.5164	0.1582
305.7283	0.1447
305.9401	0.1606
306.152	0.1505
306.3638	0.1645
306.5756	0.1428
306.7874	0.1558
306.9992	0.1515
307.2109	0.1452
307.4227	0.1327
307.6344	0.1488
307.8462	0.1371
308.0579	0.1428
308.2696	0.138
308.4813	0.1279
308.693	0.1358
308.9046	0.1307
309.1163	0.1257
309.328	0.1356
309.5396	0.1171
309.7512	0.123
309.9628	0.1212
310.1744	0.1284
310.386	0.1234
310.5976	0.1194
310.8091	0.1152
311.0207	0.1325
311.2322	0.1288
311.4437	0.1122
311.6552	0.1108
311.8667	0.1124
312.0782	0.1023
312.2897	0.1048
312.5012	0.114
312.7126	0.1041
312.924	0.0994
313.1355	0.1194
313.3469	0.1091
313.5583	0.1121
313.7696	0.1055
313.981	0.1097
314.1924	0.104
314.4037	0.0982
314.6151	0.1036
314.8264	0.0998
315.0377	0.1057
315.249	0.0991
315.4603	0.1044
315.6716	0.0975
315.8828	0.0916
316.0941	0.1006
316.3053	0.1044
316.5165	0.0921
316.7277	0.0986
316.9389	0.109
317.1501	0.0897
317.3613	0.0999
317.5724	0.0848
317.7836	0.1072
317.9947	0.0876
318.2058	0.0935
318.417	0.0899
318.6281	0.0799
318.8391	0.1006
319.0502	0.0956
319.2613	0.0954
319.4723	0.103
319.6834	0.1031
319.8944	0.102
320.1054	0.0997
320.3164	0.1048
320.5274	0.098
320.7383	0.0971
320.9493	0.0944
321.1602	0.1124
321.3712	0.0937
321.5821	0.0971
321.793	0.102
322.0039	0.1005
322.2148	0.0938
322.4257	0.0981
322.6365	0.1034
322.8474	0.1117
323.0582	0.0972
323.269	0.0935
323.4798	0.1073
323.6906	0.0932
323.9014	0.1042
324.1122	0.1033
324.3229	0.0967
324.5337	0.0891
324.7444	0.0906
324.9551	0.1151
325.1658	0.1024
325.3765	0.1024
325.5872	0.1
325.7979	0.098
326.0085	0.1066
326.2192	0.1062
326.4298	0.1053
326.6404	0.0965
326.851	0.0955
327.0616	0.0946
327.2722	0.107
327.4828	0.1069
327.6933	0.1042
327.9039	0.1129
328.1144	0.1175
328.3249	0.1215
328.5354	0.0976
328.7459	0.1123
328.9564	0.1044
329.1669	0.1062
329.3773	0.1013
329.5878	0.103
329.7982	0.1018
330.0086	0.1033
330.219	0.1111
330.4294	0.1004
330.6398	0.0999
330.8502	0.0965
331.0605	0.1013
331.2708	0.1114
331.4812	0.1046
331.6915	0.1125
331.9018	0.1098
332.1121	0.0985
332.3224	0.1004
332.5326	0.1057
332.7429	0.1055
332.9531	0.1284
333.1633	0.1038
333.3735	0.0998
333.5837	0.1066
333.7939	0.1046
334.0041	0.1022
334.2143	0.1158
334.4244	0.1112
334.6346	0.0816
334.8447	0.1232
335.0548	0.1026
335.2649	0.0986
335.475	0.1084
335.685	0.1034
335.8951	0.1071
336.1051	0.1209
336.3152	0.1106
336.5252	0.1197
336.7352	0.1198
336.9452	0.1081
337.1552	0.1112
337.3652	0.1072
337.5751	0.119
337.7851	0.111
337.995	0.0979
338.2049	0.1007
338.4148	0.1189
338.6247	0.1197
338.8346	0.1124
339.0445	0.112
339.2543	0.1032
339.4642	0.1248
339.674	0.0992
339.8838	0.112
340.0936	0.1175
340.3034	0.1363
340.5132	0.109
340.7229	0.1077
340.9327	0.1094
341.1424	0.1114
341.3522	0.1215
341.5619	0.1252
341.7716	0.1184
341.9813	0.1201
342.1909	0.1237
342.4006	0.1288
342.6102	0.1257
342.8199	0.1202
343.0295	0.1313
343.2391	0.1151
343.4487	0.1352
343.6583	0.1284
343.8679	0.1186
344.0774	0.1325
344.287	0.136
344.4965	0.1314
344.706	0.1225
344.9155	0.1166
345.125	0.1187
345.3345	0.1324
345.544	0.126
345.7534	0.1262
345.9629	0.1236
346.1723	0.1292
346.3817	0.1208
346.5911	0.125
346.8005	0.1299
347.0099	0.1222
347.2193	0.1392
347.4286	0.1252
347.638	0.151
347.8473	0.139
348.0566	0.1366
348.2659	0.1361
348.4752	0.1352
348.6845	0.1481
348.8937	0.1278
349.103	0.1338
349.3122	0.125
349.5214	0.1364
349.7306	0.1448
349.9398	0.1279
350.149	0.1608
350.3582	0.1361
350.5674	0.1602
350.7765	0.1414
350.9856	0.1323
351.1948	0.1388
351.4039	0.1229
351.613	0.1442
351.822	0.145
352.0311	0.1467
352.2402	0.1489
352.4492	0.1459
352.6582	0.1459
352.8672	0.138
353.0762	0.1464
353.2852	0.1493
353.4942	0.1333
353.7032	0.1472
353.9121	0.1464
354.1211	0.1522
354.33	0.1426
354.5389	0.1641
354.7478	0.1582
354.9567	0.1444
355.1655	0.1407
355.3744	0.1396
355.5833	0.158
355.7921	0.1683
356.0009	0.1643
356.2097	0.1719
356.4185	0.1617
356.6273	0.1587
356.8361	0.1518
357.0448	0.1511
357.2536	0.1561
357.4623	0.1615
357.671	0.1714
357.8797	0.1624
358.0884	0.1558
358.2971	0.1686
358.5057	0.1614
358.7144	0.1659
358.923	0.1681
359.1316	0.1715
359.3402	0.1704
359.5488	0.1653
359.7574	0.1681
359.966	0.1861
360.1746	0.1713
360.3831	0.184
360.5916	0.1643
360.8002	0.1637
361.0087	0.1844
361.2172	0.1568
361.4256	0.1772
361.6341	0.1872
361.8426	0.1848
362.051	0.1885
362.2594	0.1692
362.4678	0.1742
362.6762	0.1938
362.8846	0.179
363.093	0.1851
363.3014	0.1804
363.5097	0.1802
363.718	0.1767
363.9264	0.1785
364.1347	0.1817
364.343	0.2066
364.5513	0.1913
364.7595	0.1926
364.9678	0.1852
365.176	0.1853
365.3842	0.1857
365.5925	0.1844
365.8007	0.1995
366.0089	0.2114
366.217	0.1899
366.4252	0.1934
366.6333	0.2161
366.8415	0.2206
367.0496	0.1958
367.2577	0.2011
367.4658	0.221
367.6739	0.2166
367.882	0.198
368.09	0.196
368.2981	0.216
368.5061	0.2117
368.7141	0.2189
368.9221	0.2195
369.1301	0.2068
369.3381	0.1932
369.5461	0.2
369.754	0.2071
369.962	0.2131
370.1699	0.2253
370.3778	0.2235
370.5857	0.2028
370.7936	0.2245
371.0015	0.2212
371.2093	0.2173
371.4172	0.2284
371.625	0.2245
371.8328	0.2226
372.0406	0.2145
372.2484	0.2212
372.4562	0.2267
372.664	0.2153
372.8717	0.2304
373.0795	0.2022
373.2872	0.2115
373.4949	0.2404
373.7026	0.2255
373.9103	0.2378
374.118	0.2225
374.3256	0.2388
374.5333	0.2203
374.7409	0.2209
374.9485	0.2428
375.1561	0.2326
375.3637	0.2271
375.5713	0.228
375.7789	0.2363
375.9864	0.2271
376.194	0.2375
376.4015	0.2464
376.609	0.2771
376.8165	0.2459
377.024	0.2325
377.2315	0.237
377.4389	0.2407
377.6464	0.2363
377.8538	0.2433
378.0612	0.2272
378.2686	0.2467
378.476	0.2616
378.6834	0.2459
378.8908	0.2454
379.0981	0.2398
379.3055	0.2536
379.5128	0.2365
379.7201	0.2334
379.9274	0.2408
380.1347	0.2461
380.342	0.2734
380.5492	0.2346
380.7565	0.2574
380.9637	0.2555
381.1709	0.2459
381.3781	0.2558
381.5853	0.2631
381.7925	0.2671
381.9997	0.2555
382.2068	0.2559
382.4139	0.2601
382.6211	0.2449
382.8282	0.2528
383.0353	0.2495
383.2424	0.2553
383.4494	0.254
383.6565	0.2358
383.8635	0.2392
384.0706	0.2541
384.2776	0.2584
384.4846	0.2365
384.6916	0.2468
384.8986	0.2451
385.1055	0.2349
385.3125	0.2647
385.5194	0.2512
385.7263	0.2598
385.9333	0.2696
386.1402	0.2447
386.347	0.2468
386.5539	0.2537
386.7608	0.2753
386.9676	0.2382
387.1744	0.2726
387.3813	0.2331
387.5881	0.2518
387.7948	0.247
388.0016	0.2524
388.2084	0.2508
388.4151	0.2525
388.6219	0.255
388.8286	0.2474
389.0353	0.2723
389.242	0.2454
389.4487	0.2546
389.6553	0.2237
389.862	0.2441
390.0686	0.2414
390.2753	0.2551
390.4819	0.2528
390.6885	0.2612
390.8951	0.2369
391.1016	0.2303
391.3082	0.233
391.5147	0.23
391.7213	0.2379
391.9278	0.2259
392.1343	0.2312
392.3408	0.2425
392.5473	0.2267
392.7537	0.2297
392.9602	0.2149
393.1666	0.2267
393.373	0.2309
393.5794	0.2404
393.7858	0.2349
393.9922	0.216
394.1986	0.2405
394.4049	0.2324
394.6113	0.2203
394.8176	0.2088
395.0239	0.2117
395.2302	0.2195
395.4365	0.218
395.6428	0.2214
395.8491	0.2229
396.0553	0.2185
396.2615	0.2141
396.4678	0.2136
396.674	0.2187
396.8802	0.2194
397.0863	0.2349
397.2925	0.2117
397.4987	0.2179
397.7048	0.2232
397.9109	0.2075
398.117	0.2082
398.3231	0.199
398.5292	0.219
398.7353	0.2271
398.9413	0.2215
399.1474	0.1942
399.3534	0.2187
399.5594	0.1963
399.7654	0.2225
399.9714	0.2257
400.1774	0.2244
400.3833	0.1935
400.5893	0.2132
400.7952	0.2149
401.0011	0.2062
401.207	0.2272
401.4129	0.2063
401.6188	0.2182
401.8247	0.2307
402.0305	0.1861
402.2364	0.2107
402.4422	0.2064
402.648	0.21
402.8538	0.2176
403.0596	0.2128
403.2654	0.2243
403.4711	0.2104
403.6768	0.2082
403.8826	0.2245
404.0883	0.2254
404.294	0.2295
404.4997	0.2138
404.7054	0.2114
404.911	0.1952
405.1167	0.2032
405.3223	0.2311
405.5279	0.2199
405.7335	0.213
405.9391	0.206
406.1447	0.2081
406.3502	0.2357
406.5558	0.209
406.7613	0.2258
406.9668	0.2122
407.1724	0.2153
407.3778	0.1992
407.5833	0.2187
407.7888	0.2036
407.9942	0.2281
408.1997	0.2052
408.4051	0.2118
408.6105	0.2035
408.8159	0.2091
409.0213	0.2096
409.2267	0.2166
409.432	0.1925
409.6374	0.2435
409.8427	0.1956
410.048	0.2198
410.2533	0.2065
410.4586	0.2134
410.6639	0.1898
410.8691	0.2123
411.0744	0.2192
411.2796	0.1909
411.4848	0.2136
411.69	0.2045
411.8952	0.2277
412.1004	0.2046
412.3056	0.2328
412.5107	0.1977
412.7158	0.2155
412.921	0.2088
413.1261	0.2111
413.3312	0.216
413.5362	0.208
413.7413	0.1904
413.9464	0.1891
414.1514	0.206
414.3564	0.1935
414.5614	0.1986
414.7664	0.1965
414.9714	0.2244
415.1764	0.2037
415.3813	0.222
415.5863	0.1913
415.7912	0.1938
415.9961	0.2104
416.201	0.2166
416.4059	0.2244
416.6108	0.2075
416.8156	0.2133
417.0205	0.1993
417.2253	0.2031
417.4301	0.2051
417.6349	0.2149
417.8397	0.1918
418.0445	0.2137
418.2492	0.2211
418.454	0.1824
418.6587	0.1931
418.8634	0.2244
419.0681	0.1911
419.2728	0.1964
419.4775	0.1968
419.6822	0.1772
419.8868	0.1638
420.0915	0.1788
420.2961	0.1784
420.5007	0.1837
420.7053	0.1876
420.9099	0.1902
421.1144	0.1904
421.319	0.1869
421.5235	0.1959
421.728	0.1923
421.9325	0.1894
422.137	0.1928
422.3415	0.1847
422.546	0.1967
422.7504	0.1867
422.9549	0.1803
423.1593	0.1863
423.3637	0.1792
423.5681	0.1749
423.7725	0.1642
423.9769	0.185
424.1812	0.1763
424.3856	0.1783
424.5899	0.1746
424.7942	0.182
424.9985	0.1846
425.2028	0.1726
425.4071	0.1938
425.6113	0.1583
425.8156	0.1758
426.0198	0.176
426.224	0.1815
426.4282	0.1818
426.6324	0.1639
426.8366	0.1707
427.0407	0.1571
427.2449	0.1627
427.449	0.1794
427.6531	0.1467
427.8572	0.1596
428.0613	0.1452
428.2654	0.1459
428.4694	0.1504
428.6735	0.1476
428.8775	0.1723
429.0815	0.1588
429.2855	0.1441
429.4895	0.1663
429.6935	0.1466
429.8975	0.163
430.1014	0.1501
430.3053	0.1313
430.5093	0.1513
430.7132	0.1286
430.9171	0.1349
431.1209	0.139
431.3248	0.1365
431.5286	0.1514
431.7325	0.1327
431.9363	0.1244
432.1401	0.1448
432.3439	0.1388
432.5477	0.1196
432.7514	0.1365
432.9552	0.1307
433.1589	0.1141
433.3627	0.1107
433.5664	0.1223
433.7701	0.1122
433.9737	0.1115
434.1774	0.1022
434.3811	0.1249
434.5847	0.1284
434.7883	0.1198
434.9919	0.1097
435.1955	0.1141
435.3991	0.1132
435.6027	0.1057
435.8062	0.0979
436.0098	0.0869
436.2133	0.1206
436.4168	0.0863
436.6203	0.0985
436.8238	0.1043
437.0272	0.0929
437.2307	0.0913
437.4341	0.115
437.6375	0.1006
437.841	0.0751
438.0443	0.1011
438.2477	0.0934
438.4511	0.0763
438.6545	0.0948
438.8578	0.1008
439.0611	0.0798
439.2644	0.0869
439.4677	0.0725
439.671	0.0677
439.8743	0.0834
440.0775	0.0838
440.2808	0.0661
440.484	0.072
440.6872	0.0618
440.8904	0.0688
441.0936	0.0913
441.2967	0.0648
441.4999	0.0626
441.703	0.074
441.9062	0.078
442.1093	0.0635
442.3124	0.0799
442.5155	0.0416
442.7185	0.0569
442.9216	0.0455
443.1246	0.0564
443.3276	0.049
443.5307	0.0522
443.7337	0.0624
443.9366	0.0456
444.1396	0.0501
444.3426	0.0491
444.5455	0.0616
444.7484	0.0524
444.9513	0.0341
445.1542	0.0565
445.3571	0.052
445.56	0.056
445.7628	0.041
445.9657	0.0469
446.1685	0.0515
446.3713	0.053
446.5741	0.0522
446.7769	0.0334
446.9797	0.0478
447.1824	0.0433
447.3852	0.0391
447.5879	0.061
447.7906	0.0487
447.9933	0.0264
448.196	0.0372
448.3986	0.0487
448.6013	0.0252
448.8039	0.018
449.0066	0.029
449.2092	0.0466
449.4118	0.0333
449.6143	0.0384
449.8169	0.0334
450.0195	0.027
450.222	0.0134
450.4245	0.028
450.627	0.0377
450.8295	0.0257
451.032	0.0167
451.2345	0.0235
451.4369	0.0288
451.6394	0.0294
451.8418	-0.0047
452.0442	0.0155
452.2466	0.0352
452.449	0.0091
452.6513	0.0141
452.8537	0.0283
453.056	0.0078
453.2583	0.0187
453.4607	0.0199
453.663	0.0117
453.8652	0.0185
454.0675	0.0014
454.2697	0.0108
454.472	0.006
454.6742	0.0106
454.8764	0.0154
455.0786	0.0173
455.2808	0.0077
455.4829	0.0164
455.6851	0.0169
455.8872	0.0076
456.0893	0.0344
456.2915	-0.0019
456.4935	0.0066
456.6956	0.0018
456.8977	0.0078
457.0997	0.01
457.3018	-0.0082
457.5038	-0.0012
457.7058	0.0026
457.9078	0.0023
458.1098	0.0172
458.3117	0.0143
458.5137	0.0104
458.7156	0.0238
458.9175	0.0019
459.1194	-0.0023
459.3213	0.0087
459.5232	-0.001
459.725	-0.0057
459.9269	-0.0126
460.1287	-0.0041
460.3305	0.0088
460.5323	0.0025
460.7341	0.0109
460.9359	-0.0063
461.1376	0.0124
461.3394	-0.0041
461.5411	0.0121
461.7428	-0.0054
461.9445	0.0102
462.1462	0.0236
462.3479	0.0075
462.5495	0.0056
462.7512	0.0128
462.9528	-0.0054
463.1544	0.0003
463.356	-0.0005
463.5576	-0.0018
463.7592	-0.0118
463.9607	-0.0083
464.1623	0.0048
464.3638	0.0194
464.5653	-0.0117
464.7668	-0.0129
464.9683	0.0146
465.1697	0.0074
465.3712	0.0004
465.5726	0.0007
465.7741	-0.0031
465.9755	-0.0028
466.1769	0.013
466.3782	-0.0121
466.5796	-0.0095
466.7809	-0.0016
466.9823	-0.021
467.1836	-0.009
467.3849	-0.0165
467.5862	-0.0024
467.7875	-0.0018
467.9887	0.0085
468.19	-0.0133
468.3912	-0.0098
468.5924	-0.0104
468.7936	-0.0057
468.9948	0.0031
469.196	0.005
469.3972	0.0024
469.5983	-0.0043
469.7994	-0.0211
470.0006	-0.0186
470.2017	-0.0245
470.4027	-0.0154
470.6038	-0.0117
470.8049	-0.0252
471.0059	-0.0141
471.2069	-0.0287
471.408	0.0016
471.6089	0.0044
471.8099	-0.0025
472.0109	-0.0051
472.2119	-0.0152
472.4128	-0.0055
472.6137	0.004
472.8146	-0.0233
473.0155	-0.0105
473.2164	-0.0239
473.4173	-0.0023
473.6181	-0.0074
473.819	-0.0039
474.0198	-0.0174
474.2206	0.0083
474.4214	-0.0065
474.6222	-0.0024
474.8229	-0.0195
475.0237	-0.009
475.2244	-0.0163
475.4251	-0.0039
475.6258	-0.0149
475.8265	-0.0135
476.0272	-0.0083
476.2278	-0.0003
476.4285	-0.0032
476.6291	-0.0141
476.8297	-0.0193
477.0303	-0.0091
477.2309	0.0006
477.4315	-0.0103
477.632	-0.0042
477.8326	-0.0122
478.0331	0.0075
478.2336	0.0014
478.4341	-0.0142
478.6346	-0.0036
478.8351	-0.0055
479.0355	0.0008
479.236	-0.0088
479.4364	-0.0082
479.6368	-0.0135
479.8372	-0.0093
480.0376	-0.0081
480.2379	-0.0275
480.4383	-0.0097
480.6386	0.0044
480.8389	-0.0155
481.0392	-0.0089
481.2395	-0.0191
481.4398	-0.01
481.6401	-0.0049
481.8403	-0.0107
482.0405	-0.0147
482.2408	0.0041
482.441	-0.0037
482.6411	-0.0103
482.8413	-0.0194
483.0415	-0.011
483.2416	-0.014
483.4417	0.0086
483.6419	-0.0126
483.8419	-0.0138
484.042	0.0033
484.2421	-0.0067
484.4422	-0.0021
484.6422	0.0018
484.8422	-0.0214
485.0422	-0.0183
485.2422	0.0057
485.4422	-0.0125
485.6422	-0.0153
485.8421	-0.0131
486.042	-0.0044
486.242	-0.0162
486.4419	-0.0133
486.6417	-0.0128
486.8416	-0.0043
487.0415	-0.0146
487.2413	-0.0068
487.4411	-0.0167
487.641	-0.0057
487.8408	0.0016
488.0405	-0.0043
488.2403	-0.0139
488.4401	-0.0026
488.6398	-0.0095
488.8395	-0.0173
489.0392	-0.0065
489.2389	-0.0087
489.4386	-0.0068
489.6383	-0.0047
489.8379	-0.0036
490.0376	-0.0109
490.2372	-0.0198
490.4368	-0.0154
490.6364	-0.0108
490.836	-0.0142
491.0355	-0.0099
491.2351	-0.0075
491.4346	0.0018
491.6341	-0.01
491.8336	-0.002
492.0331	-0.0084
492.2326	-0.0103
492.432	-0.0139
492.6315	-0.0051
492.8309	-0.0243
493.0303	-0.0216
493.2297	-0.0088
493.4291	-0.009
493.6284	-0.0012
493.8278	0.0023
494.0271	-0.0003
494.2264	-0.0078
494.4257	-0.014
494.625	-0.0092
494.8243	-0.0198
495.0236	-0.0059
495.2228	-0.0163
495.422	-0.0063
495.6213	-0.008
495.8205	-0.0089
496.0196	-0.0146
496.2188	-0.0014
496.418	-0.0087
496.6171	-0.017
496.8162	-0.0161
497.0153	-0.0133
497.2144	-0.0129
497.4135	-0.0079
497.6126	-0.0281
497.8116	-0.0137
498.0107	-0.0081
498.2097	-0.0154
498.4087	-0.0152
498.6077	-0.0076
498.8067	-0.0141
499.0056	-0.0077
499.2046	-0.0194
499.4035	-0.0182
499.6024	-0.0166
499.8013	-0.0087
500.0002	-0.023
500.199	-0.0068
500.3979	-0.0149
500.5967	-0.0233
500.7956	-0.0081
500.9944	-0.0096
501.1932	-0.0127
501.3919	-0.0198
501.5907	-0.0218
501.7895	-0.0187
501.9882	-0.0066
502.1869	-0.0112
502.3856	-0.0157
502.5843	-0.0155
502.783	-0.0096
502.9816	-0.0237
503.1803	-0.0147
503.3789	-0.0084
503.5775	-0.005
503.7761	-0.0217
503.9747	-0.0111
504.1732	-0.0133
504.3718	-0.0075
504.5703	-0.0023
504.7689	-0.0224
504.9674	-0.0092
505.1658	-0.0207
505.3643	-0.0089
505.5628	-0.015
505.7612	-0.013
505.9597	0.0012
506.1581	-0.0139
506.3565	-0.01
506.5549	-0.0138
506.7532	-0.0354
506.9516	-0.0107
507.1499	-0.0147
507.3482	-0.0147
507.5465	-0.0099
507.7448	-0.0057
507.9431	-0.0107
508.1414	-0.0091
508.3396	-0.0052
508.5379	-0.0065
508.7361	-0.0146
508.9343	-0
509.1325	-0.0034
509.3306	-0.0113
509.5288	-0.0026
509.7269	-0.007
509.9251	-0.0132
510.1232	-0.012
510.3213	-0.01
510.5193	-0.0073
510.7174	-0.0197
510.9154	-0.0101
511.1135	-0.0085
511.3115	-0.0181
511.5095	-0.003
511.7075	-0.0121
511.9055	-0.0119
512.1034	-0.0208
512.3014	-0.0024
512.4993	-0.0037
512.6972	-0.0096
512.8951	-0.0159
513.093	-0.01
513.2908	-0.0132
513.4887	-0.0068
513.6865	-0.0088
513.8844	-0.0115
514.0822	-0.0084
514.2799	-0.0187
514.4777	-0.0161
514.6755	-0.0105
514.8732	-0.0092
515.0709	-0.0182
515.2687	-0.0051
515.4664	-0.0029
515.664	-0.0236
515.8617	-0.0162
516.0594	-0.0218
516.257	-0.0022
516.4546	-0.0198
516.6522	-0.0061
516.8498	-0.0056
517.0474	0.0013
517.2449	-0.0071
517.4425	-0.02
517.64	-0.0082
517.8375	-0
518.035	-0.0036
518.2325	-0.0112
518.43	-0.014
518.6274	-0.0147
518.8249	-0.0189
519.0223	-0.005
519.2197	-0.0026
519.4171	-0.0069
519.6145	-0.0122
519.8118	-0.0102
520.0092	-0.0091
520.2065	-0.0155
520.4038	-0.0198
520.6011	-0.0065
520.7984	-0.0139
520.9956	-0.0134
521.1929	-0.0171
521.3901	0.0035
521.5874	-0.013
521.7846	-0.0094
521.9818	-0.0091
522.1789	-0.0213
522.3761	-0.0067
522.5732	-0.0132
522.7704	-0.0169
522.9675	-0.0129
523.1646	-0.0197
523.3617	0.001
523.5587	-0.0066
523.7558	-0.0043
523.9528	-0.0135
524.1498	-0.0054
524.3468	-0.0174
524.5438	-0.0072
524.7408	-0.0113
524.9378	-0.0024
525.1347	-0.0072
525.3316	-0.0058
525.5285	-0.0135
525.7254	0.0018
525.9223	0.0052
526.1192	-0.0052
526.316	-0.0111
526.5129	-0.0059
526.7097	0.0016
526.9065	-0.0087
527.1033	-0.0154
527.3	-0.0138
527.4968	-0.0086
527.6935	-0.007
527.8903	-0.0167
528.087	-0.0002
528.2837	-0.0061
528.4804	-0.012
528.677	-0.0108
528.8737	-0.0045
529.0703	-0.0027
529.2669	-0.0081
529.4635	-0.003
529.6601	-0.0021
529.8567	-0.012
530.0532	-0.0083
530.2498	0.0017
530.4463	-0.0021
530.6428	-0.0048
530.8393	0.0093
531.0358	-0.0071
531.2322	-0.0004
531.4287	-0.0069
531.6251	-0.0107
531.8215	0.0077
532.0179	-0.002
532.2143	0.0062
532.4107	-0.0109
532.607	-0.0117
532.8034	-0.0031
532.9997	-0.006
533.196	-0.0064
533.3923	-0.0131
533.5886	-0.0121
533.7848	0.0039
533.9811	-0.0108
534.1773	-0.006
534.3735	0.0037
534.5697	-0.0072
534.7659	-0.0095
534.9621	-0.0088
535.1582	-0.0127
535.3544	-0.0123
535.5505	-0.0212
535.7466	-0.0093
535.9427	-0.01
536.1387	-0.0122
536.3348	-0.0056
536.5308	-0.0004
536.7269	-0.0149
536.9229	0.0043
537.1189	-0.0046
537.3148	-0.0166
537.5108	-0.0183
537.7068	-0.0086
537.9027	-0.0206
538.0986	0.0025
538.2945	-0.0094
538.4904	-0.0109
538.6863	0.0046
538.8821	-0.0078
539.078	-0.0003
539.2738	-0.001
539.4696	-0.0124
539.6654	0.0054
539.8611	0.0098
540.0569	-0.0129
540.2526	-0.0065
540.4484	-0.0079
540.6441	0.0011
540.8398	-0.0159
541.0355	-0.0016
541.2311	-0.0121
541.4268	-0.0139
541.6224	0.0034
541.818	0.0016
542.0136	-0.0121
542.2092	0.0003
542.4048	-0.003
542.6003	0.0024
542.7959	0.0022
542.9914	-0.0038
543.1869	-0.0046
543.3824	-0.0013
543.5779	-0.0077
543.7734	-0.0194
543.9688	-0.0133
544.1642	-0.0033
544.3596	-0.0025
544.555	-0.0073
544.7504	0.0047
544.9458	-0.0013
545.1411	0.0016
545.3365	-0.003
545.5318	-0.002
545.7271	0.0045
545.9224	-0.0036
546.1177	-0.0109
546.3129	0.004
546.5081	-0.0135
546.7034	-0.0008
546.8986	-0.0027
547.0938	-0.0028
547.289	-0.0034
547.4841	-0.0044
547.6793	0.0009
547.8744	-0.0066
548.0695	-0.0006
548.2646	-0.007
548.4597	0.0065
548.6548	-0.0063
548.8498	-0.0071
549.0448	0.0017
549.2399	-0.0077
549.4349	0.0056
549.6298	0.0005
549.8248	0.0031
550.0198	-0.0008
550.2147	-0.0056
550.4096	-0.0073
550.6045	0.0051
550.7994	0.0039
550.9943	-0.001
551.1892	-0.0011
551.384	0.0015
551.5788	-0.0062
551.7737	-0.0006
551.9685	-0.0063
552.1632	0.0097
552.358	-0.0098
552.5528	-0.0047
552.7475	-0.0016
552.9422	-0.0029
553.1369	-0.0055
553.3316	0.0078
553.5263	-0.0064
553.7209	0.0047
553.9156	-0.0014
554.1102	-0.0065
554.3048	-0.0031
554.4994	0.0092
554.694	-0.0051
554.8885	0.0045
555.0831	-0.0114
555.2776	-0.0052
555.4721	0.0003
555.6666	-0.0094
555.8611	0.0085
556.0555	0.0047
556.25	0.0044
556.4444	-0.0035
556.6388	-0.0007
556.8332	0.0019
557.0276	0.0007
557.222	0.0013
557.4163	-0.0011
557.6107	-0.0009
557.805	0.0047
557.9993	-0.0073
558.1936	0.0021
558.3879	-0.0078
558.5821	0.0019
558.7764	-0.0026
558.9706	0.0016
559.1648	0.0024
559.359	-0.0047
559.5532	-0.0159
559.7473	-0.0058
559.9415	-0.0014
560.1356	-0.0043
560.3297	-0.0182
560.5238	-0.0076
560.7179	-0.0046
560.9119	0.0023
561.106	-0.0092
561.3	-0.0132
561.494	-0.0065
561.688	-0.0041
561.882	-0.0024
562.076	-0.0114
562.2699	-0.0057
562.4639	-0.0001
562.6578	-0.0033
562.8517	-0.0064
563.0456	-0.0018
563.2395	-0.0044
563.4333	-0.0037
563.6272	0.0068
563.821	-0.0026
564.0148	-0.0053
564.2086	-0.0044
564.4024	-0.0014
564.5961	-0.004
564.7899	-0.0021
564.9836	0.0075
565.1773	0.0003
565.371	0.0034
565.5647	0.0001
565.7584	-0.0042
565.952	-0.0045
566.1456	0.0028
566.3393	-0.0029
566.5329	-0.0004
566.7264	-0.0035
566.92	-0.0047
567.1136	0.0022
567.3071	-0.0091
567.5006	-0.0014
567.6941	-0.0021
567.8876	-0.0049
568.0811	-0.0068
568.2745	0.0021
568.468	0.0026
568.6614	-0.0044
568.8548	0.0015
569.0482	-0.0053
569.2416	0.0015
569.4349	-0.0053
569.6283	-0.0067
569.8216	0.0014
570.0149	-0.0048
570.2082	-0.0008
570.4015	0.0037
570.5947	0.0049
570.788	-0.0037
570.9812	0.003
571.1744	-0.0018
571.3676	-0.0068
571.5608	-0.0043
571.754	-0.0008
571.9471	-0.0009
572.1402	-0.0001
572.3333	-0.0077
572.5264	-0.0097
572.7195	-0.0057
572.9126	-0.0065
573.1057	-0.0013
573.2987	-0.0028
573.4917	0.0031
573.6847	-0.011
573.8777	0.0055
574.0707	0.0004
574.2636	-0.0063
574.4566	-0.0031
574.6495	0.0068
574.8424	-0.005
575.0353	0.0006
575.2281	0.0001
575.421	0.0017
575.6138	0.0011
575.8067	-0.0029
575.9995	-0.0037
576.1923	-0.0005
576.385	0.0017
576.5778	-0.0028
576.7706	-0.0031
576.9633	-0.0043
577.156	-0.0057
577.3487	0.0041
577.5414	0.0011
577.734	-0.0019
577.9267	0
578.1193	-0.016
578.3119	-0.0104
578.5045	-0.0044
578.6971	-0.0053
578.8897	-0.0047
579.0822	-0.0031
579.2747	-0.0077
579.4673	-0.005
579.6598	-0.0054
579.8522	-0.0057
580.0447	-0.0078
580.2372	-0.0059
580.4296	0.0027
580.622	-0.0047
580.8144	-0.0046
581.0068	-0.0075
581.1992	-0.0116
581.3915	-0.0072
581.5839	-0.007
581.7762	-0.0096
581.9685	-0.0016
582.1608	-0.0003
582.353	-0.0038
582.5453	-0.006
582.7375	0.0045
582.9298	0.0038
583.122	-0.0021
583.3142	0.0024
583.5063	-0.0034
583.6985	-0.0017
583.8906	0
584.0827	-0.0076
584.2749	0.0019
584.4669	-0.001
584.659	-0.0052
584.8511	-0.008
585.0431	-0.0042
585.2352	-0.0008
585.4272	-0.0012
585.6192	0.0028
585.8111	-0.0042
586.0031	0.0001
586.195	-0.0074
586.387	0.0013
586.5789	-0.0026
586.7708	0.001
586.9627	-0.0002
587.1545	0.0047
587.3464	0.0042
587.5382	0.0032
587.73	-0.0017
587.9218	0.0054
588.1136	0.0002
588.3053	-0.0003
588.4971	-0.0001
588.6888	-0.0135
588.8805	0.0006
589.0722	0.0015
589.2639	-0.0034
589.4556	-0.005
589.6472	-0.0031
589.8389	-0.0109
590.0305	-0.0109
590.2221	0.0012
590.4137	-0.0117
590.6052	0.0038
590.7968	-0.0052
590.9883	0.0037
591.1798	-0.0016
591.3713	0.001
591.5628	-0.001
591.7543	0.0062
591.9458	0.0032
592.1372	0.0056
592.3286	0.0041
592.52	0.0039
592.7114	0.0013
592.9028	-0.003
593.0941	0.0021
593.2855	0.0028
593.4768	-0.0078
593.6681	-0.008
593.8594	-0.005
594.0506	-0.0043
594.2419	0.0062
594.4331	0.0019
594.6244	-0.0018
594.8156	-0.0086
595.0067	0.0048
595.1979	-0.0018
595.3891	-0.0003
595.5802	-0.0079
595.7713	-0.0034
595.9624	-0.0041
596.1535	0.0063
596.3446	0.0021
596.5357	0.0008
596.7267	0.0089
596.9177	-0.0029
597.1087	-0.0047
597.2997	0.0008
597.4907	0.0014
597.6817	0.003
597.8726	0.0038
598.0635	-0.0078
598.2544	-0.0025
598.4453	-0.0009
598.6362	-0.0045
598.827	0.002
599.0179	0.0093
599.2087	0.006
599.3995	-0.0021
599.5903	0.0002
599.7811	0.0035
599.9718	0.002
600.1626	0.0057
600.3533	-0.0064
600.544	0.0073
600.7347	-0
600.9254	0.0044
601.116	0.0001
601.3067	0.0039
601.4973	-0.0023
601.6879	0.0133
601.8785	-0.0003
602.0691	0.0064
602.2596	0.0114
602.4502	0.0093
602.6407	0.0028
602.8312	0.0012
603.0217	-0.0059
603.2122	-0.0027
603.4027	0.0063
603.5931	-0.0057
603.7835	-0.0043
603.9739	-0.001
604.1643	-0.0014
604.3547	-0.006
604.5451	0.0026
604.7354	-0.0008
604.9257	0.0006
605.116	-0.0048
605.3063	0.0113
605.4966	0.0047
605.6869	0.0033
605.8771	0.003
606.0673	0.0052
606.2575	0.0036
606.4477	0.0048
606.6379	0.0022
606.8281	0.0029
607.0182	-0.0022
607.2083	0.0114
607.3985	-0.0026
607.5885	-0.0004
607.7786	0.0012
607.9687	-0.0074
608.1587	0.0073
608.3488	-0.008
608.5388	0.001
608.7288	-0.0026
608.9187	0.001
609.1087	-0.0001
609.2986	-0.0069
609.4886	0.0042
609.6785	0.0044
609.8684	-0.0025
610.0582	-0.0035
610.2481	-0.0058
610.4379	0.0062
610.6278	-0.004
610.8176	-0.0024
611.0074	-0.0048
611.1971	-0.0026
611.3869	-0.0018
611.5766	-0.0059
611.7664	0.0066
611.9561	-0.0022
612.1458	-0.0023
612.3354	-0.0078
612.5251	-0.0004
612.7147	0.0064
612.9044	0.011
613.094	-0.003
613.2836	-0
613.4731	-0.0047
613.6627	-0.0029
613.8522	0.0048
614.0417	0.0025
614.2313	-0.0004
614.4207	-0.0073
614.6102	-0.0043
614.7997	-0.0021
614.9891	-0.0129
615.1785	-0.0009
615.3679	-0.0076
615.5573	0.0115
615.7467	0.0002
615.9361	-0.0039
616.1254	-0.0048
616.3147	-0.0042
616.504	0.0086
616.6933	0.0048
616.8826	0.0007
617.0718	0.0066
617.2611	0.002
617.4503	-0.0011
617.6395	-0.0023
617.8287	-0.0027
618.0179	-0.0007
618.207	0.0063
618.3961	-0.001
618.5853	-0.0018
618.7744	0.0038
618.9634	0.0046
619.1525	0.0065
619.3416	-0.0003
619.5306	0.0055
619.7196	0.0022
619.9086	-0.0054
620.0976	-0.005
620.2866	0.0045
620.4755	0.0028
620.6645	-0.0011
620.8534	0.0038
621.0423	0.0066
621.2312	0.0071
621.42	-0.003
621.6089	-0.0027
621.7977	0.0093
621.9865	-0.0018
622.1753	0.002
622.3641	-0.0007
622.5529	0.0126
622.7416	0.0061
622.9303	0.0018
623.1191	0.0068
623.3078	-0.0003
623.4964	0.0028
623.6851	-0.0045
623.8737	0.0031
624.0624	0.0054
624.251	-0.0025
624.4396	-0.0028
624.6282	-0.0049
624.8167	0.003
625.0053	-0.0006
625.1938	0.0099
625.3823	-0.0012
625.5708	0.0007
625.7593	-0.0057
625.9477	-0.0031
626.1362	0.0044
626.3246	0.0001
626.513	0.0047
626.7014	0.0061
626.8898	-0.0004
627.0781	-0.0047
627.2665	-0.0016
627.4548	0.0076
627.6431	0.0053
627.8314	0.0044
628.0197	0.0061
628.2079	-0.0064
628.3962	0.0036
628.5844	0.006
628.7726	0.0089
628.9608	0.0069
629.1489	-0.005
629.3371	0.0053
629.5252	0.007
629.7134	0.009
629.9015	0.0012
630.0895	0.0008
630.2776	0.009
630.4657	0.0037
630.6537	0.0074
630.8417	-0
631.0297	-0.0037
631.2177	0.0034
631.4057	-0.0026
631.5936	0.0022
631.7815	-0.0004
631.9695	0.0042
632.1574	0.0054
632.3452	0.009
632.5331	-0.003
632.7209	-0.0051
632.9088	0.0059
633.0966	0.0146
633.2844	-0.0004
633.4722	0.0001
633.6599	0.0078
633.8477	0.0118
634.0354	0.0038
634.2231	0.0013
634.4108	0.0104
634.5985	0.0063
634.7861	-0.001
634.9738	-0.0069
635.1614	0.0024
635.349	0.001
635.5366	-0.0055
635.7242	-0.0017
635.9117	0.0062
636.0993	-0.0006
636.2868	0.0048
636.4743	-0.0027
636.6618	0.0078
636.8492	0.0042
637.0367	-0.0049
637.2241	-0.0055
637.4115	-0.0019
637.5989	-0.0093
637.7863	-0.004
637.9737	0.0006
638.161	0.0042
638.3484	-0.0015
638.5357	0.0075
638.723	0.0009
638.9103	0.0104
639.0975	0.0017
639.2848	0.0104
639.472	-0.0046
639.6592	0.0031
639.8464	0.0121
640.0336	0.0081
640.2208	0.0013
640.4079	0.0041
640.595	0.0091
640.7821	0.003
640.9692	0.0106
641.1563	0.0151
641.3434	0.011
641.5304	0.008
641.7174	-0.002
641.9044	0.0014
642.0914	0.0105
642.2784	-0.0002
642.4653	0.0024
642.6523	0.0044
642.8392	0.0038
643.0261	0.0079
643.213	0.0119
643.3999	-0.0034
643.5867	0.0003
643.7735	0.0051
643.9604	-0.0111
644.1472	0.006
644.3339	0.0089
644.5207	-0.0013
644.7075	-0.0034
644.8942	0.0077
645.0809	0.006
645.2676	0.0077
645.4543	0.0066
645.6409	0.0074
645.8276	0.0065
646.0142	0.0129
646.2008	-0.005
646.3874	-0.0009
646.574	0.0014
646.7605	-0.0039
646.9471	-0.0087
647.1336	0.0054
647.3201	0.0119
647.5066	-0.0104
647.6931	0.0068
647.8795	0.0012
648.0659	0.01
648.2524	0.0146
648.4388	-0.0004
648.6252	0.007
648.8115	0.0034
648.9979	0.0037
649.1842	0.0033
649.3705	0.0051
649.5568	0.0014
649.7431	0.0071
649.9294	0.0009
650.1156	0.0098
650.3018	-0.009
650.488	0.0078
650.6742	0.0068
650.8604	-0
651.0466	-0.0024
651.2327	-0.0015
651.4188	0.0015
651.6049	-0.0004
651.791	-0.0026
651.9771	0.0045
652.1632	-0.0002
652.3492	0.0057
652.5352	0.0042
652.7212	-0.0007
652.9072	0.0049
653.0932	0.0112
653.2791	0.003
653.465	-0.0006
653.651	0.0004
653.8369	-0.0029
654.0227	-0
654.2086	0.0058
654.3944	0.0088
654.5803	0.0029
654.7661	-0.0028
654.9519	0.0091
655.1377	-0.0046
655.3234	-0.0055
655.5092	-0.0055
655.6949	-0.0035
655.8806	-0.0077
656.0663	-0.0063
656.2519	-0.0037
656.4376	-0.0044
656.6232	0.005
656.8088	-0.0015
656.9945	0.006
657.18	-0.0049
657.3656	0.0049
657.5511	-0.0003
657.7367	-0.0026
657.9222	0.0027
658.1077	-0.0044
658.2932	0.0084
658.4786	-0.0052
658.6641	-0.0034
658.8495	0.0052
659.0349	-0.0023
659.2203	0.0135
659.4057	0.0035
659.591	-0.0029
659.7764	0.0068
659.9617	0.006
660.147	0.0047
660.3323	-0.0004
660.5176	0.0089
660.7028	0.0072
660.888	0.002
661.0733	0.009
661.2585	-0.0013
661.4436	0.0059
661.6288	0.0013
661.8139	-0.0004
661.9991	0.0061
662.1842	0.0041
662.3693	0.0088
662.5544	0.0022
662.7394	0.0026
662.9245	-0.0013
663.1095	-0.0023
663.2945	-0.0017
663.4795	-0.0015
663.6644	0.0064
663.8494	-0.0024
664.0343	0.0011
664.2193	-0.0105
664.4042	-0.0005
664.589	-0.0112
664.7739	-0.0009
664.9587	-0.0022
665.1436	-0.0026
665.3284	0.0006
665.5132	-0.0022
665.698	0.0065
665.8827	0.0095
666.0675	-0.0049
666.2522	-0.0059
666.4369	0.0027
666.6216	0.0126
666.8063	0.0054
666.9909	0.0051
667.1756	-0.0002
667.3602	0.0029
667.5448	0.0003
667.7294	0.0091
667.9139	0.005
668.0985	0.0169
668.283	0.0009
668.4675	0.0007
668.652	0.0048
668.8365	0.0019
669.0209	0.0021
669.2054	0.0113
669.3898	0.0011
669.5742	0.0103
669.7586	0.0098
669.943	0.0106
670.1273	0.004
670.3117	0.0107
670.496	0.0044
670.6803	0.0124
670.8646	0.0096
671.0488	0.0054
671.2331	0.0051
671.4173	0.0099
671.6015	-0.0025
671.7857	0.0007
671.9699	0.0001
672.1541	0.012
672.3382	0.0015
672.5223	0.0148
672.7064	0.0081
672.8905	0.0097
673.0746	0.0051
673.2587	0.0023
673.4427	0.0072
673.6267	0.0118
673.8107	0.0132
673.9947	0.0041
674.1787	0.0033
674.3626	-0.0012
674.5465	0.0064
674.7304	0.001
674.9143	0.0086
675.0982	0.0184
675.2821	0.0032
675.4659	0.0052
675.6497	0.0025
675.8335	0.0031
676.0173	-0.0011
676.2011	0.0097
676.3849	0.0009
676.5686	-0.0053
676.7523	0.0024
676.936	-0.0021
677.1197	0.0013
677.3034	-0.0006
677.487	0.0093
677.6706	-0.0001
677.8542	0.0039
678.0378	0.0066
678.2214	0.0038
678.405	0.0041
678.5885	0.002
678.772	0.0089
678.9555	-0.0003
679.139	0.0058
679.3225	-0.0025
679.5059	0.0035
679.6894	0.0048
679.8728	0.0065
680.0562	-0.0023
680.2395	-0.0036
680.4229	0.0037
680.6062	0.0032
680.7896	-0.0018
680.9729	-0.0002
681.1562	0.0041
681.3394	0.0075
681.5227	-0.0057
681.7059	-0.0007
681.8891	0.0011
682.0723	0.0131
682.2555	0.0026
682.4387	-0.0012
682.6218	-0.0008
682.805	0.0028
682.9881	0.004
683.1712	-0.003
683.3542	-0.0014
683.5373	0.0083
683.7203	-0.0058
683.9034	0.0047
684.0864	0.0019
684.2694	-0.0003
684.4523	0.0054
684.6353	-0.0052
684.8182	0.0063
685.0011	0.002
685.184	0.0092
685.3669	0.0112
685.5498	0.0098
685.7326	0.0057
685.9154	-0.0002
686.0982	0.0199
686.281	0.0089
686.4638	0.0079
686.6465	0.0068
686.8293	0.0009
687.012	0.0054
687.1947	-0.0038
687.3774	0.0019
687.56	-0.0005
687.7427	0.0023
687.9253	-0.0041
688.1079	-0.0002
688.2905	0.0083
688.4731	0.0003
688.6556	-0.0058
688.8382	0.0017
689.0207	0.007
689.2032	-0.0037
689.3857	-0.0099
689.5681	0.0103
689.7506	-0.0051
689.933	-0.0019
690.1154	0.0013
690.2978	-0.0038
690.4802	0.0008
690.6626	-0.0159
690.8449	0.0079
691.0272	0.0035
691.2095	-0.0019
691.3918	-0.0074
691.5741	0.0009
691.7563	-0.0001
691.9386	-0.0034
692.1208	-0.0011
692.303	0.0046
692.4852	-0.0018
692.6673	-0.0001
692.8495	-0.004
693.0316	0.0018
693.2137	0.0006
693.3958	0.0058
693.5778	-0.0007
693.7599	-0.004
693.9419	0.0049
694.1239	0.002
694.3059	-0.0061
694.4879	0.0076
694.6699	0.0024
694.8518	0.0008
695.0337	-0.0048
695.2157	0.0054
695.3975	-0.0043
695.5794	-0.0014
695.7613	0.0083
695.9431	-0.0002
696.1249	0.0079
696.3067	0.0054
696.4885	0.0046
696.6703	-0.0085
696.852	0.0026
697.0337	0.0072
697.2154	-0.0011
697.3971	0.002
697.5788	0.0066
697.7605	0.0044
697.9421	0.0044
698.1237	0.0035
698.3053	-0.0038
698.4869	-0
698.6685	-0.0095
698.85	0.0011
699.0315	0.0082
699.213	0.0051
699.3945	0.0019
699.576	0.0093
699.7575	0.0058
699.9389	0.0094
700.1203	0.0026
700.3017	-0.0112
700.4831	-0.0114
700.6645	-0.0135
700.8458	-0.0039
701.0271	-0.0056
701.2084	-0.0044
701.3897	-0.0064
701.571	-0.0006
701.7523	-0.0123
701.9335	0.0043
702.1147	0.0016
702.2959	0.0012
702.4771	0.0028
702.6583	0.0026
702.8394	-0.0031
703.0205	0.0075
703.2016	-0.0069
703.3827	-0.0029
703.5638	0.0154
703.7449	0.0044
703.9259	0.0035
704.1069	-0.0034
704.2879	0.0009
704.4689	0.0027
704.6499	-0.0026
704.8308	-0.0018
705.0117	-0.0001
705.1927	-0.0025
705.3735	0.0017
705.5544	-0.0015
705.7353	-0.001
705.9161	-0.0006
706.0969	-0.003
706.2777	0.0023
706.4585	-0.0047
706.6393	0.0044
706.82	-0.006
707.0007	-0.0002
707.1815	0.0034
707.3621	0.0083
707.5428	-0.0019
707.7235	0.012
707.9041	0.0084
708.0847	-0.0029
708.2653	0.0003
708.4459	-0.0075
708.6265	0.001
708.807	0.0029
708.9875	-0.0024
709.168	0.0019
709.3485	-0.0034
709.529	-0.0023
709.7095	-0.012
709.8899	-0
710.0703	-0.0127
710.2507	0.0091
710.4311	-0.0011
710.6115	-0.0072
710.7918	-0.0069
710.9721	0.0035
711.1524	-0.0035
711.3327	0.0008
711.513	0.0005
711.6932	0.0072
711.8735	0.0082
712.0537	-0.0005
712.2339	-0.0049
712.4141	-0.0143
712.5942	-0.0061
712.7744	0.0002
712.9545	-0.0057
713.1346	-0.0077
713.3147	-0.0003
713.4947	0.0023
713.6748	0.0025
713.8548	0.0034
714.0348	0.0031
714.2148	0.0053
714.3948	0.0082
714.5748	0.0071
714.7547	0.002
714.9346	0.0126
715.1145	-0.0012
715.2944	0.0032
715.4743	0.0069
715.6541	0.0061
715.834	0.0093
716.0138	0.0098
716.1936	-0.0105
716.3733	-0.003
716.5531	0.0048
716.7328	0.0018
716.9126	-0.0055
717.0923	0.0038
717.2719	0.0015
717.4516	-0.002
717.6312	0.0041
717.8109	0.0061
717.9905	0.0074
718.1701	-0.0048
718.3496	-0.0096
718.5292	0.0059
718.7087	0.0028
718.8882	0.0013
719.0677	0.0078
719.2472	0.0057
719.4267	-0.0017
719.6061	0.0004
719.7856	0.0122
719.965	0.0109
720.1443	0.002
720.3237	0.0126
720.5031	0.0072
720.6824	0.0146
720.8617	-0.0015
721.041	-0.0001
721.2203	0.0105
721.3995	0.0051
721.5788	0.0014
721.758	0.0055
721.9372	0.0015
722.1164	0.0038
722.2956	0.0071
722.4747	0.0033
722.6538	0.002
722.8329	0.0159
723.012	0.0026
723.1911	0.0002
723.3702	-0.0064
723.5492	0.0026
723.7282	-0.0052
723.9072	-0.0027
724.0862	-0.0081
724.2652	-0.0056
724.4441	-0.0058
724.623	0.0025
724.8019	-0.0073
724.9808	0.0063
725.1597	-0.0042
725.3385	0.0084
725.5174	0.001
725.6962	0.0001
725.875	0.0052
726.0538	0.0014
726.2325	-0.004
726.4112	0.002
726.59	-0.0007
726.7687	-0.0012
726.9474	0.0049
727.126	-0.0031
727.3047	-0.0048
727.4833	-0.0001
727.6619	-0.0007
727.8405	-0.0057
728.0191	-0.0066
728.1976	0.0137
728.3762	0.0041
728.5547	0.0072
728.7332	-0.0063
728.9116	-0.0008
729.0901	0.0098
729.2686	-0.009
729.447	-0.0073
729.6254	0.0027
729.8038	-0.0011
729.9821	-0.0087
730.1605	0.001
730.3388	0.0006
730.5171	0.0035
730.6954	-0.0046
730.8737	-0.0026
731.0519	-0.0001
731.2302	-0.0008
731.4084	0.012
731.5866	-0.0007
731.7648	0.003
731.9429	-0.0035
732.1211	-0.0046
732.2992	0.0049
732.4773	0.0016
732.6554	0.002
732.8335	0.0027
733.0115	0.0052
733.1896	0.0127
733.3676	-0.0048
733.5456	0.0078
733.7235	0.0062
733.9015	-0.0054
734.0794	-0.0031
734.2574	-0.0048
734.4353	-0.0004
734.6131	0.0048
734.791	-0.0067
734.9689	-0.0019
735.1467	0.0056
735.3245	-0.0068
735.5023	-0.006
735.68	-0.0011
735.8578	0.0083
736.0355	-0.0214
736.2132	-0.0059
736.3909	-0.0031
736.5686	-0.0084
736.7463	0.0037
736.9239	-0.0153
737.1015	-0.0061
737.2791	0.0006
737.4567	-0.0052
737.6343	-0.0031
737.8118	-0.0067
737.9894	0.0018
738.1669	-0.0075
738.3444	-0.0046
738.5218	-0.0056
738.6993	0.0062
738.8767	-0.0078
739.0541	0.0067
739.2315	-0.0082
739.4089	-0.003
739.5863	0.0052
739.7636	0.0081
739.9409	0.0021
740.1182	0.0105
740.2955	0.0077
740.4728	-0
740.65	-0
740.8272	-0.0025
741.0044	-0.0044
741.1816	0.0022
741.3588	-0.0034
741.5359	-0.0038
741.7131	-0.0105
741.8902	-0.001
742.0673	0.0004
742.2444	-0.0136
742.4214	-0.0087
742.5985	-0.0004
742.7755	-0.0023
742.9525	-0.0092
743.1295	-0.0046
743.3064	-0.0022
743.4834	0.0053
743.6603	-0.0009
743.8372	-0.0057
744.0141	0.0073
744.191	0.0038
744.3678	0.0042
744.5446	0.0006
744.7215	0.0001
744.8982	-0.0015
745.075	-0.0027
745.2518	0.0092
745.4285	0.0073
745.6052	0.0001
745.7819	-0.0035
745.9586	-0.0131
746.1353	0.0059
746.3119	-0.0042
746.4885	-0.0071
746.6651	-0.0065
746.8417	-0.0013
747.0183	-0.0011
747.1948	-0.01
747.3714	0.0092
747.5479	0.0032
747.7244	0.0014
747.9008	0.0188
748.0773	0.0059
748.2537	-0.0018
748.4301	-0.0061
748.6065	0.0067
748.7829	0.0069
748.9593	-0.0011
749.1356	-0.0005
749.3119	0.0077
749.4882	0.0047
749.6645	0.0076
749.8408	-0.0059
750.017	-0.0072
750.1933	0.0006
750.3695	-0.0078
750.5457	0.0017
750.7218	-0.0019
750.898	-0.0053
751.0741	-0.0094
751.2502	-0.0071
751.4263	-0.0034
751.6024	-0.0084
751.7784	-0.0119
751.9545	-0.0132
752.1305	-0.0091
752.3065	-0.0077
752.4825	-0.0048
752.6584	-0.011
752.8344	-0.0038
753.0103	-0.0084
753.1862	0.0001
753.3621	0.0003
753.5379	-0.0075
753.7138	-0.0035
753.8896	-0.0053
754.0654	0.0029
754.2412	0.0078
754.417	0.0002
754.5927	-0.0103
754.7685	-0.005
754.9442	-0.0042
755.1199	0.0085
755.2956	-0.0049
755.4712	0.001
755.6469	-0.0002
755.8225	-0.008
755.9981	-0.0054
756.1736	-0.0018
756.3492	-0.0042
756.5248	-0.0097
756.7003	-0.0076
756.8758	-0.0039
757.0513	-0.0168
757.2267	-0.0077
757.4022	0.0011
757.5776	-0.0096
757.753	0.0091
757.9284	-0.0023
758.1038	0.0093
758.2791	0.011
758.4545	-0.0083
758.6298	0.0057
758.8051	0.0086
758.9803	0.0013
759.1556	-0.0023
759.3308	-0.0033
759.506	0.0091
759.6812	0.0062
759.8564	0.0131
760.0316	0.0024
760.2067	0.0069
760.3819	0.0124
760.557	0.012
760.732	0.0072
760.9071	-0.0055
761.0821	-0.0018
761.2572	0.0077
761.4322	-0.0061
761.6072	-0.0007
761.7821	-0.0087
761.9571	0.0002
762.132	-0.0042
762.3069	-0.0083
762.4818	-0.008
762.6567	0.0009
762.8316	0.001
763.0064	-0.0005
763.1812	-0.0028
763.356	-0.0075
763.5308	-0.0051
763.7055	-0.0089
763.8803	-0.0126
764.055	-0.0007
764.2297	0.0007
764.4044	-0.0107
764.579	-0.0108
764.7537	-0.0089
764.9283	0.0016
765.1029	-0.0017
765.2775	-0.0136
765.4521	-0.012
765.6266	-0.0113
765.8011	-0.008
765.9756	-0.0049
766.1501	0.0085
766.3246	-0.0052
766.4991	0.0004
766.6735	0.0052
766.8479	-0.0069
767.0223	0.0102
767.1967	-0.0031
767.371	-0.0083
767.5454	0.0006
767.7197	-0.0053
767.894	-0.006
768.0683	-0.0143
768.2425	-0.0011
768.4168	0.0018
768.591	-0.0011
768.7652	-0.0168
768.9394	0.0009
769.1135	-0.0079
769.2877	0.0034
769.4618	-0.0056
769.6359	0.0002
769.81	0.003
769.984	-0.0005
770.1581	-0.0016
770.3321	-0.001
770.5061	-0.0092
770.6801	-0.0056
770.8541	-0.0006
771.028	-0.005
771.202	-0.014
771.3759	-0.002
771.5498	-0.0064
771.7236	0.0038
771.8975	-0.0087
772.0713	0.0017
772.2451	0.0033
772.4189	0.018
772.5927	0.0072
772.7665	0.0102
772.9402	0.0052
773.1139	-0.0025
773.2876	-0.0027
773.4613	0.0039
773.635	0.0125
773.8086	-0.003
773.9822	0.0036
774.1558	0.012
774.3294	-0.0116
774.503	0.0043
774.6765	-0.0014
774.8501	0.0083
775.0236	0.0147
775.1971	-0.011
775.3705	-0.0019
775.544	0.0009
775.7174	-0.0064
775.8908	0.0073
776.0642	-0.0143
776.2376	0.0012
776.4109	-0.0032
776.5843	-0.0052
776.7576	0.0076
776.9309	0.0162
777.1041	0.003
777.2774	0.0187
777.4506	0.0009
777.6238	-0.0095
777.797	0.0059
777.9702	0.0016
778.1434	-0.0018
778.3165	-0.0016
778.4896	-0.019
778.6627	0.007
778.8358	0.0025
779.0089	-0.0121
779.1819	0.0031
779.3549	0.0155
779.5279	0.0122
779.7009	-0.0009
779.8739	0.0033
780.0468	0.0066
780.2197	0.0056
780.3926	-0
780.5655	0.0077
780.7384	-0.0026
780.9112	0.0049
781.0841	-0.0028
781.2569	0.0001
781.4297	0.0017
781.6024	-0.0056
781.7752	-0.0038
781.9479	0.0171
782.1206	0.0079
782.2933	-0.0147
782.466	0.009
782.6386	0.0059
782.8113	0.0052
782.9839	0.0007
783.1565	0.0184
783.329	0.0036
783.5016	-0.0028
783.6741	-0.001
783.8466	-0.0036
784.0191	0.006
784.1916	-0.0151
784.3641	-0.009
784.5365	0.0138
784.7089	-0.002
784.8813	-0.0007
785.0537	-0.0083
785.2261	-0.0021
785.3984	-0.0042
785.5707	-0.0133
785.743	0.0011
785.9153	0.0038
786.0876	-0.0007
786.2598	-0.0099
786.432	-0.0182
786.6042	0.0157
786.7764	0.0023
786.9486	0.008
787.1207	-0.0068
787.2928	-0.0024
787.4649	-0.0139
787.637	-0.0011
787.8091	-0.0024
787.9811	-0.0047
788.1532	-0.0079
788.3252	0.0099
788.4972	-0.0009
788.6691	-0.0117
788.8411	0.0103
789.013	-0.0028
789.1849	-0.0135
789.3568	-0.0053
789.5287	0.0021
789.7005	-0.0067
789.8723	0.0016
790.0442	0.0017
790.2159	0.009
790.3877	-0.0075
790.5595	-0.0093
790.7312	-0.0054
790.9029	-0.0104
791.0746	-0.0139
791.2463	-0.0031
791.4179	-0.018
791.5896	-0.0198
791.7612	0.002
791.9328	0.0011
792.1044	-0.0112
792.2759	-0.0215
792.4474	-0.0171
792.619	0.0059
792.7905	-0.0062
792.9619	0.0003
793.1334	0.0014
793.3048	0.0147
793.4762	0.0081
793.6476	-0.0043
793.819	-0.0074
793.9904	0.013
794.1617	-0.0074
794.333	-0.0086
794.5043	-0.0019
794.6756	-0.0053
794.8469	-0.0015
795.0181	-0.0067
795.1893	-0.012
795.3605	0.0111
795.5317	0.001
795.7029	-0.0155
795.874	0.0017
796.0452	-0.0079
796.2163	-0.0088
796.3873	-0.0045
796.5584	-0.0009
796.7294	-0.0123
796.9005	-0.0156
797.0715	-0.0019
797.2425	-0.0357
797.4134	-0.0076
797.5844	0.0061
797.7553	-0.0168
797.9262	-0.011
798.0971	-0.0237
798.2679	-0.0187
798.4388	-0.0299
798.6096	-0.0196
798.7804	-0.0045
798.9512	-0.0188
799.122	-0.0258
799.2927	-0.005
799.4635	-0.0029
799.6342	-0.0111
799.8049	-0.0071
799.9755	-0.0163
800.1462	-0.0275
800.3168	0.0019
800.4874	-0.0185
800.658	0.0164
800.8286	-0.0002
800.9991	0.0139
801.1696	-0.0085
801.3402	0.0136
801.5106	-0.0214
801.6811	-0.0087
801.8516	0.0057
802.022	-0.0121
802.1924	-0.0012
802.3628	0.0055
802.5332	0.0031
802.7035	0.0117
802.8739	0.0008
803.0442	-0.0242
803.2145	0.0045
803.3847	-0.0363
803.555	-0.0055
803.7252	-0.0234
803.8954	-0.0235
804.0656	-0.023
804.2358	-0.0239
804.4059	0.0008
804.5761	-0.0081
804.7462	-0.0176
804.9163	-0.0076
805.0864	-0.0292
805.2564	-0.0321
805.4264	0.0095
805.5965	-0.0334
805.7665	-0.0087
805.9364	-0.0104
806.1064	0.028
806.2763	-0.0013
806.4462	0.0083
806.6161	0.0004
806.786	0.0059
806.9559	-0.0176
807.1257	-0.0044
807.2955	0.0128
807.4653	-0.0086
807.6351	-0.024
807.8048	-0.0012
807.9746	0.005
808.1443	-0.0122
808.314	0.0021
808.4837	-0.0318
808.6533	-0.0094
808.8229	0.0127
808.9926	-0.0168
809.1622	-0.0116
809.3317	-0.0287
809.5013	-0.0118
809.6708	-0.0089
809.8403	-0.003
810.0098	-0.0015
810.1793	-0.0122
810.3488	-0.0151
810.5182	-0.017
810.6876	0.0038
810.857	0.001
811.0264	0.0212
811.1958	0.0026
811.3651	-0.0037
811.5344	-0.0207
811.7037	-0.0265
811.873	-0.0275
812.0422	-0.0086
812.2115	-0.0164
812.3807	-0.0247
812.5499	-0.0008
812.7191	-0.0048
812.8882	-0.0211
813.0574	-0.0055
813.2265	-0.0102
813.3956	-0.0146
813.5646	0.0069
813.7337	-0.0163
813.9027	0.009
814.0718	0.0189
814.2407	0.0178
814.4097	0.0059
814.5787	-0.0127
814.7476	0.0077
814.9165	-0.0223
815.0854	0.0074
815.2543	-0.0156
815.4232	-0.014
815.592	0.0023
815.7608	0.0083
815.9296	0.0009
816.0984	0.0062
816.2671	-0.0085
816.4359	-0.0111
816.6046	-0.0007
816.7733	-0.0121
816.942	-0.0212
817.1106	0.0006
817.2793	0.0025
817.4479	0.0037
817.6165	0.0178
817.785	-0.0013
817.9536	-0.0056
818.1221	-0.0124
818.2906	0.0206
818.4591	-0.012
818.6276	-0.016
818.7961	-0.0175
818.9645	-0.0134
819.1329	-0.0093
819.3013	0.0047
819.4697	-0.0151
819.638	-0.0165
819.8064	-0.0054
819.9747	-0.0137
820.143	0.0032
820.3113	-0.0343
820.4795	-0.0178
820.6477	-0.0146
820.816	-0.01
820.9842	-0.0138
821.1523	-0.0279
821.3205	-0.0195
821.4886	-0.0118
821.6567	0.0007
821.8248	0.0059
821.9929	0.0014
822.1609	0.0126
822.329	0.0094
822.497	0.0135
822.665	-0.0212
822.833	-0.0208
823.0009	0.0125
823.1688	0.0114
823.3367	0.0203
823.5046	0.0256
823.6725	0.0332
823.8404	-0.002
824.0082	0.0204
824.176	0.0107
824.3438	0.0386
824.5116	-0.0237
824.6793	0.0306
824.847	-0.0115
825.0147	-0.0017
825.1824	0.0232
825.3501	0.0083
825.5177	-0.0036
825.6854	0.0069
825.853	-0.014
826.0206	-0.021
826.1881	-0.014
826.3557	-0.0324
826.5232	0.0186
826.6907	-0.0533
826.8582	-0.0134
827.0257	-0.0439
827.1931	-0.0259
827.3605	-0.0063
827.528	-0.0083
827.6953	0.0031
827.8627	-0.0197
828.03	0.0216
828.1974	-0.0238
828.3647	-0.0633
828.532	-0.0296
828.6992	-0.0179
828.8665	-0.0057
829.0337	-0.0284
829.2009	0.0075
829.3681	-0.0161
829.5352	-0
829.7024	-0.0296
829.8695	-0.0144
830.0366	0.0028
830.2037	-0.0096
830.3707	0.0243
830.5378	-0.0199
830.7048	-0.0049
830.8718	0.0132
831.0388	-0.0251
831.2057	0.008
831.3727	0.0164
831.5396	-0.0381
831.7065	-0.0343
831.8734	-0.0128
832.0402	-0.0343
832.2071	-0.0166
832.3739	-0.0424
832.5407	-0.0448
832.7075	-0.019
832.8742	-0.0569
833.041	-0.0425
833.2077	-0.0209
833.3744	-0.0088
833.541	-0.009
833.7077	-0.0308
833.8743	-0.0261
834.0409	0.0309
834.2075	0.007
834.3741	-0.0406
834.5407	-0.0132
834.7072	0.0275
834.8737	-0.0447
835.0402	0.0067
835.2067	-0.0183
835.3731	-0.0001
835.5395	-0.0213
835.706	-0.0058
835.8723	-0.019
836.0387	-0.0205
836.2051	-0.0244
836.3714	-0.0068
836.5377	0.0313
836.704	-0.0162
836.8703	0.0007
837.0365	-0.0022
837.2027	0.0099
837.3689	-0.0054
837.5351	-0.0008
837.7013	-0.0565
837.8674	-0.0441
838.0335	-0.0226
838.1997	0.0157
838.3657	-0.0817
838.5318	-0.0344
838.6978	-0.0239
838.8639	0.0112
839.0299	-0.0136
839.1958	0.0086
839.3618	-0.0201
839.5277	-0.0666
839.6937	0.0237
839.8596	-0.0298
840.0254	-0.0573
840.1913	-0.0017
840.3571	-0.0001
840.523	-0.0525
840.6888	-0.036
840.8545	-0.05
841.0203	0.0187
841.186	0.0273
841.3517	0.0008
841.5174	-0.0214
841.6831	-0.0301
841.8488	-0.042
842.0144	0.0627
842.18	0.0062
842.3456	0.0113
842.5112	0.0019
842.6767	-0.0639
842.8422	-0.0467
843.0077	-0.0823
843.1732	-0.0516
843.3387	-0.0222
843.5042	-0.0305
843.6696	0.0286
843.835	-0.0222
844.0004	0.0068
844.1657	-0.007
844.3311	-0.024
844.4964	-0.0702
844.6617	-0.0154
844.827	-0.0093
844.9923	0.0103
845.1575	0.0764
845.3227	-0.0126
845.4879	-0.0398
845.6531	-0.0894
845.8183	-0.0761
845.9834	-0.0584
846.1485	-0.0445
846.3136	-0.0052
846.4787	-0.1365
846.6438	0.0182
846.8088	0.0094
846.9738	-0.0734
847.1388	-0.0353
847.3038	0.0232
847.4687	-0.1199
847.6337	-0.0265
847.7986	-0.017
847.9635	0.0415
848.1284	-0.0317
848.2932	0.0454
848.458	-0.0297
848.6228	0.0256
848.7876	0.0568
848.9524	-0.07
849.1172	-0.0665
849.2819	-0.0192
849.4466	-0.1334
849.6113	-0.09
849.7759	-0.0736
849.9406	-0.0841
850.1052	0.0263
850.2698	-0.0451
850.4344	-0.0175
850.599	-0.068
850.7635	0.1256
850.928	-0.1036
851.0925	-0.0078
851.257	-0.0565
851.4215	0.0199
851.5859	-0.0216
851.7503	-0.0122
851.9147	-0.0836
852.0791	-0.1482
852.2434	-0.0519
852.4078	0.0545
852.5721	0.1284
852.7364	-0.0122
852.9007	-0.198
853.0649	0.0631
853.2291	-0.0052
853.3934	-0.0543
853.5575	-0.0002
853.7217	-0.1009
853.8859	-0.0003
854.05	-0.0775
854.2141	-0.0762
854.3782	-0.1675
854.5423	-0.0155
854.7063	0.184
854.8703	-0.069
855.0343	0.0061
855.1983	-0.0811
855.3623	0.1297
855.5262	0.0166
855.6901	0.1008
855.854	-0.0204
856.0179	-0.0463
856.1818	0.049
856.3456	0.0424
856.5094	-0.0265
856.6732	-0.0177
856.837	0.1404
857.0008	-0.0844
857.1645	-0.0649
857.3282	-0.1631
857.4919	0.0468
857.6556	0.0121
857.8192	0.1468
857.9828	0.0321
858.1465	0.0196
858.31	-0.2207
858.4736	-0.1663
858.6372	-0.0895
858.8007	-0.3301
858.9642	-0.1296
859.1277	-0.2412
859.2911	0.1462
859.4546	0.0232
859.618	-0.3226
859.7814	0.0134
859.9448	-0.0971
860.1081	-0.095
860.2715	0.0753
860.4348	-0.1541
860.5981	0.0656
860.7614	0.0599
860.9246	0.066
861.0879	-0.1167
861.2511	-0.0033
861.4143	-0.311
861.5774	0.1208
861.7406	-0.3283
861.9037	0.0973
862.0668	-0.085
862.2299	-0.1513
862.393	-0.6574
862.556	-0.065
862.7191	-0.345
862.8821	-0.1823
863.0451	0.2241
863.208	-0.0363
863.371	0.0468
863.5339	-0.364
863.6968	-0.1049
863.8597	-0.1195
864.0225	-0.0959
864.1854	-0.0008
864.3482	-0.1068
864.511	0.1029
864.6737	0.0265
864.8365	-0.0006
864.9992	-0.2602
865.1619	-0.3246
865.3246	0.1522
865.4873	0.2994
865.65	-0.2926
865.8126	-0.1941
865.9752	0.005
866.1378	-0.2694
866.3004	0.483
866.4629	0.1871
866.6254	-0.3691
866.7879	-0
866.9504	-0.2163
867.1129	-0
867.2753	0.3128
867.4377	0.0593
867.6001	-0.3313
867.7625	-0.0341
867.9249	-0.0541
868.0872	-0.2252
868.2495	0.1486
868.4118	-0.403
868.5741	-0.5407
868.7363	-0.4116
868.8986	-0.4058
869.0608	-0.3398
869.223	0.0046
869.3851	-0
869.5473	-0
869.7094	0.1208
869.8715	-0.0981
870.0336	-1.076
870.1957	-0.2296
870.3577	-0.5661
870.5197	-0.1006
870.6817	0.0192
870.8437	-0.1914
871.0057	-0
871.1676	0.9103
871.3295	-0.002
871.4914	-0
871.6533	-0.2216
871.8151	-0.1187
871.977	-0
872.1388	-0
872.3006	-0.4326
872.4623	-0
872.6241	0.5257
872.7858	-0
872.9475	-0.2371
873.1092	-0.1217
873.2709	0.4867
873.4325	0.0654
873.5941	-0.2794
873.7557	-0
873.9173	-0
874.0789	-0.4328
874.2404	-0.2985
874.4019	0.0531
874.5634	-0.2675
874.7249	-0.2621
874.8863	0.2865
875.0478	-0.0118
875.2092	-0
875.3706	-0.105
875.5319	-0.4976
875.6933	-0
875.8546	-0.2886
876.0159	-0
876.1772	0.1429
876.3385	-0
876.4997	0.2696
876.6609	-0.4051
876.8221	0.0928
876.9833	-0
877.1445	-0
877.3056	0.1142
877.4667	0.1465
877.6278	-0
877.7889	-0.4225
877.9499	-0
878.111	-0
878.272	-0
878.433	-0
878.5939	-0
878.7549	0.1392
878.9158	-0.5236
879.0767	0.798
879.2376	-0
879.3984	0.3149
879.5593	-0
879.7201	-0.0973
879.8809	-0.4735
880.0417	0.669
880.2024	-0.1095
880.3632	-0
880.5239	0.2245
880.6846	-0
880.8452	-1.932
881.0059	-1.4728
881.1665	0.0525
881.3271	-0
881.4877	-0.2541
881.6483	-0.5549
881.8088	-0.5332
881.9693	-0
882.1298	-0
882.2903	-0
