Data from MonoPyChalIsomerACN10uM420nmA_Absorbance_15-09-51-135.txt Node
Date: Fri Jul 05 15:09:51 BST 2024
User: LASERRRRR
Spectrometer: FLMT03099
Trigger mode: 0
Integration Time (sec): 1.000000E-1
Scans to average: 1
Electric dark correction enabled: true
Nonlinearity correction enabled: false
Boxcar width: 0
XAxis mode: Wavelengths
Number of Pixels in Spectrum: 3648
>>>>>Begin Spectral Data<<<<<
179.3399	-0.085
179.5586	-0.085
179.7771	-0.085
179.9957	0.3158
180.2143	-0
180.4329	-0.3519
180.6514	0.3588
180.8699	-0
181.0885	-0.261
181.307	0.3529
181.5255	-0.9989
181.744	-0.293
181.9625	-0
182.181	-0
182.3994	0.4839
182.6179	0.4658
182.8363	0.4718
183.0547	-0.3585
183.2732	0.1017
183.4916	-0.0398
183.71	0.0522
183.9284	0.0786
184.1467	0.0087
184.3651	-0.002
184.5835	-0.0723
184.8018	0.0209
185.0201	0.2914
185.2385	-0.0072
185.4568	-0.002
185.6751	0.0866
185.8934	0.3735
186.1117	-0.0304
186.3299	0.1288
186.5482	0.2585
186.7664	-0.0916
186.9847	0.0461
187.2029	-0.0078
187.4211	0.0819
187.6393	0.2465
187.8575	-0.2415
188.0757	0.1368
188.2939	0.1323
188.512	0.1949
188.7302	-0.1236
188.9483	0.1382
189.1665	0.0825
189.3846	-0.2342
189.6027	0.0652
189.8208	0.1289
190.0389	0.1419
190.257	0.1538
190.475	0.1453
190.6931	0.2728
190.9111	0.6911
191.1292	0.0301
191.3472	0.3233
191.5652	0.3085
191.7832	0.2171
192.0012	0.6565
192.2192	0.3097
192.4371	0.4132
192.6551	0.2949
192.873	0.5428
193.091	0.5814
193.3089	0.5184
193.5268	0.4965
193.7447	0.4903
193.9626	0.4508
194.1805	0.6315
194.3984	0.718
194.6162	0.3791
194.8341	0.6885
195.0519	0.7304
195.2697	0.5206
195.4875	1.2087
195.7054	0.6559
195.9231	0.4827
196.1409	0.5661
196.3587	0.5828
196.5765	0.6001
196.7942	0.5067
197.012	0.4526
197.2297	0.6421
197.4474	0.7646
197.6651	0.4867
197.8828	0.6328
198.1005	0.7481
198.3182	0.6062
198.5358	0.7862
198.7535	0.5859
198.9711	0.5912
199.1888	0.5572
199.4064	0.7491
199.624	0.5899
199.8416	0.6209
200.0592	0.5699
200.2767	0.6664
200.4943	0.6686
200.7119	0.8989
200.9294	0.7089
201.1469	0.6139
201.3645	0.6209
201.582	0.6879
201.7995	0.6565
202.017	0.5124
202.2344	0.5196
202.4519	0.7889
202.6694	0.6667
202.8868	0.704
203.1042	0.8789
203.3217	0.71
203.5391	0.6132
203.7565	0.6086
203.9739	0.5546
204.1913	0.6478
204.4086	0.5849
204.626	0.7177
204.8433	0.6141
205.0607	0.5705
205.278	0.6687
205.4953	0.5489
205.7126	0.621
205.9299	0.681
206.1472	0.7123
206.3644	0.6672
206.5817	0.6653
206.7989	0.6732
207.0162	0.6575
207.2334	0.5836
207.4506	0.6654
207.6678	0.6826
207.885	0.6805
208.1022	0.6674
208.3194	0.7047
208.5365	0.5971
208.7537	0.627
208.9708	0.5942
209.1879	0.6272
209.405	0.6618
209.6222	0.6477
209.8392	0.6555
210.0563	0.6254
210.2734	0.6495
210.4905	0.6915
210.7075	0.62
210.9245	0.5757
211.1416	0.6755
211.3586	0.6684
211.5756	0.5866
211.7926	0.6005
212.0096	0.6398
212.2265	0.565
212.4435	0.5771
212.6604	0.6137
212.8774	0.5878
213.0943	0.6015
213.3112	0.5723
213.5281	0.5149
213.745	0.5464
213.9619	0.5504
214.1788	0.4849
214.3956	0.474
214.6125	0.4841
214.8293	0.4296
215.0461	0.4881
215.2629	0.4492
215.4798	0.4878
215.6965	0.4558
215.9133	0.4356
216.1301	0.4161
216.3469	0.4461
216.5636	0.427
216.7803	0.4036
216.9971	0.4271
217.2138	0.3734
217.4305	0.4043
217.6472	0.3882
217.8639	0.392
218.0805	0.3438
218.2972	0.3056
218.5138	0.3452
218.7305	0.3411
218.9471	0.3281
219.1637	0.2978
219.3803	0.2955
219.5969	0.2711
219.8135	0.2585
220.0301	0.2985
220.2466	0.2813
220.4632	0.2709
220.6797	0.2467
220.8962	0.2146
221.1127	0.27
221.3292	0.2588
221.5457	0.2163
221.7622	0.261
221.9787	0.2461
222.1951	0.2397
222.4116	0.2682
222.628	0.2452
222.8444	0.2686
223.0608	0.2543
223.2772	0.2352
223.4936	0.2811
223.71	0.2425
223.9264	0.2852
224.1427	0.2739
224.3591	0.2381
224.5754	0.2744
224.7917	0.2628
225.008	0.2719
225.2243	0.2507
225.4406	0.2869
225.6569	0.266
225.8732	0.2702
226.0894	0.2644
226.3057	0.2635
226.5219	0.2822
226.7381	0.2747
226.9543	0.3068
227.1705	0.282
227.3867	0.2896
227.6029	0.2917
227.8191	0.3027
228.0352	0.2901
228.2513	0.3143
228.4675	0.3123
228.6836	0.3079
228.8997	0.3017
229.1158	0.3183
229.3319	0.294
229.548	0.312
229.764	0.3229
229.9801	0.332
230.1961	0.3282
230.4121	0.3449
230.6282	0.3538
230.8442	0.3107
231.0602	0.3642
231.2761	0.3616
231.4921	0.3473
231.7081	0.3669
231.924	0.3579
232.14	0.3752
232.3559	0.3447
232.5718	0.3837
232.7877	0.364
233.0036	0.3334
233.2195	0.3517
233.4353	0.3502
233.6512	0.357
233.867	0.3731
234.0829	0.3526
234.2987	0.3868
234.5145	0.3741
234.7303	0.3681
234.9461	0.4062
235.1619	0.3706
235.3776	0.3985
235.5934	0.404
235.8091	0.3726
236.0249	0.3948
236.2406	0.3878
236.4563	0.3711
236.672	0.4067
236.8877	0.3972
237.1034	0.3903
237.319	0.3895
237.5347	0.4101
237.7503	0.4043
237.966	0.4146
238.1816	0.4119
238.3972	0.3968
238.6128	0.3938
238.8284	0.408
239.0439	0.4163
239.2595	0.4211
239.475	0.4019
239.6906	0.4045
239.9061	0.3966
240.1216	0.4087
240.3371	0.4144
240.5526	0.3991
240.7681	0.4049
240.9836	0.4006
241.199	0.4012
241.4145	0.3838
241.6299	0.3927
241.8453	0.3943
242.0607	0.388
242.2761	0.3702
242.4915	0.3707
242.7069	0.3677
242.9223	0.3694
243.1376	0.3544
243.353	0.3525
243.5683	0.3748
243.7836	0.3291
243.9989	0.3354
244.2142	0.309
244.4295	0.3306
244.6448	0.3224
244.86	0.2986
245.0753	0.3055
245.2905	0.3022
245.5057	0.2812
245.721	0.2856
245.9362	0.2828
246.1514	0.2872
246.3665	0.27
246.5817	0.2764
246.7969	0.2709
247.012	0.2471
247.2271	0.2491
247.4423	0.2313
247.6574	0.2523
247.8725	0.2473
248.0876	0.229
248.3026	0.2309
248.5177	0.2451
248.7328	0.2136
248.9478	0.2151
249.1628	0.2297
249.3779	0.2108
249.5929	0.2165
249.8079	0.2339
250.0228	0.2048
250.2378	0.2231
250.4528	0.2112
250.6677	0.1983
250.8827	0.1985
251.0976	0.2071
251.3125	0.2003
251.5274	0.1672
251.7423	0.1839
251.9572	0.202
252.172	0.1844
252.3869	0.188
252.6017	0.1889
252.8166	0.179
253.0314	0.1796
253.2462	0.1847
253.461	0.1873
253.6758	0.1817
253.8906	0.1775
254.1053	0.1706
254.3201	0.1797
254.5348	0.1819
254.7496	0.1777
254.9643	0.1764
255.179	0.1809
255.3937	0.1619
255.6083	0.191
255.823	0.1773
256.0377	0.1736
256.2523	0.1731
256.467	0.158
256.6816	0.1727
256.8962	0.1789
257.1108	0.1652
257.3254	0.1693
257.54	0.1619
257.7545	0.1729
257.9691	0.1786
258.1836	0.1669
258.3981	0.1794
258.6127	0.1771
258.8272	0.1743
259.0417	0.1732
259.2561	0.177
259.4706	0.1615
259.6851	0.1802
259.8995	0.1808
260.114	0.1651
260.3284	0.1704
260.5428	0.1684
260.7572	0.1685
260.9716	0.1774
261.186	0.1767
261.4003	0.1742
261.6147	0.1739
261.829	0.1724
262.0433	0.1537
262.2577	0.176
262.472	0.1725
262.6863	0.1645
262.9005	0.1758
263.1148	0.1728
263.3291	0.1567
263.5433	0.171
263.7576	0.1778
263.9718	0.1702
264.186	0.1516
264.4002	0.1672
264.6144	0.1665
264.8286	0.1766
265.0427	0.1652
265.2569	0.1724
265.471	0.1685
265.6851	0.1656
265.8993	0.163
266.1134	0.1654
266.3275	0.1664
266.5415	0.1631
266.7556	0.181
266.9697	0.1685
267.1837	0.1818
267.3978	0.1625
267.6118	0.1642
267.8258	0.1733
268.0398	0.1447
268.2538	0.1781
268.4677	0.1657
268.6817	0.1696
268.8957	0.1603
269.1096	0.1588
269.3235	0.1679
269.5374	0.1584
269.7514	0.1568
269.9652	0.1538
270.1791	0.1733
270.393	0.1526
270.6068	0.1625
270.8207	0.1421
271.0345	0.1574
271.2483	0.1592
271.4622	0.1553
271.676	0.1643
271.8897	0.1512
272.1035	0.1465
272.3173	0.1503
272.531	0.1579
272.7448	0.1543
272.9585	0.1457
273.1722	0.1445
273.3859	0.1636
273.5996	0.1265
273.8133	0.1424
274.0269	0.1544
274.2406	0.1369
274.4542	0.1546
274.6679	0.1533
274.8815	0.1485
275.0951	0.15
275.3087	0.1525
275.5223	0.1552
275.7358	0.1502
275.9494	0.1509
276.1629	0.1346
276.3765	0.1458
276.59	0.1631
276.8035	0.1504
277.017	0.1538
277.2305	0.1464
277.444	0.1591
277.6574	0.1518
277.8709	0.1482
278.0843	0.1518
278.2978	0.1635
278.5112	0.1402
278.7246	0.1538
278.938	0.1556
279.1513	0.1745
279.3647	0.1694
279.5781	0.165
279.7914	0.151
280.0047	0.1709
280.2181	0.1436
280.4314	0.158
280.6447	0.1627
280.8579	0.1641
281.0712	0.1622
281.2845	0.1676
281.4977	0.16
281.711	0.15
281.9242	0.1594
282.1374	0.1546
282.3506	0.1619
282.5638	0.1522
282.7769	0.1632
282.9901	0.1543
283.2033	0.1658
283.4164	0.1776
283.6295	0.1409
283.8426	0.1511
284.0557	0.163
284.2688	0.1621
284.4819	0.172
284.695	0.1685
284.908	0.1659
285.1211	0.1432
285.3341	0.1574
285.5471	0.1696
285.7601	0.1644
285.9731	0.16
286.1861	0.1578
286.3991	0.1746
286.612	0.1613
286.825	0.1627
287.0379	0.1703
287.2508	0.1617
287.4637	0.1696
287.6766	0.1574
287.8895	0.1696
288.1024	0.1742
288.3152	0.1759
288.5281	0.158
288.7409	0.1736
288.9538	0.1644
289.1666	0.1581
289.3794	0.1659
289.5922	0.1622
289.8049	0.1656
290.0177	0.1647
290.2304	0.1621
290.4432	0.1632
290.6559	0.1705
290.8686	0.164
291.0813	0.1627
291.294	0.1647
291.5067	0.1702
291.7194	0.166
291.932	0.1686
292.1447	0.1638
292.3573	0.1633
292.5699	0.1643
292.7825	0.176
292.9951	0.1654
293.2077	0.155
293.4203	0.1568
293.6328	0.1525
293.8454	0.1703
294.0579	0.1643
294.2704	0.162
294.4829	0.1599
294.6954	0.169
294.9079	0.1594
295.1204	0.159
295.3328	0.1606
295.5453	0.1648
295.7577	0.167
295.9701	0.1565
296.1825	0.1644
296.3949	0.1671
296.6073	0.1731
296.8197	0.1564
297.0321	0.1731
297.2444	0.1528
297.4567	0.1759
297.6691	0.1698
297.8814	0.1615
298.0937	0.1605
298.306	0.1681
298.5182	0.1586
298.7305	0.168
298.9428	0.1562
299.155	0.1624
299.3672	0.1594
299.5794	0.1623
299.7916	0.1676
300.0038	0.1658
300.216	0.1736
300.4282	0.1656
300.6403	0.1624
300.8525	0.1665
301.0646	0.1555
301.2767	0.1659
301.4888	0.155
301.7009	0.1657
301.913	0.1601
302.125	0.1664
302.3371	0.1508
302.5491	0.1498
302.7612	0.1735
302.9732	0.1623
303.1852	0.1664
303.3972	0.1628
303.6092	0.1532
303.8211	0.1546
304.0331	0.161
304.245	0.1567
304.457	0.1469
304.6689	0.1527
304.8808	0.1648
305.0927	0.1464
305.3046	0.1629
305.5164	0.1577
305.7283	0.1523
305.9401	0.1464
306.152	0.1595
306.3638	0.1561
306.5756	0.1404
306.7874	0.1579
306.9992	0.159
307.2109	0.1444
307.4227	0.1304
307.6344	0.1406
307.8462	0.1381
308.0579	0.1383
308.2696	0.1478
308.4813	0.1262
308.693	0.14
308.9046	0.1399
309.1163	0.1206
309.328	0.1361
309.5396	0.1258
309.7512	0.1238
309.9628	0.1219
310.1744	0.1182
310.386	0.1121
310.5976	0.1128
310.8091	0.1183
311.0207	0.1132
311.2322	0.1271
311.4437	0.1191
311.6552	0.1171
311.8667	0.1196
312.0782	0.0977
312.2897	0.1123
312.5012	0.1128
312.7126	0.0979
312.924	0.1103
313.1355	0.1109
313.3469	0.1089
313.5583	0.1067
313.7696	0.1143
313.981	0.1124
314.1924	0.1011
314.4037	0.1078
314.6151	0.114
314.8264	0.1006
315.0377	0.106
315.249	0.1108
315.4603	0.1136
315.6716	0.0956
315.8828	0.0995
316.0941	0.0992
316.3053	0.0989
316.5165	0.101
316.7277	0.0914
316.9389	0.1086
317.1501	0.1075
317.3613	0.1029
317.5724	0.0864
317.7836	0.1096
317.9947	0.1014
318.2058	0.1051
318.417	0.0942
318.6281	0.0937
318.8391	0.0955
319.0502	0.1008
319.2613	0.1072
319.4723	0.1022
319.6834	0.1018
319.8944	0.0999
320.1054	0.1135
320.3164	0.1058
320.5274	0.0937
320.7383	0.092
320.9493	0.0972
321.1602	0.1162
321.3712	0.0984
321.5821	0.101
321.793	0.0961
322.0039	0.0935
322.2148	0.102
322.4257	0.1042
322.6365	0.1103
322.8474	0.1079
323.0582	0.1041
323.269	0.1079
323.4798	0.1146
323.6906	0.1099
323.9014	0.1056
324.1122	0.0993
324.3229	0.0981
324.5337	0.108
324.7444	0.1085
324.9551	0.1081
325.1658	0.1068
325.3765	0.0996
325.5872	0.106
325.7979	0.0988
326.0085	0.1053
326.2192	0.103
326.4298	0.1114
326.6404	0.0966
326.851	0.1008
327.0616	0.1144
327.2722	0.1072
327.4828	0.1117
327.6933	0.1073
327.9039	0.1043
328.1144	0.1184
328.3249	0.1031
328.5354	0.1037
328.7459	0.1086
328.9564	0.0995
329.1669	0.1017
329.3773	0.111
329.5878	0.1125
329.7982	0.1065
330.0086	0.1036
330.219	0.1142
330.4294	0.1025
330.6398	0.1166
330.8502	0.1049
331.0605	0.1084
331.2708	0.1065
331.4812	0.1123
331.6915	0.108
331.9018	0.114
332.1121	0.1145
332.3224	0.1055
332.5326	0.1148
332.7429	0.1139
332.9531	0.118
333.1633	0.1111
333.3735	0.1115
333.5837	0.11
333.7939	0.1038
334.0041	0.1245
334.2143	0.1221
334.4244	0.1192
334.6346	0.0972
334.8447	0.1264
335.0548	0.1123
335.2649	0.1162
335.475	0.1193
335.685	0.1088
335.8951	0.1292
336.1051	0.1229
336.3152	0.1242
336.5252	0.1012
336.7352	0.1182
336.9452	0.1204
337.1552	0.1231
337.3652	0.1087
337.5751	0.1099
337.7851	0.1121
337.995	0.1131
338.2049	0.12
338.4148	0.1165
338.6247	0.1174
338.8346	0.103
339.0445	0.1113
339.2543	0.1137
339.4642	0.1242
339.674	0.1065
339.8838	0.1199
340.0936	0.1047
340.3034	0.1365
340.5132	0.1277
340.7229	0.1233
340.9327	0.1125
341.1424	0.1096
341.3522	0.1371
341.5619	0.1203
341.7716	0.1251
341.9813	0.1256
342.1909	0.1227
342.4006	0.1385
342.6102	0.1312
342.8199	0.1245
343.0295	0.1326
343.2391	0.1151
343.4487	0.1284
343.6583	0.1195
343.8679	0.1208
344.0774	0.1257
344.287	0.1389
344.4965	0.1136
344.706	0.1378
344.9155	0.134
345.125	0.1298
345.3345	0.1329
345.544	0.1359
345.7534	0.1299
345.9629	0.1252
346.1723	0.125
346.3817	0.1229
346.5911	0.1121
346.8005	0.1381
347.0099	0.1404
347.2193	0.1351
347.4286	0.1379
347.638	0.1415
347.8473	0.1373
348.0566	0.1267
348.2659	0.132
348.4752	0.1332
348.6845	0.1377
348.8937	0.1321
349.103	0.1439
349.3122	0.1322
349.5214	0.1387
349.7306	0.1467
349.9398	0.1381
350.149	0.1428
350.3582	0.1385
350.5674	0.1406
350.7765	0.1437
350.9856	0.1498
351.1948	0.1492
351.4039	0.116
351.613	0.1381
351.822	0.1491
352.0311	0.1514
352.2402	0.1465
352.4492	0.1405
352.6582	0.1652
352.8672	0.1441
353.0762	0.1644
353.2852	0.1466
353.4942	0.1431
353.7032	0.1516
353.9121	0.1592
354.1211	0.1488
354.33	0.1554
354.5389	0.1399
354.7478	0.1525
354.9567	0.1442
355.1655	0.1469
355.3744	0.1637
355.5833	0.1689
355.7921	0.1663
356.0009	0.1548
356.2097	0.1718
356.4185	0.1736
356.6273	0.1603
356.8361	0.1703
357.0448	0.1485
357.2536	0.1472
357.4623	0.1581
357.671	0.1649
357.8797	0.1625
358.0884	0.1796
358.2971	0.1754
358.5057	0.1643
358.7144	0.1683
358.923	0.1606
359.1316	0.1631
359.3402	0.1726
359.5488	0.1713
359.7574	0.1569
359.966	0.172
360.1746	0.181
360.3831	0.177
360.5916	0.1742
360.8002	0.1609
361.0087	0.1803
361.2172	0.1782
361.4256	0.167
361.6341	0.1785
361.8426	0.1836
362.051	0.1906
362.2594	0.1819
362.4678	0.1732
362.6762	0.2054
362.8846	0.1897
363.093	0.181
363.3014	0.1841
363.5097	0.1681
363.718	0.1902
363.9264	0.1879
364.1347	0.1842
364.343	0.2024
364.5513	0.2168
364.7595	0.2071
364.9678	0.1887
365.176	0.1758
365.3842	0.1886
365.5925	0.1895
365.8007	0.199
366.0089	0.1904
366.217	0.1944
366.4252	0.1969
366.6333	0.2147
366.8415	0.1992
367.0496	0.1954
367.2577	0.2091
367.4658	0.2129
367.6739	0.2048
367.882	0.197
368.09	0.1984
368.2981	0.2138
368.5061	0.1873
368.7141	0.2015
368.9221	0.2236
369.1301	0.2126
369.3381	0.2012
369.5461	0.2
369.754	0.2065
369.962	0.2059
370.1699	0.2129
370.3778	0.2193
370.5857	0.2075
370.7936	0.2044
371.0015	0.2186
371.2093	0.2081
371.4172	0.226
371.625	0.1999
371.8328	0.2126
372.0406	0.2221
372.2484	0.2052
372.4562	0.2084
372.664	0.2076
372.8717	0.2173
373.0795	0.2132
373.2872	0.2106
373.4949	0.2096
373.7026	0.2162
373.9103	0.2228
374.118	0.2372
374.3256	0.2146
374.5333	0.2261
374.7409	0.2138
374.9485	0.2324
375.1561	0.2263
375.3637	0.2172
375.5713	0.2227
375.7789	0.2476
375.9864	0.238
376.194	0.2407
376.4015	0.242
376.609	0.2302
376.8165	0.228
377.024	0.2184
377.2315	0.2215
377.4389	0.2464
377.6464	0.2313
377.8538	0.2201
378.0612	0.2411
378.2686	0.2536
378.476	0.229
378.6834	0.2223
378.8908	0.2376
379.0981	0.2433
379.3055	0.2275
379.5128	0.2279
379.7201	0.2415
379.9274	0.228
380.1347	0.2404
380.342	0.2605
380.5492	0.2631
380.7565	0.2317
380.9637	0.2488
381.1709	0.233
381.3781	0.2439
381.5853	0.2392
381.7925	0.2589
381.9997	0.2456
382.2068	0.2322
382.4139	0.2324
382.6211	0.2316
382.8282	0.2425
383.0353	0.229
383.2424	0.2521
383.4494	0.2532
383.6565	0.2452
383.8635	0.243
384.0706	0.2328
384.2776	0.2457
384.4846	0.2333
384.6916	0.25
384.8986	0.2601
385.1055	0.2295
385.3125	0.2481
385.5194	0.2211
385.7263	0.2638
385.9333	0.2393
386.1402	0.2451
386.347	0.2628
386.5539	0.2349
386.7608	0.2473
386.9676	0.2306
387.1744	0.2445
387.3813	0.2363
387.5881	0.2489
387.7948	0.2417
388.0016	0.2523
388.2084	0.2373
388.4151	0.2281
388.6219	0.2445
388.8286	0.2444
389.0353	0.255
389.242	0.2543
389.4487	0.2393
389.6553	0.2281
389.862	0.2145
390.0686	0.2267
390.2753	0.2451
390.4819	0.2337
390.6885	0.2353
390.8951	0.2436
391.1016	0.2175
391.3082	0.2337
391.5147	0.2324
391.7213	0.2443
391.9278	0.2239
392.1343	0.2291
392.3408	0.2414
392.5473	0.2227
392.7537	0.2249
392.9602	0.2162
393.1666	0.2285
393.373	0.2203
393.5794	0.2324
393.7858	0.2165
393.9922	0.2075
394.1986	0.2248
394.4049	0.2217
394.6113	0.2242
394.8176	0.196
395.0239	0.2173
395.2302	0.2093
395.4365	0.2069
395.6428	0.2176
395.8491	0.2037
396.0553	0.2073
396.2615	0.221
396.4678	0.2115
396.674	0.1902
396.8802	0.2131
397.0863	0.2262
397.2925	0.1825
397.4987	0.2168
397.7048	0.21
397.9109	0.2167
398.117	0.203
398.3231	0.2024
398.5292	0.2188
398.7353	0.2264
398.9413	0.2007
399.1474	0.2048
399.3534	0.2065
399.5594	0.1906
399.7654	0.2118
399.9714	0.2119
400.1774	0.2083
400.3833	0.202
400.5893	0.1999
400.7952	0.1996
401.0011	0.2002
401.207	0.2052
401.4129	0.2041
401.6188	0.2268
401.8247	0.2138
402.0305	0.1908
402.2364	0.2063
402.4422	0.215
402.648	0.2226
402.8538	0.2162
403.0596	0.2035
403.2654	0.214
403.4711	0.1966
403.6768	0.1966
403.8826	0.2119
404.0883	0.2258
404.294	0.202
404.4997	0.2189
404.7054	0.198
404.911	0.188
405.1167	0.1868
405.3223	0.221
405.5279	0.2174
405.7335	0.2163
405.9391	0.2126
406.1447	0.2002
406.3502	0.2263
406.5558	0.2051
406.7613	0.2147
406.9668	0.2043
407.1724	0.1832
407.3778	0.2021
407.5833	0.2089
407.7888	0.2008
407.9942	0.2035
408.1997	0.1983
408.4051	0.1915
408.6105	0.2101
408.8159	0.1894
409.0213	0.1789
409.2267	0.2214
409.432	0.1981
409.6374	0.2011
409.8427	0.2006
410.048	0.2088
410.2533	0.1884
410.4586	0.2237
410.6639	0.1949
410.8691	0.2088
411.0744	0.1872
411.2796	0.1847
411.4848	0.1961
411.69	0.1864
411.8952	0.2023
412.1004	0.1785
412.3056	0.21
412.5107	0.2031
412.7158	0.2075
412.921	0.192
413.1261	0.1947
413.3312	0.1954
413.5362	0.2
413.7413	0.184
413.9464	0.1969
414.1514	0.1962
414.3564	0.2093
414.5614	0.1887
414.7664	0.214
414.9714	0.2028
415.1764	0.1978
415.3813	0.2177
415.5863	0.1924
415.7912	0.2101
415.9961	0.1874
416.201	0.197
416.4059	0.1888
416.6108	0.1923
416.8156	0.1944
417.0205	0.1854
417.2253	0.187
417.4301	0.1883
417.6349	0.1955
417.8397	0.1903
418.0445	0.1951
418.2492	0.1964
418.454	0.1917
418.6587	0.1872
418.8634	0.1934
419.0681	0.1725
419.2728	0.1871
419.4775	0.1912
419.6822	0.1752
419.8868	0.1395
420.0915	0.1869
420.2961	0.1629
420.5007	0.1722
420.7053	0.1762
420.9099	0.1953
421.1144	0.1756
421.319	0.1792
421.5235	0.1815
421.728	0.1912
421.9325	0.1725
422.137	0.2014
422.3415	0.1828
422.546	0.1789
422.7504	0.1738
422.9549	0.1761
423.1593	0.1884
423.3637	0.1759
423.5681	0.1833
423.7725	0.1736
423.9769	0.1611
424.1812	0.1587
424.3856	0.1695
424.5899	0.1675
424.7942	0.1653
424.9985	0.1886
425.2028	0.1604
425.4071	0.177
425.6113	0.1621
425.8156	0.1731
426.0198	0.1759
426.224	0.1481
426.4282	0.1486
426.6324	0.1539
426.8366	0.1528
427.0407	0.1573
427.2449	0.1562
427.449	0.1601
427.6531	0.1418
427.8572	0.1504
428.0613	0.1478
428.2654	0.1636
428.4694	0.1524
428.6735	0.1529
428.8775	0.1729
429.0815	0.1642
429.2855	0.1249
429.4895	0.161
429.6935	0.1586
429.8975	0.1435
430.1014	0.1218
430.3053	0.1204
430.5093	0.1391
430.7132	0.1404
430.9171	0.1264
431.1209	0.1437
431.3248	0.1306
431.5286	0.129
431.7325	0.1279
431.9363	0.1176
432.1401	0.1533
432.3439	0.1221
432.5477	0.0885
432.7514	0.1155
432.9552	0.1204
433.1589	0.103
433.3627	0.1083
433.5664	0.1266
433.7701	0.1164
433.9737	0.1133
434.1774	0.0971
434.3811	0.1131
434.5847	0.1174
434.7883	0.1361
434.9919	0.0916
435.1955	0.1055
435.3991	0.0977
435.6027	0.1096
435.8062	0.0973
436.0098	0.0924
436.2133	0.0952
436.4168	0.0717
436.6203	0.092
436.8238	0.1046
437.0272	0.1031
437.2307	0.088
437.4341	0.0898
437.6375	0.0916
437.841	0.0662
438.0443	0.0935
438.2477	0.0765
438.4511	0.0844
438.6545	0.0904
438.8578	0.1059
439.0611	0.0861
439.2644	0.0784
439.4677	0.0734
439.671	0.0805
439.8743	0.0803
440.0775	0.0821
440.2808	0.0574
440.484	0.0602
440.6872	0.0595
440.8904	0.0731
441.0936	0.0744
441.2967	0.0751
441.4999	0.0608
441.703	0.0696
441.9062	0.0674
442.1093	0.0709
442.3124	0.0666
442.5155	0.0516
442.7185	0.0503
442.9216	0.0386
443.1246	0.0667
443.3276	0.047
443.5307	0.0431
443.7337	0.0606
443.9366	0.0455
444.1396	0.0621
444.3426	0.0454
444.5455	0.0448
444.7484	0.0472
444.9513	0.0501
445.1542	0.0675
445.3571	0.0402
445.56	0.0625
445.7628	0.0314
445.9657	0.0395
446.1685	0.039
446.3713	0.0386
446.5741	0.0365
446.7769	0.0571
446.9797	0.0324
447.1824	0.0429
447.3852	0.0368
447.5879	0.0475
447.7906	0.0369
447.9933	0.041
448.196	0.0147
448.3986	0.0304
448.6013	0.0311
448.8039	0.0206
449.0066	0.024
449.2092	0.0359
449.4118	0.0342
449.6143	0.0319
449.8169	0.044
450.0195	0.0228
450.222	0.0143
450.4245	0.0325
450.627	0.0332
450.8295	0.0242
451.032	0.0356
451.2345	0.0298
451.4369	0.0252
451.6394	0.0271
451.8418	0.0119
452.0442	0.0161
452.2466	0.0313
452.449	0.0015
452.6513	0.0112
452.8537	0.0156
453.056	0.005
453.2583	0.0065
453.4607	0.0085
453.663	0.0187
453.8652	0.0297
454.0675	0.0001
454.2697	0.0187
454.472	0.0094
454.6742	0.0163
454.8764	0.0158
455.0786	0.0114
455.2808	0.0172
455.4829	0.0172
455.6851	0.0179
455.8872	0.0261
456.0893	0.0245
456.2915	0.0014
456.4935	0.0133
456.6956	0.0011
456.8977	0.0136
457.0997	0.0051
457.3018	-0.0059
457.5038	0.0124
457.7058	-0.0061
457.9078	-0.0002
458.1098	0.0107
458.3117	0.0083
458.5137	0.019
458.7156	0.0164
458.9175	-0.0036
459.1194	0.0047
459.3213	0.0164
459.5232	0.0025
459.725	-0.0041
459.9269	0.0084
460.1287	-0.0065
460.3305	-0.0028
460.5323	0.0047
460.7341	0.005
460.9359	0.0121
461.1376	0.0001
461.3394	0.0041
461.5411	0.0119
461.7428	-0.0011
461.9445	0.028
462.1462	0.0154
462.3479	0.0038
462.5495	0.0128
462.7512	-0.0092
462.9528	0.0079
463.1544	-0.0172
463.356	-0.0002
463.5576	0.0045
463.7592	-0.0204
463.9607	0.0111
464.1623	0.0088
464.3638	0.0237
464.5653	-0.0096
464.7668	-0.014
464.9683	0.004
465.1697	0.0104
465.3712	-0.0127
465.5726	-0.0167
465.7741	-0.0054
465.9755	-0.0155
466.1769	-0.0074
466.3782	-0.0043
466.5796	-0.0068
466.7809	0.0157
466.9823	-0.0005
467.1836	-0.0034
467.3849	-0.0048
467.5862	0.0036
467.7875	0.0012
467.9887	0.0053
468.19	-0.0049
468.3912	-0.012
468.5924	-0.0084
468.7936	-0.0079
468.9948	-0.0038
469.196	0.0066
469.3972	-0.0167
469.5983	0.0136
469.7994	-0.0141
470.0006	-0.006
470.2017	-0.0142
470.4027	-0.0158
470.6038	0.0016
470.8049	-0.0164
471.0059	-0.0197
471.2069	-0.0225
471.408	0.0055
471.6089	-0.0006
471.8099	-0.0107
472.0109	-0.0066
472.2119	-0.0055
472.4128	-0.0348
472.6137	-0.005
472.8146	-0.0195
473.0155	-0.0077
473.2164	-0.0133
473.4173	0.0071
473.6181	0.0027
473.819	0.0077
474.0198	0.0022
474.2206	-0.0079
474.4214	0.0018
474.6222	-0.0049
474.8229	-0.0185
475.0237	-0.0115
475.2244	-0.0125
475.4251	-0.0001
475.6258	-0.0018
475.8265	0.0005
476.0272	0.0105
476.2278	-0.0034
476.4285	-0.0072
476.6291	-0.0053
476.8297	-0.0014
477.0303	-0.0111
477.2309	-0.0117
477.4315	-0.0105
477.632	-0.0062
477.8326	-0.002
478.0331	0.0091
478.2336	0.0009
478.4341	-0.0128
478.6346	-0.0033
478.8351	-0.0141
479.0355	-0.013
479.236	-0.0151
479.4364	-0.0007
479.6368	-0.0129
479.8372	-0.0161
480.0376	-0.0054
480.2379	-0.0128
480.4383	-0.013
480.6386	-0.0011
480.8389	-0.0111
481.0392	-0.0177
481.2395	-0.0141
481.4398	0.0003
481.6401	-0.0074
481.8403	-0.0139
482.0405	-0.0074
482.2408	-0.0152
482.441	-0.0014
482.6411	-0.0091
482.8413	-0.0133
483.0415	-0.0249
483.2416	-0.0058
483.4417	-0.0019
483.6419	-0.0171
483.8419	-0.0052
484.042	0.0045
484.2421	-0.0018
484.4422	-0.0025
484.6422	0.0002
484.8422	0.003
485.0422	-0.0109
485.2422	-0.005
485.4422	-0.012
485.6422	-0.0112
485.8421	-0.0099
486.042	-0.0085
486.242	-0.0043
486.4419	-0.0116
486.6417	-0.0135
486.8416	0.0001
487.0415	-0.0105
487.2413	-0.0138
487.4411	-0.0114
487.641	-0.0096
487.8408	0.0078
488.0405	-0.0112
488.2403	-0.0074
488.4401	0.0105
488.6398	-0.0049
488.8395	-0.0116
489.0392	-0.0048
489.2389	-0.0135
489.4386	-0.0085
489.6383	-0.0058
489.8379	0.0023
490.0376	-0.0121
490.2372	-0.0091
490.4368	-0.0065
490.6364	-0.0075
490.836	-0.003
491.0355	-0.0044
491.2351	-0.0122
491.4346	-0.0098
491.6341	-0.0264
491.8336	0.0022
492.0331	-0.015
492.2326	-0.0212
492.432	-0.0104
492.6315	-0.0016
492.8309	-0.0184
493.0303	-0.0065
493.2297	-0.0066
493.4291	-0.0047
493.6284	-0.0035
493.8278	-0.0073
494.0271	-0.0043
494.2264	-0.0021
494.4257	-0.0151
494.625	-0.0031
494.8243	-0.0201
495.0236	-0.0098
495.2228	-0.0198
495.422	-0.0005
495.6213	-0.015
495.8205	0.0048
496.0196	-0.004
496.2188	0.0043
496.418	-0.0122
496.6171	-0.0062
496.8162	-0.0161
497.0153	0.0003
497.2144	-0.0156
497.4135	-0.0046
497.6126	-0.0131
497.8116	-0.0179
498.0107	-0.007
498.2097	-0.0182
498.4087	-0.019
498.6077	0.0059
498.8067	-0.01
499.0056	0.0017
499.2046	-0.0079
499.4035	-0.0249
499.6024	-0.0125
499.8013	-0.0036
500.0002	-0.0192
500.199	-0.0077
500.3979	-0.0134
500.5967	-0.0272
500.7956	-0.0121
500.9944	-0.0079
501.1932	-0.0162
501.3919	-0.0142
501.5907	-0.0201
501.7895	-0.0166
501.9882	-0.0164
502.1869	-0.0125
502.3856	-0.0083
502.5843	-0.0146
502.783	-0.0054
502.9816	-0.0046
503.1803	-0.017
503.3789	-0.025
503.5775	-0.0011
503.7761	0.0014
503.9747	-0.0041
504.1732	-0.0157
504.3718	-0.0054
504.5703	-0.0024
504.7689	-0.0214
504.9674	-0.0093
505.1658	-0.0186
505.3643	-0.0071
505.5628	-0.0135
505.7612	-0.0126
505.9597	-0.0022
506.1581	-0.0181
506.3565	-0
506.5549	-0.0093
506.7532	-0.0232
506.9516	-0.0088
507.1499	-0.004
507.3482	-0.0223
507.5465	-0.0136
507.7448	-0.0074
507.9431	-0.0147
508.1414	-0.0033
508.3396	-0.007
508.5379	-0.0129
508.7361	-0.0137
508.9343	-0.0089
509.1325	-0.0012
509.3306	-0.003
509.5288	-0.0071
509.7269	-0.0196
509.9251	0.0011
510.1232	-0.015
510.3213	0.0065
510.5193	0.0027
510.7174	-0.0147
510.9154	-0.0215
511.1135	-0.012
511.3115	-0.0111
511.5095	-0.0122
511.7075	-0.0014
511.9055	-0.0102
512.1034	-0.0189
512.3014	-0.0099
512.4993	-0.0051
512.6972	-0.0169
512.8951	-0.0119
513.093	-0.007
513.2908	-0.0038
513.4887	-0.012
513.6865	-0.0177
513.8844	-0.006
514.0822	-0.0092
514.2799	-0.0187
514.4777	-0.0109
514.6755	-0.0195
514.8732	-0.0095
515.0709	-0.0027
515.2687	-0.0134
515.4664	-0.0014
515.664	-0.0102
515.8617	-0.0105
516.0594	-0.0218
516.257	-0.0091
516.4546	-0.0156
516.6522	-0.0091
516.8498	-0.0032
517.0474	0.0007
517.2449	-0.0112
517.4425	-0.0297
517.64	-0.0026
517.8375	0.0004
518.035	-0.0088
518.2325	-0.0184
518.43	-0.0078
518.6274	-0.0067
518.8249	-0.0189
519.0223	-0.0051
519.2197	-0.0132
519.4171	-0.0096
519.6145	-0.019
519.8118	0.003
520.0092	-0.0155
520.2065	-0.0129
520.4038	-0.0146
520.6011	-0.0055
520.7984	-0.015
520.9956	-0.0125
521.1929	-0.0163
521.3901	-0.0003
521.5874	-0.0062
521.7846	-0.0072
521.9818	-0.0045
522.1789	-0.0131
522.3761	0.0002
522.5732	-0.0092
522.7704	-0.0112
522.9675	-0.0066
523.1646	-0.0106
523.3617	-0.0052
523.5587	-0.006
523.7558	-0.0017
523.9528	-0.0201
524.1498	-0.0098
524.3468	-0.0194
524.5438	-0.0111
524.7408	-0.0096
524.9378	0.0045
525.1347	-0.004
525.3316	-0.0069
525.5285	-0.012
525.7254	-0.0127
525.9223	-0.004
526.1192	-0.0116
526.316	-0.0139
526.5129	0.0024
526.7097	-0.0049
526.9065	-0.0045
527.1033	-0.0122
527.3	-0.0022
527.4968	-0.0164
527.6935	-0.004
527.8903	-0.0098
528.087	-0.0113
528.2837	-0.0038
528.4804	-0.0056
528.677	-0.0085
528.8737	-0.0073
529.0703	-0.0026
529.2669	-0.0012
529.4635	-0.0075
529.6601	-0.0012
529.8567	0.0075
530.0532	-0.0076
530.2498	0.0035
530.4463	0.0051
530.6428	-0.0035
530.8393	0.0093
531.0358	-0.0035
531.2322	-0.0071
531.4287	0.0049
531.6251	-0.0042
531.8215	0.0008
532.0179	0.0011
532.2143	-0.004
532.4107	-0.0099
532.607	-0.0109
532.8034	-0.0096
532.9997	-0.0021
533.196	-0.008
533.3923	-0.0142
533.5886	-0.0044
533.7848	-0.0065
533.9811	-0.0052
534.1773	-0.0058
534.3735	-0.0005
534.5697	-0.0116
534.7659	-0.0015
534.9621	-0.0048
535.1582	-0.0095
535.3544	-0.0077
535.5505	-0.0064
535.7466	-0.0126
535.9427	-0.0118
536.1387	-0.0052
536.3348	-0.0036
536.5308	0.0013
536.7269	-0.0172
536.9229	-0.0045
537.1189	-0.0064
537.3148	-0.0032
537.5108	-0.0104
537.7068	-0.0113
537.9027	-0.0037
538.0986	-0.01
538.2945	-0.0129
538.4904	-0.0102
538.6863	-0.0075
538.8821	0.0016
539.078	-0.0069
539.2738	0.0005
539.4696	-0.0075
539.6654	-0.0007
539.8611	0.008
540.0569	-0.0033
540.2526	-0.0097
540.4484	-0.0135
540.6441	0.0021
540.8398	0.0016
541.0355	0.0029
541.2311	-0.0076
541.4268	-0.0101
541.6224	-0.0004
541.818	-0.0093
542.0136	-0.0138
542.2092	-0.001
542.4048	0.0039
542.6003	0.0012
542.7959	0.0008
542.9914	-0.0033
543.1869	-0.0033
543.3824	0.006
543.5779	-0.0021
543.7734	-0.0158
543.9688	-0.0043
544.1642	-0.0006
544.3596	-0.0049
544.555	-0.001
544.7504	0.0078
544.9458	-0.0117
545.1411	-0.0089
545.3365	-0.0015
545.5318	-0.0003
545.7271	-0.0081
545.9224	-0.0089
546.1177	-0.0044
546.3129	0.0008
546.5081	-0.0162
546.7034	-0.009
546.8986	-0.0125
547.0938	-0.005
547.289	-0.0058
547.4841	0.0015
547.6793	0.0031
547.8744	-0.015
548.0695	-0.0134
548.2646	-0.0176
548.4597	0.0034
548.6548	-0.0008
548.8498	0
549.0448	0.0081
549.2399	-0.0057
549.4349	0.0016
549.6298	-0.0023
549.8248	-0.0041
550.0198	-0.0015
550.2147	-0.0057
550.4096	-0.006
550.6045	-0.0045
550.7994	0.0036
550.9943	-0.0023
551.1892	0.0054
551.384	0.0014
551.5788	-0.0125
551.7737	-0.0047
551.9685	-0.0039
552.1632	0.002
552.358	-0.0082
552.5528	-0.0086
552.7475	-0.0099
552.9422	0.0005
553.1369	0.0105
553.3316	-0.001
553.5263	-0.009
553.7209	0.0059
553.9156	-0.0083
554.1102	-0.0015
554.3048	-0.0045
554.4994	0.0133
554.694	-0.0045
554.8885	0.0049
555.0831	-0.0104
555.2776	-0.008
555.4721	-0.0056
555.6666	-0.001
555.8611	0.0039
556.0555	0.0005
556.25	-0.0053
556.4444	-0.0075
556.6388	-0.0023
556.8332	0.0057
557.0276	-0.0068
557.222	-0.0055
557.4163	-0.0082
557.6107	-0.0003
557.805	0.0047
557.9993	0.0025
558.1936	0.0057
558.3879	0.0088
558.5821	0.0021
558.7764	-0.0044
558.9706	0.003
559.1648	0.0003
559.359	-0.0013
559.5532	-0.0057
559.7473	-0.0026
559.9415	-0.0001
560.1356	-0.0029
560.3297	-0.0068
560.5238	-0.0085
560.7179	-0.0071
560.9119	-0.0052
561.106	-0.0086
561.3	-0.0096
561.494	-0.0057
561.688	-0.0043
561.882	-0.0084
562.076	-0.0036
562.2699	0.0031
562.4639	-0.0037
562.6578	0.0037
562.8517	0.0003
563.0456	0.0092
563.2395	-0.0069
563.4333	0.0003
563.6272	0.0133
563.821	-0.0082
564.0148	-0.0006
564.2086	-0.0132
564.4024	-0.004
564.5961	-0.0062
564.7899	-0.002
564.9836	-0.0017
565.1773	0.0069
565.371	0.005
565.5647	0.0075
565.7584	0.0027
565.952	0.0015
566.1456	0.0039
566.3393	0.0038
566.5329	-0.0026
566.7264	-0.0006
566.92	-0.0025
567.1136	0.0002
567.3071	-0.0075
567.5006	0.0006
567.6941	0.0089
567.8876	0.0026
568.0811	-0.0013
568.2745	-0.0018
568.468	0.0078
568.6614	0.0057
568.8548	0.0025
569.0482	-0.0093
569.2416	0.0006
569.4349	-0.0052
569.6283	0.0043
569.8216	-0.0043
570.0149	-0.0054
570.2082	0.007
570.4015	0.0068
570.5947	0.005
570.788	-0.0028
570.9812	0.0028
571.1744	-0.0025
571.3676	-0.0121
571.5608	-0.0016
571.754	0.003
571.9471	-0.0043
572.1402	-0.0003
572.3333	-0.0027
572.5264	-0.0069
572.7195	-0.0043
572.9126	-0.0018
573.1057	-0.0045
573.2987	0.0034
573.4917	-0.0005
573.6847	-0.0069
573.8777	0.0054
574.0707	0.0003
574.2636	-0.0018
574.4566	-0.0065
574.6495	0.0061
574.8424	-0.0035
575.0353	-0.006
575.2281	0.0044
575.421	0.0023
575.6138	0.0061
575.8067	-0.0053
575.9995	-0.0016
576.1923	0.003
576.385	0.0031
576.5778	-0.0062
576.7706	-0.0034
576.9633	0
577.156	-0.0012
577.3487	-0.0005
577.5414	-0.002
577.734	-0.0022
577.9267	-0.001
578.1193	-0.0082
578.3119	-0.0039
578.5045	-0.0074
578.6971	-0.0054
578.8897	0.0013
579.0822	-0.0035
579.2747	0.0022
579.4673	-0.007
579.6598	-0.0061
579.8522	-0.0071
580.0447	-0.0072
580.2372	0.0003
580.4296	-0.0002
580.622	-0.007
580.8144	-0.0037
581.0068	-0.0051
581.1992	-0.0152
581.3915	-0.0101
581.5839	-0.0078
581.7762	-0.017
581.9685	-0.0004
582.1608	-0.0008
582.353	-0.004
582.5453	-0.0005
582.7375	-0.0045
582.9298	-0.0036
583.122	-0.0089
583.3142	-0.0078
583.5063	-0.0001
583.6985	-0.0058
583.8906	-0.0035
584.0827	-0.0034
584.2749	0.0013
584.4669	-0.0017
584.659	-0.0084
584.8511	0.0007
585.0431	-0.011
585.2352	0.0008
585.4272	-0.0065
585.6192	-0.0036
585.8111	-0.0047
586.0031	-0.0037
586.195	-0.0027
586.387	0.0092
586.5789	-0.0019
586.7708	-0.0017
586.9627	0.0044
587.1545	-0.0078
587.3464	0.0019
587.5382	0.0067
587.73	0.0048
587.9218	0.0119
588.1136	-0.0044
588.3053	0.0048
588.4971	-0.0063
588.6888	-0.0226
588.8805	-0.0027
589.0722	0.0013
589.2639	0.0039
589.4556	0.0021
589.6472	-0.0022
589.8389	-0.0092
590.0305	-0.0163
590.2221	-0.0016
590.4137	-0.0107
590.6052	0.0002
590.7968	-0.0001
590.9883	-0.0028
591.1798	0.0075
591.3713	0.0006
591.5628	0.0043
591.7543	0.0048
591.9458	0.0016
592.1372	0.003
592.3286	0.0058
592.52	0.0053
592.7114	-0.0127
592.9028	0.0008
593.0941	-0.0049
593.2855	-0.0017
593.4768	-0.0043
593.6681	-0.0087
593.8594	-0.005
594.0506	-0.005
594.2419	0.0075
594.4331	0.0003
594.6244	0.0012
594.8156	-0.0102
595.0067	-0.0005
595.1979	0.004
595.3891	0.0042
595.5802	-0.0062
595.7713	-0.0034
595.9624	-0.0027
596.1535	0.0035
596.3446	0.0005
596.5357	-0.0011
596.7267	0.0101
596.9177	0.0002
597.1087	-0.0024
597.2997	0.001
597.4907	0.0053
597.6817	-0.0026
597.8726	0.0037
598.0635	-0.0048
598.2544	-0.0033
598.4453	0.0011
598.6362	0.0016
598.827	-0.0001
599.0179	0.01
599.2087	0.0031
599.3995	0.0004
599.5903	0.0023
599.7811	0.0039
599.9718	-0.0003
600.1626	-0.0042
600.3533	-0.0055
600.544	0.0028
600.7347	0.0007
600.9254	-0.0013
601.116	-0.0063
601.3067	0.0032
601.4973	0.0016
601.6879	0.009
601.8785	0.002
602.0691	0.0085
602.2596	0.0063
602.4502	0.0038
602.6407	0.0048
602.8312	0.0069
603.0217	-0.0038
603.2122	0.0043
603.4027	-0.0009
603.5931	0.0005
603.7835	-0.0037
603.9739	0.0088
604.1643	-0.0006
604.3547	0.001
604.5451	0.0112
604.7354	-0.0081
604.9257	0.0008
605.116	-0.0051
605.3063	0.003
605.4966	0.0011
605.6869	0.0007
605.8771	0.0115
606.0673	0.006
606.2575	0.0017
606.4477	0.0051
606.6379	0.004
606.8281	-0.0005
607.0182	-0.0064
607.2083	0.0093
607.3985	-0.0066
607.5885	-0.003
607.7786	0.0009
607.9687	-0.0037
608.1587	0.0003
608.3488	0.0004
608.5388	-0.0019
608.7288	-0.0082
608.9187	-0.0047
609.1087	-0.0068
609.2986	-0.0031
609.4886	-0.002
609.6785	-0.0016
609.8684	0.0011
610.0582	0
610.2481	0.0012
610.4379	0.0069
610.6278	-0.0058
610.8176	-0.0073
611.0074	-0.0011
611.1971	-0.0011
611.3869	-0.0001
611.5766	-0.0071
611.7664	0.0046
611.9561	-0.0011
612.1458	-0.0016
612.3354	-0.006
612.5251	0.0032
612.7147	-0.0019
612.9044	0.0066
613.094	-0.0047
613.2836	0.0055
613.4731	0.0005
613.6627	0.0008
613.8522	-0.0006
614.0417	0.0012
614.2313	0.0008
614.4207	-0.0072
614.6102	-0.0019
614.7997	0.0007
614.9891	-0.0075
615.1785	-0.0057
615.3679	-0.0055
615.5573	0.0098
615.7467	0.0065
615.9361	-0.0018
616.1254	-0
616.3147	0.0019
616.504	0.0002
616.6933	-0.003
616.8826	-0.0006
617.0718	-0.002
617.2611	0.004
617.4503	-0.0056
617.6395	0.0031
617.8287	-0.0002
618.0179	-0.0036
618.207	0.0076
618.3961	-0.0037
618.5853	0.0003
618.7744	0.0093
618.9634	0.0041
619.1525	0.0045
619.3416	0.006
619.5306	0.0063
619.7196	0.002
619.9086	-0.0032
620.0976	0.008
620.2866	0.0006
620.4755	0.0111
620.6645	0.009
620.8534	0.0038
621.0423	0.0041
621.2312	0.0083
621.42	-0.0005
621.6089	0.0006
621.7977	0.0048
621.9865	-0.0062
622.1753	0.0084
622.3641	0.0013
622.5529	0.0097
622.7416	0.0106
622.9303	-0.0051
623.1191	0.0102
623.3078	-0.005
623.4964	0.0044
623.6851	-0.0048
623.8737	-0.0036
624.0624	0.0057
624.251	-0.0031
624.4396	0.0031
624.6282	-0.0093
624.8167	0.0026
625.0053	-0.0002
625.1938	0.0078
625.3823	0.0004
625.5708	0.0023
625.7593	-0.0004
625.9477	0.0026
626.1362	0.002
626.3246	0.0083
626.513	0.0102
626.7014	0.001
626.8898	0.0039
627.0781	0.0064
627.2665	0.0027
627.4548	0.0051
627.6431	0.0063
627.8314	0.0009
628.0197	0.0073
628.2079	0.0014
628.3962	0.0045
628.5844	0.0131
628.7726	0.0055
628.9608	0.0041
629.1489	0.007
629.3371	0.0035
629.5252	0.0057
629.7134	0.0075
629.9015	0.0081
630.0895	0.0048
630.2776	0.0028
630.4657	0.0036
630.6537	0.0035
630.8417	0.0018
631.0297	-0.0015
631.2177	0.0001
631.4057	-0.0016
631.5936	0.0003
631.7815	0.0016
631.9695	0.0008
632.1574	0.0061
632.3452	0.0095
632.5331	-0.0064
632.7209	0.0054
632.9088	0.0091
633.0966	0.0132
633.2844	0.0012
633.4722	0.0013
633.6599	0.0097
633.8477	0.0055
634.0354	0.0006
634.2231	0.0037
634.4108	0.0014
634.5985	0.0012
634.7861	-0.0011
634.9738	0.0012
635.1614	0.0009
635.349	0.0065
635.5366	-0.0019
635.7242	0.002
635.9117	0.0063
636.0993	0.0013
636.2868	0.0027
636.4743	-0.0028
636.6618	0.009
636.8492	-0.0008
637.0367	-0.0004
637.2241	-0.002
637.4115	-0.0051
637.5989	-0.003
637.7863	-0.0023
637.9737	0.0042
638.161	-0.0052
638.3484	-0.0002
638.5357	-0
638.723	0.0018
638.9103	0.007
639.0975	0.0086
639.2848	0.0079
639.472	-0.0022
639.6592	0.0031
639.8464	0.0093
640.0336	0.0133
640.2208	0.0002
640.4079	-0.0008
640.595	0.0078
640.7821	0.0015
640.9692	0.0068
641.1563	0.0047
641.3434	0.0049
641.5304	-0.0002
641.7174	0.0014
641.9044	0.0033
642.0914	0.0013
642.2784	0.0065
642.4653	0.0093
642.6523	0.0004
642.8392	0.0045
643.0261	0.0098
643.213	0.0132
643.3999	-0.0027
643.5867	-0.0009
643.7735	0.0002
643.9604	-0.0044
644.1472	0.0034
644.3339	0.0007
644.5207	0.0078
644.7075	0.0032
644.8942	0.0051
645.0809	0.0103
645.2676	0.0099
645.4543	0.0072
645.6409	0.0021
645.8276	0.0037
646.0142	0.0059
646.2008	-0.0023
646.3874	0.0017
646.574	-0.0054
646.7605	-0.0005
646.9471	-0.0133
647.1336	0.0024
647.3201	0.0036
647.5066	-0.0043
647.6931	0.008
647.8795	0.0016
648.0659	0.0073
648.2524	0.0106
648.4388	-0.0019
648.6252	0.0027
648.8115	0.0001
648.9979	0.0009
649.1842	-0.0005
649.3705	0.0071
649.5568	-0.0029
649.7431	0.0092
649.9294	-0.0055
650.1156	0.0033
650.3018	-0.0011
650.488	0.0043
650.6742	0.0067
650.8604	-0.0032
651.0466	0.0021
651.2327	-0.0006
651.4188	0.0059
651.6049	-0.0018
651.791	0.0032
651.9771	0.014
652.1632	0.0073
652.3492	0.0024
652.5352	0.0069
652.7212	0.0017
652.9072	0.0057
653.0932	0.0078
653.2791	-0.0065
653.465	0.0073
653.651	-0.0048
653.8369	0.0018
654.0227	0.0035
654.2086	0.0059
654.3944	0.0083
654.5803	-0.0008
654.7661	-0.0069
654.9519	0.0079
655.1377	0.0012
655.3234	-0.0023
655.5092	-0.0064
655.6949	-0.005
655.8806	-0.0066
656.0663	-0.0061
656.2519	-0.0126
656.4376	-0.0077
656.6232	0.0052
656.8088	0.0052
656.9945	0.0004
657.18	-0.0003
657.3656	0.0049
657.5511	-0.0034
657.7367	0.0022
657.9222	0.0084
658.1077	0.0078
658.2932	0.0102
658.4786	-0.0088
658.6641	-0.0015
658.8495	0.0028
659.0349	0.0024
659.2203	0.0084
659.4057	0.0089
659.591	0.0022
659.7764	0.0082
659.9617	0.0062
660.147	0.0037
660.3323	0.0068
660.5176	0.007
660.7028	0.009
660.888	0.0039
661.0733	0.0055
661.2585	0.0057
661.4436	0.0075
661.6288	0.0006
661.8139	0.0047
661.9991	0.0098
662.1842	0.0023
662.3693	0.0058
662.5544	0.0027
662.7394	0.0054
662.9245	0.0033
663.1095	-0
663.2945	-0.001
663.4795	0.0013
663.6644	0.004
663.8494	-0.0041
664.0343	-0.0022
664.2193	-0.0006
664.4042	-0.0005
664.589	-0.0055
664.7739	0.0027
664.9587	-0.0068
665.1436	0.0016
665.3284	0.0016
665.5132	-0.0041
665.698	0.0031
665.8827	0.003
666.0675	0.0035
666.2522	-0.007
666.4369	0.0111
666.6216	0.0068
666.8063	0.0048
666.9909	0.0048
667.1756	-0.0005
667.3602	0.005
667.5448	-0.0008
667.7294	0.0062
667.9139	0.0081
668.0985	0.0188
668.283	0.0044
668.4675	0.0002
668.652	0.0045
668.8365	-0.0053
669.0209	0.0039
669.2054	0.0074
669.3898	0.0073
669.5742	0.0033
669.7586	0.0064
669.943	0.0054
670.1273	0.0057
670.3117	0.004
670.496	0.01
670.6803	0.0126
670.8646	0.0081
671.0488	0.0034
671.2331	0.0095
671.4173	0.0069
671.6015	-0.0001
671.7857	0.0042
671.9699	0.0071
672.1541	0.0085
672.3382	0.0069
672.5223	0.0123
672.7064	0.0083
672.8905	0.0163
673.0746	0.0066
673.2587	0.0076
673.4427	0.0081
673.6267	0.0058
673.8107	0.0063
673.9947	0.0064
674.1787	0.0121
674.3626	0.0002
674.5465	0.0013
674.7304	0.0004
674.9143	0.011
675.0982	0.0143
675.2821	-0.0003
675.4659	0.0082
675.6497	0.0062
675.8335	0.0063
676.0173	0.0095
676.2011	0.0073
676.3849	0.006
676.5686	0.0013
676.7523	0.0017
676.936	0.002
677.1197	-0.0039
677.3034	-0.0052
677.487	0.0082
677.6706	0.0043
677.8542	0.0074
678.0378	-0.0009
678.2214	-0.0063
678.405	0.0016
678.5885	-0.002
678.772	0.0067
678.9555	0.0047
679.139	0.0026
679.3225	0.0097
679.5059	0.0042
679.6894	0.0051
679.8728	0.0021
680.0562	0.0003
680.2395	0.0013
680.4229	-0.0027
680.6062	0.0104
680.7896	-0.0003
680.9729	-0.0001
681.1562	0.0106
681.3394	0.0102
681.5227	0.0004
681.7059	-0.0016
681.8891	0.0053
682.0723	0.0134
682.2555	0.0022
682.4387	0.0021
682.6218	-0.002
682.805	0.0023
682.9881	0.0097
683.1712	0.0012
683.3542	0.0011
683.5373	0.0079
683.7203	-0.0019
683.9034	-0.0017
684.0864	-0.0058
684.2694	0.0023
684.4523	0.0061
684.6353	0.0006
684.8182	0.0064
685.0011	-0.0022
685.184	0.008
685.3669	0.0048
685.5498	0.0047
685.7326	0.0069
685.9154	-0.003
686.0982	0.0131
686.281	0.0147
686.4638	0.0036
686.6465	0.007
686.8293	-0.0008
687.012	0.0014
687.1947	-0.0094
687.3774	0
687.56	-0.002
687.7427	0.0087
687.9253	-0.0066
688.1079	-0.0012
688.2905	0.0078
688.4731	0.0062
688.6556	-0.0068
688.8382	0.0049
689.0207	-0.0036
689.2032	-0.0047
689.3857	-0.0008
689.5681	-0.0023
689.7506	0.006
689.933	0.0022
690.1154	0.0024
690.2978	0.0019
690.4802	0.0021
690.6626	-0.0103
690.8449	-0.0037
691.0272	0.0072
691.2095	-0.0072
691.3918	-0.0043
691.5741	0.004
691.7563	0.0026
691.9386	-0.0037
692.1208	-0.0026
692.303	0.004
692.4852	-0.0021
692.6673	-0.0006
692.8495	-0.0011
693.0316	-0.0041
693.2137	0.0015
693.3958	0.0032
693.5778	-0.0018
693.7599	0.0046
693.9419	0.0014
694.1239	0.0041
694.3059	-0.0022
694.4879	0.0007
694.6699	0.0086
694.8518	0.0012
695.0337	0
695.2157	0.0089
695.3975	0.0031
695.5794	0.0052
695.7613	0.0035
695.9431	-0.0023
696.1249	-0.0023
696.3067	0.0053
696.4885	0.0035
696.6703	-0.0026
696.852	0.0045
697.0337	0.0062
697.2154	0.0012
697.3971	0.0103
697.5788	0.0033
697.7605	-0.0009
697.9421	0.0038
698.1237	0.0055
698.3053	0.0018
698.4869	0.0023
698.6685	-0.0047
698.85	-0.0022
699.0315	0.0094
699.213	-0.0003
699.3945	0.0025
699.576	0.0043
699.7575	0.0085
699.9389	0.0092
700.1203	-0.007
700.3017	-0.0061
700.4831	-0.0139
700.6645	-0.005
700.8458	0.0073
701.0271	-0.0044
701.2084	0.003
701.3897	-0.0039
701.571	0.0089
701.7523	-0.0048
701.9335	-0.0026
702.1147	-0.0037
702.2959	-0.0097
702.4771	-0.0012
702.6583	0.0022
702.8394	0.003
703.0205	0.0039
703.2016	-0.0043
703.3827	0.0062
703.5638	0.0128
703.7449	-0.0031
703.9259	0.0176
704.1069	0.0025
704.2879	0.0068
704.4689	0.0004
704.6499	0.0083
704.8308	0.0035
705.0117	0.0021
705.1927	0.0005
705.3735	-0.0011
705.5544	-0.0079
705.7353	-0.0004
705.9161	-0.0038
706.0969	0.0043
706.2777	0.0001
706.4585	-0.0066
706.6393	0.0037
706.82	-0.0042
707.0007	0.0007
707.1815	0.0042
707.3621	0.0092
707.5428	0.0025
707.7235	0.0079
707.9041	0.0109
708.0847	-0.0045
708.2653	-0.0013
708.4459	-0.0029
708.6265	0.0009
708.807	-0.0013
708.9875	-0.0037
709.168	-0.0015
709.3485	-0.0146
709.529	-0.0015
709.7095	-0.0124
709.8899	0.0033
710.0703	-0.0075
710.2507	0.01
710.4311	0.0006
710.6115	-0.0099
710.7918	-0.0083
710.9721	0.0022
711.1524	-0.0082
711.3327	-0.0022
711.513	0.0077
711.6932	0.0057
711.8735	0.0051
712.0537	0.0033
712.2339	0.0005
712.4141	-0.0106
712.5942	-0.0043
712.7744	-0.0045
712.9545	-0.0023
713.1346	-0.0089
713.3147	-0.0033
713.4947	-0.0048
713.6748	0.0051
713.8548	-0.0007
714.0348	0.0031
714.2148	0.0064
714.3948	0.0119
714.5748	0.0078
714.7547	0.0028
714.9346	0.0134
715.1145	0.0005
715.2944	-0.0034
715.4743	0.0009
715.6541	0.0021
715.834	0.0089
716.0138	0.0089
716.1936	-0.0091
716.3733	-0.0045
716.5531	0.0133
716.7328	-0.0053
716.9126	-0.0017
717.0923	0.0073
717.2719	0.0027
717.4516	0.0057
717.6312	0.0041
717.8109	0.0009
717.9905	0.0093
718.1701	-0.0034
718.3496	-0.0003
718.5292	0.0011
718.7087	0.0013
718.8882	0.0033
719.0677	0.0116
719.2472	0.0024
719.4267	0.0051
719.6061	0.0056
719.7856	0.0045
719.965	0.0065
720.1443	0.0044
720.3237	0.0148
720.5031	0.0041
720.6824	0.0024
720.8617	0.0012
721.041	0.0005
721.2203	-0.0003
721.3995	-0.0023
721.5788	0.0056
721.758	0.0086
721.9372	0.0006
722.1164	0.0048
722.2956	0.009
722.4747	0.0038
722.6538	-0.0006
722.8329	0.0179
723.012	0.0028
723.1911	0.002
723.3702	0.005
723.5492	-0.0057
723.7282	-0.0105
723.9072	-0
724.0862	-0.0036
724.2652	-0.0068
724.4441	0.0066
724.623	0.0002
724.8019	0.0005
724.9808	0.0039
725.1597	-0.0037
725.3385	0.009
725.5174	-0.0037
725.6962	0.003
725.875	0.0017
726.0538	0.0044
726.2325	-0.0044
726.4112	0.0102
726.59	0.0072
726.7687	-0.0023
726.9474	0.0003
727.126	0.0005
727.3047	-0.0063
727.4833	-0.0022
727.6619	-0.0117
727.8405	-0.0036
728.0191	-0.0064
728.1976	0.0038
728.3762	-0.001
728.5547	-0.0047
728.7332	-0.0057
728.9116	0.0034
729.0901	0.0056
729.2686	-0.0029
729.447	0.0038
729.6254	-0.0002
729.8038	-0.0038
729.9821	-0.0059
730.1605	0.0046
730.3388	-0.0061
730.5171	0.0031
730.6954	-0.0082
730.8737	0.0007
731.0519	0.0058
731.2302	0.0049
731.4084	0.01
731.5866	0.0058
731.7648	-0.0033
731.9429	0.0044
732.1211	-0.0091
732.2992	0.0013
732.4773	-0.0009
732.6554	0.0044
732.8335	0.0046
733.0115	0.0085
733.1896	0.0108
733.3676	-0.0028
733.5456	0.002
733.7235	0.008
733.9015	-0.0029
734.0794	0.0045
734.2574	0.0027
734.4353	-0.0037
734.6131	0.0091
734.791	-0.0023
734.9689	-0.002
735.1467	0.0009
735.3245	-0.0058
735.5023	-0.0144
735.68	0.0022
735.8578	0.0014
736.0355	-0.0231
736.2132	-0.0072
736.3909	-0.0017
736.5686	-0.0065
736.7463	0.0083
736.9239	-0.0148
737.1015	-0.0168
737.2791	0.0027
737.4567	0.0026
737.6343	0.0013
737.8118	0.0007
737.9894	-0.0008
738.1669	-0.0092
738.3444	-0.0064
738.5218	-0.0005
738.6993	-0.001
738.8767	-0.0009
739.0541	0.0084
739.2315	-0.0112
739.4089	0.0004
739.5863	0.0006
739.7636	-0.002
739.9409	0.0019
740.1182	0.0042
740.2955	0.004
740.4728	0.0075
740.65	0.0013
740.8272	0.0013
741.0044	-0.0105
741.1816	0.002
741.3588	-0.0082
741.5359	-0.0012
741.7131	-0.0095
741.8902	-0.0038
742.0673	-0.0078
742.2444	-0.0126
742.4214	-0.0036
742.5985	0.0041
742.7755	-0.0057
742.9525	-0.0096
743.1295	0.0039
743.3064	0.0041
743.4834	0.0074
743.6603	-0
743.8372	0.0007
744.0141	0.0074
744.191	0.0041
744.3678	0.0046
744.5446	0.001
744.7215	0.0033
744.8982	-0.0058
745.075	-0.0076
745.2518	0.002
745.4285	0.0026
745.6052	-0.0016
745.7819	-0.0036
745.9586	-0.0046
746.1353	-0.0028
746.3119	-0.0106
746.4885	-0.008
746.6651	0.0006
746.8417	-0.0033
747.0183	0.0002
747.1948	-0.0022
747.3714	0.0007
747.5479	0.0033
747.7244	0.0014
747.9008	0.0145
748.0773	0.0061
748.2537	-0.0011
748.4301	0.0005
748.6065	0.003
748.7829	0.0053
748.9593	-0.0012
749.1356	0.0023
749.3119	0.0086
749.4882	-0.007
749.6645	0.0066
749.8408	-0.0044
750.017	-0.0116
750.1933	0.0088
750.3695	-0.0107
750.5457	0.0094
750.7218	-0.0085
750.898	0.0011
751.0741	-0.009
751.2502	-0.0109
751.4263	-0.0045
751.6024	-0.0019
751.7784	-0.0005
751.9545	-0.0043
752.1305	0.0001
752.3065	-0.0073
752.4825	0.006
752.6584	-0.0129
752.8344	-0.0066
753.0103	-0.0057
753.1862	-0.0041
753.3621	-0.0067
753.5379	0.0007
753.7138	-0.0039
753.8896	-0.0069
754.0654	0.0003
754.2412	0.0019
754.417	0.0032
754.5927	-0.0084
754.7685	-0.0135
754.9442	0.0021
755.1199	0.0026
755.2956	-0.0077
755.4712	0.0014
755.6469	-0.0045
755.8225	-0.0046
755.9981	-0.0085
756.1736	0.0002
756.3492	-0.0082
756.5248	-0.0135
756.7003	-0.0026
756.8758	0.0065
757.0513	-0.0194
757.2267	-0.0038
757.4022	0.0031
757.5776	-0.0099
757.753	-0.0022
757.9284	0.0022
758.1038	0.004
758.2791	0.0166
758.4545	-0.0094
758.6298	-0.0007
758.8051	0.0077
758.9803	0.0059
759.1556	0.0004
759.3308	-0.0007
759.506	0.0183
759.6812	-0.0026
759.8564	0.0081
760.0316	0.0066
760.2067	0.0162
760.3819	0.0051
760.557	0.0036
760.732	0.0091
760.9071	-0.0139
761.0821	0.0003
761.2572	0.0036
761.4322	0.0022
761.6072	-0.0086
761.7821	-0.001
761.9571	0.0079
762.132	-0.0022
762.3069	-0.0011
762.4818	-0.0047
762.6567	0.0013
762.8316	-0.0094
763.0064	0
763.1812	-0.0033
763.356	-0.0124
763.5308	-0.007
763.7055	0.0024
763.8803	-0.0067
764.055	-0.0101
764.2297	-0.0019
764.4044	-0.0107
764.579	-0.0104
764.7537	-0.0158
764.9283	-0.0045
765.1029	-0.0077
765.2775	-0.0117
765.4521	0.0002
765.6266	-0.0056
765.8011	-0.0202
765.9756	0.004
766.1501	0.0036
766.3246	-0.0111
766.4991	-0.0036
766.6735	-0.0047
766.8479	-0.0059
767.0223	0.0035
767.1967	0.0008
767.371	0.004
767.5454	0.0008
767.7197	0.0054
767.894	-0.0116
768.0683	-0.0054
768.2425	-0.0001
768.4168	0.0108
768.591	-0.0037
768.7652	-0.0053
768.9394	-0.0024
769.1135	0.0018
769.2877	0.0067
769.4618	-0.0045
769.6359	-0.0124
769.81	-0.0014
769.984	-0.0111
770.1581	-0.0079
770.3321	0.0006
770.5061	-0.003
770.6801	-0.0059
770.8541	-0.0008
771.028	0.0114
771.202	-0.0122
771.3759	0.0045
771.5498	-0.0056
771.7236	0.0034
771.8975	-0.0087
772.0713	0.003
772.2451	0.0057
772.4189	0.0079
772.5927	0.0053
772.7665	0.0033
772.9402	0.003
773.1139	0.0122
773.2876	-0.0096
773.4613	0.0153
773.635	0.0115
773.8086	0.0007
773.9822	0.0079
774.1558	0.0042
774.3294	-0.0121
774.503	0.0046
774.6765	-0.0002
774.8501	0.0025
775.0236	-0.0017
775.1971	-0.0043
775.3705	-0.0022
775.544	0.0083
775.7174	-0.011
775.8908	0.0036
776.0642	-0.0007
776.2376	0.0086
776.4109	0.0102
776.5843	-0.0133
776.7576	0.0009
776.9309	0.0175
777.1041	0.0024
777.2774	0.0064
777.4506	-0.0077
777.6238	-0.0186
777.797	0.0038
777.9702	0.0098
778.1434	0.0052
778.3165	-0.0038
778.4896	-0.0017
778.6627	0.0109
778.8358	0.002
779.0089	0.0062
779.1819	0.0077
779.3549	0.0086
779.5279	0.0178
779.7009	0.0037
779.8739	0.0174
780.0468	0.0081
780.2197	0.0079
780.3926	-0.0075
780.5655	-0.0021
780.7384	-0.0024
780.9112	0.0035
781.0841	0.0039
781.2569	0.0018
781.4297	-0.0011
781.6024	0.0102
781.7752	0.0131
781.9479	0.0053
782.1206	-0.0056
782.2933	-0.0177
782.466	0.0131
782.6386	0.0083
782.8113	-0.0019
782.9839	0.0015
783.1565	0.0086
783.329	0.0036
783.5016	0.0126
783.6741	0.0084
783.8466	-0.0056
784.0191	0.007
784.1916	-0.003
784.3641	-0.0023
784.5365	-0.0031
784.7089	-0.0037
784.8813	-0.0021
785.0537	0.002
785.2261	-0.0108
785.3984	-0.0109
785.5707	-0.0148
785.743	0.0019
785.9153	-0.015
786.0876	-0.0113
786.2598	-0.004
786.432	-0.0185
786.6042	-0.0049
786.7764	-0.0223
786.9486	-0.0076
787.1207	-0.0118
787.2928	-0.0022
787.4649	0.0012
787.637	0.0086
787.8091	-0.008
787.9811	-0.0129
788.1532	0.0018
788.3252	-0.0019
788.4972	-0.0033
788.6691	-0.0026
788.8411	0.0091
789.013	-0.0061
789.1849	-0.0025
789.3568	-0.0148
789.5287	0.0001
789.7005	-0.0029
789.8723	0.013
790.0442	0.0129
790.2159	0.0033
790.3877	0.0037
790.5595	-0.0209
790.7312	0.0034
790.9029	0.006
791.0746	-0.0244
791.2463	-0.0097
791.4179	-0.0013
791.5896	-0.0092
791.7612	0.0015
791.9328	-0.0033
792.1044	-0.0175
792.2759	-0.0212
792.4474	-0.0084
792.619	-0.01
792.7905	-0.0022
792.9619	0.002
793.1334	0.0133
793.3048	-0.0048
793.4762	-0.001
793.6476	0.0054
793.819	-0.0076
793.9904	0.0074
794.1617	-0.0044
794.333	-0.0083
794.5043	0.0017
794.6756	-0.0049
794.8469	-0.0051
795.0181	-0.0046
795.1893	-0.0062
795.3605	0.0056
795.5317	-0.0066
795.7029	-0.0203
795.874	-0.0102
796.0452	-0.0001
796.2163	-0.0056
796.3873	0.0001
796.5584	0.0013
796.7294	0.0021
796.9005	0.0003
797.0715	-0.0029
797.2425	-0.0265
797.4134	-0.0037
797.5844	-0.0083
797.7553	-0.0244
797.9262	-0.0176
798.0971	-0.0116
798.2679	-0.0148
798.4388	-0.0125
798.6096	-0.0121
798.7804	-0.0132
798.9512	-0.0145
799.122	-0.008
799.2927	-0.0026
799.4635	0.0133
799.6342	-0.0222
799.8049	-0.0167
799.9755	-0.0211
800.1462	0.0099
800.3168	-0.0001
800.4874	-0.0092
800.658	0.0205
800.8286	-0.004
800.9991	0.0001
801.1696	0.0003
801.3402	0.0011
801.5106	-0.0045
801.6811	-0.0075
801.8516	0.0075
802.022	-0.0056
802.1924	0.0026
802.3628	0.0013
802.5332	-0.0027
802.7035	0.0047
802.8739	-0.0081
803.0442	-0.0086
803.2145	-0.0048
803.3847	-0.0354
803.555	-0.0018
803.7252	-0.0259
803.8954	-0.0321
804.0656	-0.0195
804.2358	-0.0269
804.4059	-0.0022
804.5761	-0.0161
804.7462	-0.0158
804.9163	-0.0157
805.0864	-0.0156
805.2564	-0.0252
805.4264	0.007
805.5965	-0.0183
805.7665	0.0001
805.9364	0.0046
806.1064	0.0191
806.2763	0.009
806.4462	0.0134
806.6161	-0.0029
806.786	-0.0016
806.9559	0.0042
807.1257	-0.004
807.2955	-0.0143
807.4653	-0.0122
807.6351	-0.0074
807.8048	-0.0064
807.9746	0.0056
808.1443	-0.0065
808.314	-0.0182
808.4837	-0.019
808.6533	-0.0148
808.8229	-0.0053
808.9926	-0.0209
809.1622	0.003
809.3317	-0.0206
809.5013	-0.0172
809.6708	0.0095
809.8403	-0.0013
810.0098	-0.024
810.1793	-0.0056
810.3488	-0.0117
810.5182	-0.0238
810.6876	0.0014
810.857	-0.029
811.0264	0.0081
811.1958	-0.005
811.3651	0.0159
811.5344	-0.0164
811.7037	-0.0221
811.873	-0.0189
812.0422	-0.0305
812.2115	-0.006
812.3807	-0.0349
812.5499	-0.0031
812.7191	-0.0138
812.8882	-0.0249
813.0574	-0.0235
813.2265	-0.0087
813.3956	-0.0243
813.5646	-0.011
813.7337	0.0066
813.9027	0.0045
814.0718	0.0314
814.2407	0.013
814.4097	0.0055
814.5787	-0.0113
814.7476	-0.0259
814.9165	-0.001
815.0854	-0.0243
815.2543	-0.0047
815.4232	-0.0141
815.592	-0.0027
815.7608	0.0214
815.9296	0.0011
816.0984	-0.0013
816.2671	-0.0063
816.4359	-0.0242
816.6046	-0.0073
816.7733	-0.0163
816.942	-0.015
817.1106	-0.0137
817.2793	-0.006
817.4479	-0.0035
817.6165	0.0057
817.785	-0.012
817.9536	-0.0234
818.1221	-0.003
818.2906	0.0125
818.4591	-0.0237
818.6276	-0.0203
818.7961	0.0035
818.9645	-0.0164
819.1329	-0.0081
819.3013	-0.0038
819.4697	0.006
819.638	-0.0093
819.8064	-0.0139
819.9747	0.0118
820.143	-0.0164
820.3113	-0.0544
820.4795	-0.0129
820.6477	-0.0196
820.816	0.0009
820.9842	-0.025
821.1523	-0.0133
821.3205	-0.026
821.4886	-0.0257
821.6567	-0.0044
821.8248	-0.0084
821.9929	0.0072
822.1609	-0.0131
822.329	-0.0135
822.497	0.0178
822.665	-0.0049
822.833	-0.0082
823.0009	0.0221
823.1688	0.0048
823.3367	-0.0059
823.5046	0.0267
823.6725	0.0159
823.8404	-0.0107
824.0082	0.0133
824.176	0.0287
824.3438	0.0294
824.5116	-0.0109
824.6793	0.0243
824.847	-0.0223
825.0147	-0.0144
825.1824	0.0132
825.3501	0.0147
825.5177	-0.0085
825.6854	-0.0062
825.853	0.0095
826.0206	-0.0121
826.1881	-0.01
826.3557	-0.0164
826.5232	-0.0193
826.6907	-0.0478
826.8582	-0.0492
827.0257	-0.0523
827.1931	-0.0047
827.3605	-0.0091
827.528	-0.0121
827.6953	-0.0357
827.8627	-0.0094
828.03	-0.0006
828.1974	-0.0379
828.3647	-0.041
828.532	-0.0474
828.6992	-0.0362
828.8665	-0.0234
829.0337	-0.0112
829.2009	-0.0144
829.3681	-0.0133
829.5352	0.0298
829.7024	-0.0288
829.8695	-0.0534
830.0366	0.0333
830.2037	0.0159
830.3707	0.0093
830.5378	-0.0128
830.7048	-0.0147
830.8718	-0.0056
831.0388	-0.0076
831.2057	-0.02
831.3727	-0.0023
831.5396	-0.0048
831.7065	-0.0188
831.8734	0.0208
832.0402	-0.0137
832.2071	-0.0002
832.3739	-0.0436
832.5407	0.0003
832.7075	-0.0204
832.8742	-0.0224
833.041	-0.0505
833.2077	-0.0099
833.3744	0.0141
833.541	-0.0333
833.7077	-0.0089
833.8743	-0.0016
834.0409	-0.0087
834.2075	-0.0413
834.3741	-0.0323
834.5407	-0.0022
834.7072	-0.0397
834.8737	-0.0165
835.0402	-0.0225
835.2067	-0.0021
835.3731	-0.0101
835.5395	0.001
835.706	0.0017
835.8723	-0.0261
836.0387	-0.0175
836.2051	-0.0233
836.3714	-0.0117
836.5377	-0.0171
836.704	-0.0352
836.8703	0.0098
837.0365	-0.0083
837.2027	-0.0331
837.3689	-0.0139
837.5351	-0.0165
837.7013	-0.0275
837.8674	-0.0452
838.0335	-0.0783
838.1997	-0.0487
838.3657	-0.0494
838.5318	0.0004
838.6978	-0.0039
838.8639	0.0057
839.0299	-0.0414
839.1958	-0.0065
839.3618	-0.0285
839.5277	-0.0155
839.6937	-0.0197
839.8596	-0.0834
840.0254	0.0097
840.1913	-0.0077
840.3571	-0.0133
840.523	-0.0667
840.6888	-0.0259
840.8545	-0.0229
841.0203	-0.0047
841.186	0.0144
841.3517	0.0198
841.5174	-0.0107
841.6831	-0.065
841.8488	-0.0197
842.0144	-0.0049
842.18	0.0041
842.3456	0.0188
842.5112	-0.0289
842.6767	-0.028
842.8422	-0.0363
843.0077	-0.0416
843.1732	-0.0404
843.3387	-0.0225
843.5042	-0.0221
843.6696	0.0425
843.835	-0.0225
844.0004	0.0554
844.1657	-0.0313
844.3311	-0.0709
844.4964	-0.037
844.6617	0.0235
844.827	-0.07
844.9923	0.0158
845.1575	0.0079
845.3227	0.0007
845.4879	-0.0181
845.6531	-0.1016
845.8183	-0.0347
845.9834	-0.0176
846.1485	0.0017
846.3136	-0.0685
846.4787	-0.0964
846.6438	0.0128
846.8088	-0.0145
846.9738	-0.0762
847.1388	-0.0158
847.3038	-0.0598
847.4687	-0.1729
847.6337	0.0248
847.7986	-0.0238
847.9635	-0.066
848.1284	0.053
848.2932	0.05
848.458	-0.0868
848.6228	0.0798
848.7876	0.0108
848.9524	-0.1431
849.1172	-0.0564
849.2819	-0.0555
849.4466	-0.1212
849.6113	-0.0762
849.7759	-0.1144
849.9406	-0.0224
850.1052	-0.0217
850.2698	-0.0971
850.4344	0.0011
850.599	-0.0521
850.7635	0.0077
850.928	-0.031
851.0925	-0.041
851.257	0.0439
851.4215	-0.057
851.5859	-0.0446
851.7503	0.0181
851.9147	-0.0517
852.0791	-0.1244
852.2434	0.0306
852.4078	0.081
852.5721	0.0157
852.7364	-0.0872
852.9007	-0.1769
853.0649	-0.0455
853.2291	0.1818
853.3934	-0.055
853.5575	0.0066
853.7217	-0.0603
853.8859	-0.1281
854.05	-0.0693
854.2141	-0.1581
854.3782	0.0498
854.5423	-0.0592
854.7063	0.1229
854.8703	-0.0066
855.0343	-0.0626
855.1983	-0.1908
855.3623	0.056
855.5262	0.0128
855.6901	0.0371
855.854	-0.0764
856.0179	0.1386
856.1818	0.0545
856.3456	-0.1561
856.5094	-0.1002
856.6732	-0.1172
856.837	-0.0592
857.0008	-0.0515
857.1645	-0.0862
857.3282	-0.0077
857.4919	0.2017
857.6556	0.0548
857.8192	0.0187
857.9828	0.1657
858.1465	-0.0862
858.31	-0.209
858.4736	-0.1439
858.6372	-0.2539
858.8007	-0.2991
858.9642	0.0263
859.1277	-0.036
859.2911	0.1638
859.4546	-0.0341
859.618	-0.3408
859.7814	-0.0666
859.9448	0.0295
860.1081	-0.1089
860.2715	0.158
860.4348	0.1742
860.5981	-0.0465
860.7614	0.177
860.9246	-0.2942
861.0879	-0.2584
861.2511	0.0944
861.4143	-0.1678
861.5774	0.0276
861.7406	-0.0622
861.9037	-0.0778
862.0668	-0.1842
862.2299	-0.1428
862.393	-0.5467
862.556	0.2721
862.7191	-0.4656
862.8821	0.0454
863.0451	0.0817
863.208	-0.014
863.371	-0.015
863.5339	-0.3299
863.6968	0.1091
863.8597	0.1737
864.0225	-0.1551
864.1854	-0.1067
864.3482	-0.1191
864.511	0.1539
864.6737	0.0836
864.8365	-0.1361
864.9992	-0.4145
865.1619	-0.0572
865.3246	0.4157
865.4873	0.0612
865.65	-0.4456
865.8126	0.4076
865.9752	0.0256
866.1378	0.3656
866.3004	0.2486
866.4629	-0.0632
866.6254	-0.0187
866.7879	-0.004
866.9504	0.042
867.1129	-0
867.2753	0.0486
867.4377	0.0069
867.6001	0.1421
867.7625	1.0467
867.9249	-0.4015
868.0872	0.6366
868.2495	0.3322
868.4118	0.2301
868.5741	-0.5337
868.7363	-0.2476
868.8986	0.1595
869.0608	-0.1231
869.223	0.137
869.3851	-0
869.5473	-0
869.7094	0.0345
869.8715	-0.6013
870.0336	-0
870.1957	-0
870.3577	-1.1748
870.5197	-0.0747
870.6817	0.0806
870.8437	-0.0813
871.0057	-0
871.1676	-0.7053
871.3295	-0.3271
871.4914	-0
871.6533	-0.3519
871.8151	0.5474
871.977	-0
872.1388	1.3516
872.3006	-0
872.4623	-0
872.6241	0.4639
872.7858	0.4828
872.9475	-0.3155
873.1092	-0.0058
873.2709	-0.1421
873.4325	0.1555
873.5941	-0.3767
873.7557	-0
873.9173	-0.08
874.0789	-0
874.2404	-0.2085
874.4019	-0.1309
874.5634	-0.1439
874.7249	-0.1087
874.8863	0.4291
875.0478	-0.026
875.2092	-0
875.3706	-0.0041
875.5319	-1.0901
875.6933	0.1176
875.8546	-0.5139
876.0159	-0
876.1772	-0
876.3385	-0
876.4997	0.2439
876.6609	-0.5187
876.8221	-0
876.9833	-0.1029
877.1445	0.2744
877.3056	-0.0025
877.4667	-0.3737
877.6278	-0
877.7889	-0.4624
877.9499	-0
878.111	-0
878.272	-0
878.433	-0
878.5939	0.2481
878.7549	0.3132
878.9158	-0.3866
879.0767	-0
879.2376	0.4682
879.3984	0.0121
879.5593	-0
879.7201	0.3132
879.8809	-0.4489
880.0417	-0.2752
880.2024	0.7992
880.3632	-0
880.5239	0.3269
880.6846	1.334
880.8452	-2.2492
881.0059	-0.9494
881.1665	0.1666
881.3271	-0
881.4877	-0
881.6483	-0.6839
881.8088	-0.3869
881.9693	-0
882.1298	-0
882.2903	-0
