Data from D4ACN5uM460nmA_Absorbance_13-05-41-735.txt Node
Date: Fri Feb 21 13:05:41 GMT 2025
User: LASERRRRR
Spectrometer: FLMT03099
Trigger mode: 0
Integration Time (sec): 1.500000E-2
Scans to average: 1
Electric dark correction enabled: true
Nonlinearity correction enabled: false
Boxcar width: 0
XAxis mode: Wavelengths
Number of Pixels in Spectrum: 3648
>>>>>Begin Spectral Data<<<<<
179.3399	0.3908
179.5586	0.3908
179.7771	0.3908
179.9957	-0.1282
180.2143	-1.4126
180.4329	-0
180.6514	-0
180.8699	-0
181.0885	-0
181.307	-0
181.5255	0.1589
181.744	-0
181.9625	0.1883
182.181	-0
182.3994	-0.4537
182.6179	-0.4397
182.8363	-0
183.0547	-0.0405
183.2732	0.2106
183.4916	0.1665
183.71	0.2479
183.9284	0.0869
184.1467	0.672
184.3651	-0.0727
184.5835	0.3184
184.8018	0.5304
185.0201	0.327
185.2385	0.2843
185.4568	0.3769
185.6751	0.1354
185.8934	0.1514
186.1117	0.43
186.3299	0.0729
186.5482	0.3681
186.7664	0.0021
186.9847	0.0623
187.2029	0.1532
187.4211	0.0359
187.6393	0.0382
187.8575	0.1741
188.0757	0.2576
188.2939	0.1166
188.512	0.232
188.7302	0.2693
188.9483	0.8771
189.1665	0.6794
189.3846	0.6126
189.6027	0.1667
189.8208	0.5392
190.0389	0.2548
190.257	0.1233
190.475	-0.0457
190.6931	0.212
190.9111	0.134
191.1292	0.2174
191.3472	0.169
191.5652	0.1254
191.7832	0.1846
192.0012	0.0584
192.2192	0.1499
192.4371	0.1509
192.6551	0.1769
192.873	0.1859
193.091	0.2002
193.3089	0.2283
193.5268	0.2334
193.7447	0.2297
193.9626	0.1638
194.1805	0.2413
194.3984	0.2027
194.6162	0.2632
194.8341	0.3739
195.0519	0.267
195.2697	0.235
195.4875	0.2994
195.7054	0.2625
195.9231	0.273
196.1409	0.3161
196.3587	0.3354
196.5765	0.2319
196.7942	0.2797
197.012	0.3271
197.2297	0.3013
197.4474	0.4396
197.6651	0.223
197.8828	0.3666
198.1005	0.4355
198.3182	0.4291
198.5358	0.3501
198.7535	0.363
198.9711	0.3896
199.1888	0.3951
199.4064	0.3709
199.624	0.4182
199.8416	0.3721
200.0592	0.4141
200.2767	0.3997
200.4943	0.4158
200.7119	0.4401
200.9294	0.4141
201.1469	0.3838
201.3645	0.4376
201.582	0.3905
201.7995	0.4001
202.017	0.4303
202.2344	0.4242
202.4519	0.3781
202.6694	0.3568
202.8868	0.382
203.1042	0.3904
203.3217	0.4215
203.5391	0.43
203.7565	0.3622
203.9739	0.3593
204.1913	0.3569
204.4086	0.3407
204.626	0.3707
204.8433	0.3637
205.0607	0.3663
205.278	0.3465
205.4953	0.3391
205.7126	0.3349
205.9299	0.3234
206.1472	0.3318
206.3644	0.3297
206.5817	0.3756
206.7989	0.3581
207.0162	0.3273
207.2334	0.3445
207.4506	0.3053
207.6678	0.3039
207.885	0.2999
208.1022	0.3129
208.3194	0.3168
208.5365	0.3228
208.7537	0.2952
208.9708	0.318
209.1879	0.3135
209.405	0.3201
209.6222	0.2683
209.8392	0.3251
210.0563	0.2852
210.2734	0.2892
210.4905	0.2946
210.7075	0.2809
210.9245	0.2794
211.1416	0.2916
211.3586	0.2757
211.5756	0.2731
211.7926	0.2689
212.0096	0.2618
212.2265	0.2646
212.4435	0.2593
212.6604	0.2578
212.8774	0.2694
213.0943	0.2568
213.3112	0.2622
213.5281	0.2652
213.745	0.2458
213.9619	0.2612
214.1788	0.2722
214.3956	0.2587
214.6125	0.2622
214.8293	0.2545
215.0461	0.245
215.2629	0.2599
215.4798	0.2479
215.6965	0.2653
215.9133	0.2584
216.1301	0.2419
216.3469	0.2541
216.5636	0.2469
216.7803	0.2442
216.9971	0.252
217.2138	0.2516
217.4305	0.259
217.6472	0.2619
217.8639	0.2549
218.0805	0.2467
218.2972	0.2555
218.5138	0.2649
218.7305	0.2668
218.9471	0.2501
219.1637	0.2898
219.3803	0.2702
219.5969	0.2631
219.8135	0.2763
220.0301	0.2616
220.2466	0.2513
220.4632	0.2426
220.6797	0.2656
220.8962	0.2687
221.1127	0.2729
221.3292	0.279
221.5457	0.2888
221.7622	0.2691
221.9787	0.2768
222.1951	0.2754
222.4116	0.2716
222.628	0.2855
222.8444	0.2811
223.0608	0.2707
223.2772	0.2951
223.4936	0.2803
223.71	0.3018
223.9264	0.297
224.1427	0.2956
224.3591	0.2934
224.5754	0.294
224.7917	0.2949
225.008	0.3033
225.2243	0.3115
225.4406	0.3007
225.6569	0.3095
225.8732	0.3105
226.0894	0.3162
226.3057	0.3187
226.5219	0.3167
226.7381	0.3282
226.9543	0.3041
227.1705	0.3235
227.3867	0.3331
227.6029	0.3366
227.8191	0.3354
228.0352	0.3502
228.2513	0.3487
228.4675	0.35
228.6836	0.347
228.8997	0.3408
229.1158	0.3508
229.3319	0.3538
229.548	0.36
229.764	0.3525
229.9801	0.3878
230.1961	0.372
230.4121	0.3744
230.6282	0.3936
230.8442	0.3888
231.0602	0.3971
231.2761	0.3885
231.4921	0.38
231.7081	0.4023
231.924	0.4102
232.14	0.3943
232.3559	0.4073
232.5718	0.4162
232.7877	0.4045
233.0036	0.4131
233.2195	0.4084
233.4353	0.426
233.6512	0.4166
233.867	0.4342
234.0829	0.42
234.2987	0.4287
234.5145	0.4313
234.7303	0.4246
234.9461	0.4397
235.1619	0.4435
235.3776	0.434
235.5934	0.4379
235.8091	0.4404
236.0249	0.4537
236.2406	0.4335
236.4563	0.4508
236.672	0.4477
236.8877	0.4509
237.1034	0.4531
237.319	0.4567
237.5347	0.4634
237.7503	0.451
237.966	0.4709
238.1816	0.4515
238.3972	0.4605
238.6128	0.4795
238.8284	0.4626
239.0439	0.4568
239.2595	0.4577
239.475	0.4557
239.6906	0.45
239.9061	0.4621
240.1216	0.4624
240.3371	0.4655
240.5526	0.4562
240.7681	0.4661
240.9836	0.4614
241.199	0.4569
241.4145	0.4504
241.6299	0.4503
241.8453	0.4421
242.0607	0.4363
242.2761	0.4402
242.4915	0.4181
242.7069	0.4187
242.9223	0.415
243.1376	0.4106
243.353	0.4017
243.5683	0.3935
243.7836	0.3907
243.9989	0.3723
244.2142	0.3748
244.4295	0.3642
244.6448	0.3568
244.86	0.3493
245.0753	0.3382
245.2905	0.3387
245.5057	0.3314
245.721	0.3325
245.9362	0.3167
246.1514	0.314
246.3665	0.3181
246.5817	0.3022
246.7969	0.2992
247.012	0.2876
247.2271	0.2956
247.4423	0.2804
247.6574	0.2778
247.8725	0.2724
248.0876	0.2635
248.3026	0.2609
248.5177	0.2597
248.7328	0.2439
248.9478	0.2502
249.1628	0.2468
249.3779	0.238
249.5929	0.2387
249.8079	0.235
250.0228	0.2315
250.2378	0.2334
250.4528	0.2217
250.6677	0.2182
250.8827	0.2153
251.0976	0.2136
251.3125	0.2185
251.5274	0.2132
251.7423	0.2062
251.9572	0.2091
252.172	0.2072
252.3869	0.2076
252.6017	0.2015
252.8166	0.1965
253.0314	0.1943
253.2462	0.1971
253.461	0.1932
253.6758	0.1905
253.8906	0.1957
254.1053	0.1941
254.3201	0.1934
254.5348	0.1861
254.7496	0.1809
254.9643	0.1904
255.179	0.1868
255.3937	0.1889
255.6083	0.1882
255.823	0.1839
256.0377	0.1815
256.2523	0.1845
256.467	0.1885
256.6816	0.1806
256.8962	0.1834
257.1108	0.18
257.3254	0.1826
257.54	0.1761
257.7545	0.1801
257.9691	0.1844
258.1836	0.1767
258.3981	0.1774
258.6127	0.1762
258.8272	0.1817
259.0417	0.1692
259.2561	0.1737
259.4706	0.1747
259.6851	0.1771
259.8995	0.1737
260.114	0.1813
260.3284	0.1683
260.5428	0.174
260.7572	0.1789
260.9716	0.1851
261.186	0.1742
261.4003	0.1712
261.6147	0.1749
261.829	0.1726
262.0433	0.1785
262.2577	0.1736
262.472	0.1746
262.6863	0.1832
262.9005	0.1724
263.1148	0.1758
263.3291	0.1766
263.5433	0.1798
263.7576	0.1766
263.9718	0.1695
264.186	0.1759
264.4002	0.1771
264.6144	0.1858
264.8286	0.1736
265.0427	0.1787
265.2569	0.1803
265.471	0.1776
265.6851	0.179
265.8993	0.1744
266.1134	0.1742
266.3275	0.1735
266.5415	0.1793
266.7556	0.1798
266.9697	0.1786
267.1837	0.1786
267.3978	0.1821
267.6118	0.1665
267.8258	0.1752
268.0398	0.1816
268.2538	0.1784
268.4677	0.17
268.6817	0.1781
268.8957	0.1706
269.1096	0.1657
269.3235	0.1709
269.5374	0.1784
269.7514	0.1751
269.9652	0.1719
270.1791	0.1698
270.393	0.1654
270.6068	0.1651
270.8207	0.167
271.0345	0.1671
271.2483	0.1594
271.4622	0.1678
271.676	0.1676
271.8897	0.1689
272.1035	0.1722
272.3173	0.1636
272.531	0.1641
272.7448	0.1607
272.9585	0.1642
273.1722	0.1629
273.3859	0.1631
273.5996	0.1711
273.8133	0.1698
274.0269	0.1636
274.2406	0.1633
274.4542	0.1628
274.6679	0.1659
274.8815	0.1728
275.0951	0.1715
275.3087	0.1708
275.5223	0.17
275.7358	0.1685
275.9494	0.1685
276.1629	0.1708
276.3765	0.1697
276.59	0.1705
276.8035	0.1641
277.017	0.1755
277.2305	0.1656
277.444	0.1744
277.6574	0.1749
277.8709	0.1777
278.0843	0.1778
278.2978	0.1746
278.5112	0.1725
278.7246	0.1753
278.938	0.1757
279.1513	0.1724
279.3647	0.1775
279.5781	0.1766
279.7914	0.1707
280.0047	0.1763
280.2181	0.1729
280.4314	0.1733
280.6447	0.1788
280.8579	0.1702
281.0712	0.1708
281.2845	0.1812
281.4977	0.1792
281.711	0.1749
281.9242	0.1809
282.1374	0.1809
282.3506	0.1797
282.5638	0.1742
282.7769	0.1729
282.9901	0.1806
283.2033	0.1802
283.4164	0.1783
283.6295	0.1811
283.8426	0.1778
284.0557	0.1815
284.2688	0.1808
284.4819	0.1777
284.695	0.188
284.908	0.1819
285.1211	0.1817
285.3341	0.181
285.5471	0.184
285.7601	0.1849
285.9731	0.1851
286.1861	0.1875
286.3991	0.1902
286.612	0.1856
286.825	0.1828
287.0379	0.1873
287.2508	0.1831
287.4637	0.1834
287.6766	0.1901
287.8895	0.1869
288.1024	0.1923
288.3152	0.1896
288.5281	0.1851
288.7409	0.1911
288.9538	0.1876
289.1666	0.189
289.3794	0.192
289.5922	0.1891
289.8049	0.1945
290.0177	0.196
290.2304	0.1872
290.4432	0.1915
290.6559	0.1973
290.8686	0.1995
291.0813	0.1903
291.294	0.2005
291.5067	0.1907
291.7194	0.1884
291.932	0.1903
292.1447	0.1854
292.3573	0.1905
292.5699	0.1972
292.7825	0.1883
292.9951	0.191
293.2077	0.1943
293.4203	0.1928
293.6328	0.1919
293.8454	0.1952
294.0579	0.1911
294.2704	0.195
294.4829	0.1895
294.6954	0.1918
294.9079	0.19
295.1204	0.1876
295.3328	0.1932
295.5453	0.1952
295.7577	0.1964
295.9701	0.1918
296.1825	0.1929
296.3949	0.1915
296.6073	0.1892
296.8197	0.1904
297.0321	0.192
297.2444	0.192
297.4567	0.1926
297.6691	0.2018
297.8814	0.1939
298.0937	0.1934
298.306	0.1914
298.5182	0.1976
298.7305	0.1945
298.9428	0.1949
299.155	0.1879
299.3672	0.1959
299.5794	0.1923
299.7916	0.194
300.0038	0.1902
300.216	0.1927
300.4282	0.1932
300.6403	0.1963
300.8525	0.1927
301.0646	0.1917
301.2767	0.193
301.4888	0.194
301.7009	0.1998
301.913	0.1976
302.125	0.1928
302.3371	0.1873
302.5491	0.2021
302.7612	0.2021
302.9732	0.196
303.1852	0.1935
303.3972	0.1945
303.6092	0.1924
303.8211	0.1936
304.0331	0.1913
304.245	0.1863
304.457	0.1883
304.6689	0.1899
304.8808	0.185
305.0927	0.1939
305.3046	0.1865
305.5164	0.1838
305.7283	0.1822
305.9401	0.177
306.152	0.1797
306.3638	0.1807
306.5756	0.1817
306.7874	0.1715
306.9992	0.1792
307.2109	0.168
307.4227	0.1723
307.6344	0.1745
307.8462	0.1668
308.0579	0.171
308.2696	0.1687
308.4813	0.1682
308.693	0.1623
308.9046	0.1615
309.1163	0.1613
309.328	0.1574
309.5396	0.1583
309.7512	0.1502
309.9628	0.1554
310.1744	0.1498
310.386	0.1452
310.5976	0.1469
310.8091	0.148
311.0207	0.1418
311.2322	0.1444
311.4437	0.1409
311.6552	0.1471
311.8667	0.1471
312.0782	0.141
312.2897	0.1386
312.5012	0.1352
312.7126	0.1349
312.924	0.13
313.1355	0.134
313.3469	0.131
313.5583	0.1299
313.7696	0.123
313.981	0.1321
314.1924	0.1257
314.4037	0.1282
314.6151	0.1267
314.8264	0.1306
315.0377	0.1317
315.249	0.1276
315.4603	0.1181
315.6716	0.1285
315.8828	0.1259
316.0941	0.1294
316.3053	0.1262
316.5165	0.1251
316.7277	0.1212
316.9389	0.124
317.1501	0.1266
317.3613	0.1222
317.5724	0.1235
317.7836	0.1146
317.9947	0.1119
318.2058	0.1154
318.417	0.119
318.6281	0.1175
318.8391	0.1172
319.0502	0.1221
319.2613	0.1168
319.4723	0.1146
319.6834	0.1185
319.8944	0.1229
320.1054	0.1222
320.3164	0.1106
320.5274	0.1149
320.7383	0.1224
320.9493	0.1222
321.1602	0.1159
321.3712	0.1149
321.5821	0.1175
321.793	0.1226
322.0039	0.1227
322.2148	0.1208
322.4257	0.1157
322.6365	0.1156
322.8474	0.1205
323.0582	0.1215
323.269	0.124
323.4798	0.117
323.6906	0.1185
323.9014	0.1171
324.1122	0.1191
324.3229	0.1212
324.5337	0.1253
324.7444	0.1217
324.9551	0.1189
325.1658	0.1213
325.3765	0.128
325.5872	0.1257
325.7979	0.1233
326.0085	0.1215
326.2192	0.1207
326.4298	0.1246
326.6404	0.1292
326.851	0.1157
327.0616	0.1259
327.2722	0.1267
327.4828	0.126
327.6933	0.1303
327.9039	0.1243
328.1144	0.1263
328.3249	0.1276
328.5354	0.1254
328.7459	0.123
328.9564	0.124
329.1669	0.1262
329.3773	0.1285
329.5878	0.1245
329.7982	0.1279
330.0086	0.1283
330.219	0.128
330.4294	0.128
330.6398	0.1261
330.8502	0.13
331.0605	0.1278
331.2708	0.1317
331.4812	0.1308
331.6915	0.1303
331.9018	0.129
332.1121	0.1335
332.3224	0.1325
332.5326	0.1246
332.7429	0.1298
332.9531	0.1335
333.1633	0.1228
333.3735	0.1228
333.5837	0.1342
333.7939	0.1313
334.0041	0.1328
334.2143	0.1333
334.4244	0.1374
334.6346	0.1311
334.8447	0.1303
335.0548	0.1405
335.2649	0.1303
335.475	0.1319
335.685	0.1336
335.8951	0.1298
336.1051	0.1346
336.3152	0.1385
336.5252	0.1351
336.7352	0.1339
336.9452	0.135
337.1552	0.134
337.3652	0.1308
337.5751	0.1372
337.7851	0.1344
337.995	0.1358
338.2049	0.1364
338.4148	0.14
338.6247	0.1349
338.8346	0.1381
339.0445	0.1401
339.2543	0.137
339.4642	0.1342
339.674	0.1302
339.8838	0.1355
340.0936	0.1419
340.3034	0.1351
340.5132	0.1389
340.7229	0.1421
340.9327	0.1445
341.1424	0.1446
341.3522	0.1308
341.5619	0.1456
341.7716	0.1461
341.9813	0.1471
342.1909	0.1452
342.4006	0.1402
342.6102	0.1458
342.8199	0.1459
343.0295	0.1473
343.2391	0.1496
343.4487	0.143
343.6583	0.1606
343.8679	0.1448
344.0774	0.1466
344.287	0.1436
344.4965	0.1567
344.706	0.1526
344.9155	0.1476
345.125	0.1524
345.3345	0.1611
345.544	0.1553
345.7534	0.154
345.9629	0.1572
346.1723	0.1618
346.3817	0.1493
346.5911	0.1562
346.8005	0.16
347.0099	0.1557
347.2193	0.1647
347.4286	0.1625
347.638	0.1581
347.8473	0.1669
348.0566	0.1589
348.2659	0.1557
348.4752	0.1611
348.6845	0.1666
348.8937	0.1624
349.103	0.1597
349.3122	0.1585
349.5214	0.1595
349.7306	0.168
349.9398	0.1699
350.149	0.1679
350.3582	0.1641
350.5674	0.1728
350.7765	0.1692
350.9856	0.1727
351.1948	0.1701
351.4039	0.176
351.613	0.1676
351.822	0.1776
352.0311	0.1716
352.2402	0.1743
352.4492	0.174
352.6582	0.1756
352.8672	0.1751
353.0762	0.1776
353.2852	0.1779
353.4942	0.1824
353.7032	0.1735
353.9121	0.1798
354.1211	0.1851
354.33	0.1851
354.5389	0.1799
354.7478	0.1826
354.9567	0.1835
355.1655	0.1857
355.3744	0.1866
355.5833	0.1815
355.7921	0.1852
356.0009	0.1887
356.2097	0.1765
356.4185	0.1892
356.6273	0.1876
356.8361	0.1925
357.0448	0.1874
357.2536	0.1892
357.4623	0.181
357.671	0.1876
357.8797	0.1968
358.0884	0.1855
358.2971	0.2005
358.5057	0.199
358.7144	0.1947
358.923	0.2035
359.1316	0.1993
359.3402	0.2001
359.5488	0.1943
359.7574	0.202
359.966	0.2099
360.1746	0.2008
360.3831	0.1988
360.5916	0.2069
360.8002	0.214
361.0087	0.2058
361.2172	0.2113
361.4256	0.2112
361.6341	0.2154
361.8426	0.2081
362.051	0.2167
362.2594	0.2092
362.4678	0.2128
362.6762	0.2238
362.8846	0.2146
363.093	0.2232
363.3014	0.2221
363.5097	0.2171
363.718	0.23
363.9264	0.2223
364.1347	0.2299
364.343	0.2299
364.5513	0.2247
364.7595	0.2283
364.9678	0.2203
365.176	0.2229
365.3842	0.2469
365.5925	0.2294
365.8007	0.2346
366.0089	0.2393
366.217	0.2311
366.4252	0.23
366.6333	0.2448
366.8415	0.2428
367.0496	0.2381
367.2577	0.2439
367.4658	0.2365
367.6739	0.2322
367.882	0.2488
368.09	0.2336
368.2981	0.2493
368.5061	0.2457
368.7141	0.2458
368.9221	0.2518
369.1301	0.2473
369.3381	0.2612
369.5461	0.25
369.754	0.2528
369.962	0.2507
370.1699	0.2563
370.3778	0.2596
370.5857	0.258
370.7936	0.2634
371.0015	0.2563
371.2093	0.2622
371.4172	0.2523
371.625	0.2548
371.8328	0.2559
372.0406	0.2661
372.2484	0.2559
372.4562	0.2668
372.664	0.2663
372.8717	0.2645
373.0795	0.2733
373.2872	0.269
373.4949	0.2736
373.7026	0.2676
373.9103	0.2627
374.118	0.2842
374.3256	0.2687
374.5333	0.2702
374.7409	0.271
374.9485	0.2699
375.1561	0.2695
375.3637	0.2672
375.5713	0.2785
375.7789	0.2739
375.9864	0.2769
376.194	0.2838
376.4015	0.2823
376.609	0.2801
376.8165	0.2937
377.024	0.288
377.2315	0.2842
377.4389	0.2786
377.6464	0.2947
377.8538	0.2865
378.0612	0.2901
378.2686	0.2842
378.476	0.2889
378.6834	0.2942
378.8908	0.2877
379.0981	0.2988
379.3055	0.2909
379.5128	0.292
379.7201	0.3003
379.9274	0.3005
380.1347	0.2979
380.342	0.3076
380.5492	0.2973
380.7565	0.2966
380.9637	0.2972
381.1709	0.2923
381.3781	0.3109
381.5853	0.2984
381.7925	0.2993
381.9997	0.307
382.2068	0.3097
382.4139	0.3031
382.6211	0.2972
382.8282	0.3182
383.0353	0.3075
383.2424	0.3078
383.4494	0.305
383.6565	0.3164
383.8635	0.3112
384.0706	0.3211
384.2776	0.3115
384.4846	0.3149
384.6916	0.3079
384.8986	0.3197
385.1055	0.3118
385.3125	0.3163
385.5194	0.3192
385.7263	0.3046
385.9333	0.3182
386.1402	0.3076
386.347	0.3081
386.5539	0.321
386.7608	0.3133
386.9676	0.3072
387.1744	0.306
387.3813	0.3143
387.5881	0.3017
387.7948	0.3221
388.0016	0.3128
388.2084	0.3181
388.4151	0.3073
388.6219	0.3188
388.8286	0.3095
389.0353	0.3139
389.242	0.3149
389.4487	0.3021
389.6553	0.3063
389.862	0.3006
390.0686	0.3121
390.2753	0.3074
390.4819	0.3059
390.6885	0.3018
390.8951	0.3022
391.1016	0.3045
391.3082	0.3018
391.5147	0.2965
391.7213	0.2895
391.9278	0.3039
392.1343	0.2877
392.3408	0.2915
392.5473	0.2907
392.7537	0.2879
392.9602	0.2878
393.1666	0.2893
393.373	0.2825
393.5794	0.289
393.7858	0.2911
393.9922	0.2864
394.1986	0.2753
394.4049	0.2798
394.6113	0.2885
394.8176	0.2803
395.0239	0.2754
395.2302	0.2734
395.4365	0.2877
395.6428	0.2753
395.8491	0.2759
396.0553	0.2689
396.2615	0.2783
396.4678	0.2765
396.674	0.2674
396.8802	0.2772
397.0863	0.2694
397.2925	0.2782
397.4987	0.2654
397.7048	0.263
397.9109	0.2668
398.117	0.2664
398.3231	0.2646
398.5292	0.2587
398.7353	0.2609
398.9413	0.2665
399.1474	0.2755
399.3534	0.2596
399.5594	0.262
399.7654	0.2642
399.9714	0.2632
400.1774	0.2687
400.3833	0.2682
400.5893	0.2604
400.7952	0.2748
401.0011	0.2626
401.207	0.2664
401.4129	0.2673
401.6188	0.2689
401.8247	0.2722
402.0305	0.2541
402.2364	0.2555
402.4422	0.2661
402.648	0.2643
402.8538	0.269
403.0596	0.2565
403.2654	0.2588
403.4711	0.2668
403.6768	0.2605
403.8826	0.2652
404.0883	0.2566
404.294	0.2579
404.4997	0.2687
404.7054	0.2687
404.911	0.2592
405.1167	0.257
405.3223	0.2546
405.5279	0.2626
405.7335	0.251
405.9391	0.2651
406.1447	0.265
406.3502	0.2519
406.5558	0.2579
406.7613	0.2604
406.9668	0.2649
407.1724	0.2632
407.3778	0.257
407.5833	0.2627
407.7888	0.2648
407.9942	0.2562
408.1997	0.2567
408.4051	0.2542
408.6105	0.2658
408.8159	0.2733
409.0213	0.266
409.2267	0.2676
409.432	0.2585
409.6374	0.2609
409.8427	0.2698
410.048	0.2651
410.2533	0.2582
410.4586	0.2599
410.6639	0.2692
410.8691	0.2552
411.0744	0.2659
411.2796	0.2678
411.4848	0.2725
411.69	0.2552
411.8952	0.2707
412.1004	0.2568
412.3056	0.2544
412.5107	0.2745
412.7158	0.2751
412.921	0.2683
413.1261	0.2535
413.3312	0.2628
413.5362	0.2638
413.7413	0.2651
413.9464	0.2484
414.1514	0.2622
414.3564	0.262
414.5614	0.2571
414.7664	0.2539
414.9714	0.2535
415.1764	0.2622
415.3813	0.2613
415.5863	0.2559
415.7912	0.2632
415.9961	0.2476
416.201	0.2689
416.4059	0.2583
416.6108	0.2525
416.8156	0.2551
417.0205	0.2508
417.2253	0.2464
417.4301	0.2563
417.6349	0.2482
417.8397	0.2452
418.0445	0.258
418.2492	0.2516
418.454	0.2565
418.6587	0.2623
418.8634	0.2483
419.0681	0.2519
419.2728	0.2548
419.4775	0.2604
419.6822	0.2434
419.8868	0.2436
420.0915	0.2417
420.2961	0.2435
420.5007	0.2508
420.7053	0.2481
420.9099	0.2438
421.1144	0.2449
421.319	0.2444
421.5235	0.2367
421.728	0.2479
421.9325	0.2461
422.137	0.2473
422.3415	0.2381
422.546	0.2334
422.7504	0.2399
422.9549	0.2473
423.1593	0.2193
423.3637	0.2374
423.5681	0.2315
423.7725	0.2296
423.9769	0.2378
424.1812	0.2286
424.3856	0.2242
424.5899	0.2225
424.7942	0.2278
424.9985	0.2291
425.2028	0.2274
425.4071	0.2218
425.6113	0.2327
425.8156	0.2256
426.0198	0.2276
426.224	0.2223
426.4282	0.2141
426.6324	0.2182
426.8366	0.218
427.0407	0.221
427.2449	0.2157
427.449	0.2193
427.6531	0.2174
427.8572	0.2178
428.0613	0.2257
428.2654	0.2138
428.4694	0.1996
428.6735	0.2019
428.8775	0.2066
429.0815	0.2024
429.2855	0.2002
429.4895	0.2117
429.6935	0.1921
429.8975	0.1945
430.1014	0.1961
430.3053	0.2053
430.5093	0.1916
430.7132	0.1978
430.9171	0.1835
431.1209	0.1904
431.3248	0.181
431.5286	0.1857
431.7325	0.1932
431.9363	0.1799
432.1401	0.1775
432.3439	0.1818
432.5477	0.1743
432.7514	0.1751
432.9552	0.1723
433.1589	0.1709
433.3627	0.1765
433.5664	0.1697
433.7701	0.1727
433.9737	0.1722
434.1774	0.1706
434.3811	0.1619
434.5847	0.1615
434.7883	0.1588
434.9919	0.1476
435.1955	0.1518
435.3991	0.1514
435.6027	0.1495
435.8062	0.1685
436.0098	0.1504
436.2133	0.146
436.4168	0.148
436.6203	0.1382
436.8238	0.1377
437.0272	0.1382
437.2307	0.1395
437.4341	0.1346
437.6375	0.1347
437.841	0.1319
438.0443	0.1382
438.2477	0.1227
438.4511	0.1236
438.6545	0.139
438.8578	0.1279
439.0611	0.1252
439.2644	0.1297
439.4677	0.1245
439.671	0.1075
439.8743	0.1222
440.0775	0.118
440.2808	0.115
440.484	0.1074
440.6872	0.1165
440.8904	0.0952
441.0936	0.109
441.2967	0.105
441.4999	0.1004
441.703	0.101
441.9062	0.0999
442.1093	0.1106
442.3124	0.0946
442.5155	0.0983
442.7185	0.0863
442.9216	0.0933
443.1246	0.0967
443.3276	0.0892
443.5307	0.0878
443.7337	0.0924
443.9366	0.0848
444.1396	0.0778
444.3426	0.0815
444.5455	0.083
444.7484	0.0751
444.9513	0.0697
445.1542	0.069
445.3571	0.0723
445.56	0.0798
445.7628	0.0671
445.9657	0.0735
446.1685	0.0774
446.3713	0.0741
446.5741	0.078
446.7769	0.0754
446.9797	0.0625
447.1824	0.0664
447.3852	0.0533
447.5879	0.0665
447.7906	0.0573
447.9933	0.0572
448.196	0.0537
448.3986	0.0554
448.6013	0.0474
448.8039	0.0524
449.0066	0.0676
449.2092	0.0614
449.4118	0.0529
449.6143	0.0536
449.8169	0.052
450.0195	0.0503
450.222	0.0569
450.4245	0.0576
450.627	0.0466
450.8295	0.0444
451.032	0.0437
451.2345	0.0441
451.4369	0.0437
451.6394	0.0474
451.8418	0.0489
452.0442	0.0504
452.2466	0.0298
452.449	0.0355
452.6513	0.0364
452.8537	0.0348
453.056	0.0333
453.2583	0.0442
453.4607	0.0265
453.663	0.0358
453.8652	0.031
454.0675	0.0346
454.2697	0.0262
454.472	0.0284
454.6742	0.0299
454.8764	0.0339
455.0786	0.0321
455.2808	0.0275
455.4829	0.0281
455.6851	0.0336
455.8872	0.0209
456.0893	0.0329
456.2915	0.0232
456.4935	0.0379
456.6956	0.0329
456.8977	0.0249
457.0997	0.03
457.3018	0.0237
457.5038	0.0294
457.7058	0.0232
457.9078	0.0335
458.1098	0.0279
458.3117	0.0233
458.5137	0.0192
458.7156	0.0213
458.9175	0.0216
459.1194	0.0167
459.3213	0.0145
459.5232	0.0215
459.725	0.0224
459.9269	0.0199
460.1287	0.0112
460.3305	0.0207
460.5323	0.0241
460.7341	0.0227
460.9359	0.0115
461.1376	0.0138
461.3394	0.0191
461.5411	0.0231
461.7428	0.0209
461.9445	0.0141
462.1462	0.0158
462.3479	0.0154
462.5495	0.017
462.7512	0.0295
462.9528	0.02
463.1544	0.0188
463.356	0.0186
463.5576	0.0186
463.7592	0.0111
463.9607	0.0165
464.1623	0.0141
464.3638	0.005
464.5653	0.013
464.7668	0.011
464.9683	0.0153
465.1697	0.0169
465.3712	0.0055
465.5726	0.0079
465.7741	0.0109
465.9755	0.0075
466.1769	0.0119
466.3782	0.0067
466.5796	0.0246
466.7809	0.0164
466.9823	0.0116
467.1836	0.0033
467.3849	0.006
467.5862	0.0077
467.7875	0.0068
467.9887	0.0155
468.19	0.0089
468.3912	0.0198
468.5924	0.0173
468.7936	0.0097
468.9948	0.0053
469.196	0.0021
469.3972	-0.0062
469.5983	-0.0033
469.7994	0.0167
470.0006	0.0121
470.2017	0.0042
470.4027	0.0261
470.6038	0.0066
470.8049	0.0043
471.0059	0.0108
471.2069	0.012
471.408	0.0038
471.6089	0.0157
471.8099	0.0052
472.0109	0.0124
472.2119	0.019
472.4128	0.0074
472.6137	0.0116
472.8146	0.0106
473.0155	0.0129
473.2164	0.006
473.4173	-0.0068
473.6181	-0.0063
473.819	0.0114
474.0198	0.0106
474.2206	-0.0033
474.4214	0.01
474.6222	-0.0089
474.8229	0.0034
475.0237	0.0142
475.2244	0.0155
475.4251	0.0108
475.6258	-0.0005
475.8265	0.0192
476.0272	0.0008
476.2278	0.0109
476.4285	0.0036
476.6291	0.0069
476.8297	0.0052
477.0303	-0.0025
477.2309	-0.0002
477.4315	0.0069
477.632	0.0004
477.8326	0.0106
478.0331	0.0152
478.2336	0.002
478.4341	0.0025
478.6346	0.0095
478.8351	0.0024
479.0355	0.0099
479.236	0.0114
479.4364	0.0034
479.6368	0.006
479.8372	0.004
480.0376	0.0079
480.2379	0.0042
480.4383	0.0143
480.6386	0.0037
480.8389	-0.0024
481.0392	0.0019
481.2395	0.0037
481.4398	0.008
481.6401	0.008
481.8403	-0.0043
482.0405	0.0042
482.2408	-0.0019
482.441	0.0049
482.6411	0.0076
482.8413	-0.0033
483.0415	0.0079
483.2416	0.0043
483.4417	0.0027
483.6419	-0.002
483.8419	0.0042
484.042	0.0112
484.2421	0.0031
484.4422	-0.001
484.6422	0.006
484.8422	0.0097
485.0422	0.0028
485.2422	0.0013
485.4422	0.0017
485.6422	0.0016
485.8421	0.0022
486.042	0.0112
486.242	-0.0011
486.4419	0.0056
486.6417	-0.0029
486.8416	0.0045
487.0415	-0.0004
487.2413	0.004
487.4411	0.0038
487.641	-0.0036
487.8408	0.0042
488.0405	0.0073
488.2403	-0.0002
488.4401	0.0049
488.6398	0.007
488.8395	0.0026
489.0392	0.0067
489.2389	0.0055
489.4386	-0.0056
489.6383	0.0057
489.8379	-0.0025
490.0376	0.0137
490.2372	-0.0017
490.4368	0.003
490.6364	-0.0015
490.836	0.005
491.0355	0.0029
491.2351	-0.0013
491.4346	0.0011
491.6341	0.005
491.8336	-0.0019
492.0331	0.003
492.2326	-0.0002
492.432	0.0029
492.6315	0.0106
492.8309	0.0036
493.0303	0.0013
493.2297	0.0068
493.4291	-0.0003
493.6284	0.0014
493.8278	0.0061
494.0271	0.0036
494.2264	0.0024
494.4257	0.0176
494.625	0.0074
494.8243	-0.0066
495.0236	-0.0001
495.2228	0.0108
495.422	0.0056
495.6213	0.0048
495.8205	0.0033
496.0196	0.001
496.2188	0.0012
496.418	0.0001
496.6171	0.0074
496.8162	0.0045
497.0153	0.0141
497.2144	0.0044
497.4135	0.0025
497.6126	0.0057
497.8116	0.0007
498.0107	0.0012
498.2097	0.006
498.4087	0.0003
498.6077	-0.002
498.8067	0.0077
499.0056	0.0071
499.2046	0.0069
499.4035	0.011
499.6024	-0.0085
499.8013	0.015
500.0002	0.0026
500.199	0.008
500.3979	-0.0046
500.5967	-0.0031
500.7956	0.0128
500.9944	0.0108
501.1932	0.0074
501.3919	0.0135
501.5907	0.0047
501.7895	-0.0057
501.9882	0.0017
502.1869	0.0155
502.3856	0.0057
502.5843	-0.0013
502.783	-0.0024
502.9816	0.0117
503.1803	0.005
503.3789	0.004
503.5775	0.0041
503.7761	-0.0008
503.9747	0.0109
504.1732	-0.0077
504.3718	0.0141
504.5703	0.0128
504.7689	-0.0057
504.9674	-0.0011
505.1658	0.0021
505.3643	0.0095
505.5628	0.0083
505.7612	0.0079
505.9597	-0.0005
506.1581	0.0047
506.3565	-0.0013
506.5549	-0.002
506.7532	-0.0009
506.9516	0.0044
507.1499	-0.0002
507.3482	-0.0058
507.5465	0.0074
507.7448	0.0067
507.9431	0.0068
508.1414	-0.0063
508.3396	0.006
508.5379	0.0013
508.7361	0.0139
508.9343	-0.0019
509.1325	0.0113
509.3306	0.0085
509.5288	-0.0076
509.7269	0.006
509.9251	0.0067
510.1232	0.0087
510.3213	0.0097
510.5193	0.0008
510.7174	0.0031
510.9154	0.0041
511.1135	0.0052
511.3115	0.0085
511.5095	0.0034
511.7075	0.0043
511.9055	0.0038
512.1034	0.0045
512.3014	0.0013
512.4993	0.0052
512.6972	0.0049
512.8951	0.0053
513.093	0.0054
513.2908	0.0193
513.4887	0.0112
513.6865	0.0038
513.8844	0.0124
514.0822	0.0035
514.2799	-0.0073
514.4777	0.0004
514.6755	0.0024
514.8732	0.0044
515.0709	-0.0015
515.2687	0.0016
515.4664	0.0109
515.664	0.0067
515.8617	0.0101
516.0594	0.0041
516.257	0.0034
516.4546	0.0184
516.6522	0.0024
516.8498	0.0062
517.0474	0.0088
517.2449	-0.0033
517.4425	0.0039
517.64	0.0056
517.8375	0.0099
518.035	0.0001
518.2325	0.005
518.43	0.0038
518.6274	0.0088
518.8249	-0.0058
519.0223	0.0107
519.2197	0.0055
519.4171	-0.008
519.6145	0.0025
519.8118	-0.0076
520.0092	0.0001
520.2065	0.0152
520.4038	0.0084
520.6011	0.0118
520.7984	0.0148
520.9956	0.0089
521.1929	0.0025
521.3901	0.0058
521.5874	0.0127
521.7846	0.0005
521.9818	-0.002
522.1789	0.0034
522.3761	0.0133
522.5732	-0.0037
522.7704	-0.0018
522.9675	0.0001
523.1646	0.0041
523.3617	0.0091
523.5587	-0.0073
523.7558	0.0016
523.9528	0.0093
524.1498	0.0031
524.3468	0.0034
524.5438	-0
524.7408	-0.0032
524.9378	0.0141
525.1347	0.0017
525.3316	0.0018
525.5285	0.0024
525.7254	0.0078
525.9223	0.0152
526.1192	0.0117
526.316	0.0071
526.5129	0.0063
526.7097	-0.0061
526.9065	0.0162
527.1033	0.0025
527.3	0.0101
527.4968	0.007
527.6935	0.0033
527.8903	0.0067
528.087	0.0013
528.2837	0.0102
528.4804	-0.0031
528.677	0.0013
528.8737	0.0053
529.0703	0
529.2669	0.0043
529.4635	0.0021
529.6601	-0.0123
529.8567	-0.0033
530.0532	0.0007
530.2498	-0.0048
530.4463	-0.0047
530.6428	0.0005
530.8393	0.0107
531.0358	-0.003
531.2322	-0.003
531.4287	0.0019
531.6251	-0.013
531.8215	-0.0064
532.0179	0.015
532.2143	0.0033
532.4107	0.003
532.607	-0.0004
532.8034	-0.0014
532.9997	0.0037
533.196	-0.0033
533.3923	0.0092
533.5886	0.0049
533.7848	-0.0004
533.9811	0.0036
534.1773	-0.0003
534.3735	0.0068
534.5697	-0.0025
534.7659	0.0117
534.9621	0.01
535.1582	0.0027
535.3544	0.0101
535.5505	0.0031
535.7466	0.0017
535.9427	-0.0039
536.1387	-0.0056
536.3348	0.0003
536.5308	-0.0025
536.7269	-0.0001
536.9229	0.0026
537.1189	0.0133
537.3148	-0.0005
537.5108	0.0037
537.7068	0.0044
537.9027	-0.0039
538.0986	0.0117
538.2945	0.0013
538.4904	0.0008
538.6863	0.0021
538.8821	0.0092
539.078	0.0044
539.2738	0.0081
539.4696	-0.0047
539.6654	0.0033
539.8611	-0.0018
540.0569	-0.0034
540.2526	0.014
540.4484	-0.0034
540.6441	0.0028
540.8398	0.0122
541.0355	-0.002
541.2311	0.0038
541.4268	0.0134
541.6224	0.0125
541.818	0.0144
542.0136	0.0076
542.2092	0.0083
542.4048	0.0026
542.6003	0.0029
542.7959	0.0208
542.9914	0.0088
543.1869	0.0096
543.3824	0.0063
543.5779	0.0093
543.7734	0.0055
543.9688	0.014
544.1642	0.0011
544.3596	0.0013
544.555	0.0057
544.7504	0.0109
544.9458	0.0047
545.1411	0.0042
545.3365	0.0102
545.5318	0.0044
545.7271	0.018
545.9224	0.0083
546.1177	0.0053
546.3129	0.0014
546.5081	-0.0018
546.7034	0.0061
546.8986	-0.0043
547.0938	0.0109
547.289	0.0104
547.4841	0.0111
547.6793	0.0036
547.8744	0.0156
548.0695	0.0031
548.2646	0.0054
548.4597	0.0032
548.6548	0.0118
548.8498	0.008
549.0448	-0.0016
549.2399	0.0206
549.4349	0.0053
549.6298	0.0114
549.8248	-0.0074
550.0198	0.0118
550.2147	0.0058
550.4096	-0.007
550.6045	-0.0042
550.7994	0.0066
550.9943	0.0143
551.1892	-0.0111
551.384	0.0151
551.5788	0.0064
551.7737	0.0131
551.9685	0.002
552.1632	0.0011
552.358	0.006
552.5528	0.0129
552.7475	0.0013
552.9422	0.0117
553.1369	0.0142
553.3316	0.0032
553.5263	0.008
553.7209	0.0088
553.9156	0.0093
554.1102	-0.0014
554.3048	0.0052
554.4994	-0.0009
554.694	0.0025
554.8885	-0.0086
555.0831	0.017
555.2776	0.003
555.4721	0.005
555.6666	0.0093
555.8611	0.0013
556.0555	0.0095
556.25	0.0135
556.4444	-0.0002
556.6388	0.0029
556.8332	-0.0063
557.0276	0.004
557.222	-0.0004
557.4163	0.0051
557.6107	0.0085
557.805	0.001
557.9993	0.0044
558.1936	-0.0071
558.3879	0.0037
558.5821	-0.0012
558.7764	-0.0004
558.9706	0.0091
559.1648	0.0099
559.359	-0.0048
559.5532	-0.0059
559.7473	-0.0134
559.9415	0.004
560.1356	0.0206
560.3297	0.0017
560.5238	0.0095
560.7179	-0.001
560.9119	0.0042
561.106	-0.0042
561.3	-0.0004
561.494	-0.0152
561.688	0.0022
561.882	-0.0037
562.076	-0.0063
562.2699	0.0089
562.4639	0.0182
562.6578	0.0076
562.8517	0.0011
563.0456	0.0042
563.2395	0.0026
563.4333	0.0032
563.6272	0.0076
563.821	0.0034
564.0148	-0.0004
564.2086	0.0085
564.4024	0.0118
564.5961	0.0043
564.7899	0.0159
564.9836	0.0003
565.1773	0.0099
565.371	0.0024
565.5647	0.0022
565.7584	0.0147
565.952	0.0017
566.1456	-0.0004
566.3393	0.0075
566.5329	0.0105
566.7264	0.0083
566.92	0.0014
567.1136	0.0032
567.3071	0.0012
567.5006	0.0035
567.6941	-0.0008
567.8876	-0.004
568.0811	0.0181
568.2745	-0.0061
568.468	0.0052
568.6614	0.003
568.8548	0.0037
569.0482	0.0015
569.2416	0.0057
569.4349	0.0052
569.6283	0.0032
569.8216	0.0104
570.0149	-0.0005
570.2082	0.0085
570.4015	-0.0054
570.5947	0.0069
570.788	0.0057
570.9812	-0.0003
571.1744	0.0076
571.3676	0.0042
571.5608	-0.0003
571.754	0.0079
571.9471	0.0062
572.1402	0.0043
572.3333	0.0059
572.5264	0.0068
572.7195	0.0024
572.9126	0.0062
573.1057	0.0039
573.2987	0.0063
573.4917	-0.001
573.6847	0.0031
573.8777	0.0049
574.0707	0.0044
574.2636	0.0013
574.4566	0.0008
574.6495	-0.0006
574.8424	-0
575.0353	0.0076
575.2281	0.0079
575.421	0.0019
575.6138	0.001
575.8067	0.0028
575.9995	0.0044
576.1923	0.0041
576.385	0.0037
576.5778	0.0018
576.7706	0.0036
576.9633	0.0041
577.156	-0.0063
577.3487	0.0036
577.5414	0.0017
577.734	0.0004
577.9267	0.0035
578.1193	0.0046
578.3119	0.0018
578.5045	0.0018
578.6971	-0.0043
578.8897	0.0047
579.0822	0.0085
579.2747	0
579.4673	0.0042
579.6598	0.0064
579.8522	0.0014
580.0447	0.0064
580.2372	0.0064
580.4296	0.008
580.622	-0.0033
580.8144	0.0073
581.0068	0.0042
581.1992	0.0028
581.3915	0.0002
581.5839	0.0014
581.7762	0.0016
581.9685	0.0023
582.1608	0.0006
582.353	0.0002
582.5453	0.0022
582.7375	0.0054
582.9298	0.0008
583.122	0.0009
583.3142	0.0046
583.5063	0.0063
583.6985	-0.0031
583.8906	0.0023
584.0827	0.0034
584.2749	0.0029
584.4669	0.0016
584.659	0.0048
584.8511	0.0072
585.0431	0.0029
585.2352	0.0016
585.4272	0.0058
585.6192	0
585.8111	-0.002
586.0031	0.0005
586.195	0.0006
586.387	0.0001
586.5789	0.0033
586.7708	0.0062
586.9627	0.0039
587.1545	0
587.3464	0.0044
587.5382	0.0012
587.73	0.0074
587.9218	-0.0012
588.1136	0.0004
588.3053	0.0012
588.4971	0.0026
588.6888	-0.0035
588.8805	0
589.0722	0.01
589.2639	0.0015
589.4556	0.0052
589.6472	0.0104
589.8389	0.0001
590.0305	-0.0016
590.2221	0.0076
590.4137	0.0002
590.6052	0.0054
590.7968	0.0063
590.9883	0.0037
591.1798	0.0023
591.3713	-0.0022
591.5628	0.003
591.7543	0.0006
591.9458	0.0038
592.1372	0.007
592.3286	-0.0006
592.52	-0.0005
592.7114	0.0004
592.9028	0.0087
593.0941	0.0047
593.2855	0.0002
593.4768	0.0082
593.6681	0.0075
593.8594	0.0034
594.0506	0.0014
594.2419	-0.0006
594.4331	0.0007
594.6244	0.0009
594.8156	-0.002
595.0067	0.0034
595.1979	-0.001
595.3891	0.0034
595.5802	0.0032
595.7713	0.0028
595.9624	0.0069
596.1535	0.0017
596.3446	-0.0012
596.5357	0.0035
596.7267	0.0049
596.9177	0.001
597.1087	-0.0026
597.2997	0.0041
597.4907	0.0007
597.6817	0.0154
597.8726	0.0065
598.0635	-0.0011
598.2544	0.0027
598.4453	0.0073
598.6362	0.0003
598.827	0.002
599.0179	-0.0002
599.2087	0.0038
599.3995	0.0056
599.5903	0.0004
599.7811	0.0093
599.9718	0.0043
600.1626	-0.0001
600.3533	-0.0042
600.544	0.0055
600.7347	0.003
600.9254	0.0052
601.116	0.0031
601.3067	0.0041
601.4973	0.0092
601.6879	0.0018
601.8785	0.0031
602.0691	0.0068
602.2596	0.0043
602.4502	0.0044
602.6407	0.0053
602.8312	0.0066
603.0217	0.0038
603.2122	0.0003
603.4027	0.0017
603.5931	0.0006
603.7835	0.0047
603.9739	0.003
604.1643	0.0065
604.3547	0.0058
604.5451	0.0074
604.7354	0.0016
604.9257	-0.0026
605.116	0.0039
605.3063	0.0065
605.4966	-0.004
605.6869	0.0085
605.8771	0.0027
606.0673	0.0035
606.2575	0.0011
606.4477	0.0079
606.6379	-0.0032
606.8281	-0.0005
607.0182	0.0008
607.2083	0.0042
607.3985	0.0057
607.5885	0.0059
607.7786	0.0024
607.9687	0.003
608.1587	0.0066
608.3488	0.0033
608.5388	-0.0002
608.7288	-0.005
608.9187	0.0101
609.1087	0.0079
609.2986	0.0109
609.4886	-0.002
609.6785	0.0074
609.8684	-0.0061
610.0582	0.0079
610.2481	-0.0019
610.4379	0.0063
610.6278	0.0066
610.8176	0.0132
611.0074	0.0035
611.1971	0.005
611.3869	0.0053
611.5766	-0.004
611.7664	0.0022
611.9561	0.0049
612.1458	0.011
612.3354	0.0116
612.5251	0.002
612.7147	0.004
612.9044	-0.0001
613.094	0.0117
613.2836	0.0003
613.4731	0.0039
613.6627	0.0091
613.8522	-0.0028
614.0417	0.0079
614.2313	0.0071
614.4207	0.0059
614.6102	0.0036
614.7997	0.0064
614.9891	0.0001
615.1785	-0.0007
615.3679	0.0096
615.5573	0.0015
615.7467	0.0022
615.9361	0.0054
616.1254	0.0118
616.3147	0.003
616.504	-0.002
616.6933	-0.001
616.8826	0.0002
617.0718	0.0091
617.2611	0.0019
617.4503	0.0045
617.6395	0.0092
617.8287	0.0049
618.0179	0.0009
618.207	0.0076
618.3961	0.0099
618.5853	0.0056
618.7744	0.0027
618.9634	0.0061
619.1525	0.0006
619.3416	-0.0041
619.5306	0.0094
619.7196	0.0097
619.9086	-0.0016
620.0976	-0.0096
620.2866	0.0118
620.4755	0.0083
620.6645	0.0113
620.8534	0.0055
621.0423	0.0082
621.2312	0.002
621.42	0.007
621.6089	-0.0037
621.7977	0.0018
621.9865	-0.0017
622.1753	-0.0016
622.3641	-0.004
622.5529	-0.002
622.7416	-0.0003
622.9303	-0.0057
623.1191	0.0039
623.3078	-0.0026
623.4964	0.0058
623.6851	0.0011
623.8737	-0.0039
624.0624	-0.0043
624.251	-0.0009
624.4396	0.0075
624.6282	0.0108
624.8167	0.0038
625.0053	0.0103
625.1938	-0.0028
625.3823	0.0085
625.5708	-0.0051
625.7593	-0.0029
625.9477	0.0133
626.1362	-0.0051
626.3246	0.0003
626.513	0.0011
626.7014	0.0096
626.8898	0.0158
627.0781	0.008
627.2665	0.002
627.4548	-0.0043
627.6431	0.0208
627.8314	0.013
628.0197	0.0139
628.2079	-0.0004
628.3962	0.0059
628.5844	0.0029
628.7726	-0.0003
628.9608	0.0079
629.1489	0.001
629.3371	-0.009
629.5252	0.0049
629.7134	-0.0001
629.9015	0.0177
630.0895	-0.0153
630.2776	0.01
630.4657	0.0188
630.6537	0.007
630.8417	0.0006
631.0297	-0.0033
631.2177	0.0001
631.4057	0.0063
631.5936	0.0006
631.7815	0.0006
631.9695	0.0229
632.1574	0.0152
632.3452	0.0067
632.5331	0.0062
632.7209	0.0074
632.9088	0.0001
633.0966	0.0195
633.2844	0.0134
633.4722	0.0137
633.6599	0.0175
633.8477	0.0151
634.0354	0.0054
634.2231	0.0034
634.4108	0.0096
634.5985	0.0129
634.7861	0.006
634.9738	0.0039
635.1614	0.0076
635.349	-0.0007
635.5366	0.0161
635.7242	-0.0018
635.9117	0.0093
636.0993	0.0015
636.2868	0.0055
636.4743	-0.0015
636.6618	-0.0039
636.8492	0.0191
637.0367	-0.0007
637.2241	-0.0037
637.4115	0.0256
637.5989	0.0111
637.7863	0.0236
637.9737	-0.0103
638.161	0.0014
638.3484	-0.0031
638.5357	0.0046
638.723	0.0165
638.9103	0.0008
639.0975	0.0033
639.2848	0.0057
639.472	0.003
639.6592	-0.0104
639.8464	-0.0029
640.0336	0.0099
640.2208	-0.0038
640.4079	0.0176
640.595	-0.0062
640.7821	0.0253
640.9692	-0.0036
641.1563	-0.0033
641.3434	0.0165
641.5304	0.0143
641.7174	0.0183
641.9044	0.0075
642.0914	0.028
642.2784	0.0068
642.4653	-0.0019
642.6523	-0.0003
642.8392	-0.0072
643.0261	0.0193
643.213	0.0014
643.3999	0.0313
643.5867	0.005
643.7735	-0.0018
643.9604	0.0116
644.1472	0.0042
644.3339	-0.0031
644.5207	0.0004
644.7075	-0.0049
644.8942	-0.0147
645.0809	0.0191
645.2676	-0.0192
645.4543	-0.002
645.6409	0.0158
645.8276	0.0172
646.0142	-0.011
646.2008	-0.0004
646.3874	-0.0037
646.574	0.0024
646.7605	-0.0057
646.9471	0.0046
647.1336	-0.022
647.3201	0.0078
647.5066	0.014
647.6931	0.0038
647.8795	0.0036
648.0659	0.0091
648.2524	0.0123
648.4388	0.0078
648.6252	0.0097
648.8115	0.0038
648.9979	0.0064
649.1842	0.0154
649.3705	0.0129
649.5568	0.0058
649.7431	-0.0029
649.9294	-0.018
650.1156	0.0026
650.3018	0.0253
650.488	0.0257
650.6742	0.0133
650.8604	0.0162
651.0466	0.0123
651.2327	0.0046
651.4188	-0.0033
651.6049	0.0212
651.791	0.004
651.9771	0.0036
652.1632	0.0101
652.3492	0.0126
652.5352	0.0162
652.7212	0.0092
652.9072	0.0048
653.0932	0.0098
653.2791	-0.0015
653.465	0.0051
653.651	0.0114
653.8369	-0.004
654.0227	-0.001
654.2086	0.0015
654.3944	-0.0013
654.5803	0.0033
654.7661	0.0023
654.9519	-0.0011
655.1377	0.0002
655.3234	0.0002
655.5092	0.0002
655.6949	0.0002
655.8806	0.0002
656.0663	0.0002
656.2519	0.0002
656.4376	0.0002
656.6232	0.0002
656.8088	0.0002
656.9945	0.0002
657.18	0.0002
657.3656	0.0002
657.5511	0.0002
657.7367	0.0002
657.9222	0.0002
658.1077	0.0002
658.2932	0.0002
658.4786	0.0002
658.6641	0.0002
658.8495	0.0002
659.0349	0.0002
659.2203	0.0002
659.4057	0.0002
659.591	0.0859
659.7764	0.0272
659.9617	0.0019
660.147	0.0153
660.3323	0.0169
660.5176	-0.0074
660.7028	-0.0073
660.888	0.0102
661.0733	0.0219
661.2585	0.0033
661.4436	0.0072
661.6288	0.0069
661.8139	0.0026
661.9991	-0.0137
662.1842	0.0036
662.3693	-0.0061
662.5544	0.0077
662.7394	0.0275
662.9245	0.0054
663.1095	-0.0157
663.2945	0.0013
663.4795	-0.0198
663.6644	0.0221
663.8494	0.0096
664.0343	0.038
664.2193	0.0113
664.4042	0.0025
664.589	0.0179
664.7739	0.01
664.9587	0.0049
665.1436	-0.0122
665.3284	-0.0071
665.5132	-0.0122
665.698	0.0095
665.8827	0.0173
666.0675	-0.0107
666.2522	0.033
666.4369	-0.0063
666.6216	0.0185
666.8063	0.0101
666.9909	0.0019
667.1756	-0.0041
667.3602	-0.0038
667.5448	0.0157
667.7294	0.0128
667.9139	-0.0158
668.0985	0.0077
668.283	-0.0159
668.4675	0.0197
668.652	0.0206
668.8365	-0.0002
669.0209	0.0277
669.2054	0.0024
669.3898	-0.0123
669.5742	0.0201
669.7586	0.0038
669.943	0.0201
670.1273	0.0046
670.3117	0.0192
670.496	0.036
670.6803	0.0004
670.8646	-0.0075
671.0488	0.0247
671.2331	-0.0079
671.4173	0.0158
671.6015	0.0027
671.7857	0.0049
671.9699	0.0215
672.1541	0.0008
672.3382	-0.0027
672.5223	0.0089
672.7064	-0.0054
672.8905	-0.0103
673.0746	-0.0029
673.2587	0.0212
673.4427	0.0159
673.6267	0.0211
673.8107	0.0294
673.9947	0.0162
674.1787	-0.0014
674.3626	0.0052
674.5465	0.013
674.7304	0.0147
674.9143	-0.0087
675.0982	0.0139
675.2821	0.0022
675.4659	-0.0026
675.6497	0.0031
675.8335	-0.0025
676.0173	-0.0056
676.2011	0.019
676.3849	0.0021
676.5686	0.0083
676.7523	0.0135
676.936	0.0311
677.1197	-0.0131
677.3034	0.0421
677.487	0.0136
677.6706	-0.0054
677.8542	-0.001
678.0378	0.0073
678.2214	0.0142
678.405	0.0073
678.5885	0.0229
678.772	0.0195
678.9555	0.0096
679.139	0.0105
679.3225	-0.0003
679.5059	-0.0064
679.6894	0.0127
679.8728	0.0094
680.0562	0.005
680.2395	-0.0145
680.4229	-0.0048
680.6062	0.0145
680.7896	-0.0252
680.9729	0.0148
681.1562	-0.0065
681.3394	0.0053
681.5227	0.0041
681.7059	0.0014
681.8891	0.0126
682.0723	0.0055
682.2555	0.0039
682.4387	0.0005
682.6218	0.0049
682.805	0.0203
682.9881	0.0074
683.1712	0.0105
683.3542	0.0132
683.5373	-0.0031
683.7203	0.0175
683.9034	-0.0003
684.0864	0.0047
684.2694	-0.0044
684.4523	0.0101
684.6353	0.0096
684.8182	0.0032
685.0011	0.0085
685.184	0.0127
685.3669	0.0031
685.5498	-0.0003
685.7326	0.0075
685.9154	-0.0027
686.0982	0.0163
686.281	-0.0207
686.4638	0.0107
686.6465	-0.0129
686.8293	0.0018
687.012	0.0114
687.1947	-0.0095
687.3774	0.0038
687.56	-0.0085
687.7427	0.0049
687.9253	0.0001
688.1079	-0.0083
688.2905	0.0065
688.4731	0.0074
688.6556	0.0179
688.8382	-0.0109
689.0207	0.026
689.2032	0.0321
689.3857	0.0063
689.5681	0.0176
689.7506	0.0287
689.933	-0.0096
690.1154	-0.0001
690.2978	0.0125
690.4802	0.0194
690.6626	0.0155
690.8449	-0.0005
691.0272	-0.0098
691.2095	-0.0272
691.3918	0.0085
691.5741	-0.0003
691.7563	0.0054
691.9386	0.0051
692.1208	0.0001
692.303	-0.0014
692.4852	0.0035
692.6673	0.0091
692.8495	-0.0045
693.0316	-0.0023
693.2137	0.0142
693.3958	0.0151
693.5778	-0.0037
693.7599	-0.0201
693.9419	-0.0108
694.1239	-0.012
694.3059	0.0232
694.4879	0.018
694.6699	-0.0085
694.8518	0.0104
695.0337	0.0316
695.2157	0.025
695.3975	0.0105
695.5794	0.0282
695.7613	-0.0088
695.9431	-0.0018
696.1249	0.0145
696.3067	0.0134
696.4885	-0.0101
696.6703	0.0072
696.852	0.0035
697.0337	0.0171
697.2154	0.0024
697.3971	0.0104
697.5788	0.0175
697.7605	0.0118
697.9421	0.0182
698.1237	-0.0072
698.3053	0.012
698.4869	-0.0007
698.6685	-0.0004
698.85	0.0243
699.0315	-0.0291
699.213	0.0415
699.3945	-0.0029
699.576	0.0175
699.7575	0.0109
699.9389	0.0033
700.1203	0.0006
700.3017	-0.0076
700.4831	-0.0032
700.6645	0.0245
700.8458	0.0127
701.0271	-0.0017
701.2084	0.0198
701.3897	0.0271
701.571	-0.0276
701.7523	0.0016
701.9335	0.0089
702.1147	0.0246
702.2959	-0.0002
702.4771	0.0037
702.6583	0.0192
702.8394	0.0083
703.0205	0.0132
703.2016	0.0023
703.3827	-0.027
703.5638	0.0071
703.7449	0.0386
703.9259	-0.0147
704.1069	-0.0167
704.2879	0.0145
704.4689	-0.0085
704.6499	0.0358
704.8308	0.0251
705.0117	0.0281
705.1927	0.0303
705.3735	0.0479
705.5544	0.0111
705.7353	-0.0006
705.9161	-0.0163
706.0969	0.0019
706.2777	0.0012
706.4585	-0.0067
706.6393	0.0102
706.82	0.0189
707.0007	-0.0034
707.1815	-0.0047
707.3621	0.0367
707.5428	0.0006
707.7235	0.0016
707.9041	0.0148
708.0847	0.004
708.2653	0.0234
708.4459	0.015
708.6265	0.0008
708.807	0.011
708.9875	0.0166
709.168	-0.0065
709.3485	0.0273
709.529	0.0044
709.7095	0.0085
709.8899	-0.005
710.0703	-0.0014
710.2507	0.0073
710.4311	-0.0112
710.6115	0.0256
710.7918	0.022
710.9721	-0.004
711.1524	-0.0028
711.3327	-0.0313
711.513	-0.0159
711.6932	0.0049
711.8735	0.0261
712.0537	-0.0228
712.2339	0.0096
712.4141	0.0193
712.5942	-0.0301
712.7744	0.0122
712.9545	-0.0055
713.1346	0.0189
713.3147	0.0253
713.4947	0.0054
713.6748	0.0049
713.8548	0.0326
714.0348	0.0126
714.2148	0.0201
714.3948	0.0007
714.5748	-0.0039
714.7547	-0.0014
714.9346	0.0153
715.1145	0.0106
715.2944	-0.0337
715.4743	0.0473
715.6541	-0.0248
715.834	0.0378
716.0138	0.0237
716.1936	0.0072
716.3733	0.0145
716.5531	-0.0294
716.7328	0.0182
716.9126	-0.0199
717.0923	0.0084
717.2719	0.0197
717.4516	-0.0069
717.6312	-0.015
717.8109	0.0597
717.9905	0.0037
718.1701	0.0271
718.3496	-0.0164
718.5292	-0.0009
718.7087	-0.0217
718.8882	0.017
719.0677	0.0345
719.2472	0.0071
719.4267	0.0028
719.6061	-0.0199
719.7856	0.0326
719.965	-0.0036
720.1443	0.0041
720.3237	0.0179
720.5031	0.0173
720.6824	0.011
720.8617	0.0201
721.041	0.0237
721.2203	0.0022
721.3995	-0.0021
721.5788	0.0126
721.758	-0.0101
721.9372	0.0289
722.1164	-0.0036
722.2956	0.0037
722.4747	-0.0041
722.6538	0.0219
722.8329	0.0478
723.012	-0.0074
723.1911	0.0246
723.3702	0.0397
723.5492	0.0173
723.7282	-0.0096
723.9072	0.0288
724.0862	0.0351
724.2652	0.0133
724.4441	0.0143
724.623	0.0081
724.8019	0.0034
724.9808	0.019
725.1597	0.0084
725.3385	-0.0002
725.5174	0.0108
725.6962	0.0081
725.875	0.024
726.0538	0.0233
726.2325	0.013
726.4112	-0.0138
726.59	-0.0112
726.7687	0.0035
726.9474	0.0378
727.126	0.0145
727.3047	-0.0141
727.4833	0.0124
727.6619	-0.002
727.8405	0.034
728.0191	0.0061
728.1976	0.0175
728.3762	0.0193
728.5547	0.0161
728.7332	0.0221
728.9116	0.015
729.0901	0.0136
729.2686	0.0087
729.447	-0.0209
729.6254	0.002
729.8038	0.0065
729.9821	-0.015
730.1605	0.0129
730.3388	0.0105
730.5171	0.0255
730.6954	-0.0109
730.8737	0.0044
731.0519	-0.0114
731.2302	0.0043
731.4084	-0.0032
731.5866	-0.0016
731.7648	0.0138
731.9429	0.0339
732.1211	-0.0025
732.2992	0.0319
732.4773	0.0149
732.6554	-0.0097
732.8335	0.0173
733.0115	0.0234
733.1896	-0.0146
733.3676	0.0222
733.5456	0.0109
733.7235	0.005
733.9015	0.001
734.0794	-0.0105
734.2574	-0.0156
734.4353	0.0132
734.6131	-0.0037
734.791	-0.0015
734.9689	-0.0075
735.1467	0.0029
735.3245	0.0151
735.5023	0.0221
735.68	0.0208
735.8578	0.0036
736.0355	0.0242
736.2132	-0.0082
736.3909	0.0087
736.5686	0.0199
736.7463	-0.0051
736.9239	0.0377
737.1015	0.0238
737.2791	0.0267
737.4567	0.0089
737.6343	-0.0044
737.8118	0.0297
737.9894	-0.0071
738.1669	0.0086
738.3444	0.0091
738.5218	-0.0236
738.6993	0.0092
738.8767	-0.0083
739.0541	0.013
739.2315	0.0065
739.4089	0.0251
739.5863	0.0024
739.7636	-0.0002
739.9409	0.009
740.1182	0.0091
740.2955	0.0512
740.4728	-0.0015
740.65	-0.0295
740.8272	0.025
741.0044	-0.0008
741.1816	0.0446
741.3588	0.0096
741.5359	0.0043
741.7131	-0.0011
741.8902	-0.0176
742.0673	-0.0196
742.2444	0.0227
742.4214	0.0055
742.5985	-0.0109
742.7755	0.0081
742.9525	-0.0167
743.1295	-0.0555
743.3064	0.0304
743.4834	0.0067
743.6603	0.037
743.8372	-0.0441
744.0141	0.0153
744.191	-0.0081
744.3678	-0.0313
744.5446	-0.0034
744.7215	-0.0024
744.8982	0.0128
745.075	0.03
745.2518	0.0211
745.4285	0.0111
745.6052	-0.0296
745.7819	0.0078
745.9586	0.013
746.1353	-0.0123
746.3119	0.016
746.4885	0.0118
746.6651	0.0045
746.8417	-0.0011
747.0183	0.0603
747.1948	0.033
747.3714	-0.0054
747.5479	0.0038
747.7244	-0.0037
747.9008	-0.0314
748.0773	0.0362
748.2537	0.0481
748.4301	0.0211
748.6065	-0.0074
748.7829	-0.0339
748.9593	0.0044
749.1356	0.0213
749.3119	0.0247
749.4882	0.0115
749.6645	0.018
749.8408	0.0044
750.017	0.0135
750.1933	-0.0138
750.3695	0.0341
750.5457	0.0036
750.7218	0.0108
750.898	-0.0202
751.0741	0.004
751.2502	0.0223
751.4263	0.0097
751.6024	0.0057
751.7784	0.0051
751.9545	0.0179
752.1305	0.0235
752.3065	0.0209
752.4825	-0.0112
752.6584	0.0243
752.8344	-0.015
753.0103	-0.0168
753.1862	-0.0008
753.3621	-0.0134
753.5379	-0.0002
753.7138	-0.0019
753.8896	0.0262
754.0654	-0.0124
754.2412	0.0196
754.417	0.0208
754.5927	-0.0046
754.7685	0.0069
754.9442	0.021
755.1199	0.0161
755.2956	0.0088
755.4712	0.0086
755.6469	0.0109
755.8225	0.0018
755.9981	0.0147
756.1736	0.0098
756.3492	-0.0159
756.5248	0.0146
756.7003	0.0052
756.8758	-0.0092
757.0513	0.0169
757.2267	-0.0047
757.4022	-0.0089
757.5776	0.0082
757.753	0.0196
757.9284	0.0278
758.1038	0.0168
758.2791	0.0071
758.4545	-0.0084
758.6298	0.0184
758.8051	0.0087
758.9803	-0.0053
759.1556	0.0049
759.3308	0.0106
759.506	0.0104
759.6812	0.0066
759.8564	0.0092
760.0316	-0.0138
760.2067	0.0266
760.3819	-0.0102
760.557	0.0054
760.732	-0.0132
760.9071	0.0267
761.0821	-0.0213
761.2572	0.0049
761.4322	0.0131
761.6072	-0.0175
761.7821	-0.0196
761.9571	0.0325
762.132	-0.0055
762.3069	0.0191
762.4818	0.0157
762.6567	0.0189
762.8316	0.04
763.0064	0.0287
763.1812	-0.0174
763.356	0.0023
763.5308	0.0136
763.7055	-0.0029
763.8803	0.0001
764.055	-0.0016
764.2297	0.0068
764.4044	0.0079
764.579	-0.0024
764.7537	0.0055
764.9283	0.0216
765.1029	0.0204
765.2775	0.0128
765.4521	-0.0046
765.6266	-0.0079
765.8011	0.0129
765.9756	0.0266
766.1501	0.0135
766.3246	-0.007
766.4991	0.0002
766.6735	0.0258
766.8479	0.0078
767.0223	0.0147
767.1967	0.0008
767.371	0.0054
767.5454	0.0508
767.7197	0.0378
767.894	0.0002
768.0683	0.0144
768.2425	-0.0019
768.4168	0.0045
768.591	0.018
768.7652	-0.0121
768.9394	-0.0253
769.1135	-0.0109
769.2877	0.0238
769.4618	-0.0002
769.6359	0.0233
769.81	0.014
769.984	0.0085
770.1581	-0.0021
770.3321	0.0184
770.5061	0.0092
770.6801	0.0032
770.8541	0.0089
771.028	0.0419
771.202	0.0425
771.3759	0.0092
771.5498	0.0117
771.7236	0.0237
771.8975	0.0227
772.0713	0.0151
772.2451	0.0071
772.4189	0.0181
772.5927	-0.0324
772.7665	-0.0047
772.9402	0.019
773.1139	-0.0186
773.2876	-0.0084
773.4613	-0.0003
773.635	0.0417
773.8086	0.0222
773.9822	0.0033
774.1558	0.0515
774.3294	0.0003
774.503	0.0173
774.6765	0.027
774.8501	0.0079
775.0236	0.0168
775.1971	-0.0094
775.3705	0.017
775.544	-0.0558
775.7174	0.007
775.8908	-0.025
776.0642	0.0241
776.2376	0.036
776.4109	0.0334
776.5843	0.0193
776.7576	0.0004
776.9309	0.073
777.1041	-0.0178
777.2774	-0.0151
777.4506	-0.0038
777.6238	-0.0057
777.797	-0.0004
777.9702	0.015
778.1434	-0.0077
778.3165	-0.0213
778.4896	-0.0362
778.6627	0.0196
778.8358	0.018
779.0089	-0.0254
779.1819	0.0172
779.3549	-0.0049
779.5279	0.0122
779.7009	0.0016
779.8739	0.044
780.0468	-0.0108
780.2197	-0.0102
780.3926	-0.0151
780.5655	0.0263
780.7384	0.0034
780.9112	0.0209
781.0841	0.0369
781.2569	0.0112
781.4297	-0.0002
781.6024	0.0184
781.7752	0.0619
781.9479	0.0299
782.1206	-0.0303
782.2933	-0.002
782.466	0.0187
782.6386	0.0043
782.8113	0.0085
782.9839	-0.0136
783.1565	-0.0074
783.329	0.0198
783.5016	0.0249
783.6741	0.014
783.8466	0.0237
784.0191	-0.0125
784.1916	-0.0144
784.3641	-0.0508
784.5365	-0.0004
784.7089	-0.0333
784.8813	0.0729
785.0537	0.0773
785.2261	0.0101
785.3984	0.0003
785.5707	-0.012
785.743	0.0669
785.9153	0.0004
786.0876	-0.0241
786.2598	-0.007
786.432	-0.0099
786.6042	0.0679
786.7764	-0.0206
786.9486	-0.0133
787.1207	0.0556
787.2928	0.04
787.4649	0.0168
787.637	0.0239
787.8091	0.0293
787.9811	0.0183
788.1532	0.016
788.3252	-0.0185
788.4972	0.0229
788.6691	0.0032
788.8411	0.0156
789.013	0.0105
789.1849	-0.0025
789.3568	-0.0051
789.5287	0.0859
789.7005	-0.0401
789.8723	0.0206
790.0442	0.0315
790.2159	-0.0107
790.3877	0.0328
790.5595	0.0582
790.7312	-0.0123
790.9029	-0.0331
791.0746	-0.0028
791.2463	-0.0265
791.4179	0.0005
791.5896	0.0439
791.7612	0.0381
791.9328	0.0019
792.1044	-0.004
792.2759	0.0119
792.4474	0.0434
792.619	-0.0518
792.7905	0.0449
792.9619	0.0874
793.1334	0.0344
793.3048	0.0192
793.4762	0.0579
793.6476	-0.0468
793.819	0.0194
793.9904	-0.0419
794.1617	-0.0268
794.333	0.0297
794.5043	-0.0048
794.6756	-0.0211
794.8469	-0.007
795.0181	0.0196
795.1893	0.0149
795.3605	0.0089
795.5317	0.0158
795.7029	0.0089
795.874	0.0264
796.0452	-0.0115
796.2163	0.1015
796.3873	0.0958
796.5584	0.0648
796.7294	0.0349
796.9005	-0.0065
797.0715	-0.0086
797.2425	0.0373
797.4134	0.064
797.5844	0.0094
797.7553	-0.0672
797.9262	0.0796
798.0971	0.0751
798.2679	0.0167
798.4388	0.0558
798.6096	-0.058
798.7804	0.0896
798.9512	0.0006
799.122	-0.0006
799.2927	0.055
799.4635	-0.039
799.6342	-0.0457
799.8049	0.0944
799.9755	-0.0024
800.1462	0.0437
800.3168	0.0751
800.4874	-0.0164
800.658	0.0157
800.8286	0.0787
800.9991	0.1032
801.1696	-0.0396
801.3402	-0.007
801.5106	0.0407
801.6811	-0.0079
801.8516	0.0933
802.022	0.0009
802.1924	-0.0426
802.3628	0.1305
802.5332	0.1107
802.7035	0.0565
802.8739	0.0088
803.0442	-0.012
803.2145	0.0091
803.3847	0.0166
803.555	0.0401
803.7252	-0.0183
803.8954	0.0025
804.0656	-0.0185
804.2358	-0.0117
804.4059	0.0768
804.5761	0.0427
804.7462	0.024
804.9163	0.0071
805.0864	-0.0009
805.2564	-0.1075
805.4264	-0.0295
805.5965	0.1219
805.7665	0.0242
805.9364	-0.0205
806.1064	0.0149
806.2763	0.0494
806.4462	0.0005
806.6161	-0.03
806.786	0.0005
806.9559	0.0381
807.1257	0.0224
807.2955	0.0346
807.4653	0.0164
807.6351	0.0105
807.8048	-0.0219
807.9746	0.0383
808.1443	0.0538
808.314	0.0089
808.4837	0.0551
808.6533	-0.0023
808.8229	-0.0007
808.9926	0.0451
809.1622	0.045
809.3317	-0.0242
809.5013	0.0177
809.6708	-0.0464
809.8403	0.1279
810.0098	0.0209
810.1793	0.0522
810.3488	0.0268
810.5182	0.1527
810.6876	0.1636
810.857	0.0528
811.0264	-0.0327
811.1958	0.2298
811.3651	-0.0803
811.5344	0.0602
811.7037	0.16
811.873	0.0817
812.0422	-0.051
812.2115	0.0638
812.3807	-0.0048
812.5499	-0.0165
812.7191	-0.1876
812.8882	0.0176
813.0574	0.1041
813.2265	0.0566
813.3956	0.0159
813.5646	-0.0296
813.7337	0.0443
813.9027	-0.088
814.0718	-0.0049
814.2407	0.0742
814.4097	0.0474
814.5787	0.1173
814.7476	0.0262
814.9165	0.0038
815.0854	-0.0047
815.2543	-0.0127
815.4232	0.1307
815.592	0.0464
815.7608	-0.033
815.9296	-0.1049
816.0984	0.1994
816.2671	-0.1419
816.4359	0.0881
816.6046	0.1994
816.7733	-0.1409
816.942	0.004
817.1106	0.0789
817.2793	-0.0529
817.4479	0.1356
817.6165	0.0525
817.785	0.1805
817.9536	0.0168
818.1221	0.0157
818.2906	0.0553
818.4591	0.0011
818.6276	-0.0203
818.7961	-0.0849
818.9645	0.0918
819.1329	-0.0062
819.3013	-0.0875
819.4697	-0.068
819.638	0.1094
819.8064	0.0928
819.9747	0.1926
820.143	-0.002
820.3113	0.1968
820.4795	0.0444
820.6477	0.1514
820.816	0.0591
820.9842	0.0907
821.1523	0.0226
821.3205	0.0859
821.4886	-0.0709
821.6567	-0.0083
821.8248	0.1402
821.9929	-0.1433
822.1609	0.1036
822.329	0.0976
822.497	0.1395
822.665	-0.0444
822.833	0.1648
823.0009	0.0622
823.1688	0.2396
823.3367	-0.1619
823.5046	0.0628
823.6725	-0.0361
823.8404	0.3651
824.0082	-0.0189
824.176	-0.1598
824.3438	0.207
824.5116	-0.0383
824.6793	0.0414
824.847	-0.0029
825.0147	0.3435
825.1824	0.248
825.3501	0.0025
825.5177	0.0657
825.6854	-0.0452
825.853	0.0698
826.0206	0.0475
826.1881	0.0479
826.3557	-0.0548
826.5232	0.0391
826.6907	0.0701
826.8582	-0.0188
827.0257	0.0691
827.1931	0.1678
827.3605	-0.088
827.528	-0.065
827.6953	0.0025
827.8627	-0.0556
828.03	0.1121
828.1974	0.0153
828.3647	0.0656
828.532	0.0385
828.6992	0.1069
828.8665	-0.2321
829.0337	0.0669
829.2009	-0.0739
829.3681	0.1016
829.5352	-0.191
829.7024	0.0022
829.8695	0.0135
830.0366	0.1234
830.2037	0.0438
830.3707	0.0984
830.5378	0.0315
830.7048	0.0957
830.8718	0.0479
831.0388	-0.1418
831.2057	0.6456
831.3727	-0.3357
831.5396	0.038
831.7065	-0.6652
831.8734	0.5852
832.0402	0.1728
832.2071	-0
832.3739	0.8688
832.5407	-1.558
832.7075	-0.4159
832.8742	0.3738
833.041	0.4837
833.2077	0.8221
833.3744	0.103
833.541	0.1446
833.7077	-0.077
833.8743	0.0655
834.0409	0.0843
834.2075	0.1193
834.3741	-0.0975
834.5407	0.0658
834.7072	0.2027
834.8737	0.0885
835.0402	-0
835.2067	0.4535
835.3731	0.1063
835.5395	0.0131
835.706	0.1965
835.8723	0.0953
836.0387	0.1885
836.2051	0.0655
836.3714	0.1897
836.5377	0.0551
836.704	0.1874
836.8703	-0.2224
837.0365	0.3908
837.2027	0.4342
837.3689	0.2688
837.5351	0.1828
837.7013	0.1909
837.8674	-0.0129
838.0335	-0.0695
838.1997	-0.2109
838.3657	-0
838.5318	-0.4065
838.6978	-0
838.8639	-0.1636
839.0299	0.325
839.1958	0.227
839.3618	0.7289
839.5277	0.2333
839.6937	0.2556
839.8596	-0.0999
840.0254	-0.0042
840.1913	-0.2437
840.3571	2.7185
840.523	-1.0719
840.6888	-0.0383
840.8545	-0.1802
841.0203	0.908
841.186	0.2894
841.3517	-0.1648
841.5174	0.3973
841.6831	0.424
841.8488	0.6678
842.0144	0.4707
842.18	0.3858
842.3456	-0.5911
842.5112	-0
842.6767	0.5251
842.8422	0.1909
843.0077	0.0951
843.1732	0.1648
843.3387	0.8068
843.5042	0.2087
843.6696	0.5485
843.835	-0.2252
844.0004	-0.1707
844.1657	-0
844.3311	-0.0646
844.4964	0.6149
844.6617	0.6584
844.827	0.5866
844.9923	0.3715
845.1575	-0.1636
845.3227	-0.0986
845.4879	-0.1545
845.6531	-0.0556
845.8183	0.2448
845.9834	-0.1733
846.1485	0.1891
846.3136	0.0687
846.4787	-0
846.6438	0.5094
846.8088	-0
846.9738	-0.1891
847.1388	0.1296
847.3038	0.0898
847.4687	-0.0345
847.6337	0.2405
847.7986	0.6352
847.9635	0.051
848.1284	0.4655
848.2932	-0
848.458	-0
848.6228	0.057
848.7876	0.4159
848.9524	0.2254
849.1172	-1.925
849.2819	-0
849.4466	0.1728
849.6113	0.4051
849.7759	0.3705
849.9406	-0.069
850.1052	-1.1998
850.2698	-0.3143
850.4344	-0.0277
850.599	1.1807
850.7635	1.3852
850.928	0.18
851.0925	0.5407
851.257	0.5094
851.4215	1.4507
851.5859	0.025
851.7503	-0
851.9147	-0.4281
852.0791	-0.0043
852.2434	0.0099
852.4078	0.5951
852.5721	-0
852.7364	0.295
852.9007	-0.1802
853.0649	-0
853.2291	0.411
853.3934	-0
853.5575	0.2117
853.7217	0.2455
853.8859	-0
854.05	-0.4089
854.2141	0.2555
854.3782	0.2593
854.5423	-0
854.7063	0.3654
854.8703	0.1573
855.0343	0.0903
855.1983	0.1466
855.3623	0.7543
855.5262	-0
855.6901	-0
855.854	0.3342
856.0179	0.0413
856.1818	0.7416
856.3456	0.1329
856.5094	0.2275
856.6732	0.0233
856.837	0.3774
857.0008	-0.3236
857.1645	-0.2532
857.3282	-0
857.4919	0.5124
857.6556	-0.0577
857.8192	-0.2663
857.9828	0.17
858.1465	0.4815
858.31	-0
858.4736	-0.5611
858.6372	0.2245
858.8007	1.0498
858.9642	0.1701
859.1277	0.7032
859.2911	-0.5323
859.4546	-0
859.618	0.0947
859.7814	-0.1877
859.9448	-0
860.1081	-0.4947
860.2715	-1.4126
860.4348	0.2936
860.5981	0.3424
860.7614	-0
860.9246	0.4094
861.0879	0.0413
861.2511	-0.5286
861.4143	-0.5714
861.5774	0.0273
861.7406	-0
861.9037	-0
862.0668	-0
862.2299	0.1533
862.393	0.3167
862.556	0.2136
862.7191	0.1891
862.8821	0.3123
863.0451	-0.0057
863.208	-0
863.371	-0
863.5339	0.3175
863.6968	0.4299
863.8597	1.1579
864.0225	-0
864.1854	0.5493
864.3482	-0.5461
864.511	-0.2038
864.6737	-0
864.8365	0.2626
864.9992	-0
865.1619	-0.524
865.3246	-1.7938
865.4873	-0.6127
865.65	0.6393
865.8126	-0
865.9752	0.0878
866.1378	0.7626
866.3004	-0
866.4629	-1.2377
866.6254	-0
866.7879	-0
866.9504	-0
867.1129	0.3136
867.2753	-0.2543
867.4377	-0.0222
867.6001	-0.3741
867.7625	-0.0055
867.9249	-0
868.0872	1.4214
868.2495	-0
868.4118	-0
868.5741	-0
868.7363	-0.6099
868.8986	-0.4713
869.0608	-0
869.223	-0.3866
869.3851	-0.3035
869.5473	0.0131
869.7094	-0
869.8715	-0.5624
870.0336	0.1078
870.1957	-0.8072
870.3577	-0
870.5197	-0
870.6817	-0
870.8437	-0
871.0057	-0
871.1676	0.313
871.3295	0.2828
871.4914	-0.6628
871.6533	-0.4154
871.8151	-0
871.977	-0.7216
872.1388	-0
872.3006	-0.0787
872.4623	-0
872.6241	0.7473
872.7858	0.7793
872.9475	0.8757
873.1092	-0
873.2709	0.7786
873.4325	-1.5369
873.5941	-0
873.7557	-0
873.9173	0.5128
874.0789	0.1335
874.2404	-0
874.4019	-0.0739
874.5634	-0
874.7249	-0.0486
874.8863	-0.0583
875.0478	0.0494
875.2092	-0
875.3706	0.1986
875.5319	-0
875.6933	0.3368
875.8546	-0
876.0159	0.0798
876.1772	-0
876.3385	-0
876.4997	-0
876.6609	-0
876.8221	-0
876.9833	-0.3299
877.1445	1.5547
877.3056	0.3774
877.4667	-0.7432
877.6278	-0
877.7889	-0.3751
877.9499	-0
878.111	-0.4705
878.272	-0
878.433	0.5224
878.5939	0.4324
878.7549	-0
878.9158	0.7378
879.0767	-0
879.2376	2.179
879.3984	0.0347
879.5593	0.4035
879.7201	-0
879.8809	0.1375
880.0417	-0.1557
880.2024	0.6328
880.3632	0.2797
880.5239	-0
880.6846	-0
880.8452	-0.3506
881.0059	-0
881.1665	0.4221
881.3271	0.2067
881.4877	0.1033
881.6483	-1.2788
881.8088	-0.7905
881.9693	-1.1256
882.1298	-1.1256
882.2903	-1.1256
