Data from D4ACN5uM460nmA_Absorbance_13-05-42-534.txt Node
Date: Fri Feb 21 13:05:42 GMT 2025
User: LASERRRRR
Spectrometer: FLMT03099
Trigger mode: 0
Integration Time (sec): 1.500000E-2
Scans to average: 1
Electric dark correction enabled: true
Nonlinearity correction enabled: false
Boxcar width: 0
XAxis mode: Wavelengths
Number of Pixels in Spectrum: 3648
>>>>>Begin Spectral Data<<<<<
179.3399	-0.3673
179.5586	-0.3673
179.7771	-0.3673
179.9957	-0.1343
180.2143	-1.8214
180.4329	-0
180.6514	-1.0884
180.8699	0.5299
181.0885	-0
181.307	0.2851
181.5255	0.0444
181.744	-0.4783
181.9625	0.5048
182.181	-0.1713
182.3994	-0
182.6179	-0
182.8363	-0
183.0547	-0.132
183.2732	0.0768
183.4916	0.3115
183.71	0.1836
183.9284	0.1586
184.1467	0.1251
184.3651	-0.0088
184.5835	0.3016
184.8018	0.1352
185.0201	0.116
185.2385	0.1469
185.4568	0.198
185.6751	0.1652
185.8934	0.0827
186.1117	0.2383
186.3299	0.2303
186.5482	0.0749
186.7664	0.1914
186.9847	0.1159
187.2029	0.4018
187.4211	0.0182
187.6393	0.1198
187.8575	0.1288
188.0757	0.6203
188.2939	0.1612
188.512	0.2546
188.7302	-0.0204
188.9483	0.4797
189.1665	0.5522
189.3846	0.1208
189.6027	0.1197
189.8208	0.3046
190.0389	0.1962
190.257	-0.0098
190.475	0.1037
190.6931	0.1048
190.9111	0.0255
191.1292	0.0559
191.3472	0.0443
191.5652	0.19
191.7832	0.1332
192.0012	0.1317
192.2192	0.1089
192.4371	0.1439
192.6551	0.1501
192.873	0.143
193.091	0.1901
193.3089	0.3049
193.5268	0.2543
193.7447	0.0804
193.9626	0.169
194.1805	0.2334
194.3984	0.2535
194.6162	0.2018
194.8341	0.3218
195.0519	0.2238
195.2697	0.2735
195.4875	0.3389
195.7054	0.2295
195.9231	0.2144
196.1409	0.3462
196.3587	0.3467
196.5765	0.3288
196.7942	0.2486
197.012	0.3136
197.2297	0.3085
197.4474	0.3433
197.6651	0.286
197.8828	0.3019
198.1005	0.3654
198.3182	0.366
198.5358	0.3744
198.7535	0.3623
198.9711	0.3274
199.1888	0.3663
199.4064	0.3745
199.624	0.3469
199.8416	0.3939
200.0592	0.3602
200.2767	0.3343
200.4943	0.4309
200.7119	0.3853
200.9294	0.4047
201.1469	0.4051
201.3645	0.4056
201.582	0.4001
201.7995	0.4124
202.017	0.406
202.2344	0.4279
202.4519	0.4289
202.6694	0.4318
202.8868	0.4019
203.1042	0.454
203.3217	0.4001
203.5391	0.3594
203.7565	0.3651
203.9739	0.3474
204.1913	0.3656
204.4086	0.3623
204.626	0.4066
204.8433	0.377
205.0607	0.3478
205.278	0.3486
205.4953	0.3458
205.7126	0.3382
205.9299	0.3349
206.1472	0.3383
206.3644	0.3094
206.5817	0.3068
206.7989	0.3381
207.0162	0.3237
207.2334	0.3215
207.4506	0.2846
207.6678	0.31
207.885	0.3109
208.1022	0.3341
208.3194	0.3081
208.5365	0.307
208.7537	0.2982
208.9708	0.2838
209.1879	0.3109
209.405	0.2805
209.6222	0.2573
209.8392	0.3
210.0563	0.2689
210.2734	0.2687
210.4905	0.2906
210.7075	0.2907
210.9245	0.2655
211.1416	0.2792
211.3586	0.2727
211.5756	0.2656
211.7926	0.2808
212.0096	0.2767
212.2265	0.262
212.4435	0.2626
212.6604	0.228
212.8774	0.2393
213.0943	0.2572
213.3112	0.2645
213.5281	0.268
213.745	0.2535
213.9619	0.2505
214.1788	0.2592
214.3956	0.2555
214.6125	0.2608
214.8293	0.2515
215.0461	0.2514
215.2629	0.2352
215.4798	0.255
215.6965	0.2448
215.9133	0.2437
216.1301	0.2369
216.3469	0.2436
216.5636	0.2582
216.7803	0.2491
216.9971	0.27
217.2138	0.2452
217.4305	0.2544
217.6472	0.2519
217.8639	0.2524
218.0805	0.2597
218.2972	0.2477
218.5138	0.2572
218.7305	0.263
218.9471	0.2514
219.1637	0.274
219.3803	0.2596
219.5969	0.2518
219.8135	0.2649
220.0301	0.2565
220.2466	0.25
220.4632	0.2487
220.6797	0.2519
220.8962	0.2517
221.1127	0.2788
221.3292	0.2726
221.5457	0.267
221.7622	0.2665
221.9787	0.2934
222.1951	0.2844
222.4116	0.2715
222.628	0.2732
222.8444	0.2818
223.0608	0.2764
223.2772	0.2715
223.4936	0.2824
223.71	0.2889
223.9264	0.2898
224.1427	0.2861
224.3591	0.2817
224.5754	0.3012
224.7917	0.288
225.008	0.2981
225.2243	0.3057
225.4406	0.2974
225.6569	0.3126
225.8732	0.3032
226.0894	0.3143
226.3057	0.3099
226.5219	0.3221
226.7381	0.318
226.9543	0.3086
227.1705	0.3314
227.3867	0.3177
227.6029	0.3231
227.8191	0.3297
228.0352	0.3499
228.2513	0.3395
228.4675	0.3444
228.6836	0.3439
228.8997	0.3442
229.1158	0.3547
229.3319	0.3604
229.548	0.3545
229.764	0.3583
229.9801	0.3779
230.1961	0.3668
230.4121	0.377
230.6282	0.3838
230.8442	0.3784
231.0602	0.3794
231.2761	0.38
231.4921	0.3961
231.7081	0.3937
231.924	0.3996
232.14	0.4083
232.3559	0.4061
232.5718	0.4137
232.7877	0.4077
233.0036	0.4098
233.2195	0.4168
233.4353	0.4208
233.6512	0.4187
233.867	0.4134
234.0829	0.4348
234.2987	0.423
234.5145	0.431
234.7303	0.4394
234.9461	0.435
235.1619	0.4453
235.3776	0.44
235.5934	0.4264
235.8091	0.436
236.0249	0.4357
236.2406	0.4378
236.4563	0.4454
236.672	0.4352
236.8877	0.4528
237.1034	0.4391
237.319	0.4527
237.5347	0.4478
237.7503	0.4472
237.966	0.469
238.1816	0.4509
238.3972	0.4516
238.6128	0.4587
238.8284	0.4619
239.0439	0.4564
239.2595	0.4582
239.475	0.461
239.6906	0.4517
239.9061	0.4606
240.1216	0.4557
240.3371	0.4534
240.5526	0.4618
240.7681	0.4559
240.9836	0.4566
241.199	0.448
241.4145	0.4471
241.6299	0.4401
241.8453	0.4414
242.0607	0.4349
242.2761	0.4309
242.4915	0.4216
242.7069	0.4124
242.9223	0.4154
243.1376	0.4101
243.353	0.4023
243.5683	0.3918
243.7836	0.3879
243.9989	0.3758
244.2142	0.3708
244.4295	0.3609
244.6448	0.3548
244.86	0.3565
245.0753	0.3436
245.2905	0.3338
245.5057	0.3244
245.721	0.3305
245.9362	0.3182
246.1514	0.3152
246.3665	0.3052
246.5817	0.2978
246.7969	0.2904
247.012	0.2947
247.2271	0.2945
247.4423	0.2869
247.6574	0.2774
247.8725	0.2683
248.0876	0.2663
248.3026	0.261
248.5177	0.2621
248.7328	0.2498
248.9478	0.2484
249.1628	0.2492
249.3779	0.2353
249.5929	0.2388
249.8079	0.2321
250.0228	0.2244
250.2378	0.225
250.4528	0.2262
250.6677	0.2197
250.8827	0.2171
251.0976	0.2112
251.3125	0.2138
251.5274	0.2113
251.7423	0.2099
251.9572	0.2067
252.172	0.2096
252.3869	0.1995
252.6017	0.1991
252.8166	0.2009
253.0314	0.1939
253.2462	0.1971
253.461	0.1929
253.6758	0.1949
253.8906	0.1897
254.1053	0.1903
254.3201	0.1919
254.5348	0.1798
254.7496	0.1779
254.9643	0.1847
255.179	0.1841
255.3937	0.1873
255.6083	0.1888
255.823	0.1828
256.0377	0.182
256.2523	0.1831
256.467	0.183
256.6816	0.1801
256.8962	0.1785
257.1108	0.182
257.3254	0.1771
257.54	0.1792
257.7545	0.1816
257.9691	0.182
258.1836	0.1732
258.3981	0.1793
258.6127	0.179
258.8272	0.1775
259.0417	0.1728
259.2561	0.1759
259.4706	0.1712
259.6851	0.1724
259.8995	0.1744
260.114	0.1749
260.3284	0.169
260.5428	0.1781
260.7572	0.174
260.9716	0.1832
261.186	0.1777
261.4003	0.169
261.6147	0.1709
261.829	0.1754
262.0433	0.1764
262.2577	0.1746
262.472	0.1743
262.6863	0.1813
262.9005	0.1743
263.1148	0.1753
263.3291	0.1704
263.5433	0.1788
263.7576	0.179
263.9718	0.1771
264.186	0.1792
264.4002	0.1797
264.6144	0.1805
264.8286	0.1778
265.0427	0.1798
265.2569	0.1802
265.471	0.1741
265.6851	0.1757
265.8993	0.1772
266.1134	0.1765
266.3275	0.1757
266.5415	0.1785
266.7556	0.1779
266.9697	0.1745
267.1837	0.178
267.3978	0.1784
267.6118	0.1701
267.8258	0.1782
268.0398	0.1767
268.2538	0.1794
268.4677	0.1743
268.6817	0.1757
268.8957	0.1641
269.1096	0.1635
269.3235	0.1691
269.5374	0.1744
269.7514	0.1692
269.9652	0.1673
270.1791	0.1725
270.393	0.1707
270.6068	0.1743
270.8207	0.1639
271.0345	0.1677
271.2483	0.1671
271.4622	0.1708
271.676	0.1692
271.8897	0.1624
272.1035	0.1727
272.3173	0.1685
272.531	0.1663
272.7448	0.1643
272.9585	0.161
273.1722	0.1638
273.3859	0.166
273.5996	0.1709
273.8133	0.1712
274.0269	0.1678
274.2406	0.166
274.4542	0.1683
274.6679	0.1673
274.8815	0.1722
275.0951	0.1703
275.3087	0.1719
275.5223	0.1698
275.7358	0.1755
275.9494	0.169
276.1629	0.1755
276.3765	0.1696
276.59	0.1732
276.8035	0.1677
277.017	0.1786
277.2305	0.1722
277.444	0.1748
277.6574	0.174
277.8709	0.1779
278.0843	0.1732
278.2978	0.1753
278.5112	0.1759
278.7246	0.174
278.938	0.1718
279.1513	0.1738
279.3647	0.1804
279.5781	0.1704
279.7914	0.1733
280.0047	0.1765
280.2181	0.1734
280.4314	0.1771
280.6447	0.1823
280.8579	0.1716
281.0712	0.1795
281.2845	0.1797
281.4977	0.18
281.711	0.1746
281.9242	0.1727
282.1374	0.1781
282.3506	0.1775
282.5638	0.1746
282.7769	0.175
282.9901	0.1829
283.2033	0.1768
283.4164	0.1795
283.6295	0.1796
283.8426	0.1786
284.0557	0.183
284.2688	0.1814
284.4819	0.1774
284.695	0.1851
284.908	0.185
285.1211	0.1818
285.3341	0.1774
285.5471	0.1874
285.7601	0.1808
285.9731	0.1876
286.1861	0.185
286.3991	0.1878
286.612	0.1887
286.825	0.1897
287.0379	0.1849
287.2508	0.1886
287.4637	0.1883
287.6766	0.1845
287.8895	0.1831
288.1024	0.1912
288.3152	0.1917
288.5281	0.1864
288.7409	0.1912
288.9538	0.1858
289.1666	0.187
289.3794	0.1861
289.5922	0.1819
289.8049	0.1899
290.0177	0.188
290.2304	0.1911
290.4432	0.1908
290.6559	0.1907
290.8686	0.1944
291.0813	0.1909
291.294	0.1972
291.5067	0.1869
291.7194	0.1968
291.932	0.1878
292.1447	0.1905
292.3573	0.1955
292.5699	0.1919
292.7825	0.1894
292.9951	0.1929
293.2077	0.191
293.4203	0.1905
293.6328	0.1874
293.8454	0.1934
294.0579	0.1897
294.2704	0.2021
294.4829	0.1916
294.6954	0.1922
294.9079	0.1896
295.1204	0.1887
295.3328	0.1954
295.5453	0.1961
295.7577	0.1922
295.9701	0.195
296.1825	0.1964
296.3949	0.1894
296.6073	0.1867
296.8197	0.1915
297.0321	0.202
297.2444	0.187
297.4567	0.1931
297.6691	0.1898
297.8814	0.1947
298.0937	0.1911
298.306	0.1883
298.5182	0.1958
298.7305	0.1962
298.9428	0.1938
299.155	0.1893
299.3672	0.1949
299.5794	0.1886
299.7916	0.1987
300.0038	0.1907
300.216	0.1909
300.4282	0.191
300.6403	0.1957
300.8525	0.1876
301.0646	0.1958
301.2767	0.1907
301.4888	0.1941
301.7009	0.196
301.913	0.1919
302.125	0.1879
302.3371	0.1883
302.5491	0.1908
302.7612	0.201
302.9732	0.1931
303.1852	0.1931
303.3972	0.1889
303.6092	0.1888
303.8211	0.1832
304.0331	0.1889
304.245	0.19
304.457	0.1912
304.6689	0.186
304.8808	0.1839
305.0927	0.1879
305.3046	0.185
305.5164	0.1795
305.7283	0.183
305.9401	0.1775
306.152	0.1779
306.3638	0.1792
306.5756	0.1833
306.7874	0.1744
306.9992	0.1718
307.2109	0.179
307.4227	0.1712
307.6344	0.1739
307.8462	0.1673
308.0579	0.1688
308.2696	0.1661
308.4813	0.1632
308.693	0.1575
308.9046	0.1645
309.1163	0.1572
309.328	0.1577
309.5396	0.1523
309.7512	0.1514
309.9628	0.1538
310.1744	0.1492
310.386	0.1463
310.5976	0.142
310.8091	0.1539
311.0207	0.1417
311.2322	0.1412
311.4437	0.1401
311.6552	0.1404
311.8667	0.1435
312.0782	0.1348
312.2897	0.1458
312.5012	0.136
312.7126	0.126
312.924	0.1354
313.1355	0.1326
313.3469	0.1312
313.5583	0.1334
313.7696	0.1237
313.981	0.135
314.1924	0.1245
314.4037	0.1278
314.6151	0.1255
314.8264	0.127
315.0377	0.1299
315.249	0.125
315.4603	0.1291
315.6716	0.1266
315.8828	0.1311
316.0941	0.1238
316.3053	0.1228
316.5165	0.1269
316.7277	0.1232
316.9389	0.1207
317.1501	0.1254
317.3613	0.1193
317.5724	0.1216
317.7836	0.1112
317.9947	0.1216
318.2058	0.1222
318.417	0.1259
318.6281	0.1166
318.8391	0.1231
319.0502	0.1162
319.2613	0.1199
319.4723	0.1145
319.6834	0.1205
319.8944	0.1162
320.1054	0.1204
320.3164	0.1148
320.5274	0.1143
320.7383	0.1216
320.9493	0.123
321.1602	0.1219
321.3712	0.1193
321.5821	0.1164
321.793	0.1238
322.0039	0.1232
322.2148	0.1216
322.4257	0.1189
322.6365	0.117
322.8474	0.1227
323.0582	0.1224
323.269	0.1209
323.4798	0.1219
323.6906	0.1183
323.9014	0.1164
324.1122	0.1165
324.3229	0.1228
324.5337	0.123
324.7444	0.1195
324.9551	0.1215
325.1658	0.1234
325.3765	0.122
325.5872	0.1292
325.7979	0.1253
326.0085	0.119
326.2192	0.117
326.4298	0.1231
326.6404	0.1225
326.851	0.1247
327.0616	0.1212
327.2722	0.1258
327.4828	0.1266
327.6933	0.1322
327.9039	0.128
328.1144	0.1201
328.3249	0.1257
328.5354	0.1262
328.7459	0.1271
328.9564	0.1211
329.1669	0.1314
329.3773	0.1315
329.5878	0.1273
329.7982	0.1265
330.0086	0.1271
330.219	0.1328
330.4294	0.1291
330.6398	0.1266
330.8502	0.1303
331.0605	0.1287
331.2708	0.1303
331.4812	0.1251
331.6915	0.1294
331.9018	0.1297
332.1121	0.1343
332.3224	0.1301
332.5326	0.1256
332.7429	0.1265
332.9531	0.1302
333.1633	0.1237
333.3735	0.1335
333.5837	0.1323
333.7939	0.1334
334.0041	0.1364
334.2143	0.1328
334.4244	0.1384
334.6346	0.1324
334.8447	0.1326
335.0548	0.133
335.2649	0.1339
335.475	0.1326
335.685	0.1319
335.8951	0.1356
336.1051	0.1338
336.3152	0.1334
336.5252	0.13
336.7352	0.1344
336.9452	0.1385
337.1552	0.1346
337.3652	0.1291
337.5751	0.1324
337.7851	0.1363
337.995	0.1356
338.2049	0.1343
338.4148	0.1397
338.6247	0.1343
338.8346	0.1406
339.0445	0.1389
339.2543	0.1357
339.4642	0.141
339.674	0.1306
339.8838	0.1426
340.0936	0.1324
340.3034	0.1404
340.5132	0.1348
340.7229	0.1354
340.9327	0.1507
341.1424	0.1424
341.3522	0.1335
341.5619	0.1463
341.7716	0.1433
341.9813	0.1466
342.1909	0.1475
342.4006	0.1468
342.6102	0.1454
342.8199	0.1488
343.0295	0.1411
343.2391	0.1504
343.4487	0.1482
343.6583	0.1549
343.8679	0.1479
344.0774	0.1442
344.287	0.1483
344.4965	0.1481
344.706	0.1493
344.9155	0.152
345.125	0.1481
345.3345	0.1606
345.544	0.1517
345.7534	0.1589
345.9629	0.1531
346.1723	0.1641
346.3817	0.1547
346.5911	0.1649
346.8005	0.1593
347.0099	0.1582
347.2193	0.1563
347.4286	0.1627
347.638	0.168
347.8473	0.1624
348.0566	0.1593
348.2659	0.1613
348.4752	0.1646
348.6845	0.1624
348.8937	0.1671
349.103	0.1677
349.3122	0.1613
349.5214	0.1642
349.7306	0.1722
349.9398	0.1694
350.149	0.1638
350.3582	0.1725
350.5674	0.1699
350.7765	0.1724
350.9856	0.1689
351.1948	0.1743
351.4039	0.1685
351.613	0.1735
351.822	0.1804
352.0311	0.1723
352.2402	0.1786
352.4492	0.1669
352.6582	0.1758
352.8672	0.182
353.0762	0.1775
353.2852	0.1765
353.4942	0.1775
353.7032	0.1732
353.9121	0.1799
354.1211	0.1802
354.33	0.1846
354.5389	0.1812
354.7478	0.181
354.9567	0.1835
355.1655	0.1823
355.3744	0.1858
355.5833	0.1857
355.7921	0.1924
356.0009	0.1914
356.2097	0.1786
356.4185	0.1828
356.6273	0.1853
356.8361	0.1868
357.0448	0.1902
357.2536	0.1862
357.4623	0.1889
357.671	0.1913
357.8797	0.1929
358.0884	0.1906
358.2971	0.1889
358.5057	0.1963
358.7144	0.1981
358.923	0.1923
359.1316	0.1964
359.3402	0.196
359.5488	0.193
359.7574	0.2026
359.966	0.1988
360.1746	0.2001
360.3831	0.211
360.5916	0.2013
360.8002	0.2048
361.0087	0.2065
361.2172	0.2072
361.4256	0.206
361.6341	0.2125
361.8426	0.2119
362.051	0.2056
362.2594	0.2168
362.4678	0.2071
362.6762	0.213
362.8846	0.2121
363.093	0.218
363.3014	0.2211
363.5097	0.224
363.718	0.221
363.9264	0.2231
364.1347	0.2172
364.343	0.2237
364.5513	0.2123
364.7595	0.231
364.9678	0.2231
365.176	0.2275
365.3842	0.2305
365.5925	0.2308
365.8007	0.2316
366.0089	0.2381
366.217	0.2339
366.4252	0.2355
366.6333	0.2382
366.8415	0.2438
367.0496	0.2409
367.2577	0.2349
367.4658	0.2431
367.6739	0.2357
367.882	0.2398
368.09	0.2355
368.2981	0.2464
368.5061	0.2426
368.7141	0.2415
368.9221	0.2526
369.1301	0.2491
369.3381	0.2602
369.5461	0.2444
369.754	0.2528
369.962	0.2412
370.1699	0.2543
370.3778	0.2589
370.5857	0.2555
370.7936	0.2461
371.0015	0.2609
371.2093	0.254
371.4172	0.2539
371.625	0.2503
371.8328	0.2486
372.0406	0.2643
372.2484	0.2541
372.4562	0.2597
372.664	0.2619
372.8717	0.2658
373.0795	0.2715
373.2872	0.2712
373.4949	0.2752
373.7026	0.2529
373.9103	0.2602
374.118	0.2681
374.3256	0.2667
374.5333	0.2664
374.7409	0.2735
374.9485	0.2753
375.1561	0.2748
375.3637	0.2714
375.5713	0.2761
375.7789	0.2732
375.9864	0.2704
376.194	0.2774
376.4015	0.2745
376.609	0.2778
376.8165	0.2829
377.024	0.2787
377.2315	0.2765
377.4389	0.2735
377.6464	0.2897
377.8538	0.2808
378.0612	0.2825
378.2686	0.2887
378.476	0.2888
378.6834	0.2779
378.8908	0.2893
379.0981	0.2899
379.3055	0.2957
379.5128	0.2819
379.7201	0.2906
379.9274	0.29
380.1347	0.2905
380.342	0.2928
380.5492	0.2899
380.7565	0.2953
380.9637	0.2918
381.1709	0.2985
381.3781	0.3043
381.5853	0.3034
381.7925	0.2936
381.9997	0.2999
382.2068	0.3079
382.4139	0.2954
382.6211	0.3012
382.8282	0.3078
383.0353	0.3021
383.2424	0.2915
383.4494	0.2999
383.6565	0.3026
383.8635	0.2999
384.0706	0.3088
384.2776	0.306
384.4846	0.3116
384.6916	0.3027
384.8986	0.3079
385.1055	0.3137
385.3125	0.3113
385.5194	0.3052
385.7263	0.3091
385.9333	0.3106
386.1402	0.3098
386.347	0.2946
386.5539	0.3068
386.7608	0.2973
386.9676	0.3009
387.1744	0.2996
387.3813	0.3099
387.5881	0.3009
387.7948	0.3121
388.0016	0.3151
388.2084	0.3051
388.4151	0.2992
388.6219	0.3001
388.8286	0.3064
389.0353	0.2975
389.242	0.3072
389.4487	0.3077
389.6553	0.2975
389.862	0.2962
390.0686	0.3115
390.2753	0.3038
390.4819	0.3061
390.6885	0.2993
390.8951	0.3054
391.1016	0.2931
391.3082	0.2955
391.5147	0.2908
391.7213	0.2938
391.9278	0.2923
392.1343	0.2975
392.3408	0.2854
392.5473	0.2886
392.7537	0.2897
392.9602	0.2831
393.1666	0.287
393.373	0.2785
393.5794	0.281
393.7858	0.2849
393.9922	0.2802
394.1986	0.2892
394.4049	0.2782
394.6113	0.2822
394.8176	0.2717
395.0239	0.274
395.2302	0.2769
395.4365	0.2784
395.6428	0.2764
395.8491	0.2757
396.0553	0.2594
396.2615	0.2657
396.4678	0.2814
396.674	0.2671
396.8802	0.2726
397.0863	0.2616
397.2925	0.268
397.4987	0.2557
397.7048	0.2674
397.9109	0.2651
398.117	0.258
398.3231	0.263
398.5292	0.2507
398.7353	0.2584
398.9413	0.2646
399.1474	0.2665
399.3534	0.2584
399.5594	0.2653
399.7654	0.2524
399.9714	0.2602
400.1774	0.2652
400.3833	0.2577
400.5893	0.2667
400.7952	0.2671
401.0011	0.2579
401.207	0.2654
401.4129	0.2719
401.6188	0.2523
401.8247	0.2714
402.0305	0.2548
402.2364	0.2657
402.4422	0.2656
402.648	0.2554
402.8538	0.2554
403.0596	0.2577
403.2654	0.2593
403.4711	0.2511
403.6768	0.2561
403.8826	0.2657
404.0883	0.2554
404.294	0.2575
404.4997	0.2689
404.7054	0.2622
404.911	0.2637
405.1167	0.2636
405.3223	0.2569
405.5279	0.2584
405.7335	0.2575
405.9391	0.2597
406.1447	0.2781
406.3502	0.266
406.5558	0.258
406.7613	0.2595
406.9668	0.265
407.1724	0.2498
407.3778	0.2575
407.5833	0.2519
407.7888	0.2615
407.9942	0.259
408.1997	0.2594
408.4051	0.2627
408.6105	0.2588
408.8159	0.2542
409.0213	0.2634
409.2267	0.263
409.432	0.2529
409.6374	0.2571
409.8427	0.2709
410.048	0.2623
410.2533	0.256
410.4586	0.2524
410.6639	0.2685
410.8691	0.2485
411.0744	0.2504
411.2796	0.2612
411.4848	0.2687
411.69	0.2479
411.8952	0.2559
412.1004	0.2584
412.3056	0.2517
412.5107	0.2573
412.7158	0.2694
412.921	0.2472
413.1261	0.2561
413.3312	0.2639
413.5362	0.2655
413.7413	0.2646
413.9464	0.2508
414.1514	0.2579
414.3564	0.2524
414.5614	0.2583
414.7664	0.2544
414.9714	0.2547
415.1764	0.2564
415.3813	0.255
415.5863	0.2641
415.7912	0.2466
415.9961	0.2648
416.201	0.2636
416.4059	0.2466
416.6108	0.2572
416.8156	0.2471
417.0205	0.2451
417.2253	0.2534
417.4301	0.2587
417.6349	0.251
417.8397	0.2505
418.0445	0.2506
418.2492	0.243
418.454	0.247
418.6587	0.246
418.8634	0.2482
419.0681	0.2446
419.2728	0.2476
419.4775	0.2552
419.6822	0.239
419.8868	0.2488
420.0915	0.2365
420.2961	0.2261
420.5007	0.2553
420.7053	0.2354
420.9099	0.239
421.1144	0.2331
421.319	0.2372
421.5235	0.231
421.728	0.2395
421.9325	0.235
422.137	0.2305
422.3415	0.2383
422.546	0.226
422.7504	0.2311
422.9549	0.2304
423.1593	0.2239
423.3637	0.2245
423.5681	0.2317
423.7725	0.2309
423.9769	0.2345
424.1812	0.2203
424.3856	0.2262
424.5899	0.2181
424.7942	0.2176
424.9985	0.2153
425.2028	0.2284
425.4071	0.2323
425.6113	0.2316
425.8156	0.2179
426.0198	0.2246
426.224	0.2193
426.4282	0.2086
426.6324	0.2197
426.8366	0.22
427.0407	0.2078
427.2449	0.2117
427.449	0.2081
427.6531	0.2131
427.8572	0.2142
428.0613	0.218
428.2654	0.2103
428.4694	0.1919
428.6735	0.1973
428.8775	0.2042
429.0815	0.2051
429.2855	0.1971
429.4895	0.2052
429.6935	0.2
429.8975	0.183
430.1014	0.1986
430.3053	0.1957
430.5093	0.1891
430.7132	0.1935
430.9171	0.1935
431.1209	0.1936
431.3248	0.1722
431.5286	0.1844
431.7325	0.1865
431.9363	0.1785
432.1401	0.1812
432.3439	0.1804
432.5477	0.1704
432.7514	0.1708
432.9552	0.1764
433.1589	0.1584
433.3627	0.1771
433.5664	0.1636
433.7701	0.1695
433.9737	0.1704
434.1774	0.1652
434.3811	0.1519
434.5847	0.1588
434.7883	0.1573
434.9919	0.1639
435.1955	0.1566
435.3991	0.1511
435.6027	0.1471
435.8062	0.1643
436.0098	0.1371
436.2133	0.141
436.4168	0.1471
436.6203	0.1393
436.8238	0.1413
437.0272	0.1417
437.2307	0.1313
437.4341	0.1295
437.6375	0.1359
437.841	0.1205
438.0443	0.1382
438.2477	0.1177
438.4511	0.1294
438.6545	0.1283
438.8578	0.1165
439.0611	0.1259
439.2644	0.1263
439.4677	0.116
439.671	0.1087
439.8743	0.1177
440.0775	0.1037
440.2808	0.1066
440.484	0.1012
440.6872	0.1136
440.8904	0.1073
441.0936	0.1095
441.2967	0.0925
441.4999	0.1
441.703	0.1018
441.9062	0.1016
442.1093	0.1049
442.3124	0.0982
442.5155	0.0999
442.7185	0.0907
442.9216	0.0889
443.1246	0.0842
443.3276	0.0873
443.5307	0.0768
443.7337	0.0855
443.9366	0.0791
444.1396	0.0794
444.3426	0.0828
444.5455	0.0765
444.7484	0.0774
444.9513	0.0715
445.1542	0.078
445.3571	0.0782
445.56	0.0747
445.7628	0.0718
445.9657	0.0722
446.1685	0.0675
446.3713	0.0747
446.5741	0.0664
446.7769	0.0696
446.9797	0.0653
447.1824	0.0649
447.3852	0.0477
447.5879	0.0586
447.7906	0.0586
447.9933	0.0608
448.196	0.0566
448.3986	0.0579
448.6013	0.0393
448.8039	0.0626
449.0066	0.0688
449.2092	0.0599
449.4118	0.0429
449.6143	0.0566
449.8169	0.0508
450.0195	0.0508
450.222	0.0515
450.4245	0.0543
450.627	0.0448
450.8295	0.0453
451.032	0.0439
451.2345	0.045
451.4369	0.0452
451.6394	0.0462
451.8418	0.0411
452.0442	0.0366
452.2466	0.0335
452.449	0.0382
452.6513	0.0349
452.8537	0.0358
453.056	0.0363
453.2583	0.0304
453.4607	0.0301
453.663	0.0331
453.8652	0.0293
454.0675	0.0325
454.2697	0.0356
454.472	0.0378
454.6742	0.0428
454.8764	0.0322
455.0786	0.0295
455.2808	0.0228
455.4829	0.0289
455.6851	0.026
455.8872	0.0222
456.0893	0.0362
456.2915	0.0246
456.4935	0.0375
456.6956	0.0351
456.8977	0.02
457.0997	0.0254
457.3018	0.0166
457.5038	0.0301
457.7058	0.0307
457.9078	0.027
458.1098	0.0273
458.3117	0.0324
458.5137	0.0105
458.7156	0.0263
458.9175	0.0242
459.1194	0.0147
459.3213	0.018
459.5232	0.0201
459.725	0.0195
459.9269	0.0185
460.1287	0.0199
460.3305	0.0195
460.5323	0.0186
460.7341	0.0205
460.9359	0.0026
461.1376	0.0167
461.3394	0.0187
461.5411	0.0191
461.7428	0.0203
461.9445	0.0096
462.1462	0.0139
462.3479	0.0157
462.5495	0.02
462.7512	0.0237
462.9528	0.0119
463.1544	0.0116
463.356	0.0133
463.5576	0.0186
463.7592	0.0104
463.9607	0.0143
464.1623	0.0074
464.3638	0.004
464.5653	0.0126
464.7668	0.0198
464.9683	0.0133
465.1697	0.0167
465.3712	0.0062
465.5726	0.0024
465.7741	0.0147
465.9755	0.0071
466.1769	0.0074
466.3782	0.0075
466.5796	0.0166
466.7809	0.015
466.9823	0.0099
467.1836	0.0049
467.3849	0.0057
467.5862	-0.003
467.7875	0.0076
467.9887	0.0092
468.19	0.0112
468.3912	0.0103
468.5924	0.0089
468.7936	0.0044
468.9948	0.0071
469.196	0.0029
469.3972	0.003
469.5983	0.0023
469.7994	0.0015
470.0006	0.0083
470.2017	0.0047
470.4027	0.0197
470.6038	0.0021
470.8049	0.0027
471.0059	0.0086
471.2069	0.0138
471.408	0.011
471.6089	0.0096
471.8099	0.0103
472.0109	0.0123
472.2119	0.0085
472.4128	0.0077
472.6137	0.0053
472.8146	0.0076
473.0155	0.0114
473.2164	0.0118
473.4173	0.0076
473.6181	-0.0006
473.819	0.0073
474.0198	0.0023
474.2206	-0.0008
474.4214	0.0102
474.6222	-0.0018
474.8229	-0.0001
475.0237	0.0147
475.2244	0.0122
475.4251	0.0024
475.6258	-0.0009
475.8265	0.0102
476.0272	0.0043
476.2278	0.0066
476.4285	0.0082
476.6291	0.0041
476.8297	0.0094
477.0303	-0.0063
477.2309	-0.0028
477.4315	0.0042
477.632	-0.012
477.8326	0.0053
478.0331	0.0081
478.2336	-0.0049
478.4341	0.0064
478.6346	0.0063
478.8351	0.0004
479.0355	0.0096
479.236	0.0099
479.4364	0.0108
479.6368	0.0011
479.8372	0.009
480.0376	0.006
480.2379	0.0069
480.4383	0.0082
480.6386	-0.0036
480.8389	0.0068
481.0392	0.0035
481.2395	0.0078
481.4398	0.0003
481.6401	0.0078
481.8403	0.0033
482.0405	0.0084
482.2408	0.0013
482.441	0.0147
482.6411	0.002
482.8413	-0.0023
483.0415	0.0055
483.2416	0.0019
483.4417	0.0025
483.6419	-0.0077
483.8419	0.0104
484.042	0.0033
484.2421	0.0057
484.4422	0.0011
484.6422	-0.0018
484.8422	0.0114
485.0422	0.0044
485.2422	0.0004
485.4422	-0.0013
485.6422	0.0014
485.8421	0.0036
486.042	0.0081
486.242	0.0032
486.4419	0.0027
486.6417	0.0015
486.8416	0.0069
487.0415	0.0031
487.2413	-0.0101
487.4411	0.0033
487.641	0.0007
487.8408	0.0058
488.0405	0.0105
488.2403	0.0044
488.4401	0.0005
488.6398	0.0053
488.8395	0.0065
489.0392	0.0064
489.2389	0.0031
489.4386	-0.0006
489.6383	0.0018
489.8379	-0.0008
490.0376	0.0007
490.2372	-0.0005
490.4368	-0.0005
490.6364	-0.0048
490.836	0.0055
491.0355	-0.0049
491.2351	0.0002
491.4346	0.0031
491.6341	-0.0063
491.8336	0.0071
492.0331	0.0072
492.2326	0.0083
492.432	0.0087
492.6315	0.0087
492.8309	0.0053
493.0303	0.0032
493.2297	0.0053
493.4291	-0.0028
493.6284	0.003
493.8278	-0.0024
494.0271	0.0036
494.2264	-0.0106
494.4257	0.0102
494.625	0.0025
494.8243	0.0027
495.0236	0.0069
495.2228	0.0068
495.422	0.0066
495.6213	0.0028
495.8205	0.0059
496.0196	0.0003
496.2188	0.0085
496.418	-0.0016
496.6171	0.0027
496.8162	0.0043
497.0153	0.008
497.2144	0.0084
497.4135	0.0077
497.6126	0.0074
497.8116	-0.0009
498.0107	0.0015
498.2097	-0.0022
498.4087	-0.0002
498.6077	-0.0023
498.8067	0.0159
499.0056	-0.0016
499.2046	0.0093
499.4035	0.0043
499.6024	-0.0077
499.8013	0.0049
500.0002	0.0025
500.199	0.0147
500.3979	-0.0041
500.5967	0.0036
500.7956	0.008
500.9944	-0.0031
501.1932	0.0116
501.3919	0.0078
501.5907	0.0002
501.7895	-0.0034
501.9882	0.003
502.1869	0.0029
502.3856	0.0013
502.5843	0.0025
502.783	0.0028
502.9816	0.0108
503.1803	0.0051
503.3789	0.0013
503.5775	0.0011
503.7761	0.0004
503.9747	0.0066
504.1732	-0.0063
504.3718	0.0092
504.5703	0.0082
504.7689	-0.0076
504.9674	-0.0059
505.1658	0.0029
505.3643	0.013
505.5628	0.0084
505.7612	0.0047
505.9597	-0.0079
506.1581	0.0078
506.3565	0.0061
506.5549	0.0009
506.7532	0.0019
506.9516	0.0003
507.1499	0.0013
507.3482	0.0018
507.5465	0.0033
507.7448	0.0056
507.9431	0.0088
508.1414	-0.002
508.3396	0.0113
508.5379	-0.0006
508.7361	0.0033
508.9343	0.0127
509.1325	0.0041
509.3306	0.0003
509.5288	-0.0084
509.7269	0.0083
509.9251	0.0047
510.1232	0.0001
510.3213	0.0087
510.5193	0.0061
510.7174	-0.006
510.9154	0.0057
511.1135	0.003
511.3115	0.0011
511.5095	0.0004
511.7075	0.0072
511.9055	-0.0033
512.1034	0.0018
512.3014	-0.0012
512.4993	0.0015
512.6972	-0.0004
512.8951	0.0018
513.093	-0.0085
513.2908	0.0143
513.4887	0.0087
513.6865	0.0083
513.8844	0.0075
514.0822	0.0016
514.2799	0.002
514.4777	-0.0062
514.6755	-0.0014
514.8732	-0.0046
515.0709	0.0037
515.2687	-0.0008
515.4664	0.0087
515.664	0.0134
515.8617	0.0048
516.0594	0.0028
516.257	0.0076
516.4546	0.0122
516.6522	-0.0009
516.8498	0.005
517.0474	0.0064
517.2449	0.0043
517.4425	0.0016
517.64	0.0102
517.8375	0.008
518.035	0.0054
518.2325	-0.0027
518.43	0.0006
518.6274	0.0078
518.8249	0.0055
519.0223	0.0078
519.2197	-0.0041
519.4171	-0.0061
519.6145	0.0082
519.8118	-0.0079
520.0092	-0.0011
520.2065	0.0106
520.4038	0.007
520.6011	0.0138
520.7984	0.0047
520.9956	0.0069
521.1929	0.0063
521.3901	0.0003
521.5874	0.0023
521.7846	0.0113
521.9818	0.008
522.1789	0.0007
522.3761	0.0086
522.5732	0.0062
522.7704	-0.006
522.9675	-0.0015
523.1646	-0.0012
523.3617	-0.0013
523.5587	-0.0022
523.7558	-0.0033
523.9528	0.0111
524.1498	0.0019
524.3468	-0.0019
524.5438	-0.0011
524.7408	-0.0074
524.9378	0.0126
525.1347	0.0071
525.3316	0.0025
525.5285	-0.003
525.7254	0.0049
525.9223	0.0103
526.1192	0.0143
526.316	0.001
526.5129	0.0156
526.7097	0.0029
526.9065	0.0152
527.1033	-0.0061
527.3	0.0109
527.4968	0.0107
527.6935	-0.007
527.8903	0.0115
528.087	-0.0002
528.2837	0.0119
528.4804	0.0001
528.677	-0.0011
528.8737	0.009
529.0703	0.0008
529.2669	0.0194
529.4635	-0.0037
529.6601	-0.0083
529.8567	-0.005
530.0532	-0.0031
530.2498	-0.0002
530.4463	0.0017
530.6428	-0.0023
530.8393	0.0054
531.0358	-0.0004
531.2322	-0.006
531.4287	0.0021
531.6251	-0.0043
531.8215	-0.0075
532.0179	0.0031
532.2143	0.0045
532.4107	0.0135
532.607	-0.0107
532.8034	-0.001
532.9997	-0.0055
533.196	-0.0036
533.3923	0.004
533.5886	0.0116
533.7848	0.0053
533.9811	0.0107
534.1773	-0.0006
534.3735	0.0043
534.5697	-0.0034
534.7659	0.0061
534.9621	0.0062
535.1582	0.0026
535.3544	0.0005
535.5505	0.0109
535.7466	0.0068
535.9427	-0.0011
536.1387	-0.0051
536.3348	0.0043
536.5308	0.0035
536.7269	0.0013
536.9229	-0.0058
537.1189	0.0022
537.3148	0.0135
537.5108	0.0011
537.7068	0.0122
537.9027	-0.0125
538.0986	0.0104
538.2945	-0.0034
538.4904	0.0034
538.6863	0.0056
538.8821	0.0071
539.078	0.0008
539.2738	0.0082
539.4696	-0.0037
539.6654	-0.0026
539.8611	-0.0003
540.0569	-0.0079
540.2526	0.0046
540.4484	-0.0054
540.6441	-0.0018
540.8398	0.01
541.0355	0.002
541.2311	0.0018
541.4268	0.0061
541.6224	0.0122
541.818	0.0119
542.0136	0.0046
542.2092	0.0085
542.4048	0.0024
542.6003	-0.0069
542.7959	0.0036
542.9914	0.0013
543.1869	0.0003
543.3824	0.0121
543.5779	0.0115
543.7734	0.0144
543.9688	0.0083
544.1642	0.0006
544.3596	0.0129
544.555	0.0015
544.7504	0.0206
544.9458	0.0013
545.1411	0.0067
545.3365	0.0043
545.5318	0.0045
545.7271	0.0056
545.9224	-0.0023
546.1177	0.0094
546.3129	0.0055
546.5081	-0.0027
546.7034	0.0062
546.8986	0.005
547.0938	0.0153
547.289	0.0011
547.4841	0.0053
547.6793	0.0055
547.8744	0.0182
548.0695	0.0067
548.2646	0.0019
548.4597	0.0006
548.6548	0.0171
548.8498	0.0033
549.0448	-0.001
549.2399	0.0095
549.4349	0.0012
549.6298	-0.0025
549.8248	0.0071
550.0198	-0.0063
550.2147	0.005
550.4096	-0.0063
550.6045	-0.0078
550.7994	0.0042
550.9943	0.0099
551.1892	-0.0157
551.384	0.0061
551.5788	0.0033
551.7737	0.0072
551.9685	0.0061
552.1632	0.0024
552.358	-0.0012
552.5528	0.0082
552.7475	0.0021
552.9422	0.0072
553.1369	0.0106
553.3316	0.0063
553.5263	0.0102
553.7209	-0.0028
553.9156	0.0007
554.1102	-0.0013
554.3048	-0.0095
554.4994	0.0003
554.694	0.0112
554.8885	0.0052
555.0831	-0.0016
555.2776	0.0008
555.4721	-0.002
555.6666	0.0022
555.8611	0.004
556.0555	0.008
556.25	0.0125
556.4444	-0.0032
556.6388	0.003
556.8332	-0.0062
557.0276	0.0005
557.222	0.0039
557.4163	0.0016
557.6107	0.0064
557.805	-0.0023
557.9993	0.0055
558.1936	0.0007
558.3879	0.0079
558.5821	0.0063
558.7764	0.0014
558.9706	0.0049
559.1648	-0.0041
559.359	-0.0029
559.5532	-0.0026
559.7473	-0.0041
559.9415	-0.001
560.1356	0.0174
560.3297	0.0002
560.5238	0.0061
560.7179	-0.0057
560.9119	-0.0029
561.106	0.0006
561.3	0.0057
561.494	-0.0124
561.688	0.0083
561.882	-0.0041
562.076	0.0061
562.2699	0.0101
562.4639	0.0135
562.6578	0.0063
562.8517	0.0051
563.0456	0.0005
563.2395	0.0005
563.4333	0.0017
563.6272	-0.0058
563.821	-0.0046
564.0148	-0.0008
564.2086	0.0036
564.4024	0.0096
564.5961	0.0072
564.7899	0.0024
564.9836	0.0021
565.1773	0.004
565.371	0.0099
565.5647	0.0008
565.7584	0.0081
565.952	-0.0022
566.1456	0.004
566.3393	-0.0043
566.5329	-0.0024
566.7264	0.0027
566.92	-0.0057
567.1136	-0.0006
567.3071	-0.0026
567.5006	0.0022
567.6941	0.002
567.8876	0.0039
568.0811	0.0144
568.2745	0.0009
568.468	0.0071
568.6614	0.009
568.8548	0.0031
569.0482	0.0047
569.2416	0.0029
569.4349	0.0004
569.6283	0.006
569.8216	0.005
570.0149	0.0028
570.2082	0.0066
570.4015	0.0035
570.5947	0.0029
570.788	0.0041
570.9812	0.0001
571.1744	0.0044
571.3676	0.0048
571.5608	0.0021
571.754	0.0074
571.9471	0.0057
572.1402	0.0025
572.3333	-0.0004
572.5264	0.0059
572.7195	-0.0009
572.9126	0.0028
573.1057	0.0009
573.2987	0.0011
573.4917	0.003
573.6847	0.0006
573.8777	0.0062
574.0707	0.0032
574.2636	0.0018
574.4566	0.0015
574.6495	0.0008
574.8424	0.0021
575.0353	0.0071
575.2281	0.0052
575.421	-0.0008
575.6138	0.0009
575.8067	0.0079
575.9995	0.0007
576.1923	0.0041
576.385	0.0031
576.5778	0.0048
576.7706	0.0037
576.9633	0.0015
577.156	-0.0029
577.3487	0.0012
577.5414	-0.0019
577.734	0.0008
577.9267	0.0034
578.1193	0.0021
578.3119	0.0001
578.5045	0.0041
578.6971	0.0011
578.8897	0.0011
579.0822	0.0032
579.2747	0.0009
579.4673	0.0034
579.6598	0.0012
579.8522	0.0041
580.0447	0.0053
580.2372	0.0085
580.4296	0.0085
580.622	-0.0004
580.8144	0.0072
581.0068	0.0016
581.1992	0.0044
581.3915	-0
581.5839	0.0042
581.7762	-0.0003
581.9685	0.0029
582.1608	0.0018
582.353	0.0011
582.5453	0.0068
582.7375	0.0051
582.9298	0.001
583.122	0.0011
583.3142	-0.0008
583.5063	0.0019
583.6985	0.0003
583.8906	0.0044
584.0827	0.0032
584.2749	-0.0021
584.4669	0.0015
584.659	0.0071
584.8511	0.0061
585.0431	0.0032
585.2352	0.004
585.4272	0.0028
585.6192	0.0024
585.8111	0.0019
586.0031	-0.002
586.195	0.0029
586.387	-0.0015
586.5789	0.006
586.7708	0.0033
586.9627	0.0047
587.1545	0.0031
587.3464	0.0016
587.5382	-0.0011
587.73	0.0074
587.9218	-0.0035
588.1136	-0.0018
588.3053	0.0052
588.4971	0.005
588.6888	-0.0005
588.8805	-0.0005
589.0722	0.0103
589.2639	0.0026
589.4556	0.0062
589.6472	0.0063
589.8389	0.0016
590.0305	-0.001
590.2221	0.0065
590.4137	-0.0003
590.6052	-0.0009
590.7968	-0.0001
590.9883	0.0023
591.1798	-0.0017
591.3713	-0.0014
591.5628	0.0034
591.7543	-0.002
591.9458	-0.0026
592.1372	0.0024
592.3286	-0.0015
592.52	-0.0008
592.7114	0.0028
592.9028	0.002
593.0941	0.0022
593.2855	0.0026
593.4768	0.0098
593.6681	0.0013
593.8594	0.0064
594.0506	-0.0002
594.2419	0.0002
594.4331	0.0019
594.6244	-0.0026
594.8156	0.0021
595.0067	0.0003
595.1979	-0.0008
595.3891	0.0017
595.5802	0.0076
595.7713	0.0024
595.9624	0.0083
596.1535	-0.0017
596.3446	-0.0035
596.5357	0.0061
596.7267	0.0038
596.9177	-0.0023
597.1087	-0.0055
597.2997	0.0055
597.4907	-0.0009
597.6817	0.0064
597.8726	0.0076
598.0635	-0.0032
598.2544	0.006
598.4453	0.0018
598.6362	0.0058
598.827	-0.0038
599.0179	0.0013
599.2087	0.0072
599.3995	0.0072
599.5903	0.001
599.7811	0.0063
599.9718	-0.0034
600.1626	0.0003
600.3533	-0.006
600.544	0.002
600.7347	0.0004
600.9254	0.0074
601.116	-0.0009
601.3067	-0.0037
601.4973	0.001
601.6879	-0.0005
601.8785	0.0025
602.0691	0.0017
602.2596	0.0102
602.4502	0.0061
602.6407	0.0065
602.8312	0.0027
603.0217	0.002
603.2122	-0
603.4027	0.0029
603.5931	0.0049
603.7835	-0.001
603.9739	0.001
604.1643	0.0066
604.3547	0.0074
604.5451	0.0053
604.7354	-0.0066
604.9257	0.0037
605.116	0.0016
605.3063	0.0026
605.4966	0.007
605.6869	0.0061
605.8771	-0.001
606.0673	0.0017
606.2575	0.0007
606.4477	0.0041
606.6379	0.0025
606.8281	0.0012
607.0182	-0.0003
607.2083	0.0014
607.3985	0.0005
607.5885	0.0016
607.7786	-0.0012
607.9687	0.0112
608.1587	0.0033
608.3488	0.0037
608.5388	-0.0045
608.7288	-0.0041
608.9187	0.005
609.1087	0.0073
609.2986	0.0112
609.4886	0.002
609.6785	0.0065
609.8684	-0.0009
610.0582	-0.0008
610.2481	-0.0044
610.4379	0.0043
610.6278	0.0065
610.8176	0.0129
611.0074	0.0082
611.1971	0.0033
611.3869	0.0105
611.5766	-0.0098
611.7664	0.0089
611.9561	0.0043
612.1458	0.008
612.3354	0.0014
612.5251	0.0005
612.7147	0.0068
612.9044	-0.0057
613.094	0.0095
613.2836	-0.0049
613.4731	0.0055
613.6627	0.0009
613.8522	0.0016
614.0417	0.006
614.2313	0.0069
614.4207	0.0015
614.6102	0.0021
614.7997	0.0147
614.9891	0.0002
615.1785	-0.0028
615.3679	-0.0015
615.5573	0.0028
615.7467	-0.0019
615.9361	0.0081
616.1254	0.0056
616.3147	0.002
616.504	0.0085
616.6933	0.0065
616.8826	0.0001
617.0718	0.0029
617.2611	-0.0063
617.4503	0.0055
617.6395	0.0073
617.8287	0.0058
618.0179	0.007
618.207	0.0014
618.3961	-0.0064
618.5853	-0.0078
618.7744	0.0109
618.9634	0.008
619.1525	0.0062
619.3416	-0.0045
619.5306	-0.0028
619.7196	0.0072
619.9086	0.0025
620.0976	-0.0088
620.2866	0.0061
620.4755	0.0032
620.6645	0.0158
620.8534	0.0034
621.0423	-0.0019
621.2312	-0.0021
621.42	-0.0039
621.6089	0.0042
621.7977	0.0114
621.9865	0.001
622.1753	0.001
622.3641	-0.0004
622.5529	-0.0066
622.7416	0.0005
622.9303	0.0031
623.1191	0.0048
623.3078	0.0091
623.4964	0.0073
623.6851	-0.003
623.8737	-0.0006
624.0624	-0.0097
624.251	0.0043
624.4396	-0.0005
624.6282	0.0036
624.8167	0.0018
625.0053	0.0025
625.1938	-0.0011
625.3823	0.0033
625.5708	-0.0112
625.7593	-0.0009
625.9477	0.0069
626.1362	-0.0007
626.3246	-0.0051
626.513	0.0042
626.7014	0.014
626.8898	0.009
627.0781	0.0101
627.2665	0.0079
627.4548	0.0059
627.6431	-0.0007
627.8314	0.0069
628.0197	0.0167
628.2079	-0.0095
628.3962	0.0032
628.5844	0.006
628.7726	0.0086
628.9608	0.0031
629.1489	0.0033
629.3371	-0.0057
629.5252	0.0102
629.7134	0.0019
629.9015	-0.0024
630.0895	0.0012
630.2776	0.0211
630.4657	-0.0027
630.6537	0.0032
630.8417	0.0036
631.0297	-0.002
631.2177	-0.0115
631.4057	-0.0047
631.5936	0.0027
631.7815	-0.0013
631.9695	0.0053
632.1574	0.0099
632.3452	0.0006
632.5331	0.0024
632.7209	0.0109
632.9088	0.0046
633.0966	0.0222
633.2844	-0.0138
633.4722	0.0125
633.6599	0.0165
633.8477	-0.0036
634.0354	0.0137
634.2231	-0.0065
634.4108	-0.0134
634.5985	0.0117
634.7861	-0.012
634.9738	-0.0005
635.1614	0.0193
635.349	0.0052
635.5366	-0.0011
635.7242	0.0009
635.9117	0.0053
636.0993	0.0022
636.2868	-0.0033
636.4743	-0.0044
636.6618	-0.0197
636.8492	-0.0003
637.0367	-0.0054
637.2241	0.0056
637.4115	0.0311
637.5989	0.0068
637.7863	0.0192
637.9737	-0.0042
638.161	0.0114
638.3484	-0.0083
638.5357	-0.003
638.723	0.0072
638.9103	-0.0282
639.0975	-0
639.2848	0.0147
639.472	0.0169
639.6592	-0.0094
639.8464	-0.004
640.0336	0.0086
640.2208	0.0039
640.4079	-0.0127
640.595	0.0002
640.7821	0.0202
640.9692	0.0012
641.1563	-0.0012
641.3434	0.0198
641.5304	0.0212
641.7174	0.0179
641.9044	0.0028
642.0914	0.0153
642.2784	-0.0021
642.4653	-0.0181
642.6523	0.0097
642.8392	0.0035
643.0261	0.0128
643.213	0.0024
643.3999	0.0144
643.5867	0.0124
643.7735	-0.0024
643.9604	0.0057
644.1472	0.0016
644.3339	-0.0023
644.5207	0.0066
644.7075	-0.0059
644.8942	-0.0005
645.0809	0.0026
645.2676	-0.0111
645.4543	-0.0065
645.6409	0.0184
645.8276	0.0293
646.0142	0.009
646.2008	0.0055
646.3874	-0.0147
646.574	0.0107
646.7605	0.0085
646.9471	-0.0227
647.1336	-0.0459
647.3201	0.0024
647.5066	0.0026
647.6931	0.0008
647.8795	0.0037
648.0659	-0.0116
648.2524	0.0163
648.4388	0.0084
648.6252	0.0166
648.8115	-0.0022
648.9979	-0.0098
649.1842	0.0126
649.3705	0.0119
649.5568	-0.0116
649.7431	-0.0104
649.9294	0.0032
650.1156	-0.0146
650.3018	0.0039
650.488	0.0303
650.6742	0.0187
650.8604	0.0117
651.0466	-0.0022
651.2327	-0.0139
651.4188	-0.0043
651.6049	0.0043
651.791	-0.0006
651.9771	0.0014
652.1632	0.0024
652.3492	-0.0058
652.5352	-0
652.7212	0.0008
652.9072	-0.0126
653.0932	0.0125
653.2791	-0.003
653.465	-0.0071
653.651	-0.0078
653.8369	0.0195
654.0227	0.0053
654.2086	0.006
654.3944	0.0056
654.5803	-0.0028
654.7661	0.0048
654.9519	-0.0009
655.1377	-0
655.3234	-0
655.5092	-0
655.6949	-0
655.8806	-0
656.0663	-0
656.2519	-0
656.4376	-0
656.6232	-0
656.8088	-0
656.9945	-0
657.18	-0
657.3656	-0
657.5511	-0
657.7367	-0
657.9222	-0
658.1077	-0
658.2932	-0
658.4786	-0
658.6641	-0
658.8495	-0
659.0349	-0
659.2203	-0
659.4057	-0
659.591	0.0713
659.7764	0.0229
659.9617	0.0126
660.147	0.002
660.3323	-0.0089
660.5176	0.0117
660.7028	-0.0018
660.888	0.0101
661.0733	0.0118
661.2585	-0.0119
661.4436	-0.0077
661.6288	0.0178
661.8139	-0.0242
661.9991	-0.0218
662.1842	-0.0219
662.3693	-0.0095
662.5544	-0.0021
662.7394	0.0111
662.9245	-0.0044
663.1095	-0.0031
663.2945	-0.03
663.4795	-0.0308
663.6644	0.0016
663.8494	0.0013
664.0343	0.0051
664.2193	-0.0032
664.4042	-0.012
664.589	-0.0051
664.7739	0.0059
664.9587	-0.0071
665.1436	-0.0085
665.3284	-0.0162
665.5132	-0.0178
665.698	0.0215
665.8827	0.0003
666.0675	-0.0351
666.2522	-0.0143
666.4369	-0
666.6216	0.0151
666.8063	0.0179
666.9909	0.0003
667.1756	-0.0098
667.3602	0.0156
667.5448	0.0052
667.7294	0.0142
667.9139	-0.0028
668.0985	-0.0134
668.283	-0.0085
668.4675	0.0103
668.652	0.0164
668.8365	-0.0134
669.0209	0.0068
669.2054	0.0106
669.3898	0.006
669.5742	0.0335
669.7586	0.018
669.943	0.0155
670.1273	-0.0025
670.3117	0.0273
670.496	-0
670.6803	-0.0032
670.8646	-0.0093
671.0488	0.0004
671.2331	-0.0114
671.4173	0.0076
671.6015	0.0052
671.7857	-0.0022
671.9699	0.0132
672.1541	-0.0036
672.3382	0.0003
672.5223	0.005
672.7064	-0.0132
672.8905	-0.016
673.0746	0.0094
673.2587	0.0083
673.4427	0.0205
673.6267	0.0206
673.8107	0.0277
673.9947	0.0175
674.1787	0.0167
674.3626	0.0085
674.5465	0.0217
674.7304	0.0078
674.9143	0.0244
675.0982	0.0134
675.2821	0.0108
675.4659	-0.0167
675.6497	0.0044
675.8335	0.0033
676.0173	-0.0034
676.2011	0.0379
676.3849	0.0063
676.5686	0.0141
676.7523	0.0212
676.936	0.012
677.1197	-0.0167
677.3034	0.0334
677.487	0.0159
677.6706	0.0083
677.8542	0.0072
678.0378	0.0119
678.2214	-0.0123
678.405	0.003
678.5885	0.0013
678.772	0.0058
678.9555	-0.0188
679.139	0.0204
679.3225	-0.0019
679.5059	-0.0015
679.6894	0.0091
679.8728	-0.0103
680.0562	0.0171
680.2395	0.0005
680.4229	-0.0079
680.6062	-0.0126
680.7896	-0.0116
680.9729	0.0126
681.1562	0.0122
681.3394	0.0009
681.5227	0.0075
681.7059	0.0219
681.8891	0.011
682.0723	-0.0076
682.2555	-0.0093
682.4387	-0.0208
682.6218	0.0047
682.805	-0.0057
682.9881	0.007
683.1712	0.0077
683.3542	0.0301
683.5373	-0.0144
683.7203	0.006
683.9034	0.0009
684.0864	-0.0062
684.2694	-0.0032
684.4523	0.0104
684.6353	-0.0013
684.8182	-0.0023
685.0011	0.0126
685.184	-0.0017
685.3669	0.0116
685.5498	0.0036
685.7326	-0.0095
685.9154	-0.002
686.0982	0.0062
686.281	-0.0093
686.4638	0.0145
686.6465	0.0004
686.8293	0.0069
687.012	0.0014
687.1947	0.0012
687.3774	0.0124
687.56	-0.0232
687.7427	-0.0145
687.9253	-0.0135
688.1079	0.0017
688.2905	-0.0054
688.4731	0.0125
688.6556	-0.0006
688.8382	-0.024
689.0207	0.0145
689.2032	0.0145
689.3857	-0.0169
689.5681	-0.009
689.7506	0.0156
689.933	-0.0257
690.1154	-0.004
690.2978	0.0019
690.4802	0.0202
690.6626	0.0073
690.8449	0.0159
691.0272	-0.018
691.2095	-0.0257
691.3918	0.0112
691.5741	0.0004
691.7563	0.0007
691.9386	0.0239
692.1208	0.0106
692.303	-0.0082
692.4852	0.0079
692.6673	0.0026
692.8495	-0.0022
693.0316	0.005
693.2137	0.0109
693.3958	-0
693.5778	-0.0067
693.7599	-0.0159
693.9419	-0.023
694.1239	-0.0128
694.3059	-0.007
694.4879	-0.0013
694.6699	-0.0126
694.8518	0.0139
695.0337	0.0093
695.2157	0.0209
695.3975	-0.0003
695.5794	-0.015
695.7613	0.0174
695.9431	-0.0381
696.1249	0.0031
696.3067	-0.0137
696.4885	0.0173
696.6703	0.0137
696.852	-0.0092
697.0337	0.0094
697.2154	0.0127
697.3971	-0.0026
697.5788	0.0294
697.7605	-0.0149
697.9421	0.0234
698.1237	0.011
698.3053	-0.0187
698.4869	0.0171
698.6685	-0.0153
698.85	0.0186
699.0315	-0.0328
699.213	0.0168
699.3945	-0.0031
699.576	0.0368
699.7575	0.0216
699.9389	0.0043
700.1203	0.0064
700.3017	0.0139
700.4831	0.0413
700.6645	0.0367
700.8458	-0.0004
701.0271	0.0175
701.2084	-0.0012
701.3897	0.0144
701.571	-0.0296
701.7523	-0.0017
701.9335	-0.0074
702.1147	0.0323
702.2959	-0.0103
702.4771	0.026
702.6583	-0.0134
702.8394	-0.0175
703.0205	0.0063
703.2016	-0.0047
703.3827	-0.0008
703.5638	-0.0008
703.7449	0.0119
703.9259	0.0084
704.1069	-0.0165
704.2879	0.0175
704.4689	-0.01
704.6499	-0.0023
704.8308	-0.0097
705.0117	-0.0006
705.1927	0.0049
705.3735	0.0058
705.5544	0.015
705.7353	-0.0177
705.9161	-0.0244
706.0969	0.0134
706.2777	0.0117
706.4585	0.0019
706.6393	0.016
706.82	0.0153
707.0007	-0.0007
707.1815	-0.0093
707.3621	0.027
707.5428	0.0137
707.7235	0.0007
707.9041	0.0062
708.0847	0.0036
708.2653	0.0278
708.4459	-0.0115
708.6265	0.001
708.807	-0.015
708.9875	0.0003
709.168	-0.0014
709.3485	0.0297
709.529	-0.0025
709.7095	-0.0041
709.8899	0.0033
710.0703	0.0183
710.2507	0.0031
710.4311	-0.0213
710.6115	0.018
710.7918	0.0351
710.9721	0.0119
711.1524	-0.0059
711.3327	-0.0121
711.513	-0.018
711.6932	0.0055
711.8735	0.0141
712.0537	0.0094
712.2339	-0.0024
712.4141	0.0278
712.5942	-0.0115
712.7744	0.0117
712.9545	0.0009
713.1346	0.0206
713.3147	-0.0081
713.4947	0.0041
713.6748	0.0066
713.8548	0.0132
714.0348	0.0037
714.2148	0.0138
714.3948	0.0208
714.5748	0.0017
714.7547	0.0147
714.9346	0.0222
715.1145	0.008
715.2944	-0.0393
715.4743	0.0253
715.6541	-0.0102
715.834	0.0163
716.0138	0.0135
716.1936	0.0075
716.3733	-0.004
716.5531	-0.0138
716.7328	0.0423
716.9126	0.0153
717.0923	-0.0206
717.2719	0.0218
717.4516	0.0273
717.6312	-0.0102
717.8109	0.0193
717.9905	0.0141
718.1701	0.0145
718.3496	0.0164
718.5292	-0.0166
718.7087	0.0015
718.8882	-0.0136
719.0677	-0.0098
719.2472	0.0007
719.4267	0.0154
719.6061	-0.0123
719.7856	0.0256
719.965	0.0085
720.1443	-0.015
720.3237	-0.0032
720.5031	-0.0234
720.6824	-0.0233
720.8617	0.0117
721.041	0.0143
721.2203	-0.0151
721.3995	0.0085
721.5788	-0.0032
721.758	-0.027
721.9372	0.0352
722.1164	-0.0017
722.2956	-0.0057
722.4747	-0
722.6538	0.008
722.8329	0.0126
723.012	0.0004
723.1911	-0.0038
723.3702	0.0133
723.5492	0.0056
723.7282	-0.0127
723.9072	0.0155
724.0862	0.0113
724.2652	0.0121
724.4441	-0.0008
724.623	-0.0004
724.8019	-0.0007
724.9808	0.0103
725.1597	0.0089
725.3385	0.0109
725.5174	0.0092
725.6962	0.0296
725.875	-0.0095
726.0538	0.0003
726.2325	0.0152
726.4112	-0.0136
726.59	-0.0065
726.7687	0.0087
726.9474	0.0173
727.126	0.0201
727.3047	-0.0219
727.4833	-0.0123
727.6619	-0.0264
727.8405	0.0041
728.0191	0.0194
728.1976	0.0032
728.3762	0.0187
728.5547	-0.0223
728.7332	0.0024
728.9116	0.0044
729.0901	0.0025
729.2686	0.0015
729.447	-0.0119
729.6254	0.0034
729.8038	-0.0118
729.9821	-0.0277
730.1605	0.0079
730.3388	0.0039
730.5171	0.0246
730.6954	-0.0197
730.8737	-0.0005
731.0519	-0.0086
731.2302	0.0203
731.4084	0.0106
731.5866	0.0235
731.7648	0.0018
731.9429	0.0198
732.1211	0.0101
732.2992	0.0087
732.4773	-0.0087
732.6554	-0.0186
732.8335	0.0131
733.0115	0.0031
733.1896	-0.004
733.3676	0.0187
733.5456	-0.0086
733.7235	-0.0114
733.9015	-0.0048
734.0794	0.0027
734.2574	-0.0128
734.4353	0.0088
734.6131	-0.0017
734.791	-0.0219
734.9689	-0.0012
735.1467	0.0115
735.3245	0.0128
735.5023	0.0148
735.68	0.0038
735.8578	-0.0111
736.0355	-0.0048
736.2132	0.0008
736.3909	-0.0113
736.5686	-0.0006
736.7463	-0.0208
736.9239	0.0181
737.1015	0.008
737.2791	0.0025
737.4567	0.003
737.6343	-0.0196
737.8118	0.0302
737.9894	-0.0025
738.1669	-0.0128
738.3444	0.0484
738.5218	-0.023
738.6993	0.0081
738.8767	0.0035
739.0541	-0.0015
739.2315	0.0064
739.4089	0.0197
739.5863	-0.0032
739.7636	-0.0007
739.9409	-0.0069
740.1182	-0.0129
740.2955	0.0231
740.4728	-0.0233
740.65	-0.0219
740.8272	0.0099
741.0044	-0.0156
741.1816	-0.0016
741.3588	-0.0054
741.5359	0.008
741.7131	-0.0036
741.8902	-0.0135
742.0673	-0.0241
742.2444	0.0308
742.4214	-0.0072
742.5985	-0.0263
742.7755	-0.0124
742.9525	-0.0152
743.1295	-0.0139
743.3064	0.0019
743.4834	0.0095
743.6603	0.0313
743.8372	-0.0439
744.0141	0.0322
744.191	0.0176
744.3678	-0.0485
744.5446	-0.0267
744.7215	-0.0238
744.8982	0.014
745.075	0.0463
745.2518	0.0105
745.4285	0.0484
745.6052	-0.0117
745.7819	0.018
745.9586	0.0004
746.1353	-0.0136
746.3119	0.0061
746.4885	0.0085
746.6651	-0.0009
746.8417	-0.0034
747.0183	0.0101
747.1948	-0.0244
747.3714	-0.0075
747.5479	0.0303
747.7244	-0.0145
747.9008	-0.0083
748.0773	0.0313
748.2537	0.0362
748.4301	0.0223
748.6065	-0.025
748.7829	-0.014
748.9593	-0.0302
749.1356	0.0045
749.3119	0.0116
749.4882	0.0014
749.6645	-0.0036
749.8408	0.0015
750.017	0.0136
750.1933	-0.014
750.3695	0.0173
750.5457	0.0047
750.7218	-0.0138
750.898	-0.0168
751.0741	-0.0123
751.2502	0.0179
751.4263	-0.0029
751.6024	0.0075
751.7784	0.007
751.9545	0.0044
752.1305	0.0015
752.3065	-0.0004
752.4825	0.0336
752.6584	0.0191
752.8344	0.0104
753.0103	-0.0262
753.1862	0.019
753.3621	-0.0072
753.5379	-0.0067
753.7138	0.0116
753.8896	0.0099
754.0654	-0.0239
754.2412	0.0162
754.417	0.0132
754.5927	0.0079
754.7685	-0.0113
754.9442	0.0282
755.1199	-0.0058
755.2956	0.0086
755.4712	-0.0021
755.6469	0.0023
755.8225	0.0234
755.9981	0.0093
756.1736	-0.0015
756.3492	0.0088
756.5248	0.0178
756.7003	0.004
756.8758	-0.0112
757.0513	0.0044
757.2267	0.0037
757.4022	-0.0036
757.5776	0.0121
757.753	0.0137
757.9284	0.0162
758.1038	0.0201
758.2791	0.0083
758.4545	-0.0222
758.6298	0.004
758.8051	0.0142
758.9803	0.0005
759.1556	-0.0174
759.3308	-0.005
759.506	0.0118
759.6812	0.0051
759.8564	0.0145
760.0316	-0.0127
760.2067	0.0158
760.3819	-0.0048
760.557	-0.0061
760.732	-0.0049
760.9071	0.0023
761.0821	-0.0166
761.2572	0.0044
761.4322	0.0062
761.6072	-0.0084
761.7821	-0.0202
761.9571	0.0175
762.132	0.0123
762.3069	0.0241
762.4818	0.0049
762.6567	-0.0019
762.8316	0.022
763.0064	-0.0119
763.1812	0.0204
763.356	-0.0159
763.5308	0.0156
763.7055	0.0104
763.8803	-0.0059
764.055	0.0046
764.2297	-0.0105
764.4044	-0.0086
764.579	-0.0127
764.7537	-0.0072
764.9283	0.0057
765.1029	0.0023
765.2775	0.0094
765.4521	-0.0155
765.6266	-0.0074
765.8011	0.0006
765.9756	0.0087
766.1501	-0.0157
766.3246	-0.0009
766.4991	0.0287
766.6735	0.0297
766.8479	-0.0198
767.0223	0.0138
767.1967	0.0226
767.371	-0.0052
767.5454	0.0245
767.7197	0.0435
767.894	0.0147
768.0683	-0.004
768.2425	0.016
768.4168	0.001
768.591	-0.0052
768.7652	-0.0199
768.9394	-0.0106
769.1135	0.0061
769.2877	0.0307
769.4618	0.0174
769.6359	0.0191
769.81	0.0129
769.984	-0.0056
770.1581	0.0164
770.3321	0.0221
770.5061	-0.0148
770.6801	0.0043
770.8541	0.0048
771.028	0.0346
771.202	0.0234
771.3759	0.0082
771.5498	0.0153
771.7236	0.004
771.8975	0.0022
772.0713	0.0283
772.2451	-0.0274
772.4189	-0.0251
772.5927	-0.0477
772.7665	-0.002
772.9402	-0.0124
773.1139	0.0238
773.2876	-0.0262
773.4613	0.0022
773.635	0.0232
773.8086	0.0091
773.9822	-0.0136
774.1558	0.0428
774.3294	-0.0187
774.503	-0.0021
774.6765	-0.0001
774.8501	-0.0068
775.0236	-0.0118
775.1971	-0.0195
775.3705	-0.0183
775.544	-0.0513
775.7174	-0.0169
775.8908	0.015
776.0642	-0.0098
776.2376	0.0213
776.4109	0.0025
776.5843	0.0115
776.7576	-0.0231
776.9309	0.0075
777.1041	-0.0071
777.2774	-0.0266
777.4506	-0.0314
777.6238	0.007
777.797	0.0157
777.9702	-0.0186
778.1434	-0.0176
778.3165	-0.0292
778.4896	-0.0084
778.6627	-0.0078
778.8358	-0.0176
779.0089	-0.0066
779.1819	0.0191
779.3549	-0.0006
779.5279	-0.0374
779.7009	0.0234
779.8739	0.0774
780.0468	0.0006
780.2197	0.0169
780.3926	-0.0065
780.5655	0.0175
780.7384	0.0151
780.9112	0.0221
781.0841	-0.0037
781.2569	-0.0027
781.4297	0.0115
781.6024	0.012
781.7752	0.0541
781.9479	0.0471
782.1206	0.0106
782.2933	0.0045
782.466	0.0135
782.6386	-0.0218
782.8113	0.0117
782.9839	-0.0065
783.1565	0.0049
783.329	0.0011
783.5016	0.0246
783.6741	-0.0284
783.8466	0.0339
784.0191	0.0096
784.1916	-0.0024
784.3641	-0.0324
784.5365	-0.0069
784.7089	-0.0172
784.8813	0.0694
785.0537	0.0431
785.2261	0.0196
785.3984	0.0262
785.5707	-0.0081
785.743	0.0189
785.9153	0.0112
786.0876	-0.0414
786.2598	-0.0275
786.432	0.0197
786.6042	0.0498
786.7764	-0.0226
786.9486	-0.0062
787.1207	0.0055
787.2928	0.0378
787.4649	-0.0408
787.637	-0.0076
787.8091	-0.0041
787.9811	0.0179
788.1532	0.0121
788.3252	-0.0216
788.4972	0.0094
788.6691	0.0023
788.8411	-0.0096
789.013	0.0165
789.1849	-0.0008
789.3568	-0.0016
789.5287	0.0112
789.7005	0.0124
789.8723	0.0009
790.0442	-0.0205
790.2159	-0.0203
790.3877	0.0578
790.5595	0.0125
790.7312	-0.0215
790.9029	-0.0011
791.0746	0.0477
791.2463	-0.0422
791.4179	0.0138
791.5896	0.0099
791.7612	-0.0011
791.9328	0.0376
792.1044	-0.0024
792.2759	-0.0425
792.4474	-0.007
792.619	-0.0276
792.7905	-0.0157
792.9619	0.0168
793.1334	0.0788
793.3048	0.042
793.4762	0.0215
793.6476	-0.0451
793.819	-0.0086
793.9904	-0.0167
794.1617	-0.0177
794.333	0.025
794.5043	0.0063
794.6756	0.0005
794.8469	-0.0031
795.0181	-0.0082
795.1893	0.0343
795.3605	-0.0091
795.5317	-0.0001
795.7029	-0.0141
795.874	-0.0535
796.0452	0.0679
796.2163	0.0781
796.3873	0.0423
796.5584	0.0491
796.7294	-0.0104
796.9005	0.0511
797.0715	-0.0464
797.2425	0.1075
797.4134	0.0645
797.5844	0.036
797.7553	-0.07
797.9262	0.0871
798.0971	0.0104
798.2679	-0.035
798.4388	0.0056
798.6096	-0.0342
798.7804	0.0394
798.9512	0.0585
799.122	0.0332
799.2927	0.0511
799.4635	0.0074
799.6342	-0.0971
799.8049	0.0428
799.9755	-0.0745
800.1462	-0.0055
800.3168	0.0499
800.4874	-0.034
800.658	0.0222
800.8286	-0.0484
800.9991	0.0159
801.1696	-0.0255
801.3402	-0.0422
801.5106	-0.0572
801.6811	0.0467
801.8516	-0.0204
802.022	0.0171
802.1924	-0.0585
802.3628	0.1033
802.5332	0.0247
802.7035	0.0143
802.8739	-0.0374
803.0442	-0.0908
803.2145	-0.0178
803.3847	-0.0257
803.555	0.0025
803.7252	-0.0779
803.8954	-0.0287
804.0656	-0.015
804.2358	-0.0127
804.4059	0.0077
804.5761	-0.0002
804.7462	0.0453
804.9163	0.0308
805.0864	0.0104
805.2564	0.0036
805.4264	-0.0099
805.5965	0.035
805.7665	0.0014
805.9364	-0.0555
806.1064	-0.015
806.2763	0.0671
806.4462	0.0093
806.6161	0.0215
806.786	0.0342
806.9559	-0.0237
807.1257	0.0249
807.2955	0.0148
807.4653	-0.0025
807.6351	-0.0307
807.8048	0.004
807.9746	0.0281
808.1443	-0.0081
808.314	0.0507
808.4837	0.0628
808.6533	-0.0347
808.8229	-0.007
808.9926	0.0279
809.1622	0.0495
809.3317	-0.0595
809.5013	-0.1037
809.6708	-0.0116
809.8403	-0.0283
810.0098	-0.0141
810.1793	-0.0105
810.3488	-0.0406
810.5182	0.1083
810.6876	0.0076
810.857	0.0065
811.0264	-0.1462
811.1958	0.0746
811.3651	0.0315
811.5344	0.0635
811.7037	0.0569
811.873	0.0083
812.0422	-0.0089
812.2115	0.0337
812.3807	-0.1335
812.5499	-0.0826
812.7191	0.0342
812.8882	-0.0187
813.0574	0.0523
813.2265	-0.0136
813.3956	-0.0084
813.5646	0.0377
813.7337	0.0016
813.9027	-0.0873
814.0718	-0.0339
814.2407	-0.0017
814.4097	0.0225
814.5787	0.0125
814.7476	0.0331
814.9165	-0.0308
815.0854	0.0251
815.2543	0.0214
815.4232	0.0148
815.592	0.0619
815.7608	-0.1632
815.9296	0.0286
816.0984	0.0599
816.2671	-0.2194
816.4359	0.0232
816.6046	-0.0152
816.7733	-0.0236
816.942	-0.0002
817.1106	0.0067
817.2793	-0.1203
817.4479	0.0522
817.6165	-0.0691
817.785	0.0576
817.9536	-0.0723
818.1221	-0.0002
818.2906	0.0065
818.4591	-0.0698
818.6276	-0.0002
818.7961	-0.025
818.9645	-0.0833
819.1329	0.2114
819.3013	-0.0786
819.4697	-0.0754
819.638	0.0323
819.8064	0.0945
819.9747	-0.0967
820.143	-0.0454
820.3113	0.1388
820.4795	0.175
820.6477	0.2161
820.816	0.0449
820.9842	0.0472
821.1523	0.07
821.3205	0.0652
821.4886	-0.0337
821.6567	-0.048
821.8248	0.1138
821.9929	-0.1614
822.1609	-0.0069
822.329	-0.1026
822.497	-0.0534
822.665	-0.0576
822.833	0.06
823.0009	-0.0405
823.1688	0.0169
823.3367	-0.1565
823.5046	0.0517
823.6725	0.0445
823.8404	0.0957
824.0082	-0.1649
824.176	-0.0152
824.3438	0.2257
824.5116	-0.0429
824.6793	0.077
824.847	-0.0702
825.0147	0.1108
825.1824	-0.0003
825.3501	0.0643
825.5177	-0.1264
825.6854	-0.1258
825.853	-0.0826
826.0206	0.1191
826.1881	0.0835
826.3557	0.1122
826.5232	0.0817
826.6907	0.2068
826.8582	-0.0712
827.0257	0.0482
827.1931	0.1306
827.3605	-0.0299
827.528	-0.0541
827.6953	-0.2921
827.8627	-0.1665
828.03	-0.0002
828.1974	-0.0325
828.3647	0.07
828.532	-0.0683
828.6992	-0.0355
828.8665	-0.32
829.0337	0.0073
829.2009	-0.1595
829.3681	-0.0759
829.5352	-0.4168
829.7024	0.0266
829.8695	0.0694
830.0366	0.3198
830.2037	0.0922
830.3707	0.1039
830.5378	-0.0573
830.7048	-0.0609
830.8718	-0.0173
831.0388	-0.1164
831.2057	0.1625
831.3727	-0.319
831.5396	-0.111
831.7065	-1.1187
831.8734	0.6207
832.0402	0.1388
832.2071	-0.6144
832.3739	0.2009
832.5407	-1.5895
832.7075	0.0969
832.8742	0.0588
833.041	0.5552
833.2077	0.1707
833.3744	0.0799
833.541	-0.128
833.7077	-0.0533
833.8743	-0.0699
834.0409	-0.0137
834.2075	0.2371
834.3741	-0.1534
834.5407	-0.222
834.7072	0.2319
834.8737	0.2493
835.0402	0.5789
835.2067	-0.0262
835.3731	-0.1177
835.5395	0.0303
835.706	-0.261
835.8723	-0.1274
836.0387	0.0386
836.2051	0.4138
836.3714	-0.0334
836.5377	0.0871
836.704	0.2932
836.8703	-0.0081
837.0365	-0.7399
837.2027	0.8525
837.3689	0.3126
837.5351	-0.0589
837.7013	-0.0654
837.8674	-0.3563
838.0335	-0.194
838.1997	0.133
838.3657	0.1576
838.5318	-0.3262
838.6978	-0
838.8639	-0.2175
839.0299	-0.0813
839.1958	0.1788
839.3618	-0.0962
839.5277	-0.054
839.6937	0.193
839.8596	-0.2347
840.0254	0.1984
840.1913	-0.2078
840.3571	-0.3181
840.523	-0
840.6888	-0.141
840.8545	-0.0311
841.0203	0.1077
841.186	0.2537
841.3517	-0.199
841.5174	-0.021
841.6831	0.5762
841.8488	0.0164
842.0144	-0.029
842.18	0.2618
842.3456	-0.7848
842.5112	-0
842.6767	-0.0283
842.8422	-0.0904
843.0077	0.1941
843.1732	-0.5767
843.3387	-0
843.5042	0.1446
843.6696	-0.0711
843.835	0.0117
844.0004	-0.238
844.1657	-0
844.3311	-0.4573
844.4964	-0.5083
844.6617	0.1155
844.827	0.8999
844.9923	-0
845.1575	-0.0246
845.3227	-0.5212
845.4879	-0.5472
845.6531	-0.1265
845.8183	0.9241
845.9834	0.1744
846.1485	-0.0207
846.3136	0.1829
846.4787	-0
846.6438	-0
846.8088	0.7547
846.9738	-0
847.1388	0.0745
847.3038	0.0847
847.4687	-0
847.6337	-0.4328
847.7986	-0.1547
847.9635	0.1077
848.1284	0.3028
848.2932	0.0667
848.458	-0
848.6228	-0.0127
848.7876	-0
848.9524	-0
849.1172	-1.7482
849.2819	-0.1627
849.4466	0.633
849.6113	0.4819
849.7759	-0
849.9406	0.0409
850.1052	-1.4504
850.2698	-0.0223
850.4344	-0.1054
850.599	-0.1098
850.7635	0.1281
850.928	0.0343
851.0925	0.0839
851.257	0.2193
851.4215	-0
851.5859	0.0749
851.7503	-0
851.9147	0.4949
852.0791	-0.1452
852.2434	0.6284
852.4078	0.82
852.5721	0.2681
852.7364	0.2448
852.9007	-0.0262
853.0649	-0
853.2291	0.0281
853.3934	-0
853.5575	-0.2923
853.7217	0.1601
853.8859	-0.5513
854.05	-0.628
854.2141	0.1878
854.3782	-0.2968
854.5423	0.1424
854.7063	-0.1685
854.8703	-0.1355
855.0343	-0.0175
855.1983	-0.0764
855.3623	0.0164
855.5262	0.2945
855.6901	1.1858
855.854	0.1059
856.0179	-0.2891
856.1818	-0
856.3456	0.1092
856.5094	-0.3601
856.6732	-0.7317
856.837	-0.8097
857.0008	0.2646
857.1645	-0.4213
857.3282	-0.0025
857.4919	0.3356
857.6556	-0.4331
857.8192	0.1881
857.9828	-0.0732
858.1465	-0.2568
858.31	0.4229
858.4736	-0.1072
858.6372	0.2411
858.8007	0.1129
858.9642	0.1027
859.1277	0.4792
859.2911	-0.7452
859.4546	-0
859.618	-0.068
859.7814	1.7653
859.9448	0.2344
860.1081	-0
860.2715	-0.9031
860.4348	0.4981
860.5981	0.1553
860.7614	-0
860.9246	0.3043
861.0879	0.2123
861.2511	-0
861.4143	-0
861.5774	0.1196
861.7406	-0
861.9037	-0
862.0668	-0
862.2299	0.7871
862.393	-0
862.556	-0.272
862.7191	-0.6746
862.8821	0.038
863.0451	0.2813
863.208	-0.1474
863.371	0.7118
863.5339	0.1412
863.6968	0.1217
863.8597	-0
864.0225	-0
864.1854	0.0279
864.3482	-0.8097
864.511	0.0609
864.6737	0.0027
864.8365	-0.0876
864.9992	-0
865.1619	-0.1815
865.3246	-0
865.4873	-0
865.65	-0.0009
865.8126	-0
865.9752	-0.2078
866.1378	0.0336
866.3004	-0.184
866.4629	-1.1719
866.6254	-0
866.7879	-0.4835
866.9504	-0
867.1129	0.4949
867.2753	-0.1322
867.4377	0.064
867.6001	-0.5422
867.7625	-0.2329
867.9249	0.4692
868.0872	-0.3478
868.2495	0.1881
868.4118	-0
868.5741	-0.1333
868.7363	-0
868.8986	-0
869.0608	-0
869.223	0.0303
869.3851	-0
869.5473	0.1768
869.7094	-0
869.8715	-0.2696
870.0336	0.0106
870.1957	-0
870.3577	0.1465
870.5197	-0.1893
870.6817	-1.1093
870.8437	0.1435
871.0057	0.2123
871.1676	0.3381
871.3295	-0
871.4914	-0
871.6533	-0.478
871.8151	0.594
871.977	0.6284
872.1388	-0
872.3006	0.2759
872.4623	-0.2485
872.6241	-0
872.7858	1.2636
872.9475	-0
873.1092	0.0097
873.2709	0.1993
873.4325	-1.9718
873.5941	0.6088
873.7557	-0.0012
873.9173	0.2239
874.0789	-0.0429
874.2404	-0
874.4019	0.8148
874.5634	-0
874.7249	-0.0689
874.8863	-0
875.0478	-0.284
875.2092	0.626
875.3706	0.2352
875.5319	1.4212
875.6933	-0
875.8546	0.7379
876.0159	0.015
876.1772	-0.3338
876.3385	0.7979
876.4997	-0.1306
876.6609	-0.0195
876.8221	0.2442
876.9833	-0
877.1445	0.3565
877.3056	-0.0138
877.4667	-0
877.6278	0.8571
877.7889	-0
877.9499	-0
878.111	-0.4861
878.272	0.3688
878.433	-0.287
878.5939	-0.096
878.7549	-0
878.9158	0.0225
879.0767	0.1839
879.2376	-0
879.3984	0.7397
879.5593	0.4441
879.7201	-1.301
879.8809	0.0247
880.0417	-0.1887
880.2024	0.4064
880.3632	-0.6971
880.5239	0.0575
880.6846	-0.7711
880.8452	-0.0481
881.0059	-0
881.1665	-0.1989
881.3271	0.425
881.4877	0.1311
881.6483	-0.9737
881.8088	-0.925
881.9693	-1.2854
882.1298	-1.2854
882.2903	-1.2854
