Data from D4ACN5uM460nmA_Absorbance_13-05-42-710.txt Node
Date: Fri Feb 21 13:05:42 GMT 2025
User: LASERRRRR
Spectrometer: FLMT03099
Trigger mode: 0
Integration Time (sec): 1.500000E-2
Scans to average: 1
Electric dark correction enabled: true
Nonlinearity correction enabled: false
Boxcar width: 0
XAxis mode: Wavelengths
Number of Pixels in Spectrum: 3648
>>>>>Begin Spectral Data<<<<<
179.3399	-0.6298
179.5586	-0.6298
179.7771	-0.6298
179.9957	-0.3739
180.2143	-0.6021
180.4329	-0
180.6514	-0
180.8699	0.3395
181.0885	0.4657
181.307	-0.3064
181.5255	-0.0148
181.744	-0
181.9625	0.0746
182.181	0.7318
182.3994	-0.485
182.6179	-0
182.8363	-0
183.0547	-0.1756
183.2732	0.1497
183.4916	0.2761
183.71	0.1351
183.9284	0.0217
184.1467	-0.0043
184.3651	-0.0359
184.5835	0.095
184.8018	0.1168
185.0201	0.249
185.2385	0.2281
185.4568	0.142
185.6751	0.0771
185.8934	0.067
186.1117	-0.1054
186.3299	0.2121
186.5482	0.1334
186.7664	0.1681
186.9847	-0.1729
187.2029	0.3007
187.4211	0.1218
187.6393	0.1212
187.8575	0.265
188.0757	0.2494
188.2939	0.0544
188.512	0.1749
188.7302	0.2741
188.9483	0.2508
189.1665	0.429
189.3846	0.2913
189.6027	0.0116
189.8208	0.2043
190.0389	0.0898
190.257	0.0073
190.475	-0.0361
190.6931	0.0975
190.9111	-0.0964
191.1292	0.0678
191.3472	0.0721
191.5652	0.2843
191.7832	0.1245
192.0012	0.1808
192.2192	0.2249
192.4371	0.1016
192.6551	0.1736
192.873	0.1439
193.091	0.0799
193.3089	0.2163
193.5268	0.2087
193.7447	0.1709
193.9626	0.0734
194.1805	0.2146
194.3984	0.1868
194.6162	0.2716
194.8341	0.2101
195.0519	0.2527
195.2697	0.248
195.4875	0.2598
195.7054	0.2071
195.9231	0.2412
196.1409	0.331
196.3587	0.3599
196.5765	0.2784
196.7942	0.2824
197.012	0.2715
197.2297	0.2841
197.4474	0.301
197.6651	0.2914
197.8828	0.4065
198.1005	0.3777
198.3182	0.3845
198.5358	0.3395
198.7535	0.3279
198.9711	0.3614
199.1888	0.3643
199.4064	0.346
199.624	0.3846
199.8416	0.3932
200.0592	0.3503
200.2767	0.4078
200.4943	0.4487
200.7119	0.3942
200.9294	0.3794
201.1469	0.4168
201.3645	0.4227
201.582	0.3692
201.7995	0.4437
202.017	0.3637
202.2344	0.4066
202.4519	0.3757
202.6694	0.3795
202.8868	0.395
203.1042	0.4153
203.3217	0.4182
203.5391	0.3977
203.7565	0.3626
203.9739	0.3598
204.1913	0.3486
204.4086	0.3231
204.626	0.3781
204.8433	0.3425
205.0607	0.3644
205.278	0.377
205.4953	0.3454
205.7126	0.3312
205.9299	0.3387
206.1472	0.3374
206.3644	0.3475
206.5817	0.3055
206.7989	0.3397
207.0162	0.3147
207.2334	0.3199
207.4506	0.2969
207.6678	0.3033
207.885	0.2852
208.1022	0.297
208.3194	0.2971
208.5365	0.3114
208.7537	0.3151
208.9708	0.2832
209.1879	0.2872
209.405	0.2807
209.6222	0.2829
209.8392	0.2908
210.0563	0.2955
210.2734	0.2701
210.4905	0.2786
210.7075	0.2832
210.9245	0.2887
211.1416	0.266
211.3586	0.2512
211.5756	0.2619
211.7926	0.27
212.0096	0.2588
212.2265	0.2718
212.4435	0.2524
212.6604	0.2747
212.8774	0.2452
213.0943	0.2504
213.3112	0.2525
213.5281	0.2762
213.745	0.2269
213.9619	0.2501
214.1788	0.2621
214.3956	0.2419
214.6125	0.2555
214.8293	0.2434
215.0461	0.2577
215.2629	0.2634
215.4798	0.2495
215.6965	0.2389
215.9133	0.2525
216.1301	0.2508
216.3469	0.2496
216.5636	0.2321
216.7803	0.2396
216.9971	0.2587
217.2138	0.2577
217.4305	0.2509
217.6472	0.2456
217.8639	0.2589
218.0805	0.2612
218.2972	0.2631
218.5138	0.2638
218.7305	0.2553
218.9471	0.2424
219.1637	0.2663
219.3803	0.2683
219.5969	0.2537
219.8135	0.2619
220.0301	0.2565
220.2466	0.2547
220.4632	0.2624
220.6797	0.2572
220.8962	0.2597
221.1127	0.264
221.3292	0.2674
221.5457	0.2718
221.7622	0.2571
221.9787	0.2777
222.1951	0.2748
222.4116	0.265
222.628	0.2917
222.8444	0.272
223.0608	0.2859
223.2772	0.2828
223.4936	0.2859
223.71	0.2856
223.9264	0.2912
224.1427	0.2826
224.3591	0.2868
224.5754	0.2948
224.7917	0.2913
225.008	0.2998
225.2243	0.3138
225.4406	0.2995
225.6569	0.3177
225.8732	0.3207
226.0894	0.3021
226.3057	0.3113
226.5219	0.3122
226.7381	0.3204
226.9543	0.3086
227.1705	0.3184
227.3867	0.3284
227.6029	0.3339
227.8191	0.3344
228.0352	0.3423
228.2513	0.3574
228.4675	0.3456
228.6836	0.3449
228.8997	0.3465
229.1158	0.3459
229.3319	0.3708
229.548	0.3571
229.764	0.3537
229.9801	0.367
230.1961	0.3743
230.4121	0.3625
230.6282	0.3864
230.8442	0.3829
231.0602	0.371
231.2761	0.3735
231.4921	0.3867
231.7081	0.3896
231.924	0.3991
232.14	0.4092
232.3559	0.404
232.5718	0.4016
232.7877	0.4024
233.0036	0.4114
233.2195	0.4037
233.4353	0.4237
233.6512	0.4209
233.867	0.4258
234.0829	0.427
234.2987	0.4151
234.5145	0.4405
234.7303	0.4365
234.9461	0.4396
235.1619	0.4388
235.3776	0.4384
235.5934	0.4287
235.8091	0.439
236.0249	0.4537
236.2406	0.4422
236.4563	0.4392
236.672	0.4561
236.8877	0.4476
237.1034	0.448
237.319	0.4557
237.5347	0.4507
237.7503	0.4403
237.966	0.4683
238.1816	0.4347
238.3972	0.4654
238.6128	0.467
238.8284	0.4626
239.0439	0.4593
239.2595	0.4557
239.475	0.4514
239.6906	0.4553
239.9061	0.4688
240.1216	0.4564
240.3371	0.458
240.5526	0.4606
240.7681	0.4617
240.9836	0.4531
241.199	0.4553
241.4145	0.448
241.6299	0.4482
241.8453	0.4359
242.0607	0.4373
242.2761	0.4375
242.4915	0.4342
242.7069	0.4172
242.9223	0.4198
243.1376	0.4037
243.353	0.4031
243.5683	0.3939
243.7836	0.3921
243.9989	0.371
244.2142	0.374
244.4295	0.3711
244.6448	0.3621
244.86	0.3468
245.0753	0.3374
245.2905	0.3334
245.5057	0.3296
245.721	0.3291
245.9362	0.3228
246.1514	0.3157
246.3665	0.3065
246.5817	0.2955
246.7969	0.2939
247.012	0.2923
247.2271	0.2855
247.4423	0.2822
247.6574	0.2773
247.8725	0.2752
248.0876	0.2662
248.3026	0.2578
248.5177	0.2492
248.7328	0.256
248.9478	0.25
249.1628	0.2466
249.3779	0.2339
249.5929	0.2395
249.8079	0.2347
250.0228	0.2252
250.2378	0.2264
250.4528	0.2268
250.6677	0.2164
250.8827	0.2169
251.0976	0.2121
251.3125	0.2204
251.5274	0.2079
251.7423	0.2033
251.9572	0.2021
252.172	0.2046
252.3869	0.2027
252.6017	0.2054
252.8166	0.2029
253.0314	0.1924
253.2462	0.1955
253.461	0.1883
253.6758	0.1895
253.8906	0.1946
254.1053	0.1894
254.3201	0.1924
254.5348	0.1846
254.7496	0.1774
254.9643	0.1937
255.179	0.1853
255.3937	0.1892
255.6083	0.1873
255.823	0.1808
256.0377	0.1775
256.2523	0.18
256.467	0.1818
256.6816	0.1776
256.8962	0.1808
257.1108	0.1827
257.3254	0.1857
257.54	0.1788
257.7545	0.1825
257.9691	0.174
258.1836	0.1739
258.3981	0.1802
258.6127	0.1708
258.8272	0.1812
259.0417	0.1711
259.2561	0.1713
259.4706	0.1782
259.6851	0.1799
259.8995	0.1731
260.114	0.173
260.3284	0.1684
260.5428	0.1715
260.7572	0.1759
260.9716	0.1766
261.186	0.1764
261.4003	0.1742
261.6147	0.1739
261.829	0.175
262.0433	0.1731
262.2577	0.1702
262.472	0.1729
262.6863	0.1845
262.9005	0.1751
263.1148	0.173
263.3291	0.1766
263.5433	0.1772
263.7576	0.1761
263.9718	0.1794
264.186	0.18
264.4002	0.1805
264.6144	0.1796
264.8286	0.1802
265.0427	0.1816
265.2569	0.1832
265.471	0.1812
265.6851	0.1789
265.8993	0.1721
266.1134	0.1792
266.3275	0.1806
266.5415	0.1788
266.7556	0.1774
266.9697	0.1751
267.1837	0.1811
267.3978	0.1805
267.6118	0.1679
267.8258	0.1789
268.0398	0.1785
268.2538	0.1779
268.4677	0.1703
268.6817	0.1767
268.8957	0.1689
269.1096	0.1671
269.3235	0.1701
269.5374	0.1791
269.7514	0.1766
269.9652	0.1692
270.1791	0.1679
270.393	0.169
270.6068	0.1693
270.8207	0.1665
271.0345	0.1701
271.2483	0.1665
271.4622	0.1712
271.676	0.1676
271.8897	0.168
272.1035	0.1749
272.3173	0.1639
272.531	0.1713
272.7448	0.1667
272.9585	0.1633
273.1722	0.1585
273.3859	0.1747
273.5996	0.1715
273.8133	0.1659
274.0269	0.1666
274.2406	0.1648
274.4542	0.1655
274.6679	0.1681
274.8815	0.1723
275.0951	0.175
275.3087	0.1712
275.5223	0.169
275.7358	0.1704
275.9494	0.1707
276.1629	0.1732
276.3765	0.1724
276.59	0.1677
276.8035	0.1705
277.017	0.1749
277.2305	0.1748
277.444	0.1785
277.6574	0.1678
277.8709	0.1829
278.0843	0.1755
278.2978	0.1732
278.5112	0.1793
278.7246	0.1756
278.938	0.1719
279.1513	0.1758
279.3647	0.1749
279.5781	0.1738
279.7914	0.1681
280.0047	0.174
280.2181	0.1739
280.4314	0.1758
280.6447	0.1862
280.8579	0.1731
281.0712	0.1806
281.2845	0.1751
281.4977	0.1787
281.711	0.1705
281.9242	0.1818
282.1374	0.179
282.3506	0.1822
282.5638	0.1707
282.7769	0.175
282.9901	0.1755
283.2033	0.178
283.4164	0.1772
283.6295	0.1786
283.8426	0.1781
284.0557	0.1851
284.2688	0.1831
284.4819	0.1736
284.695	0.1846
284.908	0.1784
285.1211	0.1828
285.3341	0.1772
285.5471	0.1814
285.7601	0.1845
285.9731	0.187
286.1861	0.1854
286.3991	0.1905
286.612	0.1873
286.825	0.1888
287.0379	0.1859
287.2508	0.1839
287.4637	0.1828
287.6766	0.1867
287.8895	0.1858
288.1024	0.1902
288.3152	0.1846
288.5281	0.1829
288.7409	0.1905
288.9538	0.1887
289.1666	0.191
289.3794	0.1923
289.5922	0.1876
289.8049	0.1891
290.0177	0.1928
290.2304	0.1916
290.4432	0.1976
290.6559	0.1863
290.8686	0.1896
291.0813	0.1924
291.294	0.1893
291.5067	0.1897
291.7194	0.1861
291.932	0.1882
292.1447	0.1895
292.3573	0.1973
292.5699	0.1984
292.7825	0.1873
292.9951	0.1889
293.2077	0.1905
293.4203	0.1876
293.6328	0.1887
293.8454	0.1983
294.0579	0.1903
294.2704	0.1985
294.4829	0.1951
294.6954	0.1946
294.9079	0.1932
295.1204	0.1889
295.3328	0.2004
295.5453	0.1924
295.7577	0.1905
295.9701	0.1928
296.1825	0.1968
296.3949	0.1882
296.6073	0.1858
296.8197	0.1998
297.0321	0.1866
297.2444	0.1854
297.4567	0.1932
297.6691	0.1854
297.8814	0.1859
298.0937	0.1928
298.306	0.1824
298.5182	0.1997
298.7305	0.1945
298.9428	0.1887
299.155	0.1877
299.3672	0.1921
299.5794	0.1898
299.7916	0.1908
300.0038	0.1956
300.216	0.1889
300.4282	0.1891
300.6403	0.1978
300.8525	0.1872
301.0646	0.1901
301.2767	0.1927
301.4888	0.191
301.7009	0.1915
301.913	0.1961
302.125	0.1875
302.3371	0.193
302.5491	0.1932
302.7612	0.1946
302.9732	0.1925
303.1852	0.1879
303.3972	0.193
303.6092	0.1945
303.8211	0.1921
304.0331	0.1886
304.245	0.1909
304.457	0.1868
304.6689	0.1907
304.8808	0.1816
305.0927	0.1885
305.3046	0.1856
305.5164	0.1802
305.7283	0.1765
305.9401	0.1749
306.152	0.174
306.3638	0.1804
306.5756	0.1793
306.7874	0.1717
306.9992	0.1728
307.2109	0.1693
307.4227	0.1702
307.6344	0.1698
307.8462	0.1707
308.0579	0.1691
308.2696	0.1655
308.4813	0.1622
308.693	0.1637
308.9046	0.1578
309.1163	0.1606
309.328	0.1602
309.5396	0.1484
309.7512	0.151
309.9628	0.1525
310.1744	0.1506
310.386	0.1418
310.5976	0.1525
310.8091	0.1492
311.0207	0.1432
311.2322	0.1393
311.4437	0.1491
311.6552	0.1425
311.8667	0.1467
312.0782	0.1387
312.2897	0.1424
312.5012	0.1392
312.7126	0.1351
312.924	0.133
313.1355	0.1288
313.3469	0.1315
313.5583	0.1333
313.7696	0.1286
313.981	0.1321
314.1924	0.1247
314.4037	0.1257
314.6151	0.1301
314.8264	0.1315
315.0377	0.1248
315.249	0.127
315.4603	0.1218
315.6716	0.1273
315.8828	0.1269
316.0941	0.1283
316.3053	0.1212
316.5165	0.1182
316.7277	0.1257
316.9389	0.1232
317.1501	0.1243
317.3613	0.1198
317.5724	0.124
317.7836	0.1147
317.9947	0.1189
318.2058	0.1202
318.417	0.1149
318.6281	0.1191
318.8391	0.1222
319.0502	0.1232
319.2613	0.1232
319.4723	0.1196
319.6834	0.124
319.8944	0.1169
320.1054	0.1176
320.3164	0.1188
320.5274	0.1218
320.7383	0.1215
320.9493	0.1203
321.1602	0.1175
321.3712	0.1197
321.5821	0.1176
321.793	0.1222
322.0039	0.1223
322.2148	0.12
322.4257	0.1168
322.6365	0.12
322.8474	0.1218
323.0582	0.1205
323.269	0.1273
323.4798	0.1231
323.6906	0.1231
323.9014	0.119
324.1122	0.127
324.3229	0.1247
324.5337	0.1248
324.7444	0.1275
324.9551	0.122
325.1658	0.1218
325.3765	0.1261
325.5872	0.1232
325.7979	0.1229
326.0085	0.1266
326.2192	0.1206
326.4298	0.1248
326.6404	0.1226
326.851	0.1179
327.0616	0.1289
327.2722	0.1258
327.4828	0.1184
327.6933	0.1275
327.9039	0.1207
328.1144	0.1269
328.3249	0.1325
328.5354	0.1276
328.7459	0.1286
328.9564	0.1271
329.1669	0.1356
329.3773	0.1297
329.5878	0.1276
329.7982	0.1242
330.0086	0.1292
330.219	0.1249
330.4294	0.1298
330.6398	0.1229
330.8502	0.1345
331.0605	0.1265
331.2708	0.1258
331.4812	0.1314
331.6915	0.122
331.9018	0.1266
332.1121	0.1375
332.3224	0.1275
332.5326	0.13
332.7429	0.1315
332.9531	0.1285
333.1633	0.1244
333.3735	0.1265
333.5837	0.134
333.7939	0.1317
334.0041	0.1365
334.2143	0.1337
334.4244	0.1404
334.6346	0.1325
334.8447	0.1322
335.0548	0.1352
335.2649	0.1396
335.475	0.1389
335.685	0.1346
335.8951	0.1318
336.1051	0.137
336.3152	0.137
336.5252	0.1294
336.7352	0.1322
336.9452	0.1347
337.1552	0.1324
337.3652	0.1359
337.5751	0.1418
337.7851	0.1349
337.995	0.1398
338.2049	0.1385
338.4148	0.1329
338.6247	0.1375
338.8346	0.1377
339.0445	0.1407
339.2543	0.1362
339.4642	0.1368
339.674	0.1328
339.8838	0.1401
340.0936	0.1404
340.3034	0.1332
340.5132	0.131
340.7229	0.1389
340.9327	0.1424
341.1424	0.1386
341.3522	0.1418
341.5619	0.1357
341.7716	0.1418
341.9813	0.1475
342.1909	0.1484
342.4006	0.145
342.6102	0.1484
342.8199	0.1495
343.0295	0.1393
343.2391	0.154
343.4487	0.1502
343.6583	0.1524
343.8679	0.1477
344.0774	0.1496
344.287	0.1443
344.4965	0.153
344.706	0.1559
344.9155	0.1489
345.125	0.1493
345.3345	0.1585
345.544	0.1557
345.7534	0.154
345.9629	0.1551
346.1723	0.1567
346.3817	0.1525
346.5911	0.1593
346.8005	0.1625
347.0099	0.16
347.2193	0.1611
347.4286	0.168
347.638	0.1549
347.8473	0.1659
348.0566	0.1602
348.2659	0.1637
348.4752	0.1663
348.6845	0.157
348.8937	0.1622
349.103	0.1674
349.3122	0.1668
349.5214	0.1695
349.7306	0.1643
349.9398	0.1712
350.149	0.1624
350.3582	0.1712
350.5674	0.1728
350.7765	0.1715
350.9856	0.1689
351.1948	0.1679
351.4039	0.1739
351.613	0.1612
351.822	0.1774
352.0311	0.1731
352.2402	0.1732
352.4492	0.1788
352.6582	0.1797
352.8672	0.1739
353.0762	0.1809
353.2852	0.1766
353.4942	0.1839
353.7032	0.1756
353.9121	0.1746
354.1211	0.1838
354.33	0.186
354.5389	0.1805
354.7478	0.1769
354.9567	0.1827
355.1655	0.1812
355.3744	0.1839
355.5833	0.1842
355.7921	0.1996
356.0009	0.1842
356.2097	0.1784
356.4185	0.1822
356.6273	0.1885
356.8361	0.1915
357.0448	0.1903
357.2536	0.192
357.4623	0.1914
357.671	0.1925
357.8797	0.1966
358.0884	0.1807
358.2971	0.1899
358.5057	0.1961
358.7144	0.198
358.923	0.1995
359.1316	0.1968
359.3402	0.1953
359.5488	0.1976
359.7574	0.1994
359.966	0.1939
360.1746	0.2017
360.3831	0.2127
360.5916	0.2013
360.8002	0.2059
361.0087	0.2017
361.2172	0.2074
361.4256	0.2084
361.6341	0.2122
361.8426	0.2097
362.051	0.2131
362.2594	0.2088
362.4678	0.2091
362.6762	0.2177
362.8846	0.223
363.093	0.2104
363.3014	0.2179
363.5097	0.213
363.718	0.2218
363.9264	0.2208
364.1347	0.221
364.343	0.2215
364.5513	0.2156
364.7595	0.2319
364.9678	0.2164
365.176	0.2261
365.3842	0.2313
365.5925	0.2338
365.8007	0.2243
366.0089	0.2377
366.217	0.2338
366.4252	0.2339
366.6333	0.2361
366.8415	0.234
367.0496	0.2392
367.2577	0.2398
367.4658	0.2399
367.6739	0.2358
367.882	0.2404
368.09	0.2356
368.2981	0.2423
368.5061	0.2366
368.7141	0.2414
368.9221	0.2475
369.1301	0.2422
369.3381	0.2454
369.5461	0.2423
369.754	0.2455
369.962	0.252
370.1699	0.2475
370.3778	0.2582
370.5857	0.2555
370.7936	0.2539
371.0015	0.2582
371.2093	0.2583
371.4172	0.2497
371.625	0.2572
371.8328	0.2432
372.0406	0.2642
372.2484	0.255
372.4562	0.2647
372.664	0.2678
372.8717	0.2607
373.0795	0.2622
373.2872	0.2613
373.4949	0.269
373.7026	0.2608
373.9103	0.2634
374.118	0.2678
374.3256	0.2688
374.5333	0.2621
374.7409	0.2702
374.9485	0.2744
375.1561	0.2708
375.3637	0.264
375.5713	0.274
375.7789	0.2637
375.9864	0.2718
376.194	0.2827
376.4015	0.2752
376.609	0.2755
376.8165	0.2848
377.024	0.2779
377.2315	0.2805
377.4389	0.2755
377.6464	0.2842
377.8538	0.2771
378.0612	0.2812
378.2686	0.2842
378.476	0.2819
378.6834	0.2885
378.8908	0.2985
379.0981	0.2877
379.3055	0.2846
379.5128	0.2859
379.7201	0.2878
379.9274	0.2889
380.1347	0.2933
380.342	0.2968
380.5492	0.2939
380.7565	0.292
380.9637	0.2947
381.1709	0.2971
381.3781	0.3069
381.5853	0.3015
381.7925	0.2909
381.9997	0.2992
382.2068	0.2979
382.4139	0.2945
382.6211	0.291
382.8282	0.3081
383.0353	0.3054
383.2424	0.2955
383.4494	0.3011
383.6565	0.3044
383.8635	0.2995
384.0706	0.3115
384.2776	0.3055
384.4846	0.3061
384.6916	0.2961
384.8986	0.312
385.1055	0.319
385.3125	0.3067
385.5194	0.3053
385.7263	0.309
385.9333	0.3136
386.1402	0.3027
386.347	0.3003
386.5539	0.3027
386.7608	0.2898
386.9676	0.3027
387.1744	0.3045
387.3813	0.3082
387.5881	0.296
387.7948	0.3064
388.0016	0.3209
388.2084	0.3058
388.4151	0.3094
388.6219	0.2999
388.8286	0.3049
389.0353	0.3007
389.242	0.3094
389.4487	0.3002
389.6553	0.293
389.862	0.3036
390.0686	0.2987
390.2753	0.3021
390.4819	0.3004
390.6885	0.2986
390.8951	0.2971
391.1016	0.3005
391.3082	0.2924
391.5147	0.2883
391.7213	0.292
391.9278	0.2827
392.1343	0.3007
392.3408	0.2894
392.5473	0.2861
392.7537	0.288
392.9602	0.2822
393.1666	0.2874
393.373	0.2814
393.5794	0.2894
393.7858	0.2935
393.9922	0.2788
394.1986	0.2774
394.4049	0.2816
394.6113	0.2802
394.8176	0.2772
395.0239	0.2712
395.2302	0.2648
395.4365	0.2744
395.6428	0.2739
395.8491	0.2743
396.0553	0.2584
396.2615	0.2706
396.4678	0.2661
396.674	0.2573
396.8802	0.2665
397.0863	0.2662
397.2925	0.2705
397.4987	0.2627
397.7048	0.2687
397.9109	0.2634
398.117	0.2687
398.3231	0.2588
398.5292	0.2522
398.7353	0.26
398.9413	0.2614
399.1474	0.2583
399.3534	0.2613
399.5594	0.2674
399.7654	0.2651
399.9714	0.2681
400.1774	0.2646
400.3833	0.2605
400.5893	0.2627
400.7952	0.2596
401.0011	0.2606
401.207	0.26
401.4129	0.258
401.6188	0.2532
401.8247	0.2693
402.0305	0.257
402.2364	0.2536
402.4422	0.2549
402.648	0.2566
402.8538	0.2629
403.0596	0.2577
403.2654	0.2553
403.4711	0.2635
403.6768	0.2483
403.8826	0.2616
404.0883	0.2658
404.294	0.2629
404.4997	0.2524
404.7054	0.2683
404.911	0.2462
405.1167	0.2641
405.3223	0.257
405.5279	0.2591
405.7335	0.255
405.9391	0.2555
406.1447	0.2594
406.3502	0.2545
406.5558	0.2591
406.7613	0.2469
406.9668	0.259
407.1724	0.2575
407.3778	0.2604
407.5833	0.2528
407.7888	0.2517
407.9942	0.2449
408.1997	0.2574
408.4051	0.2526
408.6105	0.2587
408.8159	0.2536
409.0213	0.2601
409.2267	0.2595
409.432	0.2544
409.6374	0.2641
409.8427	0.2696
410.048	0.2607
410.2533	0.2571
410.4586	0.2487
410.6639	0.2574
410.8691	0.2499
411.0744	0.2604
411.2796	0.2565
411.4848	0.2444
411.69	0.2475
411.8952	0.2604
412.1004	0.2586
412.3056	0.2537
412.5107	0.2514
412.7158	0.2648
412.921	0.2595
413.1261	0.2528
413.3312	0.2569
413.5362	0.2686
413.7413	0.2517
413.9464	0.2557
414.1514	0.2567
414.3564	0.2625
414.5614	0.2588
414.7664	0.2508
414.9714	0.2431
415.1764	0.2552
415.3813	0.2531
415.5863	0.2723
415.7912	0.2454
415.9961	0.2526
416.201	0.2652
416.4059	0.2643
416.6108	0.257
416.8156	0.2439
417.0205	0.2519
417.2253	0.2474
417.4301	0.2527
417.6349	0.2636
417.8397	0.258
418.0445	0.2511
418.2492	0.2411
418.454	0.2381
418.6587	0.2516
418.8634	0.2399
419.0681	0.2398
419.2728	0.2492
419.4775	0.2526
419.6822	0.2407
419.8868	0.2478
420.0915	0.2486
420.2961	0.2394
420.5007	0.239
420.7053	0.2338
420.9099	0.239
421.1144	0.2377
421.319	0.2388
421.5235	0.2243
421.728	0.2418
421.9325	0.2347
422.137	0.2328
422.3415	0.2296
422.546	0.2372
422.7504	0.2286
422.9549	0.2333
423.1593	0.2249
423.3637	0.2333
423.5681	0.228
423.7725	0.2217
423.9769	0.2314
424.1812	0.2143
424.3856	0.2165
424.5899	0.2231
424.7942	0.2246
424.9985	0.2185
425.2028	0.2291
425.4071	0.2292
425.6113	0.2223
425.8156	0.2223
426.0198	0.2133
426.224	0.2277
426.4282	0.2094
426.6324	0.2144
426.8366	0.2104
427.0407	0.2103
427.2449	0.2088
427.449	0.2095
427.6531	0.225
427.8572	0.2165
428.0613	0.2128
428.2654	0.211
428.4694	0.1984
428.6735	0.2034
428.8775	0.2069
429.0815	0.1996
429.2855	0.1918
429.4895	0.2016
429.6935	0.1922
429.8975	0.1973
430.1014	0.2001
430.3053	0.1946
430.5093	0.185
430.7132	0.1886
430.9171	0.1856
431.1209	0.1886
431.3248	0.1802
431.5286	0.1783
431.7325	0.191
431.9363	0.172
432.1401	0.1812
432.3439	0.1809
432.5477	0.1663
432.7514	0.1754
432.9552	0.1632
433.1589	0.1632
433.3627	0.1646
433.5664	0.1669
433.7701	0.164
433.9737	0.1644
434.1774	0.1598
434.3811	0.1427
434.5847	0.1612
434.7883	0.1584
434.9919	0.1502
435.1955	0.1557
435.3991	0.158
435.6027	0.1459
435.8062	0.1621
436.0098	0.1331
436.2133	0.1417
436.4168	0.146
436.6203	0.141
436.8238	0.1407
437.0272	0.1505
437.2307	0.1353
437.4341	0.1346
437.6375	0.1325
437.841	0.1306
438.0443	0.1315
438.2477	0.1265
438.4511	0.1113
438.6545	0.1297
438.8578	0.1136
439.0611	0.1262
439.2644	0.1213
439.4677	0.1137
439.671	0.1117
439.8743	0.1161
440.0775	0.1103
440.2808	0.1103
440.484	0.1077
440.6872	0.1116
440.8904	0.1033
441.0936	0.1079
441.2967	0.094
441.4999	0.0987
441.703	0.0966
441.9062	0.1
442.1093	0.105
442.3124	0.0926
442.5155	0.0911
442.7185	0.0837
442.9216	0.0858
443.1246	0.0892
443.3276	0.083
443.5307	0.0846
443.7337	0.0909
443.9366	0.0842
444.1396	0.0709
444.3426	0.0842
444.5455	0.0795
444.7484	0.0727
444.9513	0.0733
445.1542	0.0817
445.3571	0.0708
445.56	0.0729
445.7628	0.0703
445.9657	0.0731
446.1685	0.08
446.3713	0.0715
446.5741	0.0744
446.7769	0.0631
446.9797	0.0678
447.1824	0.0738
447.3852	0.05
447.5879	0.0636
447.7906	0.0496
447.9933	0.0601
448.196	0.0562
448.3986	0.0505
448.6013	0.0461
448.8039	0.0613
449.0066	0.0631
449.2092	0.063
449.4118	0.0523
449.6143	0.054
449.8169	0.0441
450.0195	0.0514
450.222	0.0512
450.4245	0.0468
450.627	0.0531
450.8295	0.0345
451.032	0.0414
451.2345	0.0343
451.4369	0.0465
451.6394	0.0495
451.8418	0.0417
452.0442	0.0482
452.2466	0.0299
452.449	0.0351
452.6513	0.0334
452.8537	0.0264
453.056	0.039
453.2583	0.0316
453.4607	0.0258
453.663	0.0342
453.8652	0.0277
454.0675	0.0417
454.2697	0.0244
454.472	0.0258
454.6742	0.0276
454.8764	0.0389
455.0786	0.0256
455.2808	0.0268
455.4829	0.0302
455.6851	0.0276
455.8872	0.0243
456.0893	0.0204
456.2915	0.0276
456.4935	0.0288
456.6956	0.0188
456.8977	0.0177
457.0997	0.0221
457.3018	0.0213
457.5038	0.0272
457.7058	0.0237
457.9078	0.0344
458.1098	0.0225
458.3117	0.0316
458.5137	0.0061
458.7156	0.0218
458.9175	0.0265
459.1194	0.02
459.3213	0.0155
459.5232	0.0222
459.725	0.0158
459.9269	0.0124
460.1287	0.0036
460.3305	0.0202
460.5323	0.0168
460.7341	0.0157
460.9359	0.0077
461.1376	0.0087
461.3394	0.0212
461.5411	0.0207
461.7428	0.0165
461.9445	0.0113
462.1462	0.0068
462.3479	0.0124
462.5495	0.0231
462.7512	0.0187
462.9528	0.0059
463.1544	0.0077
463.356	0.0067
463.5576	0.0202
463.7592	0.0124
463.9607	0.0115
464.1623	0.0096
464.3638	0.0112
464.5653	0.0144
464.7668	0.0171
464.9683	0.0182
465.1697	0.0173
465.3712	0.0037
465.5726	0.0092
465.7741	0.0174
465.9755	0.0106
466.1769	0.0147
466.3782	0.0071
466.5796	0.0077
466.7809	0.0238
466.9823	0.0103
467.1836	0.0145
467.3849	0.0135
467.5862	0.0018
467.7875	0.0125
467.9887	0.0024
468.19	0.0045
468.3912	0.014
468.5924	0.0043
468.7936	0.009
468.9948	-0.0049
469.196	0.0063
469.3972	0.0058
469.5983	0.0085
469.7994	0.0051
470.0006	0.0108
470.2017	0.0109
470.4027	0.0257
470.6038	0.0043
470.8049	0.0143
471.0059	0.0144
471.2069	0.0118
471.408	0.0072
471.6089	0.0144
471.8099	0.0115
472.0109	0.0057
472.2119	0.0101
472.4128	0.0011
472.6137	-0.0007
472.8146	-0.0017
473.0155	0.0161
473.2164	0.0044
473.4173	-0.0039
473.6181	-0.0017
473.819	0.0028
474.0198	-0.0013
474.2206	-0.0066
474.4214	0.0068
474.6222	-0.0048
474.8229	0.0087
475.0237	0.0118
475.2244	0.0085
475.4251	0.004
475.6258	-0.0021
475.8265	0.0105
476.0272	-0.0006
476.2278	0.0063
476.4285	0.0022
476.6291	0.0101
476.8297	0.0054
477.0303	-0.0005
477.2309	0.0051
477.4315	0.0096
477.632	-0.0032
477.8326	0.0106
478.0331	0.0109
478.2336	0.0009
478.4341	0.0085
478.6346	0.0095
478.8351	-0.0017
479.0355	0.0155
479.236	0.012
479.4364	0.0016
479.6368	0.0104
479.8372	0.0074
480.0376	0.0034
480.2379	0.0057
480.4383	0.0093
480.6386	-0.0057
480.8389	0.0056
481.0392	0.0021
481.2395	0.0134
481.4398	0.0015
481.6401	0.0056
481.8403	-0.0022
482.0405	0.0043
482.2408	0.0065
482.441	0.0027
482.6411	0.0013
482.8413	0.004
483.0415	0.0099
483.2416	0
483.4417	0.007
483.6419	-0.0033
483.8419	0.0024
484.042	-0.0012
484.2421	0.0075
484.4422	-0.0012
484.6422	0.0069
484.8422	0.0077
485.0422	0.0032
485.2422	-0.0005
485.4422	0.0051
485.6422	0.0046
485.8421	-0.0003
486.042	0.0079
486.242	0.0013
486.4419	0.0025
486.6417	-0.0021
486.8416	0.0006
487.0415	-0.0035
487.2413	-0.0022
487.4411	0.0031
487.641	-0.0003
487.8408	0.0022
488.0405	0.007
488.2403	0.0022
488.4401	0.0031
488.6398	0.009
488.8395	0.0044
489.0392	0.0013
489.2389	0.0055
489.4386	-0.0021
489.6383	0.0073
489.8379	-0.0062
490.0376	0.0019
490.2372	0.0031
490.4368	0.0009
490.6364	-0.007
490.836	-0.0014
491.0355	-0.0033
491.2351	-0
491.4346	0.0026
491.6341	0.0062
491.8336	0.0066
492.0331	-0.0053
492.2326	0.0042
492.432	0.0038
492.6315	0.0043
492.8309	0.0037
493.0303	0.0048
493.2297	0.0094
493.4291	-0.0063
493.6284	0.0068
493.8278	-0.0075
494.0271	0.0031
494.2264	-0.0019
494.4257	0.0106
494.625	0.002
494.8243	-0.0008
495.0236	0.0049
495.2228	0.0047
495.422	0.0027
495.6213	0.0038
495.8205	0.0091
496.0196	0.0002
496.2188	0.0017
496.418	-0.0042
496.6171	-0.0036
496.8162	0.0084
497.0153	0.0073
497.2144	0.0029
497.4135	0.0016
497.6126	0.0047
497.8116	-0.0057
498.0107	0.003
498.2097	0.006
498.4087	-0.0002
498.6077	-0.0108
498.8067	0.0078
499.0056	-0.0015
499.2046	0.0044
499.4035	0.002
499.6024	-0.0029
499.8013	-0.0058
500.0002	0.0031
500.199	0.0055
500.3979	-0.0044
500.5967	-0.0019
500.7956	0.0069
500.9944	0.0011
501.1932	0.0107
501.3919	0.0088
501.5907	0.0052
501.7895	-0.0007
501.9882	-0.0014
502.1869	0.0105
502.3856	-0.001
502.5843	-0.001
502.783	-0.0004
502.9816	0.0087
503.1803	0.006
503.3789	0.0095
503.5775	0.004
503.7761	-0.0086
503.9747	0.0105
504.1732	-0.0047
504.3718	0.006
504.5703	0.002
504.7689	-0.0077
504.9674	0.0063
505.1658	-0.0025
505.3643	0.0103
505.5628	0.0061
505.7612	0.0033
505.9597	-0.0027
506.1581	0.0006
506.3565	0.001
506.5549	-0.0077
506.7532	-0.0093
506.9516	0.0058
507.1499	0.0004
507.3482	0.0067
507.5465	0.0087
507.7448	0.0063
507.9431	0.006
508.1414	0.0011
508.3396	0.0039
508.5379	-0.0053
508.7361	0.0047
508.9343	0.0005
509.1325	0.0157
509.3306	0.0044
509.5288	-0.0065
509.7269	0.0015
509.9251	-0.0053
510.1232	-0.0006
510.3213	0.0012
510.5193	0.0005
510.7174	0.0032
510.9154	0.0062
511.1135	-0.0103
511.3115	-0.003
511.5095	-0.0019
511.7075	0.0035
511.9055	0.0051
512.1034	0.0016
512.3014	0.0056
512.4993	0.0111
512.6972	0.0038
512.8951	0.0046
513.093	-0.0008
513.2908	0.012
513.4887	0.0014
513.6865	0.0009
513.8844	-0.0022
514.0822	0.0026
514.2799	-0.002
514.4777	-0.0058
514.6755	-0.005
514.8732	0.0011
515.0709	-0.0044
515.2687	0.0012
515.4664	0.0051
515.664	0.0053
515.8617	0.0168
516.0594	0.006
516.257	0.0049
516.4546	0.0166
516.6522	-0.0014
516.8498	0.0002
517.0474	0.0055
517.2449	0.0084
517.4425	-0.0075
517.64	-0.0003
517.8375	0.0102
518.035	0.0049
518.2325	0.0005
518.43	0.0057
518.6274	0.0137
518.8249	0.0035
519.0223	0.004
519.2197	-0.0063
519.4171	0.0036
519.6145	0.0071
519.8118	-0.0066
520.0092	-0.0096
520.2065	0.0036
520.4038	0.0027
520.6011	0.0034
520.7984	-0.0011
520.9956	0.0114
521.1929	-0.0041
521.3901	0.0027
521.5874	0.006
521.7846	-0.0033
521.9818	-0.0064
522.1789	0.0025
522.3761	0.0152
522.5732	0.0068
522.7704	-0.015
522.9675	-0.0088
523.1646	-0.0036
523.3617	0.0056
523.5587	-0.0006
523.7558	0.0022
523.9528	0.0093
524.1498	-0.0029
524.3468	0.0031
524.5438	0.0016
524.7408	0.0015
524.9378	0.0096
525.1347	0.0111
525.3316	0.0029
525.5285	0.0029
525.7254	0.0054
525.9223	0.0137
526.1192	0.0024
526.316	0.007
526.5129	0.0038
526.7097	-0.0012
526.9065	0.0074
527.1033	0.0028
527.3	-0.0004
527.4968	0.0074
527.6935	-0.0062
527.8903	-0.0054
528.087	0.0012
528.2837	0.0055
528.4804	-0.0043
528.677	-0.0008
528.8737	0.0004
529.0703	-0.0077
529.2669	0.01
529.4635	-0.0015
529.6601	-0.0047
529.8567	0.0005
530.0532	-0.0085
530.2498	0.0027
530.4463	-0.0083
530.6428	-0.0018
530.8393	0.0022
531.0358	0.002
531.2322	-0.0068
531.4287	0.001
531.6251	-0.0109
531.8215	-0.0088
532.0179	0.0071
532.2143	0.0108
532.4107	0.0029
532.607	-0.0033
532.8034	-0.005
532.9997	0.0066
533.196	0.0037
533.3923	0.0018
533.5886	-0.001
533.7848	-0.0054
533.9811	0.0095
534.1773	0.0025
534.3735	0.0049
534.5697	0.0033
534.7659	0.0026
534.9621	-0.0025
535.1582	0.0081
535.3544	-0.0065
535.5505	0.0002
535.7466	0.0027
535.9427	0.003
536.1387	-0.0068
536.3348	0.0037
536.5308	-0.005
536.7269	-0.0066
536.9229	0.0083
537.1189	0.004
537.3148	0.0042
537.5108	0.0031
537.7068	0.0138
537.9027	-0.0129
538.0986	0.0089
538.2945	-0.0088
538.4904	-0.0086
538.6863	0.0065
538.8821	0.0112
539.078	0.0007
539.2738	0.0069
539.4696	-0.0084
539.6654	0.0079
539.8611	-0.0002
540.0569	0.0065
540.2526	0.0143
540.4484	-0.0077
540.6441	-0.0074
540.8398	0.0054
541.0355	-0.0028
541.2311	0.0044
541.4268	0.0064
541.6224	0.0052
541.818	0.0103
542.0136	0.0018
542.2092	0.0068
542.4048	0.0039
542.6003	-0.0033
542.7959	0.0007
542.9914	0.0075
543.1869	0.004
543.3824	0.0125
543.5779	0.0041
543.7734	0.0162
543.9688	0.006
544.1642	-0.0065
544.3596	0.0093
544.555	0.0048
544.7504	0.0097
544.9458	0.001
545.1411	-0.0043
545.3365	0.0014
545.5318	0.0046
545.7271	0.0061
545.9224	-0.0014
546.1177	0.0053
546.3129	0.0094
546.5081	0.0012
546.7034	0.0034
546.8986	0.0088
547.0938	-0.0014
547.289	0.0113
547.4841	-0.0011
547.6793	-0.0022
547.8744	0.0074
548.0695	-0.0078
548.2646	0.0008
548.4597	-0.0002
548.6548	0.0136
548.8498	0.0065
549.0448	0.0057
549.2399	0.0118
549.4349	-0.0014
549.6298	0.0029
549.8248	-0.0022
550.0198	-0.0014
550.2147	0.0082
550.4096	-0.0123
550.6045	-0.0018
550.7994	-0.0047
550.9943	0.0098
551.1892	-0.013
551.384	0.0077
551.5788	0.0066
551.7737	0.0155
551.9685	0.0027
552.1632	-0.0058
552.358	0.0012
552.5528	0.0074
552.7475	-0.0038
552.9422	0.0041
553.1369	0.0133
553.3316	0.0085
553.5263	0.0105
553.7209	-0.0019
553.9156	-0.0024
554.1102	-0.0118
554.3048	-0.0053
554.4994	0.0031
554.694	0.013
554.8885	0.0098
555.0831	0.004
555.2776	-0.0006
555.4721	0.0047
555.6666	-0.0028
555.8611	0.0111
556.0555	0.0015
556.25	0.0085
556.4444	-0.0032
556.6388	0.0027
556.8332	0.0013
557.0276	-0.0048
557.222	-0.0138
557.4163	0.0034
557.6107	0.0077
557.805	-0.0042
557.9993	0.002
558.1936	-0.0098
558.3879	-0.0024
558.5821	-0.0039
558.7764	-0.0029
558.9706	-0.0056
559.1648	0.0039
559.359	-0.0012
559.5532	-0.0012
559.7473	-0.0034
559.9415	-0.0037
560.1356	0.0165
560.3297	-0.0001
560.5238	0.0092
560.7179	-0.0056
560.9119	0.0041
561.106	-0.011
561.3	-0.0028
561.494	-0.0118
561.688	-0.0044
561.882	0.0026
562.076	0.0052
562.2699	0.0087
562.4639	0.008
562.6578	0.0015
562.8517	-0.0019
563.0456	-0.0052
563.2395	0.0076
563.4333	0.0027
563.6272	0
563.821	-0.0064
564.0148	0.0042
564.2086	0.0002
564.4024	0.0077
564.5961	-0.0035
564.7899	0.0063
564.9836	-0.0007
565.1773	0.0034
565.371	-0.0007
565.5647	0.0085
565.7584	0.0129
565.952	0.0119
566.1456	-0.0067
566.3393	0.0089
566.5329	-0.0033
566.7264	0.0051
566.92	0.0062
567.1136	0.0023
567.3071	-0.0071
567.5006	0.0099
567.6941	0.0003
567.8876	0.0002
568.0811	0.0169
568.2745	-0.0062
568.468	0.0099
568.6614	0.0082
568.8548	0.0049
569.0482	0.0031
569.2416	0.0009
569.4349	0.0032
569.6283	0.007
569.8216	0.0081
570.0149	-0.0014
570.2082	0.0099
570.4015	-0.0003
570.5947	0.0031
570.788	0.0013
570.9812	0.005
571.1744	0.0046
571.3676	0.004
571.5608	-0.0012
571.754	0.0078
571.9471	0.004
572.1402	-0.0003
572.3333	0.0014
572.5264	0.007
572.7195	0.0021
572.9126	0.0009
573.1057	0.0059
573.2987	0.0018
573.4917	0.0001
573.6847	-0.0008
573.8777	0.0007
574.0707	0.0009
574.2636	0.0015
574.4566	-0.0028
574.6495	-0.0004
574.8424	0.0069
575.0353	0.0039
575.2281	0.0103
575.421	-0.0002
575.6138	0.0014
575.8067	0.0036
575.9995	0.005
576.1923	0.0078
576.385	0.0022
576.5778	0.0024
576.7706	0.0015
576.9633	0.0048
577.156	-0.0029
577.3487	-0.0012
577.5414	0.002
577.734	0.0027
577.9267	0.0054
578.1193	0.006
578.3119	-0.0017
578.5045	0.0059
578.6971	0.0023
578.8897	0.0012
579.0822	0.0068
579.2747	0.0016
579.4673	0.0043
579.6598	0.0064
579.8522	0.0006
580.0447	0.0044
580.2372	0.0029
580.4296	0.0069
580.622	-0.0005
580.8144	0.0044
581.0068	0.0015
581.1992	0.0009
581.3915	-0.0001
581.5839	0.0022
581.7762	-0.001
581.9685	0.0027
582.1608	0.0032
582.353	-0.0006
582.5453	0.0048
582.7375	-0.0003
582.9298	-0.0046
583.122	-0.0005
583.3142	0.002
583.5063	-0.0025
583.6985	0.0007
583.8906	0.0003
584.0827	0
584.2749	-0.001
584.4669	-0.0019
584.659	0.0048
584.8511	0.0068
585.0431	0.0062
585.2352	0.0033
585.4272	0.004
585.6192	0.0004
585.8111	-0.0007
586.0031	0.0002
586.195	0.0028
586.387	0.0025
586.5789	0.0031
586.7708	0.0039
586.9627	0.0024
587.1545	0.0031
587.3464	0.0012
587.5382	-0.0016
587.73	0.008
587.9218	0.003
588.1136	-0.0001
588.3053	0.0055
588.4971	0.003
588.6888	-0.0004
588.8805	-0.0002
589.0722	0.0122
589.2639	0.0059
589.4556	0.0031
589.6472	0.0063
589.8389	0.0024
590.0305	-0.005
590.2221	0.0068
590.4137	-0.0034
590.6052	-0.0016
590.7968	0.0067
590.9883	0.0045
591.1798	-0.001
591.3713	0.0015
591.5628	0.002
591.7543	0.0013
591.9458	-0.0025
592.1372	0.0041
592.3286	0.0018
592.52	0.0028
592.7114	-0.0004
592.9028	0.0073
593.0941	-0.0015
593.2855	0.0029
593.4768	0.0058
593.6681	0.0066
593.8594	0.003
594.0506	0.0061
594.2419	0.0083
594.4331	-0.0005
594.6244	-0.0054
594.8156	0.0004
595.0067	-0.0004
595.1979	0.0038
595.3891	0.0048
595.5802	0.0073
595.7713	0.0032
595.9624	0.0047
596.1535	0.0002
596.3446	-0.0023
596.5357	0.0099
596.7267	0.0015
596.9177	0.0013
597.1087	-0.0034
597.2997	0.0038
597.4907	0.0027
597.6817	0.0047
597.8726	0.0005
598.0635	0.0015
598.2544	0.007
598.4453	0.0052
598.6362	-0.0028
598.827	0.0031
599.0179	0.0012
599.2087	0.0071
599.3995	0.0003
599.5903	0.0084
599.7811	0.0059
599.9718	-0.0028
600.1626	-0.0035
600.3533	0.0043
600.544	0.0039
600.7347	-0.0022
600.9254	0.0155
601.116	0.0025
601.3067	0.0018
601.4973	0.0023
601.6879	0.0022
601.8785	0.0012
602.0691	0.0007
602.2596	0.0053
602.4502	0.0046
602.6407	0.004
602.8312	0.0027
603.0217	0.0025
603.2122	0.0038
603.4027	-0.0012
603.5931	0.0036
603.7835	0.0034
603.9739	0.0013
604.1643	0.01
604.3547	0.0107
604.5451	0.0113
604.7354	0.0014
604.9257	-0.0015
605.116	-0.0036
605.3063	0.0009
605.4966	-0.0051
605.6869	0.0059
605.8771	0.0015
606.0673	0.0051
606.2575	-0.0013
606.4477	0.0075
606.6379	0.0008
606.8281	-0.0027
607.0182	0.002
607.2083	0.0007
607.3985	-0.0019
607.5885	0.0031
607.7786	0.0049
607.9687	0.0111
608.1587	0.0123
608.3488	0.0019
608.5388	-0.0009
608.7288	0.0004
608.9187	-0.0013
609.1087	0.0022
609.2986	0.0068
609.4886	-0.001
609.6785	-0
609.8684	-0.0016
610.0582	-0.0018
610.2481	-0
610.4379	0.0024
610.6278	0.0015
610.8176	0.0085
611.0074	0.003
611.1971	-0.0003
611.3869	0.0039
611.5766	-0.0051
611.7664	0.0058
611.9561	0.0095
612.1458	0.0015
612.3354	0.0055
612.5251	0.0016
612.7147	0.0027
612.9044	-0.0058
613.094	-0.0002
613.2836	0.0006
613.4731	0.0003
613.6627	0.003
613.8522	0.0045
614.0417	0.0057
614.2313	0.0024
614.4207	0.0048
614.6102	0.0013
614.7997	0.0116
614.9891	0.0035
615.1785	-0.0046
615.3679	0.0037
615.5573	0.0059
615.7467	-0.0063
615.9361	0.0002
616.1254	0.0086
616.3147	0.0089
616.504	-0.002
616.6933	-0.0036
616.8826	-0.0051
617.0718	0.0068
617.2611	0.0019
617.4503	0.0023
617.6395	0.0042
617.8287	0.0026
618.0179	0.0081
618.207	-0.0019
618.3961	-0.0064
618.5853	0.0008
618.7744	0.0071
618.9634	0.011
619.1525	0.0041
619.3416	-0.0048
619.5306	-0.0004
619.7196	0.0094
619.9086	-0.0049
620.0976	-0.0081
620.2866	0.0151
620.4755	-0.0021
620.6645	0.0203
620.8534	0.0009
621.0423	-0.0034
621.2312	0.0037
621.42	-0.0099
621.6089	0.0067
621.7977	0.0098
621.9865	-0.0041
622.1753	0.002
622.3641	-0.0088
622.5529	-0.0025
622.7416	-0.0013
622.9303	0.0008
623.1191	0.0102
623.3078	0.0026
623.4964	0.002
623.6851	0.0005
623.8737	0.0036
624.0624	-0.0152
624.251	-0.0062
624.4396	0.0082
624.6282	0.0082
624.8167	0.0056
625.0053	0.0102
625.1938	0.0084
625.3823	0.0043
625.5708	-0.0058
625.7593	0.0044
625.9477	0.0078
626.1362	0.0068
626.3246	-0.0037
626.513	0.0022
626.7014	0.0082
626.8898	0.0155
627.0781	0.0062
627.2665	0.0074
627.4548	-0.0054
627.6431	0.0006
627.8314	0.0121
628.0197	0.0057
628.2079	0.0002
628.3962	-0.0034
628.5844	-0.0008
628.7726	-0.0082
628.9608	0.0107
629.1489	-0.0065
629.3371	-0.0044
629.5252	0.0079
629.7134	-0.003
629.9015	0.0097
630.0895	-0.0025
630.2776	0.0012
630.4657	0.0042
630.6537	0.007
630.8417	-0.0031
631.0297	-0.0069
631.2177	0.0096
631.4057	-0.0018
631.5936	-0.0032
631.7815	0.0041
631.9695	0.0144
632.1574	0.0123
632.3452	0.0016
632.5331	0.0096
632.7209	0.0191
632.9088	0.0032
633.0966	0.0182
633.2844	-0.0036
633.4722	0.0082
633.6599	0.011
633.8477	0.0173
634.0354	0.0044
634.2231	-0.0166
634.4108	0.0006
634.5985	0.0044
634.7861	-0.0087
634.9738	-0.0056
635.1614	0.0002
635.349	0.0026
635.5366	0.0133
635.7242	0.0067
635.9117	0.0092
636.0993	0.0045
636.2868	0.0059
636.4743	-0.001
636.6618	-0.013
636.8492	-0.0095
637.0367	0.0045
637.2241	-0.0045
637.4115	0.0222
637.5989	-0.0035
637.7863	0.0258
637.9737	0.0086
638.161	0.0065
638.3484	-0.004
638.5357	0.0032
638.723	0.0145
638.9103	-0.0209
639.0975	-0.0012
639.2848	-0.01
639.472	0.01
639.6592	-0.0003
639.8464	0.0046
640.0336	0.0098
640.2208	-0.0011
640.4079	-0.01
640.595	-0.0073
640.7821	0.017
640.9692	-0.0061
641.1563	-0.0028
641.3434	0.0003
641.5304	0.0159
641.7174	-0.003
641.9044	0.0027
642.0914	0.0093
642.2784	0.0111
642.4653	0.0033
642.6523	-0.0135
642.8392	-0.0176
643.0261	0.0161
643.213	0.0139
643.3999	0.0238
643.5867	0.0168
643.7735	-0.0107
643.9604	0.0062
644.1472	0.0135
644.3339	0.0033
644.5207	-0.0023
644.7075	-0.0161
644.8942	-0.0141
645.0809	-0.0028
645.2676	-0.0086
645.4543	0.0059
645.6409	0.0225
645.8276	0.0018
646.0142	0.0129
646.2008	0.0036
646.3874	-0.0106
646.574	0.0058
646.7605	0.0026
646.9471	0.0307
647.1336	-0.0317
647.3201	0.0077
647.5066	0.0119
647.6931	-0.0042
647.8795	0.001
648.0659	-0.0084
648.2524	0.0033
648.4388	-0.0102
648.6252	0.0098
648.8115	0.008
648.9979	-0.0041
649.1842	-0.0041
649.3705	0.0251
649.5568	-0.0098
649.7431	-0.0133
649.9294	-0.0202
650.1156	-0.0211
650.3018	0.0133
650.488	0.0198
650.6742	-0.0007
650.8604	0.0151
651.0466	-0.0091
651.2327	-0.0041
651.4188	-0.0084
651.6049	0.0145
651.791	-0.0026
651.9771	0.0063
652.1632	0.006
652.3492	-0.0092
652.5352	0.0105
652.7212	0.002
652.9072	-0.0064
653.0932	-0.0065
653.2791	-0.0054
653.465	-0.0058
653.651	0.0017
653.8369	-0.0067
654.0227	0.0039
654.2086	0.0152
654.3944	0.0127
654.5803	-0.0006
654.7661	0.0045
654.9519	-0.0013
655.1377	-0.0001
655.3234	-0.0001
655.5092	-0.0001
655.6949	-0.0001
655.8806	-0.0001
656.0663	-0.0001
656.2519	-0.0001
656.4376	-0.0001
656.6232	-0.0001
656.8088	-0.0001
656.9945	-0.0001
657.18	-0.0001
657.3656	-0.0001
657.5511	-0.0001
657.7367	-0.0001
657.9222	-0.0001
658.1077	-0.0001
658.2932	-0.0001
658.4786	-0.0001
658.6641	-0.0001
658.8495	-0.0001
659.0349	-0.0001
659.2203	-0.0001
659.4057	-0.0001
659.591	0.0822
659.7764	0.0188
659.9617	0.003
660.147	-0.0178
660.3323	-0.0081
660.5176	-0.012
660.7028	-0.0163
660.888	-0.0112
661.0733	0.009
661.2585	-0.014
661.4436	-0.0055
661.6288	0.0221
661.8139	-0.0196
661.9991	-0.0148
662.1842	0.0032
662.3693	0.0077
662.5544	0.0011
662.7394	0.0296
662.9245	-0.0086
663.1095	-0.0218
663.2945	-0.0072
663.4795	-0.0235
663.6644	0.0089
663.8494	0.005
664.0343	0.0112
664.2193	-0.0134
664.4042	0.01
664.589	0.0222
664.7739	0.001
664.9587	-0.0112
665.1436	-0.0055
665.3284	-0.0044
665.5132	-0.0135
665.698	-0.004
665.8827	0.0114
666.0675	-0.0238
666.2522	0.0038
666.4369	-0.0077
666.6216	-0.0214
666.8063	-0.0129
666.9909	-0.0132
667.1756	-0.0107
667.3602	-0.0251
667.5448	0.015
667.7294	0.017
667.9139	-0.0044
668.0985	0.0118
668.283	-0.0137
668.4675	0.0004
668.652	0.001
668.8365	0.0034
669.0209	0.0046
669.2054	0.0042
669.3898	-0.0049
669.5742	0.0081
669.7586	-0.0023
669.943	-0.0011
670.1273	-0.0071
670.3117	0.0393
670.496	-0.0206
670.6803	-0.0175
670.8646	-0.0391
671.0488	0.0205
671.2331	-0.0111
671.4173	0.0138
671.6015	0.0026
671.7857	0.0045
671.9699	0.0086
672.1541	-0.0039
672.3382	-0.0015
672.5223	-0.0034
672.7064	-0.0114
672.8905	-0.0121
673.0746	0.0168
673.2587	0.0142
673.4427	-0.0031
673.6267	0.0052
673.8107	0.0127
673.9947	-0.0016
674.1787	-0.0218
674.3626	0.0099
674.5465	0.0209
674.7304	-0.0038
674.9143	-0.0151
675.0982	-0.0079
675.2821	-0.0037
675.4659	-0.0027
675.6497	-0.0002
675.8335	-0.0038
676.0173	-0.0324
676.2011	0.0097
676.3849	0.0052
676.5686	0.0146
676.7523	-0.0148
676.936	-0.0139
677.1197	-0.0013
677.3034	0.0332
677.487	0.014
677.6706	0.005
677.8542	0.0034
678.0378	-0.0148
678.2214	0.0077
678.405	-0.0054
678.5885	0.0027
678.772	0.0105
678.9555	0.0032
679.139	0.0207
679.3225	-0.002
679.5059	0.0006
679.6894	-0.0156
679.8728	-0.002
680.0562	-0.0023
680.2395	-0.0016
680.4229	-0.0051
680.6062	0.0057
680.7896	-0.0029
680.9729	0.0069
681.1562	-0.021
681.3394	-0.0179
681.5227	0.0026
681.7059	-0.0056
681.8891	0.0022
682.0723	-0.0136
682.2555	0.0035
682.4387	-0.0009
682.6218	-0.0056
682.805	0.0108
682.9881	0.0112
683.1712	0.0088
683.3542	0.0131
683.5373	-0.0046
683.7203	-0.0019
683.9034	-0.005
684.0864	-0.0024
684.2694	-0.0062
684.4523	0.0193
684.6353	0.0006
684.8182	-0.0019
685.0011	-0.0001
685.184	0.0042
685.3669	0.0163
685.5498	-0.0108
685.7326	-0.0052
685.9154	-0.0005
686.0982	0.0101
686.281	0.004
686.4638	0.0049
686.6465	0.0061
686.8293	-0.0203
687.012	0.0204
687.1947	0.0142
687.3774	-0.0017
687.56	-0.0112
687.7427	0.0072
687.9253	-0.0148
688.1079	-0.0245
688.2905	-0.018
688.4731	0.0194
688.6556	0.0117
688.8382	-0.0263
689.0207	0.0107
689.2032	-0.0087
689.3857	-0.015
689.5681	-0.0167
689.7506	0.002
689.933	-0.0091
690.1154	0.013
690.2978	-0.0131
690.4802	0.0161
690.6626	-0.0047
690.8449	0.0171
691.0272	-0.01
691.2095	-0.0202
691.3918	0.0111
691.5741	0.0057
691.7563	-0.0038
691.9386	0.0106
692.1208	-0.0089
692.303	-0.0059
692.4852	0.0029
692.6673	0.0026
692.8495	-0.0077
693.0316	0.0073
693.2137	0.0194
693.3958	0.0117
693.5778	0.0042
693.7599	-0.0074
693.9419	0.0022
694.1239	0.0101
694.3059	0.0075
694.4879	-0.0043
694.6699	0.0052
694.8518	0.0137
695.0337	0.0102
695.2157	0.0145
695.3975	-0.0012
695.5794	-0.0195
695.7613	0.0138
695.9431	-0.0177
696.1249	0.0083
696.3067	-0.0054
696.4885	0.0036
696.6703	0.0029
696.852	-0.0094
697.0337	0.0226
697.2154	0.0009
697.3971	-0.004
697.5788	0.0132
697.7605	-0.0038
697.9421	0.0008
698.1237	0.0144
698.3053	-0.0272
698.4869	0.0081
698.6685	-0.0155
698.85	0.0295
699.0315	-0.0227
699.213	0.0081
699.3945	-0.004
699.576	0.0163
699.7575	0.0067
699.9389	-0.0046
700.1203	0.009
700.3017	-0.0119
700.4831	0.0169
700.6645	0.0304
700.8458	-0.0042
701.0271	0.0229
701.2084	-0.0046
701.3897	-0.0106
701.571	-0.0206
701.7523	-0.0101
701.9335	0.0026
702.1147	0.0117
702.2959	0.0038
702.4771	-0.0073
702.6583	-0.0068
702.8394	-0.0194
703.0205	0.0138
703.2016	-0.0308
703.3827	-0.0026
703.5638	-0.0141
703.7449	0.0163
703.9259	0.0185
704.1069	-0.0003
704.2879	0.0132
704.4689	0.0045
704.6499	0.001
704.8308	-0.0027
705.0117	-0.0079
705.1927	-0.0115
705.3735	0.0011
705.5544	0.0074
705.7353	0.012
705.9161	-0.02
706.0969	0.0085
706.2777	-0.0041
706.4585	-0.0193
706.6393	0.008
706.82	0.0113
707.0007	0.0018
707.1815	0.002
707.3621	0.0129
707.5428	0.0154
707.7235	-0.0031
707.9041	0.0019
708.0847	-0.0069
708.2653	0.0213
708.4459	-0.0134
708.6265	-0.0062
708.807	0.0046
708.9875	-0.01
709.168	-0.0041
709.3485	0.0008
709.529	-0.0172
709.7095	-0.022
709.8899	-0.0106
710.0703	0.0246
710.2507	-0.0005
710.4311	-0.033
710.6115	0.019
710.7918	0.031
710.9721	0.0025
711.1524	-0.0006
711.3327	-0.0119
711.513	-0.0074
711.6932	0.0026
711.8735	0.0159
712.0537	-0.0183
712.2339	-0.0015
712.4141	0.0188
712.5942	-0.0064
712.7744	0.0169
712.9545	0.017
713.1346	0.032
713.3147	-0.0047
713.4947	-0.0097
713.6748	0.0054
713.8548	0.0035
714.0348	0.0128
714.2148	0.02
714.3948	-0.0059
714.5748	0.0145
714.7547	0.001
714.9346	-0.0041
715.1145	-0.0194
715.2944	-0.0152
715.4743	0.0242
715.6541	-0.0126
715.834	0.001
716.0138	0.0231
716.1936	-0.0062
716.3733	-0.0039
716.5531	-0.0239
716.7328	-0.0019
716.9126	-0.0093
717.0923	-0.0326
717.2719	0.0201
717.4516	0.0009
717.6312	-0.0374
717.8109	0.0358
717.9905	0.011
718.1701	0.015
718.3496	-0.0432
718.5292	-0.0162
718.7087	-0.0249
718.8882	0.0244
719.0677	0.0093
719.2472	-0.011
719.4267	-0.004
719.6061	-0.0183
719.7856	0.0304
719.965	-0.0062
720.1443	-0.0122
720.3237	-0.0154
720.5031	0.002
720.6824	-0.0007
720.8617	0.0181
721.041	0.0333
721.2203	0.0087
721.3995	-0.0056
721.5788	0.0129
721.758	-0.0253
721.9372	-0.0192
722.1164	0.004
722.2956	-0.0213
722.4747	0.0023
722.6538	-0.0226
722.8329	0.0176
723.012	-0.0104
723.1911	0.013
723.3702	0.037
723.5492	-0.0105
723.7282	0.0057
723.9072	0.0104
724.0862	-0.0096
724.2652	0.0176
724.4441	0.0108
724.623	0.0185
724.8019	0.0026
724.9808	-0.01
725.1597	0.0249
725.3385	0.011
725.5174	0.0011
725.6962	-0.0033
725.875	0.0047
726.0538	0.0232
726.2325	-0.0022
726.4112	-0.0232
726.59	-0.0173
726.7687	-0.0161
726.9474	-0.0047
727.126	0.0144
727.3047	0.0044
727.4833	0.0146
727.6619	-0.0212
727.8405	-0.0091
728.0191	0.0402
728.1976	-0.0121
728.3762	0.0001
728.5547	-0.0156
728.7332	0.0039
728.9116	0.0118
729.0901	-0.009
729.2686	0.0184
729.447	-0.0121
729.6254	0.0023
729.8038	0.0115
729.9821	-0.0129
730.1605	0.0153
730.3388	0.0011
730.5171	-0.0002
730.6954	-0.0224
730.8737	0.0112
731.0519	0.0059
731.2302	0.014
731.4084	-0.0065
731.5866	-0.0045
731.7648	0.0091
731.9429	0.0115
732.1211	-0.0023
732.2992	-0.011
732.4773	0.0021
732.6554	-0.0128
732.8335	0.0011
733.0115	-0.0085
733.1896	-0.01
733.3676	0.0055
733.5456	-0.0098
733.7235	-0.0197
733.9015	0.0121
734.0794	-0.0113
734.2574	-0.0247
734.4353	-0.0085
734.6131	-0.0033
734.791	-0.0077
734.9689	-0.021
735.1467	-0.0016
735.3245	0.0109
735.5023	0.0113
735.68	-0.0088
735.8578	0.0025
736.0355	-0.0099
736.2132	-0.0106
736.3909	0.0001
736.5686	-0.0075
736.7463	-0.0035
736.9239	0.0073
737.1015	-0.0064
737.2791	-0.0021
737.4567	0.0146
737.6343	-0.0073
737.8118	0.0166
737.9894	-0.0297
738.1669	0.0031
738.3444	0.0218
738.5218	-0.0292
738.6993	0.0109
738.8767	0.0156
739.0541	-0.0039
739.2315	0.0049
739.4089	0.0003
739.5863	0.0004
739.7636	-0.0085
739.9409	-0.0053
740.1182	0.0118
740.2955	-0.0072
740.4728	-0.0068
740.65	-0.0109
740.8272	0.0021
741.0044	-0.046
741.1816	0.0139
741.3588	-0.0396
741.5359	0.0243
741.7131	-0.0151
741.8902	-0.0028
742.0673	-0.0169
742.2444	0.0114
742.4214	0.0323
742.5985	0.0005
742.7755	-0.0106
742.9525	-0.0287
743.1295	-0.0457
743.3064	0.005
743.4834	0.0006
743.6603	0.0364
743.8372	-0.0471
744.0141	0.0227
744.191	-0.0064
744.3678	-0.0405
744.5446	0.0319
744.7215	-0.0236
744.8982	0.001
745.075	0.0839
745.2518	0.0088
745.4285	0.0031
745.6052	-0.0325
745.7819	-0.0181
745.9586	-0.0171
746.1353	-0.0261
746.3119	0.0169
746.4885	0.0099
746.6651	0.0128
746.8417	-0.0172
747.0183	0.0064
747.1948	0.0119
747.3714	0.0237
747.5479	0.0098
747.7244	-0.024
747.9008	-0.0443
748.0773	-0.0004
748.2537	0.0119
748.4301	0.0329
748.6065	-0.0075
748.7829	-0.0499
748.9593	0.018
749.1356	0.0162
749.3119	0.0246
749.4882	0.0221
749.6645	0.0004
749.8408	0.0085
750.017	0.0056
750.1933	-0.022
750.3695	0.0093
750.5457	-0.0152
750.7218	-0.0047
750.898	-0.0196
751.0741	0.002
751.2502	-0.0051
751.4263	-0.0024
751.6024	0.0142
751.7784	-0.0065
751.9545	0.0001
752.1305	0.0005
752.3065	-0.0088
752.4825	0.0164
752.6584	0.0128
752.8344	-0.0047
753.0103	-0.0179
753.1862	0.0084
753.3621	-0.0093
753.5379	-0.0224
753.7138	-0.0023
753.8896	0.0033
754.0654	0.0023
754.2412	0.0022
754.417	0.0314
754.5927	0.0028
754.7685	0.0136
754.9442	0.0168
755.1199	-0.0051
755.2956	0.0151
755.4712	-0.0079
755.6469	0.0047
755.8225	0.0006
755.9981	0.0001
756.1736	0.0035
756.3492	0.0124
756.5248	0.0188
756.7003	-0.0188
756.8758	-0.004
757.0513	0.0017
757.2267	-0.0023
757.4022	-0.0216
757.5776	-0.012
757.753	0.0171
757.9284	-0.0078
758.1038	0.0223
758.2791	-0.0002
758.4545	-0.0191
758.6298	0.0136
758.8051	0.0026
758.9803	0.0048
759.1556	-0.0217
759.3308	-0.0166
759.506	-0.0017
759.6812	-0.0021
759.8564	-0.0002
760.0316	-0.0008
760.2067	0.0266
760.3819	0.0154
760.557	0.0017
760.732	-0.0113
760.9071	0.0209
761.0821	-0.0221
761.2572	0.0042
761.4322	0.0112
761.6072	0.0069
761.7821	-0.0396
761.9571	0.0259
762.132	-0.001
762.3069	0.0012
762.4818	-0.0003
762.6567	-0.021
762.8316	0.0339
763.0064	0.0088
763.1812	-0.0058
763.356	-0.0144
763.5308	0.0191
763.7055	-0.0049
763.8803	-0.0083
764.055	-0.0065
764.2297	-0.0143
764.4044	-0.0048
764.579	0.004
764.7537	0.0091
764.9283	0.0115
765.1029	0.0114
765.2775	0.009
765.4521	-0.0077
765.6266	-0.0018
765.8011	0.0365
765.9756	-0.006
766.1501	0.0078
766.3246	0.0229
766.4991	0.0069
766.6735	0.0145
766.8479	-0.0067
767.0223	0.033
767.1967	0.0174
767.371	0.0053
767.5454	0.0081
767.7197	0.0196
767.894	-0.0087
768.0683	0.0392
768.2425	-0.0089
768.4168	-0.0049
768.591	-0.0075
768.7652	-0.0133
768.9394	-0.0257
769.1135	-0.0177
769.2877	0.018
769.4618	0.0339
769.6359	-0.0028
769.81	0.0338
769.984	-0.0125
770.1581	-0.0204
770.3321	0.0081
770.5061	-0.0226
770.6801	-0.0032
770.8541	0.0091
771.028	0.0189
771.202	0.0061
771.3759	-0.0034
771.5498	0.0146
771.7236	0.0082
771.8975	0.0417
772.0713	-0.0152
772.2451	-0.0395
772.4189	-0.0057
772.5927	-0.0258
772.7665	-0.0058
772.9402	0.0012
773.1139	-0.0086
773.2876	-0.0091
773.4613	0.0041
773.635	0.0509
773.8086	0.0378
773.9822	0.0319
774.1558	0.0336
774.3294	0.0022
774.503	-0.037
774.6765	0.0147
774.8501	-0.0525
775.0236	0.0225
775.1971	-0.0258
775.3705	-0.0052
775.544	-0.0064
775.7174	0.0135
775.8908	0.002
776.0642	0.0027
776.2376	0.0322
776.4109	-0.0296
776.5843	0.0378
776.7576	0.0036
776.9309	0.0404
777.1041	-0.0428
777.2774	-0.0371
777.4506	-0.0006
777.6238	-0.0656
777.797	-0.0054
777.9702	0.0128
778.1434	0.0045
778.3165	-0.0267
778.4896	-0.0408
778.6627	-0.0097
778.8358	-0.0096
779.0089	-0.0443
779.1819	0.0083
779.3549	0.0036
779.5279	-0.046
779.7009	0.0477
779.8739	0.035
780.0468	0.0037
780.2197	0.0028
780.3926	-0.0277
780.5655	0.0007
780.7384	0.0084
780.9112	0.0383
781.0841	0.0062
781.2569	0.0363
781.4297	-0.0008
781.6024	0.0173
781.7752	0.0365
781.9479	0.0303
782.1206	-0.0149
782.2933	0.0001
782.466	0.0333
782.6386	-0.0189
782.8113	0.0149
782.9839	0.0109
783.1565	0.0029
783.329	-0.0349
783.5016	-0.0359
783.6741	-0.0131
783.8466	0.0156
784.0191	0.0119
784.1916	-0.0243
784.3641	-0.021
784.5365	0.0571
784.7089	-0.032
784.8813	0.0177
785.0537	0.0307
785.2261	-0.0072
785.3984	-0.0121
785.5707	0.0039
785.743	-0.0077
785.9153	-0.0129
786.0876	-0.0177
786.2598	-0.0101
786.432	0.0115
786.6042	0.0344
786.7764	-0.0155
786.9486	0.0009
787.1207	0.014
787.2928	0.0309
787.4649	-0.0292
787.637	0.03
787.8091	-0.0062
787.9811	0.0204
788.1532	0.0397
788.3252	0.0031
788.4972	0.0286
788.6691	-0.0103
788.8411	-0.0439
789.013	0.026
789.1849	-0.0443
789.3568	0.0034
789.5287	0.0277
789.7005	-0.0614
789.8723	0.0184
790.0442	-0.0076
790.2159	0.0013
790.3877	0.0156
790.5595	0.0086
790.7312	-0.0269
790.9029	-0.0208
791.0746	0.0332
791.2463	-0.0376
791.4179	0.0142
791.5896	-0.0124
791.7612	0.0613
791.9328	-0.0367
792.1044	-0.0572
792.2759	-0.101
792.4474	0.0026
792.619	-0.065
792.7905	-0.0262
792.9619	0.0461
793.1334	0.0012
793.3048	0.0225
793.4762	0.0087
793.6476	-0.0637
793.819	-0.0194
793.9904	-0.0194
794.1617	-0.0345
794.333	0.0107
794.5043	0.0183
794.6756	0.0048
794.8469	-0.0059
795.0181	0.0002
795.1893	0.0645
795.3605	0.0157
795.5317	0.0273
795.7029	0.0156
795.874	-0.0081
796.0452	0.0116
796.2163	0.067
796.3873	0.0403
796.5584	0.0443
796.7294	-0.0312
796.9005	0.0107
797.0715	-0.053
797.2425	0.0457
797.4134	0.0746
797.5844	0.091
797.7553	-0.0598
797.9262	0.0396
798.0971	0.0848
798.2679	-0.0187
798.4388	-0.0042
798.6096	0.0373
798.7804	0.0164
798.9512	-0.0157
799.122	-0.033
799.2927	0.0441
799.4635	-0.0807
799.6342	-0.0623
799.8049	0.0586
799.9755	-0.112
800.1462	0.0184
800.3168	-0.0113
800.4874	-0.115
800.658	-0.0394
800.8286	-0.0295
800.9991	-0.027
801.1696	-0.0125
801.3402	-0.0153
801.5106	-0.0339
801.6811	-0.0546
801.8516	0.0167
802.022	-0.0409
802.1924	0.0154
802.3628	0.0044
802.5332	0.0541
802.7035	0.0543
802.8739	-0.0314
803.0442	0.0157
803.2145	0.0562
803.3847	-0.0367
803.555	-0.0334
803.7252	0.0205
803.8954	-0.0204
804.0656	-0.0441
804.2358	0.0425
804.4059	0.0461
804.5761	0.0179
804.7462	-0.0592
804.9163	-0.027
805.0864	0.033
805.2564	0.0179
805.4264	-0.0344
805.5965	0.0417
805.7665	-0.0347
805.9364	-0.0058
806.1064	-0.0158
806.2763	0.0295
806.4462	0.0628
806.6161	0.0029
806.786	0.0114
806.9559	-0.0243
807.1257	0.0168
807.2955	-0.0185
807.4653	0.0686
807.6351	0.0102
807.8048	-0.0024
807.9746	0.0462
808.1443	-0.0518
808.314	-0.0334
808.4837	0.0091
808.6533	-0.012
808.8229	-0.0092
808.9926	0.0808
809.1622	0.0526
809.3317	-0.1032
809.5013	-0.0561
809.6708	0.0726
809.8403	-0.0247
810.0098	0.0149
810.1793	0.0242
810.3488	-0.0053
810.5182	0.0908
810.6876	-0.0348
810.857	-0.0189
811.0264	-0.1438
811.1958	0.0915
811.3651	-0.1392
811.5344	0.0067
811.7037	0.0295
811.873	0.0792
812.0422	-0.1979
812.2115	-0.0602
812.3807	-0.1206
812.5499	-0.0366
812.7191	-0.0716
812.8882	-0.0793
813.0574	0.0248
813.2265	0.0034
813.3956	-0.0316
813.5646	0.0435
813.7337	0.032
813.9027	-0.0406
814.0718	0.022
814.2407	-0.0231
814.4097	0.023
814.5787	0.1072
814.7476	0.0107
814.9165	0.0065
815.0854	-0.0376
815.2543	-0.1086
815.4232	0.0023
815.592	0.0868
815.7608	-0.0766
815.9296	-0.0049
816.0984	0.1608
816.2671	-0.2822
816.4359	0.1614
816.6046	-0.0316
816.7733	-0.0747
816.942	-0.0775
817.1106	-0.0218
817.2793	-0.0353
817.4479	0.0006
817.6165	-0.0051
817.785	-0.0062
817.9536	-0.0473
818.1221	-0.0446
818.2906	-0.1136
818.4591	-0.0615
818.6276	0.0811
818.7961	-0.0445
818.9645	-0.0384
819.1329	-0.0504
819.3013	0.0137
819.4697	-0.1611
819.638	0.0746
819.8064	0.0314
819.9747	-0.0247
820.143	-0.0753
820.3113	0.0368
820.4795	-0.0384
820.6477	0.1441
820.816	0.0261
820.9842	-0.0192
821.1523	-0.0307
821.3205	-0.0401
821.4886	-0.1016
821.6567	-0.0494
821.8248	0.1396
821.9929	-0.0556
822.1609	0.1425
822.329	-0.0196
822.497	0.0365
822.665	-0.0481
822.833	-0.0317
823.0009	0.0653
823.1688	0.1764
823.3367	-0.258
823.5046	0.0497
823.6725	-0.1384
823.8404	-0.2257
824.0082	-0.013
824.176	-0.0597
824.3438	0.1797
824.5116	-0.0965
824.6793	0.0117
824.847	-0.0784
825.0147	0.1738
825.1824	0.0327
825.3501	-0.0973
825.5177	-0.1014
825.6854	-0.1842
825.853	-0.0262
826.0206	-0.1724
826.1881	-0.1136
826.3557	0.0379
826.5232	0.1118
826.6907	0.0223
826.8582	0.0368
827.0257	0.0681
827.1931	0.0062
827.3605	-0.0214
827.528	-0.2219
827.6953	-0.1958
827.8627	-0.053
828.03	0.0006
828.1974	-0.0616
828.3647	0.1146
828.532	-0.0618
828.6992	0.0814
828.8665	-0.1664
829.0337	-0.0386
829.2009	-0.1127
829.3681	0.081
829.5352	-0.2083
829.7024	0.0099
829.8695	0.1435
830.0366	0.0923
830.2037	0.0802
830.3707	0.1508
830.5378	-0.0793
830.7048	-0.0945
830.8718	-0.0594
831.0388	-0.0942
831.2057	-0.2161
831.3727	-0.1556
831.5396	0.0367
831.7065	-0.7766
831.8734	0.0079
832.0402	0.2945
832.2071	-0.2851
832.3739	-0.3353
832.5407	-2.1168
832.7075	-0.4392
832.8742	0.0619
833.041	0.0646
833.2077	0.3311
833.3744	0.0394
833.541	0.0885
833.7077	-0.1367
833.8743	0.1441
834.0409	0.1043
834.2075	0.2001
834.3741	-0.1417
834.5407	0.1547
834.7072	0.0091
834.8737	0.1013
835.0402	0.246
835.2067	-0.0544
835.3731	-0.2252
835.5395	0.0009
835.706	0.0345
835.8723	-0.1599
836.0387	-0.0287
836.2051	0.233
836.3714	0.0228
836.5377	0.2142
836.704	0.1151
836.8703	-0.1858
837.0365	-0.9078
837.2027	-0.0781
837.3689	-0.0603
837.5351	-0.0382
837.7013	1.5144
837.8674	-0.4462
838.0335	0.1416
838.1997	-0.2467
838.3657	-0
838.5318	-0.5269
838.6978	0.8487
838.8639	-0.6411
839.0299	-0.0051
839.1958	0.0498
839.3618	0.164
839.5277	-0.0109
839.6937	-0.2157
839.8596	-0.0285
840.0254	-0.0891
840.1913	-0.3112
840.3571	-0.1484
840.523	-1.0492
840.6888	0.1383
840.8545	-0.2041
841.0203	-0.0195
841.186	0.017
841.3517	-0.2526
841.5174	0.0887
841.6831	0.1482
841.8488	0.1289
842.0144	0.0656
842.18	0.0354
842.3456	-0.821
842.5112	-0.9514
842.6767	-0.0053
842.8422	0.172
843.0077	0.0683
843.1732	-0.1232
843.3387	-0
843.5042	-0
843.6696	-0.1042
843.835	-0.0559
844.0004	-0.4095
844.1657	-0
844.3311	-0.5424
844.4964	-0.6384
844.6617	0.1588
844.827	-0
844.9923	-0.062
845.1575	0.1442
845.3227	-0.6312
845.4879	0.0417
845.6531	0.2569
845.8183	0.1546
845.9834	0.7665
846.1485	0.3864
846.3136	-0.0618
846.4787	-0
846.6438	0.0311
846.8088	-0
846.9738	-0
847.1388	-0.0318
847.3038	0.1236
847.4687	-0
847.6337	0.1038
847.7986	-0.2804
847.9635	-0.2001
848.1284	-0
848.2932	-0.0135
848.458	-0
848.6228	0.0404
848.7876	-0
848.9524	-0
849.1172	-2.0288
849.2819	-0.647
849.4466	0.2712
849.6113	0.1343
849.7759	-0
849.9406	-0.3117
850.1052	-1.2209
850.2698	-0
850.4344	-0.6922
850.599	-0.4417
850.7635	-0.1306
850.928	0.0466
851.0925	0.3407
851.257	-0.0227
851.4215	-0.2249
851.5859	0.0946
851.7503	-0
851.9147	0.3622
852.0791	-0.2518
852.2434	0.1302
852.4078	-0
852.5721	-0.081
852.7364	-0.1616
852.9007	0.0486
853.0649	-0
853.2291	-0.1123
853.3934	-0
853.5575	-0.1758
853.7217	0.4375
853.8859	-0.2617
854.05	-0.7155
854.2141	0.684
854.3782	-0.3108
854.5423	0.0888
854.7063	-0.3018
854.8703	-0.0413
855.0343	-0.1432
855.1983	-0.099
855.3623	0.3835
855.5262	-0
855.6901	0.5258
855.854	0.1649
856.0179	0.0201
856.1818	0.4361
856.3456	0.1497
856.5094	-0.4525
856.6732	0.3447
856.837	-0.9915
857.0008	-0
857.1645	1.1669
857.3282	-0.6771
857.4919	0.1846
857.6556	-0.2906
857.8192	-0.2041
857.9828	0.0767
858.1465	-0.2544
858.31	-0
858.4736	-0
858.6372	1.1442
858.8007	0.0292
858.9642	0.1853
859.1277	-0
859.2911	-0.3676
859.4546	-1.3655
859.618	0.0726
859.7814	-0
859.9448	-0.1094
860.1081	-0
860.2715	-0
860.4348	-0.1581
860.5981	0.2148
860.7614	-0
860.9246	-0.2472
861.0879	0.4953
861.2511	-0
861.4143	-1.1798
861.5774	-0.3827
861.7406	0.0051
861.9037	-0
862.0668	-0.8348
862.2299	0.5353
862.393	-0.0066
862.556	-0.5829
862.7191	-0.3302
862.8821	0.0988
863.0451	-0.2056
863.208	-0.1391
863.371	-0.6384
863.5339	0.1691
863.6968	1.4834
863.8597	-0.317
864.0225	-0.2701
864.1854	-0.0062
864.3482	-0.3895
864.511	-0.2334
864.6737	0.7017
864.8365	0.0585
864.9992	-0
865.1619	-0.4916
865.3246	-1.5159
865.4873	-0.041
865.65	0.3112
865.8126	-0
865.9752	0.4698
866.1378	0.1851
866.3004	-0.3785
866.4629	-1.9093
866.6254	-0.2652
866.7879	-0.3233
866.9504	-0
867.1129	-0.0218
867.2753	-0.4167
867.4377	-0.3244
867.6001	-0.3459
867.7625	-0.0492
867.9249	0.0247
868.0872	-0.0112
868.2495	0.177
868.4118	0.2212
868.5741	0.0128
868.7363	-0
868.8986	0.0405
869.0608	-0
869.223	-0.0233
869.3851	-0
869.5473	-0.1111
869.7094	-0
869.8715	-0.732
870.0336	0.0181
870.1957	-0.2197
870.3577	0.4367
870.5197	-0.1406
870.6817	-0.9967
870.8437	-0.2041
871.0057	0.0261
871.1676	0.3311
871.3295	-0.2159
871.4914	-0
871.6533	0.1898
871.8151	0.2643
871.977	-0.2278
872.1388	-0.374
872.3006	-0.4723
872.4623	-0.6776
872.6241	-0
872.7858	-0.1709
872.9475	-0
873.1092	0.0133
873.2709	0.7704
873.4325	-1.6378
873.5941	-0
873.7557	0.3461
873.9173	-0.3507
874.0789	0.2075
874.2404	-0
874.4019	0.4894
874.5634	-0
874.7249	-0.2041
874.8863	0.6767
875.0478	-0.3865
875.2092	1.2348
875.3706	0.2606
875.5319	-0
875.6933	-0
875.8546	-0
876.0159	0.3322
876.1772	-0.0327
876.3385	0.4969
876.4997	0.8626
876.6609	-0
876.8221	0.8141
876.9833	1.1287
877.1445	0.0644
877.3056	-1.0245
877.4667	-0.6614
877.6278	-0
877.7889	0.5031
877.9499	0.145
878.111	-0.6094
878.272	0.5558
878.433	-0
878.5939	0.1274
878.7549	0.3218
878.9158	-0.0614
879.0767	-0
879.2376	-0
879.3984	0.121
879.5593	0.4873
879.7201	-0.757
879.8809	-0.6213
880.0417	-0.3709
880.2024	0.2408
880.3632	0.541
880.5239	-0.0726
880.6846	-0.2794
880.8452	0.5861
881.0059	-0.6422
881.1665	-0.0559
881.3271	0.5789
881.4877	0.135
881.6483	-0
881.8088	-0
881.9693	-0
882.1298	-0
882.2903	-0
