Data from D4ACN5uM460nmA_Absorbance_13-05-41-840.txt Node
Date: Fri Feb 21 13:05:41 GMT 2025
User: LASERRRRR
Spectrometer: FLMT03099
Trigger mode: 0
Integration Time (sec): 1.500000E-2
Scans to average: 1
Electric dark correction enabled: true
Nonlinearity correction enabled: false
Boxcar width: 0
XAxis mode: Wavelengths
Number of Pixels in Spectrum: 3648
>>>>>Begin Spectral Data<<<<<
179.3399	-0.3265
179.5586	-0.3265
179.7771	-0.3265
179.9957	-0.0471
180.2143	-0
180.4329	-0.0231
180.6514	-1.0941
180.8699	0.5696
181.0885	-0
181.307	0.1275
181.5255	0.3046
181.744	-0
181.9625	-0
182.181	0.2496
182.3994	-0.1241
182.6179	-0.2544
182.8363	-0
183.0547	-0.2264
183.2732	0.2171
183.4916	0.3355
183.71	0.3322
183.9284	-0.0441
184.1467	0.2244
184.3651	-0.0617
184.5835	0.2206
184.8018	0.0758
185.0201	0.3354
185.2385	0.4458
185.4568	0.1711
185.6751	0.3097
185.8934	0.3646
186.1117	-0.175
186.3299	0.1671
186.5482	0.362
186.7664	0.3912
186.9847	0.0899
187.2029	0.4303
187.4211	-0.023
187.6393	0.2716
187.8575	0.1797
188.0757	0.3136
188.2939	0.0643
188.512	0.1588
188.7302	0.3857
188.9483	0.5774
189.1665	0.4155
189.3846	0.1362
189.6027	0.1077
189.8208	0.1746
190.0389	0.2548
190.257	0.1541
190.475	-0.1363
190.6931	0.0692
190.9111	0.0958
191.1292	0.1516
191.3472	0.1621
191.5652	0.3411
191.7832	0.1522
192.0012	0.1157
192.2192	0.2865
192.4371	0.065
192.6551	0.154
192.873	0.0321
193.091	0.0571
193.3089	0.1425
193.5268	0.2334
193.7447	0.3351
193.9626	0.1947
194.1805	0.2109
194.3984	0.2208
194.6162	0.1748
194.8341	0.3931
195.0519	0.2159
195.2697	0.2768
195.4875	0.3119
195.7054	0.2721
195.9231	0.2138
196.1409	0.2657
196.3587	0.3622
196.5765	0.3267
196.7942	0.3242
197.012	0.3492
197.2297	0.3066
197.4474	0.4288
197.6651	0.2917
197.8828	0.3298
198.1005	0.3754
198.3182	0.3592
198.5358	0.4137
198.7535	0.3827
198.9711	0.4832
199.1888	0.3888
199.4064	0.3604
199.624	0.4036
199.8416	0.3721
200.0592	0.3881
200.2767	0.3757
200.4943	0.4534
200.7119	0.3802
200.9294	0.4043
201.1469	0.3883
201.3645	0.462
201.582	0.3864
201.7995	0.3965
202.017	0.3985
202.2344	0.4051
202.4519	0.4379
202.6694	0.373
202.8868	0.364
203.1042	0.3954
203.3217	0.4086
203.5391	0.3777
203.7565	0.3661
203.9739	0.3541
204.1913	0.3425
204.4086	0.3227
204.626	0.3555
204.8433	0.3631
205.0607	0.3415
205.278	0.323
205.4953	0.3292
205.7126	0.3218
205.9299	0.3504
206.1472	0.3236
206.3644	0.3272
206.5817	0.3354
206.7989	0.3162
207.0162	0.3074
207.2334	0.326
207.4506	0.2868
207.6678	0.319
207.885	0.277
208.1022	0.2862
208.3194	0.2848
208.5365	0.2877
208.7537	0.308
208.9708	0.2875
209.1879	0.2981
209.405	0.2906
209.6222	0.2732
209.8392	0.2807
210.0563	0.2873
210.2734	0.2578
210.4905	0.2912
210.7075	0.2692
210.9245	0.2738
211.1416	0.2741
211.3586	0.2654
211.5756	0.2651
211.7926	0.2505
212.0096	0.2657
212.2265	0.2769
212.4435	0.2713
212.6604	0.2575
212.8774	0.2481
213.0943	0.2481
213.3112	0.2417
213.5281	0.2544
213.745	0.2444
213.9619	0.2402
214.1788	0.2619
214.3956	0.2531
214.6125	0.2339
214.8293	0.2428
215.0461	0.243
215.2629	0.2493
215.4798	0.2337
215.6965	0.2389
215.9133	0.2434
216.1301	0.2322
216.3469	0.2497
216.5636	0.2539
216.7803	0.2516
216.9971	0.2744
217.2138	0.2602
217.4305	0.2273
217.6472	0.2407
217.8639	0.2624
218.0805	0.2422
218.2972	0.2429
218.5138	0.2504
218.7305	0.2601
218.9471	0.2439
219.1637	0.2705
219.3803	0.2572
219.5969	0.2569
219.8135	0.2666
220.0301	0.2529
220.2466	0.253
220.4632	0.2564
220.6797	0.2644
220.8962	0.2665
221.1127	0.2595
221.3292	0.2652
221.5457	0.2751
221.7622	0.2737
221.9787	0.2768
222.1951	0.2742
222.4116	0.2779
222.628	0.2894
222.8444	0.2707
223.0608	0.2725
223.2772	0.29
223.4936	0.2806
223.71	0.2812
223.9264	0.2702
224.1427	0.2907
224.3591	0.2902
224.5754	0.3007
224.7917	0.2984
225.008	0.3023
225.2243	0.3087
225.4406	0.3036
225.6569	0.3053
225.8732	0.3142
226.0894	0.2962
226.3057	0.3159
226.5219	0.31
226.7381	0.3179
226.9543	0.3068
227.1705	0.3238
227.3867	0.3241
227.6029	0.336
227.8191	0.3326
228.0352	0.338
228.2513	0.3424
228.4675	0.3546
228.6836	0.3513
228.8997	0.3389
229.1158	0.3605
229.3319	0.3663
229.548	0.3696
229.764	0.3674
229.9801	0.3743
230.1961	0.3701
230.4121	0.3628
230.6282	0.3833
230.8442	0.3837
231.0602	0.3754
231.2761	0.3812
231.4921	0.3918
231.7081	0.3967
231.924	0.4037
232.14	0.4008
232.3559	0.4013
232.5718	0.4014
232.7877	0.41
233.0036	0.4015
233.2195	0.4135
233.4353	0.4209
233.6512	0.4161
233.867	0.4185
234.0829	0.41
234.2987	0.4296
234.5145	0.4333
234.7303	0.4306
234.9461	0.4335
235.1619	0.4378
235.3776	0.4347
235.5934	0.4278
235.8091	0.4449
236.0249	0.4549
236.2406	0.4498
236.4563	0.4421
236.672	0.4466
236.8877	0.4597
237.1034	0.4442
237.319	0.4527
237.5347	0.4462
237.7503	0.4543
237.966	0.4481
238.1816	0.452
238.3972	0.4633
238.6128	0.4617
238.8284	0.4628
239.0439	0.4579
239.2595	0.4642
239.475	0.458
239.6906	0.453
239.9061	0.4623
240.1216	0.4611
240.3371	0.4646
240.5526	0.462
240.7681	0.46
240.9836	0.4551
241.199	0.4527
241.4145	0.4528
241.6299	0.4486
241.8453	0.4371
242.0607	0.4285
242.2761	0.4274
242.4915	0.4193
242.7069	0.4145
242.9223	0.4158
243.1376	0.4065
243.353	0.3974
243.5683	0.3843
243.7836	0.3858
243.9989	0.3804
244.2142	0.377
244.4295	0.3624
244.6448	0.3583
244.86	0.3444
245.0753	0.3393
245.2905	0.3345
245.5057	0.3318
245.721	0.3291
245.9362	0.3134
246.1514	0.3103
246.3665	0.3001
246.5817	0.3059
246.7969	0.2877
247.012	0.2864
247.2271	0.2949
247.4423	0.2836
247.6574	0.2776
247.8725	0.2684
248.0876	0.2648
248.3026	0.2675
248.5177	0.2611
248.7328	0.2464
248.9478	0.2506
249.1628	0.2426
249.3779	0.2455
249.5929	0.2407
249.8079	0.2387
250.0228	0.2347
250.2378	0.224
250.4528	0.2262
250.6677	0.225
250.8827	0.2134
251.0976	0.2149
251.3125	0.2154
251.5274	0.2088
251.7423	0.2005
251.9572	0.2066
252.172	0.2022
252.3869	0.206
252.6017	0.1966
252.8166	0.1975
253.0314	0.1963
253.2462	0.194
253.461	0.196
253.6758	0.1895
253.8906	0.1917
254.1053	0.1891
254.3201	0.1905
254.5348	0.181
254.7496	0.178
254.9643	0.188
255.179	0.1811
255.3937	0.1861
255.6083	0.19
255.823	0.1832
256.0377	0.1765
256.2523	0.1799
256.467	0.1848
256.6816	0.1791
256.8962	0.1783
257.1108	0.1855
257.3254	0.1835
257.54	0.1759
257.7545	0.1844
257.9691	0.1801
258.1836	0.1736
258.3981	0.1807
258.6127	0.1681
258.8272	0.1817
259.0417	0.1754
259.2561	0.173
259.4706	0.1717
259.6851	0.1762
259.8995	0.1729
260.114	0.1769
260.3284	0.1754
260.5428	0.1744
260.7572	0.1743
260.9716	0.1824
261.186	0.1711
261.4003	0.1719
261.6147	0.1738
261.829	0.1772
262.0433	0.1764
262.2577	0.176
262.472	0.1731
262.6863	0.1752
262.9005	0.1743
263.1148	0.1726
263.3291	0.1714
263.5433	0.1792
263.7576	0.1774
263.9718	0.1749
264.186	0.1766
264.4002	0.174
264.6144	0.1805
264.8286	0.1745
265.0427	0.178
265.2569	0.1806
265.471	0.1816
265.6851	0.1796
265.8993	0.1736
266.1134	0.1772
266.3275	0.1774
266.5415	0.1764
266.7556	0.1796
266.9697	0.177
267.1837	0.175
267.3978	0.1802
267.6118	0.1719
267.8258	0.1728
268.0398	0.1755
268.2538	0.1745
268.4677	0.1687
268.6817	0.1763
268.8957	0.1673
269.1096	0.1711
269.3235	0.1707
269.5374	0.1732
269.7514	0.1746
269.9652	0.1723
270.1791	0.1688
270.393	0.17
270.6068	0.1722
270.8207	0.1673
271.0345	0.1663
271.2483	0.1646
271.4622	0.1679
271.676	0.1664
271.8897	0.1683
272.1035	0.1719
272.3173	0.1671
272.531	0.1625
272.7448	0.1673
272.9585	0.1594
273.1722	0.1645
273.3859	0.1636
273.5996	0.1625
273.8133	0.1683
274.0269	0.1631
274.2406	0.1659
274.4542	0.1675
274.6679	0.1693
274.8815	0.1728
275.0951	0.1727
275.3087	0.1689
275.5223	0.1738
275.7358	0.164
275.9494	0.169
276.1629	0.1719
276.3765	0.1694
276.59	0.1651
276.8035	0.1685
277.017	0.1743
277.2305	0.1716
277.444	0.1705
277.6574	0.173
277.8709	0.1741
278.0843	0.1714
278.2978	0.1774
278.5112	0.1744
278.7246	0.1735
278.938	0.1648
279.1513	0.1756
279.3647	0.1727
279.5781	0.1726
279.7914	0.176
280.0047	0.1736
280.2181	0.169
280.4314	0.1797
280.6447	0.1828
280.8579	0.169
281.0712	0.176
281.2845	0.1724
281.4977	0.1736
281.711	0.1705
281.9242	0.1762
282.1374	0.1771
282.3506	0.1777
282.5638	0.1793
282.7769	0.1768
282.9901	0.1768
283.2033	0.1766
283.4164	0.1788
283.6295	0.1784
283.8426	0.1773
284.0557	0.182
284.2688	0.18
284.4819	0.1785
284.695	0.187
284.908	0.1804
285.1211	0.187
285.3341	0.1793
285.5471	0.1876
285.7601	0.1879
285.9731	0.1835
286.1861	0.1835
286.3991	0.189
286.612	0.1827
286.825	0.1922
287.0379	0.184
287.2508	0.1865
287.4637	0.1906
287.6766	0.1862
287.8895	0.1843
288.1024	0.1939
288.3152	0.1924
288.5281	0.1865
288.7409	0.1907
288.9538	0.1862
289.1666	0.192
289.3794	0.1865
289.5922	0.1849
289.8049	0.1907
290.0177	0.1914
290.2304	0.1905
290.4432	0.1961
290.6559	0.1974
290.8686	0.1931
291.0813	0.1913
291.294	0.1927
291.5067	0.1867
291.7194	0.1944
291.932	0.1907
292.1447	0.1944
292.3573	0.1925
292.5699	0.1968
292.7825	0.1944
292.9951	0.1896
293.2077	0.1922
293.4203	0.1933
293.6328	0.1886
293.8454	0.1949
294.0579	0.1882
294.2704	0.195
294.4829	0.1897
294.6954	0.1942
294.9079	0.1934
295.1204	0.1945
295.3328	0.1932
295.5453	0.1948
295.7577	0.1908
295.9701	0.1876
296.1825	0.1975
296.3949	0.1943
296.6073	0.1901
296.8197	0.1919
297.0321	0.1926
297.2444	0.1896
297.4567	0.1951
297.6691	0.1948
297.8814	0.1947
298.0937	0.1963
298.306	0.1959
298.5182	0.1949
298.7305	0.1994
298.9428	0.1882
299.155	0.184
299.3672	0.1874
299.5794	0.1867
299.7916	0.1902
300.0038	0.1888
300.216	0.1919
300.4282	0.1905
300.6403	0.2018
300.8525	0.1902
301.0646	0.188
301.2767	0.1925
301.4888	0.1956
301.7009	0.1963
301.913	0.1896
302.125	0.192
302.3371	0.1915
302.5491	0.1956
302.7612	0.195
302.9732	0.1942
303.1852	0.1966
303.3972	0.1929
303.6092	0.1909
303.8211	0.1881
304.0331	0.1882
304.245	0.1901
304.457	0.1897
304.6689	0.1942
304.8808	0.1911
305.0927	0.1918
305.3046	0.1861
305.5164	0.183
305.7283	0.1854
305.9401	0.1812
306.152	0.1781
306.3638	0.1825
306.5756	0.1826
306.7874	0.1745
306.9992	0.1703
307.2109	0.1791
307.4227	0.1708
307.6344	0.1762
307.8462	0.1668
308.0579	0.167
308.2696	0.1673
308.4813	0.1682
308.693	0.1609
308.9046	0.1634
309.1163	0.1594
309.328	0.1548
309.5396	0.1555
309.7512	0.1569
309.9628	0.1555
310.1744	0.1447
310.386	0.1496
310.5976	0.1468
310.8091	0.1495
311.0207	0.1446
311.2322	0.1403
311.4437	0.1412
311.6552	0.1375
311.8667	0.1418
312.0782	0.1362
312.2897	0.1423
312.5012	0.1377
312.7126	0.1338
312.924	0.1348
313.1355	0.1344
313.3469	0.1353
313.5583	0.1305
313.7696	0.1274
313.981	0.1316
314.1924	0.1268
314.4037	0.1303
314.6151	0.1233
314.8264	0.1316
315.0377	0.1256
315.249	0.1296
315.4603	0.1215
315.6716	0.1273
315.8828	0.122
316.0941	0.1229
316.3053	0.1203
316.5165	0.1259
316.7277	0.1182
316.9389	0.1244
317.1501	0.1224
317.3613	0.1246
317.5724	0.1263
317.7836	0.1153
317.9947	0.1197
318.2058	0.1152
318.417	0.1234
318.6281	0.1152
318.8391	0.1203
319.0502	0.119
319.2613	0.1205
319.4723	0.1177
319.6834	0.1195
319.8944	0.1165
320.1054	0.1204
320.3164	0.1165
320.5274	0.1184
320.7383	0.1261
320.9493	0.1148
321.1602	0.1211
321.3712	0.1182
321.5821	0.1159
321.793	0.1259
322.0039	0.1224
322.2148	0.1179
322.4257	0.1138
322.6365	0.1114
322.8474	0.1161
323.0582	0.1226
323.269	0.1224
323.4798	0.1189
323.6906	0.1228
323.9014	0.1181
324.1122	0.1196
324.3229	0.1214
324.5337	0.1214
324.7444	0.1207
324.9551	0.1231
325.1658	0.1204
325.3765	0.1248
325.5872	0.1257
325.7979	0.1219
326.0085	0.1198
326.2192	0.116
326.4298	0.1313
326.6404	0.1277
326.851	0.12
327.0616	0.1204
327.2722	0.1297
327.4828	0.1193
327.6933	0.1281
327.9039	0.1213
328.1144	0.1303
328.3249	0.1193
328.5354	0.1281
328.7459	0.1229
328.9564	0.1256
329.1669	0.1261
329.3773	0.1238
329.5878	0.1216
329.7982	0.1284
330.0086	0.124
330.219	0.1214
330.4294	0.1239
330.6398	0.1267
330.8502	0.1267
331.0605	0.1292
331.2708	0.1199
331.4812	0.1207
331.6915	0.128
331.9018	0.126
332.1121	0.135
332.3224	0.1301
332.5326	0.1263
332.7429	0.1235
332.9531	0.1304
333.1633	0.1243
333.3735	0.1242
333.5837	0.1307
333.7939	0.1336
334.0041	0.1358
334.2143	0.1277
334.4244	0.1372
334.6346	0.1307
334.8447	0.1257
335.0548	0.1365
335.2649	0.1403
335.475	0.1332
335.685	0.1387
335.8951	0.1348
336.1051	0.1326
336.3152	0.1374
336.5252	0.1346
336.7352	0.1349
336.9452	0.1378
337.1552	0.1369
337.3652	0.1325
337.5751	0.1354
337.7851	0.1368
337.995	0.1372
338.2049	0.1359
338.4148	0.1369
338.6247	0.1359
338.8346	0.1347
339.0445	0.1325
339.2543	0.1373
339.4642	0.127
339.674	0.1348
339.8838	0.1377
340.0936	0.1398
340.3034	0.1378
340.5132	0.1388
340.7229	0.1356
340.9327	0.1437
341.1424	0.1377
341.3522	0.1318
341.5619	0.1426
341.7716	0.1412
341.9813	0.148
342.1909	0.1479
342.4006	0.1458
342.6102	0.1496
342.8199	0.1412
343.0295	0.1433
343.2391	0.1508
343.4487	0.1484
343.6583	0.1563
343.8679	0.1424
344.0774	0.1401
344.287	0.1389
344.4965	0.146
344.706	0.1541
344.9155	0.1457
345.125	0.1523
345.3345	0.1521
345.544	0.1503
345.7534	0.1505
345.9629	0.1548
346.1723	0.1535
346.3817	0.1539
346.5911	0.1522
346.8005	0.1628
347.0099	0.1536
347.2193	0.1591
347.4286	0.1631
347.638	0.1594
347.8473	0.1645
348.0566	0.1617
348.2659	0.1594
348.4752	0.1584
348.6845	0.1608
348.8937	0.1612
349.103	0.1661
349.3122	0.1634
349.5214	0.1672
349.7306	0.1645
349.9398	0.1685
350.149	0.1611
350.3582	0.1668
350.5674	0.1658
350.7765	0.1735
350.9856	0.1677
351.1948	0.1738
351.4039	0.1726
351.613	0.1779
351.822	0.176
352.0311	0.1793
352.2402	0.1747
352.4492	0.1752
352.6582	0.1764
352.8672	0.1752
353.0762	0.175
353.2852	0.1796
353.4942	0.1758
353.7032	0.1793
353.9121	0.1833
354.1211	0.1835
354.33	0.1859
354.5389	0.1807
354.7478	0.1778
354.9567	0.1846
355.1655	0.1807
355.3744	0.1783
355.5833	0.1891
355.7921	0.1887
356.0009	0.1771
356.2097	0.1819
356.4185	0.179
356.6273	0.19
356.8361	0.1856
357.0448	0.1899
357.2536	0.1958
357.4623	0.1863
357.671	0.1944
357.8797	0.1925
358.0884	0.1894
358.2971	0.1977
358.5057	0.1973
358.7144	0.1926
358.923	0.1958
359.1316	0.2024
359.3402	0.1974
359.5488	0.2022
359.7574	0.2045
359.966	0.202
360.1746	0.1999
360.3831	0.2038
360.5916	0.2034
360.8002	0.2102
361.0087	0.2051
361.2172	0.2039
361.4256	0.2101
361.6341	0.2077
361.8426	0.2113
362.051	0.2175
362.2594	0.212
362.4678	0.2139
362.6762	0.2178
362.8846	0.2091
363.093	0.2117
363.3014	0.2224
363.5097	0.217
363.718	0.2197
363.9264	0.2265
364.1347	0.2237
364.343	0.2219
364.5513	0.2293
364.7595	0.2331
364.9678	0.2243
365.176	0.2297
365.3842	0.2315
365.5925	0.2197
365.8007	0.2347
366.0089	0.235
366.217	0.237
366.4252	0.2356
366.6333	0.2406
366.8415	0.2307
367.0496	0.2355
367.2577	0.2339
367.4658	0.2381
367.6739	0.2366
367.882	0.2471
368.09	0.2361
368.2981	0.2483
368.5061	0.2448
368.7141	0.2375
368.9221	0.2558
369.1301	0.2502
369.3381	0.2621
369.5461	0.245
369.754	0.2516
369.962	0.252
370.1699	0.2544
370.3778	0.2636
370.5857	0.248
370.7936	0.2563
371.0015	0.2597
371.2093	0.2575
371.4172	0.2584
371.625	0.2596
371.8328	0.2575
372.0406	0.2614
372.2484	0.2587
372.4562	0.2625
372.664	0.2636
372.8717	0.2631
373.0795	0.2655
373.2872	0.2648
373.4949	0.2604
373.7026	0.2673
373.9103	0.2613
374.118	0.2767
374.3256	0.277
374.5333	0.2733
374.7409	0.271
374.9485	0.2707
375.1561	0.2726
375.3637	0.274
375.5713	0.2863
375.7789	0.2742
375.9864	0.2694
376.194	0.2846
376.4015	0.2757
376.609	0.2777
376.8165	0.2868
377.024	0.2727
377.2315	0.2882
377.4389	0.2748
377.6464	0.2867
377.8538	0.2767
378.0612	0.2801
378.2686	0.2818
378.476	0.2892
378.6834	0.2812
378.8908	0.2833
379.0981	0.2924
379.3055	0.2868
379.5128	0.286
379.7201	0.2884
379.9274	0.2871
380.1347	0.2974
380.342	0.3141
380.5492	0.2986
380.7565	0.2978
380.9637	0.2875
381.1709	0.2928
381.3781	0.307
381.5853	0.3021
381.7925	0.2958
381.9997	0.3065
382.2068	0.2934
382.4139	0.301
382.6211	0.3022
382.8282	0.3067
383.0353	0.3014
383.2424	0.3008
383.4494	0.3093
383.6565	0.3004
383.8635	0.3008
384.0706	0.3094
384.2776	0.3065
384.4846	0.3119
384.6916	0.3081
384.8986	0.3089
385.1055	0.3168
385.3125	0.3126
385.5194	0.312
385.7263	0.3087
385.9333	0.3154
386.1402	0.3059
386.347	0.3075
386.5539	0.3071
386.7608	0.3095
386.9676	0.3035
387.1744	0.3103
387.3813	0.3131
387.5881	0.3031
387.7948	0.3046
388.0016	0.3246
388.2084	0.3024
388.4151	0.3091
388.6219	0.3029
388.8286	0.311
389.0353	0.3035
389.242	0.3145
389.4487	0.2988
389.6553	0.2926
389.862	0.3055
390.0686	0.3094
390.2753	0.3028
390.4819	0.2989
390.6885	0.302
390.8951	0.2971
391.1016	0.2929
391.3082	0.3028
391.5147	0.2883
391.7213	0.2999
391.9278	0.2894
392.1343	0.2841
392.3408	0.2906
392.5473	0.2885
392.7537	0.2896
392.9602	0.2867
393.1666	0.2919
393.373	0.2835
393.5794	0.2927
393.7858	0.2959
393.9922	0.283
394.1986	0.2746
394.4049	0.2814
394.6113	0.2793
394.8176	0.2778
395.0239	0.2751
395.2302	0.2849
395.4365	0.2772
395.6428	0.2721
395.8491	0.2742
396.0553	0.2604
396.2615	0.2737
396.4678	0.2864
396.674	0.2658
396.8802	0.2656
397.0863	0.27
397.2925	0.2684
397.4987	0.2687
397.7048	0.2657
397.9109	0.2552
398.117	0.2679
398.3231	0.2694
398.5292	0.2594
398.7353	0.2571
398.9413	0.2638
399.1474	0.2604
399.3534	0.2569
399.5594	0.2652
399.7654	0.2633
399.9714	0.2713
400.1774	0.2554
400.3833	0.2665
400.5893	0.2596
400.7952	0.2635
401.0011	0.266
401.207	0.27
401.4129	0.2593
401.6188	0.2653
401.8247	0.2702
402.0305	0.2684
402.2364	0.2587
402.4422	0.267
402.648	0.2548
402.8538	0.253
403.0596	0.2592
403.2654	0.2722
403.4711	0.2573
403.6768	0.2605
403.8826	0.2657
404.0883	0.2592
404.294	0.2653
404.4997	0.2574
404.7054	0.2636
404.911	0.2621
405.1167	0.2524
405.3223	0.2597
405.5279	0.2608
405.7335	0.2534
405.9391	0.2619
406.1447	0.271
406.3502	0.2515
406.5558	0.2581
406.7613	0.2638
406.9668	0.2602
407.1724	0.2548
407.3778	0.2598
407.5833	0.2538
407.7888	0.2618
407.9942	0.2532
408.1997	0.2625
408.4051	0.263
408.6105	0.2698
408.8159	0.2565
409.0213	0.2698
409.2267	0.2759
409.432	0.2626
409.6374	0.2601
409.8427	0.2657
410.048	0.2711
410.2533	0.2621
410.4586	0.2598
410.6639	0.2624
410.8691	0.2518
411.0744	0.2627
411.2796	0.2647
411.4848	0.2619
411.69	0.2505
411.8952	0.2585
412.1004	0.2647
412.3056	0.2559
412.5107	0.2542
412.7158	0.2781
412.921	0.2573
413.1261	0.253
413.3312	0.2606
413.5362	0.2743
413.7413	0.2627
413.9464	0.2451
414.1514	0.2594
414.3564	0.2515
414.5614	0.2636
414.7664	0.253
414.9714	0.2467
415.1764	0.2591
415.3813	0.2527
415.5863	0.2638
415.7912	0.2503
415.9961	0.2509
416.201	0.2625
416.4059	0.256
416.6108	0.2519
416.8156	0.2535
417.0205	0.2473
417.2253	0.2628
417.4301	0.2499
417.6349	0.2514
417.8397	0.246
418.0445	0.2539
418.2492	0.2543
418.454	0.2443
418.6587	0.2443
418.8634	0.2589
419.0681	0.2472
419.2728	0.247
419.4775	0.2551
419.6822	0.2442
419.8868	0.247
420.0915	0.2418
420.2961	0.236
420.5007	0.2392
420.7053	0.2375
420.9099	0.2461
421.1144	0.242
421.319	0.2405
421.5235	0.236
421.728	0.2423
421.9325	0.2336
422.137	0.2459
422.3415	0.2333
422.546	0.2277
422.7504	0.2403
422.9549	0.2383
423.1593	0.2327
423.3637	0.2267
423.5681	0.2346
423.7725	0.2337
423.9769	0.2366
424.1812	0.2259
424.3856	0.2365
424.5899	0.2288
424.7942	0.2314
424.9985	0.2234
425.2028	0.2258
425.4071	0.2312
425.6113	0.2183
425.8156	0.2132
426.0198	0.2213
426.224	0.2228
426.4282	0.2056
426.6324	0.2113
426.8366	0.2134
427.0407	0.2152
427.2449	0.2124
427.449	0.2133
427.6531	0.2215
427.8572	0.2115
428.0613	0.218
428.2654	0.2059
428.4694	0.197
428.6735	0.2027
428.8775	0.2015
429.0815	0.198
429.2855	0.1965
429.4895	0.2015
429.6935	0.1986
429.8975	0.1945
430.1014	0.2004
430.3053	0.2032
430.5093	0.1896
430.7132	0.1906
430.9171	0.1878
431.1209	0.1898
431.3248	0.178
431.5286	0.1784
431.7325	0.186
431.9363	0.1815
432.1401	0.1791
432.3439	0.178
432.5477	0.1709
432.7514	0.1756
432.9552	0.169
433.1589	0.1644
433.3627	0.1668
433.5664	0.1693
433.7701	0.1739
433.9737	0.1643
434.1774	0.164
434.3811	0.1582
434.5847	0.1576
434.7883	0.1613
434.9919	0.1581
435.1955	0.1631
435.3991	0.1538
435.6027	0.155
435.8062	0.1605
436.0098	0.1435
436.2133	0.1457
436.4168	0.1403
436.6203	0.1362
436.8238	0.1398
437.0272	0.1368
437.2307	0.1365
437.4341	0.1303
437.6375	0.1439
437.841	0.1299
438.0443	0.1391
438.2477	0.1192
438.4511	0.1274
438.6545	0.1297
438.8578	0.1229
439.0611	0.1263
439.2644	0.125
439.4677	0.1256
439.671	0.117
439.8743	0.1174
440.0775	0.1149
440.2808	0.1191
440.484	0.1029
440.6872	0.1031
440.8904	0.1021
441.0936	0.109
441.2967	0.0974
441.4999	0.1032
441.703	0.0945
441.9062	0.1
442.1093	0.114
442.3124	0.0929
442.5155	0.0949
442.7185	0.0884
442.9216	0.0878
443.1246	0.0887
443.3276	0.0906
443.5307	0.0834
443.7337	0.087
443.9366	0.0769
444.1396	0.0806
444.3426	0.0836
444.5455	0.0752
444.7484	0.073
444.9513	0.0831
445.1542	0.0789
445.3571	0.0754
445.56	0.0695
445.7628	0.064
445.9657	0.0756
446.1685	0.0683
446.3713	0.0795
446.5741	0.0772
446.7769	0.0714
446.9797	0.0562
447.1824	0.0635
447.3852	0.0507
447.5879	0.0611
447.7906	0.055
447.9933	0.0646
448.196	0.0541
448.3986	0.0562
448.6013	0.0479
448.8039	0.0637
449.0066	0.0575
449.2092	0.0604
449.4118	0.0539
449.6143	0.0495
449.8169	0.0545
450.0195	0.0463
450.222	0.0478
450.4245	0.0521
450.627	0.0371
450.8295	0.048
451.032	0.039
451.2345	0.0396
451.4369	0.0393
451.6394	0.0408
451.8418	0.0392
452.0442	0.0433
452.2466	0.0339
452.449	0.0448
452.6513	0.0387
452.8537	0.0377
453.056	0.0311
453.2583	0.0383
453.4607	0.0266
453.663	0.032
453.8652	0.0275
454.0675	0.0426
454.2697	0.028
454.472	0.0244
454.6742	0.0316
454.8764	0.0285
455.0786	0.0237
455.2808	0.0229
455.4829	0.0335
455.6851	0.023
455.8872	0.0229
456.0893	0.0272
456.2915	0.0218
456.4935	0.0307
456.6956	0.0221
456.8977	0.0252
457.0997	0.0273
457.3018	0.0223
457.5038	0.0308
457.7058	0.022
457.9078	0.0266
458.1098	0.0199
458.3117	0.0284
458.5137	0.0153
458.7156	0.0248
458.9175	0.0243
459.1194	0.0193
459.3213	0.0181
459.5232	0.019
459.725	0.0191
459.9269	0.017
460.1287	0.0132
460.3305	0.0188
460.5323	0.0191
460.7341	0.0199
460.9359	0.0097
461.1376	0.0157
461.3394	0.0191
461.5411	0.0162
461.7428	0.0181
461.9445	0.0143
462.1462	0.0132
462.3479	0.0174
462.5495	0.0217
462.7512	0.0225
462.9528	0.0146
463.1544	0.0082
463.356	0.0089
463.5576	0.0208
463.7592	0.0146
463.9607	0.0136
464.1623	0.0173
464.3638	0.0065
464.5653	0.0204
464.7668	0.0199
464.9683	0.0149
465.1697	0.0129
465.3712	0.0107
465.5726	0.0044
465.7741	0.0164
465.9755	0.0166
466.1769	0.0046
466.3782	0.0024
466.5796	0.0066
466.7809	0.0109
466.9823	0.0053
467.1836	0.0039
467.3849	0.0065
467.5862	0.0083
467.7875	0.0055
467.9887	0.011
468.19	0.001
468.3912	0.0095
468.5924	0.0006
468.7936	0.0128
468.9948	0.005
469.196	0.007
469.3972	-0.0004
469.5983	0.0034
469.7994	0.0136
470.0006	0.0111
470.2017	0.0077
470.4027	0.02
470.6038	0.0063
470.8049	0.007
471.0059	0.0082
471.2069	0.0136
471.408	0.0025
471.6089	0.0106
471.8099	0.0036
472.0109	0.0125
472.2119	0.0069
472.4128	0.0089
472.6137	0.0102
472.8146	0.0069
473.0155	0.0138
473.2164	0.0126
473.4173	-0.0003
473.6181	-0.0012
473.819	0.0046
474.0198	-0.0042
474.2206	-0.0016
474.4214	0.0017
474.6222	-0.0013
474.8229	0.0035
475.0237	0.0122
475.2244	0.0141
475.4251	0.006
475.6258	0.0023
475.8265	0.0092
476.0272	-0.0021
476.2278	0.0053
476.4285	-0.0016
476.6291	0.0061
476.8297	0.0044
477.0303	0.0011
477.2309	0.0135
477.4315	0.0046
477.632	-0.0018
477.8326	0.0053
478.0331	0.0068
478.2336	0.012
478.4341	0.0075
478.6346	0.0077
478.8351	-0.0009
479.0355	0.0131
479.236	0.0064
479.4364	0.0154
479.6368	0.0075
479.8372	0.0018
480.0376	-0.0036
480.2379	0.0026
480.4383	0.009
480.6386	-0.0013
480.8389	0.0011
481.0392	0.004
481.2395	0.0092
481.4398	-0.0028
481.6401	0.0128
481.8403	0.001
482.0405	0.002
482.2408	0.0057
482.441	0.0032
482.6411	0.0079
482.8413	-0.0029
483.0415	0.0153
483.2416	0.0058
483.4417	0.0009
483.6419	0.001
483.8419	0.0021
484.042	0.0068
484.2421	0.0013
484.4422	0.0004
484.6422	0.0058
484.8422	0.0026
485.0422	0.0023
485.2422	-0.0013
485.4422	0.0033
485.6422	0.0002
485.8421	0.0024
486.042	0.0089
486.242	-0.001
486.4419	0.0025
486.6417	0.0006
486.8416	0.0007
487.0415	0.0004
487.2413	-0.0011
487.4411	0.0102
487.641	-0.0012
487.8408	0.0051
488.0405	0.0056
488.2403	-0.0035
488.4401	0.0057
488.6398	0.01
488.8395	0.0128
489.0392	0.0047
489.2389	0.0039
489.4386	-0.0037
489.6383	0.0082
489.8379	0.0037
490.0376	0.0021
490.2372	0.0045
490.4368	0.0019
490.6364	-0.002
490.836	0.0014
491.0355	-0.0028
491.2351	-0.0033
491.4346	0.0063
491.6341	0.0012
491.8336	0.0119
492.0331	0.0026
492.2326	0.0047
492.432	-0
492.6315	0.0134
492.8309	0.0074
493.0303	-0.0002
493.2297	0.0095
493.4291	-0.0029
493.6284	0.0025
493.8278	0.0037
494.0271	0.0044
494.2264	-0.004
494.4257	0.0063
494.625	-0.0001
494.8243	-0.0035
495.0236	0.0084
495.2228	0.0081
495.422	0.0014
495.6213	0.0044
495.8205	0.0016
496.0196	0.0107
496.2188	0.0052
496.418	-0.0017
496.6171	-0.0025
496.8162	-0.0007
497.0153	0.0043
497.2144	0.0021
497.4135	0.0021
497.6126	0.0002
497.8116	-0.0012
498.0107	0.0095
498.2097	0.0082
498.4087	0.0018
498.6077	-0.0046
498.8067	0.0005
499.0056	0.001
499.2046	0.0034
499.4035	0.006
499.6024	-0.0045
499.8013	0.0052
500.0002	-0.0027
500.199	0.0095
500.3979	0.0022
500.5967	0.0042
500.7956	0.0063
500.9944	0.0075
501.1932	0.005
501.3919	0.0039
501.5907	0.0023
501.7895	-0.0036
501.9882	0.0032
502.1869	0.0079
502.3856	0.0001
502.5843	0.0048
502.783	0.0041
502.9816	0.0036
503.1803	0.001
503.3789	0.0099
503.5775	0.0088
503.7761	-0.0043
503.9747	0.0109
504.1732	-0.0076
504.3718	0.008
504.5703	0.0047
504.7689	-0.0077
504.9674	0.0062
505.1658	0.0017
505.3643	0.0009
505.5628	0.0072
505.7612	0.0038
505.9597	-0.0097
506.1581	-0.0011
506.3565	-0.0046
506.5549	0.0081
506.7532	-0.0051
506.9516	0.0048
507.1499	0.0084
507.3482	0.0014
507.5465	0.0051
507.7448	0.0018
507.9431	0.0071
508.1414	0.002
508.3396	0.008
508.5379	0.0036
508.7361	-0.0017
508.9343	0.0073
509.1325	0.0077
509.3306	-0.0037
509.5288	-0.0062
509.7269	0.0054
509.9251	0.0079
510.1232	0.0014
510.3213	-0.0055
510.5193	0.0017
510.7174	-0.0008
510.9154	0.0116
511.1135	0.0026
511.3115	0.0094
511.5095	0.0056
511.7075	0.0055
511.9055	0.0003
512.1034	0.0043
512.3014	-0.0057
512.4993	0.0065
512.6972	-0.0033
512.8951	0.0023
513.093	-0.0018
513.2908	0.0084
513.4887	0
513.6865	0.007
513.8844	0.0016
514.0822	0.0044
514.2799	0.0046
514.4777	-0.0033
514.6755	0.0021
514.8732	-0.0002
515.0709	0.0037
515.2687	0.0051
515.4664	0.0069
515.664	0.0026
515.8617	0.0102
516.0594	0.0034
516.257	-0.0004
516.4546	0.0123
516.6522	0.0021
516.8498	0.0082
517.0474	0.0028
517.2449	0.0021
517.4425	0.0067
517.64	0.0069
517.8375	0.0022
518.035	0.0062
518.2325	-0.0094
518.43	0.0026
518.6274	0.0017
518.8249	-0.0062
519.0223	0.0081
519.2197	-0.0026
519.4171	-0.0028
519.6145	0.0099
519.8118	-0.0103
520.0092	-0
520.2065	0.0048
520.4038	-0.0023
520.6011	0.0046
520.7984	-0.0013
520.9956	0.0108
521.1929	0.0106
521.3901	-0.0004
521.5874	0.001
521.7846	-0.0028
521.9818	0.007
522.1789	-0.0026
522.3761	0.0204
522.5732	0.0004
522.7704	-0.0034
522.9675	-0.0064
523.1646	-0.0124
523.3617	0.0083
523.5587	0.0118
523.7558	0.0065
523.9528	0.0065
524.1498	0.0007
524.3468	0.002
524.5438	-0.001
524.7408	-0.0037
524.9378	0.0043
525.1347	0.0107
525.3316	-0
525.5285	-0.0072
525.7254	0.0018
525.9223	0.013
526.1192	0.0039
526.316	0.0049
526.5129	0.0089
526.7097	0.0019
526.9065	0.0106
527.1033	0.0069
527.3	-0.0047
527.4968	0.0091
527.6935	-0.0027
527.8903	-0.0031
528.087	0.008
528.2837	0.0194
528.4804	0.0081
528.677	-0.0021
528.8737	-0.0049
529.0703	0.0033
529.2669	0.0133
529.4635	-0.0034
529.6601	-0.0062
529.8567	-0.0028
530.0532	0.0064
530.2498	-0.0016
530.4463	-0.0126
530.6428	0.004
530.8393	0.0186
531.0358	0.01
531.2322	0.0024
531.4287	0.0051
531.6251	-0.0016
531.8215	-0.0008
532.0179	0.0123
532.2143	0.0011
532.4107	0.0118
532.607	0.0039
532.8034	-0.0006
532.9997	0.002
533.196	-0.0011
533.3923	0.0083
533.5886	0.011
533.7848	-0.0017
533.9811	0.0014
534.1773	0.0004
534.3735	0.0039
534.5697	-0.0011
534.7659	0.007
534.9621	0.0015
535.1582	0.012
535.3544	0.0078
535.5505	0.0116
535.7466	0.0037
535.9427	0.0011
536.1387	-0.008
536.3348	-0.0029
536.5308	-0.0011
536.7269	-0.0023
536.9229	0.0052
537.1189	0.0043
537.3148	0.0045
537.5108	0.0049
537.7068	0.0067
537.9027	-0.0082
538.0986	0.0117
538.2945	-0.004
538.4904	-0.0024
538.6863	-0.0029
538.8821	0.011
539.078	0.0078
539.2738	0.0041
539.4696	-0.004
539.6654	0.0029
539.8611	0.006
540.0569	-0.0021
540.2526	0.009
540.4484	-0.0084
540.6441	0.0073
540.8398	0.0084
541.0355	-0.0012
541.2311	0.0019
541.4268	0.0082
541.6224	0.0117
541.818	0.0152
542.0136	0.0008
542.2092	0.0088
542.4048	0.0009
542.6003	0.0018
542.7959	0.0024
542.9914	0.0053
543.1869	0.0041
543.3824	0.0015
543.5779	0.008
543.7734	0.0073
543.9688	0.0079
544.1642	0.0035
544.3596	0.0111
544.555	-0.0044
544.7504	0.02
544.9458	0.0029
545.1411	-0.0013
545.3365	0.003
545.5318	0.004
545.7271	0.0066
545.9224	-0.0069
546.1177	0.0072
546.3129	0.0037
546.5081	-0.0008
546.7034	0.0036
546.8986	-0.0004
547.0938	0.0039
547.289	0.0032
547.4841	0.0095
547.6793	-0.0008
547.8744	0.0067
548.0695	-0.0042
548.2646	0.0074
548.4597	-0.0005
548.6548	0.009
548.8498	0.0057
549.0448	0.001
549.2399	0.0101
549.4349	0.0058
549.6298	0.0021
549.8248	0.0006
550.0198	0.0042
550.2147	0
550.4096	-0.0037
550.6045	-0.0029
550.7994	0.0073
550.9943	0.0114
551.1892	-0.0086
551.384	0.0037
551.5788	0.0033
551.7737	0.0091
551.9685	-0.002
552.1632	0.0012
552.358	0.0075
552.5528	-0.0015
552.7475	0.0138
552.9422	0.0062
553.1369	0.0188
553.3316	0.0036
553.5263	0.012
553.7209	0.0045
553.9156	0.0023
554.1102	0.0042
554.3048	-0.002
554.4994	0.0089
554.694	0.0004
554.8885	-0.0012
555.0831	0.0014
555.2776	0.0069
555.4721	0.0035
555.6666	0.0054
555.8611	0.0024
556.0555	0.0044
556.25	0.0038
556.4444	-0.0043
556.6388	-0.003
556.8332	0.0109
557.0276	-0.0014
557.222	0.0064
557.4163	0.0059
557.6107	0.0101
557.805	-0.0031
557.9993	0.0112
558.1936	0.0008
558.3879	0.0086
558.5821	-0.0031
558.7764	-0.0044
558.9706	-0.0019
559.1648	-0.0009
559.359	-0.0097
559.5532	0.0007
559.7473	-0.0063
559.9415	-0.001
560.1356	0.0121
560.3297	-0.0046
560.5238	0.0047
560.7179	-0.0041
560.9119	-0.0005
561.106	-0.006
561.3	-0.0033
561.494	-0.0054
561.688	-0.0032
561.882	-0.0022
562.076	0.0056
562.2699	0.0115
562.4639	0.0095
562.6578	0.0044
562.8517	0.0082
563.0456	0.0123
563.2395	0.0045
563.4333	0.0012
563.6272	0.0064
563.821	0.0057
564.0148	-0.0015
564.2086	0.0029
564.4024	0.0055
564.5961	-0.0048
564.7899	0.0087
564.9836	-0.001
565.1773	0.0108
565.371	-0.0053
565.5647	0.0089
565.7584	0.0107
565.952	0.0091
566.1456	-0.0028
566.3393	0.001
566.5329	0.0038
566.7264	0.0046
566.92	0.0052
567.1136	-0.0094
567.3071	-0.0005
567.5006	0.0019
567.6941	0.0005
567.8876	0.0003
568.0811	0.0225
568.2745	-0.0006
568.468	0.0069
568.6614	0.0038
568.8548	0.0073
569.0482	-0
569.2416	0.0048
569.4349	0.0011
569.6283	0.0004
569.8216	0.0068
570.0149	0.0033
570.2082	0.0083
570.4015	-0.0022
570.5947	-0.002
570.788	0.0071
570.9812	0.0012
571.1744	0.0067
571.3676	0.003
571.5608	0.0006
571.754	0.0073
571.9471	0.0073
572.1402	-0.0006
572.3333	0.0047
572.5264	0.0042
572.7195	0.0008
572.9126	0.0027
573.1057	-0.0002
573.2987	0.0011
573.4917	-0.0016
573.6847	0.0023
573.8777	0.0054
574.0707	0.0041
574.2636	0.0053
574.4566	0.0001
574.6495	-0.001
574.8424	0.0041
575.0353	0.0055
575.2281	0.0049
575.421	-0.0035
575.6138	0.0005
575.8067	0.0076
575.9995	0.0009
576.1923	0.0088
576.385	0.0058
576.5778	0.0036
576.7706	0.0014
576.9633	0.0027
577.156	-0.006
577.3487	0.0001
577.5414	-0.0029
577.734	0.0016
577.9267	0.0026
578.1193	0.0036
578.3119	-0.0011
578.5045	0.0007
578.6971	-0.003
578.8897	-0.0009
579.0822	0.0039
579.2747	0.0007
579.4673	0.005
579.6598	0.0063
579.8522	0.0005
580.0447	0.0051
580.2372	0.0054
580.4296	0.0041
580.622	-0.0005
580.8144	0.0049
581.0068	0.0011
581.1992	0.0028
581.3915	0.0001
581.5839	0.0053
581.7762	0.0021
581.9685	0.0018
582.1608	0.0028
582.353	0.0013
582.5453	0.004
582.7375	0.0049
582.9298	-0.0007
583.122	0.0031
583.3142	0.008
583.5063	0.0015
583.6985	0.0002
583.8906	-0.0019
584.0827	0.0021
584.2749	-0.0012
584.4669	0.0004
584.659	0.0045
584.8511	0.0083
585.0431	0.0019
585.2352	-0.0002
585.4272	0.002
585.6192	0.0022
585.8111	0.0008
586.0031	-0.0002
586.195	0.0015
586.387	0.0005
586.5789	0.0024
586.7708	0.0053
586.9627	0.0049
587.1545	0.0004
587.3464	0.0077
587.5382	-0.0025
587.73	0.0048
587.9218	-0.0005
588.1136	-0.0049
588.3053	0.0039
588.4971	0.0057
588.6888	0.0014
588.8805	0.0023
589.0722	0.009
589.2639	0.0003
589.4556	0.0071
589.6472	0.0076
589.8389	-0.0013
590.0305	-0.0008
590.2221	0.0042
590.4137	0.003
590.6052	0.0049
590.7968	0.0023
590.9883	0.0026
591.1798	-0.0002
591.3713	0.0019
591.5628	0.0048
591.7543	0.0054
591.9458	0.0005
592.1372	0.0085
592.3286	0.0019
592.52	0.0002
592.7114	0.005
592.9028	0.0101
593.0941	0.0025
593.2855	-0.0051
593.4768	0.0069
593.6681	0.003
593.8594	0.0013
594.0506	-0.0001
594.2419	0.0043
594.4331	0.0013
594.6244	0.0001
594.8156	-0
595.0067	-0.007
595.1979	-0.0022
595.3891	-0.0004
595.5802	0.0056
595.7713	0.0063
595.9624	0.0041
596.1535	-0.0001
596.3446	0.003
596.5357	0.0032
596.7267	0.0034
596.9177	0.002
597.1087	-0.0022
597.2997	0.0004
597.4907	0.0004
597.6817	0.0084
597.8726	0.0009
598.0635	-0.0033
598.2544	0.0029
598.4453	0.0013
598.6362	0.0022
598.827	-0.0025
599.0179	0.0002
599.2087	0.0068
599.3995	0.0047
599.5903	0.0023
599.7811	0.0091
599.9718	0.0013
600.1626	-0.0045
600.3533	-0.0001
600.544	0.0035
600.7347	0.0009
600.9254	0.0068
601.116	-0.0008
601.3067	0.0045
601.4973	0.0019
601.6879	0.0001
601.8785	0.0056
602.0691	-0.0028
602.2596	0.0032
602.4502	0.0062
602.6407	0.0044
602.8312	-0.0026
603.0217	0.0054
603.2122	0.0006
603.4027	0.0021
603.5931	-0.0073
603.7835	0.0073
603.9739	-0.0006
604.1643	0.0077
604.3547	0.0068
604.5451	0.0028
604.7354	-0.0074
604.9257	0.002
605.116	-0.0021
605.3063	0.0028
605.4966	-0.0017
605.6869	0.0109
605.8771	0.0031
606.0673	0.0028
606.2575	-0.0019
606.4477	0.0054
606.6379	-0.0007
606.8281	-0.002
607.0182	0.0018
607.2083	0.0009
607.3985	-0.0001
607.5885	0.0007
607.7786	0.0049
607.9687	0.003
608.1587	0.0024
608.3488	0.002
608.5388	-0.0006
608.7288	-0.003
608.9187	0.0026
609.1087	0.0039
609.2986	0.0091
609.4886	-0.0044
609.6785	-0.0025
609.8684	0.0012
610.0582	0.0002
610.2481	0.0003
610.4379	-0.0008
610.6278	-0.0008
610.8176	0.0062
611.0074	0.0061
611.1971	-0.0002
611.3869	0.0076
611.5766	-0.005
611.7664	0.0053
611.9561	0.0046
612.1458	-0.002
612.3354	0.0037
612.5251	-0.001
612.7147	0.0013
612.9044	-0.003
613.094	0.0026
613.2836	0.0019
613.4731	0.0061
613.6627	0.004
613.8522	0.0062
614.0417	0.0024
614.2313	0.0016
614.4207	0.0078
614.6102	0.008
614.7997	0.0077
614.9891	0.0042
615.1785	-0.0004
615.3679	0.0069
615.5573	-0.0028
615.7467	-0.0063
615.9361	0.0066
616.1254	0.0065
616.3147	0.0023
616.504	0.0067
616.6933	-0.0015
616.8826	0.0025
617.0718	0.0044
617.2611	0.0059
617.4503	0.0062
617.6395	0.0065
617.8287	0.0071
618.0179	-0.0022
618.207	0.0111
618.3961	-0.0017
618.5853	-0.0014
618.7744	0.0038
618.9634	0.0061
619.1525	-0.0006
619.3416	-0.0032
619.5306	0.0038
619.7196	0.0128
619.9086	-0.0061
620.0976	-0.0082
620.2866	0.0075
620.4755	-0.0028
620.6645	0.0158
620.8534	0.0043
621.0423	-0.0054
621.2312	0.0073
621.42	-0.0007
621.6089	0.0059
621.7977	-0.0019
621.9865	0.0002
622.1753	-0.0079
622.3641	-0.0047
622.5529	-0.0107
622.7416	0.0034
622.9303	0.0025
623.1191	0.0027
623.3078	0.0053
623.4964	0.004
623.6851	-0.0006
623.8737	-0.0055
624.0624	-0.0111
624.251	0.0064
624.4396	0.0049
624.6282	0.0151
624.8167	0.0094
625.0053	0.0081
625.1938	0.0031
625.3823	-0.0042
625.5708	-0.0014
625.7593	-0.0018
625.9477	0.0119
626.1362	-0.0008
626.3246	0.0054
626.513	0.0025
626.7014	0.0027
626.8898	0.0095
627.0781	0.0081
627.2665	0.0088
627.4548	-0.0088
627.6431	-0.0006
627.8314	0.0044
628.0197	0.0114
628.2079	-0.0028
628.3962	0.0033
628.5844	-0.0055
628.7726	-0.0075
628.9608	0.0039
629.1489	0.0134
629.3371	-0.0184
629.5252	0.01
629.7134	-0.0133
629.9015	-0.001
630.0895	-0.015
630.2776	0.0083
630.4657	0.0059
630.6537	-0.0011
630.8417	-0.0161
631.0297	-0.0014
631.2177	0.0052
631.4057	-0.0003
631.5936	0.0001
631.7815	-0.0047
631.9695	0.0257
632.1574	0.0053
632.3452	-0.001
632.5331	0.003
632.7209	0.002
632.9088	-0.0094
633.0966	0.0317
633.2844	-0.0022
633.4722	0.0031
633.6599	0.0238
633.8477	-0.0029
634.0354	0.0061
634.2231	-0.0143
634.4108	-0.001
634.5985	0.0044
634.7861	-0.0076
634.9738	-0.01
635.1614	0.008
635.349	0.0022
635.5366	0.0004
635.7242	0.0078
635.9117	0.0117
636.0993	-0.0003
636.2868	0.0059
636.4743	0.0021
636.6618	-0.011
636.8492	0.0148
637.0367	-0.0057
637.2241	-0.0077
637.4115	0.0261
637.5989	-0.0056
637.7863	0.0255
637.9737	-0.0024
638.161	-0.0044
638.3484	-0.0129
638.5357	-0.0123
638.723	0.0182
638.9103	-0.0217
639.0975	0.0059
639.2848	0.0057
639.472	0.0159
639.6592	-0.0232
639.8464	-0.0016
640.0336	-0.0167
640.2208	-0.0073
640.4079	-0.0065
640.595	-0.009
640.7821	0.03
640.9692	0.0083
641.1563	0.0153
641.3434	0.0026
641.5304	0.0054
641.7174	0.0042
641.9044	-0.0097
642.0914	0.0085
642.2784	0.01
642.4653	-0.0204
642.6523	0.0112
642.8392	-0.0137
643.0261	0.0164
643.213	0.0017
643.3999	-0.0025
643.5867	0.0083
643.7735	-0.0078
643.9604	0.017
644.1472	0.0056
644.3339	0.0017
644.5207	0.0025
644.7075	0.0093
644.8942	0.007
645.0809	-0.0041
645.2676	-0.0194
645.4543	-0.004
645.6409	0.0054
645.8276	0.0052
646.0142	-0.0071
646.2008	-0.0045
646.3874	-0.0086
646.574	-0.0125
646.7605	0.0142
646.9471	-0.0212
647.1336	-0.0215
647.3201	-0.0023
647.5066	0.0131
647.6931	-0.0009
647.8795	0.0063
648.0659	0.0063
648.2524	0.0067
648.4388	-0.0018
648.6252	0.0113
648.8115	0.0003
648.9979	-0.0001
649.1842	-0.0052
649.3705	0.0051
649.5568	-0.0207
649.7431	-0.0157
649.9294	-0.0098
650.1156	-0.0078
650.3018	0.0065
650.488	0.0066
650.6742	0.0292
650.8604	0.0078
651.0466	0.0036
651.2327	-0.0045
651.4188	-0.0039
651.6049	0.0075
651.791	0.003
651.9771	0.0072
652.1632	0.0043
652.3492	0.0132
652.5352	0.0214
652.7212	0.0162
652.9072	-0.0031
653.0932	-0.0024
653.2791	0.0124
653.465	-0.0001
653.651	0.0045
653.8369	-0.0087
654.0227	-0.0149
654.2086	0.0209
654.3944	0.0075
654.5803	-0.0118
654.7661	-0.0012
654.9519	-0.0006
655.1377	0.0001
655.3234	0.0001
655.5092	0.0001
655.6949	0.0001
655.8806	0.0001
656.0663	0.0001
656.2519	0.0001
656.4376	0.0001
656.6232	0.0001
656.8088	0.0001
656.9945	0.0001
657.18	0.0001
657.3656	0.0001
657.5511	0.0001
657.7367	0.0001
657.9222	0.0001
658.1077	0.0001
658.2932	0.0001
658.4786	0.0001
658.6641	0.0001
658.8495	0.0001
659.0349	0.0001
659.2203	0.0001
659.4057	0.0001
659.591	0.0822
659.7764	0.0131
659.9617	-0.0002
660.147	0.0123
660.3323	-0.0088
660.5176	0.0025
660.7028	-0.0175
660.888	0.0061
661.0733	0.0105
661.2585	-0.0087
661.4436	0.0241
661.6288	0.0157
661.8139	-0.0086
661.9991	-0.0167
662.1842	-0.0064
662.3693	0.0257
662.5544	-0.0134
662.7394	0.0121
662.9245	0.0026
663.1095	-0.0268
663.2945	-0.0132
663.4795	-0.0138
663.6644	-0.0054
663.8494	0.013
664.0343	-0.0037
664.2193	-0.0077
664.4042	0.0001
664.589	0.0141
664.7739	-0.006
664.9587	-0.0089
665.1436	0.0118
665.3284	0.0019
665.5132	-0.0145
665.698	-0.0004
665.8827	0.0069
666.0675	-0.0238
666.2522	0.0014
666.4369	-0.0105
666.6216	0.015
666.8063	0.0136
666.9909	-0.0095
667.1756	0.0002
667.3602	-0.0063
667.5448	0.0188
667.7294	0.0085
667.9139	-0.0121
668.0985	0.0002
668.283	-0.0152
668.4675	0.0345
668.652	0.0027
668.8365	-0.0155
669.0209	0.0066
669.2054	0.0105
669.3898	0.0212
669.5742	0.028
669.7586	0.002
669.943	0.005
670.1273	0.0027
670.3117	0.0262
670.496	0.0099
670.6803	0.0043
670.8646	-0.0255
671.0488	0.0138
671.2331	-0.0077
671.4173	-0.0066
671.6015	-0.0084
671.7857	0.0117
671.9699	0.0128
672.1541	-0.0038
672.3382	-0.0011
672.5223	0.0037
672.7064	-0.0122
672.8905	0.0024
673.0746	0.0142
673.2587	0.0145
673.4427	-0.012
673.6267	-0.0089
673.8107	-0.0073
673.9947	0.003
674.1787	-0.0017
674.3626	0.0014
674.5465	0.016
674.7304	-0.0028
674.9143	-0.0068
675.0982	0.0108
675.2821	-0.0059
675.4659	-0.0189
675.6497	0.0043
675.8335	-0.0028
676.0173	-0.0035
676.2011	-0.004
676.3849	0.0043
676.5686	0.0157
676.7523	0.0065
676.936	0.0088
677.1197	-0.021
677.3034	0.0204
677.487	0.0105
677.6706	-0.0047
677.8542	0.0026
678.0378	0.0061
678.2214	0.0111
678.405	0.0118
678.5885	0.0211
678.772	0.0062
678.9555	-0.0084
679.139	-0.0007
679.3225	0.001
679.5059	-0.019
679.6894	0.003
679.8728	0.0026
680.0562	-0.0058
680.2395	-0.0108
680.4229	-0.0068
680.6062	0.0105
680.7896	-0.025
680.9729	0.0179
681.1562	0.0008
681.3394	-0.0028
681.5227	0.0043
681.7059	0.0046
681.8891	0.0052
682.0723	0.0013
682.2555	-0.0042
682.4387	0.0066
682.6218	0.0169
682.805	0.0059
682.9881	0.0001
683.1712	0.0035
683.3542	0.018
683.5373	-0.01
683.7203	-0.0017
683.9034	0.0019
684.0864	-0.0058
684.2694	0.0079
684.4523	0.003
684.6353	0.0096
684.8182	-0.0031
685.0011	0.008
685.184	0.0021
685.3669	0.0128
685.5498	-0.001
685.7326	-0.004
685.9154	-0.0029
686.0982	0.0051
686.281	-0.0079
686.4638	0.0014
686.6465	-0.0054
686.8293	-0.0026
687.012	0.0052
687.1947	0.0112
687.3774	0.0077
687.56	-0.004
687.7427	0.0108
687.9253	-0.024
688.1079	0.0019
688.2905	-0.0035
688.4731	0.0224
688.6556	0.0107
688.8382	-0.026
689.0207	-0.0049
689.2032	0.0001
689.3857	-0.0136
689.5681	0.0054
689.7506	0.0287
689.933	-0.0168
690.1154	0.0163
690.2978	0.0007
690.4802	0.0176
690.6626	0.0236
690.8449	0.0105
691.0272	0.003
691.2095	-0.0262
691.3918	0.0056
691.5741	0.0008
691.7563	0.0026
691.9386	0.0095
692.1208	0.0065
692.303	-0.0091
692.4852	-0.0008
692.6673	0.0086
692.8495	-0.0267
693.0316	-0.0039
693.2137	0.0172
693.3958	0.0039
693.5778	-0.0016
693.7599	-0.0147
693.9419	0.0086
694.1239	0.0234
694.3059	0.0014
694.4879	-0.0119
694.6699	0.0064
694.8518	0.0266
695.0337	0.0159
695.2157	0.0181
695.3975	-0.0158
695.5794	-0.0094
695.7613	-0.0108
695.9431	-0.0119
696.1249	0.0008
696.3067	-0.0328
696.4885	0.0081
696.6703	-0.0025
696.852	-0.008
697.0337	0.0257
697.2154	-0.0054
697.3971	-0.005
697.5788	0.0051
697.7605	-0.0044
697.9421	0.0033
698.1237	0.0063
698.3053	-0.0193
698.4869	0.0023
698.6685	-0.0188
698.85	0.0105
699.0315	-0.0131
699.213	-0.0068
699.3945	-0.0119
699.576	0.0182
699.7575	0.0101
699.9389	-0.0025
700.1203	0.0038
700.3017	-0.0014
700.4831	0.0163
700.6645	0.0217
700.8458	-0.018
701.0271	0.0432
701.2084	-0.0079
701.3897	0.0192
701.571	-0.0077
701.7523	0.0131
701.9335	0.002
702.1147	0.0163
702.2959	0.0005
702.4771	-0.0099
702.6583	-0.0175
702.8394	-0.032
703.0205	0.0225
703.2016	0.0071
703.3827	-0.0281
703.5638	-0.0036
703.7449	0.0328
703.9259	0.0293
704.1069	0.0068
704.2879	0.0219
704.4689	-0.0102
704.6499	0.0113
704.8308	-0.0044
705.0117	0.0137
705.1927	0.0183
705.3735	-0.0093
705.5544	0.0079
705.7353	-0.0183
705.9161	0.0051
706.0969	0.0142
706.2777	0.0057
706.4585	-0.0077
706.6393	0.0135
706.82	0.0113
707.0007	-0.0243
707.1815	-0.0177
707.3621	0.0108
707.5428	0.0216
707.7235	0.0134
707.9041	0.0035
708.0847	-0.0037
708.2653	0.0291
708.4459	0.0004
708.6265	-0.0068
708.807	-0.0097
708.9875	-0.0103
709.168	-0.0058
709.3485	0.013
709.529	0.0131
709.7095	-0.0073
709.8899	-0.0076
710.0703	0.0121
710.2507	-0.0124
710.4311	-0.0157
710.6115	0.053
710.7918	0.0125
710.9721	0.0012
711.1524	0.0084
711.3327	-0.013
711.513	0.0038
711.6932	-0.0077
711.8735	0.0082
712.0537	-0.0185
712.2339	-0.007
712.4141	0.0066
712.5942	-0.0257
712.7744	0.0095
712.9545	0.0141
713.1346	0.0217
713.3147	0.0253
713.4947	-0.0037
713.6748	-0.0025
713.8548	0.0147
714.0348	0.0279
714.2148	0.0092
714.3948	0.0285
714.5748	0.0216
714.7547	0.0113
714.9346	0.0163
715.1145	0.0136
715.2944	-0.0194
715.4743	0.0215
715.6541	-0.0199
715.834	0.0059
716.0138	0.0262
716.1936	-0.004
716.3733	-0.0057
716.5531	0.0173
716.7328	0.0166
716.9126	-0.0102
717.0923	-0.0067
717.2719	0.0011
717.4516	-0.01
717.6312	0.001
717.8109	0.0374
717.9905	0.0086
718.1701	0.002
718.3496	-0.0049
718.5292	0.0055
718.7087	-0.0266
718.8882	0.0056
719.0677	0.0109
719.2472	0.0316
719.4267	-0.0233
719.6061	-0.0292
719.7856	0.013
719.965	0.0135
720.1443	0.0053
720.3237	-0.0022
720.5031	0.0217
720.6824	-0.0169
720.8617	-0.0028
721.041	0.0357
721.2203	-0.0141
721.3995	-0.0021
721.5788	-0.0014
721.758	-0.0117
721.9372	-0.0145
722.1164	-0.0066
722.2956	-0.0128
722.4747	0.0176
722.6538	-0.012
722.8329	0.0028
723.012	0.0459
723.1911	0.0006
723.3702	0.0214
723.5492	0.0093
723.7282	0.0067
723.9072	0.0075
724.0862	-0.0151
724.2652	-0.0145
724.4441	-0.0185
724.623	0.0055
724.8019	-0.0044
724.9808	0.0067
725.1597	0.0129
725.3385	0.0094
725.5174	-0.0045
725.6962	0.0077
725.875	-0.0064
726.0538	0.0125
726.2325	0.0178
726.4112	-0.0242
726.59	-0.0357
726.7687	0.0006
726.9474	0.01
727.126	0.0228
727.3047	-0.0209
727.4833	-0.005
727.6619	-0.0184
727.8405	0.005
728.0191	0.0247
728.1976	-0.0002
728.3762	-0.0219
728.5547	-0.0106
728.7332	-0.0056
728.9116	0.0136
729.0901	-0.0024
729.2686	-0.002
729.447	-0.0005
729.6254	-0.0085
729.8038	-0.0079
729.9821	-0.0129
730.1605	0.0159
730.3388	-0.0122
730.5171	0.0195
730.6954	-0.0259
730.8737	0.0157
731.0519	-0.0104
731.2302	0.0248
731.4084	0.0054
731.5866	0.0048
731.7648	-0.0046
731.9429	-0.0016
732.1211	-0.0237
732.2992	-0.001
732.4773	-0.0138
732.6554	-0.026
732.8335	0.0073
733.0115	-0.0069
733.1896	-0.0138
733.3676	0.0307
733.5456	-0.0144
733.7235	-0.0091
733.9015	0.0109
734.0794	-0.0103
734.2574	-0.0197
734.4353	-0.0121
734.6131	-0.0015
734.791	-0.0079
734.9689	-0.0105
735.1467	-0.0124
735.3245	0.005
735.5023	0.0114
735.68	0.0007
735.8578	-0.0073
736.0355	-0.002
736.2132	-0.0017
736.3909	-0.0012
736.5686	-0.0177
736.7463	-0.0026
736.9239	0.0182
737.1015	-0.0106
737.2791	0.029
737.4567	-0.012
737.6343	0.0081
737.8118	0.0285
737.9894	-0.0033
738.1669	-0.0091
738.3444	0.0316
738.5218	-0.0184
738.6993	0.0203
738.8767	-0.0153
739.0541	0.0059
739.2315	0.0103
739.4089	0.0207
739.5863	-0.0002
739.7636	0.0054
739.9409	0.0127
740.1182	-0.0067
740.2955	0.0065
740.4728	-0.0291
740.65	0.0068
740.8272	-0.0114
741.0044	0.0061
741.1816	0.0071
741.3588	-0.0198
741.5359	0.0186
741.7131	0.0141
741.8902	-0.0208
742.0673	-0.0204
742.2444	0.0436
742.4214	0.0164
742.5985	-0.028
742.7755	-0.0024
742.9525	-0.029
743.1295	-0.0492
743.3064	-0.0075
743.4834	0.0007
743.6603	0.038
743.8372	-0.0215
744.0141	0.0195
744.191	0.0165
744.3678	-0.0313
744.5446	-0.0127
744.7215	0.0151
744.8982	0.0086
745.075	0.0318
745.2518	-0.0171
745.4285	0.0415
745.6052	-0.0287
745.7819	0.0035
745.9586	0.0103
746.1353	0.0069
746.3119	0.0083
746.4885	0.0372
746.6651	-0.0006
746.8417	-0.0123
747.0183	0.0292
747.1948	0.0112
747.3714	-0.0068
747.5479	-0.0003
747.7244	-0.0271
747.9008	0.0059
748.0773	0.0282
748.2537	0.012
748.4301	0.0441
748.6065	-0.0149
748.7829	-0.0121
748.9593	0.0033
749.1356	-0.0009
749.3119	0.0187
749.4882	0.0281
749.6645	0.0011
749.8408	0.0047
750.017	0.0301
750.1933	-0.0415
750.3695	0.0295
750.5457	-0.0145
750.7218	-0.0198
750.898	-0.0098
751.0741	0.0053
751.2502	-0.0041
751.4263	0.0094
751.6024	0.0015
751.7784	-0.0047
751.9545	0.0202
752.1305	0.0078
752.3065	0.0124
752.4825	-0.0124
752.6584	-0.0226
752.8344	-0.0139
753.0103	-0.0055
753.1862	0.0196
753.3621	-0.0249
753.5379	-0.0042
753.7138	0.0039
753.8896	0.0065
754.0654	-0.0024
754.2412	0.0047
754.417	0.0076
754.5927	0.0154
754.7685	0.0143
754.9442	0.0153
755.1199	-0.0053
755.2956	0.0122
755.4712	0.0058
755.6469	-0.0053
755.8225	0.0129
755.9981	0.0045
756.1736	-0.012
756.3492	-0.0081
756.5248	-0.001
756.7003	0.0097
756.8758	-0.0102
757.0513	-0.0077
757.2267	0.0057
757.4022	-0.0042
757.5776	0.0033
757.753	0.0023
757.9284	-0.0068
758.1038	-0.0052
758.2791	0.0049
758.4545	-0.0168
758.6298	0.0098
758.8051	0.0097
758.9803	-0.006
759.1556	-0.0001
759.3308	-0.0055
759.506	-0.0014
759.6812	-0.0117
759.8564	-0.0001
760.0316	-0.0052
760.2067	0.0122
760.3819	-0.0089
760.557	0.006
760.732	0.0051
760.9071	0.0093
761.0821	-0.0188
761.2572	-0.0015
761.4322	0.0073
761.6072	-0.0106
761.7821	-0.0306
761.9571	0.0133
762.132	-0.0111
762.3069	-0.0005
762.4818	0.0032
762.6567	-0.0005
762.8316	-0.0158
763.0064	0.011
763.1812	-0.0075
763.356	-0.0068
763.5308	0.0038
763.7055	-0.0082
763.8803	-0.001
764.055	-0.0141
764.2297	-0.0043
764.4044	-0.0036
764.579	-0.0038
764.7537	0.0108
764.9283	0.0068
765.1029	-0.0037
765.2775	0.0075
765.4521	-0.0164
765.6266	0.0131
765.8011	-0.0002
765.9756	0.0335
766.1501	-0.0175
766.3246	0.0034
766.4991	-0.005
766.6735	0.0454
766.8479	0.0072
767.0223	0.0361
767.1967	-0.0008
767.371	-0.0064
767.5454	0.0184
767.7197	-0.001
767.894	0.0141
768.0683	0.0182
768.2425	-0.0061
768.4168	0.0005
768.591	-0.0037
768.7652	-0.0051
768.9394	-0.0378
769.1135	-0.0067
769.2877	0.0091
769.4618	0.0309
769.6359	0.0069
769.81	0.0127
769.984	0.0051
770.1581	0.0006
770.3321	0.026
770.5061	-0.0118
770.6801	0.0012
770.8541	-0.007
771.028	0.0011
771.202	0.017
771.3759	0.012
771.5498	-0.0023
771.7236	0.027
771.8975	0.0413
772.0713	0.0161
772.2451	-0.0075
772.4189	-0.007
772.5927	-0.0461
772.7665	-0.0255
772.9402	0.0109
773.1139	-0.016
773.2876	0.0019
773.4613	0.0042
773.635	0.0142
773.8086	0.051
773.9822	0.025
774.1558	0.0215
774.3294	-0.0349
774.503	0.0137
774.6765	-0.0137
774.8501	-0.0287
775.0236	-0.0101
775.1971	-0.022
775.3705	-0.0238
775.544	-0.0237
775.7174	0.0062
775.8908	0.0137
776.0642	0.0198
776.2376	0.0788
776.4109	0.0197
776.5843	0.0166
776.7576	0.0004
776.9309	0.0123
777.1041	-0.0195
777.2774	-0.0062
777.4506	-0.027
777.6238	-0.0309
777.797	0.0118
777.9702	-0.0068
778.1434	0.018
778.3165	0.0003
778.4896	-0.0221
778.6627	0.0324
778.8358	-0.0505
779.0089	-0.0496
779.1819	0.0217
779.3549	0.0204
779.5279	-0.0188
779.7009	0.0515
779.8739	0.0485
780.0468	-0.0336
780.2197	-0.0166
780.3926	-0.0201
780.5655	0.0318
780.7384	0.0133
780.9112	0.0263
781.0841	0.0129
781.2569	0.0011
781.4297	-0.0145
781.6024	-0.0074
781.7752	0.031
781.9479	0.0201
782.1206	0.0093
782.2933	-0.024
782.466	0.0078
782.6386	-0.0065
782.8113	-0.0391
782.9839	0.0009
783.1565	0.0014
783.329	-0.0083
783.5016	0.0213
783.6741	-0.0194
783.8466	0.0299
784.0191	0.0565
784.1916	-0.0279
784.3641	-0.0516
784.5365	0.0143
784.7089	-0.0168
784.8813	0.0714
785.0537	-0.0197
785.2261	-0.0041
785.3984	0.0066
785.5707	0.0063
785.743	0.048
785.9153	-0.0091
786.0876	-0.0333
786.2598	-0.0443
786.432	0.0474
786.6042	0.0395
786.7764	0.0068
786.9486	-0.014
787.1207	0.016
787.2928	0.0334
787.4649	-0.0023
787.637	0.0056
787.8091	0.0281
787.9811	0.0498
788.1532	0.019
788.3252	-0.0066
788.4972	0.0234
788.6691	-0.0147
788.8411	-0.0157
789.013	0.0288
789.1849	-0.006
789.3568	0.0028
789.5287	0.0969
789.7005	-0.0117
789.8723	-0.0329
790.0442	0.0025
790.2159	0.0005
790.3877	0.0524
790.5595	0.024
790.7312	-0.0094
790.9029	-0.0096
791.0746	0.004
791.2463	0.0076
791.4179	-0.0068
791.5896	0.03
791.7612	0.0491
791.9328	-0.0213
792.1044	-0.027
792.2759	-0.0223
792.4474	-0.0319
792.619	0.0191
792.7905	-0.0017
792.9619	0.0005
793.1334	0.0632
793.3048	0.0444
793.4762	-0.0217
793.6476	-0.0552
793.819	-0.0102
793.9904	0.0101
794.1617	-0.028
794.333	0.0186
794.5043	0.0149
794.6756	0.0061
794.8469	-0.0117
795.0181	0.0009
795.1893	0.0079
795.3605	0.0274
795.5317	-0.0067
795.7029	-0.0622
795.874	0.0033
796.0452	0.015
796.2163	0.0228
796.3873	0.0713
796.5584	-0.0272
796.7294	0.0222
796.9005	0.028
797.0715	0.0492
797.2425	0.0829
797.4134	0.0294
797.5844	-0.0006
797.7553	-0.054
797.9262	0.0773
798.0971	-0.0237
798.2679	-0.0114
798.4388	0.0097
798.6096	-0.0258
798.7804	0.0428
798.9512	0.0136
799.122	-0.0219
799.2927	0.0882
799.4635	0.0022
799.6342	-0.0332
799.8049	0.0183
799.9755	-0.0321
800.1462	0.0289
800.3168	0.0046
800.4874	-0.0569
800.658	-0.0186
800.8286	0.05
800.9991	0.0119
801.1696	0.0125
801.3402	0.0322
801.5106	0.0117
801.6811	0.0135
801.8516	0.059
802.022	0.0028
802.1924	-0.0574
802.3628	-0.0491
802.5332	0.0092
802.7035	0.0583
802.8739	0.0988
803.0442	-0.0009
803.2145	0.0058
803.3847	0.0039
803.555	0.0711
803.7252	-0.035
803.8954	0.0074
804.0656	-0.0313
804.2358	0.0064
804.4059	0.1055
804.5761	0.0619
804.7462	0.0061
804.9163	0.0136
805.0864	-0.0129
805.2564	0.0304
805.4264	-0.0122
805.5965	0.0299
805.7665	0.021
805.9364	-0.0023
806.1064	0.0271
806.2763	0.0277
806.4462	0.007
806.6161	0.0457
806.786	-0.0133
806.9559	0.0456
807.1257	-0.0154
807.2955	-0.0214
807.4653	0.0018
807.6351	0.0323
807.8048	-0.0347
807.9746	-0.0031
808.1443	-0.068
808.314	0.0309
808.4837	0.033
808.6533	0.0151
808.8229	0.1018
808.9926	0.0302
809.1622	0.0041
809.3317	-0.0402
809.5013	-0.0359
809.6708	0.023
809.8403	0.019
810.0098	0.038
810.1793	-0.0428
810.3488	0.0088
810.5182	0.1241
810.6876	0.0589
810.857	0.0629
811.0264	-0.0256
811.1958	0.0205
811.3651	-0.0724
811.5344	0.0263
811.7037	-0.0149
811.873	-0.0236
812.0422	-0.1093
812.2115	0.16
812.3807	-0.0206
812.5499	0.0479
812.7191	-0.0262
812.8882	-0.1303
813.0574	-0.0116
813.2265	0.1235
813.3956	0.1122
813.5646	0.0127
813.7337	-0.0402
813.9027	-0.0743
814.0718	-0.0186
814.2407	0.0106
814.4097	0.0911
814.5787	0.0997
814.7476	0.0171
814.9165	-0.0127
815.0854	0.0105
815.2543	-0.0305
815.4232	0.1043
815.592	0.1722
815.7608	-0.1358
815.9296	0.0274
816.0984	0.083
816.2671	-0.3654
816.4359	0.1071
816.6046	0.1243
816.7733	-0.0152
816.942	-0.0322
817.1106	0.1073
817.2793	0.0472
817.4479	0.0784
817.6165	-0.0102
817.785	0.0011
817.9536	-0.0961
818.1221	-0.0192
818.2906	0.0441
818.4591	0.0843
818.6276	0.0239
818.7961	-0.038
818.9645	0.1111
819.1329	0.1887
819.3013	-0.058
819.4697	0.0807
819.638	0.4786
819.8064	-0.0538
819.9747	0.0083
820.143	-0.0677
820.3113	0.0961
820.4795	0.0692
820.6477	0.0685
820.816	-0.0011
820.9842	0.0411
821.1523	0.0771
821.3205	0.0261
821.4886	-0.0457
821.6567	-0.1014
821.8248	0.1569
821.9929	-0.0881
822.1609	0.0748
822.329	0.1165
822.497	-0.0228
822.665	0.1418
822.833	-0.1803
823.0009	-0.1151
823.1688	0.247
823.3367	-0.2603
823.5046	-0.0277
823.6725	0.043
823.8404	0.0992
824.0082	0.096
824.176	-0.0715
824.3438	0.0862
824.5116	0.1233
824.6793	0.0692
824.847	-0.0309
825.0147	0.2099
825.1824	0.1464
825.3501	0.2292
825.5177	-0.0509
825.6854	0.0025
825.853	0.0823
826.0206	0.0241
826.1881	-0.0195
826.3557	0.1742
826.5232	0.2487
826.6907	-0.0624
826.8582	-0.0309
827.0257	0.3737
827.1931	0.0866
827.3605	-0.1093
827.528	-0.1156
827.6953	-0.1435
827.8627	-0.0721
828.03	0.0434
828.1974	0.1254
828.3647	0.0068
828.532	0.0281
828.6992	0.1407
828.8665	-0.1886
829.0337	0.0497
829.2009	-0.1355
829.3681	0.0976
829.5352	-0.2122
829.7024	0.0839
829.8695	0.0294
830.0366	0.2495
830.2037	0.035
830.3707	0.0337
830.5378	0.0084
830.7048	-0.042
830.8718	0.3205
831.0388	-0.0382
831.2057	0.3252
831.3727	-0.4102
831.5396	0.0709
831.7065	-0.8842
831.8734	0.0358
832.0402	0.1775
832.2071	-0.3846
832.3739	-0.0491
832.5407	-1.2788
832.7075	-0.4325
832.8742	0.393
833.041	0.531
833.2077	0.1258
833.3744	0.2867
833.541	0.0899
833.7077	0.2082
833.8743	-0.0062
834.0409	0.0156
834.2075	0.106
834.3741	0.2087
834.5407	0.2973
834.7072	0.257
834.8737	-0.0128
835.0402	-0
835.2067	-0.2517
835.3731	0.3371
835.5395	-0.0635
835.706	-0.3534
835.8723	0.1337
836.0387	0.179
836.2051	-0.1465
836.3714	0.2004
836.5377	0.2308
836.704	-0.0243
836.8703	-0.0663
837.0365	-0.6652
837.2027	-0.0559
837.3689	0.4541
837.5351	0.348
837.7013	0.0257
837.8674	-0
838.0335	-0.1389
838.1997	-0.2249
838.3657	0.2621
838.5318	0.0962
838.6978	0.2282
838.8639	0.0366
839.0299	-0.2577
839.1958	0.1428
839.3618	-0
839.5277	0.4729
839.6937	0.4702
839.8596	-0.2183
840.0254	-0.1331
840.1913	-0.1419
840.3571	-0.0242
840.523	-0
840.6888	-0.1728
840.8545	-0.4053
841.0203	0.1706
841.186	-0.096
841.3517	-0.1711
841.5174	0.1034
841.6831	0.0984
841.8488	-0.0515
842.0144	-0.1774
842.18	0.2583
842.3456	-0.7137
842.5112	-0
842.6767	-0.0932
842.8422	0.0586
843.0077	0.597
843.1732	-0.219
843.3387	0.3643
843.5042	-0
843.6696	0.6059
843.835	0.0904
844.0004	-0.3579
844.1657	-1.1244
844.3311	-0
844.4964	-0.6583
844.6617	0.6264
844.827	-0
844.9923	0.6494
845.1575	-0
845.3227	-0.3826
845.4879	-0.2822
845.6531	0.6739
845.8183	-0
845.9834	0.3805
846.1485	0.4158
846.3136	0.0177
846.4787	0.5927
846.6438	-0.0321
846.8088	-0
846.9738	-0
847.1388	0.2149
847.3038	0.1552
847.4687	0.2053
847.6337	-0.4679
847.7986	-0.3601
847.9635	0.2844
848.1284	2.8686
848.2932	0.8947
848.458	-0
848.6228	-0
848.7876	-0.4132
848.9524	-0.2487
849.1172	-1.7792
849.2819	-0
849.4466	0.0347
849.6113	-0.004
849.7759	-0
849.9406	-0.0242
850.1052	-0
850.2698	-0.3709
850.4344	-0.4834
850.599	0.0668
850.7635	-0
850.928	0.049
851.0925	1.1729
851.257	-0.141
851.4215	-0
851.5859	-0.1125
851.7503	-0
851.9147	-0.5271
852.0791	-0.129
852.2434	0.424
852.4078	-0
852.5721	-0
852.7364	-0.1878
852.9007	0.0924
853.0649	-0
853.2291	0.2355
853.3934	-0
853.5575	2.6542
853.7217	0.0968
853.8859	-0.0921
854.05	-0.5684
854.2141	-0
854.3782	0.0639
854.5423	-0.1876
854.7063	0.2688
854.8703	0.282
855.0343	0.1844
855.1983	-0.2357
855.3623	0.0884
855.5262	-0
855.6901	0.8101
855.854	0.1027
856.0179	0.6565
856.1818	-0
856.3456	0.3328
856.5094	0.0834
856.6732	-0.775
856.837	-1.4634
857.0008	0.1495
857.1645	0.0346
857.3282	-0.3558
857.4919	0.5664
857.6556	-0.3241
857.8192	0.1648
857.9828	-0.0865
858.1465	0.0777
858.31	-0
858.4736	-0.4281
858.6372	-0.4129
858.8007	0.236
858.9642	0.7962
859.1277	0.5714
859.2911	-0.3399
859.4546	-0
859.618	0.3473
859.7814	-0.2907
859.9448	0.2614
860.1081	-0
860.2715	-0
860.4348	0.1821
860.5981	1.7404
860.7614	-0.5705
860.9246	-0.1736
861.0879	0.2625
861.2511	-0.4661
861.4143	-0
861.5774	-0.3261
861.7406	0.2894
861.9037	-0.3774
862.0668	-0.908
862.2299	-0
862.393	-0.4467
862.556	-0.3846
862.7191	0.3424
862.8821	0.2118
863.0451	0.964
863.208	-0.2635
863.371	-0.5726
863.5339	0.2606
863.6968	1.1193
863.8597	-0
864.0225	-0.3208
864.1854	-0.2631
864.3482	-1.1798
864.511	-0.3063
864.6737	0.8451
864.8365	-0.2189
864.9992	-0
865.1619	-0.271
865.3246	-1.9106
865.4873	0.8451
865.65	-0
865.8126	0.1497
865.9752	-0.223
866.1378	-0.0791
866.3004	0.2776
866.4629	-1.8784
866.6254	2.143
866.7879	-0.5195
866.9504	-0
867.1129	-0.2998
867.2753	-0.066
867.4377	0.1533
867.6001	-0.4884
867.7625	-0.2543
867.9249	1.319
868.0872	-0.3154
868.2495	-0
868.4118	-0
868.5741	-0
868.7363	-0
868.8986	-0
869.0608	0.9899
869.223	0.3489
869.3851	-0
869.5473	0.3599
869.7094	-0
869.8715	-0
870.0336	-0.0081
870.1957	-0.3063
870.3577	0.1106
870.5197	-0.1467
870.6817	-0.7267
870.8437	-0.0877
871.0057	0.3291
871.1676	0.2391
871.3295	-0.2997
871.4914	-1.2201
871.6533	-0.2325
871.8151	0.397
871.977	0.044
872.1388	-0
872.3006	-0.4694
872.4623	0.3294
872.6241	-0
872.7858	0.2529
872.9475	0.3574
873.1092	-0
873.2709	0.1024
873.4325	-1.2788
873.5941	-0.1062
873.7557	-0
873.9173	0.4264
874.0789	-0
874.2404	-0
874.4019	-0.2068
874.5634	-0
874.7249	1.1523
874.8863	-0
875.0478	0.0494
875.2092	1.1777
875.3706	0.2567
875.5319	-0
875.6933	0.2791
875.8546	-0
876.0159	0.1835
876.1772	-0.1007
876.3385	-0
876.4997	-0
876.6609	0.0698
876.8221	-0
876.9833	-0
877.1445	0.3994
877.3056	-0.9872
877.4667	-0.3649
877.6278	-0
877.7889	-0.0423
877.9499	-0
878.111	-0.4902
878.272	0.1105
878.433	-0
878.5939	0.4324
878.7549	-0
878.9158	-0.1867
879.0767	-0
879.2376	0.781
879.3984	1.1568
879.5593	0.4199
879.7201	-2.0408
879.8809	-0
880.0417	0.1447
880.2024	0.7699
880.3632	-0.4287
880.5239	0.4173
880.6846	2.0128
880.8452	-0
881.0059	-1.0042
881.1665	-0.1778
881.3271	-0
881.4877	0.0133
881.6483	-1.3389
881.8088	-0
881.9693	-0
882.1298	-0
882.2903	-0
