Data from D4ACN5uM460nmA_Absorbance_13-05-42-800.txt Node
Date: Fri Feb 21 13:05:42 GMT 2025
User: LASERRRRR
Spectrometer: FLMT03099
Trigger mode: 0
Integration Time (sec): 1.500000E-2
Scans to average: 1
Electric dark correction enabled: true
Nonlinearity correction enabled: false
Boxcar width: 0
XAxis mode: Wavelengths
Number of Pixels in Spectrum: 3648
>>>>>Begin Spectral Data<<<<<
179.3399	-0.0496
179.5586	-0.0496
179.7771	-0.0496
179.9957	-0.3749
180.2143	-0
180.4329	-0
180.6514	-0.8779
180.8699	-0
181.0885	-0
181.307	0.1007
181.5255	0.2057
181.744	-0
181.9625	-0
182.181	-0
182.3994	-0.1057
182.6179	-0.3585
182.8363	-0.1909
183.0547	0.0188
183.2732	0.0287
183.4916	0.0881
183.71	0.2308
183.9284	0.0609
184.1467	0.1113
184.3651	0.2251
184.5835	0.2424
184.8018	0.0438
185.0201	0.3857
185.2385	0.2171
185.4568	0.1788
185.6751	0.1374
185.8934	0.4529
186.1117	-0.0219
186.3299	0.2414
186.5482	0.411
186.7664	0.161
186.9847	-0.0133
187.2029	0.1274
187.4211	0.1719
187.6393	0.2405
187.8575	0.3465
188.0757	0.4102
188.2939	0.1298
188.512	0.5539
188.7302	0.0398
188.9483	0.682
189.1665	-0
189.3846	0.1568
189.6027	0.2972
189.8208	0.3607
190.0389	0.0628
190.257	0.0548
190.475	0.1246
190.6931	0.1772
190.9111	0.1796
191.1292	0.1502
191.3472	0.2388
191.5652	0.1607
191.7832	0.0177
192.0012	0.3622
192.2192	0.1713
192.4371	0.1417
192.6551	0.2917
192.873	0.2519
193.091	0.1529
193.3089	0.2021
193.5268	0.2057
193.7447	0.182
193.9626	0.2053
194.1805	0.225
194.3984	0.2956
194.6162	0.247
194.8341	0.3423
195.0519	0.2151
195.2697	0.2536
195.4875	0.2805
195.7054	0.2981
195.9231	0.1558
196.1409	0.3121
196.3587	0.2904
196.5765	0.2755
196.7942	0.3015
197.012	0.3014
197.2297	0.2751
197.4474	0.4246
197.6651	0.2963
197.8828	0.3426
198.1005	0.3604
198.3182	0.3587
198.5358	0.3796
198.7535	0.3845
198.9711	0.4428
199.1888	0.3713
199.4064	0.416
199.624	0.3867
199.8416	0.3686
200.0592	0.3483
200.2767	0.4204
200.4943	0.3761
200.7119	0.4077
200.9294	0.4137
201.1469	0.4147
201.3645	0.4553
201.582	0.4115
201.7995	0.4163
202.017	0.4266
202.2344	0.4032
202.4519	0.4043
202.6694	0.4089
202.8868	0.3925
203.1042	0.3988
203.3217	0.3713
203.5391	0.3894
203.7565	0.3522
203.9739	0.3742
204.1913	0.3676
204.4086	0.3904
204.626	0.385
204.8433	0.3554
205.0607	0.3643
205.278	0.3644
205.4953	0.3358
205.7126	0.3683
205.9299	0.3247
206.1472	0.3432
206.3644	0.3458
206.5817	0.2997
206.7989	0.3534
207.0162	0.3012
207.2334	0.3169
207.4506	0.3005
207.6678	0.302
207.885	0.3161
208.1022	0.3294
208.3194	0.2866
208.5365	0.3306
208.7537	0.3197
208.9708	0.3216
209.1879	0.3036
209.405	0.2846
209.6222	0.2674
209.8392	0.3051
210.0563	0.2879
210.2734	0.2737
210.4905	0.2935
210.7075	0.2583
210.9245	0.2672
211.1416	0.2774
211.3586	0.2759
211.5756	0.2553
211.7926	0.2599
212.0096	0.2771
212.2265	0.2672
212.4435	0.2552
212.6604	0.2568
212.8774	0.2502
213.0943	0.2509
213.3112	0.2555
213.5281	0.2463
213.745	0.2358
213.9619	0.2537
214.1788	0.2605
214.3956	0.2436
214.6125	0.2749
214.8293	0.253
215.0461	0.2444
215.2629	0.2571
215.4798	0.243
215.6965	0.2612
215.9133	0.2467
216.1301	0.2539
216.3469	0.2487
216.5636	0.254
216.7803	0.2575
216.9971	0.247
217.2138	0.2564
217.4305	0.2677
217.6472	0.2485
217.8639	0.2497
218.0805	0.2446
218.2972	0.2587
218.5138	0.2557
218.7305	0.2689
218.9471	0.245
219.1637	0.2569
219.3803	0.2672
219.5969	0.2626
219.8135	0.2793
220.0301	0.2575
220.2466	0.255
220.4632	0.2449
220.6797	0.2719
220.8962	0.2703
221.1127	0.2763
221.3292	0.2667
221.5457	0.2894
221.7622	0.2775
221.9787	0.2732
222.1951	0.2783
222.4116	0.2827
222.628	0.2777
222.8444	0.2853
223.0608	0.2934
223.2772	0.283
223.4936	0.2752
223.71	0.2865
223.9264	0.2928
224.1427	0.2847
224.3591	0.2913
224.5754	0.3065
224.7917	0.3004
225.008	0.296
225.2243	0.3023
225.4406	0.2918
225.6569	0.3085
225.8732	0.3044
226.0894	0.3085
226.3057	0.304
226.5219	0.3192
226.7381	0.3187
226.9543	0.3248
227.1705	0.3321
227.3867	0.331
227.6029	0.3355
227.8191	0.3436
228.0352	0.3412
228.2513	0.3483
228.4675	0.3479
228.6836	0.3618
228.8997	0.3447
229.1158	0.3566
229.3319	0.3705
229.548	0.3494
229.764	0.3596
229.9801	0.371
230.1961	0.3763
230.4121	0.3683
230.6282	0.3899
230.8442	0.3797
231.0602	0.3839
231.2761	0.391
231.4921	0.393
231.7081	0.3902
231.924	0.4067
232.14	0.4101
232.3559	0.4063
232.5718	0.4146
232.7877	0.4108
233.0036	0.4015
233.2195	0.4127
233.4353	0.4225
233.6512	0.4224
233.867	0.4168
234.0829	0.4237
234.2987	0.435
234.5145	0.4323
234.7303	0.4329
234.9461	0.4438
235.1619	0.4411
235.3776	0.4256
235.5934	0.4268
235.8091	0.4362
236.0249	0.4512
236.2406	0.4419
236.4563	0.4529
236.672	0.439
236.8877	0.4604
237.1034	0.4503
237.319	0.4572
237.5347	0.4497
237.7503	0.4529
237.966	0.4507
238.1816	0.4482
238.3972	0.4631
238.6128	0.46
238.8284	0.4735
239.0439	0.4605
239.2595	0.4608
239.475	0.4703
239.6906	0.4596
239.9061	0.4657
240.1216	0.4563
240.3371	0.4572
240.5526	0.457
240.7681	0.4578
240.9836	0.4719
241.199	0.4511
241.4145	0.4489
241.6299	0.444
241.8453	0.4413
242.0607	0.4287
242.2761	0.4302
242.4915	0.4069
242.7069	0.4187
242.9223	0.422
243.1376	0.4064
243.353	0.4025
243.5683	0.3954
243.7836	0.3845
243.9989	0.3758
244.2142	0.3735
244.4295	0.3649
244.6448	0.3526
244.86	0.3464
245.0753	0.3389
245.2905	0.3455
245.5057	0.3329
245.721	0.3356
245.9362	0.3296
246.1514	0.314
246.3665	0.3069
246.5817	0.3038
246.7969	0.2969
247.012	0.2947
247.2271	0.2866
247.4423	0.2756
247.6574	0.2812
247.8725	0.2698
248.0876	0.2657
248.3026	0.2669
248.5177	0.2566
248.7328	0.2558
248.9478	0.2421
249.1628	0.2497
249.3779	0.2452
249.5929	0.2288
249.8079	0.2365
250.0228	0.2293
250.2378	0.2302
250.4528	0.2218
250.6677	0.2165
250.8827	0.2186
251.0976	0.2064
251.3125	0.2153
251.5274	0.2011
251.7423	0.2069
251.9572	0.2031
252.172	0.2149
252.3869	0.2077
252.6017	0.2006
252.8166	0.2022
253.0314	0.1941
253.2462	0.1957
253.461	0.1986
253.6758	0.1935
253.8906	0.1995
254.1053	0.1951
254.3201	0.1928
254.5348	0.1858
254.7496	0.1847
254.9643	0.1934
255.179	0.1852
255.3937	0.1888
255.6083	0.1856
255.823	0.1859
256.0377	0.1832
256.2523	0.181
256.467	0.186
256.6816	0.174
256.8962	0.1794
257.1108	0.1817
257.3254	0.183
257.54	0.1749
257.7545	0.1813
257.9691	0.1798
258.1836	0.1745
258.3981	0.1792
258.6127	0.1737
258.8272	0.1842
259.0417	0.1767
259.2561	0.1777
259.4706	0.1726
259.6851	0.1754
259.8995	0.1754
260.114	0.1782
260.3284	0.1726
260.5428	0.177
260.7572	0.1717
260.9716	0.174
261.186	0.1771
261.4003	0.174
261.6147	0.1723
261.829	0.176
262.0433	0.1771
262.2577	0.1753
262.472	0.1755
262.6863	0.1783
262.9005	0.1739
263.1148	0.1761
263.3291	0.1732
263.5433	0.1774
263.7576	0.177
263.9718	0.173
264.186	0.1763
264.4002	0.1711
264.6144	0.1831
264.8286	0.1788
265.0427	0.1796
265.2569	0.1768
265.471	0.1784
265.6851	0.1771
265.8993	0.1768
266.1134	0.18
266.3275	0.1736
266.5415	0.1737
266.7556	0.1851
266.9697	0.1782
267.1837	0.1807
267.3978	0.1752
267.6118	0.175
267.8258	0.1817
268.0398	0.1776
268.2538	0.1786
268.4677	0.1765
268.6817	0.1742
268.8957	0.1672
269.1096	0.1697
269.3235	0.1732
269.5374	0.1761
269.7514	0.1699
269.9652	0.1728
270.1791	0.1685
270.393	0.1715
270.6068	0.1722
270.8207	0.165
271.0345	0.1723
271.2483	0.1641
271.4622	0.1677
271.676	0.168
271.8897	0.1663
272.1035	0.1737
272.3173	0.1726
272.531	0.1659
272.7448	0.1666
272.9585	0.1636
273.1722	0.1623
273.3859	0.1688
273.5996	0.1744
273.8133	0.1716
274.0269	0.1648
274.2406	0.1699
274.4542	0.1674
274.6679	0.1682
274.8815	0.1759
275.0951	0.1732
275.3087	0.1695
275.5223	0.1647
275.7358	0.1732
275.9494	0.1747
276.1629	0.1802
276.3765	0.171
276.59	0.1677
276.8035	0.1764
277.017	0.1767
277.2305	0.1776
277.444	0.1754
277.6574	0.1765
277.8709	0.1779
278.0843	0.1753
278.2978	0.1757
278.5112	0.1763
278.7246	0.1752
278.938	0.1738
279.1513	0.1774
279.3647	0.1721
279.5781	0.1757
279.7914	0.1753
280.0047	0.1726
280.2181	0.1765
280.4314	0.1799
280.6447	0.1818
280.8579	0.1741
281.0712	0.1757
281.2845	0.177
281.4977	0.1809
281.711	0.1778
281.9242	0.1755
282.1374	0.1814
282.3506	0.1775
282.5638	0.1767
282.7769	0.175
282.9901	0.1823
283.2033	0.1846
283.4164	0.1775
283.6295	0.1766
283.8426	0.181
284.0557	0.1823
284.2688	0.1818
284.4819	0.177
284.695	0.1799
284.908	0.1801
285.1211	0.1877
285.3341	0.1837
285.5471	0.188
285.7601	0.1807
285.9731	0.1865
286.1861	0.186
286.3991	0.1872
286.612	0.1846
286.825	0.1884
287.0379	0.1823
287.2508	0.1866
287.4637	0.1931
287.6766	0.1865
287.8895	0.1838
288.1024	0.1878
288.3152	0.1922
288.5281	0.1885
288.7409	0.1856
288.9538	0.1859
289.1666	0.1862
289.3794	0.1931
289.5922	0.1857
289.8049	0.1922
290.0177	0.1888
290.2304	0.1871
290.4432	0.1978
290.6559	0.1895
290.8686	0.1923
291.0813	0.1882
291.294	0.1937
291.5067	0.1848
291.7194	0.191
291.932	0.1899
292.1447	0.1864
292.3573	0.1939
292.5699	0.1942
292.7825	0.1928
292.9951	0.1907
293.2077	0.1914
293.4203	0.1917
293.6328	0.1921
293.8454	0.1923
294.0579	0.1896
294.2704	0.1895
294.4829	0.1905
294.6954	0.1933
294.9079	0.1907
295.1204	0.1884
295.3328	0.2016
295.5453	0.1911
295.7577	0.1915
295.9701	0.1943
296.1825	0.1965
296.3949	0.1868
296.6073	0.1895
296.8197	0.1897
297.0321	0.1902
297.2444	0.187
297.4567	0.1907
297.6691	0.19
297.8814	0.1931
298.0937	0.1876
298.306	0.1862
298.5182	0.1997
298.7305	0.1945
298.9428	0.1935
299.155	0.1886
299.3672	0.1921
299.5794	0.1913
299.7916	0.192
300.0038	0.1955
300.216	0.187
300.4282	0.1885
300.6403	0.197
300.8525	0.1905
301.0646	0.1927
301.2767	0.193
301.4888	0.1906
301.7009	0.1934
301.913	0.1918
302.125	0.1917
302.3371	0.19
302.5491	0.1937
302.7612	0.1978
302.9732	0.1936
303.1852	0.1961
303.3972	0.1934
303.6092	0.1914
303.8211	0.1933
304.0331	0.1827
304.245	0.1914
304.457	0.1941
304.6689	0.1912
304.8808	0.1861
305.0927	0.1929
305.3046	0.1845
305.5164	0.1838
305.7283	0.1818
305.9401	0.1761
306.152	0.1798
306.3638	0.1766
306.5756	0.1784
306.7874	0.1776
306.9992	0.1646
307.2109	0.1749
307.4227	0.1673
307.6344	0.1735
307.8462	0.1735
308.0579	0.1711
308.2696	0.1677
308.4813	0.1663
308.693	0.161
308.9046	0.1672
309.1163	0.1581
309.328	0.1554
309.5396	0.1553
309.7512	0.1516
309.9628	0.1528
310.1744	0.1504
310.386	0.1445
310.5976	0.1451
310.8091	0.1505
311.0207	0.147
311.2322	0.1367
311.4437	0.1398
311.6552	0.1421
311.8667	0.1496
312.0782	0.142
312.2897	0.1388
312.5012	0.1322
312.7126	0.1365
312.924	0.1403
313.1355	0.1346
313.3469	0.1294
313.5583	0.1372
313.7696	0.1316
313.981	0.1361
314.1924	0.1267
314.4037	0.1353
314.6151	0.1276
314.8264	0.1305
315.0377	0.1326
315.249	0.13
315.4603	0.1275
315.6716	0.1256
315.8828	0.1202
316.0941	0.1238
316.3053	0.1188
316.5165	0.1221
316.7277	0.12
316.9389	0.1213
317.1501	0.1278
317.3613	0.1231
317.5724	0.1209
317.7836	0.1199
317.9947	0.1216
318.2058	0.1186
318.417	0.1234
318.6281	0.1166
318.8391	0.1255
319.0502	0.1168
319.2613	0.1219
319.4723	0.1178
319.6834	0.1241
319.8944	0.1156
320.1054	0.1173
320.3164	0.1173
320.5274	0.118
320.7383	0.1244
320.9493	0.1213
321.1602	0.1174
321.3712	0.1182
321.5821	0.1167
321.793	0.1239
322.0039	0.1203
322.2148	0.1186
322.4257	0.1177
322.6365	0.1206
322.8474	0.1229
323.0582	0.1219
323.269	0.124
323.4798	0.1196
323.6906	0.1122
323.9014	0.1159
324.1122	0.1184
324.3229	0.1237
324.5337	0.1204
324.7444	0.1252
324.9551	0.1233
325.1658	0.1218
325.3765	0.1298
325.5872	0.1229
325.7979	0.1226
326.0085	0.1197
326.2192	0.1224
326.4298	0.1274
326.6404	0.129
326.851	0.1249
327.0616	0.1244
327.2722	0.1287
327.4828	0.1234
327.6933	0.1344
327.9039	0.126
328.1144	0.1283
328.3249	0.1298
328.5354	0.129
328.7459	0.1273
328.9564	0.1289
329.1669	0.1319
329.3773	0.1319
329.5878	0.1233
329.7982	0.1273
330.0086	0.1305
330.219	0.1241
330.4294	0.1292
330.6398	0.1315
330.8502	0.132
331.0605	0.1264
331.2708	0.133
331.4812	0.1278
331.6915	0.1308
331.9018	0.1324
332.1121	0.1383
332.3224	0.1288
332.5326	0.124
332.7429	0.1299
332.9531	0.1347
333.1633	0.1261
333.3735	0.1289
333.5837	0.1345
333.7939	0.1315
334.0041	0.1337
334.2143	0.1305
334.4244	0.1421
334.6346	0.1301
334.8447	0.135
335.0548	0.1372
335.2649	0.1382
335.475	0.1323
335.685	0.1369
335.8951	0.1283
336.1051	0.1343
336.3152	0.1351
336.5252	0.1354
336.7352	0.136
336.9452	0.1357
337.1552	0.1378
337.3652	0.1306
337.5751	0.1317
337.7851	0.136
337.995	0.1372
338.2049	0.1358
338.4148	0.1352
338.6247	0.1391
338.8346	0.1327
339.0445	0.1409
339.2543	0.1354
339.4642	0.1326
339.674	0.1312
339.8838	0.1384
340.0936	0.1382
340.3034	0.1344
340.5132	0.1417
340.7229	0.1452
340.9327	0.1461
341.1424	0.1397
341.3522	0.1446
341.5619	0.1396
341.7716	0.1411
341.9813	0.1438
342.1909	0.146
342.4006	0.1485
342.6102	0.1464
342.8199	0.1452
343.0295	0.14
343.2391	0.1447
343.4487	0.151
343.6583	0.1538
343.8679	0.1498
344.0774	0.149
344.287	0.1516
344.4965	0.1507
344.706	0.1542
344.9155	0.1543
345.125	0.1572
345.3345	0.1602
345.544	0.1546
345.7534	0.1598
345.9629	0.1607
346.1723	0.1631
346.3817	0.1556
346.5911	0.1554
346.8005	0.1576
347.0099	0.157
347.2193	0.1651
347.4286	0.1678
347.638	0.1593
347.8473	0.1651
348.0566	0.1604
348.2659	0.164
348.4752	0.1663
348.6845	0.1623
348.8937	0.1611
349.103	0.1647
349.3122	0.1689
349.5214	0.1747
349.7306	0.1669
349.9398	0.1626
350.149	0.1654
350.3582	0.1768
350.5674	0.1705
350.7765	0.1743
350.9856	0.1666
351.1948	0.1737
351.4039	0.1695
351.613	0.1786
351.822	0.1872
352.0311	0.1691
352.2402	0.1727
352.4492	0.1715
352.6582	0.1708
352.8672	0.1794
353.0762	0.1796
353.2852	0.1758
353.4942	0.1804
353.7032	0.173
353.9121	0.1746
354.1211	0.1851
354.33	0.185
354.5389	0.181
354.7478	0.1813
354.9567	0.1851
355.1655	0.1842
355.3744	0.179
355.5833	0.1823
355.7921	0.1956
356.0009	0.1871
356.2097	0.1777
356.4185	0.1885
356.6273	0.1843
356.8361	0.1836
357.0448	0.183
357.2536	0.193
357.4623	0.1878
357.671	0.1876
357.8797	0.1999
358.0884	0.1874
358.2971	0.1885
358.5057	0.1924
358.7144	0.1977
358.923	0.2027
359.1316	0.1999
359.3402	0.198
359.5488	0.1983
359.7574	0.2085
359.966	0.1972
360.1746	0.1968
360.3831	0.2071
360.5916	0.2089
360.8002	0.2053
361.0087	0.2012
361.2172	0.2042
361.4256	0.2077
361.6341	0.2164
361.8426	0.2142
362.051	0.2105
362.2594	0.2063
362.4678	0.2204
362.6762	0.2206
362.8846	0.2113
363.093	0.2136
363.3014	0.2184
363.5097	0.2166
363.718	0.221
363.9264	0.2262
364.1347	0.2183
364.343	0.2231
364.5513	0.2223
364.7595	0.232
364.9678	0.2263
365.176	0.2329
365.3842	0.2267
365.5925	0.2297
365.8007	0.2339
366.0089	0.2389
366.217	0.2361
366.4252	0.2297
366.6333	0.2378
366.8415	0.2384
367.0496	0.2371
367.2577	0.2401
367.4658	0.2296
367.6739	0.2346
367.882	0.2436
368.09	0.2407
368.2981	0.2434
368.5061	0.2427
368.7141	0.2411
368.9221	0.2534
369.1301	0.2477
369.3381	0.2595
369.5461	0.2494
369.754	0.254
369.962	0.249
370.1699	0.2543
370.3778	0.2603
370.5857	0.2548
370.7936	0.258
371.0015	0.2539
371.2093	0.2515
371.4172	0.2485
371.625	0.2573
371.8328	0.2504
372.0406	0.2693
372.2484	0.2617
372.4562	0.2691
372.664	0.2568
372.8717	0.2687
373.0795	0.2654
373.2872	0.2622
373.4949	0.2703
373.7026	0.2661
373.9103	0.2588
374.118	0.2701
374.3256	0.2697
374.5333	0.2755
374.7409	0.2641
374.9485	0.2725
375.1561	0.2712
375.3637	0.2635
375.5713	0.2712
375.7789	0.2723
375.9864	0.2696
376.194	0.2816
376.4015	0.2771
376.609	0.275
376.8165	0.2795
377.024	0.2837
377.2315	0.2779
377.4389	0.2734
377.6464	0.279
377.8538	0.2912
378.0612	0.2858
378.2686	0.2828
378.476	0.2929
378.6834	0.2854
378.8908	0.2926
379.0981	0.2855
379.3055	0.295
379.5128	0.2901
379.7201	0.2959
379.9274	0.2906
380.1347	0.2875
380.342	0.2925
380.5492	0.2978
380.7565	0.2957
380.9637	0.2949
381.1709	0.2841
381.3781	0.3021
381.5853	0.295
381.7925	0.2973
381.9997	0.2964
382.2068	0.3004
382.4139	0.3023
382.6211	0.295
382.8282	0.3047
383.0353	0.31
383.2424	0.2896
383.4494	0.2989
383.6565	0.3113
383.8635	0.2914
384.0706	0.3099
384.2776	0.3101
384.4846	0.2976
384.6916	0.3022
384.8986	0.3069
385.1055	0.3194
385.3125	0.2982
385.5194	0.3163
385.7263	0.3092
385.9333	0.3094
386.1402	0.3046
386.347	0.2983
386.5539	0.3077
386.7608	0.3026
386.9676	0.3011
387.1744	0.3091
387.3813	0.3113
387.5881	0.2958
387.7948	0.3049
388.0016	0.3062
388.2084	0.3104
388.4151	0.3064
388.6219	0.3034
388.8286	0.3112
389.0353	0.3049
389.242	0.3039
389.4487	0.3055
389.6553	0.2935
389.862	0.2955
390.0686	0.3081
390.2753	0.3013
390.4819	0.2999
390.6885	0.2892
390.8951	0.3059
391.1016	0.3014
391.3082	0.2954
391.5147	0.2975
391.7213	0.2861
391.9278	0.2891
392.1343	0.2934
392.3408	0.2866
392.5473	0.2887
392.7537	0.2869
392.9602	0.2802
393.1666	0.2786
393.373	0.2847
393.5794	0.2786
393.7858	0.2806
393.9922	0.2816
394.1986	0.2738
394.4049	0.2853
394.6113	0.2779
394.8176	0.2707
395.0239	0.2756
395.2302	0.2718
395.4365	0.2768
395.6428	0.272
395.8491	0.2737
396.0553	0.2644
396.2615	0.2719
396.4678	0.276
396.674	0.2679
396.8802	0.2654
397.0863	0.2631
397.2925	0.2666
397.4987	0.2629
397.7048	0.2778
397.9109	0.2601
398.117	0.2562
398.3231	0.2588
398.5292	0.2584
398.7353	0.2574
398.9413	0.2575
399.1474	0.2727
399.3534	0.2637
399.5594	0.2642
399.7654	0.2633
399.9714	0.26
400.1774	0.2546
400.3833	0.2641
400.5893	0.2708
400.7952	0.2606
401.0011	0.2584
401.207	0.2576
401.4129	0.2574
401.6188	0.2538
401.8247	0.2737
402.0305	0.2571
402.2364	0.2568
402.4422	0.2674
402.648	0.2683
402.8538	0.2528
403.0596	0.2545
403.2654	0.2583
403.4711	0.2553
403.6768	0.2621
403.8826	0.2721
404.0883	0.2564
404.294	0.2569
404.4997	0.268
404.7054	0.2663
404.911	0.2634
405.1167	0.2719
405.3223	0.2606
405.5279	0.255
405.7335	0.2594
405.9391	0.2507
406.1447	0.2562
406.3502	0.2582
406.5558	0.2639
406.7613	0.2598
406.9668	0.2569
407.1724	0.2516
407.3778	0.2641
407.5833	0.2464
407.7888	0.2633
407.9942	0.2561
408.1997	0.2617
408.4051	0.2587
408.6105	0.2661
408.8159	0.2589
409.0213	0.2618
409.2267	0.2664
409.432	0.2571
409.6374	0.256
409.8427	0.2649
410.048	0.2569
410.2533	0.256
410.4586	0.2531
410.6639	0.2721
410.8691	0.2492
411.0744	0.2697
411.2796	0.2684
411.4848	0.2725
411.69	0.2491
411.8952	0.2527
412.1004	0.2609
412.3056	0.2573
412.5107	0.2584
412.7158	0.2587
412.921	0.2589
413.1261	0.2508
413.3312	0.2602
413.5362	0.2735
413.7413	0.2566
413.9464	0.2539
414.1514	0.2445
414.3564	0.2459
414.5614	0.2491
414.7664	0.256
414.9714	0.2484
415.1764	0.2663
415.3813	0.2531
415.5863	0.2682
415.7912	0.254
415.9961	0.2547
416.201	0.2605
416.4059	0.2548
416.6108	0.2453
416.8156	0.258
417.0205	0.2529
417.2253	0.2458
417.4301	0.2563
417.6349	0.2423
417.8397	0.2563
418.0445	0.2443
418.2492	0.2439
418.454	0.2492
418.6587	0.2558
418.8634	0.2492
419.0681	0.2432
419.2728	0.2493
419.4775	0.2589
419.6822	0.2384
419.8868	0.2434
420.0915	0.2442
420.2961	0.2334
420.5007	0.2358
420.7053	0.2398
420.9099	0.2417
421.1144	0.2417
421.319	0.2387
421.5235	0.2295
421.728	0.247
421.9325	0.2413
422.137	0.2305
422.3415	0.2308
422.546	0.2277
422.7504	0.2289
422.9549	0.2382
423.1593	0.2291
423.3637	0.2296
423.5681	0.2457
423.7725	0.2369
423.9769	0.2332
424.1812	0.219
424.3856	0.2262
424.5899	0.219
424.7942	0.2246
424.9985	0.2217
425.2028	0.2253
425.4071	0.2292
425.6113	0.2237
425.8156	0.2164
426.0198	0.2186
426.224	0.2213
426.4282	0.2091
426.6324	0.2221
426.8366	0.2118
427.0407	0.211
427.2449	0.2142
427.449	0.2189
427.6531	0.2216
427.8572	0.2071
428.0613	0.2155
428.2654	0.2091
428.4694	0.1986
428.6735	0.2034
428.8775	0.2039
429.0815	0.2007
429.2855	0.1984
429.4895	0.19
429.6935	0.1949
429.8975	0.1901
430.1014	0.1971
430.3053	0.2052
430.5093	0.1926
430.7132	0.187
430.9171	0.1883
431.1209	0.1884
431.3248	0.1799
431.5286	0.1814
431.7325	0.1922
431.9363	0.1815
432.1401	0.1818
432.3439	0.1755
432.5477	0.173
432.7514	0.1736
432.9552	0.1724
433.1589	0.1697
433.3627	0.1683
433.5664	0.1533
433.7701	0.1711
433.9737	0.172
434.1774	0.1633
434.3811	0.1535
434.5847	0.1558
434.7883	0.1521
434.9919	0.1556
435.1955	0.156
435.3991	0.1554
435.6027	0.1434
435.8062	0.1661
436.0098	0.1468
436.2133	0.146
436.4168	0.1372
436.6203	0.136
436.8238	0.137
437.0272	0.1338
437.2307	0.1389
437.4341	0.1323
437.6375	0.1264
437.841	0.1179
438.0443	0.1302
438.2477	0.1353
438.4511	0.1149
438.6545	0.1262
438.8578	0.1292
439.0611	0.1227
439.2644	0.1254
439.4677	0.1227
439.671	0.1087
439.8743	0.1187
440.0775	0.1111
440.2808	0.1162
440.484	0.1063
440.6872	0.1029
440.8904	0.0987
441.0936	0.1003
441.2967	0.098
441.4999	0.0955
441.703	0.0996
441.9062	0.1029
442.1093	0.1073
442.3124	0.0958
442.5155	0.0951
442.7185	0.0808
442.9216	0.0916
443.1246	0.088
443.3276	0.0866
443.5307	0.0834
443.7337	0.0883
443.9366	0.0879
444.1396	0.0734
444.3426	0.0771
444.5455	0.0825
444.7484	0.0834
444.9513	0.0783
445.1542	0.081
445.3571	0.0774
445.56	0.0665
445.7628	0.0718
445.9657	0.0689
446.1685	0.0713
446.3713	0.0718
446.5741	0.0763
446.7769	0.0665
446.9797	0.0656
447.1824	0.0673
447.3852	0.0516
447.5879	0.0621
447.7906	0.0519
447.9933	0.0639
448.196	0.0524
448.3986	0.0522
448.6013	0.0484
448.8039	0.0538
449.0066	0.0573
449.2092	0.054
449.4118	0.0503
449.6143	0.0534
449.8169	0.0481
450.0195	0.0457
450.222	0.0549
450.4245	0.0523
450.627	0.052
450.8295	0.0382
451.032	0.0372
451.2345	0.0412
451.4369	0.0422
451.6394	0.0483
451.8418	0.0457
452.0442	0.0412
452.2466	0.0271
452.449	0.0405
452.6513	0.0294
452.8537	0.0337
453.056	0.0343
453.2583	0.0352
453.4607	0.0278
453.663	0.0322
453.8652	0.0231
454.0675	0.0431
454.2697	0.0344
454.472	0.0242
454.6742	0.0354
454.8764	0.0415
455.0786	0.0369
455.2808	0.0301
455.4829	0.025
455.6851	0.0281
455.8872	0.0191
456.0893	0.0238
456.2915	0.0207
456.4935	0.0382
456.6956	0.0211
456.8977	0.0254
457.0997	0.0314
457.3018	0.0199
457.5038	0.0311
457.7058	0.0246
457.9078	0.0281
458.1098	0.022
458.3117	0.0274
458.5137	0.0051
458.7156	0.0181
458.9175	0.025
459.1194	0.0203
459.3213	0.0162
459.5232	0.0262
459.725	0.0204
459.9269	0.0132
460.1287	0.0119
460.3305	0.0161
460.5323	0.0187
460.7341	0.018
460.9359	0.0089
461.1376	0.0147
461.3394	0.0196
461.5411	0.0207
461.7428	0.0136
461.9445	0.0095
462.1462	0.0112
462.3479	0.0061
462.5495	0.0141
462.7512	0.0185
462.9528	0.0084
463.1544	0.0138
463.356	0.0103
463.5576	0.0141
463.7592	0.0137
463.9607	0.013
464.1623	0.0158
464.3638	0.009
464.5653	0.015
464.7668	0.0093
464.9683	0.0164
465.1697	0.017
465.3712	0.0076
465.5726	0.0072
465.7741	0.0144
465.9755	0.0102
466.1769	0.0096
466.3782	0.0037
466.5796	0.0131
466.7809	0.016
466.9823	0.0089
467.1836	0.003
467.3849	0.0093
467.5862	-0.0022
467.7875	0.0032
467.9887	0.0137
468.19	0.0104
468.3912	0.0161
468.5924	0.0062
468.7936	0.0081
468.9948	0.002
469.196	0.0022
469.3972	0.0034
469.5983	0.0127
469.7994	0.017
470.0006	0.014
470.2017	0.0014
470.4027	0.0272
470.6038	0.007
470.8049	0.0029
471.0059	0.0066
471.2069	0.0125
471.408	0.0099
471.6089	0.0108
471.8099	0.0151
472.0109	0.0014
472.2119	0.0124
472.4128	-0.0007
472.6137	0.0041
472.8146	0.0032
473.0155	0.0175
473.2164	0.005
473.4173	0.0025
473.6181	0.0029
473.819	0.0028
474.0198	-0.005
474.2206	0.0034
474.4214	0.0012
474.6222	0.0013
474.8229	-0.0026
475.0237	0.0106
475.2244	0.0095
475.4251	0.0085
475.6258	0.0041
475.8265	0.0026
476.0272	0.0031
476.2278	0.013
476.4285	0.0018
476.6291	0.0044
476.8297	-0.0065
477.0303	0.0009
477.2309	0.0103
477.4315	0.0064
477.632	-0.0027
477.8326	0.0025
478.0331	0.0146
478.2336	0.0051
478.4341	0.0078
478.6346	0.0041
478.8351	-0.0004
479.0355	0.0172
479.236	0.0131
479.4364	0.008
479.6368	-0.0048
479.8372	0.0074
480.0376	0.0006
480.2379	0.0109
480.4383	0.0131
480.6386	0.0002
480.8389	0.0035
481.0392	0.0094
481.2395	0.0018
481.4398	0.0025
481.6401	0.008
481.8403	-0.0014
482.0405	0.0064
482.2408	0.0072
482.441	0.0134
482.6411	0.0106
482.8413	-0.0011
483.0415	0.0075
483.2416	0.0118
483.4417	0.0072
483.6419	-0.0066
483.8419	0.0058
484.042	0.0019
484.2421	-0.0069
484.4422	0.0044
484.6422	0.0012
484.8422	0.0055
485.0422	0.0062
485.2422	0.0011
485.4422	0.0031
485.6422	0.0021
485.8421	0.0032
486.042	0.0081
486.242	-0
486.4419	-0.0011
486.6417	0.0032
486.8416	0.0052
487.0415	-0.0038
487.2413	-0.0034
487.4411	0.0069
487.641	0.0059
487.8408	-0.0012
488.0405	0.0082
488.2403	0.0043
488.4401	0.0024
488.6398	0.0156
488.8395	0.0064
489.0392	0.0099
489.2389	0.0049
489.4386	-0.0116
489.6383	0.0061
489.8379	0.0032
490.0376	0.0005
490.2372	0.0091
490.4368	-0.0032
490.6364	-0.0072
490.836	0.0051
491.0355	0.0011
491.2351	0.0043
491.4346	0.0028
491.6341	-0.0036
491.8336	0.0099
492.0331	0.0067
492.2326	0.0086
492.432	0.004
492.6315	0.0115
492.8309	0.0014
493.0303	0.0027
493.2297	0.0114
493.4291	0.0011
493.6284	0.0112
493.8278	0.0075
494.0271	0.005
494.2264	0.0009
494.4257	0.0113
494.625	0.0008
494.8243	0.0024
495.0236	0.0021
495.2228	0.0034
495.422	0.005
495.6213	0.011
495.8205	0.0033
496.0196	0.0018
496.2188	0.007
496.418	0.001
496.6171	0.0025
496.8162	0.0035
497.0153	0.0059
497.2144	0.0049
497.4135	0.0044
497.6126	0.0037
497.8116	0.003
498.0107	0.0107
498.2097	0.0151
498.4087	-0.0001
498.6077	-0.0046
498.8067	0.0072
499.0056	0.0012
499.2046	0.0045
499.4035	0.0036
499.6024	-0.0014
499.8013	0.006
500.0002	0.0069
500.199	0.0137
500.3979	0.0018
500.5967	0.0033
500.7956	0.0019
500.9944	0.0089
501.1932	0.0056
501.3919	0.0024
501.5907	0.0015
501.7895	0.0052
501.9882	-0.0032
502.1869	0.0112
502.3856	-0.0004
502.5843	0.002
502.783	0.0045
502.9816	0.0031
503.1803	0.0007
503.3789	0.0067
503.5775	-0.0043
503.7761	-0.0047
503.9747	0.0067
504.1732	-0.0032
504.3718	0.0134
504.5703	0.0004
504.7689	-0.005
504.9674	-0.0012
505.1658	-0.0036
505.3643	0.0088
505.5628	0.0126
505.7612	0.0009
505.9597	-0.0059
506.1581	0.0017
506.3565	-0.0031
506.5549	0.0023
506.7532	-0.0059
506.9516	-0.0032
507.1499	0.0038
507.3482	0.0036
507.5465	0.0046
507.7448	0.0012
507.9431	-0.0015
508.1414	-0.007
508.3396	-0.0011
508.5379	-0.0022
508.7361	0.0003
508.9343	0.0039
509.1325	0.0082
509.3306	0.0038
509.5288	-0.0049
509.7269	0.0099
509.9251	0.0051
510.1232	0.007
510.3213	0.0082
510.5193	0.0075
510.7174	0.0011
510.9154	0.0056
511.1135	-0.0051
511.3115	0.0021
511.5095	0.0032
511.7075	0.0087
511.9055	0.0045
512.1034	0.0026
512.3014	0.0034
512.4993	0.0056
512.6972	-0.0083
512.8951	-0.0024
513.093	-0.0033
513.2908	0.0115
513.4887	0.0025
513.6865	0.0202
513.8844	0.0098
514.0822	0.002
514.2799	-0.0077
514.4777	-0.0126
514.6755	-0.0039
514.8732	-0.0051
515.0709	0.0073
515.2687	0.003
515.4664	0.0084
515.664	0.0114
515.8617	0.007
516.0594	0.0061
516.257	-0.0025
516.4546	0.0215
516.6522	0.0053
516.8498	-0.0025
517.0474	0.0134
517.2449	-0.0066
517.4425	-0.0011
517.64	0.0047
517.8375	0.0072
518.035	-0.0024
518.2325	-0.001
518.43	0.0101
518.6274	-0.0068
518.8249	0.0002
519.0223	0.012
519.2197	-0.003
519.4171	-0.0029
519.6145	0.0078
519.8118	-0.0081
520.0092	0.0066
520.2065	0.012
520.4038	-0.0001
520.6011	0.0095
520.7984	0.0052
520.9956	0.0124
521.1929	0.0023
521.3901	0.0058
521.5874	0.013
521.7846	-0.0003
521.9818	0.0078
522.1789	-0.0077
522.3761	0.0235
522.5732	0.0019
522.7704	-0.0073
522.9675	-0.0128
523.1646	-0.0002
523.3617	0.0024
523.5587	0.007
523.7558	-0.0007
523.9528	0.0069
524.1498	0.001
524.3468	0.0071
524.5438	0.0002
524.7408	-0.0075
524.9378	-0.0003
525.1347	0.0049
525.3316	-0.0011
525.5285	0.0012
525.7254	0.002
525.9223	0.0082
526.1192	0.006
526.316	0.0047
526.5129	0.0109
526.7097	0.0015
526.9065	0.0157
527.1033	0.0066
527.3	0.0011
527.4968	0.0142
527.6935	0.0013
527.8903	0.0043
528.087	0.0019
528.2837	0.0045
528.4804	0.001
528.677	-0.0003
528.8737	0.0063
529.0703	-0.0085
529.2669	0.0104
529.4635	-0.0055
529.6601	-0.0007
529.8567	-0.0021
530.0532	0.0056
530.2498	-0.0012
530.4463	-0.0059
530.6428	-0.0016
530.8393	-0.0037
531.0358	0.0005
531.2322	-0.0034
531.4287	0.0041
531.6251	-0.0093
531.8215	-0.0038
532.0179	0.0006
532.2143	0.0062
532.4107	0.0102
532.607	-0.0058
532.8034	0.0017
532.9997	-0.0062
533.196	-0.003
533.3923	0.0077
533.5886	0.0015
533.7848	0.0016
533.9811	0.0037
534.1773	0.0097
534.3735	0.0009
534.5697	0.0059
534.7659	0.0117
534.9621	0.0036
535.1582	0.0027
535.3544	0.0016
535.5505	0.0045
535.7466	0.0051
535.9427	0.0082
536.1387	-0.0008
536.3348	0.0082
536.5308	0.0031
536.7269	-0.0044
536.9229	0.0002
537.1189	0.0077
537.3148	0.0119
537.5108	0.0065
537.7068	0.0046
537.9027	-0.0147
538.0986	0.008
538.2945	-0.001
538.4904	-0.0057
538.6863	0.0036
538.8821	0.0076
539.078	-0.0012
539.2738	0.0037
539.4696	-0.0011
539.6654	0.0078
539.8611	0.0032
540.0569	0.0045
540.2526	0.016
540.4484	-0.0075
540.6441	0.006
540.8398	0.0058
541.0355	0.0035
541.2311	0.002
541.4268	0.0146
541.6224	0.0066
541.818	0.0033
542.0136	0.0051
542.2092	0.0088
542.4048	0.0063
542.6003	-0.0039
542.7959	-0.0001
542.9914	-0.003
543.1869	-0.0042
543.3824	0.0012
543.5779	0.0073
543.7734	0.0168
543.9688	0.0032
544.1642	0.0013
544.3596	0.0099
544.555	-0.0044
544.7504	0.0132
544.9458	0.0073
545.1411	0.0061
545.3365	0.003
545.5318	0.0056
545.7271	0.0131
545.9224	0
546.1177	0.0171
546.3129	0.0012
546.5081	-0.0023
546.7034	-0.0049
546.8986	0.0007
547.0938	0.004
547.289	0.0117
547.4841	-0.0009
547.6793	-0.0009
547.8744	0.0109
548.0695	-0.001
548.2646	-0.0029
548.4597	0.0024
548.6548	0.0102
548.8498	0.0041
549.0448	0.0015
549.2399	0.0094
549.4349	0.0163
549.6298	0.0019
549.8248	0.011
550.0198	0.0125
550.2147	0.0059
550.4096	-0.0121
550.6045	0.0076
550.7994	0.003
550.9943	0.0011
551.1892	-0.0092
551.384	0.0082
551.5788	-0.0001
551.7737	0.0083
551.9685	0.0049
552.1632	0.0009
552.358	-0.0011
552.5528	0.0018
552.7475	-0.0002
552.9422	0.0064
553.1369	0.0093
553.3316	0.0067
553.5263	0.0021
553.7209	0.0016
553.9156	0.004
554.1102	0.0025
554.3048	0.0092
554.4994	0.0067
554.694	0.0088
554.8885	0.0024
555.0831	0.0131
555.2776	0.0007
555.4721	0.0011
555.6666	0.0089
555.8611	0.0062
556.0555	0.0087
556.25	0.0071
556.4444	-0.0025
556.6388	0.0002
556.8332	0.0053
557.0276	0.001
557.222	0.0082
557.4163	0.0033
557.6107	0.0054
557.805	0.0001
557.9993	0.0023
558.1936	-0.0087
558.3879	0.0016
558.5821	0.0074
558.7764	-0.0036
558.9706	-0.0019
559.1648	0.0123
559.359	-0.0006
559.5532	0.0017
559.7473	-0.0048
559.9415	0.0003
560.1356	0.0142
560.3297	-0.0029
560.5238	0.0006
560.7179	0.0033
560.9119	0.0019
561.106	-0.0039
561.3	0.0021
561.494	0.0027
561.688	0.0036
561.882	-0.001
562.076	0.0098
562.2699	0.0021
562.4639	0.0158
562.6578	0.0079
562.8517	0.0052
563.0456	0.0109
563.2395	0.0092
563.4333	0.0037
563.6272	0.0015
563.821	-0.0022
564.0148	-0.0002
564.2086	0.0088
564.4024	0.0024
564.5961	0.0156
564.7899	0.0124
564.9836	-0.0045
565.1773	0.0058
565.371	0.0022
565.5647	0.0111
565.7584	0.0174
565.952	0.0055
566.1456	0.0136
566.3393	0.0068
566.5329	0.0003
566.7264	0.0004
566.92	0.0057
567.1136	-0.0019
567.3071	-0.011
567.5006	0.0079
567.6941	0.0034
567.8876	0.0013
568.0811	0.0167
568.2745	-0.0056
568.468	0.0015
568.6614	0.0056
568.8548	0.0053
569.0482	0.0047
569.2416	-0.0002
569.4349	0.0002
569.6283	-0.0029
569.8216	0.0066
570.0149	-0.0051
570.2082	0.0077
570.4015	-0.0003
570.5947	0.0036
570.788	0.0057
570.9812	-0.0008
571.1744	0.0016
571.3676	0.0026
571.5608	0.0014
571.754	0.0089
571.9471	0.0066
572.1402	0.0057
572.3333	0.003
572.5264	0.0003
572.7195	0.001
572.9126	0.0002
573.1057	0.0042
573.2987	0.0034
573.4917	-0.001
573.6847	0.0005
573.8777	0.0083
574.0707	0.0048
574.2636	0.0027
574.4566	-0.0027
574.6495	0.0024
574.8424	0.0061
575.0353	0.0052
575.2281	0.0064
575.421	0.0054
575.6138	0.0023
575.8067	0.0033
575.9995	-0.0003
576.1923	0.001
576.385	0.0064
576.5778	0.0059
576.7706	0.0037
576.9633	0.0022
577.156	-0.0044
577.3487	0.0041
577.5414	0.0007
577.734	0.0024
577.9267	0.0036
578.1193	0.0062
578.3119	-0.0017
578.5045	0.0031
578.6971	-0.0015
578.8897	-0.0013
579.0822	0.0079
579.2747	0.0003
579.4673	0.0029
579.6598	0.0022
579.8522	0.0035
580.0447	0.0023
580.2372	0.01
580.4296	0.0063
580.622	0.002
580.8144	0.0028
581.0068	0.0002
581.1992	0.0046
581.3915	0.0001
581.5839	0.0036
581.7762	0.0026
581.9685	0.0054
582.1608	0.0029
582.353	0.0018
582.5453	0.0036
582.7375	0.005
582.9298	-0.0033
583.122	0.0006
583.3142	0.0023
583.5063	0.0026
583.6985	-0.0019
583.8906	0.0003
584.0827	0.0026
584.2749	0.0024
584.4669	-0.0009
584.659	0.0103
584.8511	0.003
585.0431	0.0055
585.2352	-0.0004
585.4272	-0.0006
585.6192	0.0061
585.8111	-0.0005
586.0031	-0.0008
586.195	0.0039
586.387	0.0045
586.5789	0.0056
586.7708	0.0069
586.9627	0.0064
587.1545	0.0017
587.3464	0.0051
587.5382	0.0014
587.73	0.0064
587.9218	-0.0062
588.1136	-0.0023
588.3053	0.0053
588.4971	-0.002
588.6888	-0.0009
588.8805	-0.0003
589.0722	0.0049
589.2639	0.0034
589.4556	0.0045
589.6472	0.0033
589.8389	0.004
590.0305	0.001
590.2221	0.0041
590.4137	0.001
590.6052	-0
590.7968	0.0065
590.9883	0.0027
591.1798	-0.0031
591.3713	0.0042
591.5628	-0.0003
591.7543	0.0036
591.9458	-0.0014
592.1372	0.0064
592.3286	0.0034
592.52	0.006
592.7114	0.0003
592.9028	0.0069
593.0941	-0.003
593.2855	-0.0002
593.4768	0.009
593.6681	0.0022
593.8594	0.0039
594.0506	0.0018
594.2419	0.0017
594.4331	0.0035
594.6244	-0.0018
594.8156	-0.0017
595.0067	-0.0033
595.1979	-0.0025
595.3891	0.0071
595.5802	0.0094
595.7713	0.0036
595.9624	0.0086
596.1535	-0.0016
596.3446	-0.0029
596.5357	0.0065
596.7267	-0.0011
596.9177	-0.0053
597.1087	-0.002
597.2997	0.0038
597.4907	-0.0002
597.6817	0.0024
597.8726	0.009
598.0635	0.0019
598.2544	0.0034
598.4453	0.0017
598.6362	0.0004
598.827	0.0012
599.0179	0.004
599.2087	0.0107
599.3995	0.0068
599.5903	0.0094
599.7811	0.0086
599.9718	-0
600.1626	0.0002
600.3533	-0.0016
600.544	-0.0014
600.7347	-0.0017
600.9254	0.0075
601.116	0.0039
601.3067	0.0056
601.4973	0.0088
601.6879	-0.001
601.8785	0.0043
602.0691	0.0049
602.2596	0.0062
602.4502	0.0074
602.6407	0.0009
602.8312	-0.0005
603.0217	0.0006
603.2122	-0.0005
603.4027	0.0073
603.5931	0.0005
603.7835	0.0037
603.9739	-0.0029
604.1643	0.0073
604.3547	0.0008
604.5451	0.0029
604.7354	-0.0025
604.9257	0.0037
605.116	-0.003
605.3063	0.0021
605.4966	0.0006
605.6869	0.0128
605.8771	0.004
606.0673	0.0032
606.2575	-0.0015
606.4477	0.0065
606.6379	-0.0012
606.8281	0.003
607.0182	0.0031
607.2083	0.003
607.3985	0.0016
607.5885	-0.0029
607.7786	0.0005
607.9687	0.0042
608.1587	0.0106
608.3488	0.009
608.5388	-0
608.7288	-0.002
608.9187	0.0003
609.1087	0.0039
609.2986	0.0009
609.4886	0.0037
609.6785	0.0066
609.8684	0.0023
610.0582	-0.002
610.2481	-0
610.4379	0.002
610.6278	0.0029
610.8176	0.0036
611.0074	0.0021
611.1971	-0.0008
611.3869	0.0007
611.5766	-0.0055
611.7664	0.0085
611.9561	0.0018
612.1458	0.0103
612.3354	0.0027
612.5251	0.0004
612.7147	0.007
612.9044	-0.003
613.094	0.0066
613.2836	-0.0009
613.4731	0.0082
613.6627	0.0078
613.8522	0.0031
614.0417	0.0096
614.2313	-0.0014
614.4207	0.0026
614.6102	0.0058
614.7997	0.0041
614.9891	-0.0007
615.1785	-0.0024
615.3679	-0.004
615.5573	0.0051
615.7467	-0.0033
615.9361	-0.0074
616.1254	0.0071
616.3147	0.0005
616.504	0.0048
616.6933	0.0008
616.8826	-0.0019
617.0718	0.0092
617.2611	0.0071
617.4503	0.0031
617.6395	0.0061
617.8287	0.003
618.0179	-0.0002
618.207	0.0071
618.3961	-0.0013
618.5853	-0.0007
618.7744	0.0051
618.9634	0.0037
619.1525	-0.0034
619.3416	0.0035
619.5306	0.0041
619.7196	0.0091
619.9086	0.0035
620.0976	-0.0064
620.2866	0.0054
620.4755	0.0017
620.6645	0.0052
620.8534	0.001
621.0423	0.0058
621.2312	-0.001
621.42	0.0038
621.6089	-0.0048
621.7977	0.007
621.9865	0.0027
622.1753	-0.0046
622.3641	-0.0048
622.5529	-0.0066
622.7416	-0.0016
622.9303	0.006
623.1191	0.0023
623.3078	0.006
623.4964	0.0021
623.6851	0.0074
623.8737	-0.0048
624.0624	-0.004
624.251	0.0001
624.4396	0.0023
624.6282	0.0155
624.8167	-0.0018
625.0053	0.0056
625.1938	0.0056
625.3823	0.0036
625.5708	0.001
625.7593	-0.0089
625.9477	0.0094
626.1362	0.0031
626.3246	0.0023
626.513	0.0056
626.7014	0.0003
626.8898	0.0097
627.0781	0.0022
627.2665	0.0137
627.4548	-0.0117
627.6431	0.0023
627.8314	0.0007
628.0197	0.0078
628.2079	-0.0085
628.3962	0.0067
628.5844	0.0007
628.7726	-0.0081
628.9608	0.0001
629.1489	0.0077
629.3371	-0.0063
629.5252	0.0083
629.7134	0
629.9015	0.0007
630.0895	-0.0052
630.2776	-0.0075
630.4657	0.0043
630.6537	-0.0033
630.8417	-0.0096
631.0297	0.0046
631.2177	-0.0022
631.4057	0.0024
631.5936	0.0029
631.7815	0.0073
631.9695	0.0094
632.1574	0.0077
632.3452	0.0168
632.5331	0.0052
632.7209	0.017
632.9088	0.0053
633.0966	0.0251
633.2844	0.0056
633.4722	0.0077
633.6599	0.0142
633.8477	0.0086
634.0354	0.0047
634.2231	-0.0102
634.4108	0.0054
634.5985	0.0082
634.7861	-0.0053
634.9738	0.0007
635.1614	0.0049
635.349	0.0057
635.5366	0.0024
635.7242	0.0015
635.9117	0.0074
636.0993	0.0118
636.2868	0.0122
636.4743	0.0054
636.6618	-0.0133
636.8492	0.0172
637.0367	-0.0129
637.2241	0.0058
637.4115	0.0353
637.5989	0.0025
637.7863	0.0348
637.9737	0.0051
638.161	0.0077
638.3484	-0.0115
638.5357	-0.008
638.723	0.0105
638.9103	-0.0096
639.0975	0.0034
639.2848	0.0023
639.472	0.0076
639.6592	-0.0161
639.8464	0.0115
640.0336	0.0121
640.2208	-0.0019
640.4079	0.0014
640.595	-0.0024
640.7821	0.0091
640.9692	-0.0051
641.1563	0.0104
641.3434	0.0196
641.5304	0.017
641.7174	0.0173
641.9044	-0.0132
642.0914	0.0173
642.2784	0.0031
642.4653	-0.0198
642.6523	0.0104
642.8392	-0.0125
643.0261	0.0145
643.213	0.0049
643.3999	0.0117
643.5867	-0.0021
643.7735	0.0015
643.9604	0.009
644.1472	0.0132
644.3339	0.0072
644.5207	0.0059
644.7075	0.0089
644.8942	-0.012
645.0809	0.0038
645.2676	-0.0151
645.4543	-0.0142
645.6409	0.0155
645.8276	0.0204
646.0142	0.0131
646.2008	-0.0065
646.3874	-0.0049
646.574	0.0107
646.7605	-0.0064
646.9471	-0.0163
647.1336	-0.0145
647.3201	0.0107
647.5066	0.0166
647.6931	0.0017
647.8795	0.0045
648.0659	-0.0011
648.2524	0.0024
648.4388	0.0026
648.6252	0.0053
648.8115	0.0024
648.9979	0.0167
649.1842	-0.0039
649.3705	0.0276
649.5568	-0.0112
649.7431	-0.0129
649.9294	-0.0016
650.1156	0.003
650.3018	0.0111
650.488	0.008
650.6742	0.0047
650.8604	0.02
651.0466	-0.0034
651.2327	0.0017
651.4188	-0.0027
651.6049	0.0145
651.791	0.0025
651.9771	-0.0002
652.1632	0.0008
652.3492	0.0028
652.5352	0.0145
652.7212	-0.0089
652.9072	-0.0024
653.0932	0.0131
653.2791	0.0096
653.465	-0.0058
653.651	0.0035
653.8369	0.0063
654.0227	0.0141
654.2086	0.0131
654.3944	0.0014
654.5803	0.0053
654.7661	-0.0003
654.9519	-0.0019
655.1377	0.0001
655.3234	0.0001
655.5092	0.0001
655.6949	0.0001
655.8806	0.0001
656.0663	0.0001
656.2519	0.0001
656.4376	0.0001
656.6232	0.0001
656.8088	0.0001
656.9945	0.0001
657.18	0.0001
657.3656	0.0001
657.5511	0.0001
657.7367	0.0001
657.9222	0.0001
658.1077	0.0001
658.2932	0.0001
658.4786	0.0001
658.6641	0.0001
658.8495	0.0001
659.0349	0.0001
659.2203	0.0001
659.4057	0.0001
659.591	0.1122
659.7764	0.0176
659.9617	0.0057
660.147	0.0118
660.3323	0.0004
660.5176	0.0051
660.7028	-0.0095
660.888	0.0028
661.0733	0.0111
661.2585	-0.0085
661.4436	0.0156
661.6288	0.0343
661.8139	-0.0045
661.9991	-0.0249
662.1842	-0.0013
662.3693	-0.0005
662.5544	0.0066
662.7394	0.0158
662.9245	0.0106
663.1095	-0.0264
663.2945	-0.007
663.4795	-0.0065
663.6644	-0.0086
663.8494	0.006
664.0343	0.0307
664.2193	-0.0065
664.4042	0.0104
664.589	-0.0053
664.7739	0.0132
664.9587	-0.0189
665.1436	-0.0007
665.3284	0.0005
665.5132	-0.011
665.698	-0.0091
665.8827	0.0111
666.0675	-0.0084
666.2522	0.0148
666.4369	0.0013
666.6216	0.0276
666.8063	0.0048
666.9909	0.0041
667.1756	-0.0165
667.3602	-0.0065
667.5448	0.0166
667.7294	0.014
667.9139	-0.0136
668.0985	0.0027
668.283	0.016
668.4675	0.029
668.652	0.0007
668.8365	0.0087
669.0209	-0.0083
669.2054	-0.0009
669.3898	0.0264
669.5742	0.0069
669.7586	0.0119
669.943	0.0022
670.1273	0.0051
670.3117	0.019
670.496	0.0023
670.6803	-0.0011
670.8646	-0.0035
671.0488	0.035
671.2331	-0.0086
671.4173	-0.0049
671.6015	0.0024
671.7857	-0.0026
671.9699	0.0059
672.1541	0.001
672.3382	-0.0043
672.5223	-0.0013
672.7064	0.0093
672.8905	-0.005
673.0746	0.0215
673.2587	0.0118
673.4427	0.0106
673.6267	0.0046
673.8107	0.0158
673.9947	0.0046
674.1787	-0.0021
674.3626	-0.0074
674.5465	0.0071
674.7304	-0.0039
674.9143	0.0052
675.0982	0.0135
675.2821	-0.0034
675.4659	-0.016
675.6497	0.0006
675.8335	0.0122
676.0173	-0.0055
676.2011	0.0195
676.3849	-0.0072
676.5686	0.0109
676.7523	0
676.936	0.016
677.1197	-0.0167
677.3034	0.0281
677.487	0.0012
677.6706	-0.0018
677.8542	0.0126
678.0378	0.0031
678.2214	-0.0004
678.405	0.0103
678.5885	0.0005
678.772	0.0215
678.9555	-0.0091
679.139	0.0092
679.3225	0.0046
679.5059	-0.0089
679.6894	-0.0028
679.8728	0
680.0562	0.0049
680.2395	-0.0051
680.4229	-0.0163
680.6062	0.0049
680.7896	-0.0228
680.9729	0.0092
681.1562	-0.0021
681.3394	-0.0135
681.5227	-0.0051
681.7059	0.0065
681.8891	0.0146
682.0723	0.0072
682.2555	-0.008
682.4387	-0.0003
682.6218	-0.0152
682.805	0.0214
682.9881	0.0358
683.1712	-0.0007
683.3542	0.0121
683.5373	-0.0108
683.7203	0.0045
683.9034	-0.0053
684.0864	0.0029
684.2694	0.003
684.4523	0.0025
684.6353	0.003
684.8182	-0.0166
685.0011	0.0223
685.184	0.0054
685.3669	0.0226
685.5498	-0.0032
685.7326	0.0066
685.9154	-0.0215
686.0982	0.0052
686.281	0
686.4638	0.0139
686.6465	-0.0059
686.8293	0.0048
687.012	0.0249
687.1947	0.0098
687.3774	0.0118
687.56	-0.0141
687.7427	0.0115
687.9253	0.0086
688.1079	0.0165
688.2905	-0.0104
688.4731	0.0061
688.6556	0.004
688.8382	-0.0333
689.0207	0.0051
689.2032	0.0171
689.3857	-0.0008
689.5681	-0.0019
689.7506	0.0148
689.933	-0.0091
690.1154	0.0162
690.2978	0.0025
690.4802	0.0141
690.6626	0.0098
690.8449	-0.0031
691.0272	-0.0086
691.2095	-0.0227
691.3918	0.0113
691.5741	0.0045
691.7563	0.0086
691.9386	0.0272
692.1208	0.0015
692.303	-0.005
692.4852	0.0086
692.6673	0.0045
692.8495	-0.0005
693.0316	-0.0129
693.2137	0.0141
693.3958	0.0242
693.5778	0.0039
693.7599	0.003
693.9419	-0.0133
694.1239	-0.0184
694.3059	0.0278
694.4879	-0.0025
694.6699	-0.0025
694.8518	0.0054
695.0337	0.0291
695.2157	0.0115
695.3975	-0.0031
695.5794	-0.0196
695.7613	-0.0209
695.9431	0.008
696.1249	0.0251
696.3067	-0.0187
696.4885	0.0247
696.6703	-0.0062
696.852	-0.0101
697.0337	0.0061
697.2154	0.0064
697.3971	0.0136
697.5788	0.0086
697.7605	-0.0055
697.9421	0.0037
698.1237	0.0192
698.3053	-0.006
698.4869	0.0056
698.6685	0.0048
698.85	0.0204
699.0315	-0.0231
699.213	0.032
699.3945	0.0021
699.576	0.0317
699.7575	0.0171
699.9389	-0.013
700.1203	-0.0031
700.3017	0.0124
700.4831	0.0244
700.6645	0.0157
700.8458	0.0012
701.0271	0.0511
701.2084	0.0032
701.3897	0.0015
701.571	-0.0026
701.7523	0.0126
701.9335	0.0226
702.1147	0.0125
702.2959	-0.0079
702.4771	-0.0047
702.6583	0.0013
702.8394	-0.0116
703.0205	0.0158
703.2016	0.0084
703.3827	-0.0375
703.5638	0.0226
703.7449	0.0359
703.9259	-0.0028
704.1069	-0.0089
704.2879	0.0083
704.4689	-0.0039
704.6499	0.0249
704.8308	-0.0018
705.0117	0.0161
705.1927	0.0176
705.3735	0.0355
705.5544	0.0096
705.7353	-0.018
705.9161	-0.0179
706.0969	0.0049
706.2777	-0.012
706.4585	0.0012
706.6393	-0.0029
706.82	0.0138
707.0007	-0.0041
707.1815	-0.0058
707.3621	0.0179
707.5428	0.008
707.7235	-0.0024
707.9041	0.0131
708.0847	-0.0031
708.2653	0.021
708.4459	-0.0068
708.6265	0.0051
708.807	0.0173
708.9875	0.0074
709.168	-0.0166
709.3485	0.0093
709.529	-0.007
709.7095	-0.0058
709.8899	0.0046
710.0703	-0.011
710.2507	0.0069
710.4311	-0.0306
710.6115	0.0034
710.7918	-0.0016
710.9721	0.0035
711.1524	-0.0106
711.3327	0.008
711.513	-0.0039
711.6932	0.0142
711.8735	-0.0004
712.0537	0.0037
712.2339	-0.0008
712.4141	0.0363
712.5942	-0.0011
712.7744	-0.0016
712.9545	0.0029
713.1346	0.0281
713.3147	0.0155
713.4947	-0.0087
713.6748	0.0078
713.8548	0.0248
714.0348	0.0241
714.2148	0.0025
714.3948	0.0006
714.5748	0.0211
714.7547	0.0067
714.9346	0.0219
715.1145	0.0101
715.2944	-0.0324
715.4743	-0.0045
715.6541	-0.0085
715.834	0.0501
716.0138	0.023
716.1936	0.0124
716.3733	0.0031
716.5531	0.0011
716.7328	0.0328
716.9126	0.0389
717.0923	0.0066
717.2719	0.0153
717.4516	0.0157
717.6312	-0.0039
717.8109	0.0408
717.9905	0.0042
718.1701	0.0097
718.3496	0.0036
718.5292	0.0111
718.7087	0.006
718.8882	0.0137
719.0677	0.0056
719.2472	0.0095
719.4267	0.0053
719.6061	-0.0025
719.7856	0.0432
719.965	0.0229
720.1443	-0.0058
720.3237	-0.0113
720.5031	0.0231
720.6824	0
720.8617	-0.0089
721.041	0.0284
721.2203	-0.0016
721.3995	-0.0004
721.5788	0.004
721.758	-0.032
721.9372	0.0078
722.1164	-0.0068
722.2956	-0.0017
722.4747	0.0005
722.6538	0.0098
722.8329	0.027
723.012	0.0095
723.1911	-0.0075
723.3702	0.0204
723.5492	0.0162
723.7282	-0.0008
723.9072	0.0108
724.0862	0.0123
724.2652	-0.0089
724.4441	-0.0088
724.623	-0.0092
724.8019	-0.0067
724.9808	0.0011
725.1597	0.0267
725.3385	0.0099
725.5174	0.0308
725.6962	0.0139
725.875	0.0294
726.0538	0.0105
726.2325	0.0094
726.4112	-0.024
726.59	-0.0404
726.7687	-0.0094
726.9474	0.0061
727.126	0.0266
727.3047	-0.0058
727.4833	0.0027
727.6619	-0.0099
727.8405	0.0017
728.0191	0.0323
728.1976	-0.0059
728.3762	0.004
728.5547	-0.005
728.7332	0.0028
728.9116	0.0142
729.0901	0.0054
729.2686	0.0089
729.447	0.0061
729.6254	0.0038
729.8038	-0.0084
729.9821	-0.0298
730.1605	0.0139
730.3388	-0.0072
730.5171	0.002
730.6954	-0.0017
730.8737	0.0128
731.0519	-0.0045
731.2302	0.0047
731.4084	-0.0033
731.5866	-0.0069
731.7648	0.003
731.9429	0.0303
732.1211	-0.0096
732.2992	-0.0011
732.4773	0.0012
732.6554	-0.0087
732.8335	0.008
733.0115	-0.005
733.1896	-0.0299
733.3676	0.0286
733.5456	-0.002
733.7235	-0.0024
733.9015	0.0059
734.0794	0.0074
734.2574	-0.0245
734.4353	0.0178
734.6131	-0.0008
734.791	-0.008
734.9689	-0.0312
735.1467	0.0036
735.3245	0.0122
735.5023	0.0183
735.68	0.0022
735.8578	0.009
736.0355	-0.0055
736.2132	-0.0068
736.3909	0.0171
736.5686	0
736.7463	-0.0116
736.9239	0.0178
737.1015	0.0117
737.2791	0.0116
737.4567	-0.002
737.6343	0.0127
737.8118	0.0061
737.9894	0.0075
738.1669	0.0122
738.3444	0.0078
738.5218	-0.0129
738.6993	0.0154
738.8767	-0.004
739.0541	0.0106
739.2315	0.0053
739.4089	0.0241
739.5863	-0.0072
739.7636	-0.0041
739.9409	0.016
740.1182	-0.0038
740.2955	0.0373
740.4728	0.0092
740.65	-0.02
740.8272	0.015
741.0044	-0.0078
741.1816	0.0247
741.3588	-0.0426
741.5359	-0.0098
741.7131	0.0076
741.8902	0.0234
742.0673	-0.0299
742.2444	0.0091
742.4214	0.0092
742.5985	-0.0074
742.7755	-0.0021
742.9525	-0.0301
743.1295	-0.007
743.3064	-0.0077
743.4834	-0.0034
743.6603	0.0397
743.8372	-0.0457
744.0141	0.0371
744.191	-0.0129
744.3678	-0.0274
744.5446	0.0289
744.7215	0.0045
744.8982	0.0188
745.075	0.0436
745.2518	0.0404
745.4285	0.0197
745.6052	-0.0353
745.7819	0.0201
745.9586	0.0078
746.1353	-0.0242
746.3119	0.0024
746.4885	-0.012
746.6651	0.0074
746.8417	0.0021
747.0183	0.0277
747.1948	0.0172
747.3714	-0.0138
747.5479	0.0239
747.7244	-0.0117
747.9008	-0.0022
748.0773	0.04
748.2537	0.0233
748.4301	0.038
748.6065	-0.0133
748.7829	-0.0203
748.9593	-0.009
749.1356	-0.0031
749.3119	0.0029
749.4882	0.0056
749.6645	0.0144
749.8408	0.0085
750.017	0.0031
750.1933	-0.0202
750.3695	0.0007
750.5457	-0.0185
750.7218	0.0013
750.898	-0.02
751.0741	0.0052
751.2502	0.0022
751.4263	0.0083
751.6024	0.0079
751.7784	-0.0035
751.9545	-0.0208
752.1305	0.0178
752.3065	-0.0073
752.4825	-0.0071
752.6584	-0.0142
752.8344	-0.0098
753.0103	-0.0145
753.1862	-0.0053
753.3621	0.0004
753.5379	-0.0372
753.7138	0.0017
753.8896	-0.001
754.0654	-0.0283
754.2412	-0.0075
754.417	0.0185
754.5927	0.0149
754.7685	0.0278
754.9442	0.0161
755.1199	0.0068
755.2956	0.0105
755.4712	-0.0012
755.6469	-0.0014
755.8225	0.0113
755.9981	0.0047
756.1736	0.0102
756.3492	-0.0105
756.5248	0.0039
756.7003	-0.0172
756.8758	-0.0086
757.0513	0.0032
757.2267	0.0098
757.4022	-0.008
757.5776	0.006
757.753	0.0144
757.9284	0.0098
758.1038	0.0039
758.2791	0.0195
758.4545	-0.0128
758.6298	-0.0108
758.8051	0.0086
758.9803	0.0048
759.1556	-0.0108
759.3308	0.0082
759.506	-0.0185
759.6812	-0.0036
759.8564	-0.0054
760.0316	-0.0077
760.2067	0.0189
760.3819	0.0129
760.557	0.0104
760.732	0.0061
760.9071	0.0224
761.0821	-0.0068
761.2572	0.0073
761.4322	0.0364
761.6072	-0.0147
761.7821	-0.0351
761.9571	0.0179
762.132	0.0223
762.3069	0.0215
762.4818	0.0267
762.6567	-0.004
762.8316	0.0387
763.0064	-0.0217
763.1812	0.0093
763.356	-0.0239
763.5308	0.0175
763.7055	-0.0068
763.8803	-0.0099
764.055	-0.0181
764.2297	0.0064
764.4044	0.0033
764.579	-0.0199
764.7537	-0.0042
764.9283	0.0117
765.1029	0.01
765.2775	0.0299
765.4521	0.0063
765.6266	0.0035
765.8011	0.0079
765.9756	0.0106
766.1501	-0.0189
766.3246	0.006
766.4991	0.0237
766.6735	0.0366
766.8479	-0.0058
767.0223	0.0454
767.1967	0.0132
767.371	0.0179
767.5454	0.0211
767.7197	0.0213
767.894	0.0165
768.0683	-0.0067
768.2425	0.0004
768.4168	0.0047
768.591	-0.0093
768.7652	0.0046
768.9394	-0.0168
769.1135	0.004
769.2877	0.0072
769.4618	0.0657
769.6359	-0.0033
769.81	0.0381
769.984	0.0103
770.1581	-0.0007
770.3321	0.0513
770.5061	-0.0202
770.6801	0.0142
770.8541	0.0094
771.028	0.025
771.202	0.0294
771.3759	0.0186
771.5498	-0.0062
771.7236	-0.0149
771.8975	0.021
772.0713	0.0126
772.2451	-0.0162
772.4189	0.0199
772.5927	-0.0186
772.7665	-0.0195
772.9402	0.0429
773.1139	0.0062
773.2876	-0.0214
773.4613	0.012
773.635	0.0328
773.8086	0.0155
773.9822	0.0389
774.1558	0.0738
774.3294	0.0076
774.503	-0.0109
774.6765	0.0355
774.8501	0.0246
775.0236	0.0359
775.1971	0.0156
775.3705	-0.0256
775.544	-0.0408
775.7174	0.0133
775.8908	0.0143
776.0642	0.0414
776.2376	0.0429
776.4109	0.0607
776.5843	-0.0155
776.7576	0.0156
776.9309	0.0439
777.1041	0.0036
777.2774	-0.0057
777.4506	-0.0208
777.6238	-0.0441
777.797	0.0314
777.9702	0.0147
778.1434	0.0255
778.3165	-0.0061
778.4896	-0.0142
778.6627	0.0107
778.8358	0.0041
779.0089	-0.0245
779.1819	0.0204
779.3549	0.0024
779.5279	-0.0077
779.7009	0.0276
779.8739	0.0356
780.0468	0.0108
780.2197	0.0434
780.3926	-0.0241
780.5655	0.0441
780.7384	0.0042
780.9112	0.0143
781.0841	0.0273
781.2569	0.0161
781.4297	0.0069
781.6024	0.0074
781.7752	0.0188
781.9479	0.0532
782.1206	0.0167
782.2933	-0.0078
782.466	0.0264
782.6386	-0.0162
782.8113	0.0178
782.9839	-0.0064
783.1565	0.0302
783.329	-0.0125
783.5016	0.0006
783.6741	0.0007
783.8466	0.0634
784.0191	0.0712
784.1916	-0.0147
784.3641	-0.0058
784.5365	-0.0105
784.7089	-0.029
784.8813	0.0626
785.0537	0.0104
785.2261	0.0038
785.3984	0.0049
785.5707	0.0001
785.743	0.0303
785.9153	-0.0495
786.0876	-0.0142
786.2598	0.0053
786.432	0.0245
786.6042	0.0185
786.7764	-0.027
786.9486	-0.0095
787.1207	0.0177
787.2928	0.0214
787.4649	0.0186
787.637	0.035
787.8091	0.0186
787.9811	0.0404
788.1532	0.0327
788.3252	-0.0126
788.4972	0.0028
788.6691	0.0012
788.8411	0.0229
789.013	0.0319
789.1849	0.0347
789.3568	0.0056
789.5287	0.0577
789.7005	-0.0292
789.8723	0.001
790.0442	-0.0316
790.2159	-0.003
790.3877	0.056
790.5595	0.046
790.7312	0.0143
790.9029	-0.012
791.0746	0.0442
791.2463	-0.0745
791.4179	0.0011
791.5896	0.0151
791.7612	0.0143
791.9328	0.0051
792.1044	0.0081
792.2759	-0.0589
792.4474	0.0107
792.619	0.0246
792.7905	0.0093
792.9619	0.0635
793.1334	0.057
793.3048	0.0496
793.4762	0.0009
793.6476	0.0048
793.819	0.0122
793.9904	-0.0054
794.1617	0.0051
794.333	-0.0108
794.5043	0.0254
794.6756	0.0076
794.8469	-0.003
795.0181	0.0102
795.1893	0.0412
795.3605	0.0343
795.5317	0.0331
795.7029	-0.0454
795.874	0.0191
796.0452	0.0306
796.2163	0.0398
796.3873	0.0092
796.5584	0.0792
796.7294	0.0122
796.9005	0.0614
797.0715	-0.0361
797.2425	0.0879
797.4134	0.0623
797.5844	0.039
797.7553	-0.0432
797.9262	0.0512
798.0971	0.0074
798.2679	-0.0774
798.4388	0.0515
798.6096	0.0841
798.7804	0.0291
798.9512	0.0265
799.122	-0.0379
799.2927	0.0762
799.4635	-0.0341
799.6342	-0.009
799.8049	-0.0344
799.9755	0.01
800.1462	0.0461
800.3168	0.03
800.4874	-0.1232
800.658	-0.0262
800.8286	-0.0225
800.9991	0.0033
801.1696	0.0477
801.3402	0.0042
801.5106	0.0307
801.6811	-0.0437
801.8516	0.0788
802.022	0.0437
802.1924	0.0417
802.3628	0.0434
802.5332	0.0145
802.7035	0.0855
802.8739	0.006
803.0442	0.0096
803.2145	0.0168
803.3847	-0.0136
803.555	-0.0139
803.7252	0.1177
803.8954	-0.0285
804.0656	0.0047
804.2358	0.0207
804.4059	0.1106
804.5761	-0.0273
804.7462	0.0196
804.9163	0.0065
805.0864	-0.0219
805.2564	0.0235
805.4264	0.0118
805.5965	0.0588
805.7665	0.045
805.9364	0.0801
806.1064	0.0418
806.2763	0.0243
806.4462	0.0469
806.6161	0.0642
806.786	0.0102
806.9559	0.023
807.1257	-0.0368
807.2955	-0.0022
807.4653	0.0348
807.6351	0.024
807.8048	-0.0186
807.9746	0.0297
808.1443	-0.0171
808.314	0.047
808.4837	0.0703
808.6533	0.0623
808.8229	0.0856
808.9926	0.0239
809.1622	-0.0171
809.3317	-0.084
809.5013	-0.0547
809.6708	-0.0097
809.8403	0.0462
810.0098	-0.0051
810.1793	-0.0953
810.3488	-0.0541
810.5182	0.0984
810.6876	0.0877
810.857	0.1046
811.0264	-0.0904
811.1958	0.1913
811.3651	0.058
811.5344	0.1009
811.7037	0.0417
811.873	0.0689
812.0422	-0.1554
812.2115	0.1021
812.3807	-0.077
812.5499	-0.08
812.7191	0.0045
812.8882	0.0066
813.0574	-0.0628
813.2265	-0.0025
813.3956	0.0023
813.5646	0.0769
813.7337	0.0056
813.9027	0.0022
814.0718	-0.0151
814.2407	-0.0218
814.4097	0.0529
814.5787	0.0944
814.7476	-0.0267
814.9165	0.0381
815.0854	0.0336
815.2543	0.0604
815.4232	0.0228
815.592	0.0862
815.7608	0.0703
815.9296	0.0116
816.0984	0.214
816.2671	-0.2659
816.4359	0.2455
816.6046	0.0003
816.7733	-0.0752
816.942	0.0221
817.1106	0.1427
817.2793	-0.041
817.4479	-0.0045
817.6165	0.0777
817.785	0.0478
817.9536	-0.0804
818.1221	0.0106
818.2906	-0.0707
818.4591	0.0968
818.6276	-0.0373
818.7961	0.058
818.9645	0.1065
819.1329	0.271
819.3013	0.0132
819.4697	0.5298
819.638	0.058
819.8064	-0.0344
819.9747	0.1658
820.143	-0.129
820.3113	0.0829
820.4795	0.1329
820.6477	0.0438
820.816	0.0658
820.9842	0.076
821.1523	0.0339
821.3205	0.0273
821.4886	-0.0483
821.6567	-0.0433
821.8248	0.0926
821.9929	-0.1175
822.1609	-0.0064
822.329	0.0032
822.497	0.0203
822.665	0.1628
822.833	0.1412
823.0009	-0.0679
823.1688	0.3344
823.3367	-0.132
823.5046	-0.0132
823.6725	0.1291
823.8404	0.0513
824.0082	0.1353
824.176	0.0892
824.3438	0.221
824.5116	0.0512
824.6793	0.1149
824.847	0.1055
825.0147	0.3268
825.1824	0.0744
825.3501	0.0595
825.5177	0.1897
825.6854	-0.0471
825.853	-0.0428
826.0206	-0.1076
826.1881	-0.0445
826.3557	-0.053
826.5232	0.07
826.6907	0.037
826.8582	-0.0123
827.0257	0.138
827.1931	0.1581
827.3605	-0.1661
827.528	-0.0669
827.6953	-0.1931
827.8627	-0.0636
828.03	0.0827
828.1974	-0.032
828.3647	-0.0183
828.532	0.0003
828.6992	0.0512
828.8665	-0.246
829.0337	0.1259
829.2009	0.0083
829.3681	-0.0184
829.5352	-0.1879
829.7024	0.1089
829.8695	0.0442
830.0366	0.1845
830.2037	0.2815
830.3707	0.201
830.5378	0.1357
830.7048	-0.0222
830.8718	0.5327
831.0388	-0.0592
831.2057	0.0208
831.3727	-0.2573
831.5396	0.1294
831.7065	-0.8319
831.8734	-0
832.0402	0.1185
832.2071	-0
832.3739	-0.0925
832.5407	-1.8415
832.7075	-0.466
832.8742	0.366
833.041	-0.0999
833.2077	0.1147
833.3744	0.0907
833.541	0.0763
833.7077	0.3047
833.8743	0.1925
834.0409	0.1589
834.2075	0.2161
834.3741	-0.2731
834.5407	0.0481
834.7072	-0.1271
834.8737	0.2639
835.0402	0.7423
835.2067	-0.089
835.3731	0.0581
835.5395	0.0231
835.706	-0.1072
835.8723	0.2702
836.0387	0.0197
836.2051	-0.023
836.3714	0.155
836.5377	-0.0301
836.704	0.3949
836.8703	-0.0286
837.0365	-0.658
837.2027	0.0887
837.3689	0.3143
837.5351	1.2524
837.7013	-0.0553
837.8674	-0
838.0335	-0.0248
838.1997	-0.1368
838.3657	0.5836
838.5318	0.1221
838.6978	-0
838.8639	-0.2932
839.0299	0.0362
839.1958	-0.022
839.3618	0.0432
839.5277	0.0005
839.6937	0.1641
839.8596	0.3653
840.0254	-0.1357
840.1913	-0.304
840.3571	-0.2824
840.523	-0
840.6888	0.1541
840.8545	-0.5128
841.0203	0.1832
841.186	-0.0281
841.3517	-0.1546
841.5174	0.2784
841.6831	0.2159
841.8488	0.074
842.0144	0.4878
842.18	0.1994
842.3456	-0.3845
842.5112	-0
842.6767	-0.0272
842.8422	1.2414
843.0077	0.0669
843.1732	-0.1563
843.3387	0.2012
843.5042	-0
843.6696	-0.0137
843.835	0.442
844.0004	1.0852
844.1657	-0.8611
844.3311	-0.1398
844.4964	-0.3094
844.6617	-0
844.827	-0
844.9923	0.4403
845.1575	-0
845.3227	-0.5202
845.4879	0.7374
845.6531	0.5805
845.8183	0.4871
845.9834	-0.0403
846.1485	0.1701
846.3136	-0.0635
846.4787	-0
846.6438	-0.3473
846.8088	0.478
846.9738	-0.3165
847.1388	0.1751
847.3038	0.5464
847.4687	0.424
847.6337	-0.2654
847.7986	0.0462
847.9635	-0.3185
848.1284	-0
848.2932	-0.1272
848.458	-0
848.6228	-0.0442
848.7876	-0
848.9524	-0
849.1172	-1.9287
849.2819	-0
849.4466	0.4483
849.6113	-0.0737
849.7759	-0.425
849.9406	0.1143
850.1052	0.5006
850.2698	-0.1112
850.4344	-0
850.599	0.5217
850.7635	0.6433
850.928	-0
851.0925	0.4587
851.257	0.1608
851.4215	-0
851.5859	0.0763
851.7503	-0
851.9147	-0.0536
852.0791	-0
852.2434	0.5116
852.4078	0.7901
852.5721	1.1334
852.7364	-0.1628
852.9007	-0.1074
853.0649	-0
853.2291	-0.2097
853.3934	0.8814
853.5575	-0.083
853.7217	0.578
853.8859	-0.3819
854.05	0.0276
854.2141	0.2908
854.3782	-0.1423
854.5423	-0.126
854.7063	0.0716
854.8703	-0.1234
855.0343	0.0556
855.1983	-0.1346
855.3623	0.1747
855.5262	-0
855.6901	0.5876
855.854	0.0064
856.0179	-0.0972
856.1818	0.2781
856.3456	1.2524
856.5094	-0.4374
856.6732	-0.1799
856.837	-0.241
857.0008	1.2347
857.1645	0.195
857.3282	-0.4845
857.4919	0.1166
857.6556	-0.0667
857.8192	0.0009
857.9828	-0.1881
858.1465	0.1739
858.31	-0
858.4736	-0.6403
858.6372	-0
858.8007	0.3775
858.9642	0.2017
859.1277	-0
859.2911	0.3176
859.4546	-0
859.618	0.439
859.7814	-0.1184
859.9448	-0
860.1081	-0
860.2715	-0
860.4348	-0
860.5981	-0
860.7614	0.5198
860.9246	-0.1685
861.0879	0.0881
861.2511	-0
861.4143	-0.1517
861.5774	0.0789
861.7406	-0.2161
861.9037	-0.7646
862.0668	-0.4357
862.2299	0.7158
862.393	-0
862.556	0.4106
862.7191	0.2632
862.8821	0.2394
863.0451	0.2426
863.208	-0
863.371	-0.4185
863.5339	0.6508
863.6968	0.5872
863.8597	-0.1784
864.0225	-0.2605
864.1854	1.542
864.3482	-0.5172
864.511	-0.1452
864.6737	-0
864.8365	0.0007
864.9992	-0
865.1619	0.0313
865.3246	-0.7782
865.4873	-0
865.65	-0
865.8126	0.9689
865.9752	-0.1717
866.1378	-0.0388
866.3004	0.3592
866.4629	-0
866.6254	-0.2479
866.7879	0.2923
866.9504	-0.0792
867.1129	-0.2594
867.2753	-0.0508
867.4377	0.1889
867.6001	-0.6929
867.7625	-0.0099
867.9249	-0
868.0872	0.0669
868.2495	1.8985
868.4118	-0
868.5741	-0
868.7363	-0.8556
868.8986	-0.342
869.0608	0.0952
869.223	-0.1342
869.3851	0.217
869.5473	0.0366
869.7094	-0
869.8715	-0.7979
870.0336	-0.0311
870.1957	-0
870.3577	0.3384
870.5197	0.1021
870.6817	-0
870.8437	1.2145
871.0057	-0
871.1676	0.1877
871.3295	-0.157
871.4914	-2.0286
871.6533	0.1982
871.8151	0.321
871.977	-0.3057
872.1388	0.479
872.3006	-0.4625
872.4623	-0.4487
872.6241	-0
872.7858	-0
872.9475	-0
873.1092	0.3289
873.2709	-0
873.4325	-0
873.5941	-0.1413
873.7557	-0
873.9173	0.0819
874.0789	0.1603
874.2404	-0
874.4019	-0.007
874.5634	-0
874.7249	-0
874.8863	-0.2709
875.0478	0.1238
875.2092	-0
875.3706	-0
875.5319	-0
875.6933	-0
875.8546	-0
876.0159	0.2978
876.1772	-0
876.3385	-0.1254
876.4997	0.6865
876.6609	0.4432
876.8221	-0
876.9833	0.0181
877.1445	0.1272
877.3056	-1.138
877.4667	-1.1148
877.6278	-0
877.7889	0.0759
877.9499	0.8598
878.111	-0.348
878.272	0.2632
878.433	-0
878.5939	0.1732
878.7549	0.2312
878.9158	1.6318
879.0767	-0
879.2376	-0
879.3984	-0
879.5593	0.7393
879.7201	0.0669
879.8809	-0
880.0417	-0.0863
880.2024	0.2226
880.3632	-0.5328
880.5239	0.3691
880.6846	-0.127
880.8452	-0.0383
881.0059	-0
881.1665	-0.0466
881.3271	0.6125
881.4877	0.1575
881.6483	-0
881.8088	-0.9492
881.9693	-0
882.1298	-0
882.2903	-0
