Data from D4ACN5uM460nmA_Absorbance_13-05-42-665.txt Node
Date: Fri Feb 21 13:05:42 GMT 2025
User: LASERRRRR
Spectrometer: FLMT03099
Trigger mode: 0
Integration Time (sec): 1.500000E-2
Scans to average: 1
Electric dark correction enabled: true
Nonlinearity correction enabled: false
Boxcar width: 0
XAxis mode: Wavelengths
Number of Pixels in Spectrum: 3648
>>>>>Begin Spectral Data<<<<<
179.3399	-0
179.5586	-0
179.7771	-0
179.9957	0.0132
180.2143	-0
180.4329	-0
180.6514	-0
180.8699	-0.1185
181.0885	-0
181.307	0.2377
181.5255	1.035
181.744	-0
181.9625	0.6187
182.181	-0
182.3994	-0.6886
182.6179	-0.1172
182.8363	-0
183.0547	0.739
183.2732	-0.0157
183.4916	0.537
183.71	0.3604
183.9284	0.4675
184.1467	0.3025
184.3651	0.0895
184.5835	0.165
184.8018	0.0731
185.0201	0.3841
185.2385	0.1512
185.4568	0.1683
185.6751	0.0944
185.8934	0.2639
186.1117	-0.0005
186.3299	0.2842
186.5482	0.3179
186.7664	0.0675
186.9847	0.0645
187.2029	1.3421
187.4211	0.0145
187.6393	0.3977
187.8575	0.321
188.0757	0.5017
188.2939	0.1726
188.512	0.2004
188.7302	0.1957
188.9483	0.3846
189.1665	0.6197
189.3846	0.5124
189.6027	0.1723
189.8208	0.5053
190.0389	0.2421
190.257	0.1796
190.475	0.2147
190.6931	0.0918
190.9111	0.0927
191.1292	0.1633
191.3472	0.2183
191.5652	0.141
191.7832	0.1433
192.0012	0.2222
192.2192	0.1876
192.4371	0.1282
192.6551	0.2106
192.873	0.2359
193.091	0.2534
193.3089	0.2412
193.5268	0.1778
193.7447	0.2334
193.9626	0.1979
194.1805	0.2097
194.3984	0.2762
194.6162	0.2823
194.8341	0.372
195.0519	0.1973
195.2697	0.2904
195.4875	0.2445
195.7054	0.2584
195.9231	0.2189
196.1409	0.3427
196.3587	0.3259
196.5765	0.3379
196.7942	0.3574
197.012	0.3846
197.2297	0.3099
197.4474	0.3764
197.6651	0.2923
197.8828	0.3531
198.1005	0.4166
198.3182	0.3749
198.5358	0.3907
198.7535	0.3796
198.9711	0.3806
199.1888	0.3006
199.4064	0.4374
199.624	0.3842
199.8416	0.3736
200.0592	0.3895
200.2767	0.381
200.4943	0.3981
200.7119	0.4176
200.9294	0.4116
201.1469	0.4431
201.3645	0.4083
201.582	0.4319
201.7995	0.4078
202.017	0.4541
202.2344	0.4454
202.4519	0.4188
202.6694	0.4187
202.8868	0.3995
203.1042	0.4038
203.3217	0.3611
203.5391	0.4058
203.7565	0.3579
203.9739	0.4075
204.1913	0.3367
204.4086	0.3636
204.626	0.371
204.8433	0.3599
205.0607	0.3613
205.278	0.3749
205.4953	0.3378
205.7126	0.3235
205.9299	0.3459
206.1472	0.3269
206.3644	0.3563
206.5817	0.3356
206.7989	0.3558
207.0162	0.3198
207.2334	0.3393
207.4506	0.3122
207.6678	0.2935
207.885	0.3092
208.1022	0.3281
208.3194	0.2873
208.5365	0.3134
208.7537	0.2881
208.9708	0.2869
209.1879	0.3231
209.405	0.2784
209.6222	0.2667
209.8392	0.2978
210.0563	0.2972
210.2734	0.2437
210.4905	0.2795
210.7075	0.275
210.9245	0.3054
211.1416	0.2875
211.3586	0.2643
211.5756	0.244
211.7926	0.283
212.0096	0.2721
212.2265	0.2745
212.4435	0.267
212.6604	0.2588
212.8774	0.2593
213.0943	0.2599
213.3112	0.2631
213.5281	0.2442
213.745	0.2679
213.9619	0.2459
214.1788	0.252
214.3956	0.236
214.6125	0.2601
214.8293	0.252
215.0461	0.2556
215.2629	0.2475
215.4798	0.2471
215.6965	0.2569
215.9133	0.2476
216.1301	0.2554
216.3469	0.2676
216.5636	0.2531
216.7803	0.2391
216.9971	0.2616
217.2138	0.2579
217.4305	0.2506
217.6472	0.2435
217.8639	0.2729
218.0805	0.2501
218.2972	0.2368
218.5138	0.2747
218.7305	0.2675
218.9471	0.2576
219.1637	0.2733
219.3803	0.2598
219.5969	0.2462
219.8135	0.2716
220.0301	0.2726
220.2466	0.2555
220.4632	0.2601
220.6797	0.267
220.8962	0.2626
221.1127	0.274
221.3292	0.2777
221.5457	0.28
221.7622	0.2747
221.9787	0.2884
222.1951	0.2946
222.4116	0.2811
222.628	0.2931
222.8444	0.2778
223.0608	0.2892
223.2772	0.2869
223.4936	0.2796
223.71	0.2958
223.9264	0.2862
224.1427	0.2849
224.3591	0.2914
224.5754	0.2867
224.7917	0.3076
225.008	0.3023
225.2243	0.2967
225.4406	0.2968
225.6569	0.3149
225.8732	0.3165
226.0894	0.3145
226.3057	0.3162
226.5219	0.316
226.7381	0.3361
226.9543	0.3085
227.1705	0.3218
227.3867	0.3192
227.6029	0.3298
227.8191	0.3404
228.0352	0.3401
228.2513	0.351
228.4675	0.3385
228.6836	0.3497
228.8997	0.3489
229.1158	0.3548
229.3319	0.372
229.548	0.3493
229.764	0.3664
229.9801	0.3739
230.1961	0.366
230.4121	0.3758
230.6282	0.384
230.8442	0.3813
231.0602	0.3906
231.2761	0.3803
231.4921	0.3981
231.7081	0.3958
231.924	0.3956
232.14	0.4102
232.3559	0.3985
232.5718	0.4174
232.7877	0.4143
233.0036	0.4086
233.2195	0.4088
233.4353	0.4174
233.6512	0.4235
233.867	0.4057
234.0829	0.4335
234.2987	0.4217
234.5145	0.4237
234.7303	0.4346
234.9461	0.4392
235.1619	0.4539
235.3776	0.4353
235.5934	0.4282
235.8091	0.4418
236.0249	0.4561
236.2406	0.4466
236.4563	0.4458
236.672	0.4462
236.8877	0.4492
237.1034	0.458
237.319	0.4582
237.5347	0.4543
237.7503	0.4571
237.966	0.4624
238.1816	0.4582
238.3972	0.4585
238.6128	0.4671
238.8284	0.4531
239.0439	0.4686
239.2595	0.4607
239.475	0.4607
239.6906	0.4588
239.9061	0.4605
240.1216	0.4597
240.3371	0.4556
240.5526	0.456
240.7681	0.4584
240.9836	0.4536
241.199	0.4599
241.4145	0.4534
241.6299	0.4447
241.8453	0.4378
242.0607	0.4313
242.2761	0.435
242.4915	0.4251
242.7069	0.4161
242.9223	0.4247
243.1376	0.4055
243.353	0.4029
243.5683	0.3927
243.7836	0.3888
243.9989	0.3774
244.2142	0.372
244.4295	0.3688
244.6448	0.3627
244.86	0.3499
245.0753	0.3439
245.2905	0.3382
245.5057	0.3328
245.721	0.3329
245.9362	0.3203
246.1514	0.3162
246.3665	0.3131
246.5817	0.2987
246.7969	0.2933
247.012	0.2904
247.2271	0.2887
247.4423	0.2764
247.6574	0.2728
247.8725	0.2725
248.0876	0.2629
248.3026	0.2614
248.5177	0.2557
248.7328	0.2499
248.9478	0.2493
249.1628	0.2484
249.3779	0.2432
249.5929	0.237
249.8079	0.2384
250.0228	0.2318
250.2378	0.2277
250.4528	0.2269
250.6677	0.2176
250.8827	0.2177
251.0976	0.2143
251.3125	0.2155
251.5274	0.2149
251.7423	0.2139
251.9572	0.2099
252.172	0.204
252.3869	0.2054
252.6017	0.2072
252.8166	0.2
253.0314	0.1947
253.2462	0.1947
253.461	0.1982
253.6758	0.1972
253.8906	0.1987
254.1053	0.1955
254.3201	0.1924
254.5348	0.1836
254.7496	0.1867
254.9643	0.1901
255.179	0.1829
255.3937	0.1893
255.6083	0.1919
255.823	0.1861
256.0377	0.1831
256.2523	0.1843
256.467	0.1821
256.6816	0.1824
256.8962	0.1834
257.1108	0.1795
257.3254	0.1805
257.54	0.1821
257.7545	0.1812
257.9691	0.1833
258.1836	0.1757
258.3981	0.1829
258.6127	0.172
258.8272	0.1824
259.0417	0.1715
259.2561	0.175
259.4706	0.1766
259.6851	0.1784
259.8995	0.1689
260.114	0.1772
260.3284	0.1704
260.5428	0.1759
260.7572	0.1764
260.9716	0.1804
261.186	0.1747
261.4003	0.1744
261.6147	0.1764
261.829	0.1755
262.0433	0.1708
262.2577	0.1789
262.472	0.1704
262.6863	0.1833
262.9005	0.1699
263.1148	0.1739
263.3291	0.1814
263.5433	0.179
263.7576	0.1814
263.9718	0.1801
264.186	0.1805
264.4002	0.1815
264.6144	0.1855
264.8286	0.1768
265.0427	0.1795
265.2569	0.1811
265.471	0.1757
265.6851	0.1819
265.8993	0.1748
266.1134	0.18
266.3275	0.1754
266.5415	0.1757
266.7556	0.1798
266.9697	0.176
267.1837	0.1746
267.3978	0.181
267.6118	0.1732
267.8258	0.1749
268.0398	0.1762
268.2538	0.1796
268.4677	0.1748
268.6817	0.1744
268.8957	0.165
269.1096	0.1759
269.3235	0.1707
269.5374	0.1683
269.7514	0.1736
269.9652	0.1713
270.1791	0.1737
270.393	0.1712
270.6068	0.1718
270.8207	0.1681
271.0345	0.1668
271.2483	0.1655
271.4622	0.1716
271.676	0.1684
271.8897	0.1649
272.1035	0.1735
272.3173	0.1705
272.531	0.1664
272.7448	0.166
272.9585	0.1654
273.1722	0.1683
273.3859	0.1664
273.5996	0.171
273.8133	0.1702
274.0269	0.1623
274.2406	0.1716
274.4542	0.1702
274.6679	0.1683
274.8815	0.1739
275.0951	0.1747
275.3087	0.1691
275.5223	0.1675
275.7358	0.1737
275.9494	0.1743
276.1629	0.1741
276.3765	0.1746
276.59	0.1653
276.8035	0.1684
277.017	0.1759
277.2305	0.1763
277.444	0.1733
277.6574	0.1732
277.8709	0.18
278.0843	0.176
278.2978	0.1805
278.5112	0.1766
278.7246	0.1671
278.938	0.1751
279.1513	0.1766
279.3647	0.1769
279.5781	0.1708
279.7914	0.1771
280.0047	0.1791
280.2181	0.1767
280.4314	0.1721
280.6447	0.1786
280.8579	0.1704
281.0712	0.1756
281.2845	0.1756
281.4977	0.1749
281.711	0.1741
281.9242	0.1764
282.1374	0.1744
282.3506	0.1798
282.5638	0.1788
282.7769	0.172
282.9901	0.1824
283.2033	0.1838
283.4164	0.1777
283.6295	0.1763
283.8426	0.1778
284.0557	0.1881
284.2688	0.1772
284.4819	0.1816
284.695	0.1842
284.908	0.1769
285.1211	0.185
285.3341	0.1808
285.5471	0.1828
285.7601	0.1799
285.9731	0.1817
286.1861	0.1882
286.3991	0.185
286.612	0.1864
286.825	0.188
287.0379	0.1875
287.2508	0.1886
287.4637	0.1849
287.6766	0.1821
287.8895	0.1857
288.1024	0.1932
288.3152	0.1923
288.5281	0.1842
288.7409	0.1913
288.9538	0.1911
289.1666	0.1853
289.3794	0.1906
289.5922	0.1821
289.8049	0.1882
290.0177	0.1894
290.2304	0.1872
290.4432	0.1925
290.6559	0.1902
290.8686	0.1932
291.0813	0.1893
291.294	0.1912
291.5067	0.188
291.7194	0.1911
291.932	0.1905
292.1447	0.1937
292.3573	0.1944
292.5699	0.1962
292.7825	0.186
292.9951	0.1937
293.2077	0.1912
293.4203	0.1933
293.6328	0.1908
293.8454	0.1916
294.0579	0.1949
294.2704	0.1963
294.4829	0.1888
294.6954	0.191
294.9079	0.1932
295.1204	0.1892
295.3328	0.1971
295.5453	0.1912
295.7577	0.1934
295.9701	0.1874
296.1825	0.196
296.3949	0.1907
296.6073	0.1919
296.8197	0.1923
297.0321	0.1934
297.2444	0.1902
297.4567	0.1991
297.6691	0.1955
297.8814	0.1905
298.0937	0.1889
298.306	0.1933
298.5182	0.1969
298.7305	0.1893
298.9428	0.1945
299.155	0.1862
299.3672	0.1926
299.5794	0.1915
299.7916	0.1919
300.0038	0.1938
300.216	0.1855
300.4282	0.1945
300.6403	0.1985
300.8525	0.1964
301.0646	0.1962
301.2767	0.1909
301.4888	0.1925
301.7009	0.1914
301.913	0.1893
302.125	0.1862
302.3371	0.1917
302.5491	0.2011
302.7612	0.1982
302.9732	0.1929
303.1852	0.192
303.3972	0.1936
303.6092	0.1921
303.8211	0.1929
304.0331	0.1893
304.245	0.1891
304.457	0.1891
304.6689	0.1868
304.8808	0.1891
305.0927	0.1916
305.3046	0.1835
305.5164	0.1772
305.7283	0.1849
305.9401	0.173
306.152	0.1808
306.3638	0.1802
306.5756	0.179
306.7874	0.1731
306.9992	0.1724
307.2109	0.1677
307.4227	0.1681
307.6344	0.1781
307.8462	0.1684
308.0579	0.1763
308.2696	0.1667
308.4813	0.1663
308.693	0.1689
308.9046	0.1636
309.1163	0.158
309.328	0.1569
309.5396	0.1521
309.7512	0.155
309.9628	0.152
310.1744	0.1458
310.386	0.1496
310.5976	0.1432
310.8091	0.1468
311.0207	0.1452
311.2322	0.1437
311.4437	0.1414
311.6552	0.1451
311.8667	0.1411
312.0782	0.144
312.2897	0.1343
312.5012	0.135
312.7126	0.1296
312.924	0.1402
313.1355	0.134
313.3469	0.134
313.5583	0.1323
313.7696	0.1338
313.981	0.1389
314.1924	0.1279
314.4037	0.1323
314.6151	0.1285
314.8264	0.1293
315.0377	0.1283
315.249	0.1271
315.4603	0.1196
315.6716	0.1308
315.8828	0.1239
316.0941	0.1297
316.3053	0.1257
316.5165	0.1283
316.7277	0.1245
316.9389	0.1257
317.1501	0.1176
317.3613	0.1212
317.5724	0.1243
317.7836	0.1194
317.9947	0.1231
318.2058	0.1188
318.417	0.1213
318.6281	0.119
318.8391	0.1251
319.0502	0.1186
319.2613	0.1237
319.4723	0.118
319.6834	0.1242
319.8944	0.1156
320.1054	0.1234
320.3164	0.118
320.5274	0.1223
320.7383	0.1232
320.9493	0.1163
321.1602	0.1156
321.3712	0.1197
321.5821	0.1162
321.793	0.1228
322.0039	0.12
322.2148	0.1202
322.4257	0.1194
322.6365	0.1172
322.8474	0.12
323.0582	0.1209
323.269	0.1271
323.4798	0.1266
323.6906	0.1138
323.9014	0.1205
324.1122	0.1194
324.3229	0.1272
324.5337	0.1219
324.7444	0.1227
324.9551	0.1227
325.1658	0.127
325.3765	0.1283
325.5872	0.1234
325.7979	0.1307
326.0085	0.1233
326.2192	0.1177
326.4298	0.1275
326.6404	0.1322
326.851	0.1217
327.0616	0.126
327.2722	0.1222
327.4828	0.1277
327.6933	0.1328
327.9039	0.1216
328.1144	0.1253
328.3249	0.1298
328.5354	0.1267
328.7459	0.1266
328.9564	0.1276
329.1669	0.1324
329.3773	0.1242
329.5878	0.1258
329.7982	0.1273
330.0086	0.1304
330.219	0.1242
330.4294	0.1277
330.6398	0.1307
330.8502	0.1339
331.0605	0.1296
331.2708	0.1239
331.4812	0.1279
331.6915	0.1271
331.9018	0.1262
332.1121	0.1309
332.3224	0.1267
332.5326	0.1258
332.7429	0.1272
332.9531	0.1328
333.1633	0.1192
333.3735	0.1304
333.5837	0.1342
333.7939	0.1325
334.0041	0.1389
334.2143	0.1265
334.4244	0.141
334.6346	0.1316
334.8447	0.1321
335.0548	0.1428
335.2649	0.1353
335.475	0.1393
335.685	0.1371
335.8951	0.1259
336.1051	0.1335
336.3152	0.1377
336.5252	0.1349
336.7352	0.1373
336.9452	0.1369
337.1552	0.1311
337.3652	0.1357
337.5751	0.1367
337.7851	0.1365
337.995	0.1338
338.2049	0.1378
338.4148	0.1403
338.6247	0.1369
338.8346	0.1371
339.0445	0.1379
339.2543	0.1351
339.4642	0.1374
339.674	0.1424
339.8838	0.1414
340.0936	0.1365
340.3034	0.1353
340.5132	0.1353
340.7229	0.1445
340.9327	0.1479
341.1424	0.1419
341.3522	0.1393
341.5619	0.1436
341.7716	0.1449
341.9813	0.1384
342.1909	0.1505
342.4006	0.1473
342.6102	0.141
342.8199	0.145
343.0295	0.1453
343.2391	0.1453
343.4487	0.1494
343.6583	0.1507
343.8679	0.1465
344.0774	0.1458
344.287	0.1541
344.4965	0.1493
344.706	0.156
344.9155	0.1469
345.125	0.1499
345.3345	0.1622
345.544	0.1503
345.7534	0.1514
345.9629	0.1565
346.1723	0.1625
346.3817	0.1592
346.5911	0.1612
346.8005	0.1597
347.0099	0.1568
347.2193	0.1643
347.4286	0.1655
347.638	0.1635
347.8473	0.1631
348.0566	0.159
348.2659	0.1637
348.4752	0.166
348.6845	0.1656
348.8937	0.1621
349.103	0.1684
349.3122	0.1669
349.5214	0.1675
349.7306	0.1711
349.9398	0.1692
350.149	0.165
350.3582	0.1672
350.5674	0.1793
350.7765	0.1682
350.9856	0.1675
351.1948	0.1751
351.4039	0.1787
351.613	0.1751
351.822	0.1714
352.0311	0.1794
352.2402	0.1777
352.4492	0.1841
352.6582	0.1751
352.8672	0.1775
353.0762	0.1771
353.2852	0.1761
353.4942	0.1799
353.7032	0.1743
353.9121	0.1832
354.1211	0.1776
354.33	0.1865
354.5389	0.1884
354.7478	0.1755
354.9567	0.1873
355.1655	0.1849
355.3744	0.1801
355.5833	0.1818
355.7921	0.185
356.0009	0.1858
356.2097	0.1838
356.4185	0.1796
356.6273	0.183
356.8361	0.1924
357.0448	0.1887
357.2536	0.1893
357.4623	0.1918
357.671	0.1953
357.8797	0.1906
358.0884	0.1894
358.2971	0.1917
358.5057	0.1941
358.7144	0.1978
358.923	0.1983
359.1316	0.1984
359.3402	0.1983
359.5488	0.1981
359.7574	0.2089
359.966	0.1951
360.1746	0.1959
360.3831	0.2025
360.5916	0.2028
360.8002	0.2124
361.0087	0.2067
361.2172	0.2102
361.4256	0.2065
361.6341	0.2091
361.8426	0.2103
362.051	0.2138
362.2594	0.2119
362.4678	0.2134
362.6762	0.2177
362.8846	0.2118
363.093	0.2215
363.3014	0.2203
363.5097	0.2205
363.718	0.2259
363.9264	0.2224
364.1347	0.2287
364.343	0.2248
364.5513	0.2189
364.7595	0.2322
364.9678	0.225
365.176	0.2298
365.3842	0.226
365.5925	0.2291
365.8007	0.2312
366.0089	0.2373
366.217	0.2316
366.4252	0.2318
366.6333	0.245
366.8415	0.2382
367.0496	0.2352
367.2577	0.2375
367.4658	0.2317
367.6739	0.2417
367.882	0.2379
368.09	0.2413
368.2981	0.2437
368.5061	0.2378
368.7141	0.2468
368.9221	0.2633
369.1301	0.2459
369.3381	0.255
369.5461	0.2553
369.754	0.2479
369.962	0.2488
370.1699	0.2597
370.3778	0.2641
370.5857	0.2522
370.7936	0.2572
371.0015	0.26
371.2093	0.2585
371.4172	0.2545
371.625	0.2627
371.8328	0.2601
372.0406	0.268
372.2484	0.257
372.4562	0.2663
372.664	0.2656
372.8717	0.2526
373.0795	0.2652
373.2872	0.2676
373.4949	0.266
373.7026	0.272
373.9103	0.2624
374.118	0.269
374.3256	0.2696
374.5333	0.2669
374.7409	0.2649
374.9485	0.271
375.1561	0.2753
375.3637	0.2704
375.5713	0.2714
375.7789	0.2675
375.9864	0.2708
376.194	0.2802
376.4015	0.2748
376.609	0.2805
376.8165	0.2805
377.024	0.278
377.2315	0.2768
377.4389	0.2795
377.6464	0.2854
377.8538	0.2812
378.0612	0.2859
378.2686	0.2854
378.476	0.2868
378.6834	0.2928
378.8908	0.2899
379.0981	0.2872
379.3055	0.2955
379.5128	0.2806
379.7201	0.288
379.9274	0.2921
380.1347	0.2982
380.342	0.2906
380.5492	0.2869
380.7565	0.2932
380.9637	0.2996
381.1709	0.2889
381.3781	0.303
381.5853	0.2974
381.7925	0.2941
381.9997	0.2994
382.2068	0.3094
382.4139	0.2873
382.6211	0.3007
382.8282	0.2993
383.0353	0.3101
383.2424	0.3093
383.4494	0.3
383.6565	0.2997
383.8635	0.3004
384.0706	0.3096
384.2776	0.2999
384.4846	0.3037
384.6916	0.304
384.8986	0.3156
385.1055	0.3231
385.3125	0.302
385.5194	0.3109
385.7263	0.3108
385.9333	0.3047
386.1402	0.307
386.347	0.3064
386.5539	0.3088
386.7608	0.3062
386.9676	0.3013
387.1744	0.309
387.3813	0.3092
387.5881	0.3033
387.7948	0.3128
388.0016	0.3205
388.2084	0.3049
388.4151	0.3016
388.6219	0.2961
388.8286	0.2958
389.0353	0.3041
389.242	0.3139
389.4487	0.3047
389.6553	0.2941
389.862	0.2942
390.0686	0.3068
390.2753	0.307
390.4819	0.303
390.6885	0.2964
390.8951	0.2937
391.1016	0.2877
391.3082	0.2994
391.5147	0.2903
391.7213	0.2984
391.9278	0.2919
392.1343	0.29
392.3408	0.2847
392.5473	0.2879
392.7537	0.2886
392.9602	0.2861
393.1666	0.2834
393.373	0.2914
393.5794	0.2867
393.7858	0.2787
393.9922	0.2801
394.1986	0.2901
394.4049	0.2843
394.6113	0.2878
394.8176	0.2779
395.0239	0.2627
395.2302	0.269
395.4365	0.2837
395.6428	0.2806
395.8491	0.2744
396.0553	0.2695
396.2615	0.2749
396.4678	0.2743
396.674	0.2615
396.8802	0.2666
397.0863	0.2642
397.2925	0.2709
397.4987	0.2631
397.7048	0.2718
397.9109	0.2557
398.117	0.2587
398.3231	0.2665
398.5292	0.2581
398.7353	0.2584
398.9413	0.2661
399.1474	0.2625
399.3534	0.2638
399.5594	0.2711
399.7654	0.2585
399.9714	0.2632
400.1774	0.2628
400.3833	0.2603
400.5893	0.2619
400.7952	0.2747
401.0011	0.26
401.207	0.2665
401.4129	0.2661
401.6188	0.255
401.8247	0.265
402.0305	0.2584
402.2364	0.2654
402.4422	0.2724
402.648	0.2546
402.8538	0.2666
403.0596	0.2572
403.2654	0.2588
403.4711	0.2531
403.6768	0.2556
403.8826	0.2671
404.0883	0.2658
404.294	0.2599
404.4997	0.2624
404.7054	0.2588
404.911	0.256
405.1167	0.2638
405.3223	0.2567
405.5279	0.2626
405.7335	0.2671
405.9391	0.2566
406.1447	0.2631
406.3502	0.2546
406.5558	0.2682
406.7613	0.253
406.9668	0.2618
407.1724	0.2462
407.3778	0.2559
407.5833	0.2589
407.7888	0.2568
407.9942	0.2596
408.1997	0.2671
408.4051	0.2625
408.6105	0.2616
408.8159	0.2616
409.0213	0.2637
409.2267	0.2591
409.432	0.262
409.6374	0.2622
409.8427	0.2626
410.048	0.2682
410.2533	0.2641
410.4586	0.2542
410.6639	0.2555
410.8691	0.2582
411.0744	0.253
411.2796	0.2572
411.4848	0.256
411.69	0.2471
411.8952	0.2603
412.1004	0.2606
412.3056	0.2547
412.5107	0.252
412.7158	0.257
412.921	0.2592
413.1261	0.2637
413.3312	0.2596
413.5362	0.266
413.7413	0.2578
413.9464	0.256
414.1514	0.2594
414.3564	0.2538
414.5614	0.2617
414.7664	0.2468
414.9714	0.2554
415.1764	0.2569
415.3813	0.2477
415.5863	0.2483
415.7912	0.2556
415.9961	0.2465
416.201	0.2646
416.4059	0.252
416.6108	0.2549
416.8156	0.2473
417.0205	0.2528
417.2253	0.2497
417.4301	0.2614
417.6349	0.2574
417.8397	0.2504
418.0445	0.2535
418.2492	0.2522
418.454	0.2484
418.6587	0.2488
418.8634	0.25
419.0681	0.2554
419.2728	0.2419
419.4775	0.2605
419.6822	0.2472
419.8868	0.2407
420.0915	0.2513
420.2961	0.2383
420.5007	0.2496
420.7053	0.2394
420.9099	0.2453
421.1144	0.2367
421.319	0.2348
421.5235	0.2353
421.728	0.2393
421.9325	0.2425
422.137	0.2336
422.3415	0.2403
422.546	0.2299
422.7504	0.2254
422.9549	0.2406
423.1593	0.2274
423.3637	0.2389
423.5681	0.2418
423.7725	0.2288
423.9769	0.2328
424.1812	0.2215
424.3856	0.2203
424.5899	0.2241
424.7942	0.2286
424.9985	0.2191
425.2028	0.2286
425.4071	0.2262
425.6113	0.2197
425.8156	0.2242
426.0198	0.2281
426.224	0.2276
426.4282	0.2114
426.6324	0.2185
426.8366	0.2088
427.0407	0.2149
427.2449	0.2043
427.449	0.2134
427.6531	0.2184
427.8572	0.2047
428.0613	0.206
428.2654	0.2088
428.4694	0.2035
428.6735	0.2069
428.8775	0.1938
429.0815	0.2007
429.2855	0.1949
429.4895	0.2033
429.6935	0.1959
429.8975	0.1903
430.1014	0.1976
430.3053	0.1974
430.5093	0.194
430.7132	0.1912
430.9171	0.1816
431.1209	0.191
431.3248	0.1785
431.5286	0.1862
431.7325	0.1948
431.9363	0.1718
432.1401	0.1737
432.3439	0.1783
432.5477	0.1768
432.7514	0.1729
432.9552	0.1705
433.1589	0.167
433.3627	0.1723
433.5664	0.1615
433.7701	0.1648
433.9737	0.1717
434.1774	0.1715
434.3811	0.1575
434.5847	0.1565
434.7883	0.1651
434.9919	0.1549
435.1955	0.1515
435.3991	0.162
435.6027	0.1499
435.8062	0.1642
436.0098	0.1455
436.2133	0.141
436.4168	0.1501
436.6203	0.1469
436.8238	0.1447
437.0272	0.1361
437.2307	0.1383
437.4341	0.1305
437.6375	0.1415
437.841	0.1272
438.0443	0.1313
438.2477	0.1147
438.4511	0.1189
438.6545	0.1314
438.8578	0.1258
439.0611	0.1303
439.2644	0.1259
439.4677	0.1099
439.671	0.1135
439.8743	0.1222
440.0775	0.1148
440.2808	0.1112
440.484	0.1075
440.6872	0.1158
440.8904	0.1013
441.0936	0.1076
441.2967	0.0994
441.4999	0.1042
441.703	0.0981
441.9062	0.1043
442.1093	0.1128
442.3124	0.0928
442.5155	0.0921
442.7185	0.0855
442.9216	0.0996
443.1246	0.0889
443.3276	0.0899
443.5307	0.0871
443.7337	0.0878
443.9366	0.0836
444.1396	0.0863
444.3426	0.0779
444.5455	0.0824
444.7484	0.0732
444.9513	0.0762
445.1542	0.081
445.3571	0.0761
445.56	0.0683
445.7628	0.0693
445.9657	0.0768
446.1685	0.0742
446.3713	0.0766
446.5741	0.0699
446.7769	0.0663
446.9797	0.0679
447.1824	0.068
447.3852	0.0506
447.5879	0.0568
447.7906	0.0565
447.9933	0.0597
448.196	0.0579
448.3986	0.0539
448.6013	0.0497
448.8039	0.0644
449.0066	0.0681
449.2092	0.0643
449.4118	0.0454
449.6143	0.0523
449.8169	0.0512
450.0195	0.0545
450.222	0.0476
450.4245	0.0483
450.627	0.0498
450.8295	0.0549
451.032	0.0414
451.2345	0.0387
451.4369	0.046
451.6394	0.0463
451.8418	0.0483
452.0442	0.0441
452.2466	0.0401
452.449	0.049
452.6513	0.0359
452.8537	0.0347
453.056	0.0376
453.2583	0.0326
453.4607	0.0309
453.663	0.0442
453.8652	0.0355
454.0675	0.0436
454.2697	0.0317
454.472	0.0304
454.6742	0.0357
454.8764	0.0421
455.0786	0.0293
455.2808	0.0251
455.4829	0.0298
455.6851	0.0232
455.8872	0.02
456.0893	0.0297
456.2915	0.0195
456.4935	0.0269
456.6956	0.0262
456.8977	0.0197
457.0997	0.0339
457.3018	0.0288
457.5038	0.0297
457.7058	0.0308
457.9078	0.028
458.1098	0.0279
458.3117	0.03
458.5137	0.0106
458.7156	0.0166
458.9175	0.0364
459.1194	0.0218
459.3213	0.017
459.5232	0.0259
459.725	0.0234
459.9269	0.0216
460.1287	0.0095
460.3305	0.0213
460.5323	0.0131
460.7341	0.012
460.9359	0.0172
461.1376	0.019
461.3394	0.0164
461.5411	0.017
461.7428	0.0103
461.9445	0.0121
462.1462	0.0166
462.3479	0.0076
462.5495	0.0182
462.7512	0.0247
462.9528	0.0142
463.1544	0.0067
463.356	0.0089
463.5576	0.0194
463.7592	0.0137
463.9607	0.0068
464.1623	0.0122
464.3638	0.0063
464.5653	0.0171
464.7668	0.0184
464.9683	0.0093
465.1697	0.0126
465.3712	0.0121
465.5726	0.0177
465.7741	0.0196
465.9755	0.0154
466.1769	0.0154
466.3782	0.0113
466.5796	0.0133
466.7809	0.0207
466.9823	0.0082
467.1836	0.0056
467.3849	0.0142
467.5862	-0.0012
467.7875	0.0065
467.9887	0.0089
468.19	0.0131
468.3912	0.0187
468.5924	0.0066
468.7936	0.0135
468.9948	0.0009
469.196	0.0053
469.3972	0.0063
469.5983	0.0111
469.7994	0.0107
470.0006	0.0125
470.2017	0.0049
470.4027	0.0214
470.6038	0.0067
470.8049	0.0019
471.0059	0.0099
471.2069	0.0074
471.408	0.0162
471.6089	0.0074
471.8099	0.018
472.0109	-0.0033
472.2119	0.0165
472.4128	0.0111
472.6137	0.0052
472.8146	0.0109
473.0155	0.0165
473.2164	0.0126
473.4173	0.0047
473.6181	0.0035
473.819	0.0083
474.0198	0.0006
474.2206	-0.0006
474.4214	0.0099
474.6222	-0.0017
474.8229	0.0018
475.0237	0.0105
475.2244	0.0081
475.4251	0.0002
475.6258	0.0024
475.8265	0.0121
476.0272	0.0064
476.2278	0.0107
476.4285	0.0073
476.6291	0.0072
476.8297	0.0116
477.0303	-0.0014
477.2309	0.0134
477.4315	0.0108
477.632	-0.0056
477.8326	0.0027
478.0331	0.0025
478.2336	0.0044
478.4341	0.0026
478.6346	0.001
478.8351	0.006
479.0355	0.0122
479.236	0.0118
479.4364	0.0018
479.6368	0.0028
479.8372	0.0055
480.0376	0.0066
480.2379	0.0044
480.4383	0.0132
480.6386	0.0072
480.8389	0.0005
481.0392	0.0049
481.2395	0.0097
481.4398	0.0071
481.6401	0.0054
481.8403	0.0114
482.0405	0.0064
482.2408	0.0083
482.441	0.0125
482.6411	0.0093
482.8413	0.0049
483.0415	0.0125
483.2416	0.0094
483.4417	0.0072
483.6419	-0.0012
483.8419	0.007
484.042	0.0054
484.2421	0.0022
484.4422	-0.0004
484.6422	0.0015
484.8422	0.008
485.0422	0.0071
485.2422	0.0004
485.4422	0.003
485.6422	0.0019
485.8421	0.0019
486.042	0.0107
486.242	0.0047
486.4419	0.002
486.6417	0.0041
486.8416	0.0008
487.0415	0.0027
487.2413	-0.0079
487.4411	0.0012
487.641	0.0016
487.8408	0.0082
488.0405	0.0086
488.2403	-0.0064
488.4401	0.005
488.6398	0.0056
488.8395	0.0077
489.0392	0.0052
489.2389	0.0088
489.4386	-0.0031
489.6383	0.0078
489.8379	-0.0082
490.0376	0.0025
490.2372	0.0054
490.4368	0.0032
490.6364	-0.0016
490.836	0.0064
491.0355	-0.0067
491.2351	0.0024
491.4346	0.0042
491.6341	0.0013
491.8336	0.0033
492.0331	0.0027
492.2326	0.0053
492.432	0.0023
492.6315	0.01
492.8309	0.0014
493.0303	0.0034
493.2297	0.0088
493.4291	0.0007
493.6284	0.0109
493.8278	0.0032
494.0271	0.0019
494.2264	0.004
494.4257	0.0104
494.625	0.0062
494.8243	0.0014
495.0236	0.0114
495.2228	0.0118
495.422	0.0079
495.6213	0.0052
495.8205	0.0084
496.0196	0.0038
496.2188	0.0059
496.418	0.0002
496.6171	-0.0013
496.8162	0.0048
497.0153	0.0055
497.2144	0.0069
497.4135	0.004
497.6126	0.0102
497.8116	0.0051
498.0107	0.009
498.2097	0.0071
498.4087	0.0076
498.6077	-0.0064
498.8067	0.008
499.0056	0.0045
499.2046	-0.0003
499.4035	-0.0006
499.6024	-0.0074
499.8013	0.0067
500.0002	0.0061
500.199	0.0079
500.3979	-0.0013
500.5967	0.0034
500.7956	0.0072
500.9944	0.0077
501.1932	0.0157
501.3919	0.0045
501.5907	0.0065
501.7895	0.0007
501.9882	0.0037
502.1869	0.0074
502.3856	0.002
502.5843	0.0024
502.783	0.0084
502.9816	0.0097
503.1803	0.0062
503.3789	0.0127
503.5775	0.0038
503.7761	-0.0035
503.9747	0.0006
504.1732	-0.0084
504.3718	0.0154
504.5703	0.005
504.7689	-0.0048
504.9674	0.0007
505.1658	0.0011
505.3643	0.0097
505.5628	0.0167
505.7612	0.0096
505.9597	0.0008
506.1581	0.0039
506.3565	0.0031
506.5549	0.003
506.7532	-0.0071
506.9516	0.0095
507.1499	0.0102
507.3482	-0.0065
507.5465	0.0046
507.7448	-0.0004
507.9431	0.0082
508.1414	0.0032
508.3396	0.0009
508.5379	0.0002
508.7361	0.0046
508.9343	0.0076
509.1325	0.0006
509.3306	0.0062
509.5288	-0.0039
509.7269	0.0124
509.9251	0.0104
510.1232	0.013
510.3213	0.0018
510.5193	0.0054
510.7174	-0.0085
510.9154	0.0124
511.1135	0.0033
511.3115	0.0037
511.5095	0.0045
511.7075	0.0069
511.9055	0.0034
512.1034	-0.0053
512.3014	0.0039
512.4993	0.0067
512.6972	-0.0003
512.8951	0.0086
513.093	0.0049
513.2908	0.0151
513.4887	0.0033
513.6865	0.0102
513.8844	0.004
514.0822	0.0063
514.2799	0.0075
514.4777	0.0058
514.6755	0.004
514.8732	0.0043
515.0709	0.0093
515.2687	-0.0022
515.4664	0.0024
515.664	0.0095
515.8617	0.0068
516.0594	-0.0014
516.257	0.0101
516.4546	0.0172
516.6522	0.007
516.8498	0.0073
517.0474	0.0148
517.2449	-0.0035
517.4425	0.0054
517.64	-0.0035
517.8375	0.0151
518.035	-0.0019
518.2325	-0.0019
518.43	0.0064
518.6274	-0.0054
518.8249	0.0047
519.0223	0.014
519.2197	0.0048
519.4171	-0.0001
519.6145	0.0144
519.8118	-0.0048
520.0092	0.0082
520.2065	0.0131
520.4038	0.0026
520.6011	0.006
520.7984	0.003
520.9956	0.01
521.1929	0.0063
521.3901	0.0126
521.5874	0.0097
521.7846	-0.0019
521.9818	0.0089
522.1789	-0.0042
522.3761	0.0122
522.5732	0.0071
522.7704	-0.0011
522.9675	-0.0038
523.1646	-0.0045
523.3617	0.0011
523.5587	0.003
523.7558	0.0064
523.9528	0.0092
524.1498	0.0026
524.3468	0.0002
524.5438	0.0019
524.7408	0.0032
524.9378	0.0125
525.1347	0.0035
525.3316	-0.002
525.5285	-0.0006
525.7254	0.0044
525.9223	0.0191
526.1192	0.0113
526.316	0.0103
526.5129	0.0054
526.7097	0.0036
526.9065	0.0092
527.1033	0.0061
527.3	0.0062
527.4968	0.0098
527.6935	-0.0055
527.8903	0.0024
528.087	0.0004
528.2837	0.0135
528.4804	-0.0002
528.677	-0.0003
528.8737	0.0045
529.0703	-0.0072
529.2669	0.0055
529.4635	0.0043
529.6601	-0.003
529.8567	-0.0008
530.0532	-0.0065
530.2498	0.005
530.4463	-0.0005
530.6428	0.0142
530.8393	0.014
531.0358	-0.0007
531.2322	0.0002
531.4287	0.0065
531.6251	0.0012
531.8215	-0.0078
532.0179	0.0114
532.2143	0.001
532.4107	0.0059
532.607	-0.0025
532.8034	-0.0044
532.9997	-0.0016
533.196	-0.0029
533.3923	0.0066
533.5886	0.0006
533.7848	0.0026
533.9811	-0.0009
534.1773	0.0007
534.3735	0.0024
534.5697	-0.0016
534.7659	0.0079
534.9621	0.0037
535.1582	0.0134
535.3544	0.01
535.5505	0.016
535.7466	0.009
535.9427	0.005
536.1387	0.0019
536.3348	0.0002
536.5308	0.0055
536.7269	-0.0016
536.9229	-0.0044
537.1189	0.0073
537.3148	0.0052
537.5108	0.0015
537.7068	0.0155
537.9027	-0.0041
538.0986	0.0092
538.2945	0.0007
538.4904	0.0029
538.6863	0.001
538.8821	0.0112
539.078	0.0027
539.2738	0.0048
539.4696	-0.0003
539.6654	0.002
539.8611	0.0062
540.0569	0.011
540.2526	0.0103
540.4484	0.0007
540.6441	0.0181
540.8398	0.0104
541.0355	-0.0024
541.2311	0.0013
541.4268	0.0135
541.6224	0.0081
541.818	0.0065
542.0136	0.0105
542.2092	0.0035
542.4048	0.0028
542.6003	0.0122
542.7959	0.0092
542.9914	0.0006
543.1869	0.0025
543.3824	-0.0051
543.5779	0.0154
543.7734	0.0155
543.9688	0.0005
544.1642	-0.0007
544.3596	0.0036
544.555	-0.0016
544.7504	0.0143
544.9458	0.0049
545.1411	0.0022
545.3365	0.0062
545.5318	0.004
545.7271	0.0126
545.9224	-0.0025
546.1177	0.0029
546.3129	-0.0047
546.5081	0.003
546.7034	-0.0019
546.8986	0.0037
547.0938	0.0016
547.289	0.0159
547.4841	0.0068
547.6793	0.0114
547.8744	0.008
548.0695	0.0012
548.2646	0.0072
548.4597	-0.0036
548.6548	0.015
548.8498	0.0091
549.0448	-0.001
549.2399	0.0147
549.4349	0.0121
549.6298	0.0115
549.8248	0.0024
550.0198	0.0118
550.2147	0.0051
550.4096	-0.002
550.6045	0.0051
550.7994	0.0066
550.9943	0.0136
551.1892	-0.0102
551.384	0.0143
551.5788	0.0059
551.7737	0.0005
551.9685	0.0158
552.1632	0.0018
552.358	0.0051
552.5528	0.0038
552.7475	0.0137
552.9422	0.0033
553.1369	0.0087
553.3316	0.0035
553.5263	0.0092
553.7209	0.009
553.9156	0.0017
554.1102	0.0103
554.3048	0.0017
554.4994	0.0071
554.694	0.0024
554.8885	0.0045
555.0831	0.0055
555.2776	0.0079
555.4721	-0.0005
555.6666	-0.0009
555.8611	0.0021
556.0555	-0.0014
556.25	-0.0026
556.4444	-0.0077
556.6388	-0.0113
556.8332	0.0131
557.0276	-0.0012
557.222	0.0031
557.4163	0.011
557.6107	0.0087
557.805	0.0006
557.9993	0.0038
558.1936	0.0034
558.3879	0.0093
558.5821	-0.0017
558.7764	-0.0064
558.9706	0.0051
559.1648	0.0096
559.359	-0.0064
559.5532	0.0001
559.7473	-0.0011
559.9415	0.0031
560.1356	0.0143
560.3297	-0.0046
560.5238	0.0056
560.7179	0.0016
560.9119	0.0071
561.106	-0.003
561.3	0.012
561.494	-0.0018
561.688	-0.0034
561.882	-0.0034
562.076	0.0089
562.2699	0.0051
562.4639	0.019
562.6578	0.0075
562.8517	0.0092
563.0456	0.0031
563.2395	0.0033
563.4333	0.0019
563.6272	0.0068
563.821	0.0019
564.0148	-0.0063
564.2086	-0.0013
564.4024	0.0109
564.5961	0.0046
564.7899	0.0099
564.9836	0.0038
565.1773	0.0081
565.371	0.0102
565.5647	0.0086
565.7584	0.0117
565.952	0.0085
566.1456	-0.0001
566.3393	0.0077
566.5329	0.0001
566.7264	0.0025
566.92	0.0011
567.1136	-0.0043
567.3071	-0.0055
567.5006	0.0114
567.6941	0.0051
567.8876	-0.0009
568.0811	0.0163
568.2745	0.001
568.468	0.0062
568.6614	0.0075
568.8548	0.0096
569.0482	0.0061
569.2416	-0.0017
569.4349	0.0046
569.6283	-0.0014
569.8216	0.0035
570.0149	0.003
570.2082	0.0128
570.4015	-0.0001
570.5947	0.0006
570.788	0.0081
570.9812	0.0056
571.1744	0.0035
571.3676	0.0007
571.5608	-0.0005
571.754	0.0081
571.9471	0.0056
572.1402	0.007
572.3333	0.0025
572.5264	0.0025
572.7195	0.0046
572.9126	0.0037
573.1057	0.0047
573.2987	-0.0021
573.4917	0.0056
573.6847	0.0041
573.8777	0.0075
574.0707	0.0032
574.2636	0.0038
574.4566	-0.0018
574.6495	-0.0003
574.8424	0.004
575.0353	0.0075
575.2281	0.0069
575.421	0.0004
575.6138	0.0025
575.8067	0.0028
575.9995	0.0017
576.1923	0.0014
576.385	0.0009
576.5778	0.0046
576.7706	0.0029
576.9633	0.005
577.156	-0.0031
577.3487	0.0038
577.5414	0.0016
577.734	0.0008
577.9267	0.0049
578.1193	0.0038
578.3119	-0.0001
578.5045	0.0005
578.6971	-0.0017
578.8897	-0.0003
579.0822	0.0083
579.2747	0.0009
579.4673	0.0033
579.6598	0.0021
579.8522	0.0027
580.0447	0.0043
580.2372	0.0058
580.4296	0.0093
580.622	0.003
580.8144	0.0049
581.0068	0.0027
581.1992	0.0039
581.3915	0.0002
581.5839	0.003
581.7762	0.0018
581.9685	0.0019
582.1608	0.0022
582.353	0.0015
582.5453	0.0053
582.7375	0.0047
582.9298	-0.0033
583.122	0.0037
583.3142	0.0044
583.5063	0.0053
583.6985	-0.0001
583.8906	0.0028
584.0827	-0.0005
584.2749	-0.0006
584.4669	0.0017
584.659	0.0029
584.8511	0.0069
585.0431	0.0021
585.2352	0.0008
585.4272	0.0027
585.6192	0.0038
585.8111	0.0002
586.0031	0.0007
586.195	0.001
586.387	-0.0012
586.5789	0.0032
586.7708	0.0029
586.9627	0.0057
587.1545	0.0021
587.3464	0.0065
587.5382	0.0063
587.73	0.0084
587.9218	-0.0007
588.1136	-0
588.3053	0.0043
588.4971	0.005
588.6888	0.0046
588.8805	0.0024
589.0722	0.0051
589.2639	0.0068
589.4556	0.0056
589.6472	0.0044
589.8389	0.0067
590.0305	-0.0001
590.2221	0.0071
590.4137	-0.004
590.6052	0.0065
590.7968	0.009
590.9883	0.0039
591.1798	-0.0018
591.3713	0.0034
591.5628	0.0049
591.7543	0.0025
591.9458	0.0002
592.1372	0.0062
592.3286	0.0031
592.52	0.0036
592.7114	0.008
592.9028	0.0063
593.0941	0.0006
593.2855	0.0017
593.4768	0.0117
593.6681	0.0037
593.8594	0.003
594.0506	0.0031
594.2419	0.0013
594.4331	0.0016
594.6244	0.0029
594.8156	-0.0039
595.0067	-0.0009
595.1979	-0.0031
595.3891	0.0037
595.5802	0.0018
595.7713	0.0057
595.9624	0.0058
596.1535	-0.0026
596.3446	0.0005
596.5357	0.0073
596.7267	-0.0029
596.9177	0.0036
597.1087	-0.0021
597.2997	0.0016
597.4907	-0.0074
597.6817	0.0064
597.8726	0.0076
598.0635	-0.0017
598.2544	0.0016
598.4453	0.0054
598.6362	0.0008
598.827	-0.002
599.0179	0.0036
599.2087	0.0011
599.3995	0.0044
599.5903	0.0104
599.7811	0.007
599.9718	0.0034
600.1626	-0.0001
600.3533	0.0043
600.544	0.0058
600.7347	0.0012
600.9254	0.0123
601.116	0.0075
601.3067	0.001
601.4973	0.0049
601.6879	0.0108
601.8785	0.0089
602.0691	0.0051
602.2596	0.0003
602.4502	0.0032
602.6407	0.0032
602.8312	0
603.0217	0.0072
603.2122	0.0015
603.4027	0.0045
603.5931	-0.0016
603.7835	0.0038
603.9739	-0.0012
604.1643	0.0061
604.3547	0.0078
604.5451	0.01
604.7354	-0.0028
604.9257	-0.0008
605.116	-0.0043
605.3063	0.0082
605.4966	-0.0009
605.6869	0.0126
605.8771	0.005
606.0673	0.0025
606.2575	-0.0036
606.4477	0.0063
606.6379	0.0059
606.8281	0.0014
607.0182	0.0046
607.2083	-0.0025
607.3985	-0.0015
607.5885	0.0006
607.7786	0.0017
607.9687	0.0055
608.1587	0.0014
608.3488	0.0017
608.5388	-0.0036
608.7288	-0.0021
608.9187	0.0058
609.1087	0.0048
609.2986	0.009
609.4886	-0.0014
609.6785	0.0059
609.8684	-0.0032
610.0582	-0.0007
610.2481	-0.0028
610.4379	0.0051
610.6278	-0.0012
610.8176	0.0107
611.0074	0.0037
611.1971	0.0064
611.3869	0.0066
611.5766	0.0026
611.7664	0.0041
611.9561	0.0057
612.1458	0.0074
612.3354	0.0035
612.5251	-0.0015
612.7147	0.0006
612.9044	-0.0057
613.094	0.001
613.2836	-0.0013
613.4731	0.0054
613.6627	0.0071
613.8522	0.0089
614.0417	-0.001
614.2313	0.0012
614.4207	0.0025
614.6102	0.0103
614.7997	0.0101
614.9891	0.0052
615.1785	-0.0023
615.3679	0.0039
615.5573	0.0002
615.7467	-0.0034
615.9361	0.0012
616.1254	0.0101
616.3147	0.0044
616.504	-0.0004
616.6933	0.008
616.8826	0.0032
617.0718	0.0044
617.2611	-0.0044
617.4503	-0.0038
617.6395	0.0111
617.8287	0.0034
618.0179	0.0013
618.207	0.0149
618.3961	-0.0005
618.5853	0.0019
618.7744	0.013
618.9634	0.0112
619.1525	-0.0032
619.3416	-0.0006
619.5306	0.0062
619.7196	0.0165
619.9086	-0.0036
620.0976	-0.0044
620.2866	0.0033
620.4755	-0.0015
620.6645	0.0121
620.8534	0.01
621.0423	0.0083
621.2312	0.0043
621.42	0.0031
621.6089	0.0039
621.7977	0.0099
621.9865	0.0025
622.1753	-0.0038
622.3641	-0.0135
622.5529	-0.0053
622.7416	-0.0036
622.9303	0.0051
623.1191	0.0072
623.3078	-0.0011
623.4964	-0.0009
623.6851	-0.0084
623.8737	-0.0034
624.0624	-0.0086
624.251	-0.0016
624.4396	0.001
624.6282	0.008
624.8167	-0.0029
625.0053	0.0056
625.1938	0.0044
625.3823	0.0024
625.5708	-0.0056
625.7593	0.0014
625.9477	0.0106
626.1362	-0.004
626.3246	0.015
626.513	-0.0041
626.7014	-0.002
626.8898	0.0175
627.0781	0.0154
627.2665	0.0068
627.4548	-0.0087
627.6431	0.016
627.8314	0.0137
628.0197	0.0014
628.2079	0.0139
628.3962	0.001
628.5844	0.0083
628.7726	0.0078
628.9608	0.0186
629.1489	0.0078
629.3371	-0.0023
629.5252	0.014
629.7134	-0.0001
629.9015	0.0026
630.0895	-0.0177
630.2776	0.0113
630.4657	0.0126
630.6537	0.0063
630.8417	-0.0016
631.0297	0.0126
631.2177	0.007
631.4057	0.0017
631.5936	-0.0065
631.7815	0.0072
631.9695	0.021
632.1574	0.0149
632.3452	-0.0019
632.5331	0.0115
632.7209	0.004
632.9088	0.0024
633.0966	0.0163
633.2844	0.0064
633.4722	0.0007
633.6599	0.0223
633.8477	0.0106
634.0354	0.0013
634.2231	-0.0105
634.4108	-0.0007
634.5985	0.0191
634.7861	0.005
634.9738	0.0048
635.1614	0.0075
635.349	-0.0021
635.5366	0.0133
635.7242	0.0041
635.9117	0.0184
636.0993	0.0058
636.2868	-0.0027
636.4743	0.0116
636.6618	-0.0178
636.8492	0.0096
637.0367	0.0067
637.2241	0.0021
637.4115	0.0308
637.5989	0.0132
637.7863	0.0211
637.9737	0.0125
638.161	-0.0003
638.3484	-0.0012
638.5357	0.013
638.723	0.0219
638.9103	-0.0091
639.0975	0.0007
639.2848	0.0119
639.472	0.0207
639.6592	-0.0122
639.8464	0.009
640.0336	0.0048
640.2208	-0.0043
640.4079	0.0055
640.595	-0.0113
640.7821	0.0065
640.9692	-0.0058
641.1563	0.0153
641.3434	0.0074
641.5304	0.0263
641.7174	0.012
641.9044	0.0114
642.0914	0.0126
642.2784	0.0028
642.4653	0.0034
642.6523	-0.0031
642.8392	-0.0002
643.0261	0.0178
643.213	0.0033
643.3999	0.0139
643.5867	0.0233
643.7735	0.0041
643.9604	0.0282
644.1472	0.0062
644.3339	0.0058
644.5207	0.0004
644.7075	0.0082
644.8942	0.0047
645.0809	0.0016
645.2676	-0.0092
645.4543	0.0132
645.6409	0.0041
645.8276	0.0178
646.0142	0.0134
646.2008	-0
646.3874	-0.0053
646.574	0.0222
646.7605	0.0196
646.9471	-0.0061
647.1336	-0.0157
647.3201	0.0129
647.5066	0.0308
647.6931	-0.001
647.8795	0.0115
648.0659	0.0011
648.2524	0.0115
648.4388	0.0158
648.6252	0.0024
648.8115	0.0188
648.9979	0.0092
649.1842	-0.0045
649.3705	0.0083
649.5568	-0.0038
649.7431	0.0196
649.9294	0.0222
650.1156	0.0103
650.3018	0.0024
650.488	0.0025
650.6742	0.0272
650.8604	0.0022
651.0466	0.0019
651.2327	0.0107
651.4188	0.0186
651.6049	0.0136
651.791	-0.0004
651.9771	0.0054
652.1632	0.006
652.3492	-0.0008
652.5352	0.0086
652.7212	0.0087
652.9072	0.0018
653.0932	0.0055
653.2791	0.0198
653.465	0.0123
653.651	0.0041
653.8369	0.0033
654.0227	-0.004
654.2086	-0.0119
654.3944	0.0179
654.5803	0.0076
654.7661	0.0123
654.9519	-0.0016
655.1377	0.0002
655.3234	0.0002
655.5092	0.0002
655.6949	0.0002
655.8806	0.0002
656.0663	0.0002
656.2519	0.0002
656.4376	0.0002
656.6232	0.0002
656.8088	0.0002
656.9945	0.0002
657.18	0.0002
657.3656	0.0002
657.5511	0.0002
657.7367	0.0002
657.9222	0.0002
658.1077	0.0002
658.2932	0.0002
658.4786	0.0002
658.6641	0.0002
658.8495	0.0002
659.0349	0.0002
659.2203	0.0002
659.4057	0.0002
659.591	0.0548
659.7764	0.0243
659.9617	-0.0079
660.147	-0.0112
660.3323	-0.0002
660.5176	-0.0018
660.7028	-0.0153
660.888	0.0216
661.0733	0.0239
661.2585	-0.0148
661.4436	0.0258
661.6288	0.0094
661.8139	-0.008
661.9991	-0.0218
662.1842	-0.0076
662.3693	0.0267
662.5544	0.0081
662.7394	0.024
662.9245	0.0173
663.1095	-0.0131
663.2945	-0.0233
663.4795	-0.0057
663.6644	0.0042
663.8494	0.0153
664.0343	0.0187
664.2193	-0.0013
664.4042	0.008
664.589	0.0216
664.7739	0.0094
664.9587	-0.0076
665.1436	-0.0175
665.3284	0.0078
665.5132	-0.0008
665.698	0.0033
665.8827	0.0154
666.0675	-0.0109
666.2522	0.0291
666.4369	0.0052
666.6216	0.0226
666.8063	-0.0077
666.9909	0.0088
667.1756	0.0097
667.3602	0.0082
667.5448	0.0072
667.7294	0.0019
667.9139	-0.0035
668.0985	-0.0094
668.283	-0.0041
668.4675	0.0415
668.652	-0.0003
668.8365	0.0073
669.0209	0.0029
669.2054	0.0235
669.3898	0.0141
669.5742	0.024
669.7586	0.0115
669.943	-0.0025
670.1273	0.0035
670.3117	0.0161
670.496	-0.008
670.6803	0.0032
670.8646	-0.003
671.0488	0.0333
671.2331	-0.0181
671.4173	0.0167
671.6015	0.0067
671.7857	-0.0027
671.9699	0.0152
672.1541	-0.0026
672.3382	-0.0005
672.5223	0.0036
672.7064	0.0031
672.8905	-0.0082
673.0746	0.0117
673.2587	0.0359
673.4427	0.0183
673.6267	0.0134
673.8107	0.026
673.9947	0.0072
674.1787	0.0021
674.3626	0.006
674.5465	0.0096
674.7304	-0.0016
674.9143	0.0064
675.0982	-0.0009
675.2821	0.0137
675.4659	0.0003
675.6497	0.005
675.8335	-0.0077
676.0173	-0.0006
676.2011	0.0223
676.3849	0.0187
676.5686	0.0329
676.7523	0.0079
676.936	-0.0056
677.1197	0.0066
677.3034	0.0256
677.487	0.0149
677.6706	0.0135
677.8542	0.0072
678.0378	0.0107
678.2214	-0.0053
678.405	-0.0076
678.5885	0.0168
678.772	0.0024
678.9555	0.0046
679.139	0.0137
679.3225	0.0028
679.5059	0.0144
679.6894	0.0067
679.8728	-0.0037
680.0562	0.0112
680.2395	0.0064
680.4229	-0.0057
680.6062	0.0044
680.7896	-0.0168
680.9729	0.0189
681.1562	0.0016
681.3394	0.0073
681.5227	-0.0054
681.7059	-0.0057
681.8891	0.0118
682.0723	-0.0068
682.2555	0.0012
682.4387	0.0293
682.6218	0.0089
682.805	0.0083
682.9881	0.0203
683.1712	0.0143
683.3542	0.033
683.5373	0.0002
683.7203	0.008
683.9034	-0.0013
684.0864	0.0145
684.2694	-0.0057
684.4523	0.0143
684.6353	-0.0015
684.8182	-0.0117
685.0011	-0.001
685.184	0.0025
685.3669	0.0233
685.5498	0.0083
685.7326	0.0032
685.9154	-0.0046
686.0982	0.0336
686.281	0.0061
686.4638	0.0065
686.6465	-0.0045
686.8293	-0.0128
687.012	0.0067
687.1947	-0.0042
687.3774	0.0223
687.56	-0.0063
687.7427	0.0063
687.9253	-0.0194
688.1079	0.008
688.2905	-0.0066
688.4731	-0.0032
688.6556	0.0236
688.8382	-0.0124
689.0207	0.0038
689.2032	0.0115
689.3857	-0.0053
689.5681	0.003
689.7506	0.0392
689.933	-0.0016
690.1154	0.0103
690.2978	0.0084
690.4802	0.0298
690.6626	-0.0072
690.8449	0.0203
691.0272	0.0069
691.2095	-0.0136
691.3918	0.0074
691.5741	0.0146
691.7563	-0.0025
691.9386	0.0241
692.1208	-0.0068
692.303	0.0058
692.4852	-0.0075
692.6673	0.0113
692.8495	0.0071
693.0316	0.0218
693.2137	0.0238
693.3958	0.0024
693.5778	0.014
693.7599	0.0033
693.9419	-0.0049
694.1239	0.0125
694.3059	0.0312
694.4879	0.0091
694.6699	-0.0042
694.8518	0.0265
695.0337	0.014
695.2157	0.0348
695.3975	0.0116
695.5794	-0.0052
695.7613	0.0043
695.9431	-0.0159
696.1249	0.0117
696.3067	-0.0132
696.4885	0.0224
696.6703	0.0137
696.852	0.0032
697.0337	0.0194
697.2154	-0
697.3971	0.0147
697.5788	0.0166
697.7605	0.0092
697.9421	0.0034
698.1237	0.012
698.3053	-0.004
698.4869	0.0151
698.6685	-0.0048
698.85	0.0348
699.0315	0.0015
699.213	0.003
699.3945	-0.0084
699.576	0.0138
699.7575	0.0118
699.9389	0.0007
700.1203	0.017
700.3017	0.0147
700.4831	0.0243
700.6645	0.0267
700.8458	0.0076
701.0271	0.0571
701.2084	-0.0016
701.3897	-0.0056
701.571	-0
701.7523	0.0296
701.9335	0.0294
702.1147	0.0342
702.2959	-0.0031
702.4771	0.0167
702.6583	-0.001
702.8394	-0.0123
703.0205	0.0053
703.2016	-0.0117
703.3827	-0.028
703.5638	0.0107
703.7449	0.0189
703.9259	0.0124
704.1069	-0.0077
704.2879	0.0095
704.4689	0.0143
704.6499	0.0138
704.8308	0.006
705.0117	-0.0071
705.1927	-0.004
705.3735	-0.0034
705.5544	0.015
705.7353	-0.0059
705.9161	-0.0096
706.0969	0.024
706.2777	0.001
706.4585	0.019
706.6393	0.0086
706.82	0.0127
707.0007	0.0004
707.1815	-0.0085
707.3621	0.0345
707.5428	0.0098
707.7235	0.0012
707.9041	0.0136
708.0847	0.0089
708.2653	0.0103
708.4459	-0.0003
708.6265	-0.0373
708.807	-0.0089
708.9875	-0.0098
709.168	-0.0046
709.3485	0.0051
709.529	0.0407
709.7095	-0.0159
709.8899	0.0248
710.0703	0.0046
710.2507	0.0338
710.4311	-0.0114
710.6115	0.0268
710.7918	0.0323
710.9721	-0.0093
711.1524	0.0127
711.3327	0.0193
711.513	-0.0008
711.6932	0.0185
711.8735	0.0331
712.0537	-0.0008
712.2339	0.0122
712.4141	0.0175
712.5942	0.0003
712.7744	0.005
712.9545	0.0266
713.1346	0.0257
713.3147	0.0184
713.4947	-0.0055
713.6748	0.0208
713.8548	0.0162
714.0348	0.0258
714.2148	0.0098
714.3948	0.0121
714.5748	0.007
714.7547	0.0412
714.9346	0.0263
715.1145	0.027
715.2944	-0.0437
715.4743	0.0354
715.6541	-0.0052
715.834	0.0423
716.0138	0.012
716.1936	-0.0208
716.3733	0.0274
716.5531	0.0065
716.7328	0.0266
716.9126	0.0216
717.0923	-0.0292
717.2719	0.0242
717.4516	0.0362
717.6312	-0.0254
717.8109	0.0261
717.9905	0.0262
718.1701	0.0403
718.3496	-0.0059
718.5292	0.0204
718.7087	0.0234
718.8882	0.0314
719.0677	0.0156
719.2472	0.0065
719.4267	0.0189
719.6061	0.0183
719.7856	0.0128
719.965	-0.0206
720.1443	0.0155
720.3237	0.0256
720.5031	0.0092
720.6824	0.0119
720.8617	0.0168
721.041	0.0324
721.2203	-0.0202
721.3995	0.0011
721.5788	0.0238
721.758	-0.0017
721.9372	0.0172
722.1164	0.0008
722.2956	0.0057
722.4747	0.0247
722.6538	0.0048
722.8329	0.0193
723.012	0.0017
723.1911	-0.0034
723.3702	0.0334
723.5492	0.0047
723.7282	-0.019
723.9072	0.0303
724.0862	0.0136
724.2652	0.0148
724.4441	-0.0109
724.623	0.0371
724.8019	0.0064
724.9808	0.0055
725.1597	-0.0091
725.3385	0.0061
725.5174	0.0268
725.6962	0.0117
725.875	0.0161
726.0538	0.0098
726.2325	0.0252
726.4112	0.0022
726.59	-0.0122
726.7687	-0.0041
726.9474	0.0181
727.126	0.0131
727.3047	-0.02
727.4833	0.0377
727.6619	-0.0364
727.8405	-0.0031
728.0191	0.019
728.1976	0.0085
728.3762	0.0293
728.5547	0.0044
728.7332	0.0303
728.9116	0.0075
729.0901	0.0157
729.2686	0.006
729.447	0.0122
729.6254	-0.0007
729.8038	-0.0028
729.9821	-0.031
730.1605	-0.0107
730.3388	0.0029
730.5171	0.023
730.6954	-0.0197
730.8737	0.0002
731.0519	0.0194
731.2302	0.0274
731.4084	0.0132
731.5866	-0.0038
731.7648	-0.0012
731.9429	0.0144
732.1211	-0.0114
732.2992	0.0055
732.4773	-0.0126
732.6554	-0.0145
732.8335	0.0431
733.0115	0.0266
733.1896	0.0035
733.3676	0.0064
733.5456	0.0036
733.7235	-0.0064
733.9015	0.005
734.0794	-0.0032
734.2574	-0.0198
734.4353	0.0105
734.6131	0.0087
734.791	0.0221
734.9689	0.0124
735.1467	-0.0025
735.3245	0.0177
735.5023	0.0062
735.68	0.0071
735.8578	0.0167
736.0355	0.0277
736.2132	0.0145
736.3909	0.0088
736.5686	-0.0006
736.7463	-0.0138
736.9239	0.0112
737.1015	0.023
737.2791	0.0038
737.4567	0.0124
737.6343	-0.0053
737.8118	0.0096
737.9894	-0.0011
738.1669	0.005
738.3444	0.0229
738.5218	-0.0132
738.6993	0.0002
738.8767	0.0121
739.0541	-0.0023
739.2315	-0.0013
739.4089	0.0076
739.5863	0.0128
739.7636	-0.0004
739.9409	0.0197
740.1182	0.0042
740.2955	0.0027
740.4728	-0.0052
740.65	0.0042
740.8272	-0.0097
741.0044	-0.0151
741.1816	0.0572
741.3588	0.0054
741.5359	0.001
741.7131	0.0107
741.8902	0.0113
742.0673	-0.0315
742.2444	0.0397
742.4214	0.0249
742.5985	-0.0176
742.7755	0.0082
742.9525	-0.017
743.1295	-0.0036
743.3064	-0.0039
743.4834	0.0297
743.6603	0.0333
743.8372	-0.0392
744.0141	0.0395
744.191	0.0014
744.3678	-0.0357
744.5446	0.0095
744.7215	0.0227
744.8982	0.014
745.075	0.0506
745.2518	0.005
745.4285	0.0527
745.6052	-0.0474
745.7819	0.0339
745.9586	0.0118
746.1353	0.0289
746.3119	0.0311
746.4885	0.0167
746.6651	-0.0102
746.8417	0.0072
747.0183	0.0398
747.1948	0.0043
747.3714	-0.007
747.5479	0.0045
747.7244	-0.0134
747.9008	-0.0348
748.0773	0.0145
748.2537	0.0157
748.4301	-0.002
748.6065	0.0036
748.7829	-0.024
748.9593	0.0026
749.1356	0.0125
749.3119	0.0205
749.4882	0.0095
749.6645	0.0012
749.8408	0.0224
750.017	0.0422
750.1933	-0.0354
750.3695	0.0039
750.5457	-0.0007
750.7218	0.0038
750.898	-0.003
751.0741	-0.0117
751.2502	0.0172
751.4263	-0.0097
751.6024	-0.0023
751.7784	-0.0148
751.9545	0.0215
752.1305	0.0011
752.3065	-0.013
752.4825	0.0146
752.6584	-0.0116
752.8344	-0.0109
753.0103	-0.0145
753.1862	0.0304
753.3621	-0.0046
753.5379	-0.003
753.7138	-0.0024
753.8896	0.0103
754.0654	0.0007
754.2412	0.0205
754.417	0.0273
754.5927	0.0075
754.7685	-0.0082
754.9442	0.0135
755.1199	0.0232
755.2956	0.0246
755.4712	0.0063
755.6469	0.0072
755.8225	0.0064
755.9981	0.0277
756.1736	0.0074
756.3492	-0.0106
756.5248	0.0275
756.7003	-0.0029
756.8758	-0.0017
757.0513	0.0118
757.2267	0.0025
757.4022	-0.0104
757.5776	0.021
757.753	-0.0022
757.9284	-0.0081
758.1038	0.0268
758.2791	0.016
758.4545	-0.002
758.6298	0.0405
758.8051	0.0055
758.9803	0.0074
759.1556	-0.0117
759.3308	-0.0142
759.506	-0.007
759.6812	0.0011
759.8564	-0.0094
760.0316	-0.0057
760.2067	0.0261
760.3819	0.0016
760.557	-0.0004
760.732	-0.006
760.9071	0.0174
761.0821	-0.0174
761.2572	0.0134
761.4322	0.0287
761.6072	0.002
761.7821	-0.0219
761.9571	0.0138
762.132	0.0108
762.3069	0.0211
762.4818	0.0115
762.6567	0.0287
762.8316	-0.0038
763.0064	0.0108
763.1812	-0.0011
763.356	-0.0097
763.5308	0.0241
763.7055	-0.0141
763.8803	0.0003
764.055	0.0046
764.2297	-0.0079
764.4044	-0.0051
764.579	0.0121
764.7537	0.0162
764.9283	0.0061
765.1029	-0.017
765.2775	0.0186
765.4521	0.0131
765.6266	0.0085
765.8011	0.0044
765.9756	0.0309
766.1501	0.0055
766.3246	0.0152
766.4991	0.0292
766.6735	0.044
766.8479	0.0026
767.0223	0.0077
767.1967	0.0045
767.371	0.0162
767.5454	0.0432
767.7197	0.0256
767.894	-0.0044
768.0683	0.0113
768.2425	-0.0142
768.4168	0.0036
768.591	0.0131
768.7652	0.0169
768.9394	-0.0173
769.1135	-0.0005
769.2877	0.0166
769.4618	0.0364
769.6359	0.0231
769.81	0.0082
769.984	0.0125
770.1581	0.0274
770.3321	0.0136
770.5061	0.035
770.6801	0.0036
770.8541	-0.0035
771.028	0.0453
771.202	0.0132
771.3759	-0.002
771.5498	-0.0005
771.7236	0.0076
771.8975	0.0321
772.0713	0.0158
772.2451	-0.0073
772.4189	0.0412
772.5927	-0.0365
772.7665	-0.0229
772.9402	0.054
773.1139	0.0226
773.2876	0.0011
773.4613	0.016
773.635	0.0215
773.8086	0.0091
773.9822	0.0388
774.1558	0.0104
774.3294	-0.0055
774.503	0.0337
774.6765	0.0166
774.8501	-0.0135
775.0236	0.0237
775.1971	0.0349
775.3705	0.007
775.544	-0.0304
775.7174	0.0183
775.8908	0.0307
776.0642	0.0124
776.2376	0.0782
776.4109	0.0219
776.5843	-0.0079
776.7576	0.0198
776.9309	0.0793
777.1041	-0.0071
777.2774	-0.0289
777.4506	0.0112
777.6238	0.028
777.797	0.0164
777.9702	0.0375
778.1434	0.0327
778.3165	-0.005
778.4896	-0.0219
778.6627	-0.0027
778.8358	0.0052
779.0089	-0.0054
779.1819	0.0276
779.3549	0.0075
779.5279	-0.0185
779.7009	0.037
779.8739	0.0503
780.0468	0.0239
780.2197	0.026
780.3926	0.0099
780.5655	0.0116
780.7384	0.0046
780.9112	0.0331
781.0841	0.0336
781.2569	0.0132
781.4297	0.0119
781.6024	0.0157
781.7752	0.0178
781.9479	0.0687
782.1206	0.0249
782.2933	-0.0051
782.466	0.0302
782.6386	-0.0158
782.8113	0.004
782.9839	0.0059
783.1565	0.0361
783.329	0.0231
783.5016	0.0386
783.6741	-0.0091
783.8466	0.05
784.0191	0.0392
784.1916	-0.0224
784.3641	0.0243
784.5365	-0.0266
784.7089	-0.0474
784.8813	0.0541
785.0537	0.0484
785.2261	-0.0182
785.3984	0.0219
785.5707	0.0051
785.743	0.0626
785.9153	-0.011
786.0876	-0.0113
786.2598	-0.0097
786.432	0.0007
786.6042	0.057
786.7764	-0.008
786.9486	-0.0164
787.1207	0.0658
787.2928	0.0587
787.4649	-0.027
787.637	0.0198
787.8091	0.0052
787.9811	0.0049
788.1532	0.0104
788.3252	0.0105
788.4972	0.0145
788.6691	0.0302
788.8411	-0.0166
789.013	0.0191
789.1849	0.0007
789.3568	0.0152
789.5287	0.0618
789.7005	-0.0284
789.8723	-0.0386
790.0442	-0.0214
790.2159	-0.0011
790.3877	0.0619
790.5595	0.0125
790.7312	-0.006
790.9029	0.0198
791.0746	0.0102
791.2463	0.0069
791.4179	0.0646
791.5896	0.0159
791.7612	0.0193
791.9328	0.039
792.1044	0.0114
792.2759	-0.0026
792.4474	0.0226
792.619	0.0268
792.7905	-0.0057
792.9619	0.0125
793.1334	0.016
793.3048	0.0411
793.4762	-0.0076
793.6476	-0.0357
793.819	-0.0164
793.9904	-0.0138
794.1617	0.0043
794.333	0.0183
794.5043	0.0383
794.6756	0.0052
794.8469	0.0315
795.0181	0.0333
795.1893	0.0535
795.3605	0.0136
795.5317	0.0329
795.7029	-0.0051
795.874	0.0122
796.0452	0.0609
796.2163	0.0833
796.3873	0.0731
796.5584	-0.022
796.7294	-0.006
796.9005	0.08
797.0715	-0.0201
797.2425	0.0208
797.4134	0.0503
797.5844	0.074
797.7553	-0.0187
797.9262	0.1305
798.0971	0.0806
798.2679	-0.0167
798.4388	0.029
798.6096	-0.0162
798.7804	0.0048
798.9512	0.0276
799.122	-0.0014
799.2927	0.0451
799.4635	-0.0001
799.6342	-0.024
799.8049	0.0567
799.9755	-0.0113
800.1462	0.0251
800.3168	0.0665
800.4874	-0.0089
800.658	0.0241
800.8286	-0.0271
800.9991	0.0308
801.1696	0.0442
801.3402	0.0059
801.5106	-0.0126
801.6811	0.033
801.8516	0.0902
802.022	0.027
802.1924	0.0413
802.3628	0.0282
802.5332	0.1118
802.7035	0.093
802.8739	-0.0782
803.0442	0.0706
803.2145	0.0631
803.3847	0.1286
803.555	0.0051
803.7252	0.0447
803.8954	0.0322
804.0656	-0.0135
804.2358	0.073
804.4059	0.1633
804.5761	0.0563
804.7462	0.0491
804.9163	0.0732
805.0864	0.0399
805.2564	-0.0223
805.4264	0.0167
805.5965	0.0585
805.7665	0.0233
805.9364	-0.0093
806.1064	-0.0229
806.2763	0.0232
806.4462	0.0777
806.6161	0.051
806.786	-0.0031
806.9559	-0.0191
807.1257	0.0133
807.2955	-0.0347
807.4653	0.0626
807.6351	0.0329
807.8048	0.0676
807.9746	0.0024
808.1443	-0.0081
808.314	0.0365
808.4837	0.0895
808.6533	0.0495
808.8229	0.027
808.9926	0.1178
809.1622	-0.0361
809.3317	0.0138
809.5013	-0.0002
809.6708	-0.0051
809.8403	0.0097
810.0098	0.1127
810.1793	0.0392
810.3488	-0.0335
810.5182	0.1468
810.6876	0.1243
810.857	0.0691
811.0264	0.0707
811.1958	0.1432
811.3651	0.034
811.5344	0.1083
811.7037	0.0438
811.873	0.0907
812.0422	0.1013
812.2115	-0.0359
812.3807	-0.1359
812.5499	0.021
812.7191	-0.0693
812.8882	-0.0505
813.0574	0.0989
813.2265	0.0426
813.3956	-0.0165
813.5646	-0.0453
813.7337	0.0163
813.9027	0.004
814.0718	-0.0126
814.2407	-0.0236
814.4097	0.1291
814.5787	0.1262
814.7476	0.0507
814.9165	0.085
815.0854	-0.0634
815.2543	-0.0274
815.4232	0.1293
815.592	0.095
815.7608	-0.0044
815.9296	0.0563
816.0984	0.0325
816.2671	-0.2865
816.4359	0.0451
816.6046	0.1919
816.7733	0.0703
816.942	-0.0055
817.1106	0.0138
817.2793	-0.0743
817.4479	0.0117
817.6165	-0.0094
817.785	0.0869
817.9536	-0.0932
818.1221	0.0082
818.2906	0.0274
818.4591	0.0747
818.6276	-0.017
818.7961	0.0094
818.9645	0.1432
819.1329	0.3106
819.3013	0.0226
819.4697	-0.0518
819.638	-0.0136
819.8064	0.0785
819.9747	0.0785
820.143	-0.0418
820.3113	0.0157
820.4795	0.0052
820.6477	0.1527
820.816	0.0576
820.9842	0.0522
821.1523	0.054
821.3205	0.1203
821.4886	-0.028
821.6567	-0.0522
821.8248	0.1295
821.9929	-0.1467
822.1609	-0.0036
822.329	0.0179
822.497	0.1952
822.665	-0.0314
822.833	0.0111
823.0009	0.2552
823.1688	0.6017
823.3367	-0.0272
823.5046	0.125
823.6725	-0.1122
823.8404	0.2788
824.0082	0.1112
824.176	0.0362
824.3438	0.1986
824.5116	0.1796
824.6793	0.136
824.847	0.0173
825.0147	0.0395
825.1824	0.2445
825.3501	0.2327
825.5177	0.2166
825.6854	-0.1618
825.853	0.0798
826.0206	0.0334
826.1881	0.3904
826.3557	0.1407
826.5232	0.1828
826.6907	0.0999
826.8582	0.1166
827.0257	0.2323
827.1931	0.1053
827.3605	-0.0739
827.528	-0.0056
827.6953	-0.2033
827.8627	0.0884
828.03	0.1839
828.1974	0.1648
828.3647	0.1985
828.532	-0.0191
828.6992	0.1384
828.8665	0.0517
829.0337	0.1956
829.2009	-0.0415
829.3681	0.0574
829.5352	-0.2203
829.7024	0.1369
829.8695	0.1471
830.0366	0.2901
830.2037	0.0889
830.3707	0.1627
830.5378	0.3681
830.7048	0.081
830.8718	-0.0296
831.0388	0.166
831.2057	0.6639
831.3727	-0.2072
831.5396	-0.0996
831.7065	-0.6961
831.8734	0.1735
832.0402	0.3517
832.2071	-0.7191
832.3739	-0.001
832.5407	-1.81
832.7075	0.443
832.8742	0.0681
833.041	-0.0334
833.2077	0.3025
833.3744	-0.0715
833.541	-0.0882
833.7077	0.121
833.8743	0.0725
834.0409	0.2385
834.2075	0.1828
834.3741	0.4742
834.5407	0.0842
834.7072	0.1081
834.8737	0.1599
835.0402	0.77
835.2067	0.197
835.3731	-0.0512
835.5395	0.1583
835.706	0.1286
835.8723	-0.1733
836.0387	0.4005
836.2051	-0.0243
836.3714	0.4112
836.5377	0.2951
836.704	0.1565
836.8703	-0.0227
837.0365	-0.8657
837.2027	0.4013
837.3689	0.577
837.5351	0.6301
837.7013	-0.216
837.8674	-0.1724
838.0335	-0.0851
838.1997	0.4087
838.3657	-0
838.5318	0.2759
838.6978	-0
838.8639	-0.3293
839.0299	-0.058
839.1958	0.1585
839.3618	-0
839.5277	0.5004
839.6937	0.0316
839.8596	-0.1956
840.0254	-0.1548
840.1913	-0.096
840.3571	0.075
840.523	-0
840.6888	0.144
840.8545	-0.5144
841.0203	0.027
841.186	0.2955
841.3517	0.0182
841.5174	0.979
841.6831	0.0195
841.8488	0.0927
842.0144	-0.0198
842.18	0.5924
842.3456	-0.3725
842.5112	-1.1569
842.6767	0.5605
842.8422	-0
843.0077	0.6677
843.1732	-0
843.3387	-0
843.5042	-0
843.6696	-0
843.835	-0.2582
844.0004	-0.2828
844.1657	-0
844.3311	-0
844.4964	-0
844.6617	0.8373
844.827	0.5225
844.9923	0.1913
845.1575	-0
845.3227	-0.3159
845.4879	0.506
845.6531	0.2201
845.8183	0.5111
845.9834	0.8079
846.1485	1.0375
846.3136	0.0478
846.4787	-0
846.6438	-0.2403
846.8088	-0
846.9738	-0.0921
847.1388	0.3918
847.3038	0.3172
847.4687	1.3678
847.6337	0.3556
847.7986	0.1497
847.9635	0.0684
848.1284	-0
848.2932	0.0317
848.458	-0
848.6228	0.2922
848.7876	0.3227
848.9524	-0
849.1172	-1.3367
849.2819	-0
849.4466	-0
849.6113	-0.0749
849.7759	-0
849.9406	0.23
850.1052	-0.685
850.2698	-0
850.4344	-0
850.599	-0
850.7635	0.3119
850.928	0.1252
851.0925	0.3697
851.257	-0.0011
851.4215	-0
851.5859	1.2322
851.7503	-0.0998
851.9147	-0.5051
852.0791	0.4103
852.2434	0.8855
852.4078	-0
852.5721	0.4556
852.7364	-0.0311
852.9007	-0.1017
853.0649	-0
853.2291	-0
853.3934	-0.5028
853.5575	-0.1382
853.7217	-0
853.8859	-0.0034
854.05	-0.1969
854.2141	-0
854.3782	-0.2703
854.5423	0.0788
854.7063	-0.2049
854.8703	0.0913
855.0343	0.035
855.1983	-0.1825
855.3623	0.0625
855.5262	0.2452
855.6901	-0
855.854	0.3025
856.0179	0.1469
856.1818	-0
856.3456	0.2091
856.5094	-0
856.6732	0.4172
856.837	-1.1862
857.0008	-0
857.1645	1.468
857.3282	-0.4121
857.4919	0.3708
857.6556	-0.4049
857.8192	0.4618
857.9828	-0.0538
858.1465	-0.0261
858.31	-0.4306
858.4736	-0.8294
858.6372	-0
858.8007	-0.3939
858.9642	-0.0283
859.1277	0.1731
859.2911	-0.4058
859.4546	-1.3502
859.618	-0.0007
859.7814	-0
859.9448	1.3958
860.1081	-0.3397
860.2715	-0
860.4348	0.7728
860.5981	0.1878
860.7614	0.3105
860.9246	0.3043
861.0879	1.1604
861.2511	-0.9712
861.4143	-0.2767
861.5774	-0.2394
861.7406	-0
861.9037	-0.2363
862.0668	-0.6099
862.2299	0.1203
862.393	0.35
862.556	-0
862.7191	0.0263
862.8821	0.0691
863.0451	0.0609
863.208	-0
863.371	-0
863.5339	0.5098
863.6968	0.3146
863.8597	-0
864.0225	-0
864.1854	0.116
864.3482	-0.4724
864.511	1.0107
864.6737	0.4006
864.8365	0.0171
864.9992	-0
865.1619	-0.3947
865.3246	-2.1153
865.4873	0.2109
865.65	-0
865.8126	-0
865.9752	0.4528
866.1378	0.0612
866.3004	-0.184
866.4629	-1.774
866.6254	-0
866.7879	0.0198
866.9504	-0.1679
867.1129	-0.0025
867.2753	-0.0326
867.4377	-0.24
867.6001	-0.6106
867.7625	-0.2064
867.9249	-0
868.0872	-0.2129
868.2495	-0
868.4118	-0
868.5741	0.7118
868.7363	-0.5913
868.8986	-0
869.0608	-0
869.223	-0.293
869.3851	1.3473
869.5473	0.4329
869.7094	0.8012
869.8715	-0.5814
870.0336	0.2916
870.1957	-0.7527
870.3577	1.0759
870.5197	0.1943
870.6817	-0.1668
870.8437	-0
871.0057	0.3392
871.1676	0.3714
871.3295	0.1477
871.4914	-1.3945
871.6533	-0.6383
871.8151	-0
871.977	-0
872.1388	-0
872.3006	-0.3262
872.4623	-0
872.6241	-0
872.7858	-0
872.9475	0.4544
873.1092	-0.2178
873.2709	-0
873.4325	-0.9031
873.5941	-0.1316
873.7557	-0
873.9173	-0.0012
874.0789	0.0301
874.2404	-0
874.4019	0.0566
874.5634	-0
874.7249	-0
874.8863	0.514
875.0478	-0.0513
875.2092	0.9338
875.3706	0.1797
875.5319	-0
875.6933	1.6616
875.8546	-0
876.0159	0.2953
876.1772	-0.1211
876.3385	0.7273
876.4997	-0
876.6609	-0
876.8221	-0
876.9833	-0.2551
877.1445	0.0495
877.3056	-0
877.4667	-1.1506
877.6278	-0
877.7889	-0.2491
877.9499	0.485
878.111	-0.7888
878.272	-0.1431
878.433	0.1255
878.5939	-0.269
878.7549	1.468
878.9158	0.2058
879.0767	0.1063
879.2376	-0
879.3984	-0
879.5593	-0
879.7201	-0.6601
879.8809	0.9978
880.0417	0.1361
880.2024	1.1132
880.3632	0.842
880.5239	0.2284
880.6846	0.3694
880.8452	0.0143
881.0059	-0
881.1665	0.601
881.3271	0.1576
881.4877	0.2534
881.6483	-0
881.8088	-0.7079
881.9693	-0
882.1298	-0
882.2903	-0
