Data from D4ACN5uM460nmA_Absorbance_13-05-41-060.txt Node
Date: Fri Feb 21 13:05:41 GMT 2025
User: LASERRRRR
Spectrometer: FLMT03099
Trigger mode: 0
Integration Time (sec): 1.500000E-2
Scans to average: 1
Electric dark correction enabled: true
Nonlinearity correction enabled: false
Boxcar width: 0
XAxis mode: Wavelengths
Number of Pixels in Spectrum: 3648
>>>>>Begin Spectral Data<<<<<
179.3399	-0.3354
179.5586	-0.3354
179.7771	-0.3354
179.9957	-0.2084
180.2143	-1.5441
180.4329	-0
180.6514	-0.458
180.8699	-0
181.0885	-0
181.307	0.391
181.5255	0.019
181.744	-0
181.9625	0.1461
182.181	-0
182.3994	1.4048
182.6179	-0
182.8363	0.1461
183.0547	-0.3031
183.2732	-0.0442
183.4916	0.2939
183.71	0.2362
183.9284	0.0047
184.1467	0.0068
184.3651	0.1911
184.5835	0.1093
184.8018	0.1066
185.0201	0.0291
185.2385	0.0881
185.4568	0.272
185.6751	0.0859
185.8934	0.2038
186.1117	-0.0582
186.3299	0.0613
186.5482	0.1552
186.7664	0.0357
186.9847	-0.0796
187.2029	0.1954
187.4211	0.0589
187.6393	0.1468
187.8575	0.1201
188.0757	0.3111
188.2939	-0.0108
188.512	0.2206
188.7302	0.0633
188.9483	0.4093
189.1665	0.3698
189.3846	0.2162
189.6027	0.1032
189.8208	0.4724
190.0389	0.176
190.257	0.0103
190.475	0.0084
190.6931	0.0719
190.9111	-0.0035
191.1292	0.1538
191.3472	0.0398
191.5652	0.465
191.7832	0.1374
192.0012	0.0679
192.2192	0.2438
192.4371	0.1038
192.6551	0.0783
192.873	0.0948
193.091	0.0797
193.3089	0.0886
193.5268	0.1907
193.7447	0.2061
193.9626	0.3051
194.1805	0.2295
194.3984	0.1924
194.6162	0.258
194.8341	0.2699
195.0519	0.1793
195.2697	0.1999
195.4875	0.3305
195.7054	0.2388
195.9231	0.2846
196.1409	0.3309
196.3587	0.3048
196.5765	0.3571
196.7942	0.315
197.012	0.3056
197.2297	0.3282
197.4474	0.4127
197.6651	0.312
197.8828	0.3427
198.1005	0.414
198.3182	0.4031
198.5358	0.3614
198.7535	0.3919
198.9711	0.3821
199.1888	0.3835
199.4064	0.3663
199.624	0.3568
199.8416	0.3397
200.0592	0.3788
200.2767	0.4325
200.4943	0.4702
200.7119	0.4199
200.9294	0.4394
201.1469	0.4403
201.3645	0.4095
201.582	0.3969
201.7995	0.4089
202.017	0.4006
202.2344	0.4041
202.4519	0.3878
202.6694	0.4018
202.8868	0.3757
203.1042	0.4092
203.3217	0.4062
203.5391	0.4039
203.7565	0.3639
203.9739	0.3565
204.1913	0.358
204.4086	0.3504
204.626	0.3336
204.8433	0.3869
205.0607	0.3518
205.278	0.3399
205.4953	0.3573
205.7126	0.3312
205.9299	0.335
206.1472	0.326
206.3644	0.3336
206.5817	0.3065
206.7989	0.323
207.0162	0.3228
207.2334	0.3259
207.4506	0.3022
207.6678	0.3224
207.885	0.3089
208.1022	0.3316
208.3194	0.2939
208.5365	0.2864
208.7537	0.3206
208.9708	0.3101
209.1879	0.2846
209.405	0.2832
209.6222	0.2825
209.8392	0.3026
210.0563	0.2908
210.2734	0.2714
210.4905	0.259
210.7075	0.2798
210.9245	0.2747
211.1416	0.2743
211.3586	0.2604
211.5756	0.242
211.7926	0.2582
212.0096	0.2677
212.2265	0.2663
212.4435	0.2601
212.6604	0.2705
212.8774	0.2405
213.0943	0.2553
213.3112	0.2601
213.5281	0.2519
213.745	0.247
213.9619	0.2545
214.1788	0.2713
214.3956	0.2481
214.6125	0.2531
214.8293	0.2462
215.0461	0.2574
215.2629	0.2469
215.4798	0.246
215.6965	0.2506
215.9133	0.2527
216.1301	0.2456
216.3469	0.2454
216.5636	0.2471
216.7803	0.2529
216.9971	0.2678
217.2138	0.244
217.4305	0.2505
217.6472	0.2533
217.8639	0.2414
218.0805	0.2507
218.2972	0.2568
218.5138	0.2626
218.7305	0.2509
218.9471	0.2597
219.1637	0.271
219.3803	0.2503
219.5969	0.257
219.8135	0.2574
220.0301	0.2711
220.2466	0.2583
220.4632	0.2761
220.6797	0.2694
220.8962	0.26
221.1127	0.2699
221.3292	0.2766
221.5457	0.2807
221.7622	0.2807
221.9787	0.2828
222.1951	0.2715
222.4116	0.2807
222.628	0.2805
222.8444	0.275
223.0608	0.2839
223.2772	0.2862
223.4936	0.2897
223.71	0.2977
223.9264	0.2758
224.1427	0.2905
224.3591	0.2917
224.5754	0.2946
224.7917	0.2921
225.008	0.2986
225.2243	0.3077
225.4406	0.2926
225.6569	0.3081
225.8732	0.3132
226.0894	0.3045
226.3057	0.3059
226.5219	0.3173
226.7381	0.3183
226.9543	0.315
227.1705	0.3184
227.3867	0.3141
227.6029	0.319
227.8191	0.3362
228.0352	0.3426
228.2513	0.3519
228.4675	0.3421
228.6836	0.3479
228.8997	0.3456
229.1158	0.3515
229.3319	0.358
229.548	0.3543
229.764	0.3641
229.9801	0.3698
230.1961	0.377
230.4121	0.3646
230.6282	0.376
230.8442	0.3857
231.0602	0.3856
231.2761	0.378
231.4921	0.3826
231.7081	0.3959
231.924	0.4107
232.14	0.3975
232.3559	0.4017
232.5718	0.4071
232.7877	0.4133
233.0036	0.3999
233.2195	0.4138
233.4353	0.4189
233.6512	0.4202
233.867	0.4138
234.0829	0.4329
234.2987	0.4336
234.5145	0.4278
234.7303	0.4404
234.9461	0.4359
235.1619	0.4422
235.3776	0.4355
235.5934	0.4397
235.8091	0.4423
236.0249	0.4434
236.2406	0.44
236.4563	0.4454
236.672	0.4326
236.8877	0.4371
237.1034	0.4476
237.319	0.4514
237.5347	0.4504
237.7503	0.4443
237.966	0.4503
238.1816	0.4561
238.3972	0.4574
238.6128	0.4658
238.8284	0.4627
239.0439	0.4559
239.2595	0.4661
239.475	0.4585
239.6906	0.4655
239.9061	0.4638
240.1216	0.4671
240.3371	0.4647
240.5526	0.4524
240.7681	0.4771
240.9836	0.455
241.199	0.4539
241.4145	0.4364
241.6299	0.4481
241.8453	0.4321
242.0607	0.4272
242.2761	0.4327
242.4915	0.4166
242.7069	0.4188
242.9223	0.4105
243.1376	0.4077
243.353	0.3971
243.5683	0.398
243.7836	0.3854
243.9989	0.3772
244.2142	0.3688
244.4295	0.371
244.6448	0.3619
244.86	0.35
245.0753	0.3357
245.2905	0.3327
245.5057	0.3341
245.721	0.3338
245.9362	0.3236
246.1514	0.3169
246.3665	0.3061
246.5817	0.2927
246.7969	0.2906
247.012	0.2848
247.2271	0.2893
247.4423	0.2801
247.6574	0.2822
247.8725	0.2728
248.0876	0.2653
248.3026	0.2647
248.5177	0.2543
248.7328	0.249
248.9478	0.2467
249.1628	0.2474
249.3779	0.2384
249.5929	0.2326
249.8079	0.24
250.0228	0.2347
250.2378	0.2284
250.4528	0.22
250.6677	0.2166
250.8827	0.2126
251.0976	0.2148
251.3125	0.2106
251.5274	0.2082
251.7423	0.2073
251.9572	0.2068
252.172	0.1996
252.3869	0.2026
252.6017	0.1995
252.8166	0.1997
253.0314	0.1967
253.2462	0.1989
253.461	0.192
253.6758	0.1977
253.8906	0.1954
254.1053	0.1956
254.3201	0.1936
254.5348	0.1839
254.7496	0.1855
254.9643	0.1933
255.179	0.1848
255.3937	0.1835
255.6083	0.1928
255.823	0.1863
256.0377	0.1762
256.2523	0.1815
256.467	0.1821
256.6816	0.1829
256.8962	0.1811
257.1108	0.1839
257.3254	0.1789
257.54	0.1816
257.7545	0.1819
257.9691	0.18
258.1836	0.1696
258.3981	0.1762
258.6127	0.1743
258.8272	0.1828
259.0417	0.1781
259.2561	0.1695
259.4706	0.1703
259.6851	0.1779
259.8995	0.1772
260.114	0.179
260.3284	0.1702
260.5428	0.1754
260.7572	0.1766
260.9716	0.172
261.186	0.1736
261.4003	0.1726
261.6147	0.1741
261.829	0.1714
262.0433	0.1763
262.2577	0.1761
262.472	0.1724
262.6863	0.1769
262.9005	0.1694
263.1148	0.1718
263.3291	0.1714
263.5433	0.177
263.7576	0.1748
263.9718	0.1725
264.186	0.1687
264.4002	0.1755
264.6144	0.1775
264.8286	0.1739
265.0427	0.173
265.2569	0.1784
265.471	0.1778
265.6851	0.1791
265.8993	0.1712
266.1134	0.1809
266.3275	0.1782
266.5415	0.1757
266.7556	0.1776
266.9697	0.1758
267.1837	0.1793
267.3978	0.1781
267.6118	0.1686
267.8258	0.178
268.0398	0.1747
268.2538	0.1724
268.4677	0.1728
268.6817	0.171
268.8957	0.1632
269.1096	0.1666
269.3235	0.1693
269.5374	0.1722
269.7514	0.1666
269.9652	0.1699
270.1791	0.1694
270.393	0.1702
270.6068	0.1725
270.8207	0.1664
271.0345	0.1675
271.2483	0.1596
271.4622	0.1662
271.676	0.1647
271.8897	0.1663
272.1035	0.1709
272.3173	0.168
272.531	0.1665
272.7448	0.1676
272.9585	0.1613
273.1722	0.1603
273.3859	0.1609
273.5996	0.1598
273.8133	0.1649
274.0269	0.1605
274.2406	0.1634
274.4542	0.1694
274.6679	0.1714
274.8815	0.1709
275.0951	0.1683
275.3087	0.1711
275.5223	0.1665
275.7358	0.1677
275.9494	0.1692
276.1629	0.1709
276.3765	0.1624
276.59	0.1626
276.8035	0.1619
277.017	0.1766
277.2305	0.169
277.444	0.1681
277.6574	0.1683
277.8709	0.1749
278.0843	0.1686
278.2978	0.167
278.5112	0.1729
278.7246	0.1749
278.938	0.1686
279.1513	0.1772
279.3647	0.1721
279.5781	0.1657
279.7914	0.1715
280.0047	0.174
280.2181	0.1709
280.4314	0.1759
280.6447	0.1805
280.8579	0.1683
281.0712	0.1701
281.2845	0.1806
281.4977	0.1795
281.711	0.1734
281.9242	0.1783
282.1374	0.1704
282.3506	0.1752
282.5638	0.1807
282.7769	0.1793
282.9901	0.1781
283.2033	0.1817
283.4164	0.1746
283.6295	0.1789
283.8426	0.173
284.0557	0.1821
284.2688	0.1824
284.4819	0.1762
284.695	0.1823
284.908	0.1836
285.1211	0.1875
285.3341	0.1784
285.5471	0.189
285.7601	0.1844
285.9731	0.1845
286.1861	0.185
286.3991	0.1889
286.612	0.1858
286.825	0.1901
287.0379	0.1853
287.2508	0.1861
287.4637	0.1876
287.6766	0.1873
287.8895	0.1853
288.1024	0.1914
288.3152	0.196
288.5281	0.1876
288.7409	0.1914
288.9538	0.1862
289.1666	0.1902
289.3794	0.1926
289.5922	0.1843
289.8049	0.193
290.0177	0.1948
290.2304	0.1934
290.4432	0.1985
290.6559	0.1948
290.8686	0.1957
291.0813	0.1975
291.294	0.1966
291.5067	0.1852
291.7194	0.1986
291.932	0.1889
292.1447	0.1931
292.3573	0.1937
292.5699	0.1992
292.7825	0.1912
292.9951	0.1904
293.2077	0.1873
293.4203	0.1924
293.6328	0.1952
293.8454	0.1955
294.0579	0.1921
294.2704	0.1929
294.4829	0.1897
294.6954	0.1925
294.9079	0.1936
295.1204	0.1861
295.3328	0.1972
295.5453	0.1917
295.7577	0.1945
295.9701	0.1952
296.1825	0.191
296.3949	0.1878
296.6073	0.1877
296.8197	0.1967
297.0321	0.2
297.2444	0.1945
297.4567	0.1917
297.6691	0.1935
297.8814	0.1936
298.0937	0.1932
298.306	0.1902
298.5182	0.1931
298.7305	0.2013
298.9428	0.1919
299.155	0.1938
299.3672	0.1883
299.5794	0.1945
299.7916	0.1924
300.0038	0.1888
300.216	0.1903
300.4282	0.188
300.6403	0.1963
300.8525	0.1898
301.0646	0.1969
301.2767	0.1917
301.4888	0.1935
301.7009	0.193
301.913	0.194
302.125	0.192
302.3371	0.1935
302.5491	0.1907
302.7612	0.2009
302.9732	0.2021
303.1852	0.1919
303.3972	0.189
303.6092	0.1909
303.8211	0.1916
304.0331	0.1896
304.245	0.1884
304.457	0.185
304.6689	0.1909
304.8808	0.188
305.0927	0.1905
305.3046	0.1865
305.5164	0.1822
305.7283	0.185
305.9401	0.17
306.152	0.1781
306.3638	0.18
306.5756	0.1785
306.7874	0.1698
306.9992	0.1752
307.2109	0.1736
307.4227	0.1717
307.6344	0.1745
307.8462	0.1668
308.0579	0.1686
308.2696	0.1671
308.4813	0.167
308.693	0.1605
308.9046	0.1648
309.1163	0.1603
309.328	0.1547
309.5396	0.1483
309.7512	0.1498
309.9628	0.1496
310.1744	0.1482
310.386	0.1398
310.5976	0.1475
310.8091	0.148
311.0207	0.1417
311.2322	0.1365
311.4437	0.1428
311.6552	0.1419
311.8667	0.1452
312.0782	0.1373
312.2897	0.1389
312.5012	0.1357
312.7126	0.1319
312.924	0.1379
313.1355	0.1347
313.3469	0.1258
313.5583	0.1303
313.7696	0.1271
313.981	0.1299
314.1924	0.1299
314.4037	0.127
314.6151	0.1299
314.8264	0.1332
315.0377	0.1274
315.249	0.126
315.4603	0.1234
315.6716	0.1259
315.8828	0.1244
316.0941	0.1263
316.3053	0.1189
316.5165	0.1206
316.7277	0.1148
316.9389	0.1228
317.1501	0.1235
317.3613	0.1186
317.5724	0.1206
317.7836	0.1107
317.9947	0.1184
318.2058	0.119
318.417	0.1178
318.6281	0.1149
318.8391	0.123
319.0502	0.1155
319.2613	0.1178
319.4723	0.1197
319.6834	0.1195
319.8944	0.1162
320.1054	0.1207
320.3164	0.1139
320.5274	0.1124
320.7383	0.1213
320.9493	0.1193
321.1602	0.1173
321.3712	0.1143
321.5821	0.1218
321.793	0.1255
322.0039	0.1174
322.2148	0.1179
322.4257	0.116
322.6365	0.1131
322.8474	0.1211
323.0582	0.1165
323.269	0.1258
323.4798	0.1193
323.6906	0.1194
323.9014	0.1157
324.1122	0.1125
324.3229	0.1214
324.5337	0.1258
324.7444	0.1247
324.9551	0.1206
325.1658	0.1197
325.3765	0.1282
325.5872	0.1261
325.7979	0.12
326.0085	0.1233
326.2192	0.1201
326.4298	0.126
326.6404	0.1248
326.851	0.1172
327.0616	0.1201
327.2722	0.1232
327.4828	0.1234
327.6933	0.1299
327.9039	0.1251
328.1144	0.1274
328.3249	0.1275
328.5354	0.1196
328.7459	0.1243
328.9564	0.1252
329.1669	0.1298
329.3773	0.1262
329.5878	0.1218
329.7982	0.1273
330.0086	0.1302
330.219	0.1244
330.4294	0.1218
330.6398	0.1265
330.8502	0.128
331.0605	0.1258
331.2708	0.1235
331.4812	0.1256
331.6915	0.1241
331.9018	0.1235
332.1121	0.1274
332.3224	0.1277
332.5326	0.1262
332.7429	0.1222
332.9531	0.1292
333.1633	0.1242
333.3735	0.1213
333.5837	0.1251
333.7939	0.1311
334.0041	0.1358
334.2143	0.1355
334.4244	0.1379
334.6346	0.1305
334.8447	0.1268
335.0548	0.1351
335.2649	0.1387
335.475	0.139
335.685	0.1316
335.8951	0.1283
336.1051	0.1345
336.3152	0.1353
336.5252	0.1329
336.7352	0.1314
336.9452	0.1345
337.1552	0.1337
337.3652	0.1293
337.5751	0.135
337.7851	0.1337
337.995	0.1344
338.2049	0.1346
338.4148	0.1366
338.6247	0.1371
338.8346	0.1369
339.0445	0.1296
339.2543	0.1398
339.4642	0.1365
339.674	0.1364
339.8838	0.1358
340.0936	0.1405
340.3034	0.1412
340.5132	0.1368
340.7229	0.1395
340.9327	0.1459
341.1424	0.1379
341.3522	0.1342
341.5619	0.1423
341.7716	0.1404
341.9813	0.1412
342.1909	0.1418
342.4006	0.1445
342.6102	0.1459
342.8199	0.1476
343.0295	0.14
343.2391	0.1517
343.4487	0.1467
343.6583	0.1496
343.8679	0.1447
344.0774	0.1456
344.287	0.1481
344.4965	0.1512
344.706	0.1522
344.9155	0.1554
345.125	0.1506
345.3345	0.1681
345.544	0.1498
345.7534	0.154
345.9629	0.1526
346.1723	0.1566
346.3817	0.1498
346.5911	0.1528
346.8005	0.1546
347.0099	0.158
347.2193	0.1609
347.4286	0.1709
347.638	0.1588
347.8473	0.1653
348.0566	0.1634
348.2659	0.1633
348.4752	0.1629
348.6845	0.1588
348.8937	0.1598
349.103	0.1624
349.3122	0.1673
349.5214	0.1607
349.7306	0.1713
349.9398	0.1693
350.149	0.1648
350.3582	0.1662
350.5674	0.169
350.7765	0.1712
350.9856	0.1658
351.1948	0.1783
351.4039	0.1699
351.613	0.1688
351.822	0.1757
352.0311	0.1708
352.2402	0.1699
352.4492	0.1701
352.6582	0.1792
352.8672	0.1735
353.0762	0.177
353.2852	0.1815
353.4942	0.179
353.7032	0.1772
353.9121	0.1781
354.1211	0.1803
354.33	0.1819
354.5389	0.1775
354.7478	0.1771
354.9567	0.183
355.1655	0.1788
355.3744	0.1793
355.5833	0.1811
355.7921	0.1903
356.0009	0.1833
356.2097	0.1815
356.4185	0.1818
356.6273	0.1855
356.8361	0.1861
357.0448	0.1833
357.2536	0.1909
357.4623	0.1932
357.671	0.1933
357.8797	0.193
358.0884	0.1922
358.2971	0.1908
358.5057	0.1948
358.7144	0.1983
358.923	0.2018
359.1316	0.1981
359.3402	0.2005
359.5488	0.1961
359.7574	0.201
359.966	0.1989
360.1746	0.2009
360.3831	0.2044
360.5916	0.2071
360.8002	0.2094
361.0087	0.2019
361.2172	0.2056
361.4256	0.2088
361.6341	0.2103
361.8426	0.214
362.051	0.2126
362.2594	0.2112
362.4678	0.2154
362.6762	0.2186
362.8846	0.2176
363.093	0.2129
363.3014	0.2225
363.5097	0.224
363.718	0.2254
363.9264	0.2243
364.1347	0.2161
364.343	0.2225
364.5513	0.2257
364.7595	0.2352
364.9678	0.2245
365.176	0.2241
365.3842	0.2326
365.5925	0.228
365.8007	0.2329
366.0089	0.242
366.217	0.2325
366.4252	0.2316
366.6333	0.2395
366.8415	0.2414
367.0496	0.2409
367.2577	0.2422
367.4658	0.2327
367.6739	0.2425
367.882	0.2508
368.09	0.2387
368.2981	0.2487
368.5061	0.2519
368.7141	0.2439
368.9221	0.2562
369.1301	0.2538
369.3381	0.2521
369.5461	0.2536
369.754	0.257
369.962	0.2544
370.1699	0.2618
370.3778	0.2619
370.5857	0.2503
370.7936	0.2633
371.0015	0.251
371.2093	0.2552
371.4172	0.2558
371.625	0.2583
371.8328	0.2563
372.0406	0.2594
372.2484	0.2638
372.4562	0.2706
372.664	0.2602
372.8717	0.2641
373.0795	0.2664
373.2872	0.2745
373.4949	0.272
373.7026	0.2706
373.9103	0.2707
374.118	0.2719
374.3256	0.2691
374.5333	0.2797
374.7409	0.2745
374.9485	0.2723
375.1561	0.281
375.3637	0.2753
375.5713	0.2802
375.7789	0.2744
375.9864	0.2862
376.194	0.2838
376.4015	0.2764
376.609	0.2827
376.8165	0.2862
377.024	0.2825
377.2315	0.2788
377.4389	0.2751
377.6464	0.2839
377.8538	0.2926
378.0612	0.2849
378.2686	0.2853
378.476	0.2961
378.6834	0.2866
378.8908	0.2829
379.0981	0.2965
379.3055	0.2974
379.5128	0.2883
379.7201	0.2982
379.9274	0.2926
380.1347	0.294
380.342	0.2988
380.5492	0.2952
380.7565	0.2927
380.9637	0.3007
381.1709	0.2982
381.3781	0.3066
381.5853	0.3065
381.7925	0.2982
381.9997	0.3109
382.2068	0.3019
382.4139	0.297
382.6211	0.2941
382.8282	0.3102
383.0353	0.3123
383.2424	0.303
383.4494	0.3045
383.6565	0.3057
383.8635	0.2959
384.0706	0.316
384.2776	0.3182
384.4846	0.3126
384.6916	0.3142
384.8986	0.3157
385.1055	0.3183
385.3125	0.3069
385.5194	0.3229
385.7263	0.3059
385.9333	0.318
386.1402	0.3079
386.347	0.3125
386.5539	0.3158
386.7608	0.3127
386.9676	0.311
387.1744	0.3
387.3813	0.3141
387.5881	0.3035
387.7948	0.3104
388.0016	0.3291
388.2084	0.309
388.4151	0.3114
388.6219	0.3064
388.8286	0.313
389.0353	0.3138
389.242	0.318
389.4487	0.3055
389.6553	0.2973
389.862	0.2993
390.0686	0.3137
390.2753	0.3024
390.4819	0.3013
390.6885	0.3057
390.8951	0.2982
391.1016	0.3039
391.3082	0.3032
391.5147	0.2978
391.7213	0.2975
391.9278	0.2943
392.1343	0.3001
392.3408	0.3056
392.5473	0.295
392.7537	0.2892
392.9602	0.2785
393.1666	0.292
393.373	0.2885
393.5794	0.2882
393.7858	0.2854
393.9922	0.2855
394.1986	0.2799
394.4049	0.2808
394.6113	0.2833
394.8176	0.2961
395.0239	0.2734
395.2302	0.2793
395.4365	0.2867
395.6428	0.2864
395.8491	0.2809
396.0553	0.2792
396.2615	0.2824
396.4678	0.2751
396.674	0.2682
396.8802	0.2681
397.0863	0.2673
397.2925	0.2772
397.4987	0.2725
397.7048	0.278
397.9109	0.2653
398.117	0.2679
398.3231	0.2668
398.5292	0.2636
398.7353	0.2639
398.9413	0.2688
399.1474	0.2754
399.3534	0.2675
399.5594	0.268
399.7654	0.2611
399.9714	0.2766
400.1774	0.2681
400.3833	0.2629
400.5893	0.2591
400.7952	0.2685
401.0011	0.2667
401.207	0.2716
401.4129	0.2728
401.6188	0.2689
401.8247	0.2676
402.0305	0.2582
402.2364	0.2763
402.4422	0.2645
402.648	0.2699
402.8538	0.2569
403.0596	0.2757
403.2654	0.2613
403.4711	0.2687
403.6768	0.2602
403.8826	0.2595
404.0883	0.266
404.294	0.2644
404.4997	0.2661
404.7054	0.2764
404.911	0.2553
405.1167	0.263
405.3223	0.2644
405.5279	0.259
405.7335	0.2605
405.9391	0.2571
406.1447	0.2685
406.3502	0.2705
406.5558	0.2666
406.7613	0.2582
406.9668	0.2684
407.1724	0.2614
407.3778	0.265
407.5833	0.2538
407.7888	0.2551
407.9942	0.2531
408.1997	0.2624
408.4051	0.2676
408.6105	0.2768
408.8159	0.2657
409.0213	0.2699
409.2267	0.2773
409.432	0.2734
409.6374	0.2673
409.8427	0.2706
410.048	0.2699
410.2533	0.2652
410.4586	0.2666
410.6639	0.2603
410.8691	0.2564
411.0744	0.2667
411.2796	0.2576
411.4848	0.2775
411.69	0.2568
411.8952	0.2563
412.1004	0.2709
412.3056	0.2668
412.5107	0.2655
412.7158	0.2752
412.921	0.2592
413.1261	0.2643
413.3312	0.264
413.5362	0.2706
413.7413	0.2547
413.9464	0.2487
414.1514	0.2616
414.3564	0.2556
414.5614	0.2553
414.7664	0.2566
414.9714	0.2514
415.1764	0.2597
415.3813	0.2565
415.5863	0.27
415.7912	0.2644
415.9961	0.2663
416.201	0.2626
416.4059	0.2555
416.6108	0.2501
416.8156	0.2513
417.0205	0.2454
417.2253	0.2549
417.4301	0.2624
417.6349	0.2494
417.8397	0.257
418.0445	0.2621
418.2492	0.2415
418.454	0.2503
418.6587	0.2617
418.8634	0.2537
419.0681	0.2569
419.2728	0.2491
419.4775	0.257
419.6822	0.2465
419.8868	0.2424
420.0915	0.2464
420.2961	0.2441
420.5007	0.2496
420.7053	0.247
420.9099	0.2463
421.1144	0.246
421.319	0.2398
421.5235	0.2367
421.728	0.2425
421.9325	0.2457
422.137	0.2499
422.3415	0.2357
422.546	0.2303
422.7504	0.2366
422.9549	0.2493
423.1593	0.2239
423.3637	0.2323
423.5681	0.2323
423.7725	0.2247
423.9769	0.2356
424.1812	0.2216
424.3856	0.2226
424.5899	0.2302
424.7942	0.2207
424.9985	0.2223
425.2028	0.2361
425.4071	0.2269
425.6113	0.2242
425.8156	0.2196
426.0198	0.2175
426.224	0.2287
426.4282	0.2067
426.6324	0.2153
426.8366	0.2165
427.0407	0.2124
427.2449	0.2204
427.449	0.2221
427.6531	0.2253
427.8572	0.2164
428.0613	0.2156
428.2654	0.2032
428.4694	0.2043
428.6735	0.2035
428.8775	0.2075
429.0815	0.2034
429.2855	0.2011
429.4895	0.1985
429.6935	0.1989
429.8975	0.1948
430.1014	0.1994
430.3053	0.2028
430.5093	0.1939
430.7132	0.1952
430.9171	0.1877
431.1209	0.2012
431.3248	0.1788
431.5286	0.1783
431.7325	0.1979
431.9363	0.1871
432.1401	0.1763
432.3439	0.1745
432.5477	0.1739
432.7514	0.1734
432.9552	0.1769
433.1589	0.1628
433.3627	0.1701
433.5664	0.1669
433.7701	0.1641
433.9737	0.1743
434.1774	0.1685
434.3811	0.1615
434.5847	0.1622
434.7883	0.1578
434.9919	0.1478
435.1955	0.1566
435.3991	0.1601
435.6027	0.1543
435.8062	0.1652
436.0098	0.1463
436.2133	0.1456
436.4168	0.1435
436.6203	0.1363
436.8238	0.1438
437.0272	0.1339
437.2307	0.1458
437.4341	0.136
437.6375	0.1421
437.841	0.1302
438.0443	0.1343
438.2477	0.1318
438.4511	0.1341
438.6545	0.125
438.8578	0.1208
439.0611	0.1236
439.2644	0.1292
439.4677	0.1201
439.671	0.1052
439.8743	0.1183
440.0775	0.1067
440.2808	0.1181
440.484	0.1047
440.6872	0.1057
440.8904	0.1033
441.0936	0.1093
441.2967	0.1017
441.4999	0.1061
441.703	0.1093
441.9062	0.1026
442.1093	0.1054
442.3124	0.0959
442.5155	0.0998
442.7185	0.0946
442.9216	0.0904
443.1246	0.0943
443.3276	0.0918
443.5307	0.083
443.7337	0.0854
443.9366	0.084
444.1396	0.081
444.3426	0.0761
444.5455	0.0823
444.7484	0.0824
444.9513	0.0775
445.1542	0.0829
445.3571	0.0807
445.56	0.0735
445.7628	0.0693
445.9657	0.0754
446.1685	0.0738
446.3713	0.0796
446.5741	0.0727
446.7769	0.0698
446.9797	0.0641
447.1824	0.0698
447.3852	0.0525
447.5879	0.0582
447.7906	0.0558
447.9933	0.0625
448.196	0.0607
448.3986	0.0584
448.6013	0.0484
448.8039	0.0523
449.0066	0.0587
449.2092	0.0575
449.4118	0.0583
449.6143	0.0567
449.8169	0.0571
450.0195	0.0468
450.222	0.0497
450.4245	0.0574
450.627	0.048
450.8295	0.0501
451.032	0.0473
451.2345	0.0346
451.4369	0.0436
451.6394	0.0438
451.8418	0.0465
452.0442	0.0481
452.2466	0.0373
452.449	0.0397
452.6513	0.035
452.8537	0.0365
453.056	0.0364
453.2583	0.0365
453.4607	0.0303
453.663	0.0331
453.8652	0.0311
454.0675	0.0397
454.2697	0.0322
454.472	0.0232
454.6742	0.0358
454.8764	0.0393
455.0786	0.0296
455.2808	0.0245
455.4829	0.0295
455.6851	0.021
455.8872	0.0236
456.0893	0.0288
456.2915	0.0256
456.4935	0.0375
456.6956	0.0264
456.8977	0.0183
457.0997	0.0283
457.3018	0.0151
457.5038	0.0313
457.7058	0.0307
457.9078	0.0204
458.1098	0.0266
458.3117	0.0296
458.5137	0.0154
458.7156	0.0197
458.9175	0.0147
459.1194	0.02
459.3213	0.0155
459.5232	0.0187
459.725	0.0141
459.9269	0.0181
460.1287	0.0174
460.3305	0.0295
460.5323	0.019
460.7341	0.0201
460.9359	0.0066
461.1376	0.015
461.3394	0.0241
461.5411	0.0219
461.7428	0.0175
461.9445	0.0176
462.1462	0.015
462.3479	0.0124
462.5495	0.0141
462.7512	0.0231
462.9528	0.0023
463.1544	0.005
463.356	0.0094
463.5576	0.0302
463.7592	0.012
463.9607	0.0131
464.1623	0.007
464.3638	0.0039
464.5653	0.0106
464.7668	0.0131
464.9683	0.0106
465.1697	0.0154
465.3712	0.0102
465.5726	0.0065
465.7741	0.02
465.9755	0.0035
466.1769	0.0129
466.3782	0.0001
466.5796	0.0109
466.7809	0.0114
466.9823	0.0108
467.1836	0.0008
467.3849	0.011
467.5862	-0.0006
467.7875	0.0087
467.9887	0.0127
468.19	0.0018
468.3912	0.0139
468.5924	0.0034
468.7936	0.0017
468.9948	0.0012
469.196	0.0096
469.3972	0.0081
469.5983	0.0076
469.7994	0.0176
470.0006	0.01
470.2017	0.008
470.4027	0.0255
470.6038	0.0118
470.8049	0.005
471.0059	0.0079
471.2069	0.0114
471.408	0.0152
471.6089	0.0144
471.8099	0.0208
472.0109	0.0076
472.2119	0.0173
472.4128	0.003
472.6137	0.0106
472.8146	0.0056
473.0155	0.0156
473.2164	0.0082
473.4173	0.004
473.6181	0.0025
473.819	0.0044
474.0198	-0.0087
474.2206	-0.0031
474.4214	0.0132
474.6222	-0.0054
474.8229	0.0016
475.0237	0.01
475.2244	0.0024
475.4251	0.0075
475.6258	0.0001
475.8265	0.0084
476.0272	-0.0042
476.2278	0.0065
476.4285	0.0069
476.6291	0.0058
476.8297	0.0104
477.0303	-0.0001
477.2309	0.0091
477.4315	0.0069
477.632	-0.0061
477.8326	0.0137
478.0331	0.0081
478.2336	0.0048
478.4341	0.0164
478.6346	-0.0051
478.8351	0.0005
479.0355	0.0151
479.236	0.0116
479.4364	-0.0006
479.6368	0.0006
479.8372	0.006
480.0376	0.003
480.2379	-0.0002
480.4383	0.0062
480.6386	0.0008
480.8389	0.003
481.0392	0.0051
481.2395	0.0085
481.4398	0.0001
481.6401	0.0088
481.8403	0.005
482.0405	0.0047
482.2408	0.0094
482.441	0.01
482.6411	0.0069
482.8413	0.0036
483.0415	0.0041
483.2416	0.0016
483.4417	0.0063
483.6419	-0.0001
483.8419	-0.0029
484.042	0.008
484.2421	0.0006
484.4422	0.0053
484.6422	0.0026
484.8422	0.0044
485.0422	0.0074
485.2422	0.001
485.4422	0.0037
485.6422	-0.0015
485.8421	0.0002
486.042	0.0084
486.242	-0.0015
486.4419	0.0023
486.6417	-0.0017
486.8416	0.0063
487.0415	0.0044
487.2413	-0.0013
487.4411	0.008
487.641	0.0048
487.8408	0.003
488.0405	0.0076
488.2403	0.0025
488.4401	0.0045
488.6398	0.0051
488.8395	0.0024
489.0392	0.009
489.2389	-0.0003
489.4386	-0.0051
489.6383	0.0056
489.8379	-0.0055
490.0376	0.0044
490.2372	0.0042
490.4368	-0.0044
490.6364	-0.0034
490.836	-0.0002
491.0355	-0.0002
491.2351	-0.0002
491.4346	0.0059
491.6341	0.0036
491.8336	0.0082
492.0331	0.0023
492.2326	0.0054
492.432	0.0007
492.6315	0.007
492.8309	0.0009
493.0303	0.0021
493.2297	0.0048
493.4291	0.0009
493.6284	0.0123
493.8278	-0.0009
494.0271	0.0023
494.2264	0.0015
494.4257	0.0042
494.625	0.0027
494.8243	0.0028
495.0236	0.0103
495.2228	0.007
495.422	0.0044
495.6213	0.0047
495.8205	0.0034
496.0196	0.0026
496.2188	0.0121
496.418	0.0034
496.6171	0.0019
496.8162	-0.0012
497.0153	0.0103
497.2144	0.0051
497.4135	0.0012
497.6126	-0.002
497.8116	-0.0009
498.0107	0.0042
498.2097	0.0092
498.4087	0.0022
498.6077	-0.0004
498.8067	0.0025
499.0056	0.0006
499.2046	0.0082
499.4035	0.0076
499.6024	-0.0052
499.8013	0.0068
500.0002	0.0054
500.199	0.0136
500.3979	0.0011
500.5967	-0.0063
500.7956	0.0036
500.9944	-0.0039
501.1932	0.0118
501.3919	0.003
501.5907	0.0148
501.7895	0.0081
501.9882	-0.001
502.1869	0.0104
502.3856	0.0089
502.5843	-0.0007
502.783	-0.0007
502.9816	0.0107
503.1803	-0.0015
503.3789	0.0047
503.5775	-0.0044
503.7761	-0.0062
503.9747	0.0046
504.1732	-0.0076
504.3718	0.0138
504.5703	-0.0008
504.7689	-0.0073
504.9674	-0.0051
505.1658	-0.0024
505.3643	0.0078
505.5628	0.0091
505.7612	0.0047
505.9597	-0
506.1581	-0.0032
506.3565	-0.0015
506.5549	0.0023
506.7532	-0.0025
506.9516	0.0058
507.1499	-0.0021
507.3482	-0.0029
507.5465	0.0023
507.7448	0.0023
507.9431	0.008
508.1414	-0.0013
508.3396	0.003
508.5379	-0.0029
508.7361	0.0089
508.9343	-0.0032
509.1325	0.0077
509.3306	-0.0008
509.5288	0.0009
509.7269	0.0076
509.9251	0.005
510.1232	0.005
510.3213	0.0038
510.5193	0.0007
510.7174	0.002
510.9154	0.0064
511.1135	0.0019
511.3115	-0.0012
511.5095	-0.0019
511.7075	0.003
511.9055	0.0024
512.1034	0.0001
512.3014	0.0068
512.4993	0.0077
512.6972	-0.0047
512.8951	0.0004
513.093	-0.0037
513.2908	0.0133
513.4887	0.0073
513.6865	0.0013
513.8844	0.001
514.0822	0.005
514.2799	-0.0054
514.4777	0.0007
514.6755	0.0015
514.8732	0.0045
515.0709	0.0121
515.2687	-0.0006
515.4664	0.0011
515.664	0.0076
515.8617	0.0053
516.0594	0.0119
516.257	0.0026
516.4546	0.0134
516.6522	0.0097
516.8498	0.0006
517.0474	0.0127
517.2449	0.0032
517.4425	0.003
517.64	0.0006
517.8375	0.0126
518.035	-0.0011
518.2325	-0.0057
518.43	-0.0037
518.6274	-0.0011
518.8249	-0.0013
519.0223	0.0139
519.2197	0.006
519.4171	-0.0056
519.6145	0.0053
519.8118	-0.0089
520.0092	-0.0063
520.2065	0.0133
520.4038	-0.0011
520.6011	0.0168
520.7984	0.0073
520.9956	0.0116
521.1929	0.0153
521.3901	0.0125
521.5874	0.0139
521.7846	-0.003
521.9818	0.0106
522.1789	0.006
522.3761	0.0048
522.5732	0.0034
522.7704	-0.0023
522.9675	-0.0008
523.1646	-0.0106
523.3617	0.011
523.5587	0.0061
523.7558	0.0147
523.9528	0.0109
524.1498	0.0001
524.3468	0.0098
524.5438	0.0064
524.7408	0.0023
524.9378	0.0076
525.1347	0.0123
525.3316	-0.0092
525.5285	-0.0013
525.7254	0.0015
525.9223	0.0059
526.1192	0.0064
526.316	0.008
526.5129	0.0039
526.7097	0.0009
526.9065	0.0017
527.1033	0.0025
527.3	0.0112
527.4968	0.0097
527.6935	-0.0045
527.8903	-0.0005
528.087	-0.0066
528.2837	0.0073
528.4804	-0.0075
528.677	0.0106
528.8737	-0.003
529.0703	-0.0005
529.2669	0.0097
529.4635	0.0065
529.6601	-0.0038
529.8567	0.001
530.0532	-0.0004
530.2498	0.0041
530.4463	-0.0058
530.6428	0.0018
530.8393	0.0104
531.0358	0.0007
531.2322	0.0046
531.4287	-0.0074
531.6251	-0.0007
531.8215	0.0067
532.0179	-0.0018
532.2143	0.0047
532.4107	0.0155
532.607	-0.0018
532.8034	-0.0031
532.9997	0.0023
533.196	-0.0031
533.3923	0.0081
533.5886	-0.0007
533.7848	0.0031
533.9811	0.0014
534.1773	0.0062
534.3735	-0.0001
534.5697	0.0004
534.7659	0.0017
534.9621	0.0006
535.1582	0.0002
535.3544	0.0139
535.5505	0.0025
535.7466	0.0043
535.9427	-0.0017
536.1387	0.0017
536.3348	0.01
536.5308	0.0029
536.7269	0.0019
536.9229	0.0034
537.1189	0.0122
537.3148	0.0094
537.5108	0.0113
537.7068	0.0099
537.9027	-0.0044
538.0986	0.0087
538.2945	0.0046
538.4904	0.002
538.6863	0.0008
538.8821	0.009
539.078	0.0034
539.2738	0.0063
539.4696	-0.0066
539.6654	0.0054
539.8611	0.003
540.0569	-0.0049
540.2526	0.0056
540.4484	-0.0007
540.6441	0.0078
540.8398	0.0089
541.0355	0.001
541.2311	0.002
541.4268	0.0091
541.6224	0.0117
541.818	0.0013
542.0136	-0.0001
542.2092	0.0015
542.4048	0.003
542.6003	0.002
542.7959	0
542.9914	0.0035
543.1869	0.0071
543.3824	0.0066
543.5779	0.0088
543.7734	0.0067
543.9688	0.0102
544.1642	-0.0039
544.3596	0.0077
544.555	0.0002
544.7504	0.0065
544.9458	0.0019
545.1411	0.004
545.3365	0.0079
545.5318	0.0064
545.7271	0.0112
545.9224	0.0052
546.1177	-0.0013
546.3129	0.008
546.5081	-0.0025
546.7034	0.006
546.8986	0.0021
547.0938	0.0092
547.289	0.0063
547.4841	0.0045
547.6793	0.0053
547.8744	0.0045
548.0695	-0.0043
548.2646	0.0027
548.4597	-0.0039
548.6548	0.0221
548.8498	0.0103
549.0448	-0.0009
549.2399	0.0131
549.4349	0.0035
549.6298	0.0075
549.8248	-0.0029
550.0198	-0.001
550.2147	0.0055
550.4096	-0.0121
550.6045	0.0026
550.7994	0.0117
550.9943	0.0011
551.1892	-0.014
551.384	0.0152
551.5788	-0.0012
551.7737	0.0068
551.9685	0.0035
552.1632	-0.0053
552.358	0.0007
552.5528	0.0098
552.7475	0.0036
552.9422	0.0072
553.1369	0.022
553.3316	0.0023
553.5263	0.0138
553.7209	0.0017
553.9156	-0.0055
554.1102	0.0034
554.3048	0
554.4994	-0.0061
554.694	0.0011
554.8885	0.0011
555.0831	0.0127
555.2776	0.0008
555.4721	0.0062
555.6666	0.0031
555.8611	0.0013
556.0555	0.0025
556.25	0.0051
556.4444	-0.0025
556.6388	-0.005
556.8332	0.0155
557.0276	0.0075
557.222	-0.001
557.4163	0.0057
557.6107	0.0007
557.805	-0.0054
557.9993	0.0071
558.1936	0.0047
558.3879	0.0127
558.5821	-0.0074
558.7764	-0.0039
558.9706	0.0041
559.1648	0.0087
559.359	-0.0044
559.5532	0.0038
559.7473	-0.0006
559.9415	0.0061
560.1356	0.0146
560.3297	0.0052
560.5238	0.0119
560.7179	0.0019
560.9119	0.0051
561.106	-0.0007
561.3	0.003
561.494	-0.0081
561.688	-0.0017
561.882	-0.0039
562.076	0.0088
562.2699	0.0087
562.4639	0.0181
562.6578	-0.0016
562.8517	-0.003
563.0456	0.0117
563.2395	0.0051
563.4333	0.0021
563.6272	-0.0052
563.821	0.007
564.0148	-0.0018
564.2086	-0.0023
564.4024	0.003
564.5961	0.0149
564.7899	0.0123
564.9836	-0.0001
565.1773	0.011
565.371	-0.0027
565.5647	0.0089
565.7584	0.0119
565.952	-0.0006
566.1456	-0.0048
566.3393	0.006
566.5329	0.0016
566.7264	0.005
566.92	-0.001
567.1136	0.0019
567.3071	-0.0065
567.5006	0.0082
567.6941	0.0041
567.8876	0.0002
568.0811	0.0181
568.2745	-0.0003
568.468	0.0058
568.6614	0.0018
568.8548	0.0021
569.0482	0.0046
569.2416	0.0029
569.4349	0.001
569.6283	0.0003
569.8216	0.0054
570.0149	-0.0011
570.2082	0.0042
570.4015	0.0005
570.5947	0.0064
570.788	0.0068
570.9812	0.0004
571.1744	0.0051
571.3676	0.0023
571.5608	0.0022
571.754	0.0105
571.9471	0.004
572.1402	-0.0007
572.3333	0.0051
572.5264	0.0037
572.7195	0.0024
572.9126	-0.0007
573.1057	0.0017
573.2987	0.0045
573.4917	-0.0006
573.6847	-0.0014
573.8777	0.0069
574.0707	0.002
574.2636	0.0023
574.4566	-0.0022
574.6495	0.0026
574.8424	0.0039
575.0353	0.0038
575.2281	-0.0006
575.421	-0.0001
575.6138	0.0042
575.8067	0.0027
575.9995	-0.0001
576.1923	0.0066
576.385	0.0017
576.5778	0.0117
576.7706	0.0038
576.9633	0.0045
577.156	-0.0052
577.3487	0.0049
577.5414	0.0006
577.734	0.0032
577.9267	0.0034
578.1193	0.0041
578.3119	0.0003
578.5045	0.0037
578.6971	0.0009
578.8897	-0.0027
579.0822	0.0091
579.2747	0.0033
579.4673	0.0021
579.6598	0.0011
579.8522	0.001
580.0447	0.0094
580.2372	0.0071
580.4296	0.0074
580.622	0.0029
580.8144	0.0028
581.0068	0.0031
581.1992	0.0031
581.3915	0
581.5839	0.0052
581.7762	0.0013
581.9685	0.0036
582.1608	0
582.353	0.0047
582.5453	0.0043
582.7375	0.0041
582.9298	0.0015
583.122	0.002
583.3142	0.0041
583.5063	-0.0001
583.6985	-0.0036
583.8906	0.0032
584.0827	0.0012
584.2749	0.0043
584.4669	0.0012
584.659	0.0089
584.8511	0.0069
585.0431	0.007
585.2352	0.0023
585.4272	0.0044
585.6192	-0.0012
585.8111	0.0014
586.0031	0.003
586.195	0.0007
586.387	-0.0022
586.5789	0.0018
586.7708	0.0044
586.9627	0.0005
587.1545	0.0033
587.3464	0.0056
587.5382	0.0044
587.73	0.0027
587.9218	-0.0012
588.1136	-0.0017
588.3053	0.0024
588.4971	0.0046
588.6888	0.0065
588.8805	0.0002
589.0722	0.0113
589.2639	0.0019
589.4556	0.0091
589.6472	0.0043
589.8389	0.0071
590.0305	-0.0019
590.2221	0.0095
590.4137	0.0025
590.6052	-0.0006
590.7968	0.0042
590.9883	0.0032
591.1798	0.0033
591.3713	0.001
591.5628	0.0003
591.7543	0.0022
591.9458	0.0013
592.1372	0.0036
592.3286	0.0005
592.52	0.002
592.7114	0.0054
592.9028	0.0072
593.0941	0.0018
593.2855	0.0048
593.4768	0.0133
593.6681	0.006
593.8594	0.0067
594.0506	0.0069
594.2419	0.0029
594.4331	-0.0002
594.6244	-0.0039
594.8156	0.0031
595.0067	-0.0028
595.1979	0.0011
595.3891	0.0082
595.5802	0.0112
595.7713	0.0036
595.9624	0.0088
596.1535	0.0039
596.3446	0.0016
596.5357	0.0086
596.7267	0.0014
596.9177	-0.0011
597.1087	-0.0006
597.2997	0.0053
597.4907	0.0047
597.6817	0.0029
597.8726	0.0091
598.0635	-0.0033
598.2544	0.0038
598.4453	0.0042
598.6362	-0.0005
598.827	0.0065
599.0179	0.0073
599.2087	0.0077
599.3995	0.0018
599.5903	0.0051
599.7811	0.0105
599.9718	-0.0035
600.1626	0.002
600.3533	-0.0015
600.544	0.0009
600.7347	0.0036
600.9254	0.004
601.116	-0.0031
601.3067	0.003
601.4973	0.003
601.6879	0.0027
601.8785	0.0062
602.0691	0.001
602.2596	0.0035
602.4502	0.0028
602.6407	0.0078
602.8312	0.0064
603.0217	0.0036
603.2122	0.0039
603.4027	0.0052
603.5931	0.004
603.7835	0.0043
603.9739	-0.0017
604.1643	0.0052
604.3547	0.002
604.5451	0.0021
604.7354	0.0021
604.9257	0.0045
605.116	-0.0028
605.3063	0.0006
605.4966	-0.0053
605.6869	0.0068
605.8771	0.003
606.0673	0.0006
606.2575	0.0039
606.4477	0.0062
606.6379	-0.0044
606.8281	0.0037
607.0182	-0.0016
607.2083	0.0016
607.3985	0.0025
607.5885	0.0032
607.7786	0.0023
607.9687	0.0036
608.1587	0.0055
608.3488	0.0023
608.5388	0.0034
608.7288	-0.003
608.9187	0.0023
609.1087	0.011
609.2986	0.0081
609.4886	-0.0008
609.6785	0.0018
609.8684	-0.0055
610.0582	-0.0002
610.2481	-0.0036
610.4379	0.0073
610.6278	0.0014
610.8176	0.0105
611.0074	0.0004
611.1971	0.0063
611.3869	0.0043
611.5766	-0.0022
611.7664	0.0041
611.9561	0.0055
612.1458	0.0074
612.3354	0
612.5251	0.005
612.7147	0.0103
612.9044	-0.0035
613.094	0.005
613.2836	-0.0008
613.4731	0.003
613.6627	0.0058
613.8522	0.0028
614.0417	0.0072
614.2313	0.0027
614.4207	0.0034
614.6102	0.0062
614.7997	0.0102
614.9891	0.0082
615.1785	-0.0013
615.3679	0.0012
615.5573	0.0069
615.7467	0.0046
615.9361	0.0039
616.1254	0.0091
616.3147	0.0064
616.504	0.0037
616.6933	0.001
616.8826	-0.001
617.0718	0.0087
617.2611	-0.0002
617.4503	-0.003
617.6395	0.0025
617.8287	0.0058
618.0179	0.0083
618.207	0.0129
618.3961	-0.0031
618.5853	0.0074
618.7744	0.0055
618.9634	0.0002
619.1525	0.003
619.3416	-0.0045
619.5306	0.0034
619.7196	0.0119
619.9086	0.0031
620.0976	-0.0149
620.2866	0.0051
620.4755	-0.0003
620.6645	0.0096
620.8534	0.0031
621.0423	-0.0064
621.2312	-0.0029
621.42	0.0118
621.6089	-0.0053
621.7977	0.0049
621.9865	0.0006
622.1753	-0.0051
622.3641	-0.0023
622.5529	-0.0072
622.7416	0.0026
622.9303	0.0027
623.1191	0.0017
623.3078	-0.0045
623.4964	-0.0017
623.6851	0.0021
623.8737	-0.0016
624.0624	-0.0028
624.251	0.01
624.4396	0.0065
624.6282	0.0164
624.8167	-0.0029
625.0053	0.0066
625.1938	-0.0014
625.3823	0.0017
625.5708	-0.0045
625.7593	-0.0112
625.9477	-0.0008
626.1362	-0.0075
626.3246	-0.0069
626.513	0.0036
626.7014	0.0034
626.8898	0.0092
627.0781	0.0054
627.2665	0.0066
627.4548	-0.0052
627.6431	0.0026
627.8314	0.0212
628.0197	0.0091
628.2079	0.0053
628.3962	-0.0032
628.5844	-0.0011
628.7726	-0.0044
628.9608	0.0042
629.1489	0.0007
629.3371	-0.0154
629.5252	0.0077
629.7134	-0.013
629.9015	0.0056
630.0895	-0.0061
630.2776	0.0133
630.4657	0.0111
630.6537	0.0005
630.8417	-0.0131
631.0297	0.0009
631.2177	0
631.4057	0.0018
631.5936	-0.0041
631.7815	0.0037
631.9695	0.0136
632.1574	0.0105
632.3452	0.0011
632.5331	-0.0059
632.7209	0.005
632.9088	-0.0026
633.0966	0.0183
633.2844	0.003
633.4722	0.008
633.6599	0.0207
633.8477	0.001
634.0354	0.0093
634.2231	0.0174
634.4108	-0.0027
634.5985	0.0118
634.7861	-0.0015
634.9738	-0.0021
635.1614	-0.0053
635.349	0.0013
635.5366	0.0002
635.7242	0.0189
635.9117	0.0048
636.0993	0.014
636.2868	0.0089
636.4743	0.0022
636.6618	0
636.8492	-0.003
637.0367	-0.0034
637.2241	-0.0088
637.4115	0.0236
637.5989	0.0079
637.7863	0.0178
637.9737	0.006
638.161	0.0008
638.3484	-0.0091
638.5357	-0.0042
638.723	0.0236
638.9103	-0.0063
639.0975	-0.0071
639.2848	0.0049
639.472	0.0122
639.6592	-0.0074
639.8464	0
640.0336	0.0096
640.2208	0.0061
640.4079	-0.0091
640.595	-0.0135
640.7821	0.0164
640.9692	0.0002
641.1563	0.0053
641.3434	0.0068
641.5304	0.0227
641.7174	0.0286
641.9044	0.0125
642.0914	0.0249
642.2784	0.0099
642.4653	-0.0079
642.6523	0.0167
642.8392	-0.0031
643.0261	0.0091
643.213	0.0103
643.3999	0.008
643.5867	0.0017
643.7735	0.0042
643.9604	0.0198
644.1472	0.0067
644.3339	-0.0032
644.5207	-0.0039
644.7075	0.0046
644.8942	-0.0072
645.0809	-0.0046
645.2676	0.0092
645.4543	0.0056
645.6409	0.0117
645.8276	0.0066
646.0142	0.0049
646.2008	0.0145
646.3874	-0.0168
646.574	0.0046
646.7605	0.0023
646.9471	0.0003
647.1336	0.0087
647.3201	-0.0002
647.5066	0.0085
647.6931	0.0091
647.8795	0.0123
648.0659	0.0042
648.2524	0.0108
648.4388	0.0005
648.6252	0.0013
648.8115	0.0075
648.9979	0.0053
649.1842	0.0146
649.3705	0.0149
649.5568	0.0053
649.7431	-0.0017
649.9294	-0.0009
650.1156	-0.0041
650.3018	0.0168
650.488	0.0103
650.6742	0.0045
650.8604	-0.0049
651.0466	-0.0089
651.2327	0.0081
651.4188	-0.0073
651.6049	0.0089
651.791	-0.0093
651.9771	0.0117
652.1632	0.005
652.3492	-0.0066
652.5352	0.0077
652.7212	0.0018
652.9072	0.0128
653.0932	0.0168
653.2791	0.0084
653.465	0
653.651	-0.0047
653.8369	0.0073
654.0227	0
654.2086	-0.0132
654.3944	0.0043
654.5803	0.0037
654.7661	-0.0013
654.9519	0.0004
655.1377	0
655.3234	0
655.5092	0
655.6949	0
655.8806	0
656.0663	0
656.2519	0
656.4376	0
656.6232	0
656.8088	0
656.9945	0
657.18	0
657.3656	0
657.5511	0
657.7367	0
657.9222	0
658.1077	0
658.2932	0
658.4786	0
658.6641	0
658.8495	0
659.0349	0
659.2203	0
659.4057	0
659.591	0.0622
659.7764	0.0272
659.9617	0.0039
660.147	0.0096
660.3323	-0.01
660.5176	0.0044
660.7028	-0.0095
660.888	-0.0031
661.0733	0
661.2585	-0.0009
661.4436	0.0064
661.6288	0.0272
661.8139	-0.0022
661.9991	-0.0101
662.1842	0.0037
662.3693	0.0125
662.5544	-0.0002
662.7394	0.0136
662.9245	0.0185
663.1095	-0.0245
663.2945	-0.0225
663.4795	-0.0029
663.6644	-0.0199
663.8494	0.0156
664.0343	0.0244
664.2193	0.0014
664.4042	0.0131
664.589	0.017
664.7739	-0.0075
664.9587	-0.0122
665.1436	-0.0039
665.3284	0.0161
665.5132	-0.0252
665.698	0.0061
665.8827	0.0094
666.0675	-0.0118
666.2522	0.0101
666.4369	-0.0307
666.6216	-0.001
666.8063	0.0177
666.9909	-0.007
667.1756	0.0027
667.3602	-0.0125
667.5448	-0.0042
667.7294	0.0033
667.9139	0.0074
668.0985	0.0055
668.283	-0.004
668.4675	-0.0003
668.652	0.0115
668.8365	-0.0052
669.0209	-0.0063
669.2054	0.0143
669.3898	0.009
669.5742	0.0127
669.7586	0.0216
669.943	0.0056
670.1273	0.0109
670.3117	0.031
670.496	0.0049
670.6803	0.0069
670.8646	-0.0185
671.0488	0.0315
671.2331	-0.0235
671.4173	0.0015
671.6015	-0.0041
671.7857	-0.0023
671.9699	0.0013
672.1541	0.0012
672.3382	-0.0093
672.5223	0.0054
672.7064	0.0141
672.8905	-0.0118
673.0746	-0.0022
673.2587	0.0209
673.4427	0.0164
673.6267	0.0227
673.8107	0.0039
673.9947	0.0018
674.1787	0.0001
674.3626	0.0206
674.5465	0.0212
674.7304	-0.0105
674.9143	0.0121
675.0982	-0.0024
675.2821	-0.0175
675.4659	-0.0009
675.6497	0.0015
675.8335	0.0088
676.0173	-0.0132
676.2011	0.0268
676.3849	0.0181
676.5686	0.0079
676.7523	-0.0186
676.936	0.02
677.1197	-0.0148
677.3034	0.0359
677.487	0.0057
677.6706	0.002
677.8542	-0.0047
678.0378	0.0005
678.2214	-0.0004
678.405	-0.0023
678.5885	-0.0024
678.772	-0.0108
678.9555	-0.0076
679.139	0.01
679.3225	0.0117
679.5059	-0.0176
679.6894	0.0076
679.8728	-0.0018
680.0562	0.011
680.2395	-0.0125
680.4229	-0.01
680.6062	-0.0009
680.7896	-0.0137
680.9729	0.0228
681.1562	-0.0183
681.3394	0.0014
681.5227	0.0119
681.7059	0.0178
681.8891	0.0051
682.0723	0.009
682.2555	0.0169
682.4387	0.0108
682.6218	-0.0065
682.805	0.0073
682.9881	-0.0029
683.1712	0.0057
683.3542	0.0123
683.5373	0.0092
683.7203	0.0058
683.9034	-0.0194
684.0864	0.0031
684.2694	0.001
684.4523	0.0096
684.6353	-0.006
684.8182	-0.0091
685.0011	-0.0005
685.184	0.0032
685.3669	0.005
685.5498	-0.0113
685.7326	0.0067
685.9154	-0.0072
686.0982	0.0048
686.281	0.0011
686.4638	0.0132
686.6465	-0.003
686.8293	0.0025
687.012	0.0049
687.1947	0.0113
687.3774	0.0098
687.56	-0.0105
687.7427	-0.0093
687.9253	-0.0249
688.1079	-0.011
688.2905	-0.0163
688.4731	0.0248
688.6556	0.004
688.8382	-0.0277
689.0207	0.023
689.2032	0.01
689.3857	-0.0276
689.5681	-0.0133
689.7506	0.0266
689.933	-0.0163
690.1154	0
690.2978	-0.0055
690.4802	0.0051
690.6626	0.0025
690.8449	0.0061
691.0272	0.0038
691.2095	-0.0112
691.3918	0.0038
691.5741	0.0202
691.7563	0.0035
691.9386	0.0117
692.1208	0.0247
692.303	-0.0101
692.4852	0
692.6673	-0.0137
692.8495	-0.0141
693.0316	0.0095
693.2137	0.0231
693.3958	-0.0063
693.5778	0.0174
693.7599	0.006
693.9419	-0.0129
694.1239	-0.0071
694.3059	0.0231
694.4879	0.0079
694.6699	-0.007
694.8518	0.0041
695.0337	0.022
695.2157	0.0089
695.3975	-0.0025
695.5794	-0.0294
695.7613	0.0125
695.9431	0.0001
696.1249	0.016
696.3067	-0.0072
696.4885	-0.0019
696.6703	0.0061
696.852	-0.0038
697.0337	0.0309
697.2154	-0.0012
697.3971	0.0015
697.5788	0.0048
697.7605	-0.0104
697.9421	0.0115
698.1237	0.0184
698.3053	-0.0063
698.4869	0.0238
698.6685	-0.0065
698.85	-0.0008
699.0315	0.0026
699.213	0.0201
699.3945	-0.0057
699.576	0.0248
699.7575	0.0194
699.9389	-0.0182
700.1203	0.0065
700.3017	-0.0096
700.4831	0.005
700.6645	0.028
700.8458	0.0179
701.0271	0.0511
701.2084	-0.0061
701.3897	0.0004
701.571	-0.0184
701.7523	0.0049
701.9335	0.001
702.1147	0.0077
702.2959	0.0062
702.4771	0.0143
702.6583	0.0016
702.8394	-0.0352
703.0205	0.0192
703.2016	-0.0285
703.3827	-0.0038
703.5638	0.002
703.7449	0.0124
703.9259	0.0077
704.1069	-0.0148
704.2879	0.0076
704.4689	0.0085
704.6499	0.013
704.8308	0.0137
705.0117	0.028
705.1927	0.0161
705.3735	0.0212
705.5544	-0.0035
705.7353	-0.0123
705.9161	-0.0267
706.0969	0.0035
706.2777	0.0016
706.4585	-0.0033
706.6393	0.0149
706.82	0.0044
707.0007	-0.0047
707.1815	-0.0041
707.3621	0.0346
707.5428	0.0203
707.7235	-0.0005
707.9041	0.0102
708.0847	-0.0051
708.2653	0.0185
708.4459	0.0097
708.6265	-0.0063
708.807	0.0056
708.9875	0.0067
709.168	-0.0111
709.3485	0.0056
709.529	0.0229
709.7095	-0.0181
709.8899	-0.0176
710.0703	-0.0037
710.2507	-0.011
710.4311	-0.0181
710.6115	0.0358
710.7918	-0.0029
710.9721	0.0001
711.1524	-0.0116
711.3327	-0.0007
711.513	0.0073
711.6932	-0.0128
711.8735	0.0205
712.0537	-0.0206
712.2339	-0.0019
712.4141	0.0141
712.5942	-0.0312
712.7744	0.0152
712.9545	-0.0057
713.1346	0.0146
713.3147	0.0115
713.4947	-0.0138
713.6748	0.0091
713.8548	0.0083
714.0348	-0.0023
714.2148	0.0247
714.3948	0.0184
714.5748	0.0261
714.7547	0.0351
714.9346	0.0309
715.1145	0.0064
715.2944	-0.0248
715.4743	0.029
715.6541	-0.0147
715.834	0.0306
716.0138	0.0087
716.1936	0.0065
716.3733	0.0097
716.5531	-0.0285
716.7328	0.0095
716.9126	0.0362
717.0923	-0.043
717.2719	-0.0138
717.4516	-0.0011
717.6312	-0.0249
717.8109	0.0216
717.9905	0.005
718.1701	0.015
718.3496	-0.0214
718.5292	-0.0133
718.7087	0.0034
718.8882	0.019
719.0677	0.0015
719.2472	0.0066
719.4267	-0.0066
719.6061	-0.0042
719.7856	0.0402
719.965	-0.0033
720.1443	-0.0276
720.3237	0.0036
720.5031	0.0113
720.6824	-0.0185
720.8617	-0.0275
721.041	0.0402
721.2203	-0.0052
721.3995	0.0039
721.5788	0.019
721.758	-0.0073
721.9372	0.0029
722.1164	-0.0147
722.2956	-0.0108
722.4747	0.0027
722.6538	-0.0125
722.8329	0.0171
723.012	0.0104
723.1911	-0.0046
723.3702	0.0142
723.5492	-0.0208
723.7282	-0.0046
723.9072	0.0043
724.0862	-0.0135
724.2652	-0.0059
724.4441	-0.0108
724.623	0.0181
724.8019	-0.0171
724.9808	0.0246
725.1597	-0.0084
725.3385	0.0089
725.5174	-0.0006
725.6962	0.0031
725.875	0.02
726.0538	0.0099
726.2325	0.018
726.4112	-0.0271
726.59	-0.003
726.7687	-0.0225
726.9474	0.0058
727.126	0.0194
727.3047	0.004
727.4833	-0.0007
727.6619	-0.0085
727.8405	0.0052
728.0191	-0.0017
728.1976	-0.0038
728.3762	0.0048
728.5547	-0.0114
728.7332	0.0137
728.9116	0.0198
729.0901	0.0001
729.2686	0.0106
729.447	-0.0137
729.6254	0.0077
729.8038	0.0131
729.9821	-0.0093
730.1605	0.0205
730.3388	0.0064
730.5171	0.0151
730.6954	-0.0037
730.8737	-0.0143
731.0519	-0.0115
731.2302	0.0185
731.4084	0.0023
731.5866	0.0053
731.7648	-0.0002
731.9429	0.0097
732.1211	0.0027
732.2992	-0.008
732.4773	-0.0008
732.6554	-0.0274
732.8335	0.015
733.0115	-0.0041
733.1896	-0.0157
733.3676	0.0112
733.5456	0.012
733.7235	-0.0039
733.9015	0.0031
734.0794	-0.0179
734.2574	-0.0245
734.4353	0.0116
734.6131	-0.0063
734.791	0.0037
734.9689	0.0029
735.1467	-0.017
735.3245	0.015
735.5023	0.02
735.68	-0.0002
735.8578	0.0079
736.0355	0.0138
736.2132	0.0099
736.3909	0.0124
736.5686	0.0074
736.7463	-0.0153
736.9239	0.0121
737.1015	0.0084
737.2791	0.001
737.4567	0.0205
737.6343	-0.0077
737.8118	0.028
737.9894	-0.0151
738.1669	-0.0121
738.3444	0.02
738.5218	-0.0305
738.6993	0.0159
738.8767	0.0184
739.0541	0.0066
739.2315	0.0011
739.4089	0.0085
739.5863	0.0013
739.7636	0.0063
739.9409	-0.001
740.1182	0.0102
740.2955	0.0005
740.4728	-0.0227
740.65	-0.0004
740.8272	0.0407
741.0044	-0.029
741.1816	-0.0035
741.3588	-0.0069
741.5359	-0.0204
741.7131	-0.0078
741.8902	0.0017
742.0673	-0.0189
742.2444	0.0133
742.4214	0.0425
742.5985	-0.0078
742.7755	-0.0034
742.9525	-0.0354
743.1295	-0.031
743.3064	0.0069
743.4834	0.0051
743.6603	0.0349
743.8372	-0.0438
744.0141	0.0156
744.191	0.011
744.3678	-0.0333
744.5446	-0.0206
744.7215	0.0081
744.8982	0.0165
745.075	0.0608
745.2518	0.001
745.4285	0.0144
745.6052	-0.0307
745.7819	0.0071
745.9586	-0.0215
746.1353	-0.0154
746.3119	0.0188
746.4885	0.0435
746.6651	0.0092
746.8417	0.0043
747.0183	0.0228
747.1948	0.0222
747.3714	0.0237
747.5479	0.0011
747.7244	-0.0299
747.9008	0.0301
748.0773	0.0441
748.2537	0.0393
748.4301	0.0266
748.6065	-0.0084
748.7829	-0.0251
748.9593	-0.0269
749.1356	-0.0013
749.3119	0.0196
749.4882	0.0184
749.6645	-0.0039
749.8408	0.0031
750.017	0.008
750.1933	-0.0243
750.3695	0.0184
750.5457	-0.0126
750.7218	-0.019
750.898	-0.027
751.0741	-0.0022
751.2502	0.0193
751.4263	-0.0145
751.6024	0.0162
751.7784	-0.0127
751.9545	-0.0062
752.1305	-0.0018
752.3065	0.0155
752.4825	0.018
752.6584	0.0008
752.8344	-0.0087
753.0103	-0.0401
753.1862	0.0214
753.3621	-0.0185
753.5379	-0.0089
753.7138	-0.002
753.8896	0.0096
754.0654	-0.0203
754.2412	0.0365
754.417	0.0249
754.5927	-0.0043
754.7685	0.0235
754.9442	0.0139
755.1199	0.0178
755.2956	-0.0139
755.4712	0.0164
755.6469	0.028
755.8225	0.0212
755.9981	0.0141
756.1736	0.0243
756.3492	-0.0093
756.5248	0.0145
756.7003	0.0056
756.8758	0.0011
757.0513	0.0106
757.2267	0.002
757.4022	0.0052
757.5776	0.0008
757.753	-0.0099
757.9284	0.0093
758.1038	0.0138
758.2791	0.0115
758.4545	-0.004
758.6298	0.0051
758.8051	-0.0022
758.9803	0.006
759.1556	-0.0178
759.3308	0.0012
759.506	-0.0056
759.6812	0.003
759.8564	-0.0066
760.0316	0.0021
760.2067	0.0155
760.3819	-0.003
760.557	-0.0073
760.732	0.0032
760.9071	0.017
761.0821	-0.0224
761.2572	0.0064
761.4322	0.0048
761.6072	0.0213
761.7821	-0.017
761.9571	0.0316
762.132	0.0164
762.3069	0.0001
762.4818	0.0292
762.6567	-0.0029
762.8316	0.0246
763.0064	0.0112
763.1812	-0.0006
763.356	-0.0202
763.5308	0.0229
763.7055	0.0073
763.8803	-0.0077
764.055	-0.0167
764.2297	-0.0077
764.4044	-0.0072
764.579	-0.0084
764.7537	0.0052
764.9283	0.0159
765.1029	-0.0122
765.2775	0.0167
765.4521	-0.0116
765.6266	0.001
765.8011	0.0114
765.9756	0.0166
766.1501	-0.0016
766.3246	-0.0199
766.4991	0.0167
766.6735	0.0447
766.8479	-0.013
767.0223	0.0306
767.1967	-0.0089
767.371	0.0132
767.5454	0.0139
767.7197	0.0323
767.894	0.0021
768.0683	0.0162
768.2425	0.0089
768.4168	0.0233
768.591	0.0118
768.7652	-0.0151
768.9394	-0.0277
769.1135	-0.0064
769.2877	0.0171
769.4618	0.0042
769.6359	-0.0057
769.81	0.0224
769.984	0.005
770.1581	-0.0022
770.3321	-0.003
770.5061	-0.0123
770.6801	-0.0006
770.8541	-0.0013
771.028	0.0278
771.202	0.0428
771.3759	-0.0102
771.5498	0.003
771.7236	-0.0209
771.8975	0.0135
772.0713	0.0038
772.2451	-0.0119
772.4189	-0.0033
772.5927	-0.0111
772.7665	-0.0029
772.9402	0.0183
773.1139	0.0268
773.2876	-0.0065
773.4613	0.0496
773.635	0.0426
773.8086	0.0191
773.9822	0.0299
774.1558	0.0024
774.3294	0.0042
774.503	0.0258
774.6765	0.0175
774.8501	0.0001
775.0236	0.0247
775.1971	-0.0301
775.3705	-0.027
775.544	-0.0603
775.7174	0.0018
775.8908	-0.0059
776.0642	0.016
776.2376	0.0647
776.4109	-0.0083
776.5843	0.0264
776.7576	0.0078
776.9309	0.0077
777.1041	-0.0257
777.2774	-0.0137
777.4506	-0.0199
777.6238	-0.0487
777.797	0.0225
777.9702	-0.0109
778.1434	0.0032
778.3165	-0.0331
778.4896	-0.0419
778.6627	-0.001
778.8358	-0.0214
779.0089	-0.0267
779.1819	-0.0021
779.3549	0.013
779.5279	-0.0183
779.7009	0.0216
779.8739	0.0401
780.0468	0.0072
780.2197	-0.0098
780.3926	-0.009
780.5655	0.0123
780.7384	-0.0035
780.9112	0.0327
781.0841	0.0075
781.2569	0.0199
781.4297	-0.0058
781.6024	0.001
781.7752	0.0421
781.9479	0.0376
782.1206	0.0313
782.2933	0.0186
782.466	0.0213
782.6386	-0.0276
782.8113	0.0631
782.9839	0.0156
783.1565	0.0158
783.329	-0.0197
783.5016	-0.0117
783.6741	-0.0042
783.8466	0.0385
784.0191	-0.004
784.1916	-0.0161
784.3641	-0.0404
784.5365	0.0188
784.7089	0.0146
784.8813	0.0469
785.0537	0.0328
785.2261	-0.0244
785.3984	-0.0432
785.5707	0.0046
785.743	0.024
785.9153	-0.0194
786.0876	0.0009
786.2598	-0.0432
786.432	-0.0123
786.6042	0.0165
786.7764	-0.046
786.9486	0.0043
787.1207	0.0203
787.2928	0.041
787.4649	-0.0145
787.637	0.0001
787.8091	0.0386
787.9811	0.0321
788.1532	0.02
788.3252	-0.0125
788.4972	-0.0021
788.6691	0.0329
788.8411	-0.0011
789.013	-0.0141
789.1849	0.0008
789.3568	0.0001
789.5287	0.0428
789.7005	-0.037
789.8723	-0.0045
790.0442	-0.0212
790.2159	0.0346
790.3877	-0.0121
790.5595	-0.004
790.7312	-0.026
790.9029	-0.0381
791.0746	-0.0176
791.2463	-0.0236
791.4179	-0.0589
791.5896	-0.0265
791.7612	-0.0048
791.9328	-0.0624
792.1044	-0.0231
792.2759	-0.0286
792.4474	-0.009
792.619	0.0235
792.7905	0.037
792.9619	0.038
793.1334	0.0438
793.3048	0.0189
793.4762	0.0425
793.6476	-0.0427
793.819	0.0075
793.9904	-0.0089
794.1617	-0.0079
794.333	0.0351
794.5043	0.0279
794.6756	0.022
794.8469	0.005
795.0181	0.009
795.1893	0.0173
795.3605	-0.0048
795.5317	-0.017
795.7029	-0.0147
795.874	-0.0331
796.0452	-0.0049
796.2163	0.0293
796.3873	0.1024
796.5584	0.0679
796.7294	-0.0463
796.9005	0.0091
797.0715	-0.0044
797.2425	0.0703
797.4134	-0.0151
797.5844	0.141
797.7553	-0.0793
797.9262	0.0645
798.0971	0.0336
798.2679	-0.0188
798.4388	0.0478
798.6096	-0.0339
798.7804	-0.0224
798.9512	0.0418
799.122	-0.0663
799.2927	0.0576
799.4635	-0.0796
799.6342	-0.053
799.8049	-0.0204
799.9755	0.0202
800.1462	-0.0105
800.3168	-0.0178
800.4874	-0.0605
800.658	0.0323
800.8286	0.0034
800.9991	0.0329
801.1696	-0.0155
801.3402	-0.0231
801.5106	-0.0202
801.6811	-0.0578
801.8516	0.0476
802.022	0.0587
802.1924	0.0217
802.3628	-0.017
802.5332	0.0678
802.7035	-0.0153
802.8739	-0.0475
803.0442	0.006
803.2145	-0.0205
803.3847	0.0241
803.555	0.0396
803.7252	-0.0965
803.8954	-0.0359
804.0656	-0.0577
804.2358	0.0247
804.4059	0.0442
804.5761	-0.0146
804.7462	-0.0116
804.9163	0.0295
805.0864	-0.01
805.2564	-0.0531
805.4264	0.0003
805.5965	0.0354
805.7665	0.0502
805.9364	0.0376
806.1064	0.0255
806.2763	0.0059
806.4462	0.0152
806.6161	0.0099
806.786	-0.0117
806.9559	-0.0008
807.1257	-0.0358
807.2955	-0.0427
807.4653	0.0026
807.6351	0.0805
807.8048	0.0554
807.9746	-0.024
808.1443	-0.0626
808.314	0.0355
808.4837	-0.0047
808.6533	-0.0704
808.8229	-0.0292
808.9926	0.079
809.1622	-0.0114
809.3317	-0.0666
809.5013	-0.0159
809.6708	-0.0014
809.8403	0.0839
810.0098	-0.0452
810.1793	-0.0745
810.3488	0.0449
810.5182	0.1298
810.6876	0.0023
810.857	0.0004
811.0264	-0.0193
811.1958	0.1009
811.3651	-0.0066
811.5344	0.1277
811.7037	0.0445
811.873	0.0933
812.0422	-0.1573
812.2115	0.0098
812.3807	-0.0217
812.5499	0.1224
812.7191	-0.2146
812.8882	-0.0498
813.0574	0.0329
813.2265	-0.005
813.3956	0.0239
813.5646	0.0166
813.7337	0.0075
813.9027	-0.0679
814.0718	0.0431
814.2407	0.046
814.4097	0.0288
814.5787	0.0914
814.7476	0.0032
814.9165	0.0985
815.0854	0.0256
815.2543	-0.1249
815.4232	0.083
815.592	-0.045
815.7608	-0.0631
815.9296	0.0668
816.0984	-0.0616
816.2671	-0.2857
816.4359	0.1685
816.6046	0.0662
816.7733	-0.1056
816.942	-0.0887
817.1106	0.0239
817.2793	-0.122
817.4479	-0.0043
817.6165	0.0175
817.785	0.0582
817.9536	-0.1204
818.1221	0.0818
818.2906	-0.1086
818.4591	-0.0276
818.6276	0.0053
818.7961	-0.0151
818.9645	0.0004
819.1329	0.1321
819.3013	-0.1062
819.4697	-0.1422
819.638	0.0053
819.8064	0.0874
819.9747	0.0755
820.143	-0.0621
820.3113	-0.0268
820.4795	-0.0336
820.6477	0.0241
820.816	0.0141
820.9842	0.0234
821.1523	0.0789
821.3205	0.0826
821.4886	-0.0662
821.6567	-0.0685
821.8248	0.1513
821.9929	0.0035
822.1609	0.0656
822.329	-0.0054
822.497	-0.0093
822.665	-0.0336
822.833	0.0525
823.0009	0.0259
823.1688	-0.0359
823.3367	-0.0609
823.5046	-0.026
823.6725	-0.1751
823.8404	-0.0271
824.0082	-0.0429
824.176	-0.1134
824.3438	0.1184
824.5116	0.0304
824.6793	0.0745
824.847	0.0987
825.0147	-0.2078
825.1824	0.0398
825.3501	0.0542
825.5177	-0.0063
825.6854	-0.2222
825.853	-0.0029
826.0206	-0.003
826.1881	-0.1221
826.3557	-0.0801
826.5232	0.0583
826.6907	0.0075
826.8582	-0.0984
827.0257	0.0834
827.1931	0.0822
827.3605	-0.0325
827.528	-0.0293
827.6953	-0.2088
827.8627	-0.0567
828.03	0.0799
828.1974	0.0212
828.3647	0.0677
828.532	0.1618
828.6992	0.2253
828.8665	-0.3019
829.0337	0.0525
829.2009	-0.0547
829.3681	-0.0832
829.5352	-0.3145
829.7024	0.0616
829.8695	-0.0914
830.0366	0.0374
830.2037	0.1461
830.3707	0.0601
830.5378	0.1363
830.7048	-0.0599
830.8718	-0.0853
831.0388	0.0764
831.2057	0.1806
831.3727	-0.2049
831.5396	0.1171
831.7065	-0.9678
831.8734	0.0911
832.0402	0.1531
832.2071	-0.8306
832.3739	0.4474
832.5407	-1.8717
832.7075	-0.2139
832.8742	0.026
833.041	-0.0837
833.2077	0.013
833.3744	0.1013
833.541	0.0397
833.7077	0.0073
833.8743	-0.0035
834.0409	0.0251
834.2075	0.0951
834.3741	-0.181
834.5407	0.0011
834.7072	0.2692
834.8737	0.1892
835.0402	0.3895
835.2067	-0.1248
835.3731	0.2997
835.5395	-0.0383
835.706	-0.2972
835.8723	-0.0648
836.0387	0.6272
836.2051	0.0914
836.3714	0.0151
836.5377	-0.1629
836.704	-0.0083
836.8703	-0.2415
837.0365	-0.7677
837.2027	0.0611
837.3689	0.2129
837.5351	-0.201
837.7013	-0.3169
837.8674	0.0044
838.0335	-0.113
838.1997	-0.3715
838.3657	-0
838.5318	0.5662
838.6978	-0.099
838.8639	0.2514
839.0299	-0.0798
839.1958	0.0054
839.3618	0.419
839.5277	-0.047
839.6937	0.1809
839.8596	-0.2007
840.0254	-0.0758
840.1913	0.4655
840.3571	0.1422
840.523	-0
840.6888	0.3379
840.8545	-0.5121
841.0203	0.1233
841.186	0.1612
841.3517	-0.0983
841.5174	0.2997
841.6831	0.0144
841.8488	-0.4061
842.0144	0.361
842.18	0.1854
842.3456	-0.5174
842.5112	-0
842.6767	0.2716
842.8422	-0.1121
843.0077	0.0011
843.1732	0.0253
843.3387	-0.3408
843.5042	-0
843.6696	-0
843.835	0.0281
844.0004	-0.1661
844.1657	-0.7256
844.3311	-0
844.4964	-0.3073
844.6617	0.4246
844.827	-0
844.9923	0.8582
845.1575	1.1179
845.3227	-0.2389
845.4879	-0.2569
845.6531	-0.0336
845.8183	0.2089
845.9834	-0.1254
846.1485	0.1199
846.3136	0.1699
846.4787	-0
846.6438	-0.1629
846.8088	2.0195
846.9738	-0
847.1388	0.0762
847.3038	0.5243
847.4687	-0
847.6337	-0.4585
847.7986	0.0475
847.9635	-0.1431
848.1284	0.4389
848.2932	0.1719
848.458	-0
848.6228	0.2533
848.7876	-0
848.9524	-0.3356
849.1172	-1.8913
849.2819	-0.3964
849.4466	1.1211
849.6113	-0.1542
849.7759	-0
849.9406	0.0663
850.1052	-1.151
850.2698	-0
850.4344	-0
850.599	0.2113
850.7635	0.1309
850.928	0.3818
851.0925	-0
851.257	0.2977
851.4215	0.0319
851.5859	-0.081
851.7503	-0
851.9147	-0
852.0791	0.4887
852.2434	0.2503
852.4078	-0
852.5721	0.4365
852.7364	0.2312
852.9007	0.1846
853.0649	-0
853.2291	0.0617
853.3934	-0
853.5575	-0.2133
853.7217	0.7018
853.8859	-0.103
854.05	-0.2085
854.2141	0.6163
854.3782	-0.4077
854.5423	-0.1055
854.7063	0.0306
854.8703	0.545
855.0343	0.3534
855.1983	-0.1172
855.3623	0.4972
855.5262	-0
855.6901	0.318
855.854	0.1729
856.0179	0.3466
856.1818	0.1956
856.3456	0.6376
856.5094	-0.6156
856.6732	0.2478
856.837	-1.2989
857.0008	-0.4882
857.1645	-0.2812
857.3282	-0
857.4919	0.0338
857.6556	-0.3162
857.8192	-0.122
857.9828	-0.2551
858.1465	-0.2016
858.31	-0
858.4736	-0.2742
858.6372	-0.2801
858.8007	0.2081
858.9642	0.2613
859.1277	0.618
859.2911	-0.4139
859.4546	-0
859.618	0.0914
859.7814	-0.0253
859.9448	-0.0903
860.1081	0.5734
860.2715	-1.3281
860.4348	0.3673
860.5981	0.1085
860.7614	-0
860.9246	-0.1765
861.0879	0.3711
861.2511	-0
861.4143	-0.3127
861.5774	-0.5093
861.7406	0.0689
861.9037	-0
862.0668	-0.7924
862.2299	-0
862.393	-0
862.556	-0.796
862.7191	-0.1381
862.8821	0.0814
863.0451	0.2244
863.208	0.1259
863.371	-0.4882
863.5339	0.2718
863.6968	0.9633
863.8597	-0.2905
864.0225	-0.056
864.1854	-0.3223
864.3482	-0.8978
864.511	-0.0422
864.6737	-0
864.8365	-0.0858
864.9992	-0
865.1619	-0.4349
865.3246	-0
865.4873	0.1461
865.65	-0
865.8126	0.1253
865.9752	-0.1461
866.1378	-0.0948
866.3004	0.2681
866.4629	-1.2916
866.6254	-0.2669
866.7879	-0.1551
866.9504	-0.2958
867.1129	-0.5556
867.2753	-0.2502
867.4377	-0.117
867.6001	-0.6137
867.7625	0.1756
867.9249	0.4836
868.0872	-0.1396
868.2495	-0
868.4118	-0
868.5741	-0.6729
868.7363	-0
868.8986	-0.6499
869.0608	-0
869.223	-0.6106
869.3851	-0
869.5473	0.0373
869.7094	-0
869.8715	-0.661
870.0336	0.1197
870.1957	-0
870.3577	0.1957
870.5197	-0.3243
870.6817	-1.0038
870.8437	-0.0925
871.0057	-0.0513
871.1676	0.3408
871.3295	0.2628
871.4914	-0
871.6533	-0.4356
871.8151	0.7426
871.977	-0.551
872.1388	-0.3748
872.3006	-0.5068
872.4623	-0.7183
872.6241	0.6236
872.7858	0.1755
872.9475	-0
873.1092	0.0697
873.2709	0.2678
873.4325	-0
873.5941	-0
873.7557	-0
873.9173	-0.1355
874.0789	-0.0545
874.2404	-0
874.4019	-0.2224
874.5634	-0
874.7249	0.4971
874.8863	0.108
875.0478	-0.2753
875.2092	0.6112
875.3706	0.4575
875.5319	-0
875.6933	-0.1621
875.8546	-0
876.0159	0.1051
876.1772	0.5983
876.3385	-0
876.4997	0.0163
876.6609	-0.1766
876.8221	0.3833
876.9833	-0.1349
877.1445	0.2022
877.3056	-0.876
877.4667	-0
877.6278	-0.0804
877.7889	0.5692
877.9499	-0.1629
878.111	-0.6713
878.272	-0.6296
878.433	-0.2446
878.5939	-0.3205
878.7549	-0
878.9158	0.1669
879.0767	-0
879.2376	0.9485
879.3984	0.3142
879.5593	0.5262
879.7201	-1.9452
879.8809	-0.1854
880.0417	-0.2574
880.2024	-0.1037
880.3632	0.0063
880.5239	-0.4059
880.6846	-0.8685
880.8452	-0.2438
881.0059	0.7924
881.1665	0.0281
881.3271	0.3178
881.4877	2.0755
881.6483	-1.1179
881.8088	-0
881.9693	-0
882.1298	-0
882.2903	-0
