Data from D4ACN5uM460nmA_Absorbance_13-05-42-365.txt Node
Date: Fri Feb 21 13:05:42 GMT 2025
User: LASERRRRR
Spectrometer: FLMT03099
Trigger mode: 0
Integration Time (sec): 1.500000E-2
Scans to average: 1
Electric dark correction enabled: true
Nonlinearity correction enabled: false
Boxcar width: 0
XAxis mode: Wavelengths
Number of Pixels in Spectrum: 3648
>>>>>Begin Spectral Data<<<<<
179.3399	-0.714
179.5586	-0.714
179.7771	-0.714
179.9957	0.2487
180.2143	-0
180.4329	0.1424
180.6514	-0
180.8699	0.0264
181.0885	-0
181.307	-0.0754
181.5255	0.1822
181.744	-0
181.9625	0.0832
182.181	-0
182.3994	-0.7695
182.6179	-0
182.8363	-0
183.0547	0.0057
183.2732	0.0694
183.4916	0.1752
183.71	0.1767
183.9284	0.1913
184.1467	0.2325
184.3651	-0.0875
184.5835	0.3176
184.8018	0.0662
185.0201	0.3093
185.2385	0.2285
185.4568	0.129
185.6751	0.0715
185.8934	0.1506
186.1117	0.1283
186.3299	0.0723
186.5482	0.0956
186.7664	0.1055
186.9847	0.0255
187.2029	0.2848
187.4211	-0.0723
187.6393	-0.0146
187.8575	0.5859
188.0757	0.25
188.2939	0.1363
188.512	0.3379
188.7302	-0.0124
188.9483	0.3479
189.1665	0.4296
189.3846	0.11
189.6027	0.1072
189.8208	0.2528
190.0389	0.1219
190.257	0.2794
190.475	-0.0954
190.6931	0.2523
190.9111	-0.119
191.1292	0.1153
191.3472	0.1041
191.5652	0.1974
191.7832	0.1025
192.0012	0.0925
192.2192	0.1557
192.4371	0.1091
192.6551	0.1133
192.873	0.1515
193.091	0.1094
193.3089	0.2055
193.5268	0.2497
193.7447	0.1489
193.9626	0.1897
194.1805	0.2002
194.3984	0.2308
194.6162	0.2411
194.8341	0.2679
195.0519	0.1796
195.2697	0.2108
195.4875	0.281
195.7054	0.309
195.9231	0.1735
196.1409	0.234
196.3587	0.2339
196.5765	0.2879
196.7942	0.2954
197.012	0.3385
197.2297	0.2893
197.4474	0.385
197.6651	0.3109
197.8828	0.3237
198.1005	0.3901
198.3182	0.3819
198.5358	0.3121
198.7535	0.4222
198.9711	0.3615
199.1888	0.299
199.4064	0.421
199.624	0.3411
199.8416	0.3586
200.0592	0.375
200.2767	0.41
200.4943	0.3926
200.7119	0.3663
200.9294	0.408
201.1469	0.3846
201.3645	0.4238
201.582	0.3929
201.7995	0.4063
202.017	0.4301
202.2344	0.386
202.4519	0.3941
202.6694	0.3567
202.8868	0.4153
203.1042	0.3796
203.3217	0.4011
203.5391	0.3496
203.7565	0.3884
203.9739	0.3845
204.1913	0.3704
204.4086	0.3626
204.626	0.3566
204.8433	0.3707
205.0607	0.3196
205.278	0.3506
205.4953	0.3204
205.7126	0.3629
205.9299	0.3022
206.1472	0.3444
206.3644	0.3597
206.5817	0.3425
206.7989	0.3368
207.0162	0.3326
207.2334	0.3229
207.4506	0.3158
207.6678	0.2758
207.885	0.3205
208.1022	0.3186
208.3194	0.2882
208.5365	0.3034
208.7537	0.3134
208.9708	0.3184
209.1879	0.2924
209.405	0.3045
209.6222	0.2862
209.8392	0.3001
210.0563	0.2833
210.2734	0.2679
210.4905	0.2779
210.7075	0.2751
210.9245	0.249
211.1416	0.2781
211.3586	0.2778
211.5756	0.2475
211.7926	0.2676
212.0096	0.2644
212.2265	0.2637
212.4435	0.2715
212.6604	0.2575
212.8774	0.2548
213.0943	0.2324
213.3112	0.2564
213.5281	0.243
213.745	0.2395
213.9619	0.2483
214.1788	0.2601
214.3956	0.2541
214.6125	0.243
214.8293	0.2458
215.0461	0.2653
215.2629	0.2576
215.4798	0.25
215.6965	0.2533
215.9133	0.2491
216.1301	0.2438
216.3469	0.2518
216.5636	0.245
216.7803	0.2689
216.9971	0.2579
217.2138	0.2455
217.4305	0.2437
217.6472	0.2303
217.8639	0.2482
218.0805	0.2572
218.2972	0.2313
218.5138	0.2633
218.7305	0.2585
218.9471	0.2418
219.1637	0.2739
219.3803	0.2612
219.5969	0.2616
219.8135	0.2808
220.0301	0.2552
220.2466	0.271
220.4632	0.2503
220.6797	0.2583
220.8962	0.2742
221.1127	0.2712
221.3292	0.2697
221.5457	0.2772
221.7622	0.2814
221.9787	0.2833
222.1951	0.2818
222.4116	0.2809
222.628	0.2793
222.8444	0.2827
223.0608	0.2914
223.2772	0.2824
223.4936	0.2792
223.71	0.2912
223.9264	0.2902
224.1427	0.2937
224.3591	0.2769
224.5754	0.2984
224.7917	0.2973
225.008	0.2898
225.2243	0.3074
225.4406	0.3018
225.6569	0.3049
225.8732	0.3096
226.0894	0.3046
226.3057	0.3059
226.5219	0.3024
226.7381	0.3238
226.9543	0.3257
227.1705	0.3111
227.3867	0.3265
227.6029	0.3329
227.8191	0.3274
228.0352	0.3326
228.2513	0.3506
228.4675	0.343
228.6836	0.3546
228.8997	0.3512
229.1158	0.3567
229.3319	0.3633
229.548	0.3566
229.764	0.3669
229.9801	0.3668
230.1961	0.3762
230.4121	0.3675
230.6282	0.376
230.8442	0.3886
231.0602	0.3882
231.2761	0.3884
231.4921	0.3908
231.7081	0.396
231.924	0.403
232.14	0.3863
232.3559	0.4107
232.5718	0.4081
232.7877	0.411
233.0036	0.4132
233.2195	0.4134
233.4353	0.4137
233.6512	0.4105
233.867	0.4238
234.0829	0.4167
234.2987	0.4203
234.5145	0.434
234.7303	0.4357
234.9461	0.4304
235.1619	0.4475
235.3776	0.4313
235.5934	0.4402
235.8091	0.4458
236.0249	0.449
236.2406	0.4457
236.4563	0.4472
236.672	0.4411
236.8877	0.4453
237.1034	0.4449
237.319	0.4436
237.5347	0.4431
237.7503	0.4553
237.966	0.4615
238.1816	0.4568
238.3972	0.4594
238.6128	0.4644
238.8284	0.4637
239.0439	0.4584
239.2595	0.4595
239.475	0.4656
239.6906	0.4565
239.9061	0.4615
240.1216	0.4539
240.3371	0.4673
240.5526	0.4617
240.7681	0.4649
240.9836	0.4487
241.199	0.4521
241.4145	0.4445
241.6299	0.4492
241.8453	0.4377
242.0607	0.4351
242.2761	0.4324
242.4915	0.4251
242.7069	0.4194
242.9223	0.4177
243.1376	0.4135
243.353	0.402
243.5683	0.3905
243.7836	0.3846
243.9989	0.3738
244.2142	0.3676
244.4295	0.3688
244.6448	0.357
244.86	0.3497
245.0753	0.3478
245.2905	0.3346
245.5057	0.3235
245.721	0.3281
245.9362	0.3275
246.1514	0.3112
246.3665	0.3074
246.5817	0.3019
246.7969	0.2853
247.012	0.2918
247.2271	0.291
247.4423	0.2859
247.6574	0.2771
247.8725	0.2683
248.0876	0.2679
248.3026	0.2635
248.5177	0.2576
248.7328	0.2503
248.9478	0.2487
249.1628	0.2455
249.3779	0.2375
249.5929	0.2387
249.8079	0.2335
250.0228	0.231
250.2378	0.2302
250.4528	0.2266
250.6677	0.22
250.8827	0.2109
251.0976	0.2106
251.3125	0.2172
251.5274	0.2114
251.7423	0.2035
251.9572	0.2035
252.172	0.2034
252.3869	0.2086
252.6017	0.1998
252.8166	0.2015
253.0314	0.1995
253.2462	0.1921
253.461	0.1977
253.6758	0.1949
253.8906	0.1911
254.1053	0.1921
254.3201	0.1905
254.5348	0.1806
254.7496	0.1874
254.9643	0.1884
255.179	0.1809
255.3937	0.1878
255.6083	0.1914
255.823	0.1808
256.0377	0.1845
256.2523	0.1819
256.467	0.1859
256.6816	0.1792
256.8962	0.182
257.1108	0.1795
257.3254	0.1821
257.54	0.1759
257.7545	0.1806
257.9691	0.1802
258.1836	0.1744
258.3981	0.1797
258.6127	0.1723
258.8272	0.1736
259.0417	0.1726
259.2561	0.1775
259.4706	0.1728
259.6851	0.175
259.8995	0.1742
260.114	0.1769
260.3284	0.1723
260.5428	0.1765
260.7572	0.1682
260.9716	0.1785
261.186	0.1737
261.4003	0.1732
261.6147	0.1703
261.829	0.1701
262.0433	0.1697
262.2577	0.1757
262.472	0.1742
262.6863	0.1782
262.9005	0.179
263.1148	0.1708
263.3291	0.1751
263.5433	0.1739
263.7576	0.1752
263.9718	0.174
264.186	0.1739
264.4002	0.1749
264.6144	0.1829
264.8286	0.1746
265.0427	0.179
265.2569	0.1809
265.471	0.1751
265.6851	0.181
265.8993	0.1762
266.1134	0.1812
266.3275	0.1761
266.5415	0.176
266.7556	0.1805
266.9697	0.182
267.1837	0.1768
267.3978	0.1776
267.6118	0.1717
267.8258	0.18
268.0398	0.1773
268.2538	0.1777
268.4677	0.1752
268.6817	0.1723
268.8957	0.1698
269.1096	0.1671
269.3235	0.1672
269.5374	0.1724
269.7514	0.1701
269.9652	0.1752
270.1791	0.1675
270.393	0.1721
270.6068	0.1745
270.8207	0.1706
271.0345	0.1702
271.2483	0.1656
271.4622	0.1723
271.676	0.1718
271.8897	0.1652
272.1035	0.1749
272.3173	0.1679
272.531	0.1649
272.7448	0.1651
272.9585	0.1655
273.1722	0.1675
273.3859	0.1666
273.5996	0.1675
273.8133	0.1712
274.0269	0.1622
274.2406	0.1644
274.4542	0.1639
274.6679	0.171
274.8815	0.1744
275.0951	0.1753
275.3087	0.1715
275.5223	0.1643
275.7358	0.171
275.9494	0.172
276.1629	0.1753
276.3765	0.1687
276.59	0.1675
276.8035	0.1687
277.017	0.1722
277.2305	0.1736
277.444	0.1753
277.6574	0.1742
277.8709	0.1801
278.0843	0.1757
278.2978	0.172
278.5112	0.1723
278.7246	0.1702
278.938	0.1685
279.1513	0.1775
279.3647	0.1707
279.5781	0.1747
279.7914	0.1742
280.0047	0.1767
280.2181	0.1759
280.4314	0.1786
280.6447	0.1764
280.8579	0.1797
281.0712	0.1772
281.2845	0.1763
281.4977	0.1789
281.711	0.1728
281.9242	0.176
282.1374	0.1814
282.3506	0.1805
282.5638	0.18
282.7769	0.1735
282.9901	0.1767
283.2033	0.1812
283.4164	0.1761
283.6295	0.1785
283.8426	0.1751
284.0557	0.187
284.2688	0.1817
284.4819	0.1805
284.695	0.184
284.908	0.1791
285.1211	0.1793
285.3341	0.1796
285.5471	0.1853
285.7601	0.1871
285.9731	0.1844
286.1861	0.1853
286.3991	0.1888
286.612	0.1897
286.825	0.1857
287.0379	0.1838
287.2508	0.1816
287.4637	0.1895
287.6766	0.1844
287.8895	0.1875
288.1024	0.1923
288.3152	0.1919
288.5281	0.1838
288.7409	0.1881
288.9538	0.1882
289.1666	0.1892
289.3794	0.189
289.5922	0.1829
289.8049	0.1841
290.0177	0.1917
290.2304	0.1876
290.4432	0.1966
290.6559	0.1912
290.8686	0.1945
291.0813	0.1931
291.294	0.1953
291.5067	0.1857
291.7194	0.189
291.932	0.1865
292.1447	0.1923
292.3573	0.1926
292.5699	0.1906
292.7825	0.1899
292.9951	0.1954
293.2077	0.1967
293.4203	0.1932
293.6328	0.187
293.8454	0.1936
294.0579	0.1901
294.2704	0.1954
294.4829	0.1896
294.6954	0.2023
294.9079	0.1852
295.1204	0.1912
295.3328	0.1987
295.5453	0.1883
295.7577	0.1921
295.9701	0.1925
296.1825	0.1946
296.3949	0.1892
296.6073	0.1887
296.8197	0.1957
297.0321	0.193
297.2444	0.1898
297.4567	0.1952
297.6691	0.1928
297.8814	0.1906
298.0937	0.1926
298.306	0.1939
298.5182	0.1966
298.7305	0.1937
298.9428	0.1949
299.155	0.1852
299.3672	0.1923
299.5794	0.1917
299.7916	0.1932
300.0038	0.1904
300.216	0.1906
300.4282	0.1926
300.6403	0.1985
300.8525	0.1915
301.0646	0.1863
301.2767	0.1912
301.4888	0.1903
301.7009	0.1987
301.913	0.1917
302.125	0.1928
302.3371	0.1929
302.5491	0.1956
302.7612	0.2017
302.9732	0.1985
303.1852	0.1897
303.3972	0.1911
303.6092	0.1939
303.8211	0.1819
304.0331	0.1899
304.245	0.1853
304.457	0.1844
304.6689	0.1906
304.8808	0.1849
305.0927	0.1871
305.3046	0.1878
305.5164	0.1838
305.7283	0.1836
305.9401	0.1791
306.152	0.1818
306.3638	0.1771
306.5756	0.1801
306.7874	0.1756
306.9992	0.1729
307.2109	0.1685
307.4227	0.1683
307.6344	0.1678
307.8462	0.1619
308.0579	0.1722
308.2696	0.1664
308.4813	0.1699
308.693	0.1636
308.9046	0.1629
309.1163	0.1596
309.328	0.1597
309.5396	0.1555
309.7512	0.1523
309.9628	0.1508
310.1744	0.1521
310.386	0.1456
310.5976	0.1478
310.8091	0.1454
311.0207	0.1469
311.2322	0.1354
311.4437	0.1414
311.6552	0.1429
311.8667	0.1409
312.0782	0.1399
312.2897	0.1396
312.5012	0.1379
312.7126	0.1345
312.924	0.1355
313.1355	0.1341
313.3469	0.1323
313.5583	0.1285
313.7696	0.1326
313.981	0.1396
314.1924	0.129
314.4037	0.1274
314.6151	0.1267
314.8264	0.1324
315.0377	0.1231
315.249	0.1322
315.4603	0.1232
315.6716	0.1311
315.8828	0.1227
316.0941	0.1284
316.3053	0.1264
316.5165	0.1288
316.7277	0.1235
316.9389	0.1259
317.1501	0.1246
317.3613	0.1178
317.5724	0.1206
317.7836	0.1185
317.9947	0.1213
318.2058	0.1228
318.417	0.1209
318.6281	0.1182
318.8391	0.1222
319.0502	0.1264
319.2613	0.1176
319.4723	0.1183
319.6834	0.1239
319.8944	0.1166
320.1054	0.1196
320.3164	0.119
320.5274	0.1197
320.7383	0.1184
320.9493	0.1178
321.1602	0.118
321.3712	0.1177
321.5821	0.1183
321.793	0.1248
322.0039	0.1227
322.2148	0.1219
322.4257	0.1142
322.6365	0.1157
322.8474	0.1231
323.0582	0.1235
323.269	0.1209
323.4798	0.1255
323.6906	0.1191
323.9014	0.1174
324.1122	0.1134
324.3229	0.1221
324.5337	0.1254
324.7444	0.1232
324.9551	0.1249
325.1658	0.118
325.3765	0.1306
325.5872	0.1227
325.7979	0.12
326.0085	0.1248
326.2192	0.1134
326.4298	0.1253
326.6404	0.1262
326.851	0.1178
327.0616	0.1291
327.2722	0.1282
327.4828	0.1216
327.6933	0.1287
327.9039	0.127
328.1144	0.127
328.3249	0.126
328.5354	0.1323
328.7459	0.1264
328.9564	0.1246
329.1669	0.1379
329.3773	0.1254
329.5878	0.1253
329.7982	0.1317
330.0086	0.128
330.219	0.1267
330.4294	0.1281
330.6398	0.1316
330.8502	0.1358
331.0605	0.1239
331.2708	0.129
331.4812	0.1265
331.6915	0.1302
331.9018	0.1258
332.1121	0.1325
332.3224	0.1273
332.5326	0.1244
332.7429	0.1332
332.9531	0.1295
333.1633	0.1204
333.3735	0.1302
333.5837	0.1335
333.7939	0.1293
334.0041	0.1391
334.2143	0.1294
334.4244	0.1373
334.6346	0.1306
334.8447	0.1322
335.0548	0.1331
335.2649	0.1412
335.475	0.1327
335.685	0.1321
335.8951	0.1237
336.1051	0.1386
336.3152	0.1374
336.5252	0.1273
336.7352	0.1323
336.9452	0.1353
337.1552	0.1437
337.3652	0.1326
337.5751	0.135
337.7851	0.1419
337.995	0.1373
338.2049	0.1372
338.4148	0.1342
338.6247	0.1347
338.8346	0.1359
339.0445	0.1365
339.2543	0.1393
339.4642	0.1364
339.674	0.1326
339.8838	0.1356
340.0936	0.1349
340.3034	0.1353
340.5132	0.1334
340.7229	0.1333
340.9327	0.1458
341.1424	0.1428
341.3522	0.1337
341.5619	0.1378
341.7716	0.1429
341.9813	0.1446
342.1909	0.142
342.4006	0.1466
342.6102	0.1487
342.8199	0.1489
343.0295	0.1462
343.2391	0.1488
343.4487	0.1437
343.6583	0.1512
343.8679	0.1419
344.0774	0.151
344.287	0.1539
344.4965	0.1505
344.706	0.152
344.9155	0.1432
345.125	0.1514
345.3345	0.1648
345.544	0.158
345.7534	0.1556
345.9629	0.1545
346.1723	0.162
346.3817	0.15
346.5911	0.1584
346.8005	0.1577
347.0099	0.1542
347.2193	0.1684
347.4286	0.1653
347.638	0.1679
347.8473	0.1673
348.0566	0.1589
348.2659	0.1628
348.4752	0.1622
348.6845	0.1674
348.8937	0.1639
349.103	0.169
349.3122	0.1625
349.5214	0.1704
349.7306	0.1728
349.9398	0.1652
350.149	0.1633
350.3582	0.1691
350.5674	0.1669
350.7765	0.167
350.9856	0.1643
351.1948	0.1709
351.4039	0.1709
351.613	0.1686
351.822	0.1756
352.0311	0.1753
352.2402	0.1792
352.4492	0.1756
352.6582	0.1758
352.8672	0.1782
353.0762	0.1706
353.2852	0.1788
353.4942	0.1842
353.7032	0.1713
353.9121	0.1768
354.1211	0.1844
354.33	0.1892
354.5389	0.1735
354.7478	0.1747
354.9567	0.1803
355.1655	0.185
355.3744	0.1768
355.5833	0.1836
355.7921	0.1807
356.0009	0.181
356.2097	0.1824
356.4185	0.1882
356.6273	0.1837
356.8361	0.1894
357.0448	0.1886
357.2536	0.191
357.4623	0.1886
357.671	0.1904
357.8797	0.1952
358.0884	0.1923
358.2971	0.1853
358.5057	0.1922
358.7144	0.1957
358.923	0.1951
359.1316	0.2017
359.3402	0.1912
359.5488	0.1871
359.7574	0.2037
359.966	0.2036
360.1746	0.1992
360.3831	0.2057
360.5916	0.2065
360.8002	0.2099
361.0087	0.1998
361.2172	0.2049
361.4256	0.209
361.6341	0.2095
361.8426	0.2163
362.051	0.2154
362.2594	0.2114
362.4678	0.2151
362.6762	0.2196
362.8846	0.2169
363.093	0.2123
363.3014	0.2213
363.5097	0.2156
363.718	0.2242
363.9264	0.2233
364.1347	0.2188
364.343	0.226
364.5513	0.2245
364.7595	0.2366
364.9678	0.2219
365.176	0.2309
365.3842	0.2273
365.5925	0.23
365.8007	0.2217
366.0089	0.2366
366.217	0.2245
366.4252	0.235
366.6333	0.243
366.8415	0.2372
367.0496	0.2338
367.2577	0.243
367.4658	0.2322
367.6739	0.2371
367.882	0.246
368.09	0.233
368.2981	0.2423
368.5061	0.2444
368.7141	0.2444
368.9221	0.2547
369.1301	0.2453
369.3381	0.2519
369.5461	0.2504
369.754	0.2498
369.962	0.2462
370.1699	0.2623
370.3778	0.2593
370.5857	0.2544
370.7936	0.2565
371.0015	0.2559
371.2093	0.2544
371.4172	0.256
371.625	0.2502
371.8328	0.2586
372.0406	0.253
372.2484	0.2535
372.4562	0.2622
372.664	0.2689
372.8717	0.2631
373.0795	0.2701
373.2872	0.2643
373.4949	0.2629
373.7026	0.259
373.9103	0.2577
374.118	0.2644
374.3256	0.2809
374.5333	0.2701
374.7409	0.2769
374.9485	0.2698
375.1561	0.2821
375.3637	0.2662
375.5713	0.2808
375.7789	0.272
375.9864	0.2763
376.194	0.2819
376.4015	0.277
376.609	0.2852
376.8165	0.2765
377.024	0.2844
377.2315	0.2733
377.4389	0.2775
377.6464	0.2927
377.8538	0.2782
378.0612	0.2863
378.2686	0.2823
378.476	0.2884
378.6834	0.2798
378.8908	0.2851
379.0981	0.2887
379.3055	0.2943
379.5128	0.2853
379.7201	0.2963
379.9274	0.286
380.1347	0.2929
380.342	0.292
380.5492	0.2923
380.7565	0.2981
380.9637	0.2939
381.1709	0.2934
381.3781	0.2975
381.5853	0.2941
381.7925	0.2961
381.9997	0.3015
382.2068	0.2856
382.4139	0.2977
382.6211	0.2998
382.8282	0.3106
383.0353	0.3021
383.2424	0.3075
383.4494	0.2979
383.6565	0.2982
383.8635	0.301
384.0706	0.3077
384.2776	0.3046
384.4846	0.3026
384.6916	0.3047
384.8986	0.3083
385.1055	0.3048
385.3125	0.3116
385.5194	0.3156
385.7263	0.3057
385.9333	0.3095
386.1402	0.3056
386.347	0.296
386.5539	0.3082
386.7608	0.2989
386.9676	0.3086
387.1744	0.3079
387.3813	0.3149
387.5881	0.3057
387.7948	0.3089
388.0016	0.3128
388.2084	0.2989
388.4151	0.3105
388.6219	0.3013
388.8286	0.3066
389.0353	0.3076
389.242	0.3073
389.4487	0.3007
389.6553	0.2934
389.862	0.2938
390.0686	0.3094
390.2753	0.3027
390.4819	0.3048
390.6885	0.2965
390.8951	0.3009
391.1016	0.293
391.3082	0.2985
391.5147	0.294
391.7213	0.297
391.9278	0.288
392.1343	0.2909
392.3408	0.2879
392.5473	0.2869
392.7537	0.2892
392.9602	0.2872
393.1666	0.2806
393.373	0.2867
393.5794	0.2846
393.7858	0.2857
393.9922	0.281
394.1986	0.2806
394.4049	0.2771
394.6113	0.2773
394.8176	0.276
395.0239	0.2707
395.2302	0.2796
395.4365	0.2796
395.6428	0.2778
395.8491	0.277
396.0553	0.2642
396.2615	0.2725
396.4678	0.2742
396.674	0.2605
396.8802	0.2633
397.0863	0.273
397.2925	0.2702
397.4987	0.2619
397.7048	0.2714
397.9109	0.2606
398.117	0.2538
398.3231	0.2569
398.5292	0.255
398.7353	0.2646
398.9413	0.2734
399.1474	0.266
399.3534	0.2589
399.5594	0.26
399.7654	0.2588
399.9714	0.2743
400.1774	0.2562
400.3833	0.2598
400.5893	0.2519
400.7952	0.2691
401.0011	0.2563
401.207	0.2624
401.4129	0.2587
401.6188	0.2617
401.8247	0.2684
402.0305	0.2507
402.2364	0.2644
402.4422	0.2524
402.648	0.2695
402.8538	0.2607
403.0596	0.262
403.2654	0.2657
403.4711	0.2557
403.6768	0.2611
403.8826	0.263
404.0883	0.2621
404.294	0.2566
404.4997	0.2558
404.7054	0.2626
404.911	0.2563
405.1167	0.2595
405.3223	0.2631
405.5279	0.2568
405.7335	0.2522
405.9391	0.2644
406.1447	0.2615
406.3502	0.2504
406.5558	0.2598
406.7613	0.2484
406.9668	0.2541
407.1724	0.2513
407.3778	0.2666
407.5833	0.2452
407.7888	0.2582
407.9942	0.2519
408.1997	0.262
408.4051	0.2527
408.6105	0.2636
408.8159	0.2514
409.0213	0.2574
409.2267	0.2658
409.432	0.2563
409.6374	0.2604
409.8427	0.2643
410.048	0.2715
410.2533	0.2612
410.4586	0.2494
410.6639	0.258
410.8691	0.2502
411.0744	0.2579
411.2796	0.2657
411.4848	0.263
411.69	0.2556
411.8952	0.2659
412.1004	0.2484
412.3056	0.2554
412.5107	0.2729
412.7158	0.2623
412.921	0.26
413.1261	0.256
413.3312	0.262
413.5362	0.2711
413.7413	0.2593
413.9464	0.2501
414.1514	0.2498
414.3564	0.2587
414.5614	0.2513
414.7664	0.2498
414.9714	0.2454
415.1764	0.2596
415.3813	0.2527
415.5863	0.2578
415.7912	0.2476
415.9961	0.2423
416.201	0.2652
416.4059	0.2593
416.6108	0.2444
416.8156	0.2536
417.0205	0.2497
417.2253	0.2432
417.4301	0.2529
417.6349	0.247
417.8397	0.2579
418.0445	0.2523
418.2492	0.2494
418.454	0.2465
418.6587	0.2541
418.8634	0.2511
419.0681	0.2607
419.2728	0.2458
419.4775	0.2543
419.6822	0.2426
419.8868	0.2428
420.0915	0.2408
420.2961	0.2357
420.5007	0.243
420.7053	0.2463
420.9099	0.2455
421.1144	0.2486
421.319	0.238
421.5235	0.2216
421.728	0.2421
421.9325	0.2473
422.137	0.224
422.3415	0.2354
422.546	0.2345
422.7504	0.2319
422.9549	0.2429
423.1593	0.2387
423.3637	0.2316
423.5681	0.2468
423.7725	0.2324
423.9769	0.2408
424.1812	0.2246
424.3856	0.2188
424.5899	0.2191
424.7942	0.2143
424.9985	0.2308
425.2028	0.2285
425.4071	0.2269
425.6113	0.2278
425.8156	0.2175
426.0198	0.2176
426.224	0.2268
426.4282	0.2051
426.6324	0.2098
426.8366	0.2175
427.0407	0.2114
427.2449	0.2021
427.449	0.2079
427.6531	0.2195
427.8572	0.2157
428.0613	0.2123
428.2654	0.2178
428.4694	0.2035
428.6735	0.197
428.8775	0.1966
429.0815	0.2011
429.2855	0.1961
429.4895	0.2066
429.6935	0.1952
429.8975	0.1821
430.1014	0.2013
430.3053	0.2075
430.5093	0.191
430.7132	0.1884
430.9171	0.1859
431.1209	0.193
431.3248	0.1741
431.5286	0.1759
431.7325	0.1843
431.9363	0.1779
432.1401	0.1756
432.3439	0.1783
432.5477	0.1692
432.7514	0.1737
432.9552	0.172
433.1589	0.1643
433.3627	0.1719
433.5664	0.1687
433.7701	0.1642
433.9737	0.159
434.1774	0.1679
434.3811	0.1546
434.5847	0.1542
434.7883	0.1658
434.9919	0.1418
435.1955	0.1564
435.3991	0.1513
435.6027	0.1535
435.8062	0.1632
436.0098	0.1402
436.2133	0.1478
436.4168	0.1417
436.6203	0.134
436.8238	0.1309
437.0272	0.1285
437.2307	0.1269
437.4341	0.1328
437.6375	0.1391
437.841	0.128
438.0443	0.1333
438.2477	0.116
438.4511	0.1161
438.6545	0.1213
438.8578	0.1246
439.0611	0.1272
439.2644	0.1214
439.4677	0.1176
439.671	0.1143
439.8743	0.1184
440.0775	0.1056
440.2808	0.1084
440.484	0.1014
440.6872	0.119
440.8904	0.0978
441.0936	0.1034
441.2967	0.0933
441.4999	0.095
441.703	0.0924
441.9062	0.0994
442.1093	0.1036
442.3124	0.1016
442.5155	0.0965
442.7185	0.0907
442.9216	0.0887
443.1246	0.0857
443.3276	0.0841
443.5307	0.0854
443.7337	0.0925
443.9366	0.0889
444.1396	0.0715
444.3426	0.0804
444.5455	0.075
444.7484	0.065
444.9513	0.0677
445.1542	0.0751
445.3571	0.0721
445.56	0.0721
445.7628	0.0672
445.9657	0.0808
446.1685	0.082
446.3713	0.0755
446.5741	0.0761
446.7769	0.0678
446.9797	0.0654
447.1824	0.0699
447.3852	0.0483
447.5879	0.0632
447.7906	0.0563
447.9933	0.0652
448.196	0.0603
448.3986	0.0501
448.6013	0.0495
448.8039	0.0569
449.0066	0.0525
449.2092	0.0581
449.4118	0.0504
449.6143	0.0561
449.8169	0.0468
450.0195	0.0507
450.222	0.0554
450.4245	0.0486
450.627	0.0399
450.8295	0.0367
451.032	0.0475
451.2345	0.0401
451.4369	0.0391
451.6394	0.0379
451.8418	0.0436
452.0442	0.0489
452.2466	0.0329
452.449	0.0354
452.6513	0.0361
452.8537	0.0357
453.056	0.0329
453.2583	0.0322
453.4607	0.0373
453.663	0.0326
453.8652	0.0281
454.0675	0.0385
454.2697	0.0268
454.472	0.0278
454.6742	0.0253
454.8764	0.0353
455.0786	0.0242
455.2808	0.0208
455.4829	0.0244
455.6851	0.0381
455.8872	0.0239
456.0893	0.0283
456.2915	0.0231
456.4935	0.0356
456.6956	0.0223
456.8977	0.0197
457.0997	0.0275
457.3018	0.0206
457.5038	0.0322
457.7058	0.0253
457.9078	0.0217
458.1098	0.0225
458.3117	0.0259
458.5137	0.0072
458.7156	0.0227
458.9175	0.0214
459.1194	0.0207
459.3213	0.0178
459.5232	0.0226
459.725	0.0171
459.9269	0.0312
460.1287	0.0172
460.3305	0.0268
460.5323	0.0221
460.7341	0.0254
460.9359	0.0087
461.1376	0.0184
461.3394	0.0142
461.5411	0.0247
461.7428	0.0134
461.9445	0.0129
462.1462	0.0169
462.3479	0.0149
462.5495	0.0192
462.7512	0.0234
462.9528	0.0154
463.1544	0.0087
463.356	0.0086
463.5576	0.0227
463.7592	0.0176
463.9607	0.0122
464.1623	0.0153
464.3638	0.006
464.5653	0.009
464.7668	0.0178
464.9683	0.0165
465.1697	0.0049
465.3712	0.0034
465.5726	0.0018
465.7741	0.0161
465.9755	0.0162
466.1769	0.0099
466.3782	0.0089
466.5796	0.0184
466.7809	0.0125
466.9823	0.0036
467.1836	0.0049
467.3849	0.0062
467.5862	0.0121
467.7875	-0.002
467.9887	0.0052
468.19	0.0123
468.3912	0.0146
468.5924	0.0085
468.7936	0.0115
468.9948	0.0025
469.196	0.0083
469.3972	0.0085
469.5983	0.0018
469.7994	0.0124
470.0006	0.0098
470.2017	0.0052
470.4027	0.0201
470.6038	0.0036
470.8049	0.0076
471.0059	-0.0021
471.2069	0.0127
471.408	0.0213
471.6089	0.0145
471.8099	0.0072
472.0109	0.0103
472.2119	0.0138
472.4128	0.0037
472.6137	-0.0014
472.8146	0.0109
473.0155	0.0089
473.2164	0.0002
473.4173	-0.001
473.6181	-0.0006
473.819	0.0066
474.0198	0.0031
474.2206	-0.0023
474.4214	0.0041
474.6222	-0.0093
474.8229	0.0025
475.0237	0.0054
475.2244	0.014
475.4251	0.0076
475.6258	0.0009
475.8265	0.0101
476.0272	0.0004
476.2278	0.008
476.4285	0.0057
476.6291	0.0094
476.8297	0.0049
477.0303	0.0112
477.2309	-0.0009
477.4315	0.0129
477.632	0.0006
477.8326	0.0009
478.0331	0.0084
478.2336	0.0015
478.4341	0.0068
478.6346	0.007
478.8351	0.0018
479.0355	0.0116
479.236	0.0111
479.4364	0.0036
479.6368	0.0021
479.8372	0.0096
480.0376	-0.0012
480.2379	0.006
480.4383	0.0162
480.6386	-0.0019
480.8389	0.0028
481.0392	0.0068
481.2395	0.0086
481.4398	0.0023
481.6401	0.0109
481.8403	0.0048
482.0405	0.001
482.2408	0.0056
482.441	0.0053
482.6411	0.0015
482.8413	0
483.0415	0.0077
483.2416	0.01
483.4417	-0.0045
483.6419	0.001
483.8419	0.0081
484.042	0.0049
484.2421	0.0062
484.4422	0.0013
484.6422	0.0004
484.8422	0.0017
485.0422	0.0063
485.2422	0.0048
485.4422	0.002
485.6422	0.0006
485.8421	0.0009
486.042	0.0065
486.242	-0.001
486.4419	0.0026
486.6417	0.0003
486.8416	0.0048
487.0415	0.0013
487.2413	-0.001
487.4411	-0.0009
487.641	0.005
487.8408	0.0088
488.0405	0.0062
488.2403	-0
488.4401	0.0012
488.6398	0.0064
488.8395	0.0029
489.0392	0.0048
489.2389	0.0106
489.4386	0.0015
489.6383	0.0049
489.8379	0.0039
490.0376	0.0077
490.2372	-0.0018
490.4368	0.0075
490.6364	-0.0073
490.836	-0.0134
491.0355	-0.0043
491.2351	-0.0029
491.4346	0.006
491.6341	-0.0037
491.8336	-0.0004
492.0331	-0.0013
492.2326	0.0017
492.432	0.0086
492.6315	0.0139
492.8309	0.0119
493.0303	0.0036
493.2297	0.001
493.4291	-0.0009
493.6284	0.0104
493.8278	0.0035
494.0271	0.0085
494.2264	-0.002
494.4257	-0.0002
494.625	0.005
494.8243	-0.0059
495.0236	0.0043
495.2228	0.0034
495.422	0.0009
495.6213	0.0017
495.8205	0.0033
496.0196	0.0034
496.2188	-0.0021
496.418	0.0087
496.6171	-0.005
496.8162	0.0075
497.0153	0.0018
497.2144	0.0011
497.4135	-0.0003
497.6126	0.0067
497.8116	0.0043
498.0107	-0.0001
498.2097	0.007
498.4087	0.001
498.6077	-0.003
498.8067	0.0054
499.0056	0.0062
499.2046	0.0057
499.4035	-0.0028
499.6024	-0.004
499.8013	0.0064
500.0002	0.0041
500.199	0.0068
500.3979	-0.0072
500.5967	-0.0004
500.7956	0.0036
500.9944	0.0068
501.1932	0.0075
501.3919	0.015
501.5907	0.0118
501.7895	0.0024
501.9882	0.0013
502.1869	0.0087
502.3856	0.0025
502.5843	-0.0052
502.783	0.0013
502.9816	0.0079
503.1803	0.0017
503.3789	0.0091
503.5775	0.001
503.7761	-0.005
503.9747	0.0079
504.1732	-0.0044
504.3718	0.0142
504.5703	-0.0001
504.7689	-0.0094
504.9674	-0.0008
505.1658	0.0082
505.3643	0.0094
505.5628	0.0101
505.7612	0.0036
505.9597	0.0033
506.1581	0.0005
506.3565	0.0015
506.5549	0
506.7532	-0.005
506.9516	0
507.1499	0.004
507.3482	-0.0034
507.5465	0.0039
507.7448	0.0076
507.9431	0.0088
508.1414	-0.0017
508.3396	0.0005
508.5379	-0.0002
508.7361	0.0075
508.9343	0.0071
509.1325	0.0111
509.3306	0.0022
509.5288	-0.0004
509.7269	0.0033
509.9251	0.0007
510.1232	0.0013
510.3213	0.0024
510.5193	0.0066
510.7174	0.0031
510.9154	0.0049
511.1135	-0.0048
511.3115	0.0012
511.5095	0.0016
511.7075	0.001
511.9055	0.0034
512.1034	0.0081
512.3014	0.0011
512.4993	0.0107
512.6972	-0.0039
512.8951	0.0074
513.093	0.001
513.2908	0.012
513.4887	0.0055
513.6865	0.0027
513.8844	0.0023
514.0822	0.0078
514.2799	0.0001
514.4777	0.0035
514.6755	0.0055
514.8732	0.0013
515.0709	0.0072
515.2687	0.0025
515.4664	0.014
515.664	0.0135
515.8617	0.0013
516.0594	0.0022
516.257	0.0061
516.4546	0.0107
516.6522	-0.0038
516.8498	0.0011
517.0474	0.0105
517.2449	-0.0009
517.4425	0.0049
517.64	0.0074
517.8375	0.0017
518.035	-0.0053
518.2325	-0.0062
518.43	0.0015
518.6274	0.0058
518.8249	-0.0028
519.0223	0.0045
519.2197	-0.0037
519.4171	-0.0087
519.6145	0.0082
519.8118	-0.0027
520.0092	-0.0099
520.2065	0.0133
520.4038	0.0083
520.6011	0.0094
520.7984	0.0012
520.9956	0.0083
521.1929	0.0117
521.3901	0.0024
521.5874	0.0157
521.7846	-0.0047
521.9818	0.006
522.1789	0.0034
522.3761	0.0171
522.5732	0.0039
522.7704	-0.0074
522.9675	-0.0065
523.1646	-0.0127
523.3617	0.003
523.5587	0.0116
523.7558	0.0032
523.9528	0.0088
524.1498	0.0007
524.3468	0.0046
524.5438	0.0028
524.7408	0.0049
524.9378	0.0072
525.1347	0.0025
525.3316	-0.0022
525.5285	-0.0023
525.7254	0.0095
525.9223	0.0227
526.1192	0.0078
526.316	0.0172
526.5129	0.0018
526.7097	-0.0035
526.9065	0.0031
527.1033	0.008
527.3	0.0037
527.4968	0.0108
527.6935	-0.0045
527.8903	0.0017
528.087	0.0008
528.2837	0.0091
528.4804	-0.0061
528.677	0.0013
528.8737	0.0048
529.0703	0.0027
529.2669	0.0115
529.4635	0.0074
529.6601	-0.0043
529.8567	-0.0028
530.0532	0.0008
530.2498	-0.0037
530.4463	-0.0044
530.6428	0.006
530.8393	0.0082
531.0358	0.0015
531.2322	0.0018
531.4287	0.0082
531.6251	-0.0014
531.8215	-0.001
532.0179	0.0005
532.2143	0.0103
532.4107	0.0078
532.607	-0.0036
532.8034	-0.002
532.9997	-0.0054
533.196	-0.0051
533.3923	0.0077
533.5886	-0.0021
533.7848	0.0003
533.9811	0.0182
534.1773	0.0078
534.3735	0.0056
534.5697	0.0026
534.7659	0.0063
534.9621	-0.0021
535.1582	0.0076
535.3544	0.0047
535.5505	0.0016
535.7466	-0.0003
535.9427	0.0019
536.1387	-0.0009
536.3348	0.0009
536.5308	0.0057
536.7269	0.0007
536.9229	0.0091
537.1189	0.0106
537.3148	0.0026
537.5108	-0.0023
537.7068	0.0083
537.9027	-0.0077
538.0986	0.0074
538.2945	-0.0028
538.4904	-0.0069
538.6863	-0.0012
538.8821	0.0141
539.078	0.0052
539.2738	0.0117
539.4696	-0.0068
539.6654	-0.0008
539.8611	0.013
540.0569	0.0067
540.2526	0.0074
540.4484	-0.0095
540.6441	0.0081
540.8398	0.0058
541.0355	0.0011
541.2311	-0.008
541.4268	0.002
541.6224	0.0087
541.818	-0.0046
542.0136	0.0056
542.2092	0.0035
542.4048	0.0076
542.6003	0.0043
542.7959	0.0103
542.9914	0.0039
543.1869	0.0029
543.3824	0.001
543.5779	0.0101
543.7734	0.0174
543.9688	0.0068
544.1642	-0.0073
544.3596	0.0049
544.555	0.0068
544.7504	0.0107
544.9458	0.0026
545.1411	-0.0001
545.3365	0.0062
545.5318	0.0081
545.7271	0.0118
545.9224	-0.0078
546.1177	0.0054
546.3129	0.0042
546.5081	-0.0035
546.7034	-0.0014
546.8986	0.0083
547.0938	0.0117
547.289	0.0084
547.4841	0.0028
547.6793	0.0015
547.8744	0.0091
548.0695	0.0024
548.2646	0.0091
548.4597	-0.0059
548.6548	0.0125
548.8498	0.0044
549.0448	-0.0027
549.2399	0.0118
549.4349	0.0089
549.6298	0.0028
549.8248	0.0003
550.0198	0.0026
550.2147	0.0033
550.4096	-0.0011
550.6045	0.0017
550.7994	-0.0041
550.9943	0.0036
551.1892	-0.0122
551.384	0.0125
551.5788	0.0133
551.7737	0.0067
551.9685	-0.0016
552.1632	-0.0028
552.358	0.0063
552.5528	0.0038
552.7475	0.0066
552.9422	0.0023
553.1369	0.0128
553.3316	0.0122
553.5263	0.0059
553.7209	-0.0045
553.9156	-0.0007
554.1102	0.0034
554.3048	-0.0001
554.4994	-0.0031
554.694	0.0071
554.8885	0.0042
555.0831	0.0071
555.2776	0.0043
555.4721	0.0002
555.6666	-0.0072
555.8611	0.0018
556.0555	0.0073
556.25	0.0105
556.4444	-0.002
556.6388	-0.0009
556.8332	0.0095
557.0276	0.0113
557.222	-0.0071
557.4163	-0.0041
557.6107	-0.002
557.805	-0.0011
557.9993	0.0062
558.1936	-0.0013
558.3879	0.0068
558.5821	-0.0027
558.7764	-0.0013
558.9706	0.008
559.1648	0.0156
559.359	-0.0072
559.5532	-0.0074
559.7473	-0.0062
559.9415	-0.0021
560.1356	0.0156
560.3297	-0.0059
560.5238	0.009
560.7179	-0.0045
560.9119	0.0009
561.106	0.0003
561.3	0.0069
561.494	-0.0011
561.688	-0.0058
561.882	-0.0002
562.076	0.0145
562.2699	-0.0028
562.4639	0.0113
562.6578	0.0023
562.8517	0.0058
563.0456	0.0007
563.2395	0.0032
563.4333	0.0064
563.6272	0.0029
563.821	0.0066
564.0148	-0.0028
564.2086	0.005
564.4024	0.0116
564.5961	0.0053
564.7899	0.0115
564.9836	0.0038
565.1773	0.0074
565.371	0.0005
565.5647	0.0038
565.7584	0.0097
565.952	0.0044
566.1456	-0.0039
566.3393	0.0015
566.5329	0.0027
566.7264	0.0022
566.92	-0.0016
567.1136	-0.0055
567.3071	-0.004
567.5006	0.0065
567.6941	-0.0081
567.8876	-0.0013
568.0811	0.0088
568.2745	-0.0028
568.468	0.0078
568.6614	0.008
568.8548	0.0039
569.0482	0.0092
569.2416	-0.0011
569.4349	0.0016
569.6283	0.0035
569.8216	0.0008
570.0149	-0.0026
570.2082	0.0081
570.4015	0.0034
570.5947	0.0022
570.788	0.0033
570.9812	0.0025
571.1744	0.0062
571.3676	0.0022
571.5608	0.0051
571.754	0.0066
571.9471	0.0053
572.1402	0.0048
572.3333	0.006
572.5264	0.0023
572.7195	-0.0003
572.9126	0.0075
573.1057	0.0041
573.2987	0.0027
573.4917	0.0054
573.6847	-0.0001
573.8777	0.0055
574.0707	0.0025
574.2636	0.0049
574.4566	0.0034
574.6495	0.0021
574.8424	0.0027
575.0353	0.0051
575.2281	0.01
575.421	-0.0031
575.6138	0.003
575.8067	0.0021
575.9995	-0.0031
576.1923	0.0039
576.385	0.0057
576.5778	0.0118
576.7706	0.004
576.9633	0.0075
577.156	-0.0016
577.3487	0.0018
577.5414	-0.002
577.734	0.001
577.9267	0.0054
578.1193	0.005
578.3119	0.0011
578.5045	0.0045
578.6971	0.0006
578.8897	-0.001
579.0822	0.0034
579.2747	0.0007
579.4673	-0.0012
579.6598	0.004
579.8522	0.0016
580.0447	0.005
580.2372	0.0033
580.4296	0.0064
580.622	-0.0016
580.8144	0.0075
581.0068	0.0041
581.1992	0.0038
581.3915	-0
581.5839	0.0035
581.7762	0.0007
581.9685	0.0008
582.1608	0.0014
582.353	0.002
582.5453	0.0067
582.7375	0.0029
582.9298	-0.0035
583.122	-0.0006
583.3142	0.0041
583.5063	-0.0003
583.6985	-0.003
583.8906	0.0009
584.0827	0.003
584.2749	0.0042
584.4669	0.0033
584.659	0.0061
584.8511	0.007
585.0431	0.0004
585.2352	-0.0005
585.4272	0.0055
585.6192	0.0068
585.8111	0.0008
586.0031	0.0006
586.195	0.0003
586.387	0.0014
586.5789	0.0064
586.7708	0.0051
586.9627	0.0018
587.1545	0.0025
587.3464	0.0049
587.5382	-0.0029
587.73	0.0062
587.9218	0.0019
588.1136	-0.0017
588.3053	0.0034
588.4971	0.0027
588.6888	-0
588.8805	-0.0004
589.0722	0.0059
589.2639	0.0049
589.4556	0.0043
589.6472	0.0058
589.8389	0.0009
590.0305	0.0005
590.2221	0.0032
590.4137	0.0027
590.6052	-0.0001
590.7968	-0.0031
590.9883	0.0015
591.1798	0.004
591.3713	0.0062
591.5628	0.0001
591.7543	0.0004
591.9458	0.0003
592.1372	-0.0025
592.3286	0.0012
592.52	0.0052
592.7114	0.0046
592.9028	0.007
593.0941	-0.0016
593.2855	0.0012
593.4768	0.0082
593.6681	0.0023
593.8594	0.008
594.0506	0.0019
594.2419	0.0027
594.4331	0.0025
594.6244	0.0026
594.8156	-0.0005
595.0067	-0.0015
595.1979	-0.0022
595.3891	0.0044
595.5802	0.01
595.7713	0.0008
595.9624	0.0078
596.1535	0.0082
596.3446	-0.004
596.5357	0.0113
596.7267	-0.0005
596.9177	0.0016
597.1087	-0.0027
597.2997	0.0041
597.4907	-0.0026
597.6817	0
597.8726	0.0056
598.0635	0.0035
598.2544	0.0019
598.4453	0.006
598.6362	0.0013
598.827	-0.0035
599.0179	0.0019
599.2087	0.0063
599.3995	0.0004
599.5903	0.0042
599.7811	0.0108
599.9718	0.0008
600.1626	0.001
600.3533	0.0016
600.544	0.0011
600.7347	0.0027
600.9254	0.0088
601.116	-0.0003
601.3067	0.0007
601.4973	0.0046
601.6879	-0.0036
601.8785	0.0045
602.0691	0.0087
602.2596	0.0053
602.4502	0.0035
602.6407	0.0003
602.8312	0.0048
603.0217	-0.0015
603.2122	0.0007
603.4027	0.0001
603.5931	0.0017
603.7835	0.0062
603.9739	0.0031
604.1643	0.0066
604.3547	0.0091
604.5451	0.007
604.7354	0.0044
604.9257	0.0013
605.116	0.001
605.3063	0.0036
605.4966	0.0028
605.6869	0.0118
605.8771	0.0082
606.0673	0.0007
606.2575	-0.0014
606.4477	0.0045
606.6379	-0.0012
606.8281	0.0026
607.0182	0.0017
607.2083	0.0031
607.3985	-0.0013
607.5885	0.0003
607.7786	0.0055
607.9687	0.0076
608.1587	0.0045
608.3488	0.0021
608.5388	-0.0062
608.7288	-0.0023
608.9187	0.0028
609.1087	0.0037
609.2986	0.0035
609.4886	0.0015
609.6785	0.002
609.8684	-0.0017
610.0582	-0.0038
610.2481	-0.0062
610.4379	0.0043
610.6278	-0.0027
610.8176	0.0097
611.0074	0.0026
611.1971	0.0044
611.3869	0.0035
611.5766	-0.0025
611.7664	0.0036
611.9561	0.006
612.1458	0.0052
612.3354	-0.0014
612.5251	0.0033
612.7147	0.0081
612.9044	-0.0023
613.094	0.0074
613.2836	-0.0019
613.4731	0.0026
613.6627	0.0028
613.8522	0.0059
614.0417	0.0043
614.2313	0.0006
614.4207	0.0019
614.6102	0.0028
614.7997	0.011
614.9891	0.0057
615.1785	-0.005
615.3679	0.004
615.5573	0.006
615.7467	-0.0017
615.9361	0.0041
616.1254	0.0039
616.3147	0.0115
616.504	0.003
616.6933	0.004
616.8826	0.0034
617.0718	0.0058
617.2611	0.0044
617.4503	-0.0001
617.6395	0.0074
617.8287	0.0053
618.0179	0.0059
618.207	0.0096
618.3961	-0.0107
618.5853	-0.005
618.7744	0.0055
618.9634	0.0053
619.1525	0.0012
619.3416	-0.0014
619.5306	0.0069
619.7196	0.0097
619.9086	0.0028
620.0976	-0.0008
620.2866	0.0064
620.4755	-0.0042
620.6645	0.0073
620.8534	0.0018
621.0423	0.0032
621.2312	-0.0009
621.42	0.0072
621.6089	-0.0074
621.7977	0.0068
621.9865	0.0026
622.1753	-0.0017
622.3641	-0.0095
622.5529	-0.0088
622.7416	0.0014
622.9303	-0.0035
623.1191	0.0064
623.3078	0.0017
623.4964	0.0049
623.6851	0.0008
623.8737	0.0046
624.0624	-0.0164
624.251	-0.0004
624.4396	0.0004
624.6282	0.0027
624.8167	0.0017
625.0053	0.0101
625.1938	-0.0036
625.3823	0.0068
625.5708	0.0041
625.7593	-0.0024
625.9477	-0.0013
626.1362	-0.0045
626.3246	-0.0031
626.513	0.0017
626.7014	0.0006
626.8898	0.0079
627.0781	0.0001
627.2665	-0.0024
627.4548	-0.0081
627.6431	-0.003
627.8314	0.0184
628.0197	0.0129
628.2079	-0.0062
628.3962	0.0028
628.5844	0.0053
628.7726	-0.0019
628.9608	-0.0004
629.1489	0.0024
629.3371	0.002
629.5252	0.0035
629.7134	-0.0019
629.9015	0.0074
630.0895	-0.0162
630.2776	0.0009
630.4657	0.0121
630.6537	0.0077
630.8417	-0.0058
631.0297	-0.0092
631.2177	0.0006
631.4057	-0.0032
631.5936	0.0063
631.7815	-0.0054
631.9695	0.0128
632.1574	-0.0016
632.3452	0.0005
632.5331	-0.0027
632.7209	0.0078
632.9088	0.0023
633.0966	0.0077
633.2844	0.0103
633.4722	0.0026
633.6599	0.0181
633.8477	-0.0028
634.0354	0.0087
634.2231	-0.0081
634.4108	-0.0025
634.5985	0.0103
634.7861	-0.0159
634.9738	-0.0005
635.1614	-0.0059
635.349	0.0032
635.5366	0.001
635.7242	0.0003
635.9117	0.003
636.0993	0.0019
636.2868	-0.0072
636.4743	0.0117
636.6618	-0.0116
636.8492	0.004
637.0367	-0.008
637.2241	-0.0101
637.4115	0.0289
637.5989	0.0125
637.7863	0.026
637.9737	0.0004
638.161	-0.0041
638.3484	-0.0136
638.5357	-0.0112
638.723	0.0137
638.9103	-0.0145
639.0975	0.0055
639.2848	0.0065
639.472	-0.0008
639.6592	-0.0115
639.8464	0.0129
640.0336	-0.0037
640.2208	-0.0048
640.4079	-0.0046
640.595	-0.0115
640.7821	0.0094
640.9692	-0.003
641.1563	0.0133
641.3434	0.0182
641.5304	0.006
641.7174	0.0142
641.9044	0.0014
642.0914	0.0364
642.2784	0.0109
642.4653	-0.0031
642.6523	-0.0049
642.8392	-0.0078
643.0261	0.0195
643.213	0.0142
643.3999	0.0183
643.5867	0.0078
643.7735	-0.0088
643.9604	0.0104
644.1472	-0.0087
644.3339	-0.005
644.5207	-0.0094
644.7075	0.0013
644.8942	-0.0102
645.0809	-0.0016
645.2676	-0.0048
645.4543	-0.0104
645.6409	0.0223
645.8276	0.0057
646.0142	0.0107
646.2008	0.0109
646.3874	-0.0218
646.574	-0.0039
646.7605	-0.0036
646.9471	0.0093
647.1336	-0.0245
647.3201	0.0196
647.5066	0.0108
647.6931	-0.0003
647.8795	0.0012
648.0659	-0.0066
648.2524	0.0123
648.4388	-0.0008
648.6252	0.0004
648.8115	0.0001
648.9979	0.0082
649.1842	0.0063
649.3705	0.0278
649.5568	-0.0076
649.7431	-0.0224
649.9294	-0.0078
650.1156	-0.0126
650.3018	-0.0031
650.488	0.0011
650.6742	0.0209
650.8604	0.0061
651.0466	-0.0186
651.2327	0.0036
651.4188	0.0103
651.6049	0.0114
651.791	-0.0119
651.9771	0.0173
652.1632	0.0051
652.3492	0.0028
652.5352	0.0029
652.7212	0.0034
652.9072	-0.0088
653.0932	0.015
653.2791	0.0074
653.465	0.0049
653.651	0.0034
653.8369	-0.0108
654.0227	0.0078
654.2086	0.0015
654.3944	0.0068
654.5803	-0.0036
654.7661	0.0008
654.9519	-0.0052
655.1377	-0
655.3234	-0
655.5092	-0
655.6949	-0
655.8806	-0
656.0663	-0
656.2519	-0
656.4376	-0
656.6232	-0
656.8088	-0
656.9945	-0
657.18	-0
657.3656	-0
657.5511	-0
657.7367	-0
657.9222	-0
658.1077	-0
658.2932	-0
658.4786	-0
658.6641	-0
658.8495	-0
659.0349	-0
659.2203	-0
659.4057	-0
659.591	0.0845
659.7764	0.0184
659.9617	-0.013
660.147	0.003
660.3323	-0.0001
660.5176	-0.0023
660.7028	-0.015
660.888	-0.0026
661.0733	0.0058
661.2585	-0.0007
661.4436	0.0003
661.6288	0.0013
661.8139	-0.0052
661.9991	-0.0035
662.1842	0.0017
662.3693	-0.0094
662.5544	0.0138
662.7394	0.0064
662.9245	-0.0155
663.1095	-0.005
663.2945	-0.0149
663.4795	-0.0034
663.6644	-0.0086
663.8494	0.0006
664.0343	0.021
664.2193	0.008
664.4042	0.0116
664.589	0.0038
664.7739	-0.0024
664.9587	-0.0143
665.1436	-0.0028
665.3284	0.0039
665.5132	-0.0346
665.698	0.0184
665.8827	-0.0016
666.0675	-0.0271
666.2522	-0.0064
666.4369	-0.008
666.6216	0.0223
666.8063	0.0001
666.9909	-0.0138
667.1756	-0.0268
667.3602	-0.0115
667.5448	0.009
667.7294	0.0154
667.9139	0.0092
668.0985	0.0059
668.283	0.008
668.4675	0.0041
668.652	-0.0021
668.8365	-0.0045
669.0209	0.0004
669.2054	0.0075
669.3898	-0.0065
669.5742	0.0073
669.7586	0.0172
669.943	-0.0068
670.1273	-0.0099
670.3117	0.0159
670.496	-0.006
670.6803	-0.006
670.8646	-0.0227
671.0488	0.0097
671.2331	-0.0098
671.4173	0.005
671.6015	0.004
671.7857	-0.0044
671.9699	0.0093
672.1541	-0.0134
672.3382	0.0011
672.5223	-0.0134
672.7064	-0.0008
672.8905	0.0039
673.0746	0.0003
673.2587	0.0217
673.4427	0.0128
673.6267	0.0107
673.8107	0.0099
673.9947	0.0146
674.1787	-0.0053
674.3626	-0.0089
674.5465	0.0104
674.7304	0.005
674.9143	-0.0088
675.0982	-0.0091
675.2821	-0.0008
675.4659	-0.0082
675.6497	0.0114
675.8335	0.0034
676.0173	-0.0023
676.2011	-0.0008
676.3849	0.0068
676.5686	0.0008
676.7523	-0.0045
676.936	0.0204
677.1197	-0.0116
677.3034	0.022
677.487	0.0062
677.6706	0.0041
677.8542	-0.0051
678.0378	-0.0006
678.2214	0.0078
678.405	0.0061
678.5885	0.0073
678.772	-0.0014
678.9555	-0.0043
679.139	-0.003
679.3225	0.0001
679.5059	-0.0133
679.6894	0.0004
679.8728	0.0042
680.0562	-0.0056
680.2395	-0.0072
680.4229	-0.0083
680.6062	0.022
680.7896	-0.0108
680.9729	0.0101
681.1562	0.0008
681.3394	-0.0124
681.5227	-0.003
681.7059	-0.0002
681.8891	0.0128
682.0723	0.0016
682.2555	0.0137
682.4387	-0.0085
682.6218	0.0036
682.805	0.0088
682.9881	0.0298
683.1712	0.0131
683.3542	0.0197
683.5373	-0.015
683.7203	0.0072
683.9034	-0.0021
684.0864	-0.0061
684.2694	-0.0072
684.4523	0.0001
684.6353	-0.0031
684.8182	0.0004
685.0011	0.0167
685.184	0.0022
685.3669	0.0271
685.5498	-0.0111
685.7326	-0.0003
685.9154	-0.0025
686.0982	0.0158
686.281	-0.0236
686.4638	0.0137
686.6465	-0.0105
686.8293	-0.0149
687.012	-0.004
687.1947	-0.0027
687.3774	0.0129
687.56	-0.014
687.7427	-0.0113
687.9253	-0.0083
688.1079	0.0163
688.2905	-0.0026
688.4731	0.0001
688.6556	0.01
688.8382	-0.023
689.0207	0.0265
689.2032	0.008
689.3857	-0.0152
689.5681	-0.0018
689.7506	0.0322
689.933	-0.0132
690.1154	0.0219
690.2978	-0.0054
690.4802	0.0051
690.6626	0.0129
690.8449	0.0117
691.0272	-0.0222
691.2095	-0.0293
691.3918	0.008
691.5741	0.0089
691.7563	0.0008
691.9386	0.019
692.1208	-0.0021
692.303	-0.0042
692.4852	-0.0039
692.6673	-0.0006
692.8495	-0.0077
693.0316	0.0197
693.2137	0.011
693.3958	0.0001
693.5778	-0.002
693.7599	-0.0157
693.9419	0.0047
694.1239	-0.0173
694.3059	0.0043
694.4879	0.0118
694.6699	-0.0103
694.8518	0.0173
695.0337	0.0091
695.2157	0.0178
695.3975	-0.004
695.5794	-0.0002
695.7613	-0.0193
695.9431	-0.0214
696.1249	0.0064
696.3067	-0.0077
696.4885	0.0197
696.6703	0.0017
696.852	-0.0066
697.0337	0.0058
697.2154	0.0306
697.3971	-0.0064
697.5788	-0.0024
697.7605	-0.0028
697.9421	0.0143
698.1237	0.0108
698.3053	-0.0201
698.4869	-0.0057
698.6685	0.004
698.85	0.0102
699.0315	0.0014
699.213	0.01
699.3945	-0.0059
699.576	0.0459
699.7575	0.0027
699.9389	-0.0064
700.1203	-0.005
700.3017	-0.0007
700.4831	0.0181
700.6645	0.0069
700.8458	0.0069
701.0271	0.0452
701.2084	-0.0175
701.3897	-0.0135
701.571	-0.0291
701.7523	0.0078
701.9335	0.001
702.1147	0.0078
702.2959	0.0001
702.4771	0.0224
702.6583	-0.008
702.8394	-0.021
703.0205	0.0108
703.2016	-0.0158
703.3827	-0.0296
703.5638	-0.0096
703.7449	0.0287
703.9259	-0.0002
704.1069	-0.0311
704.2879	-0.0118
704.4689	-0.0094
704.6499	0.008
704.8308	0.0129
705.0117	0.0163
705.1927	-0.0067
705.3735	-0.0065
705.5544	0.0047
705.7353	0.001
705.9161	-0.0378
706.0969	0.0142
706.2777	0.0065
706.4585	-0.0051
706.6393	0.0031
706.82	-0.0102
707.0007	-0.016
707.1815	0.0091
707.3621	0.0151
707.5428	-0.0026
707.7235	-0.0082
707.9041	0.0045
708.0847	-0.0012
708.2653	0.011
708.4459	0.0094
708.6265	-0.0012
708.807	0.0092
708.9875	0.0131
709.168	-0.0107
709.3485	0.0287
709.529	-0.0052
709.7095	-0.0259
709.8899	-0.007
710.0703	0.0204
710.2507	0.0101
710.4311	-0.0199
710.6115	0.0165
710.7918	0.0244
710.9721	0.0068
711.1524	-0.0282
711.3327	0.0025
711.513	0.0094
711.6932	-0.0119
711.8735	0.0243
712.0537	-0.0059
712.2339	-0.0015
712.4141	0.0138
712.5942	-0.0031
712.7744	0.0001
712.9545	0.0091
713.1346	0.0204
713.3147	0.0043
713.4947	-0.0005
713.6748	0.0165
713.8548	0.0171
714.0348	0.002
714.2148	0.0183
714.3948	0.0088
714.5748	0.0185
714.7547	0.002
714.9346	0.0083
715.1145	-0.0035
715.2944	-0.0116
715.4743	0.0032
715.6541	-0.0125
715.834	0.0293
716.0138	0.0011
716.1936	-0.0261
716.3733	0.0047
716.5531	-0.0379
716.7328	0.0357
716.9126	-0.0028
717.0923	0.0045
717.2719	0.0043
717.4516	-0.0108
717.6312	-0.0139
717.8109	0.0274
717.9905	0.0089
718.1701	0.0101
718.3496	0.0061
718.5292	-0.0187
718.7087	0.0001
718.8882	0.0298
719.0677	-0.0118
719.2472	-0.0169
719.4267	0.0328
719.6061	-0.0203
719.7856	0.0069
719.965	0.0052
720.1443	-0.0018
720.3237	0.013
720.5031	-0.0112
720.6824	0.002
720.8617	-0.0017
721.041	0.0232
721.2203	-0.0075
721.3995	-0.0104
721.5788	-0.0007
721.758	-0.019
721.9372	0.0263
722.1164	-0.0187
722.2956	-0.0038
722.4747	0.0135
722.6538	-0.0099
722.8329	0.0159
723.012	0.0175
723.1911	-0.0057
723.3702	0.0163
723.5492	-0.0109
723.7282	0.0023
723.9072	0.0188
724.0862	-0.0165
724.2652	0.0145
724.4441	0.0219
724.623	0.0177
724.8019	-0.017
724.9808	0.0056
725.1597	0.0196
725.3385	0.0135
725.5174	0.0069
725.6962	0.0008
725.875	-0.0002
726.0538	-0.0037
726.2325	0.0289
726.4112	-0.0077
726.59	-0.0318
726.7687	0.0072
726.9474	0.0034
727.126	0.0344
727.3047	0.0041
727.4833	-0.0029
727.6619	-0.0157
727.8405	-0.0163
728.0191	0.0279
728.1976	-0.002
728.3762	0.0196
728.5547	0.0248
728.7332	0.0092
728.9116	0.0347
729.0901	-0.0111
729.2686	0.0096
729.447	-0.0203
729.6254	0.0116
729.8038	0.0181
729.9821	-0.015
730.1605	0.0129
730.3388	-0.0082
730.5171	-0.0031
730.6954	-0.0271
730.8737	-0.0073
731.0519	-0.0176
731.2302	0.021
731.4084	0.004
731.5866	0.003
731.7648	-0.0055
731.9429	0.0326
732.1211	-0.0026
732.2992	0.0018
732.4773	-0.0039
732.6554	-0.0116
732.8335	0.0159
733.0115	0.0162
733.1896	-0.0089
733.3676	0.012
733.5456	0.007
733.7235	-0.0191
733.9015	-0.0049
734.0794	-0.0201
734.2574	-0.0103
734.4353	0.0111
734.6131	0.0037
734.791	-0.0151
734.9689	-0.0183
735.1467	-0.0151
735.3245	0.0079
735.5023	0.0047
735.68	-0.0149
735.8578	0.0132
736.0355	0.0041
736.2132	-0.0085
736.3909	0.0001
736.5686	-0.0114
736.7463	-0.0215
736.9239	0.0125
737.1015	-0.0098
737.2791	0.0101
737.4567	-0.0065
737.6343	0.0044
737.8118	0.0192
737.9894	-0.0034
738.1669	0.0082
738.3444	0.035
738.5218	-0.0206
738.6993	0.0072
738.8767	0.0041
739.0541	0.0043
739.2315	0.0011
739.4089	0.0157
739.5863	-0.0068
739.7636	0.0039
739.9409	-0.0301
740.1182	-0.0086
740.2955	0.0299
740.4728	-0.011
740.65	-0.0063
740.8272	0.0254
741.0044	-0.0179
741.1816	0.0096
741.3588	-0.0281
741.5359	-0.0289
741.7131	0.0182
741.8902	-0.0113
742.0673	-0.0105
742.2444	0.0215
742.4214	0.0136
742.5985	-0.019
742.7755	-0.0037
742.9525	-0.026
743.1295	-0.0267
743.3064	-0.0184
743.4834	0.0097
743.6603	0.0335
743.8372	-0.0484
744.0141	0.0295
744.191	0.0178
744.3678	-0.0236
744.5446	-0.0039
744.7215	0.0137
744.8982	0.0109
745.075	0.0648
745.2518	0.0196
745.4285	0.0467
745.6052	-0.0228
745.7819	-0.0036
745.9586	-0.0052
746.1353	-0.0303
746.3119	0.014
746.4885	0.0312
746.6651	-0.0037
746.8417	0.0074
747.0183	0.0323
747.1948	-0.0258
747.3714	0.0025
747.5479	0.0012
747.7244	-0.0304
747.9008	-0.0043
748.0773	0.0197
748.2537	0.0234
748.4301	0.0251
748.6065	-0.0206
748.7829	-0.0293
748.9593	-0.0123
749.1356	0.0063
749.3119	-0.0012
749.4882	0.0144
749.6645	0.0001
749.8408	0.027
750.017	0.0075
750.1933	-0.0162
750.3695	0.013
750.5457	-0.0063
750.7218	0.0007
750.898	-0.016
751.0741	0.0043
751.2502	0.0013
751.4263	-0.0018
751.6024	0.004
751.7784	-0.0037
751.9545	-0.0086
752.1305	-0.001
752.3065	0.0001
752.4825	-0.0034
752.6584	0.0136
752.8344	0.0027
753.0103	-0.013
753.1862	0.0245
753.3621	-0.008
753.5379	0.0028
753.7138	0.0093
753.8896	0.0166
754.0654	-0.016
754.2412	0.0221
754.417	0.0303
754.5927	0.0192
754.7685	0.0276
754.9442	0.0181
755.1199	0.0036
755.2956	0.01
755.4712	0.001
755.6469	-0.0143
755.8225	0.016
755.9981	0.0102
756.1736	0.0033
756.3492	-0.0002
756.5248	0.0044
756.7003	-0.0114
756.8758	-0.0092
757.0513	0.0076
757.2267	-0.0068
757.4022	0.0011
757.5776	0.0005
757.753	0.016
757.9284	-0.0006
758.1038	-0.0012
758.2791	0.0015
758.4545	-0.0022
758.6298	-0.0136
758.8051	0.0151
758.9803	-0.0077
759.1556	-0.0033
759.3308	-0.0161
759.506	0.0065
759.6812	0.0076
759.8564	-0.0074
760.0316	-0.0085
760.2067	0.0256
760.3819	0.0033
760.557	-0.0066
760.732	-0.0073
760.9071	0.01
761.0821	-0.0158
761.2572	0.0026
761.4322	-0.0043
761.6072	0.0018
761.7821	-0.0106
761.9571	0.0026
762.132	-0.0014
762.3069	0.0239
762.4818	0.009
762.6567	-0.0206
762.8316	0.011
763.0064	0.0209
763.1812	0.018
763.356	-0.0157
763.5308	0.0384
763.7055	-0.0014
763.8803	0.0015
764.055	-0.0009
764.2297	-0.0124
764.4044	-0.0069
764.579	-0.0094
764.7537	-0.0129
764.9283	0.0206
765.1029	0.0146
765.2775	0.0179
765.4521	0.0052
765.6266	0.0029
765.8011	0.016
765.9756	-0.0206
766.1501	0.0056
766.3246	0.0149
766.4991	-0.0074
766.6735	0.0304
766.8479	0.0023
767.0223	0.0191
767.1967	0.0169
767.371	0.0101
767.5454	0.0111
767.7197	0.0132
767.894	-0.0126
768.0683	0.0234
768.2425	-0.0044
768.4168	0.0192
768.591	-0.0082
768.7652	-0.0391
768.9394	0.0001
769.1135	0.0111
769.2877	0.022
769.4618	0.0113
769.6359	0.0022
769.81	0.025
769.984	-0.0036
770.1581	0.0062
770.3321	0.04
770.5061	-0.0031
770.6801	0.0021
770.8541	0.0001
771.028	0.0447
771.202	0.0033
771.3759	-0.0056
771.5498	0.0001
771.7236	-0.0021
771.8975	0.0178
772.0713	0.0266
772.2451	-0.0161
772.4189	0.0085
772.5927	-0.0248
772.7665	-0.0146
772.9402	0.0211
773.1139	-0.0358
773.2876	-0.0004
773.4613	0.0305
773.635	0.0163
773.8086	0.0157
773.9822	0.0242
774.1558	0.0048
774.3294	0.0364
774.503	0.003
774.6765	0.0219
774.8501	-0.0079
775.0236	0.0628
775.1971	0.0134
775.3705	-0.0052
775.544	-0.0274
775.7174	0.0247
775.8908	-0.0252
776.0642	-0.0038
776.2376	0.0432
776.4109	0.0107
776.5843	-0.0152
776.7576	-0.0276
776.9309	-0.0288
777.1041	-0.0247
777.2774	0.0484
777.4506	-0.0065
777.6238	-0.0101
777.797	-0.017
777.9702	-0.0076
778.1434	0.0244
778.3165	-0.0267
778.4896	-0.033
778.6627	-0.0148
778.8358	0.0161
779.0089	-0.0232
779.1819	0.0342
779.3549	-0.0038
779.5279	0.0161
779.7009	0.0072
779.8739	0.0706
780.0468	-0.0109
780.2197	0.0249
780.3926	-0.0591
780.5655	0.016
780.7384	0.0202
780.9112	0.0328
781.0841	0.0043
781.2569	0.0139
781.4297	0.0145
781.6024	0.0112
781.7752	0.0448
781.9479	0.043
782.1206	-0.0051
782.2933	-0.0026
782.466	0.0214
782.6386	0.013
782.8113	-0.0197
782.9839	-0.008
783.1565	0.0136
783.329	0.0037
783.5016	0.0025
783.6741	0.0014
783.8466	0.0084
784.0191	0.0037
784.1916	-0.0044
784.3641	-0.0664
784.5365	0.0095
784.7089	0.0405
784.8813	0.039
785.0537	-0.025
785.2261	0.0062
785.3984	0.0065
785.5707	0.0107
785.743	0.0297
785.9153	-0.0085
786.0876	-0.0242
786.2598	0.0241
786.432	0.02
786.6042	0.0393
786.7764	-0.0146
786.9486	-0.0053
787.1207	0.025
787.2928	0.0251
787.4649	-0.0049
787.637	0.0182
787.8091	-0.0073
787.9811	0.024
788.1532	0.0231
788.3252	0.0138
788.4972	0.0147
788.6691	0.0324
788.8411	-0.0117
789.013	0.0207
789.1849	-0.0252
789.3568	0.0246
789.5287	0.0397
789.7005	-0.0351
789.8723	-0.0225
790.0442	-0.0153
790.2159	0.0172
790.3877	0.0231
790.5595	-0.0239
790.7312	-0.0076
790.9029	-0.0491
791.0746	0.0154
791.2463	-0.0459
791.4179	-0.0111
791.5896	0.032
791.7612	0.0208
791.9328	-0.0589
792.1044	-0.0153
792.2759	-0.0619
792.4474	-0.0088
792.619	-0.0207
792.7905	0.019
792.9619	0.0216
793.1334	0.0375
793.3048	0.027
793.4762	0.0088
793.6476	-0.016
793.819	-0.041
793.9904	0.0008
794.1617	-0.0568
794.333	-0.001
794.5043	0.0154
794.6756	0.0084
794.8469	-0.0004
795.0181	0.0182
795.1893	-0.001
795.3605	-0.0022
795.5317	0.0198
795.7029	-0.0243
795.874	0.0107
796.0452	-0.0037
796.2163	0.0215
796.3873	0.0199
796.5584	0.0339
796.7294	-0.0366
796.9005	-0.0293
797.0715	-0.0104
797.2425	0.0237
797.4134	0.0183
797.5844	0.0393
797.7553	-0.044
797.9262	0.0504
798.0971	0.036
798.2679	-0.0197
798.4388	0.0259
798.6096	0.0301
798.7804	0.036
798.9512	0.0795
799.122	-0.0281
799.2927	0.0031
799.4635	-0.0526
799.6342	-0.0555
799.8049	0.0673
799.9755	-0.0138
800.1462	0.0087
800.3168	-0.0226
800.4874	-0.0782
800.658	0.0385
800.8286	0.0377
800.9991	-0.0057
801.1696	-0.0464
801.3402	-0.0132
801.5106	-0.0638
801.6811	-0.0065
801.8516	0.0425
802.022	-0.0178
802.1924	-0.0703
802.3628	-0.0033
802.5332	0.0497
802.7035	0.0727
802.8739	0.0329
803.0442	-0.0283
803.2145	0.0453
803.3847	0.0567
803.555	0.0136
803.7252	-0.0286
803.8954	-0.0387
804.0656	-0.0588
804.2358	0.0591
804.4059	0.026
804.5761	0.0341
804.7462	-0.0343
804.9163	0.0069
805.0864	-0.0641
805.2564	-0.0511
805.4264	-0.0313
805.5965	0.0296
805.7665	0.024
805.9364	-0.0535
806.1064	-0.0344
806.2763	0.0108
806.4462	0.0202
806.6161	0.0074
806.786	-0.0066
806.9559	-0.0093
807.1257	-0.0117
807.2955	-0.0173
807.4653	0.004
807.6351	0.0509
807.8048	0.02
807.9746	0.0143
808.1443	-0.0371
808.314	0.0039
808.4837	0.0355
808.6533	-0.0607
808.8229	-0.0277
808.9926	-0.031
809.1622	0.0075
809.3317	-0.0482
809.5013	-0.0412
809.6708	0.0369
809.8403	-0.0292
810.0098	0.0495
810.1793	-0.0237
810.3488	-0.0416
810.5182	0.0774
810.6876	-0.0164
810.857	0.0834
811.0264	-0.0165
811.1958	0.1061
811.3651	-0.1016
811.5344	0.0347
811.7037	0.0449
811.873	0.0354
812.0422	0.022
812.2115	-0.1062
812.3807	-0.1443
812.5499	0.0222
812.7191	-0.1305
812.8882	-0.0631
813.0574	-0.0069
813.2265	-0.0045
813.3956	0.0243
813.5646	0.0885
813.7337	-0.0272
813.9027	-0.0174
814.0718	0.0707
814.2407	-0.0058
814.4097	0.0612
814.5787	0.0605
814.7476	0.0291
814.9165	0.0452
815.0854	0.0551
815.2543	-0.0664
815.4232	0.0252
815.592	-0.0116
815.7608	-0.1026
815.9296	0.0359
816.0984	0.0266
816.2671	-0.2752
816.4359	0.0085
816.6046	0.1487
816.7733	-0.1051
816.942	-0.052
817.1106	0.0317
817.2793	-0.0584
817.4479	0.0008
817.6165	-0.0554
817.785	0.0076
817.9536	0.0059
818.1221	-0.0425
818.2906	-0.0466
818.4591	0.0602
818.6276	0.0183
818.7961	-0.0584
818.9645	0.006
819.1329	0.0696
819.3013	0.0273
819.4697	-0.0299
819.638	-0.029
819.8064	0.167
819.9747	0.0646
820.143	-0.1133
820.3113	0.0689
820.4795	0.0592
820.6477	0.0929
820.816	-0.0381
820.9842	0.0168
821.1523	0.0173
821.3205	0.083
821.4886	-0.0798
821.6567	-0.1653
821.8248	0.1259
821.9929	-0.1282
822.1609	-0.0757
822.329	0.0414
822.497	0.097
822.665	-0.0731
822.833	-0.0208
823.0009	-0.0934
823.1688	-0.007
823.3367	-0.199
823.5046	0.1122
823.6725	-0.0306
823.8404	0.1629
824.0082	0.0303
824.176	-0.1773
824.3438	0.0696
824.5116	0.0557
824.6793	0.0379
824.847	0.0199
825.0147	0.0073
825.1824	-0.0739
825.3501	0.1229
825.5177	-0.0785
825.6854	-0.1672
825.853	-0.0606
826.0206	-0.0301
826.1881	-0.0236
826.3557	-0.0585
826.5232	0.2301
826.6907	0.0031
826.8582	-0.108
827.0257	-0.0054
827.1931	-0.0795
827.3605	-0.1008
827.528	-0.234
827.6953	-0.291
827.8627	-0.0138
828.03	0.0685
828.1974	-0.0785
828.3647	0.1517
828.532	0.0557
828.6992	-0.013
828.8665	-0.0812
829.0337	0.175
829.2009	-0.1331
829.3681	0.0307
829.5352	-0.2381
829.7024	-0.0322
829.8695	-0.0815
830.0366	0.1948
830.2037	0.1393
830.3707	-0.0051
830.5378	-0.1014
830.7048	-0.1436
830.8718	0.0718
831.0388	0.1316
831.2057	-0.2965
831.3727	-0.1444
831.5396	0.0016
831.7065	-0.9413
831.8734	-0.034
832.0402	0.3407
832.2071	0.7117
832.3739	-0.1261
832.5407	-2.0282
832.7075	-0.4169
832.8742	-0.1034
833.041	-0.045
833.2077	0.5823
833.3744	0.2477
833.541	0.2059
833.7077	-0.2656
833.8743	0.0099
834.0409	0.015
834.2075	0.033
834.3741	-0.245
834.5407	-0.0746
834.7072	-0.079
834.8737	-0.0098
835.0402	0.0716
835.2067	-0.1387
835.3731	-0.0816
835.5395	-0.1151
835.706	-0.2806
835.8723	-0.13
836.0387	0.4578
836.2051	0.4678
836.3714	0.4969
836.5377	-0.0841
836.704	-0.025
836.8703	-0.2937
837.0365	-0
837.2027	0.3348
837.3689	0.0173
837.5351	0.4117
837.7013	-0.2073
837.8674	-0.3021
838.0335	-0.079
838.1997	-0.1085
838.3657	-0
838.5318	-0.6013
838.6978	-0
838.8639	-0.5713
839.0299	-0.0615
839.1958	0.066
839.3618	0.2066
839.5277	-0.0736
839.6937	-0.2277
839.8596	-0.4097
840.0254	-0.1697
840.1913	-0.3671
840.3571	-0.2073
840.523	-0
840.6888	-0.1735
840.8545	-0.43
841.0203	-0.0242
841.186	0.0254
841.3517	-0.153
841.5174	0.1825
841.6831	0.3285
841.8488	-0.1021
842.0144	0.1274
842.18	0.152
842.3456	-0.3356
842.5112	-0
842.6767	0.3632
842.8422	-0
843.0077	-0.0045
843.1732	-0.5142
843.3387	-0.1521
843.5042	-0
843.6696	-0.3651
843.835	0.9105
844.0004	-0.331
844.1657	-1.2027
844.3311	-0.3022
844.4964	-0.6922
844.6617	0.309
844.827	-0
844.9923	0.2178
845.1575	-0.0153
845.3227	-0.1012
845.4879	-0.5349
845.6531	0.5893
845.8183	-0
845.9834	0.5014
846.1485	0.4273
846.3136	0.0157
846.4787	-0
846.6438	-0.3337
846.8088	0.08
846.9738	-0
847.1388	0.2737
847.3038	0.106
847.4687	-0
847.6337	-0.3418
847.7986	0.0664
847.9635	0.0036
848.1284	-0
848.2932	0.3096
848.458	-0
848.6228	0.0161
848.7876	0.0192
848.9524	-0.2693
849.1172	-1.8052
849.2819	-0.6452
849.4466	0.1624
849.6113	-0.0509
849.7759	1.5836
849.9406	0.0567
850.1052	0.8016
850.2698	0.252
850.4344	-0.8465
850.599	0.583
850.7635	0.3017
850.928	0.3102
851.0925	0.2646
851.257	-0.0696
851.4215	-0
851.5859	0.2138
851.7503	-0
851.9147	-0.047
852.0791	-0.2318
852.2434	0.1053
852.4078	-0
852.5721	0.0415
852.7364	-0.3507
852.9007	-0.07
853.0649	-0
853.2291	0.1336
853.3934	-0
853.5575	-0.1085
853.7217	-0.0306
853.8859	-0
854.05	-0.3375
854.2141	0.3398
854.3782	0.1971
854.5423	-0.3487
854.7063	0.5144
854.8703	-0.1219
855.0343	0.1102
855.1983	0.0768
855.3623	0.0201
855.5262	-0
855.6901	0.2837
855.854	0.5823
856.0179	-0.0104
856.1818	0.3879
856.3456	-0
856.5094	-0.601
856.6732	-0.7282
856.837	-1.0963
857.0008	-0.5471
857.1645	0.2038
857.3282	-0.462
857.4919	0.0186
857.6556	-0.1213
857.8192	-0.0769
857.9828	-0.2843
858.1465	0.5154
858.31	0.1499
858.4736	-0.4096
858.6372	-0.3669
858.8007	0.3556
858.9642	0.0985
859.1277	1.0422
859.2911	-0.3666
859.4546	-0
859.618	0.6779
859.7814	-0.0493
859.9448	-0.2313
860.1081	-0
860.2715	-1.3879
860.4348	-0.2317
860.5981	0.309
860.7614	-0.147
860.9246	0.0043
861.0879	0.2017
861.2511	-0.1146
861.4143	-0
861.5774	-0.5138
861.7406	0.246
861.9037	-0.677
862.0668	-0
862.2299	-0
862.393	0.1452
862.556	-0.6863
862.7191	-0.2265
862.8821	0.4412
863.0451	0.2277
863.208	-0
863.371	-0.1175
863.5339	0.1383
863.6968	0.0612
863.8597	-0
864.0225	-0.1056
864.1854	-0
864.3482	-0
864.511	-0.061
864.6737	0.2383
864.8365	0.5121
864.9992	-0
865.1619	-0.6084
865.3246	-1.8954
865.4873	-0.7561
865.65	-0.1122
865.8126	0.0181
865.9752	-0.2453
866.1378	0.1054
866.3004	-0.3967
866.4629	-1.9919
866.6254	-0.7089
866.7879	0.1302
866.9504	-0
867.1129	-0.5105
867.2753	0.2502
867.4377	-0.115
867.6001	-0.7628
867.7625	-0.1288
867.9249	-0.1123
868.0872	-0.245
868.2495	-0
868.4118	-0
868.5741	0.3053
868.7363	-0
868.8986	-0
869.0608	-0
869.223	-0.4142
869.3851	-0
869.5473	-0.0687
869.7094	0.9987
869.8715	-1.188
870.0336	-0.009
870.1957	-0
870.3577	-0.0827
870.5197	0.0038
870.6817	-0.8175
870.8437	0.5948
871.0057	0.0517
871.1676	0.5809
871.3295	-0
871.4914	-0
871.6533	0.368
871.8151	0.4539
871.977	-0.463
872.1388	0.1086
872.3006	-0.81
872.4623	-0
872.6241	-0
872.7858	-0.1796
872.9475	0.7919
873.1092	0.823
873.2709	0.6585
873.4325	-1.7289
873.5941	-0
873.7557	0.1866
873.9173	-0.1649
874.0789	-0.0534
874.2404	-0
874.4019	-0.0273
874.5634	-0
874.7249	0.6107
874.8863	-0
875.0478	-0.3577
875.2092	0.6145
875.3706	0.7606
875.5319	0.279
875.6933	0.8571
875.8546	0.368
876.0159	0.0603
876.1772	-0
876.3385	0.9229
876.4997	0.215
876.6609	-0
876.8221	-0
876.9833	-0.1646
877.1445	0.5352
877.3056	-0.308
877.4667	-0
877.6278	0.8977
877.7889	0.2189
877.9499	-0
878.111	-0.6828
878.272	-0
878.433	0.1113
878.5939	0.2368
878.7549	1.8939
878.9158	-0
879.0767	-0
879.2376	-0
879.3984	0.3486
879.5593	1.3243
879.7201	-0
879.8809	-0.4547
880.0417	-0.1494
880.2024	0.2927
880.3632	-0.6785
880.5239	0.0046
880.6846	-0.6375
880.8452	-0.0967
881.0059	-0
881.1665	0.044
881.3271	0.6684
881.4877	-0.0548
881.6483	-0
881.8088	-0
881.9693	-0
882.1298	-0
882.2903	-0
