Data from D4ACN5uM460nmA_Absorbance_13-05-42-650.txt Node
Date: Fri Feb 21 13:05:42 GMT 2025
User: LASERRRRR
Spectrometer: FLMT03099
Trigger mode: 0
Integration Time (sec): 1.500000E-2
Scans to average: 1
Electric dark correction enabled: true
Nonlinearity correction enabled: false
Boxcar width: 0
XAxis mode: Wavelengths
Number of Pixels in Spectrum: 3648
>>>>>Begin Spectral Data<<<<<
179.3399	-0.8722
179.5586	-0.8722
179.7771	-0.8722
179.9957	-0.2429
180.2143	-1.4244
180.4329	1.0401
180.6514	-0.1319
180.8699	0.4244
181.0885	-0.2916
181.307	-0.0139
181.5255	0.2197
181.744	-0.3714
181.9625	0.6133
182.181	-0
182.3994	-0.5608
182.6179	-0.1875
182.8363	-0
183.0547	0.1179
183.2732	0.0043
183.4916	0.2934
183.71	0.272
183.9284	-0.0346
184.1467	0.546
184.3651	-0.0742
184.5835	0.4819
184.8018	0.0235
185.0201	0.2409
185.2385	0.4339
185.4568	0.1549
185.6751	0.0287
185.8934	0.378
186.1117	0.0121
186.3299	-0.0115
186.5482	0.3416
186.7664	0.2632
186.9847	0.0933
187.2029	0.3436
187.4211	-0.0033
187.6393	0.2189
187.8575	0.0645
188.0757	0.3032
188.2939	0.0201
188.512	0.4356
188.7302	0.1554
188.9483	0.1645
189.1665	0.294
189.3846	0.1614
189.6027	0.1458
189.8208	0.1901
190.0389	0.1883
190.257	-0.0366
190.475	0.0324
190.6931	-0.0699
190.9111	0.0539
191.1292	0.0873
191.3472	0.1816
191.5652	0.5051
191.7832	0.0748
192.0012	0.1768
192.2192	0.1952
192.4371	0.1085
192.6551	0.0719
192.873	0.1484
193.091	0.1377
193.3089	0.194
193.5268	0.2109
193.7447	0.1034
193.9626	0.2123
194.1805	0.2122
194.3984	0.2058
194.6162	0.1983
194.8341	0.1647
195.0519	0.2602
195.2697	0.2419
195.4875	0.2502
195.7054	0.2478
195.9231	0.1801
196.1409	0.3938
196.3587	0.3228
196.5765	0.349
196.7942	0.343
197.012	0.3656
197.2297	0.2801
197.4474	0.3959
197.6651	0.3092
197.8828	0.3233
198.1005	0.4536
198.3182	0.3829
198.5358	0.3685
198.7535	0.3751
198.9711	0.394
199.1888	0.3216
199.4064	0.4243
199.624	0.3675
199.8416	0.3996
200.0592	0.4031
200.2767	0.3535
200.4943	0.4441
200.7119	0.3752
200.9294	0.4228
201.1469	0.3933
201.3645	0.4647
201.582	0.3969
201.7995	0.4107
202.017	0.4077
202.2344	0.3881
202.4519	0.4206
202.6694	0.3991
202.8868	0.4053
203.1042	0.3951
203.3217	0.3995
203.5391	0.3861
203.7565	0.3711
203.9739	0.3762
204.1913	0.3631
204.4086	0.3392
204.626	0.3463
204.8433	0.3594
205.0607	0.3332
205.278	0.3439
205.4953	0.3379
205.7126	0.3435
205.9299	0.2983
206.1472	0.3556
206.3644	0.3596
206.5817	0.3166
206.7989	0.3133
207.0162	0.3276
207.2334	0.3323
207.4506	0.3235
207.6678	0.2932
207.885	0.3064
208.1022	0.3181
208.3194	0.2869
208.5365	0.3262
208.7537	0.2942
208.9708	0.2831
209.1879	0.2856
209.405	0.3094
209.6222	0.2781
209.8392	0.3033
210.0563	0.2818
210.2734	0.2596
210.4905	0.288
210.7075	0.2788
210.9245	0.265
211.1416	0.2693
211.3586	0.2687
211.5756	0.255
211.7926	0.2658
212.0096	0.2517
212.2265	0.2721
212.4435	0.2717
212.6604	0.2502
212.8774	0.2372
213.0943	0.2767
213.3112	0.2629
213.5281	0.2526
213.745	0.2438
213.9619	0.2363
214.1788	0.2669
214.3956	0.2397
214.6125	0.2716
214.8293	0.263
215.0461	0.2422
215.2629	0.2507
215.4798	0.2548
215.6965	0.2626
215.9133	0.227
216.1301	0.2398
216.3469	0.2438
216.5636	0.231
216.7803	0.2531
216.9971	0.2687
217.2138	0.2566
217.4305	0.2566
217.6472	0.2551
217.8639	0.2575
218.0805	0.2438
218.2972	0.2364
218.5138	0.2543
218.7305	0.2583
218.9471	0.2502
219.1637	0.268
219.3803	0.2607
219.5969	0.2552
219.8135	0.2683
220.0301	0.262
220.2466	0.2581
220.4632	0.244
220.6797	0.2727
220.8962	0.2518
221.1127	0.2704
221.3292	0.2683
221.5457	0.2739
221.7622	0.265
221.9787	0.2799
222.1951	0.2663
222.4116	0.2909
222.628	0.2799
222.8444	0.2844
223.0608	0.2742
223.2772	0.2725
223.4936	0.2792
223.71	0.2882
223.9264	0.2996
224.1427	0.2872
224.3591	0.294
224.5754	0.2946
224.7917	0.3071
225.008	0.2949
225.2243	0.2912
225.4406	0.2879
225.6569	0.3074
225.8732	0.3092
226.0894	0.317
226.3057	0.3052
226.5219	0.3146
226.7381	0.3173
226.9543	0.3221
227.1705	0.3182
227.3867	0.3332
227.6029	0.3178
227.8191	0.3476
228.0352	0.3441
228.2513	0.3458
228.4675	0.3422
228.6836	0.3451
228.8997	0.3465
229.1158	0.3499
229.3319	0.3659
229.548	0.3562
229.764	0.3625
229.9801	0.371
230.1961	0.3742
230.4121	0.3648
230.6282	0.378
230.8442	0.3909
231.0602	0.39
231.2761	0.3802
231.4921	0.3862
231.7081	0.3888
231.924	0.4062
232.14	0.4072
232.3559	0.4071
232.5718	0.4094
232.7877	0.4144
233.0036	0.4092
233.2195	0.4112
233.4353	0.4177
233.6512	0.4109
233.867	0.4089
234.0829	0.4118
234.2987	0.4209
234.5145	0.4346
234.7303	0.4299
234.9461	0.4331
235.1619	0.4402
235.3776	0.432
235.5934	0.4365
235.8091	0.4502
236.0249	0.4545
236.2406	0.4477
236.4563	0.4515
236.672	0.4409
236.8877	0.4457
237.1034	0.4475
237.319	0.4493
237.5347	0.4538
237.7503	0.444
237.966	0.4575
238.1816	0.4507
238.3972	0.461
238.6128	0.4707
238.8284	0.4552
239.0439	0.462
239.2595	0.4565
239.475	0.4648
239.6906	0.4622
239.9061	0.4631
240.1216	0.4593
240.3371	0.4601
240.5526	0.4656
240.7681	0.4635
240.9836	0.453
241.199	0.4567
241.4145	0.4458
241.6299	0.4414
241.8453	0.4381
242.0607	0.4325
242.2761	0.4333
242.4915	0.422
242.7069	0.4052
242.9223	0.4196
243.1376	0.4141
243.353	0.4028
243.5683	0.3941
243.7836	0.3856
243.9989	0.3659
244.2142	0.3689
244.4295	0.3662
244.6448	0.3567
244.86	0.3487
245.0753	0.3402
245.2905	0.3324
245.5057	0.3269
245.721	0.3311
245.9362	0.3234
246.1514	0.3105
246.3665	0.3053
246.5817	0.2972
246.7969	0.2955
247.012	0.2891
247.2271	0.2889
247.4423	0.2787
247.6574	0.2776
247.8725	0.2638
248.0876	0.266
248.3026	0.2666
248.5177	0.2513
248.7328	0.2509
248.9478	0.2511
249.1628	0.2425
249.3779	0.2373
249.5929	0.237
249.8079	0.2285
250.0228	0.2305
250.2378	0.2317
250.4528	0.2297
250.6677	0.2234
250.8827	0.2186
251.0976	0.2076
251.3125	0.2103
251.5274	0.2122
251.7423	0.2046
251.9572	0.2095
252.172	0.2112
252.3869	0.2079
252.6017	0.1998
252.8166	0.2029
253.0314	0.1944
253.2462	0.1964
253.461	0.1933
253.6758	0.1948
253.8906	0.1885
254.1053	0.1907
254.3201	0.1908
254.5348	0.1821
254.7496	0.1836
254.9643	0.1904
255.179	0.1878
255.3937	0.1822
255.6083	0.1909
255.823	0.1836
256.0377	0.1821
256.2523	0.1853
256.467	0.1896
256.6816	0.1826
256.8962	0.1836
257.1108	0.1808
257.3254	0.1799
257.54	0.1759
257.7545	0.1823
257.9691	0.1793
258.1836	0.1759
258.3981	0.1766
258.6127	0.1752
258.8272	0.1781
259.0417	0.1751
259.2561	0.1723
259.4706	0.1771
259.6851	0.179
259.8995	0.1754
260.114	0.1751
260.3284	0.1727
260.5428	0.1682
260.7572	0.1684
260.9716	0.1772
261.186	0.1697
261.4003	0.1696
261.6147	0.171
261.829	0.1728
262.0433	0.1742
262.2577	0.1763
262.472	0.1702
262.6863	0.1791
262.9005	0.1735
263.1148	0.1729
263.3291	0.1748
263.5433	0.1758
263.7576	0.1768
263.9718	0.1762
264.186	0.1804
264.4002	0.178
264.6144	0.1791
264.8286	0.1774
265.0427	0.1813
265.2569	0.1796
265.471	0.1816
265.6851	0.1795
265.8993	0.1727
266.1134	0.1771
266.3275	0.1764
266.5415	0.1782
266.7556	0.1806
266.9697	0.1835
267.1837	0.1769
267.3978	0.1779
267.6118	0.1755
267.8258	0.1792
268.0398	0.1753
268.2538	0.1825
268.4677	0.1726
268.6817	0.1717
268.8957	0.1655
269.1096	0.167
269.3235	0.1714
269.5374	0.1709
269.7514	0.1717
269.9652	0.1729
270.1791	0.1663
270.393	0.1781
270.6068	0.1684
270.8207	0.1702
271.0345	0.1689
271.2483	0.1654
271.4622	0.1755
271.676	0.167
271.8897	0.1682
272.1035	0.1743
272.3173	0.1671
272.531	0.1642
272.7448	0.1682
272.9585	0.1625
273.1722	0.1643
273.3859	0.1649
273.5996	0.1657
273.8133	0.1709
274.0269	0.1645
274.2406	0.167
274.4542	0.1702
274.6679	0.17
274.8815	0.1694
275.0951	0.1772
275.3087	0.174
275.5223	0.1687
275.7358	0.1734
275.9494	0.1665
276.1629	0.1706
276.3765	0.1644
276.59	0.1669
276.8035	0.1712
277.017	0.1775
277.2305	0.1723
277.444	0.1716
277.6574	0.1711
277.8709	0.1731
278.0843	0.1774
278.2978	0.1789
278.5112	0.173
278.7246	0.1726
278.938	0.1781
279.1513	0.1765
279.3647	0.1758
279.5781	0.1735
279.7914	0.1711
280.0047	0.1753
280.2181	0.1765
280.4314	0.1726
280.6447	0.1774
280.8579	0.1741
281.0712	0.1773
281.2845	0.1777
281.4977	0.1766
281.711	0.1798
281.9242	0.1779
282.1374	0.1798
282.3506	0.1789
282.5638	0.1802
282.7769	0.1742
282.9901	0.1831
283.2033	0.1784
283.4164	0.1791
283.6295	0.1808
283.8426	0.1833
284.0557	0.1832
284.2688	0.1884
284.4819	0.1758
284.695	0.1852
284.908	0.1813
285.1211	0.1869
285.3341	0.1794
285.5471	0.1822
285.7601	0.1787
285.9731	0.1842
286.1861	0.1857
286.3991	0.1885
286.612	0.1829
286.825	0.1908
287.0379	0.1817
287.2508	0.1965
287.4637	0.1963
287.6766	0.1827
287.8895	0.1852
288.1024	0.1917
288.3152	0.1892
288.5281	0.1851
288.7409	0.1886
288.9538	0.1914
289.1666	0.1812
289.3794	0.1893
289.5922	0.1833
289.8049	0.1886
290.0177	0.1888
290.2304	0.1867
290.4432	0.1895
290.6559	0.1869
290.8686	0.1901
291.0813	0.1876
291.294	0.1937
291.5067	0.1865
291.7194	0.1889
291.932	0.1839
292.1447	0.1903
292.3573	0.1928
292.5699	0.1928
292.7825	0.191
292.9951	0.1949
293.2077	0.1877
293.4203	0.1909
293.6328	0.1853
293.8454	0.1939
294.0579	0.1891
294.2704	0.1944
294.4829	0.1916
294.6954	0.196
294.9079	0.1918
295.1204	0.1852
295.3328	0.1995
295.5453	0.1916
295.7577	0.1929
295.9701	0.189
296.1825	0.1945
296.3949	0.1897
296.6073	0.1885
296.8197	0.1922
297.0321	0.1965
297.2444	0.1921
297.4567	0.1943
297.6691	0.1914
297.8814	0.1946
298.0937	0.1903
298.306	0.1888
298.5182	0.1955
298.7305	0.1901
298.9428	0.1927
299.155	0.1888
299.3672	0.1925
299.5794	0.1926
299.7916	0.1925
300.0038	0.1946
300.216	0.1926
300.4282	0.1922
300.6403	0.1978
300.8525	0.1916
301.0646	0.1926
301.2767	0.1847
301.4888	0.1935
301.7009	0.1911
301.913	0.1961
302.125	0.1891
302.3371	0.1931
302.5491	0.1931
302.7612	0.1981
302.9732	0.1934
303.1852	0.1864
303.3972	0.1903
303.6092	0.1865
303.8211	0.1878
304.0331	0.1847
304.245	0.1869
304.457	0.191
304.6689	0.1863
304.8808	0.187
305.0927	0.1898
305.3046	0.1946
305.5164	0.1809
305.7283	0.1804
305.9401	0.1802
306.152	0.181
306.3638	0.179
306.5756	0.1859
306.7874	0.1739
306.9992	0.1723
307.2109	0.1759
307.4227	0.1711
307.6344	0.1702
307.8462	0.1674
308.0579	0.1687
308.2696	0.1643
308.4813	0.1685
308.693	0.1634
308.9046	0.1627
309.1163	0.1597
309.328	0.1571
309.5396	0.1498
309.7512	0.1502
309.9628	0.1556
310.1744	0.1484
310.386	0.1478
310.5976	0.148
310.8091	0.1514
311.0207	0.1429
311.2322	0.1369
311.4437	0.148
311.6552	0.1419
311.8667	0.1406
312.0782	0.1378
312.2897	0.143
312.5012	0.1374
312.7126	0.1377
312.924	0.1362
313.1355	0.1358
313.3469	0.1323
313.5583	0.1275
313.7696	0.1293
313.981	0.1357
314.1924	0.1285
314.4037	0.1277
314.6151	0.1271
314.8264	0.1321
315.0377	0.1255
315.249	0.1268
315.4603	0.1276
315.6716	0.1213
315.8828	0.1258
316.0941	0.1247
316.3053	0.1195
316.5165	0.126
316.7277	0.119
316.9389	0.1201
317.1501	0.1277
317.3613	0.1187
317.5724	0.1208
317.7836	0.1124
317.9947	0.1209
318.2058	0.1181
318.417	0.1205
318.6281	0.1153
318.8391	0.1255
319.0502	0.1186
319.2613	0.1181
319.4723	0.1211
319.6834	0.1174
319.8944	0.1155
320.1054	0.1201
320.3164	0.1171
320.5274	0.1154
320.7383	0.1234
320.9493	0.1192
321.1602	0.123
321.3712	0.1169
321.5821	0.1172
321.793	0.1268
322.0039	0.1201
322.2148	0.12
322.4257	0.1213
322.6365	0.1171
322.8474	0.1244
323.0582	0.1267
323.269	0.1216
323.4798	0.1284
323.6906	0.1173
323.9014	0.1164
324.1122	0.1146
324.3229	0.127
324.5337	0.1243
324.7444	0.1264
324.9551	0.1293
325.1658	0.1137
325.3765	0.1297
325.5872	0.1219
325.7979	0.1244
326.0085	0.1207
326.2192	0.1224
326.4298	0.1304
326.6404	0.1285
326.851	0.1239
327.0616	0.1232
327.2722	0.13
327.4828	0.1254
327.6933	0.1308
327.9039	0.1257
328.1144	0.129
328.3249	0.123
328.5354	0.1314
328.7459	0.1287
328.9564	0.1274
329.1669	0.1263
329.3773	0.1313
329.5878	0.1239
329.7982	0.1304
330.0086	0.1307
330.219	0.1221
330.4294	0.1289
330.6398	0.1312
330.8502	0.1352
331.0605	0.1289
331.2708	0.1241
331.4812	0.1326
331.6915	0.1325
331.9018	0.1251
332.1121	0.1333
332.3224	0.1277
332.5326	0.1329
332.7429	0.13
332.9531	0.1327
333.1633	0.1248
333.3735	0.13
333.5837	0.1322
333.7939	0.131
334.0041	0.1341
334.2143	0.1263
334.4244	0.1367
334.6346	0.1286
334.8447	0.1346
335.0548	0.1363
335.2649	0.1332
335.475	0.1384
335.685	0.1302
335.8951	0.1351
336.1051	0.1352
336.3152	0.1344
336.5252	0.1338
336.7352	0.1366
336.9452	0.1327
337.1552	0.1357
337.3652	0.1299
337.5751	0.1337
337.7851	0.132
337.995	0.1423
338.2049	0.139
338.4148	0.1364
338.6247	0.1331
338.8346	0.1374
339.0445	0.1359
339.2543	0.1362
339.4642	0.13
339.674	0.1369
339.8838	0.1332
340.0936	0.1398
340.3034	0.1332
340.5132	0.1344
340.7229	0.1382
340.9327	0.1476
341.1424	0.1425
341.3522	0.1366
341.5619	0.1411
341.7716	0.1478
341.9813	0.1461
342.1909	0.1479
342.4006	0.147
342.6102	0.1441
342.8199	0.1413
343.0295	0.1437
343.2391	0.145
343.4487	0.1456
343.6583	0.1541
343.8679	0.1455
344.0774	0.1444
344.287	0.1455
344.4965	0.1494
344.706	0.154
344.9155	0.1525
345.125	0.1487
345.3345	0.1583
345.544	0.1528
345.7534	0.1509
345.9629	0.1627
346.1723	0.1561
346.3817	0.1529
346.5911	0.1551
346.8005	0.1619
347.0099	0.1561
347.2193	0.1612
347.4286	0.1631
347.638	0.1667
347.8473	0.1681
348.0566	0.163
348.2659	0.1642
348.4752	0.1653
348.6845	0.1644
348.8937	0.1682
349.103	0.1638
349.3122	0.1646
349.5214	0.163
349.7306	0.1691
349.9398	0.1611
350.149	0.17
350.3582	0.1722
350.5674	0.1708
350.7765	0.1789
350.9856	0.165
351.1948	0.1711
351.4039	0.1669
351.613	0.1763
351.822	0.1815
352.0311	0.18
352.2402	0.179
352.4492	0.1719
352.6582	0.1772
352.8672	0.1731
353.0762	0.1737
353.2852	0.1807
353.4942	0.1862
353.7032	0.1764
353.9121	0.1839
354.1211	0.1816
354.33	0.1839
354.5389	0.1743
354.7478	0.1856
354.9567	0.1872
355.1655	0.1871
355.3744	0.1802
355.5833	0.1812
355.7921	0.1866
356.0009	0.1829
356.2097	0.1816
356.4185	0.1894
356.6273	0.1859
356.8361	0.1919
357.0448	0.1849
357.2536	0.1879
357.4623	0.185
357.671	0.1919
357.8797	0.1843
358.0884	0.1913
358.2971	0.1942
358.5057	0.1973
358.7144	0.1882
358.923	0.1948
359.1316	0.1977
359.3402	0.1969
359.5488	0.1997
359.7574	0.2005
359.966	0.2015
360.1746	0.1979
360.3831	0.2083
360.5916	0.1992
360.8002	0.2099
361.0087	0.1993
361.2172	0.2127
361.4256	0.2078
361.6341	0.2107
361.8426	0.2073
362.051	0.2084
362.2594	0.2105
362.4678	0.2076
362.6762	0.2183
362.8846	0.2114
363.093	0.2079
363.3014	0.2202
363.5097	0.2162
363.718	0.2185
363.9264	0.2208
364.1347	0.2265
364.343	0.2274
364.5513	0.2219
364.7595	0.2267
364.9678	0.2253
365.176	0.2262
365.3842	0.2325
365.5925	0.2274
365.8007	0.2254
366.0089	0.2327
366.217	0.2378
366.4252	0.2289
366.6333	0.2385
366.8415	0.2421
367.0496	0.2397
367.2577	0.2343
367.4658	0.2393
367.6739	0.2318
367.882	0.2421
368.09	0.2407
368.2981	0.248
368.5061	0.2426
368.7141	0.2439
368.9221	0.2458
369.1301	0.2437
369.3381	0.2531
369.5461	0.2455
369.754	0.2504
369.962	0.2481
370.1699	0.2589
370.3778	0.2511
370.5857	0.2521
370.7936	0.261
371.0015	0.2493
371.2093	0.2477
371.4172	0.2556
371.625	0.2571
371.8328	0.2484
372.0406	0.2682
372.2484	0.2663
372.4562	0.2612
372.664	0.2587
372.8717	0.2737
373.0795	0.2821
373.2872	0.2635
373.4949	0.264
373.7026	0.2647
373.9103	0.2539
374.118	0.2624
374.3256	0.2675
374.5333	0.269
374.7409	0.2712
374.9485	0.2691
375.1561	0.2749
375.3637	0.2706
375.5713	0.2748
375.7789	0.2688
375.9864	0.2752
376.194	0.2897
376.4015	0.2685
376.609	0.2823
376.8165	0.2767
377.024	0.2845
377.2315	0.2809
377.4389	0.2746
377.6464	0.2915
377.8538	0.2773
378.0612	0.2716
378.2686	0.2798
378.476	0.2987
378.6834	0.2893
378.8908	0.2845
379.0981	0.2969
379.3055	0.293
379.5128	0.2933
379.7201	0.2878
379.9274	0.2987
380.1347	0.2915
380.342	0.2939
380.5492	0.2975
380.7565	0.2864
380.9637	0.2969
381.1709	0.2981
381.3781	0.2952
381.5853	0.2915
381.7925	0.2946
381.9997	0.2973
382.2068	0.3017
382.4139	0.2959
382.6211	0.302
382.8282	0.304
383.0353	0.3119
383.2424	0.3014
383.4494	0.2966
383.6565	0.304
383.8635	0.2929
384.0706	0.3131
384.2776	0.2991
384.4846	0.3005
384.6916	0.3119
384.8986	0.3163
385.1055	0.3066
385.3125	0.3121
385.5194	0.3064
385.7263	0.3055
385.9333	0.3097
386.1402	0.3017
386.347	0.3084
386.5539	0.3061
386.7608	0.3083
386.9676	0.3076
387.1744	0.308
387.3813	0.3052
387.5881	0.2982
387.7948	0.3133
388.0016	0.3155
388.2084	0.309
388.4151	0.3158
388.6219	0.2958
388.8286	0.3029
389.0353	0.3113
389.242	0.2998
389.4487	0.2947
389.6553	0.2938
389.862	0.2979
390.0686	0.3064
390.2753	0.2973
390.4819	0.3127
390.6885	0.2934
390.8951	0.296
391.1016	0.2993
391.3082	0.2999
391.5147	0.2951
391.7213	0.2883
391.9278	0.2895
392.1343	0.2944
392.3408	0.298
392.5473	0.2921
392.7537	0.2857
392.9602	0.2894
393.1666	0.2783
393.373	0.2737
393.5794	0.2742
393.7858	0.2873
393.9922	0.278
394.1986	0.2747
394.4049	0.2802
394.6113	0.2825
394.8176	0.2769
395.0239	0.2755
395.2302	0.2768
395.4365	0.2668
395.6428	0.2762
395.8491	0.2739
396.0553	0.2695
396.2615	0.271
396.4678	0.2734
396.674	0.2675
396.8802	0.2663
397.0863	0.2706
397.2925	0.267
397.4987	0.2668
397.7048	0.2773
397.9109	0.2662
398.117	0.2687
398.3231	0.2648
398.5292	0.2541
398.7353	0.2597
398.9413	0.2593
399.1474	0.2687
399.3534	0.2658
399.5594	0.2651
399.7654	0.2615
399.9714	0.261
400.1774	0.2655
400.3833	0.2586
400.5893	0.2616
400.7952	0.2813
401.0011	0.2625
401.207	0.2597
401.4129	0.2483
401.6188	0.2526
401.8247	0.2667
402.0305	0.2542
402.2364	0.2672
402.4422	0.2698
402.648	0.2535
402.8538	0.2564
403.0596	0.2664
403.2654	0.2565
403.4711	0.2535
403.6768	0.2609
403.8826	0.2581
404.0883	0.258
404.294	0.2649
404.4997	0.2489
404.7054	0.271
404.911	0.2554
405.1167	0.2659
405.3223	0.2597
405.5279	0.2511
405.7335	0.2569
405.9391	0.2526
406.1447	0.2655
406.3502	0.2659
406.5558	0.2581
406.7613	0.2609
406.9668	0.2566
407.1724	0.2557
407.3778	0.2544
407.5833	0.2478
407.7888	0.2639
407.9942	0.2564
408.1997	0.2498
408.4051	0.2524
408.6105	0.2579
408.8159	0.2515
409.0213	0.2642
409.2267	0.2591
409.432	0.2513
409.6374	0.2662
409.8427	0.2668
410.048	0.2596
410.2533	0.2551
410.4586	0.2547
410.6639	0.2618
410.8691	0.2519
411.0744	0.251
411.2796	0.2561
411.4848	0.2629
411.69	0.2475
411.8952	0.2563
412.1004	0.2519
412.3056	0.2523
412.5107	0.2641
412.7158	0.2625
412.921	0.2545
413.1261	0.2552
413.3312	0.2553
413.5362	0.2692
413.7413	0.2568
413.9464	0.2463
414.1514	0.246
414.3564	0.2489
414.5614	0.2514
414.7664	0.2522
414.9714	0.2478
415.1764	0.2505
415.3813	0.2565
415.5863	0.2531
415.7912	0.2571
415.9961	0.2505
416.201	0.2625
416.4059	0.2494
416.6108	0.2512
416.8156	0.251
417.0205	0.2502
417.2253	0.2543
417.4301	0.2489
417.6349	0.2577
417.8397	0.2452
418.0445	0.2511
418.2492	0.2411
418.454	0.252
418.6587	0.2562
418.8634	0.2625
419.0681	0.2493
419.2728	0.2517
419.4775	0.2535
419.6822	0.2393
419.8868	0.2436
420.0915	0.2424
420.2961	0.2329
420.5007	0.2373
420.7053	0.2437
420.9099	0.2401
421.1144	0.2301
421.319	0.2354
421.5235	0.2332
421.728	0.2413
421.9325	0.2377
422.137	0.2299
422.3415	0.2366
422.546	0.2262
422.7504	0.2349
422.9549	0.2313
423.1593	0.2299
423.3637	0.2433
423.5681	0.2328
423.7725	0.2333
423.9769	0.2383
424.1812	0.2232
424.3856	0.2225
424.5899	0.2275
424.7942	0.2225
424.9985	0.2347
425.2028	0.2208
425.4071	0.2324
425.6113	0.2181
425.8156	0.2219
426.0198	0.226
426.224	0.2218
426.4282	0.2138
426.6324	0.2093
426.8366	0.2067
427.0407	0.2033
427.2449	0.2072
427.449	0.2189
427.6531	0.2151
427.8572	0.2187
428.0613	0.2123
428.2654	0.2008
428.4694	0.201
428.6735	0.1989
428.8775	0.2004
429.0815	0.2015
429.2855	0.2095
429.4895	0.1929
429.6935	0.1983
429.8975	0.1867
430.1014	0.1984
430.3053	0.1972
430.5093	0.1856
430.7132	0.1889
430.9171	0.1818
431.1209	0.1899
431.3248	0.1796
431.5286	0.1825
431.7325	0.1827
431.9363	0.1762
432.1401	0.1781
432.3439	0.1802
432.5477	0.1742
432.7514	0.1782
432.9552	0.1724
433.1589	0.1624
433.3627	0.1731
433.5664	0.165
433.7701	0.1679
433.9737	0.1697
434.1774	0.1633
434.3811	0.1645
434.5847	0.1542
434.7883	0.1538
434.9919	0.1428
435.1955	0.1601
435.3991	0.1645
435.6027	0.1498
435.8062	0.1589
436.0098	0.149
436.2133	0.145
436.4168	0.1479
436.6203	0.1405
436.8238	0.1324
437.0272	0.1368
437.2307	0.1315
437.4341	0.1388
437.6375	0.1383
437.841	0.1272
438.0443	0.1274
438.2477	0.1213
438.4511	0.1162
438.6545	0.1366
438.8578	0.1195
439.0611	0.1201
439.2644	0.1243
439.4677	0.1278
439.671	0.1132
439.8743	0.1179
440.0775	0.1151
440.2808	0.1125
440.484	0.1062
440.6872	0.1149
440.8904	0.1012
441.0936	0.1067
441.2967	0.0938
441.4999	0.0953
441.703	0.0937
441.9062	0.1074
442.1093	0.1083
442.3124	0.1016
442.5155	0.1011
442.7185	0.0895
442.9216	0.087
443.1246	0.0916
443.3276	0.0914
443.5307	0.0705
443.7337	0.0918
443.9366	0.0854
444.1396	0.0863
444.3426	0.0845
444.5455	0.076
444.7484	0.0847
444.9513	0.0776
445.1542	0.0774
445.3571	0.0821
445.56	0.0694
445.7628	0.0688
445.9657	0.0725
446.1685	0.074
446.3713	0.0711
446.5741	0.0665
446.7769	0.0745
446.9797	0.0641
447.1824	0.0631
447.3852	0.0522
447.5879	0.0568
447.7906	0.0547
447.9933	0.062
448.196	0.0536
448.3986	0.0499
448.6013	0.05
448.8039	0.0598
449.0066	0.0549
449.2092	0.0657
449.4118	0.051
449.6143	0.0605
449.8169	0.0477
450.0195	0.0518
450.222	0.0532
450.4245	0.0504
450.627	0.0489
450.8295	0.0531
451.032	0.0492
451.2345	0.0449
451.4369	0.0353
451.6394	0.045
451.8418	0.04
452.0442	0.0423
452.2466	0.0354
452.449	0.0409
452.6513	0.0307
452.8537	0.0352
453.056	0.0422
453.2583	0.0331
453.4607	0.0298
453.663	0.0375
453.8652	0.0331
454.0675	0.0421
454.2697	0.0241
454.472	0.0265
454.6742	0.0297
454.8764	0.0326
455.0786	0.0287
455.2808	0.0162
455.4829	0.0318
455.6851	0.036
455.8872	0.0176
456.0893	0.0284
456.2915	0.0208
456.4935	0.0355
456.6956	0.0248
456.8977	0.0233
457.0997	0.0218
457.3018	0.0195
457.5038	0.0249
457.7058	0.025
457.9078	0.0275
458.1098	0.028
458.3117	0.0263
458.5137	0.013
458.7156	0.0194
458.9175	0.0174
459.1194	0.016
459.3213	0.018
459.5232	0.0189
459.725	0.0169
459.9269	0.0132
460.1287	0.0086
460.3305	0.023
460.5323	0.0228
460.7341	0.0135
460.9359	0.0077
461.1376	0.0187
461.3394	0.0195
461.5411	0.0196
461.7428	0.0209
461.9445	0.0163
462.1462	0.01
462.3479	0.0133
462.5495	0.0187
462.7512	0.0256
462.9528	0.0223
463.1544	0.015
463.356	0.01
463.5576	0.0247
463.7592	0.0107
463.9607	0.0057
464.1623	0.01
464.3638	0.0062
464.5653	0.0114
464.7668	0.017
464.9683	0.0109
465.1697	0.0099
465.3712	0.0068
465.5726	0.0147
465.7741	0.012
465.9755	0.0134
466.1769	0.0078
466.3782	0.0004
466.5796	0.0076
466.7809	0.0126
466.9823	0.0105
467.1836	0.0083
467.3849	0.0074
467.5862	0.0085
467.7875	0.0018
467.9887	0.0166
468.19	0.0102
468.3912	0.0145
468.5924	0.0018
468.7936	0.0054
468.9948	-0.0044
469.196	0.0091
469.3972	0.0038
469.5983	0.0048
469.7994	0.0123
470.0006	0.0102
470.2017	0.0069
470.4027	0.026
470.6038	0.0065
470.8049	0.0013
471.0059	0.0101
471.2069	-0.0005
471.408	0.0087
471.6089	0.0053
471.8099	0.0191
472.0109	0.0034
472.2119	0.0097
472.4128	0.0021
472.6137	0.0079
472.8146	0.0102
473.0155	0.0094
473.2164	0.0166
473.4173	0.0129
473.6181	0.0036
473.819	0.009
474.0198	0.0046
474.2206	-0.0025
474.4214	0.0081
474.6222	-0.009
474.8229	0.0026
475.0237	0.0053
475.2244	0.0131
475.4251	-0.0005
475.6258	0.0053
475.8265	0.0077
476.0272	0.0019
476.2278	0.0127
476.4285	0.0083
476.6291	0.0121
476.8297	-0.0011
477.0303	0.0013
477.2309	0.0126
477.4315	0.0133
477.632	0.0017
477.8326	0.0052
478.0331	0.009
478.2336	-0.0012
478.4341	0.0025
478.6346	0.0023
478.8351	0.0091
479.0355	0.0067
479.236	0.0093
479.4364	0.0011
479.6368	0.0114
479.8372	0.0072
480.0376	-0.003
480.2379	0.0053
480.4383	0.0084
480.6386	-0.0001
480.8389	0.0013
481.0392	0.0041
481.2395	0.0075
481.4398	0.0051
481.6401	0.0057
481.8403	0.0034
482.0405	0.004
482.2408	0.008
482.441	0.0055
482.6411	0.0093
482.8413	-0.0033
483.0415	0.0049
483.2416	0.0022
483.4417	0.0045
483.6419	0.0004
483.8419	0.0042
484.042	0.0101
484.2421	0.0026
484.4422	0.0038
484.6422	0.0046
484.8422	0.0036
485.0422	0.0059
485.2422	0.0001
485.4422	0.0022
485.6422	0.0038
485.8421	0.0009
486.042	0.0085
486.242	-0.0016
486.4419	0.0064
486.6417	0.0036
486.8416	0.0067
487.0415	-0.0027
487.2413	0.0007
487.4411	-0.0005
487.641	0.007
487.8408	0.0041
488.0405	0.0138
488.2403	0.001
488.4401	-0.0009
488.6398	0.0007
488.8395	0.0044
489.0392	0.0055
489.2389	0.0159
489.4386	-0.0003
489.6383	0.002
489.8379	0.0011
490.0376	0.003
490.2372	0.0041
490.4368	-0.0025
490.6364	-0.002
490.836	0.0007
491.0355	-0.0082
491.2351	0.0001
491.4346	0.0043
491.6341	0.0008
491.8336	0.0018
492.0331	-0.006
492.2326	0.0088
492.432	0.0041
492.6315	0.0111
492.8309	0.0056
493.0303	0.0011
493.2297	0.0012
493.4291	-0.0046
493.6284	0.0082
493.8278	0.0006
494.0271	0.0003
494.2264	0.0025
494.4257	0.0081
494.625	0.003
494.8243	-0.0033
495.0236	0.0097
495.2228	0.0071
495.422	0.0001
495.6213	0.0059
495.8205	0.0034
496.0196	0.0007
496.2188	0.0042
496.418	-0.0031
496.6171	-0.0012
496.8162	0.0027
497.0153	0.0074
497.2144	0.0005
497.4135	0.0015
497.6126	0.0029
497.8116	-0.0026
498.0107	0.0036
498.2097	0.0058
498.4087	-0.0004
498.6077	-0.0043
498.8067	0.0052
499.0056	-0.0074
499.2046	0.0024
499.4035	0.0035
499.6024	-0.0087
499.8013	0.0077
500.0002	0.008
500.199	0.0104
500.3979	-0.0052
500.5967	0.0024
500.7956	0.0099
500.9944	0.0034
501.1932	0.009
501.3919	0.0022
501.5907	0.0022
501.7895	-0.0014
501.9882	0.0024
502.1869	0.0092
502.3856	0.0036
502.5843	0.0058
502.783	0.0038
502.9816	0.0036
503.1803	0.006
503.3789	0.0079
503.5775	0.0023
503.7761	-0.0073
503.9747	0.0029
504.1732	-0.0098
504.3718	0.0121
504.5703	0.0031
504.7689	-0.0053
504.9674	0.0016
505.1658	0.0009
505.3643	0.0028
505.5628	0.0085
505.7612	0.0061
505.9597	0.001
506.1581	0.0102
506.3565	0.0018
506.5549	-0.0025
506.7532	-0.0047
506.9516	0.0043
507.1499	0.0041
507.3482	-0.0002
507.5465	0.0052
507.7448	0.0017
507.9431	0.0051
508.1414	-0.007
508.3396	0.0015
508.5379	-0.0011
508.7361	0.005
508.9343	0.008
509.1325	0.0052
509.3306	0.0018
509.5288	-0.0095
509.7269	0.009
509.9251	0.0045
510.1232	0.0082
510.3213	0.0068
510.5193	0.007
510.7174	-0.0017
510.9154	0.0102
511.1135	0.0019
511.3115	0.0067
511.5095	0.0077
511.7075	-0.002
511.9055	0.0113
512.1034	0.0017
512.3014	-0.0074
512.4993	-0.001
512.6972	-0.0033
512.8951	-0.0013
513.093	0.0064
513.2908	0.0148
513.4887	-0.0026
513.6865	0.0057
513.8844	0.0109
514.0822	0.0039
514.2799	-0.0061
514.4777	-0.0093
514.6755	0.0016
514.8732	-0.002
515.0709	0.0001
515.2687	0.0055
515.4664	0.0034
515.664	0.009
515.8617	0.0071
516.0594	0.0178
516.257	0.0013
516.4546	0.0159
516.6522	0.0025
516.8498	0.0005
517.0474	0.0021
517.2449	-0.0015
517.4425	0.009
517.64	0.0057
517.8375	0.0082
518.035	-0.0086
518.2325	-0.0045
518.43	0.0017
518.6274	0.0042
518.8249	-0.0053
519.0223	0.0081
519.2197	-0.0002
519.4171	0.0036
519.6145	0.0014
519.8118	-0.0081
520.0092	-0.0101
520.2065	0.0067
520.4038	-0.0105
520.6011	0.0113
520.7984	0.0097
520.9956	0.0117
521.1929	0.0169
521.3901	0.0078
521.5874	0.0102
521.7846	0.0015
521.9818	0.0024
522.1789	-0.005
522.3761	0.0135
522.5732	0.0003
522.7704	-0.002
522.9675	-0.0116
523.1646	-0.0016
523.3617	0.011
523.5587	0.0063
523.7558	0.0078
523.9528	0.0083
524.1498	-0.0012
524.3468	0.0053
524.5438	0.0092
524.7408	-0.0039
524.9378	0.0094
525.1347	-0.0014
525.3316	0.0056
525.5285	0.0065
525.7254	0.0072
525.9223	0.0078
526.1192	0.0069
526.316	0.013
526.5129	-0.0017
526.7097	0.0011
526.9065	0.008
527.1033	0.0073
527.3	0.0017
527.4968	0.0112
527.6935	-0.0029
527.8903	0.0077
528.087	-0.0001
528.2837	0.0029
528.4804	0.0006
528.677	-0.0048
528.8737	-0.0002
529.0703	-0.0011
529.2669	0.0012
529.4635	0.0004
529.6601	0.0002
529.8567	-0.005
530.0532	0.0062
530.2498	-0.008
530.4463	-0.0078
530.6428	0.0063
530.8393	0.0038
531.0358	0.0003
531.2322	-0.0029
531.4287	0.0085
531.6251	0
531.8215	-0.0093
532.0179	0.0081
532.2143	0.0073
532.4107	0.0109
532.607	0.0001
532.8034	-0.0021
532.9997	-0.007
533.196	-0.004
533.3923	0.0055
533.5886	-0.0004
533.7848	-0.0019
533.9811	0.0021
534.1773	0.0097
534.3735	0.0043
534.5697	0.0055
534.7659	0.0077
534.9621	0.0074
535.1582	0.0083
535.3544	0.0034
535.5505	0.0068
535.7466	0.0076
535.9427	0.0052
536.1387	-0.0059
536.3348	0.0034
536.5308	-0.0097
536.7269	-0.0074
536.9229	-0.0029
537.1189	-0.0044
537.3148	0.0007
537.5108	0.0018
537.7068	0.0061
537.9027	-0.017
538.0986	0.0085
538.2945	-0.0017
538.4904	0.0037
538.6863	0.0005
538.8821	0.0029
539.078	0.0071
539.2738	-0.0021
539.4696	0.0005
539.6654	0.003
539.8611	0.0134
540.0569	0.0019
540.2526	0.0078
540.4484	-0.0028
540.6441	0.0012
540.8398	0.009
541.0355	-0.0048
541.2311	0.0016
541.4268	0.0083
541.6224	0.0075
541.818	0.0092
542.0136	0.0062
542.2092	0.0123
542.4048	0.0073
542.6003	0.0029
542.7959	0.0015
542.9914	0.0032
543.1869	0.0083
543.3824	-0.0037
543.5779	0.0131
543.7734	0.0122
543.9688	0.0108
544.1642	-0.0057
544.3596	0.0154
544.555	-0.0037
544.7504	0.0161
544.9458	0.0011
545.1411	-0.0008
545.3365	0.0033
545.5318	0.0016
545.7271	0.0097
545.9224	-0.0019
546.1177	0.009
546.3129	-0.0079
546.5081	0.0015
546.7034	0.0028
546.8986	0.0028
547.0938	0.01
547.289	0.0056
547.4841	0.01
547.6793	-0.0032
547.8744	0.0151
548.0695	0.0001
548.2646	0.0006
548.4597	0.0055
548.6548	0.0075
548.8498	0.0017
549.0448	-0.001
549.2399	0.0121
549.4349	0.0011
549.6298	0.0038
549.8248	-0.0011
550.0198	0.0051
550.2147	0.0041
550.4096	-0.0073
550.6045	-0.0009
550.7994	0.0015
550.9943	0.0024
551.1892	-0.0188
551.384	0.0066
551.5788	-0.0056
551.7737	0.0025
551.9685	0.0024
552.1632	0.0056
552.358	0.0044
552.5528	-0.0006
552.7475	-0.0045
552.9422	0.0077
553.1369	0.0008
553.3316	0.0045
553.5263	0.0073
553.7209	0.0026
553.9156	-0.0078
554.1102	-0.0011
554.3048	-0.0009
554.4994	0.0027
554.694	0.0099
554.8885	0.0085
555.0831	0.0106
555.2776	0.0024
555.4721	0.0026
555.6666	0.0081
555.8611	-0.0002
556.0555	0.0041
556.25	0.0087
556.4444	0.0041
556.6388	0.0058
556.8332	0.008
557.0276	0.0028
557.222	-0.0058
557.4163	0.0021
557.6107	0.0134
557.805	0.0042
557.9993	0.0042
558.1936	-0.0115
558.3879	0.0046
558.5821	0.0031
558.7764	-0.005
558.9706	-0.0012
559.1648	0.0089
559.359	-0.0002
559.5532	-0.0077
559.7473	-0.0027
559.9415	-0.0024
560.1356	0.0083
560.3297	-0.0043
560.5238	0.0051
560.7179	0.0009
560.9119	0.006
561.106	-0.0047
561.3	0.008
561.494	-0.0026
561.688	-0.0099
561.882	0.006
562.076	0.0074
562.2699	0.0125
562.4639	0.0173
562.6578	0.0054
562.8517	0.0097
563.0456	0.0072
563.2395	-0.0023
563.4333	0.006
563.6272	0.0027
563.821	0.0031
564.0148	0.0006
564.2086	0.0045
564.4024	0.0034
564.5961	0.0031
564.7899	0.0129
564.9836	0.0073
565.1773	0.0007
565.371	0.0027
565.5647	0.0122
565.7584	0.0087
565.952	0.0063
566.1456	-0.0009
566.3393	0.0008
566.5329	-0.0023
566.7264	0.0037
566.92	0.009
567.1136	0.0014
567.3071	-0.0029
567.5006	0.0069
567.6941	0.012
567.8876	-0.0016
568.0811	0.0119
568.2745	-0.0062
568.468	0.0033
568.6614	0.0051
568.8548	0.008
569.0482	0.0017
569.2416	0.0021
569.4349	-0.0033
569.6283	-0.0043
569.8216	0.0016
570.0149	-0.0031
570.2082	0.0095
570.4015	-0.0021
570.5947	0.0034
570.788	0.0053
570.9812	0.0022
571.1744	0.0026
571.3676	0.006
571.5608	0.0022
571.754	0.0041
571.9471	0.0076
572.1402	0.0021
572.3333	0.0061
572.5264	0.0048
572.7195	-0.0019
572.9126	0.0058
573.1057	0.0061
573.2987	-0.0001
573.4917	0.0027
573.6847	0.0004
573.8777	0.0066
574.0707	0.002
574.2636	0.0012
574.4566	0.0008
574.6495	0.0019
574.8424	0.0075
575.0353	0.0058
575.2281	0.0066
575.421	-0.0023
575.6138	-0.0017
575.8067	0.0053
575.9995	0.0004
576.1923	0.0058
576.385	0.0019
576.5778	0.0064
576.7706	0.0035
576.9633	0.0026
577.156	-0.0024
577.3487	0.004
577.5414	-0.0016
577.734	-0.0007
577.9267	0.006
578.1193	0.0073
578.3119	-0.004
578.5045	-0.0005
578.6971	-0.0003
578.8897	0.0001
579.0822	0.0035
579.2747	0.0027
579.4673	0.0003
579.6598	0.0035
579.8522	-0.0008
580.0447	0.0032
580.2372	0.0059
580.4296	0.007
580.622	0.0002
580.8144	0.0024
581.0068	0.0028
581.1992	0.0034
581.3915	0
581.5839	0.0019
581.7762	0.0022
581.9685	0.0027
582.1608	0.0013
582.353	0.001
582.5453	0.0077
582.7375	0.0072
582.9298	-0.0016
583.122	-0.0027
583.3142	0.008
583.5063	0.0024
583.6985	0.0006
583.8906	-0.0022
584.0827	0.007
584.2749	-0.0031
584.4669	0.0033
584.659	0.0037
584.8511	0.0035
585.0431	0.0014
585.2352	0.0027
585.4272	0.0003
585.6192	0.0016
585.8111	0.0045
586.0031	0.0016
586.195	-0.0007
586.387	-0.0004
586.5789	0.0056
586.7708	0.0038
586.9627	-0.0006
587.1545	-0.0013
587.3464	0.0048
587.5382	-0.001
587.73	0.0054
587.9218	-0.0009
588.1136	-0.0015
588.3053	0.0024
588.4971	0.0033
588.6888	-0.0029
588.8805	0.0002
589.0722	0.0086
589.2639	-0.0001
589.4556	0.0048
589.6472	0.006
589.8389	0.0027
590.0305	-0.0016
590.2221	0.0084
590.4137	-0.0015
590.6052	0.0012
590.7968	0.0024
590.9883	0.0046
591.1798	0.0013
591.3713	0.0015
591.5628	0.0009
591.7543	-0.0014
591.9458	-0.0009
592.1372	0.0081
592.3286	-0.0014
592.52	-0.0004
592.7114	0.005
592.9028	0.0067
593.0941	0.004
593.2855	0.0014
593.4768	0.0044
593.6681	0.0097
593.8594	0.0031
594.0506	0.0116
594.2419	0.003
594.4331	0.0104
594.6244	0.0012
594.8156	0.0013
595.0067	-0.0025
595.1979	0.0014
595.3891	-0.0039
595.5802	0.0062
595.7713	0.0042
595.9624	0.0085
596.1535	0.0023
596.3446	-0.006
596.5357	0.0031
596.7267	0.0035
596.9177	-0.0023
597.1087	-0.002
597.2997	0.0121
597.4907	-0.0003
597.6817	0.0048
597.8726	0.0031
598.0635	-0.0026
598.2544	0.0055
598.4453	0.0028
598.6362	0.0018
598.827	0.0005
599.0179	0.001
599.2087	0.004
599.3995	0.0055
599.5903	0.0084
599.7811	0.0071
599.9718	-0.004
600.1626	-0.0012
600.3533	0.0003
600.544	0.001
600.7347	0.0028
600.9254	0.0091
601.116	0.0058
601.3067	-0.0009
601.4973	0.0008
601.6879	0.0013
601.8785	0.0044
602.0691	-0.0004
602.2596	-0.0008
602.4502	0.0018
602.6407	0.0022
602.8312	0.0036
603.0217	0.0013
603.2122	0.0027
603.4027	0.0003
603.5931	0.0041
603.7835	0.0045
603.9739	-0.0006
604.1643	0.0083
604.3547	0.0045
604.5451	0.0019
604.7354	0.0011
604.9257	-0.0007
605.116	0.0048
605.3063	0.0035
605.4966	-0.0025
605.6869	0.005
605.8771	0.0012
606.0673	0.006
606.2575	0.0064
606.4477	0.0054
606.6379	-0.0024
606.8281	0.0024
607.0182	0.003
607.2083	0.0059
607.3985	0.0042
607.5885	0.0003
607.7786	-0.0002
607.9687	0.0093
608.1587	0.0116
608.3488	0.0031
608.5388	-0.0014
608.7288	-0.005
608.9187	-0.0003
609.1087	0.0091
609.2986	0.0089
609.4886	0.0027
609.6785	0.0078
609.8684	-0.0059
610.0582	-0.0011
610.2481	-0.0019
610.4379	0.0027
610.6278	0.0007
610.8176	0.0112
611.0074	-0.0015
611.1971	0.0001
611.3869	0.0032
611.5766	-0.0045
611.7664	0.0034
611.9561	0.0081
612.1458	0.0049
612.3354	0.0059
612.5251	0.0063
612.7147	0.0106
612.9044	-0.0009
613.094	-0.0026
613.2836	0.0044
613.4731	0.0015
613.6627	0.0051
613.8522	0.0026
614.0417	0.0071
614.2313	0.0013
614.4207	-0.0045
614.6102	0.0038
614.7997	0.0097
614.9891	0.0007
615.1785	-0.005
615.3679	0.0075
615.5573	0.0058
615.7467	0.0002
615.9361	0.0008
616.1254	0.0047
616.3147	0.0027
616.504	0.0019
616.6933	0.0046
616.8826	-0.0037
617.0718	0.0034
617.2611	0.0073
617.4503	0.0034
617.6395	-0.0012
617.8287	0.0061
618.0179	-0.0033
618.207	0.0042
618.3961	0.0061
618.5853	0.0113
618.7744	0.0091
618.9634	0.0114
619.1525	0.003
619.3416	-0.0068
619.5306	0.0147
619.7196	0.0089
619.9086	0.0023
620.0976	-0.0073
620.2866	0.0094
620.4755	-0.0013
620.6645	0.0163
620.8534	0.0034
621.0423	0.0064
621.2312	0.0018
621.42	0.0066
621.6089	-0.0013
621.7977	0.0023
621.9865	0.0058
622.1753	-0.0068
622.3641	-0.002
622.5529	-0.0096
622.7416	0.0011
622.9303	-0.0064
623.1191	0.0046
623.3078	-0.0001
623.4964	0.0009
623.6851	0.0065
623.8737	-0.0005
624.0624	-0.0106
624.251	0.0014
624.4396	-0.0037
624.6282	0.0078
624.8167	0.0021
625.0053	0.0126
625.1938	0.0084
625.3823	0.0109
625.5708	-0.0178
625.7593	-0.0102
625.9477	0.0049
626.1362	-0.0024
626.3246	-0.0011
626.513	-0.0027
626.7014	0.0059
626.8898	0.017
627.0781	0.0037
627.2665	0.0062
627.4548	-0.0169
627.6431	-0.0013
627.8314	0.0085
628.0197	-0.0015
628.2079	0.0031
628.3962	0.0083
628.5844	-0.0103
628.7726	-0.0014
628.9608	0.0034
629.1489	0.0036
629.3371	-0.0019
629.5252	-0.0005
629.7134	0.0006
629.9015	0.0001
630.0895	-0.0044
630.2776	-0.0052
630.4657	-0.0018
630.6537	0.0156
630.8417	-0.0041
631.0297	-0.0004
631.2177	-0.0016
631.4057	0.0114
631.5936	-0.0061
631.7815	0.0061
631.9695	0.0133
632.1574	0.0057
632.3452	0.0119
632.5331	0.0107
632.7209	0.0129
632.9088	-0.0144
633.0966	0.0173
633.2844	0.0019
633.4722	0.0145
633.6599	0.0316
633.8477	0.0054
634.0354	0.0024
634.2231	-0.0117
634.4108	-0.0028
634.5985	-0.0059
634.7861	0.008
634.9738	-0.0154
635.1614	0.0119
635.349	-0.0008
635.5366	0.0008
635.7242	-0.0053
635.9117	-0.0139
636.0993	-0.001
636.2868	-0.0103
636.4743	0.0065
636.6618	-0.0166
636.8492	0.0262
637.0367	-0.0067
637.2241	-0.0048
637.4115	0.0103
637.5989	-0.0053
637.7863	0.018
637.9737	0.0062
638.161	-0.0034
638.3484	-0.0096
638.5357	-0.0013
638.723	0.0176
638.9103	-0.0072
639.0975	-0.0025
639.2848	0.0119
639.472	0.0049
639.6592	-0.0055
639.8464	0.0182
640.0336	-0.0049
640.2208	-0.0039
640.4079	-0.0008
640.595	-0.0139
640.7821	0.0103
640.9692	0.0025
641.1563	0.0055
641.3434	0.0097
641.5304	0.0047
641.7174	0.0015
641.9044	0.0202
642.0914	0.0366
642.2784	-0.0002
642.4653	-0.0016
642.6523	0.0066
642.8392	-0.0165
643.0261	0.019
643.213	-0.0061
643.3999	0.0203
643.5867	-0.0051
643.7735	-0.005
643.9604	0.0153
644.1472	0.0165
644.3339	0.0026
644.5207	0.001
644.7075	-0.0198
644.8942	-0.0079
645.0809	0.0091
645.2676	-0.0044
645.4543	0.0051
645.6409	0.0225
645.8276	-0.0048
646.0142	0.0165
646.2008	0.005
646.3874	-0.0093
646.574	-0.0113
646.7605	-0.0075
646.9471	-0.0079
647.1336	-0.0134
647.3201	0.0191
647.5066	0.0078
647.6931	-0.015
647.8795	-0.017
648.0659	0.0016
648.2524	0.0019
648.4388	0.0028
648.6252	-0.0103
648.8115	-0.0027
648.9979	0.007
649.1842	0.0105
649.3705	0.0255
649.5568	-0.0269
649.7431	-0.0228
649.9294	-0.0063
650.1156	-0.0103
650.3018	0.0201
650.488	-0.0136
650.6742	0.0104
650.8604	-0.0012
651.0466	-0.0031
651.2327	0.0148
651.4188	0.0075
651.6049	0.0074
651.791	0.0027
651.9771	-0.0124
652.1632	0.0105
652.3492	0.0036
652.5352	0.0067
652.7212	0.0105
652.9072	-0.005
653.0932	0.0081
653.2791	0.0094
653.465	0.0091
653.651	0.0096
653.8369	0.0111
654.0227	-0.0053
654.2086	0.0065
654.3944	0.0146
654.5803	0.0019
654.7661	0.0002
654.9519	-0.0012
655.1377	0
655.3234	0
655.5092	0
655.6949	0
655.8806	0
656.0663	0
656.2519	0
656.4376	0
656.6232	0
656.8088	0
656.9945	0
657.18	0
657.3656	0
657.5511	0
657.7367	0
657.9222	0
658.1077	0
658.2932	0
658.4786	0
658.6641	0
658.8495	0
659.0349	0
659.2203	0
659.4057	0
659.591	0.0739
659.7764	0.0182
659.9617	-0.0034
660.147	-0.0018
660.3323	0.0065
660.5176	0.0093
660.7028	-0.015
660.888	0.0002
661.0733	-0.0004
661.2585	-0.0054
661.4436	-0.001
661.6288	0.0198
661.8139	0.0023
661.9991	-0.0151
662.1842	-0.0165
662.3693	0.013
662.5544	0.0186
662.7394	0.0082
662.9245	-0.0062
663.1095	-0.0191
663.2945	-0.005
663.4795	-0.0139
663.6644	-0.0156
663.8494	-0.0105
664.0343	0.014
664.2193	0.0101
664.4042	0.0075
664.589	0.0027
664.7739	-0.0077
664.9587	0
665.1436	-0.0168
665.3284	-0.003
665.5132	-0.0291
665.698	0.0302
665.8827	-0.0091
666.0675	-0.0251
666.2522	-0.0107
666.4369	-0.0052
666.6216	0.0096
666.8063	-0.0083
666.9909	0.0137
667.1756	-0.0081
667.3602	-0.0068
667.5448	0.0156
667.7294	-0.0079
667.9139	0.0239
668.0985	0.0055
668.283	-0.0094
668.4675	0.0127
668.652	0.0062
668.8365	-0.0052
669.0209	0.0042
669.2054	0.0172
669.3898	-0.0069
669.5742	0.0063
669.7586	0.0263
669.943	-0.0003
670.1273	-0.0009
670.3117	0.0264
670.496	-0.0048
670.6803	-0.0093
670.8646	-0.0282
671.0488	0.0232
671.2331	-0.0296
671.4173	0
671.6015	0.0022
671.7857	0.006
671.9699	0.0096
672.1541	-0.0019
672.3382	0.0069
672.5223	-0.0058
672.7064	-0.0033
672.8905	-0.0065
673.0746	-0.0022
673.2587	0.0141
673.4427	-0.001
673.6267	0.0126
673.8107	-0.0088
673.9947	0.0143
674.1787	0.0148
674.3626	0.015
674.5465	-0.0094
674.7304	-0.0009
674.9143	-0.0076
675.0982	-0.0154
675.2821	0.0044
675.4659	-0.011
675.6497	0.0038
675.8335	0.0119
676.0173	-0.0061
676.2011	0.0091
676.3849	0.0112
676.5686	0.0162
676.7523	-0.0104
676.936	-0.0009
677.1197	-0.0065
677.3034	0.0438
677.487	0.0152
677.6706	-0.0011
677.8542	0.0064
678.0378	0.005
678.2214	0.0019
678.405	0.0054
678.5885	-0.0029
678.772	0.0028
678.9555	-0.006
679.139	0.0108
679.3225	-0.0141
679.5059	-0.0057
679.6894	-0.0068
679.8728	0.0045
680.0562	-0.013
680.2395	-0.0007
680.4229	0.001
680.6062	-0.0062
680.7896	-0.0181
680.9729	0.0251
681.1562	0.0044
681.3394	-0.0002
681.5227	-0.0086
681.7059	0.0063
681.8891	0.0144
682.0723	0.0093
682.2555	-0.0125
682.4387	0.0134
682.6218	0.0168
682.805	0.0238
682.9881	0.0103
683.1712	0.0141
683.3542	0.0362
683.5373	-0.0089
683.7203	0.0197
683.9034	-0.0026
684.0864	-0.0045
684.2694	0.0026
684.4523	0.0046
684.6353	0.0073
684.8182	-0.0084
685.0011	0.015
685.184	-0.001
685.3669	0.0347
685.5498	-0.0105
685.7326	-0.0015
685.9154	0.0109
686.0982	0.0113
686.281	-0.0124
686.4638	-0.0079
686.6465	-0.012
686.8293	-0.0115
687.012	0.0151
687.1947	0.0017
687.3774	0.0065
687.56	-0.0007
687.7427	0.0072
687.9253	-0.0089
688.1079	-0.0044
688.2905	0.0024
688.4731	0.011
688.6556	-0.0124
688.8382	-0.0129
689.0207	0.0051
689.2032	0.0072
689.3857	-0.0047
689.5681	-0.0176
689.7506	0.0179
689.933	-0.0154
690.1154	0.0095
690.2978	-0.0033
690.4802	0.022
690.6626	0.0094
690.8449	0.0214
691.0272	0.0103
691.2095	-0.0173
691.3918	0.0133
691.5741	0.0146
691.7563	-0.0025
691.9386	0.0145
692.1208	-0.0063
692.303	-0.0194
692.4852	0.0103
692.6673	-0.0055
692.8495	-0.0087
693.0316	0.0166
693.2137	-0.0005
693.3958	-0.0037
693.5778	0.0074
693.7599	-0.0062
693.9419	-0.0324
694.1239	-0.0027
694.3059	0.0137
694.4879	-0.0246
694.6699	-0.0011
694.8518	0.0092
695.0337	0.0186
695.2157	0.0133
695.3975	-0.0169
695.5794	-0.0256
695.7613	0.017
695.9431	-0.0248
696.1249	0.0245
696.3067	-0.0139
696.4885	0.0212
696.6703	-0.0008
696.852	0.0122
697.0337	0.0254
697.2154	0.0017
697.3971	-0.0008
697.5788	0.0066
697.7605	-0.0135
697.9421	0.0163
698.1237	0.0018
698.3053	-0.0081
698.4869	0.0202
698.6685	-0.01
698.85	0.0245
699.0315	-0.0062
699.213	0.0062
699.3945	0.0173
699.576	0.0324
699.7575	0.0096
699.9389	0.0139
700.1203	0.002
700.3017	0.0008
700.4831	0.0308
700.6645	0.0319
700.8458	-0.0004
701.0271	0.0297
701.2084	0.0167
701.3897	0.0226
701.571	0.0046
701.7523	0.018
701.9335	0.0066
702.1147	0.0198
702.2959	-0.0006
702.4771	-0.0137
702.6583	-0.0084
702.8394	-0.0181
703.0205	0.03
703.2016	-0.0183
703.3827	-0.0158
703.5638	-0.0082
703.7449	0.017
703.9259	-0.0215
704.1069	0.0062
704.2879	0.0071
704.4689	0.0045
704.6499	0.0297
704.8308	0.0024
705.0117	-0.009
705.1927	0.0338
705.3735	0.0278
705.5544	0.0023
705.7353	-0.0111
705.9161	-0.0232
706.0969	0.0129
706.2777	0.0231
706.4585	-0.0103
706.6393	0.018
706.82	0.0099
707.0007	-0.0169
707.1815	0.0046
707.3621	0.0273
707.5428	0.0046
707.7235	-0.0093
707.9041	0.0285
708.0847	-0.0018
708.2653	0.029
708.4459	-0.0108
708.6265	-0.0209
708.807	-0.0112
708.9875	-0.015
709.168	0.0155
709.3485	-0.0037
709.529	0.0032
709.7095	-0.0105
709.8899	0.002
710.0703	0.0272
710.2507	-0.014
710.4311	-0.0162
710.6115	0.0161
710.7918	0.0271
710.9721	0.0018
711.1524	-0.0188
711.3327	-0.0008
711.513	-0.0004
711.6932	-0.0071
711.8735	0.0543
712.0537	0.0045
712.2339	0.0033
712.4141	0.0516
712.5942	0.0019
712.7744	0.0145
712.9545	0.037
713.1346	0.0248
713.3147	0.0057
713.4947	-0.0233
713.6748	-0.0047
713.8548	0.0094
714.0348	0.023
714.2148	0.0162
714.3948	0.0087
714.5748	0.0076
714.7547	0.0089
714.9346	0.0089
715.1145	0.007
715.2944	-0.0117
715.4743	0.0038
715.6541	-0.0131
715.834	0.0496
716.0138	0.0019
716.1936	-0.0141
716.3733	-0.0215
716.5531	0.0076
716.7328	0.0089
716.9126	-0.0064
717.0923	-0.0106
717.2719	-0.0031
717.4516	-0.0031
717.6312	-0.0167
717.8109	0.0345
717.9905	0.0131
718.1701	0.0253
718.3496	0.0012
718.5292	-0.0104
718.7087	0.0072
718.8882	0.0051
719.0677	0.0161
719.2472	0.0155
719.4267	0.0094
719.6061	-0.0008
719.7856	-0.0039
719.965	0.0315
720.1443	-0.0146
720.3237	-0.0147
720.5031	0.0219
720.6824	0.0171
720.8617	0.0064
721.041	0.0129
721.2203	-0.0274
721.3995	0.0019
721.5788	-0.0081
721.758	-0.009
721.9372	-0.0004
722.1164	-0.0034
722.2956	0.0107
722.4747	0.0156
722.6538	0.0018
722.8329	0.0202
723.012	-0.0046
723.1911	-0.0029
723.3702	0.0056
723.5492	-0.0038
723.7282	0.0203
723.9072	0.0047
724.0862	-0.0009
724.2652	-0.0059
724.4441	-0.0352
724.623	-0.0059
724.8019	-0.006
724.9808	-0.0101
725.1597	0.0055
725.3385	-0.002
725.5174	-0.0123
725.6962	-0.0087
725.875	0.0155
726.0538	-0.0065
726.2325	0.0288
726.4112	-0.0183
726.59	-0.0069
726.7687	-0.0065
726.9474	0
727.126	-0.0071
727.3047	0.0008
727.4833	0.0107
727.6619	-0.0158
727.8405	0.0073
728.0191	0.0267
728.1976	0.021
728.3762	-0.0003
728.5547	-0.0268
728.7332	0.0274
728.9116	0.0048
729.0901	0.0083
729.2686	-0.0015
729.447	0.008
729.6254	0.0089
729.8038	-0.0006
729.9821	-0.0215
730.1605	0.0074
730.3388	0.0005
730.5171	0.0199
730.6954	-0.018
730.8737	-0.0085
731.0519	-0.0152
731.2302	0.0234
731.4084	-0.006
731.5866	0.0035
731.7648	-0.0062
731.9429	0.0026
732.1211	-0.0188
732.2992	-0.0006
732.4773	-0.0092
732.6554	-0.0076
732.8335	0.0164
733.0115	-0.0052
733.1896	-0.009
733.3676	0.017
733.5456	0.0074
733.7235	0.002
733.9015	0.0042
734.0794	-0.0193
734.2574	-0.0304
734.4353	0.0043
734.6131	0.0229
734.791	-0.0132
734.9689	0
735.1467	-0.0152
735.3245	0.012
735.5023	0.0025
735.68	0.003
735.8578	0.0057
736.0355	0.0166
736.2132	-0.0018
736.3909	0.0201
736.5686	0.0127
736.7463	-0.0199
736.9239	0.0213
737.1015	-0.0014
737.2791	0.0026
737.4567	-0.0111
737.6343	0.0011
737.8118	0.0064
737.9894	0.0114
738.1669	-0.0128
738.3444	0.0122
738.5218	-0.0126
738.6993	0.0039
738.8767	-0.0027
739.0541	0.0025
739.2315	0.0027
739.4089	0.0174
739.5863	-0.0028
739.7636	-0.0179
739.9409	-0.0043
740.1182	0.0109
740.2955	0.0252
740.4728	0.0084
740.65	-0.0314
740.8272	0.0483
741.0044	-0.0057
741.1816	0.0308
741.3588	-0.0436
741.5359	-0.0128
741.7131	0.0144
741.8902	0.0135
742.0673	-0.0201
742.2444	0.0285
742.4214	0.0069
742.5985	-0.0207
742.7755	0.0083
742.9525	-0.0095
743.1295	-0.0196
743.3064	0.0089
743.4834	-0.0227
743.6603	0.0422
743.8372	-0.0315
744.0141	0.0361
744.191	0.0038
744.3678	-0.0306
744.5446	0.0091
744.7215	0.0332
744.8982	0.0075
745.075	0.024
745.2518	0.0271
745.4285	0.0233
745.6052	-0.0234
745.7819	0.0138
745.9586	0.0194
746.1353	-0.0257
746.3119	-0.0056
746.4885	0.0239
746.6651	-0.0081
746.8417	-0.01
747.0183	0.0399
747.1948	0.0119
747.3714	-0.0004
747.5479	0.0266
747.7244	-0.0039
747.9008	-0.0131
748.0773	0.0223
748.2537	0.0215
748.4301	0.0163
748.6065	-0.008
748.7829	-0.0271
748.9593	-0.0019
749.1356	0.0269
749.3119	-0.0003
749.4882	0.023
749.6645	0.0009
749.8408	0.0193
750.017	0.0171
750.1933	-0.0285
750.3695	0.0136
750.5457	-0.0195
750.7218	0.0019
750.898	0.0014
751.0741	0.0019
751.2502	0.016
751.4263	-0.0112
751.6024	-0.0077
751.7784	-0.0045
751.9545	0.0127
752.1305	0.0012
752.3065	0.0083
752.4825	-0.0098
752.6584	0.0139
752.8344	0.0112
753.0103	-0.0169
753.1862	-0.0006
753.3621	0.0063
753.5379	-0.0225
753.7138	0.0251
753.8896	0.0212
754.0654	-0.0029
754.2412	0.0127
754.417	0.027
754.5927	-0.0023
754.7685	0.0054
754.9442	0.0034
755.1199	0.0079
755.2956	-0.0029
755.4712	0.0133
755.6469	-0.0063
755.8225	0.0034
755.9981	0.0075
756.1736	-0.0107
756.3492	-0.0046
756.5248	0.0064
756.7003	0.0051
756.8758	-0.0015
757.0513	0.0051
757.2267	-0.0029
757.4022	0.0002
757.5776	-0.0102
757.753	0.0238
757.9284	0.009
758.1038	0.0046
758.2791	0.0036
758.4545	-0.0271
758.6298	-0.0055
758.8051	0.0104
758.9803	0.0126
759.1556	-0.0106
759.3308	-0.0047
759.506	0.0007
759.6812	0.0043
759.8564	0.007
760.0316	-0.0184
760.2067	0.0099
760.3819	-0.0014
760.557	0.0002
760.732	-0.0167
760.9071	0.0126
761.0821	-0.0231
761.2572	0.0181
761.4322	0.0228
761.6072	-0.0064
761.7821	-0.0433
761.9571	0.0072
762.132	-0.0056
762.3069	0.0227
762.4818	0.0081
762.6567	0.0241
762.8316	0.0018
763.0064	0.0081
763.1812	0.0057
763.356	-0.0148
763.5308	0.0082
763.7055	-0.0061
763.8803	-0.0053
764.055	-0.0118
764.2297	-0.0125
764.4044	-0.0089
764.579	0.0081
764.7537	-0.0079
764.9283	0.0026
765.1029	-0.0055
765.2775	0.0132
765.4521	-0.0058
765.6266	0.0127
765.8011	0.0277
765.9756	0.0044
766.1501	-0.0091
766.3246	-0.0427
766.4991	0.0024
766.6735	0.034
766.8479	-0.011
767.0223	-0.001
767.1967	-0.0122
767.371	0.0152
767.5454	0.0029
767.7197	0.0109
767.894	0.0041
768.0683	0.0146
768.2425	0.0238
768.4168	0.0034
768.591	-0.0131
768.7652	-0.0074
768.9394	-0.0101
769.1135	-0.0077
769.2877	0.0197
769.4618	0.0099
769.6359	-0.0012
769.81	0.0163
769.984	0.0076
770.1581	0.0091
770.3321	0.02
770.5061	-0.0109
770.6801	0.0212
770.8541	0.008
771.028	0.0375
771.202	0.0268
771.3759	0.0086
771.5498	0.0042
771.7236	-0.0162
771.8975	0.0111
772.0713	0.0028
772.2451	-0.0087
772.4189	-0.0318
772.5927	-0.0298
772.7665	-0.0074
772.9402	0.0117
773.1139	-0.0022
773.2876	0.0061
773.4613	0.0274
773.635	0.0414
773.8086	-0.0033
773.9822	0.0019
774.1558	0.0372
774.3294	-0.0006
774.503	0.0228
774.6765	0.0399
774.8501	-0.004
775.0236	0.0336
775.1971	0.0196
775.3705	-0.0278
775.544	-0.0285
775.7174	-0.0284
775.8908	-0.0154
776.0642	0.0263
776.2376	0.0402
776.4109	0.0321
776.5843	-0.0095
776.7576	0.0173
776.9309	0.0119
777.1041	-0.0207
777.2774	0.0076
777.4506	0.0026
777.6238	-0.0263
777.797	0.0352
777.9702	-0.0122
778.1434	0.0158
778.3165	-0.0198
778.4896	-0.0235
778.6627	0.0048
778.8358	-0.0159
779.0089	-0.0124
779.1819	0.0049
779.3549	0.0269
779.5279	-0.0171
779.7009	0.0547
779.8739	0.032
780.0468	0.0115
780.2197	0.0136
780.3926	-0.0254
780.5655	-0.0045
780.7384	0.0147
780.9112	-0.0115
781.0841	0.0137
781.2569	-0.0067
781.4297	0.0051
781.6024	0.006
781.7752	0.0415
781.9479	0.0472
782.1206	0.0145
782.2933	-0.0106
782.466	0.0508
782.6386	0.0064
782.8113	-0.0005
782.9839	0.0024
783.1565	0.0326
783.329	-0.0192
783.5016	-0.0254
783.6741	-0.0266
783.8466	0.0053
784.0191	-0.0297
784.1916	0.0001
784.3641	-0.0211
784.5365	0.0171
784.7089	-0.0155
784.8813	0.0726
785.0537	0.0276
785.2261	-0.0116
785.3984	0.0184
785.5707	-0.0094
785.743	0.047
785.9153	-0.0073
786.0876	-0.0495
786.2598	-0.0344
786.432	0.0106
786.6042	0.0392
786.7764	-0.0247
786.9486	-0.032
787.1207	0.0422
787.2928	0.0741
787.4649	-0.0025
787.637	0.0018
787.8091	0.031
787.9811	0.0338
788.1532	0.0052
788.3252	-0.0005
788.4972	0.0028
788.6691	0.0347
788.8411	-0.0077
789.013	-0.0068
789.1849	-0.0021
789.3568	-0.0046
789.5287	0.0493
789.7005	-0.013
789.8723	-0.0272
790.0442	-0.0203
790.2159	-0.0337
790.3877	0.0381
790.5595	0.1214
790.7312	-0.0233
790.9029	-0.0325
791.0746	0.021
791.2463	-0.0545
791.4179	-0.0265
791.5896	0.011
791.7612	0.0301
791.9328	0.0076
792.1044	0.0507
792.2759	-0.0378
792.4474	-0.0462
792.619	-0.022
792.7905	0.0507
792.9619	0.0368
793.1334	0.0861
793.3048	0.0767
793.4762	0.0199
793.6476	-0.0658
793.819	-0.0118
793.9904	-0.0382
794.1617	-0.0282
794.333	-0.012
794.5043	0.0309
794.6756	-0.0136
794.8469	0.0239
795.0181	-0.0099
795.1893	0.0185
795.3605	0.0169
795.5317	0.0105
795.7029	-0.037
795.874	0.0547
796.0452	-0.036
796.2163	0.1051
796.3873	0.0681
796.5584	-0.0062
796.7294	-0.0202
796.9005	-0.0071
797.0715	-0.0532
797.2425	0.0368
797.4134	0.0379
797.5844	0.0417
797.7553	-0.0666
797.9262	0.0723
798.0971	0.0518
798.2679	0.0001
798.4388	0.022
798.6096	0.0154
798.7804	-0.0305
798.9512	0.0328
799.122	-0.0012
799.2927	0.081
799.4635	-0.0646
799.6342	-0.0491
799.8049	0.0417
799.9755	-0.0851
800.1462	-0.012
800.3168	0.1018
800.4874	-0.0171
800.658	0.0056
800.8286	0.0095
800.9991	0.0113
801.1696	-0.0545
801.3402	-0.0632
801.5106	-0.0361
801.6811	-0.0104
801.8516	0.0638
802.022	0.1286
802.1924	-0.0471
802.3628	0.0285
802.5332	0.0796
802.7035	0.0195
802.8739	0.0324
803.0442	0.0413
803.2145	0.0001
803.3847	0.0175
803.555	-0.0336
803.7252	-0.0086
803.8954	0.0186
804.0656	0.0497
804.2358	0.0342
804.4059	-0.006
804.5761	0.0502
804.7462	-0.0315
804.9163	0.0518
805.0864	-0.0553
805.2564	-0.0712
805.4264	-0.0437
805.5965	0.0493
805.7665	-0.0474
805.9364	0.0391
806.1064	0.0013
806.2763	0.0283
806.4462	0.0171
806.6161	0.0482
806.786	0.0195
806.9559	0.0139
807.1257	-0.0089
807.2955	0.028
807.4653	-0.0265
807.6351	0.0357
807.8048	0.0341
807.9746	0.0404
808.1443	-0.0066
808.314	0.0048
808.4837	0.0064
808.6533	-0.043
808.8229	0.0362
808.9926	-0.0185
809.1622	0.0254
809.3317	-0.0854
809.5013	-0.0417
809.6708	-0.041
809.8403	0.0444
810.0098	-0.034
810.1793	0.026
810.3488	-0.035
810.5182	0.1428
810.6876	0.02
810.857	0.0747
811.0264	-0.0586
811.1958	0.0911
811.3651	-0.0114
811.5344	0.1617
811.7037	0.0708
811.873	0.0631
812.0422	-0.0281
812.2115	0.0764
812.3807	-0.1913
812.5499	-0.0511
812.7191	-0.1188
812.8882	-0.1517
813.0574	-0.0537
813.2265	0.0002
813.3956	0.0701
813.5646	0.0025
813.7337	0.011
813.9027	-0.0751
814.0718	0.0188
814.2407	0.0968
814.4097	0.0853
814.5787	0.0882
814.7476	0.0256
814.9165	-0.0249
815.0854	0.0117
815.2543	-0.0588
815.4232	0.1297
815.592	0.0537
815.7608	-0.1311
815.9296	-0.0523
816.0984	0.1074
816.2671	-0.2624
816.4359	0.0686
816.6046	-0.0058
816.7733	0.0107
816.942	-0.0381
817.1106	-0.0243
817.2793	-0.1434
817.4479	0.0717
817.6165	-0.0017
817.785	0.0093
817.9536	-0.0867
818.1221	0.0213
818.2906	-0.1487
818.4591	-0.056
818.6276	-0.035
818.7961	-0.1113
818.9645	-0.083
819.1329	0.0175
819.3013	-0.0245
819.4697	0.1807
819.638	-0.03
819.8064	-0.003
819.9747	0.1075
820.143	0.0376
820.3113	0.0294
820.4795	-0.0363
820.6477	0.0288
820.816	-0.0021
820.9842	0.0577
821.1523	0.0518
821.3205	0.0252
821.4886	-0.0218
821.6567	-0.0186
821.8248	0.0602
821.9929	-0.1354
822.1609	0.1191
822.329	-0.1251
822.497	0.0127
822.665	0.1057
822.833	-0.097
823.0009	-0.1268
823.1688	0.2366
823.3367	-0.2236
823.5046	0.0431
823.6725	-0.0775
823.8404	0.0101
824.0082	-0.1423
824.176	-0.069
824.3438	0.0765
824.5116	0.0133
824.6793	0.1113
824.847	0.0064
825.0147	0.006
825.1824	0.0395
825.3501	0.1081
825.5177	0.0254
825.6854	-0.1436
825.853	0.0805
826.0206	-0.0474
826.1881	0.0076
826.3557	0.0147
826.5232	0.1179
826.6907	-0.0205
826.8582	0.036
827.0257	0.0562
827.1931	0.0753
827.3605	-0.0536
827.528	-0.097
827.6953	-0.103
827.8627	0.0799
828.03	-0.0072
828.1974	-0.0064
828.3647	-0.0532
828.532	0.0405
828.6992	0.0449
828.8665	-0.2915
829.0337	-0.0879
829.2009	-0.188
829.3681	0.1205
829.5352	-0.2489
829.7024	0.1033
829.8695	0.093
830.0366	0.1499
830.2037	0.0961
830.3707	-0.0656
830.5378	0.3834
830.7048	-0.2316
830.8718	0.0459
831.0388	-0.1157
831.2057	0.6714
831.3727	-0.147
831.5396	0.0411
831.7065	-0.7782
831.8734	0.7456
832.0402	0.1483
832.2071	-0.2883
832.3739	-0.3415
832.5407	-1.4516
832.7075	-0.4808
832.8742	0.163
833.041	0.1378
833.2077	-0.085
833.3744	0.0127
833.541	-0.0951
833.7077	-0.142
833.8743	0.0308
834.0409	0.0951
834.2075	0.2036
834.3741	-0.2951
834.5407	0.1815
834.7072	0.0293
834.8737	0.372
835.0402	0.1362
835.2067	-0.1493
835.3731	-0.1563
835.5395	0.0512
835.706	-0.3899
835.8723	-0.0899
836.0387	0.204
836.2051	-0.0455
836.3714	0.2915
836.5377	-0.1351
836.704	-0.0746
836.8703	-0.287
837.0365	-0.59
837.2027	-0.0792
837.3689	0.2466
837.5351	-0.0131
837.7013	0.3493
837.8674	-0.0921
838.0335	0.0273
838.1997	0.285
838.3657	-0
838.5318	-0.5387
838.6978	0.3552
838.8639	0.8712
839.0299	0.0145
839.1958	0.0754
839.3618	-0.012
839.5277	0.0691
839.6937	-0.2293
839.8596	-0.0591
840.0254	0.1623
840.1913	-0.0642
840.3571	-0.227
840.523	-0
840.6888	0.1454
840.8545	-0.6654
841.0203	0.0394
841.186	-0.0926
841.3517	-0.355
841.5174	0.4186
841.6831	1.083
841.8488	-0.0903
842.0144	-0
842.18	0.2808
842.3456	-0.4252
842.5112	-0
842.6767	-0.1885
842.8422	-0.227
843.0077	0.1359
843.1732	0.2923
843.3387	0.5836
843.5042	-0
843.6696	-0.0558
843.835	-0.2054
844.0004	-0.2311
844.1657	-0
844.3311	-0
844.4964	-0.1967
844.6617	0.2249
844.827	-0
844.9923	0.2239
845.1575	-0.2687
845.3227	-0
845.4879	-0.0792
845.6531	0.0491
845.8183	-0.1947
845.9834	-0
846.1485	0.1938
846.3136	0.1517
846.4787	-0
846.6438	0.1065
846.8088	0.9861
846.9738	-0
847.1388	0.2017
847.3038	0.0949
847.4687	0.9954
847.6337	-0.6521
847.7986	0.4248
847.9635	0.1385
848.1284	-0
848.2932	2.046
848.458	-0
848.6228	0.124
848.7876	-0
848.9524	-0.0845
849.1172	-1.8307
849.2819	-0.3995
849.4466	0.4155
849.6113	0.2307
849.7759	-0
849.9406	0.2
850.1052	-0
850.2698	1.542
850.4344	0.0048
850.599	0.1103
850.7635	-0
850.928	0.1747
851.0925	0.1408
851.257	0.9689
851.4215	0.7451
851.5859	-0.0757
851.7503	-0
851.9147	-0.1479
852.0791	-0.0243
852.2434	0.2855
852.4078	0.5348
852.5721	0.1152
852.7364	0.4286
852.9007	-0.008
853.0649	-0
853.2291	0.3782
853.3934	-0.3135
853.5575	0.1357
853.7217	0.4199
853.8859	-0.3645
854.05	-0.4992
854.2141	0.1268
854.3782	-0.434
854.5423	-0.3172
854.7063	0.245
854.8703	0.0006
855.0343	-0.0777
855.1983	0.198
855.3623	0.0841
855.5262	0.2376
855.6901	-0.0401
855.854	0.9917
856.0179	-0.3265
856.1818	0.3374
856.3456	0.0932
856.5094	-0
856.6732	-0.3896
856.837	-1.3623
857.0008	-0.1967
857.1645	-0
857.3282	-0.625
857.4919	-0.0578
857.6556	-0
857.8192	-0.2974
857.9828	0.0009
858.1465	0.5049
858.31	-0
858.4736	-0.0792
858.6372	-0.3489
858.8007	0.0406
858.9642	0.1113
859.1277	-0
859.2911	-0.0974
859.4546	-0
859.618	-0.1373
859.7814	-0.1351
859.9448	0.5665
860.1081	-0
860.2715	0.0669
860.4348	0.3086
860.5981	0.7539
860.7614	-0.1537
860.9246	0.2831
861.0879	0.6087
861.2511	-0.5979
861.4143	-0
861.5774	-0.4052
861.7406	0.2372
861.9037	0.1897
862.0668	-0.9872
862.2299	0.2947
862.393	-0.2396
862.556	-0
862.7191	-0.4458
862.8821	0.0541
863.0451	-0.0431
863.208	-0
863.371	-0.8552
863.5339	0.3973
863.6968	0.0833
863.8597	-0.5745
864.0225	0.7694
864.1854	-0.3556
864.3482	-0.9203
864.511	1.1771
864.6737	-0
864.8365	0.197
864.9992	-0
865.1619	-0.4148
865.3246	-1.8921
865.4873	-0.5267
865.65	0.5368
865.8126	0.1806
865.9752	-0.1212
866.1378	0.2225
866.3004	-0.3534
866.4629	-1.8726
866.6254	0.2509
866.7879	-0.2367
866.9504	-0
867.1129	-0
867.2753	-0.2187
867.4377	-0
867.6001	-0
867.7625	-0.0699
867.9249	-0.2317
868.0872	-0.3921
868.2495	-0
868.4118	-0
868.5741	-0
868.7363	-0
868.8986	-0.1718
869.0608	-0
869.223	-0
869.3851	-0
869.5473	0.0756
869.7094	-0
869.8715	-0
870.0336	0.3385
870.1957	-0.4441
870.3577	-0.0071
870.5197	-0.2799
870.6817	-0.9911
870.8437	-0.5205
871.0057	-0
871.1676	0.1311
871.3295	-0
871.4914	-0
871.6533	0.1499
871.8151	1.3624
871.977	0.2632
872.1388	-0.163
872.3006	-0.5387
872.4623	0.6424
872.6241	0.38
872.7858	0.4643
872.9475	-0
873.1092	-0.1556
873.2709	0.6778
873.4325	-1.9705
873.5941	-0.8517
873.7557	0.8178
873.9173	1.295
874.0789	0.1194
874.2404	-0
874.4019	-0.131
874.5634	-0
874.7249	0.4499
874.8863	-0.3771
875.0478	0.0287
875.2092	-0
875.3706	-0
875.5319	1.5461
875.6933	0.0462
875.8546	-0.4216
876.0159	0.0494
876.1772	-0.1488
876.3385	-0.1162
876.4997	0.2094
876.6609	0.7194
876.8221	-0
876.9833	-0
877.1445	0.3857
877.3056	-0.4629
877.4667	-0
877.6278	0.3648
877.7889	-0
877.9499	0.2458
878.111	-0.7254
878.272	-0.3192
878.433	-0.0339
878.5939	-0.2274
878.7549	-0.1474
878.9158	-0
879.0767	0.2726
879.2376	-0
879.3984	0.3445
879.5593	0.0473
879.7201	-1.9287
879.8809	1.0436
880.0417	-0.2753
880.2024	0.1656
880.3632	-0.4985
880.5239	0.0446
880.6846	-0.7696
880.8452	-0.3242
881.0059	-0.8779
881.1665	-0.0686
881.3271	0.4415
881.4877	-0
881.6483	-1.1388
881.8088	-0
881.9693	-0
882.1298	-0
882.2903	-0
