Data from D4ACN5uM460nmA_Absorbance_13-05-42-071.txt Node
Date: Fri Feb 21 13:05:42 GMT 2025
User: LASERRRRR
Spectrometer: FLMT03099
Trigger mode: 0
Integration Time (sec): 1.500000E-2
Scans to average: 1
Electric dark correction enabled: true
Nonlinearity correction enabled: false
Boxcar width: 0
XAxis mode: Wavelengths
Number of Pixels in Spectrum: 3648
>>>>>Begin Spectral Data<<<<<
179.3399	-0.2505
179.5586	-0.2505
179.7771	-0.2505
179.9957	-0.0523
180.2143	-1.5665
180.4329	0.0858
180.6514	-0
180.8699	-0.116
181.0885	-0
181.307	0.1915
181.5255	0.4865
181.744	-0
181.9625	0.3204
182.181	-0.3235
182.3994	-0.1057
182.6179	-0
182.8363	-0
183.0547	-0
183.2732	0.0919
183.4916	0.2461
183.71	0.396
183.9284	0.021
184.1467	-0.0274
184.3651	0.1711
184.5835	0.1932
184.8018	0.1571
185.0201	-0.0409
185.2385	0.2376
185.4568	0.3586
185.6751	0.0981
185.8934	0.4329
186.1117	-0.1649
186.3299	0.2311
186.5482	0.2523
186.7664	0.0539
186.9847	0.0342
187.2029	0.5717
187.4211	-0.097
187.6393	0.2137
187.8575	0.3633
188.0757	0.6711
188.2939	0.1793
188.512	0.4602
188.7302	0.1506
188.9483	0.1518
189.1665	0.3624
189.3846	0.2902
189.6027	0.2239
189.8208	0.1686
190.0389	0.1715
190.257	0.0888
190.475	0.0807
190.6931	0.1825
190.9111	0.2057
191.1292	0.0844
191.3472	0.1343
191.5652	0.3098
191.7832	0.1648
192.0012	0.187
192.2192	0.3499
192.4371	0.2497
192.6551	0.1432
192.873	0.1289
193.091	0.1713
193.3089	0.1076
193.5268	0.2665
193.7447	0.2392
193.9626	0.1914
194.1805	0.225
194.3984	0.1265
194.6162	0.146
194.8341	0.3663
195.0519	0.2867
195.2697	0.1893
195.4875	0.3047
195.7054	0.2493
195.9231	0.1843
196.1409	0.2911
196.3587	0.3596
196.5765	0.2586
196.7942	0.2885
197.012	0.3001
197.2297	0.3169
197.4474	0.4554
197.6651	0.3335
197.8828	0.3219
198.1005	0.3816
198.3182	0.403
198.5358	0.3613
198.7535	0.3918
198.9711	0.3556
199.1888	0.4022
199.4064	0.409
199.624	0.3832
199.8416	0.3887
200.0592	0.4104
200.2767	0.3922
200.4943	0.4474
200.7119	0.4683
200.9294	0.4177
201.1469	0.4382
201.3645	0.4502
201.582	0.408
201.7995	0.4465
202.017	0.4053
202.2344	0.4384
202.4519	0.3901
202.6694	0.3904
202.8868	0.4336
203.1042	0.4267
203.3217	0.3579
203.5391	0.4238
203.7565	0.3786
203.9739	0.3722
204.1913	0.3567
204.4086	0.3541
204.626	0.3869
204.8433	0.3588
205.0607	0.3695
205.278	0.3451
205.4953	0.3416
205.7126	0.3795
205.9299	0.3113
206.1472	0.306
206.3644	0.3558
206.5817	0.3132
206.7989	0.3544
207.0162	0.343
207.2334	0.3385
207.4506	0.2891
207.6678	0.3171
207.885	0.2799
208.1022	0.3168
208.3194	0.2775
208.5365	0.3088
208.7537	0.2979
208.9708	0.292
209.1879	0.2834
209.405	0.2741
209.6222	0.2583
209.8392	0.2925
210.0563	0.2752
210.2734	0.2846
210.4905	0.2812
210.7075	0.2897
210.9245	0.2462
211.1416	0.2993
211.3586	0.2854
211.5756	0.2516
211.7926	0.2625
212.0096	0.2731
212.2265	0.2639
212.4435	0.267
212.6604	0.2507
212.8774	0.246
213.0943	0.2509
213.3112	0.2519
213.5281	0.2513
213.745	0.2353
213.9619	0.2603
214.1788	0.2812
214.3956	0.2617
214.6125	0.2453
214.8293	0.2539
215.0461	0.2398
215.2629	0.2518
215.4798	0.2446
215.6965	0.2612
215.9133	0.2492
216.1301	0.2478
216.3469	0.2531
216.5636	0.2545
216.7803	0.2487
216.9971	0.2685
217.2138	0.2465
217.4305	0.2636
217.6472	0.2511
217.8639	0.2565
218.0805	0.2591
218.2972	0.2508
218.5138	0.2727
218.7305	0.2602
218.9471	0.2416
219.1637	0.2672
219.3803	0.2591
219.5969	0.2419
219.8135	0.2731
220.0301	0.2508
220.2466	0.2547
220.4632	0.2631
220.6797	0.2709
220.8962	0.2674
221.1127	0.2679
221.3292	0.2704
221.5457	0.2807
221.7622	0.2706
221.9787	0.3005
222.1951	0.2746
222.4116	0.2855
222.628	0.2873
222.8444	0.2836
223.0608	0.2907
223.2772	0.2836
223.4936	0.2852
223.71	0.2879
223.9264	0.2839
224.1427	0.281
224.3591	0.2927
224.5754	0.2978
224.7917	0.299
225.008	0.31
225.2243	0.3032
225.4406	0.2944
225.6569	0.315
225.8732	0.3177
226.0894	0.3047
226.3057	0.3217
226.5219	0.3171
226.7381	0.3262
226.9543	0.3101
227.1705	0.3103
227.3867	0.3289
227.6029	0.3376
227.8191	0.3488
228.0352	0.3442
228.2513	0.3556
228.4675	0.3539
228.6836	0.3512
228.8997	0.351
229.1158	0.3576
229.3319	0.3561
229.548	0.3506
229.764	0.3652
229.9801	0.38
230.1961	0.3805
230.4121	0.3689
230.6282	0.3743
230.8442	0.3925
231.0602	0.3763
231.2761	0.3779
231.4921	0.3859
231.7081	0.4014
231.924	0.4159
232.14	0.3941
232.3559	0.4067
232.5718	0.4135
232.7877	0.4075
233.0036	0.4038
233.2195	0.4135
233.4353	0.4254
233.6512	0.4154
233.867	0.4279
234.0829	0.4343
234.2987	0.4281
234.5145	0.4382
234.7303	0.4394
234.9461	0.4308
235.1619	0.4333
235.3776	0.4284
235.5934	0.4313
235.8091	0.4342
236.0249	0.4474
236.2406	0.4503
236.4563	0.4499
236.672	0.4512
236.8877	0.4425
237.1034	0.4465
237.319	0.4535
237.5347	0.4532
237.7503	0.4523
237.966	0.4555
238.1816	0.457
238.3972	0.4539
238.6128	0.4661
238.8284	0.4633
239.0439	0.4641
239.2595	0.4618
239.475	0.4537
239.6906	0.464
239.9061	0.4619
240.1216	0.4593
240.3371	0.467
240.5526	0.4618
240.7681	0.4603
240.9836	0.4562
241.199	0.4413
241.4145	0.4489
241.6299	0.444
241.8453	0.4367
242.0607	0.4374
242.2761	0.4268
242.4915	0.4236
242.7069	0.4189
242.9223	0.4202
243.1376	0.4113
243.353	0.3948
243.5683	0.3902
243.7836	0.3843
243.9989	0.3721
244.2142	0.3705
244.4295	0.3628
244.6448	0.3591
244.86	0.3485
245.0753	0.3431
245.2905	0.3301
245.5057	0.3339
245.721	0.3271
245.9362	0.3226
246.1514	0.3151
246.3665	0.3065
246.5817	0.2992
246.7969	0.2984
247.012	0.2875
247.2271	0.2867
247.4423	0.2794
247.6574	0.2795
247.8725	0.2682
248.0876	0.2597
248.3026	0.2667
248.5177	0.2515
248.7328	0.2562
248.9478	0.2474
249.1628	0.2451
249.3779	0.2429
249.5929	0.2382
249.8079	0.2333
250.0228	0.2322
250.2378	0.227
250.4528	0.2283
250.6677	0.2256
250.8827	0.2194
251.0976	0.213
251.3125	0.2155
251.5274	0.2082
251.7423	0.2092
251.9572	0.2063
252.172	0.2
252.3869	0.2048
252.6017	0.2057
252.8166	0.2004
253.0314	0.1973
253.2462	0.1956
253.461	0.1964
253.6758	0.1926
253.8906	0.1916
254.1053	0.1939
254.3201	0.1916
254.5348	0.1824
254.7496	0.1799
254.9643	0.189
255.179	0.1835
255.3937	0.195
255.6083	0.1893
255.823	0.1803
256.0377	0.1813
256.2523	0.1843
256.467	0.1803
256.6816	0.1821
256.8962	0.1824
257.1108	0.1825
257.3254	0.1792
257.54	0.1783
257.7545	0.1847
257.9691	0.1799
258.1836	0.1734
258.3981	0.183
258.6127	0.1736
258.8272	0.1776
259.0417	0.1748
259.2561	0.1715
259.4706	0.1711
259.6851	0.1792
259.8995	0.1749
260.114	0.181
260.3284	0.1723
260.5428	0.1774
260.7572	0.1706
260.9716	0.1781
261.186	0.174
261.4003	0.1753
261.6147	0.1702
261.829	0.1759
262.0433	0.1754
262.2577	0.1744
262.472	0.1729
262.6863	0.1761
262.9005	0.1804
263.1148	0.1759
263.3291	0.173
263.5433	0.1781
263.7576	0.1784
263.9718	0.1754
264.186	0.173
264.4002	0.1782
264.6144	0.1832
264.8286	0.1782
265.0427	0.1806
265.2569	0.1771
265.471	0.1794
265.6851	0.1776
265.8993	0.178
266.1134	0.1728
266.3275	0.1757
266.5415	0.1814
266.7556	0.1798
266.9697	0.178
267.1837	0.1757
267.3978	0.1773
267.6118	0.1734
267.8258	0.1799
268.0398	0.1789
268.2538	0.1769
268.4677	0.1735
268.6817	0.1712
268.8957	0.1697
269.1096	0.1673
269.3235	0.169
269.5374	0.1747
269.7514	0.169
269.9652	0.1722
270.1791	0.1642
270.393	0.168
270.6068	0.1709
270.8207	0.1709
271.0345	0.171
271.2483	0.1675
271.4622	0.1663
271.676	0.1679
271.8897	0.1659
272.1035	0.1719
272.3173	0.1683
272.531	0.1692
272.7448	0.1646
272.9585	0.1665
273.1722	0.1694
273.3859	0.1713
273.5996	0.1692
273.8133	0.1676
274.0269	0.1638
274.2406	0.17
274.4542	0.1608
274.6679	0.1662
274.8815	0.172
275.0951	0.1761
275.3087	0.1714
275.5223	0.172
275.7358	0.1753
275.9494	0.1751
276.1629	0.1703
276.3765	0.1741
276.59	0.1678
276.8035	0.1694
277.017	0.1706
277.2305	0.1693
277.444	0.1733
277.6574	0.1772
277.8709	0.1809
278.0843	0.1764
278.2978	0.1749
278.5112	0.1776
278.7246	0.173
278.938	0.175
279.1513	0.1747
279.3647	0.1768
279.5781	0.1714
279.7914	0.172
280.0047	0.1785
280.2181	0.1769
280.4314	0.176
280.6447	0.1808
280.8579	0.1719
281.0712	0.1712
281.2845	0.1792
281.4977	0.1803
281.711	0.1748
281.9242	0.1744
282.1374	0.1771
282.3506	0.1782
282.5638	0.1778
282.7769	0.1746
282.9901	0.1801
283.2033	0.1844
283.4164	0.1743
283.6295	0.178
283.8426	0.177
284.0557	0.1865
284.2688	0.1819
284.4819	0.1781
284.695	0.188
284.908	0.1839
285.1211	0.1862
285.3341	0.1787
285.5471	0.1868
285.7601	0.1831
285.9731	0.1851
286.1861	0.1872
286.3991	0.1917
286.612	0.1832
286.825	0.1841
287.0379	0.183
287.2508	0.1901
287.4637	0.1889
287.6766	0.1875
287.8895	0.1823
288.1024	0.1864
288.3152	0.1889
288.5281	0.1851
288.7409	0.1944
288.9538	0.1913
289.1666	0.1892
289.3794	0.1887
289.5922	0.19
289.8049	0.1927
290.0177	0.1911
290.2304	0.1878
290.4432	0.1892
290.6559	0.192
290.8686	0.1879
291.0813	0.1883
291.294	0.1943
291.5067	0.1901
291.7194	0.191
291.932	0.1846
292.1447	0.1914
292.3573	0.1953
292.5699	0.1943
292.7825	0.1882
292.9951	0.1967
293.2077	0.1919
293.4203	0.1938
293.6328	0.1928
293.8454	0.196
294.0579	0.1921
294.2704	0.1957
294.4829	0.1891
294.6954	0.1987
294.9079	0.1882
295.1204	0.1849
295.3328	0.1991
295.5453	0.1945
295.7577	0.1955
295.9701	0.1919
296.1825	0.1919
296.3949	0.1871
296.6073	0.1893
296.8197	0.193
297.0321	0.199
297.2444	0.1935
297.4567	0.1948
297.6691	0.1927
297.8814	0.1893
298.0937	0.1891
298.306	0.193
298.5182	0.1951
298.7305	0.1951
298.9428	0.1899
299.155	0.1819
299.3672	0.1949
299.5794	0.1924
299.7916	0.1966
300.0038	0.1939
300.216	0.1953
300.4282	0.1877
300.6403	0.1973
300.8525	0.1948
301.0646	0.1913
301.2767	0.1879
301.4888	0.1909
301.7009	0.192
301.913	0.1926
302.125	0.1894
302.3371	0.1933
302.5491	0.1894
302.7612	0.1997
302.9732	0.1963
303.1852	0.197
303.3972	0.1889
303.6092	0.1886
303.8211	0.1922
304.0331	0.1877
304.245	0.1883
304.457	0.1884
304.6689	0.1949
304.8808	0.1849
305.0927	0.1876
305.3046	0.1881
305.5164	0.1853
305.7283	0.1819
305.9401	0.1725
306.152	0.1824
306.3638	0.1838
306.5756	0.1765
306.7874	0.174
306.9992	0.1721
307.2109	0.1748
307.4227	0.1705
307.6344	0.1719
307.8462	0.1677
308.0579	0.1718
308.2696	0.1684
308.4813	0.1628
308.693	0.1615
308.9046	0.165
309.1163	0.1584
309.328	0.1589
309.5396	0.1541
309.7512	0.1548
309.9628	0.1456
310.1744	0.1437
310.386	0.1468
310.5976	0.1468
310.8091	0.1517
311.0207	0.1437
311.2322	0.1467
311.4437	0.1453
311.6552	0.14
311.8667	0.1418
312.0782	0.1413
312.2897	0.1435
312.5012	0.1356
312.7126	0.133
312.924	0.1358
313.1355	0.1314
313.3469	0.1338
313.5583	0.1355
313.7696	0.1272
313.981	0.1327
314.1924	0.1318
314.4037	0.1339
314.6151	0.125
314.8264	0.1333
315.0377	0.1334
315.249	0.1295
315.4603	0.1255
315.6716	0.127
315.8828	0.1238
316.0941	0.1246
316.3053	0.123
316.5165	0.1262
316.7277	0.1231
316.9389	0.1275
317.1501	0.1241
317.3613	0.1173
317.5724	0.1196
317.7836	0.1194
317.9947	0.1181
318.2058	0.1214
318.417	0.1119
318.6281	0.1146
318.8391	0.1255
319.0502	0.1224
319.2613	0.1174
319.4723	0.1134
319.6834	0.1199
319.8944	0.1188
320.1054	0.12
320.3164	0.1153
320.5274	0.1118
320.7383	0.1239
320.9493	0.1227
321.1602	0.1174
321.3712	0.1181
321.5821	0.1172
321.793	0.1206
322.0039	0.1198
322.2148	0.119
322.4257	0.1168
322.6365	0.1149
322.8474	0.1261
323.0582	0.1224
323.269	0.12
323.4798	0.1186
323.6906	0.1141
323.9014	0.1204
324.1122	0.1188
324.3229	0.126
324.5337	0.1229
324.7444	0.1215
324.9551	0.1212
325.1658	0.1203
325.3765	0.1261
325.5872	0.1243
325.7979	0.1208
326.0085	0.1221
326.2192	0.1175
326.4298	0.1286
326.6404	0.1253
326.851	0.1216
327.0616	0.1211
327.2722	0.1215
327.4828	0.1188
327.6933	0.1334
327.9039	0.1222
328.1144	0.1221
328.3249	0.1302
328.5354	0.1288
328.7459	0.1228
328.9564	0.1266
329.1669	0.1327
329.3773	0.1231
329.5878	0.127
329.7982	0.1273
330.0086	0.1217
330.219	0.124
330.4294	0.1296
330.6398	0.1248
330.8502	0.1305
331.0605	0.1313
331.2708	0.1272
331.4812	0.1296
331.6915	0.132
331.9018	0.1283
332.1121	0.1305
332.3224	0.1295
332.5326	0.1288
332.7429	0.1323
332.9531	0.1339
333.1633	0.1289
333.3735	0.1251
333.5837	0.1296
333.7939	0.1348
334.0041	0.1325
334.2143	0.1327
334.4244	0.1419
334.6346	0.1285
334.8447	0.132
335.0548	0.1378
335.2649	0.1337
335.475	0.1361
335.685	0.139
335.8951	0.1334
336.1051	0.1354
336.3152	0.1355
336.5252	0.1304
336.7352	0.1337
336.9452	0.1322
337.1552	0.1322
337.3652	0.1361
337.5751	0.1332
337.7851	0.1304
337.995	0.1327
338.2049	0.1295
338.4148	0.1363
338.6247	0.1366
338.8346	0.1366
339.0445	0.1399
339.2543	0.1412
339.4642	0.1351
339.674	0.1314
339.8838	0.1364
340.0936	0.1358
340.3034	0.1299
340.5132	0.1318
340.7229	0.1397
340.9327	0.1502
341.1424	0.1405
341.3522	0.1291
341.5619	0.1497
341.7716	0.147
341.9813	0.1464
342.1909	0.1459
342.4006	0.1433
342.6102	0.146
342.8199	0.1463
343.0295	0.1442
343.2391	0.1456
343.4487	0.1499
343.6583	0.1519
343.8679	0.1367
344.0774	0.1481
344.287	0.1532
344.4965	0.1591
344.706	0.149
344.9155	0.1449
345.125	0.151
345.3345	0.1614
345.544	0.1524
345.7534	0.1491
345.9629	0.1521
346.1723	0.1539
346.3817	0.159
346.5911	0.1545
346.8005	0.1633
347.0099	0.1566
347.2193	0.1585
347.4286	0.1664
347.638	0.1597
347.8473	0.1676
348.0566	0.1578
348.2659	0.1632
348.4752	0.1585
348.6845	0.1541
348.8937	0.1594
349.103	0.1653
349.3122	0.1592
349.5214	0.1666
349.7306	0.1694
349.9398	0.1738
350.149	0.1639
350.3582	0.1695
350.5674	0.1703
350.7765	0.1745
350.9856	0.1608
351.1948	0.1693
351.4039	0.1711
351.613	0.168
351.822	0.1726
352.0311	0.1729
352.2402	0.1756
352.4492	0.1731
352.6582	0.1759
352.8672	0.1821
353.0762	0.1822
353.2852	0.1767
353.4942	0.175
353.7032	0.1798
353.9121	0.1779
354.1211	0.191
354.33	0.1832
354.5389	0.1747
354.7478	0.1803
354.9567	0.177
355.1655	0.18
355.3744	0.1813
355.5833	0.1844
355.7921	0.1871
356.0009	0.1891
356.2097	0.1871
356.4185	0.1832
356.6273	0.1858
356.8361	0.1866
357.0448	0.1875
357.2536	0.1958
357.4623	0.1895
357.671	0.1974
357.8797	0.1942
358.0884	0.1872
358.2971	0.1923
358.5057	0.1948
358.7144	0.1927
358.923	0.1947
359.1316	0.2021
359.3402	0.1992
359.5488	0.1982
359.7574	0.2153
359.966	0.2085
360.1746	0.1953
360.3831	0.2077
360.5916	0.2023
360.8002	0.2061
361.0087	0.2063
361.2172	0.2081
361.4256	0.217
361.6341	0.2142
361.8426	0.2165
362.051	0.2118
362.2594	0.2146
362.4678	0.2113
362.6762	0.2256
362.8846	0.2144
363.093	0.2149
363.3014	0.22
363.5097	0.2178
363.718	0.2222
363.9264	0.2242
364.1347	0.2266
364.343	0.2272
364.5513	0.2221
364.7595	0.2335
364.9678	0.227
365.176	0.2296
365.3842	0.2342
365.5925	0.2231
365.8007	0.2356
366.0089	0.2405
366.217	0.2355
366.4252	0.2354
366.6333	0.2322
366.8415	0.2437
367.0496	0.2362
367.2577	0.243
367.4658	0.2363
367.6739	0.2354
367.882	0.2468
368.09	0.2325
368.2981	0.256
368.5061	0.2463
368.7141	0.2375
368.9221	0.2508
369.1301	0.2475
369.3381	0.2513
369.5461	0.2517
369.754	0.2588
369.962	0.2514
370.1699	0.2593
370.3778	0.2565
370.5857	0.2571
370.7936	0.252
371.0015	0.2537
371.2093	0.262
371.4172	0.2558
371.625	0.2552
371.8328	0.2589
372.0406	0.2594
372.2484	0.2565
372.4562	0.2654
372.664	0.2627
372.8717	0.2691
373.0795	0.2791
373.2872	0.2722
373.4949	0.2663
373.7026	0.263
373.9103	0.2665
374.118	0.2746
374.3256	0.2689
374.5333	0.2698
374.7409	0.2667
374.9485	0.2791
375.1561	0.2763
375.3637	0.2739
375.5713	0.2813
375.7789	0.2712
375.9864	0.2865
376.194	0.2872
376.4015	0.2727
376.609	0.2816
376.8165	0.2849
377.024	0.2824
377.2315	0.2901
377.4389	0.2739
377.6464	0.2823
377.8538	0.2936
378.0612	0.2926
378.2686	0.2892
378.476	0.2929
378.6834	0.2832
378.8908	0.2877
379.0981	0.2886
379.3055	0.2876
379.5128	0.2924
379.7201	0.2959
379.9274	0.2966
380.1347	0.292
380.342	0.2948
380.5492	0.2967
380.7565	0.2847
380.9637	0.2958
381.1709	0.2979
381.3781	0.301
381.5853	0.2991
381.7925	0.2922
381.9997	0.3037
382.2068	0.2972
382.4139	0.3026
382.6211	0.3086
382.8282	0.3081
383.0353	0.3095
383.2424	0.2925
383.4494	0.3069
383.6565	0.3064
383.8635	0.3098
384.0706	0.3098
384.2776	0.3021
384.4846	0.3086
384.6916	0.3073
384.8986	0.3105
385.1055	0.3137
385.3125	0.317
385.5194	0.3148
385.7263	0.3086
385.9333	0.313
386.1402	0.3109
386.347	0.3116
386.5539	0.3096
386.7608	0.3031
386.9676	0.3076
387.1744	0.2987
387.3813	0.3147
387.5881	0.3041
387.7948	0.3133
388.0016	0.3209
388.2084	0.3157
388.4151	0.3143
388.6219	0.303
388.8286	0.3065
389.0353	0.3063
389.242	0.3058
389.4487	0.3035
389.6553	0.2976
389.862	0.3069
390.0686	0.3008
390.2753	0.3052
390.4819	0.312
390.6885	0.3087
390.8951	0.2996
391.1016	0.2962
391.3082	0.3003
391.5147	0.301
391.7213	0.2899
391.9278	0.2889
392.1343	0.2874
392.3408	0.2975
392.5473	0.2844
392.7537	0.2872
392.9602	0.2814
393.1666	0.2987
393.373	0.2889
393.5794	0.2824
393.7858	0.2855
393.9922	0.2831
394.1986	0.2775
394.4049	0.282
394.6113	0.2827
394.8176	0.2793
395.0239	0.277
395.2302	0.2822
395.4365	0.2769
395.6428	0.2737
395.8491	0.2765
396.0553	0.2739
396.2615	0.2735
396.4678	0.2757
396.674	0.2723
396.8802	0.2751
397.0863	0.2702
397.2925	0.2756
397.4987	0.265
397.7048	0.2787
397.9109	0.2614
398.117	0.268
398.3231	0.2648
398.5292	0.2585
398.7353	0.2657
398.9413	0.2629
399.1474	0.2675
399.3534	0.2616
399.5594	0.2611
399.7654	0.2606
399.9714	0.2618
400.1774	0.2669
400.3833	0.2678
400.5893	0.2711
400.7952	0.2757
401.0011	0.2608
401.207	0.2649
401.4129	0.261
401.6188	0.2622
401.8247	0.269
402.0305	0.2586
402.2364	0.2679
402.4422	0.2546
402.648	0.2597
402.8538	0.2679
403.0596	0.2621
403.2654	0.2551
403.4711	0.2561
403.6768	0.2596
403.8826	0.2635
404.0883	0.2764
404.294	0.2645
404.4997	0.2717
404.7054	0.2635
404.911	0.271
405.1167	0.2539
405.3223	0.2586
405.5279	0.2586
405.7335	0.261
405.9391	0.2634
406.1447	0.253
406.3502	0.257
406.5558	0.2561
406.7613	0.2714
406.9668	0.2653
407.1724	0.2712
407.3778	0.2631
407.5833	0.2559
407.7888	0.2609
407.9942	0.2549
408.1997	0.2644
408.4051	0.2647
408.6105	0.2675
408.8159	0.2529
409.0213	0.265
409.2267	0.2643
409.432	0.2573
409.6374	0.2657
409.8427	0.268
410.048	0.251
410.2533	0.2566
410.4586	0.2584
410.6639	0.2584
410.8691	0.253
411.0744	0.2566
411.2796	0.2558
411.4848	0.2536
411.69	0.2562
411.8952	0.2588
412.1004	0.2549
412.3056	0.2565
412.5107	0.2633
412.7158	0.2706
412.921	0.2644
413.1261	0.2552
413.3312	0.2658
413.5362	0.271
413.7413	0.2619
413.9464	0.2478
414.1514	0.258
414.3564	0.2526
414.5614	0.2521
414.7664	0.2584
414.9714	0.2514
415.1764	0.2612
415.3813	0.2472
415.5863	0.2585
415.7912	0.2567
415.9961	0.2585
416.201	0.2691
416.4059	0.258
416.6108	0.2646
416.8156	0.2608
417.0205	0.253
417.2253	0.2527
417.4301	0.2593
417.6349	0.2626
417.8397	0.2538
418.0445	0.2522
418.2492	0.2486
418.454	0.2469
418.6587	0.2494
418.8634	0.2519
419.0681	0.2583
419.2728	0.2529
419.4775	0.2657
419.6822	0.2466
419.8868	0.232
420.0915	0.2431
420.2961	0.238
420.5007	0.2318
420.7053	0.2496
420.9099	0.2433
421.1144	0.2427
421.319	0.2407
421.5235	0.2422
421.728	0.2439
421.9325	0.2322
422.137	0.2352
422.3415	0.229
422.546	0.2326
422.7504	0.2353
422.9549	0.2354
423.1593	0.2313
423.3637	0.2381
423.5681	0.2478
423.7725	0.2347
423.9769	0.2348
424.1812	0.2256
424.3856	0.2187
424.5899	0.2269
424.7942	0.2297
424.9985	0.2234
425.2028	0.2299
425.4071	0.2346
425.6113	0.2201
425.8156	0.214
426.0198	0.2265
426.224	0.2206
426.4282	0.217
426.6324	0.2209
426.8366	0.2162
427.0407	0.2206
427.2449	0.21
427.449	0.2187
427.6531	0.218
427.8572	0.2073
428.0613	0.2164
428.2654	0.2138
428.4694	0.1922
428.6735	0.2069
428.8775	0.2115
429.0815	0.2057
429.2855	0.2012
429.4895	0.1969
429.6935	0.2086
429.8975	0.1878
430.1014	0.1957
430.3053	0.1969
430.5093	0.1836
430.7132	0.1876
430.9171	0.1926
431.1209	0.1873
431.3248	0.1758
431.5286	0.1862
431.7325	0.1944
431.9363	0.1813
432.1401	0.179
432.3439	0.1808
432.5477	0.1707
432.7514	0.1701
432.9552	0.161
433.1589	0.161
433.3627	0.1699
433.5664	0.1618
433.7701	0.1645
433.9737	0.1726
434.1774	0.1641
434.3811	0.1513
434.5847	0.1552
434.7883	0.158
434.9919	0.1547
435.1955	0.1536
435.3991	0.1491
435.6027	0.1472
435.8062	0.1681
436.0098	0.1473
436.2133	0.1425
436.4168	0.1465
436.6203	0.1316
436.8238	0.143
437.0272	0.1414
437.2307	0.1341
437.4341	0.1373
437.6375	0.143
437.841	0.1281
438.0443	0.1335
438.2477	0.1263
438.4511	0.122
438.6545	0.1225
438.8578	0.116
439.0611	0.1265
439.2644	0.1255
439.4677	0.1269
439.671	0.1087
439.8743	0.1234
440.0775	0.1181
440.2808	0.1099
440.484	0.1096
440.6872	0.105
440.8904	0.097
441.0936	0.1076
441.2967	0.0988
441.4999	0.0988
441.703	0.0932
441.9062	0.1074
442.1093	0.1075
442.3124	0.0924
442.5155	0.0995
442.7185	0.0909
442.9216	0.0877
443.1246	0.0926
443.3276	0.0885
443.5307	0.0817
443.7337	0.082
443.9366	0.0803
444.1396	0.0815
444.3426	0.0765
444.5455	0.0786
444.7484	0.0812
444.9513	0.0793
445.1542	0.0843
445.3571	0.0726
445.56	0.0692
445.7628	0.0708
445.9657	0.08
446.1685	0.0721
446.3713	0.0704
446.5741	0.0818
446.7769	0.0737
446.9797	0.0721
447.1824	0.0642
447.3852	0.0522
447.5879	0.0667
447.7906	0.0519
447.9933	0.0651
448.196	0.0609
448.3986	0.0511
448.6013	0.0492
448.8039	0.0625
449.0066	0.0612
449.2092	0.0601
449.4118	0.0556
449.6143	0.0574
449.8169	0.0514
450.0195	0.0476
450.222	0.049
450.4245	0.0509
450.627	0.0424
450.8295	0.0471
451.032	0.0477
451.2345	0.0439
451.4369	0.054
451.6394	0.0376
451.8418	0.044
452.0442	0.0408
452.2466	0.036
452.449	0.0428
452.6513	0.0345
452.8537	0.0249
453.056	0.034
453.2583	0.0366
453.4607	0.0377
453.663	0.0322
453.8652	0.0223
454.0675	0.041
454.2697	0.0356
454.472	0.0257
454.6742	0.0316
454.8764	0.0286
455.0786	0.0307
455.2808	0.031
455.4829	0.0331
455.6851	0.029
455.8872	0.0193
456.0893	0.027
456.2915	0.0263
456.4935	0.0312
456.6956	0.03
456.8977	0.033
457.0997	0.0294
457.3018	0.0217
457.5038	0.0304
457.7058	0.0283
457.9078	0.0186
458.1098	0.0146
458.3117	0.0341
458.5137	0.0117
458.7156	0.0261
458.9175	0.0334
459.1194	0.0201
459.3213	0.0185
459.5232	0.0258
459.725	0.0215
459.9269	0.0223
460.1287	0.0129
460.3305	0.0225
460.5323	0.0187
460.7341	0.0197
460.9359	0.0167
461.1376	0.0191
461.3394	0.0232
461.5411	0.0191
461.7428	0.0123
461.9445	0.0128
462.1462	0.0138
462.3479	0.0121
462.5495	0.0204
462.7512	0.0241
462.9528	0.0135
463.1544	0.0108
463.356	0.0041
463.5576	0.0167
463.7592	0.0159
463.9607	0.0073
464.1623	0.0097
464.3638	0.0076
464.5653	0.0118
464.7668	0.0128
464.9683	0.0133
465.1697	0.0159
465.3712	0.002
465.5726	0.0055
465.7741	0.0182
465.9755	0.0153
466.1769	0.0015
466.3782	0.012
466.5796	0.0158
466.7809	0.0191
466.9823	0.0119
467.1836	0.0061
467.3849	0.0038
467.5862	0.0015
467.7875	0.0103
467.9887	0.0079
468.19	0.0111
468.3912	0.0135
468.5924	0.0012
468.7936	0.0055
468.9948	0.0006
469.196	0.0067
469.3972	0.0042
469.5983	0.0059
469.7994	0.02
470.0006	0.0147
470.2017	0.003
470.4027	0.0205
470.6038	0.0075
470.8049	0.0065
471.0059	0.013
471.2069	0.0116
471.408	0.0114
471.6089	0.0095
471.8099	0.005
472.0109	0.0143
472.2119	0.0146
472.4128	0.002
472.6137	0.0088
472.8146	0.0105
473.0155	0.0211
473.2164	0.0123
473.4173	0.0013
473.6181	-0.0011
473.819	0.0098
474.0198	0
474.2206	-0.0014
474.4214	0.0106
474.6222	-0.0036
474.8229	0.0076
475.0237	0.0094
475.2244	0.014
475.4251	0.0096
475.6258	0.0003
475.8265	0.0071
476.0272	-0.0027
476.2278	0.0103
476.4285	0.0015
476.6291	0.0107
476.8297	0.0065
477.0303	0.0062
477.2309	0.0089
477.4315	0.0008
477.632	0.0026
477.8326	0.0092
478.0331	0.0107
478.2336	0.0076
478.4341	0.0113
478.6346	0.0004
478.8351	0.0023
479.0355	0.0016
479.236	0.0148
479.4364	0.0102
479.6368	0.0007
479.8372	0.0099
480.0376	0.0032
480.2379	0.0105
480.4383	0.0155
480.6386	-0.0023
480.8389	0.0093
481.0392	0.0064
481.2395	0.0049
481.4398	0.005
481.6401	0.0062
481.8403	0.0017
482.0405	0.0051
482.2408	0.0031
482.441	0.0009
482.6411	0.0059
482.8413	0.0017
483.0415	0.0077
483.2416	0.0006
483.4417	0.0073
483.6419	-0.0003
483.8419	0.0072
484.042	0.0065
484.2421	-0.0014
484.4422	0.0028
484.6422	0.0035
484.8422	0.0061
485.0422	0.0083
485.2422	0.0044
485.4422	0.0035
485.6422	0.0024
485.8421	0.0023
486.042	0.0057
486.242	0.0028
486.4419	0.0025
486.6417	-0.0003
486.8416	0.0038
487.0415	-0.0012
487.2413	-0.0054
487.4411	0.0035
487.641	0.0037
487.8408	0.0063
488.0405	0.0053
488.2403	0.0007
488.4401	0.0056
488.6398	0.0043
488.8395	0.0042
489.0392	0.0082
489.2389	0.0043
489.4386	-0.0065
489.6383	0.0045
489.8379	-0.0047
490.0376	0.0055
490.2372	0.0007
490.4368	0.0005
490.6364	-0.0072
490.836	0.0022
491.0355	-0.0051
491.2351	0.0029
491.4346	0.0031
491.6341	0.0045
491.8336	0.0024
492.0331	-0.0018
492.2326	0.0044
492.432	-0.0056
492.6315	0.0081
492.8309	0.0106
493.0303	0.0047
493.2297	0.0061
493.4291	0.0007
493.6284	0.0067
493.8278	0.003
494.0271	0.0025
494.2264	-0.0085
494.4257	0.0095
494.625	0.0024
494.8243	-0.0023
495.0236	0.0096
495.2228	0.0115
495.422	0.0045
495.6213	0.0022
495.8205	0.0033
496.0196	0.0023
496.2188	0.0088
496.418	0.0011
496.6171	0
496.8162	0.0103
497.0153	0.0026
497.2144	0.001
497.4135	0.0037
497.6126	0.0048
497.8116	-0.0017
498.0107	0.0081
498.2097	0.0052
498.4087	0.0071
498.6077	-0.0041
498.8067	0.0063
499.0056	0.0109
499.2046	0.0004
499.4035	0.01
499.6024	-0.0034
499.8013	0.0134
500.0002	0.008
500.199	0.0072
500.3979	0.0011
500.5967	-0.0026
500.7956	0.0018
500.9944	0.0094
501.1932	0.0078
501.3919	0.0042
501.5907	0.0137
501.7895	-0.0005
501.9882	-0.0005
502.1869	0.01
502.3856	0.0026
502.5843	-0.0014
502.783	0.0027
502.9816	0.005
503.1803	0.0046
503.3789	0.0065
503.5775	0.0051
503.7761	-0.0001
503.9747	0.0051
504.1732	0.0017
504.3718	0.0131
504.5703	0.002
504.7689	-0.0086
504.9674	0.0021
505.1658	0.0026
505.3643	0.0098
505.5628	0.0121
505.7612	0.01
505.9597	0.0013
506.1581	-0.0047
506.3565	-0.0007
506.5549	0.0017
506.7532	-0.0034
506.9516	0.0073
507.1499	0.0048
507.3482	0.0051
507.5465	0.0088
507.7448	0.0068
507.9431	0.0041
508.1414	0.0019
508.3396	0.0083
508.5379	0.0004
508.7361	0.0073
508.9343	0.0059
509.1325	0.0077
509.3306	-0.001
509.5288	-0.005
509.7269	0.0088
509.9251	0.0116
510.1232	0.0082
510.3213	0.0021
510.5193	-0.0007
510.7174	-0.0005
510.9154	0.0122
511.1135	-0.0001
511.3115	0.0102
511.5095	0.0034
511.7075	0.0022
511.9055	0.0042
512.1034	0.0047
512.3014	0.0005
512.4993	0.0084
512.6972	-0.0044
512.8951	0.0061
513.093	-0.0023
513.2908	0.0059
513.4887	0.0101
513.6865	0.0168
513.8844	0.011
514.0822	0.0055
514.2799	-0.0021
514.4777	-0.0026
514.6755	0.0069
514.8732	0.0043
515.0709	0.0034
515.2687	-0.0011
515.4664	0.0107
515.664	0.0073
515.8617	0.0144
516.0594	0.0018
516.257	0.0055
516.4546	0.0127
516.6522	0.0052
516.8498	0.005
517.0474	0.0153
517.2449	0.0019
517.4425	0.0122
517.64	0.014
517.8375	0.0142
518.035	-0.0001
518.2325	0.002
518.43	-0.0009
518.6274	0.0062
518.8249	0.0047
519.0223	0.0032
519.2197	0.0037
519.4171	-0.0038
519.6145	0.0092
519.8118	0.0013
520.0092	-0.0045
520.2065	0.0129
520.4038	-0.0003
520.6011	0.0135
520.7984	0.0019
520.9956	0.015
521.1929	0.0141
521.3901	0.005
521.5874	0.0115
521.7846	0.0008
521.9818	-0.0006
522.1789	-0.0046
522.3761	0.007
522.5732	0.0034
522.7704	0.0075
522.9675	-0.0065
523.1646	-0.0022
523.3617	0.0083
523.5587	0.0048
523.7558	-0.0019
523.9528	0.0037
524.1498	-0.001
524.3468	0.0092
524.5438	0.004
524.7408	-0.0016
524.9378	0.0143
525.1347	0.0064
525.3316	0
525.5285	0.0064
525.7254	0.0053
525.9223	0.0194
526.1192	0.0035
526.316	0.0061
526.5129	0.0048
526.7097	0.0009
526.9065	0.0094
527.1033	0.0047
527.3	0.0011
527.4968	0.0159
527.6935	-0.004
527.8903	-0.0004
528.087	0.0007
528.2837	0.0095
528.4804	0.0016
528.677	-0.0002
528.8737	-0.0061
529.0703	0.0049
529.2669	0.0104
529.4635	0.0021
529.6601	-0.0126
529.8567	-0.0031
530.0532	-0.0003
530.2498	0.0005
530.4463	-0.0019
530.6428	0.0023
530.8393	0.0087
531.0358	0.0032
531.2322	0.0005
531.4287	0.0029
531.6251	-0.0096
531.8215	-0.0005
532.0179	0.0123
532.2143	0.0073
532.4107	0.0022
532.607	0.0036
532.8034	0.0003
532.9997	-0.0005
533.196	0.0004
533.3923	-0.001
533.5886	0.0106
533.7848	-0.0068
533.9811	0.0034
534.1773	-0.0005
534.3735	0.0054
534.5697	0.0043
534.7659	0.0046
534.9621	-0.0003
535.1582	0.0054
535.3544	0.0068
535.5505	0.0075
535.7466	0.0065
535.9427	0.0066
536.1387	0.0027
536.3348	0.0028
536.5308	0.0086
536.7269	-0.007
536.9229	0.0094
537.1189	0.0188
537.3148	-0.0012
537.5108	0.0045
537.7068	0.0121
537.9027	-0.0065
538.0986	0.0071
538.2945	0.0107
538.4904	0.0004
538.6863	0.0037
538.8821	0.0064
539.078	0.0057
539.2738	0.001
539.4696	-0.0063
539.6654	0.0019
539.8611	0.0085
540.0569	0.0002
540.2526	0.0077
540.4484	-0.0043
540.6441	0.0023
540.8398	0.011
541.0355	0.0043
541.2311	-0.0009
541.4268	0.0068
541.6224	0.0191
541.818	0.0113
542.0136	0.0022
542.2092	0.0135
542.4048	0.0099
542.6003	-0.0013
542.7959	0.0059
542.9914	0.0021
543.1869	-0.0076
543.3824	0.0037
543.5779	0.0152
543.7734	0.0131
543.9688	0.0132
544.1642	0.002
544.3596	0.0057
544.555	0.0002
544.7504	0.0127
544.9458	0.0043
545.1411	-0.001
545.3365	0.0015
545.5318	0.0074
545.7271	0.0074
545.9224	0.0002
546.1177	0.0075
546.3129	0.0069
546.5081	-0.0017
546.7034	0.0169
546.8986	0.0058
547.0938	0.0012
547.289	0.0045
547.4841	0.0019
547.6793	0.0032
547.8744	0.0047
548.0695	-0.0111
548.2646	0.0144
548.4597	0.0068
548.6548	0.0066
548.8498	0.0122
549.0448	0.0019
549.2399	0.0145
549.4349	0.0182
549.6298	0.0123
549.8248	-0.0053
550.0198	0.0124
550.2147	-0.0003
550.4096	0.0024
550.6045	0.0096
550.7994	0.0056
550.9943	0.0086
551.1892	-0.0148
551.384	-0.0011
551.5788	-0.0036
551.7737	0.0072
551.9685	0.0002
552.1632	-0.0025
552.358	0.001
552.5528	0.0055
552.7475	0.0017
552.9422	0.0034
553.1369	-0.0059
553.3316	0.0094
553.5263	0.0064
553.7209	0.0016
553.9156	-0.0021
554.1102	0.0113
554.3048	-0.0052
554.4994	0.0023
554.694	0.0059
554.8885	0.0088
555.0831	0.0066
555.2776	0.0096
555.4721	0.0033
555.6666	0.0064
555.8611	0.0086
556.0555	0.0106
556.25	0.0088
556.4444	0.0054
556.6388	0.0044
556.8332	0.002
557.0276	0.0016
557.222	-0.0039
557.4163	-0.0033
557.6107	0.001
557.805	-0.0025
557.9993	0.0047
558.1936	-0.0027
558.3879	0.0042
558.5821	0.0109
558.7764	0.0048
558.9706	0.0094
559.1648	0.0069
559.359	-0.0132
559.5532	-0.0022
559.7473	-0.0016
559.9415	-0.0024
560.1356	0.0179
560.3297	0.0025
560.5238	0.0058
560.7179	0.0001
560.9119	0.0029
561.106	-0.0011
561.3	0.0019
561.494	-0.003
561.688	-0.0091
561.882	-0.0019
562.076	0.0073
562.2699	0.008
562.4639	0.0114
562.6578	0.007
562.8517	0.0127
563.0456	0.0018
563.2395	-0.0025
563.4333	0.0058
563.6272	-0.0014
563.821	0.0051
564.0148	-0.0006
564.2086	0.0079
564.4024	0.0155
564.5961	0.0033
564.7899	0.0076
564.9836	-0.0019
565.1773	0.0048
565.371	0.0009
565.5647	-0.0007
565.7584	0.0073
565.952	0.0003
566.1456	0.0036
566.3393	0.0078
566.5329	0.0014
566.7264	-0.0022
566.92	0.0062
567.1136	0.0079
567.3071	-0.0056
567.5006	0.0058
567.6941	-0.0023
567.8876	0.0052
568.0811	0.0119
568.2745	0.0016
568.468	0.0101
568.6614	0.01
568.8548	0.0044
569.0482	0.0082
569.2416	0.0035
569.4349	0.0022
569.6283	-0.0003
569.8216	0.0035
570.0149	-0.0015
570.2082	0.0036
570.4015	0.0016
570.5947	0.0052
570.788	0.0024
570.9812	-0.0024
571.1744	0.0071
571.3676	0.0049
571.5608	0.0017
571.754	0.0075
571.9471	0.0055
572.1402	0.0053
572.3333	0.0008
572.5264	0.0059
572.7195	-0.0006
572.9126	0.0061
573.1057	0.0024
573.2987	0.0014
573.4917	0.0031
573.6847	-0.0032
573.8777	0.0058
574.0707	0.0049
574.2636	0.0023
574.4566	-0.0005
574.6495	0.0008
574.8424	0.0045
575.0353	0.0098
575.2281	0.0036
575.421	-0.002
575.6138	0.0019
575.8067	0.003
575.9995	0.0014
576.1923	0.0009
576.385	0.0053
576.5778	0.0065
576.7706	0.0018
576.9633	0.0024
577.156	-0.0025
577.3487	0.0006
577.5414	-0.0005
577.734	-0.0025
577.9267	0.001
578.1193	0.0041
578.3119	-0.0033
578.5045	0.001
578.6971	-0.0026
578.8897	-0.0011
579.0822	0.0093
579.2747	-0.0001
579.4673	0.004
579.6598	0.0073
579.8522	0.0026
580.0447	0.006
580.2372	0.0054
580.4296	0.0097
580.622	0.0023
580.8144	0.0017
581.0068	0.0038
581.1992	0.0061
581.3915	0.0001
581.5839	0.0015
581.7762	0.0009
581.9685	0.0015
582.1608	0.0015
582.353	0.0003
582.5453	0.0029
582.7375	0.0056
582.9298	-0.0018
583.122	-0.0009
583.3142	0.0035
583.5063	-0.0002
583.6985	0.0005
583.8906	0.0001
584.0827	0.0055
584.2749	-0.0016
584.4669	-0.001
584.659	0.0094
584.8511	0.0022
585.0431	0.0051
585.2352	0.0026
585.4272	0.0043
585.6192	0.0003
585.8111	0.0004
586.0031	0.0004
586.195	0.0058
586.387	0.0012
586.5789	0.0101
586.7708	0.0093
586.9627	0.0028
587.1545	0.0051
587.3464	0.0036
587.5382	0.0004
587.73	0.004
587.9218	-0.0023
588.1136	-0.0003
588.3053	0.0016
588.4971	0.0034
588.6888	-0.0032
588.8805	0.0022
589.0722	0.0103
589.2639	0.0062
589.4556	0.0015
589.6472	0.0127
589.8389	-0
590.0305	-0.0027
590.2221	0.0124
590.4137	-0.0017
590.6052	0.0044
590.7968	0.004
590.9883	0.0081
591.1798	0.0032
591.3713	-0.0009
591.5628	0.0071
591.7543	0.0023
591.9458	0.006
592.1372	0.0046
592.3286	0.0017
592.52	0.0004
592.7114	0.0045
592.9028	0.0113
593.0941	0.0002
593.2855	0.0018
593.4768	0.0056
593.6681	0.0019
593.8594	0.0007
594.0506	0.0044
594.2419	0.0045
594.4331	0
594.6244	0.0007
594.8156	0.0027
595.0067	-0.0037
595.1979	-0.0035
595.3891	-0.001
595.5802	0.0071
595.7713	0.0054
595.9624	0.011
596.1535	0.0053
596.3446	0.003
596.5357	0.0033
596.7267	0.0036
596.9177	0.0003
597.1087	0.004
597.2997	0.0044
597.4907	0.0003
597.6817	0.0092
597.8726	0.0135
598.0635	-0.0017
598.2544	0.0057
598.4453	0.0061
598.6362	0.0055
598.827	-0.0008
599.0179	0.001
599.2087	0.0071
599.3995	0.0023
599.5903	0.0043
599.7811	0.008
599.9718	-0.0022
600.1626	-0.0005
600.3533	-0.0006
600.544	0.0028
600.7347	0.0112
600.9254	0.0046
601.116	0.0025
601.3067	0.0012
601.4973	0.0068
601.6879	0.003
601.8785	0.0055
602.0691	0.0027
602.2596	-0.0021
602.4502	0.0018
602.6407	0.003
602.8312	0.0082
603.0217	0.0045
603.2122	-0.0007
603.4027	0.0027
603.5931	0.0058
603.7835	-0.0018
603.9739	-0.0002
604.1643	0.0057
604.3547	0.0039
604.5451	0.0087
604.7354	-0.0046
604.9257	0.0005
605.116	-0.0038
605.3063	0.0086
605.4966	0
605.6869	0.0169
605.8771	0.0047
606.0673	0.0021
606.2575	-0.0041
606.4477	0.0069
606.6379	0.003
606.8281	0.0002
607.0182	0.0019
607.2083	-0.0001
607.3985	0.0043
607.5885	0.0016
607.7786	0.0003
607.9687	0.006
608.1587	0.0034
608.3488	0.0045
608.5388	0.0003
608.7288	-0.0026
608.9187	0.0043
609.1087	0.0085
609.2986	0.0071
609.4886	0.0015
609.6785	0.0029
609.8684	-0.0031
610.0582	0.0012
610.2481	-0.0043
610.4379	0.0015
610.6278	-0.0037
610.8176	0.0076
611.0074	0.0028
611.1971	-0.0005
611.3869	0.0045
611.5766	-0.0083
611.7664	0.0064
611.9561	0.0075
612.1458	0.0045
612.3354	-0
612.5251	0.0027
612.7147	0.0038
612.9044	0
613.094	0.005
613.2836	-0.0041
613.4731	-0.0011
613.6627	0.004
613.8522	0.0063
614.0417	0.004
614.2313	0.0067
614.4207	0.0067
614.6102	0.0048
614.7997	0.009
614.9891	0.0014
615.1785	-0.003
615.3679	0.0123
615.5573	0.003
615.7467	-0.006
615.9361	-0.006
616.1254	0.0098
616.3147	0.0042
616.504	0.0024
616.6933	0.003
616.8826	-0.0046
617.0718	0.0125
617.2611	0.0057
617.4503	0.0018
617.6395	-0.001
617.8287	0.0082
618.0179	0.0039
618.207	0.0091
618.3961	-0.0068
618.5853	0.0039
618.7744	0.0116
618.9634	0.0143
619.1525	0.0033
619.3416	-0.0007
619.5306	0.0078
619.7196	0.0081
619.9086	0.0075
620.0976	-0.0038
620.2866	0.0017
620.4755	-0.0027
620.6645	0.0023
620.8534	0.0034
621.0423	0.0092
621.2312	0.0013
621.42	0.0016
621.6089	-0.0098
621.7977	0.0033
621.9865	0.007
622.1753	0.0016
622.3641	-0.005
622.5529	-0.0025
622.7416	0.013
622.9303	0.0003
623.1191	0.0071
623.3078	-0.0028
623.4964	0.0066
623.6851	0.0029
623.8737	-0.0028
624.0624	-0.0159
624.251	0.0032
624.4396	-0.0016
624.6282	0.002
624.8167	-0.0008
625.0053	0.0071
625.1938	0.0007
625.3823	0.0081
625.5708	-0.0046
625.7593	0.0023
625.9477	0.0095
626.1362	0.004
626.3246	-0.0008
626.513	0.0006
626.7014	-0.0027
626.8898	0.0134
627.0781	0.0054
627.2665	0.0195
627.4548	-0.0114
627.6431	0.0083
627.8314	0.0174
628.0197	0.0109
628.2079	-0.0013
628.3962	-0.0012
628.5844	0.0073
628.7726	0.0012
628.9608	-0.0002
629.1489	0.0008
629.3371	-0.0077
629.5252	0.0063
629.7134	-0.0006
629.9015	0.0192
630.0895	-0.0005
630.2776	0.0021
630.4657	-0.0064
630.6537	0.0008
630.8417	-0.0153
631.0297	0.0038
631.2177	0.0028
631.4057	0.0068
631.5936	0.0017
631.7815	0.006
631.9695	0.0176
632.1574	0.0063
632.3452	0.0102
632.5331	-0.0067
632.7209	0.0207
632.9088	-0.0011
633.0966	0.0268
633.2844	0.0025
633.4722	0.008
633.6599	0.0366
633.8477	0.0052
634.0354	0.0264
634.2231	-0.0017
634.4108	0.0056
634.5985	0.0099
634.7861	0.0096
634.9738	-0.0092
635.1614	0.0084
635.349	0
635.5366	-0.0062
635.7242	-0.0053
635.9117	0.0017
636.0993	0.0079
636.2868	-0.0031
636.4743	0.0049
636.6618	-0.0037
636.8492	0.0026
637.0367	-0.013
637.2241	0.0004
637.4115	0.0304
637.5989	0.0022
637.7863	0.0182
637.9737	-0.0003
638.161	0.0023
638.3484	-0.0051
638.5357	0.0037
638.723	0.0138
638.9103	0.0007
639.0975	0.014
639.2848	0.0132
639.472	0.0083
639.6592	-0.0241
639.8464	0.0139
640.0336	0.0086
640.2208	-0.0102
640.4079	-0.0114
640.595	0.0087
640.7821	0.0235
640.9692	-0.0031
641.1563	-0.0012
641.3434	0.0177
641.5304	0.0045
641.7174	0.0127
641.9044	0.005
642.0914	0.0133
642.2784	0.0103
642.4653	0.0078
642.6523	0.0055
642.8392	-0.0148
643.0261	-0.0013
643.213	0.0049
643.3999	0.0244
643.5867	0.0197
643.7735	0.0066
643.9604	0.0046
644.1472	0.0162
644.3339	0.0012
644.5207	0.0071
644.7075	0.0082
644.8942	0.0036
645.0809	-0.0044
645.2676	-0.0132
645.4543	-0.0026
645.6409	0.0258
645.8276	0.0183
646.0142	-0.0098
646.2008	0.0069
646.3874	-0.0112
646.574	0.0058
646.7605	-0.0011
646.9471	0.005
647.1336	-0.0224
647.3201	0.0114
647.5066	-0.0091
647.6931	-0.0048
647.8795	0.0034
648.0659	0.004
648.2524	0.0197
648.4388	0.0208
648.6252	0.0121
648.8115	-0.0048
648.9979	0.0227
649.1842	0.0087
649.3705	0.0161
649.5568	0.0121
649.7431	-0.0119
649.9294	-0.0013
650.1156	-0.007
650.3018	0.0103
650.488	0.003
650.6742	0.0252
650.8604	-0.0054
651.0466	-0.0125
651.2327	-0.0009
651.4188	0.0075
651.6049	0.0139
651.791	0.0058
651.9771	0.0132
652.1632	0.0099
652.3492	0.0085
652.5352	0.0167
652.7212	0.0039
652.9072	0.0183
653.0932	0.0097
653.2791	0.014
653.465	0.0004
653.651	0.017
653.8369	-0.01
654.0227	-0.0082
654.2086	0.0026
654.3944	0.0066
654.5803	-0.0001
654.7661	0.0022
654.9519	-0.0033
655.1377	0.0001
655.3234	0.0001
655.5092	0.0001
655.6949	0.0001
655.8806	0.0001
656.0663	0.0001
656.2519	0.0001
656.4376	0.0001
656.6232	0.0001
656.8088	0.0001
656.9945	0.0001
657.18	0.0001
657.3656	0.0001
657.5511	0.0001
657.7367	0.0001
657.9222	0.0001
658.1077	0.0001
658.2932	0.0001
658.4786	0.0001
658.6641	0.0001
658.8495	0.0001
659.0349	0.0001
659.2203	0.0001
659.4057	0.0001
659.591	0.0771
659.7764	0.0317
659.9617	-0.004
660.147	-0.0104
660.3323	-0.0116
660.5176	-0.0069
660.7028	-0.0236
660.888	0.0083
661.0733	0.0109
661.2585	-0.0022
661.4436	0.0109
661.6288	0.0024
661.8139	0.001
661.9991	-0.0025
662.1842	-0.0083
662.3693	0.0043
662.5544	0.0079
662.7394	0.0011
662.9245	-0.0022
663.1095	-0.0126
663.2945	-0.0042
663.4795	-0.0147
663.6644	-0.0026
663.8494	0.0111
664.0343	0.0109
664.2193	0.0136
664.4042	0.0102
664.589	0.001
664.7739	0.0239
664.9587	-0.0205
665.1436	-0.0106
665.3284	0.003
665.5132	-0.0141
665.698	0.0105
665.8827	0.0219
666.0675	-0.0053
666.2522	0.0047
666.4369	0.0053
666.6216	0.0024
666.8063	0.0038
666.9909	0.0055
667.1756	0.0189
667.3602	-0.0013
667.5448	-0.0115
667.7294	0.0065
667.9139	0.0265
668.0985	0.0215
668.283	-0.0147
668.4675	-0.0046
668.652	0.0081
668.8365	-0.0023
669.0209	0.0042
669.2054	0.0185
669.3898	0.0148
669.5742	0.0222
669.7586	0.01
669.943	-0.0033
670.1273	0.0029
670.3117	0.0174
670.496	0.001
670.6803	0.0003
670.8646	-0.0106
671.0488	0.0183
671.2331	-0.0212
671.4173	0.0115
671.6015	0.0057
671.7857	0.0065
671.9699	0.0064
672.1541	-0.0049
672.3382	0.0065
672.5223	0.0029
672.7064	-0.0026
672.8905	-0.001
673.0746	0.016
673.2587	0.029
673.4427	0.0225
673.6267	0.0397
673.8107	0.0025
673.9947	0.0099
674.1787	-0.0021
674.3626	0.007
674.5465	0.0074
674.7304	0.0082
674.9143	-0.0057
675.0982	0.0199
675.2821	0.0029
675.4659	0.0081
675.6497	0.0003
675.8335	0.0036
676.0173	-0.0151
676.2011	0.0217
676.3849	0.0191
676.5686	0.0175
676.7523	-0.0046
676.936	-0.0264
677.1197	-0.0198
677.3034	0.0186
677.487	-0.0002
677.6706	-0.0075
677.8542	-0.0051
678.0378	-0.0044
678.2214	-0.0098
678.405	0.0169
678.5885	0.0122
678.772	0.0028
678.9555	-0.0089
679.139	0.0096
679.3225	0.0096
679.5059	-0.0017
679.6894	-0.007
679.8728	-0.0002
680.0562	0.0101
680.2395	0.0103
680.4229	0.0193
680.6062	0.001
680.7896	-0.0048
680.9729	0.0194
681.1562	-0.0082
681.3394	0.0016
681.5227	0.009
681.7059	0.0078
681.8891	0.0038
682.0723	0.0093
682.2555	-0.0098
682.4387	0.0065
682.6218	0.0135
682.805	0.0026
682.9881	0.0098
683.1712	0.0162
683.3542	0.0281
683.5373	-0.0021
683.7203	0.0151
683.9034	-0.0105
684.0864	0.0094
684.2694	-0.0006
684.4523	-0.0019
684.6353	0.0082
684.8182	-0.0018
685.0011	0.0226
685.184	-0.0028
685.3669	0.0198
685.5498	-0.0076
685.7326	-0.0074
685.9154	-0.009
686.0982	0.0195
686.281	-0.0026
686.4638	0.016
686.6465	0.0025
686.8293	-0.0083
687.012	-0.0102
687.1947	0.0028
687.3774	0.0078
687.56	-0.0246
687.7427	-0.0026
687.9253	-0.0382
688.1079	0.0021
688.2905	-0.0075
688.4731	0.0226
688.6556	0.0011
688.8382	-0.009
689.0207	0.0046
689.2032	0.009
689.3857	0.0045
689.5681	0.0189
689.7506	0.0145
689.933	0.0128
690.1154	0.018
690.2978	0.0065
690.4802	0.0097
690.6626	0.0034
690.8449	0.0203
691.0272	-0.0133
691.2095	0.0044
691.3918	0.0185
691.5741	0.0211
691.7563	0.0154
691.9386	0.0073
692.1208	0.016
692.303	0.0051
692.4852	0.0007
692.6673	0.0038
692.8495	0.0084
693.0316	0.0097
693.2137	0.0007
693.3958	-0.0026
693.5778	-0.0023
693.7599	0.001
693.9419	0.0032
694.1239	0.0125
694.3059	0.0144
694.4879	-0.0068
694.6699	-0.0028
694.8518	0.0068
695.0337	0.0194
695.2157	0.0492
695.3975	0.0081
695.5794	-0.0153
695.7613	0.0199
695.9431	-0.017
696.1249	0.0111
696.3067	0.004
696.4885	0.0103
696.6703	0.0191
696.852	-0.0013
697.0337	0.0041
697.2154	0.0058
697.3971	0.0024
697.5788	0.0061
697.7605	-0.0102
697.9421	0.0074
698.1237	0.0022
698.3053	-0.0031
698.4869	-0.0058
698.6685	-0.0056
698.85	0.0112
699.0315	-0.0269
699.213	0.0172
699.3945	-0.005
699.576	0.0299
699.7575	0.042
699.9389	0.0016
700.1203	0.0188
700.3017	-0.0112
700.4831	0.0188
700.6645	0.034
700.8458	-0.0066
701.0271	0.0216
701.2084	0.0143
701.3897	0.0102
701.571	-0.0052
701.7523	0.0056
701.9335	-0.0031
702.1147	0.0104
702.2959	-0.0048
702.4771	0.0093
702.6583	0.0184
702.8394	-0.0149
703.0205	-0.0033
703.2016	-0.0032
703.3827	-0.021
703.5638	-0.0003
703.7449	0.0186
703.9259	0.0029
704.1069	-0.0057
704.2879	-0.0191
704.4689	0.008
704.6499	0.0196
704.8308	0.0118
705.0117	0.0225
705.1927	0.0161
705.3735	-0.0127
705.5544	0.01
705.7353	0.0005
705.9161	-0.0147
706.0969	0.0029
706.2777	-0.0029
706.4585	0.0005
706.6393	0.0145
706.82	0.0127
707.0007	0.0066
707.1815	-0.0063
707.3621	0.0307
707.5428	0.0032
707.7235	0.0131
707.9041	0.0187
708.0847	0.0068
708.2653	0.0293
708.4459	0.0112
708.6265	-0.0148
708.807	-0.0102
708.9875	-0.0101
709.168	0.0046
709.3485	0.0143
709.529	0.0014
709.7095	-0.0108
709.8899	-0.0173
710.0703	0.0194
710.2507	-0.0131
710.4311	-0.0241
710.6115	0.0151
710.7918	0.004
710.9721	0.0081
711.1524	-0.0069
711.3327	-0.0097
711.513	-0.0229
711.6932	0.0146
711.8735	0.028
712.0537	0.0112
712.2339	0.0156
712.4141	0.0133
712.5942	-0.0136
712.7744	0.0148
712.9545	0.0097
713.1346	0.0184
713.3147	0.0114
713.4947	-0.0035
713.6748	0.0059
713.8548	0.0064
714.0348	0.0163
714.2148	0.0056
714.3948	-0.0045
714.5748	-0.0023
714.7547	0.026
714.9346	0.0169
715.1145	-0.0156
715.2944	-0.0272
715.4743	0.0376
715.6541	-0.0143
715.834	0.0343
716.0138	0.019
716.1936	0.019
716.3733	0.001
716.5531	-0.0074
716.7328	0.01
716.9126	0.0206
717.0923	-0.0148
717.2719	0.019
717.4516	0.0088
717.6312	-0.0171
717.8109	0.0239
717.9905	0.0128
718.1701	0.0215
718.3496	-0.0027
718.5292	-0.0071
718.7087	0.0187
718.8882	0.0021
719.0677	0.0183
719.2472	-0.0018
719.4267	0.0124
719.6061	-0.0396
719.7856	0.0182
719.965	-0.0209
720.1443	-0.0023
720.3237	0.0133
720.5031	0.0023
720.6824	-0.0041
720.8617	0.0049
721.041	0.0325
721.2203	-0.0209
721.3995	0.0113
721.5788	0.006
721.758	0.0123
721.9372	0.0383
722.1164	0.0293
722.2956	-0.003
722.4747	0.0089
722.6538	-0.0219
722.8329	0.0167
723.012	-0.0096
723.1911	0.0312
723.3702	0.008
723.5492	-0.0237
723.7282	-0.0055
723.9072	0.0005
724.0862	0.022
724.2652	0.0022
724.4441	-0.0024
724.623	0.0046
724.8019	0.012
724.9808	-0.004
725.1597	-0.011
725.3385	0.0031
725.5174	0.0233
725.6962	0.0336
725.875	0.0104
726.0538	0.0148
726.2325	0.0335
726.4112	-0.0125
726.59	-0.0015
726.7687	0.0075
726.9474	0.0132
727.126	0.0311
727.3047	0.0165
727.4833	0.0119
727.6619	0.0004
727.8405	0.0007
728.0191	0.0049
728.1976	0.0111
728.3762	0.0297
728.5547	0.0055
728.7332	0.0216
728.9116	0.0128
729.0901	-0.0087
729.2686	0.0041
729.447	-0.0069
729.6254	0.0196
729.8038	0.0138
729.9821	-0.0124
730.1605	0.0061
730.3388	0.0005
730.5171	0.0077
730.6954	-0.0025
730.8737	0.0046
731.0519	-0.0035
731.2302	0.0137
731.4084	0.0039
731.5866	-0.0037
731.7648	0.0085
731.9429	0.0413
732.1211	-0.0061
732.2992	0.0015
732.4773	-0.0051
732.6554	-0.0169
732.8335	0.0123
733.0115	0.0118
733.1896	-0.0008
733.3676	0.0231
733.5456	0.0069
733.7235	-0.0073
733.9015	0.0068
734.0794	0.0138
734.2574	-0.0123
734.4353	0.0379
734.6131	0.0056
734.791	0.0011
734.9689	-0.0034
735.1467	-0.0181
735.3245	0.0254
735.5023	0.0099
735.68	0.0091
735.8578	0.0218
736.0355	0.0089
736.2132	0.0016
736.3909	0.0121
736.5686	0.0135
736.7463	-0.0044
736.9239	0.0144
737.1015	-0.0038
737.2791	0.0258
737.4567	-0.0043
737.6343	0.0127
737.8118	-0.0104
737.9894	-0.0291
738.1669	0.0226
738.3444	0.0152
738.5218	-0.0204
738.6993	0.0111
738.8767	0.0192
739.0541	0.0147
739.2315	0.0051
739.4089	0.0082
739.5863	0.0185
739.7636	0.0119
739.9409	-0.0014
740.1182	0.0086
740.2955	0.0285
740.4728	-0.0199
740.65	-0.0178
740.8272	0.0385
741.0044	-0.0291
741.1816	0.0336
741.3588	-0.0347
741.5359	0.0231
741.7131	-0.007
741.8902	-0.0334
742.0673	-0.024
742.2444	0.0281
742.4214	0.0143
742.5985	-0.0066
742.7755	0.0079
742.9525	-0.0319
743.1295	-0.0143
743.3064	-0.0157
743.4834	0.0183
743.6603	0.0447
743.8372	-0.0396
744.0141	0.0536
744.191	-0.0046
744.3678	-0.0293
744.5446	0.0018
744.7215	0.0318
744.8982	0.0014
745.075	0.0637
745.2518	0.0162
745.4285	0.0409
745.6052	-0.0371
745.7819	-0.0092
745.9586	-0.0071
746.1353	0.0011
746.3119	0.001
746.4885	0.0168
746.6651	0.0123
746.8417	-0.0265
747.0183	0.0304
747.1948	0.0213
747.3714	0.001
747.5479	0.0271
747.7244	-0.0378
747.9008	-0.0201
748.0773	0.0223
748.2537	0.0209
748.4301	0.0542
748.6065	-0.0062
748.7829	-0.0227
748.9593	0.0231
749.1356	0.0179
749.3119	0.0093
749.4882	0.0236
749.6645	0.0024
749.8408	0.0184
750.017	-0.0072
750.1933	-0.0143
750.3695	0.0119
750.5457	0.0113
750.7218	-0.0044
750.898	-0.006
751.0741	-0.0016
751.2502	-0.0091
751.4263	0.0237
751.6024	0.0023
751.7784	-0.0131
751.9545	0.009
752.1305	0.0015
752.3065	0.0075
752.4825	0.004
752.6584	0.0103
752.8344	-0.0105
753.0103	-0.0258
753.1862	0.0032
753.3621	-0.0109
753.5379	-0.0066
753.7138	0.0131
753.8896	-0.0052
754.0654	0.0022
754.2412	0.0187
754.417	0.0284
754.5927	0.0153
754.7685	0.0224
754.9442	0.0364
755.1199	0.0175
755.2956	0.006
755.4712	0.0003
755.6469	-0.0054
755.8225	0.0073
755.9981	0.0237
756.1736	0.0085
756.3492	0.0056
756.5248	0.0112
756.7003	-0.0067
756.8758	0.0217
757.0513	-0.0117
757.2267	0.0043
757.4022	-0.0026
757.5776	-0.0053
757.753	0.0265
757.9284	0.0115
758.1038	0.0151
758.2791	-0.0076
758.4545	-0.0088
758.6298	-0.0018
758.8051	0.0112
758.9803	0.0038
759.1556	-0.0165
759.3308	-0.0091
759.506	-0.0072
759.6812	-0.0078
759.8564	0.0102
760.0316	-0.0053
760.2067	0.0261
760.3819	0.0041
760.557	0.0064
760.732	-0.006
760.9071	0.0273
761.0821	-0.0301
761.2572	0.0126
761.4322	0.0322
761.6072	-0.0097
761.7821	-0.037
761.9571	0.0124
762.132	-0.0019
762.3069	0.0321
762.4818	0.0171
762.6567	-0.0104
762.8316	0.0091
763.0064	0.0081
763.1812	0.0158
763.356	-0.0151
763.5308	0.0235
763.7055	-0.0025
763.8803	0.0108
764.055	-0.0085
764.2297	-0.0146
764.4044	0.002
764.579	0.006
764.7537	0.0119
764.9283	0.0132
765.1029	0.0033
765.2775	0.013
765.4521	-0.0155
765.6266	0.0169
765.8011	-0.0006
765.9756	0.0365
766.1501	0.0013
766.3246	0.0247
766.4991	0.0162
766.6735	0.0528
766.8479	-0.01
767.0223	0.0341
767.1967	-0.016
767.371	0.045
767.5454	0.0138
767.7197	0.0114
767.894	0.0069
768.0683	0.0313
768.2425	-0.0007
768.4168	-0.0043
768.591	0.005
768.7652	-0.0018
768.9394	-0.02
769.1135	-0.0349
769.2877	0.0051
769.4618	0.0221
769.6359	-0.0115
769.81	-0.0153
769.984	-0.0136
770.1581	0.0122
770.3321	0.0158
770.5061	-0.0035
770.6801	-0.001
770.8541	0.0056
771.028	0.0295
771.202	0.011
771.3759	0.0063
771.5498	0.0123
771.7236	0.0104
771.8975	0.0322
772.0713	0.0245
772.2451	-0.0269
772.4189	0.0339
772.5927	-0.0249
772.7665	0.0132
772.9402	0.009
773.1139	0.0045
773.2876	0.0157
773.4613	0.004
773.635	0.0345
773.8086	0.0132
773.9822	0.0253
774.1558	0.0564
774.3294	0.0028
774.503	0.0099
774.6765	0.021
774.8501	0.0035
775.0236	0.0022
775.1971	0.0132
775.3705	0.0032
775.544	-0.046
775.7174	0.0262
775.8908	0.0179
776.0642	-0.0121
776.2376	0.0329
776.4109	-0.0126
776.5843	0.0291
776.7576	0.0381
776.9309	0.0009
777.1041	-0.0603
777.2774	-0.0106
777.4506	-0.0016
777.6238	0.0143
777.797	0.0344
777.9702	0.004
778.1434	0.0203
778.3165	-0.0366
778.4896	-0.0297
778.6627	0.0161
778.8358	0.0142
779.0089	0.011
779.1819	0.0232
779.3549	-0.0028
779.5279	0.0126
779.7009	0.0591
779.8739	0.0284
780.0468	0.0277
780.2197	0.0376
780.3926	-0.0229
780.5655	0.0447
780.7384	0.0371
780.9112	0.0261
781.0841	0.0005
781.2569	0.0147
781.4297	0.039
781.6024	0.021
781.7752	0.0526
781.9479	0.0711
782.1206	-0.0155
782.2933	0.0209
782.466	0.0281
782.6386	-0.0096
782.8113	-0.0069
782.9839	0.0089
783.1565	0.0045
783.329	0.0154
783.5016	0.0319
783.6741	-0.0173
783.8466	0.0534
784.0191	-0.0013
784.1916	-0.0319
784.3641	-0.0183
784.5365	0.0746
784.7089	-0.0008
784.8813	0.0565
785.0537	0.0681
785.2261	-0.0123
785.3984	0.0035
785.5707	-0.0116
785.743	-0.0013
785.9153	-0.0058
786.0876	-0.0294
786.2598	-0.0022
786.432	0.0214
786.6042	0.026
786.7764	-0.024
786.9486	-0.0041
787.1207	0.0381
787.2928	0.0355
787.4649	-0.043
787.637	0.0138
787.8091	0.0463
787.9811	0.0392
788.1532	-0.0034
788.3252	0.0065
788.4972	0.0023
788.6691	0.0241
788.8411	0.0216
789.013	0.0032
789.1849	-0.0221
789.3568	-0.0177
789.5287	0.0585
789.7005	0.0077
789.8723	-0.035
790.0442	-0.0078
790.2159	-0.0211
790.3877	0.049
790.5595	0.0987
790.7312	0.0195
790.9029	-0.015
791.0746	-0.0044
791.2463	-0.0125
791.4179	-0.0031
791.5896	0.0182
791.7612	0.0344
791.9328	0.0179
792.1044	0.0105
792.2759	0.0063
792.4474	-0.0237
792.619	0.0151
792.7905	-0.0111
792.9619	0.0312
793.1334	0.0581
793.3048	0.0422
793.4762	-0.0205
793.6476	-0.0772
793.819	-0.0163
793.9904	-0.0143
794.1617	0.0101
794.333	0.0288
794.5043	0.0441
794.6756	0.0274
794.8469	0.0149
795.0181	0.0122
795.1893	0.0481
795.3605	0.0194
795.5317	-0.0328
795.7029	-0.0354
795.874	-0.0018
796.0452	0.0439
796.2163	0.0757
796.3873	0.0694
796.5584	0.0659
796.7294	0.0765
796.9005	-0.0129
797.0715	-0.0376
797.2425	0.0783
797.4134	0.0564
797.5844	0.1158
797.7553	-0.0655
797.9262	0.0945
798.0971	0.0414
798.2679	0.0381
798.4388	0.0803
798.6096	0.0268
798.7804	0.0239
798.9512	0.1021
799.122	-0.0025
799.2927	0.0321
799.4635	-0.023
799.6342	0.0189
799.8049	0.0269
799.9755	-0.0504
800.1462	0.0283
800.3168	-0.0204
800.4874	-0.0859
800.658	0.044
800.8286	0.0256
800.9991	0.0625
801.1696	-0.0042
801.3402	0.0335
801.5106	0.0087
801.6811	0.049
801.8516	0.0827
802.022	0.0543
802.1924	-0.0725
802.3628	0.0456
802.5332	0.0943
802.7035	0.0685
802.8739	0.0283
803.0442	0.1125
803.2145	0.0467
803.3847	0.058
803.555	0.0481
803.7252	-0.0207
803.8954	-0.0269
804.0656	0.0001
804.2358	0.0585
804.4059	0.0706
804.5761	-0.0309
804.7462	0.0287
804.9163	0.0049
805.0864	-0.005
805.2564	-0.0256
805.4264	0.0068
805.5965	0.094
805.7665	-0.0089
805.9364	0.0111
806.1064	-0.016
806.2763	0.0695
806.4462	0.001
806.6161	0.0063
806.786	0.0143
806.9559	0.0387
807.1257	0.0001
807.2955	0.0268
807.4653	0.0171
807.6351	0.0702
807.8048	0.0283
807.9746	-0.0276
808.1443	-0.0132
808.314	0.0392
808.4837	0.063
808.6533	0.0429
808.8229	0.0392
808.9926	0.0536
809.1622	0.0048
809.3317	-0.033
809.5013	-0.0873
809.6708	0.0276
809.8403	0.0462
810.0098	-0.029
810.1793	0.0704
810.3488	0.028
810.5182	0.0601
810.6876	-0.0297
810.857	-0.0171
811.0264	-0.0608
811.1958	0.0339
811.3651	0.0049
811.5344	0.1443
811.7037	0.1294
811.873	0.035
812.0422	0.0032
812.2115	0.0266
812.3807	-0.2625
812.5499	-0.0298
812.7191	0.0487
812.8882	-0.0329
813.0574	0.0002
813.2265	0.1367
813.3956	0.0463
813.5646	-0.0305
813.7337	-0.0052
813.9027	-0.012
814.0718	0.0058
814.2407	0.0494
814.4097	0.056
814.5787	0.0573
814.7476	0.024
814.9165	0.0654
815.0854	-0.0092
815.2543	0.0073
815.4232	0.1372
815.592	-0.0073
815.7608	-0.137
815.9296	-0.0621
816.0984	0.2377
816.2671	-0.3115
816.4359	0.2778
816.6046	0.0991
816.7733	-0.1319
816.942	-0.0845
817.1106	0.0512
817.2793	0.0655
817.4479	0.0474
817.6165	-0.0391
817.785	0.0711
817.9536	-0.0362
818.1221	-0.01
818.2906	-0.0902
818.4591	-0.0172
818.6276	0.1338
818.7961	-0.0334
818.9645	0.0602
819.1329	0.0783
819.3013	-0.1039
819.4697	-0.0311
819.638	0.0331
819.8064	0.0488
819.9747	0.0451
820.143	0.1978
820.3113	0.0328
820.4795	0.0002
820.6477	0.2777
820.816	0.0819
820.9842	0.0868
821.1523	-0.0542
821.3205	-0.0235
821.4886	0.0366
821.6567	-0.1116
821.8248	0.112
821.9929	-0.1152
822.1609	0.0352
822.329	-0.0086
822.497	0.0811
822.665	-0.0156
822.833	-0.0593
823.0009	0.011
823.1688	0.1218
823.3367	-0.1673
823.5046	0.1329
823.6725	-0.019
823.8404	-0.0863
824.0082	-0.0237
824.176	0.0653
824.3438	0.2322
824.5116	0.0336
824.6793	0.1184
824.847	0.0433
825.0147	0.0715
825.1824	0.1397
825.3501	0.0954
825.5177	-0.0553
825.6854	-0.2164
825.853	-0.1513
826.0206	-0.0139
826.1881	-0.1224
826.3557	0.2163
826.5232	0.1422
826.6907	0.1247
826.8582	0.3394
827.0257	0.1075
827.1931	0.0058
827.3605	-0.0073
827.528	0.0928
827.6953	0.0107
827.8627	-0.1609
828.03	0.1239
828.1974	-0.032
828.3647	0.0934
828.532	0.0772
828.6992	0.1275
828.8665	-0.1624
829.0337	0.0607
829.2009	-0.0785
829.3681	-0.0184
829.5352	-0.393
829.7024	0.1562
829.8695	0.04
830.0366	0.1583
830.2037	0.2194
830.3707	0.1125
830.5378	0.247
830.7048	0.0763
830.8718	0.1605
831.0388	0.0004
831.2057	-0.2673
831.3727	0.3097
831.5396	0.136
831.7065	-0.5267
831.8734	0.0753
832.0402	0.1617
832.2071	-0.3755
832.3739	-0.1534
832.5407	-1.8625
832.7075	-0.1255
832.8742	0.0696
833.041	0.093
833.2077	0.1384
833.3744	0.0857
833.541	-0.0876
833.7077	0.2245
833.8743	0.0783
834.0409	0.0867
834.2075	0.073
834.3741	-0.2578
834.5407	-0.0705
834.7072	0.0379
834.8737	-0.0285
835.0402	0.0838
835.2067	0.4646
835.3731	-0.1638
835.5395	0.0682
835.706	0.0009
835.8723	-0.1267
836.0387	0.1845
836.2051	0.0172
836.3714	0.2179
836.5377	0.212
836.704	0.7901
836.8703	0.0401
837.0365	-0
837.2027	0.0604
837.3689	0.196
837.5351	-0.0063
837.7013	-0.0281
837.8674	-0.2502
838.0335	-0.0579
838.1997	-0.0635
838.3657	0.9081
838.5318	-0.0305
838.6978	0.6726
838.8639	-0.1019
839.0299	0.4323
839.1958	0.2812
839.3618	0.2955
839.5277	0.286
839.6937	0.2865
839.8596	0.1385
840.0254	-0.0076
840.1913	0.2937
840.3571	-0.1702
840.523	-0
840.6888	0.4965
840.8545	-0.5882
841.0203	0.2832
841.186	0.0157
841.3517	-0.0436
841.5174	0.2589
841.6831	0.2611
841.8488	-0.2092
842.0144	0.8363
842.18	0.1183
842.3456	0.3594
842.5112	-0
842.6767	0.046
842.8422	-0.1352
843.0077	0.2783
843.1732	-0.3539
843.3387	1.814
843.5042	-0.2303
843.6696	-0.3859
843.835	-0
844.0004	0.4989
844.1657	-0
844.3311	-0.0745
844.4964	-0.7521
844.6617	0.2632
844.827	-0
844.9923	1.0772
845.1575	0.2084
845.3227	0.4047
845.4879	-0.3295
845.6531	-0.1253
845.8183	0.1396
845.9834	-0
846.1485	0.4378
846.3136	-0.2346
846.4787	0.8814
846.6438	-0.012
846.8088	-0
846.9738	-0
847.1388	0.3941
847.3038	0.5464
847.4687	0.7145
847.6337	-0.1929
847.7986	-0.1326
847.9635	-0.1035
848.1284	1.0491
848.2932	0.1166
848.458	-0
848.6228	-0
848.7876	1.489
848.9524	-0.1342
849.1172	-1.7843
849.2819	-0
849.4466	0.5026
849.6113	1.0758
849.7759	-0.4883
849.9406	-0.1566
850.1052	-1.2237
850.2698	-0.2139
850.4344	-0
850.599	-0.1586
850.7635	0.2647
850.928	-0.0318
851.0925	0.6049
851.257	0.0897
851.4215	0.0306
851.5859	-0.0517
851.7503	-0.0592
851.9147	-0
852.0791	0.5137
852.2434	0.2611
852.4078	-0
852.5721	-0
852.7364	-0.1906
852.9007	-0.1074
853.0649	-0
853.2291	-0
853.3934	-0
853.5575	0.1858
853.7217	0.3043
853.8859	-0
854.05	-0.5508
854.2141	0.2501
854.3782	-0.2778
854.5423	-0
854.7063	-0.1861
854.8703	0.016
855.0343	0.1538
855.1983	0.3055
855.3623	1.1684
855.5262	-0
855.6901	0.3298
855.854	0.1722
856.0179	-0.4964
856.1818	-0
856.3456	0.4073
856.5094	-0
856.6732	-0
856.837	-0
857.0008	0.5357
857.1645	-0.4283
857.3282	-0.4746
857.4919	0.1483
857.6556	-0.2392
857.8192	-0.2318
857.9828	-0.3506
858.1465	-0.0479
858.31	-0
858.4736	-0.7024
858.6372	-0
858.8007	-0.0577
858.9642	0.1583
859.1277	1.7555
859.2911	-0.3814
859.4546	-1.7868
859.618	0.358
859.7814	-0.0019
859.9448	-0.3769
860.1081	0.5836
860.2715	-0
860.4348	-0.1124
860.5981	-0
860.7614	-0
860.9246	0.1739
861.0879	0.0124
861.2511	-0.7614
861.4143	-0
861.5774	-0.3377
861.7406	0.0017
861.9037	-0.8947
862.0668	-0.5819
862.2299	0.5811
862.393	-0
862.556	-0
862.7191	-0.3928
862.8821	0.0388
863.0451	-0.2478
863.208	0.1221
863.371	-0.3094
863.5339	0.232
863.6968	0.6306
863.8597	0.0023
864.0225	-0
864.1854	-0.4357
864.3482	-1.3162
864.511	0.1685
864.6737	-0
864.8365	0.047
864.9992	-0
865.1619	-0.1965
865.3246	-1.8035
865.4873	-0
865.65	0.2453
865.8126	0.7001
865.9752	-0.3458
866.1378	0.183
866.3004	-0.2206
866.4629	-1.2948
866.6254	-0
866.7879	0.1832
866.9504	-0
867.1129	-0.3345
867.2753	-0.3591
867.4377	-0
867.6001	0.1122
867.7625	-0.0605
867.9249	-0
868.0872	1.28
868.2495	-0
868.4118	1.5892
868.5741	-0
868.7363	-1.1521
868.8986	-0.6823
869.0608	-0.1657
869.223	0.3201
869.3851	-0.2267
869.5473	0.461
869.7094	-0
869.8715	0.3782
870.0336	0.1263
870.1957	-0
870.3577	1.0917
870.5197	0.0486
870.6817	-0.7438
870.8437	-0.0792
871.0057	-0
871.1676	0.4631
871.3295	0.9569
871.4914	-0
871.6533	-0
871.8151	2.0613
871.977	0.2149
872.1388	-0.2704
872.3006	-0.6204
872.4623	0.1652
872.6241	0.5006
872.7858	-0.153
872.9475	0.3383
873.1092	0.2667
873.2709	0.411
873.4325	-1.5863
873.5941	-0
873.7557	-0
873.9173	-0
874.0789	0.1712
874.2404	-0
874.4019	-0.2787
874.5634	-0
874.7249	0.1189
874.8863	-0.0491
875.0478	-0.2759
875.2092	-0
875.3706	0.7732
875.5319	-0
875.6933	0.1737
875.8546	-0
876.0159	0.2276
876.1772	-0
876.3385	-0
876.4997	-0
876.6609	-0.2129
876.8221	-0
876.9833	-0.1477
877.1445	0.9468
877.3056	-0.4629
877.4667	-0.2793
877.6278	-0
877.7889	0.0166
877.9499	0.0582
878.111	-0.5394
878.272	-0
878.433	-0
878.5939	0.3695
878.7549	-0
878.9158	-0
879.0767	-0.1003
879.2376	-0.1674
879.3984	0.7901
879.5593	0.5245
879.7201	-1.5458
879.8809	-0.4383
880.0417	-0.1513
880.2024	0.4103
880.3632	0.0426
880.5239	1.1015
880.6846	0.5357
880.8452	0.2809
881.0059	-0
881.1665	0.4085
881.3271	2.0749
881.4877	0.0773
881.6483	0.4523
881.8088	-0
881.9693	-0
882.1298	-0
882.2903	-0
