Data from D4ACN5uM460nmA_Absorbance_13-05-41-570.txt Node
Date: Fri Feb 21 13:05:41 GMT 2025
User: LASERRRRR
Spectrometer: FLMT03099
Trigger mode: 0
Integration Time (sec): 1.500000E-2
Scans to average: 1
Electric dark correction enabled: true
Nonlinearity correction enabled: false
Boxcar width: 0
XAxis mode: Wavelengths
Number of Pixels in Spectrum: 3648
>>>>>Begin Spectral Data<<<<<
179.3399	-0.0187
179.5586	-0.0187
179.7771	-0.0187
179.9957	-0
180.2143	-0
180.4329	-0
180.6514	-0
180.8699	-0
181.0885	-0.1481
181.307	0.2
181.5255	0.6659
181.744	-0
181.9625	0.74
182.181	0.2013
182.3994	-0.3355
182.6179	-0.4588
182.8363	-0
183.0547	0.2644
183.2732	0.0947
183.4916	0.2494
183.71	0.4461
183.9284	0.1291
184.1467	0.1979
184.3651	0.1097
184.5835	0.1709
184.8018	-0.0013
185.0201	0.1929
185.2385	0.2795
185.4568	0.2231
185.6751	0.0438
185.8934	0.006
186.1117	-0.0557
186.3299	0.1635
186.5482	0.5243
186.7664	0.1898
186.9847	-0.0578
187.2029	0.0572
187.4211	0.1287
187.6393	0.0388
187.8575	0.1806
188.0757	0.3972
188.2939	0.1381
188.512	0.1637
188.7302	0.2164
188.9483	0.195
189.1665	1.4803
189.3846	0.3132
189.6027	0.1223
189.8208	0.3148
190.0389	0.2556
190.257	0.124
190.475	0.3362
190.6931	0.0658
190.9111	0.135
191.1292	0.104
191.3472	0.1394
191.5652	0.0159
191.7832	0.2454
192.0012	0.2066
192.2192	0.2702
192.4371	0.222
192.6551	0.2243
192.873	0.1139
193.091	0.0941
193.3089	0.2231
193.5268	0.1653
193.7447	0.1124
193.9626	0.1882
194.1805	0.2241
194.3984	0.1727
194.6162	0.1644
194.8341	0.2915
195.0519	0.1769
195.2697	0.2942
195.4875	0.3637
195.7054	0.2596
195.9231	0.2155
196.1409	0.3735
196.3587	0.3056
196.5765	0.3195
196.7942	0.2526
197.012	0.4009
197.2297	0.3595
197.4474	0.3577
197.6651	0.2638
197.8828	0.3015
198.1005	0.369
198.3182	0.4658
198.5358	0.3791
198.7535	0.3314
198.9711	0.3768
199.1888	0.3364
199.4064	0.4167
199.624	0.4122
199.8416	0.407
200.0592	0.3534
200.2767	0.3938
200.4943	0.5048
200.7119	0.4023
200.9294	0.4173
201.1469	0.4269
201.3645	0.3999
201.582	0.429
201.7995	0.3833
202.017	0.4485
202.2344	0.4226
202.4519	0.4136
202.6694	0.4325
202.8868	0.4281
203.1042	0.4066
203.3217	0.405
203.5391	0.4029
203.7565	0.3669
203.9739	0.362
204.1913	0.3609
204.4086	0.3779
204.626	0.3708
204.8433	0.3965
205.0607	0.351
205.278	0.349
205.4953	0.3722
205.7126	0.3335
205.9299	0.2878
206.1472	0.3345
206.3644	0.3456
206.5817	0.3575
206.7989	0.3537
207.0162	0.3514
207.2334	0.3724
207.4506	0.3312
207.6678	0.3052
207.885	0.3121
208.1022	0.315
208.3194	0.2972
208.5365	0.3278
208.7537	0.2904
208.9708	0.2946
209.1879	0.2985
209.405	0.2918
209.6222	0.2805
209.8392	0.3098
210.0563	0.286
210.2734	0.2676
210.4905	0.2698
210.7075	0.2948
210.9245	0.268
211.1416	0.2916
211.3586	0.2576
211.5756	0.2445
211.7926	0.2598
212.0096	0.2835
212.2265	0.2674
212.4435	0.2562
212.6604	0.2652
212.8774	0.261
213.0943	0.272
213.3112	0.265
213.5281	0.2557
213.745	0.2487
213.9619	0.2544
214.1788	0.2529
214.3956	0.2374
214.6125	0.2525
214.8293	0.2492
215.0461	0.2499
215.2629	0.2463
215.4798	0.2563
215.6965	0.2539
215.9133	0.2491
216.1301	0.2611
216.3469	0.2602
216.5636	0.2634
216.7803	0.2656
216.9971	0.2697
217.2138	0.2624
217.4305	0.2573
217.6472	0.2526
217.8639	0.2584
218.0805	0.2528
218.2972	0.2437
218.5138	0.2544
218.7305	0.2603
218.9471	0.261
219.1637	0.2849
219.3803	0.2643
219.5969	0.2549
219.8135	0.262
220.0301	0.2556
220.2466	0.2653
220.4632	0.269
220.6797	0.2599
220.8962	0.2753
221.1127	0.2705
221.3292	0.2676
221.5457	0.2675
221.7622	0.2723
221.9787	0.2875
222.1951	0.2832
222.4116	0.2785
222.628	0.2882
222.8444	0.2911
223.0608	0.283
223.2772	0.2885
223.4936	0.2861
223.71	0.2923
223.9264	0.2908
224.1427	0.2825
224.3591	0.3011
224.5754	0.2851
224.7917	0.2825
225.008	0.3014
225.2243	0.306
225.4406	0.2972
225.6569	0.3107
225.8732	0.3102
226.0894	0.3072
226.3057	0.3174
226.5219	0.3269
226.7381	0.3302
226.9543	0.3221
227.1705	0.3216
227.3867	0.321
227.6029	0.3373
227.8191	0.3322
228.0352	0.3467
228.2513	0.3512
228.4675	0.3501
228.6836	0.3518
228.8997	0.3527
229.1158	0.3555
229.3319	0.3577
229.548	0.349
229.764	0.3521
229.9801	0.3715
230.1961	0.3703
230.4121	0.3693
230.6282	0.3882
230.8442	0.3935
231.0602	0.3778
231.2761	0.3886
231.4921	0.3883
231.7081	0.3931
231.924	0.4038
232.14	0.4026
232.3559	0.4023
232.5718	0.4251
232.7877	0.4037
233.0036	0.4051
233.2195	0.4112
233.4353	0.4145
233.6512	0.4079
233.867	0.429
234.0829	0.4182
234.2987	0.4234
234.5145	0.431
234.7303	0.4295
234.9461	0.4372
235.1619	0.4428
235.3776	0.4325
235.5934	0.4315
235.8091	0.4483
236.0249	0.4354
236.2406	0.4462
236.4563	0.45
236.672	0.4419
236.8877	0.4437
237.1034	0.4424
237.319	0.4454
237.5347	0.4419
237.7503	0.445
237.966	0.4676
238.1816	0.4474
238.3972	0.4636
238.6128	0.4567
238.8284	0.4607
239.0439	0.4637
239.2595	0.4631
239.475	0.4602
239.6906	0.4605
239.9061	0.4668
240.1216	0.4631
240.3371	0.4618
240.5526	0.4601
240.7681	0.4524
240.9836	0.4655
241.199	0.4488
241.4145	0.4535
241.6299	0.4464
241.8453	0.4483
242.0607	0.4438
242.2761	0.4418
242.4915	0.4285
242.7069	0.4166
242.9223	0.412
243.1376	0.4068
243.353	0.403
243.5683	0.3953
243.7836	0.3911
243.9989	0.3684
244.2142	0.3731
244.4295	0.3702
244.6448	0.3646
244.86	0.3497
245.0753	0.3394
245.2905	0.336
245.5057	0.3285
245.721	0.3265
245.9362	0.322
246.1514	0.3201
246.3665	0.3067
246.5817	0.3003
246.7969	0.2981
247.012	0.2856
247.2271	0.2938
247.4423	0.2828
247.6574	0.2787
247.8725	0.268
248.0876	0.2654
248.3026	0.266
248.5177	0.2587
248.7328	0.2508
248.9478	0.2495
249.1628	0.2482
249.3779	0.2382
249.5929	0.238
249.8079	0.2385
250.0228	0.2299
250.2378	0.2297
250.4528	0.2244
250.6677	0.2147
250.8827	0.2166
251.0976	0.2121
251.3125	0.2145
251.5274	0.2092
251.7423	0.2096
251.9572	0.202
252.172	0.2055
252.3869	0.2093
252.6017	0.1976
252.8166	0.1969
253.0314	0.1963
253.2462	0.1918
253.461	0.1908
253.6758	0.1932
253.8906	0.1944
254.1053	0.1866
254.3201	0.1925
254.5348	0.1806
254.7496	0.1816
254.9643	0.194
255.179	0.1885
255.3937	0.1847
255.6083	0.196
255.823	0.1836
256.0377	0.1826
256.2523	0.1811
256.467	0.1869
256.6816	0.1811
256.8962	0.1831
257.1108	0.182
257.3254	0.1798
257.54	0.1759
257.7545	0.1795
257.9691	0.1765
258.1836	0.173
258.3981	0.1785
258.6127	0.1738
258.8272	0.1802
259.0417	0.1722
259.2561	0.1721
259.4706	0.1756
259.6851	0.1782
259.8995	0.1768
260.114	0.179
260.3284	0.1715
260.5428	0.1719
260.7572	0.1718
260.9716	0.1781
261.186	0.1712
261.4003	0.1766
261.6147	0.1782
261.829	0.1766
262.0433	0.1802
262.2577	0.1784
262.472	0.1705
262.6863	0.1802
262.9005	0.1753
263.1148	0.1711
263.3291	0.1779
263.5433	0.1771
263.7576	0.1785
263.9718	0.1799
264.186	0.1748
264.4002	0.1802
264.6144	0.1782
264.8286	0.1802
265.0427	0.1828
265.2569	0.1749
265.471	0.1821
265.6851	0.1822
265.8993	0.1765
266.1134	0.1788
266.3275	0.1698
266.5415	0.1795
266.7556	0.1827
266.9697	0.1782
267.1837	0.1797
267.3978	0.1753
267.6118	0.1723
267.8258	0.1776
268.0398	0.1748
268.2538	0.1813
268.4677	0.1728
268.6817	0.1723
268.8957	0.1677
269.1096	0.1641
269.3235	0.1724
269.5374	0.1722
269.7514	0.1748
269.9652	0.1688
270.1791	0.1651
270.393	0.1689
270.6068	0.1687
270.8207	0.1624
271.0345	0.1632
271.2483	0.1635
271.4622	0.1698
271.676	0.1669
271.8897	0.1628
272.1035	0.1734
272.3173	0.1683
272.531	0.1675
272.7448	0.1655
272.9585	0.1614
273.1722	0.1638
273.3859	0.1652
273.5996	0.1671
273.8133	0.1688
274.0269	0.1618
274.2406	0.1665
274.4542	0.1653
274.6679	0.1699
274.8815	0.1707
275.0951	0.1711
275.3087	0.1728
275.5223	0.1675
275.7358	0.1647
275.9494	0.1714
276.1629	0.1724
276.3765	0.1711
276.59	0.1695
276.8035	0.1622
277.017	0.1771
277.2305	0.1723
277.444	0.1684
277.6574	0.1695
277.8709	0.1769
278.0843	0.1729
278.2978	0.1729
278.5112	0.1717
278.7246	0.1717
278.938	0.1737
279.1513	0.1777
279.3647	0.1743
279.5781	0.173
279.7914	0.1699
280.0047	0.1731
280.2181	0.1744
280.4314	0.1741
280.6447	0.1814
280.8579	0.1733
281.0712	0.1714
281.2845	0.1765
281.4977	0.1771
281.711	0.1742
281.9242	0.1795
282.1374	0.1741
282.3506	0.1755
282.5638	0.1796
282.7769	0.1747
282.9901	0.1778
283.2033	0.1803
283.4164	0.1762
283.6295	0.1784
283.8426	0.1818
284.0557	0.1814
284.2688	0.1834
284.4819	0.1765
284.695	0.1883
284.908	0.1829
285.1211	0.1869
285.3341	0.1804
285.5471	0.1832
285.7601	0.1815
285.9731	0.1848
286.1861	0.1843
286.3991	0.1878
286.612	0.1873
286.825	0.1891
287.0379	0.1896
287.2508	0.1872
287.4637	0.1855
287.6766	0.1876
287.8895	0.1873
288.1024	0.1955
288.3152	0.1943
288.5281	0.1853
288.7409	0.1874
288.9538	0.1906
289.1666	0.1864
289.3794	0.1888
289.5922	0.1863
289.8049	0.1884
290.0177	0.1908
290.2304	0.1864
290.4432	0.1959
290.6559	0.1884
290.8686	0.1878
291.0813	0.1975
291.294	0.1928
291.5067	0.1841
291.7194	0.1928
291.932	0.192
292.1447	0.194
292.3573	0.1959
292.5699	0.1971
292.7825	0.1897
292.9951	0.1931
293.2077	0.1919
293.4203	0.1897
293.6328	0.192
293.8454	0.1944
294.0579	0.1953
294.2704	0.197
294.4829	0.1872
294.6954	0.1963
294.9079	0.1964
295.1204	0.1851
295.3328	0.1967
295.5453	0.1932
295.7577	0.1961
295.9701	0.1964
296.1825	0.1989
296.3949	0.193
296.6073	0.1878
296.8197	0.1894
297.0321	0.1981
297.2444	0.1824
297.4567	0.1953
297.6691	0.1968
297.8814	0.1939
298.0937	0.1931
298.306	0.1922
298.5182	0.1925
298.7305	0.1954
298.9428	0.1923
299.155	0.1902
299.3672	0.1904
299.5794	0.1972
299.7916	0.1943
300.0038	0.1891
300.216	0.1876
300.4282	0.1911
300.6403	0.1939
300.8525	0.1948
301.0646	0.1963
301.2767	0.1947
301.4888	0.1883
301.7009	0.198
301.913	0.1937
302.125	0.1911
302.3371	0.1964
302.5491	0.1962
302.7612	0.196
302.9732	0.1965
303.1852	0.1885
303.3972	0.1974
303.6092	0.1919
303.8211	0.1938
304.0331	0.1923
304.245	0.1888
304.457	0.1893
304.6689	0.1878
304.8808	0.182
305.0927	0.1893
305.3046	0.1877
305.5164	0.1836
305.7283	0.185
305.9401	0.1736
306.152	0.185
306.3638	0.1789
306.5756	0.1855
306.7874	0.1748
306.9992	0.1734
307.2109	0.1734
307.4227	0.1699
307.6344	0.1766
307.8462	0.1712
308.0579	0.1703
308.2696	0.1694
308.4813	0.1685
308.693	0.1613
308.9046	0.1664
309.1163	0.1533
309.328	0.1555
309.5396	0.1522
309.7512	0.1493
309.9628	0.1466
310.1744	0.154
310.386	0.1468
310.5976	0.1449
310.8091	0.1478
311.0207	0.1434
311.2322	0.1397
311.4437	0.1447
311.6552	0.1409
311.8667	0.1397
312.0782	0.1347
312.2897	0.1446
312.5012	0.1401
312.7126	0.1337
312.924	0.1341
313.1355	0.1305
313.3469	0.1339
313.5583	0.1368
313.7696	0.1272
313.981	0.1343
314.1924	0.1237
314.4037	0.1272
314.6151	0.1241
314.8264	0.1301
315.0377	0.1282
315.249	0.1315
315.4603	0.1245
315.6716	0.1276
315.8828	0.1235
316.0941	0.1213
316.3053	0.1224
316.5165	0.1245
316.7277	0.1213
316.9389	0.1225
317.1501	0.1236
317.3613	0.1157
317.5724	0.1206
317.7836	0.1176
317.9947	0.119
318.2058	0.1222
318.417	0.1201
318.6281	0.1171
318.8391	0.1246
319.0502	0.1253
319.2613	0.1219
319.4723	0.1169
319.6834	0.1225
319.8944	0.1139
320.1054	0.1213
320.3164	0.1171
320.5274	0.1138
320.7383	0.1202
320.9493	0.1178
321.1602	0.1243
321.3712	0.1199
321.5821	0.1142
321.793	0.1224
322.0039	0.1216
322.2148	0.118
322.4257	0.1182
322.6365	0.1165
322.8474	0.1215
323.0582	0.1266
323.269	0.126
323.4798	0.1252
323.6906	0.1133
323.9014	0.1187
324.1122	0.1184
324.3229	0.1224
324.5337	0.1176
324.7444	0.1201
324.9551	0.1188
325.1658	0.1217
325.3765	0.1248
325.5872	0.1284
325.7979	0.1235
326.0085	0.1158
326.2192	0.1216
326.4298	0.1282
326.6404	0.1265
326.851	0.1218
327.0616	0.1192
327.2722	0.1249
327.4828	0.1264
327.6933	0.1361
327.9039	0.1218
328.1144	0.1226
328.3249	0.128
328.5354	0.1227
328.7459	0.1277
328.9564	0.1268
329.1669	0.1286
329.3773	0.1264
329.5878	0.1283
329.7982	0.1268
330.0086	0.1292
330.219	0.1258
330.4294	0.1277
330.6398	0.1269
330.8502	0.1272
331.0605	0.128
331.2708	0.1288
331.4812	0.1268
331.6915	0.1312
331.9018	0.1268
332.1121	0.1382
332.3224	0.1313
332.5326	0.1214
332.7429	0.1261
332.9531	0.1317
333.1633	0.1307
333.3735	0.1239
333.5837	0.1357
333.7939	0.1321
334.0041	0.1342
334.2143	0.1269
334.4244	0.1344
334.6346	0.1345
334.8447	0.1269
335.0548	0.1316
335.2649	0.1344
335.475	0.1352
335.685	0.1283
335.8951	0.1368
336.1051	0.133
336.3152	0.1368
336.5252	0.1404
336.7352	0.1371
336.9452	0.1301
337.1552	0.1359
337.3652	0.1322
337.5751	0.1353
337.7851	0.134
337.995	0.1366
338.2049	0.1342
338.4148	0.1392
338.6247	0.133
338.8346	0.135
339.0445	0.1414
339.2543	0.1306
339.4642	0.1361
339.674	0.1311
339.8838	0.1401
340.0936	0.1333
340.3034	0.1366
340.5132	0.135
340.7229	0.1364
340.9327	0.1485
341.1424	0.1389
341.3522	0.137
341.5619	0.1375
341.7716	0.1404
341.9813	0.148
342.1909	0.1415
342.4006	0.1439
342.6102	0.1439
342.8199	0.1408
343.0295	0.1431
343.2391	0.1433
343.4487	0.1427
343.6583	0.153
343.8679	0.1402
344.0774	0.1446
344.287	0.1472
344.4965	0.1524
344.706	0.1476
344.9155	0.1455
345.125	0.1506
345.3345	0.1567
345.544	0.1412
345.7534	0.1526
345.9629	0.156
346.1723	0.1554
346.3817	0.155
346.5911	0.1562
346.8005	0.159
347.0099	0.161
347.2193	0.1647
347.4286	0.1607
347.638	0.1573
347.8473	0.164
348.0566	0.1583
348.2659	0.161
348.4752	0.1594
348.6845	0.1578
348.8937	0.1628
349.103	0.1628
349.3122	0.1632
349.5214	0.1671
349.7306	0.1675
349.9398	0.1659
350.149	0.1636
350.3582	0.1701
350.5674	0.1715
350.7765	0.1726
350.9856	0.1694
351.1948	0.1744
351.4039	0.172
351.613	0.1751
351.822	0.1755
352.0311	0.173
352.2402	0.176
352.4492	0.1736
352.6582	0.1858
352.8672	0.1825
353.0762	0.1799
353.2852	0.1825
353.4942	0.1823
353.7032	0.1727
353.9121	0.1753
354.1211	0.1799
354.33	0.1784
354.5389	0.1827
354.7478	0.1821
354.9567	0.1822
355.1655	0.1855
355.3744	0.1839
355.5833	0.1815
355.7921	0.1891
356.0009	0.188
356.2097	0.1814
356.4185	0.1923
356.6273	0.1909
356.8361	0.1885
357.0448	0.1861
357.2536	0.1987
357.4623	0.1919
357.671	0.1946
357.8797	0.1926
358.0884	0.1882
358.2971	0.1912
358.5057	0.2
358.7144	0.1953
358.923	0.2016
359.1316	0.1951
359.3402	0.1922
359.5488	0.1975
359.7574	0.2012
359.966	0.2009
360.1746	0.2016
360.3831	0.216
360.5916	0.2034
360.8002	0.2107
361.0087	0.2064
361.2172	0.2088
361.4256	0.2137
361.6341	0.2101
361.8426	0.211
362.051	0.2122
362.2594	0.2098
362.4678	0.2238
362.6762	0.2265
362.8846	0.2137
363.093	0.2145
363.3014	0.2254
363.5097	0.2243
363.718	0.227
363.9264	0.2208
364.1347	0.2305
364.343	0.2311
364.5513	0.2211
364.7595	0.2274
364.9678	0.225
365.176	0.2319
365.3842	0.2359
365.5925	0.2294
365.8007	0.2279
366.0089	0.2413
366.217	0.2414
366.4252	0.2372
366.6333	0.2372
366.8415	0.2462
367.0496	0.2344
367.2577	0.2409
367.4658	0.2348
367.6739	0.2309
367.882	0.2459
368.09	0.2431
368.2981	0.2447
368.5061	0.2458
368.7141	0.2453
368.9221	0.2561
369.1301	0.2518
369.3381	0.2569
369.5461	0.2519
369.754	0.2585
369.962	0.2531
370.1699	0.261
370.3778	0.2659
370.5857	0.2552
370.7936	0.2585
371.0015	0.2544
371.2093	0.2579
371.4172	0.2518
371.625	0.2617
371.8328	0.2575
372.0406	0.2687
372.2484	0.2662
372.4562	0.2574
372.664	0.2665
372.8717	0.2668
373.0795	0.2681
373.2872	0.2741
373.4949	0.268
373.7026	0.27
373.9103	0.2657
374.118	0.2716
374.3256	0.2737
374.5333	0.2728
374.7409	0.2677
374.9485	0.2738
375.1561	0.2721
375.3637	0.2738
375.5713	0.2804
375.7789	0.2743
375.9864	0.2744
376.194	0.2888
376.4015	0.2838
376.609	0.2834
376.8165	0.286
377.024	0.2795
377.2315	0.287
377.4389	0.2746
377.6464	0.2838
377.8538	0.2907
378.0612	0.2889
378.2686	0.2886
378.476	0.292
378.6834	0.2901
378.8908	0.2984
379.0981	0.293
379.3055	0.289
379.5128	0.2884
379.7201	0.2938
379.9274	0.2937
380.1347	0.2965
380.342	0.2972
380.5492	0.294
380.7565	0.2999
380.9637	0.3016
381.1709	0.2952
381.3781	0.2982
381.5853	0.2989
381.7925	0.2973
381.9997	0.3127
382.2068	0.307
382.4139	0.3005
382.6211	0.3007
382.8282	0.3193
383.0353	0.3127
383.2424	0.3077
383.4494	0.2983
383.6565	0.3093
383.8635	0.2995
384.0706	0.3073
384.2776	0.3022
384.4846	0.3183
384.6916	0.3108
384.8986	0.3015
385.1055	0.3175
385.3125	0.3165
385.5194	0.3083
385.7263	0.3082
385.9333	0.3015
386.1402	0.3138
386.347	0.3091
386.5539	0.3122
386.7608	0.3103
386.9676	0.3058
387.1744	0.3124
387.3813	0.3151
387.5881	0.3067
387.7948	0.3211
388.0016	0.3117
388.2084	0.3086
388.4151	0.3178
388.6219	0.3063
388.8286	0.3064
389.0353	0.3077
389.242	0.3145
389.4487	0.2996
389.6553	0.3053
389.862	0.3016
390.0686	0.3165
390.2753	0.2988
390.4819	0.3072
390.6885	0.2969
390.8951	0.297
391.1016	0.301
391.3082	0.3018
391.5147	0.2962
391.7213	0.2955
391.9278	0.3005
392.1343	0.2894
392.3408	0.2946
392.5473	0.2873
392.7537	0.2972
392.9602	0.2779
393.1666	0.2928
393.373	0.2831
393.5794	0.2806
393.7858	0.2945
393.9922	0.2839
394.1986	0.281
394.4049	0.2775
394.6113	0.2847
394.8176	0.287
395.0239	0.2758
395.2302	0.2772
395.4365	0.2837
395.6428	0.2787
395.8491	0.2791
396.0553	0.2711
396.2615	0.2754
396.4678	0.2776
396.674	0.2683
396.8802	0.2695
397.0863	0.2734
397.2925	0.2789
397.4987	0.2678
397.7048	0.2738
397.9109	0.2675
398.117	0.2664
398.3231	0.265
398.5292	0.2568
398.7353	0.2715
398.9413	0.2616
399.1474	0.2624
399.3534	0.271
399.5594	0.2739
399.7654	0.255
399.9714	0.2695
400.1774	0.2636
400.3833	0.2605
400.5893	0.2681
400.7952	0.2639
401.0011	0.2642
401.207	0.2649
401.4129	0.2644
401.6188	0.2539
401.8247	0.2681
402.0305	0.2564
402.2364	0.2683
402.4422	0.2711
402.648	0.2751
402.8538	0.2566
403.0596	0.2552
403.2654	0.2632
403.4711	0.2609
403.6768	0.2552
403.8826	0.2665
404.0883	0.2652
404.294	0.2628
404.4997	0.2595
404.7054	0.2702
404.911	0.2677
405.1167	0.269
405.3223	0.2628
405.5279	0.2626
405.7335	0.2611
405.9391	0.2596
406.1447	0.2756
406.3502	0.261
406.5558	0.2654
406.7613	0.2643
406.9668	0.2573
407.1724	0.2685
407.3778	0.2612
407.5833	0.2486
407.7888	0.2747
407.9942	0.2643
408.1997	0.2543
408.4051	0.2602
408.6105	0.2633
408.8159	0.2565
409.0213	0.2699
409.2267	0.2697
409.432	0.2712
409.6374	0.2624
409.8427	0.2704
410.048	0.2746
410.2533	0.2646
410.4586	0.2563
410.6639	0.2636
410.8691	0.2486
411.0744	0.2597
411.2796	0.2598
411.4848	0.2642
411.69	0.2564
411.8952	0.2649
412.1004	0.2614
412.3056	0.2658
412.5107	0.2705
412.7158	0.2743
412.921	0.2582
413.1261	0.2586
413.3312	0.2667
413.5362	0.2765
413.7413	0.2665
413.9464	0.2469
414.1514	0.2613
414.3564	0.2602
414.5614	0.2622
414.7664	0.2525
414.9714	0.259
415.1764	0.267
415.3813	0.2541
415.5863	0.2688
415.7912	0.2501
415.9961	0.2517
416.201	0.2739
416.4059	0.2586
416.6108	0.2591
416.8156	0.252
417.0205	0.2669
417.2253	0.2515
417.4301	0.2553
417.6349	0.2529
417.8397	0.2549
418.0445	0.2528
418.2492	0.2526
418.454	0.2593
418.6587	0.2574
418.8634	0.253
419.0681	0.2577
419.2728	0.2429
419.4775	0.2592
419.6822	0.2429
419.8868	0.2448
420.0915	0.2523
420.2961	0.2357
420.5007	0.2464
420.7053	0.2483
420.9099	0.2492
421.1144	0.2368
421.319	0.2305
421.5235	0.2391
421.728	0.249
421.9325	0.2451
422.137	0.2371
422.3415	0.2406
422.546	0.2304
422.7504	0.2414
422.9549	0.2373
423.1593	0.234
423.3637	0.2349
423.5681	0.2425
423.7725	0.231
423.9769	0.231
424.1812	0.2261
424.3856	0.2293
424.5899	0.2254
424.7942	0.2326
424.9985	0.227
425.2028	0.2292
425.4071	0.2309
425.6113	0.2318
425.8156	0.2275
426.0198	0.2236
426.224	0.2308
426.4282	0.2274
426.6324	0.2099
426.8366	0.2195
427.0407	0.2217
427.2449	0.2145
427.449	0.2171
427.6531	0.2234
427.8572	0.2095
428.0613	0.2241
428.2654	0.2144
428.4694	0.2142
428.6735	0.2049
428.8775	0.2094
429.0815	0.2089
429.2855	0.206
429.4895	0.1991
429.6935	0.1964
429.8975	0.1978
430.1014	0.2059
430.3053	0.2016
430.5093	0.1884
430.7132	0.1909
430.9171	0.188
431.1209	0.1957
431.3248	0.1774
431.5286	0.1825
431.7325	0.1892
431.9363	0.1795
432.1401	0.1769
432.3439	0.1811
432.5477	0.1742
432.7514	0.1726
432.9552	0.1749
433.1589	0.1692
433.3627	0.1745
433.5664	0.1681
433.7701	0.1686
433.9737	0.1687
434.1774	0.1695
434.3811	0.1596
434.5847	0.15
434.7883	0.1678
434.9919	0.1555
435.1955	0.1567
435.3991	0.1531
435.6027	0.1519
435.8062	0.1672
436.0098	0.1432
436.2133	0.1418
436.4168	0.1453
436.6203	0.1453
436.8238	0.1462
437.0272	0.1396
437.2307	0.1356
437.4341	0.1443
437.6375	0.1493
437.841	0.1264
438.0443	0.1341
438.2477	0.1205
438.4511	0.118
438.6545	0.128
438.8578	0.123
439.0611	0.1262
439.2644	0.1297
439.4677	0.1179
439.671	0.1169
439.8743	0.1201
440.0775	0.1156
440.2808	0.1125
440.484	0.1195
440.6872	0.1087
440.8904	0.0968
441.0936	0.107
441.2967	0.0969
441.4999	0.1
441.703	0.1057
441.9062	0.0998
442.1093	0.1069
442.3124	0.0923
442.5155	0.0958
442.7185	0.0894
442.9216	0.0946
443.1246	0.0881
443.3276	0.0935
443.5307	0.082
443.7337	0.0966
443.9366	0.0769
444.1396	0.0823
444.3426	0.0775
444.5455	0.085
444.7484	0.0723
444.9513	0.0797
445.1542	0.0788
445.3571	0.0759
445.56	0.0683
445.7628	0.0692
445.9657	0.0759
446.1685	0.0691
446.3713	0.0726
446.5741	0.0739
446.7769	0.0718
446.9797	0.0721
447.1824	0.0682
447.3852	0.0578
447.5879	0.0629
447.7906	0.0509
447.9933	0.0668
448.196	0.0529
448.3986	0.0552
448.6013	0.0473
448.8039	0.0557
449.0066	0.0602
449.2092	0.0625
449.4118	0.0507
449.6143	0.0467
449.8169	0.0516
450.0195	0.0565
450.222	0.0626
450.4245	0.0563
450.627	0.0482
450.8295	0.0485
451.032	0.0471
451.2345	0.0393
451.4369	0.0524
451.6394	0.0401
451.8418	0.0341
452.0442	0.0407
452.2466	0.0308
452.449	0.0386
452.6513	0.039
452.8537	0.036
453.056	0.0363
453.2583	0.0383
453.4607	0.0309
453.663	0.0302
453.8652	0.0309
454.0675	0.0346
454.2697	0.0309
454.472	0.0314
454.6742	0.0397
454.8764	0.0364
455.0786	0.031
455.2808	0.0271
455.4829	0.0359
455.6851	0.0258
455.8872	0.0209
456.0893	0.0378
456.2915	0.02
456.4935	0.0345
456.6956	0.0321
456.8977	0.0249
457.0997	0.0326
457.3018	0.0204
457.5038	0.0281
457.7058	0.0284
457.9078	0.0176
458.1098	0.0363
458.3117	0.0326
458.5137	0.015
458.7156	0.0311
458.9175	0.0322
459.1194	0.0129
459.3213	0.0206
459.5232	0.0285
459.725	0.0234
459.9269	0.0227
460.1287	0.0205
460.3305	0.0226
460.5323	0.022
460.7341	0.0175
460.9359	0.018
461.1376	0.0218
461.3394	0.0231
461.5411	0.0215
461.7428	0.0226
461.9445	0.0173
462.1462	0.0132
462.3479	0.0079
462.5495	0.0094
462.7512	0.0282
462.9528	0.0204
463.1544	0.0153
463.356	0.0088
463.5576	0.0256
463.7592	0.0138
463.9607	0.0143
464.1623	0.0136
464.3638	0.0089
464.5653	0.0184
464.7668	0.0182
464.9683	0.0127
465.1697	0.006
465.3712	0.002
465.5726	0.01
465.7741	0.0169
465.9755	0.0093
466.1769	0.0057
466.3782	0.0036
466.5796	0.0049
466.7809	0.0145
466.9823	0.0034
467.1836	0.0115
467.3849	0.0099
467.5862	0.0015
467.7875	0.0091
467.9887	0.0116
468.19	0.0035
468.3912	0.0183
468.5924	0.0077
468.7936	0.0127
468.9948	0.0036
469.196	0.0108
469.3972	-0.0001
469.5983	-0.0019
469.7994	0.0094
470.0006	0.0046
470.2017	0.0054
470.4027	0.0155
470.6038	0.0096
470.8049	0.0006
471.0059	0.0089
471.2069	0.0145
471.408	0.0183
471.6089	0.0082
471.8099	0.0074
472.0109	0.0123
472.2119	0.0181
472.4128	0.0035
472.6137	0.0072
472.8146	0.0092
473.0155	0.0086
473.2164	0.0164
473.4173	-0
473.6181	-0.0028
473.819	0.0018
474.0198	0.0022
474.2206	-0.0035
474.4214	0.0092
474.6222	0.0015
474.8229	0.0014
475.0237	0.0024
475.2244	0.0083
475.4251	0.0044
475.6258	-0.0026
475.8265	0.0102
476.0272	0.0014
476.2278	0.0049
476.4285	0.0031
476.6291	0.0103
476.8297	0.0089
477.0303	0.0006
477.2309	0.0016
477.4315	0.0083
477.632	0.0027
477.8326	0.014
478.0331	0.0158
478.2336	0.0067
478.4341	0.0042
478.6346	0.002
478.8351	0.0014
479.0355	0.009
479.236	0.0171
479.4364	0.0011
479.6368	0.0015
479.8372	0.0092
480.0376	0.0002
480.2379	0.0118
480.4383	0.0129
480.6386	-0.0016
480.8389	-0.0045
481.0392	0.0068
481.2395	0.0125
481.4398	0.0018
481.6401	0.0053
481.8403	0.0043
482.0405	0.0082
482.2408	0.0121
482.441	0.0072
482.6411	-0.0004
482.8413	-0.0018
483.0415	0.0136
483.2416	0.0101
483.4417	-0.0037
483.6419	-0.002
483.8419	0.0083
484.042	0.004
484.2421	-0.0052
484.4422	-0.0034
484.6422	0.0068
484.8422	0.0087
485.0422	0.0021
485.2422	0.0019
485.4422	0.003
485.6422	0.0028
485.8421	0.0016
486.042	0.0041
486.242	0.0014
486.4419	0.0063
486.6417	-0.0019
486.8416	0.0058
487.0415	0.0022
487.2413	-0.0044
487.4411	0.0029
487.641	0.0036
487.8408	0.0068
488.0405	0.0146
488.2403	-0.0006
488.4401	0.005
488.6398	0.0015
488.8395	0.0059
489.0392	0.0013
489.2389	0.0133
489.4386	0.0056
489.6383	0.0086
489.8379	0.0024
490.0376	0.0074
490.2372	0.0031
490.4368	0.0069
490.6364	0.0008
490.836	0.0058
491.0355	0.0037
491.2351	-0.001
491.4346	0.0086
491.6341	-0.0031
491.8336	0.0087
492.0331	-0.0008
492.2326	0.0019
492.432	0.0035
492.6315	0.0029
492.8309	0.0084
493.0303	0.0025
493.2297	0.0104
493.4291	-0.0034
493.6284	0.006
493.8278	0.0011
494.0271	0.0041
494.2264	0.0033
494.4257	0.0093
494.625	-0.0032
494.8243	-0.0023
495.0236	0.003
495.2228	0.0077
495.422	0.0124
495.6213	0.0076
495.8205	0.0061
496.0196	0.0071
496.2188	0.0001
496.418	0.0006
496.6171	-0.0056
496.8162	-0.0015
497.0153	0.0044
497.2144	0.0086
497.4135	0.0057
497.6126	0.0046
497.8116	-0.0031
498.0107	0.0016
498.2097	0.0056
498.4087	0.0023
498.6077	0.0002
498.8067	0.0035
499.0056	0.0061
499.2046	0.0063
499.4035	0.0035
499.6024	0.0011
499.8013	0.0053
500.0002	0.0059
500.199	0.0085
500.3979	0.001
500.5967	0.0078
500.7956	0.0107
500.9944	0.0028
501.1932	0.0124
501.3919	0.0086
501.5907	0.0111
501.7895	0.0014
501.9882	0.0034
502.1869	0.0106
502.3856	0.001
502.5843	-0.0038
502.783	-0.0014
502.9816	0.0095
503.1803	0.002
503.3789	0.0094
503.5775	0.0039
503.7761	-0.0027
503.9747	0.006
504.1732	-0.001
504.3718	0.0141
504.5703	0.0041
504.7689	0.0007
504.9674	0.0036
505.1658	0.0029
505.3643	0.0107
505.5628	0.0101
505.7612	0.005
505.9597	-0.0029
506.1581	0.0001
506.3565	0.0019
506.5549	0.0046
506.7532	-0.0028
506.9516	0.008
507.1499	0.0022
507.3482	0.0074
507.5465	0.0025
507.7448	-0.0006
507.9431	0.0109
508.1414	-0.0032
508.3396	0.0071
508.5379	0.006
508.7361	0.0062
508.9343	0.004
509.1325	0.0109
509.3306	0.0025
509.5288	-0.0005
509.7269	0.0096
509.9251	0.0026
510.1232	0.0087
510.3213	0.0087
510.5193	-0.0009
510.7174	0.0002
510.9154	0.0062
511.1135	0.0003
511.3115	-0.0003
511.5095	0.0012
511.7075	0.0024
511.9055	0.0067
512.1034	0.0049
512.3014	0.0033
512.4993	0.003
512.6972	-0.0019
512.8951	0.0054
513.093	-0.009
513.2908	0.0129
513.4887	0.0009
513.6865	0.012
513.8844	-0.0022
514.0822	-0.0017
514.2799	-0.0032
514.4777	-0
514.6755	0.0083
514.8732	0.0051
515.0709	0.0048
515.2687	0.0107
515.4664	0.0067
515.664	0.0148
515.8617	-0.0026
516.0594	0.0007
516.257	0.0039
516.4546	0.0218
516.6522	0.0023
516.8498	0.0008
517.0474	0.01
517.2449	0.0043
517.4425	0.0119
517.64	0.0144
517.8375	0.0016
518.035	0.0049
518.2325	0.0026
518.43	0.0035
518.6274	0.0052
518.8249	-0.0015
519.0223	0.0156
519.2197	0.0084
519.4171	-0.0041
519.6145	0.0167
519.8118	-0.0128
520.0092	0.0079
520.2065	0.0114
520.4038	0.0084
520.6011	0.0051
520.7984	0.0035
520.9956	0.0099
521.1929	0.0108
521.3901	0.009
521.5874	0.0114
521.7846	-0.0024
521.9818	0.0093
522.1789	0.0072
522.3761	0.0119
522.5732	0.0085
522.7704	-0.0028
522.9675	-0.004
523.1646	-0.0021
523.3617	0.0106
523.5587	-0
523.7558	0.005
523.9528	0.003
524.1498	0.0036
524.3468	0.0016
524.5438	0.0018
524.7408	-0.0008
524.9378	0.0039
525.1347	0.0069
525.3316	-0.0025
525.5285	0.0049
525.7254	0.0062
525.9223	0.0115
526.1192	0.0132
526.316	0.0079
526.5129	0.0052
526.7097	-0.0031
526.9065	0.0088
527.1033	-0.0007
527.3	0.0109
527.4968	0.0131
527.6935	-0.0051
527.8903	-0.0062
528.087	0.0032
528.2837	0.0123
528.4804	0.0068
528.677	0.0085
528.8737	0.0079
529.0703	-0.0018
529.2669	0.0065
529.4635	-0.0034
529.6601	-0.0051
529.8567	-0.0006
530.0532	0.0022
530.2498	0.0006
530.4463	-0.0005
530.6428	0.004
530.8393	0.0151
531.0358	-0.0044
531.2322	0.0058
531.4287	0.002
531.6251	-0.0123
531.8215	0.0011
532.0179	0.0036
532.2143	0.0061
532.4107	0.0164
532.607	0.0055
532.8034	0.0018
532.9997	0.0011
533.196	-0.0011
533.3923	0.0062
533.5886	0.0074
533.7848	-0.0046
533.9811	0.0089
534.1773	0.0008
534.3735	0.0022
534.5697	0.0088
534.7659	0.0056
534.9621	-0.0015
535.1582	0.0056
535.3544	0.0086
535.5505	0.012
535.7466	0.0019
535.9427	0.0052
536.1387	0.0039
536.3348	0.0137
536.5308	0.0056
536.7269	-0.0092
536.9229	0.001
537.1189	0.004
537.3148	0.0035
537.5108	0.0026
537.7068	0.0086
537.9027	-0.0037
538.0986	0.0018
538.2945	0.0039
538.4904	-0.006
538.6863	-0.0024
538.8821	0.0073
539.078	0.0024
539.2738	0.0079
539.4696	-0.0055
539.6654	0.0084
539.8611	0.0031
540.0569	-0.0001
540.2526	0.0067
540.4484	0.0017
540.6441	0.0046
540.8398	0.0097
541.0355	-0.0015
541.2311	0.0033
541.4268	0.0102
541.6224	0.0089
541.818	0.0044
542.0136	0.0079
542.2092	0.0141
542.4048	0.0054
542.6003	0.0022
542.7959	0.0152
542.9914	0.009
543.1869	0.0052
543.3824	0.0018
543.5779	0.009
543.7734	0.0114
543.9688	0.0027
544.1642	0.0019
544.3596	0.0124
544.555	0.0006
544.7504	0.0076
544.9458	-0.0002
545.1411	0.0037
545.3365	0.0124
545.5318	0.0122
545.7271	0.0099
545.9224	-0.0005
546.1177	0.0007
546.3129	0.0019
546.5081	-0.0008
546.7034	0.0013
546.8986	-0.0015
547.0938	0.007
547.289	0.0111
547.4841	0.0094
547.6793	0.0044
547.8744	0.005
548.0695	-0.001
548.2646	0.0147
548.4597	0.0016
548.6548	0.008
548.8498	0.0122
549.0448	0.0067
549.2399	0.0114
549.4349	0.003
549.6298	0.0041
549.8248	-0.0029
550.0198	0.0121
550.2147	0.0058
550.4096	-0.0011
550.6045	-0.0018
550.7994	0.0164
550.9943	0.0081
551.1892	-0.011
551.384	0.0088
551.5788	0.0135
551.7737	0.0042
551.9685	0.0055
552.1632	-0.0015
552.358	0.0041
552.5528	-0.0002
552.7475	0.004
552.9422	0.0037
553.1369	0.0128
553.3316	0.0032
553.5263	0.0109
553.7209	0.0039
553.9156	-0.0006
554.1102	0.0106
554.3048	-0.0082
554.4994	-0.0013
554.694	-0.0001
554.8885	-0.0006
555.0831	0.0022
555.2776	0.0103
555.4721	0.0012
555.6666	0.0074
555.8611	0.0016
556.0555	0.0008
556.25	0.0081
556.4444	-0.003
556.6388	0.0069
556.8332	-0.0028
557.0276	0.0122
557.222	0.0034
557.4163	0.007
557.6107	0.0067
557.805	0.0018
557.9993	0.0033
558.1936	0.0013
558.3879	0.01
558.5821	-0.0019
558.7764	0.0029
558.9706	0.0049
559.1648	0.0064
559.359	-0.0001
559.5532	0.0024
559.7473	-0.0009
559.9415	-0.0012
560.1356	0.0181
560.3297	0.002
560.5238	-0.0002
560.7179	0.0041
560.9119	0.0004
561.106	-0.0025
561.3	0.0078
561.494	-0.0019
561.688	-0.0026
561.882	0.0029
562.076	0.0011
562.2699	0.0077
562.4639	0.0179
562.6578	0.0024
562.8517	0.0046
563.0456	-0.003
563.2395	0.0091
563.4333	0.0054
563.6272	0.0035
563.821	0.0059
564.0148	0.0017
564.2086	0.0017
564.4024	0.0042
564.5961	0.012
564.7899	0.0108
564.9836	0.0033
565.1773	0.0157
565.371	0.0005
565.5647	-0.0007
565.7584	0.0059
565.952	0.0081
566.1456	-0.0014
566.3393	0.0082
566.5329	-0.0006
566.7264	-0.0016
566.92	-0.0023
567.1136	-0.0011
567.3071	-0.0017
567.5006	0.0026
567.6941	0.0045
567.8876	-0.0001
568.0811	0.0117
568.2745	-0.0002
568.468	0.0016
568.6614	0.001
568.8548	0.0041
569.0482	0.0033
569.2416	0.0052
569.4349	0.0091
569.6283	-0.0017
569.8216	0.0044
570.0149	0.0022
570.2082	0.0131
570.4015	0.0034
570.5947	0.0005
570.788	0.0053
570.9812	0.0006
571.1744	0.0045
571.3676	0.0025
571.5608	0.0013
571.754	0.0071
571.9471	0.0047
572.1402	0.0061
572.3333	0.0012
572.5264	0.0017
572.7195	0.0041
572.9126	0.0046
573.1057	0.0045
573.2987	0.0027
573.4917	-0.0004
573.6847	0.0044
573.8777	0.0074
574.0707	0.0034
574.2636	0.0027
574.4566	0.0002
574.6495	0.0019
574.8424	0.0054
575.0353	0.0018
575.2281	0.0078
575.421	-0.0023
575.6138	0.0053
575.8067	0.0036
575.9995	0.0037
576.1923	0.0024
576.385	0
576.5778	0.0035
576.7706	0.0012
576.9633	0.0052
577.156	-0.0017
577.3487	0.0012
577.5414	0.0016
577.734	-0.0013
577.9267	0.0035
578.1193	0.0036
578.3119	0.002
578.5045	0.0031
578.6971	0.0002
578.8897	0.0009
579.0822	0.0063
579.2747	0.0033
579.4673	0.0011
579.6598	0.0047
579.8522	0.0044
580.0447	0.0048
580.2372	0.0075
580.4296	0.0105
580.622	0.0024
580.8144	0.001
581.0068	0.0034
581.1992	0.0023
581.3915	0.0002
581.5839	0.0007
581.7762	0.0013
581.9685	0.0015
582.1608	0.0006
582.353	0.0027
582.5453	0.0037
582.7375	0.0048
582.9298	-0.0035
583.122	0.001
583.3142	0.0097
583.5063	0.003
583.6985	-0.0034
583.8906	0.0027
584.0827	0.006
584.2749	0.0008
584.4669	0.0006
584.659	0.008
584.8511	0.0063
585.0431	0.0058
585.2352	0.0048
585.4272	0.0067
585.6192	0.0067
585.8111	0.0036
586.0031	0.0034
586.195	-0.0016
586.387	0.0036
586.5789	0.0016
586.7708	0.0026
586.9627	0.0016
587.1545	0.0056
587.3464	0.005
587.5382	0.0036
587.73	0.0065
587.9218	-0.0045
588.1136	0.0047
588.3053	0.0026
588.4971	0.003
588.6888	0.0004
588.8805	-0.0006
589.0722	0.0075
589.2639	0.0039
589.4556	0.0102
589.6472	0.0057
589.8389	0.0088
590.0305	0.0002
590.2221	0.0071
590.4137	0.0063
590.6052	-0.0024
590.7968	0.0021
590.9883	0.0024
591.1798	0.0062
591.3713	0.004
591.5628	0.0098
591.7543	0.0028
591.9458	0.0047
592.1372	0.0052
592.3286	-0.0003
592.52	0.0003
592.7114	0.0034
592.9028	0.0087
593.0941	0.0037
593.2855	-0.0019
593.4768	0.0125
593.6681	0.0082
593.8594	0.0065
594.0506	0.0016
594.2419	0.0002
594.4331	0.0056
594.6244	-0.0021
594.8156	0.0098
595.0067	-0.0004
595.1979	0.0003
595.3891	0.0048
595.5802	0.0048
595.7713	0.0031
595.9624	0.0077
596.1535	0.0065
596.3446	-0.0016
596.5357	0.0126
596.7267	-0.0011
596.9177	-0.0014
597.1087	-0.0069
597.2997	0.0059
597.4907	0.0009
597.6817	0.0098
597.8726	0.0048
598.0635	-0.0025
598.2544	0.0083
598.4453	-0.0015
598.6362	0.0028
598.827	-0.0028
599.0179	0.0013
599.2087	0.0061
599.3995	0.0055
599.5903	0.009
599.7811	0.0063
599.9718	-0.0018
600.1626	0.0009
600.3533	-0.0022
600.544	0.0029
600.7347	0.0047
600.9254	0.0075
601.116	0.0049
601.3067	0.0016
601.4973	0.0064
601.6879	0.0001
601.8785	0.0053
602.0691	0.0018
602.2596	0.0019
602.4502	0.0068
602.6407	0.0048
602.8312	0.002
603.0217	0.0022
603.2122	0.0025
603.4027	0.0043
603.5931	-0.004
603.7835	0.0025
603.9739	0.001
604.1643	0.0039
604.3547	0.0089
604.5451	0.0034
604.7354	0.0022
604.9257	-0.0011
605.116	-0.0023
605.3063	0.0029
605.4966	0.0052
605.6869	0.0091
605.8771	0.0071
606.0673	0.0004
606.2575	0.0009
606.4477	0.0085
606.6379	-0.0051
606.8281	-0.0035
607.0182	0.0049
607.2083	0.0037
607.3985	-0.0009
607.5885	0.0023
607.7786	0.0048
607.9687	0.0038
608.1587	0.0051
608.3488	0.005
608.5388	-0.0001
608.7288	-0.0014
608.9187	0.0079
609.1087	0.0048
609.2986	0.0078
609.4886	-0.0046
609.6785	0.0107
609.8684	-0.0046
610.0582	0.0008
610.2481	0.0005
610.4379	0.0058
610.6278	0.0006
610.8176	0.0106
611.0074	0.0042
611.1971	0.002
611.3869	0.0104
611.5766	-0.0003
611.7664	0.0072
611.9561	0.0045
612.1458	0.0044
612.3354	0.0027
612.5251	-0.0064
612.7147	0.0112
612.9044	-0.0008
613.094	0.007
613.2836	0.0028
613.4731	0.0084
613.6627	0.005
613.8522	0.0065
614.0417	0.0035
614.2313	0.0094
614.4207	0.0077
614.6102	0.0087
614.7997	0.0031
614.9891	-0.0008
615.1785	-0.0073
615.3679	0.0027
615.5573	0.0016
615.7467	-0.0058
615.9361	-0.0011
616.1254	0.0092
616.3147	0.0071
616.504	0.0048
616.6933	-0.0007
616.8826	-0.0015
617.0718	0.0149
617.2611	0.0027
617.4503	0.0043
617.6395	0.0031
617.8287	0.004
618.0179	0.0015
618.207	0.0139
618.3961	-0.0064
618.5853	0.0088
618.7744	0.0018
618.9634	0.0075
619.1525	0.0054
619.3416	0.001
619.5306	0.0041
619.7196	0.0086
619.9086	0.0012
620.0976	0.0071
620.2866	0.0049
620.4755	0.0031
620.6645	0.0098
620.8534	-0.001
621.0423	0.0052
621.2312	0.0051
621.42	-0.0023
621.6089	0.0112
621.7977	0.0053
621.9865	0.0042
622.1753	-0.0103
622.3641	-0.0029
622.5529	0.0054
622.7416	-0.0061
622.9303	-0.0048
623.1191	-0.0024
623.3078	0.0155
623.4964	0.0076
623.6851	0.0059
623.8737	0.0002
624.0624	-0.0116
624.251	0.0006
624.4396	0.002
624.6282	0.0129
624.8167	0.001
625.0053	0.0134
625.1938	0.0014
625.3823	0.0102
625.5708	-0.0063
625.7593	0.0043
625.9477	0.0043
626.1362	-0.0052
626.3246	-0.0025
626.513	0.0035
626.7014	0.0175
626.8898	0.0108
627.0781	0.0049
627.2665	0.006
627.4548	-0.0109
627.6431	0.0102
627.8314	0.0176
628.0197	0.0057
628.2079	-0.0034
628.3962	-0
628.5844	0.0133
628.7726	-0.0018
628.9608	-0.0034
629.1489	0.0057
629.3371	-0.0053
629.5252	-0.0002
629.7134	0.0029
629.9015	0.0048
630.0895	-0.0093
630.2776	0.0025
630.4657	0.0163
630.6537	0.0103
630.8417	0.0029
631.0297	0.0018
631.2177	0.0019
631.4057	0.0103
631.5936	-0.0074
631.7815	0.0084
631.9695	0.0243
632.1574	0.0077
632.3452	0.004
632.5331	0.0033
632.7209	0.0183
632.9088	0.0077
633.0966	0.023
633.2844	-0.0024
633.4722	0.0175
633.6599	0.0241
633.8477	0.0052
634.0354	0.0119
634.2231	-0.0021
634.4108	0.008
634.5985	0.0091
634.7861	0.005
634.9738	-0.0071
635.1614	0.0122
635.349	-0.007
635.5366	0.011
635.7242	-0
635.9117	-0.0084
636.0993	-0.0007
636.2868	-0.0068
636.4743	0.0108
636.6618	-0.0129
636.8492	-0.0004
637.0367	-0.0097
637.2241	0.0049
637.4115	0.0279
637.5989	0.0156
637.7863	0.0284
637.9737	-0.0044
638.161	0.0137
638.3484	-0.009
638.5357	0.0078
638.723	0.0163
638.9103	-0.0096
639.0975	0.0046
639.2848	0.0135
639.472	0.0101
639.6592	-0.0133
639.8464	-0.0027
640.0336	0.0086
640.2208	-0.0041
640.4079	-0.0093
640.595	-0.0214
640.7821	0.0108
640.9692	-0.0095
641.1563	0.0044
641.3434	0.0049
641.5304	0.0141
641.7174	0.0038
641.9044	0.0027
642.0914	0.0248
642.2784	0.0052
642.4653	0.0052
642.6523	0.0067
642.8392	0.0044
643.0261	0.0045
643.213	0.0108
643.3999	0.0161
643.5867	0.0086
643.7735	-0.0077
643.9604	0.0089
644.1472	0.0159
644.3339	0.0137
644.5207	0.007
644.7075	0.0179
644.8942	-0.0015
645.0809	-0.0117
645.2676	-0.0057
645.4543	-0.0018
645.6409	0.0168
645.8276	0.0205
646.0142	0.0083
646.2008	0.0087
646.3874	0.0024
646.574	-0.0185
646.7605	0.0102
646.9471	0.0105
647.1336	-0.0057
647.3201	0.0039
647.5066	0.0122
647.6931	-0.0021
647.8795	0.0141
648.0659	0.0061
648.2524	0.0055
648.4388	0.0022
648.6252	0.0074
648.8115	0.0041
648.9979	0.0107
649.1842	0.0069
649.3705	0.0143
649.5568	0.0001
649.7431	0.0049
649.9294	0.0036
650.1156	0.0024
650.3018	0.0215
650.488	0.0181
650.6742	0.0423
650.8604	0.0069
651.0466	0.0041
651.2327	0.0118
651.4188	-0.0001
651.6049	0.0206
651.791	0.0012
651.9771	0.0127
652.1632	-0.0038
652.3492	-0.0067
652.5352	-0.0076
652.7212	-0.0072
652.9072	-0.0095
653.0932	0.0043
653.2791	0.0075
653.465	-0.0059
653.651	-0.0025
653.8369	0.0014
654.0227	-0.0087
654.2086	0.003
654.3944	0.0095
654.5803	0.0076
654.7661	0.0061
654.9519	-0.0001
655.1377	0.0002
655.3234	0.0002
655.5092	0.0002
655.6949	0.0002
655.8806	0.0002
656.0663	0.0002
656.2519	0.0002
656.4376	0.0002
656.6232	0.0002
656.8088	0.0002
656.9945	0.0002
657.18	0.0002
657.3656	0.0002
657.5511	0.0002
657.7367	0.0002
657.9222	0.0002
658.1077	0.0002
658.2932	0.0002
658.4786	0.0002
658.6641	0.0002
658.8495	0.0002
659.0349	0.0002
659.2203	0.0002
659.4057	0.0002
659.591	0.0697
659.7764	0.0204
659.9617	0.0037
660.147	0.0019
660.3323	0.0035
660.5176	-0.0027
660.7028	-0.0194
660.888	0.01
661.0733	0.0089
661.2585	-0.0013
661.4436	-0.0064
661.6288	0.018
661.8139	-0.011
661.9991	-0.0117
662.1842	0.0084
662.3693	0.0032
662.5544	0.0139
662.7394	0.0148
662.9245	0.0079
663.1095	0.0027
663.2945	-0.0123
663.4795	-0.026
663.6644	-0.0059
663.8494	0.0078
664.0343	0.0179
664.2193	0.0015
664.4042	-0.0049
664.589	0.0106
664.7739	0.0026
664.9587	0.0014
665.1436	-0.0023
665.3284	0.0007
665.5132	-0.0081
665.698	0.0095
665.8827	0.0168
666.0675	-0.0101
666.2522	0.0208
666.4369	-0.0037
666.6216	0.0182
666.8063	-0.0042
666.9909	0.008
667.1756	-0.0057
667.3602	-0.0053
667.5448	0.0141
667.7294	-0.0001
667.9139	-0.0049
668.0985	0.0203
668.283	-0.0042
668.4675	0.0296
668.652	0.0103
668.8365	-0.0037
669.0209	0.0028
669.2054	0.0181
669.3898	0.0095
669.5742	0.0131
669.7586	0.0078
669.943	0.0135
670.1273	0.0186
670.3117	0.0279
670.496	0.0103
670.6803	0.0097
670.8646	-0.0147
671.0488	0.0109
671.2331	-0.0246
671.4173	0.0052
671.6015	0.0025
671.7857	0.0156
671.9699	0.0169
672.1541	-0.0007
672.3382	0.0098
672.5223	0.0032
672.7064	0.001
672.8905	0.0119
673.0746	0.0009
673.2587	0.0275
673.4427	0.0188
673.6267	0.0122
673.8107	0.0244
673.9947	0.0252
674.1787	0.0042
674.3626	0.0027
674.5465	-0.0014
674.7304	0.0175
674.9143	0.0119
675.0982	-0.0053
675.2821	0.0008
675.4659	0.0042
675.6497	0.004
675.8335	0.0204
676.0173	-0.0211
676.2011	0.0216
676.3849	0.0002
676.5686	0.0304
676.7523	0.0082
676.936	-0.0074
677.1197	-0.0047
677.3034	0.0346
677.487	0.0032
677.6706	0.0015
677.8542	-0.0068
678.0378	-0.0036
678.2214	-0.0117
678.405	-0.0044
678.5885	0.0242
678.772	0.0097
678.9555	-0.0034
679.139	0.0175
679.3225	0.0049
679.5059	0.0067
679.6894	-0.0022
679.8728	0.0049
680.0562	-0.0009
680.2395	-0.0008
680.4229	-0.004
680.6062	0.0016
680.7896	-0.0116
680.9729	0.0058
681.1562	-0.0015
681.3394	0.0137
681.5227	0.0049
681.7059	0.0084
681.8891	0.0034
682.0723	0.0079
682.2555	0.0081
682.4387	-0.0055
682.6218	0.0189
682.805	0.021
682.9881	0.029
683.1712	0.0058
683.3542	0.0308
683.5373	-0.0086
683.7203	-0.0084
683.9034	-0.0032
684.0864	0.0136
684.2694	0.0197
684.4523	0.0092
684.6353	-0.0108
684.8182	-0.0002
685.0011	0.0022
685.184	0.0085
685.3669	0.0064
685.5498	-0.0158
685.7326	-0.0068
685.9154	0.0021
686.0982	0.0128
686.281	-0.0001
686.4638	0.0029
686.6465	0.0016
686.8293	-0.0046
687.012	0.0136
687.1947	0.0102
687.3774	0.0128
687.56	0.0019
687.7427	-0.0014
687.9253	-0.0225
688.1079	-0.0106
688.2905	-0.0001
688.4731	0.0051
688.6556	0.0107
688.8382	-0.015
689.0207	-0.0046
689.2032	0.0374
689.3857	-0.0087
689.5681	-0.0015
689.7506	0.0187
689.933	0.0223
690.1154	0.0094
690.2978	-0.0034
690.4802	0.0349
690.6626	0.0091
690.8449	0.0157
691.0272	-0.0001
691.2095	-0.0113
691.3918	0.017
691.5741	0.0076
691.7563	0.0089
691.9386	0.0332
692.1208	-0.002
692.303	-0.0161
692.4852	0.003
692.6673	0.0041
692.8495	-0.0013
693.0316	0.0337
693.2137	0.0286
693.3958	0.0037
693.5778	-0.0021
693.7599	0.0082
693.9419	-0.0056
694.1239	-0.0182
694.3059	0.0349
694.4879	0.0056
694.6699	-0.0137
694.8518	0.0168
695.0337	0.0201
695.2157	0.0292
695.3975	0.0053
695.5794	0.0021
695.7613	0.0091
695.9431	-0.0353
696.1249	0.033
696.3067	-0.0084
696.4885	0.0204
696.6703	0.0036
696.852	-0.0191
697.0337	0.0079
697.2154	0.0003
697.3971	0.0006
697.5788	0.0236
697.7605	-0.0003
697.9421	-0.0103
698.1237	0.0209
698.3053	-0.0017
698.4869	0.0257
698.6685	-0.0116
698.85	0.0108
699.0315	-0.0127
699.213	0.0139
699.3945	-0.0018
699.576	0.0239
699.7575	0.0196
699.9389	0.0239
700.1203	0.0015
700.3017	0.0187
700.4831	0.0238
700.6645	0.0424
700.8458	0.0087
701.0271	0.0441
701.2084	0.0289
701.3897	0.024
701.571	-0.0031
701.7523	0.0207
701.9335	0.0134
702.1147	0.0124
702.2959	0.0082
702.4771	-0.0083
702.6583	-0.0186
702.8394	0.0036
703.0205	0.0246
703.2016	0.0006
703.3827	-0.0212
703.5638	0.0091
703.7449	0.0106
703.9259	0.0105
704.1069	-0.0374
704.2879	0.0094
704.4689	0.0114
704.6499	0.0281
704.8308	-0.0043
705.0117	0.0164
705.1927	0.0262
705.3735	0.0271
705.5544	0.0117
705.7353	0.007
705.9161	-0.0234
706.0969	0.0122
706.2777	0.0031
706.4585	0.004
706.6393	0.0195
706.82	0.0135
707.0007	-0.0046
707.1815	-0.0126
707.3621	0.0268
707.5428	0.0015
707.7235	0.0044
707.9041	0.0022
708.0847	0.0123
708.2653	0.0175
708.4459	0.0008
708.6265	-0.0004
708.807	0.0129
708.9875	-0.018
709.168	0.0013
709.3485	0.0159
709.529	0.0034
709.7095	-0.012
709.8899	0.0075
710.0703	0.0267
710.2507	0.0039
710.4311	-0.0141
710.6115	0.036
710.7918	0.0311
710.9721	-0.007
711.1524	-0.0175
711.3327	-0.0144
711.513	-0.0111
711.6932	0.0295
711.8735	0.0321
712.0537	0.0023
712.2339	-0.0073
712.4141	0.0112
712.5942	-0.0073
712.7744	0.0022
712.9545	-0.0023
713.1346	0.0345
713.3147	0.0198
713.4947	-0.0195
713.6748	-0.0004
713.8548	0.0158
714.0348	-0.0017
714.2148	0.024
714.3948	-0.0052
714.5748	0.0177
714.7547	0.0302
714.9346	0.029
715.1145	-0.0054
715.2944	-0.0078
715.4743	0.0044
715.6541	-0.017
715.834	0.029
716.0138	0.0203
716.1936	-0.0259
716.3733	0.0079
716.5531	-0.0242
716.7328	0.0485
716.9126	-0.0145
717.0923	0.0025
717.2719	0.0447
717.4516	0.0091
717.6312	0.0079
717.8109	0.0348
717.9905	0.0191
718.1701	-0.002
718.3496	0.0018
718.5292	0.0175
718.7087	0.0032
718.8882	0.0195
719.0677	0.0058
719.2472	0.0101
719.4267	0.0169
719.6061	-0.0069
719.7856	0.0168
719.965	0.0075
720.1443	0.0007
720.3237	0.005
720.5031	0.0091
720.6824	0.0221
720.8617	0.0132
721.041	0.0233
721.2203	-0.0179
721.3995	0.0099
721.5788	-0.0037
721.758	0.0099
721.9372	0.0003
722.1164	-0.0014
722.2956	-0.0058
722.4747	0.0363
722.6538	0.0234
722.8329	0.0394
723.012	0.0128
723.1911	0.008
723.3702	0.0303
723.5492	-0.0001
723.7282	0.0042
723.9072	0.0115
724.0862	-0.0151
724.2652	0.0223
724.4441	0.0056
724.623	0.0025
724.8019	0.0107
724.9808	0.0169
725.1597	-0.0082
725.3385	0.0231
725.5174	0.0214
725.6962	0.0306
725.875	0.0096
726.0538	-0.0015
726.2325	0.0199
726.4112	-0.0159
726.59	-0.0081
726.7687	-0.0119
726.9474	0.0172
727.126	0.0204
727.3047	0.0022
727.4833	0.0082
727.6619	-0.0005
727.8405	0.0064
728.0191	0.0233
728.1976	-0.0047
728.3762	0.0586
728.5547	0.0288
728.7332	0.0157
728.9116	0.0105
729.0901	0.0027
729.2686	0.0002
729.447	-0.0029
729.6254	0.0182
729.8038	0.0166
729.9821	-0.0299
730.1605	0.0193
730.3388	0.0175
730.5171	0.0235
730.6954	-0.0223
730.8737	0.0093
731.0519	-0.0091
731.2302	0.0285
731.4084	-0.0034
731.5866	-0.0053
731.7648	0.0105
731.9429	0.0213
732.1211	0.0011
732.2992	-0.0001
732.4773	0.0088
732.6554	-0.0068
732.8335	0.0299
733.0115	0.0176
733.1896	-0.0204
733.3676	0.0201
733.5456	0.004
733.7235	-0.0038
733.9015	0.0006
734.0794	-0.0017
734.2574	-0.022
734.4353	0.0226
734.6131	0.0055
734.791	0.0215
734.9689	-0.0026
735.1467	-0.0026
735.3245	0.016
735.5023	0.0136
735.68	0.0076
735.8578	0.0174
736.0355	0.0167
736.2132	0.0044
736.3909	-0.0025
736.5686	-0.0023
736.7463	-0.0171
736.9239	0.0282
737.1015	0.01
737.2791	0.0095
737.4567	0.0217
737.6343	-0.0213
737.8118	0.008
737.9894	0.003
738.1669	0.0042
738.3444	0.0174
738.5218	-0.0067
738.6993	0.009
738.8767	-0.0085
739.0541	-0.0141
739.2315	-0.0006
739.4089	0.0237
739.5863	0.0098
739.7636	-0.0046
739.9409	0.0102
740.1182	-0.0059
740.2955	0.025
740.4728	-0.018
740.65	0.0022
740.8272	0.0048
741.0044	-0.0157
741.1816	0.0125
741.3588	-0.0259
741.5359	-0.0173
741.7131	0.0202
741.8902	-0.0079
742.0673	-0.0258
742.2444	0.0425
742.4214	0.0037
742.5985	0.0238
742.7755	0.0095
742.9525	-0.0254
743.1295	-0.0077
743.3064	0.0182
743.4834	-0.0002
743.6603	0.0613
743.8372	-0.0393
744.0141	0.0277
744.191	0.0084
744.3678	-0.0221
744.5446	0.0307
744.7215	-0.0059
744.8982	0.0148
745.075	0.042
745.2518	0.003
745.4285	0.0454
745.6052	-0.0593
745.7819	-0.0011
745.9586	0.0273
746.1353	0.0029
746.3119	0.0003
746.4885	0.0224
746.6651	0.0215
746.8417	0.0136
747.0183	0.0262
747.1948	0.0161
747.3714	0.036
747.5479	0.0226
747.7244	-0.0146
747.9008	0.0111
748.0773	0.0255
748.2537	0.0289
748.4301	0.0248
748.6065	-0.0234
748.7829	-0.0362
748.9593	-0.002
749.1356	0.0188
749.3119	0.0079
749.4882	0.0112
749.6645	0.0026
749.8408	0.0041
750.017	0.0082
750.1933	-0.0018
750.3695	0.0135
750.5457	0.0029
750.7218	-0.008
750.898	-0.015
751.0741	0.0188
751.2502	0.0067
751.4263	-0.0153
751.6024	-0.0062
751.7784	0.0034
751.9545	0.0183
752.1305	-0.0035
752.3065	0.0197
752.4825	-0.0104
752.6584	0.0211
752.8344	-0.0128
753.0103	-0.0202
753.1862	0.0111
753.3621	-0.0043
753.5379	-0.0117
753.7138	0.0217
753.8896	-0.0197
754.0654	-0.0067
754.2412	0.0281
754.417	0.0121
754.5927	-0.0021
754.7685	-0.0114
754.9442	0.0138
755.1199	0.0043
755.2956	0.0095
755.4712	0.0147
755.6469	-0.0024
755.8225	0.0061
755.9981	0.0193
756.1736	0.0059
756.3492	-0.0037
756.5248	0.0222
756.7003	0.0153
756.8758	-0.0028
757.0513	0.0011
757.2267	0.0062
757.4022	-0.0044
757.5776	-0.0032
757.753	0.016
757.9284	-0.0022
758.1038	0.0182
758.2791	-0.0075
758.4545	-0.0148
758.6298	0.0254
758.8051	-0.0003
758.9803	-0.0041
759.1556	-0.0028
759.3308	0.0022
759.506	-0.0029
759.6812	-0.0056
759.8564	-0.0078
760.0316	-0.005
760.2067	0.0146
760.3819	0.0101
760.557	0.0147
760.732	-0.0028
760.9071	0.0099
761.0821	0.0018
761.2572	0.0182
761.4322	0.0324
761.6072	0.0047
761.7821	0.0046
761.9571	0.0196
762.132	0.0095
762.3069	0.0103
762.4818	0.0286
762.6567	-0.0102
762.8316	0.0186
763.0064	0.0172
763.1812	0.0066
763.356	-0.0132
763.5308	0.0202
763.7055	0.0096
763.8803	-0.0233
764.055	0.0136
764.2297	-0.0142
764.4044	0.0082
764.579	0.0075
764.7537	0.027
764.9283	-0.002
765.1029	0.0048
765.2775	0.0137
765.4521	0.0059
765.6266	-0.0032
765.8011	0.0137
765.9756	0.0217
766.1501	-0.0158
766.3246	0.0188
766.4991	0.0032
766.6735	0.0559
766.8479	-0.0138
767.0223	0.0228
767.1967	0.0333
767.371	0.0118
767.5454	0.0268
767.7197	0.0163
767.894	0.0035
768.0683	0.013
768.2425	0.0141
768.4168	0.0032
768.591	-0.0005
768.7652	-0.0109
768.9394	-0.0162
769.1135	-0.0171
769.2877	0.036
769.4618	0.0194
769.6359	0.0151
769.81	0.0278
769.984	0.0121
770.1581	-0.002
770.3321	0.0379
770.5061	0.0107
770.6801	0.0144
770.8541	-0.0029
771.028	0.012
771.202	0.0353
771.3759	-0.0089
771.5498	0.0126
771.7236	0.0062
771.8975	0.0281
772.0713	-0.0159
772.2451	-0.0262
772.4189	0.0172
772.5927	-0.0427
772.7665	0.0049
772.9402	-0.0339
773.1139	-0.0206
773.2876	0.0048
773.4613	-0.0002
773.635	0.0423
773.8086	0.0368
773.9822	0.0163
774.1558	0.0668
774.3294	0.015
774.503	0.0067
774.6765	0.0471
774.8501	-0.026
775.0236	0.0068
775.1971	0.0082
775.3705	0.0021
775.544	-0.0088
775.7174	0.031
775.8908	0.0428
776.0642	0.0438
776.2376	0.0022
776.4109	-0.0121
776.5843	0.0392
776.7576	0.017
776.9309	-0.0028
777.1041	-0.0385
777.2774	-0.051
777.4506	-0.0028
777.6238	-0.0072
777.797	0.0177
777.9702	0.0317
778.1434	-0.0008
778.3165	-0.0106
778.4896	-0.0271
778.6627	0.0046
778.8358	-0.0183
779.0089	-0.0298
779.1819	0.0264
779.3549	0.0546
779.5279	-0.0351
779.7009	0.03
779.8739	0.0524
780.0468	0.035
780.2197	0.0322
780.3926	0.0024
780.5655	0.0463
780.7384	0.0172
780.9112	0.0558
781.0841	-0.0107
781.2569	0.0164
781.4297	0.0132
781.6024	0.0222
781.7752	0.0465
781.9479	0.0305
782.1206	-0.0012
782.2933	-0.003
782.466	0.0295
782.6386	-0.0087
782.8113	0.0004
782.9839	-0.0101
783.1565	0.0312
783.329	0.0157
783.5016	-0.0103
783.6741	0.0179
783.8466	0.0262
784.0191	0.0018
784.1916	0.0274
784.3641	-0.0567
784.5365	0.02
784.7089	-0.0069
784.8813	0.0532
785.0537	0.0783
785.2261	0.0187
785.3984	-0.0118
785.5707	-0.0218
785.743	0.0474
785.9153	-0.0247
786.0876	-0.0145
786.2598	-0.0098
786.432	-0.001
786.6042	0.0695
786.7764	-0.0121
786.9486	-0.0152
787.1207	-0.0088
787.2928	0.007
787.4649	-0.0167
787.637	-0.0214
787.8091	0.0075
787.9811	0.0444
788.1532	-0.0076
788.3252	0.0122
788.4972	-0.0164
788.6691	-0.01
788.8411	0.0265
789.013	0.0481
789.1849	-0.0066
789.3568	0.0248
789.5287	0.0745
789.7005	0.0063
789.8723	-0.0231
790.0442	-0.0131
790.2159	-0.0293
790.3877	-0.0151
790.5595	0.0144
790.7312	-0.0227
790.9029	-0.0105
791.0746	-0.0309
791.2463	-0.0141
791.4179	-0.0279
791.5896	0.0157
791.7612	0.0493
791.9328	-0.0127
792.1044	-0.0311
792.2759	-0.0372
792.4474	0.0701
792.619	-0.0517
792.7905	0.0752
792.9619	0.0296
793.1334	0.0917
793.3048	0.0763
793.4762	0.059
793.6476	-0.0188
793.819	0.0038
793.9904	-0.0145
794.1617	-0.0232
794.333	-0.0042
794.5043	0.0457
794.6756	0.0133
794.8469	-0.0014
795.0181	-0.0021
795.1893	0.0287
795.3605	0.0461
795.5317	-0.0074
795.7029	-0.0094
795.874	-0.004
796.0452	-0.0084
796.2163	0.1214
796.3873	0.0836
796.5584	0.092
796.7294	0.0635
796.9005	0.0174
797.0715	-0.0175
797.2425	0.04
797.4134	0.0864
797.5844	-0.0029
797.7553	0.0283
797.9262	0.0639
798.0971	0.1008
798.2679	0.0194
798.4388	0.0612
798.6096	0.0688
798.7804	0.0444
798.9512	0.0411
799.122	0.0126
799.2927	0.0388
799.4635	-0.0455
799.6342	-0.0469
799.8049	0.1266
799.9755	0.0211
800.1462	0.0106
800.3168	0.0555
800.4874	-0.0504
800.658	-0.0006
800.8286	0.0332
800.9991	-0.0159
801.1696	-0.0231
801.3402	-0.0106
801.5106	-0.0252
801.6811	0.0102
801.8516	0.078
802.022	0.0513
802.1924	-0.019
802.3628	0.0318
802.5332	0.081
802.7035	0.125
802.8739	0.0778
803.0442	-0.0549
803.2145	0.0514
803.3847	0.0555
803.555	-0.0219
803.7252	0.0307
803.8954	-0.0135
804.0656	0.049
804.2358	0.0237
804.4059	0.1038
804.5761	0.0536
804.7462	0.0745
804.9163	-0.0129
805.0864	0.01
805.2564	-0.0118
805.4264	0.0373
805.5965	0.0663
805.7665	-0.0383
805.9364	-0.0261
806.1064	0.0055
806.2763	0.018
806.4462	-0.0289
806.6161	0.0006
806.786	-0.0312
806.9559	0.0986
807.1257	-0.0172
807.2955	-0.0223
807.4653	0.0382
807.6351	0.1197
807.8048	0.0106
807.9746	0.0666
808.1443	-0.0111
808.314	0.0139
808.4837	0.0653
808.6533	-0.0307
808.8229	0.0478
808.9926	0.0133
809.1622	0.0466
809.3317	-0.024
809.5013	0.0375
809.6708	0.0286
809.8403	0.0829
810.0098	-0.046
810.1793	-0.0231
810.3488	-0.0158
810.5182	0.1485
810.6876	0.0593
810.857	-0.0306
811.0264	0.0525
811.1958	0.074
811.3651	-0.0214
811.5344	0.0798
811.7037	0.078
811.873	0.1544
812.0422	-0.0855
812.2115	-0.0167
812.3807	-0.0727
812.5499	-0.0186
812.7191	0.0956
812.8882	-0.0649
813.0574	0.0948
813.2265	-0.0272
813.3956	-0.0069
813.5646	0.0867
813.7337	-0.0024
813.9027	-0.0582
814.0718	0.0646
814.2407	0.0092
814.4097	0.0523
814.5787	0.0968
814.7476	0.0503
814.9165	0.0665
815.0854	0.0756
815.2543	0.0592
815.4232	0.1756
815.592	0.1102
815.7608	-0.0171
815.9296	-0.0331
816.0984	0.1786
816.2671	-0.1272
816.4359	0.1856
816.6046	0.1013
816.7733	-0.0466
816.942	-0.044
817.1106	0.03
817.2793	-0.1209
817.4479	0.0209
817.6165	-0.0207
817.785	0.0418
817.9536	0.0444
818.1221	0.0472
818.2906	-0.0941
818.4591	-0.0977
818.6276	-0.0269
818.7961	0.1816
818.9645	0.0799
819.1329	0.1237
819.3013	0.0251
819.4697	-0.1323
819.638	0.0823
819.8064	-0.0043
819.9747	0.1686
820.143	0.0489
820.3113	0.1127
820.4795	0.1426
820.6477	0.1114
820.816	0.07
820.9842	0.094
821.1523	0.1464
821.3205	0.0329
821.4886	-0.0048
821.6567	-0.0287
821.8248	0.2174
821.9929	-0.166
822.1609	-0.0207
822.329	0.066
822.497	0.0799
822.665	0.0187
822.833	-0.005
823.0009	0.0967
823.1688	-0.022
823.3367	-0.1536
823.5046	0.0129
823.6725	0.0736
823.8404	0.1002
824.0082	-0.0445
824.176	0.248
824.3438	0.0909
824.5116	-0.0229
824.6793	0.0665
824.847	0.1098
825.0147	-0.0178
825.1824	0.1062
825.3501	-0.0665
825.5177	0.0466
825.6854	0.1599
825.853	0.0505
826.0206	0.3744
826.1881	0.0913
826.3557	0.1111
826.5232	0.0657
826.6907	-0.0031
826.8582	-0.0757
827.0257	0.0055
827.1931	0.1259
827.3605	0.0304
827.528	0.1303
827.6953	-0.2072
827.8627	0.0263
828.03	0.0695
828.1974	0.1129
828.3647	0.0724
828.532	0.0606
828.6992	-0.0121
828.8665	-0.1692
829.0337	-0.0736
829.2009	-0.0733
829.3681	0.0638
829.5352	-0.3042
829.7024	0.1474
829.8695	0.1845
830.0366	0.1963
830.2037	0.1295
830.3707	0.1798
830.5378	0.1636
830.7048	-0.1491
830.8718	0.1579
831.0388	0.279
831.2057	-0.2368
831.3727	-0.0594
831.5396	0.5557
831.7065	-0.7213
831.8734	0.162
832.0402	0.1464
832.2071	-0.4915
832.3739	0.1291
832.5407	-2.0328
832.7075	-0.3277
832.8742	0.1044
833.041	0.0966
833.2077	0.2766
833.3744	-0.086
833.541	-0.0061
833.7077	0.162
833.8743	0.1293
834.0409	0.0269
834.2075	0.273
834.3741	-0.1446
834.5407	0.0746
834.7072	0.0868
834.8737	0.0893
835.0402	0.2938
835.2067	0.025
835.3731	-0.0018
835.5395	-0.0629
835.706	-0.4038
835.8723	-0.0249
836.0387	0.8461
836.2051	0.4298
836.3714	-0.0712
836.5377	0.0847
836.704	0.4764
836.8703	-0.2031
837.0365	0.415
837.2027	-0.0105
837.3689	0.3205
837.5351	0.1846
837.7013	-0.199
837.8674	-0
838.0335	0.1669
838.1997	-0.1952
838.3657	-0
838.5318	-0
838.6978	1.0206
838.8639	-0.321
839.0299	-0.2049
839.1958	-0.0061
839.3618	0.9201
839.5277	0.1468
839.6937	0.0636
839.8596	-0.1234
840.0254	0.0799
840.1913	-0.2807
840.3571	-0.2294
840.523	-0
840.6888	-0.0081
840.8545	0.1675
841.0203	-0.0565
841.186	0.3891
841.3517	-0.3357
841.5174	0.3995
841.6831	0.1614
841.8488	-0.2113
842.0144	0.159
842.18	0.7647
842.3456	-0.4042
842.5112	-0.6329
842.6767	-0.1666
842.8422	0.2792
843.0077	0.132
843.1732	-0.3578
843.3387	-0
843.5042	-0
843.6696	-0.0198
843.835	-0.1325
844.0004	0.4857
844.1657	-0
844.3311	-0.2685
844.4964	-0.5968
844.6617	0.3293
844.827	-0
844.9923	0.1139
845.1575	-0
845.3227	-0
845.4879	-0.4839
845.6531	0.6013
845.8183	0.3782
845.9834	-0
846.1485	0.0966
846.3136	0.4013
846.4787	-0
846.6438	-0.03
846.8088	-0
846.9738	-0
847.1388	1.1868
847.3038	0.393
847.4687	0.0817
847.6337	-0.2746
847.7986	-0
847.9635	-0.2106
848.1284	-0
848.2932	0.4917
848.458	-0
848.6228	1.6011
848.7876	2.2672
848.9524	-0
849.1172	-1.8352
849.2819	-0.2374
849.4466	1.5723
849.6113	0.2679
849.7759	-0
849.9406	0.411
850.1052	-0
850.2698	0.2374
850.4344	-0.6376
850.599	-0
850.7635	-0
850.928	-0
851.0925	0.8135
851.257	-0
851.4215	-0.1047
851.5859	0.4
851.7503	0.2592
851.9147	-0.2148
852.0791	0.0327
852.2434	0.7853
852.4078	-0
852.5721	0.6394
852.7364	0.1287
852.9007	0.0729
853.0649	-0
853.2291	0.178
853.3934	-0
853.5575	0.2545
853.7217	0.1915
853.8859	-0.0865
854.05	0.1689
854.2141	0.4546
854.3782	0.5094
854.5423	-0
854.7063	-0.2121
854.8703	0.1277
855.0343	-0.0435
855.1983	-0.1687
855.3623	0.1224
855.5262	-0
855.6901	0.8584
855.854	0.5463
856.0179	0.4443
856.1818	1.0563
856.3456	-0
856.5094	-0
856.6732	-0.7421
856.837	-1.189
857.0008	0.4688
857.1645	0.827
857.3282	-0.543
857.4919	0.2409
857.6556	-0
857.8192	0.6473
857.9828	0.0962
858.1465	0.0502
858.31	-0
858.4736	-0.834
858.6372	0.0159
858.8007	0.3106
858.9642	0.8821
859.1277	0.699
859.2911	-0.547
859.4546	-0
859.618	1.2641
859.7814	-0.2181
859.9448	-0
860.1081	0.5166
860.2715	-0
860.4348	1.2436
860.5981	0.6015
860.7614	0.1653
860.9246	-0.1452
861.0879	-0.3216
861.2511	-0.8332
861.4143	-0
861.5774	-0.1268
861.7406	-0.2985
861.9037	-0.4726
862.0668	-0.7524
862.2299	-0.0198
862.393	-0
862.556	-0.1645
862.7191	-0.4597
862.8821	-0.0238
863.0451	-0.0262
863.208	-0.5014
863.371	-0.1775
863.5339	0.3343
863.6968	0.3315
863.8597	-0
864.0225	-0
864.1854	-0.1584
864.3482	-0
864.511	0.7351
864.6737	-0.1296
864.8365	0.6192
864.9992	1.3513
865.1619	0.1963
865.3246	-2.0531
865.4873	-0
865.65	-0
865.8126	0.1528
865.9752	0.3145
866.1378	0.881
866.3004	-0.3822
866.4629	-1.8352
866.6254	-0
866.7879	0.3633
866.9504	-0
867.1129	-0
867.2753	0.2374
867.4377	-0.0992
867.6001	-0.6322
867.7625	-0.1653
867.9249	-0
868.0872	0.0774
868.2495	-0.0919
868.4118	-0.0358
868.5741	-0
868.7363	-0
868.8986	-0.9015
869.0608	-0
869.223	-0.6372
869.3851	-0.5462
869.5473	0.2904
869.7094	0.2316
869.8715	-0.4421
870.0336	0.0321
870.1957	-0.5486
870.3577	0.8464
870.5197	0.1253
870.6817	-0.9133
870.8437	0.1374
871.0057	-0
871.1676	0.5173
871.3295	-0
871.4914	-0
871.6533	0.3435
871.8151	-0
871.977	-0
872.1388	-0
872.3006	-0.751
872.4623	-0
872.6241	0.201
872.7858	0.3743
872.9475	-0
873.1092	0.9272
873.2709	1.0554
873.4325	-1.8565
873.5941	0.415
873.7557	0.3275
873.9173	0.3949
874.0789	0.5941
874.2404	0.4709
874.4019	0.2487
874.5634	-0
874.7249	-0
874.8863	-0.351
875.0478	-0.1196
875.2092	0.7881
875.3706	0.3209
875.5319	0.5534
875.6933	-0
875.8546	-0
876.0159	0.2353
876.1772	-0
876.3385	0.3494
876.4997	-0
876.6609	-0
876.8221	-0
876.9833	-0.3034
877.1445	0.0947
877.3056	-0
877.4667	-0.9148
877.6278	0.6862
877.7889	0.1813
877.9499	-0
878.111	-0.543
878.272	0.1546
878.433	-0
878.5939	0.217
878.7549	-0.0489
878.9158	0.3725
879.0767	-0
879.2376	-0.5715
879.3984	1.1749
879.5593	0.2574
879.7201	-0
879.8809	-0
880.0417	-0.2943
880.2024	0.2163
880.3632	-0
880.5239	0.6009
880.6846	0.9714
880.8452	-0
881.0059	0.45
881.1665	-0.0623
881.3271	0.101
881.4877	-0
881.6483	-1.1928
881.8088	-0
881.9693	-0
882.1298	-0
882.2903	-0
