Data from D4ACN5uM460nmA_Absorbance_13-05-40-955.txt Node
Date: Fri Feb 21 13:05:40 GMT 2025
User: LASERRRRR
Spectrometer: FLMT03099
Trigger mode: 0
Integration Time (sec): 1.500000E-2
Scans to average: 1
Electric dark correction enabled: true
Nonlinearity correction enabled: false
Boxcar width: 0
XAxis mode: Wavelengths
Number of Pixels in Spectrum: 3648
>>>>>Begin Spectral Data<<<<<
179.3399	-0.0453
179.5586	-0.0453
179.7771	-0.0453
179.9957	-0.0876
180.2143	-0
180.4329	-0
180.6514	-0
180.8699	-0.1702
181.0885	-0
181.307	0.116
181.5255	0.4388
181.744	-0
181.9625	0.1247
182.181	-0.3688
182.3994	-0
182.6179	-0.0899
182.8363	0.1753
183.0547	0.314
183.2732	0.1899
183.4916	0.2039
183.71	0.3895
183.9284	0.2364
184.1467	0.2408
184.3651	0.0138
184.5835	0.1063
184.8018	0.2091
185.0201	0.2347
185.2385	0.5369
185.4568	0.1416
185.6751	0.2979
185.8934	0.3618
186.1117	-0.1362
186.3299	0.3748
186.5482	0.1747
186.7664	0.1676
186.9847	0.0605
187.2029	0.4045
187.4211	0.1311
187.6393	0.2939
187.8575	0.0736
188.0757	1.1038
188.2939	0.1199
188.512	0.1833
188.7302	0.3141
188.9483	0.4325
189.1665	0.6228
189.3846	0.249
189.6027	0.0865
189.8208	0.2782
190.0389	0.1718
190.257	0.0931
190.475	0.0718
190.6931	0.2451
190.9111	0.2563
191.1292	0.216
191.3472	0.0221
191.5652	0.4749
191.7832	0.1986
192.0012	0.1839
192.2192	0.2518
192.4371	0.1237
192.6551	0.2753
192.873	0.0904
193.091	0.1852
193.3089	0.205
193.5268	0.2849
193.7447	0.2394
193.9626	0.1464
194.1805	0.2637
194.3984	0.2768
194.6162	0.1928
194.8341	0.3225
195.0519	0.1648
195.2697	0.2123
195.4875	0.2866
195.7054	0.288
195.9231	0.2524
196.1409	0.3539
196.3587	0.2752
196.5765	0.3247
196.7942	0.2967
197.012	0.3056
197.2297	0.2802
197.4474	0.3799
197.6651	0.29
197.8828	0.3337
198.1005	0.383
198.3182	0.3576
198.5358	0.4133
198.7535	0.3787
198.9711	0.3502
199.1888	0.369
199.4064	0.3539
199.624	0.3996
199.8416	0.3866
200.0592	0.4011
200.2767	0.3319
200.4943	0.442
200.7119	0.4168
200.9294	0.3962
201.1469	0.3636
201.3645	0.4179
201.582	0.3927
201.7995	0.4337
202.017	0.3944
202.2344	0.4188
202.4519	0.3878
202.6694	0.3589
202.8868	0.3949
203.1042	0.407
203.3217	0.3974
203.5391	0.4067
203.7565	0.3692
203.9739	0.3763
204.1913	0.3723
204.4086	0.3716
204.626	0.3577
204.8433	0.3624
205.0607	0.3862
205.278	0.3307
205.4953	0.3183
205.7126	0.3446
205.9299	0.3294
206.1472	0.3095
206.3644	0.3485
206.5817	0.3261
206.7989	0.3431
207.0162	0.3049
207.2334	0.3315
207.4506	0.3324
207.6678	0.305
207.885	0.2891
208.1022	0.309
208.3194	0.3042
208.5365	0.2831
208.7537	0.2775
208.9708	0.3121
209.1879	0.3173
209.405	0.301
209.6222	0.2855
209.8392	0.3133
210.0563	0.2815
210.2734	0.2648
210.4905	0.2765
210.7075	0.2771
210.9245	0.2618
211.1416	0.2626
211.3586	0.2728
211.5756	0.2566
211.7926	0.2611
212.0096	0.288
212.2265	0.2576
212.4435	0.2581
212.6604	0.2592
212.8774	0.248
213.0943	0.2667
213.3112	0.2626
213.5281	0.2476
213.745	0.2345
213.9619	0.2574
214.1788	0.2656
214.3956	0.2526
214.6125	0.2492
214.8293	0.2518
215.0461	0.2673
215.2629	0.2526
215.4798	0.2431
215.6965	0.2476
215.9133	0.252
216.1301	0.2449
216.3469	0.2658
216.5636	0.246
216.7803	0.2439
216.9971	0.2661
217.2138	0.2482
217.4305	0.2583
217.6472	0.2628
217.8639	0.2561
218.0805	0.2559
218.2972	0.2491
218.5138	0.2434
218.7305	0.2526
218.9471	0.2587
219.1637	0.2724
219.3803	0.2578
219.5969	0.2497
219.8135	0.2683
220.0301	0.2575
220.2466	0.2767
220.4632	0.2702
220.6797	0.2459
220.8962	0.2675
221.1127	0.2746
221.3292	0.2733
221.5457	0.2809
221.7622	0.2555
221.9787	0.2802
222.1951	0.2785
222.4116	0.2832
222.628	0.2961
222.8444	0.2741
223.0608	0.2832
223.2772	0.2795
223.4936	0.2819
223.71	0.2831
223.9264	0.3015
224.1427	0.2809
224.3591	0.2908
224.5754	0.2867
224.7917	0.2924
225.008	0.2986
225.2243	0.2914
225.4406	0.2942
225.6569	0.3034
225.8732	0.3089
226.0894	0.3124
226.3057	0.3184
226.5219	0.3209
226.7381	0.3234
226.9543	0.3164
227.1705	0.3208
227.3867	0.3189
227.6029	0.333
227.8191	0.3419
228.0352	0.3469
228.2513	0.3518
228.4675	0.353
228.6836	0.3431
228.8997	0.3475
229.1158	0.3495
229.3319	0.3648
229.548	0.3526
229.764	0.3674
229.9801	0.3744
230.1961	0.3786
230.4121	0.3625
230.6282	0.3853
230.8442	0.3974
231.0602	0.3885
231.2761	0.3864
231.4921	0.3861
231.7081	0.3743
231.924	0.3995
232.14	0.4047
232.3559	0.4067
232.5718	0.4174
232.7877	0.4039
233.0036	0.4172
233.2195	0.4124
233.4353	0.4224
233.6512	0.4094
233.867	0.4253
234.0829	0.4234
234.2987	0.4302
234.5145	0.4384
234.7303	0.4332
234.9461	0.4362
235.1619	0.4392
235.3776	0.4436
235.5934	0.4458
235.8091	0.4483
236.0249	0.4397
236.2406	0.4393
236.4563	0.4493
236.672	0.4407
236.8877	0.4465
237.1034	0.4514
237.319	0.4564
237.5347	0.4382
237.7503	0.4608
237.966	0.4537
238.1816	0.4528
238.3972	0.4562
238.6128	0.4515
238.8284	0.4644
239.0439	0.4653
239.2595	0.4595
239.475	0.4607
239.6906	0.4649
239.9061	0.462
240.1216	0.4638
240.3371	0.4545
240.5526	0.4665
240.7681	0.4537
240.9836	0.4521
241.199	0.4548
241.4145	0.4369
241.6299	0.4466
241.8453	0.4356
242.0607	0.4375
242.2761	0.4326
242.4915	0.4297
242.7069	0.4116
242.9223	0.4127
243.1376	0.3971
243.353	0.3997
243.5683	0.3939
243.7836	0.3816
243.9989	0.3757
244.2142	0.3725
244.4295	0.3685
244.6448	0.3632
244.86	0.3496
245.0753	0.3435
245.2905	0.3333
245.5057	0.3235
245.721	0.3372
245.9362	0.3272
246.1514	0.3171
246.3665	0.3094
246.5817	0.2932
246.7969	0.2876
247.012	0.2867
247.2271	0.2913
247.4423	0.2868
247.6574	0.2823
247.8725	0.2667
248.0876	0.2669
248.3026	0.2588
248.5177	0.2542
248.7328	0.2503
248.9478	0.2494
249.1628	0.2471
249.3779	0.2376
249.5929	0.2407
249.8079	0.2367
250.0228	0.2283
250.2378	0.2263
250.4528	0.2267
250.6677	0.2213
250.8827	0.213
251.0976	0.2107
251.3125	0.2179
251.5274	0.2114
251.7423	0.2086
251.9572	0.2071
252.172	0.205
252.3869	0.2088
252.6017	0.2006
252.8166	0.1993
253.0314	0.1926
253.2462	0.1914
253.461	0.1966
253.6758	0.1898
253.8906	0.189
254.1053	0.1957
254.3201	0.19
254.5348	0.1812
254.7496	0.1831
254.9643	0.1904
255.179	0.1898
255.3937	0.1858
255.6083	0.1884
255.823	0.1898
256.0377	0.1773
256.2523	0.1786
256.467	0.1867
256.6816	0.1767
256.8962	0.183
257.1108	0.1818
257.3254	0.1808
257.54	0.1767
257.7545	0.1822
257.9691	0.1809
258.1836	0.1669
258.3981	0.1749
258.6127	0.1722
258.8272	0.1828
259.0417	0.1751
259.2561	0.1777
259.4706	0.1698
259.6851	0.1767
259.8995	0.1705
260.114	0.1727
260.3284	0.1716
260.5428	0.1741
260.7572	0.1773
260.9716	0.1787
261.186	0.17
261.4003	0.1755
261.6147	0.1769
261.829	0.1698
262.0433	0.1718
262.2577	0.1779
262.472	0.1726
262.6863	0.1791
262.9005	0.173
263.1148	0.1739
263.3291	0.1694
263.5433	0.178
263.7576	0.1678
263.9718	0.1711
264.186	0.1752
264.4002	0.1738
264.6144	0.1881
264.8286	0.1766
265.0427	0.1798
265.2569	0.1798
265.471	0.1735
265.6851	0.1781
265.8993	0.1738
266.1134	0.171
266.3275	0.1741
266.5415	0.1763
266.7556	0.1747
266.9697	0.1754
267.1837	0.1761
267.3978	0.1753
267.6118	0.1658
267.8258	0.1767
268.0398	0.1786
268.2538	0.1723
268.4677	0.1757
268.6817	0.1739
268.8957	0.1672
269.1096	0.1668
269.3235	0.1721
269.5374	0.1693
269.7514	0.1713
269.9652	0.1705
270.1791	0.1661
270.393	0.1745
270.6068	0.1707
270.8207	0.165
271.0345	0.1654
271.2483	0.1614
271.4622	0.1681
271.676	0.1638
271.8897	0.1637
272.1035	0.1723
272.3173	0.1634
272.531	0.1648
272.7448	0.1615
272.9585	0.1634
273.1722	0.1597
273.3859	0.1649
273.5996	0.1639
273.8133	0.1645
274.0269	0.1584
274.2406	0.1651
274.4542	0.1691
274.6679	0.1656
274.8815	0.169
275.0951	0.175
275.3087	0.171
275.5223	0.1634
275.7358	0.165
275.9494	0.1703
276.1629	0.1725
276.3765	0.163
276.59	0.1677
276.8035	0.1649
277.017	0.1769
277.2305	0.1675
277.444	0.1745
277.6574	0.174
277.8709	0.1754
278.0843	0.1752
278.2978	0.1701
278.5112	0.1697
278.7246	0.1677
278.938	0.172
279.1513	0.1733
279.3647	0.1721
279.5781	0.1685
279.7914	0.1699
280.0047	0.1718
280.2181	0.1719
280.4314	0.1726
280.6447	0.1786
280.8579	0.1693
281.0712	0.1735
281.2845	0.1713
281.4977	0.1774
281.711	0.1759
281.9242	0.1732
282.1374	0.1807
282.3506	0.1792
282.5638	0.1756
282.7769	0.175
282.9901	0.1768
283.2033	0.1809
283.4164	0.1764
283.6295	0.1806
283.8426	0.1772
284.0557	0.184
284.2688	0.1839
284.4819	0.1808
284.695	0.1875
284.908	0.1787
285.1211	0.1808
285.3341	0.1772
285.5471	0.1807
285.7601	0.1853
285.9731	0.1899
286.1861	0.184
286.3991	0.187
286.612	0.1895
286.825	0.1885
287.0379	0.1879
287.2508	0.187
287.4637	0.191
287.6766	0.1817
287.8895	0.1919
288.1024	0.1944
288.3152	0.1871
288.5281	0.1865
288.7409	0.1938
288.9538	0.187
289.1666	0.1908
289.3794	0.1872
289.5922	0.1899
289.8049	0.191
290.0177	0.1933
290.2304	0.1898
290.4432	0.1937
290.6559	0.1966
290.8686	0.1962
291.0813	0.1905
291.294	0.1951
291.5067	0.1868
291.7194	0.1955
291.932	0.1905
292.1447	0.1962
292.3573	0.1951
292.5699	0.197
292.7825	0.1894
292.9951	0.1854
293.2077	0.1895
293.4203	0.1928
293.6328	0.1952
293.8454	0.1923
294.0579	0.1937
294.2704	0.1964
294.4829	0.1934
294.6954	0.194
294.9079	0.1915
295.1204	0.1888
295.3328	0.2024
295.5453	0.2
295.7577	0.1965
295.9701	0.1979
296.1825	0.1962
296.3949	0.1925
296.6073	0.1834
296.8197	0.199
297.0321	0.1982
297.2444	0.1912
297.4567	0.2
297.6691	0.1906
297.8814	0.1913
298.0937	0.1912
298.306	0.1933
298.5182	0.1978
298.7305	0.1959
298.9428	0.191
299.155	0.1861
299.3672	0.1967
299.5794	0.1888
299.7916	0.1925
300.0038	0.1972
300.216	0.1911
300.4282	0.1898
300.6403	0.2011
300.8525	0.1915
301.0646	0.1943
301.2767	0.1952
301.4888	0.1943
301.7009	0.1925
301.913	0.2013
302.125	0.1876
302.3371	0.1927
302.5491	0.187
302.7612	0.2012
302.9732	0.1967
303.1852	0.1945
303.3972	0.1948
303.6092	0.1918
303.8211	0.193
304.0331	0.1885
304.245	0.195
304.457	0.1887
304.6689	0.1894
304.8808	0.1865
305.0927	0.188
305.3046	0.1854
305.5164	0.1833
305.7283	0.178
305.9401	0.1764
306.152	0.1767
306.3638	0.1827
306.5756	0.1817
306.7874	0.175
306.9992	0.1739
307.2109	0.1727
307.4227	0.1702
307.6344	0.1779
307.8462	0.1693
308.0579	0.1691
308.2696	0.1727
308.4813	0.1643
308.693	0.1596
308.9046	0.1635
309.1163	0.1615
309.328	0.157
309.5396	0.1575
309.7512	0.1529
309.9628	0.1526
310.1744	0.1486
310.386	0.1471
310.5976	0.1487
310.8091	0.1492
311.0207	0.1439
311.2322	0.143
311.4437	0.1426
311.6552	0.146
311.8667	0.1461
312.0782	0.1376
312.2897	0.1383
312.5012	0.1356
312.7126	0.131
312.924	0.1315
313.1355	0.1333
313.3469	0.1299
313.5583	0.1296
313.7696	0.1285
313.981	0.1298
314.1924	0.1286
314.4037	0.1284
314.6151	0.1206
314.8264	0.1316
315.0377	0.1254
315.249	0.1283
315.4603	0.1228
315.6716	0.1287
315.8828	0.1273
316.0941	0.1245
316.3053	0.1185
316.5165	0.1278
316.7277	0.1155
316.9389	0.1227
317.1501	0.1221
317.3613	0.1176
317.5724	0.1239
317.7836	0.1156
317.9947	0.1167
318.2058	0.1174
318.417	0.119
318.6281	0.1153
318.8391	0.1222
319.0502	0.1188
319.2613	0.1189
319.4723	0.1143
319.6834	0.1274
319.8944	0.1172
320.1054	0.1217
320.3164	0.1122
320.5274	0.1172
320.7383	0.1188
320.9493	0.1182
321.1602	0.1175
321.3712	0.1183
321.5821	0.1137
321.793	0.1257
322.0039	0.1199
322.2148	0.1213
322.4257	0.1135
322.6365	0.1167
322.8474	0.1187
323.0582	0.1204
323.269	0.119
323.4798	0.1163
323.6906	0.1136
323.9014	0.1169
324.1122	0.1197
324.3229	0.1245
324.5337	0.1177
324.7444	0.1225
324.9551	0.1193
325.1658	0.1207
325.3765	0.1234
325.5872	0.1289
325.7979	0.1134
326.0085	0.121
326.2192	0.1236
326.4298	0.1215
326.6404	0.119
326.851	0.1207
327.0616	0.1237
327.2722	0.1216
327.4828	0.1239
327.6933	0.1257
327.9039	0.1174
328.1144	0.1291
328.3249	0.1239
328.5354	0.1179
328.7459	0.1271
328.9564	0.1212
329.1669	0.1272
329.3773	0.1252
329.5878	0.1231
329.7982	0.1256
330.0086	0.1315
330.219	0.1218
330.4294	0.1291
330.6398	0.1218
330.8502	0.132
331.0605	0.1243
331.2708	0.1213
331.4812	0.1252
331.6915	0.1262
331.9018	0.1282
332.1121	0.1307
332.3224	0.1266
332.5326	0.1207
332.7429	0.1277
332.9531	0.1291
333.1633	0.1242
333.3735	0.1291
333.5837	0.1289
333.7939	0.127
334.0041	0.1308
334.2143	0.1262
334.4244	0.1324
334.6346	0.1282
334.8447	0.1308
335.0548	0.1348
335.2649	0.1355
335.475	0.1334
335.685	0.1309
335.8951	0.1288
336.1051	0.1383
336.3152	0.1341
336.5252	0.1281
336.7352	0.1338
336.9452	0.135
337.1552	0.1308
337.3652	0.1306
337.5751	0.1385
337.7851	0.1301
337.995	0.1383
338.2049	0.1332
338.4148	0.1373
338.6247	0.1388
338.8346	0.1339
339.0445	0.13
339.2543	0.1335
339.4642	0.1367
339.674	0.1367
339.8838	0.14
340.0936	0.1371
340.3034	0.1321
340.5132	0.1319
340.7229	0.1404
340.9327	0.1482
341.1424	0.1388
341.3522	0.1361
341.5619	0.1437
341.7716	0.1436
341.9813	0.1426
342.1909	0.1468
342.4006	0.1439
342.6102	0.1429
342.8199	0.1378
343.0295	0.1403
343.2391	0.1445
343.4487	0.1524
343.6583	0.1542
343.8679	0.144
344.0774	0.1475
344.287	0.1424
344.4965	0.1531
344.706	0.1527
344.9155	0.1477
345.125	0.1518
345.3345	0.1608
345.544	0.1563
345.7534	0.1543
345.9629	0.1519
346.1723	0.1593
346.3817	0.1578
346.5911	0.1523
346.8005	0.1595
347.0099	0.1571
347.2193	0.1552
347.4286	0.1679
347.638	0.1551
347.8473	0.163
348.0566	0.1565
348.2659	0.1588
348.4752	0.156
348.6845	0.1625
348.8937	0.1565
349.103	0.1633
349.3122	0.1672
349.5214	0.1629
349.7306	0.1718
349.9398	0.1619
350.149	0.1622
350.3582	0.1674
350.5674	0.1655
350.7765	0.169
350.9856	0.1632
351.1948	0.1735
351.4039	0.1695
351.613	0.1772
351.822	0.1788
352.0311	0.1743
352.2402	0.1686
352.4492	0.1739
352.6582	0.1737
352.8672	0.179
353.0762	0.1835
353.2852	0.176
353.4942	0.1711
353.7032	0.1773
353.9121	0.1809
354.1211	0.1805
354.33	0.187
354.5389	0.1768
354.7478	0.1737
354.9567	0.1889
355.1655	0.1883
355.3744	0.1766
355.5833	0.1872
355.7921	0.1863
356.0009	0.1857
356.2097	0.1845
356.4185	0.1913
356.6273	0.187
356.8361	0.1866
357.0448	0.1902
357.2536	0.1888
357.4623	0.1885
357.671	0.197
357.8797	0.1936
358.0884	0.1915
358.2971	0.1953
358.5057	0.1979
358.7144	0.2037
358.923	0.1963
359.1316	0.2034
359.3402	0.201
359.5488	0.1894
359.7574	0.2031
359.966	0.2024
360.1746	0.2014
360.3831	0.2053
360.5916	0.199
360.8002	0.2126
361.0087	0.1996
361.2172	0.2065
361.4256	0.2128
361.6341	0.2146
361.8426	0.217
362.051	0.2141
362.2594	0.2072
362.4678	0.2143
362.6762	0.2117
362.8846	0.2102
363.093	0.2163
363.3014	0.2248
363.5097	0.2222
363.718	0.2321
363.9264	0.2248
364.1347	0.2186
364.343	0.2286
364.5513	0.2198
364.7595	0.2315
364.9678	0.2154
365.176	0.2332
365.3842	0.2308
365.5925	0.232
365.8007	0.2231
366.0089	0.2406
366.217	0.2362
366.4252	0.2332
366.6333	0.2431
366.8415	0.2378
367.0496	0.2407
367.2577	0.2436
367.4658	0.2296
367.6739	0.24
367.882	0.2483
368.09	0.2433
368.2981	0.2471
368.5061	0.2459
368.7141	0.2437
368.9221	0.2449
369.1301	0.2506
369.3381	0.2564
369.5461	0.2536
369.754	0.2509
369.962	0.2438
370.1699	0.2607
370.3778	0.2637
370.5857	0.2539
370.7936	0.2575
371.0015	0.2509
371.2093	0.2597
371.4172	0.2536
371.625	0.2555
371.8328	0.2548
372.0406	0.2636
372.2484	0.2681
372.4562	0.2679
372.664	0.2622
372.8717	0.2618
373.0795	0.2789
373.2872	0.2742
373.4949	0.2721
373.7026	0.2651
373.9103	0.2669
374.118	0.2721
374.3256	0.275
374.5333	0.2666
374.7409	0.2792
374.9485	0.2678
375.1561	0.2763
375.3637	0.2712
375.5713	0.281
375.7789	0.2724
375.9864	0.2765
376.194	0.2859
376.4015	0.2857
376.609	0.2824
376.8165	0.2812
377.024	0.2858
377.2315	0.284
377.4389	0.2751
377.6464	0.295
377.8538	0.2915
378.0612	0.2943
378.2686	0.2874
378.476	0.2989
378.6834	0.2939
378.8908	0.2934
379.0981	0.285
379.3055	0.2982
379.5128	0.2964
379.7201	0.2907
379.9274	0.2987
380.1347	0.2939
380.342	0.3028
380.5492	0.3033
380.7565	0.2903
380.9637	0.2923
381.1709	0.2933
381.3781	0.2977
381.5853	0.3018
381.7925	0.2972
381.9997	0.3125
382.2068	0.3051
382.4139	0.2995
382.6211	0.3072
382.8282	0.3103
383.0353	0.3039
383.2424	0.3109
383.4494	0.3121
383.6565	0.3097
383.8635	0.3079
384.0706	0.3269
384.2776	0.3073
384.4846	0.3135
384.6916	0.3124
384.8986	0.3097
385.1055	0.3088
385.3125	0.3163
385.5194	0.3169
385.7263	0.3073
385.9333	0.315
386.1402	0.3105
386.347	0.31
386.5539	0.3202
386.7608	0.3133
386.9676	0.3144
387.1744	0.308
387.3813	0.3215
387.5881	0.3076
387.7948	0.322
388.0016	0.3241
388.2084	0.3062
388.4151	0.3176
388.6219	0.301
388.8286	0.3135
389.0353	0.3053
389.242	0.3136
389.4487	0.3094
389.6553	0.3062
389.862	0.3052
390.0686	0.3085
390.2753	0.3051
390.4819	0.3076
390.6885	0.3006
390.8951	0.3106
391.1016	0.3044
391.3082	0.2969
391.5147	0.2962
391.7213	0.3034
391.9278	0.288
392.1343	0.2981
392.3408	0.3017
392.5473	0.2881
392.7537	0.2968
392.9602	0.2729
393.1666	0.2931
393.373	0.2856
393.5794	0.2943
393.7858	0.2925
393.9922	0.2828
394.1986	0.2834
394.4049	0.2827
394.6113	0.2816
394.8176	0.2828
395.0239	0.2831
395.2302	0.2825
395.4365	0.288
395.6428	0.2825
395.8491	0.2718
396.0553	0.2737
396.2615	0.2773
396.4678	0.2789
396.674	0.269
396.8802	0.2659
397.0863	0.2729
397.2925	0.2676
397.4987	0.2698
397.7048	0.2808
397.9109	0.2617
398.117	0.2657
398.3231	0.2734
398.5292	0.2671
398.7353	0.2698
398.9413	0.2667
399.1474	0.2663
399.3534	0.2659
399.5594	0.2676
399.7654	0.2633
399.9714	0.2681
400.1774	0.262
400.3833	0.2714
400.5893	0.2708
400.7952	0.2742
401.0011	0.278
401.207	0.2759
401.4129	0.2714
401.6188	0.2622
401.8247	0.2722
402.0305	0.2706
402.2364	0.2619
402.4422	0.2759
402.648	0.259
402.8538	0.2625
403.0596	0.2578
403.2654	0.2751
403.4711	0.2554
403.6768	0.2626
403.8826	0.2682
404.0883	0.2659
404.294	0.2713
404.4997	0.2692
404.7054	0.2647
404.911	0.2709
405.1167	0.2724
405.3223	0.262
405.5279	0.2602
405.7335	0.2592
405.9391	0.2659
406.1447	0.2606
406.3502	0.268
406.5558	0.2674
406.7613	0.2598
406.9668	0.2627
407.1724	0.2645
407.3778	0.2657
407.5833	0.2573
407.7888	0.2628
407.9942	0.2603
408.1997	0.2676
408.4051	0.2663
408.6105	0.2605
408.8159	0.2675
409.0213	0.2623
409.2267	0.27
409.432	0.266
409.6374	0.2683
409.8427	0.2691
410.048	0.2722
410.2533	0.2576
410.4586	0.2652
410.6639	0.2686
410.8691	0.2527
411.0744	0.2642
411.2796	0.2586
411.4848	0.2611
411.69	0.2536
411.8952	0.2633
412.1004	0.2749
412.3056	0.2512
412.5107	0.2763
412.7158	0.2718
412.921	0.2635
413.1261	0.2577
413.3312	0.2717
413.5362	0.2626
413.7413	0.2612
413.9464	0.254
414.1514	0.2574
414.3564	0.2577
414.5614	0.2574
414.7664	0.2516
414.9714	0.2484
415.1764	0.2638
415.3813	0.2498
415.5863	0.2651
415.7912	0.2484
415.9961	0.2622
416.201	0.2669
416.4059	0.2524
416.6108	0.2496
416.8156	0.2603
417.0205	0.2566
417.2253	0.2463
417.4301	0.2534
417.6349	0.2597
417.8397	0.2554
418.0445	0.2522
418.2492	0.2542
418.454	0.2497
418.6587	0.2439
418.8634	0.248
419.0681	0.2457
419.2728	0.2611
419.4775	0.2656
419.6822	0.2421
419.8868	0.2475
420.0915	0.2496
420.2961	0.2431
420.5007	0.2543
420.7053	0.244
420.9099	0.2469
421.1144	0.24
421.319	0.2525
421.5235	0.2365
421.728	0.2519
421.9325	0.2453
422.137	0.2353
422.3415	0.2386
422.546	0.2321
422.7504	0.242
422.9549	0.2439
423.1593	0.2359
423.3637	0.2323
423.5681	0.2381
423.7725	0.2325
423.9769	0.2318
424.1812	0.2266
424.3856	0.2211
424.5899	0.2252
424.7942	0.2255
424.9985	0.2232
425.2028	0.2395
425.4071	0.2345
425.6113	0.2325
425.8156	0.2137
426.0198	0.2188
426.224	0.2275
426.4282	0.2193
426.6324	0.224
426.8366	0.2166
427.0407	0.2238
427.2449	0.2135
427.449	0.22
427.6531	0.218
427.8572	0.2164
428.0613	0.2098
428.2654	0.2171
428.4694	0.208
428.6735	0.2066
428.8775	0.2124
429.0815	0.2064
429.2855	0.1958
429.4895	0.2069
429.6935	0.1967
429.8975	0.1878
430.1014	0.1927
430.3053	0.206
430.5093	0.1969
430.7132	0.1942
430.9171	0.1884
431.1209	0.1908
431.3248	0.1775
431.5286	0.181
431.7325	0.1941
431.9363	0.1728
432.1401	0.181
432.3439	0.1875
432.5477	0.1768
432.7514	0.1736
432.9552	0.1722
433.1589	0.1721
433.3627	0.1781
433.5664	0.1702
433.7701	0.1744
433.9737	0.1761
434.1774	0.164
434.3811	0.1618
434.5847	0.1563
434.7883	0.166
434.9919	0.1533
435.1955	0.1577
435.3991	0.1563
435.6027	0.1494
435.8062	0.1699
436.0098	0.1454
436.2133	0.1473
436.4168	0.1466
436.6203	0.133
436.8238	0.1381
437.0272	0.1435
437.2307	0.1437
437.4341	0.1356
437.6375	0.1279
437.841	0.1276
438.0443	0.1328
438.2477	0.1268
438.4511	0.1239
438.6545	0.1319
438.8578	0.1317
439.0611	0.1252
439.2644	0.1218
439.4677	0.1221
439.671	0.1129
439.8743	0.1291
440.0775	0.1109
440.2808	0.1194
440.484	0.1136
440.6872	0.0992
440.8904	0.0987
441.0936	0.1062
441.2967	0.098
441.4999	0.098
441.703	0.0996
441.9062	0.1029
442.1093	0.1113
442.3124	0.0978
442.5155	0.0995
442.7185	0.0903
442.9216	0.09
443.1246	0.088
443.3276	0.0869
443.5307	0.0808
443.7337	0.0902
443.9366	0.0769
444.1396	0.0846
444.3426	0.086
444.5455	0.0838
444.7484	0.0786
444.9513	0.0769
445.1542	0.0797
445.3571	0.0841
445.56	0.0773
445.7628	0.0704
445.9657	0.0718
446.1685	0.0699
446.3713	0.0813
446.5741	0.0718
446.7769	0.0681
446.9797	0.0762
447.1824	0.0618
447.3852	0.0518
447.5879	0.0582
447.7906	0.048
447.9933	0.0623
448.196	0.0531
448.3986	0.0539
448.6013	0.0492
448.8039	0.0655
449.0066	0.0642
449.2092	0.0598
449.4118	0.0499
449.6143	0.0569
449.8169	0.0499
450.0195	0.0483
450.222	0.0504
450.4245	0.0558
450.627	0.0412
450.8295	0.0383
451.032	0.0404
451.2345	0.0392
451.4369	0.0396
451.6394	0.0412
451.8418	0.0432
452.0442	0.0414
452.2466	0.0376
452.449	0.0352
452.6513	0.0264
452.8537	0.0391
453.056	0.035
453.2583	0.0319
453.4607	0.0299
453.663	0.0348
453.8652	0.0276
454.0675	0.0403
454.2697	0.0353
454.472	0.0235
454.6742	0.0387
454.8764	0.0281
455.0786	0.0339
455.2808	0.0224
455.4829	0.0293
455.6851	0.0306
455.8872	0.0222
456.0893	0.0337
456.2915	0.0193
456.4935	0.0345
456.6956	0.0244
456.8977	0.0249
457.0997	0.0334
457.3018	0.0163
457.5038	0.0239
457.7058	0.0317
457.9078	0.0239
458.1098	0.0222
458.3117	0.0257
458.5137	0.012
458.7156	0.0259
458.9175	0.0153
459.1194	0.0225
459.3213	0.02
459.5232	0.0199
459.725	0.0203
459.9269	0.0271
460.1287	0.0149
460.3305	0.0328
460.5323	0.0161
460.7341	0.0193
460.9359	0.0096
461.1376	0.0198
461.3394	0.0147
461.5411	0.0251
461.7428	0.0199
461.9445	0.0172
462.1462	0.0132
462.3479	0.0142
462.5495	0.0191
462.7512	0.0314
462.9528	0.0099
463.1544	0.0068
463.356	0.011
463.5576	0.0267
463.7592	0.0156
463.9607	0.0226
464.1623	0.012
464.3638	0.0039
464.5653	0.0121
464.7668	0.0164
464.9683	0.0123
465.1697	0.0061
465.3712	0.0044
465.5726	0.0075
465.7741	0.0253
465.9755	0.0105
466.1769	0.0135
466.3782	0.0169
466.5796	0.0163
466.7809	0.0156
466.9823	0.0109
467.1836	0.0055
467.3849	0.007
467.5862	0.0048
467.7875	0.0049
467.9887	0.0133
468.19	0
468.3912	0.0165
468.5924	0.0043
468.7936	0.0035
468.9948	0.0123
469.196	0.0023
469.3972	-0.0011
469.5983	0.0033
469.7994	0.0092
470.0006	0.0072
470.2017	0.0047
470.4027	0.0262
470.6038	0.0016
470.8049	0.0026
471.0059	0.0167
471.2069	0.0078
471.408	0.0172
471.6089	0.0044
471.8099	0.0086
472.0109	0.0055
472.2119	0.0138
472.4128	0.0076
472.6137	0.0075
472.8146	0.0092
473.0155	0.0075
473.2164	0.0038
473.4173	0.0018
473.6181	-0.0018
473.819	0.0117
474.0198	-0.0014
474.2206	-0.0004
474.4214	0.0018
474.6222	0.0006
474.8229	-0.0004
475.0237	0.0092
475.2244	0.0129
475.4251	0.0047
475.6258	-0.0023
475.8265	0.0074
476.0272	0.0005
476.2278	0.0048
476.4285	0.0033
476.6291	0.0054
476.8297	0.0067
477.0303	0.0037
477.2309	0.0014
477.4315	0.0133
477.632	0.0015
477.8326	0.0033
478.0331	0.0021
478.2336	0.0019
478.4341	0.0118
478.6346	0.0005
478.8351	0.0048
479.0355	0.0131
479.236	0.0142
479.4364	0.0005
479.6368	0.0041
479.8372	0.0048
480.0376	0.0041
480.2379	0.0044
480.4383	0.011
480.6386	-0.0005
480.8389	0.0026
481.0392	0.0024
481.2395	0.008
481.4398	0.011
481.6401	0.0086
481.8403	0.0006
482.0405	0.0013
482.2408	0.0076
482.441	0.014
482.6411	0.0078
482.8413	0.0068
483.0415	0.0053
483.2416	0.0049
483.4417	0.0047
483.6419	-0.0043
483.8419	0.0025
484.042	0.0096
484.2421	0.0027
484.4422	0.0056
484.6422	0.0103
484.8422	0.0024
485.0422	0.0056
485.2422	0.0037
485.4422	0.0023
485.6422	0.0052
485.8421	0.0022
486.042	0.0076
486.242	0.0025
486.4419	0.0026
486.6417	-0.0001
486.8416	0.0026
487.0415	-0.002
487.2413	-0.0026
487.4411	0.0079
487.641	-0.0005
487.8408	0.0077
488.0405	0.0097
488.2403	0.0007
488.4401	0.0039
488.6398	0.0094
488.8395	0.0056
489.0392	0.0074
489.2389	0.0081
489.4386	-0.0085
489.6383	0.01
489.8379	0
490.0376	0.0083
490.2372	0.0072
490.4368	0.0019
490.6364	0.0002
490.836	0.0009
491.0355	0.0046
491.2351	0.0037
491.4346	0.001
491.6341	0.0015
491.8336	-0.0004
492.0331	0.0008
492.2326	0.0097
492.432	0.0063
492.6315	0.0084
492.8309	0.0063
493.0303	0.0095
493.2297	0.0052
493.4291	0.0002
493.6284	0.009
493.8278	0.0019
494.0271	-0.002
494.2264	0.0011
494.4257	0.0046
494.625	-0.0022
494.8243	-0.0073
495.0236	0.0082
495.2228	0.005
495.422	0.0013
495.6213	0.0009
495.8205	0.0039
496.0196	0.0015
496.2188	0
496.418	-0.0008
496.6171	-0.0011
496.8162	0.0061
497.0153	0.0066
497.2144	0.0051
497.4135	0.0069
497.6126	0.0038
497.8116	-0.003
498.0107	0.0082
498.2097	0.0078
498.4087	-0.0028
498.6077	-0.0023
498.8067	0.0016
499.0056	0.0065
499.2046	0.0011
499.4035	0.0055
499.6024	-0.0019
499.8013	0.0052
500.0002	0.0106
500.199	0.013
500.3979	0.0007
500.5967	0.0005
500.7956	0.003
500.9944	0.0001
501.1932	0.0064
501.3919	0.0072
501.5907	0.0071
501.7895	0.009
501.9882	0.0016
502.1869	0.0111
502.3856	0.0047
502.5843	0.0049
502.783	-0.0043
502.9816	0.0003
503.1803	0.0011
503.3789	0.005
503.5775	0.0038
503.7761	-0.0011
503.9747	0.0028
504.1732	-0.0051
504.3718	0.0131
504.5703	0.0036
504.7689	-0.0056
504.9674	-0.0001
505.1658	-0.002
505.3643	0.0102
505.5628	0.0078
505.7612	0.0036
505.9597	0.0011
506.1581	-0.0059
506.3565	0.0031
506.5549	-0.0042
506.7532	0.0022
506.9516	0.0008
507.1499	0.0007
507.3482	0.0001
507.5465	0.009
507.7448	0.0017
507.9431	0.001
508.1414	-0.0014
508.3396	0.0103
508.5379	0.005
508.7361	0.0092
508.9343	0.0052
509.1325	0.0158
509.3306	0.0044
509.5288	-0.001
509.7269	0.0014
509.9251	0.0055
510.1232	0.0082
510.3213	0.0049
510.5193	0.0033
510.7174	-0.0041
510.9154	0.0072
511.1135	0.0022
511.3115	0.0066
511.5095	0.0002
511.7075	0.0065
511.9055	0.0059
512.1034	0.0052
512.3014	-0.0005
512.4993	0.0009
512.6972	0.003
512.8951	0.0026
513.093	0.0069
513.2908	0.0159
513.4887	0.0008
513.6865	0.0063
513.8844	0.0142
514.0822	0.0032
514.2799	-0.0015
514.4777	0.0027
514.6755	-0.0051
514.8732	0.0067
515.0709	0.0065
515.2687	0.0073
515.4664	0.0104
515.664	0.0108
515.8617	0.0113
516.0594	0.0012
516.257	-0.0014
516.4546	0.0134
516.6522	0.007
516.8498	0.008
517.0474	0.0024
517.2449	-0.0046
517.4425	0.0037
517.64	0.0093
517.8375	0.0182
518.035	0.0011
518.2325	-0.0038
518.43	0.0005
518.6274	-0.006
518.8249	-0.0083
519.0223	0.0076
519.2197	0.0005
519.4171	0.0011
519.6145	0.0138
519.8118	-0.006
520.0092	-0.0034
520.2065	0.0102
520.4038	-0.0012
520.6011	0.0039
520.7984	0.0116
520.9956	0.0074
521.1929	0.01
521.3901	0.0093
521.5874	0.0158
521.7846	-0.0062
521.9818	0.0013
522.1789	-0.0054
522.3761	0.0076
522.5732	-0.0058
522.7704	-0.0053
522.9675	-0.0023
523.1646	0.0095
523.3617	0.0075
523.5587	0.0042
523.7558	0.008
523.9528	0.0064
524.1498	0.0107
524.3468	0.0123
524.5438	0.0058
524.7408	-0.0034
524.9378	0.0089
525.1347	0.0079
525.3316	-0.0044
525.5285	0.0062
525.7254	0.0076
525.9223	0.0166
526.1192	0.0054
526.316	0.0041
526.5129	0.0047
526.7097	-0.0038
526.9065	0.0078
527.1033	0.003
527.3	-0.0013
527.4968	0.0076
527.6935	-0.0046
527.8903	-0.0018
528.087	0.0062
528.2837	0.0056
528.4804	-0.001
528.677	0.0001
528.8737	-0.0003
529.0703	-0.0026
529.2669	0.003
529.4635	-0.004
529.6601	-0.0082
529.8567	-0.0008
530.0532	0.0093
530.2498	-0.0022
530.4463	-0.0072
530.6428	0.0038
530.8393	0.0093
531.0358	-0.0006
531.2322	-0.0065
531.4287	-0.0032
531.6251	-0.0053
531.8215	-0.0045
532.0179	0.0058
532.2143	0.0008
532.4107	0.0037
532.607	0.001
532.8034	-0.0004
532.9997	0.004
533.196	0.0025
533.3923	0.0131
533.5886	0.0116
533.7848	0.0028
533.9811	0.0049
534.1773	0.0024
534.3735	0.0051
534.5697	0.0034
534.7659	0.0102
534.9621	0.001
535.1582	0.0094
535.3544	0.0065
535.5505	0.0098
535.7466	0.0004
535.9427	0.0012
536.1387	-0.0029
536.3348	0.0069
536.5308	0.0011
536.7269	-0.0024
536.9229	0.003
537.1189	0.0075
537.3148	0.0082
537.5108	0.0073
537.7068	0.0214
537.9027	-0.0043
538.0986	0.0073
538.2945	-0.0059
538.4904	0.0043
538.6863	0.0016
538.8821	0.0084
539.078	0.0022
539.2738	0.003
539.4696	-0.0094
539.6654	0.0101
539.8611	0.0054
540.0569	-0.0009
540.2526	0.0124
540.4484	-0.0061
540.6441	0.0034
540.8398	0.0075
541.0355	-0.0076
541.2311	0.0026
541.4268	0.0117
541.6224	0.0162
541.818	0.005
542.0136	0.0085
542.2092	0.0029
542.4048	0.0061
542.6003	-0.0098
542.7959	0.0059
542.9914	-0.0026
543.1869	-0.0041
543.3824	0.0083
543.5779	0.0029
543.7734	0.0078
543.9688	-0.0024
544.1642	-0.0012
544.3596	0.0088
544.555	-0.0028
544.7504	0.0156
544.9458	0.0113
545.1411	-0.0031
545.3365	0.0026
545.5318	-0.0028
545.7271	0.0156
545.9224	-0.0028
546.1177	0.0095
546.3129	0.0093
546.5081	-0.0046
546.7034	0.0082
546.8986	0.0001
547.0938	-0.0021
547.289	0.0075
547.4841	0.0083
547.6793	-0.0037
547.8744	-0.0001
548.0695	-0.0022
548.2646	0.0027
548.4597	-0.0027
548.6548	0.0045
548.8498	0.0007
549.0448	0.0033
549.2399	0.0098
549.4349	0.008
549.6298	0.0072
549.8248	-0.0051
550.0198	-0.0037
550.2147	0.0088
550.4096	0.0002
550.6045	0.0071
550.7994	0.0176
550.9943	0.0082
551.1892	-0.0122
551.384	0.0068
551.5788	-0.0045
551.7737	0.01
551.9685	0.0025
552.1632	-0.0057
552.358	0.0029
552.5528	0.002
552.7475	-0.0016
552.9422	0.0019
553.1369	0.0088
553.3316	0.0052
553.5263	0.0076
553.7209	0.005
553.9156	0.0085
554.1102	-0.0025
554.3048	-0.0014
554.4994	0.0012
554.694	0.0118
554.8885	0.0012
555.0831	0.0089
555.2776	0.0013
555.4721	-0.0029
555.6666	0.0004
555.8611	0.0012
556.0555	0.0081
556.25	0.0047
556.4444	-0.0001
556.6388	-0.0078
556.8332	-0.0064
557.0276	-0.0022
557.222	-0.0005
557.4163	0.0041
557.6107	0.0092
557.805	0.0093
557.9993	0.0057
558.1936	-0.0144
558.3879	0.0093
558.5821	-0.0068
558.7764	-0.0002
558.9706	-0.0071
559.1648	0.0034
559.359	-0.0066
559.5532	-0.005
559.7473	-0.0148
559.9415	0.0057
560.1356	0.0126
560.3297	-0.0091
560.5238	0.0046
560.7179	0.0051
560.9119	0.0069
561.106	-0.0039
561.3	0.0025
561.494	-0.0062
561.688	-0.0004
561.882	-0.0057
562.076	0.005
562.2699	0.0122
562.4639	0.0155
562.6578	0.0001
562.8517	0.002
563.0456	-0.0002
563.2395	0.0137
563.4333	0.0073
563.6272	0.0033
563.821	0.0076
564.0148	-0.0012
564.2086	0.0051
564.4024	0.0097
564.5961	0.005
564.7899	0.0074
564.9836	-0.003
565.1773	0.0112
565.371	-0.0033
565.5647	-0.0033
565.7584	0.0079
565.952	0.0055
566.1456	0.0054
566.3393	0.0001
566.5329	-0.005
566.7264	0.0035
566.92	-0.0019
567.1136	-0.0074
567.3071	-0.003
567.5006	0.0088
567.6941	0.0007
567.8876	0.0035
568.0811	0.0127
568.2745	-0.0014
568.468	0.0071
568.6614	0.0037
568.8548	-0.0017
569.0482	0.0064
569.2416	0.0048
569.4349	0.0063
569.6283	0.0007
569.8216	0.0101
570.0149	-0.0005
570.2082	0.0076
570.4015	0.0031
570.5947	0.0012
570.788	0.0043
570.9812	0.0038
571.1744	0.0011
571.3676	0.0045
571.5608	0.0047
571.754	0.0077
571.9471	0.0079
572.1402	0.0026
572.3333	0.0061
572.5264	0.0044
572.7195	-0.0022
572.9126	0.0054
573.1057	0.0008
573.2987	-0.0021
573.4917	0.0014
573.6847	-0.0036
573.8777	0.0065
574.0707	0.0012
574.2636	0.0038
574.4566	-0.0021
574.6495	0.0043
574.8424	0.0056
575.0353	0.0057
575.2281	0.0095
575.421	0.0002
575.6138	0.0047
575.8067	0.0041
575.9995	0.001
576.1923	0.0014
576.385	0.0061
576.5778	0.0066
576.7706	0.0006
576.9633	0.0069
577.156	-0.0024
577.3487	0.0011
577.5414	-0.0009
577.734	-0.0003
577.9267	0.0013
578.1193	0.0029
578.3119	-0.0027
578.5045	0.0046
578.6971	-0.0042
578.8897	0.0016
579.0822	0.0088
579.2747	0.0033
579.4673	0.0043
579.6598	0.0038
579.8522	0.002
580.0447	0.0037
580.2372	0.0042
580.4296	0.0091
580.622	0.0018
580.8144	0.0016
581.0068	0.0019
581.1992	0.0015
581.3915	0.0002
581.5839	0.0041
581.7762	0.0025
581.9685	0.0025
582.1608	0.0043
582.353	0.0015
582.5453	0.0038
582.7375	0.0034
582.9298	-0.0019
583.122	0.0016
583.3142	0.0017
583.5063	0.0002
583.6985	0.0011
583.8906	-0.0001
584.0827	0.006
584.2749	-0.0014
584.4669	-0.0023
584.659	0.0028
584.8511	0.0056
585.0431	0.0051
585.2352	0.0029
585.4272	0.0038
585.6192	0.0066
585.8111	-0.0008
586.0031	0.0016
586.195	0.0008
586.387	-0.0025
586.5789	0.0063
586.7708	0.0073
586.9627	0.0043
587.1545	0.0032
587.3464	0.0099
587.5382	0.0006
587.73	0.0082
587.9218	-0.0007
588.1136	-0.003
588.3053	0.0021
588.4971	0.0003
588.6888	-0.001
588.8805	-0.0022
589.0722	0.0134
589.2639	0.0036
589.4556	0.0011
589.6472	0.007
589.8389	0.0037
590.0305	0
590.2221	0.0009
590.4137	-0.0028
590.6052	-0.0001
590.7968	0.0028
590.9883	0.0033
591.1798	0.0093
591.3713	0.0015
591.5628	-0.0001
591.7543	-0.0016
591.9458	0.0022
592.1372	0.0079
592.3286	0.0046
592.52	-0.0016
592.7114	-0.0022
592.9028	0.0036
593.0941	-0.0016
593.2855	0.0045
593.4768	0.0101
593.6681	0.0054
593.8594	0.0054
594.0506	-0.0005
594.2419	0.001
594.4331	0.0068
594.6244	0.0003
594.8156	0.0028
595.0067	-0.0027
595.1979	-0.0004
595.3891	0.0039
595.5802	0.0102
595.7713	0.004
595.9624	0.01
596.1535	0.0004
596.3446	-0.0035
596.5357	0.0052
596.7267	0.0063
596.9177	0.0023
597.1087	-0.0005
597.2997	0.0097
597.4907	-0.0016
597.6817	0.005
597.8726	0.0057
598.0635	0.0008
598.2544	0.0059
598.4453	0.0039
598.6362	-0.0036
598.827	-0.0052
599.0179	0.0025
599.2087	0.0044
599.3995	0.0029
599.5903	0.0062
599.7811	0.0079
599.9718	-0.001
600.1626	0.0005
600.3533	-0.0067
600.544	0.0024
600.7347	-0.0013
600.9254	0.0026
601.116	0.0003
601.3067	0.0038
601.4973	0.0073
601.6879	0.0018
601.8785	0.0004
602.0691	-0.0015
602.2596	0.009
602.4502	0.0055
602.6407	0.009
602.8312	0.0021
603.0217	0.0024
603.2122	0.0034
603.4027	0.0036
603.5931	0.0004
603.7835	0.0101
603.9739	-0.0022
604.1643	0.0028
604.3547	0.008
604.5451	0.007
604.7354	-0.007
604.9257	0.0008
605.116	-0.0042
605.3063	0.0025
605.4966	-0.0013
605.6869	0.006
605.8771	0.0115
606.0673	0.0024
606.2575	0.0027
606.4477	0.0142
606.6379	0.0012
606.8281	0.0034
607.0182	0.003
607.2083	0.0067
607.3985	-0.001
607.5885	0.0045
607.7786	0.0037
607.9687	0.0085
608.1587	0.0085
608.3488	0.0083
608.5388	-0.0026
608.7288	-0.0038
608.9187	0.0001
609.1087	0.0026
609.2986	0.0069
609.4886	0.0034
609.6785	0.0044
609.8684	-0.0037
610.0582	0.0046
610.2481	-0.0048
610.4379	0.0031
610.6278	0.0086
610.8176	-0.0001
611.0074	0.0029
611.1971	0.0024
611.3869	0.0033
611.5766	-0.0087
611.7664	0.0033
611.9561	0.0043
612.1458	0.0072
612.3354	0.0032
612.5251	0.0022
612.7147	0.0098
612.9044	-0.0069
613.094	-0.001
613.2836	0.0004
613.4731	0.0026
613.6627	0.003
613.8522	0.0061
614.0417	0.0072
614.2313	0.0026
614.4207	0.0112
614.6102	0.0094
614.7997	0.0072
614.9891	0.0035
615.1785	0.0001
615.3679	-0.0039
615.5573	0.0048
615.7467	-0.0055
615.9361	0.0084
616.1254	0.004
616.3147	0.0075
616.504	0.0078
616.6933	0.0028
616.8826	0.0026
617.0718	0.0025
617.2611	-0.0005
617.4503	0.0052
617.6395	0.0052
617.8287	0.0067
618.0179	0.0034
618.207	0.0106
618.3961	0.003
618.5853	0.0074
618.7744	-0.0013
618.9634	0.0065
619.1525	0.0065
619.3416	-0.0019
619.5306	0.0041
619.7196	0.0025
619.9086	0.0032
620.0976	-0.01
620.2866	0.0137
620.4755	0
620.6645	0.0171
620.8534	0.0077
621.0423	-0.0014
621.2312	0.0032
621.42	0.0061
621.6089	0.0036
621.7977	0.0004
621.9865	0.0002
622.1753	-0.0038
622.3641	-0.0091
622.5529	0.001
622.7416	-0.0044
622.9303	-0.003
623.1191	0.0055
623.3078	0.0028
623.4964	0.0003
623.6851	0.0098
623.8737	0.004
624.0624	-0.0107
624.251	0.0098
624.4396	0.0096
624.6282	0.0152
624.8167	0.0118
625.0053	0.0077
625.1938	0.0029
625.3823	0.0082
625.5708	-0.0038
625.7593	-0.0051
625.9477	0.0076
626.1362	-0.0155
626.3246	0.0053
626.513	0.0135
626.7014	0.0118
626.8898	0.0083
627.0781	-0.0019
627.2665	0.0071
627.4548	-0.0118
627.6431	-0.0006
627.8314	0.017
628.0197	0.0045
628.2079	-0.0071
628.3962	0.0029
628.5844	0.0093
628.7726	0
628.9608	-0.0047
629.1489	-0.004
629.3371	0.005
629.5252	0.0077
629.7134	0.0056
629.9015	0.0105
630.0895	-0.0079
630.2776	0.0078
630.4657	0.0104
630.6537	0.0073
630.8417	-0.0102
631.0297	-0.0084
631.2177	0.0006
631.4057	0.017
631.5936	-0.0013
631.7815	-0.0011
631.9695	0.0112
632.1574	0.0115
632.3452	0.0044
632.5331	0.0045
632.7209	0.0164
632.9088	0.0051
633.0966	0.0205
633.2844	0.0036
633.4722	0.0152
633.6599	0.0158
633.8477	0.0075
634.0354	0.0244
634.2231	-0.018
634.4108	-0.0062
634.5985	0.0221
634.7861	-0.0114
634.9738	0.0027
635.1614	0.0126
635.349	0.0104
635.5366	0.0024
635.7242	-0.0125
635.9117	0.0095
636.0993	0.0082
636.2868	0.0007
636.4743	-0.0063
636.6618	-0.0215
636.8492	0.0105
637.0367	-0.0033
637.2241	0.0035
637.4115	0.0239
637.5989	0.004
637.7863	0.0203
637.9737	0.0067
638.161	-0.0009
638.3484	-0.0043
638.5357	-0.0036
638.723	0.014
638.9103	-0.0154
639.0975	0.0051
639.2848	0.0103
639.472	0.0155
639.6592	-0.0086
639.8464	0.0021
640.0336	0.0014
640.2208	-0.0085
640.4079	-0.0142
640.595	-0.0159
640.7821	0.0053
640.9692	-0.0076
641.1563	-0.0095
641.3434	0.0072
641.5304	0.0103
641.7174	0.0052
641.9044	0.0016
642.0914	0.0147
642.2784	-0.004
642.4653	0.0003
642.6523	0.008
642.8392	0.0047
643.0261	0.0005
643.213	-0.0106
643.3999	0.027
643.5867	0.0049
643.7735	-0.0184
643.9604	0.003
644.1472	0.017
644.3339	-0.0013
644.5207	-0.0092
644.7075	-0.0026
644.8942	0.0086
645.0809	0.0048
645.2676	-0.0144
645.4543	0.0047
645.6409	0.0117
645.8276	0.0204
646.0142	0.0052
646.2008	-0.0094
646.3874	-0.0117
646.574	0.0038
646.7605	-0.0075
646.9471	-0.0117
647.1336	-0.0178
647.3201	0.0035
647.5066	0.0018
647.6931	-0.0016
647.8795	0.0121
648.0659	0.0022
648.2524	0.011
648.4388	0.0071
648.6252	0.0113
648.8115	-0.0068
648.9979	-0.0008
649.1842	0.0075
649.3705	0.0119
649.5568	-0.0225
649.7431	0.0015
649.9294	0.0016
650.1156	0.0086
650.3018	-0.0105
650.488	0.0111
650.6742	0.0152
650.8604	0.0169
651.0466	-0.0051
651.2327	-0.0115
651.4188	0.0027
651.6049	-0.0056
651.791	-0.001
651.9771	0.0098
652.1632	0.0054
652.3492	-0.0015
652.5352	-0.0015
652.7212	0.0065
652.9072	-0.0058
653.0932	-0.0006
653.2791	0.0157
653.465	0.0263
653.651	0.0025
653.8369	0.0082
654.0227	-0.0105
654.2086	0.0127
654.3944	0.0179
654.5803	0.0003
654.7661	0.0008
654.9519	-0.0031
655.1377	0.0002
655.3234	0.0002
655.5092	0.0002
655.6949	0.0002
655.8806	0.0002
656.0663	0.0002
656.2519	0.0002
656.4376	0.0002
656.6232	0.0002
656.8088	0.0002
656.9945	0.0002
657.18	0.0002
657.3656	0.0002
657.5511	0.0002
657.7367	0.0002
657.9222	0.0002
658.1077	0.0002
658.2932	0.0002
658.4786	0.0002
658.6641	0.0002
658.8495	0.0002
659.0349	0.0002
659.2203	0.0002
659.4057	0.0002
659.591	0.0821
659.7764	0.0172
659.9617	-0.0081
660.147	-0.0016
660.3323	0.0022
660.5176	0.0064
660.7028	-0.0143
660.888	0.0158
661.0733	0.0175
661.2585	-0.0075
661.4436	-0.0067
661.6288	0.0346
661.8139	0.0018
661.9991	-0.0217
662.1842	-0.0042
662.3693	-0.0059
662.5544	0.004
662.7394	-0.0197
662.9245	-0.0054
663.1095	-0.015
663.2945	-0.0146
663.4795	-0.0163
663.6644	0.0148
663.8494	0.0103
664.0343	0.0172
664.2193	-0.0085
664.4042	0.0008
664.589	0.0077
664.7739	0.0047
664.9587	-0.0207
665.1436	0.0022
665.3284	-0.0077
665.5132	-0.0371
665.698	0.0221
665.8827	0.0083
666.0675	-0.0209
666.2522	0.0107
666.4369	-0.0051
666.6216	-0.0037
666.8063	0.018
666.9909	-0.0096
667.1756	-0.0097
667.3602	0.013
667.5448	0.02
667.7294	-0.0012
667.9139	0.0053
668.0985	0.0035
668.283	-0.0084
668.4675	0.0145
668.652	0.0293
668.8365	-0.0133
669.0209	0.0105
669.2054	0.0172
669.3898	0.0332
669.5742	0.0365
669.7586	0.0163
669.943	0.0083
670.1273	-0.0257
670.3117	0.0194
670.496	0.0065
670.6803	-0.0058
670.8646	0.0031
671.0488	0.0154
671.2331	-0.0249
671.4173	0.0115
671.6015	0
671.7857	0.0025
671.9699	0.0084
672.1541	0.0009
672.3382	-0.0093
672.5223	0.0006
672.7064	-0.0019
672.8905	-0.0032
673.0746	0.0026
673.2587	0.0152
673.4427	0.0046
673.6267	0.0101
673.8107	0.0099
673.9947	0.0096
674.1787	0.001
674.3626	0.0032
674.5465	0.0039
674.7304	-0.0093
674.9143	0.0131
675.0982	0.0232
675.2821	-0.0122
675.4659	-0.0127
675.6497	0.014
675.8335	0.0085
676.0173	-0.0024
676.2011	0.0315
676.3849	0.009
676.5686	0.0182
676.7523	0.0097
676.936	0.0096
677.1197	-0.0011
677.3034	0.0329
677.487	-0.0007
677.6706	0.0018
677.8542	0
678.0378	0.0017
678.2214	0.0003
678.405	0.0084
678.5885	0.0145
678.772	-0.0028
678.9555	-0.0047
679.139	0.0055
679.3225	0.014
679.5059	-0.0092
679.6894	0.0033
679.8728	0.0004
680.0562	0.019
680.2395	0.0024
680.4229	-0.0105
680.6062	-0.0078
680.7896	-0.0148
680.9729	0.0053
681.1562	-0.0013
681.3394	-0.0124
681.5227	0.0043
681.7059	0.0053
681.8891	0.0106
682.0723	-0.0044
682.2555	-0.0073
682.4387	0.0075
682.6218	-0.0037
682.805	0.0349
682.9881	0.0049
683.1712	0.0154
683.3542	0.0171
683.5373	-0.0206
683.7203	0.0108
683.9034	-0.0026
684.0864	-0.0067
684.2694	0.0036
684.4523	0.0065
684.6353	0.0037
684.8182	-0.0034
685.0011	0.0168
685.184	0.0022
685.3669	0.0146
685.5498	-0.0089
685.7326	-0.0078
685.9154	-0.0039
686.0982	0.0064
686.281	-0.0162
686.4638	0.0023
686.6465	0.0088
686.8293	-0.0143
687.012	0.0179
687.1947	0.0026
687.3774	0.0076
687.56	-0.0033
687.7427	-0.001
687.9253	-0.0216
688.1079	-0.0192
688.2905	-0.0186
688.4731	0.0269
688.6556	-0.0154
688.8382	-0.0378
689.0207	0.018
689.2032	-0.0019
689.3857	0.003
689.5681	-0.0049
689.7506	0.0289
689.933	-0.0163
690.1154	0.0189
690.2978	0.0009
690.4802	0.0087
690.6626	-0.0002
690.8449	0.0247
691.0272	0.0038
691.2095	-0.0084
691.3918	-0.0043
691.5741	0.0149
691.7563	0.019
691.9386	0.0105
692.1208	0.0114
692.303	-0.0084
692.4852	-0.0004
692.6673	0.0114
692.8495	-0.0163
693.0316	-0.0047
693.2137	0.0003
693.3958	-0.0053
693.5778	0.0069
693.7599	0.0064
693.9419	-0.0013
694.1239	-0.0027
694.3059	0.0065
694.4879	-0.0132
694.6699	-0.0042
694.8518	0.0084
695.0337	0.0009
695.2157	0.0084
695.3975	-0.0056
695.5794	-0.0252
695.7613	0.0125
695.9431	-0.0127
696.1249	0.0057
696.3067	-0.0239
696.4885	0.0224
696.6703	0.0092
696.852	-0.0137
697.0337	0.0087
697.2154	-0.0032
697.3971	0.0037
697.5788	0.0045
697.7605	0.008
697.9421	-0.0027
698.1237	0.0203
698.3053	-0.0192
698.4869	0.007
698.6685	-0.0106
698.85	0.0135
699.0315	-0.0034
699.213	0.0022
699.3945	-0.002
699.576	0.0252
699.7575	0.0122
699.9389	-0.0046
700.1203	-0.0067
700.3017	0.0243
700.4831	0.0406
700.6645	0.0248
700.8458	0.0001
701.0271	0.038
701.2084	0.0152
701.3897	-0.0011
701.571	-0.0007
701.7523	-0.0047
701.9335	0.0318
702.1147	0.0123
702.2959	-0.0048
702.4771	0.0066
702.6583	0.0224
702.8394	-0.0162
703.0205	-0.0045
703.2016	-0.0071
703.3827	-0.0177
703.5638	0.0218
703.7449	0.027
703.9259	0.0311
704.1069	-0.0064
704.2879	0.0104
704.4689	0.0117
704.6499	0.0206
704.8308	0.0109
705.0117	0.0078
705.1927	0.0187
705.3735	0.0108
705.5544	-0.0053
705.7353	-0.0086
705.9161	-0.0099
706.0969	-0.0096
706.2777	0.0024
706.4585	0.0063
706.6393	0.0101
706.82	0.014
707.0007	-0.0062
707.1815	-0.0008
707.3621	0.0158
707.5428	0.0234
707.7235	0.0177
707.9041	-0.0079
708.0847	0.0055
708.2653	0.0165
708.4459	0.006
708.6265	-0.0128
708.807	-0.0048
708.9875	0.0202
709.168	0.0093
709.3485	0.0189
709.529	0.0144
709.7095	-0.0118
709.8899	-0.0026
710.0703	0.0091
710.2507	0.0181
710.4311	-0.0281
710.6115	0.012
710.7918	0.0271
710.9721	0.0063
711.1524	-0.0131
711.3327	-0.0266
711.513	0.0184
711.6932	-0.0104
711.8735	0.0225
712.0537	-0.002
712.2339	-0.0261
712.4141	0.0076
712.5942	-0.0018
712.7744	0.0305
712.9545	0.0287
713.1346	0.0131
713.3147	-0.008
713.4947	-0.0057
713.6748	-0.0125
713.8548	0.0035
714.0348	0.0103
714.2148	0.018
714.3948	0.0102
714.5748	-0.0011
714.7547	0.0135
714.9346	0.0004
715.1145	-0.0069
715.2944	-0.0206
715.4743	0.0266
715.6541	-0.0025
715.834	0.0315
716.0138	0.0141
716.1936	-0.0015
716.3733	0.0164
716.5531	0.0104
716.7328	-0.0025
716.9126	0.0011
717.0923	-0.0137
717.2719	0.0191
717.4516	-0.0113
717.6312	-0.0066
717.8109	0.0377
717.9905	0.0085
718.1701	0.0165
718.3496	-0.0058
718.5292	-0.0273
718.7087	0.0053
718.8882	0.0155
719.0677	-0.0036
719.2472	-0.0042
719.4267	-0.008
719.6061	0.0035
719.7856	0.0295
719.965	-0.0099
720.1443	0.0136
720.3237	0.0174
720.5031	0.0128
720.6824	0.0081
720.8617	0.0088
721.041	0.0057
721.2203	-0.0059
721.3995	-0.023
721.5788	0.021
721.758	0.0047
721.9372	0.0017
722.1164	-0.0257
722.2956	0.0175
722.4747	0.0062
722.6538	-0.0193
722.8329	0.0136
723.012	-0.005
723.1911	-0.002
723.3702	0.0246
723.5492	-0.0229
723.7282	-0.0012
723.9072	0.0259
724.0862	0.0005
724.2652	0.0257
724.4441	0.0058
724.623	-0.0066
724.8019	0.0069
724.9808	-0.006
725.1597	0.0011
725.3385	0.0222
725.5174	-0.0162
725.6962	0.0018
725.875	0.0228
726.0538	-0.0003
726.2325	0.0243
726.4112	-0.0285
726.59	-0.0061
726.7687	-0.0003
726.9474	0.007
727.126	0.0043
727.3047	-0.0184
727.4833	0.0038
727.6619	-0.0081
727.8405	-0.0034
728.0191	0.0209
728.1976	0.005
728.3762	0.0222
728.5547	0.0001
728.7332	0.0035
728.9116	-0.0169
729.0901	0.0013
729.2686	0.0246
729.447	-0.0018
729.6254	-0.0181
729.8038	0.0083
729.9821	-0.004
730.1605	0.011
730.3388	-0.0059
730.5171	0.0146
730.6954	-0.0167
730.8737	0.0008
731.0519	0.0052
731.2302	0.0094
731.4084	-0.0109
731.5866	-0.0122
731.7648	-0.0014
731.9429	0.0269
732.1211	0
732.2992	-0.0082
732.4773	-0.0067
732.6554	-0.0064
732.8335	0.0261
733.0115	-0.0111
733.1896	-0.0108
733.3676	0.0081
733.5456	-0.0081
733.7235	0.0189
733.9015	0.0079
734.0794	-0.0029
734.2574	-0.0152
734.4353	0.005
734.6131	-0.0063
734.791	-0.0097
734.9689	-0.007
735.1467	-0.0109
735.3245	0.0254
735.5023	0.0071
735.68	-0.0016
735.8578	0.0003
736.0355	0.0081
736.2132	-0.0013
736.3909	0.0051
736.5686	-0.018
736.7463	-0.0126
736.9239	-0.0022
737.1015	0.0246
737.2791	0.0081
737.4567	0.0001
737.6343	0.0113
737.8118	0.028
737.9894	-0.009
738.1669	-0.0066
738.3444	0.0288
738.5218	-0.002
738.6993	0.0104
738.8767	0.0127
739.0541	0.0189
739.2315	0.0119
739.4089	0.0325
739.5863	-0.0078
739.7636	-0.002
739.9409	-0.0111
740.1182	-0.0022
740.2955	-0.0011
740.4728	-0.0089
740.65	-0.0191
740.8272	-0.0201
741.0044	-0.0295
741.1816	0.0106
741.3588	-0.0297
741.5359	-0.0209
741.7131	0.0195
741.8902	-0.0028
742.0673	-0.0256
742.2444	0.0072
742.4214	0.0039
742.5985	0.0158
742.7755	-0.0076
742.9525	-0.0197
743.1295	-0.0268
743.3064	0.0124
743.4834	0.0021
743.6603	0.0218
743.8372	-0.0742
744.0141	0.0376
744.191	0.0124
744.3678	-0.0278
744.5446	0.0096
744.7215	-0.0026
744.8982	0.0169
745.075	0.0488
745.2518	-0.0098
745.4285	0.0035
745.6052	-0.0115
745.7819	0.0005
745.9586	-0.0062
746.1353	-0.0164
746.3119	0.0333
746.4885	0.0199
746.6651	-0.0068
746.8417	-0.0304
747.0183	0.0237
747.1948	0.0231
747.3714	0.0005
747.5479	0.0026
747.7244	-0.0077
747.9008	-0.0357
748.0773	0.0174
748.2537	0.0147
748.4301	-0.017
748.6065	-0.0066
748.7829	0.0009
748.9593	-0.0034
749.1356	0.0172
749.3119	0.0004
749.4882	0.0066
749.6645	0.016
749.8408	0.0064
750.017	0.0168
750.1933	-0.0431
750.3695	-0.0016
750.5457	0.0007
750.7218	0.0156
750.898	-0.0241
751.0741	-0.0034
751.2502	-0.0064
751.4263	-0.0009
751.6024	0.0043
751.7784	-0.0181
751.9545	-0.0116
752.1305	-0.0166
752.3065	0.0175
752.4825	-0.0187
752.6584	0.018
752.8344	-0.0036
753.0103	-0.02
753.1862	0.0096
753.3621	-0.0179
753.5379	-0.0196
753.7138	0.0121
753.8896	0.0147
754.0654	0.0004
754.2412	0.0032
754.417	0.0085
754.5927	0.0121
754.7685	0.002
754.9442	0.0117
755.1199	0.0136
755.2956	-0.0029
755.4712	-0.0108
755.6469	0.0021
755.8225	0.0409
755.9981	0.0128
756.1736	-0.0014
756.3492	-0.0079
756.5248	0.0178
756.7003	-0.005
756.8758	0.0017
757.0513	0.0118
757.2267	0.0124
757.4022	-0.0039
757.5776	0.0057
757.753	0.0166
757.9284	0.0034
758.1038	0.0138
758.2791	0.0236
758.4545	-0.0122
758.6298	0.0175
758.8051	0.0189
758.9803	0
759.1556	-0.0079
759.3308	-0.0054
759.506	0.0139
759.6812	-0.0015
759.8564	-0.013
760.0316	-0.0157
760.2067	0.0141
760.3819	-0.0034
760.557	0.0051
760.732	-0.0018
760.9071	0.0367
761.0821	-0.0153
761.2572	0.0003
761.4322	0.0136
761.6072	-0.0127
761.7821	-0.0222
761.9571	0.0102
762.132	0.0187
762.3069	0.0287
762.4818	0.0267
762.6567	0.0023
762.8316	-0.0041
763.0064	0.0177
763.1812	0.0161
763.356	-0.0073
763.5308	0.0107
763.7055	-0.0037
763.8803	-0.0063
764.055	-0.0115
764.2297	0.0003
764.4044	-0.0059
764.579	0.0003
764.7537	0.0182
764.9283	0.0096
765.1029	0.0031
765.2775	0.0116
765.4521	-0.0061
765.6266	0.001
765.8011	-0.006
765.9756	0.0173
766.1501	0.012
766.3246	0.0134
766.4991	0.0162
766.6735	0.0205
766.8479	0.0103
767.0223	0.0001
767.1967	0.0035
767.371	0.0223
767.5454	0.0241
767.7197	0.0477
767.894	0.0115
768.0683	0.0199
768.2425	0.0125
768.4168	-0.0046
768.591	-0.002
768.7652	-0.0255
768.9394	-0.0207
769.1135	-0.0148
769.2877	0.0089
769.4618	0.0141
769.6359	-0.0317
769.81	-0.0064
769.984	0.013
770.1581	0.0099
770.3321	0.0186
770.5061	-0.0063
770.6801	-0.0023
770.8541	-0.0128
771.028	0.0309
771.202	0.0268
771.3759	0.0012
771.5498	0.0068
771.7236	0.0132
771.8975	0.0201
772.0713	0.0135
772.2451	-0.0148
772.4189	-0.0081
772.5927	-0.0448
772.7665	-0.0132
772.9402	0.0118
773.1139	-0.0129
773.2876	-0.0145
773.4613	-0.016
773.635	0.0574
773.8086	0.0383
773.9822	0.0324
774.1558	0.0698
774.3294	0.0653
774.503	0.0302
774.6765	0.0097
774.8501	0.0022
775.0236	0.0619
775.1971	-0.0059
775.3705	0.0025
775.544	-0.0364
775.7174	-0.0072
775.8908	0.029
776.0642	0.037
776.2376	0.0128
776.4109	-0.0067
776.5843	-0.0179
776.7576	0.0121
776.9309	0.0322
777.1041	-0.0413
777.2774	0.0102
777.4506	-0.0461
777.6238	-0.0007
777.797	0.043
777.9702	-0.0357
778.1434	-0.003
778.3165	-0.0538
778.4896	-0.0148
778.6627	0.0006
778.8358	0.0053
779.0089	0.0104
779.1819	0.006
779.3549	0.0112
779.5279	-0.014
779.7009	0.029
779.8739	0.0364
780.0468	-0.0117
780.2197	0.0129
780.3926	-0.0109
780.5655	0.0473
780.7384	-0.0101
780.9112	0.0188
781.0841	0.0166
781.2569	0.0171
781.4297	0.022
781.6024	0.0051
781.7752	0.0516
781.9479	0.0532
782.1206	0.0086
782.2933	0.018
782.466	0.0338
782.6386	-0.0129
782.8113	-0.013
782.9839	-0.0063
783.1565	0.0118
783.329	-0.0045
783.5016	0.0081
783.6741	-0.0202
783.8466	0.0682
784.0191	0.0284
784.1916	-0.0092
784.3641	0.0081
784.5365	0.0188
784.7089	-0.004
784.8813	0.075
785.0537	0.0154
785.2261	-0.0065
785.3984	0.0338
785.5707	0.0038
785.743	0.053
785.9153	0.0016
786.0876	-0.0357
786.2598	-0.0253
786.432	-0.0014
786.6042	0.0219
786.7764	-0.0629
786.9486	-0.0061
787.1207	0.0203
787.2928	0.0238
787.4649	-0.005
787.637	0.0126
787.8091	-0.0005
787.9811	0.0152
788.1532	0.023
788.3252	-0.0176
788.4972	0.0344
788.6691	0.0019
788.8411	-0.0041
789.013	0.0387
789.1849	0.0001
789.3568	0.0129
789.5287	0.0663
789.7005	-0.0202
789.8723	-0.0209
790.0442	-0.0106
790.2159	-0.0384
790.3877	0.0119
790.5595	0.0182
790.7312	-0.0097
790.9029	-0.012
791.0746	0.0283
791.2463	-0.044
791.4179	0.0353
791.5896	0.0502
791.7612	0.027
791.9328	0.0272
792.1044	-0.0077
792.2759	-0.0168
792.4474	-0.001
792.619	0.0036
792.7905	-0.011
792.9619	0.0624
793.1334	0.1253
793.3048	0.0838
793.4762	-0.004
793.6476	-0.0077
793.819	0.0061
793.9904	-0.0177
794.1617	0.0045
794.333	0.0042
794.5043	0.0105
794.6756	0.019
794.8469	-0.0316
795.0181	0.0214
795.1893	0.0467
795.3605	0.0195
795.5317	-0.0162
795.7029	0.0035
795.874	0.0096
796.0452	-0.0264
796.2163	0.0282
796.3873	0.0695
796.5584	0.0117
796.7294	-0.045
796.9005	0.0243
797.0715	-0.0272
797.2425	0.1288
797.4134	0.016
797.5844	-0.0035
797.7553	-0.0566
797.9262	0.0119
798.0971	0.0225
798.2679	-0.0034
798.4388	0.0354
798.6096	0.0284
798.7804	0.0519
798.9512	0.0002
799.122	0.0186
799.2927	-0.0038
799.4635	-0.0229
799.6342	-0.0434
799.8049	0.0599
799.9755	-0.025
800.1462	0.0198
800.3168	0.0232
800.4874	-0.1165
800.658	0.0303
800.8286	0.0291
800.9991	0.0114
801.1696	-0.0224
801.3402	-0.08
801.5106	-0.0222
801.6811	0.0695
801.8516	0.115
802.022	0.0157
802.1924	0.0109
802.3628	0.0003
802.5332	0.0252
802.7035	0.0383
802.8739	0.0563
803.0442	-0.0355
803.2145	0.0255
803.3847	-0.0135
803.555	0.0147
803.7252	-0.0322
803.8954	-0.0237
804.0656	0.0365
804.2358	0.0693
804.4059	0.0241
804.5761	0.0277
804.7462	0.0179
804.9163	-0.0106
805.0864	-0.0316
805.2564	-0.0412
805.4264	-0.0079
805.5965	0.0385
805.7665	0.0417
805.9364	0.0935
806.1064	-0.0204
806.2763	0.0345
806.4462	-0.0276
806.6161	0.0787
806.786	0.0366
806.9559	0.0031
807.1257	-0.0206
807.2955	-0.0488
807.4653	0.016
807.6351	0.0761
807.8048	0.0387
807.9746	0.0167
808.1443	-0.0775
808.314	0.0002
808.4837	-0.0023
808.6533	0.0344
808.8229	-0.0266
808.9926	-0.0025
809.1622	-0.0033
809.3317	-0.0328
809.5013	-0.0382
809.6708	-0.016
809.8403	0.0392
810.0098	0.0259
810.1793	0.0218
810.3488	-0.0167
810.5182	0.1681
810.6876	0.0345
810.857	0.1221
811.0264	-0.0943
811.1958	0.0961
811.3651	0.1096
811.5344	0.1063
811.7037	0.0683
811.873	-0.0014
812.0422	0.0005
812.2115	0.0445
812.3807	0.0239
812.5499	0.0355
812.7191	-0.0428
812.8882	-0.0149
813.0574	0.0773
813.2265	0.1842
813.3956	0.2039
813.5646	0.0483
813.7337	0.0556
813.9027	-0.0519
814.0718	0.0654
814.2407	0.0513
814.4097	0.0593
814.5787	0.0823
814.7476	0.015
814.9165	-0.0248
815.0854	-0.0325
815.2543	0.0798
815.4232	0.0407
815.592	0.1318
815.7608	0.1053
815.9296	0.0415
816.0984	0.0569
816.2671	-0.1295
816.4359	0.0719
816.6046	-0.0374
816.7733	0.0181
816.942	-0.0075
817.1106	0.1152
817.2793	-0.0537
817.4479	0.1096
817.6165	0.0117
817.785	0.0687
817.9536	-0.0337
818.1221	0.0347
818.2906	-0.1364
818.4591	0.0598
818.6276	0.0004
818.7961	-0.0089
818.9645	-0.0046
819.1329	0.5934
819.3013	-0.0419
819.4697	0.0657
819.638	0.1759
819.8064	0.1615
819.9747	0.1294
820.143	-0.0111
820.3113	0.1106
820.4795	0.0464
820.6477	0.0757
820.816	0.0236
820.9842	0.0379
821.1523	0.0572
821.3205	0.0925
821.4886	0.0323
821.6567	-0.0321
821.8248	0.137
821.9929	-0.1483
822.1609	-0.0441
822.329	-0.031
822.497	0.0934
822.665	-0.087
822.833	0.0238
823.0009	0.0297
823.1688	0.1888
823.3367	-0.1398
823.5046	0.0344
823.6725	-0.1338
823.8404	-0.018
824.0082	0.1169
824.176	0.0267
824.3438	0.2327
824.5116	0.0479
824.6793	0.1842
824.847	0.1532
825.0147	0.1572
825.1824	0.277
825.3501	0.4839
825.5177	0.2798
825.6854	-0.1746
825.853	-0.0298
826.0206	0.0584
826.1881	0.023
826.3557	0.1672
826.5232	0.0733
826.6907	-0.0292
826.8582	0.005
827.0257	0.125
827.1931	0.139
827.3605	-0.0796
827.528	-0.0967
827.6953	-0.159
827.8627	-0.0499
828.03	0.1887
828.1974	0.0579
828.3647	0.0491
828.532	0.0588
828.6992	0.281
828.8665	-0.0994
829.0337	0.1469
829.2009	-0.0581
829.3681	0.209
829.5352	-0.2579
829.7024	0.115
829.8695	-0.0358
830.0366	0.1503
830.2037	0.1693
830.3707	0.1128
830.5378	0.2381
830.7048	-0.209
830.8718	0.1868
831.0388	0.3271
831.2057	0.1
831.3727	0.1829
831.5396	0.0748
831.7065	-0.9918
831.8734	0.4919
832.0402	0.27
832.2071	-0.3897
832.3739	0.0778
832.5407	-1.2518
832.7075	-0.1956
832.8742	0.1758
833.041	0.2362
833.2077	0.4973
833.3744	0.0812
833.541	0.0995
833.7077	-0.0574
833.8743	0.0267
834.0409	0.018
834.2075	0.1216
834.3741	0.2787
834.5407	0.3059
834.7072	0.182
834.8737	-0.0141
835.0402	0.5221
835.2067	0.486
835.3731	-0.1484
835.5395	-0.0923
835.706	0.0336
835.8723	0.1473
836.0387	0.3185
836.2051	-0.0663
836.3714	-0.0318
836.5377	0.0994
836.704	0.1921
836.8703	-0.0136
837.0365	-0.4707
837.2027	0.6094
837.3689	0.4216
837.5351	0.0854
837.7013	0.0118
837.8674	-0.2911
838.0335	0.0009
838.1997	0.0019
838.3657	-0
838.5318	-0.0591
838.6978	-0
838.8639	-0.3154
839.0299	0.0151
839.1958	0.147
839.3618	-0
839.5277	-0.0176
839.6937	0.9738
839.8596	-0.0088
840.0254	0.6948
840.1913	0.0807
840.3571	0.2013
840.523	-0
840.6888	0.1548
840.8545	-0.4207
841.0203	0.8541
841.186	0.0087
841.3517	0.4802
841.5174	0.0452
841.6831	0.0011
841.8488	0.0366
842.0144	-0
842.18	0.3093
842.3456	-0.6028
842.5112	-0
842.6767	0.0084
842.8422	0.424
843.0077	-0.0683
843.1732	0.0483
843.3387	0.6428
843.5042	-0
843.6696	0.3285
843.835	-0.0457
844.0004	-0.0733
844.1657	-0
844.3311	-0
844.4964	-0.5635
844.6617	-0
844.827	-0
844.9923	-0
845.1575	-0.1004
845.3227	0.0932
845.4879	0.0401
845.6531	0.6597
845.8183	0.3467
845.9834	-0
846.1485	-0.0244
846.3136	-0.0316
846.4787	-0.2343
846.6438	0.0022
846.8088	-0
846.9738	-0
847.1388	0.1673
847.3038	0.3514
847.4687	0.5719
847.6337	0.0507
847.7986	0.1349
847.9635	-0.1507
848.1284	-0
848.2932	0.771
848.458	-0
848.6228	0.1414
848.7876	0.0882
848.9524	0.3993
849.1172	-0.7677
849.2819	-0
849.4466	-0
849.6113	-0
849.7759	-0
849.9406	-0.0718
850.1052	-1.2384
850.2698	-0.0932
850.4344	-0.7578
850.599	-0.0736
850.7635	0.3733
850.928	0.2294
851.0925	1.0319
851.257	0.3541
851.4215	-0
851.5859	0.3746
851.7503	-0
851.9147	-0
852.0791	0.0765
852.2434	0.4182
852.4078	-0
852.5721	-0
852.7364	-0
852.9007	-0.1763
853.0649	-0
853.2291	0.403
853.3934	-0
853.5575	-0.0627
853.7217	0.2048
853.8859	-0
854.05	-0.5901
854.2141	0.5598
854.3782	-0.3511
854.5423	-0.2789
854.7063	-0.1605
854.8703	-0.0685
855.0343	0.5764
855.1983	1.1152
855.3623	-0
855.5262	0.2338
855.6901	1.0475
855.854	0.536
856.0179	0.907
856.1818	1.0041
856.3456	0.3133
856.5094	0.5504
856.6732	-0.3067
856.837	-1.245
857.0008	0.7824
857.1645	-0.0958
857.3282	-0.5556
857.4919	0.0338
857.6556	-0.2521
857.8192	0.2469
857.9828	-0.1875
858.1465	-0
858.31	0.4697
858.4736	-0.8248
858.6372	0.1751
858.8007	0.8051
858.9642	0.1507
859.1277	0.2107
859.2911	-0.2609
859.4546	-0
859.618	-0
859.7814	-0.3893
859.9448	-0
860.1081	-0.297
860.2715	-1.5223
860.4348	0.1566
860.5981	0.3371
860.7614	-0.0638
860.9246	-0.0911
861.0879	0.3711
861.2511	-0
861.4143	-0
861.5774	0.0401
861.7406	-0.3134
861.9037	-0
862.0668	-0.5798
862.2299	0.7224
862.393	0.0823
862.556	0.5302
862.7191	0.6591
862.8821	0.2168
863.0451	1.9552
863.208	-0
863.371	-0.5495
863.5339	0.3383
863.6968	0.1252
863.8597	-0.0483
864.0225	-0
864.1854	-0.4715
864.3482	-1.1723
864.511	0.1214
864.6737	-0
864.8365	-0.0241
864.9992	1.1622
865.1619	-0.1173
865.3246	-2.0294
865.4873	-0.7373
865.65	0.8638
865.8126	0.6428
865.9752	1.2394
866.1378	0.2673
866.3004	0.0342
866.4629	-2.1229
866.6254	0.9126
866.7879	-0
866.9504	-0
867.1129	-0
867.2753	-0.169
867.4377	0.5859
867.6001	-0.5459
867.7625	0.0867
867.9249	-0.0842
868.0872	0.811
868.2495	1.0639
868.4118	0.7339
868.5741	0.0634
868.7363	-0
868.8986	-0.6381
869.0608	0.3795
869.223	0.2628
869.3851	-0
869.5473	-0.0155
869.7094	0.3382
869.8715	-0
870.0336	-0.0045
870.1957	-0.7799
870.3577	0.3069
870.5197	-0.0411
870.6817	-0.7308
870.8437	0.1025
871.0057	-0
871.1676	-0.0184
871.3295	-0
871.4914	-0
871.6533	-0.3718
871.8151	0.5193
871.977	0.065
872.1388	-0.3653
872.3006	0.2925
872.4623	-0.3092
872.6241	-0
872.7858	1.1023
872.9475	-0.1398
873.1092	0.1358
873.2709	0.7365
873.4325	-1.208
873.5941	0.5342
873.7557	-0
873.9173	1.8513
874.0789	-0
874.2404	-0
874.4019	-0.0426
874.5634	-0
874.7249	-0
874.8863	-0.272
875.0478	-0.1346
875.2092	-0
875.3706	0.678
875.5319	-0.3721
875.6933	0.2975
875.8546	0.4301
876.0159	0.2696
876.1772	0.1742
876.3385	-0
876.4997	0.1489
876.6609	0.0844
876.8221	-0
876.9833	0.0165
877.1445	0.2484
877.3056	-0
877.4667	-0.7799
877.6278	-0
877.7889	-0.3726
877.9499	0.5879
878.111	-0.4207
878.272	-0
878.433	0.3151
878.5939	-0
878.7549	-0
878.9158	-0.1099
879.0767	-0.1693
879.2376	-0
879.3984	0.2065
879.5593	0.0479
879.7201	-1.758
879.8809	-0
880.0417	-0.0583
880.2024	0.0603
880.3632	-0.5637
880.5239	0.1489
880.6846	-0.662
880.8452	0.2789
881.0059	-0.7155
881.1665	-0.1087
881.3271	-0.0929
881.4877	0.3646
881.6483	-0
881.8088	-0.6414
881.9693	-0
882.1298	-0
882.2903	-0
