Data from D4ACN5uM460nmA_Absorbance_13-05-41-615.txt Node
Date: Fri Feb 21 13:05:41 GMT 2025
User: LASERRRRR
Spectrometer: FLMT03099
Trigger mode: 0
Integration Time (sec): 1.500000E-2
Scans to average: 1
Electric dark correction enabled: true
Nonlinearity correction enabled: false
Boxcar width: 0
XAxis mode: Wavelengths
Number of Pixels in Spectrum: 3648
>>>>>Begin Spectral Data<<<<<
179.3399	-0
179.5586	-0
179.7771	-0
179.9957	-0.2981
180.2143	-0
180.4329	-0
180.6514	-0
180.8699	0.2155
181.0885	-0
181.307	0.0578
181.5255	0.715
181.744	-0
181.9625	-0
182.181	-0.3275
182.3994	0.5853
182.6179	0.2537
182.8363	-0
183.0547	-0
183.2732	0.1586
183.4916	0.2503
183.71	0.1494
183.9284	0.1882
184.1467	0.4849
184.3651	0.3658
184.5835	0.1714
184.8018	0.0684
185.0201	0.2128
185.2385	0.1381
185.4568	0.1976
185.6751	0.028
185.8934	0.1962
186.1117	0.0808
186.3299	0.1865
186.5482	0.2062
186.7664	0.2613
186.9847	-0.077
187.2029	0.2275
187.4211	-0.0829
187.6393	0.1453
187.8575	0.1649
188.0757	0.2941
188.2939	0.0614
188.512	0.0457
188.7302	0.1899
188.9483	0.9624
189.1665	0.4752
189.3846	0.3487
189.6027	0.3013
189.8208	0.2873
190.0389	0.1664
190.257	-0.1249
190.475	0.0272
190.6931	0.0747
190.9111	-0.0049
191.1292	0.1295
191.3472	0.0967
191.5652	0.1269
191.7832	0.1569
192.0012	0.108
192.2192	0.2751
192.4371	0.0886
192.6551	0.1573
192.873	0.1787
193.091	0.142
193.3089	0.1553
193.5268	0.2569
193.7447	0.1654
193.9626	0.1666
194.1805	0.2535
194.3984	0.173
194.6162	0.3135
194.8341	0.3415
195.0519	0.1627
195.2697	0.1975
195.4875	0.2723
195.7054	0.2489
195.9231	0.2685
196.1409	0.3425
196.3587	0.3157
196.5765	0.4073
196.7942	0.3517
197.012	0.3467
197.2297	0.2735
197.4474	0.3842
197.6651	0.3895
197.8828	0.3483
198.1005	0.388
198.3182	0.3572
198.5358	0.3322
198.7535	0.3543
198.9711	0.3973
199.1888	0.3454
199.4064	0.3808
199.624	0.3224
199.8416	0.3767
200.0592	0.3844
200.2767	0.3859
200.4943	0.399
200.7119	0.4393
200.9294	0.395
201.1469	0.4193
201.3645	0.4665
201.582	0.3842
201.7995	0.4565
202.017	0.4181
202.2344	0.4111
202.4519	0.4382
202.6694	0.3643
202.8868	0.383
203.1042	0.4752
203.3217	0.3857
203.5391	0.3961
203.7565	0.3791
203.9739	0.3512
204.1913	0.3533
204.4086	0.3533
204.626	0.3741
204.8433	0.3564
205.0607	0.3758
205.278	0.3409
205.4953	0.3484
205.7126	0.3285
205.9299	0.3317
206.1472	0.3098
206.3644	0.3426
206.5817	0.3126
206.7989	0.3243
207.0162	0.3183
207.2334	0.3515
207.4506	0.3335
207.6678	0.2964
207.885	0.3033
208.1022	0.3028
208.3194	0.2985
208.5365	0.3053
208.7537	0.3056
208.9708	0.3047
209.1879	0.2997
209.405	0.282
209.6222	0.2762
209.8392	0.3025
210.0563	0.2939
210.2734	0.2807
210.4905	0.2872
210.7075	0.2733
210.9245	0.2762
211.1416	0.2613
211.3586	0.2646
211.5756	0.2383
211.7926	0.2563
212.0096	0.2646
212.2265	0.2813
212.4435	0.2543
212.6604	0.2556
212.8774	0.2728
213.0943	0.2672
213.3112	0.2508
213.5281	0.2628
213.745	0.2533
213.9619	0.2575
214.1788	0.2648
214.3956	0.2448
214.6125	0.2653
214.8293	0.2309
215.0461	0.2731
215.2629	0.2722
215.4798	0.2587
215.6965	0.2644
215.9133	0.267
216.1301	0.2541
216.3469	0.248
216.5636	0.2662
216.7803	0.2486
216.9971	0.2597
217.2138	0.2355
217.4305	0.2608
217.6472	0.2459
217.8639	0.2626
218.0805	0.2629
218.2972	0.2496
218.5138	0.261
218.7305	0.2757
218.9471	0.2551
219.1637	0.2706
219.3803	0.2522
219.5969	0.2568
219.8135	0.2679
220.0301	0.2668
220.2466	0.2694
220.4632	0.2578
220.6797	0.2592
220.8962	0.2606
221.1127	0.2677
221.3292	0.2815
221.5457	0.2925
221.7622	0.264
221.9787	0.2942
222.1951	0.2781
222.4116	0.2785
222.628	0.2958
222.8444	0.2712
223.0608	0.2929
223.2772	0.3011
223.4936	0.2728
223.71	0.2996
223.9264	0.2836
224.1427	0.2906
224.3591	0.2878
224.5754	0.2879
224.7917	0.2923
225.008	0.2984
225.2243	0.2967
225.4406	0.2843
225.6569	0.3113
225.8732	0.3202
226.0894	0.3051
226.3057	0.3164
226.5219	0.3126
226.7381	0.3245
226.9543	0.3188
227.1705	0.3337
227.3867	0.3306
227.6029	0.3323
227.8191	0.3376
228.0352	0.3319
228.2513	0.3576
228.4675	0.3398
228.6836	0.3407
228.8997	0.3438
229.1158	0.3555
229.3319	0.3562
229.548	0.355
229.764	0.3676
229.9801	0.3788
230.1961	0.3726
230.4121	0.3708
230.6282	0.3792
230.8442	0.3916
231.0602	0.3872
231.2761	0.3757
231.4921	0.3888
231.7081	0.3908
231.924	0.3988
232.14	0.4108
232.3559	0.3988
232.5718	0.4069
232.7877	0.4074
233.0036	0.4177
233.2195	0.4191
233.4353	0.4188
233.6512	0.4203
233.867	0.4211
234.0829	0.4247
234.2987	0.4314
234.5145	0.4461
234.7303	0.4326
234.9461	0.4339
235.1619	0.449
235.3776	0.4358
235.5934	0.4384
235.8091	0.4488
236.0249	0.4549
236.2406	0.4359
236.4563	0.4459
236.672	0.4422
236.8877	0.4454
237.1034	0.4494
237.319	0.4415
237.5347	0.4495
237.7503	0.4534
237.966	0.4678
238.1816	0.4587
238.3972	0.4603
238.6128	0.4598
238.8284	0.4676
239.0439	0.4612
239.2595	0.4602
239.475	0.4618
239.6906	0.4572
239.9061	0.4529
240.1216	0.4533
240.3371	0.4604
240.5526	0.4578
240.7681	0.4517
240.9836	0.4583
241.199	0.453
241.4145	0.453
241.6299	0.443
241.8453	0.4367
242.0607	0.4414
242.2761	0.4378
242.4915	0.429
242.7069	0.4159
242.9223	0.4124
243.1376	0.402
243.353	0.3959
243.5683	0.3891
243.7836	0.3876
243.9989	0.3703
244.2142	0.3741
244.4295	0.3689
244.6448	0.3552
244.86	0.3419
245.0753	0.3437
245.2905	0.3344
245.5057	0.3244
245.721	0.323
245.9362	0.3214
246.1514	0.3221
246.3665	0.3038
246.5817	0.3046
246.7969	0.2969
247.012	0.288
247.2271	0.2872
247.4423	0.2849
247.6574	0.2731
247.8725	0.2737
248.0876	0.2719
248.3026	0.2652
248.5177	0.2554
248.7328	0.2519
248.9478	0.2492
249.1628	0.2445
249.3779	0.2386
249.5929	0.2375
249.8079	0.234
250.0228	0.2309
250.2378	0.233
250.4528	0.2289
250.6677	0.2199
250.8827	0.2186
251.0976	0.2109
251.3125	0.2073
251.5274	0.2086
251.7423	0.2085
251.9572	0.2103
252.172	0.2049
252.3869	0.2086
252.6017	0.2
252.8166	0.1998
253.0314	0.1922
253.2462	0.1905
253.461	0.1935
253.6758	0.1957
253.8906	0.1891
254.1053	0.1921
254.3201	0.1908
254.5348	0.1857
254.7496	0.1902
254.9643	0.1937
255.179	0.1853
255.3937	0.1833
255.6083	0.1879
255.823	0.1823
256.0377	0.177
256.2523	0.1847
256.467	0.1825
256.6816	0.1818
256.8962	0.1799
257.1108	0.182
257.3254	0.187
257.54	0.1768
257.7545	0.184
257.9691	0.1789
258.1836	0.1738
258.3981	0.1805
258.6127	0.1735
258.8272	0.1776
259.0417	0.1736
259.2561	0.172
259.4706	0.174
259.6851	0.1765
259.8995	0.1725
260.114	0.1731
260.3284	0.1715
260.5428	0.1778
260.7572	0.174
260.9716	0.1836
261.186	0.1733
261.4003	0.1725
261.6147	0.1722
261.829	0.1732
262.0433	0.1781
262.2577	0.1752
262.472	0.1789
262.6863	0.1834
262.9005	0.1748
263.1148	0.1764
263.3291	0.1766
263.5433	0.1751
263.7576	0.1775
263.9718	0.1806
264.186	0.1782
264.4002	0.1774
264.6144	0.1766
264.8286	0.1779
265.0427	0.1787
265.2569	0.1743
265.471	0.1827
265.6851	0.183
265.8993	0.1739
266.1134	0.1784
266.3275	0.1782
266.5415	0.1781
266.7556	0.1779
266.9697	0.1783
267.1837	0.1813
267.3978	0.176
267.6118	0.1739
267.8258	0.1771
268.0398	0.1746
268.2538	0.1775
268.4677	0.1737
268.6817	0.1762
268.8957	0.168
269.1096	0.1659
269.3235	0.1696
269.5374	0.1754
269.7514	0.1742
269.9652	0.173
270.1791	0.1664
270.393	0.1711
270.6068	0.1658
270.8207	0.1663
271.0345	0.1663
271.2483	0.1606
271.4622	0.1632
271.676	0.1638
271.8897	0.1635
272.1035	0.171
272.3173	0.1696
272.531	0.1658
272.7448	0.1637
272.9585	0.1651
273.1722	0.1672
273.3859	0.1681
273.5996	0.17
273.8133	0.1732
274.0269	0.1655
274.2406	0.1668
274.4542	0.1629
274.6679	0.1665
274.8815	0.1725
275.0951	0.169
275.3087	0.169
275.5223	0.1723
275.7358	0.1693
275.9494	0.1681
276.1629	0.1679
276.3765	0.171
276.59	0.1668
276.8035	0.1644
277.017	0.1702
277.2305	0.1681
277.444	0.1671
277.6574	0.1756
277.8709	0.1745
278.0843	0.1776
278.2978	0.1749
278.5112	0.171
278.7246	0.1659
278.938	0.1733
279.1513	0.17
279.3647	0.1777
279.5781	0.1738
279.7914	0.1734
280.0047	0.1732
280.2181	0.1694
280.4314	0.174
280.6447	0.1803
280.8579	0.173
281.0712	0.1777
281.2845	0.1737
281.4977	0.1802
281.711	0.1788
281.9242	0.1751
282.1374	0.1763
282.3506	0.1835
282.5638	0.1718
282.7769	0.1765
282.9901	0.178
283.2033	0.1782
283.4164	0.1782
283.6295	0.1756
283.8426	0.1732
284.0557	0.182
284.2688	0.182
284.4819	0.1792
284.695	0.1829
284.908	0.1797
285.1211	0.1845
285.3341	0.174
285.5471	0.1878
285.7601	0.1822
285.9731	0.1869
286.1861	0.1864
286.3991	0.182
286.612	0.1835
286.825	0.1837
287.0379	0.1855
287.2508	0.1826
287.4637	0.1927
287.6766	0.1857
287.8895	0.185
288.1024	0.1894
288.3152	0.1919
288.5281	0.1847
288.7409	0.1941
288.9538	0.1841
289.1666	0.1834
289.3794	0.1867
289.5922	0.1903
289.8049	0.1942
290.0177	0.1913
290.2304	0.1863
290.4432	0.1916
290.6559	0.1972
290.8686	0.1921
291.0813	0.1924
291.294	0.1947
291.5067	0.192
291.7194	0.1926
291.932	0.1934
292.1447	0.1897
292.3573	0.193
292.5699	0.1933
292.7825	0.1898
292.9951	0.1944
293.2077	0.1939
293.4203	0.1939
293.6328	0.1889
293.8454	0.192
294.0579	0.1933
294.2704	0.2001
294.4829	0.1962
294.6954	0.1916
294.9079	0.1887
295.1204	0.1864
295.3328	0.2008
295.5453	0.1969
295.7577	0.1942
295.9701	0.1997
296.1825	0.1986
296.3949	0.1924
296.6073	0.1864
296.8197	0.196
297.0321	0.1943
297.2444	0.1926
297.4567	0.1928
297.6691	0.1892
297.8814	0.1973
298.0937	0.1975
298.306	0.1914
298.5182	0.1941
298.7305	0.1929
298.9428	0.1933
299.155	0.1897
299.3672	0.1916
299.5794	0.1966
299.7916	0.1948
300.0038	0.1891
300.216	0.192
300.4282	0.1917
300.6403	0.1944
300.8525	0.1939
301.0646	0.1945
301.2767	0.1917
301.4888	0.1944
301.7009	0.191
301.913	0.1934
302.125	0.1949
302.3371	0.1882
302.5491	0.1923
302.7612	0.1981
302.9732	0.1947
303.1852	0.1959
303.3972	0.1981
303.6092	0.1923
303.8211	0.1863
304.0331	0.1909
304.245	0.1896
304.457	0.1896
304.6689	0.1933
304.8808	0.1824
305.0927	0.1876
305.3046	0.1851
305.5164	0.1823
305.7283	0.1828
305.9401	0.1757
306.152	0.1837
306.3638	0.1809
306.5756	0.1835
306.7874	0.1735
306.9992	0.1713
307.2109	0.1676
307.4227	0.1711
307.6344	0.1744
307.8462	0.1662
308.0579	0.1707
308.2696	0.1663
308.4813	0.1678
308.693	0.1657
308.9046	0.167
309.1163	0.1571
309.328	0.1543
309.5396	0.158
309.7512	0.1536
309.9628	0.1505
310.1744	0.1481
310.386	0.1446
310.5976	0.1471
310.8091	0.1464
311.0207	0.1497
311.2322	0.139
311.4437	0.1435
311.6552	0.1418
311.8667	0.1454
312.0782	0.1431
312.2897	0.139
312.5012	0.1422
312.7126	0.1326
312.924	0.1347
313.1355	0.1321
313.3469	0.133
313.5583	0.1315
313.7696	0.1284
313.981	0.133
314.1924	0.1251
314.4037	0.1286
314.6151	0.1282
314.8264	0.1307
315.0377	0.1274
315.249	0.1275
315.4603	0.1219
315.6716	0.1273
315.8828	0.1229
316.0941	0.1257
316.3053	0.1246
316.5165	0.1296
316.7277	0.1207
316.9389	0.1207
317.1501	0.1231
317.3613	0.1252
317.5724	0.1217
317.7836	0.1183
317.9947	0.1208
318.2058	0.1192
318.417	0.1207
318.6281	0.1189
318.8391	0.1249
319.0502	0.1228
319.2613	0.1182
319.4723	0.1158
319.6834	0.1221
319.8944	0.1202
320.1054	0.1248
320.3164	0.1185
320.5274	0.1178
320.7383	0.1193
320.9493	0.1199
321.1602	0.1218
321.3712	0.1212
321.5821	0.1199
321.793	0.1261
322.0039	0.1196
322.2148	0.1205
322.4257	0.1152
322.6365	0.1128
322.8474	0.1199
323.0582	0.1221
323.269	0.1175
323.4798	0.1232
323.6906	0.1254
323.9014	0.1175
324.1122	0.1196
324.3229	0.1245
324.5337	0.1194
324.7444	0.1219
324.9551	0.1225
325.1658	0.1137
325.3765	0.1266
325.5872	0.1199
325.7979	0.117
326.0085	0.1181
326.2192	0.1177
326.4298	0.1261
326.6404	0.1238
326.851	0.1251
327.0616	0.1245
327.2722	0.1245
327.4828	0.1255
327.6933	0.1287
327.9039	0.123
328.1144	0.1272
328.3249	0.1242
328.5354	0.1229
328.7459	0.1279
328.9564	0.1269
329.1669	0.1284
329.3773	0.1333
329.5878	0.1232
329.7982	0.1335
330.0086	0.1279
330.219	0.1253
330.4294	0.1336
330.6398	0.1264
330.8502	0.1337
331.0605	0.1298
331.2708	0.1248
331.4812	0.1315
331.6915	0.1275
331.9018	0.127
332.1121	0.133
332.3224	0.1351
332.5326	0.1249
332.7429	0.1254
332.9531	0.1324
333.1633	0.1254
333.3735	0.1267
333.5837	0.1313
333.7939	0.1345
334.0041	0.1322
334.2143	0.1303
334.4244	0.1399
334.6346	0.1317
334.8447	0.1264
335.0548	0.1361
335.2649	0.1346
335.475	0.133
335.685	0.1315
335.8951	0.1322
336.1051	0.1355
336.3152	0.1372
336.5252	0.1316
336.7352	0.1269
336.9452	0.1342
337.1552	0.1338
337.3652	0.1273
337.5751	0.1332
337.7851	0.1261
337.995	0.1375
338.2049	0.1306
338.4148	0.1401
338.6247	0.1373
338.8346	0.1361
339.0445	0.1359
339.2543	0.1334
339.4642	0.1395
339.674	0.1379
339.8838	0.1416
340.0936	0.1391
340.3034	0.1422
340.5132	0.134
340.7229	0.137
340.9327	0.1435
341.1424	0.1345
341.3522	0.1372
341.5619	0.1423
341.7716	0.1428
341.9813	0.144
342.1909	0.1388
342.4006	0.1452
342.6102	0.141
342.8199	0.1426
343.0295	0.1423
343.2391	0.1489
343.4487	0.1483
343.6583	0.1553
343.8679	0.1409
344.0774	0.1413
344.287	0.1489
344.4965	0.1486
344.706	0.1516
344.9155	0.1465
345.125	0.1438
345.3345	0.1561
345.544	0.1478
345.7534	0.1603
345.9629	0.1612
346.1723	0.1531
346.3817	0.1516
346.5911	0.1567
346.8005	0.1625
347.0099	0.1594
347.2193	0.1654
347.4286	0.1659
347.638	0.1642
347.8473	0.1666
348.0566	0.1635
348.2659	0.1625
348.4752	0.161
348.6845	0.1609
348.8937	0.1657
349.103	0.1625
349.3122	0.1676
349.5214	0.1663
349.7306	0.1721
349.9398	0.1679
350.149	0.1639
350.3582	0.1659
350.5674	0.1676
350.7765	0.1735
350.9856	0.1651
351.1948	0.1761
351.4039	0.1705
351.613	0.1678
351.822	0.1818
352.0311	0.1784
352.2402	0.1766
352.4492	0.1728
352.6582	0.1773
352.8672	0.176
353.0762	0.1772
353.2852	0.1812
353.4942	0.1798
353.7032	0.1752
353.9121	0.1825
354.1211	0.1769
354.33	0.1792
354.5389	0.1793
354.7478	0.1788
354.9567	0.1834
355.1655	0.184
355.3744	0.1817
355.5833	0.1866
355.7921	0.1914
356.0009	0.1829
356.2097	0.1771
356.4185	0.1872
356.6273	0.1883
356.8361	0.1862
357.0448	0.1842
357.2536	0.1864
357.4623	0.1949
357.671	0.1916
357.8797	0.1959
358.0884	0.1871
358.2971	0.1949
358.5057	0.2009
358.7144	0.1948
358.923	0.1988
359.1316	0.2046
359.3402	0.2019
359.5488	0.2005
359.7574	0.2065
359.966	0.201
360.1746	0.2007
360.3831	0.2049
360.5916	0.2095
360.8002	0.2035
361.0087	0.2134
361.2172	0.2043
361.4256	0.2175
361.6341	0.2129
361.8426	0.2134
362.051	0.219
362.2594	0.2084
362.4678	0.2108
362.6762	0.2155
362.8846	0.2169
363.093	0.2165
363.3014	0.2206
363.5097	0.2198
363.718	0.2194
363.9264	0.2162
364.1347	0.2186
364.343	0.2194
364.5513	0.2239
364.7595	0.2292
364.9678	0.2263
365.176	0.2371
365.3842	0.2282
365.5925	0.2274
365.8007	0.2255
366.0089	0.2373
366.217	0.2312
366.4252	0.2408
366.6333	0.2386
366.8415	0.235
367.0496	0.2281
367.2577	0.2513
367.4658	0.241
367.6739	0.2372
367.882	0.2406
368.09	0.2381
368.2981	0.2474
368.5061	0.2509
368.7141	0.2457
368.9221	0.2503
369.1301	0.2486
369.3381	0.2557
369.5461	0.2526
369.754	0.2577
369.962	0.2411
370.1699	0.2561
370.3778	0.2657
370.5857	0.2564
370.7936	0.2587
371.0015	0.2521
371.2093	0.2551
371.4172	0.2495
371.625	0.2519
371.8328	0.2506
372.0406	0.2678
372.2484	0.2688
372.4562	0.2657
372.664	0.2675
372.8717	0.2664
373.0795	0.2706
373.2872	0.2671
373.4949	0.2685
373.7026	0.2637
373.9103	0.268
374.118	0.2763
374.3256	0.2742
374.5333	0.2712
374.7409	0.2824
374.9485	0.276
375.1561	0.2665
375.3637	0.2734
375.5713	0.2742
375.7789	0.2793
375.9864	0.2727
376.194	0.2862
376.4015	0.2726
376.609	0.2801
376.8165	0.2855
377.024	0.2841
377.2315	0.2904
377.4389	0.2808
377.6464	0.2838
377.8538	0.2862
378.0612	0.2866
378.2686	0.2818
378.476	0.2965
378.6834	0.2886
378.8908	0.2947
379.0981	0.2972
379.3055	0.2946
379.5128	0.2869
379.7201	0.291
379.9274	0.2977
380.1347	0.2942
380.342	0.3074
380.5492	0.2993
380.7565	0.289
380.9637	0.3034
381.1709	0.2995
381.3781	0.3086
381.5853	0.3046
381.7925	0.295
381.9997	0.3095
382.2068	0.3065
382.4139	0.3049
382.6211	0.2985
382.8282	0.3179
383.0353	0.3108
383.2424	0.3005
383.4494	0.3059
383.6565	0.3072
383.8635	0.3141
384.0706	0.3081
384.2776	0.297
384.4846	0.3109
384.6916	0.3047
384.8986	0.317
385.1055	0.3166
385.3125	0.3149
385.5194	0.2997
385.7263	0.3002
385.9333	0.322
386.1402	0.3132
386.347	0.3107
386.5539	0.3159
386.7608	0.3206
386.9676	0.3137
387.1744	0.307
387.3813	0.3099
387.5881	0.3033
387.7948	0.3145
388.0016	0.3147
388.2084	0.3043
388.4151	0.3138
388.6219	0.3038
388.8286	0.3147
389.0353	0.301
389.242	0.3045
389.4487	0.2984
389.6553	0.2927
389.862	0.3022
390.0686	0.3043
390.2753	0.3084
390.4819	0.3041
390.6885	0.2972
390.8951	0.2898
391.1016	0.3043
391.3082	0.2963
391.5147	0.303
391.7213	0.296
391.9278	0.289
392.1343	0.2998
392.3408	0.2954
392.5473	0.2913
392.7537	0.2874
392.9602	0.2924
393.1666	0.2859
393.373	0.2849
393.5794	0.2901
393.7858	0.2865
393.9922	0.2853
394.1986	0.2847
394.4049	0.2769
394.6113	0.2776
394.8176	0.2798
395.0239	0.2809
395.2302	0.2867
395.4365	0.2744
395.6428	0.278
395.8491	0.2682
396.0553	0.2708
396.2615	0.2704
396.4678	0.2787
396.674	0.2695
396.8802	0.2644
397.0863	0.2738
397.2925	0.2677
397.4987	0.2653
397.7048	0.2786
397.9109	0.2632
398.117	0.2664
398.3231	0.2634
398.5292	0.2597
398.7353	0.2658
398.9413	0.2668
399.1474	0.2568
399.3534	0.2653
399.5594	0.2721
399.7654	0.2583
399.9714	0.2706
400.1774	0.2595
400.3833	0.266
400.5893	0.2587
400.7952	0.2719
401.0011	0.2661
401.207	0.2649
401.4129	0.2632
401.6188	0.2651
401.8247	0.268
402.0305	0.2686
402.2364	0.2645
402.4422	0.262
402.648	0.262
402.8538	0.2638
403.0596	0.2661
403.2654	0.262
403.4711	0.2629
403.6768	0.2592
403.8826	0.2685
404.0883	0.2659
404.294	0.274
404.4997	0.2703
404.7054	0.2645
404.911	0.2548
405.1167	0.2668
405.3223	0.263
405.5279	0.2635
405.7335	0.2639
405.9391	0.2629
406.1447	0.2722
406.3502	0.2562
406.5558	0.262
406.7613	0.2626
406.9668	0.2571
407.1724	0.2599
407.3778	0.2653
407.5833	0.2587
407.7888	0.2591
407.9942	0.2693
408.1997	0.2672
408.4051	0.2636
408.6105	0.266
408.8159	0.2637
409.0213	0.2651
409.2267	0.266
409.432	0.2668
409.6374	0.2646
409.8427	0.2726
410.048	0.2575
410.2533	0.2609
410.4586	0.2621
410.6639	0.2635
410.8691	0.2567
411.0744	0.2642
411.2796	0.2657
411.4848	0.266
411.69	0.2473
411.8952	0.2647
412.1004	0.2563
412.3056	0.2601
412.5107	0.2679
412.7158	0.2679
412.921	0.265
413.1261	0.2618
413.3312	0.2601
413.5362	0.2656
413.7413	0.2629
413.9464	0.2537
414.1514	0.2591
414.3564	0.2615
414.5614	0.2688
414.7664	0.2507
414.9714	0.2446
415.1764	0.2571
415.3813	0.2655
415.5863	0.2662
415.7912	0.2611
415.9961	0.2606
416.201	0.2603
416.4059	0.2565
416.6108	0.2558
416.8156	0.2543
417.0205	0.2516
417.2253	0.252
417.4301	0.2618
417.6349	0.2601
417.8397	0.2562
418.0445	0.2566
418.2492	0.2465
418.454	0.2497
418.6587	0.2589
418.8634	0.251
419.0681	0.2557
419.2728	0.2534
419.4775	0.2627
419.6822	0.2472
419.8868	0.2482
420.0915	0.2484
420.2961	0.236
420.5007	0.2508
420.7053	0.2352
420.9099	0.2389
421.1144	0.243
421.319	0.2352
421.5235	0.2456
421.728	0.2362
421.9325	0.238
422.137	0.2349
422.3415	0.246
422.546	0.233
422.7504	0.2321
422.9549	0.2416
423.1593	0.2341
423.3637	0.2378
423.5681	0.2376
423.7725	0.2349
423.9769	0.235
424.1812	0.2202
424.3856	0.2283
424.5899	0.2226
424.7942	0.2282
424.9985	0.2238
425.2028	0.2418
425.4071	0.2187
425.6113	0.2224
425.8156	0.2232
426.0198	0.2181
426.224	0.2289
426.4282	0.2151
426.6324	0.2183
426.8366	0.2198
427.0407	0.2114
427.2449	0.2096
427.449	0.2183
427.6531	0.2183
427.8572	0.2174
428.0613	0.2155
428.2654	0.2189
428.4694	0.2038
428.6735	0.1978
428.8775	0.2005
429.0815	0.2151
429.2855	0.2104
429.4895	0.2021
429.6935	0.2025
429.8975	0.1939
430.1014	0.1973
430.3053	0.194
430.5093	0.1929
430.7132	0.1883
430.9171	0.1875
431.1209	0.1954
431.3248	0.1783
431.5286	0.1872
431.7325	0.192
431.9363	0.1801
432.1401	0.1846
432.3439	0.1777
432.5477	0.1761
432.7514	0.181
432.9552	0.1665
433.1589	0.1739
433.3627	0.18
433.5664	0.1632
433.7701	0.1684
433.9737	0.1695
434.1774	0.1682
434.3811	0.1605
434.5847	0.1568
434.7883	0.1604
434.9919	0.1545
435.1955	0.1534
435.3991	0.156
435.6027	0.1399
435.8062	0.1597
436.0098	0.1428
436.2133	0.1428
436.4168	0.1459
436.6203	0.1447
436.8238	0.1498
437.0272	0.1411
437.2307	0.1384
437.4341	0.134
437.6375	0.1399
437.841	0.1299
438.0443	0.1217
438.2477	0.1243
438.4511	0.1205
438.6545	0.1273
438.8578	0.1297
439.0611	0.1282
439.2644	0.1195
439.4677	0.124
439.671	0.1104
439.8743	0.1252
440.0775	0.1183
440.2808	0.1185
440.484	0.1107
440.6872	0.1132
440.8904	0.1027
441.0936	0.1066
441.2967	0.0962
441.4999	0.0918
441.703	0.0937
441.9062	0.0972
442.1093	0.1105
442.3124	0.0906
442.5155	0.0964
442.7185	0.0942
442.9216	0.0943
443.1246	0.0985
443.3276	0.088
443.5307	0.0838
443.7337	0.0904
443.9366	0.0843
444.1396	0.0748
444.3426	0.0786
444.5455	0.0836
444.7484	0.0742
444.9513	0.0758
445.1542	0.0791
445.3571	0.0735
445.56	0.0721
445.7628	0.0681
445.9657	0.0687
446.1685	0.0699
446.3713	0.0812
446.5741	0.0677
446.7769	0.0719
446.9797	0.0664
447.1824	0.0653
447.3852	0.0477
447.5879	0.0641
447.7906	0.0546
447.9933	0.0613
448.196	0.0513
448.3986	0.0536
448.6013	0.0511
448.8039	0.0647
449.0066	0.0541
449.2092	0.0637
449.4118	0.0532
449.6143	0.0575
449.8169	0.0475
450.0195	0.0519
450.222	0.0501
450.4245	0.0448
450.627	0.0501
450.8295	0.0434
451.032	0.0393
451.2345	0.0434
451.4369	0.0459
451.6394	0.0386
451.8418	0.0478
452.0442	0.0424
452.2466	0.035
452.449	0.043
452.6513	0.0301
452.8537	0.0263
453.056	0.0241
453.2583	0.0311
453.4607	0.022
453.663	0.0341
453.8652	0.0261
454.0675	0.0392
454.2697	0.0302
454.472	0.0311
454.6742	0.0342
454.8764	0.0458
455.0786	0.0377
455.2808	0.0293
455.4829	0.0329
455.6851	0.0266
455.8872	0.0149
456.0893	0.0253
456.2915	0.0204
456.4935	0.0323
456.6956	0.0198
456.8977	0.0223
457.0997	0.0275
457.3018	0.0271
457.5038	0.0322
457.7058	0.0302
457.9078	0.034
458.1098	0.0254
458.3117	0.0266
458.5137	0.0149
458.7156	0.0201
458.9175	0.0265
459.1194	0.0196
459.3213	0.0226
459.5232	0.0292
459.725	0.0184
459.9269	0.0212
460.1287	0.0164
460.3305	0.0243
460.5323	0.0178
460.7341	0.0197
460.9359	0.0059
461.1376	0.0245
461.3394	0.0215
461.5411	0.0274
461.7428	0.022
461.9445	0.0102
462.1462	0.0115
462.3479	0.0087
462.5495	0.0244
462.7512	0.0258
462.9528	0.0159
463.1544	0.0182
463.356	0.0076
463.5576	0.0164
463.7592	0.0147
463.9607	0.0153
464.1623	0.0088
464.3638	0.0097
464.5653	0.0109
464.7668	0.0133
464.9683	0.0144
465.1697	0.0059
465.3712	0.0108
465.5726	0.0082
465.7741	0.0223
465.9755	0.0119
466.1769	0.0058
466.3782	0.0094
466.5796	0.0138
466.7809	0.0209
466.9823	0.0135
467.1836	0.0025
467.3849	0.0075
467.5862	0.0012
467.7875	0.0077
467.9887	0.0066
468.19	0.0167
468.3912	0.0224
468.5924	0.0093
468.7936	0.0052
468.9948	0.0068
469.196	0.0059
469.3972	0.004
469.5983	0.0059
469.7994	0.0083
470.0006	0.0145
470.2017	0.0054
470.4027	0.0209
470.6038	0.0004
470.8049	0.015
471.0059	0.0087
471.2069	0.0131
471.408	0.0124
471.6089	0.007
471.8099	0.0117
472.0109	0.0027
472.2119	0.0135
472.4128	0.007
472.6137	0.004
472.8146	0.0074
473.0155	0.0139
473.2164	0.0082
473.4173	0.0033
473.6181	0.0005
473.819	0.0042
474.0198	-0.0011
474.2206	-0.0023
474.4214	0.0022
474.6222	-0.0076
474.8229	0.0042
475.0237	0.0061
475.2244	0.0141
475.4251	0.0038
475.6258	-0.0007
475.8265	0.0106
476.0272	-0.0005
476.2278	0.0037
476.4285	0.009
476.6291	0.0053
476.8297	0.0172
477.0303	0.0002
477.2309	0.0045
477.4315	0.0102
477.632	-0.0037
477.8326	0.0023
478.0331	0.0179
478.2336	0.0054
478.4341	0.0012
478.6346	-0.0019
478.8351	-0.0003
479.0355	0.0112
479.236	0.008
479.4364	-0.0017
479.6368	-0.0018
479.8372	0.0042
480.0376	0.0143
480.2379	0.0023
480.4383	0.002
480.6386	0.0016
480.8389	0.0028
481.0392	0.0065
481.2395	0.0079
481.4398	0.0076
481.6401	0.006
481.8403	0.0115
482.0405	0.0063
482.2408	0.0104
482.441	0.0075
482.6411	0.006
482.8413	0.0008
483.0415	0.0111
483.2416	-0.001
483.4417	-0.0043
483.6419	-0.0028
483.8419	0.007
484.042	-0.0005
484.2421	0.0034
484.4422	-0.0009
484.6422	0.0078
484.8422	0.0028
485.0422	0.0036
485.2422	0.0031
485.4422	0.0064
485.6422	-0.0004
485.8421	0.0032
486.042	0.0075
486.242	-0.0018
486.4419	0.0062
486.6417	-0.001
486.8416	0.007
487.0415	-0.0002
487.2413	0.0035
487.4411	0.0029
487.641	-0.0021
487.8408	0.0054
488.0405	0.0068
488.2403	0.0039
488.4401	0.0035
488.6398	0.0059
488.8395	0.0067
489.0392	0.0026
489.2389	0.0045
489.4386	-0.0113
489.6383	0.0136
489.8379	-0.0035
490.0376	0.0012
490.2372	0.0018
490.4368	-0.0027
490.6364	-0.0064
490.836	0.0027
491.0355	-0.0024
491.2351	0.0032
491.4346	0.0048
491.6341	-0.0098
491.8336	0.0048
492.0331	0.0001
492.2326	0.0009
492.432	0.0058
492.6315	0.0043
492.8309	0.007
493.0303	0.0002
493.2297	0.0047
493.4291	-0.0023
493.6284	0.0131
493.8278	0.0015
494.0271	0.0004
494.2264	0.0003
494.4257	0.0065
494.625	0.0018
494.8243	-0.0022
495.0236	0.0098
495.2228	0.0143
495.422	0.0071
495.6213	0.0065
495.8205	0.0094
496.0196	0.0085
496.2188	-0.0053
496.418	-0.0042
496.6171	0.0028
496.8162	0.0031
497.0153	0.0044
497.2144	0.0079
497.4135	0.008
497.6126	0.0054
497.8116	-0.0049
498.0107	0.0102
498.2097	0.006
498.4087	0.0029
498.6077	-0.0085
498.8067	0.0055
499.0056	0.0034
499.2046	0.006
499.4035	0.0025
499.6024	-0.0085
499.8013	0.0076
500.0002	0.006
500.199	0.0074
500.3979	-0.0001
500.5967	0.0048
500.7956	0.0113
500.9944	-0
501.1932	0.0024
501.3919	0.0136
501.5907	0.0093
501.7895	0.0037
501.9882	0.0113
502.1869	0.007
502.3856	0.0014
502.5843	0.0035
502.783	0.0069
502.9816	0.0087
503.1803	0.0025
503.3789	0.0044
503.5775	0.0109
503.7761	0.0051
503.9747	0.0062
504.1732	-0.0019
504.3718	0.0165
504.5703	0.0051
504.7689	-0.001
504.9674	0.0016
505.1658	0.0023
505.3643	0.0149
505.5628	0.0155
505.7612	0.003
505.9597	0.0009
506.1581	0.0029
506.3565	0.0042
506.5549	0.0017
506.7532	0.0033
506.9516	0.0053
507.1499	0.0025
507.3482	0.0031
507.5465	0.0089
507.7448	0.0076
507.9431	0.0133
508.1414	0.0028
508.3396	0.0044
508.5379	0.0006
508.7361	0.0029
508.9343	0.0128
509.1325	0.0063
509.3306	-0.0005
509.5288	-0.0047
509.7269	0.0139
509.9251	0.0088
510.1232	0.0086
510.3213	0.0072
510.5193	0.0037
510.7174	0.0029
510.9154	0.001
511.1135	-0.0025
511.3115	0.0011
511.5095	-0.0042
511.7075	0.0006
511.9055	0.0005
512.1034	-0.0027
512.3014	-0.004
512.4993	0.006
512.6972	0.0013
512.8951	0.0135
513.093	-0.0015
513.2908	0.0167
513.4887	0.0082
513.6865	0.0037
513.8844	0.0062
514.0822	0.0001
514.2799	0.0044
514.4777	-0.0063
514.6755	0.0041
514.8732	0.0017
515.0709	-0.0006
515.2687	0.0053
515.4664	0.0112
515.664	0.0133
515.8617	0.0076
516.0594	0.0107
516.257	0.0048
516.4546	0.0128
516.6522	-0.0022
516.8498	0.0072
517.0474	0.0127
517.2449	-0.0004
517.4425	0.0018
517.64	0.0053
517.8375	0.0112
518.035	0.0009
518.2325	-0.0026
518.43	0.0055
518.6274	0.0025
518.8249	-0.0057
519.0223	0.0108
519.2197	0.0008
519.4171	-0.0007
519.6145	0.0066
519.8118	-0.005
520.0092	-0.0034
520.2065	0.0185
520.4038	0.0064
520.6011	0.01
520.7984	0.0045
520.9956	0.0151
521.1929	0.0001
521.3901	0.0083
521.5874	0.0068
521.7846	0.001
521.9818	-0.0006
522.1789	-0.0105
522.3761	0.0107
522.5732	0.0158
522.7704	-0.0072
522.9675	-0.0011
523.1646	-0.0034
523.3617	0.013
523.5587	0.0021
523.7558	0.0032
523.9528	0.0136
524.1498	0.0009
524.3468	0.0095
524.5438	0.0135
524.7408	0.0022
524.9378	0.0008
525.1347	0.0035
525.3316	0.0041
525.5285	0.0019
525.7254	0.0088
525.9223	0.0093
526.1192	0.0085
526.316	0.0036
526.5129	0.0049
526.7097	-0.0047
526.9065	0.0095
527.1033	0.0018
527.3	0.0105
527.4968	0.0174
527.6935	-0.0097
527.8903	0.0005
528.087	0.0069
528.2837	0.0038
528.4804	-0.0003
528.677	0.0069
528.8737	0.0006
529.0703	0.0023
529.2669	0.0151
529.4635	0.0009
529.6601	0.0037
529.8567	0.0027
530.0532	-0.0048
530.2498	0.0009
530.4463	0.0046
530.6428	0.0092
530.8393	0.0125
531.0358	0.0049
531.2322	-0.0028
531.4287	-0.0001
531.6251	-0.0035
531.8215	-0.0012
532.0179	0.0017
532.2143	-0.0014
532.4107	0.0036
532.607	0.0051
532.8034	0.003
532.9997	0.0007
533.196	-0.0056
533.3923	0.0087
533.5886	0.0117
533.7848	-0.0002
533.9811	0.0098
534.1773	0.0037
534.3735	-0.0026
534.5697	-0.0009
534.7659	0.0098
534.9621	-0.0008
535.1582	-0.0025
535.3544	0.0118
535.5505	0.0031
535.7466	0.0029
535.9427	0.0032
536.1387	0.0004
536.3348	0.0042
536.5308	0.0077
536.7269	0.0048
536.9229	0.0093
537.1189	0.0009
537.3148	0.0044
537.5108	-0.0045
537.7068	0.0146
537.9027	-0.0072
538.0986	0.0094
538.2945	0.0048
538.4904	-0.0086
538.6863	0.0053
538.8821	0.0083
539.078	-0.0049
539.2738	0.0023
539.4696	-0.0062
539.6654	-0.0002
539.8611	0.0039
540.0569	0.003
540.2526	0.0066
540.4484	-0.0136
540.6441	-0.0011
540.8398	0.0175
541.0355	-0.0058
541.2311	0.0008
541.4268	0.016
541.6224	0.0198
541.818	0.0086
542.0136	0.0087
542.2092	0.0174
542.4048	-0.0036
542.6003	0.0057
542.7959	0.0067
542.9914	0.0081
543.1869	-0.0011
543.3824	0.0056
543.5779	0.0052
543.7734	0.0129
543.9688	0.0097
544.1642	0.0001
544.3596	0.0031
544.555	-0.0009
544.7504	0.0153
544.9458	0.0012
545.1411	0.0137
545.3365	0.0039
545.5318	0.0077
545.7271	0.007
545.9224	-0.002
546.1177	0.0032
546.3129	0.0158
546.5081	-0.0058
546.7034	-0.0039
546.8986	0.0043
547.0938	0.0037
547.289	0.0116
547.4841	0.004
547.6793	0.0075
547.8744	0.0132
548.0695	0.0019
548.2646	0.0043
548.4597	-0.0068
548.6548	0.009
548.8498	0.0077
549.0448	-0.0026
549.2399	0.012
549.4349	0.0014
549.6298	0.0088
549.8248	-0.0019
550.0198	0.0117
550.2147	0.0078
550.4096	-0.0018
550.6045	0.0032
550.7994	0.0016
550.9943	-0.0034
551.1892	-0.0039
551.384	0.0058
551.5788	-0.0016
551.7737	0.0128
551.9685	0.0004
552.1632	-0.0026
552.358	0.0058
552.5528	0.0098
552.7475	0.0046
552.9422	-0.0012
553.1369	0.0075
553.3316	0.0153
553.5263	0.0077
553.7209	0.0047
553.9156	0.0039
554.1102	0.0035
554.3048	-0.0052
554.4994	0.0064
554.694	0.0022
554.8885	0.0095
555.0831	0.0182
555.2776	0.0069
555.4721	0.0118
555.6666	0.0032
555.8611	0.0021
556.0555	0.0063
556.25	0.0045
556.4444	-0.0067
556.6388	-0.0016
556.8332	0.0057
557.0276	0.0056
557.222	-0.0008
557.4163	-0.0027
557.6107	0.0074
557.805	-0.0099
557.9993	0.0073
558.1936	0.0037
558.3879	-0.003
558.5821	0.0072
558.7764	-0.007
558.9706	0.0024
559.1648	0.0153
559.359	-0.0068
559.5532	-0.0009
559.7473	0.0036
559.9415	0.0099
560.1356	0.0186
560.3297	-0.0045
560.5238	0.0024
560.7179	-0.0014
560.9119	0.0028
561.106	-0.0045
561.3	0.0024
561.494	-0.0057
561.688	-0.0018
561.882	0.0048
562.076	0.0067
562.2699	0.0099
562.4639	0.0133
562.6578	0.0052
562.8517	0.0095
563.0456	-0.0028
563.2395	0.0027
563.4333	0.0029
563.6272	0.0004
563.821	0.0049
564.0148	-0.0002
564.2086	0.0048
564.4024	0.0119
564.5961	0.0058
564.7899	0.0118
564.9836	0.0039
565.1773	0.0086
565.371	0.0044
565.5647	0.0055
565.7584	0.0148
565.952	0.0005
566.1456	0.0024
566.3393	0.0031
566.5329	0.0012
566.7264	0.0037
566.92	0.0058
567.1136	0.0027
567.3071	-0.0042
567.5006	0.0122
567.6941	-0.0021
567.8876	0.004
568.0811	0.0181
568.2745	-0.0043
568.468	0.0035
568.6614	0.0099
568.8548	0.0016
569.0482	0.0102
569.2416	0.0086
569.4349	0.0021
569.6283	0.0039
569.8216	0.0079
570.0149	-0.0026
570.2082	0.0099
570.4015	0.0003
570.5947	0.0023
570.788	0.0042
570.9812	-0.0023
571.1744	0.0087
571.3676	0.0001
571.5608	0.0058
571.754	0.0034
571.9471	0.0061
572.1402	0.0004
572.3333	0.0061
572.5264	-0.0009
572.7195	-0.0005
572.9126	0.0018
573.1057	0.0014
573.2987	0.004
573.4917	0.0035
573.6847	0.0062
573.8777	0.0067
574.0707	0.0061
574.2636	0.0045
574.4566	0.0018
574.6495	-0.0019
574.8424	0.0044
575.0353	0.009
575.2281	0.0062
575.421	0.0006
575.6138	0.0029
575.8067	0.006
575.9995	0.0035
576.1923	-0.0002
576.385	0.0018
576.5778	0.0036
576.7706	0.0031
576.9633	0.0059
577.156	-0.0047
577.3487	0.0015
577.5414	0.0044
577.734	0.0028
577.9267	0.0042
578.1193	0.0046
578.3119	-0.002
578.5045	0.0029
578.6971	-0.0013
578.8897	0.0011
579.0822	0.0055
579.2747	0.0019
579.4673	0.0065
579.6598	0.0043
579.8522	0.0028
580.0447	0.0043
580.2372	0.009
580.4296	0.01
580.622	0.0028
580.8144	0.0067
581.0068	0.0029
581.1992	0.0036
581.3915	0.0001
581.5839	0.0052
581.7762	0
581.9685	0.0032
582.1608	0.0003
582.353	0.0052
582.5453	0.0035
582.7375	0.0042
582.9298	-0.001
583.122	-0.0015
583.3142	0.0051
583.5063	0.002
583.6985	0.0008
583.8906	-0
584.0827	0.0067
584.2749	0.0069
584.4669	0.003
584.659	0.0061
584.8511	0.0093
585.0431	0.0041
585.2352	-0.0004
585.4272	0.002
585.6192	0.0042
585.8111	0.0017
586.0031	0.005
586.195	0.0006
586.387	-0.0022
586.5789	0.0034
586.7708	0.0043
586.9627	0.002
587.1545	0.0093
587.3464	0.0043
587.5382	0.0026
587.73	0.0094
587.9218	0.0011
588.1136	-0.0006
588.3053	0.0068
588.4971	0.0045
588.6888	-0.0014
588.8805	0.0013
589.0722	0.0084
589.2639	0.0042
589.4556	0.0064
589.6472	0.0065
589.8389	0.0056
590.0305	0.0017
590.2221	0.0133
590.4137	-0.0013
590.6052	0.0018
590.7968	0.0056
590.9883	-0.002
591.1798	0.0027
591.3713	0.0015
591.5628	0.0002
591.7543	0.0094
591.9458	0.0019
592.1372	0.0077
592.3286	-0.0014
592.52	0.0039
592.7114	0.0017
592.9028	0.0118
593.0941	-0.0002
593.2855	0.0017
593.4768	0.0108
593.6681	0.0082
593.8594	0.0057
594.0506	0.0043
594.2419	0.0081
594.4331	0.0076
594.6244	0.0017
594.8156	0.0007
595.0067	-0.0012
595.1979	0.0001
595.3891	0.0003
595.5802	0.0048
595.7713	0.0045
595.9624	0.0112
596.1535	0.0021
596.3446	0.0031
596.5357	0.0089
596.7267	0.0038
596.9177	-0.0027
597.1087	-0.0046
597.2997	0.0045
597.4907	-0.0079
597.6817	0.0109
597.8726	0.0031
598.0635	0.0047
598.2544	0.0046
598.4453	0.0027
598.6362	0.0023
598.827	0.0004
599.0179	0.0014
599.2087	0.008
599.3995	0.009
599.5903	0.0072
599.7811	0.0076
599.9718	-0.0004
600.1626	-0.0039
600.3533	0.0023
600.544	0.0031
600.7347	0.007
600.9254	0.0057
601.116	0.0039
601.3067	0.0011
601.4973	0.0048
601.6879	0.0059
601.8785	0.0113
602.0691	0.0012
602.2596	0.0025
602.4502	0.0038
602.6407	0.0034
602.8312	0.003
603.0217	0.006
603.2122	0.001
603.4027	0.004
603.5931	0.0045
603.7835	0.0083
603.9739	0.0033
604.1643	0.0137
604.3547	0.008
604.5451	0.0053
604.7354	-0.002
604.9257	0.0016
605.116	-0.0038
605.3063	0.0078
605.4966	0.001
605.6869	0.0077
605.8771	0.0045
606.0673	0.0004
606.2575	-0.0003
606.4477	0.002
606.6379	-0
606.8281	0.0001
607.0182	0.001
607.2083	0.0031
607.3985	-0.0025
607.5885	0.0041
607.7786	0.0039
607.9687	0.0002
608.1587	0.0031
608.3488	0.0051
608.5388	-0.0043
608.7288	-0.001
608.9187	0.0032
609.1087	0.0088
609.2986	0.0109
609.4886	-0.0004
609.6785	0.0042
609.8684	-0.0042
610.0582	-0.0086
610.2481	-0.0023
610.4379	0.0048
610.6278	-0.0003
610.8176	0.0115
611.0074	0.0011
611.1971	-0.0011
611.3869	0.0035
611.5766	-0.0032
611.7664	0.0096
611.9561	0.0083
612.1458	0.0033
612.3354	0.0043
612.5251	0.005
612.7147	0.0049
612.9044	-0.0031
613.094	0.0017
613.2836	-0.0026
613.4731	0.0082
613.6627	0.0083
613.8522	0.0087
614.0417	0.0098
614.2313	0.0073
614.4207	0.0087
614.6102	0.0081
614.7997	0.0107
614.9891	0.0009
615.1785	-0.0063
615.3679	0.0106
615.5573	0.0017
615.7467	-0.0016
615.9361	0.0008
616.1254	0.0139
616.3147	0.0088
616.504	0.0046
616.6933	0.0033
616.8826	-0.0015
617.0718	0.0073
617.2611	-0.0011
617.4503	-0.0012
617.6395	0.0059
617.8287	0.0023
618.0179	0.0057
618.207	0.0124
618.3961	-0.0014
618.5853	0.0001
618.7744	0.0094
618.9634	0.0069
619.1525	0.0023
619.3416	-0.0005
619.5306	0.0033
619.7196	0.0094
619.9086	0.0059
620.0976	-0.0071
620.2866	0.0039
620.4755	0.0044
620.6645	0.0165
620.8534	0.0046
621.0423	0.0051
621.2312	0.002
621.42	-0.003
621.6089	-0.0028
621.7977	0.0077
621.9865	-0.0034
622.1753	-0.0016
622.3641	-0.0008
622.5529	0.0007
622.7416	-0.0078
622.9303	-0.0076
623.1191	-0.0032
623.3078	-0.0021
623.4964	0.0009
623.6851	0.0066
623.8737	0.0005
624.0624	-0.0092
624.251	0.0086
624.4396	0.0037
624.6282	0.0137
624.8167	0.0087
625.0053	0.0011
625.1938	0.0039
625.3823	0.0118
625.5708	-0.0055
625.7593	0.0039
625.9477	0.0241
626.1362	-0.0019
626.3246	0.0014
626.513	0.001
626.7014	0.0038
626.8898	0.0153
627.0781	0.0072
627.2665	0.0047
627.4548	-0
627.6431	-0.002
627.8314	0.0199
628.0197	0.0117
628.2079	-0.0007
628.3962	-0.0003
628.5844	0.0049
628.7726	-0.0088
628.9608	0.0058
629.1489	-0.0038
629.3371	-0.0012
629.5252	0.0036
629.7134	0.0003
629.9015	0.0011
630.0895	0.002
630.2776	0.003
630.4657	0.0097
630.6537	0.01
630.8417	0.0026
631.0297	-0.0063
631.2177	0.0042
631.4057	0.0063
631.5936	0.0008
631.7815	0.0078
631.9695	0.0088
632.1574	-0.0022
632.3452	0.0061
632.5331	0.0071
632.7209	0.0076
632.9088	0.0037
633.0966	0.0198
633.2844	-0.0096
633.4722	0.0046
633.6599	0.0171
633.8477	0.0138
634.0354	0.0005
634.2231	-0.0024
634.4108	-0.0059
634.5985	0.002
634.7861	-0.0091
634.9738	0.0001
635.1614	0.0016
635.349	-0.0033
635.5366	0.0097
635.7242	0.0037
635.9117	0.0048
636.0993	0.0089
636.2868	0.0007
636.4743	0.0034
636.6618	-0.0077
636.8492	0.0077
637.0367	-0.0081
637.2241	0.0106
637.4115	0.0276
637.5989	0.0054
637.7863	0.0287
637.9737	0.0049
638.161	0.0003
638.3484	0.0003
638.5357	0.0013
638.723	0.0248
638.9103	-0.0156
639.0975	0.0014
639.2848	0.0169
639.472	-0.0022
639.6592	-0.0069
639.8464	0.0084
640.0336	0.0017
640.2208	-0.0066
640.4079	0.0006
640.595	-0.0153
640.7821	0.0067
640.9692	-0.0155
641.1563	0.0087
641.3434	-0.0019
641.5304	0.0182
641.7174	0.0061
641.9044	0.0203
642.0914	0.0239
642.2784	0.0142
642.4653	0.0004
642.6523	0.0124
642.8392	-0.0073
643.0261	0.009
643.213	0.02
643.3999	0.0155
643.5867	0.026
643.7735	0.0041
643.9604	0.0124
644.1472	0.0087
644.3339	0.0002
644.5207	0.0014
644.7075	-0.0024
644.8942	-0.0045
645.0809	0.0033
645.2676	0.0014
645.4543	0.0058
645.6409	0.0224
645.8276	0.0078
646.0142	0.0027
646.2008	0.0054
646.3874	-0.0061
646.574	0.0014
646.7605	0.0056
646.9471	0.0132
647.1336	-0.014
647.3201	-0.003
647.5066	-0
647.6931	0.0022
647.8795	-0.0017
648.0659	0.0101
648.2524	0.0175
648.4388	0.0074
648.6252	0.0028
648.8115	0.011
648.9979	0.0045
649.1842	-0.0071
649.3705	0.0143
649.5568	-0.012
649.7431	-0.0047
649.9294	0.0108
650.1156	-0.0216
650.3018	0.0048
650.488	0.0138
650.6742	0.0303
650.8604	0.0042
651.0466	0.0049
651.2327	0.0094
651.4188	-0.0052
651.6049	0.0161
651.791	0.0074
651.9771	0.01
652.1632	0.004
652.3492	-0.0043
652.5352	0.0153
652.7212	-0.0037
652.9072	0.0049
653.0932	0.0125
653.2791	0.0133
653.465	0.0256
653.651	0.0004
653.8369	-0.0021
654.0227	-0.0015
654.2086	-0.0052
654.3944	0.0019
654.5803	-0.0039
654.7661	-0.0009
654.9519	-0.0005
655.1377	0.0001
655.3234	0.0001
655.5092	0.0001
655.6949	0.0001
655.8806	0.0001
656.0663	0.0001
656.2519	0.0001
656.4376	0.0001
656.6232	0.0001
656.8088	0.0001
656.9945	0.0001
657.18	0.0001
657.3656	0.0001
657.5511	0.0001
657.7367	0.0001
657.9222	0.0001
658.1077	0.0001
658.2932	0.0001
658.4786	0.0001
658.6641	0.0001
658.8495	0.0001
659.0349	0.0001
659.2203	0.0001
659.4057	0.0001
659.591	0.088
659.7764	0.0051
659.9617	-0.0031
660.147	0.0036
660.3323	-0.0037
660.5176	0.0037
660.7028	0.0011
660.888	0.0004
661.0733	0.0104
661.2585	-0.0146
661.4436	0.0048
661.6288	0.0101
661.8139	0.004
661.9991	-0.0026
662.1842	-0.0201
662.3693	0.0158
662.5544	0.0013
662.7394	0.0256
662.9245	-0.0036
663.1095	-0.0121
663.2945	-0.0079
663.4795	-0.0038
663.6644	-0.0128
663.8494	0.0044
664.0343	0.0119
664.2193	-0.0096
664.4042	0.021
664.589	0.0177
664.7739	0.0195
664.9587	-0.0189
665.1436	-0.0003
665.3284	0.0055
665.5132	-0.01
665.698	-0.0071
665.8827	0.0209
666.0675	-0.0109
666.2522	-0.0016
666.4369	0.0029
666.6216	0.0207
666.8063	0.0033
666.9909	-0.0034
667.1756	-0.0147
667.3602	-0.0053
667.5448	0.0219
667.7294	0.0185
667.9139	0.0062
668.0985	-0.0098
668.283	0.0234
668.4675	0.0279
668.652	0.0064
668.8365	0.0073
669.0209	0.0041
669.2054	-0.0016
669.3898	-0.0219
669.5742	0.0059
669.7586	0.0183
669.943	0.0117
670.1273	-0.0072
670.3117	0.0193
670.496	0.0009
670.6803	0.0053
670.8646	-0.0147
671.0488	0.0107
671.2331	-0.0163
671.4173	0.0081
671.6015	-0.0063
671.7857	-0.0005
671.9699	0.0021
672.1541	-0.0044
672.3382	-0.0081
672.5223	0.0017
672.7064	0.0017
672.8905	-0.0129
673.0746	0.0122
673.2587	0.0254
673.4427	0.0005
673.6267	0.0048
673.8107	0.0135
673.9947	0.0133
674.1787	0.0098
674.3626	0.0215
674.5465	0.0154
674.7304	0.0058
674.9143	0.0016
675.0982	0.0144
675.2821	-0.0066
675.4659	0.0099
675.6497	0.0058
675.8335	0.0109
676.0173	-0.0095
676.2011	0.009
676.3849	0.0086
676.5686	0.0128
676.7523	0.0254
676.936	-0.01
677.1197	-0.0087
677.3034	0.0139
677.487	0.0058
677.6706	0.0169
677.8542	-0.0127
678.0378	-0.0003
678.2214	0.0034
678.405	-0.0033
678.5885	0.011
678.772	0.0023
678.9555	0.0086
679.139	0.0184
679.3225	0.0007
679.5059	0.0015
679.6894	-0.0101
679.8728	0.0028
680.0562	0.0086
680.2395	-0.0128
680.4229	-0.0045
680.6062	0.0086
680.7896	-0.0039
680.9729	0.027
681.1562	-0.0051
681.3394	-0.0039
681.5227	-0.001
681.7059	0.0177
681.8891	-0.0003
682.0723	-0.0021
682.2555	0.0046
682.4387	0.0097
682.6218	0.0041
682.805	-0.0026
682.9881	0.0108
683.1712	-0.0013
683.3542	0.0213
683.5373	-0.0014
683.7203	0.0055
683.9034	-0.0068
684.0864	0.0081
684.2694	-0.003
684.4523	0.004
684.6353	-0.0106
684.8182	-0.0025
685.0011	0.0037
685.184	0.0107
685.3669	0.0114
685.5498	-0.0006
685.7326	-0.0069
685.9154	-0.0104
686.0982	0.0149
686.281	-0.0091
686.4638	0.0097
686.6465	0.0014
686.8293	-0.019
687.012	0.0134
687.1947	0.001
687.3774	0.0207
687.56	0.0036
687.7427	0.0002
687.9253	-0.015
688.1079	0.0005
688.2905	-0.0146
688.4731	0.0043
688.6556	0.0039
688.8382	-0.0229
689.0207	0.0042
689.2032	0.0082
689.3857	0.012
689.5681	0.0194
689.7506	0.0282
689.933	-0.0013
690.1154	0.0323
690.2978	0.0095
690.4802	0.0165
690.6626	0.0031
690.8449	0.0063
691.0272	0.0067
691.2095	0.0002
691.3918	0.003
691.5741	-0.0087
691.7563	0.0127
691.9386	0.0301
692.1208	0.0079
692.303	0.0053
692.4852	0.0091
692.6673	0.0044
692.8495	-0.0196
693.0316	0.0118
693.2137	0.0057
693.3958	0.008
693.5778	0.0128
693.7599	0.014
693.9419	-0.0056
694.1239	-0.0041
694.3059	0.0003
694.4879	0.0047
694.6699	0.0025
694.8518	0.0172
695.0337	0.0282
695.2157	0.0257
695.3975	-0.0016
695.5794	-0.0015
695.7613	0.0165
695.9431	-0.011
696.1249	0.0218
696.3067	0.0013
696.4885	0.0152
696.6703	0.0032
696.852	-0.0087
697.0337	0.0107
697.2154	0.0184
697.3971	0.0169
697.5788	0.0074
697.7605	-0.0084
697.9421	0.0188
698.1237	-0.003
698.3053	0.0074
698.4869	0.0118
698.6685	-0.006
698.85	0.0126
699.0315	-0.0193
699.213	0.0161
699.3945	-0.0084
699.576	0.0251
699.7575	0.0193
699.9389	-0.0272
700.1203	0.006
700.3017	0.0287
700.4831	0.0018
700.6645	0.0331
700.8458	0.0047
701.0271	0.0412
701.2084	0.0082
701.3897	0.0284
701.571	-0.0023
701.7523	-0.017
701.9335	0.009
702.1147	0.0291
702.2959	-0.0174
702.4771	0.0263
702.6583	-0.0255
702.8394	-0.0153
703.0205	0.0202
703.2016	-0.0068
703.3827	-0.0043
703.5638	0.0015
703.7449	0.0181
703.9259	-0.0015
704.1069	-0.0193
704.2879	0.0039
704.4689	-0.0018
704.6499	0.0267
704.8308	0.0397
705.0117	-0.0136
705.1927	0.0237
705.3735	-0.0248
705.5544	-0.0054
705.7353	-0.0075
705.9161	-0.0247
706.0969	0.0173
706.2777	-0.0024
706.4585	-0.0038
706.6393	0.0173
706.82	0.0246
707.0007	-0.0085
707.1815	-0.0046
707.3621	0.0279
707.5428	0.0098
707.7235	-0.0086
707.9041	0.0078
708.0847	0.0054
708.2653	0.0226
708.4459	-0.0033
708.6265	-0.0184
708.807	0.0017
708.9875	-0.008
709.168	-0.0053
709.3485	0.0267
709.529	0.015
709.7095	0.0034
709.8899	0.0059
710.0703	0.0031
710.2507	-0.008
710.4311	-0.0254
710.6115	0.0327
710.7918	0.0252
710.9721	-0.0008
711.1524	-0.0001
711.3327	-0.029
711.513	0.0133
711.6932	-0.0162
711.8735	0.0232
712.0537	-0.0125
712.2339	0.0139
712.4141	0.019
712.5942	-0.0172
712.7744	-0.0007
712.9545	0.0242
713.1346	0.0136
713.3147	-0.0023
713.4947	-0.0107
713.6748	-0.01
713.8548	0.0066
714.0348	0.0188
714.2148	0.0144
714.3948	-0.0052
714.5748	-0.0009
714.7547	0.0292
714.9346	0.0301
715.1145	-0.0134
715.2944	-0.0089
715.4743	0.0395
715.6541	-0.0251
715.834	0.0544
716.0138	0.0052
716.1936	-0.0218
716.3733	-0.0119
716.5531	-0.019
716.7328	0.0035
716.9126	0.0085
717.0923	-0.0417
717.2719	0.0004
717.4516	0.0087
717.6312	-0.016
717.8109	0.0257
717.9905	0.0299
718.1701	-0.0037
718.3496	0.0275
718.5292	-0.0064
718.7087	-0.0038
718.8882	0.0189
719.0677	0.0032
719.2472	0.0113
719.4267	0.007
719.6061	-0.0193
719.7856	0.0332
719.965	0.0215
720.1443	-0.0074
720.3237	-0.0052
720.5031	0.0053
720.6824	0.013
720.8617	0.0198
721.041	0.0428
721.2203	0.0085
721.3995	-0.0054
721.5788	-0.0264
721.758	-0.0001
721.9372	0.0056
722.1164	-0.0102
722.2956	-0.0152
722.4747	0.0173
722.6538	-0.0014
722.8329	0.0283
723.012	0.0004
723.1911	0.005
723.3702	0.0141
723.5492	-0.0102
723.7282	-0.0165
723.9072	0.0068
724.0862	-0.0054
724.2652	0.0038
724.4441	0.0028
724.623	0.0106
724.8019	-0.0203
724.9808	0.0191
725.1597	0.0138
725.3385	-0.0038
725.5174	-0.0101
725.6962	0.0006
725.875	0.0137
726.0538	0.0104
726.2325	0.0395
726.4112	-0.0183
726.59	-0.0016
726.7687	-0.0234
726.9474	0.002
727.126	0.0045
727.3047	0.0039
727.4833	0.0068
727.6619	-0.01
727.8405	0.002
728.0191	0.0165
728.1976	0.0184
728.3762	0.0145
728.5547	0.0018
728.7332	0.0132
728.9116	-0.0017
729.0901	0.0085
729.2686	-0.0013
729.447	0.0025
729.6254	0.0124
729.8038	0.0098
729.9821	-0.0134
730.1605	0.029
730.3388	-0.0016
730.5171	0.0032
730.6954	-0.0225
730.8737	-0.0019
731.0519	-0.0078
731.2302	0.0096
731.4084	0.018
731.5866	0.0008
731.7648	0.0099
731.9429	-0.0087
732.1211	0.0023
732.2992	0.0078
732.4773	-0.0143
732.6554	-0.0017
732.8335	0.0199
733.0115	0.0365
733.1896	-0.015
733.3676	0.0285
733.5456	-0.0039
733.7235	0.0031
733.9015	0.0141
734.0794	-0.0057
734.2574	-0.0243
734.4353	0.0359
734.6131	0.0098
734.791	-0.007
734.9689	-0.0026
735.1467	0.0036
735.3245	0.0149
735.5023	0.0112
735.68	-0.0057
735.8578	0.0245
736.0355	0.0107
736.2132	0.0045
736.3909	0.0167
736.5686	0.0062
736.7463	-0.0111
736.9239	0.0155
737.1015	0.0071
737.2791	-0.0054
737.4567	0.0207
737.6343	-0.0099
737.8118	0.0103
737.9894	0.0067
738.1669	-0.03
738.3444	0.0278
738.5218	-0.0296
738.6993	0.0054
738.8767	0.0139
739.0541	-0.0077
739.2315	0.0039
739.4089	0.0139
739.5863	-0.006
739.7636	-0.0186
739.9409	-0.0158
740.1182	0.0003
740.2955	0.0078
740.4728	0.0043
740.65	0.0278
740.8272	0.0068
741.0044	-0.0032
741.1816	0.0553
741.3588	-0.0207
741.5359	-0.0046
741.7131	0.0111
741.8902	0.007
742.0673	-0.0139
742.2444	0.0244
742.4214	0.0087
742.5985	-0.01
742.7755	0.0149
742.9525	-0.0053
743.1295	-0.0236
743.3064	-0.0073
743.4834	0.0034
743.6603	0.0381
743.8372	-0.0194
744.0141	0.0122
744.191	0.0161
744.3678	-0.0389
744.5446	0.0054
744.7215	0.0093
744.8982	0.0125
745.075	0.0124
745.2518	0.0417
745.4285	0.0273
745.6052	-0.0475
745.7819	0.0032
745.9586	0.0045
746.1353	-0.0072
746.3119	0.0316
746.4885	0.0346
746.6651	0.0144
746.8417	-0.0113
747.0183	0.0453
747.1948	-0.0018
747.3714	-0.0052
747.5479	0.0164
747.7244	0.0352
747.9008	0.0016
748.0773	0.041
748.2537	0.0133
748.4301	0.0249
748.6065	-0.016
748.7829	-0.0224
748.9593	-0.0023
749.1356	0.0189
749.3119	0.007
749.4882	0.0192
749.6645	-0.0143
749.8408	0.0155
750.017	0.0021
750.1933	-0.0104
750.3695	0.0065
750.5457	-0.0147
750.7218	-0.0215
750.898	-0.0044
751.0741	0.0109
751.2502	0.0109
751.4263	-0.0063
751.6024	0.0074
751.7784	0.0003
751.9545	0.0085
752.1305	-0.0079
752.3065	-0.0062
752.4825	-0.0146
752.6584	-0.0055
752.8344	-0.0041
753.0103	-0.0222
753.1862	-0.0026
753.3621	-0.0075
753.5379	0.0016
753.7138	0.013
753.8896	-0.0111
754.0654	-0.0116
754.2412	0.042
754.417	0.0219
754.5927	0.0085
754.7685	0.0019
754.9442	0.0189
755.1199	0.009
755.2956	0.0065
755.4712	-0.01
755.6469	-0.0178
755.8225	0.0073
755.9981	-0.0044
756.1736	-0.0098
756.3492	0.0155
756.5248	0.0096
756.7003	-0.0027
756.8758	0.0036
757.0513	0.0116
757.2267	-0.0048
757.4022	0.0062
757.5776	0.001
757.753	0.0278
757.9284	0.0092
758.1038	0.0282
758.2791	0.0041
758.4545	-0.0023
758.6298	-0.0003
758.8051	0.0178
758.9803	0.0137
759.1556	-0.007
759.3308	0.0027
759.506	-0.0007
759.6812	0.0092
759.8564	-0.0038
760.0316	0.0012
760.2067	0.0176
760.3819	0.0085
760.557	-0.0053
760.732	0.0002
760.9071	0.0191
761.0821	-0.0182
761.2572	0.0069
761.4322	0.0032
761.6072	-0.0041
761.7821	-0.0065
761.9571	0.0032
762.132	-0.0113
762.3069	0.0336
762.4818	0.0072
762.6567	0.0051
762.8316	0.0133
763.0064	0.0292
763.1812	0.0059
763.356	-0.0223
763.5308	0.0314
763.7055	-0.0096
763.8803	0.0165
764.055	0.0046
764.2297	-0.0123
764.4044	-0.0031
764.579	0.0125
764.7537	0.0049
764.9283	0.01
765.1029	0.0121
765.2775	0.0257
765.4521	0.0042
765.6266	-0.0019
765.8011	0.0141
765.9756	0.0172
766.1501	-0.0018
766.3246	0.0095
766.4991	0.0271
766.6735	0.0429
766.8479	-0.0038
767.0223	-0.0001
767.1967	-0.0112
767.371	0.0226
767.5454	0.0225
767.7197	0.0117
767.894	0.0089
768.0683	0.0061
768.2425	0.0017
768.4168	0.0152
768.591	0.0059
768.7652	-0.0116
768.9394	-0.0122
769.1135	-0.0027
769.2877	-0.0017
769.4618	0.0399
769.6359	-0.0034
769.81	0.048
769.984	0.0048
770.1581	-0.0108
770.3321	0.0726
770.5061	0.009
770.6801	0.0063
770.8541	0.0097
771.028	0.046
771.202	0.0354
771.3759	0.027
771.5498	0.0166
771.7236	-0.0019
771.8975	0.0133
772.0713	0.0148
772.2451	-0.0049
772.4189	0.0213
772.5927	-0.0187
772.7665	0.0235
772.9402	0.037
773.1139	0.0021
773.2876	-0.0179
773.4613	0.0296
773.635	0.0327
773.8086	0.0183
773.9822	-0.0001
774.1558	0.0635
774.3294	-0.0008
774.503	0.0489
774.6765	0.0151
774.8501	-0.0155
775.0236	0.0237
775.1971	-0.0069
775.3705	0.0247
775.544	-0.0505
775.7174	0.0286
775.8908	0.0177
776.0642	0.0007
776.2376	0.0539
776.4109	0.0282
776.5843	-0.0347
776.7576	0.05
776.9309	0.0419
777.1041	0.0016
777.2774	0.0049
777.4506	0.0402
777.6238	-0.0139
777.797	0.0127
777.9702	0.0038
778.1434	-0.0038
778.3165	0.0061
778.4896	-0.0349
778.6627	0.0264
778.8358	0.0267
779.0089	-0.0269
779.1819	0.0293
779.3549	0.0176
779.5279	0.0012
779.7009	0.0287
779.8739	0.0495
780.0468	0.0321
780.2197	0.0019
780.3926	-0.0395
780.5655	0.0198
780.7384	-0.0227
780.9112	0.0527
781.0841	-0.0115
781.2569	0.0297
781.4297	0.0142
781.6024	-0.0014
781.7752	0.0404
781.9479	0.0254
782.1206	-0.0131
782.2933	0.0073
782.466	0.0195
782.6386	-0.0213
782.8113	0.0063
782.9839	-0.0123
783.1565	0.0378
783.329	0.0075
783.5016	-0.0201
783.6741	-0.0221
783.8466	0.0196
784.0191	0.0138
784.1916	-0.0187
784.3641	-0.026
784.5365	0.0241
784.7089	-0.0564
784.8813	0.0563
785.0537	0.0282
785.2261	0.0337
785.3984	-0.0049
785.5707	-0.0023
785.743	0.0237
785.9153	-0.0023
786.0876	-0.0209
786.2598	0.0014
786.432	0.0227
786.6042	0.0614
786.7764	-0.0412
786.9486	-0.0036
787.1207	0.0502
787.2928	0.0283
787.4649	-0.0141
787.637	0.004
787.8091	0.0076
787.9811	0.0343
788.1532	0.0204
788.3252	0.0141
788.4972	0.0049
788.6691	0.0178
788.8411	-0.0348
789.013	0.0081
789.1849	-0.0099
789.3568	-0.011
789.5287	0.0273
789.7005	-0.0232
789.8723	-0.0057
790.0442	0.0058
790.2159	0.032
790.3877	0.0948
790.5595	0.0029
790.7312	-0.0254
790.9029	0.0284
791.0746	0.0413
791.2463	-0.0206
791.4179	-0.0116
791.5896	0.0058
791.7612	0.0277
791.9328	0.0086
792.1044	0.0137
792.2759	0.0253
792.4474	-0.025
792.619	-0.0545
792.7905	0.0836
792.9619	0.0199
793.1334	0.0647
793.3048	0.0383
793.4762	0.0205
793.6476	-0.0401
793.819	0.0006
793.9904	-0.0049
794.1617	-0.0365
794.333	-0.0171
794.5043	0.0289
794.6756	0.0322
794.8469	-0.0127
795.0181	0.012
795.1893	0.0678
795.3605	0.0342
795.5317	0.0227
795.7029	-0.0093
795.874	-0.0175
796.0452	0.0271
796.2163	0.036
796.3873	0.1237
796.5584	0.0471
796.7294	-0.0091
796.9005	0.0817
797.0715	-0.0536
797.2425	0.0136
797.4134	0.0981
797.5844	0.1286
797.7553	-0.033
797.9262	0.0308
798.0971	0.0167
798.2679	-0.0002
798.4388	0.0474
798.6096	0.0136
798.7804	-0.0038
798.9512	0.0388
799.122	-0.0227
799.2927	0.1022
799.4635	0.0418
799.6342	-0.0123
799.8049	0.0111
799.9755	-0.0224
800.1462	0.0611
800.3168	0.0037
800.4874	-0.1341
800.658	-0.0249
800.8286	-0.054
800.9991	0.0443
801.1696	0.0377
801.3402	0.062
801.5106	-0.0841
801.6811	-0.0328
801.8516	0.0979
802.022	-0.0364
802.1924	0.0298
802.3628	0.0016
802.5332	0.0245
802.7035	0.0142
802.8739	0.0095
803.0442	0.047
803.2145	0.0629
803.3847	0.083
803.555	0.0238
803.7252	0.0105
803.8954	-0.0395
804.0656	0.0135
804.2358	-0.0216
804.4059	-0.0169
804.5761	0.0715
804.7462	0.098
804.9163	0.0712
805.0864	-0.0256
805.2564	-0.0668
805.4264	0.0466
805.5965	0.0616
805.7665	0.0043
805.9364	0.0853
806.1064	0.001
806.2763	0.0261
806.4462	0.0325
806.6161	0.0279
806.786	-0.0168
806.9559	0.0197
807.1257	-0.0435
807.2955	-0.0102
807.4653	0.0652
807.6351	0.0367
807.8048	-0.0189
807.9746	0.0293
808.1443	-0.0148
808.314	0.0506
808.4837	0.0878
808.6533	-0.0034
808.8229	0.0012
808.9926	-0.0029
809.1622	0.0214
809.3317	-0.083
809.5013	-0.0111
809.6708	0.0031
809.8403	0.0457
810.0098	0.0051
810.1793	-0.0024
810.3488	-0.0562
810.5182	0.106
810.6876	0.0967
810.857	0.0246
811.0264	0.0072
811.1958	0.0272
811.3651	-0.0596
811.5344	-0.0003
811.7037	-0.0467
811.873	0.0549
812.0422	-0.0851
812.2115	-0.0404
812.3807	0.0698
812.5499	-0.0132
812.7191	0.0119
812.8882	-0.0098
813.0574	-0.0183
813.2265	-0.0444
813.3956	0.0598
813.5646	0.0655
813.7337	-0.0314
813.9027	-0.0433
814.0718	0.0682
814.2407	0.0177
814.4097	0.1144
814.5787	0.1211
814.7476	0.0672
814.9165	0.0793
815.0854	-0.0348
815.2543	-0.0319
815.4232	0.0585
815.592	0.0675
815.7608	-0.0429
815.9296	-0.048
816.0984	-0.0716
816.2671	-0.1756
816.4359	0.1562
816.6046	0.0511
816.7733	-0.1758
816.942	0.0299
817.1106	0.0716
817.2793	0.0647
817.4479	-0.0576
817.6165	-0.0114
817.785	0.0497
817.9536	-0.0703
818.1221	0.008
818.2906	-0.1299
818.4591	-0.0026
818.6276	-0.0333
818.7961	-0.0944
818.9645	0.0099
819.1329	0.588
819.3013	0.0644
819.4697	0.0331
819.638	0.154
819.8064	0.0335
819.9747	0.1107
820.143	-0.0632
820.3113	0.1013
820.4795	0.2129
820.6477	0.0431
820.816	0.1122
820.9842	0.1203
821.1523	0.0383
821.3205	0.0557
821.4886	0.0143
821.6567	0.0478
821.8248	0.1855
821.9929	-0.0748
822.1609	0.0271
822.329	0.0735
822.497	-0.0125
822.665	-0.0195
822.833	-0.0435
823.0009	0.1063
823.1688	0.0391
823.3367	-0.1371
823.5046	-0.0217
823.6725	-0.0699
823.8404	-0.0331
824.0082	0.0137
824.176	-0.1108
824.3438	0.1041
824.5116	0.1079
824.6793	0.1787
824.847	-0.0067
825.0147	0.1954
825.1824	0.1201
825.3501	-0.0571
825.5177	0.0136
825.6854	-0.0156
825.853	-0.0885
826.0206	0.0653
826.1881	-0.0114
826.3557	0.0175
826.5232	0.2502
826.6907	0.0164
826.8582	0.1391
827.0257	0.0941
827.1931	0.1986
827.3605	-0.0869
827.528	-0.0897
827.6953	-0.2401
827.8627	-0.0266
828.03	0.1068
828.1974	0.0028
828.3647	0.0274
828.532	-0.0193
828.6992	0.0227
828.8665	-0.0664
829.0337	0.1297
829.2009	-0.1288
829.3681	-0.01
829.5352	-0.3835
829.7024	0.0965
829.8695	0.2282
830.0366	0.0427
830.2037	0.005
830.3707	0.0697
830.5378	-0.1079
830.7048	-0.0054
830.8718	-0.0647
831.0388	-0.1809
831.2057	0.1613
831.3727	-0.4916
831.5396	0.115
831.7065	-0.9108
831.8734	0.3016
832.0402	0.2346
832.2071	-0.7052
832.3739	0.2794
832.5407	-1.811
832.7075	-0.4252
832.8742	-0.0245
833.041	0.0511
833.2077	0.7967
833.3744	0.0288
833.541	0.0861
833.7077	0.038
833.8743	-0.0211
834.0409	0.0028
834.2075	0.2193
834.3741	-0.1335
834.5407	0.0995
834.7072	0.0198
834.8737	0.1489
835.0402	-0
835.2067	-0.2542
835.3731	-0.0749
835.5395	0.0628
835.706	-0.1952
835.8723	0.365
836.0387	0.1121
836.2051	-0.1504
836.3714	0.376
836.5377	1.2977
836.704	0.1126
836.8703	-0.2386
837.0365	-0.7084
837.2027	1.0604
837.3689	0.0706
837.5351	-0.0594
837.7013	0.1807
837.8674	0.7803
838.0335	-0.0939
838.1997	0.0467
838.3657	0.5952
838.5318	-0.311
838.6978	-0
838.8639	-0.5806
839.0299	-0.0146
839.1958	0.2536
839.3618	-0.1474
839.5277	0.2953
839.6937	-0.1646
839.8596	0.3128
840.0254	0.5742
840.1913	-0.2087
840.3571	-0.198
840.523	-1.3909
840.6888	0.0511
840.8545	-0.3096
841.0203	0.1353
841.186	0.1909
841.3517	-0.1008
841.5174	0.3516
841.6831	0.0258
841.8488	0.1356
842.0144	0.0182
842.18	0.1553
842.3456	-0.6618
842.5112	0.0544
842.6767	-0.0153
842.8422	0.2457
843.0077	0.0894
843.1732	0.3245
843.3387	0.24
843.5042	-0.3883
843.6696	0.6964
843.835	-0.2074
844.0004	-0.0676
844.1657	-0
844.3311	-0
844.4964	-0
844.6617	0.3815
844.827	-0
844.9923	0.3753
845.1575	-0.3515
845.3227	-0.4274
845.4879	-0.1376
845.6531	0.0673
845.8183	0.4534
845.9834	-0
846.1485	0.0485
846.3136	-0.0351
846.4787	-0
846.6438	0.0697
846.8088	-0
846.9738	-0.6558
847.1388	0.2578
847.3038	0.5165
847.4687	0.6476
847.6337	-0.6164
847.7986	-0.2761
847.9635	-0
848.1284	-0
848.2932	0.1567
848.458	-0
848.6228	-0.002
848.7876	-0
848.9524	-0.14
849.1172	-1.4029
849.2819	-0.6344
849.4466	0.4791
849.6113	0.2008
849.7759	-0.4771
849.9406	-0.0305
850.1052	-1.644
850.2698	-0.0655
850.4344	-0.0094
850.599	-0.2309
850.7635	0.762
850.928	0.7235
851.0925	0.887
851.257	0.3442
851.4215	-0.1749
851.5859	0.5009
851.7503	0.0743
851.9147	0.2746
852.0791	0.0342
852.2434	0.1011
852.4078	-0
852.5721	1.0008
852.7364	0.0088
852.9007	-0.1783
853.0649	-0
853.2291	0.1947
853.3934	-0
853.5575	-0.2295
853.7217	0.22
853.8859	-0
854.05	-0.3542
854.2141	0.6063
854.3782	0.0705
854.5423	-0
854.7063	0.4994
854.8703	-0.077
855.0343	-0.1811
855.1983	-0.0894
855.3623	-0.0638
855.5262	-0
855.6901	0.2779
855.854	0.17
856.0179	0.2166
856.1818	-0
856.3456	1.3571
856.5094	-0.2046
856.6732	-0.0075
856.837	-1.0896
857.0008	-0
857.1645	-0.196
857.3282	-0
857.4919	0.204
857.6556	-0.5922
857.8192	-0.0723
857.9828	-0.2381
858.1465	0.3878
858.31	0.322
858.4736	-0.8035
858.6372	-0.0879
858.8007	0.1819
858.9642	0.1645
859.1277	1.4197
859.2911	-0.3843
859.4546	-1.7466
859.618	0.1638
859.7814	0.1344
859.9448	-0
860.1081	1.7297
860.2715	-0.9938
860.4348	-0
860.5981	0.4581
860.7614	0.3042
860.9246	0.4206
861.0879	-0.0343
861.2511	-0
861.4143	-0
861.5774	-0.1503
861.7406	0.1958
861.9037	-0.6685
862.0668	-1.1567
862.2299	-0
862.393	-0.187
862.556	-0.2931
862.7191	0.2507
862.8821	0.12
863.0451	0.0467
863.208	-0
863.371	-0.525
863.5339	0.4136
863.6968	0.5383
863.8597	-0.266
864.0225	-0.2017
864.1854	-0
864.3482	-0.5298
864.511	-0.2013
864.6737	-0
864.8365	0.1184
864.9992	-0
865.1619	0.9496
865.3246	-1.9149
865.4873	-0
865.65	0.6085
865.8126	0.4075
865.9752	0.0337
866.1378	0.2191
866.3004	-0.1432
866.4629	-2.0104
866.6254	-0
866.7879	0.208
866.9504	0.3893
867.1129	-0
867.2753	-0.164
867.4377	0.6268
867.6001	-0.5834
867.7625	-0.0334
867.9249	0.0808
868.0872	-0.0174
868.2495	-0
868.4118	0.4923
868.5741	-0.4599
868.7363	-0
868.8986	-0.3116
869.0608	-0.4906
869.223	0.4563
869.3851	-0
869.5473	-0.2292
869.7094	-0
869.8715	-0.2054
870.0336	0.0829
870.1957	0.0217
870.3577	0.6066
870.5197	0.1928
870.6817	-0.8955
870.8437	0.3206
871.0057	-0.0546
871.1676	0.5041
871.3295	-0
871.4914	-0
871.6533	-0.0556
871.8151	-0
871.977	-0.2181
872.1388	-0.0456
872.3006	-0.7114
872.4623	-0.4308
872.6241	-0
872.7858	0.1285
872.9475	-0
873.1092	-0.0779
873.2709	2.0203
873.4325	-2.0714
873.5941	-0
873.7557	-0
873.9173	-0
874.0789	0.0062
874.2404	-0
874.4019	0.0305
874.5634	-0
874.7249	0.247
874.8863	-0.4334
875.0478	-0.2915
875.2092	-0
875.3706	0.3961
875.5319	-0.0041
875.6933	-0.1139
875.8546	-0.0602
876.0159	0.4797
876.1772	-0.492
876.3385	-0
876.4997	-0.0415
876.6609	-0
876.8221	-0
876.9833	0.0893
877.1445	0.4668
877.3056	-0.7566
877.4667	0.0217
877.6278	1.2831
877.7889	0.2339
877.9499	1.6379
878.111	-0.2297
878.272	-0.2506
878.433	-0.2157
878.5939	-0
878.7549	-0
878.9158	-0.0884
879.0767	0.6494
879.2376	0.2705
879.3984	-0
879.5593	-0
879.7201	-1.3396
879.8809	0.0509
880.0417	-0.13
880.2024	0.3604
880.3632	-0.2092
880.5239	-0.1795
880.6846	-0.4937
880.8452	0.3407
881.0059	-0
881.1665	0.051
881.3271	0.3548
881.4877	0.6639
881.6483	-1.2334
881.8088	-0
881.9693	-0
882.1298	-0
882.2903	-0
