Data from D4ACN5uM460nmA_Absorbance_13-05-42-845.txt Node
Date: Fri Feb 21 13:05:42 GMT 2025
User: LASERRRRR
Spectrometer: FLMT03099
Trigger mode: 0
Integration Time (sec): 1.500000E-2
Scans to average: 1
Electric dark correction enabled: true
Nonlinearity correction enabled: false
Boxcar width: 0
XAxis mode: Wavelengths
Number of Pixels in Spectrum: 3648
>>>>>Begin Spectral Data<<<<<
179.3399	-0.4526
179.5586	-0.4526
179.7771	-0.4526
179.9957	0.0157
180.2143	-0
180.4329	-0
180.6514	-0.1319
180.8699	0.4787
181.0885	-0
181.307	-0
181.5255	-0.0078
181.744	-0.4942
181.9625	0.1934
182.181	0.0786
182.3994	-0.2425
182.6179	-0.2164
182.8363	-0
183.0547	0.3868
183.2732	0.367
183.4916	0.1554
183.71	0.5294
183.9284	0.1714
184.1467	-0.1106
184.3651	-0.0164
184.5835	0.1968
184.8018	0.116
185.0201	0.033
185.2385	0.0554
185.4568	0.115
185.6751	0.1306
185.8934	0.0879
186.1117	-0.1016
186.3299	0.197
186.5482	0.1905
186.7664	0.0683
186.9847	0.1169
187.2029	0.1448
187.4211	0.0931
187.6393	0.0198
187.8575	0.3146
188.0757	0.4811
188.2939	0.1511
188.512	0.2153
188.7302	0.0791
188.9483	0.171
189.1665	0.8819
189.3846	0.1477
189.6027	0.1029
189.8208	0.1945
190.0389	0.3168
190.257	0.0888
190.475	0.0241
190.6931	-0.0066
190.9111	0.0635
191.1292	0.1502
191.3472	0.0745
191.5652	0.2582
191.7832	0.2516
192.0012	0.1604
192.2192	0.127
192.4371	0.1525
192.6551	0.1837
192.873	0.1459
193.091	0.1254
193.3089	0.1758
193.5268	0.2724
193.7447	0.1751
193.9626	0.2763
194.1805	0.1977
194.3984	0.243
194.6162	0.2301
194.8341	0.2697
195.0519	0.1678
195.2697	0.278
195.4875	0.311
195.7054	0.2509
195.9231	0.2506
196.1409	0.38
196.3587	0.3161
196.5765	0.3
196.7942	0.2697
197.012	0.2816
197.2297	0.3088
197.4474	0.4058
197.6651	0.352
197.8828	0.3676
198.1005	0.411
198.3182	0.37
198.5358	0.3566
198.7535	0.3469
198.9711	0.3635
199.1888	0.363
199.4064	0.4056
199.624	0.3503
199.8416	0.3812
200.0592	0.3817
200.2767	0.3822
200.4943	0.4678
200.7119	0.394
200.9294	0.3923
201.1469	0.4263
201.3645	0.4391
201.582	0.3722
201.7995	0.3802
202.017	0.3858
202.2344	0.4146
202.4519	0.3987
202.6694	0.3605
202.8868	0.3933
203.1042	0.4299
203.3217	0.3727
203.5391	0.4253
203.7565	0.3586
203.9739	0.3969
204.1913	0.3143
204.4086	0.3497
204.626	0.3422
204.8433	0.3492
205.0607	0.3672
205.278	0.3469
205.4953	0.3347
205.7126	0.3574
205.9299	0.3344
206.1472	0.326
206.3644	0.3542
206.5817	0.3326
206.7989	0.3494
207.0162	0.3315
207.2334	0.3376
207.4506	0.2887
207.6678	0.3097
207.885	0.3014
208.1022	0.3193
208.3194	0.3049
208.5365	0.3148
208.7537	0.2685
208.9708	0.2952
209.1879	0.2942
209.405	0.2709
209.6222	0.2955
209.8392	0.2943
210.0563	0.2773
210.2734	0.2717
210.4905	0.2732
210.7075	0.2704
210.9245	0.2856
211.1416	0.2937
211.3586	0.2662
211.5756	0.2736
211.7926	0.2596
212.0096	0.2567
212.2265	0.257
212.4435	0.2729
212.6604	0.2621
212.8774	0.2485
213.0943	0.2603
213.3112	0.2582
213.5281	0.2664
213.745	0.2279
213.9619	0.2404
214.1788	0.2783
214.3956	0.2493
214.6125	0.2487
214.8293	0.2469
215.0461	0.2562
215.2629	0.2488
215.4798	0.2611
215.6965	0.248
215.9133	0.2395
216.1301	0.2633
216.3469	0.2436
216.5636	0.2569
216.7803	0.2513
216.9971	0.285
217.2138	0.2554
217.4305	0.2505
217.6472	0.2543
217.8639	0.2601
218.0805	0.248
218.2972	0.2494
218.5138	0.2588
218.7305	0.2734
218.9471	0.2402
219.1637	0.259
219.3803	0.256
219.5969	0.2647
219.8135	0.2699
220.0301	0.2568
220.2466	0.2561
220.4632	0.2589
220.6797	0.2583
220.8962	0.2548
221.1127	0.2591
221.3292	0.2824
221.5457	0.2688
221.7622	0.2625
221.9787	0.2934
222.1951	0.2799
222.4116	0.2658
222.628	0.2861
222.8444	0.2939
223.0608	0.286
223.2772	0.2784
223.4936	0.2852
223.71	0.2909
223.9264	0.2955
224.1427	0.2798
224.3591	0.2965
224.5754	0.2861
224.7917	0.2963
225.008	0.3
225.2243	0.3008
225.4406	0.3044
225.6569	0.3062
225.8732	0.3214
226.0894	0.3183
226.3057	0.3044
226.5219	0.3141
226.7381	0.3195
226.9543	0.3114
227.1705	0.3209
227.3867	0.3204
227.6029	0.3315
227.8191	0.3363
228.0352	0.3492
228.2513	0.3408
228.4675	0.3374
228.6836	0.3435
228.8997	0.3332
229.1158	0.3566
229.3319	0.3564
229.548	0.351
229.764	0.3563
229.9801	0.3719
230.1961	0.3792
230.4121	0.3634
230.6282	0.3802
230.8442	0.3843
231.0602	0.3854
231.2761	0.3887
231.4921	0.3925
231.7081	0.3907
231.924	0.401
232.14	0.4001
232.3559	0.4106
232.5718	0.4125
232.7877	0.4142
233.0036	0.4102
233.2195	0.409
233.4353	0.4132
233.6512	0.4209
233.867	0.4192
234.0829	0.4235
234.2987	0.4251
234.5145	0.4309
234.7303	0.4385
234.9461	0.4405
235.1619	0.424
235.3776	0.4312
235.5934	0.4381
235.8091	0.4366
236.0249	0.4476
236.2406	0.4374
236.4563	0.4508
236.672	0.4394
236.8877	0.4484
237.1034	0.439
237.319	0.457
237.5347	0.4478
237.7503	0.447
237.966	0.451
238.1816	0.4473
238.3972	0.4568
238.6128	0.4691
238.8284	0.466
239.0439	0.4657
239.2595	0.4595
239.475	0.4574
239.6906	0.4625
239.9061	0.4581
240.1216	0.4586
240.3371	0.4623
240.5526	0.4675
240.7681	0.4577
240.9836	0.462
241.199	0.461
241.4145	0.451
241.6299	0.4447
241.8453	0.4375
242.0607	0.4344
242.2761	0.4398
242.4915	0.4249
242.7069	0.417
242.9223	0.4213
243.1376	0.4009
243.353	0.3901
243.5683	0.3942
243.7836	0.3933
243.9989	0.3739
244.2142	0.3675
244.4295	0.3708
244.6448	0.3599
244.86	0.3452
245.0753	0.3427
245.2905	0.3339
245.5057	0.3299
245.721	0.3323
245.9362	0.3212
246.1514	0.3151
246.3665	0.3103
246.5817	0.2958
246.7969	0.2939
247.012	0.2922
247.2271	0.2836
247.4423	0.2798
247.6574	0.2816
247.8725	0.2681
248.0876	0.2668
248.3026	0.2691
248.5177	0.254
248.7328	0.2506
248.9478	0.2496
249.1628	0.2415
249.3779	0.2389
249.5929	0.2402
249.8079	0.2336
250.0228	0.2279
250.2378	0.2256
250.4528	0.2241
250.6677	0.2195
250.8827	0.209
251.0976	0.2122
251.3125	0.2119
251.5274	0.2131
251.7423	0.2027
251.9572	0.2089
252.172	0.2021
252.3869	0.2089
252.6017	0.2035
252.8166	0.1961
253.0314	0.1923
253.2462	0.1952
253.461	0.1991
253.6758	0.2019
253.8906	0.1946
254.1053	0.1898
254.3201	0.1924
254.5348	0.1778
254.7496	0.1829
254.9643	0.1874
255.179	0.1853
255.3937	0.1884
255.6083	0.1928
255.823	0.1845
256.0377	0.18
256.2523	0.1801
256.467	0.1838
256.6816	0.1779
256.8962	0.1834
257.1108	0.1866
257.3254	0.1831
257.54	0.1724
257.7545	0.1822
257.9691	0.1749
258.1836	0.1733
258.3981	0.1738
258.6127	0.1704
258.8272	0.1813
259.0417	0.1734
259.2561	0.1711
259.4706	0.1775
259.6851	0.1743
259.8995	0.1749
260.114	0.1801
260.3284	0.1704
260.5428	0.1801
260.7572	0.1751
260.9716	0.1825
261.186	0.1746
261.4003	0.1726
261.6147	0.1725
261.829	0.1804
262.0433	0.1807
262.2577	0.1718
262.472	0.1705
262.6863	0.1771
262.9005	0.1769
263.1148	0.1743
263.3291	0.1736
263.5433	0.1791
263.7576	0.1722
263.9718	0.178
264.186	0.1779
264.4002	0.1786
264.6144	0.1817
264.8286	0.1737
265.0427	0.1805
265.2569	0.179
265.471	0.1816
265.6851	0.1799
265.8993	0.1738
266.1134	0.1761
266.3275	0.1776
266.5415	0.1764
266.7556	0.1778
266.9697	0.1802
267.1837	0.1805
267.3978	0.1734
267.6118	0.1699
267.8258	0.1766
268.0398	0.1744
268.2538	0.1797
268.4677	0.1735
268.6817	0.1766
268.8957	0.1697
269.1096	0.1651
269.3235	0.1731
269.5374	0.1762
269.7514	0.1715
269.9652	0.1773
270.1791	0.1699
270.393	0.1714
270.6068	0.1772
270.8207	0.1701
271.0345	0.1682
271.2483	0.1686
271.4622	0.1707
271.676	0.1619
271.8897	0.1663
272.1035	0.1706
272.3173	0.168
272.531	0.168
272.7448	0.1636
272.9585	0.1602
273.1722	0.1671
273.3859	0.1679
273.5996	0.1693
273.8133	0.1703
274.0269	0.1627
274.2406	0.1724
274.4542	0.1751
274.6679	0.1681
274.8815	0.1738
275.0951	0.1734
275.3087	0.1695
275.5223	0.1719
275.7358	0.1734
275.9494	0.1744
276.1629	0.1767
276.3765	0.1704
276.59	0.1652
276.8035	0.1682
277.017	0.1764
277.2305	0.1784
277.444	0.1748
277.6574	0.1709
277.8709	0.1768
278.0843	0.1748
278.2978	0.1708
278.5112	0.1714
278.7246	0.1753
278.938	0.1758
279.1513	0.1781
279.3647	0.1736
279.5781	0.1719
279.7914	0.1717
280.0047	0.1781
280.2181	0.1782
280.4314	0.1766
280.6447	0.1818
280.8579	0.1704
281.0712	0.1715
281.2845	0.1769
281.4977	0.1786
281.711	0.1741
281.9242	0.1778
282.1374	0.1745
282.3506	0.1788
282.5638	0.1777
282.7769	0.1761
282.9901	0.1757
283.2033	0.182
283.4164	0.1784
283.6295	0.1763
283.8426	0.1757
284.0557	0.1841
284.2688	0.1782
284.4819	0.1776
284.695	0.181
284.908	0.1789
285.1211	0.1816
285.3341	0.176
285.5471	0.1907
285.7601	0.1841
285.9731	0.1873
286.1861	0.1899
286.3991	0.1879
286.612	0.1846
286.825	0.1869
287.0379	0.186
287.2508	0.1901
287.4637	0.1893
287.6766	0.1863
287.8895	0.1857
288.1024	0.1918
288.3152	0.1929
288.5281	0.187
288.7409	0.1956
288.9538	0.1892
289.1666	0.1953
289.3794	0.1851
289.5922	0.1881
289.8049	0.1865
290.0177	0.1927
290.2304	0.1886
290.4432	0.196
290.6559	0.1902
290.8686	0.1922
291.0813	0.1907
291.294	0.1855
291.5067	0.1863
291.7194	0.1932
291.932	0.1892
292.1447	0.1866
292.3573	0.191
292.5699	0.2008
292.7825	0.1889
292.9951	0.1934
293.2077	0.1894
293.4203	0.1962
293.6328	0.1848
293.8454	0.1994
294.0579	0.1891
294.2704	0.1953
294.4829	0.1911
294.6954	0.1913
294.9079	0.1969
295.1204	0.1922
295.3328	0.1975
295.5453	0.1903
295.7577	0.194
295.9701	0.1895
296.1825	0.1987
296.3949	0.1917
296.6073	0.1858
296.8197	0.1888
297.0321	0.1886
297.2444	0.1956
297.4567	0.1955
297.6691	0.1906
297.8814	0.1901
298.0937	0.194
298.306	0.1915
298.5182	0.1982
298.7305	0.1952
298.9428	0.1958
299.155	0.1866
299.3672	0.192
299.5794	0.1906
299.7916	0.1941
300.0038	0.1927
300.216	0.1937
300.4282	0.19
300.6403	0.1903
300.8525	0.1932
301.0646	0.1918
301.2767	0.1922
301.4888	0.1891
301.7009	0.1928
301.913	0.1925
302.125	0.1865
302.3371	0.1883
302.5491	0.1917
302.7612	0.1965
302.9732	0.1954
303.1852	0.196
303.3972	0.194
303.6092	0.1919
303.8211	0.1844
304.0331	0.1919
304.245	0.1916
304.457	0.1884
304.6689	0.1891
304.8808	0.1831
305.0927	0.1895
305.3046	0.1854
305.5164	0.1805
305.7283	0.1829
305.9401	0.1726
306.152	0.1817
306.3638	0.1781
306.5756	0.1809
306.7874	0.1769
306.9992	0.1733
307.2109	0.1711
307.4227	0.1727
307.6344	0.1727
307.8462	0.1709
308.0579	0.1691
308.2696	0.166
308.4813	0.1623
308.693	0.1637
308.9046	0.1658
309.1163	0.1592
309.328	0.1564
309.5396	0.1466
309.7512	0.1543
309.9628	0.1539
310.1744	0.1479
310.386	0.1436
310.5976	0.144
310.8091	0.1485
311.0207	0.149
311.2322	0.1457
311.4437	0.1418
311.6552	0.1477
311.8667	0.143
312.0782	0.1374
312.2897	0.1421
312.5012	0.1379
312.7126	0.1327
312.924	0.1375
313.1355	0.1313
313.3469	0.1339
313.5583	0.1381
313.7696	0.1289
313.981	0.1367
314.1924	0.1299
314.4037	0.1248
314.6151	0.1293
314.8264	0.1281
315.0377	0.1278
315.249	0.1282
315.4603	0.1271
315.6716	0.1289
315.8828	0.1283
316.0941	0.1246
316.3053	0.1202
316.5165	0.1284
316.7277	0.1227
316.9389	0.1227
317.1501	0.1207
317.3613	0.121
317.5724	0.1252
317.7836	0.1161
317.9947	0.1228
318.2058	0.1172
318.417	0.1206
318.6281	0.119
318.8391	0.1281
319.0502	0.1221
319.2613	0.1227
319.4723	0.1157
319.6834	0.1199
319.8944	0.1187
320.1054	0.1204
320.3164	0.114
320.5274	0.1197
320.7383	0.1227
320.9493	0.1182
321.1602	0.1193
321.3712	0.1184
321.5821	0.1194
321.793	0.1283
322.0039	0.116
322.2148	0.1195
322.4257	0.1178
322.6365	0.1195
322.8474	0.1249
323.0582	0.1259
323.269	0.1201
323.4798	0.1254
323.6906	0.1176
323.9014	0.1221
324.1122	0.1165
324.3229	0.126
324.5337	0.1282
324.7444	0.1231
324.9551	0.1243
325.1658	0.12
325.3765	0.1287
325.5872	0.1259
325.7979	0.1248
326.0085	0.1259
326.2192	0.1185
326.4298	0.1282
326.6404	0.1262
326.851	0.1216
327.0616	0.1284
327.2722	0.1262
327.4828	0.1218
327.6933	0.1304
327.9039	0.1247
328.1144	0.1246
328.3249	0.1302
328.5354	0.1273
328.7459	0.1318
328.9564	0.1238
329.1669	0.1325
329.3773	0.13
329.5878	0.1213
329.7982	0.1302
330.0086	0.1267
330.219	0.124
330.4294	0.1299
330.6398	0.1271
330.8502	0.1347
331.0605	0.1264
331.2708	0.1283
331.4812	0.1284
331.6915	0.1345
331.9018	0.1322
332.1121	0.1312
332.3224	0.1302
332.5326	0.1299
332.7429	0.1267
332.9531	0.1378
333.1633	0.1254
333.3735	0.13
333.5837	0.1335
333.7939	0.1272
334.0041	0.1253
334.2143	0.1292
334.4244	0.1464
334.6346	0.1297
334.8447	0.1327
335.0548	0.1326
335.2649	0.1376
335.475	0.1353
335.685	0.131
335.8951	0.1253
336.1051	0.1331
336.3152	0.1365
336.5252	0.1328
336.7352	0.137
336.9452	0.1345
337.1552	0.1347
337.3652	0.1339
337.5751	0.1311
337.7851	0.1319
337.995	0.1405
338.2049	0.1357
338.4148	0.1371
338.6247	0.134
338.8346	0.138
339.0445	0.1392
339.2543	0.1388
339.4642	0.1393
339.674	0.1392
339.8838	0.1396
340.0936	0.1419
340.3034	0.1367
340.5132	0.1357
340.7229	0.1361
340.9327	0.1473
341.1424	0.1414
341.3522	0.1413
341.5619	0.1409
341.7716	0.1473
341.9813	0.1485
342.1909	0.1406
342.4006	0.1475
342.6102	0.145
342.8199	0.1426
343.0295	0.144
343.2391	0.1438
343.4487	0.1469
343.6583	0.1564
343.8679	0.1405
344.0774	0.146
344.287	0.1485
344.4965	0.1523
344.706	0.153
344.9155	0.1514
345.125	0.1506
345.3345	0.1584
345.544	0.1504
345.7534	0.162
345.9629	0.1607
346.1723	0.1634
346.3817	0.1584
346.5911	0.1596
346.8005	0.1591
347.0099	0.1626
347.2193	0.1621
347.4286	0.1668
347.638	0.1626
347.8473	0.1619
348.0566	0.1595
348.2659	0.165
348.4752	0.1626
348.6845	0.1644
348.8937	0.1616
349.103	0.1646
349.3122	0.1658
349.5214	0.1711
349.7306	0.1784
349.9398	0.1694
350.149	0.1657
350.3582	0.1738
350.5674	0.1734
350.7765	0.1733
350.9856	0.1633
351.1948	0.1686
351.4039	0.1735
351.613	0.1774
351.822	0.1776
352.0311	0.1775
352.2402	0.1766
352.4492	0.173
352.6582	0.1785
352.8672	0.1788
353.0762	0.1779
353.2852	0.1761
353.4942	0.1775
353.7032	0.1749
353.9121	0.1822
354.1211	0.18
354.33	0.183
354.5389	0.18
354.7478	0.182
354.9567	0.1897
355.1655	0.1839
355.3744	0.1835
355.5833	0.1801
355.7921	0.1904
356.0009	0.1947
356.2097	0.1849
356.4185	0.1889
356.6273	0.1837
356.8361	0.1875
357.0448	0.1846
357.2536	0.1918
357.4623	0.1916
357.671	0.1928
357.8797	0.1909
358.0884	0.1856
358.2971	0.1896
358.5057	0.1968
358.7144	0.1952
358.923	0.1931
359.1316	0.2003
359.3402	0.1966
359.5488	0.1964
359.7574	0.1962
359.966	0.2
360.1746	0.2009
360.3831	0.1976
360.5916	0.2023
360.8002	0.2109
361.0087	0.2054
361.2172	0.2017
361.4256	0.2034
361.6341	0.2105
361.8426	0.2107
362.051	0.2071
362.2594	0.2077
362.4678	0.2101
362.6762	0.2223
362.8846	0.2082
363.093	0.2152
363.3014	0.2217
363.5097	0.2164
363.718	0.2243
363.9264	0.2203
364.1347	0.2235
364.343	0.2269
364.5513	0.2213
364.7595	0.231
364.9678	0.2211
365.176	0.2314
365.3842	0.2264
365.5925	0.2254
365.8007	0.2256
366.0089	0.2383
366.217	0.233
366.4252	0.2304
366.6333	0.2296
366.8415	0.2476
367.0496	0.2371
367.2577	0.2375
367.4658	0.2247
367.6739	0.2345
367.882	0.2402
368.09	0.2275
368.2981	0.2409
368.5061	0.2481
368.7141	0.2377
368.9221	0.2539
369.1301	0.2458
369.3381	0.2469
369.5461	0.2481
369.754	0.2486
369.962	0.2467
370.1699	0.2621
370.3778	0.2664
370.5857	0.2557
370.7936	0.2566
371.0015	0.2634
371.2093	0.2571
371.4172	0.248
371.625	0.2544
371.8328	0.2553
372.0406	0.263
372.2484	0.256
372.4562	0.2552
372.664	0.2677
372.8717	0.2544
373.0795	0.2772
373.2872	0.2723
373.4949	0.2689
373.7026	0.2551
373.9103	0.2577
374.118	0.273
374.3256	0.2679
374.5333	0.2616
374.7409	0.262
374.9485	0.2718
375.1561	0.2729
375.3637	0.2671
375.5713	0.2673
375.7789	0.2752
375.9864	0.2716
376.194	0.2833
376.4015	0.2735
376.609	0.2788
376.8165	0.2772
377.024	0.2789
377.2315	0.276
377.4389	0.2705
377.6464	0.2805
377.8538	0.283
378.0612	0.2885
378.2686	0.28
378.476	0.2874
378.6834	0.2818
378.8908	0.2952
379.0981	0.2836
379.3055	0.2939
379.5128	0.2881
379.7201	0.2858
379.9274	0.2856
380.1347	0.2962
380.342	0.3035
380.5492	0.2876
380.7565	0.2957
380.9637	0.2909
381.1709	0.2949
381.3781	0.3006
381.5853	0.2887
381.7925	0.2944
381.9997	0.2941
382.2068	0.3008
382.4139	0.2983
382.6211	0.2946
382.8282	0.3069
383.0353	0.2962
383.2424	0.3014
383.4494	0.2985
383.6565	0.2977
383.8635	0.3021
384.0706	0.3111
384.2776	0.3063
384.4846	0.3
384.6916	0.2986
384.8986	0.3075
385.1055	0.3174
385.3125	0.3072
385.5194	0.3083
385.7263	0.3051
385.9333	0.306
386.1402	0.3088
386.347	0.3045
386.5539	0.299
386.7608	0.3087
386.9676	0.3141
387.1744	0.3006
387.3813	0.305
387.5881	0.3026
387.7948	0.3083
388.0016	0.3223
388.2084	0.3055
388.4151	0.3124
388.6219	0.2973
388.8286	0.3027
389.0353	0.3044
389.242	0.3005
389.4487	0.3107
389.6553	0.2888
389.862	0.3006
390.0686	0.3001
390.2753	0.2966
390.4819	0.2995
390.6885	0.3012
390.8951	0.2993
391.1016	0.2945
391.3082	0.3024
391.5147	0.2846
391.7213	0.3038
391.9278	0.2852
392.1343	0.2894
392.3408	0.2922
392.5473	0.2937
392.7537	0.2854
392.9602	0.2787
393.1666	0.2826
393.373	0.2845
393.5794	0.2847
393.7858	0.2773
393.9922	0.2751
394.1986	0.2841
394.4049	0.2831
394.6113	0.2747
394.8176	0.2797
395.0239	0.2752
395.2302	0.2765
395.4365	0.2756
395.6428	0.2731
395.8491	0.2724
396.0553	0.2702
396.2615	0.2717
396.4678	0.2836
396.674	0.2574
396.8802	0.2635
397.0863	0.272
397.2925	0.2698
397.4987	0.259
397.7048	0.268
397.9109	0.2618
398.117	0.2682
398.3231	0.2626
398.5292	0.2556
398.7353	0.2692
398.9413	0.2644
399.1474	0.2557
399.3534	0.2663
399.5594	0.2687
399.7654	0.2545
399.9714	0.2641
400.1774	0.2537
400.3833	0.2608
400.5893	0.2555
400.7952	0.2572
401.0011	0.2602
401.207	0.2494
401.4129	0.256
401.6188	0.2648
401.8247	0.2584
402.0305	0.2535
402.2364	0.2554
402.4422	0.2671
402.648	0.2608
402.8538	0.2502
403.0596	0.2552
403.2654	0.2534
403.4711	0.2603
403.6768	0.2584
403.8826	0.272
404.0883	0.2645
404.294	0.2618
404.4997	0.2667
404.7054	0.2601
404.911	0.2645
405.1167	0.2615
405.3223	0.2544
405.5279	0.2653
405.7335	0.2598
405.9391	0.2634
406.1447	0.2557
406.3502	0.2479
406.5558	0.2585
406.7613	0.2532
406.9668	0.2627
407.1724	0.2595
407.3778	0.2624
407.5833	0.2506
407.7888	0.26
407.9942	0.2557
408.1997	0.2601
408.4051	0.2613
408.6105	0.2623
408.8159	0.2538
409.0213	0.2612
409.2267	0.2597
409.432	0.2547
409.6374	0.2589
409.8427	0.27
410.048	0.2597
410.2533	0.252
410.4586	0.2515
410.6639	0.2667
410.8691	0.2479
411.0744	0.2647
411.2796	0.2643
411.4848	0.2642
411.69	0.2564
411.8952	0.2598
412.1004	0.2501
412.3056	0.2477
412.5107	0.2608
412.7158	0.2634
412.921	0.2672
413.1261	0.2518
413.3312	0.2587
413.5362	0.2617
413.7413	0.2532
413.9464	0.2506
414.1514	0.2591
414.3564	0.2532
414.5614	0.2498
414.7664	0.2594
414.9714	0.2608
415.1764	0.2552
415.3813	0.2553
415.5863	0.2583
415.7912	0.2529
415.9961	0.2481
416.201	0.2563
416.4059	0.2513
416.6108	0.2581
416.8156	0.2461
417.0205	0.2569
417.2253	0.2556
417.4301	0.255
417.6349	0.2437
417.8397	0.2489
418.0445	0.2445
418.2492	0.2401
418.454	0.2502
418.6587	0.2609
418.8634	0.2558
419.0681	0.2485
419.2728	0.2561
419.4775	0.2584
419.6822	0.2371
419.8868	0.2411
420.0915	0.2397
420.2961	0.2328
420.5007	0.2499
420.7053	0.237
420.9099	0.2425
421.1144	0.237
421.319	0.2337
421.5235	0.2335
421.728	0.2425
421.9325	0.2353
422.137	0.2338
422.3415	0.2337
422.546	0.2255
422.7504	0.2304
422.9549	0.24
423.1593	0.2307
423.3637	0.2446
423.5681	0.239
423.7725	0.2281
423.9769	0.2335
424.1812	0.2318
424.3856	0.2228
424.5899	0.2221
424.7942	0.2201
424.9985	0.2213
425.2028	0.2359
425.4071	0.2261
425.6113	0.2255
425.8156	0.2219
426.0198	0.2238
426.224	0.2129
426.4282	0.2176
426.6324	0.2144
426.8366	0.2134
427.0407	0.2172
427.2449	0.2084
427.449	0.2108
427.6531	0.2207
427.8572	0.2096
428.0613	0.2103
428.2654	0.2077
428.4694	0.1913
428.6735	0.1906
428.8775	0.2081
429.0815	0.2042
429.2855	0.1988
429.4895	0.2059
429.6935	0.1928
429.8975	0.1844
430.1014	0.1993
430.3053	0.1988
430.5093	0.1912
430.7132	0.1848
430.9171	0.1931
431.1209	0.1837
431.3248	0.1781
431.5286	0.1792
431.7325	0.186
431.9363	0.1814
432.1401	0.174
432.3439	0.1878
432.5477	0.163
432.7514	0.1752
432.9552	0.177
433.1589	0.1662
433.3627	0.168
433.5664	0.1636
433.7701	0.1681
433.9737	0.1637
434.1774	0.1601
434.3811	0.16
434.5847	0.1531
434.7883	0.1605
434.9919	0.1465
435.1955	0.1521
435.3991	0.1525
435.6027	0.1474
435.8062	0.1658
436.0098	0.143
436.2133	0.1441
436.4168	0.1491
436.6203	0.1278
436.8238	0.1336
437.0272	0.1401
437.2307	0.1417
437.4341	0.1312
437.6375	0.1373
437.841	0.1315
438.0443	0.134
438.2477	0.1256
438.4511	0.1139
438.6545	0.1248
438.8578	0.1238
439.0611	0.1215
439.2644	0.1225
439.4677	0.1128
439.671	0.1115
439.8743	0.1244
440.0775	0.103
440.2808	0.1066
440.484	0.1025
440.6872	0.1104
440.8904	0.105
441.0936	0.1021
441.2967	0.0912
441.4999	0.097
441.703	0.0951
441.9062	0.105
442.1093	0.1091
442.3124	0.0993
442.5155	0.0898
442.7185	0.093
442.9216	0.101
443.1246	0.0878
443.3276	0.0891
443.5307	0.0802
443.7337	0.0931
443.9366	0.088
444.1396	0.0817
444.3426	0.0777
444.5455	0.0834
444.7484	0.0722
444.9513	0.0847
445.1542	0.0848
445.3571	0.0798
445.56	0.0668
445.7628	0.0668
445.9657	0.0742
446.1685	0.0728
446.3713	0.0752
446.5741	0.0727
446.7769	0.0729
446.9797	0.0626
447.1824	0.0619
447.3852	0.0525
447.5879	0.0656
447.7906	0.0452
447.9933	0.0574
448.196	0.0505
448.3986	0.0576
448.6013	0.0515
448.8039	0.0617
449.0066	0.0637
449.2092	0.0589
449.4118	0.0513
449.6143	0.0538
449.8169	0.0516
450.0195	0.0443
450.222	0.0543
450.4245	0.0518
450.627	0.0517
450.8295	0.0525
451.032	0.0434
451.2345	0.0394
451.4369	0.0376
451.6394	0.0394
451.8418	0.0457
452.0442	0.0402
452.2466	0.0382
452.449	0.0392
452.6513	0.0401
452.8537	0.0304
453.056	0.0353
453.2583	0.0305
453.4607	0.0261
453.663	0.0325
453.8652	0.0248
454.0675	0.0365
454.2697	0.0314
454.472	0.0195
454.6742	0.0357
454.8764	0.0392
455.0786	0.0301
455.2808	0.019
455.4829	0.0279
455.6851	0.0201
455.8872	0.0213
456.0893	0.0306
456.2915	0.0261
456.4935	0.0348
456.6956	0.0265
456.8977	0.0192
457.0997	0.0311
457.3018	0.0229
457.5038	0.0305
457.7058	0.028
457.9078	0.0244
458.1098	0.0261
458.3117	0.0254
458.5137	0.0118
458.7156	0.0217
458.9175	0.0143
459.1194	0.016
459.3213	0.016
459.5232	0.029
459.725	0.0189
459.9269	0.0216
460.1287	0.0108
460.3305	0.0175
460.5323	0.0192
460.7341	0.0185
460.9359	0.0114
461.1376	0.0211
461.3394	0.0235
461.5411	0.0144
461.7428	0.0131
461.9445	0.0075
462.1462	0.0182
462.3479	0.0074
462.5495	0.0267
462.7512	0.0262
462.9528	0.0148
463.1544	0.012
463.356	0.0077
463.5576	0.012
463.7592	0.0137
463.9607	0.0143
464.1623	0.0149
464.3638	0.0091
464.5653	0.011
464.7668	0.0163
464.9683	0.0126
465.1697	0.011
465.3712	0.0083
465.5726	0.0039
465.7741	0.0146
465.9755	0.0129
466.1769	0.0161
466.3782	0.0078
466.5796	0.0182
466.7809	0.0193
466.9823	0.0103
467.1836	0.0057
467.3849	0.0067
467.5862	0.0038
467.7875	0.0119
467.9887	0.0114
468.19	0.0038
468.3912	0.0219
468.5924	0.0014
468.7936	0.0135
468.9948	0.0073
469.196	0.0056
469.3972	-0.0058
469.5983	0.0055
469.7994	0.0079
470.0006	0.004
470.2017	0.0024
470.4027	0.0207
470.6038	0.0046
470.8049	0.0037
471.0059	0.0159
471.2069	0.0057
471.408	0.0129
471.6089	0.009
471.8099	0.0056
472.0109	0.0067
472.2119	0.0094
472.4128	0.0056
472.6137	0.009
472.8146	0.0115
473.0155	0.0199
473.2164	0.0109
473.4173	0.0016
473.6181	-0.008
473.819	0.0104
474.0198	-0.0023
474.2206	0.0049
474.4214	0.0055
474.6222	-0.0059
474.8229	0.0006
475.0237	0.0085
475.2244	0.0085
475.4251	0.0086
475.6258	0.0022
475.8265	0.0095
476.0272	-0.0028
476.2278	0.0055
476.4285	0.0073
476.6291	0.0061
476.8297	0.0113
477.0303	-0.0028
477.2309	0.0049
477.4315	0.0077
477.632	0.0078
477.8326	0.005
478.0331	0.0113
478.2336	0.007
478.4341	0.0122
478.6346	0.0005
478.8351	0.0086
479.0355	0.0161
479.236	0.0163
479.4364	0.0085
479.6368	0.0071
479.8372	0.0078
480.0376	-0.0013
480.2379	0.0015
480.4383	0.0121
480.6386	-0.0044
480.8389	0.0063
481.0392	0.0086
481.2395	0.0081
481.4398	0.0088
481.6401	0.0108
481.8403	0.0008
482.0405	0.0068
482.2408	0.0048
482.441	-0.0002
482.6411	0.0081
482.8413	0.0043
483.0415	0.0083
483.2416	0.0023
483.4417	0.0024
483.6419	-0.0033
483.8419	0.0037
484.042	0.0077
484.2421	0.0004
484.4422	0.003
484.6422	-0.0008
484.8422	0.0034
485.0422	0.0013
485.2422	0.0039
485.4422	0.0003
485.6422	0.001
485.8421	0.0016
486.042	0.0085
486.242	0.0029
486.4419	0.0104
486.6417	0.0073
486.8416	0.0047
487.0415	0.0003
487.2413	-0.0025
487.4411	0.0066
487.641	0.0045
487.8408	0.0092
488.0405	0.0059
488.2403	0.0037
488.4401	0.0061
488.6398	0.006
488.8395	0.0021
489.0392	0.0062
489.2389	0.0068
489.4386	0.0031
489.6383	0.0036
489.8379	-0.0005
490.0376	0.0083
490.2372	0.0001
490.4368	0.0018
490.6364	-0.0111
490.836	0.0018
491.0355	-0.0001
491.2351	0.0059
491.4346	-0.0012
491.6341	0.0011
491.8336	0.0076
492.0331	-0.0042
492.2326	0.0035
492.432	0.0005
492.6315	0.0065
492.8309	0.01
493.0303	0.0008
493.2297	0.0043
493.4291	0.0016
493.6284	0.0098
493.8278	0.003
494.0271	0.0076
494.2264	-0.0005
494.4257	0.0087
494.625	0.0061
494.8243	0.0011
495.0236	0.0065
495.2228	0.0076
495.422	0.0122
495.6213	0.0038
495.8205	0.0072
496.0196	0.0061
496.2188	0.0007
496.418	0.0026
496.6171	0.0049
496.8162	0.0063
497.0153	0.0061
497.2144	0.0016
497.4135	0.0086
497.6126	0.001
497.8116	0.0048
498.0107	0.0062
498.2097	0.0063
498.4087	0.0022
498.6077	-0.0071
498.8067	0.0063
499.0056	-0.0018
499.2046	0.011
499.4035	0.0029
499.6024	-0.0009
499.8013	0.0046
500.0002	0.0053
500.199	0.0101
500.3979	0.0098
500.5967	0.0043
500.7956	-0.0037
500.9944	0.0092
501.1932	0.0068
501.3919	0.0116
501.5907	0.0053
501.7895	-0.0038
501.9882	0.0007
502.1869	0.0036
502.3856	0.0059
502.5843	0.0041
502.783	0.0016
502.9816	0.0075
503.1803	0.0016
503.3789	0.0116
503.5775	-0.0047
503.7761	0.007
503.9747	0.0098
504.1732	-0.0033
504.3718	0.0157
504.5703	0.0072
504.7689	-0.0096
504.9674	0.0015
505.1658	0.002
505.3643	0.0047
505.5628	0.0111
505.7612	0.0098
505.9597	-0.0041
506.1581	0.0016
506.3565	0.0053
506.5549	0.0052
506.7532	-0.0064
506.9516	0.0062
507.1499	0.0089
507.3482	0.0027
507.5465	0.0048
507.7448	0.0011
507.9431	0.0025
508.1414	0.0003
508.3396	0.0035
508.5379	0.0016
508.7361	0.0042
508.9343	-0.0015
509.1325	0.01
509.3306	-0.005
509.5288	-0.0068
509.7269	0.005
509.9251	0.0117
510.1232	0.0053
510.3213	0.0094
510.5193	0.0014
510.7174	-0.0026
510.9154	0.0089
511.1135	0.0044
511.3115	0.0082
511.5095	0.0072
511.7075	-0.0011
511.9055	0.0051
512.1034	0.002
512.3014	-0.0004
512.4993	0.0064
512.6972	0.0001
512.8951	0.0104
513.093	-0.0021
513.2908	0.0176
513.4887	0.0063
513.6865	0.0061
513.8844	0.0071
514.0822	-0.001
514.2799	-0.0078
514.4777	-0.0027
514.6755	-0.0008
514.8732	-0.0004
515.0709	-0.0009
515.2687	-0.0015
515.4664	0.0162
515.664	0.0023
515.8617	0.0027
516.0594	-0.0002
516.257	0.0016
516.4546	0.0187
516.6522	0.0079
516.8498	0.0012
517.0474	0.0025
517.2449	0.0015
517.4425	0.0124
517.64	0.0092
517.8375	0.0116
518.035	-0.0074
518.2325	0.0042
518.43	0.0053
518.6274	0.0028
518.8249	-0.0056
519.0223	0.0127
519.2197	0.0038
519.4171	-0.0013
519.6145	0.0107
519.8118	-0.0088
520.0092	0.0011
520.2065	0.0171
520.4038	-0.0038
520.6011	-0.0029
520.7984	0.0079
520.9956	0.0068
521.1929	0.0119
521.3901	0.0045
521.5874	0.0085
521.7846	-0.0075
521.9818	0.0107
522.1789	0.0072
522.3761	0.0061
522.5732	0.0091
522.7704	-0.0111
522.9675	0.0031
523.1646	-0.0019
523.3617	0.0072
523.5587	0.0073
523.7558	0.0046
523.9528	0.0086
524.1498	-0.003
524.3468	0.003
524.5438	0.0039
524.7408	-0.0023
524.9378	0.0026
525.1347	0.0044
525.3316	0.0065
525.5285	0.0072
525.7254	0.0102
525.9223	0.01
526.1192	0.0052
526.316	0.0045
526.5129	0.0077
526.7097	-0.0126
526.9065	0.0161
527.1033	0.0025
527.3	-0.0031
527.4968	0.0082
527.6935	-0.0053
527.8903	-0.0016
528.087	0.0067
528.2837	0.0044
528.4804	-0.0009
528.677	-0.0074
528.8737	0.002
529.0703	-0.0004
529.2669	0.0113
529.4635	0.0059
529.6601	0.0001
529.8567	-0.0014
530.0532	0.0033
530.2498	0.0055
530.4463	-0.0005
530.6428	0.0111
530.8393	0.0196
531.0358	0.0016
531.2322	-0.0069
531.4287	0.0029
531.6251	0.0035
531.8215	0.0036
532.0179	0.0022
532.2143	0.0045
532.4107	0.0075
532.607	-0.0026
532.8034	0.0053
532.9997	0.0001
533.196	-0.0015
533.3923	0.0053
533.5886	0.0061
533.7848	0.0013
533.9811	0.005
534.1773	0.0036
534.3735	0.0072
534.5697	-0.0039
534.7659	0.0019
534.9621	0.0069
535.1582	0.0033
535.3544	0.0077
535.5505	0.002
535.7466	0.0021
535.9427	-0.0011
536.1387	0.0051
536.3348	0.0041
536.5308	-0.0042
536.7269	0.0058
536.9229	0.0084
537.1189	0.001
537.3148	0.0046
537.5108	0.0085
537.7068	0.0094
537.9027	-0.0124
538.0986	0.0081
538.2945	-0.0029
538.4904	0.0002
538.6863	-0.0051
538.8821	0.0063
539.078	0.0116
539.2738	-0.0047
539.4696	-0.0023
539.6654	0.0001
539.8611	0.0082
540.0569	0.0039
540.2526	0.0116
540.4484	-0.0075
540.6441	0.0049
540.8398	0.0107
541.0355	0.008
541.2311	0.0049
541.4268	-0.001
541.6224	0.0136
541.818	0.0078
542.0136	0.0096
542.2092	0.0151
542.4048	0.0075
542.6003	0.0036
542.7959	0.0064
542.9914	0.0086
543.1869	0.0041
543.3824	0.0051
543.5779	0.0139
543.7734	0.0087
543.9688	0.0134
544.1642	-0.005
544.3596	0.0081
544.555	-0.0007
544.7504	0.0066
544.9458	0.0005
545.1411	0.0027
545.3365	0.0102
545.5318	0.0079
545.7271	0.0115
545.9224	0.0004
546.1177	0.0048
546.3129	0.0064
546.5081	0.0057
546.7034	0.0021
546.8986	0.0095
547.0938	0.0065
547.289	0.0022
547.4841	0.0009
547.6793	0.0031
547.8744	0.009
548.0695	0.0007
548.2646	0.0011
548.4597	0.0035
548.6548	0.0097
548.8498	0.0048
549.0448	0.0057
549.2399	0.0141
549.4349	0.011
549.6298	0.0106
549.8248	-0.0056
550.0198	0.0026
550.2147	0.0077
550.4096	-0.0072
550.6045	0
550.7994	0.0058
550.9943	0.0009
551.1892	-0.0073
551.384	0.009
551.5788	0.006
551.7737	0.0125
551.9685	0.005
552.1632	-0.0019
552.358	0.0052
552.5528	-0.0012
552.7475	0.0031
552.9422	-0.0017
553.1369	0.0046
553.3316	0.0122
553.5263	0.0147
553.7209	0.0034
553.9156	0.0094
554.1102	-0.0002
554.3048	-0.0027
554.4994	-0.0018
554.694	0.0045
554.8885	0.0112
555.0831	0.0076
555.2776	0.0029
555.4721	0.0022
555.6666	-0.0014
555.8611	0.0108
556.0555	0.0057
556.25	0.0022
556.4444	-0.0027
556.6388	0.0065
556.8332	-0.0032
557.0276	0.0035
557.222	-0.0035
557.4163	-0.0012
557.6107	0.0034
557.805	0.0039
557.9993	0.0001
558.1936	-0.0112
558.3879	0.0105
558.5821	-0.0048
558.7764	-0.0042
558.9706	-0.0023
559.1648	0.0103
559.359	-0.0082
559.5532	-0.0057
559.7473	-0.0031
559.9415	-0.0057
560.1356	0.0198
560.3297	0.0043
560.5238	0.0061
560.7179	0.004
560.9119	0.0037
561.106	-0.0021
561.3	-0.0018
561.494	-0.0018
561.688	0.002
561.882	-0.0019
562.076	-0.0016
562.2699	0.0115
562.4639	0.0193
562.6578	0.006
562.8517	0.005
563.0456	0.0004
563.2395	0.0046
563.4333	0.0008
563.6272	0.0005
563.821	0.012
564.0148	-0.003
564.2086	0.0029
564.4024	0.0057
564.5961	0.0054
564.7899	0.0076
564.9836	0.0103
565.1773	0.0085
565.371	0.0005
565.5647	0.0075
565.7584	0.0112
565.952	0.0049
566.1456	0.0036
566.3393	-0.0017
566.5329	-0.0065
566.7264	0.0052
566.92	0.0011
567.1136	-0.0013
567.3071	-0.0048
567.5006	0.0069
567.6941	0.0038
567.8876	0.0022
568.0811	0.0122
568.2745	-0.0053
568.468	0.0071
568.6614	0.0095
568.8548	0.0075
569.0482	0.007
569.2416	0.0035
569.4349	0.0046
569.6283	0.0009
569.8216	0.0031
570.0149	0.0032
570.2082	0.0052
570.4015	0.0003
570.5947	0.003
570.788	-0.0007
570.9812	-0.0015
571.1744	0.0013
571.3676	0.0037
571.5608	0.0009
571.754	0.011
571.9471	0.0033
572.1402	0.0014
572.3333	0.0037
572.5264	0.0021
572.7195	-0.0018
572.9126	0.0054
573.1057	0.0022
573.2987	-0.0006
573.4917	-0.0032
573.6847	-0.0012
573.8777	0.0047
574.0707	0.0022
574.2636	0.0039
574.4566	0.0015
574.6495	-0.0018
574.8424	0.0052
575.0353	0.0043
575.2281	0.0033
575.421	0.0006
575.6138	0.0034
575.8067	0.0055
575.9995	0.0019
576.1923	0.0024
576.385	0.0049
576.5778	0.0064
576.7706	0.0058
576.9633	0.0085
577.156	-0.0054
577.3487	0.001
577.5414	-0.0021
577.734	0.0008
577.9267	0.0025
578.1193	0.0062
578.3119	0.0003
578.5045	0.0053
578.6971	0.0004
578.8897	-0.0005
579.0822	0.0083
579.2747	-0.0009
579.4673	0.0034
579.6598	0.0044
579.8522	0.0053
580.0447	0.0064
580.2372	0.0061
580.4296	0.009
580.622	-0.0003
580.8144	0.0011
581.0068	0.0027
581.1992	0.0027
581.3915	0.0001
581.5839	0.0031
581.7762	0.0027
581.9685	0.0037
582.1608	0.0019
582.353	0.0041
582.5453	0.0017
582.7375	0.0074
582.9298	-0.002
583.122	-0.0003
583.3142	0.0085
583.5063	0.0014
583.6985	-0
583.8906	0.005
584.0827	0.006
584.2749	-0.0019
584.4669	-0.0028
584.659	0.0064
584.8511	0.0085
585.0431	0.0047
585.2352	0.003
585.4272	0.0043
585.6192	0.0044
585.8111	-0.0014
586.0031	-0.0005
586.195	0.0008
586.387	0.0011
586.5789	0.0027
586.7708	0.0049
586.9627	0.0022
587.1545	-0.0015
587.3464	0.0044
587.5382	0.0023
587.73	0.006
587.9218	0.0013
588.1136	0.0013
588.3053	-0.0023
588.4971	0.0025
588.6888	0.0013
588.8805	0.0048
589.0722	0.0094
589.2639	0.003
589.4556	0.0071
589.6472	0.011
589.8389	0.003
590.0305	-0.0011
590.2221	0.0062
590.4137	0.001
590.6052	0.0058
590.7968	0.0045
590.9883	-0.0005
591.1798	0.005
591.3713	0.0029
591.5628	0.0048
591.7543	0.0063
591.9458	-0.0012
592.1372	0.0075
592.3286	-0.0009
592.52	0.0013
592.7114	0.0004
592.9028	0.0076
593.0941	0.0019
593.2855	0.0046
593.4768	0.0023
593.6681	0.0055
593.8594	0.0058
594.0506	0.001
594.2419	0.0082
594.4331	0.0056
594.6244	0.0033
594.8156	0.0016
595.0067	-0.0027
595.1979	0.0009
595.3891	0.0071
595.5802	0.0039
595.7713	0.0068
595.9624	0.0073
596.1535	0.001
596.3446	-0.006
596.5357	0.0046
596.7267	0.005
596.9177	0.0037
597.1087	-0.0055
597.2997	0.0041
597.4907	-0.0013
597.6817	0.0078
597.8726	0.0023
598.0635	-0.0001
598.2544	0.0106
598.4453	0.0007
598.6362	0.0009
598.827	0
599.0179	0.0032
599.2087	0.0014
599.3995	-0.0002
599.5903	0.0055
599.7811	0.01
599.9718	-0.0034
600.1626	-0.0031
600.3533	0.0052
600.544	0.0013
600.7347	0.0026
600.9254	0.0116
601.116	0.0042
601.3067	0.0044
601.4973	0.0058
601.6879	0.0046
601.8785	0.0052
602.0691	0.0066
602.2596	0.003
602.4502	0.0049
602.6407	0.0031
602.8312	0.0014
603.0217	0.0059
603.2122	0.0083
603.4027	0.0038
603.5931	-0.0017
603.7835	0.0056
603.9739	-0.0025
604.1643	0.0053
604.3547	0.0027
604.5451	0.0044
604.7354	-0.0013
604.9257	0.0029
605.116	-0.0065
605.3063	0.0068
605.4966	0.0004
605.6869	0.0075
605.8771	0.0052
606.0673	0.0075
606.2575	-0.0022
606.4477	0.0112
606.6379	-0.0024
606.8281	0.0072
607.0182	0.0018
607.2083	0.0032
607.3985	0.0035
607.5885	0.0036
607.7786	0.0052
607.9687	0.008
608.1587	0.003
608.3488	0.0028
608.5388	-0.0007
608.7288	0.003
608.9187	0.0031
609.1087	0.0049
609.2986	0.006
609.4886	-0.0069
609.6785	0.0081
609.8684	-0.0016
610.0582	-0.0007
610.2481	-0.0025
610.4379	0.0045
610.6278	0.0051
610.8176	0.0027
611.0074	0.0033
611.1971	0.0025
611.3869	0.0095
611.5766	-0.0036
611.7664	0.0102
611.9561	0.0047
612.1458	0.0014
612.3354	-0.0029
612.5251	0.0018
612.7147	0.0004
612.9044	-0.0037
613.094	0.0042
613.2836	-0.0039
613.4731	0.0007
613.6627	0.0051
613.8522	0.0031
614.0417	0.0078
614.2313	0.006
614.4207	0.008
614.6102	0.0042
614.7997	0.0054
614.9891	0.0042
615.1785	-0.0033
615.3679	-0.0006
615.5573	0.0034
615.7467	-0.0004
615.9361	-0.0006
616.1254	0.012
616.3147	0.0017
616.504	0.0006
616.6933	0.0056
616.8826	-0.0007
617.0718	0.0085
617.2611	0.002
617.4503	0.0012
617.6395	-0.0016
617.8287	-0.0021
618.0179	0.0008
618.207	0.0088
618.3961	-0.0013
618.5853	0.0056
618.7744	0.0002
618.9634	0.0113
619.1525	0.004
619.3416	0.0019
619.5306	0.0076
619.7196	0.0103
619.9086	0.0047
620.0976	0.0009
620.2866	0.0146
620.4755	0.0022
620.6645	0.0164
620.8534	0.0034
621.0423	0.0008
621.2312	0.004
621.42	-0.0047
621.6089	0.0042
621.7977	0.0016
621.9865	-0.0007
622.1753	-0.0032
622.3641	-0.0068
622.5529	0.0014
622.7416	-0.0004
622.9303	-0.0004
623.1191	0.0045
623.3078	0.0002
623.4964	0.0067
623.6851	0.0089
623.8737	-0.0001
624.0624	-0.0098
624.251	-0.0037
624.4396	0.0054
624.6282	0.0062
624.8167	0.0005
625.0053	0.0048
625.1938	-0.0127
625.3823	0.0031
625.5708	-0.0012
625.7593	0.0012
625.9477	0.0092
626.1362	-0.0003
626.3246	-0.0014
626.513	0.0004
626.7014	0.002
626.8898	0.0206
627.0781	0.003
627.2665	0.0004
627.4548	0.0007
627.6431	0.009
627.8314	0.0079
628.0197	0.0023
628.2079	-0.0089
628.3962	0.0047
628.5844	0.0011
628.7726	-0.0015
628.9608	0.0001
629.1489	0.0048
629.3371	0.0001
629.5252	-0.0003
629.7134	-0.0099
629.9015	0.0151
630.0895	-0.0167
630.2776	0.0112
630.4657	0.0165
630.6537	0.0082
630.8417	-0.0045
631.0297	0.0024
631.2177	0.0096
631.4057	0.0058
631.5936	-0.0014
631.7815	-0.0024
631.9695	0.0235
632.1574	0.0085
632.3452	0.0035
632.5331	-0.0011
632.7209	0.0111
632.9088	-0.0058
633.0966	0.031
633.2844	0.0083
633.4722	0.0128
633.6599	0.0068
633.8477	0.0108
634.0354	0.0136
634.2231	-0.0063
634.4108	0.0028
634.5985	0.0307
634.7861	-0.0174
634.9738	-0.0126
635.1614	0.0092
635.349	-0.0019
635.5366	0.0022
635.7242	-0.0039
635.9117	0.0125
636.0993	0.0127
636.2868	-0.0098
636.4743	-0.0032
636.6618	-0.0124
636.8492	0.0006
637.0367	-0.0093
637.2241	0.012
637.4115	0.0246
637.5989	-0.0074
637.7863	0.0237
637.9737	0.0082
638.161	0.0015
638.3484	-0.0081
638.5357	0.0005
638.723	0.0083
638.9103	-0.0099
639.0975	0.0023
639.2848	0.0014
639.472	-0.0007
639.6592	-0.0089
639.8464	-0.0075
640.0336	0.0033
640.2208	-0.0012
640.4079	0.0012
640.595	-0.0095
640.7821	0.0248
640.9692	0.0027
641.1563	0.009
641.3434	0.023
641.5304	0.013
641.7174	0.021
641.9044	-0.0066
642.0914	0.009
642.2784	-0.0217
642.4653	-0.0009
642.6523	0.0026
642.8392	-0.0129
643.0261	0.0127
643.213	-0.0072
643.3999	0.0022
643.5867	0.0243
643.7735	0.0022
643.9604	-0.0011
644.1472	0.0148
644.3339	0.0028
644.5207	0.0035
644.7075	-0.0026
644.8942	0.0057
645.0809	-0.0075
645.2676	-0.0186
645.4543	0.0059
645.6409	0.0165
645.8276	0.0046
646.0142	0.0027
646.2008	0.003
646.3874	0.0064
646.574	-0.0057
646.7605	0.0114
646.9471	0.0056
647.1336	-0.0238
647.3201	0.0119
647.5066	-0.0017
647.6931	0.0133
647.8795	0.0006
648.0659	0.0099
648.2524	0.0231
648.4388	-0.0017
648.6252	0.0237
648.8115	0.003
648.9979	0.0156
649.1842	0.0024
649.3705	0.0202
649.5568	-0.0022
649.7431	-0.0038
649.9294	0.0023
650.1156	-0.0012
650.3018	0.0181
650.488	0.0175
650.6742	0.0224
650.8604	-0.001
651.0466	-0.0053
651.2327	0.0117
651.4188	0.0052
651.6049	0.0319
651.791	-0.0026
651.9771	0.0104
652.1632	-0.001
652.3492	-0.0157
652.5352	0.0077
652.7212	0.0016
652.9072	-0.0206
653.0932	0.0163
653.2791	0.0157
653.465	0.0091
653.651	0.0023
653.8369	0.0094
654.0227	0.0007
654.2086	0.0129
654.3944	0.0064
654.5803	0.0115
654.7661	0.0048
654.9519	0.0007
655.1377	0.0001
655.3234	0.0001
655.5092	0.0001
655.6949	0.0001
655.8806	0.0001
656.0663	0.0001
656.2519	0.0001
656.4376	0.0001
656.6232	0.0001
656.8088	0.0001
656.9945	0.0001
657.18	0.0001
657.3656	0.0001
657.5511	0.0001
657.7367	0.0001
657.9222	0.0001
658.1077	0.0001
658.2932	0.0001
658.4786	0.0001
658.6641	0.0001
658.8495	0.0001
659.0349	0.0001
659.2203	0.0001
659.4057	0.0001
659.591	0.0797
659.7764	0.0148
659.9617	-0.004
660.147	0.0223
660.3323	-0.0108
660.5176	-0.0009
660.7028	-0.0168
660.888	0.0046
661.0733	0.0182
661.2585	-0.009
661.4436	0.0064
661.6288	0.0226
661.8139	0.0092
661.9991	-0.0111
662.1842	0.0112
662.3693	0.002
662.5544	0.0194
662.7394	0.0367
662.9245	-0.0084
663.1095	-0.0028
663.2945	0.0179
663.4795	-0.0024
663.6644	-0.0199
663.8494	0.006
664.0343	0.0075
664.2193	-0.0212
664.4042	0.011
664.589	0.0089
664.7739	0.0134
664.9587	-0.0158
665.1436	0.0052
665.3284	0.0112
665.5132	-0.0178
665.698	0.0325
665.8827	0.0114
666.0675	-0.0115
666.2522	0.0187
666.4369	0.0056
666.6216	0.0014
666.8063	-0.0214
666.9909	-0.0067
667.1756	0.002
667.3602	0.011
667.5448	0.0129
667.7294	0.0058
667.9139	-0.019
668.0985	0.0024
668.283	-0.0084
668.4675	0.0259
668.652	0.0118
668.8365	-0.015
669.0209	0.0205
669.2054	0.0215
669.3898	0.0093
669.5742	0.0154
669.7586	0.0282
669.943	0.0102
670.1273	-0.0103
670.3117	0.0346
670.496	0.0117
670.6803	0.0077
670.8646	-0.0201
671.0488	0.035
671.2331	-0.0109
671.4173	0.0105
671.6015	-0.0031
671.7857	0.0052
671.9699	-0.0065
672.1541	-0.0079
672.3382	-0.0052
672.5223	0.0006
672.7064	0.004
672.8905	-0.0182
673.0746	0.0136
673.2587	0.0203
673.4427	0.0098
673.6267	0.012
673.8107	0.0141
673.9947	0.0096
674.1787	0.0202
674.3626	0.0035
674.5465	-0.0038
674.7304	-0.0096
674.9143	-0.0185
675.0982	0.0059
675.2821	0.0225
675.4659	-0.01
675.6497	0.0056
675.8335	-0.0086
676.0173	-0.018
676.2011	0.0127
676.3849	0.0174
676.5686	0.0268
676.7523	0.006
676.936	-0.0015
677.1197	-0.01
677.3034	0.0289
677.487	-0.0021
677.6706	0.0022
677.8542	-0.0018
678.0378	0.0005
678.2214	-0.0004
678.405	0.0194
678.5885	0.0271
678.772	-0.0017
678.9555	0.0159
679.139	0.0063
679.3225	0.0074
679.5059	-0.0077
679.6894	-0.0006
679.8728	0.0021
680.0562	0.0065
680.2395	-0.0019
680.4229	-0.0088
680.6062	0.0193
680.7896	-0.0184
680.9729	0.0246
681.1562	0.008
681.3394	-0.0043
681.5227	0.0088
681.7059	0.0266
681.8891	0.0003
682.0723	0.0156
682.2555	0.013
682.4387	0.0049
682.6218	0.0158
682.805	0.0009
682.9881	0.0209
683.1712	0.008
683.3542	0.0074
683.5373	0.0068
683.7203	0.0103
683.9034	0.0054
684.0864	-0.0037
684.2694	0.0198
684.4523	0.0133
684.6353	-0.0148
684.8182	-0.0029
685.0011	0.0141
685.184	-0.0095
685.3669	0.0083
685.5498	0.0015
685.7326	0.0006
685.9154	-0.0053
686.0982	0.0158
686.281	0.0026
686.4638	0.0117
686.6465	0.0008
686.8293	-0.0035
687.012	0.007
687.1947	0.004
687.3774	0.0122
687.56	-0.0014
687.7427	0.0074
687.9253	-0.0202
688.1079	0.0144
688.2905	-0.0244
688.4731	0.0229
688.6556	0.0043
688.8382	-0.0138
689.0207	0.0146
689.2032	-0.0007
689.3857	-0.0057
689.5681	0.021
689.7506	0.0271
689.933	-0.0052
690.1154	-0.0059
690.2978	0.0006
690.4802	0.0293
690.6626	-0.0043
690.8449	-0.0037
691.0272	-0.0066
691.2095	-0.0091
691.3918	0.0247
691.5741	0.0116
691.7563	-0.0059
691.9386	0.0189
692.1208	-0.0002
692.303	-0.0099
692.4852	-0.0028
692.6673	-0.0065
692.8495	-0.0051
693.0316	0.0015
693.2137	0.0144
693.3958	0.0065
693.5778	-0.0064
693.7599	-0.0168
693.9419	0.0207
694.1239	0.0125
694.3059	0.0088
694.4879	0.0092
694.6699	-0.0048
694.8518	0.0178
695.0337	0.0099
695.2157	0.033
695.3975	-0.0245
695.5794	-0.0117
695.7613	0.0044
695.9431	-0.0189
696.1249	0.0195
696.3067	-0.0013
696.4885	0.0243
696.6703	0.0151
696.852	-0.0109
697.0337	0.0189
697.2154	0
697.3971	-0.0013
697.5788	0.0313
697.7605	-0.0104
697.9421	0.0204
698.1237	0.0138
698.3053	-0.0182
698.4869	-0.0005
698.6685	0
698.85	0.0178
699.0315	0.0025
699.213	0.0037
699.3945	0.0072
699.576	0.0072
699.7575	0.0133
699.9389	-0.0156
700.1203	0.0238
700.3017	-0.0043
700.4831	-0.0011
700.6645	0.02
700.8458	-0.0109
701.0271	0.0313
701.2084	-0.0042
701.3897	0.0034
701.571	-0.0421
701.7523	-0.0125
701.9335	-0.0024
702.1147	0.0195
702.2959	-0.0033
702.4771	0.0133
702.6583	0.0032
702.8394	-0.0067
703.0205	0.0057
703.2016	-0.0173
703.3827	-0.008
703.5638	0.0092
703.7449	0.0368
703.9259	0.004
704.1069	-0.0277
704.2879	0.035
704.4689	-0.0022
704.6499	0.0191
704.8308	0.0278
705.0117	0.0098
705.1927	0.0359
705.3735	0.0098
705.5544	0.0023
705.7353	-0.0232
705.9161	-0.0303
706.0969	-0.0139
706.2777	0.0029
706.4585	0.0094
706.6393	0.0077
706.82	0.014
707.0007	0.0005
707.1815	-0.0073
707.3621	0.0284
707.5428	0.005
707.7235	-0.0002
707.9041	0.0107
708.0847	0.0034
708.2653	0.0159
708.4459	-0.0009
708.6265	0.0109
708.807	0.0025
708.9875	-0.0054
709.168	0.0029
709.3485	0.0171
709.529	0.0082
709.7095	0.014
709.8899	0.0294
710.0703	0.0187
710.2507	0.0041
710.4311	-0.033
710.6115	0.0088
710.7918	0.004
710.9721	0.0007
711.1524	-0.0003
711.3327	-0.0188
711.513	-0.0027
711.6932	0.0094
711.8735	0.0146
712.0537	-0.008
712.2339	0.009
712.4141	0.025
712.5942	-0.015
712.7744	-0.0046
712.9545	0.0186
713.1346	0.0178
713.3147	-0.0014
713.4947	0.0143
713.6748	-0.0044
713.8548	0.0248
714.0348	-0.0029
714.2148	0.0102
714.3948	0.0116
714.5748	0.0148
714.7547	0.0051
714.9346	0.0223
715.1145	0.0115
715.2944	-0.0216
715.4743	-0.0067
715.6541	-0.0068
715.834	0.0287
716.0138	0.0155
716.1936	-0.0171
716.3733	-0.0346
716.5531	0.0318
716.7328	0.035
716.9126	-0.0133
717.0923	-0.0241
717.2719	0.0129
717.4516	0.0125
717.6312	0.0125
717.8109	0.0315
717.9905	0.0081
718.1701	0.0045
718.3496	0.0072
718.5292	-0.0177
718.7087	0.0004
718.8882	0.0034
719.0677	-0.0182
719.2472	-0.0131
719.4267	0.0015
719.6061	-0.0155
719.7856	0.0215
719.965	0.0081
720.1443	-0.0093
720.3237	0.0028
720.5031	0.0085
720.6824	-0.0196
720.8617	-0.0096
721.041	0.0276
721.2203	-0.008
721.3995	-0.0313
721.5788	0.004
721.758	-0.0273
721.9372	0.0021
722.1164	0.0193
722.2956	-0.0026
722.4747	0.0044
722.6538	-0.0087
722.8329	0.0307
723.012	0.0504
723.1911	-0.017
723.3702	0.0183
723.5492	-0.0072
723.7282	0.0065
723.9072	0.0147
724.0862	0.0081
724.2652	-0.0055
724.4441	0.0218
724.623	0.0168
724.8019	0.0065
724.9808	0.0004
725.1597	0.0167
725.3385	0.0021
725.5174	-0.0043
725.6962	0.0114
725.875	0.0104
726.0538	0.013
726.2325	0.0159
726.4112	-0.024
726.59	-0.0287
726.7687	-0.0264
726.9474	0.0078
727.126	0.0234
727.3047	-0.0058
727.4833	-0.0022
727.6619	0.0091
727.8405	0.0055
728.0191	0.033
728.1976	-0.0052
728.3762	0.0062
728.5547	0.0167
728.7332	0.0119
728.9116	0.0117
729.0901	0.0003
729.2686	-0.0034
729.447	0.0035
729.6254	0.0025
729.8038	0.0083
729.9821	-0.0065
730.1605	0.0008
730.3388	0.0016
730.5171	0.0017
730.6954	0.002
730.8737	0.0126
731.0519	-0.0227
731.2302	0.0115
731.4084	0.0022
731.5866	-0.0034
731.7648	-0.0053
731.9429	0.0223
732.1211	-0.0009
732.2992	0.0123
732.4773	0.0192
732.6554	-0.0204
732.8335	0.0139
733.0115	0.0175
733.1896	-0.0016
733.3676	0.0033
733.5456	0
733.7235	-0.0022
733.9015	0.0072
734.0794	-0.014
734.2574	-0.0145
734.4353	0.0093
734.6131	-0.0061
734.791	-0.0019
734.9689	-0.0073
735.1467	-0.0186
735.3245	0.0337
735.5023	0.0185
735.68	-0.0121
735.8578	0.0159
736.0355	-0.0063
736.2132	0.011
736.3909	0
736.5686	-0.0102
736.7463	-0.0226
736.9239	0.0193
737.1015	0.0015
737.2791	0.0165
737.4567	0.0197
737.6343	-0.0164
737.8118	0.0224
737.9894	-0.0087
738.1669	-0.0046
738.3444	0.0191
738.5218	-0.0317
738.6993	-0.0141
738.8767	0.0071
739.0541	-0.0064
739.2315	0.0099
739.4089	0.0073
739.5863	0.0106
739.7636	-0.0034
739.9409	0.0224
740.1182	0.0137
740.2955	0.0211
740.4728	-0.0182
740.65	0.0005
740.8272	0.0176
741.0044	0.0273
741.1816	0.0016
741.3588	-0.0133
741.5359	-0.0015
741.7131	-0.0104
741.8902	0
742.0673	-0.0073
742.2444	0.0309
742.4214	0.0221
742.5985	-0.0115
742.7755	0.0204
742.9525	-0.0047
743.1295	-0.0287
743.3064	-0.0268
743.4834	0.0121
743.6603	0.0378
743.8372	-0.0391
744.0141	0.0161
744.191	0.0231
744.3678	-0.0436
744.5446	0.0087
744.7215	0.0214
744.8982	0.0093
745.075	0.0367
745.2518	0.0384
745.4285	0.0404
745.6052	-0.0154
745.7819	0.0047
745.9586	0.0232
746.1353	-0.0319
746.3119	-0.012
746.4885	0.0107
746.6651	-0.0255
746.8417	-0.0016
747.0183	0.0591
747.1948	0.0035
747.3714	0.0071
747.5479	0.0228
747.7244	-0.0028
747.9008	-0.0174
748.0773	0.0476
748.2537	0.0297
748.4301	0.0434
748.6065	-0.0027
748.7829	-0.0462
748.9593	-0.0175
749.1356	-0.0178
749.3119	-0.0022
749.4882	0.0199
749.6645	0.0085
749.8408	-0.0009
750.017	0.0111
750.1933	-0.0057
750.3695	0.0079
750.5457	-0.0064
750.7218	0.0023
750.898	-0.0046
751.0741	-0.0082
751.2502	0.0157
751.4263	-0.0015
751.6024	-0.0026
751.7784	-0.0048
751.9545	0.0075
752.1305	0.0031
752.3065	-0.0031
752.4825	0.0008
752.6584	0.02
752.8344	0.0078
753.0103	-0.0312
753.1862	0.0217
753.3621	0.0147
753.5379	0
753.7138	-0.0103
753.8896	0.0089
754.0654	0.0059
754.2412	0.0184
754.417	0.0474
754.5927	0.0072
754.7685	0.0067
754.9442	0.0099
755.1199	0.0154
755.2956	0.0139
755.4712	-0.0079
755.6469	-0.0122
755.8225	0.0125
755.9981	0.0054
756.1736	0.0047
756.3492	0.0056
756.5248	0.0048
756.7003	0.0067
756.8758	-0.001
757.0513	-0.0004
757.2267	-0.0035
757.4022	-0.0088
757.5776	0.0161
757.753	0.0108
757.9284	-0.0007
758.1038	0.0204
758.2791	0
758.4545	-0.0142
758.6298	0.0136
758.8051	0.0033
758.9803	0.0131
759.1556	0.0028
759.3308	0.0059
759.506	0
759.6812	0.0137
759.8564	0.0019
760.0316	-0.0043
760.2067	0.0209
760.3819	-0.0046
760.557	-0.0042
760.732	0.0011
760.9071	0.0133
761.0821	-0.0318
761.2572	0.0218
761.4322	0.012
761.6072	-0.0104
761.7821	-0.0089
761.9571	0.0175
762.132	0.0066
762.3069	0.0227
762.4818	-0.0041
762.6567	0.0126
762.8316	0.0152
763.0064	0.0132
763.1812	-0.0083
763.356	-0.0121
763.5308	0.0055
763.7055	-0.0037
763.8803	0.0143
764.055	-0.01
764.2297	0.005
764.4044	0.0005
764.579	-0.0018
764.7537	-0.0106
764.9283	0.0048
765.1029	-0.0038
765.2775	0.005
765.4521	-0.0036
765.6266	-0.0281
765.8011	-0.0097
765.9756	0.0256
766.1501	0.0051
766.3246	0.0167
766.4991	-0.0038
766.6735	0.0595
766.8479	0.0103
767.0223	0.0276
767.1967	0.0227
767.371	0.0042
767.5454	0.0376
767.7197	0.0363
767.894	-0.0091
768.0683	0.0117
768.2425	-0.0017
768.4168	0.0064
768.591	-0.0007
768.7652	0.008
768.9394	-0.0239
769.1135	0.0009
769.2877	0.0171
769.4618	0.023
769.6359	0.0123
769.81	0.0079
769.984	0.0122
770.1581	0.0199
770.3321	0.019
770.5061	-0.001
770.6801	-0.0033
770.8541	0.019
771.028	0.0185
771.202	0.0238
771.3759	0.0309
771.5498	0.0215
771.7236	-0.0132
771.8975	0.0322
772.0713	0.0056
772.2451	-0.0195
772.4189	0.0339
772.5927	-0.0025
772.7665	-0.0195
772.9402	-0.0288
773.1139	-0.0054
773.2876	-0.0193
773.4613	0.0057
773.635	0.0317
773.8086	0
773.9822	0.0147
774.1558	0.036
774.3294	-0.0199
774.503	-0.0075
774.6765	-0.01
774.8501	-0.004
775.0236	0.018
775.1971	0.0156
775.3705	0.0119
775.544	-0.0408
775.7174	-0.0048
775.8908	-0.0128
776.0642	0.0034
776.2376	0.0329
776.4109	0.0194
776.5843	0.0198
776.7576	0.0182
776.9309	0.0276
777.1041	-0.0299
777.2774	0.0152
777.4506	-0.0142
777.6238	-0.0312
777.797	0.0064
777.9702	-0.0223
778.1434	-0.003
778.3165	-0.0036
778.4896	-0.0095
778.6627	0.0091
778.8358	-0.0085
779.0089	-0.0233
779.1819	0.0358
779.3549	0.016
779.5279	-0.0146
779.7009	0.0505
779.8739	0.0452
780.0468	0.0108
780.2197	0.0163
780.3926	-0.0309
780.5655	0.0212
780.7384	-0.0245
780.9112	0.0301
781.0841	0.019
781.2569	0.0337
781.4297	0.0125
781.6024	0.0244
781.7752	0.0248
781.9479	0.0413
782.1206	0.0173
782.2933	0.0035
782.466	0.0281
782.6386	-0.0112
782.8113	0.0136
782.9839	0
783.1565	0.0084
783.329	0.013
783.5016	0.0093
783.6741	0.0304
783.8466	0.062
784.0191	0.0312
784.1916	-0.017
784.3641	-0.0192
784.5365	0.0203
784.7089	-0.0227
784.8813	0.0542
785.0537	0.0014
785.2261	0.042
785.3984	-0.0047
785.5707	-0.0243
785.743	0.0529
785.9153	-0.0402
786.0876	-0.0406
786.2598	-0.0351
786.432	0.0222
786.6042	0.0806
786.7764	-0.0262
786.9486	0.0042
787.1207	0.0428
787.2928	0.029
787.4649	0.0092
787.637	-0.0046
787.8091	-0.0005
787.9811	0.0209
788.1532	-0.0034
788.3252	-0.0109
788.4972	0.0326
788.6691	-0.0272
788.8411	0.0055
789.013	0.0239
789.1849	-0.0049
789.3568	0.0405
789.5287	0.0502
789.7005	-0.0009
789.8723	-0.0119
790.0442	-0.026
790.2159	0.0333
790.3877	-0.0096
790.5595	0.0106
790.7312	-0.0214
790.9029	-0.0438
791.0746	-0.0066
791.2463	-0.0716
791.4179	-0.0155
791.5896	-0.0106
791.7612	0.06
791.9328	0.0014
792.1044	0.0223
792.2759	-0.0412
792.4474	-0.0148
792.619	0.0012
792.7905	0.0495
792.9619	-0.0122
793.1334	0.0886
793.3048	0.0668
793.4762	-0.0041
793.6476	-0.0569
793.819	-0.0039
793.9904	0.0205
794.1617	-0.0055
794.333	0.0263
794.5043	0.0396
794.6756	0.0232
794.8469	0.031
795.0181	0.0246
795.1893	0.0523
795.3605	0.0343
795.5317	-0.0062
795.7029	-0.0124
795.874	-0.0155
796.0452	0.0518
796.2163	0.0398
796.3873	0.0413
796.5584	0.0715
796.7294	-0.0145
796.9005	0.0258
797.0715	-0.0214
797.2425	0.0851
797.4134	0.029
797.5844	-0.0085
797.7553	-0.016
797.9262	0.0633
798.0971	-0.0348
798.2679	-0.0165
798.4388	0.0749
798.6096	0.0584
798.7804	0.0504
798.9512	0.0013
799.122	0.0293
799.2927	0.0409
799.4635	-0.0014
799.6342	-0.0237
799.8049	0.0013
799.9755	-0.0079
800.1462	-0.004
800.3168	0.0329
800.4874	-0.135
800.658	-0.0088
800.8286	0.0779
800.9991	-0.0168
801.1696	-0.0401
801.3402	-0.0194
801.5106	-0.0476
801.6811	-0.0611
801.8516	0.0638
802.022	-0.0725
802.1924	-0.006
802.3628	0.037
802.5332	0.1044
802.7035	0.0779
802.8739	0.0262
803.0442	0.0623
803.2145	0.0051
803.3847	0.0175
803.555	0.0629
803.7252	-0.0121
803.8954	-0.016
804.0656	0.0124
804.2358	0.0188
804.4059	0.0949
804.5761	-0.0055
804.7462	-0.0457
804.9163	0.0413
805.0864	0.0308
805.2564	0.0195
805.4264	-0.054
805.5965	0.054
805.7665	0.0433
805.9364	0.0111
806.1064	0.0291
806.2763	0.0841
806.4462	0.0317
806.6161	0.0601
806.786	0.0164
806.9559	0.019
807.1257	0.0156
807.2955	0.022
807.4653	0.0037
807.6351	0.0357
807.8048	0.0196
807.9746	-0.0048
808.1443	-0.0286
808.314	-0.0069
808.4837	0.1248
808.6533	-0.0076
808.8229	-0.0358
808.9926	0.0125
809.1622	0.0156
809.3317	-0.033
809.5013	0.0227
809.6708	0.0258
809.8403	0.0083
810.0098	-0.0356
810.1793	0.0238
810.3488	0.0178
810.5182	0.1169
810.6876	0.0925
810.857	0.0371
811.0264	0.0315
811.1958	0.0339
811.3651	0.0002
811.5344	0.0663
811.7037	0.0391
811.873	0.0669
812.0422	-0.0821
812.2115	0.0144
812.3807	-0.1609
812.5499	-0.0298
812.7191	0.0676
812.8882	-0.1124
813.0574	0.1265
813.2265	0.148
813.3956	0.015
813.5646	0.1136
813.7337	-0.0309
813.9027	-0.052
814.0718	0.043
814.2407	0.1049
814.4097	0.0608
814.5787	0.1006
814.7476	0.0164
814.9165	0.0171
815.0854	-0.087
815.2543	0.1271
815.4232	0.0719
815.592	0.1782
815.7608	-0.1655
815.9296	0.0764
816.0984	-0.0335
816.2671	-0.1107
816.4359	0.0372
816.6046	0.0253
816.7733	-0.1268
816.942	-0.0257
817.1106	0.1427
817.2793	-0.0615
817.4479	-0.0632
817.6165	0.0538
817.785	0.058
817.9536	-0.05
818.1221	0.0551
818.2906	-0.0956
818.4591	0.052
818.6276	0.0494
818.7961	-0.0479
818.9645	0.0458
819.1329	0.2264
819.3013	-0.0061
819.4697	0.189
819.638	0.0479
819.8064	-0.0221
819.9747	-0.0748
820.143	-0.1231
820.3113	0.0362
820.4795	0.0169
820.6477	0.0894
820.816	0.0738
820.9842	-0.0065
821.1523	-0.0044
821.3205	-0.0098
821.4886	-0.0574
821.6567	-0.0848
821.8248	0.213
821.9929	-0.1611
822.1609	0.0352
822.329	0.1035
822.497	-0.0261
822.665	-0.0248
822.833	0.0156
823.0009	0.0038
823.1688	0.2015
823.3367	-0.0467
823.5046	0.1329
823.6725	-0.019
823.8404	-0.1346
824.0082	0.0408
824.176	0.0004
824.3438	0.1994
824.5116	-0.0366
824.6793	0.2322
824.847	-0.1785
825.0147	0.2241
825.1824	0.0993
825.3501	0.0316
825.5177	-0.0491
825.6854	-0.2892
825.853	-0.1154
826.0206	-0.0756
826.1881	0.0265
826.3557	-0.0032
826.5232	0.2246
826.6907	-0.025
826.8582	-0.0669
827.0257	0.1755
827.1931	0.1275
827.3605	-0.0328
827.528	-0.0533
827.6953	-0.2184
827.8627	-0.1914
828.03	0.026
828.1974	0.0209
828.3647	-0.0336
828.532	-0.0453
828.6992	0.1842
828.8665	-0.1374
829.0337	0.2811
829.2009	-0.1563
829.3681	-0.0029
829.5352	-0.2809
829.7024	0.126
829.8695	0.1533
830.0366	0.3397
830.2037	0.0396
830.3707	0.0225
830.5378	-0.0755
830.7048	-0.0479
830.8718	-0.0082
831.0388	-0.0153
831.2057	0.0208
831.3727	-0.2653
831.5396	-0.1765
831.7065	-0.7586
831.8734	0.2802
832.0402	0.22
832.2071	-0.3072
832.3739	-0.2793
832.5407	-1.8081
832.7075	-0.2961
832.8742	0.1087
833.041	0.2893
833.2077	0.2813
833.3744	-0.0235
833.541	0.1169
833.7077	-0.164
833.8743	0.4651
834.0409	0.0141
834.2075	0.0435
834.3741	-0.1109
834.5407	-0.1502
834.7072	0.0208
834.8737	0.0233
835.0402	0.4835
835.2067	0.1884
835.3731	0.0519
835.5395	0.0949
835.706	-0.237
835.8723	0.1147
836.0387	-0.0238
836.2051	0.1216
836.3714	0.0437
836.5377	0.447
836.704	0.1845
836.8703	-0.3207
837.0365	-0
837.2027	0.2252
837.3689	0.0004
837.5351	0.1999
837.7013	0.1015
837.8674	-0.2786
838.0335	0.155
838.1997	-0.3199
838.3657	1.1634
838.5318	-0
838.6978	1.3094
838.8639	0.2084
839.0299	0.0591
839.1958	0.0388
839.3618	-0
839.5277	0.1595
839.6937	-0.1839
839.8596	-0.1359
840.0254	-0.1037
840.1913	-0.0326
840.3571	-0.2977
840.523	-0
840.6888	0.1044
840.8545	-0.374
841.0203	0.1371
841.186	0.056
841.3517	-0.1276
841.5174	0.6497
841.6831	0.1467
841.8488	-0.0395
842.0144	-0.0541
842.18	0.5272
842.3456	-0.0305
842.5112	-0.0248
842.6767	0.2201
842.8422	0.3069
843.0077	0.2655
843.1732	-0.5347
843.3387	-0
843.5042	-0
843.6696	0.0669
843.835	-0.1557
844.0004	0.1042
844.1657	-0
844.3311	0.2149
844.4964	-0.7147
844.6617	0.5576
844.827	-0
844.9923	0.4403
845.1575	-0
845.3227	-0
845.4879	0.0385
845.6531	0.07
845.8183	0.1656
845.9834	-0
846.1485	0.1404
846.3136	0.285
846.4787	0.5135
846.6438	0.1238
846.8088	0.6181
846.9738	-0
847.1388	0.1927
847.3038	-0
847.4687	-0
847.6337	-0
847.7986	-0.0264
847.9635	0.447
848.1284	1.0491
848.2932	0.1827
848.458	-1.918
848.6228	0.4664
848.7876	-0
848.9524	0.4798
849.1172	-1.9015
849.2819	-0
849.4466	0.1028
849.6113	0.1324
849.7759	-0
849.9406	-0.1635
850.1052	-0
850.2698	-0
850.4344	-0.4102
850.599	-0.1489
850.7635	-0.048
850.928	0.3233
851.0925	0.5679
851.257	0.0147
851.4215	-0.2178
851.5859	0.0932
851.7503	-0
851.9147	-0.0536
852.0791	-0.1122
852.2434	0.2493
852.4078	-0
852.5721	0.0194
852.7364	0.1346
852.9007	-0.0248
853.0649	-0
853.2291	0.1432
853.3934	-0
853.5575	-0.2278
853.7217	0.3043
853.8859	0.3714
854.05	-0.2927
854.2141	0.5848
854.3782	-0.3738
854.5423	-0.3289
854.7063	0.4507
854.8703	0.0836
855.0343	-0.1442
855.1983	-0.0356
855.3623	-0.0472
855.5262	0.2376
855.6901	0.2582
855.854	0.1901
856.0179	-0.4013
856.1818	0.4878
856.3456	0.4254
856.5094	-0
856.6732	-0
856.837	-0.4629
857.0008	0.7576
857.1645	-0
857.3282	-0.4746
857.4919	0.2751
857.6556	-0.3934
857.8192	-0.1308
857.9828	-0.0993
858.1465	-0
858.31	-0
858.4736	-0.668
858.6372	0.5288
858.8007	-0.0466
858.9642	0.6113
859.1277	0.5605
859.2911	-0.6236
859.4546	-0
859.618	0.0344
859.7814	-0.0236
859.9448	-0.1695
860.1081	0.0669
860.2715	-0
860.4348	-0
860.5981	-0
860.7614	0.6659
860.9246	-0.194
861.0879	0.3689
861.2511	-0
861.4143	-0.6506
861.5774	-0.304
861.7406	0.5212
861.9037	-0
862.0668	-0.8371
862.2299	0.2386
862.393	0.4024
862.556	-0
862.7191	-0.2139
862.8821	-0.0792
863.0451	-0
863.208	-0
863.371	-0.2838
863.5339	0.2781
863.6968	-0.1035
863.8597	0.5394
864.0225	0.0018
864.1854	0.3659
864.3482	-0.6485
864.511	0.1858
864.6737	-0.3707
864.8365	0.0879
864.9992	-0
865.1619	-0.1398
865.3246	-1.2553
865.4873	-0.5434
865.65	0.2083
865.8126	-0.0725
865.9752	-0.1834
866.1378	-0.102
866.3004	-0.2385
866.4629	-1.9198
866.6254	-0.5942
866.7879	0.0018
866.9504	-0.0792
867.1129	-0.632
867.2753	-0.1226
867.4377	-0
867.6001	-0.4814
867.7625	-0.2053
867.9249	0.2235
868.0872	-0.1062
868.2495	-0
868.4118	0.8902
868.5741	-0.4555
868.7363	-0
868.8986	-0
869.0608	0.0034
869.223	-0.6698
869.3851	-0
869.5473	0.1538
869.7094	-0
869.8715	0.0102
870.0336	-0.0103
870.1957	-0
870.3577	0.6146
870.5197	-0.1254
870.6817	-0.7318
870.8437	-0.1717
871.0057	-0
871.1676	0.0004
871.3295	-0.3368
871.4914	-0
871.6533	-0.4464
871.8151	0.1422
871.977	0.0958
872.1388	1.5929
872.3006	-0.5582
872.4623	-0.4246
872.6241	-0
872.7858	-0
872.9475	0.2256
873.1092	0.4286
873.2709	0.397
873.4325	-0.7782
873.5941	0.5576
873.7557	-0.0273
873.9173	-0.0668
874.0789	0.0006
874.2404	-0
874.4019	-0.0218
874.5634	-0
874.7249	-0
874.8863	-0
875.0478	0.2012
875.2092	0.6946
875.3706	0.0641
875.5319	-0
875.6933	0.3241
875.8546	0.0025
876.0159	0.1787
876.1772	-0.2857
876.3385	0.4209
876.4997	0.3691
876.6609	0.6322
876.8221	-0
876.9833	-0
877.1445	0.2274
877.3056	-1.1501
877.4667	-0.8896
877.6278	0.0142
877.7889	-0.1242
877.9499	-0
878.111	-0.5725
878.272	0.132
878.433	-0
878.5939	0.2937
878.7549	-0.4027
878.9158	1.6318
879.0767	-0
879.2376	1.4008
879.3984	0.2835
879.5593	-0
879.7201	-1.4516
879.8809	-0.0234
880.0417	-0.3671
880.2024	0.2076
880.3632	-0
880.5239	-0
880.6846	-0.5212
880.8452	0.0691
881.0059	-0
881.1665	0.069
881.3271	0.262
881.4877	0.7659
881.6483	-0
881.8088	-0
881.9693	-0
882.1298	-0
882.2903	-0
