Data from D4ACN5uM460nmA_Absorbance_13-05-41-000.txt Node
Date: Fri Feb 21 13:05:41 GMT 2025
User: LASERRRRR
Spectrometer: FLMT03099
Trigger mode: 0
Integration Time (sec): 1.500000E-2
Scans to average: 1
Electric dark correction enabled: true
Nonlinearity correction enabled: false
Boxcar width: 0
XAxis mode: Wavelengths
Number of Pixels in Spectrum: 3648
>>>>>Begin Spectral Data<<<<<
179.3399	-0
179.5586	-0
179.7771	-0
179.9957	-0.0748
180.2143	-0
180.4329	0.012
180.6514	-0
180.8699	-0
181.0885	-0
181.307	0.3576
181.5255	-0.1369
181.744	-0
181.9625	0.641
182.181	1.5769
182.3994	-0.559
182.6179	-0
182.8363	-0
183.0547	0.0043
183.2732	0.2286
183.4916	0.1893
183.71	0.4508
183.9284	0.2233
184.1467	0.8241
184.3651	0.0558
184.5835	0.1797
184.8018	0.1634
185.0201	0.1904
185.2385	0.1658
185.4568	0.2155
185.6751	0.1776
185.8934	0.0798
186.1117	-0.0043
186.3299	0.1489
186.5482	0.1334
186.7664	0.455
186.9847	-0.1269
187.2029	0.0903
187.4211	-0.0063
187.6393	0.1296
187.8575	0.4503
188.0757	0.031
188.2939	0.1307
188.512	0.0705
188.7302	0.344
188.9483	0.3775
189.1665	0.5061
189.3846	0.0482
189.6027	0.1001
189.8208	0.133
190.0389	0.2201
190.257	0.1395
190.475	0.0248
190.6931	0.2456
190.9111	0.15
191.1292	0.2243
191.3472	0.2735
191.5652	0.3775
191.7832	0.2936
192.0012	0.198
192.2192	0.1428
192.4371	0.0757
192.6551	0.2202
192.873	0.2131
193.091	0.1186
193.3089	0.1491
193.5268	0.2219
193.7447	0.1597
193.9626	0.2127
194.1805	0.2662
194.3984	0.1944
194.6162	0.2878
194.8341	0.2555
195.0519	0.1729
195.2697	0.2289
195.4875	0.3092
195.7054	0.2542
195.9231	0.2349
196.1409	0.2699
196.3587	0.335
196.5765	0.3017
196.7942	0.3118
197.012	0.3112
197.2297	0.2679
197.4474	0.3769
197.6651	0.3436
197.8828	0.3552
198.1005	0.4112
198.3182	0.369
198.5358	0.3761
198.7535	0.3649
198.9711	0.3603
199.1888	0.3763
199.4064	0.4001
199.624	0.3644
199.8416	0.3954
200.0592	0.4312
200.2767	0.3913
200.4943	0.4554
200.7119	0.4149
200.9294	0.428
201.1469	0.4197
201.3645	0.4586
201.582	0.37
201.7995	0.4118
202.017	0.4352
202.2344	0.4368
202.4519	0.4068
202.6694	0.4063
202.8868	0.3998
203.1042	0.3651
203.3217	0.4522
203.5391	0.3822
203.7565	0.3733
203.9739	0.3559
204.1913	0.3436
204.4086	0.3486
204.626	0.3638
204.8433	0.3526
205.0607	0.3615
205.278	0.3763
205.4953	0.3214
205.7126	0.3537
205.9299	0.3183
206.1472	0.3427
206.3644	0.3261
206.5817	0.306
206.7989	0.3358
207.0162	0.3129
207.2334	0.3115
207.4506	0.3192
207.6678	0.3063
207.885	0.2848
208.1022	0.3338
208.3194	0.3114
208.5365	0.3084
208.7537	0.3151
208.9708	0.3126
209.1879	0.289
209.405	0.2828
209.6222	0.2724
209.8392	0.3111
210.0563	0.2952
210.2734	0.2805
210.4905	0.2696
210.7075	0.2887
210.9245	0.2673
211.1416	0.2623
211.3586	0.2851
211.5756	0.2628
211.7926	0.2837
212.0096	0.2488
212.2265	0.2749
212.4435	0.2751
212.6604	0.2586
212.8774	0.2708
213.0943	0.2642
213.3112	0.2654
213.5281	0.2629
213.745	0.2569
213.9619	0.2587
214.1788	0.2639
214.3956	0.2589
214.6125	0.2609
214.8293	0.2299
215.0461	0.257
215.2629	0.2625
215.4798	0.2523
215.6965	0.2526
215.9133	0.2572
216.1301	0.2487
216.3469	0.2642
216.5636	0.2495
216.7803	0.2459
216.9971	0.2562
217.2138	0.2476
217.4305	0.2549
217.6472	0.2401
217.8639	0.2515
218.0805	0.2496
218.2972	0.2479
218.5138	0.2638
218.7305	0.2674
218.9471	0.2389
219.1637	0.2511
219.3803	0.2505
219.5969	0.2597
219.8135	0.2637
220.0301	0.2658
220.2466	0.2661
220.4632	0.2495
220.6797	0.2603
220.8962	0.2613
221.1127	0.2703
221.3292	0.2669
221.5457	0.2795
221.7622	0.2781
221.9787	0.2836
222.1951	0.2594
222.4116	0.2738
222.628	0.288
222.8444	0.2857
223.0608	0.2754
223.2772	0.2948
223.4936	0.2808
223.71	0.2926
223.9264	0.2847
224.1427	0.2954
224.3591	0.2977
224.5754	0.2873
224.7917	0.2985
225.008	0.3001
225.2243	0.3024
225.4406	0.3004
225.6569	0.3074
225.8732	0.3197
226.0894	0.3041
226.3057	0.303
226.5219	0.3147
226.7381	0.321
226.9543	0.3098
227.1705	0.3157
227.3867	0.3226
227.6029	0.3196
227.8191	0.3394
228.0352	0.3429
228.2513	0.3595
228.4675	0.342
228.6836	0.3479
228.8997	0.3425
229.1158	0.3622
229.3319	0.3626
229.548	0.3487
229.764	0.3542
229.9801	0.375
230.1961	0.3657
230.4121	0.363
230.6282	0.3797
230.8442	0.3866
231.0602	0.3822
231.2761	0.3776
231.4921	0.3834
231.7081	0.3999
231.924	0.4088
232.14	0.4004
232.3559	0.4035
232.5718	0.4083
232.7877	0.4141
233.0036	0.4099
233.2195	0.413
233.4353	0.4163
233.6512	0.4272
233.867	0.4179
234.0829	0.4287
234.2987	0.4308
234.5145	0.4287
234.7303	0.4329
234.9461	0.443
235.1619	0.4351
235.3776	0.4396
235.5934	0.4362
235.8091	0.4514
236.0249	0.452
236.2406	0.4388
236.4563	0.4481
236.672	0.4449
236.8877	0.4492
237.1034	0.4472
237.319	0.4473
237.5347	0.4432
237.7503	0.4469
237.966	0.4679
238.1816	0.4534
238.3972	0.4566
238.6128	0.4677
238.8284	0.4591
239.0439	0.463
239.2595	0.4644
239.475	0.4696
239.6906	0.4566
239.9061	0.4553
240.1216	0.4612
240.3371	0.4602
240.5526	0.4549
240.7681	0.4557
240.9836	0.4624
241.199	0.4587
241.4145	0.4377
241.6299	0.4469
241.8453	0.4278
242.0607	0.4297
242.2761	0.432
242.4915	0.4228
242.7069	0.4139
242.9223	0.4233
243.1376	0.4031
243.353	0.3973
243.5683	0.3974
243.7836	0.3954
243.9989	0.3668
244.2142	0.373
244.4295	0.3625
244.6448	0.3538
244.86	0.3475
245.0753	0.3423
245.2905	0.3369
245.5057	0.3324
245.721	0.3326
245.9362	0.3248
246.1514	0.3147
246.3665	0.3063
246.5817	0.297
246.7969	0.2925
247.012	0.2874
247.2271	0.2909
247.4423	0.2848
247.6574	0.2759
247.8725	0.2629
248.0876	0.2683
248.3026	0.2653
248.5177	0.2578
248.7328	0.2513
248.9478	0.2493
249.1628	0.2489
249.3779	0.2437
249.5929	0.2362
249.8079	0.2293
250.0228	0.2288
250.2378	0.228
250.4528	0.2209
250.6677	0.2164
250.8827	0.2153
251.0976	0.2137
251.3125	0.224
251.5274	0.2074
251.7423	0.2098
251.9572	0.2057
252.172	0.2047
252.3869	0.2066
252.6017	0.1995
252.8166	0.1964
253.0314	0.1931
253.2462	0.1955
253.461	0.1948
253.6758	0.1977
253.8906	0.19
254.1053	0.1896
254.3201	0.1953
254.5348	0.1834
254.7496	0.1804
254.9643	0.1881
255.179	0.184
255.3937	0.1884
255.6083	0.1898
255.823	0.1859
256.0377	0.1808
256.2523	0.185
256.467	0.1861
256.6816	0.1756
256.8962	0.1799
257.1108	0.1867
257.3254	0.1868
257.54	0.1786
257.7545	0.1824
257.9691	0.1823
258.1836	0.1778
258.3981	0.1825
258.6127	0.1682
258.8272	0.1834
259.0417	0.1716
259.2561	0.1665
259.4706	0.1719
259.6851	0.1761
259.8995	0.169
260.114	0.1736
260.3284	0.1714
260.5428	0.171
260.7572	0.1709
260.9716	0.1781
261.186	0.1761
261.4003	0.1715
261.6147	0.1722
261.829	0.1735
262.0433	0.1765
262.2577	0.1775
262.472	0.1776
262.6863	0.1808
262.9005	0.1695
263.1148	0.1758
263.3291	0.1735
263.5433	0.1787
263.7576	0.1736
263.9718	0.1691
264.186	0.1805
264.4002	0.1774
264.6144	0.1847
264.8286	0.1782
265.0427	0.1861
265.2569	0.1798
265.471	0.1817
265.6851	0.1782
265.8993	0.1753
266.1134	0.1743
266.3275	0.1795
266.5415	0.1796
266.7556	0.1806
266.9697	0.1755
267.1837	0.1745
267.3978	0.1741
267.6118	0.171
267.8258	0.175
268.0398	0.1704
268.2538	0.1787
268.4677	0.1696
268.6817	0.1729
268.8957	0.1644
269.1096	0.1655
269.3235	0.1713
269.5374	0.1749
269.7514	0.1733
269.9652	0.1784
270.1791	0.1657
270.393	0.1681
270.6068	0.1699
270.8207	0.1668
271.0345	0.1642
271.2483	0.1614
271.4622	0.1708
271.676	0.1713
271.8897	0.1666
272.1035	0.1737
272.3173	0.173
272.531	0.1669
272.7448	0.1638
272.9585	0.1651
273.1722	0.1613
273.3859	0.1648
273.5996	0.1646
273.8133	0.1651
274.0269	0.1608
274.2406	0.164
274.4542	0.1607
274.6679	0.1642
274.8815	0.167
275.0951	0.1726
275.3087	0.1741
275.5223	0.1658
275.7358	0.1704
275.9494	0.1641
276.1629	0.1691
276.3765	0.1671
276.59	0.1658
276.8035	0.1663
277.017	0.1744
277.2305	0.1728
277.444	0.17
277.6574	0.1691
277.8709	0.171
278.0843	0.1697
278.2978	0.1731
278.5112	0.171
278.7246	0.1714
278.938	0.1758
279.1513	0.1752
279.3647	0.1747
279.5781	0.1696
279.7914	0.1702
280.0047	0.1748
280.2181	0.1714
280.4314	0.1769
280.6447	0.181
280.8579	0.1723
281.0712	0.1732
281.2845	0.1732
281.4977	0.1746
281.711	0.1739
281.9242	0.1748
282.1374	0.177
282.3506	0.175
282.5638	0.1691
282.7769	0.1714
282.9901	0.1764
283.2033	0.1765
283.4164	0.175
283.6295	0.1774
283.8426	0.1771
284.0557	0.186
284.2688	0.1813
284.4819	0.1772
284.695	0.1836
284.908	0.1757
285.1211	0.1841
285.3341	0.1831
285.5471	0.182
285.7601	0.1796
285.9731	0.1844
286.1861	0.1807
286.3991	0.1843
286.612	0.1889
286.825	0.1839
287.0379	0.1832
287.2508	0.1924
287.4637	0.1884
287.6766	0.19
287.8895	0.1827
288.1024	0.1882
288.3152	0.1897
288.5281	0.1803
288.7409	0.1874
288.9538	0.1918
289.1666	0.1888
289.3794	0.1884
289.5922	0.1867
289.8049	0.1923
290.0177	0.189
290.2304	0.1926
290.4432	0.191
290.6559	0.1947
290.8686	0.1901
291.0813	0.1943
291.294	0.1905
291.5067	0.1898
291.7194	0.1992
291.932	0.1905
292.1447	0.1939
292.3573	0.1971
292.5699	0.1967
292.7825	0.1969
292.9951	0.1902
293.2077	0.1944
293.4203	0.1901
293.6328	0.1974
293.8454	0.194
294.0579	0.1916
294.2704	0.196
294.4829	0.1946
294.6954	0.1958
294.9079	0.1954
295.1204	0.1872
295.3328	0.2002
295.5453	0.1926
295.7577	0.1934
295.9701	0.1959
296.1825	0.1934
296.3949	0.1894
296.6073	0.1886
296.8197	0.1981
297.0321	0.1945
297.2444	0.1907
297.4567	0.1959
297.6691	0.193
297.8814	0.1924
298.0937	0.1981
298.306	0.1928
298.5182	0.1964
298.7305	0.1989
298.9428	0.193
299.155	0.1866
299.3672	0.193
299.5794	0.193
299.7916	0.1991
300.0038	0.1926
300.216	0.1928
300.4282	0.1925
300.6403	0.1998
300.8525	0.1879
301.0646	0.1944
301.2767	0.1928
301.4888	0.1928
301.7009	0.1972
301.913	0.1894
302.125	0.1894
302.3371	0.1899
302.5491	0.1942
302.7612	0.1974
302.9732	0.1929
303.1852	0.1934
303.3972	0.194
303.6092	0.1913
303.8211	0.1871
304.0331	0.1919
304.245	0.1862
304.457	0.1874
304.6689	0.1886
304.8808	0.1881
305.0927	0.1901
305.3046	0.1845
305.5164	0.1844
305.7283	0.1844
305.9401	0.1802
306.152	0.18
306.3638	0.1778
306.5756	0.1794
306.7874	0.1735
306.9992	0.1712
307.2109	0.1685
307.4227	0.1751
307.6344	0.1747
307.8462	0.1698
308.0579	0.1715
308.2696	0.1723
308.4813	0.1667
308.693	0.1628
308.9046	0.1612
309.1163	0.1586
309.328	0.1613
309.5396	0.1566
309.7512	0.1565
309.9628	0.1517
310.1744	0.1473
310.386	0.1446
310.5976	0.1458
310.8091	0.1494
311.0207	0.1417
311.2322	0.1443
311.4437	0.1407
311.6552	0.1408
311.8667	0.1444
312.0782	0.136
312.2897	0.1424
312.5012	0.1381
312.7126	0.135
312.924	0.137
313.1355	0.1369
313.3469	0.1322
313.5583	0.1279
313.7696	0.1315
313.981	0.1324
314.1924	0.1233
314.4037	0.1306
314.6151	0.1285
314.8264	0.1276
315.0377	0.13
315.249	0.123
315.4603	0.1189
315.6716	0.1264
315.8828	0.1231
316.0941	0.1212
316.3053	0.1199
316.5165	0.1229
316.7277	0.1183
316.9389	0.1181
317.1501	0.123
317.3613	0.1228
317.5724	0.1225
317.7836	0.1153
317.9947	0.1146
318.2058	0.1147
318.417	0.118
318.6281	0.1165
318.8391	0.1199
319.0502	0.1213
319.2613	0.1211
319.4723	0.1124
319.6834	0.1224
319.8944	0.119
320.1054	0.123
320.3164	0.115
320.5274	0.1133
320.7383	0.1228
320.9493	0.122
321.1602	0.1189
321.3712	0.1185
321.5821	0.1124
321.793	0.1188
322.0039	0.1165
322.2148	0.1173
322.4257	0.1187
322.6365	0.1147
322.8474	0.1198
323.0582	0.1211
323.269	0.1218
323.4798	0.1169
323.6906	0.1175
323.9014	0.1215
324.1122	0.1153
324.3229	0.1268
324.5337	0.1225
324.7444	0.1246
324.9551	0.1199
325.1658	0.1217
325.3765	0.1163
325.5872	0.1204
325.7979	0.1195
326.0085	0.1138
326.2192	0.1179
326.4298	0.1267
326.6404	0.1256
326.851	0.1246
327.0616	0.1256
327.2722	0.1258
327.4828	0.1237
327.6933	0.1312
327.9039	0.1291
328.1144	0.1273
328.3249	0.1298
328.5354	0.1286
328.7459	0.1254
328.9564	0.1284
329.1669	0.1269
329.3773	0.1263
329.5878	0.128
329.7982	0.1279
330.0086	0.1269
330.219	0.1243
330.4294	0.1299
330.6398	0.1248
330.8502	0.132
331.0605	0.1239
331.2708	0.1243
331.4812	0.1289
331.6915	0.1282
331.9018	0.1262
332.1121	0.1267
332.3224	0.1287
332.5326	0.1236
332.7429	0.1301
332.9531	0.1304
333.1633	0.1243
333.3735	0.126
333.5837	0.1271
333.7939	0.1288
334.0041	0.1319
334.2143	0.1305
334.4244	0.137
334.6346	0.1243
334.8447	0.1276
335.0548	0.1329
335.2649	0.1312
335.475	0.129
335.685	0.1343
335.8951	0.1307
336.1051	0.1468
336.3152	0.1385
336.5252	0.1316
336.7352	0.1319
336.9452	0.1392
337.1552	0.1281
337.3652	0.1255
337.5751	0.1319
337.7851	0.1333
337.995	0.1379
338.2049	0.136
338.4148	0.1315
338.6247	0.1372
338.8346	0.1342
339.0445	0.1388
339.2543	0.1389
339.4642	0.138
339.674	0.1356
339.8838	0.1369
340.0936	0.1383
340.3034	0.1342
340.5132	0.1308
340.7229	0.1392
340.9327	0.1384
341.1424	0.1371
341.3522	0.139
341.5619	0.1411
341.7716	0.1415
341.9813	0.1424
342.1909	0.1449
342.4006	0.1399
342.6102	0.1483
342.8199	0.1457
343.0295	0.1412
343.2391	0.1408
343.4487	0.1468
343.6583	0.1512
343.8679	0.1514
344.0774	0.1487
344.287	0.1469
344.4965	0.1491
344.706	0.1523
344.9155	0.1486
345.125	0.1415
345.3345	0.1563
345.544	0.1523
345.7534	0.1563
345.9629	0.1538
346.1723	0.158
346.3817	0.1546
346.5911	0.1504
346.8005	0.154
347.0099	0.1547
347.2193	0.161
347.4286	0.158
347.638	0.1646
347.8473	0.1599
348.0566	0.162
348.2659	0.1599
348.4752	0.1611
348.6845	0.1662
348.8937	0.1626
349.103	0.1617
349.3122	0.1658
349.5214	0.1657
349.7306	0.1708
349.9398	0.164
350.149	0.162
350.3582	0.1692
350.5674	0.1615
350.7765	0.1735
350.9856	0.1711
351.1948	0.1678
351.4039	0.172
351.613	0.1741
351.822	0.1801
352.0311	0.1771
352.2402	0.1803
352.4492	0.1753
352.6582	0.1754
352.8672	0.1751
353.0762	0.1819
353.2852	0.1718
353.4942	0.1763
353.7032	0.1826
353.9121	0.1875
354.1211	0.1785
354.33	0.1798
354.5389	0.1777
354.7478	0.1772
354.9567	0.1861
355.1655	0.1821
355.3744	0.1793
355.5833	0.1831
355.7921	0.1868
356.0009	0.1845
356.2097	0.1844
356.4185	0.1909
356.6273	0.1846
356.8361	0.1897
357.0448	0.1883
357.2536	0.1891
357.4623	0.2018
357.671	0.1969
357.8797	0.195
358.0884	0.1829
358.2971	0.1952
358.5057	0.1975
358.7144	0.1992
358.923	0.1938
359.1316	0.2031
359.3402	0.2002
359.5488	0.1993
359.7574	0.2061
359.966	0.2011
360.1746	0.2014
360.3831	0.2099
360.5916	0.2012
360.8002	0.2134
361.0087	0.2074
361.2172	0.2064
361.4256	0.2083
361.6341	0.2151
361.8426	0.2166
362.051	0.2172
362.2594	0.2079
362.4678	0.216
362.6762	0.2129
362.8846	0.2242
363.093	0.2189
363.3014	0.2261
363.5097	0.2188
363.718	0.228
363.9264	0.2286
364.1347	0.2204
364.343	0.2291
364.5513	0.2267
364.7595	0.236
364.9678	0.2206
365.176	0.23
365.3842	0.2329
365.5925	0.2326
365.8007	0.2324
366.0089	0.239
366.217	0.2362
366.4252	0.2336
366.6333	0.2337
366.8415	0.2442
367.0496	0.2428
367.2577	0.251
367.4658	0.2395
367.6739	0.2474
367.882	0.25
368.09	0.2419
368.2981	0.2548
368.5061	0.2546
368.7141	0.2434
368.9221	0.2562
369.1301	0.2494
369.3381	0.2589
369.5461	0.258
369.754	0.2584
369.962	0.2472
370.1699	0.2574
370.3778	0.2663
370.5857	0.2568
370.7936	0.2539
371.0015	0.2505
371.2093	0.2499
371.4172	0.2523
371.625	0.2566
371.8328	0.2568
372.0406	0.2799
372.2484	0.2581
372.4562	0.2582
372.664	0.2669
372.8717	0.2672
373.0795	0.2705
373.2872	0.2713
373.4949	0.276
373.7026	0.2624
373.9103	0.2659
374.118	0.2788
374.3256	0.2734
374.5333	0.2705
374.7409	0.2719
374.9485	0.2604
375.1561	0.2788
375.3637	0.2752
375.5713	0.2909
375.7789	0.2803
375.9864	0.2759
376.194	0.2906
376.4015	0.2785
376.609	0.2848
376.8165	0.2831
377.024	0.2855
377.2315	0.2817
377.4389	0.2829
377.6464	0.2854
377.8538	0.2911
378.0612	0.29
378.2686	0.2927
378.476	0.2912
378.6834	0.2868
378.8908	0.305
379.0981	0.2882
379.3055	0.2961
379.5128	0.2852
379.7201	0.2932
379.9274	0.2957
380.1347	0.2965
380.342	0.3106
380.5492	0.2948
380.7565	0.2864
380.9637	0.2946
381.1709	0.3019
381.3781	0.3142
381.5853	0.3095
381.7925	0.3012
381.9997	0.3064
382.2068	0.3009
382.4139	0.3009
382.6211	0.304
382.8282	0.3059
383.0353	0.3112
383.2424	0.3105
383.4494	0.3043
383.6565	0.3074
383.8635	0.3076
384.0706	0.3233
384.2776	0.3071
384.4846	0.317
384.6916	0.3062
384.8986	0.3211
385.1055	0.3275
385.3125	0.314
385.5194	0.3174
385.7263	0.3038
385.9333	0.3183
386.1402	0.312
386.347	0.3139
386.5539	0.3078
386.7608	0.3204
386.9676	0.3143
387.1744	0.3197
387.3813	0.318
387.5881	0.3045
387.7948	0.315
388.0016	0.3286
388.2084	0.3168
388.4151	0.3098
388.6219	0.3033
388.8286	0.3182
389.0353	0.3121
389.242	0.3194
389.4487	0.3019
389.6553	0.3004
389.862	0.3013
390.0686	0.3101
390.2753	0.3029
390.4819	0.3024
390.6885	0.3148
390.8951	0.3019
391.1016	0.3014
391.3082	0.2982
391.5147	0.2941
391.7213	0.3042
391.9278	0.298
392.1343	0.2986
392.3408	0.2946
392.5473	0.2958
392.7537	0.298
392.9602	0.2846
393.1666	0.2928
393.373	0.2925
393.5794	0.2864
393.7858	0.2921
393.9922	0.2743
394.1986	0.2903
394.4049	0.2858
394.6113	0.2795
394.8176	0.2802
395.0239	0.2783
395.2302	0.283
395.4365	0.2816
395.6428	0.2725
395.8491	0.2758
396.0553	0.2707
396.2615	0.2745
396.4678	0.2822
396.674	0.272
396.8802	0.2721
397.0863	0.268
397.2925	0.2819
397.4987	0.269
397.7048	0.2705
397.9109	0.2689
398.117	0.267
398.3231	0.2692
398.5292	0.2645
398.7353	0.2682
398.9413	0.2698
399.1474	0.2633
399.3534	0.2604
399.5594	0.2797
399.7654	0.2673
399.9714	0.2738
400.1774	0.2668
400.3833	0.2698
400.5893	0.2659
400.7952	0.263
401.0011	0.2639
401.207	0.2617
401.4129	0.2684
401.6188	0.2639
401.8247	0.2702
402.0305	0.2611
402.2364	0.2663
402.4422	0.2667
402.648	0.2648
402.8538	0.259
403.0596	0.2603
403.2654	0.2725
403.4711	0.2619
403.6768	0.2675
403.8826	0.2676
404.0883	0.259
404.294	0.2642
404.4997	0.2686
404.7054	0.2687
404.911	0.2637
405.1167	0.2645
405.3223	0.2641
405.5279	0.2692
405.7335	0.2683
405.9391	0.2661
406.1447	0.2602
406.3502	0.2583
406.5558	0.2668
406.7613	0.2681
406.9668	0.2613
407.1724	0.2647
407.3778	0.2671
407.5833	0.2559
407.7888	0.2651
407.9942	0.2594
408.1997	0.2644
408.4051	0.2602
408.6105	0.2657
408.8159	0.268
409.0213	0.269
409.2267	0.2646
409.432	0.2666
409.6374	0.2725
409.8427	0.2713
410.048	0.2636
410.2533	0.2694
410.4586	0.2573
410.6639	0.2673
410.8691	0.2638
411.0744	0.2609
411.2796	0.2714
411.4848	0.269
411.69	0.2564
411.8952	0.2748
412.1004	0.2751
412.3056	0.2589
412.5107	0.2677
412.7158	0.2605
412.921	0.2576
413.1261	0.2616
413.3312	0.2643
413.5362	0.2719
413.7413	0.2569
413.9464	0.2585
414.1514	0.2501
414.3564	0.2598
414.5614	0.2553
414.7664	0.2496
414.9714	0.2594
415.1764	0.2663
415.3813	0.2599
415.5863	0.2644
415.7912	0.2598
415.9961	0.2543
416.201	0.2624
416.4059	0.2542
416.6108	0.2636
416.8156	0.2546
417.0205	0.2557
417.2253	0.2529
417.4301	0.2539
417.6349	0.2554
417.8397	0.244
418.0445	0.2566
418.2492	0.2472
418.454	0.2631
418.6587	0.2591
418.8634	0.2533
419.0681	0.2623
419.2728	0.2509
419.4775	0.2549
419.6822	0.2497
419.8868	0.2451
420.0915	0.2536
420.2961	0.2387
420.5007	0.2481
420.7053	0.247
420.9099	0.2535
421.1144	0.2492
421.319	0.2369
421.5235	0.2328
421.728	0.2411
421.9325	0.246
422.137	0.2388
422.3415	0.2281
422.546	0.2359
422.7504	0.2371
422.9549	0.237
423.1593	0.2252
423.3637	0.2352
423.5681	0.2383
423.7725	0.2357
423.9769	0.2392
424.1812	0.2269
424.3856	0.2247
424.5899	0.2257
424.7942	0.2395
424.9985	0.238
425.2028	0.2405
425.4071	0.232
425.6113	0.2191
425.8156	0.2186
426.0198	0.2223
426.224	0.2264
426.4282	0.2115
426.6324	0.2189
426.8366	0.218
427.0407	0.2264
427.2449	0.2074
427.449	0.215
427.6531	0.2202
427.8572	0.2224
428.0613	0.2177
428.2654	0.2179
428.4694	0.2005
428.6735	0.2057
428.8775	0.2065
429.0815	0.2011
429.2855	0.2005
429.4895	0.1967
429.6935	0.1951
429.8975	0.1927
430.1014	0.2026
430.3053	0.2112
430.5093	0.2056
430.7132	0.1906
430.9171	0.1899
431.1209	0.1982
431.3248	0.1863
431.5286	0.1894
431.7325	0.1988
431.9363	0.1799
432.1401	0.1882
432.3439	0.1856
432.5477	0.1745
432.7514	0.1769
432.9552	0.1768
433.1589	0.1739
433.3627	0.1716
433.5664	0.1686
433.7701	0.1716
433.9737	0.1764
434.1774	0.1691
434.3811	0.16
434.5847	0.1672
434.7883	0.1654
434.9919	0.1578
435.1955	0.1642
435.3991	0.1587
435.6027	0.1518
435.8062	0.1683
436.0098	0.1483
436.2133	0.1457
436.4168	0.1428
436.6203	0.1412
436.8238	0.1406
437.0272	0.1467
437.2307	0.1316
437.4341	0.1415
437.6375	0.1362
437.841	0.1315
438.0443	0.1349
438.2477	0.1235
438.4511	0.1245
438.6545	0.1332
438.8578	0.1245
439.0611	0.1276
439.2644	0.1268
439.4677	0.1227
439.671	0.1172
439.8743	0.1192
440.0775	0.1125
440.2808	0.118
440.484	0.1136
440.6872	0.1089
440.8904	0.1021
441.0936	0.1034
441.2967	0.1048
441.4999	0.1034
441.703	0.1033
441.9062	0.0992
442.1093	0.1068
442.3124	0.0995
442.5155	0.1006
442.7185	0.0859
442.9216	0.0919
443.1246	0.0992
443.3276	0.0976
443.5307	0.0799
443.7337	0.0867
443.9366	0.0845
444.1396	0.0823
444.3426	0.0855
444.5455	0.0819
444.7484	0.0763
444.9513	0.0826
445.1542	0.0753
445.3571	0.0685
445.56	0.0769
445.7628	0.0682
445.9657	0.0761
446.1685	0.0831
446.3713	0.0744
446.5741	0.0766
446.7769	0.0665
446.9797	0.0731
447.1824	0.0595
447.3852	0.0495
447.5879	0.0592
447.7906	0.0579
447.9933	0.0588
448.196	0.0591
448.3986	0.0537
448.6013	0.0492
448.8039	0.058
449.0066	0.0675
449.2092	0.0598
449.4118	0.0536
449.6143	0.0537
449.8169	0.0516
450.0195	0.053
450.222	0.0497
450.4245	0.0498
450.627	0.0375
450.8295	0.0468
451.032	0.0447
451.2345	0.0372
451.4369	0.042
451.6394	0.0376
451.8418	0.043
452.0442	0.0419
452.2466	0.0366
452.449	0.0441
452.6513	0.037
452.8537	0.0351
453.056	0.0377
453.2583	0.0302
453.4607	0.0287
453.663	0.033
453.8652	0.0341
454.0675	0.0364
454.2697	0.0297
454.472	0.0185
454.6742	0.0363
454.8764	0.0348
455.0786	0.0298
455.2808	0.0297
455.4829	0.0335
455.6851	0.0314
455.8872	0.021
456.0893	0.0329
456.2915	0.0202
456.4935	0.0254
456.6956	0.0276
456.8977	0.0297
457.0997	0.0353
457.3018	0.0213
457.5038	0.0346
457.7058	0.0308
457.9078	0.0265
458.1098	0.0242
458.3117	0.0236
458.5137	0.0109
458.7156	0.0227
458.9175	0.0271
459.1194	0.0134
459.3213	0.0123
459.5232	0.0173
459.725	0.0205
459.9269	0.0187
460.1287	0.0106
460.3305	0.0178
460.5323	0.018
460.7341	0.018
460.9359	0.0113
461.1376	0.0215
461.3394	0.0189
461.5411	0.0143
461.7428	0.0189
461.9445	0.0096
462.1462	0.0147
462.3479	0.0209
462.5495	0.0134
462.7512	0.0268
462.9528	0.0112
463.1544	0.0125
463.356	0.0068
463.5576	0.022
463.7592	0.0142
463.9607	0.0081
464.1623	0.0118
464.3638	0.0055
464.5653	0.022
464.7668	0.0135
464.9683	0.0128
465.1697	0.0106
465.3712	0.0066
465.5726	0.0014
465.7741	0.0104
465.9755	0.0113
466.1769	0.0055
466.3782	0.0069
466.5796	0.0143
466.7809	0.0168
466.9823	0.0072
467.1836	0.0012
467.3849	0.0104
467.5862	0.0016
467.7875	0.0069
467.9887	0.0102
468.19	0.0067
468.3912	0.0165
468.5924	0.0037
468.7936	0.0054
468.9948	0.0093
469.196	0.0065
469.3972	0.0028
469.5983	-0.0003
469.7994	0.0083
470.0006	0.0179
470.2017	0.0088
470.4027	0.0246
470.6038	0.0074
470.8049	0.0043
471.0059	0.0128
471.2069	0.0066
471.408	0.0138
471.6089	0.0139
471.8099	0.0071
472.0109	0.0004
472.2119	0.0147
472.4128	0.0014
472.6137	0.0037
472.8146	0.0168
473.0155	0.0132
473.2164	0.0146
473.4173	0.0004
473.6181	-0.0031
473.819	0.0094
474.0198	0.0127
474.2206	0.0006
474.4214	0.0071
474.6222	-0.0102
474.8229	0.0047
475.0237	0.0146
475.2244	0.0093
475.4251	0.0003
475.6258	0.0005
475.8265	0.0121
476.0272	-0.0055
476.2278	0.008
476.4285	0.0071
476.6291	0.0109
476.8297	0.0062
477.0303	0.0083
477.2309	-0.0012
477.4315	0.0043
477.632	0.0001
477.8326	0.0079
478.0331	0.0073
478.2336	0.0016
478.4341	0.0072
478.6346	0.0069
478.8351	0.001
479.0355	0.0112
479.236	0.0106
479.4364	0.006
479.6368	0.0018
479.8372	0.0053
480.0376	0.0029
480.2379	0.0054
480.4383	0.0034
480.6386	-0.004
480.8389	0.0022
481.0392	0.002
481.2395	0.0092
481.4398	0.007
481.6401	-0
481.8403	0.0065
482.0405	0.0076
482.2408	0.0068
482.441	0.0013
482.6411	0.0089
482.8413	0.0011
483.0415	0.0089
483.2416	0.0014
483.4417	0.0071
483.6419	-0.0052
483.8419	0.0052
484.042	0.0034
484.2421	-0.0021
484.4422	0.0048
484.6422	-0.0017
484.8422	0.0052
485.0422	0.0008
485.2422	0.0031
485.4422	0.0087
485.6422	0.0041
485.8421	0.0012
486.042	0.0109
486.242	0.0046
486.4419	0.0048
486.6417	0.0013
486.8416	0.0048
487.0415	0.0029
487.2413	-0.0016
487.4411	-0.0036
487.641	0.0002
487.8408	0.0095
488.0405	0.0054
488.2403	-0.0003
488.4401	0.005
488.6398	0.0007
488.8395	0.0091
489.0392	0.0026
489.2389	0.0099
489.4386	-0.0063
489.6383	0.0086
489.8379	0.0037
490.0376	-0.0012
490.2372	0.0035
490.4368	0.0057
490.6364	-0.0062
490.836	-0.0014
491.0355	-0.0035
491.2351	0.0003
491.4346	0.0023
491.6341	-0.0079
491.8336	0.0093
492.0331	0.002
492.2326	0.0033
492.432	0.0045
492.6315	0.0087
492.8309	0.0042
493.0303	0.0104
493.2297	0.0004
493.4291	0.0014
493.6284	0.0115
493.8278	0.0063
494.0271	0.0064
494.2264	-0.006
494.4257	0.0073
494.625	0.0002
494.8243	0.0032
495.0236	0.0071
495.2228	0.0114
495.422	0.003
495.6213	0.0065
495.8205	0.008
496.0196	0.0032
496.2188	0.0038
496.418	0.0065
496.6171	-0.0001
496.8162	-0.0006
497.0153	0.0108
497.2144	0.0097
497.4135	0.0047
497.6126	-0.0021
497.8116	0.0041
498.0107	0.0015
498.2097	0.0075
498.4087	-0.0011
498.6077	0.0018
498.8067	0.0034
499.0056	-0.0021
499.2046	0.0041
499.4035	0.0027
499.6024	-0.0027
499.8013	0.0099
500.0002	0.0043
500.199	0.0092
500.3979	-0.0132
500.5967	-0.0005
500.7956	0.0037
500.9944	0.0076
501.1932	0.0103
501.3919	0.0091
501.5907	0.011
501.7895	-0.0009
501.9882	0.0125
502.1869	0.0078
502.3856	-0.0014
502.5843	-0.0008
502.783	0.0018
502.9816	0.0105
503.1803	0.0004
503.3789	-0
503.5775	-0.0022
503.7761	0.0069
503.9747	0.0103
504.1732	-0.0064
504.3718	0.0142
504.5703	-0.0012
504.7689	-0.0059
504.9674	0.0003
505.1658	-0.0038
505.3643	0.0055
505.5628	0.0053
505.7612	0.0096
505.9597	0.0031
506.1581	-0.0041
506.3565	0.0018
506.5549	0.0018
506.7532	-0.0029
506.9516	0.0057
507.1499	-0.0009
507.3482	-0.0034
507.5465	0.007
507.7448	0.0048
507.9431	0.0063
508.1414	-0.0007
508.3396	0.0081
508.5379	0.002
508.7361	0.0091
508.9343	0.0046
509.1325	0.0067
509.3306	-0.0009
509.5288	-0.0026
509.7269	0.0099
509.9251	0.0051
510.1232	0.0086
510.3213	0.0125
510.5193	-0.0008
510.7174	-0.0015
510.9154	0.0126
511.1135	-0.0039
511.3115	0.0003
511.5095	0.0013
511.7075	0.0015
511.9055	0.0063
512.1034	0.0006
512.3014	0.0024
512.4993	0.0081
512.6972	0.0036
512.8951	0.006
513.093	0.0079
513.2908	0.0084
513.4887	0.0063
513.6865	0.0058
513.8844	0.0042
514.0822	0.0015
514.2799	-0.0041
514.4777	0
514.6755	-0.0016
514.8732	-0.0035
515.0709	0.0041
515.2687	-0.0019
515.4664	0.0142
515.664	0.0094
515.8617	0.0098
516.0594	-0.0043
516.257	0.001
516.4546	0.008
516.6522	0.0082
516.8498	0.0042
517.0474	0.0047
517.2449	-0.0056
517.4425	-0.0001
517.64	0.0137
517.8375	0.003
518.035	0.0021
518.2325	-0.0112
518.43	0.0053
518.6274	0.0003
518.8249	-0.0027
519.0223	0.0186
519.2197	-0.0045
519.4171	0.0056
519.6145	0.011
519.8118	-0.0061
520.0092	-0.0044
520.2065	0.014
520.4038	0.0096
520.6011	0.0167
520.7984	0.009
520.9956	0.0066
521.1929	0.0084
521.3901	0.0046
521.5874	0.0089
521.7846	-0.0057
521.9818	-0.0017
522.1789	-0.0085
522.3761	0.0127
522.5732	0.0079
522.7704	0.0024
522.9675	-0.0129
523.1646	-0.0038
523.3617	0.0078
523.5587	-0.0022
523.7558	-0.0046
523.9528	0.0115
524.1498	-0.0041
524.3468	-0.0005
524.5438	0.0086
524.7408	-0.0088
524.9378	0.0095
525.1347	0.0034
525.3316	0.0051
525.5285	0.0044
525.7254	0.0163
525.9223	0.0097
526.1192	0.0001
526.316	0.0033
526.5129	0.0053
526.7097	0.0022
526.9065	0.0068
527.1033	0.0064
527.3	0.003
527.4968	0.001
527.6935	-0.0074
527.8903	-0.0021
528.087	-0.0025
528.2837	0.0066
528.4804	0.012
528.677	0.0074
528.8737	0.0032
529.0703	0.003
529.2669	0.0108
529.4635	-0.0006
529.6601	0.0012
529.8567	-0.0039
530.0532	-0.0051
530.2498	0.0055
530.4463	-0.0052
530.6428	0.0116
530.8393	0.0115
531.0358	0.0056
531.2322	0.004
531.4287	0.0038
531.6251	-0.0107
531.8215	-0.0004
532.0179	0.0034
532.2143	-0.0014
532.4107	0.0089
532.607	-0.0034
532.8034	0.0021
532.9997	0.0035
533.196	-0.0004
533.3923	0.0114
533.5886	0.0031
533.7848	-0.0076
533.9811	0.0112
534.1773	0.0086
534.3735	0.0045
534.5697	0.0015
534.7659	-0.0046
534.9621	-0.0003
535.1582	0.0067
535.3544	0.0041
535.5505	0.0086
535.7466	0.0105
535.9427	0.004
536.1387	-0.001
536.3348	0.0094
536.5308	-0.005
536.7269	-0.0014
536.9229	0.0019
537.1189	0.0093
537.3148	0.0138
537.5108	0.0039
537.7068	0.0093
537.9027	-0.0056
538.0986	0.0063
538.2945	-0.0038
538.4904	-0.0033
538.6863	-0.0021
538.8821	0.0071
539.078	0.0006
539.2738	0.0003
539.4696	-0.0038
539.6654	0.0006
539.8611	0.0057
540.0569	0.0023
540.2526	0.0122
540.4484	-0.0105
540.6441	0.0036
540.8398	0.0009
541.0355	-0.0009
541.2311	-0.0028
541.4268	0.0077
541.6224	0.0104
541.818	0.0093
542.0136	0.01
542.2092	0.0058
542.4048	0.0048
542.6003	0.0052
542.7959	0.0077
542.9914	0.0081
543.1869	-0.0033
543.3824	0.0088
543.5779	0.0126
543.7734	0.0113
543.9688	0.0058
544.1642	0.0004
544.3596	0.0125
544.555	-0.004
544.7504	0.0095
544.9458	0.002
545.1411	0.001
545.3365	0.0053
545.5318	-0.0061
545.7271	0.0035
545.9224	-0.0048
546.1177	0.014
546.3129	0.006
546.5081	0.0089
546.7034	0.0032
546.8986	0.0048
547.0938	0.0109
547.289	0.0089
547.4841	0.0078
547.6793	-0.0006
547.8744	0.0038
548.0695	-0.0044
548.2646	-0.0028
548.4597	-0.0042
548.6548	0.0158
548.8498	0.0066
549.0448	-0.0058
549.2399	0.0027
549.4349	0.0024
549.6298	0.0025
549.8248	-0.0024
550.0198	0.0065
550.2147	0.0073
550.4096	-0.0012
550.6045	0.0057
550.7994	-0.0027
550.9943	0.001
551.1892	-0.0063
551.384	0.0141
551.5788	0.01
551.7737	0.0075
551.9685	0.0076
552.1632	0.0013
552.358	0.0006
552.5528	0.0027
552.7475	0.0088
552.9422	0.012
553.1369	-0.0001
553.3316	0.0071
553.5263	0.0139
553.7209	0.0068
553.9156	-0.0003
554.1102	0.0053
554.3048	0.0019
554.4994	0.0011
554.694	-0.0013
554.8885	0.0059
555.0831	0.0155
555.2776	0.0026
555.4721	0.0112
555.6666	0.0008
555.8611	0.0025
556.0555	0.0074
556.25	0.0091
556.4444	-0.0047
556.6388	0.0006
556.8332	0.0051
557.0276	0.0037
557.222	-0.0078
557.4163	0.0088
557.6107	0.009
557.805	0.0007
557.9993	0.0087
558.1936	0.001
558.3879	0.0119
558.5821	0.0111
558.7764	-0.0132
558.9706	-0.0032
559.1648	0.0006
559.359	0.0022
559.5532	0.0035
559.7473	-0.0028
559.9415	-0.0054
560.1356	0.0098
560.3297	-0.0163
560.5238	0.0007
560.7179	0.0037
560.9119	0.0038
561.106	-0.0014
561.3	0.0089
561.494	-0.0043
561.688	0.0003
561.882	0.0026
562.076	0.0048
562.2699	0.0188
562.4639	0.0108
562.6578	0.0062
562.8517	0.0027
563.0456	-0.0017
563.2395	0.0073
563.4333	-0.0034
563.6272	-0.0002
563.821	0.0002
564.0148	0.0012
564.2086	0.0006
564.4024	0.0075
564.5961	0.0054
564.7899	0.0064
564.9836	0.0016
565.1773	0.0016
565.371	0.0054
565.5647	-0.0004
565.7584	0.0153
565.952	-0.0077
566.1456	-0.0063
566.3393	0.0026
566.5329	-0.002
566.7264	0.0069
566.92	0.0067
567.1136	-0.0075
567.3071	-0.0085
567.5006	0.0061
567.6941	0.0036
567.8876	0.0021
568.0811	0.012
568.2745	-0.0078
568.468	0.006
568.6614	0.0082
568.8548	0.002
569.0482	0.0029
569.2416	0.0059
569.4349	0.0059
569.6283	0.0001
569.8216	0.0069
570.0149	-0.0011
570.2082	0.0126
570.4015	0.0014
570.5947	0.0018
570.788	0.0059
570.9812	-0.0015
571.1744	0.0064
571.3676	0.0013
571.5608	0.0049
571.754	0.0059
571.9471	0.0039
572.1402	0.0007
572.3333	0.0015
572.5264	0.0036
572.7195	-0.0021
572.9126	0.0008
573.1057	0.0005
573.2987	0.0052
573.4917	0.0003
573.6847	-0.0023
573.8777	0.0082
574.0707	0.0012
574.2636	0.0039
574.4566	0.0013
574.6495	-0.0004
574.8424	0.0059
575.0353	0.0072
575.2281	0.0064
575.421	0.0013
575.6138	-0.0029
575.8067	0.0044
575.9995	0.0005
576.1923	0.0022
576.385	0.0015
576.5778	0.0079
576.7706	0.0028
576.9633	0.0029
577.156	-0.0031
577.3487	0.0007
577.5414	0.002
577.734	0.001
577.9267	0.0029
578.1193	0.006
578.3119	-0.0013
578.5045	0.005
578.6971	0.0026
578.8897	0.0022
579.0822	0.0014
579.2747	0.0061
579.4673	0.0008
579.6598	0.007
579.8522	0.0025
580.0447	0.0057
580.2372	0.0041
580.4296	0.0073
580.622	0.0038
580.8144	0.0021
581.0068	0.005
581.1992	0.0013
581.3915	0
581.5839	0.0016
581.7762	-0.0005
581.9685	0.002
582.1608	0.0019
582.353	0.0024
582.5453	0.0038
582.7375	0.0049
582.9298	-0.0025
583.122	0.0025
583.3142	0.0052
583.5063	0.0029
583.6985	-0.0017
583.8906	0.0006
584.0827	0.0037
584.2749	-0.001
584.4669	0.0005
584.659	0.0074
584.8511	0.0069
585.0431	0.0053
585.2352	0.0017
585.4272	-0.0013
585.6192	0.0017
585.8111	0.0026
586.0031	-0.0002
586.195	-0.0012
586.387	-0.0004
586.5789	0.0056
586.7708	0.0028
586.9627	0.0078
587.1545	0.0031
587.3464	0.0023
587.5382	0.0021
587.73	0.0067
587.9218	0.0003
588.1136	0.0047
588.3053	0.0025
588.4971	0.0045
588.6888	0.0046
588.8805	0.0006
589.0722	0.0111
589.2639	0.0015
589.4556	0.0043
589.6472	0.0078
589.8389	0.0073
590.0305	-0.0012
590.2221	0.0057
590.4137	0.0084
590.6052	0.0003
590.7968	0.0054
590.9883	0.0041
591.1798	0.0065
591.3713	0.0009
591.5628	0.0031
591.7543	0.0011
591.9458	0.0031
592.1372	0.0048
592.3286	0.001
592.52	0.0068
592.7114	-0.0013
592.9028	0.0083
593.0941	0.0022
593.2855	0.0018
593.4768	0.0137
593.6681	0.0078
593.8594	0.0034
594.0506	0.0014
594.2419	0.0005
594.4331	0.0008
594.6244	-0.0023
594.8156	0.0021
595.0067	-0
595.1979	-0.0026
595.3891	0.0028
595.5802	0.0115
595.7713	-0.0013
595.9624	0.0081
596.1535	0.0061
596.3446	0.0034
596.5357	0.0034
596.7267	0.0029
596.9177	0.005
597.1087	0.0013
597.2997	0.0045
597.4907	0.0053
597.6817	0.0067
597.8726	0.005
598.0635	-0.0056
598.2544	0.0057
598.4453	0.0021
598.6362	-0.0004
598.827	0.004
599.0179	0.0055
599.2087	0.0098
599.3995	0.0056
599.5903	0.0131
599.7811	0.0111
599.9718	-0.0039
600.1626	0.0032
600.3533	-0.0018
600.544	0.002
600.7347	0.005
600.9254	0.0089
601.116	0.0039
601.3067	-0.0005
601.4973	-0.0002
601.6879	-0.0004
601.8785	0.0048
602.0691	0.0036
602.2596	0.0012
602.4502	0.0029
602.6407	0.0061
602.8312	0.0022
603.0217	0.0011
603.2122	0.0055
603.4027	0.001
603.5931	-0.0002
603.7835	0.0017
603.9739	0.0014
604.1643	0.0075
604.3547	0.0084
604.5451	-0.0004
604.7354	-0.0035
604.9257	0.0043
605.116	-0.0059
605.3063	-0.0034
605.4966	0.0036
605.6869	0.0117
605.8771	0.0084
606.0673	-0.0028
606.2575	-0.0011
606.4477	0.0079
606.6379	-0.0003
606.8281	0.0022
607.0182	0.0063
607.2083	0.0014
607.3985	-0
607.5885	0.0045
607.7786	0.0054
607.9687	0.0032
608.1587	0.0094
608.3488	-0.0004
608.5388	-0.0053
608.7288	-0.0016
608.9187	0.0019
609.1087	0.0015
609.2986	0.0097
609.4886	0.0032
609.6785	0.0078
609.8684	-0.0002
610.0582	0.005
610.2481	-0.0065
610.4379	0.0044
610.6278	0.0049
610.8176	0.0095
611.0074	0.0002
611.1971	-0.0015
611.3869	0.0001
611.5766	-0.0079
611.7664	0.0027
611.9561	0.0051
612.1458	0.0073
612.3354	0.0041
612.5251	0.0041
612.7147	0.0082
612.9044	-0.0037
613.094	0.0055
613.2836	0.0048
613.4731	-0.0004
613.6627	0.0019
613.8522	0.004
614.0417	0.0052
614.2313	-0.0027
614.4207	0.005
614.6102	0.0063
614.7997	0.0079
614.9891	0.0048
615.1785	-0.0041
615.3679	0.0077
615.5573	0.0005
615.7467	-0.0005
615.9361	-0.001
616.1254	0.0075
616.3147	0.001
616.504	0.0015
616.6933	0.0034
616.8826	0.0087
617.0718	0.0049
617.2611	-0.0034
617.4503	0.0016
617.6395	0.0004
617.8287	0.0067
618.0179	0.0011
618.207	0.0143
618.3961	-0.0018
618.5853	0.0051
618.7744	0.0071
618.9634	0.0144
619.1525	0.0012
619.3416	0.0011
619.5306	0.0089
619.7196	0.0083
619.9086	-0.0001
620.0976	-0.0083
620.2866	0.0157
620.4755	0.0026
620.6645	0.0064
620.8534	-0.0038
621.0423	0.0046
621.2312	0.0043
621.42	-0.0101
621.6089	0.0015
621.7977	0.0117
621.9865	-0.0048
622.1753	-0.012
622.3641	-0.0103
622.5529	-0.0022
622.7416	-0.0037
622.9303	-0.0004
623.1191	0.0087
623.3078	0.0017
623.4964	0.0057
623.6851	0.003
623.8737	-0.0061
624.0624	-0.0137
624.251	0.0136
624.4396	0.0026
624.6282	0.0048
624.8167	-0.0037
625.0053	0.0113
625.1938	-0.0035
625.3823	0.0036
625.5708	0.0027
625.7593	-0.0037
625.9477	0.0142
626.1362	-0.0007
626.3246	0.0041
626.513	0.007
626.7014	0.0107
626.8898	0.0108
627.0781	-0.004
627.2665	0.0024
627.4548	-0.0106
627.6431	0.0087
627.8314	0.0088
628.0197	0.0161
628.2079	0.0077
628.3962	0.0014
628.5844	0.0095
628.7726	-0.0119
628.9608	-0.0001
629.1489	0.0126
629.3371	-0.0058
629.5252	0.0059
629.7134	-0.0071
629.9015	0.0058
630.0895	-0.0015
630.2776	0.0041
630.4657	0.0106
630.6537	0.0018
630.8417	-0.0177
631.0297	-0.0056
631.2177	0.0039
631.4057	-0.0004
631.5936	-0.0136
631.7815	0.007
631.9695	0.0215
632.1574	0.0204
632.3452	0.0041
632.5331	0.0031
632.7209	0.0042
632.9088	0.0125
633.0966	0.0152
633.2844	-0.0012
633.4722	0.0091
633.6599	0.011
633.8477	0.0116
634.0354	0.0106
634.2231	-0.008
634.4108	0.0115
634.5985	-0.0065
634.7861	0.0014
634.9738	-0.0049
635.1614	0.0027
635.349	0.0043
635.5366	0.0044
635.7242	0.0091
635.9117	-0.0101
636.0993	0.0077
636.2868	-0.0042
636.4743	-0.0061
636.6618	-0.008
636.8492	-0.0001
637.0367	-0.0146
637.2241	0.0041
637.4115	0.0287
637.5989	-0.0135
637.7863	0.0295
637.9737	-0.002
638.161	0.0107
638.3484	-0.0061
638.5357	-0.0054
638.723	0.0154
638.9103	-0.0135
639.0975	0.012
639.2848	0.0071
639.472	-0.0055
639.6592	-0.0013
639.8464	0.0112
640.0336	0.012
640.2208	0.0014
640.4079	-0.0198
640.595	-0.0125
640.7821	0.001
640.9692	0.008
641.1563	-0.003
641.3434	0.0154
641.5304	0.0214
641.7174	0.0146
641.9044	-0.0108
642.0914	0.0031
642.2784	-0.0016
642.4653	-0.0141
642.6523	0.0111
642.8392	0.0063
643.0261	0.0243
643.213	0.0126
643.3999	0.0138
643.5867	0.0104
643.7735	-0.0081
643.9604	0.0182
644.1472	0.0074
644.3339	0.0059
644.5207	-0.0171
644.7075	-0.0101
644.8942	-0.0062
645.0809	0.0176
645.2676	-0.0176
645.4543	0.0168
645.6409	0.0187
645.8276	0.0084
646.0142	-0.0095
646.2008	0.0078
646.3874	-0.0076
646.574	-0.0104
646.7605	0.0124
646.9471	0.0062
647.1336	-0.0396
647.3201	0.0077
647.5066	0.0165
647.6931	0.0127
647.8795	-0.0005
648.0659	0.0109
648.2524	0.0082
648.4388	0.0042
648.6252	-0.0006
648.8115	0.0034
648.9979	0.0087
649.1842	0.0026
649.3705	0.0063
649.5568	-0.0048
649.7431	0.0101
649.9294	0.0003
650.1156	-0.0012
650.3018	0.0071
650.488	0.017
650.6742	0.001
650.8604	0.008
651.0466	-0.0021
651.2327	0.0034
651.4188	0.0089
651.6049	0.015
651.791	-0.0093
651.9771	0.0003
652.1632	-0.0029
652.3492	0.0058
652.5352	0.0191
652.7212	0.0008
652.9072	-0.0016
653.0932	0.0312
653.2791	0.0049
653.465	0.0217
653.651	0.0054
653.8369	-0.0037
654.0227	0.0082
654.2086	0.0049
654.3944	0.0032
654.5803	0.0034
654.7661	0.0062
654.9519	-0.0009
655.1377	0
655.3234	0
655.5092	0
655.6949	0
655.8806	0
656.0663	0
656.2519	0
656.4376	0
656.6232	0
656.8088	0
656.9945	0
657.18	0
657.3656	0
657.5511	0
657.7367	0
657.9222	0
658.1077	0
658.2932	0
658.4786	0
658.6641	0
658.8495	0
659.0349	0
659.2203	0
659.4057	0
659.591	0.0715
659.7764	0.0236
659.9617	-0.0021
660.147	-0.0014
660.3323	0.0034
660.5176	0.0058
660.7028	-0.0184
660.888	0.0146
661.0733	-0.0002
661.2585	-0.0159
661.4436	-0.0072
661.6288	0.0367
661.8139	-0.0022
661.9991	-0.0033
662.1842	-0.0012
662.3693	0.0105
662.5544	0.0173
662.7394	-0.0033
662.9245	-0.0169
663.1095	-0.0131
663.2945	-0.0016
663.4795	-0.0165
663.6644	0.0025
663.8494	0.0063
664.0343	0.021
664.2193	-0.0005
664.4042	-0.0005
664.589	0.014
664.7739	0.0057
664.9587	-0.0066
665.1436	-0.0058
665.3284	0.0048
665.5132	-0.0059
665.698	0.0108
665.8827	0.0074
666.0675	-0.0148
666.2522	0.0111
666.4369	-0.0137
666.6216	0.0198
666.8063	-0.0096
666.9909	-0.0161
667.1756	-0.0183
667.3602	-0.0147
667.5448	0.0187
667.7294	0.0167
667.9139	-0.0092
668.0985	0.0156
668.283	-0.0113
668.4675	-0.0016
668.652	-0.011
668.8365	-0.0019
669.0209	0.0192
669.2054	0.0179
669.3898	-0.0015
669.5742	0.0201
669.7586	0.021
669.943	-0.0236
670.1273	-0.0077
670.3117	0.0109
670.496	-0.0175
670.6803	0.0132
670.8646	-0.0391
671.0488	0.024
671.2331	-0.0243
671.4173	-0.0096
671.6015	-0.0101
671.7857	0.0059
671.9699	0.0013
672.1541	0.0017
672.3382	-0.002
672.5223	0.0018
672.7064	-0.0063
672.8905	-0.0096
673.0746	0.0062
673.2587	0.0118
673.4427	-0.0157
673.6267	0.014
673.8107	0.0102
673.9947	-0.0051
674.1787	-0.0048
674.3626	-0.0024
674.5465	0.0017
674.7304	-0.0134
674.9143	-0.0041
675.0982	0.0007
675.2821	0.0035
675.4659	-0.0103
675.6497	0.0018
675.8335	0.0028
676.0173	-0.0081
676.2011	0.0052
676.3849	-0.0018
676.5686	0.0213
676.7523	-0.0142
676.936	0.0072
677.1197	-0.0203
677.3034	0.0233
677.487	-0.0046
677.6706	0.0045
677.8542	0.0073
678.0378	-0.0035
678.2214	-0.0018
678.405	0.011
678.5885	0.0014
678.772	0.0103
678.9555	0.0038
679.139	0.0004
679.3225	0.0094
679.5059	0.0093
679.6894	0.0018
679.8728	0.0096
680.0562	0.0074
680.2395	0.0029
680.4229	-0.0156
680.6062	0.0152
680.7896	-0.0101
680.9729	0.0188
681.1562	0.0012
681.3394	0.0014
681.5227	-0.0171
681.7059	-0.0017
681.8891	0.0038
682.0723	-0.0064
682.2555	-0.0113
682.4387	0.0131
682.6218	0.0013
682.805	0.0134
682.9881	0.0093
683.1712	-0.0063
683.3542	0.0263
683.5373	-0.0085
683.7203	0.0186
683.9034	-0.0026
684.0864	0.0036
684.2694	-0.0086
684.4523	-0.0069
684.6353	0.0133
684.8182	-0.0001
685.0011	0.0164
685.184	0.0034
685.3669	0.011
685.5498	-0.0122
685.7326	0.0014
685.9154	-0.0107
686.0982	0.0101
686.281	-0.0023
686.4638	0.0113
686.6465	0.0044
686.8293	-0.0053
687.012	0.0143
687.1947	-0.0008
687.3774	0.018
687.56	-0.0143
687.7427	-0.0015
687.9253	-0.0304
688.1079	0.0209
688.2905	-0.0008
688.4731	0.0018
688.6556	-0.0052
688.8382	-0.0239
689.0207	-0.0049
689.2032	0.0207
689.3857	-0.0034
689.5681	0.0023
689.7506	0.0307
689.933	-0.007
690.1154	0.0035
690.2978	-0.003
690.4802	0.0183
690.6626	-0.0026
690.8449	0.0072
691.0272	0.0015
691.2095	-0.0275
691.3918	0.0254
691.5741	-0.0022
691.7563	0.0044
691.9386	0.0076
692.1208	0.016
692.303	0.0051
692.4852	-0.0007
692.6673	-0.003
692.8495	0.003
693.0316	0.0144
693.2137	0.0025
693.3958	-0.0115
693.5778	0.0033
693.7599	0.0077
693.9419	-0.0173
694.1239	0.0251
694.3059	0.0265
694.4879	-0.0046
694.6699	-0.0008
694.8518	0.0126
695.0337	0.0052
695.2157	0.0219
695.3975	-0.0192
695.5794	-0.0065
695.7613	0.0163
695.9431	-0.0081
696.1249	0.015
696.3067	-0.0015
696.4885	0.0025
696.6703	0.0106
696.852	-0.0081
697.0337	0.0243
697.2154	0.0029
697.3971	0.0206
697.5788	0.0181
697.7605	0.0049
697.9421	-0.0004
698.1237	0.0159
698.3053	-0.0036
698.4869	0.0205
698.6685	-0.0044
698.85	0.0277
699.0315	0.0169
699.213	0.0041
699.3945	-0.007
699.576	0.0167
699.7575	0.0202
699.9389	-0.0046
700.1203	-0.014
700.3017	0.0206
700.4831	0.0119
700.6645	0.0177
700.8458	0.0057
701.0271	0.029
701.2084	0.0372
701.3897	0.0057
701.571	0.0174
701.7523	-0.003
701.9335	0.0032
702.1147	0.0252
702.2959	-0.0015
702.4771	0.0265
702.6583	-0.0009
702.8394	-0.0299
703.0205	0.0165
703.2016	0.0144
703.3827	-0.025
703.5638	-0.0014
703.7449	0.0234
703.9259	0.0074
704.1069	-0.0242
704.2879	-0.0077
704.4689	-0.0008
704.6499	0.0202
704.8308	0.002
705.0117	0.0215
705.1927	0.0203
705.3735	0.031
705.5544	0.0069
705.7353	-0.0216
705.9161	-0.0337
706.0969	0.018
706.2777	0.004
706.4585	0.0013
706.6393	0.0123
706.82	0.0106
707.0007	-0.0056
707.1815	0.0011
707.3621	0.0258
707.5428	0.0073
707.7235	0.0086
707.9041	0.0079
708.0847	-0.002
708.2653	0.0305
708.4459	-0.0026
708.6265	-0.0148
708.807	0.0217
708.9875	-0.0086
709.168	-0.0145
709.3485	0.0039
709.529	-0.0038
709.7095	-0.0174
709.8899	-0.0009
710.0703	0.0104
710.2507	0.0227
710.4311	-0.011
710.6115	0.011
710.7918	0.01
710.9721	0.0078
711.1524	-0.0003
711.3327	-0.018
711.513	-0.0074
711.6932	-0.0016
711.8735	0.0013
712.0537	-0.0202
712.2339	0.0042
712.4141	0.0263
712.5942	-0.0219
712.7744	0.0159
712.9545	0.023
713.1346	0.0252
713.3147	0.0083
713.4947	-0.0162
713.6748	0.0083
713.8548	-0.0028
714.0348	0.0084
714.2148	0.0253
714.3948	0.0194
714.5748	0.0109
714.7547	0.0007
714.9346	-0.0067
715.1145	0.0105
715.2944	-0.0265
715.4743	0.0414
715.6541	-0.005
715.834	0.033
716.0138	0.0191
716.1936	0.0039
716.3733	-0.0156
716.5531	-0.0009
716.7328	0.0246
716.9126	0.0308
717.0923	-0.0425
717.2719	0.0116
717.4516	-0.0301
717.6312	-0.0268
717.8109	0.0202
717.9905	-0.002
718.1701	0.0297
718.3496	-0.0199
718.5292	-0.0187
718.7087	0.0157
718.8882	0.0048
719.0677	0.0154
719.2472	0.0034
719.4267	-0.0014
719.6061	0.0027
719.7856	0.0154
719.965	-0.0156
720.1443	-0.0022
720.3237	-0.0154
720.5031	0.0047
720.6824	-0.0074
720.8617	0.0208
721.041	0.0307
721.2203	-0.0204
721.3995	0.0098
721.5788	0.0113
721.758	0.0022
721.9372	-0.0157
722.1164	-0.0071
722.2956	0.0054
722.4747	0.0001
722.6538	0.0037
722.8329	0.0145
723.012	0.0135
723.1911	0.0152
723.3702	0.0029
723.5492	-0.0184
723.7282	-0.0176
723.9072	0.0031
724.0862	0.0032
724.2652	0.0066
724.4441	0.0138
724.623	-0.0165
724.8019	-0.0066
724.9808	0.0087
725.1597	0.0004
725.3385	0.0008
725.5174	0.0107
725.6962	0.0118
725.875	-0.0039
726.0538	-0.0095
726.2325	0.0225
726.4112	-0.0033
726.59	-0.0106
726.7687	-0.0279
726.9474	0.0183
727.126	0.0307
727.3047	-0.0255
727.4833	-0.0044
727.6619	0.0044
727.8405	-0.0016
728.0191	0.0286
728.1976	-0.0041
728.3762	-0.0053
728.5547	-0.0284
728.7332	0.0032
728.9116	-0.011
729.0901	0.0197
729.2686	-0.0196
729.447	-0.0059
729.6254	0.0045
729.8038	-0.0187
729.9821	-0.016
730.1605	-0.0033
730.3388	-0.0051
730.5171	-0.0012
730.6954	-0.0186
730.8737	0.001
731.0519	0.0018
731.2302	0.0058
731.4084	0.002
731.5866	0.0085
731.7648	-0.0068
731.9429	0.0285
732.1211	-0.0026
732.2992	0.0038
732.4773	0.0157
732.6554	-0.0056
732.8335	0.0164
733.0115	0.0275
733.1896	-0.0021
733.3676	0.0165
733.5456	-0.0054
733.7235	-0.0057
733.9015	0.0115
734.0794	-0.0041
734.2574	-0.018
734.4353	0.0101
734.6131	-0.0101
734.791	0.0049
734.9689	0.0032
735.1467	-0.0005
735.3245	0.0001
735.5023	0.0191
735.68	0.0006
735.8578	0.014
736.0355	0.0014
736.2132	0.0094
736.3909	0.007
736.5686	-0.0021
736.7463	-0.0209
736.9239	0.0176
737.1015	-0.0002
737.2791	0.0113
737.4567	0.0219
737.6343	-0.0164
737.8118	0.0195
737.9894	0.0004
738.1669	0.0004
738.3444	0.0239
738.5218	-0.0165
738.6993	0.0005
738.8767	0.0158
739.0541	-0.0064
739.2315	-0.0104
739.4089	0.0048
739.5863	0.0029
739.7636	0.0029
739.9409	0.0206
740.1182	-0.0083
740.2955	0.0265
740.4728	-0.0194
740.65	-0.0041
740.8272	0.0106
741.0044	-0.0144
741.1816	-0.0127
741.3588	-0.0266
741.5359	-0.0151
741.7131	-0.0181
741.8902	0.0009
742.0673	0.0047
742.2444	0.0334
742.4214	0.0234
742.5985	-0.0312
742.7755	0.0204
742.9525	-0.0173
743.1295	-0.0229
743.3064	-0.0038
743.4834	-0.0183
743.6603	0.0503
743.8372	-0.0372
744.0141	0.0289
744.191	-0.0022
744.3678	-0.0355
744.5446	0.0185
744.7215	-0.0181
744.8982	0.0471
745.075	0.0423
745.2518	0.0088
745.4285	0.0239
745.6052	-0.0228
745.7819	0.0057
745.9586	-0.0066
746.1353	-0.0014
746.3119	-0.0004
746.4885	0.0316
746.6651	0.0049
746.8417	0.0052
747.0183	0.026
747.1948	-0.0122
747.3714	0.0164
747.5479	0.0245
747.7244	0.007
747.9008	-0.0037
748.0773	0.0292
748.2537	0.0205
748.4301	0.0084
748.6065	-0.0176
748.7829	0.0026
748.9593	0.0093
749.1356	0.0112
749.3119	0.0236
749.4882	0.0144
749.6645	0.0068
749.8408	0.0104
750.017	0.02
750.1933	-0.0281
750.3695	0.004
750.5457	-0.0023
750.7218	-0.0081
750.898	-0.0257
751.0741	0.0114
751.2502	-0.0002
751.4263	-0.0006
751.6024	0.002
751.7784	-0.0144
751.9545	-0.0039
752.1305	0.012
752.3065	0.0253
752.4825	0.0025
752.6584	0.0271
752.8344	-0.0065
753.0103	-0.0295
753.1862	0.0113
753.3621	0.0198
753.5379	-0.0023
753.7138	0.0079
753.8896	0.0162
754.0654	-0.0203
754.2412	0.0074
754.417	0.0263
754.5927	0.0228
754.7685	0.0169
754.9442	-0.014
755.1199	-0.0022
755.2956	0.0188
755.4712	-0.0047
755.6469	0.0094
755.8225	0.0085
755.9981	0.012
756.1736	0.004
756.3492	-0.0072
756.5248	0.0164
756.7003	-0.0052
756.8758	0.0022
757.0513	-0.0018
757.2267	0.002
757.4022	-0.0013
757.5776	-0.0009
757.753	0.0186
757.9284	0.014
758.1038	0.0055
758.2791	0.0034
758.4545	-0.0287
758.6298	0.0114
758.8051	0.0117
758.9803	0.002
759.1556	-0.0119
759.3308	-0.0093
759.506	0.0012
759.6812	-0.0002
759.8564	0.0007
760.0316	0.0031
760.2067	0.0179
760.3819	0.0025
760.557	0.0066
760.732	-0.0024
760.9071	0.0074
761.0821	-0.0127
761.2572	-0.0087
761.4322	0.0093
761.6072	-0.0087
761.7821	-0.0377
761.9571	0.027
762.132	0.035
762.3069	0.0307
762.4818	0.0227
762.6567	-0.009
762.8316	-0.0068
763.0064	0.0178
763.1812	-0.0113
763.356	-0.0284
763.5308	0.0083
763.7055	-0.0012
763.8803	-0.0107
764.055	-0.0102
764.2297	-0.0188
764.4044	0.007
764.579	-0.0097
764.7537	0.0187
764.9283	0.0084
765.1029	0.0041
765.2775	0.0082
765.4521	0.0023
765.6266	-0.011
765.8011	-0.0143
765.9756	0.007
766.1501	-0.0119
766.3246	-0.0026
766.4991	0.0187
766.6735	0.0356
766.8479	-0.0222
767.0223	-0.0004
767.1967	0.011
767.371	0.0032
767.5454	0.0232
767.7197	-0.0032
767.894	0.0178
768.0683	-0.0038
768.2425	0.0325
768.4168	0.0153
768.591	-0.0099
768.7652	-0.0194
768.9394	-0.008
769.1135	-0.0169
769.2877	0.0077
769.4618	0.0274
769.6359	0.0124
769.81	0.0211
769.984	-0.0125
770.1581	0.0023
770.3321	0.027
770.5061	-0.0126
770.6801	0.0081
770.8541	0.03
771.028	0.0472
771.202	0.0444
771.3759	-0.0129
771.5498	-0.0131
771.7236	0.0037
771.8975	0.0216
772.0713	0.0265
772.2451	0.0125
772.4189	-0.0052
772.5927	-0.0311
772.7665	-0.0156
772.9402	0.0419
773.1139	0.0113
773.2876	0.0023
773.4613	0.0465
773.635	0.0485
773.8086	0.0749
773.9822	0.0123
774.1558	0.043
774.3294	-0.0059
774.503	-0.0195
774.6765	0.0275
774.8501	-0.0032
775.0236	0.0531
775.1971	-0.0141
775.3705	0.001
775.544	-0.0212
775.7174	-0.0022
775.8908	-0.0093
776.0642	0.0085
776.2376	0.0571
776.4109	0.0019
776.5843	-0.0416
776.7576	-0.0048
776.9309	0.0225
777.1041	-0.0539
777.2774	-0.0023
777.4506	-0.0263
777.6238	-0.0278
777.797	0.0051
777.9702	-0.0083
778.1434	0.0283
778.3165	-0.018
778.4896	-0.0308
778.6627	0.0124
778.8358	-0.023
779.0089	-0.0111
779.1819	0.0412
779.3549	-0.0016
779.5279	-0.0281
779.7009	0.0534
779.8739	0.0379
780.0468	0.0294
780.2197	-0.0219
780.3926	-0.0057
780.5655	-0.0004
780.7384	0.0079
780.9112	0.0222
781.0841	0.0249
781.2569	0.0006
781.4297	0.0126
781.6024	0.0249
781.7752	0.0344
781.9479	0.0129
782.1206	0.0174
782.2933	0.0252
782.466	0.0449
782.6386	-0.0243
782.8113	0.0007
782.9839	-0.0222
783.1565	0.0096
783.329	-0.013
783.5016	0.0413
783.6741	-0.0083
783.8466	0.0561
784.0191	0.0002
784.1916	-0.0045
784.3641	-0.0571
784.5365	0.0017
784.7089	-0.0273
784.8813	0.0862
785.0537	0.0176
785.2261	0.0002
785.3984	0.0287
785.5707	-0.0526
785.743	0.0361
785.9153	-0.0229
786.0876	-0.0103
786.2598	-0.0181
786.432	0.0207
786.6042	0.05
786.7764	-0.0185
786.9486	-0.0331
787.1207	0.0197
787.2928	0.0291
787.4649	-0.0101
787.637	0.0182
787.8091	0.0084
787.9811	0.0572
788.1532	0.0159
788.3252	-0.0164
788.4972	0.0051
788.6691	0.0043
788.8411	-0.0256
789.013	-0.0128
789.1849	-0.0158
789.3568	0.0114
789.5287	0.075
789.7005	0.0245
789.8723	-0.0172
790.0442	-0.0286
790.2159	-0.016
790.3877	0.0316
790.5595	0.0798
790.7312	-0.0288
790.9029	-0.0028
791.0746	-0.0196
791.2463	-0.0753
791.4179	-0.0224
791.5896	0.0002
791.7612	0.0249
791.9328	-0.0666
792.1044	-0.0219
792.2759	-0.0565
792.4474	0.0329
792.619	0.0165
792.7905	0.0926
792.9619	0.1092
793.1334	0.0428
793.3048	0.0287
793.4762	-0.0106
793.6476	-0.042
793.819	0.0123
793.9904	0.0124
794.1617	0.0027
794.333	0.0077
794.5043	0.0112
794.6756	0.0202
794.8469	0.0069
795.0181	-0.0098
795.1893	0.0193
795.3605	0.0107
795.5317	0.0281
795.7029	-0.0171
795.874	-0.0044
796.0452	0.0168
796.2163	0.0248
796.3873	0.067
796.5584	-0.0291
796.7294	-0.0157
796.9005	0.0183
797.0715	0.0052
797.2425	0.0812
797.4134	0.015
797.5844	0.0419
797.7553	-0.0219
797.9262	0.0417
798.0971	0.0281
798.2679	0.0176
798.4388	0.0568
798.6096	0.0184
798.7804	-0.0211
798.9512	0.033
799.122	-0.0234
799.2927	0.0324
799.4635	-0.0366
799.6342	-0.0918
799.8049	0.0272
799.9755	-0.063
800.1462	-0.017
800.3168	0.0303
800.4874	-0.0769
800.658	0.0931
800.8286	-0.0395
800.9991	0.0115
801.1696	-0.0657
801.3402	0.0005
801.5106	-0.02
801.6811	0.0337
801.8516	0.0753
802.022	0.0462
802.1924	-0.045
802.3628	0.0206
802.5332	0.1865
802.7035	0.0384
802.8739	0.0143
803.0442	0.0157
803.2145	0.024
803.3847	-0.0133
803.555	0.0692
803.7252	-0.0187
803.8954	-0.0109
804.0656	0.0004
804.2358	0.0652
804.4059	0.053
804.5761	-0.0217
804.7462	0.0109
804.9163	0.033
805.0864	0.0039
805.2564	0.0319
805.4264	-0.0126
805.5965	0.0448
805.7665	0.0419
805.9364	0.0394
806.1064	0.0003
806.2763	0.0555
806.4462	0.024
806.6161	0.0292
806.786	-0.0524
806.9559	0.0497
807.1257	0.0373
807.2955	-0.0467
807.4653	-0.0021
807.6351	0.0591
807.8048	0.0525
807.9746	0.0091
808.1443	-0.0409
808.314	0.1162
808.4837	0.026
808.6533	0.0449
808.8229	-0.033
808.9926	0.0508
809.1622	-0.017
809.3317	0.0091
809.5013	-0.0086
809.6708	0.0088
809.8403	0.0152
810.0098	0.0824
810.1793	0.0005
810.3488	-0.0786
810.5182	0.0849
810.6876	0.0083
810.857	0.0726
811.0264	-0.0262
811.1958	0.1059
811.3651	-0.0588
811.5344	0.0026
811.7037	0.0713
811.873	0.1147
812.0422	-0.0644
812.2115	-0.0561
812.3807	-0.0245
812.5499	-0.0861
812.7191	0.0448
812.8882	-0.066
813.0574	0.0033
813.2265	0.0813
813.3956	0.1116
813.5646	0.0263
813.7337	-0.0273
813.9027	-0.0607
814.0718	-0.0149
814.2407	-0.0291
814.4097	0.1115
814.5787	0.0794
814.7476	0.0496
814.9165	0.1142
815.0854	-0.0629
815.2543	0.0581
815.4232	0.0116
815.592	0.0599
815.7608	-0.0302
815.9296	-0.0544
816.0984	0.0044
816.2671	-0.1738
816.4359	0.0517
816.6046	0.0008
816.7733	-0.0093
816.942	-0.0046
817.1106	0.0315
817.2793	-0.1593
817.4479	-0.0526
817.6165	-0.0422
817.785	0.1797
817.9536	-0.0428
818.1221	-0.0077
818.2906	-0.1263
818.4591	0.005
818.6276	0.1053
818.7961	-0.0087
818.9645	0.0324
819.1329	0.1104
819.3013	-0.0723
819.4697	-0.0404
819.638	0.1256
819.8064	-0.0184
819.9747	0.0457
820.143	-0.1256
820.3113	-0.0116
820.4795	0.078
820.6477	-0.004
820.816	-0.0505
820.9842	0.0659
821.1523	0.0847
821.3205	0.0005
821.4886	-0.0254
821.6567	-0.0844
821.8248	0.1058
821.9929	-0.175
822.1609	-0.1084
822.329	-0.0139
822.497	0.1188
822.665	0.0041
822.833	-0.1113
823.0009	-0.0613
823.1688	0.1828
823.3367	0.0014
823.5046	0.1119
823.6725	-0.0057
823.8404	0.031
824.0082	-0.0851
824.176	-0.1776
824.3438	0.0732
824.5116	0.0665
824.6793	-0.0047
824.847	0.2067
825.0147	-0.0041
825.1824	0.071
825.3501	0.1944
825.5177	-0.0391
825.6854	-0.0726
825.853	-0.0845
826.0206	-0.0304
826.1881	0.1517
826.3557	0.019
826.5232	0.0674
826.6907	-0.0567
826.8582	-0.0279
827.0257	0.2572
827.1931	0.0858
827.3605	0.0761
827.528	0.0394
827.6953	-0.186
827.8627	0.1841
828.03	0.0683
828.1974	0.0322
828.3647	0.0616
828.532	-0.0563
828.6992	0.0093
828.8665	-0.0388
829.0337	0.0487
829.2009	-0.1667
829.3681	0.055
829.5352	-0.2975
829.7024	-0.0076
829.8695	-0.0492
830.0366	0.2037
830.2037	0.1777
830.3707	0.0533
830.5378	0.042
830.7048	-0.1199
830.8718	0.2441
831.0388	0.2552
831.2057	0.0329
831.3727	0.3147
831.5396	0.042
831.7065	-0.822
831.8734	0.0841
832.0402	0.6188
832.2071	-0.4965
832.3739	-0.2334
832.5407	-1.7944
832.7075	-0.3699
832.8742	0.7228
833.041	0.0162
833.2077	-0
833.3744	0.0484
833.541	-0.1019
833.7077	-0.208
833.8743	0.0226
834.0409	0.0182
834.2075	0.1574
834.3741	-0.0577
834.5407	0.0147
834.7072	-0.0446
834.8737	0.1511
835.0402	0.1622
835.2067	-0.1293
835.3731	-0.073
835.5395	0.0733
835.706	-0.0367
835.8723	-0.117
836.0387	0.2477
836.2051	0.1569
836.3714	-0.2024
836.5377	0.2274
836.704	0.2872
836.8703	-0.1336
837.0365	-0.8471
837.2027	0.3691
837.3689	0.044
837.5351	0.2736
837.7013	0.0126
837.8674	-0.5536
838.0335	-0.151
838.1997	-0.3561
838.3657	-0
838.5318	-0
838.6978	0.1773
838.8639	-0.3145
839.0299	0.2805
839.1958	0.1165
839.3618	0.2048
839.5277	-0.074
839.6937	0.0586
839.8596	-0.0848
840.0254	-0.0608
840.1913	-0.411
840.3571	-0.0625
840.523	-0
840.6888	-0.1213
840.8545	-0.2884
841.0203	0.2012
841.186	-0.0794
841.3517	-0.3861
841.5174	0.1981
841.6831	0.1482
841.8488	-0.0305
842.0144	0.3859
842.18	0.6176
842.3456	-0.8414
842.5112	-0
842.6767	-0.0193
842.8422	-0.1554
843.0077	0.7123
843.1732	-0.1388
843.3387	-0.0706
843.5042	-0
843.6696	-0.3386
843.835	-0.382
844.0004	-0.0272
844.1657	-0.7212
844.3311	1.6698
844.4964	-0.672
844.6617	0.9735
844.827	-0
844.9923	0.0989
845.1575	-0.4579
845.3227	-0.2606
845.4879	-0.0617
845.6531	0.1678
845.8183	-0.2434
845.9834	-0
846.1485	0.1637
846.3136	-0.2532
846.4787	-0.2135
846.6438	0.0763
846.8088	0.0446
846.9738	-0.4952
847.1388	0.0768
847.3038	-0.0933
847.4687	1.0667
847.6337	-0.0665
847.7986	0.5647
847.9635	-0.1501
848.1284	-0
848.2932	0.6539
848.458	-0
848.6228	0.0959
848.7876	-0
848.9524	-0
849.1172	-0.9611
849.2819	-0
849.4466	0.0601
849.6113	0.1933
849.7759	-0
849.9406	-0.3165
850.1052	-0
850.2698	-0
850.4344	-0
850.599	0.6342
850.7635	0.3551
850.928	0.2451
851.0925	0.1161
851.257	0.2267
851.4215	-0.0502
851.5859	-0.2383
851.7503	-0
851.9147	-0.3181
852.0791	-0.1432
852.2434	0.2398
852.4078	-0
852.5721	0.2738
852.7364	-0.0078
852.9007	-0.27
853.0649	-0
853.2291	0.0735
853.3934	-0
853.5575	0.0931
853.7217	0.2146
853.8859	-0.2143
854.05	-0.4737
854.2141	-0
854.3782	0.3169
854.5423	-0
854.7063	-0.1789
854.8703	0.0173
855.0343	0.0476
855.1983	-0.013
855.3623	-0.0383
855.5262	-0
855.6901	0.3452
855.854	0.1084
856.0179	-0.1075
856.1818	-0
856.3456	0.0946
856.5094	-0.4343
856.6732	0.4586
856.837	-0.9558
857.0008	-0
857.1645	0.0788
857.3282	-0.2223
857.4919	0.5061
857.6556	-0.4391
857.8192	-0.1902
857.9828	-0.3131
858.1465	-0
858.31	-0
858.4736	-0
858.6372	-0.3365
858.8007	-0
858.9642	0.5921
859.1277	0.7097
859.2911	-0.3555
859.4546	-0
859.618	0.002
859.7814	-0
859.9448	-0
860.1081	-0
860.2715	-0.8709
860.4348	-0.2323
860.5981	1.0481
860.7614	-0
860.9246	0.4718
861.0879	-0
861.2511	-0.3402
861.4143	-0
861.5774	1.8678
861.7406	-0.359
861.9037	-0
862.0668	-0.8207
862.2299	0.4861
862.393	-0.0558
862.556	-0
862.7191	-0.609
862.8821	-0.0256
863.0451	0.1227
863.208	-0.2492
863.371	-0.2794
863.5339	0.1913
863.6968	0.6383
863.8597	0.007
864.0225	-0
864.1854	-0.1144
864.3482	-0
864.511	0.1227
864.6737	-0
864.8365	0.641
864.9992	-0
865.1619	-0.3794
865.3246	-1.6955
865.4873	-0
865.65	0.5064
865.8126	-0
865.9752	-0.3281
866.1378	0.019
866.3004	0.4419
866.4629	-1.8288
866.6254	1.541
866.7879	1.1886
866.9504	-0
867.1129	-0.4197
867.2753	0.2295
867.4377	0.0881
867.6001	-0.8922
867.7625	-0.0292
867.9249	-0
868.0872	-0.0258
868.2495	0.2295
868.4118	-0
868.5741	0.2968
868.7363	-0
868.8986	-0.6021
869.0608	-0
869.223	-0.1059
869.3851	-0
869.5473	-0.0148
869.7094	0.0639
869.8715	-1.0724
870.0336	0.0726
870.1957	-0
870.3577	0.2489
870.5197	0.6164
870.6817	-1.2
870.8437	-0.4041
871.0057	0.119
871.1676	0.0762
871.3295	-0
871.4914	-1.8062
871.6533	0.9058
871.8151	-0
871.977	-0.5733
872.1388	-0.5165
872.3006	-0.7474
872.4623	0.1816
872.6241	-0
872.7858	-0.2653
872.9475	1.6447
873.1092	-0.0278
873.2709	0.5663
873.4325	-2.075
873.5941	-0
873.7557	0.2078
873.9173	-0.256
874.0789	0.1621
874.2404	-0
874.4019	0.0963
874.5634	0.5992
874.7249	-0
874.8863	-0
875.0478	0.0033
875.2092	0.6986
875.3706	0.7173
875.5319	-0
875.6933	-0
875.8546	-0
876.0159	0.4445
876.1772	-0
876.3385	0.0989
876.4997	1.3745
876.6609	0.571
876.8221	0.5453
876.9833	-0.0588
877.1445	0.5763
877.3056	-0
877.4667	-0.4517
877.6278	1.4012
877.7889	0.6344
877.9499	0.4988
878.111	-0.7189
878.272	0.1016
878.433	-0.0479
878.5939	0.1776
878.7549	-0
878.9158	-0
879.0767	-0
879.2376	-0.4099
879.3984	0.7134
879.5593	0.9709
879.7201	-1.6203
879.8809	-0
880.0417	-0.3523
880.2024	-0.0244
880.3632	-0.6632
880.5239	0.1315
880.6846	-0
880.8452	-0.3549
881.0059	-0
881.1665	-0.0447
881.3271	0.6076
881.4877	0.539
881.6483	-0
881.8088	-0
881.9693	-1.0959
882.1298	-1.0959
882.2903	-1.0959
