Data from D4ACN5uM460nmA_Absorbance_13-05-42-560.txt Node
Date: Fri Feb 21 13:05:42 GMT 2025
User: LASERRRRR
Spectrometer: FLMT03099
Trigger mode: 0
Integration Time (sec): 1.500000E-2
Scans to average: 1
Electric dark correction enabled: true
Nonlinearity correction enabled: false
Boxcar width: 0
XAxis mode: Wavelengths
Number of Pixels in Spectrum: 3648
>>>>>Begin Spectral Data<<<<<
179.3399	-0.4509
179.5586	-0.4509
179.7771	-0.4509
179.9957	0.2203
180.2143	-0
180.4329	0.3742
180.6514	-0
180.8699	-0
181.0885	-0
181.307	0.5903
181.5255	0.1932
181.744	-0
181.9625	0.319
182.181	0.1747
182.3994	-0.2406
182.6179	-0
182.8363	0.3602
183.0547	-0.2493
183.2732	0.1277
183.4916	0.3615
183.71	0.0829
183.9284	0.0707
184.1467	0.1119
184.3651	-0.0629
184.5835	0.2508
184.8018	0.5261
185.0201	0.0827
185.2385	0.2766
185.4568	0.1327
185.6751	-0.0286
185.8934	0.1203
186.1117	-0.0323
186.3299	0.2316
186.5482	0.3599
186.7664	0.2488
186.9847	-0.1507
187.2029	0.0453
187.4211	-0.0475
187.6393	0.1043
187.8575	0.2644
188.0757	0.5409
188.2939	0.2038
188.512	0.3182
188.7302	0.011
188.9483	0.0424
189.1665	0.5343
189.3846	0.0005
189.6027	0.1277
189.8208	0.1565
190.0389	0.1034
190.257	0.1304
190.475	-0.0503
190.6931	-0.0295
190.9111	0.2716
191.1292	0.1306
191.3472	0.1377
191.5652	0.4366
191.7832	0.3078
192.0012	0.1574
192.2192	0.1303
192.4371	0.0966
192.6551	0.1338
192.873	0.1221
193.091	0.1824
193.3089	0.1188
193.5268	0.2757
193.7447	0.1036
193.9626	0.1894
194.1805	0.1838
194.3984	0.2563
194.6162	0.2852
194.8341	0.2121
195.0519	0.1793
195.2697	0.2214
195.4875	0.3262
195.7054	0.2764
195.9231	0.1761
196.1409	0.2773
196.3587	0.313
196.5765	0.3144
196.7942	0.3219
197.012	0.283
197.2297	0.2752
197.4474	0.3599
197.6651	0.3227
197.8828	0.3427
198.1005	0.4602
198.3182	0.3638
198.5358	0.3662
198.7535	0.3729
198.9711	0.4014
199.1888	0.3584
199.4064	0.4618
199.624	0.3973
199.8416	0.3866
200.0592	0.3739
200.2767	0.3823
200.4943	0.4124
200.7119	0.3931
200.9294	0.4352
201.1469	0.3871
201.3645	0.4086
201.582	0.402
201.7995	0.4192
202.017	0.4175
202.2344	0.4324
202.4519	0.3667
202.6694	0.3854
202.8868	0.4102
203.1042	0.407
203.3217	0.3838
203.5391	0.3868
203.7565	0.3712
203.9739	0.3696
204.1913	0.3423
204.4086	0.346
204.626	0.3935
204.8433	0.3436
205.0607	0.3778
205.278	0.3505
205.4953	0.3524
205.7126	0.342
205.9299	0.3208
206.1472	0.3056
206.3644	0.3301
206.5817	0.3383
206.7989	0.3495
207.0162	0.3214
207.2334	0.3106
207.4506	0.2944
207.6678	0.3063
207.885	0.2883
208.1022	0.3218
208.3194	0.287
208.5365	0.2958
208.7537	0.2922
208.9708	0.3008
209.1879	0.2798
209.405	0.2706
209.6222	0.2696
209.8392	0.2943
210.0563	0.2632
210.2734	0.2728
210.4905	0.287
210.7075	0.2721
210.9245	0.2724
211.1416	0.2758
211.3586	0.2743
211.5756	0.2328
211.7926	0.2608
212.0096	0.2474
212.2265	0.2648
212.4435	0.2541
212.6604	0.2787
212.8774	0.2452
213.0943	0.2531
213.3112	0.2531
213.5281	0.267
213.745	0.2582
213.9619	0.2314
214.1788	0.2476
214.3956	0.2402
214.6125	0.2538
214.8293	0.2523
215.0461	0.2334
215.2629	0.25
215.4798	0.2621
215.6965	0.2465
215.9133	0.241
216.1301	0.2458
216.3469	0.2536
216.5636	0.2413
216.7803	0.2509
216.9971	0.2515
217.2138	0.2582
217.4305	0.2541
217.6472	0.2507
217.8639	0.2535
218.0805	0.2571
218.2972	0.2445
218.5138	0.2664
218.7305	0.2585
218.9471	0.2412
219.1637	0.2735
219.3803	0.2646
219.5969	0.2556
219.8135	0.2581
220.0301	0.2514
220.2466	0.255
220.4632	0.2444
220.6797	0.2662
220.8962	0.2517
221.1127	0.2608
221.3292	0.2592
221.5457	0.261
221.7622	0.2709
221.9787	0.2897
222.1951	0.2677
222.4116	0.2846
222.628	0.2883
222.8444	0.282
223.0608	0.2891
223.2772	0.2845
223.4936	0.2805
223.71	0.2986
223.9264	0.2894
224.1427	0.2957
224.3591	0.2886
224.5754	0.282
224.7917	0.2978
225.008	0.304
225.2243	0.3035
225.4406	0.2892
225.6569	0.3066
225.8732	0.3108
226.0894	0.3036
226.3057	0.3194
226.5219	0.3151
226.7381	0.3182
226.9543	0.3167
227.1705	0.3244
227.3867	0.3228
227.6029	0.3361
227.8191	0.3396
228.0352	0.3356
228.2513	0.3507
228.4675	0.3359
228.6836	0.3484
228.8997	0.338
229.1158	0.3586
229.3319	0.3601
229.548	0.3541
229.764	0.3647
229.9801	0.3726
230.1961	0.3578
230.4121	0.3632
230.6282	0.3799
230.8442	0.3788
231.0602	0.3916
231.2761	0.381
231.4921	0.3888
231.7081	0.393
231.924	0.4027
232.14	0.3971
232.3559	0.4058
232.5718	0.416
232.7877	0.4031
233.0036	0.4122
233.2195	0.4178
233.4353	0.4186
233.6512	0.4114
233.867	0.4315
234.0829	0.4228
234.2987	0.4148
234.5145	0.4417
234.7303	0.425
234.9461	0.4405
235.1619	0.442
235.3776	0.4366
235.5934	0.4303
235.8091	0.4391
236.0249	0.4363
236.2406	0.438
236.4563	0.4451
236.672	0.4423
236.8877	0.4488
237.1034	0.4396
237.319	0.4491
237.5347	0.4447
237.7503	0.4474
237.966	0.4619
238.1816	0.4518
238.3972	0.4547
238.6128	0.4587
238.8284	0.4623
239.0439	0.4585
239.2595	0.4625
239.475	0.4621
239.6906	0.4577
239.9061	0.455
240.1216	0.4586
240.3371	0.457
240.5526	0.4629
240.7681	0.4623
240.9836	0.4555
241.199	0.4439
241.4145	0.4432
241.6299	0.4456
241.8453	0.4383
242.0607	0.4319
242.2761	0.4267
242.4915	0.4247
242.7069	0.4163
242.9223	0.419
243.1376	0.4036
243.353	0.392
243.5683	0.4012
243.7836	0.385
243.9989	0.3722
244.2142	0.3725
244.4295	0.3639
244.6448	0.3632
244.86	0.3406
245.0753	0.3415
245.2905	0.3342
245.5057	0.3289
245.721	0.3296
245.9362	0.3204
246.1514	0.3183
246.3665	0.3091
246.5817	0.2958
246.7969	0.2922
247.012	0.2916
247.2271	0.289
247.4423	0.2803
247.6574	0.2776
247.8725	0.2682
248.0876	0.2662
248.3026	0.2664
248.5177	0.2563
248.7328	0.2488
248.9478	0.2432
249.1628	0.2465
249.3779	0.2386
249.5929	0.2407
249.8079	0.2351
250.0228	0.2261
250.2378	0.2252
250.4528	0.2262
250.6677	0.2195
250.8827	0.2095
251.0976	0.2182
251.3125	0.2172
251.5274	0.2093
251.7423	0.2047
251.9572	0.2059
252.172	0.2065
252.3869	0.2066
252.6017	0.2015
252.8166	0.1958
253.0314	0.1958
253.2462	0.1971
253.461	0.1961
253.6758	0.197
253.8906	0.1943
254.1053	0.1938
254.3201	0.1925
254.5348	0.1863
254.7496	0.1836
254.9643	0.19
255.179	0.1861
255.3937	0.1891
255.6083	0.1907
255.823	0.1849
256.0377	0.1823
256.2523	0.1856
256.467	0.1833
256.6816	0.1775
256.8962	0.1841
257.1108	0.1823
257.3254	0.1835
257.54	0.1751
257.7545	0.1811
257.9691	0.1808
258.1836	0.1742
258.3981	0.1829
258.6127	0.1741
258.8272	0.1796
259.0417	0.1731
259.2561	0.1782
259.4706	0.1733
259.6851	0.1719
259.8995	0.1755
260.114	0.178
260.3284	0.1709
260.5428	0.1755
260.7572	0.1769
260.9716	0.1756
261.186	0.1741
261.4003	0.1724
261.6147	0.171
261.829	0.1752
262.0433	0.1715
262.2577	0.1718
262.472	0.1757
262.6863	0.1804
262.9005	0.172
263.1148	0.174
263.3291	0.1784
263.5433	0.1792
263.7576	0.1791
263.9718	0.1745
264.186	0.1744
264.4002	0.1729
264.6144	0.1816
264.8286	0.1777
265.0427	0.1845
265.2569	0.1794
265.471	0.1807
265.6851	0.1864
265.8993	0.1705
266.1134	0.1759
266.3275	0.171
266.5415	0.1789
266.7556	0.178
266.9697	0.1821
267.1837	0.1785
267.3978	0.1767
267.6118	0.1756
267.8258	0.174
268.0398	0.1747
268.2538	0.1765
268.4677	0.1753
268.6817	0.1703
268.8957	0.1697
269.1096	0.168
269.3235	0.1732
269.5374	0.1757
269.7514	0.1823
269.9652	0.1754
270.1791	0.1673
270.393	0.1696
270.6068	0.1717
270.8207	0.1673
271.0345	0.1666
271.2483	0.1605
271.4622	0.1678
271.676	0.1715
271.8897	0.1658
272.1035	0.1764
272.3173	0.1649
272.531	0.1666
272.7448	0.1668
272.9585	0.1587
273.1722	0.1661
273.3859	0.1641
273.5996	0.1634
273.8133	0.1659
274.0269	0.1655
274.2406	0.166
274.4542	0.1641
274.6679	0.1667
274.8815	0.1776
275.0951	0.1729
275.3087	0.172
275.5223	0.1668
275.7358	0.1728
275.9494	0.1708
276.1629	0.1746
276.3765	0.1692
276.59	0.1706
276.8035	0.1678
277.017	0.1733
277.2305	0.1722
277.444	0.1721
277.6574	0.1715
277.8709	0.1752
278.0843	0.1775
278.2978	0.1774
278.5112	0.1716
278.7246	0.1758
278.938	0.177
279.1513	0.1748
279.3647	0.1761
279.5781	0.1736
279.7914	0.1709
280.0047	0.1774
280.2181	0.1763
280.4314	0.1732
280.6447	0.1782
280.8579	0.1681
281.0712	0.1792
281.2845	0.17
281.4977	0.1787
281.711	0.1755
281.9242	0.1741
282.1374	0.1793
282.3506	0.1815
282.5638	0.1754
282.7769	0.1775
282.9901	0.1823
283.2033	0.1807
283.4164	0.1783
283.6295	0.1791
283.8426	0.1766
284.0557	0.1812
284.2688	0.1774
284.4819	0.1775
284.695	0.1889
284.908	0.1803
285.1211	0.1789
285.3341	0.1791
285.5471	0.1847
285.7601	0.182
285.9731	0.183
286.1861	0.1848
286.3991	0.1833
286.612	0.1877
286.825	0.1876
287.0379	0.1837
287.2508	0.188
287.4637	0.1857
287.6766	0.1807
287.8895	0.1822
288.1024	0.1882
288.3152	0.1878
288.5281	0.1861
288.7409	0.1856
288.9538	0.1848
289.1666	0.1851
289.3794	0.1875
289.5922	0.1885
289.8049	0.1878
290.0177	0.1902
290.2304	0.1895
290.4432	0.1943
290.6559	0.1861
290.8686	0.1904
291.0813	0.1898
291.294	0.1892
291.5067	0.1901
291.7194	0.1898
291.932	0.19
292.1447	0.1989
292.3573	0.1908
292.5699	0.1933
292.7825	0.1943
292.9951	0.1851
293.2077	0.1894
293.4203	0.1964
293.6328	0.1924
293.8454	0.1971
294.0579	0.1892
294.2704	0.1996
294.4829	0.1924
294.6954	0.1936
294.9079	0.1945
295.1204	0.1873
295.3328	0.201
295.5453	0.1941
295.7577	0.1941
295.9701	0.1964
296.1825	0.1941
296.3949	0.1826
296.6073	0.191
296.8197	0.1948
297.0321	0.1889
297.2444	0.189
297.4567	0.1971
297.6691	0.1892
297.8814	0.1893
298.0937	0.1905
298.306	0.1937
298.5182	0.1948
298.7305	0.1923
298.9428	0.1886
299.155	0.1918
299.3672	0.1899
299.5794	0.1891
299.7916	0.1964
300.0038	0.1907
300.216	0.1897
300.4282	0.1925
300.6403	0.2006
300.8525	0.1986
301.0646	0.1956
301.2767	0.1903
301.4888	0.1982
301.7009	0.1927
301.913	0.1917
302.125	0.1904
302.3371	0.1908
302.5491	0.189
302.7612	0.1973
302.9732	0.1892
303.1852	0.1942
303.3972	0.1911
303.6092	0.1951
303.8211	0.1921
304.0331	0.187
304.245	0.19
304.457	0.1828
304.6689	0.1875
304.8808	0.1846
305.0927	0.1886
305.3046	0.1851
305.5164	0.1798
305.7283	0.1825
305.9401	0.1802
306.152	0.1779
306.3638	0.1767
306.5756	0.1805
306.7874	0.1758
306.9992	0.1744
307.2109	0.1724
307.4227	0.1701
307.6344	0.1736
307.8462	0.1605
308.0579	0.1653
308.2696	0.1688
308.4813	0.1638
308.693	0.1566
308.9046	0.1605
309.1163	0.1577
309.328	0.1616
309.5396	0.1538
309.7512	0.1548
309.9628	0.1512
310.1744	0.1506
310.386	0.1435
310.5976	0.1437
310.8091	0.1554
311.0207	0.1485
311.2322	0.146
311.4437	0.1394
311.6552	0.1413
311.8667	0.1401
312.0782	0.1422
312.2897	0.1423
312.5012	0.137
312.7126	0.1336
312.924	0.1361
313.1355	0.1329
313.3469	0.1345
313.5583	0.1332
313.7696	0.1286
313.981	0.1365
314.1924	0.1312
314.4037	0.1318
314.6151	0.1294
314.8264	0.1301
315.0377	0.1313
315.249	0.1289
315.4603	0.1166
315.6716	0.1259
315.8828	0.1239
316.0941	0.1277
316.3053	0.1208
316.5165	0.1293
316.7277	0.1194
316.9389	0.1244
317.1501	0.122
317.3613	0.123
317.5724	0.1225
317.7836	0.1143
317.9947	0.1185
318.2058	0.1181
318.417	0.1199
318.6281	0.1178
318.8391	0.1176
319.0502	0.1257
319.2613	0.1213
319.4723	0.1224
319.6834	0.1274
319.8944	0.1158
320.1054	0.1161
320.3164	0.1188
320.5274	0.1205
320.7383	0.1211
320.9493	0.1152
321.1602	0.1173
321.3712	0.119
321.5821	0.1171
321.793	0.1279
322.0039	0.1213
322.2148	0.1208
322.4257	0.1196
322.6365	0.1223
322.8474	0.1202
323.0582	0.1168
323.269	0.1232
323.4798	0.1257
323.6906	0.1145
323.9014	0.1175
324.1122	0.1137
324.3229	0.1245
324.5337	0.1184
324.7444	0.1257
324.9551	0.125
325.1658	0.1186
325.3765	0.1292
325.5872	0.1201
325.7979	0.119
326.0085	0.1211
326.2192	0.1218
326.4298	0.1243
326.6404	0.1285
326.851	0.1159
327.0616	0.1231
327.2722	0.1205
327.4828	0.1273
327.6933	0.1301
327.9039	0.1273
328.1144	0.128
328.3249	0.1301
328.5354	0.1305
328.7459	0.1275
328.9564	0.1254
329.1669	0.1278
329.3773	0.1288
329.5878	0.1236
329.7982	0.1236
330.0086	0.1287
330.219	0.1236
330.4294	0.1324
330.6398	0.122
330.8502	0.1316
331.0605	0.1265
331.2708	0.1241
331.4812	0.1329
331.6915	0.1293
331.9018	0.129
332.1121	0.1372
332.3224	0.1359
332.5326	0.1281
332.7429	0.1281
332.9531	0.13
333.1633	0.1262
333.3735	0.1295
333.5837	0.1348
333.7939	0.1281
334.0041	0.1336
334.2143	0.1338
334.4244	0.1361
334.6346	0.1345
334.8447	0.1338
335.0548	0.1311
335.2649	0.1406
335.475	0.1367
335.685	0.1383
335.8951	0.131
336.1051	0.1356
336.3152	0.1354
336.5252	0.1315
336.7352	0.1367
336.9452	0.1333
337.1552	0.1353
337.3652	0.1286
337.5751	0.1348
337.7851	0.1415
337.995	0.1324
338.2049	0.1362
338.4148	0.1392
338.6247	0.1415
338.8346	0.1331
339.0445	0.1389
339.2543	0.1355
339.4642	0.1324
339.674	0.137
339.8838	0.1393
340.0936	0.1365
340.3034	0.1317
340.5132	0.1315
340.7229	0.1342
340.9327	0.1452
341.1424	0.1418
341.3522	0.1324
341.5619	0.1431
341.7716	0.1419
341.9813	0.1472
342.1909	0.1446
342.4006	0.1513
342.6102	0.142
342.8199	0.1446
343.0295	0.1409
343.2391	0.1489
343.4487	0.1465
343.6583	0.1505
343.8679	0.1357
344.0774	0.1455
344.287	0.1519
344.4965	0.1473
344.706	0.1498
344.9155	0.1477
345.125	0.1465
345.3345	0.1574
345.544	0.1578
345.7534	0.1567
345.9629	0.1577
346.1723	0.1598
346.3817	0.1568
346.5911	0.1551
346.8005	0.1616
347.0099	0.1594
347.2193	0.1597
347.4286	0.1632
347.638	0.1575
347.8473	0.1585
348.0566	0.1624
348.2659	0.1607
348.4752	0.16
348.6845	0.1604
348.8937	0.1647
349.103	0.1605
349.3122	0.1643
349.5214	0.17
349.7306	0.1722
349.9398	0.1655
350.149	0.1576
350.3582	0.1703
350.5674	0.1671
350.7765	0.1704
350.9856	0.1701
351.1948	0.1706
351.4039	0.1676
351.613	0.1735
351.822	0.1774
352.0311	0.1703
352.2402	0.1752
352.4492	0.1747
352.6582	0.1704
352.8672	0.1814
353.0762	0.1766
353.2852	0.1773
353.4942	0.1829
353.7032	0.1757
353.9121	0.179
354.1211	0.1743
354.33	0.1857
354.5389	0.174
354.7478	0.171
354.9567	0.1809
355.1655	0.1825
355.3744	0.1787
355.5833	0.1821
355.7921	0.1862
356.0009	0.189
356.2097	0.183
356.4185	0.1831
356.6273	0.1833
356.8361	0.1849
357.0448	0.1836
357.2536	0.1868
357.4623	0.1854
357.671	0.1873
357.8797	0.1967
358.0884	0.1871
358.2971	0.1866
358.5057	0.2001
358.7144	0.1953
358.923	0.203
359.1316	0.1985
359.3402	0.1959
359.5488	0.191
359.7574	0.208
359.966	0.1996
360.1746	0.1946
360.3831	0.2058
360.5916	0.205
360.8002	0.2068
361.0087	0.2053
361.2172	0.2037
361.4256	0.2087
361.6341	0.2014
361.8426	0.2135
362.051	0.204
362.2594	0.2079
362.4678	0.2108
362.6762	0.2122
362.8846	0.2116
363.093	0.2138
363.3014	0.225
363.5097	0.2175
363.718	0.2231
363.9264	0.2292
364.1347	0.2244
364.343	0.226
364.5513	0.2174
364.7595	0.2315
364.9678	0.2203
365.176	0.2278
365.3842	0.2259
365.5925	0.2295
365.8007	0.2239
366.0089	0.2395
366.217	0.233
366.4252	0.2335
366.6333	0.2346
366.8415	0.2432
367.0496	0.2348
367.2577	0.2361
367.4658	0.2344
367.6739	0.2376
367.882	0.2413
368.09	0.2355
368.2981	0.2415
368.5061	0.2478
368.7141	0.2464
368.9221	0.2476
369.1301	0.244
369.3381	0.2486
369.5461	0.2443
369.754	0.2478
369.962	0.2454
370.1699	0.2536
370.3778	0.2548
370.5857	0.2521
370.7936	0.2547
371.0015	0.2535
371.2093	0.2552
371.4172	0.2519
371.625	0.2513
371.8328	0.2509
372.0406	0.2619
372.2484	0.2574
372.4562	0.2627
372.664	0.2607
372.8717	0.2638
373.0795	0.2736
373.2872	0.2688
373.4949	0.2657
373.7026	0.2605
373.9103	0.2591
374.118	0.2616
374.3256	0.2755
374.5333	0.2679
374.7409	0.2647
374.9485	0.2746
375.1561	0.2705
375.3637	0.2675
375.5713	0.2794
375.7789	0.2643
375.9864	0.2684
376.194	0.2799
376.4015	0.2735
376.609	0.2739
376.8165	0.2794
377.024	0.2797
377.2315	0.2758
377.4389	0.2743
377.6464	0.2814
377.8538	0.2777
378.0612	0.2837
378.2686	0.2801
378.476	0.2815
378.6834	0.2845
378.8908	0.2928
379.0981	0.2889
379.3055	0.2882
379.5128	0.2847
379.7201	0.2846
379.9274	0.2893
380.1347	0.2883
380.342	0.3007
380.5492	0.2922
380.7565	0.2852
380.9637	0.2941
381.1709	0.287
381.3781	0.3009
381.5853	0.2872
381.7925	0.2954
381.9997	0.3066
382.2068	0.3122
382.4139	0.2959
382.6211	0.3039
382.8282	0.2995
383.0353	0.3004
383.2424	0.3011
383.4494	0.3013
383.6565	0.3
383.8635	0.2968
384.0706	0.3104
384.2776	0.3067
384.4846	0.3023
384.6916	0.3075
384.8986	0.3165
385.1055	0.3136
385.3125	0.3045
385.5194	0.3104
385.7263	0.2984
385.9333	0.3099
386.1402	0.3098
386.347	0.3009
386.5539	0.3099
386.7608	0.3025
386.9676	0.3148
387.1744	0.3025
387.3813	0.3107
387.5881	0.3008
387.7948	0.3104
388.0016	0.3145
388.2084	0.3015
388.4151	0.31
388.6219	0.3012
388.8286	0.3013
389.0353	0.3072
389.242	0.3169
389.4487	0.2971
389.6553	0.2922
389.862	0.3007
390.0686	0.3057
390.2753	0.2943
390.4819	0.3021
390.6885	0.3031
390.8951	0.304
391.1016	0.2894
391.3082	0.2929
391.5147	0.2921
391.7213	0.2873
391.9278	0.2927
392.1343	0.2968
392.3408	0.2976
392.5473	0.2885
392.7537	0.2935
392.9602	0.2951
393.1666	0.2865
393.373	0.2853
393.5794	0.2863
393.7858	0.2881
393.9922	0.2765
394.1986	0.2785
394.4049	0.2801
394.6113	0.2778
394.8176	0.2857
395.0239	0.2712
395.2302	0.2747
395.4365	0.2822
395.6428	0.277
395.8491	0.2678
396.0553	0.2763
396.2615	0.268
396.4678	0.2788
396.674	0.2738
396.8802	0.2698
397.0863	0.2603
397.2925	0.2646
397.4987	0.2603
397.7048	0.262
397.9109	0.2636
398.117	0.2633
398.3231	0.2614
398.5292	0.2499
398.7353	0.253
398.9413	0.258
399.1474	0.2583
399.3534	0.2653
399.5594	0.2623
399.7654	0.2655
399.9714	0.2689
400.1774	0.2647
400.3833	0.2546
400.5893	0.2488
400.7952	0.2632
401.0011	0.2571
401.207	0.2664
401.4129	0.2575
401.6188	0.2604
401.8247	0.2647
402.0305	0.26
402.2364	0.2531
402.4422	0.253
402.648	0.2648
402.8538	0.2548
403.0596	0.2524
403.2654	0.2629
403.4711	0.2563
403.6768	0.2488
403.8826	0.2538
404.0883	0.2621
404.294	0.2582
404.4997	0.2566
404.7054	0.2712
404.911	0.2511
405.1167	0.2699
405.3223	0.2544
405.5279	0.2567
405.7335	0.2526
405.9391	0.2581
406.1447	0.2607
406.3502	0.2497
406.5558	0.2546
406.7613	0.2559
406.9668	0.2623
407.1724	0.2591
407.3778	0.26
407.5833	0.2484
407.7888	0.2673
407.9942	0.2556
408.1997	0.2594
408.4051	0.2595
408.6105	0.2642
408.8159	0.2601
409.0213	0.258
409.2267	0.2689
409.432	0.2577
409.6374	0.255
409.8427	0.2642
410.048	0.2574
410.2533	0.2555
410.4586	0.251
410.6639	0.2516
410.8691	0.2601
411.0744	0.2629
411.2796	0.2552
411.4848	0.2638
411.69	0.2574
411.8952	0.265
412.1004	0.2584
412.3056	0.2453
412.5107	0.2599
412.7158	0.2736
412.921	0.2549
413.1261	0.2616
413.3312	0.2572
413.5362	0.2685
413.7413	0.2549
413.9464	0.2462
414.1514	0.2521
414.3564	0.2497
414.5614	0.2605
414.7664	0.2456
414.9714	0.2553
415.1764	0.2611
415.3813	0.2543
415.5863	0.253
415.7912	0.2442
415.9961	0.2584
416.201	0.2612
416.4059	0.2565
416.6108	0.2546
416.8156	0.2446
417.0205	0.2533
417.2253	0.2568
417.4301	0.2581
417.6349	0.2402
417.8397	0.2428
418.0445	0.2454
418.2492	0.2403
418.454	0.2449
418.6587	0.2483
418.8634	0.2453
419.0681	0.2526
419.2728	0.2366
419.4775	0.2525
419.6822	0.2381
419.8868	0.2372
420.0915	0.2425
420.2961	0.2344
420.5007	0.2347
420.7053	0.2432
420.9099	0.2427
421.1144	0.2346
421.319	0.2354
421.5235	0.2322
421.728	0.2389
421.9325	0.2429
422.137	0.2266
422.3415	0.234
422.546	0.2323
422.7504	0.227
422.9549	0.2421
423.1593	0.2311
423.3637	0.2223
423.5681	0.241
423.7725	0.2239
423.9769	0.2288
424.1812	0.2191
424.3856	0.2219
424.5899	0.2237
424.7942	0.2187
424.9985	0.2258
425.2028	0.2337
425.4071	0.2317
425.6113	0.2273
425.8156	0.2194
426.0198	0.2264
426.224	0.2212
426.4282	0.2128
426.6324	0.2172
426.8366	0.2183
427.0407	0.2093
427.2449	0.211
427.449	0.2062
427.6531	0.2239
427.8572	0.2178
428.0613	0.213
428.2654	0.2051
428.4694	0.1908
428.6735	0.2043
428.8775	0.2022
429.0815	0.2096
429.2855	0.1915
429.4895	0.191
429.6935	0.1942
429.8975	0.1947
430.1014	0.2045
430.3053	0.1959
430.5093	0.1827
430.7132	0.1958
430.9171	0.1837
431.1209	0.1884
431.3248	0.1741
431.5286	0.1812
431.7325	0.1908
431.9363	0.176
432.1401	0.1774
432.3439	0.1813
432.5477	0.1643
432.7514	0.1762
432.9552	0.1734
433.1589	0.1599
433.3627	0.1755
433.5664	0.163
433.7701	0.1722
433.9737	0.1655
434.1774	0.1693
434.3811	0.1556
434.5847	0.1513
434.7883	0.1522
434.9919	0.1506
435.1955	0.1585
435.3991	0.1586
435.6027	0.1431
435.8062	0.167
436.0098	0.1438
436.2133	0.1399
436.4168	0.1364
436.6203	0.1323
436.8238	0.1397
437.0272	0.1325
437.2307	0.1278
437.4341	0.1387
437.6375	0.1298
437.841	0.1265
438.0443	0.1263
438.2477	0.1197
438.4511	0.1152
438.6545	0.125
438.8578	0.1267
439.0611	0.1299
439.2644	0.1243
439.4677	0.1199
439.671	0.1093
439.8743	0.1146
440.0775	0.1064
440.2808	0.1057
440.484	0.1083
440.6872	0.1085
440.8904	0.0988
441.0936	0.1065
441.2967	0.0894
441.4999	0.0941
441.703	0.0954
441.9062	0.0985
442.1093	0.1027
442.3124	0.0929
442.5155	0.1004
442.7185	0.0909
442.9216	0.091
443.1246	0.0859
443.3276	0.0927
443.5307	0.0845
443.7337	0.0817
443.9366	0.0727
444.1396	0.0799
444.3426	0.0758
444.5455	0.0715
444.7484	0.0685
444.9513	0.0781
445.1542	0.0796
445.3571	0.0745
445.56	0.0611
445.7628	0.071
445.9657	0.0818
446.1685	0.0731
446.3713	0.0761
446.5741	0.0702
446.7769	0.0735
446.9797	0.0636
447.1824	0.0581
447.3852	0.0597
447.5879	0.0621
447.7906	0.0581
447.9933	0.0562
448.196	0.0591
448.3986	0.0515
448.6013	0.0457
448.8039	0.0592
449.0066	0.0671
449.2092	0.0543
449.4118	0.0474
449.6143	0.0512
449.8169	0.0478
450.0195	0.0537
450.222	0.0558
450.4245	0.0427
450.627	0.0539
450.8295	0.0444
451.032	0.0403
451.2345	0.0402
451.4369	0.0424
451.6394	0.0408
451.8418	0.0474
452.0442	0.0477
452.2466	0.027
452.449	0.039
452.6513	0.0269
452.8537	0.0409
453.056	0.0318
453.2583	0.0302
453.4607	0.0272
453.663	0.0459
453.8652	0.0325
454.0675	0.0374
454.2697	0.0272
454.472	0.0245
454.6742	0.0354
454.8764	0.036
455.0786	0.0259
455.2808	0.0233
455.4829	0.0301
455.6851	0.0334
455.8872	0.0225
456.0893	0.0236
456.2915	0.0151
456.4935	0.0387
456.6956	0.0187
456.8977	0.0169
457.0997	0.0278
457.3018	0.0207
457.5038	0.0258
457.7058	0.027
457.9078	0.0244
458.1098	0.0242
458.3117	0.0265
458.5137	0.0173
458.7156	0.0186
458.9175	0.0208
459.1194	0.0186
459.3213	0.0225
459.5232	0.0192
459.725	0.0137
459.9269	0.0189
460.1287	0.0083
460.3305	0.0206
460.5323	0.0187
460.7341	0.0141
460.9359	0.0058
461.1376	0.0226
461.3394	0.0233
461.5411	0.0226
461.7428	0.0169
461.9445	0.011
462.1462	0.0155
462.3479	0.0126
462.5495	0.0098
462.7512	0.0194
462.9528	0.0119
463.1544	0.0069
463.356	0.0189
463.5576	0.0203
463.7592	0.0131
463.9607	0.0078
464.1623	0.0109
464.3638	0.0022
464.5653	0.0101
464.7668	0.0182
464.9683	0.0085
465.1697	0.0141
465.3712	0.0047
465.5726	0.0073
465.7741	0.0148
465.9755	0.0085
466.1769	0.009
466.3782	0.0134
466.5796	0.0106
466.7809	0.0021
466.9823	0.0088
467.1836	0.0064
467.3849	0.0009
467.5862	0.0067
467.7875	0.0116
467.9887	0.0112
468.19	0.015
468.3912	0.01
468.5924	0.0079
468.7936	0.0106
468.9948	0.0135
469.196	0.0034
469.3972	-0.0039
469.5983	-0.0001
469.7994	0.0069
470.0006	0.0067
470.2017	0.0079
470.4027	0.0128
470.6038	0.0089
470.8049	-0.0006
471.0059	0.0106
471.2069	0.0101
471.408	0.015
471.6089	0.0039
471.8099	0.0024
472.0109	0.0054
472.2119	0.0096
472.4128	-0.0004
472.6137	0.012
472.8146	0.0039
473.0155	0.0158
473.2164	0.013
473.4173	-0.0043
473.6181	-0.0015
473.819	0.0068
474.0198	-0.0018
474.2206	-0.0006
474.4214	0.0028
474.6222	-0.013
474.8229	-0.002
475.0237	0.0116
475.2244	0.0022
475.4251	0.0048
475.6258	0.0037
475.8265	0.0067
476.0272	-0.0059
476.2278	0.0069
476.4285	-0.0006
476.6291	0.0092
476.8297	0.0017
477.0303	0.0037
477.2309	0.0048
477.4315	0.0042
477.632	-0.0007
477.8326	0.0028
478.0331	0.0108
478.2336	0.0041
478.4341	0.0063
478.6346	-0.004
478.8351	0.0055
479.0355	0.0046
479.236	0.0165
479.4364	0.002
479.6368	0.0066
479.8372	0.006
480.0376	0.0016
480.2379	0.003
480.4383	0.0135
480.6386	-0.0049
480.8389	-0.0019
481.0392	0.0051
481.2395	0.0105
481.4398	0.0085
481.6401	0.0042
481.8403	0.0011
482.0405	-0.002
482.2408	0.0033
482.441	0.0084
482.6411	0.0068
482.8413	-0.0006
483.0415	0.01
483.2416	-0.0024
483.4417	0.0004
483.6419	0.0018
483.8419	-0.0003
484.042	0.0007
484.2421	-0.0004
484.4422	-0.0002
484.6422	0.0049
484.8422	0.0046
485.0422	-0.0018
485.2422	0.001
485.4422	0.0013
485.6422	-0.002
485.8421	0.0011
486.042	0.0089
486.242	0.0029
486.4419	0.004
486.6417	-0.0004
486.8416	-0.0005
487.0415	-0.0011
487.2413	-0.0038
487.4411	0.0063
487.641	0.0044
487.8408	0.0015
488.0405	0.0102
488.2403	0.0014
488.4401	0.0056
488.6398	0.0053
488.8395	0.0104
489.0392	0.0013
489.2389	0.0082
489.4386	-0.015
489.6383	0.0063
489.8379	-0.0026
490.0376	0.0031
490.2372	0.0001
490.4368	-0.0011
490.6364	-0.0053
490.836	0.0027
491.0355	-0.0097
491.2351	0.002
491.4346	0.0038
491.6341	-0.0008
491.8336	0.004
492.0331	0.0054
492.2326	0.0124
492.432	0.005
492.6315	0.0083
492.8309	0.0076
493.0303	-0.0001
493.2297	0.0005
493.4291	-0.0013
493.6284	0.0089
493.8278	-0.0034
494.0271	0.0017
494.2264	-0.0037
494.4257	0.0063
494.625	0.0041
494.8243	-0.0061
495.0236	0.0046
495.2228	0.0071
495.422	0.0033
495.6213	0.0077
495.8205	0.0068
496.0196	0.0022
496.2188	0.0022
496.418	0.0039
496.6171	-0.0035
496.8162	0.0002
497.0153	0.007
497.2144	-0.0007
497.4135	0.0045
497.6126	0.0051
497.8116	-0.0068
498.0107	0.0039
498.2097	0.0057
498.4087	-0.0062
498.6077	-0.0057
498.8067	0.0028
499.0056	0.0011
499.2046	0.0032
499.4035	0.002
499.6024	-0.0056
499.8013	0.0063
500.0002	0.0012
500.199	0.0074
500.3979	-0.0025
500.5967	-0.0012
500.7956	0.006
500.9944	0.0001
501.1932	0.0062
501.3919	0.0024
501.5907	0.0127
501.7895	-0.0041
501.9882	0.0008
502.1869	0.0094
502.3856	0.0036
502.5843	-0.001
502.783	0.0036
502.9816	0.0071
503.1803	-0.0064
503.3789	0.0015
503.5775	-0.001
503.7761	-0.0029
503.9747	0.0002
504.1732	-0.0031
504.3718	0.012
504.5703	0.0071
504.7689	-0.0109
504.9674	0
505.1658	-0.0015
505.3643	0.0035
505.5628	0.0094
505.7612	0.0098
505.9597	-0.0015
506.1581	0.005
506.3565	-0.0018
506.5549	-0.0015
506.7532	-0.0001
506.9516	-0.0024
507.1499	0.0038
507.3482	0.0031
507.5465	0.0053
507.7448	0.0033
507.9431	0.0038
508.1414	-0.0045
508.3396	0.005
508.5379	-0.0021
508.7361	0.0058
508.9343	0.0124
509.1325	0.0045
509.3306	-0.0055
509.5288	-0.0101
509.7269	0.0024
509.9251	0.0032
510.1232	0.0041
510.3213	0.0076
510.5193	0.0004
510.7174	0.0001
510.9154	0.0081
511.1135	-0.0022
511.3115	-0.0016
511.5095	-0.0018
511.7075	0.0008
511.9055	0.0029
512.1034	-0.0049
512.3014	0.0004
512.4993	-0.0006
512.6972	-0.0027
512.8951	0.002
513.093	0.0043
513.2908	0.0155
513.4887	0.0023
513.6865	0.0002
513.8844	0.0099
514.0822	-0.0005
514.2799	-0.0016
514.4777	-0.0054
514.6755	-0.002
514.8732	0.0015
515.0709	0.0057
515.2687	0.0021
515.4664	0.0075
515.664	0.0049
515.8617	0.0067
516.0594	-0.0036
516.257	0.0028
516.4546	0.0111
516.6522	0.0088
516.8498	0.0021
517.0474	0.0023
517.2449	-0.0039
517.4425	0.0031
517.64	0.0021
517.8375	0.0007
518.035	0.0019
518.2325	0.0049
518.43	-0.0007
518.6274	-0.0003
518.8249	-0.0088
519.0223	0.0063
519.2197	-0.0056
519.4171	-0.0018
519.6145	0.0128
519.8118	-0.0074
520.0092	-0.001
520.2065	0.0111
520.4038	-0.0065
520.6011	0.0122
520.7984	0.0058
520.9956	0.0114
521.1929	0.0013
521.3901	0.0012
521.5874	0.0106
521.7846	-0.0053
521.9818	0.0148
522.1789	-0.0078
522.3761	0.0208
522.5732	0.0031
522.7704	-0.0116
522.9675	-0.0105
523.1646	0.0005
523.3617	0.0016
523.5587	0.0022
523.7558	0.0099
523.9528	0.0104
524.1498	0.002
524.3468	0.0077
524.5438	0.0003
524.7408	0.0015
524.9378	-0.004
525.1347	-0.0053
525.3316	0.0026
525.5285	0
525.7254	0.0093
525.9223	0.0117
526.1192	-0.0035
526.316	0.0025
526.5129	0.0128
526.7097	-0.0021
526.9065	0.0118
527.1033	0.0005
527.3	-0.0022
527.4968	-0.0024
527.6935	-0.0016
527.8903	0.0003
528.087	0.001
528.2837	0.0068
528.4804	-0.0025
528.677	0.0007
528.8737	0.002
529.0703	0.001
529.2669	0.0028
529.4635	0.0012
529.6601	-0.0107
529.8567	0.0043
530.0532	0.0082
530.2498	-0.0094
530.4463	-0.01
530.6428	-0.0043
530.8393	0.0115
531.0358	-0.001
531.2322	-0.0019
531.4287	0.0025
531.6251	-0.0101
531.8215	-0.0004
532.0179	0.0032
532.2143	0.0054
532.4107	0.0062
532.607	0.0003
532.8034	-0.0064
532.9997	-0.0003
533.196	0.008
533.3923	0.0037
533.5886	0.0162
533.7848	0.0035
533.9811	0.0028
534.1773	0.0057
534.3735	0.0068
534.5697	-0.0039
534.7659	0.0027
534.9621	0.0018
535.1582	0.0005
535.3544	0.0037
535.5505	-0.0006
535.7466	-0.0053
535.9427	-0.0003
536.1387	0.0001
536.3348	-0.0017
536.5308	-0.0118
536.7269	-0.0014
536.9229	0.0052
537.1189	0.0141
537.3148	-0.0004
537.5108	0.0059
537.7068	-0.0006
537.9027	-0.0077
538.0986	0.0067
538.2945	-0.0041
538.4904	-0.0036
538.6863	0.0018
538.8821	0.004
539.078	0.0018
539.2738	-0.0006
539.4696	-0.0039
539.6654	0.0058
539.8611	0.0013
540.0569	-0.0014
540.2526	0.0047
540.4484	-0.0117
540.6441	0.0016
540.8398	0.0113
541.0355	0.0021
541.2311	0.007
541.4268	0.0017
541.6224	0.0089
541.818	0.0033
542.0136	0.0069
542.2092	0.0131
542.4048	-0.0043
542.6003	0.0004
542.7959	0.0017
542.9914	0.0072
543.1869	-0.003
543.3824	-0.0008
543.5779	0.0125
543.7734	0.0095
543.9688	-0.0053
544.1642	-0.007
544.3596	0.0079
544.555	0.0022
544.7504	0.0123
544.9458	-0.0001
545.1411	-0.0064
545.3365	0.0064
545.5318	0.0084
545.7271	0.006
545.9224	0.0024
546.1177	0.0101
546.3129	0.0012
546.5081	-0.0012
546.7034	-0.0036
546.8986	0.0046
547.0938	0.0063
547.289	0.0041
547.4841	0.0052
547.6793	0.0037
547.8744	0.0123
548.0695	-0.0073
548.2646	0.0075
548.4597	-0.0022
548.6548	0.0211
548.8498	0.0031
549.0448	0.0053
549.2399	0.013
549.4349	0.0033
549.6298	0.0032
549.8248	-0.004
550.0198	0.0155
550.2147	0.0065
550.4096	-0.0088
550.6045	-0.002
550.7994	-0.0041
550.9943	0.0003
551.1892	-0.0163
551.384	0.0048
551.5788	0.0073
551.7737	0.0046
551.9685	-0.005
552.1632	-0.009
552.358	0.0008
552.5528	0.0049
552.7475	0.0002
552.9422	0.0056
553.1369	0.0144
553.3316	0.0074
553.5263	0.0138
553.7209	-0.0075
553.9156	-0.0024
554.1102	-0.0032
554.3048	-0.0051
554.4994	-0.0039
554.694	0.0033
554.8885	0.0027
555.0831	-0.0014
555.2776	0.0043
555.4721	0.0025
555.6666	0.0022
555.8611	0.0028
556.0555	0.0055
556.25	-0.0015
556.4444	-0.0066
556.6388	-0.0067
556.8332	-0.0018
557.0276	-0.0014
557.222	-0.0048
557.4163	-0.0026
557.6107	0.0021
557.805	0.0024
557.9993	0.003
558.1936	0.0025
558.3879	0.0021
558.5821	-0.0047
558.7764	-0.0015
558.9706	-0.0109
559.1648	0.0063
559.359	0.0034
559.5532	-0.0024
559.7473	-0.0062
559.9415	-0.0016
560.1356	0.0044
560.3297	0.0015
560.5238	0.0081
560.7179	-0.0086
560.9119	0.0038
561.106	-0.0039
561.3	0.0009
561.494	-0.0119
561.688	0.0061
561.882	0.0001
562.076	-0.001
562.2699	0.024
562.4639	0.01
562.6578	0.0095
562.8517	-0.0019
563.0456	0.0102
563.2395	0.0096
563.4333	0.0042
563.6272	-0.0047
563.821	-0.003
564.0148	-0.0055
564.2086	-0.0007
564.4024	0.0107
564.5961	0.0035
564.7899	0.0091
564.9836	-0.0024
565.1773	0.0097
565.371	0.0023
565.5647	0.0022
565.7584	0.0085
565.952	0.0048
566.1456	-0.0036
566.3393	0.0062
566.5329	0.009
566.7264	0.0029
566.92	-0.0039
567.1136	-0.0006
567.3071	-0.0067
567.5006	0.0074
567.6941	-0.001
567.8876	-0.0007
568.0811	0.0187
568.2745	-0.004
568.468	0.0004
568.6614	0.0067
568.8548	0.0075
569.0482	0.006
569.2416	0.0056
569.4349	0.0045
569.6283	-0.0021
569.8216	0.006
570.0149	0.0021
570.2082	0.009
570.4015	-0.0016
570.5947	0.0036
570.788	0.0033
570.9812	0.0036
571.1744	0.007
571.3676	0.0057
571.5608	0.003
571.754	0.0054
571.9471	0.0055
572.1402	0.0014
572.3333	0.0076
572.5264	0.003
572.7195	0.0004
572.9126	0.0016
573.1057	0.0057
573.2987	-0.0022
573.4917	-0.0009
573.6847	0.0058
573.8777	0.0073
574.0707	0.0016
574.2636	0.0014
574.4566	-0.0003
574.6495	-0.0009
574.8424	0.0033
575.0353	0.0067
575.2281	0.0073
575.421	-0.0049
575.6138	0.0049
575.8067	0.0102
575.9995	0.002
576.1923	0.0024
576.385	0.0022
576.5778	0.0067
576.7706	0.0063
576.9633	0.0036
577.156	-0.0041
577.3487	0.0026
577.5414	-0.001
577.734	0.0005
577.9267	0.0031
578.1193	0.0041
578.3119	0.0013
578.5045	-0.0001
578.6971	-0.0016
578.8897	-0.0009
579.0822	0.0107
579.2747	0.0045
579.4673	0.0008
579.6598	0.004
579.8522	-0.0013
580.0447	0.0042
580.2372	0.0066
580.4296	0.0086
580.622	0.0012
580.8144	0.0011
581.0068	0.0006
581.1992	0.0038
581.3915	0.0001
581.5839	0.0042
581.7762	0.0004
581.9685	0.0014
582.1608	0.0076
582.353	-0.0002
582.5453	0.0025
582.7375	0.005
582.9298	-0.0003
583.122	-0.0004
583.3142	0.0058
583.5063	-0
583.6985	-0.0042
583.8906	0.0019
584.0827	0.0059
584.2749	0.0011
584.4669	0.001
584.659	0.0053
584.8511	0.008
585.0431	0.0077
585.2352	0.0012
585.4272	0.0004
585.6192	0.0027
585.8111	0.0056
586.0031	0.0017
586.195	-0.0006
586.387	0.0009
586.5789	0.0029
586.7708	0.0061
586.9627	0.0028
587.1545	0.0017
587.3464	0.0059
587.5382	0.0004
587.73	0.0063
587.9218	0.0019
588.1136	-0.0023
588.3053	0.0002
588.4971	0.0032
588.6888	-0.0011
588.8805	0.0051
589.0722	0.0107
589.2639	0.0024
589.4556	0.0035
589.6472	0.007
589.8389	0.0054
590.0305	0.0069
590.2221	0.0046
590.4137	0.0037
590.6052	0.0022
590.7968	0.004
590.9883	0.0005
591.1798	0.0077
591.3713	0.0019
591.5628	0.0021
591.7543	0.0004
591.9458	0.0023
592.1372	0.0024
592.3286	0.004
592.52	0.0012
592.7114	0.0014
592.9028	0.0068
593.0941	0.0015
593.2855	-0.0021
593.4768	0.0085
593.6681	0.0041
593.8594	0.0069
594.0506	0.0011
594.2419	-0.0012
594.4331	0.0018
594.6244	-0.0022
594.8156	-0.0035
595.0067	0.004
595.1979	0.0007
595.3891	0.0055
595.5802	0.0063
595.7713	0.0055
595.9624	0.0084
596.1535	0.0018
596.3446	-0.0012
596.5357	0.0039
596.7267	0.0027
596.9177	0.0047
597.1087	-0.0003
597.2997	0.0087
597.4907	-0.0009
597.6817	0.0006
597.8726	0.0025
598.0635	-0.0016
598.2544	0.0067
598.4453	0.0017
598.6362	0.0019
598.827	0.0004
599.0179	0.0013
599.2087	0.0042
599.3995	0.0039
599.5903	0.0072
599.7811	0.0063
599.9718	-0.0022
600.1626	-0.0001
600.3533	0.0065
600.544	0.0034
600.7347	0.0039
600.9254	0.0081
601.116	0.0039
601.3067	-0.0018
601.4973	0.0063
601.6879	0.0011
601.8785	0.0058
602.0691	-0.0008
602.2596	0.0047
602.4502	0.0054
602.6407	0.0037
602.8312	0.0008
603.0217	0.006
603.2122	-0.0021
603.4027	-0.0013
603.5931	-0.0008
603.7835	0.0023
603.9739	-0.0004
604.1643	0.0108
604.3547	0.0046
604.5451	0.0077
604.7354	-0.0042
604.9257	-0.0021
605.116	-0.0013
605.3063	0.0025
605.4966	0.0029
605.6869	0.0046
605.8771	0.0015
606.0673	0.0056
606.2575	0
606.4477	0.0031
606.6379	-0.0003
606.8281	-0.005
607.0182	0.0009
607.2083	0.0007
607.3985	0.0009
607.5885	0.0019
607.7786	0.0025
607.9687	0.0017
608.1587	0.0031
608.3488	0.0042
608.5388	-0.0037
608.7288	-0.0019
608.9187	0.0026
609.1087	-0.0004
609.2986	0.0029
609.4886	0.0051
609.6785	0.0093
609.8684	-0.0005
610.0582	0.0048
610.2481	-0.0038
610.4379	0.0048
610.6278	-0.0023
610.8176	0.0103
611.0074	0.0009
611.1971	0.0021
611.3869	-0.0013
611.5766	-0.0044
611.7664	0.0081
611.9561	0.0098
612.1458	0.0029
612.3354	0.0086
612.5251	0.0019
612.7147	0.0039
612.9044	0.0024
613.094	-0
613.2836	0.0032
613.4731	0.0022
613.6627	0.0063
613.8522	0.001
614.0417	0.0034
614.2313	-0.0004
614.4207	0.0074
614.6102	0.0075
614.7997	0.0083
614.9891	0.0048
615.1785	-0.0048
615.3679	0.0005
615.5573	-0.0018
615.7467	-0.0066
615.9361	0.0003
616.1254	0.0067
616.3147	-0.0019
616.504	-0.0013
616.6933	0.006
616.8826	0.0018
617.0718	0.0097
617.2611	0.0022
617.4503	-0.0033
617.6395	0.0032
617.8287	0.007
618.0179	-0.0024
618.207	0.0026
618.3961	0.0002
618.5853	0.0015
618.7744	-0.0005
618.9634	0.0093
619.1525	-0.0024
619.3416	-0.0013
619.5306	0.0072
619.7196	0.0161
619.9086	0.0012
620.0976	-0.0034
620.2866	0.0083
620.4755	-0.0008
620.6645	0.0106
620.8534	0.0091
621.0423	0.0035
621.2312	-0.0001
621.42	0.0053
621.6089	-0.0038
621.7977	0.007
621.9865	0.0027
622.1753	-0.0127
622.3641	-0.0078
622.5529	-0.0111
622.7416	-0.0046
622.9303	-0.0009
623.1191	-0.0003
623.3078	-0.0035
623.4964	0.0075
623.6851	0.0026
623.8737	-0.0006
624.0624	-0.0117
624.251	0.0047
624.4396	0.0028
624.6282	-0.0012
624.8167	-0.0087
625.0053	0.0072
625.1938	-0.0015
625.3823	0.0048
625.5708	-0.0074
625.7593	-0.0014
625.9477	0.0062
626.1362	-0.0069
626.3246	0.0016
626.513	0.0097
626.7014	0.0106
626.8898	0.0134
627.0781	0.0057
627.2665	0.0031
627.4548	0.0014
627.6431	0.0028
627.8314	-0.0028
628.0197	0.0096
628.2079	0.0018
628.3962	-0.0028
628.5844	0.0048
628.7726	0.0008
628.9608	0.0009
629.1489	0.0022
629.3371	0.0009
629.5252	0.008
629.7134	-0.0063
629.9015	0.0035
630.0895	-0.0072
630.2776	-0.0076
630.4657	-0.001
630.6537	-0.0053
630.8417	-0.0059
631.0297	-0.003
631.2177	-0.0085
631.4057	0.005
631.5936	-0.0089
631.7815	0.0068
631.9695	0.0179
632.1574	0.004
632.3452	0.0043
632.5331	0.0054
632.7209	0.009
632.9088	-0.0084
633.0966	0.0147
633.2844	0.0106
633.4722	0.01
633.6599	0.0152
633.8477	-0.0037
634.0354	0.0131
634.2231	-0.0108
634.4108	-0.0091
634.5985	0.0089
634.7861	0.0054
634.9738	-0.0099
635.1614	-0.0045
635.349	-0.0099
635.5366	0.0119
635.7242	-0.0073
635.9117	0.004
636.0993	-0.0062
636.2868	0.0056
636.4743	0.0117
636.6618	-0.0099
636.8492	0.001
637.0367	-0.0023
637.2241	-0.0127
637.4115	0.0142
637.5989	0.0029
637.7863	0.0222
637.9737	0.006
638.161	0.0253
638.3484	0.0019
638.5357	0.0083
638.723	0.0188
638.9103	-0.0189
639.0975	0.0047
639.2848	0.0134
639.472	0.0043
639.6592	-0.0015
639.8464	-0.0051
640.0336	0.0037
640.2208	-0.0098
640.4079	-0.0027
640.595	-0.0135
640.7821	0.0113
640.9692	-0.007
641.1563	-0.001
641.3434	-0.0048
641.5304	0.0244
641.7174	0.0106
641.9044	0.0092
642.0914	0.0316
642.2784	0.0089
642.4653	0.0021
642.6523	-0.0047
642.8392	-0.0033
643.0261	0.0102
643.213	0.0007
643.3999	0.0185
643.5867	0.0082
643.7735	-0.0168
643.9604	0.0177
644.1472	0.006
644.3339	-0.0041
644.5207	0.0047
644.7075	-0.0012
644.8942	-0.0226
645.0809	-0.0035
645.2676	0.0018
645.4543	-0.0048
645.6409	0.0068
645.8276	0.0242
646.0142	0.0036
646.2008	-0.0048
646.3874	-0.0046
646.574	0.0064
646.7605	-0.0058
646.9471	0.0003
647.1336	-0.0183
647.3201	-0.0004
647.5066	-0.0115
647.6931	-0.0088
647.8795	-0.0002
648.0659	-0.0043
648.2524	-0.0075
648.4388	0.0083
648.6252	0.0111
648.8115	-0.0063
648.9979	0.0123
649.1842	0.0098
649.3705	0.0002
649.5568	-0.017
649.7431	-0.0008
649.9294	-0.0092
650.1156	-0.0082
650.3018	0.0042
650.488	0.0098
650.6742	0.014
650.8604	0.0234
651.0466	-0.0079
651.2327	-0.0085
651.4188	0.0009
651.6049	0.0114
651.791	0.0064
651.9771	-0.0105
652.1632	0.0085
652.3492	0.0093
652.5352	0.0066
652.7212	-0.0123
652.9072	0.0076
653.0932	0.0121
653.2791	0.009
653.465	-0.0033
653.651	-0.0014
653.8369	0.0002
654.0227	-0.0177
654.2086	0.0018
654.3944	0.0011
654.5803	0.0067
654.7661	0.0029
654.9519	-0.0016
655.1377	0.0001
655.3234	0.0001
655.5092	0.0001
655.6949	0.0001
655.8806	0.0001
656.0663	0.0001
656.2519	0.0001
656.4376	0.0001
656.6232	0.0001
656.8088	0.0001
656.9945	0.0001
657.18	0.0001
657.3656	0.0001
657.5511	0.0001
657.7367	0.0001
657.9222	0.0001
658.1077	0.0001
658.2932	0.0001
658.4786	0.0001
658.6641	0.0001
658.8495	0.0001
659.0349	0.0001
659.2203	0.0001
659.4057	0.0001
659.591	0.0636
659.7764	0.0264
659.9617	-0.0054
660.147	-0.0049
660.3323	0.0164
660.5176	-0.0049
660.7028	-0.0187
660.888	-0.0045
661.0733	0.0062
661.2585	0.002
661.4436	0.0121
661.6288	-0.0103
661.8139	0.0041
661.9991	-0.0161
662.1842	0.0008
662.3693	0.0188
662.5544	0.0322
662.7394	-0.001
662.9245	0.0047
663.1095	-0.0028
663.2945	-0.0069
663.4795	-0.0097
663.6644	-0.0099
663.8494	0.0076
664.0343	0.0075
664.2193	-0.0088
664.4042	-0.0096
664.589	-0.0034
664.7739	0.0057
664.9587	-0.0321
665.1436	-0.0127
665.3284	-0.0113
665.5132	-0.0247
665.698	-0.001
665.8827	0.0228
666.0675	-0.0345
666.2522	0.0139
666.4369	0.0001
666.6216	0.0187
666.8063	-0.008
666.9909	-0.0194
667.1756	-0.0168
667.3602	0.0033
667.5448	0.0001
667.7294	0.0153
667.9139	-0.0232
668.0985	0.018
668.283	0.0011
668.4675	-0.0058
668.652	0.0138
668.8365	0.0067
669.0209	-0.0012
669.2054	0.0032
669.3898	-0.0209
669.5742	0.0024
669.7586	0.0135
669.943	-0.0018
670.1273	0.0164
670.3117	0.004
670.496	-0.0025
670.6803	0.0153
670.8646	-0.0175
671.0488	0.019
671.2331	-0.0126
671.4173	0.0078
671.6015	0.0062
671.7857	-0.0052
671.9699	0.0139
672.1541	-0.0072
672.3382	-0.006
672.5223	0.0062
672.7064	-0.0032
672.8905	-0.0089
673.0746	0.0013
673.2587	0.0209
673.4427	-0.0024
673.6267	0.0156
673.8107	-0.003
673.9947	0.0203
674.1787	0.0111
674.3626	-0.0037
674.5465	-0.0022
674.7304	-0.0137
674.9143	-0.0166
675.0982	-0.0052
675.2821	-0.0025
675.4659	-0.0196
675.6497	-0.002
675.8335	0.0128
676.0173	-0.0325
676.2011	0.0283
676.3849	0.0181
676.5686	0.0196
676.7523	0.0138
676.936	0.0048
677.1197	-0.0135
677.3034	0.0159
677.487	0.0191
677.6706	0.0047
677.8542	-0.0091
678.0378	-0.0114
678.2214	0.001
678.405	0.0127
678.5885	0.0056
678.772	0.0096
678.9555	-0.009
679.139	0.014
679.3225	0.016
679.5059	-0.0118
679.6894	-0.0009
679.8728	-0.0008
680.0562	-0.0084
680.2395	-0.0056
680.4229	-0.0134
680.6062	0.0024
680.7896	-0.012
680.9729	0.0187
681.1562	-0.0059
681.3394	-0.0011
681.5227	0.0102
681.7059	0.0172
681.8891	-0.0039
682.0723	0.0054
682.2555	0.0019
682.4387	0.0078
682.6218	0.0231
682.805	-0.0121
682.9881	0.0106
683.1712	0.0154
683.3542	0.0174
683.5373	-0.0069
683.7203	0.0211
683.9034	-0.0152
684.0864	0.0122
684.2694	-0.017
684.4523	0.0012
684.6353	-0.0064
684.8182	-0.0062
685.0011	-0.0011
685.184	0.0059
685.3669	0.0221
685.5498	-0.008
685.7326	-0.0002
685.9154	-0.0111
686.0982	0.0076
686.281	-0.016
686.4638	0.0042
686.6465	-0.0145
686.8293	-0.02
687.012	-0.0012
687.1947	0.0079
687.3774	0.0092
687.56	-0.0208
687.7427	-0.0116
687.9253	-0.0207
688.1079	-0.0026
688.2905	-0.0101
688.4731	0.0173
688.6556	-0.011
688.8382	-0.0239
689.0207	0.0021
689.2032	0.0262
689.3857	0
689.5681	0.0053
689.7506	0.0114
689.933	-0.0151
690.1154	0.0098
690.2978	-0.0035
690.4802	0.0245
690.6626	0.0113
690.8449	0
691.0272	-0.0165
691.2095	-0.0137
691.3918	0.0051
691.5741	0.0066
691.7563	-0.0056
691.9386	0.0171
692.1208	0.0069
692.303	-0.0201
692.4852	0.0003
692.6673	0.0066
692.8495	-0.0103
693.0316	0.001
693.2137	0.0082
693.3958	0.0111
693.5778	-0.0167
693.7599	-0.0016
693.9419	-0.0324
694.1239	0.0097
694.3059	-0.0028
694.4879	-0.0126
694.6699	-0.0045
694.8518	0.0198
695.0337	-0.0175
695.2157	0.03
695.3975	-0.0125
695.5794	-0.0206
695.7613	0.0129
695.9431	-0.0162
696.1249	0.0147
696.3067	-0.0159
696.4885	0.0103
696.6703	0.0027
696.852	-0.0049
697.0337	0.0089
697.2154	-0.0079
697.3971	0.0081
697.5788	0.0093
697.7605	-0.0201
697.9421	-0.0002
698.1237	-0.0032
698.3053	-0.0091
698.4869	-0.0123
698.6685	-0.0026
698.85	0.0198
699.0315	-0.0098
699.213	0.0147
699.3945	0.0004
699.576	0.0188
699.7575	0.0041
699.9389	0.0036
700.1203	0.0025
700.3017	0.0084
700.4831	0.0165
700.6645	0.013
700.8458	-0.0159
701.0271	0.024
701.2084	0.0131
701.3897	0.0183
701.571	-0.0199
701.7523	0.0084
701.9335	0.0161
702.1147	0.0226
702.2959	0.0013
702.4771	-0.0026
702.6583	-0.0157
702.8394	-0.0261
703.0205	0.0067
703.2016	-0.0096
703.3827	0.0149
703.5638	-0.0026
703.7449	0.005
703.9259	0.0077
704.1069	-0.0156
704.2879	0.0372
704.4689	-0.0341
704.6499	-0.0022
704.8308	0.0071
705.0117	0.0037
705.1927	0.0161
705.3735	0.0098
705.5544	0.0055
705.7353	-0.0074
705.9161	-0.0267
706.0969	-0.0005
706.2777	-0.0112
706.4585	-0.0119
706.6393	0.0084
706.82	0.0002
707.0007	0.0044
707.1815	-0.0024
707.3621	0.0175
707.5428	0.0133
707.7235	-0.0105
707.9041	0.0011
708.0847	0.0013
708.2653	0.0207
708.4459	-0.0085
708.6265	-0.0122
708.807	0.0088
708.9875	-0.001
709.168	0.0203
709.3485	0.0021
709.529	0.0122
709.7095	-0.0138
709.8899	0.0218
710.0703	0.0149
710.2507	-0.0211
710.4311	-0.0439
710.6115	0.0101
710.7918	0.0302
710.9721	-0.0223
711.1524	0.0102
711.3327	-0.018
711.513	-0.0355
711.6932	-0.0193
711.8735	-0.0007
712.0537	0.0001
712.2339	-0.0269
712.4141	0.0168
712.5942	-0.0061
712.7744	0.001
712.9545	0.0075
713.1346	0.0175
713.3147	-0.0078
713.4947	-0.0038
713.6748	0.0059
713.8548	0.0263
714.0348	0.0043
714.2148	0.0288
714.3948	-0.0005
714.5748	0.0053
714.7547	-0.0043
714.9346	0.0129
715.1145	-0.0085
715.2944	-0.0198
715.4743	0.017
715.6541	0.0014
715.834	0.0325
716.0138	0.0327
716.1936	-0.0151
716.3733	-0.0142
716.5531	-0.0158
716.7328	0.0351
716.9126	-0.0098
717.0923	-0.0281
717.2719	0.0028
717.4516	0.0137
717.6312	-0.0197
717.8109	0.0149
717.9905	-0.0031
718.1701	-0.004
718.3496	-0.0096
718.5292	-0.018
718.7087	0.0027
718.8882	0.0001
719.0677	-0.014
719.2472	0.0073
719.4267	-0.0195
719.6061	-0.0175
719.7856	0.0253
719.965	0.0151
720.1443	-0.0011
720.3237	-0.0162
720.5031	-0.0131
720.6824	-0.0182
720.8617	-0.011
721.041	0.0258
721.2203	-0.0181
721.3995	0.0035
721.5788	0.0048
721.758	0.0009
721.9372	-0.0188
722.1164	-0.0097
722.2956	-0.0021
722.4747	-0.0167
722.6538	0.0032
722.8329	0.0167
723.012	0.017
723.1911	-0.0141
723.3702	0.0233
723.5492	0.0009
723.7282	-0.0147
723.9072	0.0035
724.0862	-0.0044
724.2652	-0.0021
724.4441	-0.01
724.623	-0.0003
724.8019	0.0105
724.9808	-0.0016
725.1597	-0.006
725.3385	0.0082
725.5174	-0.0146
725.6962	-0.005
725.875	0.0211
726.0538	-0.0332
726.2325	0.0135
726.4112	-0.0189
726.59	-0.0034
726.7687	-0.0161
726.9474	0.0045
727.126	0.0179
727.3047	-0.0093
727.4833	-0.0059
727.6619	-0.0396
727.8405	-0.0034
728.0191	0.0032
728.1976	-0.0196
728.3762	0.0244
728.5547	-0.0135
728.7332	0.0095
728.9116	0.0142
729.0901	-0.013
729.2686	0.0115
729.447	-0.0112
729.6254	0.007
729.8038	-0.0021
729.9821	-0.0065
730.1605	0.0107
730.3388	-0.0007
730.5171	0.005
730.6954	-0.0086
730.8737	-0.0033
731.0519	-0.0085
731.2302	0.0177
731.4084	-0.0103
731.5866	0.0068
731.7648	0.0125
731.9429	0.0239
732.1211	-0.0041
732.2992	-0.0127
732.4773	-0.0139
732.6554	-0.012
732.8335	0.0205
733.0115	0.0019
733.1896	-0.0198
733.3676	0.0197
733.5456	0.009
733.7235	-0.0118
733.9015	0.0088
734.0794	-0.0006
734.2574	-0.0164
734.4353	0.0111
734.6131	-0.0044
734.791	-0.0077
734.9689	-0.024
735.1467	-0.0122
735.3245	0.0014
735.5023	0
735.68	-0.0056
735.8578	0.0074
736.0355	0.0152
736.2132	0.0062
736.3909	0.0089
736.5686	-0.0064
736.7463	-0.0354
736.9239	0.0118
737.1015	0.0042
737.2791	0.0048
737.4567	0.0044
737.6343	0.0011
737.8118	0.0082
737.9894	-0.0114
738.1669	0.0007
738.3444	0.0306
738.5218	-0.0154
738.6993	0.0079
738.8767	0.0107
739.0541	-0.0156
739.2315	0
739.4089	0.0119
739.5863	0.0093
739.7636	-0.0017
739.9409	-0.0216
740.1182	0.0082
740.2955	0.0236
740.4728	-0.0174
740.65	-0.0101
740.8272	0.0141
741.0044	-0.016
741.1816	0.0117
741.3588	-0.0137
741.5359	-0.0039
741.7131	-0.0236
741.8902	-0.0069
742.0673	-0.0333
742.2444	0.011
742.4214	0.0001
742.5985	-0.0183
742.7755	0.0009
742.9525	-0.0283
743.1295	-0.0324
743.3064	-0.0166
743.4834	0.0071
743.6603	0.0448
743.8372	-0.0367
744.0141	0.0265
744.191	-0.0013
744.3678	-0.0333
744.5446	-0.0008
744.7215	0.0019
744.8982	0.03
745.075	0.0682
745.2518	0.0191
745.4285	0.0113
745.6052	-0.0491
745.7819	0.0038
745.9586	0.0051
746.1353	-0.0135
746.3119	-0.012
746.4885	0.0077
746.6651	-0.0118
746.8417	-0.0091
747.0183	0.0291
747.1948	-0.011
747.3714	0.0212
747.5479	0.0239
747.7244	0.0035
747.9008	-0.0043
748.0773	0.0471
748.2537	0.0262
748.4301	0.0179
748.6065	-0.0008
748.7829	-0.0386
748.9593	-0.0157
749.1356	-0.0034
749.3119	-0.0012
749.4882	0.0078
749.6645	-0.0042
749.8408	0.0019
750.017	0.0264
750.1933	-0.0195
750.3695	0.006
750.5457	0.0048
750.7218	0.0004
750.898	-0.0158
751.0741	-0.0085
751.2502	0.0103
751.4263	-0.0075
751.6024	-0.0136
751.7784	0.0025
751.9545	-0.001
752.1305	0.0143
752.3065	0.0028
752.4825	0.0021
752.6584	0.0001
752.8344	-0.0112
753.0103	-0.0342
753.1862	0.0084
753.3621	0.0096
753.5379	-0.0089
753.7138	0.0058
753.8896	-0.0024
754.0654	-0.0241
754.2412	0.0246
754.417	0.014
754.5927	0.01
754.7685	-0.0072
754.9442	0.0062
755.1199	0.0133
755.2956	0.0235
755.4712	-0.0126
755.6469	0.0091
755.8225	-0.0049
755.9981	-0.0078
756.1736	0.0092
756.3492	0.0022
756.5248	0.0101
756.7003	-0.0199
756.8758	0.0089
757.0513	-0.0058
757.2267	-0.009
757.4022	-0.0029
757.5776	0.0024
757.753	0.0098
757.9284	0.002
758.1038	0.0127
758.2791	0.0138
758.4545	-0.0051
758.6298	0.0014
758.8051	0.0231
758.9803	-0.0138
759.1556	-0.015
759.3308	0.005
759.506	-0.0019
759.6812	0.0224
759.8564	-0.0154
760.0316	-0.0091
760.2067	0.0307
760.3819	0.0115
760.557	-0.0035
760.732	0.0094
760.9071	0.0168
761.0821	-0.0396
761.2572	-0.0117
761.4322	0.0078
761.6072	-0.0117
761.7821	-0.0387
761.9571	0.0109
762.132	-0.0056
762.3069	0.0223
762.4818	0.0223
762.6567	-0.0065
762.8316	0.0134
763.0064	0.0085
763.1812	0.0018
763.356	-0.0127
763.5308	0.021
763.7055	-0.0086
763.8803	-0.0107
764.055	-0.0117
764.2297	-0.017
764.4044	-0.0076
764.579	-0.0036
764.7537	0.0074
764.9283	0.0069
765.1029	-0.0027
765.2775	0.0008
765.4521	0.0066
765.6266	-0.0141
765.8011	0.0052
765.9756	0.0151
766.1501	-0.0074
766.3246	0.0028
766.4991	0.0319
766.6735	0.0452
766.8479	-0.0036
767.0223	0.0056
767.1967	-0.0077
767.371	0.0084
767.5454	0.0095
767.7197	0.0341
767.894	0.0371
768.0683	0.0279
768.2425	0.0089
768.4168	-0.0039
768.591	-0.0205
768.7652	-0.0026
768.9394	-0.0192
769.1135	0.0005
769.2877	0.0308
769.4618	0.0209
769.6359	-0.0078
769.81	-0.0068
769.984	0.005
770.1581	-0.0022
770.3321	0.0035
770.5061	0.0019
770.6801	0.0226
770.8541	0.0173
771.028	0.0305
771.202	0.0231
771.3759	0.0098
771.5498	-0.0082
771.7236	0.0151
771.8975	0.0047
772.0713	0.0051
772.2451	-0.0368
772.4189	0.005
772.5927	-0.0254
772.7665	-0.0014
772.9402	0.0161
773.1139	-0.0261
773.2876	-0.0005
773.4613	0.0168
773.635	0.0473
773.8086	0.0197
773.9822	0.0185
774.1558	0.0286
774.3294	0.009
774.503	0.025
774.6765	0.0028
774.8501	0.0022
775.0236	0.0344
775.1971	-0.0483
775.3705	0.0208
775.544	-0.0766
775.7174	0.0377
775.8908	0.0108
776.0642	0.0177
776.2376	0.0814
776.4109	-0.0007
776.5843	0.001
776.7576	0.0061
776.9309	0.0449
777.1041	-0.0282
777.2774	0.0001
777.4506	-0.0336
777.6238	-0.0464
777.797	0.0445
777.9702	0.0442
778.1434	0.0076
778.3165	-0.006
778.4896	-0.0353
778.6627	0.0123
778.8358	-0.0263
779.0089	-0.0278
779.1819	-0.0052
779.3549	0.0178
779.5279	-0.0076
779.7009	-0.0167
779.8739	0.0543
780.0468	0.0058
780.2197	0.0362
780.3926	-0.0222
780.5655	0.0231
780.7384	0.0047
780.9112	-0.0041
781.0841	0.0019
781.2569	0.0023
781.4297	-0.0098
781.6024	-0.0004
781.7752	0.0253
781.9479	0.0381
782.1206	-0.0025
782.2933	0.0116
782.466	0.0012
782.6386	-0.0371
782.8113	-0.0068
782.9839	0.0096
783.1565	0.0023
783.329	0.0042
783.5016	-0.0089
783.6741	-0.0265
783.8466	0.0247
784.0191	0.024
784.1916	-0.0092
784.3641	-0.0824
784.5365	0.0032
784.7089	-0.0202
784.8813	0.0417
785.0537	0.0262
785.2261	0.0001
785.3984	-0.0161
785.5707	-0.0201
785.743	0.0404
785.9153	0.0252
786.0876	-0.0141
786.2598	-0.0189
786.432	0.0137
786.6042	0.0315
786.7764	-0.0178
786.9486	-0.0235
787.1207	0.0229
787.2928	0.0557
787.4649	-0.0164
787.637	-0.0052
787.8091	0.0054
787.9811	0.0034
788.1532	-0.0045
788.3252	-0.0242
788.4972	0.0215
788.6691	0.0078
788.8411	-0.0187
789.013	0.0326
789.1849	0.0065
789.3568	-0.0303
789.5287	0.0284
789.7005	-0.0481
789.8723	-0.0323
790.0442	-0.0087
790.2159	0.0301
790.3877	0.0064
790.5595	0.0214
790.7312	-0.0058
790.9029	-0.012
791.0746	-0.0143
791.2463	-0.0334
791.4179	-0.0123
791.5896	0.0071
791.7612	0.0729
791.9328	0.0154
792.1044	0.0496
792.2759	-0.0366
792.4474	-0.0879
792.619	0.0117
792.7905	0.0153
792.9619	0.0495
793.1334	0.0515
793.3048	0.0534
793.4762	0.019
793.6476	-0.0297
793.819	-0.0006
793.9904	-0.0309
794.1617	-0.0048
794.333	0.0048
794.5043	0.0441
794.6756	0.0118
794.8469	0.0013
795.0181	-0.019
795.1893	0.0264
795.3605	0.0337
795.5317	0.018
795.7029	-0.009
795.874	0.0105
796.0452	0.0417
796.2163	0.0447
796.3873	0.0656
796.5584	0.0495
796.7294	0.0575
796.9005	-0.0027
797.0715	-0.0418
797.2425	0.0456
797.4134	-0.007
797.5844	0.0445
797.7553	-0.0521
797.9262	0.0578
798.0971	0.0508
798.2679	-0.0199
798.4388	0.0618
798.6096	0.0016
798.7804	-0.013
798.9512	0.0601
799.122	-0.0174
799.2927	0.0606
799.4635	-0.0645
799.6342	-0.0308
799.8049	0.0788
799.9755	-0.0385
800.1462	0.0462
800.3168	-0.0011
800.4874	-0.0464
800.658	0.0998
800.8286	0.097
800.9991	0.0212
801.1696	-0.0141
801.3402	-0.0948
801.5106	0.0153
801.6811	-0.0339
801.8516	0.115
802.022	-0.0217
802.1924	0.0088
802.3628	0.0003
802.5332	0.0064
802.7035	0.0331
802.8739	-0.044
803.0442	-0.0071
803.2145	0.079
803.3847	0.0744
803.555	0.0783
803.7252	-0.0355
803.8954	-0.0095
804.0656	0.0414
804.2358	0.0305
804.4059	0.0671
804.5761	-0.0497
804.7462	0.0401
804.9163	0.0573
805.0864	0.0038
805.2564	0.0297
805.4264	-0.0391
805.5965	0.0369
805.7665	-0.0028
805.9364	-0.0646
806.1064	-0.0045
806.2763	0.0214
806.4462	-0.0008
806.6161	0.032
806.786	-0.0251
806.9559	0.015
807.1257	0.0073
807.2955	-0.0303
807.4653	0.0002
807.6351	0.0113
807.8048	0.0085
807.9746	0.0702
808.1443	-0.0222
808.314	0.11
808.4837	0.004
808.6533	-0.0486
808.8229	0.0485
808.9926	-0.0079
809.1622	0.0769
809.3317	-0.0264
809.5013	-0.0642
809.6708	0.0439
809.8403	0.0374
810.0098	-0.0256
810.1793	-0.0815
810.3488	-0.0295
810.5182	0.0639
810.6876	0.0181
810.857	-0.0148
811.0264	-0.054
811.1958	0.2658
811.3651	-0.0548
811.5344	-0.0443
811.7037	0.0419
811.873	0.079
812.0422	-0.0843
812.2115	0.0243
812.3807	-0.0685
812.5499	-0.0863
812.7191	0.0537
812.8882	-0.0949
813.0574	0.0273
813.2265	-0.0076
813.3956	0.0582
813.5646	0.0717
813.7337	-0.0103
813.9027	-0.0217
814.0718	-0.0067
814.2407	-0.0232
814.4097	0.0423
814.5787	0.12
814.7476	0.0017
814.9165	0.0252
815.0854	0.1095
815.2543	-0.0246
815.4232	0.1177
815.592	0.0685
815.7608	-0.1762
815.9296	-0.057
816.0984	0.0732
816.2671	-0.1479
816.4359	0.063
816.6046	0.0454
816.7733	-0.0325
816.942	-0.0404
817.1106	0.0264
817.2793	-0.0434
817.4479	0.045
817.6165	0.0394
817.785	0.0876
817.9536	-0.0865
818.1221	-0.0447
818.2906	-0.0441
818.4591	-0.086
818.6276	-0.0371
818.7961	0.0476
818.9645	0.024
819.1329	0.1436
819.3013	0.037
819.4697	0.0851
819.638	0.0053
819.8064	0.1339
819.9747	0.1711
820.143	-0.1892
820.3113	0.0909
820.4795	0.02
820.6477	0.2485
820.816	-0.013
820.9842	0.0762
821.1523	-0.011
821.3205	-0.0077
821.4886	-0.0537
821.6567	-0.0068
821.8248	0.1121
821.9929	-0.1375
822.1609	0.0579
822.329	0.0575
822.497	-0.0069
822.665	0.017
822.833	0.1213
823.0009	-0.02
823.1688	-0.0623
823.3367	0.0065
823.5046	-0.0285
823.6725	0.0139
823.8404	-0.0271
824.0082	-0.0267
824.176	0.0267
824.3438	0.0536
824.5116	-0.0214
824.6793	0.1296
824.847	0.1701
825.0147	-0.0256
825.1824	0.1951
825.3501	0.1352
825.5177	-0.055
825.6854	-0.1468
825.853	0.0446
826.0206	0.0266
826.1881	-0.0849
826.3557	0.0614
826.5232	0.1216
826.6907	0.0664
826.8582	-0.0915
827.0257	0.1294
827.1931	0.0116
827.3605	-0.0982
827.528	-0.0925
827.6953	-0.2362
827.8627	-0.1306
828.03	0.1015
828.1974	0.2468
828.3647	0.2082
828.532	-0.0422
828.6992	0.0328
828.8665	-0.1902
829.0337	-0.0876
829.2009	-0.0683
829.3681	0.0268
829.5352	-0.2579
829.7024	0.0419
829.8695	-0.1065
830.0366	0.0537
830.2037	0.0428
830.3707	0.0857
830.5378	0.2015
830.7048	-0.0985
830.8718	0.4533
831.0388	-0.0588
831.2057	0.2441
831.3727	-0.338
831.5396	0.4836
831.7065	-0.9553
831.8734	0.195
832.0402	0.0399
832.2071	-0.5637
832.3739	0.137
832.5407	-1.7172
832.7075	-0.2804
832.8742	0.3675
833.041	0.1186
833.2077	0.2823
833.3744	-0.0114
833.541	-0.0718
833.7077	-0.155
833.8743	0.0688
834.0409	0.0588
834.2075	0.1497
834.3741	-0.1521
834.5407	0.0941
834.7072	0.0007
834.8737	0.195
835.0402	-0
835.2067	0.0215
835.3731	-0.015
835.5395	-0.0645
835.706	0.08
835.8723	0.0715
836.0387	0.4374
836.2051	-0
836.3714	0.2188
836.5377	0.3865
836.704	0.1782
836.8703	-0.2148
837.0365	-0.9553
837.2027	-0.1167
837.3689	0.2213
837.5351	0.1205
837.7013	-0.2819
837.8674	-0.447
838.0335	-0.0293
838.1997	-0.2272
838.3657	0.3416
838.5318	0.2296
838.6978	-0
838.8639	-0.4666
839.0299	0.1657
839.1958	-0.0471
839.3618	-0
839.5277	-0.0745
839.6937	-0.2225
839.8596	-0.3978
840.0254	-0.3063
840.1913	0.0599
840.3571	-0.1197
840.523	-0
840.6888	-0.1075
840.8545	-0.6451
841.0203	0.2357
841.186	-0.0479
841.3517	-0.215
841.5174	0.0631
841.6831	0.1958
841.8488	-0.0686
842.0144	0.2112
842.18	0.0721
842.3456	-0.6197
842.5112	-0.7824
842.6767	0.3288
842.8422	-0.2084
843.0077	0.1657
843.1732	-0
843.3387	0.5879
843.5042	-0
843.6696	-0.041
843.835	-0.0457
844.0004	-0.1373
844.1657	-0
844.3311	0.3225
844.4964	-0.0402
844.6617	-0.1248
844.827	-0
844.9923	0.3047
845.1575	-0
845.3227	-0.1039
845.4879	-0.4184
845.6531	1.0324
845.8183	-0.1037
845.9834	0.7765
846.1485	0.7068
846.3136	-0.2967
846.4787	-0.2766
846.6438	-0.0483
846.8088	-0
846.9738	-0.3565
847.1388	0.1846
847.3038	0.4587
847.4687	0.4016
847.6337	-0
847.7986	-0.1717
847.9635	0.4204
848.1284	-0
848.2932	0.221
848.458	-0
848.6228	-0
848.7876	0.0882
848.9524	-0.2547
849.1172	-0
849.2819	1.0414
849.4466	0.3577
849.6113	0.1225
849.7759	-0.1125
849.9406	-0.0274
850.1052	-0.9593
850.2698	-0.1997
850.4344	-0.6033
850.599	0.1895
850.7635	-0.0843
850.928	1.1789
851.0925	-0
851.257	0.4555
851.4215	0.2702
851.5859	-0.1248
851.7503	-0.4433
851.9147	-0
852.0791	-0.1498
852.2434	-0.0243
852.4078	-0
852.5721	0.7523
852.7364	-0.0383
852.9007	-0.0158
853.0649	-0
853.2291	0.2147
853.3934	-0.3831
853.5575	-0.1527
853.7217	0.353
853.8859	0.3795
854.05	-0.6813
854.2141	-0
854.3782	0.0772
854.5423	-0
854.7063	0.7431
854.8703	2.1405
855.0343	-0.1248
855.1983	0.4721
855.3623	0.5536
855.5262	-0
855.6901	0.6959
855.854	0.2291
856.0179	0.0188
856.1818	-0
856.3456	1.0627
856.5094	-0.794
856.6732	-0.2065
856.837	-1.137
857.0008	-0.3545
857.1645	0.133
857.3282	-0.3193
857.4919	0.2914
857.6556	-0.3926
857.8192	-0.009
857.9828	0.0133
858.1465	-0.0911
858.31	-0.3706
858.4736	-0.3729
858.6372	-0.4666
858.8007	0.565
858.9642	0.3417
859.1277	0.7119
859.2911	-0.1769
859.4546	-1.7709
859.618	0.0815
859.7814	-0.1679
859.9448	-0
860.1081	-0
860.2715	-1.4993
860.4348	0.3673
860.5981	2.1553
860.7614	-0
860.9246	-0.2175
861.0879	0.2169
861.2511	-0
861.4143	-0.1461
861.5774	-0.0145
861.7406	0.9509
861.9037	-0
862.0668	0.0161
862.2299	-0
862.393	-0.1385
862.556	-0.1771
862.7191	0.0047
862.8821	0.2401
863.0451	0.334
863.208	-0.6592
863.371	-0.6509
863.5339	0.4568
863.6968	-0.0489
863.8597	-0.2454
864.0225	0.3884
864.1854	-0.3883
864.3482	-0.9186
864.511	-0.2908
864.6737	-0
864.8365	-0.0072
864.9992	-0
865.1619	0.0338
865.3246	-1.9886
865.4873	-0.0453
865.65	-0.0784
865.8126	-0
865.9752	-0.2265
866.1378	0.2828
866.3004	1.8363
866.4629	-1.2916
866.6254	-0.2014
866.7879	-0
866.9504	0.4634
867.1129	-0.3469
867.2753	-0.169
867.4377	-0
867.6001	-0.7041
867.7625	-0.3078
867.9249	-0
868.0872	0.7224
868.2495	-0
868.4118	-0
868.5741	-0
868.7363	-0.4001
868.8986	-0
869.0608	-0
869.223	-0.7558
869.3851	-0
869.5473	-0.1117
869.7094	-0
869.8715	-0.7765
870.0336	-0.0045
870.1957	-0.5662
870.3577	-0
870.5197	0.2556
870.6817	-0.4468
870.8437	-0.2569
871.0057	0.2556
871.1676	0.5422
871.3295	-0
871.4914	-0
871.6533	-0.5117
871.8151	0.2772
871.977	0.6591
872.1388	0.4217
872.3006	-0.4494
872.4623	0.4352
872.6241	0.3565
872.7858	-0
872.9475	0.5349
873.1092	0.197
873.2709	0.4267
873.4325	-1.475
873.5941	-0.7224
873.7557	-0
873.9173	0.1403
874.0789	0.5798
874.2404	-0
874.4019	0.0501
874.5634	-0
874.7249	0.7373
874.8863	-0.0041
875.0478	-0.3347
875.2092	0.3888
875.3706	0.0251
875.5319	-0
875.6933	-0.1102
875.8546	-0
876.0159	1.6014
876.1772	-0
876.3385	-0
876.4997	-0
876.6609	-0
876.8221	-0
876.9833	-0.2469
877.1445	0.2554
877.3056	-1.1723
877.4667	-0
877.6278	-0.0352
877.7889	-0
877.9499	-0
878.111	-0.4738
878.272	-0.195
878.433	-0
878.5939	1.0074
878.7549	0.9087
878.9158	-0
879.0767	-0
879.2376	-0.2879
879.3984	0.8976
879.5593	0.3391
879.7201	-1.208
879.8809	-0
880.0417	-0.1274
880.2024	-0
880.3632	-0.2014
880.5239	0.2113
880.6846	-0
880.8452	0.4993
881.0059	-0.8978
881.1665	-0.2494
881.3271	0.4398
881.4877	0.5073
881.6483	-0.9485
881.8088	-1.1162
881.9693	-0
882.1298	-0
882.2903	-0
