Data from D4ACN5uM460nmA_Absorbance_13-05-41-361.txt Node
Date: Fri Feb 21 13:05:41 GMT 2025
User: LASERRRRR
Spectrometer: FLMT03099
Trigger mode: 0
Integration Time (sec): 1.500000E-2
Scans to average: 1
Electric dark correction enabled: true
Nonlinearity correction enabled: false
Boxcar width: 0
XAxis mode: Wavelengths
Number of Pixels in Spectrum: 3648
>>>>>Begin Spectral Data<<<<<
179.3399	-0.1932
179.5586	-0.1932
179.7771	-0.1932
179.9957	-0.0808
180.2143	-0
180.4329	0.8182
180.6514	-0
180.8699	0.1825
181.0885	-0
181.307	-0.0799
181.5255	0.2753
181.744	-0
181.9625	-0
182.181	-0
182.3994	-0
182.6179	-0
182.8363	-0
183.0547	0.3349
183.2732	-0.0763
183.4916	0.1724
183.71	0.0849
183.9284	0.0548
184.1467	0.3621
184.3651	0.1818
184.5835	0.1051
184.8018	-0.0471
185.0201	0.1203
185.2385	0.0828
185.4568	0.2023
185.6751	0.1432
185.8934	0.1136
186.1117	-0.1076
186.3299	0.2097
186.5482	0.3759
186.7664	0.0383
186.9847	-0.0281
187.2029	0.0434
187.4211	-0.1205
187.6393	0.2278
187.8575	0.1811
188.0757	0.8515
188.2939	-0.0048
188.512	0.1473
188.7302	-0.0401
188.9483	0.4518
189.1665	0.4658
189.3846	0.0536
189.6027	0.1018
189.8208	0.1548
190.0389	0.1501
190.257	0.1201
190.475	-0.001
190.6931	-0.1128
190.9111	0.1651
191.1292	0.042
191.3472	0.0964
191.5652	0.2685
191.7832	0.2008
192.0012	0.2898
192.2192	0.0859
192.4371	0.2452
192.6551	0.032
192.873	0.0461
193.091	0.1222
193.3089	0.1801
193.5268	0.2453
193.7447	0.1206
193.9626	0.1665
194.1805	0.183
194.3984	0.184
194.6162	0.2074
194.8341	0.1942
195.0519	0.2022
195.2697	0.1803
195.4875	0.276
195.7054	0.3389
195.9231	0.2294
196.1409	0.2736
196.3587	0.3058
196.5765	0.3124
196.7942	0.3388
197.012	0.2747
197.2297	0.2847
197.4474	0.4364
197.6651	0.3154
197.8828	0.2788
198.1005	0.4033
198.3182	0.3389
198.5358	0.41
198.7535	0.3736
198.9711	0.4172
199.1888	0.3256
199.4064	0.3973
199.624	0.4453
199.8416	0.3905
200.0592	0.3996
200.2767	0.3888
200.4943	0.4276
200.7119	0.3804
200.9294	0.3845
201.1469	0.3948
201.3645	0.4519
201.582	0.3727
201.7995	0.3994
202.017	0.4059
202.2344	0.4202
202.4519	0.3519
202.6694	0.3766
202.8868	0.3899
203.1042	0.4111
203.3217	0.3856
203.5391	0.4008
203.7565	0.3617
203.9739	0.374
204.1913	0.3577
204.4086	0.3746
204.626	0.3867
204.8433	0.3478
205.0607	0.3652
205.278	0.376
205.4953	0.3106
205.7126	0.3572
205.9299	0.3211
206.1472	0.3467
206.3644	0.3334
206.5817	0.3512
206.7989	0.3261
207.0162	0.3398
207.2334	0.3335
207.4506	0.3071
207.6678	0.3078
207.885	0.3025
208.1022	0.3125
208.3194	0.2826
208.5365	0.3112
208.7537	0.29
208.9708	0.3083
209.1879	0.2989
209.405	0.2974
209.6222	0.2773
209.8392	0.275
210.0563	0.3023
210.2734	0.267
210.4905	0.2913
210.7075	0.276
210.9245	0.2544
211.1416	0.2785
211.3586	0.2726
211.5756	0.2434
211.7926	0.2726
212.0096	0.2649
212.2265	0.2528
212.4435	0.2646
212.6604	0.2652
212.8774	0.2479
213.0943	0.2585
213.3112	0.2436
213.5281	0.2663
213.745	0.2477
213.9619	0.2495
214.1788	0.251
214.3956	0.2575
214.6125	0.2542
214.8293	0.2585
215.0461	0.2385
215.2629	0.2477
215.4798	0.2526
215.6965	0.2509
215.9133	0.2416
216.1301	0.2621
216.3469	0.2515
216.5636	0.2378
216.7803	0.2652
216.9971	0.2508
217.2138	0.2663
217.4305	0.2517
217.6472	0.2605
217.8639	0.2413
218.0805	0.2347
218.2972	0.2573
218.5138	0.2639
218.7305	0.2408
218.9471	0.26
219.1637	0.2639
219.3803	0.26
219.5969	0.2598
219.8135	0.2741
220.0301	0.2469
220.2466	0.2607
220.4632	0.2606
220.6797	0.262
220.8962	0.2733
221.1127	0.2743
221.3292	0.2668
221.5457	0.2904
221.7622	0.2666
221.9787	0.2908
222.1951	0.2725
222.4116	0.2825
222.628	0.2956
222.8444	0.2871
223.0608	0.2818
223.2772	0.2854
223.4936	0.283
223.71	0.2962
223.9264	0.2934
224.1427	0.2933
224.3591	0.2938
224.5754	0.3015
224.7917	0.2933
225.008	0.3025
225.2243	0.3065
225.4406	0.2751
225.6569	0.3029
225.8732	0.3084
226.0894	0.3082
226.3057	0.3014
226.5219	0.3012
226.7381	0.3227
226.9543	0.3096
227.1705	0.3301
227.3867	0.3211
227.6029	0.3273
227.8191	0.3377
228.0352	0.3321
228.2513	0.3597
228.4675	0.3499
228.6836	0.3435
228.8997	0.348
229.1158	0.3509
229.3319	0.3572
229.548	0.3593
229.764	0.3723
229.9801	0.3665
230.1961	0.372
230.4121	0.3663
230.6282	0.3861
230.8442	0.3857
231.0602	0.3902
231.2761	0.3877
231.4921	0.3886
231.7081	0.3862
231.924	0.3969
232.14	0.4067
232.3559	0.3907
232.5718	0.4112
232.7877	0.4159
233.0036	0.4012
233.2195	0.4086
233.4353	0.4317
233.6512	0.4179
233.867	0.4131
234.0829	0.4219
234.2987	0.4148
234.5145	0.4368
234.7303	0.4363
234.9461	0.441
235.1619	0.4278
235.3776	0.4332
235.5934	0.4269
235.8091	0.4413
236.0249	0.4427
236.2406	0.4389
236.4563	0.4507
236.672	0.4477
236.8877	0.4419
237.1034	0.454
237.319	0.4482
237.5347	0.4566
237.7503	0.4512
237.966	0.4556
238.1816	0.4481
238.3972	0.4638
238.6128	0.4619
238.8284	0.4569
239.0439	0.4617
239.2595	0.4586
239.475	0.4649
239.6906	0.4573
239.9061	0.4556
240.1216	0.4743
240.3371	0.4599
240.5526	0.4652
240.7681	0.4639
240.9836	0.4421
241.199	0.4471
241.4145	0.4484
241.6299	0.4379
241.8453	0.4356
242.0607	0.4313
242.2761	0.4353
242.4915	0.4271
242.7069	0.4112
242.9223	0.4104
243.1376	0.4001
243.353	0.3962
243.5683	0.3933
243.7836	0.3892
243.9989	0.3734
244.2142	0.3704
244.4295	0.3594
244.6448	0.3606
244.86	0.346
245.0753	0.3379
245.2905	0.3332
245.5057	0.3319
245.721	0.3305
245.9362	0.3262
246.1514	0.3171
246.3665	0.3092
246.5817	0.2983
246.7969	0.2985
247.012	0.2901
247.2271	0.2883
247.4423	0.2896
247.6574	0.2864
247.8725	0.2706
248.0876	0.2662
248.3026	0.2697
248.5177	0.2529
248.7328	0.2545
248.9478	0.2524
249.1628	0.2529
249.3779	0.2308
249.5929	0.237
249.8079	0.2325
250.0228	0.2316
250.2378	0.229
250.4528	0.2214
250.6677	0.2176
250.8827	0.2131
251.0976	0.2153
251.3125	0.2156
251.5274	0.2099
251.7423	0.2006
251.9572	0.2037
252.172	0.2059
252.3869	0.208
252.6017	0.2022
252.8166	0.1965
253.0314	0.195
253.2462	0.1948
253.461	0.1927
253.6758	0.1963
253.8906	0.191
254.1053	0.2011
254.3201	0.1916
254.5348	0.178
254.7496	0.1866
254.9643	0.1891
255.179	0.1859
255.3937	0.186
255.6083	0.1869
255.823	0.1906
256.0377	0.1853
256.2523	0.1827
256.467	0.1804
256.6816	0.1802
256.8962	0.1839
257.1108	0.1792
257.3254	0.1798
257.54	0.1827
257.7545	0.1863
257.9691	0.1818
258.1836	0.1733
258.3981	0.1829
258.6127	0.1737
258.8272	0.1805
259.0417	0.1736
259.2561	0.1753
259.4706	0.1716
259.6851	0.1736
259.8995	0.1715
260.114	0.1737
260.3284	0.1711
260.5428	0.1745
260.7572	0.1713
260.9716	0.1837
261.186	0.1734
261.4003	0.1689
261.6147	0.171
261.829	0.1717
262.0433	0.1716
262.2577	0.1747
262.472	0.1753
262.6863	0.1757
262.9005	0.1762
263.1148	0.1669
263.3291	0.1729
263.5433	0.1806
263.7576	0.1777
263.9718	0.1695
264.186	0.1815
264.4002	0.1744
264.6144	0.1813
264.8286	0.1764
265.0427	0.1745
265.2569	0.1714
265.471	0.1744
265.6851	0.1787
265.8993	0.1739
266.1134	0.1781
266.3275	0.1758
266.5415	0.1757
266.7556	0.176
266.9697	0.1761
267.1837	0.1725
267.3978	0.1775
267.6118	0.1669
267.8258	0.1772
268.0398	0.177
268.2538	0.1764
268.4677	0.174
268.6817	0.1721
268.8957	0.1704
269.1096	0.1665
269.3235	0.168
269.5374	0.1753
269.7514	0.1732
269.9652	0.1697
270.1791	0.1659
270.393	0.1706
270.6068	0.165
270.8207	0.1644
271.0345	0.1648
271.2483	0.1598
271.4622	0.1715
271.676	0.1692
271.8897	0.1688
272.1035	0.1697
272.3173	0.1686
272.531	0.1656
272.7448	0.1669
272.9585	0.1578
273.1722	0.1645
273.3859	0.1672
273.5996	0.17
273.8133	0.1603
274.0269	0.1582
274.2406	0.1636
274.4542	0.1641
274.6679	0.1657
274.8815	0.1735
275.0951	0.1712
275.3087	0.1682
275.5223	0.1691
275.7358	0.1703
275.9494	0.1677
276.1629	0.1707
276.3765	0.1662
276.59	0.1638
276.8035	0.1666
277.017	0.172
277.2305	0.1724
277.444	0.1749
277.6574	0.1676
277.8709	0.1761
278.0843	0.1678
278.2978	0.1742
278.5112	0.1722
278.7246	0.1697
278.938	0.1713
279.1513	0.1776
279.3647	0.1681
279.5781	0.1714
279.7914	0.1737
280.0047	0.1752
280.2181	0.1753
280.4314	0.1712
280.6447	0.179
280.8579	0.1757
281.0712	0.1734
281.2845	0.1737
281.4977	0.1776
281.711	0.1724
281.9242	0.1772
282.1374	0.1761
282.3506	0.1767
282.5638	0.1766
282.7769	0.1746
282.9901	0.1781
283.2033	0.179
283.4164	0.1794
283.6295	0.1786
283.8426	0.176
284.0557	0.1782
284.2688	0.1778
284.4819	0.1793
284.695	0.1876
284.908	0.1779
285.1211	0.1831
285.3341	0.1754
285.5471	0.1788
285.7601	0.1846
285.9731	0.1823
286.1861	0.1809
286.3991	0.1852
286.612	0.1883
286.825	0.1896
287.0379	0.183
287.2508	0.1881
287.4637	0.1854
287.6766	0.1836
287.8895	0.1871
288.1024	0.1876
288.3152	0.1958
288.5281	0.1916
288.7409	0.1922
288.9538	0.1886
289.1666	0.1848
289.3794	0.1915
289.5922	0.1836
289.8049	0.1884
290.0177	0.1909
290.2304	0.1953
290.4432	0.1951
290.6559	0.1915
290.8686	0.195
291.0813	0.1902
291.294	0.196
291.5067	0.1872
291.7194	0.1922
291.932	0.1922
292.1447	0.1927
292.3573	0.1906
292.5699	0.1944
292.7825	0.1964
292.9951	0.1919
293.2077	0.1928
293.4203	0.1924
293.6328	0.1923
293.8454	0.1968
294.0579	0.1901
294.2704	0.2028
294.4829	0.1954
294.6954	0.1927
294.9079	0.1933
295.1204	0.1918
295.3328	0.1926
295.5453	0.1924
295.7577	0.1928
295.9701	0.1946
296.1825	0.1875
296.3949	0.1917
296.6073	0.189
296.8197	0.1979
297.0321	0.1911
297.2444	0.1892
297.4567	0.2014
297.6691	0.1955
297.8814	0.1933
298.0937	0.1997
298.306	0.1948
298.5182	0.1999
298.7305	0.1951
298.9428	0.1953
299.155	0.1855
299.3672	0.1959
299.5794	0.1944
299.7916	0.1892
300.0038	0.1951
300.216	0.193
300.4282	0.1949
300.6403	0.1955
300.8525	0.1964
301.0646	0.1984
301.2767	0.1907
301.4888	0.1941
301.7009	0.1948
301.913	0.1915
302.125	0.1912
302.3371	0.1939
302.5491	0.194
302.7612	0.2008
302.9732	0.1989
303.1852	0.1926
303.3972	0.1986
303.6092	0.1985
303.8211	0.1938
304.0331	0.1903
304.245	0.1867
304.457	0.1886
304.6689	0.1881
304.8808	0.1882
305.0927	0.1925
305.3046	0.1862
305.5164	0.1837
305.7283	0.1795
305.9401	0.1751
306.152	0.1806
306.3638	0.1831
306.5756	0.1866
306.7874	0.1779
306.9992	0.1797
307.2109	0.1733
307.4227	0.1716
307.6344	0.1783
307.8462	0.1672
308.0579	0.1685
308.2696	0.1721
308.4813	0.1655
308.693	0.1626
308.9046	0.1626
309.1163	0.1603
309.328	0.1588
309.5396	0.1532
309.7512	0.1539
309.9628	0.1586
310.1744	0.1461
310.386	0.145
310.5976	0.1477
310.8091	0.1493
311.0207	0.1441
311.2322	0.1404
311.4437	0.1434
311.6552	0.139
311.8667	0.1417
312.0782	0.1398
312.2897	0.1359
312.5012	0.1362
312.7126	0.1329
312.924	0.1357
313.1355	0.1321
313.3469	0.1346
313.5583	0.133
313.7696	0.126
313.981	0.1355
314.1924	0.1219
314.4037	0.1265
314.6151	0.1237
314.8264	0.1324
315.0377	0.1277
315.249	0.1288
315.4603	0.1283
315.6716	0.1255
315.8828	0.125
316.0941	0.1252
316.3053	0.1229
316.5165	0.1241
316.7277	0.1183
316.9389	0.1206
317.1501	0.1225
317.3613	0.1145
317.5724	0.1191
317.7836	0.1136
317.9947	0.1206
318.2058	0.12
318.417	0.1188
318.6281	0.1139
318.8391	0.1208
319.0502	0.1227
319.2613	0.1156
319.4723	0.1209
319.6834	0.1197
319.8944	0.1198
320.1054	0.1193
320.3164	0.1193
320.5274	0.1152
320.7383	0.1171
320.9493	0.1162
321.1602	0.119
321.3712	0.1193
321.5821	0.1114
321.793	0.1242
322.0039	0.1222
322.2148	0.1235
322.4257	0.114
322.6365	0.1131
322.8474	0.1215
323.0582	0.1189
323.269	0.1253
323.4798	0.12
323.6906	0.1228
323.9014	0.116
324.1122	0.1163
324.3229	0.1188
324.5337	0.1217
324.7444	0.1197
324.9551	0.1239
325.1658	0.122
325.3765	0.123
325.5872	0.1229
325.7979	0.1193
326.0085	0.119
326.2192	0.114
326.4298	0.1252
326.6404	0.1261
326.851	0.1219
327.0616	0.1234
327.2722	0.1264
327.4828	0.1241
327.6933	0.1319
327.9039	0.1265
328.1144	0.1248
328.3249	0.1271
328.5354	0.1217
328.7459	0.1263
328.9564	0.1281
329.1669	0.1267
329.3773	0.1304
329.5878	0.1202
329.7982	0.1238
330.0086	0.1244
330.219	0.1192
330.4294	0.1233
330.6398	0.1271
330.8502	0.1308
331.0605	0.1269
331.2708	0.1268
331.4812	0.1291
331.6915	0.1298
331.9018	0.1307
332.1121	0.1349
332.3224	0.1276
332.5326	0.1212
332.7429	0.1292
332.9531	0.1324
333.1633	0.1243
333.3735	0.1194
333.5837	0.1344
333.7939	0.1275
334.0041	0.1384
334.2143	0.1323
334.4244	0.1363
334.6346	0.1323
334.8447	0.1288
335.0548	0.132
335.2649	0.1342
335.475	0.1373
335.685	0.1347
335.8951	0.1328
336.1051	0.1353
336.3152	0.1372
336.5252	0.1356
336.7352	0.1367
336.9452	0.1298
337.1552	0.1375
337.3652	0.1308
337.5751	0.1291
337.7851	0.1392
337.995	0.1373
338.2049	0.134
338.4148	0.1313
338.6247	0.1359
338.8346	0.1302
339.0445	0.1353
339.2543	0.1413
339.4642	0.1384
339.674	0.134
339.8838	0.1402
340.0936	0.1394
340.3034	0.1315
340.5132	0.1329
340.7229	0.1365
340.9327	0.1395
341.1424	0.1377
341.3522	0.1377
341.5619	0.1441
341.7716	0.1529
341.9813	0.1439
342.1909	0.1491
342.4006	0.1496
342.6102	0.1441
342.8199	0.1433
343.0295	0.1435
343.2391	0.1476
343.4487	0.1497
343.6583	0.1525
343.8679	0.1463
344.0774	0.1488
344.287	0.1505
344.4965	0.1529
344.706	0.1572
344.9155	0.1429
345.125	0.1522
345.3345	0.1592
345.544	0.1541
345.7534	0.1473
345.9629	0.1558
346.1723	0.1508
346.3817	0.1512
346.5911	0.1588
346.8005	0.1585
347.0099	0.1576
347.2193	0.1606
347.4286	0.1653
347.638	0.1612
347.8473	0.1631
348.0566	0.1642
348.2659	0.1606
348.4752	0.1623
348.6845	0.1602
348.8937	0.164
349.103	0.1642
349.3122	0.1639
349.5214	0.1655
349.7306	0.1732
349.9398	0.1666
350.149	0.1623
350.3582	0.1738
350.5674	0.1785
350.7765	0.1732
350.9856	0.163
351.1948	0.1704
351.4039	0.1722
351.613	0.173
351.822	0.1737
352.0311	0.1761
352.2402	0.1713
352.4492	0.1764
352.6582	0.1768
352.8672	0.1808
353.0762	0.177
353.2852	0.1777
353.4942	0.1861
353.7032	0.1788
353.9121	0.1821
354.1211	0.1822
354.33	0.1798
354.5389	0.1762
354.7478	0.1794
354.9567	0.1869
355.1655	0.182
355.3744	0.1837
355.5833	0.186
355.7921	0.1934
356.0009	0.191
356.2097	0.1844
356.4185	0.191
356.6273	0.1854
356.8361	0.1925
357.0448	0.1849
357.2536	0.1904
357.4623	0.1846
357.671	0.1949
357.8797	0.1958
358.0884	0.188
358.2971	0.1893
358.5057	0.1996
358.7144	0.1906
358.923	0.1988
359.1316	0.1977
359.3402	0.2028
359.5488	0.1975
359.7574	0.2122
359.966	0.1999
360.1746	0.2065
360.3831	0.208
360.5916	0.2007
360.8002	0.2101
361.0087	0.2075
361.2172	0.2086
361.4256	0.2107
361.6341	0.2127
361.8426	0.2142
362.051	0.2098
362.2594	0.216
362.4678	0.2119
362.6762	0.2233
362.8846	0.2162
363.093	0.2199
363.3014	0.2199
363.5097	0.2114
363.718	0.2263
363.9264	0.2263
364.1347	0.2243
364.343	0.2304
364.5513	0.2289
364.7595	0.232
364.9678	0.2263
365.176	0.229
365.3842	0.2324
365.5925	0.2318
365.8007	0.2276
366.0089	0.2368
366.217	0.2389
366.4252	0.2382
366.6333	0.2332
366.8415	0.2375
367.0496	0.2403
367.2577	0.2386
367.4658	0.2411
367.6739	0.2323
367.882	0.2472
368.09	0.242
368.2981	0.2509
368.5061	0.2456
368.7141	0.2393
368.9221	0.2533
369.1301	0.2507
369.3381	0.2612
369.5461	0.2495
369.754	0.25
369.962	0.2513
370.1699	0.2537
370.3778	0.2555
370.5857	0.257
370.7936	0.2594
371.0015	0.2561
371.2093	0.2617
371.4172	0.258
371.625	0.266
371.8328	0.2573
372.0406	0.2665
372.2484	0.261
372.4562	0.2624
372.664	0.2635
372.8717	0.2673
373.0795	0.2725
373.2872	0.2679
373.4949	0.2755
373.7026	0.2607
373.9103	0.2704
374.118	0.268
374.3256	0.2751
374.5333	0.2676
374.7409	0.2775
374.9485	0.2723
375.1561	0.2753
375.3637	0.2716
375.5713	0.284
375.7789	0.2813
375.9864	0.2758
376.194	0.289
376.4015	0.272
376.609	0.2815
376.8165	0.2774
377.024	0.2749
377.2315	0.284
377.4389	0.283
377.6464	0.2902
377.8538	0.2949
378.0612	0.2867
378.2686	0.2903
378.476	0.2931
378.6834	0.288
378.8908	0.298
379.0981	0.2972
379.3055	0.2937
379.5128	0.2865
379.7201	0.2997
379.9274	0.2965
380.1347	0.2998
380.342	0.3056
380.5492	0.2931
380.7565	0.2972
380.9637	0.2986
381.1709	0.2973
381.3781	0.3062
381.5853	0.3007
381.7925	0.3016
381.9997	0.3084
382.2068	0.3051
382.4139	0.3012
382.6211	0.306
382.8282	0.3065
383.0353	0.3063
383.2424	0.3094
383.4494	0.3024
383.6565	0.3052
383.8635	0.302
384.0706	0.3136
384.2776	0.3104
384.4846	0.3099
384.6916	0.314
384.8986	0.3144
385.1055	0.3217
385.3125	0.3066
385.5194	0.3176
385.7263	0.307
385.9333	0.3097
386.1402	0.3173
386.347	0.3127
386.5539	0.3178
386.7608	0.3086
386.9676	0.3126
387.1744	0.319
387.3813	0.3064
387.5881	0.3072
387.7948	0.3174
388.0016	0.3214
388.2084	0.3143
388.4151	0.3064
388.6219	0.3046
388.8286	0.3139
389.0353	0.3114
389.242	0.3071
389.4487	0.3051
389.6553	0.2994
389.862	0.3008
390.0686	0.312
390.2753	0.3096
390.4819	0.2995
390.6885	0.3043
390.8951	0.2971
391.1016	0.2983
391.3082	0.3052
391.5147	0.2884
391.7213	0.292
391.9278	0.2974
392.1343	0.2963
392.3408	0.2858
392.5473	0.2902
392.7537	0.3001
392.9602	0.2865
393.1666	0.2972
393.373	0.2763
393.5794	0.2939
393.7858	0.2868
393.9922	0.2773
394.1986	0.2802
394.4049	0.2852
394.6113	0.2872
394.8176	0.285
395.0239	0.272
395.2302	0.2748
395.4365	0.2732
395.6428	0.2683
395.8491	0.2689
396.0553	0.2705
396.2615	0.2741
396.4678	0.2862
396.674	0.2676
396.8802	0.2677
397.0863	0.2596
397.2925	0.2704
397.4987	0.2663
397.7048	0.2764
397.9109	0.2612
398.117	0.2656
398.3231	0.268
398.5292	0.2577
398.7353	0.265
398.9413	0.2645
399.1474	0.2649
399.3534	0.2597
399.5594	0.2718
399.7654	0.2702
399.9714	0.2662
400.1774	0.2571
400.3833	0.2748
400.5893	0.2694
400.7952	0.2747
401.0011	0.2569
401.207	0.2659
401.4129	0.2656
401.6188	0.2611
401.8247	0.2673
402.0305	0.266
402.2364	0.2671
402.4422	0.2713
402.648	0.27
402.8538	0.2588
403.0596	0.2571
403.2654	0.2659
403.4711	0.2573
403.6768	0.2625
403.8826	0.2669
404.0883	0.2687
404.294	0.2628
404.4997	0.2562
404.7054	0.2732
404.911	0.2578
405.1167	0.2677
405.3223	0.2557
405.5279	0.2672
405.7335	0.2652
405.9391	0.2555
406.1447	0.2644
406.3502	0.2589
406.5558	0.2604
406.7613	0.2622
406.9668	0.2586
407.1724	0.2554
407.3778	0.255
407.5833	0.2528
407.7888	0.2671
407.9942	0.2682
408.1997	0.2679
408.4051	0.2684
408.6105	0.2657
408.8159	0.2678
409.0213	0.2635
409.2267	0.2576
409.432	0.2607
409.6374	0.2678
409.8427	0.2747
410.048	0.2738
410.2533	0.266
410.4586	0.2518
410.6639	0.2614
410.8691	0.2592
411.0744	0.2608
411.2796	0.2592
411.4848	0.2672
411.69	0.2569
411.8952	0.2589
412.1004	0.2676
412.3056	0.2629
412.5107	0.2612
412.7158	0.2727
412.921	0.2727
413.1261	0.2615
413.3312	0.2587
413.5362	0.2693
413.7413	0.2595
413.9464	0.255
414.1514	0.2488
414.3564	0.2542
414.5614	0.2632
414.7664	0.2534
414.9714	0.2588
415.1764	0.2623
415.3813	0.2538
415.5863	0.2599
415.7912	0.2488
415.9961	0.2667
416.201	0.2642
416.4059	0.2581
416.6108	0.2625
416.8156	0.2549
417.0205	0.2522
417.2253	0.2524
417.4301	0.2667
417.6349	0.2548
417.8397	0.2607
418.0445	0.2491
418.2492	0.2513
418.454	0.2495
418.6587	0.2614
418.8634	0.2534
419.0681	0.2608
419.2728	0.2539
419.4775	0.2532
419.6822	0.2504
419.8868	0.2454
420.0915	0.2391
420.2961	0.2405
420.5007	0.2457
420.7053	0.2512
420.9099	0.2491
421.1144	0.2458
421.319	0.2339
421.5235	0.2369
421.728	0.2454
421.9325	0.2463
422.137	0.2418
422.3415	0.244
422.546	0.2299
422.7504	0.2336
422.9549	0.2446
423.1593	0.2302
423.3637	0.2345
423.5681	0.2354
423.7725	0.2318
423.9769	0.2307
424.1812	0.2227
424.3856	0.2271
424.5899	0.2316
424.7942	0.2302
424.9985	0.2239
425.2028	0.2314
425.4071	0.2283
425.6113	0.2236
425.8156	0.2249
426.0198	0.2235
426.224	0.22
426.4282	0.2151
426.6324	0.2178
426.8366	0.213
427.0407	0.2217
427.2449	0.219
427.449	0.2155
427.6531	0.2238
427.8572	0.2097
428.0613	0.2255
428.2654	0.2126
428.4694	0.1956
428.6735	0.1986
428.8775	0.199
429.0815	0.2066
429.2855	0.2053
429.4895	0.2031
429.6935	0.2034
429.8975	0.1895
430.1014	0.1986
430.3053	0.2032
430.5093	0.189
430.7132	0.188
430.9171	0.1876
431.1209	0.1885
431.3248	0.1759
431.5286	0.1943
431.7325	0.1881
431.9363	0.1746
432.1401	0.1843
432.3439	0.1841
432.5477	0.1762
432.7514	0.1723
432.9552	0.1646
433.1589	0.1656
433.3627	0.1759
433.5664	0.1694
433.7701	0.1717
433.9737	0.1661
434.1774	0.1635
434.3811	0.1689
434.5847	0.1579
434.7883	0.1666
434.9919	0.1497
435.1955	0.1581
435.3991	0.1555
435.6027	0.151
435.8062	0.1566
436.0098	0.1443
436.2133	0.1421
436.4168	0.1472
436.6203	0.1438
436.8238	0.1498
437.0272	0.1435
437.2307	0.1366
437.4341	0.129
437.6375	0.1344
437.841	0.1263
438.0443	0.1333
438.2477	0.1234
438.4511	0.1263
438.6545	0.1282
438.8578	0.1303
439.0611	0.1291
439.2644	0.1221
439.4677	0.1188
439.671	0.1101
439.8743	0.1232
440.0775	0.1146
440.2808	0.1132
440.484	0.1104
440.6872	0.1075
440.8904	0.1046
441.0936	0.1086
441.2967	0.0981
441.4999	0.098
441.703	0.1013
441.9062	0.0964
442.1093	0.1013
442.3124	0.0948
442.5155	0.0975
442.7185	0.0909
442.9216	0.0955
443.1246	0.0902
443.3276	0.0906
443.5307	0.0805
443.7337	0.0922
443.9366	0.0779
444.1396	0.0837
444.3426	0.0889
444.5455	0.0832
444.7484	0.0879
444.9513	0.0781
445.1542	0.0779
445.3571	0.0793
445.56	0.0721
445.7628	0.0729
445.9657	0.0726
446.1685	0.0734
446.3713	0.0752
446.5741	0.0698
446.7769	0.0771
446.9797	0.0662
447.1824	0.0636
447.3852	0.0519
447.5879	0.0645
447.7906	0.0503
447.9933	0.0595
448.196	0.0542
448.3986	0.0564
448.6013	0.0404
448.8039	0.0622
449.0066	0.0589
449.2092	0.0597
449.4118	0.0442
449.6143	0.0571
449.8169	0.0546
450.0195	0.047
450.222	0.0482
450.4245	0.0443
450.627	0.0474
450.8295	0.0464
451.032	0.0402
451.2345	0.0353
451.4369	0.0455
451.6394	0.0491
451.8418	0.0421
452.0442	0.0461
452.2466	0.0338
452.449	0.038
452.6513	0.0396
452.8537	0.0273
453.056	0.035
453.2583	0.0283
453.4607	0.0247
453.663	0.0311
453.8652	0.0344
454.0675	0.0377
454.2697	0.0294
454.472	0.0271
454.6742	0.0406
454.8764	0.033
455.0786	0.0243
455.2808	0.0187
455.4829	0.0302
455.6851	0.0275
455.8872	0.014
456.0893	0.0199
456.2915	0.0282
456.4935	0.0361
456.6956	0.0233
456.8977	0.0146
457.0997	0.0217
457.3018	0.0214
457.5038	0.0257
457.7058	0.0286
457.9078	0.0195
458.1098	0.0239
458.3117	0.0187
458.5137	0.011
458.7156	0.0231
458.9175	0.024
459.1194	0.0229
459.3213	0.019
459.5232	0.0153
459.725	0.0123
459.9269	0.016
460.1287	0.0088
460.3305	0.0255
460.5323	0.0152
460.7341	0.012
460.9359	0.0099
461.1376	0.0244
461.3394	0.0186
461.5411	0.0195
461.7428	0.0183
461.9445	0.0163
462.1462	0.0087
462.3479	0.019
462.5495	0.013
462.7512	0.0242
462.9528	0.016
463.1544	0.0138
463.356	0.0038
463.5576	0.0154
463.7592	0.0184
463.9607	0.0085
464.1623	0.0092
464.3638	0.0055
464.5653	0.0082
464.7668	0.0105
464.9683	0.012
465.1697	0.0019
465.3712	0.0079
465.5726	0.0077
465.7741	0.0202
465.9755	0.0093
466.1769	0.0086
466.3782	-0.0014
466.5796	0.0119
466.7809	0.0183
466.9823	0.0119
467.1836	0.0076
467.3849	0.0084
467.5862	-0.0015
467.7875	0.0092
467.9887	0.0076
468.19	0.0144
468.3912	0.017
468.5924	0.0093
468.7936	0.0098
468.9948	0.008
469.196	0.0072
469.3972	-0.0008
469.5983	0.0027
469.7994	0.0125
470.0006	0.0074
470.2017	0.0111
470.4027	0.0258
470.6038	0.0091
470.8049	0.0013
471.0059	0.02
471.2069	0.014
471.408	0.0157
471.6089	0.0123
471.8099	0.0066
472.0109	0.0094
472.2119	0.012
472.4128	0.0043
472.6137	0.0094
472.8146	0.0124
473.0155	0.0157
473.2164	0.0004
473.4173	-0.0066
473.6181	-0.003
473.819	0.0029
474.0198	0.0009
474.2206	0.0007
474.4214	0.0058
474.6222	-0.0096
474.8229	0.0014
475.0237	0.0116
475.2244	0.0119
475.4251	0.0015
475.6258	0.0052
475.8265	0.0108
476.0272	0.0042
476.2278	0.0039
476.4285	0.0039
476.6291	0.009
476.8297	0.0108
477.0303	0.0003
477.2309	0.01
477.4315	0.0065
477.632	0.0024
477.8326	0.0071
478.0331	0.021
478.2336	0.0064
478.4341	-0.0019
478.6346	-0.0009
478.8351	0.0038
479.0355	0.0068
479.236	0.009
479.4364	0.003
479.6368	0.0013
479.8372	0.0058
480.0376	-0.0011
480.2379	0.0072
480.4383	0.011
480.6386	-0.0023
480.8389	-0.0056
481.0392	0.0055
481.2395	0.0166
481.4398	0.0023
481.6401	0.0074
481.8403	0.005
482.0405	0.0025
482.2408	0.0071
482.441	0.0097
482.6411	0.0076
482.8413	-0.0056
483.0415	0.0113
483.2416	-0.0038
483.4417	0.0036
483.6419	-0.0019
483.8419	0.0041
484.042	-0.0009
484.2421	-0.0042
484.4422	0.0076
484.6422	0.0062
484.8422	0.0112
485.0422	0.0105
485.2422	-0.0009
485.4422	0.0038
485.6422	0.0026
485.8421	-0.0028
486.042	0.008
486.242	0.002
486.4419	0.0013
486.6417	-0.0004
486.8416	0.004
487.0415	0.0024
487.2413	-0.0084
487.4411	0.0062
487.641	-0.0011
487.8408	0.009
488.0405	0.0082
488.2403	-0.0047
488.4401	0.0093
488.6398	0.0048
488.8395	0.0079
489.0392	0.0055
489.2389	0.0061
489.4386	-0.0027
489.6383	0.0084
489.8379	0.0058
490.0376	0.0126
490.2372	0.0016
490.4368	0.0073
490.6364	0.0032
490.836	0.0025
491.0355	0.0089
491.2351	0.001
491.4346	0.0046
491.6341	0.0055
491.8336	0.0097
492.0331	0.0037
492.2326	0.0021
492.432	0.0042
492.6315	0.007
492.8309	0.008
493.0303	0.0037
493.2297	0.0082
493.4291	0.0007
493.6284	0.0137
493.8278	0.0031
494.0271	0.0043
494.2264	-0.0002
494.4257	0.004
494.625	0.01
494.8243	0.0019
495.0236	0.0063
495.2228	-0.0017
495.422	0.0029
495.6213	0.0033
495.8205	0.0063
496.0196	0.009
496.2188	0.0031
496.418	0.0029
496.6171	-0.0002
496.8162	0.0112
497.0153	0.0069
497.2144	0.0016
497.4135	0.0022
497.6126	0.004
497.8116	-0.0045
498.0107	0.0039
498.2097	0.0068
498.4087	0.001
498.6077	0.0012
498.8067	0.0024
499.0056	0.0041
499.2046	0.0054
499.4035	0.0031
499.6024	-0.0077
499.8013	0.0066
500.0002	0.0036
500.199	0.0083
500.3979	-0.0039
500.5967	0.0033
500.7956	0.0078
500.9944	0.0057
501.1932	0.0133
501.3919	0.0007
501.5907	0.0101
501.7895	0.003
501.9882	0.0046
502.1869	0.0122
502.3856	0.001
502.5843	-0.0006
502.783	0.0054
502.9816	0.0145
503.1803	0.0019
503.3789	0.0091
503.5775	0.0007
503.7761	0.0025
503.9747	0.0047
504.1732	-0.0072
504.3718	0.0162
504.5703	0.0089
504.7689	-0.0099
504.9674	0.0007
505.1658	0.0019
505.3643	0.0043
505.5628	0.0129
505.7612	0.0068
505.9597	0.0026
506.1581	0.0017
506.3565	-0.0005
506.5549	0.0028
506.7532	-0.0031
506.9516	0.003
507.1499	0.0046
507.3482	0.0098
507.5465	0.0043
507.7448	0.0015
507.9431	0.0046
508.1414	0.0047
508.3396	0.0054
508.5379	0.0012
508.7361	0.0105
508.9343	0.0036
509.1325	0.0072
509.3306	0.0012
509.5288	-0.0044
509.7269	0.01
509.9251	0.0103
510.1232	0.0025
510.3213	0.0051
510.5193	-0.0001
510.7174	0.0011
510.9154	0.0072
511.1135	-0.0056
511.3115	-0.0015
511.5095	-0.0057
511.7075	-0.0019
511.9055	0.0018
512.1034	0.0024
512.3014	0.0038
512.4993	0.0063
512.6972	0.008
512.8951	0.0077
513.093	0.001
513.2908	0.0082
513.4887	-0.003
513.6865	0.0079
513.8844	0.0053
514.0822	0.0005
514.2799	-0.0091
514.4777	-0.0014
514.6755	0.0011
514.8732	0.006
515.0709	-0.0011
515.2687	0.0077
515.4664	0.0084
515.664	0.0117
515.8617	0.0119
516.0594	0.0092
516.257	0.0089
516.4546	0.0156
516.6522	0.0022
516.8498	0.0023
517.0474	-0.0055
517.2449	-0.0009
517.4425	-0.0029
517.64	0.0046
517.8375	0.0141
518.035	0.0009
518.2325	0.0003
518.43	-0.0047
518.6274	-0.0073
518.8249	-0.0072
519.0223	0.0155
519.2197	-0.0053
519.4171	-0.0129
519.6145	0.0096
519.8118	0.0065
520.0092	0.0033
520.2065	0.0137
520.4038	-0.0036
520.6011	0.0091
520.7984	0.0044
520.9956	0.0026
521.1929	0.0042
521.3901	0.0025
521.5874	0.0056
521.7846	-0.0018
521.9818	-0.005
522.1789	-0.0011
522.3761	0.0124
522.5732	-0.0006
522.7704	-0.0005
522.9675	-0.0077
523.1646	0.0077
523.3617	0.0044
523.5587	0.0016
523.7558	0.0138
523.9528	0.0104
524.1498	-0.0037
524.3468	0.0061
524.5438	0.0049
524.7408	0.002
524.9378	-0.0031
525.1347	-0.0039
525.3316	0.0003
525.5285	0.0039
525.7254	0.0028
525.9223	0.0191
526.1192	0.0109
526.316	0.0054
526.5129	0.0053
526.7097	-0.0016
526.9065	0.0027
527.1033	0.0126
527.3	-0.0023
527.4968	0.0062
527.6935	-0.0027
527.8903	-0.0034
528.087	0.0018
528.2837	0.0194
528.4804	0.0066
528.677	-0.0013
528.8737	0.002
529.0703	-0.0038
529.2669	0.0174
529.4635	0.0024
529.6601	0.004
529.8567	0.0044
530.0532	0.0102
530.2498	0.0093
530.4463	-0.0088
530.6428	-0.003
530.8393	0.0054
531.0358	-0.0034
531.2322	0.0052
531.4287	0.0087
531.6251	-0.0127
531.8215	0.0014
532.0179	-0.0003
532.2143	0.0022
532.4107	0.0026
532.607	0.0082
532.8034	-0.0065
532.9997	-0.0026
533.196	-0.0025
533.3923	0.0061
533.5886	0.0062
533.7848	0.0063
533.9811	0.0057
534.1773	0.0052
534.3735	0.0027
534.5697	-0.0015
534.7659	0.0068
534.9621	0.0032
535.1582	0.0089
535.3544	0.0131
535.5505	0.0015
535.7466	0.0025
535.9427	-0.0003
536.1387	0.0009
536.3348	0.0204
536.5308	-0.0022
536.7269	0.0012
536.9229	-0.0046
537.1189	0.0084
537.3148	0.0004
537.5108	-0
537.7068	0.0132
537.9027	-0.0102
538.0986	0.0078
538.2945	0.0018
538.4904	0.0024
538.6863	-0.0042
538.8821	0.006
539.078	0.0054
539.2738	0.0023
539.4696	0.0085
539.6654	0.0134
539.8611	0.0021
540.0569	-0.002
540.2526	0.0077
540.4484	-0.0066
540.6441	0.0087
540.8398	0.0089
541.0355	0.0006
541.2311	0.0035
541.4268	-0.0003
541.6224	0.0094
541.818	0.0069
542.0136	0.0106
542.2092	0.0174
542.4048	0.0032
542.6003	-0.0044
542.7959	0.0066
542.9914	0.0111
543.1869	0.004
543.3824	0.0045
543.5779	0.0102
543.7734	0.0137
543.9688	0.0103
544.1642	0.0018
544.3596	0.0045
544.555	-0.0041
544.7504	0.016
544.9458	0.0088
545.1411	-0.0029
545.3365	0.001
545.5318	0.0099
545.7271	0.0118
545.9224	-0.0028
546.1177	0.0138
546.3129	0.0024
546.5081	0.0096
546.7034	0.0056
546.8986	-0.0031
547.0938	0.0133
547.289	0.0045
547.4841	0.0114
547.6793	0.0003
547.8744	0.007
548.0695	-0.0062
548.2646	0.0041
548.4597	-0.004
548.6548	0.0167
548.8498	0.0075
549.0448	0.0004
549.2399	0.0111
549.4349	0.0067
549.6298	0.0066
549.8248	-0.0022
550.0198	0.0055
550.2147	0.0007
550.4096	0.0058
550.6045	-0.0007
550.7994	0.0134
550.9943	0.0113
551.1892	-0.0114
551.384	0.0142
551.5788	0.0043
551.7737	0.0027
551.9685	0.0094
552.1632	-0.0037
552.358	-0.0001
552.5528	0.0056
552.7475	0.0079
552.9422	0.0114
553.1369	0.0029
553.3316	0.0064
553.5263	0.0082
553.7209	0.009
553.9156	0.0033
554.1102	0.0108
554.3048	0.0018
554.4994	0.0064
554.694	0.0073
554.8885	0.0107
555.0831	0.0131
555.2776	0.0057
555.4721	0.0046
555.6666	0.0031
555.8611	-0.0041
556.0555	0.0089
556.25	0.0074
556.4444	0.0014
556.6388	0.0006
556.8332	-0.0034
557.0276	0.0104
557.222	-0.0033
557.4163	0.0053
557.6107	-0.0019
557.805	-0.0078
557.9993	0.0076
558.1936	-0.0056
558.3879	0.0102
558.5821	-0.0082
558.7764	-0.0077
558.9706	0.005
559.1648	0.0024
559.359	-0.0029
559.5532	0.0051
559.7473	-0.0041
559.9415	0.0085
560.1356	0.0125
560.3297	-0.0044
560.5238	0.0011
560.7179	-0.0032
560.9119	-0.0035
561.106	-0.0035
561.3	0.002
561.494	-0.009
561.688	0.005
561.882	0.007
562.076	0.0062
562.2699	0.0075
562.4639	0.0194
562.6578	0.0129
562.8517	0.0069
563.0456	0.0004
563.2395	0.0077
563.4333	-0.0016
563.6272	-0.0038
563.821	-0.0051
564.0148	0.0042
564.2086	0.0082
564.4024	0.0027
564.5961	0.0006
564.7899	0.0092
564.9836	0.0026
565.1773	0.0162
565.371	0.007
565.5647	-0.0006
565.7584	0.011
565.952	0.0111
566.1456	-0.0006
566.3393	0.0117
566.5329	-0.0063
566.7264	0.0077
566.92	0.0086
567.1136	-0.0009
567.3071	-0.0046
567.5006	0.0051
567.6941	-0.0033
567.8876	0.0019
568.0811	0.0106
568.2745	-0.0026
568.468	0.0084
568.6614	0.0048
568.8548	0.0041
569.0482	0.0025
569.2416	0.007
569.4349	0.001
569.6283	0.0001
569.8216	0.0053
570.0149	-0.0038
570.2082	0.0106
570.4015	0.0029
570.5947	0.0024
570.788	0.0078
570.9812	0.002
571.1744	0.0041
571.3676	-0.0005
571.5608	0.0013
571.754	0.0052
571.9471	0.0032
572.1402	0.0085
572.3333	0.0075
572.5264	-0
572.7195	-0.0019
572.9126	0.0032
573.1057	0.001
573.2987	0.0023
573.4917	0.0044
573.6847	0.0011
573.8777	0.0026
574.0707	0.002
574.2636	-0.0018
574.4566	0.0016
574.6495	-0.0013
574.8424	0.0047
575.0353	0.0068
575.2281	0.0086
575.421	-0.0029
575.6138	0.0021
575.8067	0.0072
575.9995	0.0034
576.1923	0.0035
576.385	0.0052
576.5778	0.0068
576.7706	0.0052
576.9633	0.0087
577.156	-0.0055
577.3487	0.0029
577.5414	0.001
577.734	0.0019
577.9267	0.0052
578.1193	0.0036
578.3119	0.0006
578.5045	0.0023
578.6971	0.0034
578.8897	0.0014
579.0822	0.0062
579.2747	0.0022
579.4673	0.0019
579.6598	0.0062
579.8522	0.0015
580.0447	0.0084
580.2372	0.0063
580.4296	0.0065
580.622	0.0016
580.8144	0.0024
581.0068	0.0039
581.1992	0.0043
581.3915	-0
581.5839	0.0031
581.7762	0.0024
581.9685	0.0017
582.1608	0.0037
582.353	0.0025
582.5453	0.0064
582.7375	0.0031
582.9298	-0.0007
583.122	0.0012
583.3142	0.0049
583.5063	0.002
583.6985	-0.0038
583.8906	0.0028
584.0827	0.0079
584.2749	0.0002
584.4669	0.0016
584.659	0.0041
584.8511	0.0047
585.0431	0.0057
585.2352	0.0048
585.4272	0.0045
585.6192	0.0051
585.8111	-0.0019
586.0031	-0.0008
586.195	0.0031
586.387	-0.0001
586.5789	0.009
586.7708	0.0071
586.9627	0.0021
587.1545	0.0022
587.3464	0.006
587.5382	0.005
587.73	0.0061
587.9218	-0.0003
588.1136	0.0027
588.3053	0.0061
588.4971	-0.0005
588.6888	0.0054
588.8805	0.0003
589.0722	0.0077
589.2639	0.0045
589.4556	0.0038
589.6472	0.0035
589.8389	-0.0007
590.0305	0.0033
590.2221	0.0101
590.4137	0.0028
590.6052	0.0052
590.7968	0.0055
590.9883	0.0007
591.1798	0.0027
591.3713	0.0013
591.5628	0.0092
591.7543	0.0004
591.9458	0.0043
592.1372	0.0042
592.3286	-0.0004
592.52	0.0029
592.7114	0.0031
592.9028	0.0054
593.0941	0.0033
593.2855	-0.0016
593.4768	0.0074
593.6681	0.0024
593.8594	0.0074
594.0506	0.0013
594.2419	0.0018
594.4331	0.0028
594.6244	-0.0015
594.8156	0.0001
595.0067	-0.0008
595.1979	0.0021
595.3891	-0
595.5802	0.0052
595.7713	0.0049
595.9624	0.0051
596.1535	0.0075
596.3446	0.006
596.5357	0.0029
596.7267	0.0005
596.9177	-0.0015
597.1087	-0.0044
597.2997	0.0043
597.4907	0.0027
597.6817	0.0051
597.8726	0.0021
598.0635	-0.0003
598.2544	0.0051
598.4453	0.0035
598.6362	0.0036
598.827	0.0003
599.0179	0.005
599.2087	0.0068
599.3995	0.0032
599.5903	0.0079
599.7811	0.0115
599.9718	0.0004
600.1626	-0.0001
600.3533	-0.0002
600.544	0.0025
600.7347	0.0102
600.9254	0.0059
601.116	0.0005
601.3067	-0.0015
601.4973	0.0099
601.6879	0.005
601.8785	0.0019
602.0691	0.0014
602.2596	0.0008
602.4502	-0.0013
602.6407	0.0105
602.8312	-0.0008
603.0217	0.0055
603.2122	0.0007
603.4027	0.0067
603.5931	0.0012
603.7835	0.002
603.9739	0.0021
604.1643	0.0077
604.3547	0.0075
604.5451	0.0056
604.7354	-0.0039
604.9257	-0.001
605.116	0.0009
605.3063	-0.0006
605.4966	0.0009
605.6869	0.0034
605.8771	0.0014
606.0673	-0.0007
606.2575	-0.001
606.4477	0.0037
606.6379	-0.0013
606.8281	0.004
607.0182	0.0008
607.2083	0.0023
607.3985	-0.0014
607.5885	-0.002
607.7786	0.0016
607.9687	0.0042
608.1587	0.0076
608.3488	-0.0008
608.5388	-0.002
608.7288	-0.0062
608.9187	0.0092
609.1087	0.0025
609.2986	0.0042
609.4886	-0.0005
609.6785	0.0055
609.8684	-0.0018
610.0582	-0.0015
610.2481	-0.0056
610.4379	0.0036
610.6278	0.0028
610.8176	0.0095
611.0074	0.0028
611.1971	-0.0015
611.3869	0.006
611.5766	-0.0021
611.7664	0.0079
611.9561	0.0095
612.1458	0.0033
612.3354	-0.0016
612.5251	-0.0011
612.7147	0.0074
612.9044	0.0009
613.094	0.005
613.2836	0.0025
613.4731	-0.0003
613.6627	0.0031
613.8522	0.0089
614.0417	0.0092
614.2313	0.0076
614.4207	0.0038
614.6102	0.0079
614.7997	0.0138
614.9891	0.006
615.1785	-0.0019
615.3679	0.0061
615.5573	-0.0033
615.7467	0.0007
615.9361	-0.0035
616.1254	0.0065
616.3147	0.0053
616.504	0.0034
616.6933	0.0057
616.8826	0.0049
617.0718	0.0092
617.2611	0.0026
617.4503	-0.0035
617.6395	0.0019
617.8287	0.0147
618.0179	-0.0029
618.207	0.0115
618.3961	-0.0003
618.5853	0.0066
618.7744	0.0113
618.9634	0.0096
619.1525	-0.0027
619.3416	0.0044
619.5306	0.0049
619.7196	0.0172
619.9086	0.0054
620.0976	-0.0064
620.2866	0.0067
620.4755	0.0019
620.6645	0.01
620.8534	0.0039
621.0423	0.0027
621.2312	0.003
621.42	0.0033
621.6089	-0.0009
621.7977	0.0076
621.9865	0.0016
622.1753	-0.0053
622.3641	-0.0069
622.5529	0.0002
622.7416	-0.0041
622.9303	0.0005
623.1191	0.0087
623.3078	0.0076
623.4964	0.0086
623.6851	0.005
623.8737	-0.0032
624.0624	-0.0179
624.251	-0.0004
624.4396	0.0044
624.6282	0.0109
624.8167	-0.0004
625.0053	-0.0061
625.1938	-0.0052
625.3823	0.0039
625.5708	-0.0048
625.7593	-0.0014
625.9477	0.0107
626.1362	0.0126
626.3246	-0.0041
626.513	-0.0035
626.7014	0.0074
626.8898	0.0134
627.0781	0.0107
627.2665	0.0056
627.4548	-0.0027
627.6431	-0.0014
627.8314	0.0185
628.0197	0.0142
628.2079	-0.0079
628.3962	0.0047
628.5844	0.0053
628.7726	0.0039
628.9608	0.0084
629.1489	0.0003
629.3371	-0.003
629.5252	-0.0029
629.7134	0.0011
629.9015	0.0011
630.0895	-0.0082
630.2776	0.0102
630.4657	0.0086
630.6537	0.0051
630.8417	-0.0052
631.0297	-0.0058
631.2177	-0.002
631.4057	-0.0044
631.5936	-0.0055
631.7815	-0.0031
631.9695	0.0101
632.1574	0.0262
632.3452	0.013
632.5331	0.0081
632.7209	0.0128
632.9088	-0.0007
633.0966	0.0183
633.2844	-0.0042
633.4722	0.0137
633.6599	0.0163
633.8477	-0.0038
634.0354	0.0027
634.2231	0.0013
634.4108	0.0038
634.5985	-0.0053
634.7861	-0.011
634.9738	-0.0226
635.1614	0.0135
635.349	-0.0155
635.5366	0.0012
635.7242	0.0011
635.9117	-0.0104
636.0993	-0.0005
636.2868	0.0004
636.4743	0.0065
636.6618	-0.0034
636.8492	0.0128
637.0367	-0.003
637.2241	0.0098
637.4115	0.0288
637.5989	0.0073
637.7863	0.0144
637.9737	0.0005
638.161	0.0131
638.3484	-0.0073
638.5357	-0.003
638.723	0.0134
638.9103	-0.0153
639.0975	0.0014
639.2848	0.0163
639.472	0.0158
639.6592	0.0073
639.8464	-0.0042
640.0336	-0.0004
640.2208	0.0157
640.4079	-0.0133
640.595	-0.014
640.7821	0.0222
640.9692	-0.0068
641.1563	-0.0021
641.3434	0.0053
641.5304	0.0258
641.7174	-0.0059
641.9044	0.0136
642.0914	0.0234
642.2784	-0.0045
642.4653	-0.0086
642.6523	0.0006
642.8392	-0.0073
643.0261	0.0178
643.213	-0.0022
643.3999	0.0045
643.5867	0.0158
643.7735	-0.0063
643.9604	0.0064
644.1472	0.0057
644.3339	-0.0148
644.5207	-0.0132
644.7075	0.004
644.8942	-0.0117
645.0809	0.0028
645.2676	-0.009
645.4543	-0.0022
645.6409	0.0209
645.8276	-0.0003
646.0142	0.0086
646.2008	-0.0003
646.3874	-0.0158
646.574	0.0068
646.7605	0.0096
646.9471	-0.0099
647.1336	-0.0163
647.3201	0.0096
647.5066	0.0048
647.6931	0.0117
647.8795	-0.006
648.0659	-0.0053
648.2524	0.0003
648.4388	0.0005
648.6252	0.0147
648.8115	0.003
648.9979	0.0073
649.1842	0.0067
649.3705	0.0059
649.5568	-0.0051
649.7431	0.0089
649.9294	-0.0095
650.1156	-0.0066
650.3018	-0.003
650.488	-0.0028
650.6742	0.0189
650.8604	-0.0018
651.0466	-0.0092
651.2327	0.0032
651.4188	-0.0025
651.6049	0.0229
651.791	0.0034
651.9771	-0.0011
652.1632	0.0074
652.3492	0.01
652.5352	0.0256
652.7212	-0.007
652.9072	-0.0089
653.0932	0.0023
653.2791	0.0016
653.465	-0.0021
653.651	-0.0029
653.8369	0.0155
654.0227	-0.0097
654.2086	-0.006
654.3944	0.0005
654.5803	0.0006
654.7661	-0.0029
654.9519	0.0003
655.1377	-0
655.3234	-0
655.5092	-0
655.6949	-0
655.8806	-0
656.0663	-0
656.2519	-0
656.4376	-0
656.6232	-0
656.8088	-0
656.9945	-0
657.18	-0
657.3656	-0
657.5511	-0
657.7367	-0
657.9222	-0
658.1077	-0
658.2932	-0
658.4786	-0
658.6641	-0
658.8495	-0
659.0349	-0
659.2203	-0
659.4057	-0
659.591	0.0678
659.7764	0.0264
659.9617	0.0004
660.147	-0.0026
660.3323	0.0041
660.5176	-0.0029
660.7028	-0.0275
660.888	0.0022
661.0733	0.0071
661.2585	-0.0071
661.4436	-0.0061
661.6288	0.0118
661.8139	0.0037
661.9991	-0.0097
662.1842	-0.0048
662.3693	0.0055
662.5544	0.0204
662.7394	0.0256
662.9245	0.0108
663.1095	-0.0187
663.2945	-0.0082
663.4795	-0.013
663.6644	0.0115
663.8494	-0.0029
664.0343	0.0087
664.2193	-0.0143
664.4042	0.0216
664.589	-0.0044
664.7739	-0.0049
664.9587	0.0017
665.1436	-0.0224
665.3284	-0.0126
665.5132	-0.0105
665.698	0.0115
665.8827	0.0039
666.0675	-0.0165
666.2522	0.0027
666.4369	-0.0062
666.6216	0.0126
666.8063	0.0009
666.9909	0.0057
667.1756	-0.0092
667.3602	-0.0155
667.5448	0.0088
667.7294	0.0076
667.9139	-0.0263
668.0985	-0.0061
668.283	0.0237
668.4675	0.015
668.652	0.0143
668.8365	-0.0011
669.0209	0.01
669.2054	0.0248
669.3898	0.0002
669.5742	0.0017
669.7586	0.0011
669.943	0.0151
670.1273	0.005
670.3117	0.0145
670.496	0.0106
670.6803	-0.0071
670.8646	-0.0215
671.0488	0.0098
671.2331	-0.0177
671.4173	0.0013
671.6015	-0.0085
671.7857	-0.0014
671.9699	-0.0049
672.1541	0.0042
672.3382	0.0063
672.5223	0.0059
672.7064	-0.0126
672.8905	-0.0063
673.0746	0.002
673.2587	0.0041
673.4427	0.008
673.6267	-0.0041
673.8107	0.0022
673.9947	0.0005
674.1787	0.0104
674.3626	0.0274
674.5465	0.02
674.7304	0.0131
674.9143	0.0146
675.0982	-0.0035
675.2821	-0.0049
675.4659	0.0015
675.6497	0.0064
675.8335	-0.0098
676.0173	-0.0083
676.2011	0.0179
676.3849	-0.015
676.5686	0.027
676.7523	0.0002
676.936	-0.0097
677.1197	-0.0031
677.3034	0.0353
677.487	0.0034
677.6706	0.0033
677.8542	-0.0133
678.0378	0.0056
678.2214	-0.0026
678.405	0.0062
678.5885	0.019
678.772	-0.0005
678.9555	0.0025
679.139	0.0001
679.3225	0.0081
679.5059	-0.0004
679.6894	0.0013
679.8728	-0.0081
680.0562	-0.0064
680.2395	-0.0054
680.4229	-0.0164
680.6062	-0.0047
680.7896	-0.0001
680.9729	0.0047
681.1562	0.0203
681.3394	-0.003
681.5227	0.0023
681.7059	0.0161
681.8891	0.0168
682.0723	-0.0004
682.2555	-0.0069
682.4387	0.0247
682.6218	0.0063
682.805	0.0165
682.9881	0.0284
683.1712	0.0126
683.3542	0.0016
683.5373	0.0023
683.7203	0.008
683.9034	-0.002
684.0864	0.0016
684.2694	0.0095
684.4523	-0.0036
684.6353	0.0018
684.8182	0.0041
685.0011	0.0036
685.184	-0.0056
685.3669	0.0112
685.5498	-0.007
685.7326	-0.0159
685.9154	-0.0069
686.0982	0.0078
686.281	-0.0014
686.4638	0.0147
686.6465	0.0055
686.8293	-0.011
687.012	0.0106
687.1947	-0.004
687.3774	0.0034
687.56	-0.0212
687.7427	0.005
687.9253	-0.0256
688.1079	0.0029
688.2905	-0.0049
688.4731	0.0151
688.6556	-0.004
688.8382	-0.0243
689.0207	-0.0008
689.2032	0.0274
689.3857	-0.0032
689.5681	-0.0031
689.7506	0.0389
689.933	-0.0056
690.1154	-0.004
690.2978	0.0022
690.4802	0.012
690.6626	0.0198
690.8449	-0.0019
691.0272	-0.0097
691.2095	-0.0276
691.3918	0.0116
691.5741	0.0106
691.7563	0.0009
691.9386	-0.0032
692.1208	-0.0052
692.303	-0.0122
692.4852	-0.0015
692.6673	0.0046
692.8495	-0.0133
693.0316	0.0163
693.2137	0.0091
693.3958	0.004
693.5778	0.0046
693.7599	-0.0079
693.9419	-0.0008
694.1239	0.0106
694.3059	0.009
694.4879	0.0113
694.6699	-0.009
694.8518	0.0166
695.0337	-0.0063
695.2157	0.0161
695.3975	-0.0157
695.5794	-0.0204
695.7613	-0.0009
695.9431	-0.0382
696.1249	0.025
696.3067	-0.0091
696.4885	0.0035
696.6703	0.0186
696.852	-0.0106
697.0337	0.0009
697.2154	0.0045
697.3971	0.0034
697.5788	0.0124
697.7605	-0.01
697.9421	0.0142
698.1237	0.023
698.3053	0.0042
698.4869	0.0268
698.6685	-0.0057
698.85	0.0047
699.0315	0.0015
699.213	-0.0025
699.3945	-0.0031
699.576	0.005
699.7575	0.0139
699.9389	-0.0165
700.1203	0.0339
700.3017	-0.0075
700.4831	0.0274
700.6645	0.0148
700.8458	0.0206
701.0271	0.032
701.2084	0.0252
701.3897	0.0014
701.571	-0.0113
701.7523	0.0125
701.9335	0.0084
702.1147	0.0088
702.2959	-0.0104
702.4771	0.0141
702.6583	-0.0076
702.8394	-0.0378
703.0205	0.0036
703.2016	-0.0069
703.3827	-0.0145
703.5638	0.0232
703.7449	0.0338
703.9259	0.0237
704.1069	-0.0389
704.2879	-0.0052
704.4689	-0.0165
704.6499	0.0209
704.8308	0.014
705.0117	-0.0112
705.1927	0.0304
705.3735	0.0013
705.5544	0.0103
705.7353	-0.0194
705.9161	-0.0279
706.0969	0.0188
706.2777	-0.0079
706.4585	0.013
706.6393	0.0195
706.82	0.0099
707.0007	-0.0035
707.1815	-0.0063
707.3621	0.0096
707.5428	0.0074
707.7235	-0.0081
707.9041	-0.0057
708.0847	-0.0096
708.2653	0.0122
708.4459	-0.0042
708.6265	-0.0139
708.807	0.0044
708.9875	-0.0073
709.168	-0.0205
709.3485	0.0071
709.529	0.0161
709.7095	-0.0238
709.8899	-0.0059
710.0703	-0.001
710.2507	0.0059
710.4311	-0.031
710.6115	0.0195
710.7918	0.0204
710.9721	0.0176
711.1524	-0.0171
711.3327	-0.0186
711.513	-0.0076
711.6932	0.018
711.8735	0.0317
712.0537	-0.0129
712.2339	0.0105
712.4141	0.0198
712.5942	-0.0091
712.7744	-0.004
712.9545	0.0175
713.1346	0.0027
713.3147	-0.0034
713.4947	-0.0096
713.6748	0.02
713.8548	0.0088
714.0348	0.0235
714.2148	-0.0017
714.3948	-0.006
714.5748	-0.0056
714.7547	0.0186
714.9346	0.0048
715.1145	0.0042
715.2944	-0.0427
715.4743	0.0284
715.6541	-0.0422
715.834	0.0118
716.0138	0.0071
716.1936	0.0063
716.3733	0.0188
716.5531	-0.0144
716.7328	-0.0012
716.9126	0.007
717.0923	0.0053
717.2719	-0.0001
717.4516	0.0003
717.6312	-0.0122
717.8109	0.0177
717.9905	0.0382
718.1701	0.0118
718.3496	-0.0148
718.5292	0.0003
718.7087	-0.0001
718.8882	0.0067
719.0677	-0.003
719.2472	-0.0083
719.4267	-0.0001
719.6061	-0.0234
719.7856	0.0176
719.965	0.0162
720.1443	0.0154
720.3237	-0.0079
720.5031	0.0007
720.6824	0.0068
720.8617	0.0003
721.041	0.0241
721.2203	-0.012
721.3995	-0.0147
721.5788	-0.0067
721.758	-0.003
721.9372	0.0031
722.1164	0.0116
722.2956	-0.0092
722.4747	0.0141
722.6538	-0.0054
722.8329	0.0112
723.012	-0.0277
723.1911	-0.0081
723.3702	0.0227
723.5492	-0.0001
723.7282	-0.0048
723.9072	0.0025
724.0862	-0.0076
724.2652	0.0016
724.4441	0.0216
724.623	0.0101
724.8019	0.0053
724.9808	0.0085
725.1597	0.018
725.3385	-0.0055
725.5174	0.015
725.6962	0.0176
725.875	0.0096
726.0538	0.002
726.2325	0.0224
726.4112	-0.0046
726.59	-0.0237
726.7687	-0.003
726.9474	-0.0077
727.126	0.0375
727.3047	-0.0148
727.4833	-0.0087
727.6619	-0.0197
727.8405	-0.0116
728.0191	0.0251
728.1976	-0.0088
728.3762	0.0228
728.5547	-0.0193
728.7332	0.0086
728.9116	0.0168
729.0901	-0.0134
729.2686	0.0255
729.447	-0.0048
729.6254	0.013
729.8038	0.0079
729.9821	-0.0119
730.1605	0.0076
730.3388	-0.005
730.5171	0.0163
730.6954	-0.0072
730.8737	-0.0121
731.0519	-0.0228
731.2302	0.0033
731.4084	-0.0077
731.5866	-0.0163
731.7648	-0.0001
731.9429	0.0231
732.1211	-0.0086
732.2992	-0.0012
732.4773	-0.0104
732.6554	-0.0023
732.8335	0.0087
733.0115	0.0109
733.1896	-0.0075
733.3676	0.0037
733.5456	-0.0059
733.7235	-0.0141
733.9015	0.0002
734.0794	-0.0051
734.2574	-0.0186
734.4353	0.0123
734.6131	-0.0202
734.791	0.0005
734.9689	0.0031
735.1467	0.0044
735.3245	0.0034
735.5023	0.0134
735.68	0.004
735.8578	0.0102
736.0355	0.0042
736.2132	-0.0095
736.3909	0.0209
736.5686	-0.02
736.7463	-0.0125
736.9239	0.014
737.1015	0.0071
737.2791	-0.0073
737.4567	0.0221
737.6343	-0.01
737.8118	-0.0136
737.9894	-0.0098
738.1669	-0.0041
738.3444	0.0169
738.5218	-0.0183
738.6993	0.0184
738.8767	0.0147
739.0541	-0.0123
739.2315	0.0055
739.4089	0.0223
739.5863	0.0041
739.7636	0.0037
739.9409	-0.0055
740.1182	0.0011
740.2955	0.0453
740.4728	-0.01
740.65	0.0069
740.8272	0.0383
741.0044	-0.0121
741.1816	-0.0084
741.3588	-0.0217
741.5359	-0.0235
741.7131	0.0052
741.8902	0.0224
742.0673	-0.0083
742.2444	0.0063
742.4214	0.0313
742.5985	-0.0299
742.7755	-0.0035
742.9525	-0.0217
743.1295	-0.0326
743.3064	0.0137
743.4834	0.0004
743.6603	0.0298
743.8372	-0.0515
744.0141	0.0414
744.191	-0.0048
744.3678	-0.0321
744.5446	0.0211
744.7215	0.0017
744.8982	-0.011
745.075	0.0449
745.2518	0.0156
745.4285	0.036
745.6052	-0.0466
745.7819	0.0199
745.9586	0.0072
746.1353	-0.0273
746.3119	-0.0117
746.4885	0.0233
746.6651	0.0081
746.8417	0.0041
747.0183	0.0289
747.1948	0.0284
747.3714	-0.0062
747.5479	0.0307
747.7244	0.0469
747.9008	0.0245
748.0773	0.0073
748.2537	0.015
748.4301	0.0269
748.6065	-0.0099
748.7829	-0.0292
748.9593	-0.0088
749.1356	-0.0089
749.3119	0.0197
749.4882	0.0288
749.6645	-0.0001
749.8408	0.0105
750.017	0.007
750.1933	-0.0235
750.3695	-0.0033
750.5457	-0.0173
750.7218	-0.0042
750.898	-0.0084
751.0741	0.0093
751.2502	0.0033
751.4263	0.0121
751.6024	0.0121
751.7784	-0.0118
751.9545	-0.0041
752.1305	0.0137
752.3065	0.005
752.4825	-0.0033
752.6584	0.009
752.8344	-0.022
753.0103	-0.0156
753.1862	0.0041
753.3621	0.0058
753.5379	-0.0074
753.7138	-0.0108
753.8896	-0.0064
754.0654	-0.0134
754.2412	0.0201
754.417	0.0125
754.5927	-0.0187
754.7685	-0.0035
754.9442	0.0082
755.1199	0.0099
755.2956	0.0178
755.4712	0.0065
755.6469	0.0019
755.8225	0.0126
755.9981	-0.0089
756.1736	-0.0181
756.3492	0.0056
756.5248	0.0052
756.7003	-0.0219
756.8758	-0.0043
757.0513	-0.0076
757.2267	0.0119
757.4022	-0.0137
757.5776	-0.0113
757.753	0.0174
757.9284	-0.0046
758.1038	0.0249
758.2791	0.0058
758.4545	0.0002
758.6298	0.0026
758.8051	-0.0021
758.9803	0.0033
759.1556	0.0101
759.3308	-0.0101
759.506	0.0015
759.6812	-0.0047
759.8564	-0.0098
760.0316	-0.0149
760.2067	0.0208
760.3819	-0.0049
760.557	-0.0127
760.732	-0.0079
760.9071	0.0223
761.0821	-0.0118
761.2572	0.0094
761.4322	0.0271
761.6072	-0.0085
761.7821	-0.0378
761.9571	-0.0036
762.132	0.001
762.3069	0.0093
762.4818	-0.0005
762.6567	-0.0232
762.8316	0.0237
763.0064	0.0296
763.1812	-0.0011
763.356	-0.0216
763.5308	0.0202
763.7055	0.0068
763.8803	0.0013
764.055	-0.0238
764.2297	-0.0114
764.4044	-0.0086
764.579	-0.003
764.7537	-0.0168
764.9283	0.0167
765.1029	-0.0039
765.2775	0.0273
765.4521	0.0131
765.6266	-0.0053
765.8011	0.0085
765.9756	0.0168
766.1501	0.0045
766.3246	0.0049
766.4991	0.0317
766.6735	0.0234
766.8479	-0.0122
767.0223	0.0131
767.1967	0.0055
767.371	0.0061
767.5454	-0.0062
767.7197	0.0272
767.894	0.0039
768.0683	0.0179
768.2425	0.0163
768.4168	-0.0004
768.591	0.0055
768.7652	0.0156
768.9394	-0.024
769.1135	0.0064
769.2877	0.0222
769.4618	0.0165
769.6359	0.0104
769.81	0.0032
769.984	0.0105
770.1581	0.0022
770.3321	0.0379
770.5061	0.0079
770.6801	0.0093
770.8541	0.0027
771.028	0.0467
771.202	0.001
771.3759	0.0003
771.5498	0.0338
771.7236	-0.0081
771.8975	0.0082
772.0713	0.0176
772.2451	0.0013
772.4189	-0.0035
772.5927	-0.0483
772.7665	-0.0192
772.9402	0.0164
773.1139	0.0231
773.2876	-0.034
773.4613	0.023
773.635	0.0326
773.8086	0.0399
773.9822	0.0527
774.1558	0.0549
774.3294	0.0012
774.503	-0.0098
774.6765	0.0095
774.8501	0.0033
775.0236	0.0296
775.1971	-0.058
775.3705	-0.0071
775.544	-0.0359
775.7174	0.04
775.8908	-0.0106
776.0642	-0.0218
776.2376	0.0371
776.4109	-0.0028
776.5843	-0.0258
776.7576	-0.0102
776.9309	0.0185
777.1041	-0.0201
777.2774	-0.0188
777.4506	0.0041
777.6238	0.0177
777.797	0.0207
777.9702	-0.0041
778.1434	-0.0038
778.3165	-0.0057
778.4896	-0.0481
778.6627	0.0175
778.8358	0.0028
779.0089	-0.0161
779.1819	0.0151
779.3549	0.0128
779.5279	-0.0167
779.7009	0.0376
779.8739	0.0647
780.0468	-0.0208
780.2197	-0.0061
780.3926	-0.0237
780.5655	0.0168
780.7384	0.0004
780.9112	0.0147
781.0841	0.0013
781.2569	0.0206
781.4297	0.0105
781.6024	0.01
781.7752	0.0482
781.9479	0.0503
782.1206	-0.0033
782.2933	0.0102
782.466	0.0123
782.6386	0.0056
782.8113	0.011
782.9839	-0.0146
783.1565	-0.0018
783.329	-0.0042
783.5016	-0.0119
783.6741	0.0097
783.8466	0.0389
784.0191	0.0137
784.1916	-0.0625
784.3641	-0.0335
784.5365	-0.0017
784.7089	-0.0535
784.8813	0.0488
785.0537	0.0252
785.2261	-0.0302
785.3984	0.0019
785.5707	-0.026
785.743	0.0181
785.9153	-0.0232
786.0876	-0.0415
786.2598	-0.0069
786.432	-0.0061
786.6042	-0.0021
786.7764	0.0144
786.9486	-0.0145
787.1207	0.0345
787.2928	0.0523
787.4649	0.011
787.637	-0.0066
787.8091	0.0004
787.9811	0.0313
788.1532	0.0338
788.3252	-0.0059
788.4972	-0.0072
788.6691	0.0063
788.8411	0.0084
789.013	-0.0137
789.1849	-0.0134
789.3568	-0.0064
789.5287	0.0458
789.7005	-0.0105
789.8723	-0.0195
790.0442	-0.0062
790.2159	-0.0125
790.3877	0.0486
790.5595	0.0468
790.7312	-0.0357
790.9029	0.0197
791.0746	-0.0137
791.2463	-0.0629
791.4179	-0.0178
791.5896	0.0007
791.7612	0.0417
791.9328	0.0123
792.1044	-0.0082
792.2759	-0.0646
792.4474	0.0115
792.619	-0.0137
792.7905	0.0568
792.9619	0.0409
793.1334	0.0657
793.3048	0.0675
793.4762	0.0152
793.6476	-0.0599
793.819	0.0045
793.9904	-0.0174
794.1617	-0.0094
794.333	-0.0384
794.5043	0.0593
794.6756	-0.0064
794.8469	0.0347
795.0181	0.0211
795.1893	0.0202
795.3605	0.0129
795.5317	-0.0112
795.7029	-0.0271
795.874	0.0073
796.0452	0.0424
796.2163	0.0502
796.3873	0.0311
796.5584	0.0312
796.7294	-0.0562
796.9005	0.0525
797.0715	-0.0249
797.2425	0.0684
797.4134	0.0398
797.5844	0.0097
797.7553	-0.0582
797.9262	0.0989
798.0971	0.0456
798.2679	0.0145
798.4388	-0.0328
798.6096	0.0024
798.7804	-0.0027
798.9512	0.0299
799.122	0.0234
799.2927	0.0119
799.4635	-0.0573
799.6342	0.0264
799.8049	0.0665
799.9755	0.0144
800.1462	-0.0177
800.3168	0.0116
800.4874	-0.0776
800.658	0.1127
800.8286	0.0106
800.9991	-0.0188
801.1696	0.0251
801.3402	-0.0603
801.5106	0.106
801.6811	-0.0296
801.8516	0.112
802.022	0.0168
802.1924	-0.0128
802.3628	-0.0159
802.5332	0.1245
802.7035	0.0012
802.8739	-0.0377
803.0442	0.0245
803.2145	0.03
803.3847	0.0235
803.555	0.0142
803.7252	0.0366
803.8954	-0.0133
804.0656	-0.0019
804.2358	-0.0165
804.4059	0.0557
804.5761	-0.0637
804.7462	-0.0004
804.9163	-0.0422
805.0864	-0.0225
805.2564	-0.0521
805.4264	0.0233
805.5965	0.0139
805.7665	0.0246
805.9364	-0.0516
806.1064	0.0021
806.2763	0.086
806.4462	0.0415
806.6161	0.0033
806.786	0.0276
806.9559	0.0027
807.1257	0.0008
807.2955	-0.0472
807.4653	0.0167
807.6351	0.0474
807.8048	0.0107
807.9746	-0.0233
808.1443	-0.003
808.314	0.0557
808.4837	-0.0162
808.6533	-0.0217
808.8229	0.0238
808.9926	0.0882
809.1622	-0.0118
809.3317	-0.0887
809.5013	-0.0439
809.6708	-0.052
809.8403	0.0696
810.0098	-0.0092
810.1793	-0.0734
810.3488	-0.0338
810.5182	0.0918
810.6876	-0.0908
810.857	-0.0365
811.0264	-0.0971
811.1958	0.0811
811.3651	-0.0699
811.5344	0.0515
811.7037	0.0618
811.873	0.0782
812.0422	-0.0424
812.2115	0.0383
812.3807	-0.1043
812.5499	-0.0258
812.7191	-0.1923
812.8882	-0.0909
813.0574	0.0262
813.2265	0.0574
813.3956	0.0502
813.5646	0.0251
813.7337	0.0408
813.9027	0.027
814.0718	0.0503
814.2407	-0.0328
814.4097	0.0137
814.5787	0.0484
814.7476	0.019
814.9165	0.0426
815.0854	-0.0384
815.2543	-0.1445
815.4232	0.0107
815.592	-0.0227
815.7608	-0.0504
815.9296	-0.0144
816.0984	0.0884
816.2671	-0.0436
816.4359	0.0254
816.6046	-0.0008
816.7733	0.0902
816.942	-0.065
817.1106	0.0503
817.2793	-0.0419
817.4479	-0.0053
817.6165	-0.0005
817.785	0.0702
817.9536	-0.0507
818.1221	0.0405
818.2906	-0.1859
818.4591	0.0084
818.6276	-0.0267
818.7961	-0.0545
818.9645	0.0202
819.1329	-0.0596
819.3013	-0.0972
819.4697	-0.0715
819.638	-0.0479
819.8064	-0.0729
819.9747	0.0938
820.143	-0.0278
820.3113	-0.0101
820.4795	0.0188
820.6477	-0.0006
820.816	0.0976
820.9842	0.0344
821.1523	-0.0187
821.3205	0.0578
821.4886	-0.0756
821.6567	-0.1268
821.8248	0.1958
821.9929	-0.176
822.1609	0.0601
822.329	0.0113
822.497	0.1269
822.665	-0.0378
822.833	0.0466
823.0009	-0.1629
823.1688	0.0075
823.3367	-0.0123
823.5046	0.1032
823.6725	-0.1443
823.8404	-0.0551
824.0082	-0.0865
824.176	-0.016
824.3438	0.1529
824.5116	0.1986
824.6793	0.07
824.847	-0.0456
825.0147	0.0445
825.1824	-0.0175
825.3501	0.014
825.5177	-0.0343
825.6854	-0.1519
825.853	-0.0213
826.0206	-0.0185
826.1881	0.0252
826.3557	-0.0509
826.5232	0.1446
826.6907	0.0906
826.8582	-0.0259
827.0257	0.0193
827.1931	0.0775
827.3605	-0.0647
827.528	-0.2044
827.6953	-0.1909
827.8627	-0.1773
828.03	0.0278
828.1974	-0.0042
828.3647	0.013
828.532	0.0721
828.6992	0.1536
828.8665	-0.0355
829.0337	-0.0796
829.2009	-0.0925
829.3681	0.1361
829.5352	-0.2262
829.7024	0.0399
829.8695	0.0345
830.0366	0.0457
830.2037	0.0475
830.3707	-0.0008
830.5378	-0.1685
830.7048	-0.1744
830.8718	0.1003
831.0388	-0.0963
831.2057	0.423
831.3727	-0.268
831.5396	0.4632
831.7065	-0.9579
831.8734	0.145
832.0402	0.203
832.2071	-0.4905
832.3739	-0.1137
832.5407	-1.8659
832.7075	-0.5536
832.8742	0.3084
833.041	0.2244
833.2077	0.187
833.3744	0.1962
833.541	0.069
833.7077	0.0111
833.8743	0.0429
834.0409	0.0165
834.2075	0.0426
834.3741	-0.1492
834.5407	0.0316
834.7072	0.0728
834.8737	0.0379
835.0402	0.3563
835.2067	-0.2795
835.3731	-0.1345
835.5395	-0.136
835.706	0.378
835.8723	-0.1368
836.0387	0.0729
836.2051	0.0872
836.3714	0.0564
836.5377	-0.0251
836.704	0.1892
836.8703	-0.1419
837.0365	-0.7717
837.2027	0.1708
837.3689	0.1139
837.5351	0.1962
837.7013	-0.2789
837.8674	-0.2693
838.0335	-0.0064
838.1997	-0.1047
838.3657	-0
838.5318	-0
838.6978	-0
838.8639	-0.4014
839.0299	-0.0216
839.1958	0.0524
839.3618	-0.2711
839.5277	0.3763
839.6937	-0.1121
839.8596	-0.0714
840.0254	-0.0104
840.1913	-0.3935
840.3571	0.0391
840.523	-0
840.6888	-0.0254
840.8545	-0.5423
841.0203	0.0802
841.186	0.2015
841.3517	-0.0115
841.5174	0.6907
841.6831	0.8772
841.8488	-0.1616
842.0144	-0.113
842.18	0.1287
842.3456	-0.1514
842.5112	-0
842.6767	-0.2126
842.8422	0.0614
843.0077	0.2031
843.1732	-0
843.3387	0.0684
843.5042	-0
843.6696	-0.1857
843.835	0.1102
844.0004	-0.3242
844.1657	-0.7466
844.3311	-0
844.4964	-0.5827
844.6617	0.4777
844.827	-0
844.9923	0.3412
845.1575	0.8168
845.3227	-0.1406
845.4879	-0.4472
845.6531	-0.0113
845.8183	0.1481
845.9834	0.1499
846.1485	0.7812
846.3136	-0.1396
846.4787	-0
846.6438	-0.2921
846.8088	0.1794
846.9738	-0.7834
847.1388	1.4261
847.3038	0.8955
847.4687	-0
847.6337	-0.2503
847.7986	-0.2987
847.9635	0.2133
848.1284	-0
848.2932	-0
848.458	-0
848.6228	-0.0146
848.7876	-0
848.9524	-0.3699
849.1172	-1.7634
849.2819	-0
849.4466	0.3255
849.6113	0.3518
849.7759	-0
849.9406	-0.1076
850.1052	-0.4847
850.2698	0.1558
850.4344	-0.3951
850.599	-0
850.7635	0.4778
850.928	0.3539
851.0925	0.2341
851.257	0.4399
851.4215	-0.0035
851.5859	-0.0718
851.7503	-0
851.9147	0.9006
852.0791	-0.0189
852.2434	0.2342
852.4078	-0
852.5721	0.3003
852.7364	-0.0423
852.9007	0.0248
853.0649	-0
853.2291	-0
853.3934	-0
853.5575	-0.0253
853.7217	0.4299
853.8859	-0
854.05	-0.4065
854.2141	0.3152
854.3782	-0.3311
854.5423	0.1042
854.7063	-0.1436
854.8703	0.1087
855.0343	-0.1523
855.1983	0.3653
855.3623	0.0707
855.5262	-0
855.6901	0.1319
855.854	0.0165
856.0179	0.0285
856.1818	0.2906
856.3456	0.5215
856.5094	-0.7179
856.6732	-0
856.837	-1.3347
857.0008	-0.3176
857.1645	0.2992
857.3282	-0.4472
857.4919	0.0139
857.6556	-0.5531
857.8192	0.1228
857.9828	-0.0351
858.1465	-0.0401
858.31	0.6684
858.4736	-0.6466
858.6372	0.196
858.8007	-0
858.9642	0.5597
859.1277	-0
859.2911	-0.1047
859.4546	-0
859.618	-0
859.7814	-0.4912
859.9448	-0.0316
860.1081	0.2723
860.2715	-0.6864
860.4348	0.1676
860.5981	-0.009
860.7614	0.2979
860.9246	-0.1255
861.0879	0.0571
861.2511	0.5781
861.4143	-0
861.5774	0.0515
861.7406	-0.3077
861.9037	-0
862.0668	-0.9603
862.2299	0.0611
862.393	-0
862.556	-0
862.7191	-0.7149
862.8821	0.0035
863.0451	0.1304
863.208	-0.6148
863.371	-0.6442
863.5339	0.249
863.6968	-0.0132
863.8597	1.2718
864.0225	-0.0451
864.1854	-0
864.3482	-0.8627
864.511	0.0207
864.6737	-0
864.8365	0.2063
864.9992	-0.2408
865.1619	-0
865.3246	-1.8142
865.4873	-0
865.65	0.1853
865.8126	-0
865.9752	-0.5328
866.1378	0.4021
866.3004	-0.0468
866.4629	-1.4853
866.6254	-0.5024
866.7879	-0.2527
866.9504	-0
867.1129	0.4796
867.2753	-0.1794
867.4377	0.1812
867.6001	-0
867.7625	-0.0637
867.9249	-0
868.0872	1.5353
868.2495	-0
868.4118	-0
868.5741	-0
868.7363	-0
868.8986	0.0131
869.0608	-0
869.223	-0.2061
869.3851	-0
869.5473	0.093
869.7094	-0
869.8715	-0.4805
870.0336	0.0694
870.1957	-0
870.3577	0.2286
870.5197	0.1742
870.6817	-0.6844
870.8437	-0.2204
871.0057	-0
871.1676	0.2244
871.3295	-0
871.4914	-0
871.6533	0.0797
871.8151	0.1493
871.977	-0.5219
872.1388	-0.0667
872.3006	-0.2393
872.4623	-0.3811
872.6241	-0
872.7858	0.4507
872.9475	0.3834
873.1092	-0.1723
873.2709	0.2843
873.4325	-1.8003
873.5941	-0
873.7557	-0
873.9173	-0.334
874.0789	0.088
874.2404	-0
874.4019	-0.0658
874.5634	-0
874.7249	-0
874.8863	-0
875.0478	0.1358
875.2092	0.4325
875.3706	0.1564
875.5319	-0
875.6933	-0
875.8546	-0
876.0159	-0.1156
876.1772	0.3979
876.3385	-0
876.4997	0.0248
876.6609	-0
876.8221	-0
876.9833	-0
877.1445	0.5838
877.3056	-1.3024
877.4667	-0.1796
877.6278	-0.0159
877.7889	-0
877.9499	-0
878.111	-0.5591
878.272	0.2465
878.433	-0.279
878.5939	0.1157
878.7549	-0
878.9158	-0.1488
879.0767	0.25
879.2376	-0.5977
879.3984	-0
879.5593	0.665
879.7201	-1.5315
879.8809	-0.3582
880.0417	-0.1227
880.2024	0.0069
880.3632	-0.3312
880.5239	-0.0897
880.6846	-0.8714
880.8452	-0.3222
881.0059	-0
881.1665	-0.1409
881.3271	0.593
881.4877	0.4692
881.6483	-1.0574
881.8088	-0
881.9693	-0
882.1298	-0
882.2903	-0
