Data from D4ACN5uM460nmA_Absorbance_13-05-41-510.txt Node
Date: Fri Feb 21 13:05:41 GMT 2025
User: LASERRRRR
Spectrometer: FLMT03099
Trigger mode: 0
Integration Time (sec): 1.500000E-2
Scans to average: 1
Electric dark correction enabled: true
Nonlinearity correction enabled: false
Boxcar width: 0
XAxis mode: Wavelengths
Number of Pixels in Spectrum: 3648
>>>>>Begin Spectral Data<<<<<
179.3399	-0.4337
179.5586	-0.4337
179.7771	-0.4337
179.9957	0.1936
180.2143	-0
180.4329	-0
180.6514	-0.8797
180.8699	-0
181.0885	-0
181.307	-0.0128
181.5255	0.0548
181.744	-0
181.9625	0.1944
182.181	-0
182.3994	-0.348
182.6179	-0
182.8363	0.089
183.0547	-0.2603
183.2732	0.1216
183.4916	0.1159
183.71	0.2354
183.9284	0.1309
184.1467	0.1033
184.3651	0.2174
184.5835	0.1488
184.8018	-0.0429
185.0201	-0.0267
185.2385	0.2478
185.4568	0.1592
185.6751	0.0947
185.8934	0.3523
186.1117	-0.2029
186.3299	0.353
186.5482	0.1471
186.7664	-0.0083
186.9847	-0.0605
187.2029	0.054
187.4211	-0.0247
187.6393	0.1329
187.8575	0.1882
188.0757	0.5027
188.2939	0.3224
188.512	0.2935
188.7302	0.0666
188.9483	0.164
189.1665	0.4042
189.3846	0.1704
189.6027	0.0794
189.8208	0.217
190.0389	0.2189
190.257	0.1169
190.475	0.0404
190.6931	0.0672
190.9111	0.1791
191.1292	0.1269
191.3472	0.0317
191.5652	0.1507
191.7832	0.1302
192.0012	0.0373
192.2192	0.2393
192.4371	0.0867
192.6551	0.2109
192.873	0.1359
193.091	0.2104
193.3089	0.1965
193.5268	0.1638
193.7447	0.1818
193.9626	0.2051
194.1805	0.17
194.3984	0.1751
194.6162	0.1981
194.8341	0.1531
195.0519	0.1807
195.2697	0.1824
195.4875	0.2726
195.7054	0.2507
195.9231	0.2267
196.1409	0.3288
196.3587	0.3311
196.5765	0.3489
196.7942	0.3428
197.012	0.3322
197.2297	0.306
197.4474	0.3582
197.6651	0.2936
197.8828	0.2938
198.1005	0.3488
198.3182	0.3841
198.5358	0.3193
198.7535	0.4336
198.9711	0.4359
199.1888	0.3323
199.4064	0.3661
199.624	0.3631
199.8416	0.3624
200.0592	0.3747
200.2767	0.4203
200.4943	0.376
200.7119	0.3606
200.9294	0.4009
201.1469	0.3951
201.3645	0.4196
201.582	0.3884
201.7995	0.4125
202.017	0.4021
202.2344	0.3631
202.4519	0.374
202.6694	0.354
202.8868	0.3373
203.1042	0.3629
203.3217	0.383
203.5391	0.3901
203.7565	0.347
203.9739	0.3681
204.1913	0.3307
204.4086	0.3669
204.626	0.3451
204.8433	0.3813
205.0607	0.3342
205.278	0.348
205.4953	0.3147
205.7126	0.3352
205.9299	0.3237
206.1472	0.3178
206.3644	0.325
206.5817	0.3424
206.7989	0.3286
207.0162	0.3057
207.2334	0.3052
207.4506	0.3157
207.6678	0.3105
207.885	0.2964
208.1022	0.3074
208.3194	0.2962
208.5365	0.2887
208.7537	0.2782
208.9708	0.2789
209.1879	0.2878
209.405	0.272
209.6222	0.2738
209.8392	0.2964
210.0563	0.2679
210.2734	0.2586
210.4905	0.2618
210.7075	0.2808
210.9245	0.2598
211.1416	0.2717
211.3586	0.2787
211.5756	0.2416
211.7926	0.2558
212.0096	0.2517
212.2265	0.263
212.4435	0.2729
212.6604	0.2516
212.8774	0.2446
213.0943	0.2625
213.3112	0.2426
213.5281	0.2626
213.745	0.235
213.9619	0.2436
214.1788	0.2653
214.3956	0.2451
214.6125	0.2586
214.8293	0.246
215.0461	0.2649
215.2629	0.2619
215.4798	0.2517
215.6965	0.2424
215.9133	0.2275
216.1301	0.2431
216.3469	0.2547
216.5636	0.2464
216.7803	0.2537
216.9971	0.2702
217.2138	0.2463
217.4305	0.2473
217.6472	0.2451
217.8639	0.2411
218.0805	0.2611
218.2972	0.2449
218.5138	0.2652
218.7305	0.2611
218.9471	0.2479
219.1637	0.2681
219.3803	0.2737
219.5969	0.2539
219.8135	0.2589
220.0301	0.2684
220.2466	0.2444
220.4632	0.2554
220.6797	0.2724
220.8962	0.2694
221.1127	0.2636
221.3292	0.2683
221.5457	0.2823
221.7622	0.2836
221.9787	0.2813
222.1951	0.2743
222.4116	0.2675
222.628	0.2843
222.8444	0.2819
223.0608	0.2718
223.2772	0.2732
223.4936	0.2772
223.71	0.2809
223.9264	0.2845
224.1427	0.2838
224.3591	0.286
224.5754	0.2902
224.7917	0.2888
225.008	0.2933
225.2243	0.3037
225.4406	0.2971
225.6569	0.3047
225.8732	0.3139
226.0894	0.3096
226.3057	0.3014
226.5219	0.3
226.7381	0.3264
226.9543	0.3007
227.1705	0.3204
227.3867	0.3194
227.6029	0.3311
227.8191	0.3457
228.0352	0.3339
228.2513	0.347
228.4675	0.3414
228.6836	0.3343
228.8997	0.3482
229.1158	0.3668
229.3319	0.3586
229.548	0.3476
229.764	0.3539
229.9801	0.3816
230.1961	0.3661
230.4121	0.3566
230.6282	0.382
230.8442	0.3839
231.0602	0.3852
231.2761	0.3761
231.4921	0.3855
231.7081	0.3821
231.924	0.3971
232.14	0.4099
232.3559	0.41
232.5718	0.4138
232.7877	0.4072
233.0036	0.4068
233.2195	0.4071
233.4353	0.4199
233.6512	0.4077
233.867	0.4124
234.0829	0.4198
234.2987	0.4185
234.5145	0.438
234.7303	0.43
234.9461	0.4329
235.1619	0.4499
235.3776	0.4326
235.5934	0.4342
235.8091	0.435
236.0249	0.4502
236.2406	0.45
236.4563	0.4478
236.672	0.4387
236.8877	0.4466
237.1034	0.4458
237.319	0.4552
237.5347	0.4508
237.7503	0.4407
237.966	0.47
238.1816	0.451
238.3972	0.4616
238.6128	0.4643
238.8284	0.4547
239.0439	0.4629
239.2595	0.457
239.475	0.4609
239.6906	0.4666
239.9061	0.4563
240.1216	0.4558
240.3371	0.469
240.5526	0.4539
240.7681	0.4553
240.9836	0.4517
241.199	0.446
241.4145	0.4502
241.6299	0.4478
241.8453	0.4341
242.0607	0.4349
242.2761	0.432
242.4915	0.4206
242.7069	0.4159
242.9223	0.4132
243.1376	0.4049
243.353	0.399
243.5683	0.3896
243.7836	0.376
243.9989	0.3741
244.2142	0.3695
244.4295	0.365
244.6448	0.3618
244.86	0.3478
245.0753	0.342
245.2905	0.3357
245.5057	0.3308
245.721	0.3262
245.9362	0.3212
246.1514	0.3183
246.3665	0.2992
246.5817	0.2995
246.7969	0.2885
247.012	0.2849
247.2271	0.2911
247.4423	0.2779
247.6574	0.2806
247.8725	0.2692
248.0876	0.2702
248.3026	0.2587
248.5177	0.255
248.7328	0.253
248.9478	0.2485
249.1628	0.2466
249.3779	0.2353
249.5929	0.2388
249.8079	0.2327
250.0228	0.2254
250.2378	0.2261
250.4528	0.23
250.6677	0.2182
250.8827	0.21
251.0976	0.2113
251.3125	0.2173
251.5274	0.2031
251.7423	0.2103
251.9572	0.2099
252.172	0.1993
252.3869	0.2042
252.6017	0.1947
252.8166	0.1998
253.0314	0.1964
253.2462	0.1947
253.461	0.1911
253.6758	0.1961
253.8906	0.1891
254.1053	0.1932
254.3201	0.1899
254.5348	0.1758
254.7496	0.1826
254.9643	0.1874
255.179	0.1818
255.3937	0.189
255.6083	0.1886
255.823	0.1808
256.0377	0.184
256.2523	0.185
256.467	0.1784
256.6816	0.1786
256.8962	0.1819
257.1108	0.18
257.3254	0.1847
257.54	0.1771
257.7545	0.1807
257.9691	0.1742
258.1836	0.1734
258.3981	0.1798
258.6127	0.174
258.8272	0.1823
259.0417	0.1767
259.2561	0.169
259.4706	0.1723
259.6851	0.1772
259.8995	0.1734
260.114	0.1715
260.3284	0.1709
260.5428	0.1746
260.7572	0.1695
260.9716	0.1786
261.186	0.1744
261.4003	0.1726
261.6147	0.1728
261.829	0.1762
262.0433	0.1739
262.2577	0.1803
262.472	0.1751
262.6863	0.1786
262.9005	0.1749
263.1148	0.1692
263.3291	0.1688
263.5433	0.1822
263.7576	0.1694
263.9718	0.1762
264.186	0.1774
264.4002	0.1713
264.6144	0.1811
264.8286	0.176
265.0427	0.1779
265.2569	0.1788
265.471	0.1765
265.6851	0.1743
265.8993	0.1716
266.1134	0.1731
266.3275	0.1754
266.5415	0.1732
266.7556	0.177
266.9697	0.1759
267.1837	0.1754
267.3978	0.178
267.6118	0.1708
267.8258	0.1786
268.0398	0.1713
268.2538	0.1738
268.4677	0.1666
268.6817	0.1721
268.8957	0.1714
269.1096	0.1617
269.3235	0.168
269.5374	0.1745
269.7514	0.1686
269.9652	0.1704
270.1791	0.1626
270.393	0.171
270.6068	0.1674
270.8207	0.1631
271.0345	0.1643
271.2483	0.1618
271.4622	0.1691
271.676	0.1645
271.8897	0.1661
272.1035	0.1724
272.3173	0.1649
272.531	0.1591
272.7448	0.1661
272.9585	0.1587
273.1722	0.1638
273.3859	0.1633
273.5996	0.1645
273.8133	0.1646
274.0269	0.1588
274.2406	0.1636
274.4542	0.1666
274.6679	0.168
274.8815	0.1724
275.0951	0.1758
275.3087	0.1699
275.5223	0.1647
275.7358	0.1662
275.9494	0.1704
276.1629	0.1706
276.3765	0.1715
276.59	0.1645
276.8035	0.1656
277.017	0.1695
277.2305	0.1735
277.444	0.1774
277.6574	0.173
277.8709	0.175
278.0843	0.1733
278.2978	0.1723
278.5112	0.1749
278.7246	0.1668
278.938	0.1737
279.1513	0.1784
279.3647	0.1712
279.5781	0.1702
279.7914	0.1754
280.0047	0.1742
280.2181	0.1706
280.4314	0.1755
280.6447	0.1786
280.8579	0.169
281.0712	0.1763
281.2845	0.1686
281.4977	0.1756
281.711	0.1722
281.9242	0.1747
282.1374	0.1769
282.3506	0.181
282.5638	0.1746
282.7769	0.173
282.9901	0.1779
283.2033	0.1749
283.4164	0.1784
283.6295	0.1807
283.8426	0.1789
284.0557	0.1835
284.2688	0.182
284.4819	0.1777
284.695	0.1851
284.908	0.1837
285.1211	0.1879
285.3341	0.1831
285.5471	0.1857
285.7601	0.1824
285.9731	0.1873
286.1861	0.1841
286.3991	0.182
286.612	0.1829
286.825	0.1841
287.0379	0.1872
287.2508	0.1792
287.4637	0.1887
287.6766	0.1924
287.8895	0.1816
288.1024	0.1904
288.3152	0.1909
288.5281	0.1875
288.7409	0.1916
288.9538	0.1957
289.1666	0.1844
289.3794	0.19
289.5922	0.1879
289.8049	0.189
290.0177	0.1892
290.2304	0.1857
290.4432	0.1915
290.6559	0.1911
290.8686	0.1951
291.0813	0.1965
291.294	0.1923
291.5067	0.1922
291.7194	0.1928
291.932	0.1836
292.1447	0.1928
292.3573	0.1917
292.5699	0.1954
292.7825	0.1881
292.9951	0.1948
293.2077	0.1917
293.4203	0.1932
293.6328	0.1947
293.8454	0.1949
294.0579	0.1942
294.2704	0.1961
294.4829	0.1926
294.6954	0.1945
294.9079	0.1926
295.1204	0.195
295.3328	0.1951
295.5453	0.1955
295.7577	0.1983
295.9701	0.1924
296.1825	0.1974
296.3949	0.1893
296.6073	0.1892
296.8197	0.1942
297.0321	0.1926
297.2444	0.1853
297.4567	0.194
297.6691	0.1875
297.8814	0.1917
298.0937	0.1935
298.306	0.1885
298.5182	0.1989
298.7305	0.1968
298.9428	0.1882
299.155	0.1909
299.3672	0.1912
299.5794	0.1967
299.7916	0.1911
300.0038	0.1908
300.216	0.1899
300.4282	0.1921
300.6403	0.1987
300.8525	0.1922
301.0646	0.1891
301.2767	0.1928
301.4888	0.1934
301.7009	0.1946
301.913	0.1928
302.125	0.1948
302.3371	0.1915
302.5491	0.192
302.7612	0.1957
302.9732	0.1945
303.1852	0.1899
303.3972	0.1961
303.6092	0.1926
303.8211	0.1952
304.0331	0.1917
304.245	0.1893
304.457	0.1868
304.6689	0.1917
304.8808	0.1865
305.0927	0.1857
305.3046	0.1823
305.5164	0.1827
305.7283	0.1823
305.9401	0.1765
306.152	0.1776
306.3638	0.1785
306.5756	0.1802
306.7874	0.1733
306.9992	0.1781
307.2109	0.1743
307.4227	0.1704
307.6344	0.1771
307.8462	0.1658
308.0579	0.1689
308.2696	0.1657
308.4813	0.1679
308.693	0.1601
308.9046	0.1639
309.1163	0.1566
309.328	0.1567
309.5396	0.1511
309.7512	0.149
309.9628	0.1537
310.1744	0.1488
310.386	0.1455
310.5976	0.1453
310.8091	0.152
311.0207	0.1432
311.2322	0.1354
311.4437	0.1371
311.6552	0.1409
311.8667	0.1405
312.0782	0.1368
312.2897	0.1406
312.5012	0.1336
312.7126	0.1332
312.924	0.1319
313.1355	0.1338
313.3469	0.1341
313.5583	0.1339
313.7696	0.1281
313.981	0.1329
314.1924	0.1259
314.4037	0.1229
314.6151	0.1279
314.8264	0.1282
315.0377	0.129
315.249	0.1263
315.4603	0.1255
315.6716	0.1266
315.8828	0.1237
316.0941	0.1214
316.3053	0.1228
316.5165	0.1246
316.7277	0.115
316.9389	0.1171
317.1501	0.1234
317.3613	0.124
317.5724	0.1249
317.7836	0.1148
317.9947	0.1143
318.2058	0.1159
318.417	0.12
318.6281	0.1205
318.8391	0.1197
319.0502	0.1187
319.2613	0.1187
319.4723	0.1205
319.6834	0.1211
319.8944	0.1182
320.1054	0.1177
320.3164	0.1146
320.5274	0.1194
320.7383	0.1139
320.9493	0.121
321.1602	0.1188
321.3712	0.1181
321.5821	0.1106
321.793	0.1209
322.0039	0.1183
322.2148	0.1205
322.4257	0.1168
322.6365	0.1164
322.8474	0.1245
323.0582	0.1217
323.269	0.1201
323.4798	0.1219
323.6906	0.1209
323.9014	0.1174
324.1122	0.1124
324.3229	0.1198
324.5337	0.1179
324.7444	0.1228
324.9551	0.1226
325.1658	0.1217
325.3765	0.125
325.5872	0.122
325.7979	0.1228
326.0085	0.1225
326.2192	0.1115
326.4298	0.1251
326.6404	0.1244
326.851	0.1218
327.0616	0.1273
327.2722	0.1219
327.4828	0.1237
327.6933	0.1258
327.9039	0.1199
328.1144	0.1217
328.3249	0.1264
328.5354	0.1235
328.7459	0.1265
328.9564	0.1251
329.1669	0.1264
329.3773	0.1247
329.5878	0.1194
329.7982	0.1264
330.0086	0.1276
330.219	0.1183
330.4294	0.1262
330.6398	0.1298
330.8502	0.1344
331.0605	0.1222
331.2708	0.1249
331.4812	0.1242
331.6915	0.1285
331.9018	0.127
332.1121	0.1289
332.3224	0.1263
332.5326	0.1289
332.7429	0.1273
332.9531	0.1303
333.1633	0.1262
333.3735	0.1262
333.5837	0.1291
333.7939	0.1289
334.0041	0.1337
334.2143	0.1276
334.4244	0.141
334.6346	0.1288
334.8447	0.1309
335.0548	0.1322
335.2649	0.1343
335.475	0.1336
335.685	0.1347
335.8951	0.1367
336.1051	0.1318
336.3152	0.1325
336.5252	0.1331
336.7352	0.1345
336.9452	0.1323
337.1552	0.134
337.3652	0.1296
337.5751	0.1275
337.7851	0.1339
337.995	0.137
338.2049	0.1369
338.4148	0.132
338.6247	0.1326
338.8346	0.1398
339.0445	0.1386
339.2543	0.1363
339.4642	0.1314
339.674	0.1346
339.8838	0.1387
340.0936	0.1397
340.3034	0.1385
340.5132	0.1332
340.7229	0.1386
340.9327	0.1481
341.1424	0.1385
341.3522	0.1277
341.5619	0.1407
341.7716	0.1441
341.9813	0.1444
342.1909	0.1424
342.4006	0.1486
342.6102	0.1425
342.8199	0.1475
343.0295	0.1386
343.2391	0.1468
343.4487	0.1474
343.6583	0.1565
343.8679	0.1446
344.0774	0.1467
344.287	0.1459
344.4965	0.1517
344.706	0.1518
344.9155	0.1462
345.125	0.1442
345.3345	0.155
345.544	0.1529
345.7534	0.1518
345.9629	0.1561
346.1723	0.1581
346.3817	0.1523
346.5911	0.1492
346.8005	0.1585
347.0099	0.1558
347.2193	0.1546
347.4286	0.1616
347.638	0.1616
347.8473	0.1611
348.0566	0.162
348.2659	0.163
348.4752	0.1599
348.6845	0.1636
348.8937	0.1625
349.103	0.1634
349.3122	0.1702
349.5214	0.1683
349.7306	0.1712
349.9398	0.1623
350.149	0.1592
350.3582	0.167
350.5674	0.1667
350.7765	0.1671
350.9856	0.1656
351.1948	0.1699
351.4039	0.1701
351.613	0.1733
351.822	0.1839
352.0311	0.176
352.2402	0.172
352.4492	0.1772
352.6582	0.1779
352.8672	0.1754
353.0762	0.1783
353.2852	0.1824
353.4942	0.1771
353.7032	0.185
353.9121	0.1767
354.1211	0.1782
354.33	0.1857
354.5389	0.1765
354.7478	0.1749
354.9567	0.185
355.1655	0.1848
355.3744	0.1772
355.5833	0.175
355.7921	0.1846
356.0009	0.1847
356.2097	0.1834
356.4185	0.184
356.6273	0.1834
356.8361	0.1823
357.0448	0.1844
357.2536	0.1885
357.4623	0.1867
357.671	0.1875
357.8797	0.1906
358.0884	0.1882
358.2971	0.1946
358.5057	0.204
358.7144	0.2061
358.923	0.1983
359.1316	0.1916
359.3402	0.1957
359.5488	0.1968
359.7574	0.2015
359.966	0.2027
360.1746	0.2006
360.3831	0.2049
360.5916	0.2092
360.8002	0.2085
361.0087	0.2004
361.2172	0.2132
361.4256	0.2105
361.6341	0.2105
361.8426	0.2024
362.051	0.2179
362.2594	0.2099
362.4678	0.2089
362.6762	0.2145
362.8846	0.2144
363.093	0.2177
363.3014	0.2274
363.5097	0.2166
363.718	0.2259
363.9264	0.2219
364.1347	0.2195
364.343	0.2258
364.5513	0.226
364.7595	0.2364
364.9678	0.2194
365.176	0.2213
365.3842	0.2305
365.5925	0.2297
365.8007	0.2276
366.0089	0.2358
366.217	0.2265
366.4252	0.235
366.6333	0.2325
366.8415	0.2358
367.0496	0.2341
367.2577	0.245
367.4658	0.233
367.6739	0.2316
367.882	0.2427
368.09	0.2399
368.2981	0.246
368.5061	0.2444
368.7141	0.2475
368.9221	0.2439
369.1301	0.249
369.3381	0.2523
369.5461	0.2483
369.754	0.2558
369.962	0.2524
370.1699	0.2576
370.3778	0.2613
370.5857	0.2531
370.7936	0.2504
371.0015	0.25
371.2093	0.2529
371.4172	0.2539
371.625	0.2634
371.8328	0.25
372.0406	0.2619
372.2484	0.2606
372.4562	0.2629
372.664	0.2637
372.8717	0.2625
373.0795	0.2668
373.2872	0.2701
373.4949	0.269
373.7026	0.263
373.9103	0.2608
374.118	0.2702
374.3256	0.2686
374.5333	0.2649
374.7409	0.2718
374.9485	0.2727
375.1561	0.2751
375.3637	0.2624
375.5713	0.2765
375.7789	0.2816
375.9864	0.2747
376.194	0.2926
376.4015	0.2786
376.609	0.2705
376.8165	0.2871
377.024	0.2772
377.2315	0.2917
377.4389	0.2842
377.6464	0.2927
377.8538	0.2868
378.0612	0.2766
378.2686	0.2797
378.476	0.2895
378.6834	0.2847
378.8908	0.2873
379.0981	0.2893
379.3055	0.2904
379.5128	0.2889
379.7201	0.2936
379.9274	0.2974
380.1347	0.2861
380.342	0.2948
380.5492	0.2924
380.7565	0.3006
380.9637	0.2983
381.1709	0.2917
381.3781	0.3003
381.5853	0.2935
381.7925	0.2882
381.9997	0.2904
382.2068	0.3001
382.4139	0.2959
382.6211	0.3061
382.8282	0.31
383.0353	0.3105
383.2424	0.3075
383.4494	0.3004
383.6565	0.2987
383.8635	0.3084
384.0706	0.3118
384.2776	0.3016
384.4846	0.3091
384.6916	0.3007
384.8986	0.3108
385.1055	0.315
385.3125	0.3089
385.5194	0.3126
385.7263	0.3106
385.9333	0.3086
386.1402	0.3113
386.347	0.306
386.5539	0.3049
386.7608	0.3006
386.9676	0.3088
387.1744	0.3061
387.3813	0.3022
387.5881	0.3044
387.7948	0.3172
388.0016	0.3218
388.2084	0.3175
388.4151	0.3042
388.6219	0.2989
388.8286	0.303
389.0353	0.309
389.242	0.3009
389.4487	0.3066
389.6553	0.2975
389.862	0.295
390.0686	0.3082
390.2753	0.2991
390.4819	0.3036
390.6885	0.3027
390.8951	0.3001
391.1016	0.3089
391.3082	0.2976
391.5147	0.2882
391.7213	0.2966
391.9278	0.2972
392.1343	0.3006
392.3408	0.2956
392.5473	0.2895
392.7537	0.2844
392.9602	0.2769
393.1666	0.2896
393.373	0.2849
393.5794	0.2871
393.7858	0.2875
393.9922	0.2784
394.1986	0.281
394.4049	0.2815
394.6113	0.2871
394.8176	0.2792
395.0239	0.2647
395.2302	0.28
395.4365	0.2854
395.6428	0.2772
395.8491	0.2802
396.0553	0.2746
396.2615	0.2763
396.4678	0.2733
396.674	0.26
396.8802	0.2692
397.0863	0.2557
397.2925	0.2763
397.4987	0.2692
397.7048	0.2641
397.9109	0.2595
398.117	0.2598
398.3231	0.2732
398.5292	0.2474
398.7353	0.2585
398.9413	0.2647
399.1474	0.2678
399.3534	0.258
399.5594	0.2668
399.7654	0.2637
399.9714	0.2627
400.1774	0.2669
400.3833	0.2575
400.5893	0.2637
400.7952	0.2654
401.0011	0.2723
401.207	0.2551
401.4129	0.2557
401.6188	0.2585
401.8247	0.2757
402.0305	0.265
402.2364	0.2718
402.4422	0.2691
402.648	0.2597
402.8538	0.2604
403.0596	0.26
403.2654	0.2626
403.4711	0.2649
403.6768	0.256
403.8826	0.2657
404.0883	0.26
404.294	0.2631
404.4997	0.279
404.7054	0.2663
404.911	0.2587
405.1167	0.2646
405.3223	0.26
405.5279	0.2575
405.7335	0.2588
405.9391	0.2648
406.1447	0.2653
406.3502	0.2593
406.5558	0.2622
406.7613	0.2661
406.9668	0.2554
407.1724	0.2573
407.3778	0.2609
407.5833	0.2452
407.7888	0.269
407.9942	0.2631
408.1997	0.2703
408.4051	0.2585
408.6105	0.2722
408.8159	0.2607
409.0213	0.2669
409.2267	0.2668
409.432	0.2563
409.6374	0.261
409.8427	0.2677
410.048	0.2624
410.2533	0.2663
410.4586	0.2553
410.6639	0.2643
410.8691	0.251
411.0744	0.2541
411.2796	0.2558
411.4848	0.2629
411.69	0.2526
411.8952	0.2636
412.1004	0.2576
412.3056	0.2553
412.5107	0.2618
412.7158	0.2688
412.921	0.2624
413.1261	0.2523
413.3312	0.2624
413.5362	0.2644
413.7413	0.262
413.9464	0.2543
414.1514	0.256
414.3564	0.2566
414.5614	0.2568
414.7664	0.2468
414.9714	0.2576
415.1764	0.2664
415.3813	0.249
415.5863	0.2546
415.7912	0.2582
415.9961	0.2585
416.201	0.257
416.4059	0.2478
416.6108	0.2529
416.8156	0.2513
417.0205	0.252
417.2253	0.2482
417.4301	0.2542
417.6349	0.244
417.8397	0.2554
418.0445	0.2501
418.2492	0.2522
418.454	0.2538
418.6587	0.2519
418.8634	0.2505
419.0681	0.2637
419.2728	0.2463
419.4775	0.2575
419.6822	0.2439
419.8868	0.2425
420.0915	0.2434
420.2961	0.2347
420.5007	0.2553
420.7053	0.2469
420.9099	0.2406
421.1144	0.2473
421.319	0.2354
421.5235	0.2316
421.728	0.2479
421.9325	0.2438
422.137	0.2272
422.3415	0.238
422.546	0.2375
422.7504	0.2318
422.9549	0.2418
423.1593	0.2347
423.3637	0.2265
423.5681	0.2401
423.7725	0.2321
423.9769	0.2353
424.1812	0.2281
424.3856	0.2262
424.5899	0.2295
424.7942	0.2302
424.9985	0.2279
425.2028	0.2329
425.4071	0.2318
425.6113	0.2306
425.8156	0.2192
426.0198	0.2214
426.224	0.2226
426.4282	0.2112
426.6324	0.2111
426.8366	0.216
427.0407	0.2045
427.2449	0.2147
427.449	0.2197
427.6531	0.2226
427.8572	0.2091
428.0613	0.2172
428.2654	0.2116
428.4694	0.2046
428.6735	0.2035
428.8775	0.197
429.0815	0.1996
429.2855	0.1974
429.4895	0.2039
429.6935	0.197
429.8975	0.1943
430.1014	0.2046
430.3053	0.1973
430.5093	0.1907
430.7132	0.1858
430.9171	0.1875
431.1209	0.1952
431.3248	0.176
431.5286	0.1742
431.7325	0.1831
431.9363	0.1795
432.1401	0.1775
432.3439	0.1724
432.5477	0.1683
432.7514	0.1729
432.9552	0.175
433.1589	0.1713
433.3627	0.1753
433.5664	0.1719
433.7701	0.1711
433.9737	0.1717
434.1774	0.1667
434.3811	0.1601
434.5847	0.1578
434.7883	0.161
434.9919	0.1589
435.1955	0.1576
435.3991	0.154
435.6027	0.1374
435.8062	0.1605
436.0098	0.1423
436.2133	0.1543
436.4168	0.1375
436.6203	0.1399
436.8238	0.1415
437.0272	0.1419
437.2307	0.1423
437.4341	0.1408
437.6375	0.1421
437.841	0.1253
438.0443	0.1357
438.2477	0.1243
438.4511	0.1252
438.6545	0.1229
438.8578	0.1203
439.0611	0.122
439.2644	0.1225
439.4677	0.1192
439.671	0.1107
439.8743	0.122
440.0775	0.1108
440.2808	0.1117
440.484	0.102
440.6872	0.1133
440.8904	0.096
441.0936	0.1132
441.2967	0.0937
441.4999	0.0974
441.703	0.0969
441.9062	0.1052
442.1093	0.1126
442.3124	0.0913
442.5155	0.0976
442.7185	0.0921
442.9216	0.0884
443.1246	0.0935
443.3276	0.0899
443.5307	0.0813
443.7337	0.0778
443.9366	0.083
444.1396	0.0768
444.3426	0.0822
444.5455	0.0868
444.7484	0.0711
444.9513	0.072
445.1542	0.0869
445.3571	0.0761
445.56	0.0673
445.7628	0.0785
445.9657	0.0672
446.1685	0.0793
446.3713	0.0717
446.5741	0.0716
446.7769	0.0725
446.9797	0.0649
447.1824	0.0645
447.3852	0.0578
447.5879	0.0547
447.7906	0.0554
447.9933	0.059
448.196	0.0555
448.3986	0.0525
448.6013	0.049
448.8039	0.0559
449.0066	0.0658
449.2092	0.0628
449.4118	0.0499
449.6143	0.0585
449.8169	0.0466
450.0195	0.0408
450.222	0.046
450.4245	0.047
450.627	0.0397
450.8295	0.0391
451.032	0.0421
451.2345	0.0332
451.4369	0.0371
451.6394	0.0423
451.8418	0.0457
452.0442	0.0463
452.2466	0.0314
452.449	0.0381
452.6513	0.0305
452.8537	0.039
453.056	0.0475
453.2583	0.0295
453.4607	0.0295
453.663	0.0332
453.8652	0.0271
454.0675	0.033
454.2697	0.0257
454.472	0.0227
454.6742	0.0323
454.8764	0.0284
455.0786	0.0305
455.2808	0.0304
455.4829	0.0328
455.6851	0.0286
455.8872	0.0092
456.0893	0.0297
456.2915	0.0191
456.4935	0.0308
456.6956	0.0202
456.8977	0.0289
457.0997	0.0295
457.3018	0.0234
457.5038	0.0291
457.7058	0.0303
457.9078	0.0289
458.1098	0.0284
458.3117	0.0287
458.5137	0.0149
458.7156	0.0221
458.9175	0.0258
459.1194	0.0177
459.3213	0.0181
459.5232	0.025
459.725	0.015
459.9269	0.0134
460.1287	0.015
460.3305	0.02
460.5323	0.0191
460.7341	0.0194
460.9359	0.0078
461.1376	0.0234
461.3394	0.0161
461.5411	0.0198
461.7428	0.0205
461.9445	0.0066
462.1462	0.0164
462.3479	0.0158
462.5495	0.0232
462.7512	0.0217
462.9528	0.0102
463.1544	0.0214
463.356	0.0111
463.5576	0.0169
463.7592	0.0108
463.9607	0.0107
464.1623	0.0126
464.3638	0.003
464.5653	0.0184
464.7668	0.0161
464.9683	0.0137
465.1697	0.009
465.3712	0.0063
465.5726	0.009
465.7741	0.0167
465.9755	0.0109
466.1769	0.013
466.3782	0.0032
466.5796	0.0167
466.7809	0.0131
466.9823	-0.0038
467.1836	0.009
467.3849	0.0066
467.5862	-0.0084
467.7875	0.0028
467.9887	0.0037
468.19	0.0083
468.3912	0.0215
468.5924	0.0093
468.7936	0.0063
468.9948	0.0003
469.196	0.0073
469.3972	-0.0021
469.5983	0.0131
469.7994	0.0157
470.0006	0.0089
470.2017	0.0127
470.4027	0.0243
470.6038	0.0007
470.8049	0.0081
471.0059	0.0073
471.2069	0.0135
471.408	0.0102
471.6089	0.0098
471.8099	0.0068
472.0109	0.0135
472.2119	0.0159
472.4128	0.0028
472.6137	0.0047
472.8146	0.0071
473.0155	0.0235
473.2164	0.0036
473.4173	0.0039
473.6181	0.0038
473.819	0.0046
474.0198	0.0036
474.2206	-0.0012
474.4214	0.0025
474.6222	-0.0064
474.8229	0.0027
475.0237	0.0071
475.2244	0.0057
475.4251	0.0047
475.6258	-0.0027
475.8265	0.005
476.0272	0.001
476.2278	0.0078
476.4285	-0.0015
476.6291	0.007
476.8297	0.0068
477.0303	-0.0021
477.2309	-0.0049
477.4315	0.0153
477.632	-0.0075
477.8326	0.0007
478.0331	0.0114
478.2336	0.0054
478.4341	0.0087
478.6346	0.0021
478.8351	0.0019
479.0355	0.009
479.236	0.004
479.4364	0.006
479.6368	0.0096
479.8372	0.0044
480.0376	0.0024
480.2379	0.0037
480.4383	0.0087
480.6386	-0.0037
480.8389	0.0022
481.0392	0.0026
481.2395	0.0142
481.4398	0.0051
481.6401	0.0127
481.8403	0.0023
482.0405	0.0029
482.2408	0.0083
482.441	0.0002
482.6411	0.0013
482.8413	-0.0022
483.0415	0.0113
483.2416	-0.0029
483.4417	0.0114
483.6419	0.0006
483.8419	0.006
484.042	0.0021
484.2421	-0.0011
484.4422	0.0044
484.6422	-0.0002
484.8422	0.0037
485.0422	0.006
485.2422	-0.0003
485.4422	0.0054
485.6422	0.0025
485.8421	0.0029
486.042	0.0099
486.242	-0.0013
486.4419	0.0065
486.6417	0.0008
486.8416	0.0011
487.0415	0.005
487.2413	-0.0022
487.4411	0.0104
487.641	0.0017
487.8408	0.0095
488.0405	0.0058
488.2403	-0.0049
488.4401	-0.0033
488.6398	0.0064
488.8395	0.0034
489.0392	0.003
489.2389	0.0072
489.4386	-0.0046
489.6383	-0.003
489.8379	0.0021
490.0376	0.0035
490.2372	-0.0025
490.4368	-0.0041
490.6364	-0.0014
490.836	-0.0019
491.0355	0.0046
491.2351	0.0026
491.4346	-0.0004
491.6341	-0.0021
491.8336	0.0059
492.0331	0.004
492.2326	0.0015
492.432	0.0049
492.6315	0.0025
492.8309	0.0047
493.0303	0.0044
493.2297	0.0003
493.4291	0.0015
493.6284	0.0123
493.8278	-0.0039
494.0271	-0.0014
494.2264	-0.0015
494.4257	0.0063
494.625	0.0041
494.8243	0.0015
495.0236	0.006
495.2228	0.0053
495.422	0.0008
495.6213	0.0036
495.8205	0.004
496.0196	0.0021
496.2188	0.0041
496.418	0.0063
496.6171	0.0009
496.8162	0.0052
497.0153	-0.0009
497.2144	-0.0018
497.4135	0.0051
497.6126	0.0101
497.8116	-0.0104
498.0107	-0.0011
498.2097	0.0086
498.4087	-0.0015
498.6077	0.0036
498.8067	0.0035
499.0056	-0.0018
499.2046	0.0084
499.4035	-0.0006
499.6024	-0.008
499.8013	0.0043
500.0002	0.0024
500.199	0.0066
500.3979	-0.0059
500.5967	-0.0009
500.7956	-0.0028
500.9944	0.0032
501.1932	0.013
501.3919	0.0134
501.5907	0.0094
501.7895	-0.0019
501.9882	0.0004
502.1869	0.0129
502.3856	0.0005
502.5843	0.0037
502.783	-0.0012
502.9816	0.0072
503.1803	-0.0004
503.3789	0.0011
503.5775	0.0018
503.7761	-0.0067
503.9747	0.0071
504.1732	-0.0015
504.3718	0.007
504.5703	-0.0012
504.7689	-0.0031
504.9674	0.0032
505.1658	0.0042
505.3643	0.0024
505.5628	0.0149
505.7612	0.011
505.9597	-0.008
506.1581	0.0016
506.3565	-0.0014
506.5549	0.0014
506.7532	-0.0008
506.9516	0.0058
507.1499	0.0052
507.3482	-0.0011
507.5465	0.0044
507.7448	0.0022
507.9431	0.0099
508.1414	-0.0056
508.3396	0.0058
508.5379	0.0059
508.7361	0.001
508.9343	0.0079
509.1325	0.0047
509.3306	-0.0041
509.5288	-0.0057
509.7269	0.0093
509.9251	0.0078
510.1232	0.0023
510.3213	0.0099
510.5193	-0.0029
510.7174	-0.0004
510.9154	0.004
511.1135	0.0047
511.3115	-0.0029
511.5095	-0.0042
511.7075	0.0032
511.9055	0.0023
512.1034	-0.0061
512.3014	0.0102
512.4993	0.0093
512.6972	0.0002
512.8951	-0.0017
513.093	0.0026
513.2908	0.0186
513.4887	0.0003
513.6865	0.0032
513.8844	0.0084
514.0822	-0.002
514.2799	-0.0106
514.4777	-0.0059
514.6755	-0.0005
514.8732	-0.0071
515.0709	0.0004
515.2687	-0.0005
515.4664	0.0111
515.664	0.0038
515.8617	0.0086
516.0594	-0.0002
516.257	-0.001
516.4546	0.0141
516.6522	0.003
516.8498	-0.0002
517.0474	0.0052
517.2449	-0.004
517.4425	-0.0004
517.64	-0.0003
517.8375	0.0135
518.035	-0.0062
518.2325	-0.0047
518.43	-0.0045
518.6274	-0.0004
518.8249	-0.0048
519.0223	0.0084
519.2197	-0.0006
519.4171	-0.0088
519.6145	0.0101
519.8118	-0.0163
520.0092	-0.0027
520.2065	0.0114
520.4038	0.0055
520.6011	-0.0021
520.7984	0.0065
520.9956	0.0051
521.1929	0.0031
521.3901	0.0004
521.5874	0.01
521.7846	-0.0075
521.9818	0.0031
522.1789	-0.0027
522.3761	0.0101
522.5732	-0.0002
522.7704	0.0018
522.9675	-0.016
523.1646	-0.0009
523.3617	0.0043
523.5587	-0.0048
523.7558	-0.0027
523.9528	0.0042
524.1498	0.0062
524.3468	0.0059
524.5438	0.0056
524.7408	-0.0041
524.9378	0.0035
525.1347	-0.0004
525.3316	0.0092
525.5285	0.0015
525.7254	0.0013
525.9223	0.0057
526.1192	-0.001
526.316	0.0009
526.5129	0.0104
526.7097	0.003
526.9065	0.0069
527.1033	-0.001
527.3	0.0038
527.4968	0.0029
527.6935	-0.0111
527.8903	-0.0036
528.087	0.0008
528.2837	0.0164
528.4804	-0.0066
528.677	0.0068
528.8737	-0.009
529.0703	-0.0066
529.2669	-0.0013
529.4635	0.0089
529.6601	-0.0002
529.8567	0.006
530.0532	0.0018
530.2498	-0.0065
530.4463	-0.0123
530.6428	0.003
530.8393	0.0097
531.0358	-0.0077
531.2322	-0.0023
531.4287	-0.005
531.6251	-0.0054
531.8215	0.0019
532.0179	0.0046
532.2143	0.0009
532.4107	-0.0018
532.607	-0.0041
532.8034	-0.0002
532.9997	0
533.196	-0.0074
533.3923	0.0149
533.5886	0.0035
533.7848	0.0112
533.9811	-0.0028
534.1773	-0.0031
534.3735	0.0065
534.5697	0.0077
534.7659	0.0005
534.9621	0.0035
535.1582	0.0041
535.3544	0.0071
535.5505	0.0054
535.7466	-0.0005
535.9427	-0.0009
536.1387	-0.0019
536.3348	0.0024
536.5308	-0.0098
536.7269	-0.0066
536.9229	0.0033
537.1189	0.0019
537.3148	-0.0022
537.5108	-0.0007
537.7068	0.0067
537.9027	-0.0092
538.0986	0.0062
538.2945	-0.0009
538.4904	-0.0057
538.6863	-0.0019
538.8821	0.014
539.078	0.0114
539.2738	-0.0015
539.4696	-0.0039
539.6654	-0.003
539.8611	0.0057
540.0569	0.0006
540.2526	0.0108
540.4484	-0.0095
540.6441	-0.0035
540.8398	0.0085
541.0355	-0.0098
541.2311	0.0032
541.4268	0.0026
541.6224	0.0114
541.818	-0.0033
542.0136	0.0068
542.2092	0.0047
542.4048	0.0042
542.6003	0.0026
542.7959	0.0055
542.9914	0.0056
543.1869	0.0015
543.3824	0.005
543.5779	0.0032
543.7734	0.0165
543.9688	0.0061
544.1642	-0.0048
544.3596	0.0027
544.555	0.0012
544.7504	0.0077
544.9458	0.0036
545.1411	0.0005
545.3365	-0.001
545.5318	0.0017
545.7271	0.0065
545.9224	-0.0029
546.1177	0.012
546.3129	0.008
546.5081	-0.0072
546.7034	0.0058
546.8986	0.0003
547.0938	0.0038
547.289	0.0108
547.4841	0.0067
547.6793	0.0044
547.8744	0.0084
548.0695	-0.0008
548.2646	-0.0018
548.4597	0.0011
548.6548	0.0121
548.8498	0.0035
549.0448	0.0039
549.2399	0.0125
549.4349	0.0053
549.6298	0.007
549.8248	-0.0013
550.0198	0.0008
550.2147	-0
550.4096	-0.0049
550.6045	0.0039
550.7994	-0.0034
550.9943	0.007
551.1892	-0.0164
551.384	0.0123
551.5788	0.0055
551.7737	0.0066
551.9685	-0.0033
552.1632	-0.0029
552.358	-0.0062
552.5528	0.0047
552.7475	0.0048
552.9422	0.0055
553.1369	0.011
553.3316	0.0056
553.5263	0.0038
553.7209	-0.0097
553.9156	-0.0004
554.1102	0.0078
554.3048	0.0024
554.4994	0.0044
554.694	0.002
554.8885	0.0015
555.0831	0.008
555.2776	0.0016
555.4721	0.0101
555.6666	0.0015
555.8611	0.0082
556.0555	-0.002
556.25	0.0062
556.4444	-0.0085
556.6388	-0.0044
556.8332	0.0002
557.0276	0.0024
557.222	-0.0007
557.4163	0.0048
557.6107	0.0107
557.805	-0.0074
557.9993	0.0145
558.1936	-0.0054
558.3879	0.0009
558.5821	-0.0146
558.7764	0.0014
558.9706	-0.0048
559.1648	0.014
559.359	-0.002
559.5532	-0.0068
559.7473	-0.0019
559.9415	0.003
560.1356	0.0094
560.3297	-0.0054
560.5238	0.0047
560.7179	-0.0031
560.9119	0.0068
561.106	-0.0076
561.3	0.0021
561.494	-0.0077
561.688	0.002
561.882	-0.002
562.076	0.0062
562.2699	0.0058
562.4639	0.0132
562.6578	0.0007
562.8517	0.0011
563.0456	0.0041
563.2395	-0.0023
563.4333	0.0018
563.6272	-0.0025
563.821	-0.0016
564.0148	-0.0014
564.2086	-0.002
564.4024	0.0079
564.5961	0.0014
564.7899	0.0057
564.9836	-0
565.1773	0.0051
565.371	-0.0021
565.5647	0.0022
565.7584	0.012
565.952	-0.0001
566.1456	-0.0052
566.3393	0.0034
566.5329	0.0015
566.7264	0.0048
566.92	0.0078
567.1136	0.0003
567.3071	-0.0072
567.5006	0.0005
567.6941	0.0032
567.8876	-0.0031
568.0811	0.0158
568.2745	-0.0019
568.468	0.0026
568.6614	0.0064
568.8548	0.0057
569.0482	0.0089
569.2416	0.0068
569.4349	0.0034
569.6283	0
569.8216	0.0051
570.0149	-0.0006
570.2082	0.0091
570.4015	-0.0002
570.5947	0.0008
570.788	0.0047
570.9812	0.0007
571.1744	0.003
571.3676	0.0032
571.5608	0.002
571.754	0.0014
571.9471	0.009
572.1402	0.0038
572.3333	0.0073
572.5264	0.0066
572.7195	0.0003
572.9126	0.001
573.1057	-0.0003
573.2987	0.0012
573.4917	0.0014
573.6847	0.0037
573.8777	0.0072
574.0707	0.0031
574.2636	0.0018
574.4566	-0.0014
574.6495	0.001
574.8424	0.0008
575.0353	0.0023
575.2281	0.0068
575.421	0.0001
575.6138	-0.0017
575.8067	-0.0014
575.9995	0.0042
576.1923	0.0025
576.385	0.005
576.5778	0.0069
576.7706	0.0052
576.9633	0.0044
577.156	-0.0009
577.3487	0.0036
577.5414	0.0027
577.734	0.0009
577.9267	0.0042
578.1193	0.0026
578.3119	-0.0003
578.5045	0.0006
578.6971	0.0028
578.8897	0.003
579.0822	0.0058
579.2747	0.0002
579.4673	0.0061
579.6598	0.0015
579.8522	0.0028
580.0447	0.0041
580.2372	0.0028
580.4296	0.0075
580.622	0.001
580.8144	0.0042
581.0068	0.0011
581.1992	0.0052
581.3915	0
581.5839	0.0018
581.7762	0.0022
581.9685	0.0013
582.1608	0.0016
582.353	0.002
582.5453	0.0027
582.7375	0.0034
582.9298	0.003
583.122	-0.0018
583.3142	0.0094
583.5063	-0.0015
583.6985	0.0004
583.8906	0.0035
584.0827	0.0052
584.2749	-0.0021
584.4669	0.0013
584.659	0.0071
584.8511	0.0068
585.0431	0.0056
585.2352	-0.0019
585.4272	0.002
585.6192	0.0033
585.8111	0.0043
586.0031	0.001
586.195	-0.0003
586.387	0.0002
586.5789	0.0023
586.7708	0.0079
586.9627	0.0056
587.1545	0.0021
587.3464	0.0008
587.5382	-0.0011
587.73	0.0077
587.9218	0.0024
588.1136	-0.0016
588.3053	0.0052
588.4971	0.0034
588.6888	-0
588.8805	-0.0034
589.0722	0.0081
589.2639	0.0034
589.4556	0.0013
589.6472	0.0074
589.8389	0.0048
590.0305	-0.0023
590.2221	0.0032
590.4137	-0.0032
590.6052	-0.0093
590.7968	-0.0024
590.9883	0.0031
591.1798	-0.0051
591.3713	-0.003
591.5628	0.0014
591.7543	0.0024
591.9458	0.0039
592.1372	0.0047
592.3286	-0.0013
592.52	0.0043
592.7114	-0.0008
592.9028	0.0094
593.0941	0.0005
593.2855	0.0026
593.4768	0.0113
593.6681	-0
593.8594	0.0082
594.0506	-0.0026
594.2419	0.0025
594.4331	0.0043
594.6244	-0.001
594.8156	0.0025
595.0067	-0.0015
595.1979	0.0006
595.3891	0.0031
595.5802	0.0024
595.7713	0.0033
595.9624	0.006
596.1535	0.0131
596.3446	-0.0023
596.5357	0.0036
596.7267	0.0024
596.9177	-0.0061
597.1087	0.0008
597.2997	-0.0009
597.4907	-0.0045
597.6817	0.0058
597.8726	0.0072
598.0635	0.0016
598.2544	0.0086
598.4453	0.0015
598.6362	0.0013
598.827	0.001
599.0179	0.0059
599.2087	0.0038
599.3995	0.0042
599.5903	0.0065
599.7811	0.0061
599.9718	0.0012
600.1626	0.0001
600.3533	-0.0004
600.544	0.0005
600.7347	0.0041
600.9254	0.0053
601.116	0.0041
601.3067	0.0006
601.4973	0.0026
601.6879	0.0011
601.8785	0.0049
602.0691	0.0026
602.2596	0.0033
602.4502	0.0017
602.6407	0.0019
602.8312	0.0043
603.0217	0.0036
603.2122	0.0046
603.4027	0.0034
603.5931	0.0009
603.7835	0.0033
603.9739	-0.0017
604.1643	0.0005
604.3547	0.0043
604.5451	0.0067
604.7354	0.001
604.9257	-0.009
605.116	-0.0038
605.3063	0.0003
605.4966	0.004
605.6869	0.0021
605.8771	0.0036
606.0673	0.0016
606.2575	0.0014
606.4477	0.008
606.6379	-0.0017
606.8281	-0.0012
607.0182	0.0018
607.2083	0.0034
607.3985	0.0016
607.5885	0.0005
607.7786	0.0014
607.9687	0.0018
608.1587	0.0039
608.3488	-0.001
608.5388	-0.0038
608.7288	0.001
608.9187	-0
609.1087	0.0098
609.2986	0.0031
609.4886	-0.0032
609.6785	0
609.8684	-0.0023
610.0582	-0.0033
610.2481	-0.0045
610.4379	0.0013
610.6278	0.0041
610.8176	0.0054
611.0074	0.0001
611.1971	-0.0019
611.3869	0.0003
611.5766	-0.0036
611.7664	0.0081
611.9561	0.0014
612.1458	0.0047
612.3354	0.006
612.5251	0.0039
612.7147	0.009
612.9044	0.0007
613.094	-0.0069
613.2836	-0.0051
613.4731	-0.0003
613.6627	0.0068
613.8522	0.0039
614.0417	0.0043
614.2313	-0.0059
614.4207	-0.0021
614.6102	0.0077
614.7997	0.0074
614.9891	0.0134
615.1785	-0.006
615.3679	0.0025
615.5573	0.0047
615.7467	-0.0063
615.9361	0.0026
616.1254	0.0031
616.3147	0.0049
616.504	-0.0062
616.6933	-0.0024
616.8826	0.0018
617.0718	0.0094
617.2611	0.0025
617.4503	-0.0025
617.6395	-0.0031
617.8287	0.0111
618.0179	0.0011
618.207	0.0066
618.3961	-0.0092
618.5853	0.0006
618.7744	0.004
618.9634	0.0113
619.1525	0.0053
619.3416	0.0049
619.5306	0.0036
619.7196	0.0065
619.9086	0.0014
620.0976	-0.0072
620.2866	0.0026
620.4755	-0.0064
620.6645	0.0176
620.8534	-0.0036
621.0423	-0.0088
621.2312	-0.0038
621.42	-0.0013
621.6089	-0.0074
621.7977	0.0058
621.9865	-0.0154
622.1753	-0.0054
622.3641	-0.0068
622.5529	-0.0057
622.7416	-0.0009
622.9303	-0.0057
623.1191	0.005
623.3078	0.0016
623.4964	-0.0032
623.6851	0.0029
623.8737	0.0055
624.0624	-0.0101
624.251	-0.0029
624.4396	0.004
624.6282	0.0061
624.8167	0.0091
625.0053	0.0061
625.1938	0.0008
625.3823	-0.001
625.5708	-0.0011
625.7593	0.004
625.9477	0.0022
626.1362	-0.0053
626.3246	-0.0003
626.513	0.0019
626.7014	0.0114
626.8898	0.0072
627.0781	0.0001
627.2665	0.0114
627.4548	-0.0102
627.6431	0.0079
627.8314	0.0134
628.0197	0.0066
628.2079	0.0022
628.3962	0.0109
628.5844	0
628.7726	-0.0022
628.9608	0.0015
629.1489	0.0041
629.3371	-0.0067
629.5252	0.0121
629.7134	-0.0045
629.9015	0.0134
630.0895	-0.0131
630.2776	0.0049
630.4657	0.0021
630.6537	0.0015
630.8417	-0.0143
631.0297	0.0016
631.2177	-0.0022
631.4057	0.0069
631.5936	-0.0107
631.7815	-0.0025
631.9695	0.0101
632.1574	0.004
632.3452	0.0013
632.5331	-0.0008
632.7209	0.0019
632.9088	-0.0005
633.0966	0.0089
633.2844	-0.0012
633.4722	0.0142
633.6599	0.0061
633.8477	0.0002
634.0354	0.0065
634.2231	-0.0095
634.4108	-0.0042
634.5985	0.0109
634.7861	-0.0029
634.9738	0.0057
635.1614	0.0069
635.349	-0.0077
635.5366	0.002
635.7242	0.0059
635.9117	0.0088
636.0993	-0.0033
636.2868	-0.0142
636.4743	-0.0051
636.6618	-0.0092
636.8492	0.0049
637.0367	-0.0111
637.2241	-0.0021
637.4115	0.0251
637.5989	-0.0106
637.7863	0.0275
637.9737	-0.0037
638.161	0.0028
638.3484	-0.0244
638.5357	0.001
638.723	0.0139
638.9103	-0.0183
639.0975	-0.0097
639.2848	0.0007
639.472	0.0105
639.6592	-0.0155
639.8464	-0.0021
640.0336	-0.0099
640.2208	-0.0097
640.4079	-0.0189
640.595	-0.02
640.7821	0.0065
640.9692	-0.0106
641.1563	-0.0084
641.3434	0.0055
641.5304	0.0134
641.7174	0.0002
641.9044	-0.0045
642.0914	0.0048
642.2784	-0.0094
642.4653	-0.0025
642.6523	-0.0144
642.8392	-0.0004
643.0261	-0.0002
643.213	0.0084
643.3999	-0.0033
643.5867	-0.0035
643.7735	0.0152
643.9604	0.0106
644.1472	-0.0081
644.3339	-0.0044
644.5207	-0.0026
644.7075	0.0111
644.8942	-0.0143
645.0809	-0.0162
645.2676	-0.0165
645.4543	-0.0145
645.6409	0.0263
645.8276	-0.0148
646.0142	-0.0062
646.2008	0.0011
646.3874	-0.0205
646.574	-0.006
646.7605	-0.0084
646.9471	-0.0074
647.1336	-0.0257
647.3201	0.0064
647.5066	0.0035
647.6931	-0.0123
647.8795	0.0009
648.0659	-0.0043
648.2524	0.0111
648.4388	0.0017
648.6252	0.0076
648.8115	0.0138
648.9979	0.0092
649.1842	0.0003
649.3705	0.0066
649.5568	-0.0036
649.7431	-0.0075
649.9294	0.0101
650.1156	-0.0193
650.3018	0.0061
650.488	0.0133
650.6742	-0.009
650.8604	0.0194
651.0466	-0.0139
651.2327	-0.0063
651.4188	-0.0135
651.6049	0.0179
651.791	0.0052
651.9771	0.0062
652.1632	-0.0022
652.3492	-0.0016
652.5352	0.0112
652.7212	0.0002
652.9072	0.0045
653.0932	0.0113
653.2791	0.0096
653.465	0.0013
653.651	0.0023
653.8369	-0.0198
654.0227	0.0002
654.2086	0.0024
654.3944	0.0159
654.5803	0.009
654.7661	0.0029
654.9519	-0.0063
655.1377	0
655.3234	0
655.5092	0
655.6949	0
655.8806	0
656.0663	0
656.2519	0
656.4376	0
656.6232	0
656.8088	0
656.9945	0
657.18	0
657.3656	0
657.5511	0
657.7367	0
657.9222	0
658.1077	0
658.2932	0
658.4786	0
658.6641	0
658.8495	0
659.0349	0
659.2203	0
659.4057	0
659.591	0.0829
659.7764	0.0103
659.9617	-0.0072
660.147	0.0029
660.3323	0.0107
660.5176	0.0022
660.7028	-0.0163
660.888	0.0129
661.0733	-0.0041
661.2585	-0.015
661.4436	-0.0155
661.6288	0.0148
661.8139	-0.0277
661.9991	-0.0249
662.1842	-0.016
662.3693	-0.0177
662.5544	0.0018
662.7394	0.0152
662.9245	0.0008
663.1095	-0.0216
663.2945	-0.0231
663.4795	-0.0081
663.6644	-0.0066
663.8494	0.0016
664.0343	0.0095
664.2193	-0.0047
664.4042	-0.0008
664.589	0.0104
664.7739	-0.0147
664.9587	-0.0105
665.1436	-0.0268
665.3284	0.0119
665.5132	-0.0243
665.698	0.0022
665.8827	-0.0014
666.0675	-0.0363
666.2522	-0.011
666.4369	-0.0068
666.6216	-0.0061
666.8063	-0.032
666.9909	0.0007
667.1756	0.0013
667.3602	-0.0039
667.5448	0.0013
667.7294	-0.0032
667.9139	-0.022
668.0985	0.0201
668.283	-0.018
668.4675	0.023
668.652	0.0045
668.8365	0.0135
669.0209	0.0016
669.2054	0.0019
669.3898	-0.017
669.5742	0.0114
669.7586	0.0184
669.943	0.0077
670.1273	-0.0188
670.3117	-0.0021
670.496	0.0029
670.6803	-0.0113
670.8646	-0.0041
671.0488	0.0153
671.2331	-0.0194
671.4173	0.0063
671.6015	-0.013
671.7857	-0.0051
671.9699	0.0102
672.1541	-0.0076
672.3382	-0.0081
672.5223	0.012
672.7064	0.0159
672.8905	-0.0136
673.0746	0.003
673.2587	0.0144
673.4427	0.0103
673.6267	0.0318
673.8107	0.0254
673.9947	0.0061
674.1787	0.0067
674.3626	0.0127
674.5465	-0.0009
674.7304	-0.0131
674.9143	-0.0048
675.0982	-0.0222
675.2821	0.0108
675.4659	-0.0058
675.6497	0.0065
675.8335	-0.0021
676.0173	-0.0168
676.2011	0.0223
676.3849	0.0054
676.5686	-0.0029
676.7523	-0.0101
676.936	-0.0032
677.1197	-0.0206
677.3034	0.0242
677.487	0.0132
677.6706	0.0101
677.8542	-0.0082
678.0378	-0.0121
678.2214	0.0072
678.405	-0.0014
678.5885	0.0002
678.772	-0.0144
678.9555	0.0038
679.139	0.0182
679.3225	-0.0017
679.5059	-0.0074
679.6894	-0.004
679.8728	0.0002
680.0562	0.0034
680.2395	-0.0189
680.4229	-0.0086
680.6062	-0.0019
680.7896	-0.0272
680.9729	0.0002
681.1562	-0.017
681.3394	-0.0096
681.5227	-0.0115
681.7059	-0.0002
681.8891	-0.0118
682.0723	-0.0125
682.2555	0.011
682.4387	-0.0089
682.6218	0.0141
682.805	-0.0091
682.9881	-0.0029
683.1712	0.0031
683.3542	0.0224
683.5373	-0.0155
683.7203	0.0045
683.9034	-0.0037
684.0864	-0.0078
684.2694	-0.0113
684.4523	0.0063
684.6353	-0.0111
684.8182	-0.0107
685.0011	-0.0011
685.184	-0.0069
685.3669	0.0139
685.5498	0.004
685.7326	-0.0084
685.9154	-0.015
686.0982	0.006
686.281	0.009
686.4638	-0.0013
686.6465	0.0066
686.8293	-0.0054
687.012	0.0074
687.1947	-0.0073
687.3774	0.0054
687.56	-0.0106
687.7427	-0.0086
687.9253	-0.0315
688.1079	0.0208
688.2905	-0.0087
688.4731	0.0256
688.6556	-0.0192
688.8382	-0.0226
689.0207	-0.0037
689.2032	0.0322
689.3857	0.0118
689.5681	-0.0066
689.7506	0.0236
689.933	0.0046
690.1154	0.0026
690.2978	-0.0036
690.4802	0.0131
690.6626	-0.0016
690.8449	0.0144
691.0272	-0.0027
691.2095	-0.0271
691.3918	0.0061
691.5741	0.0052
691.7563	-0.0066
691.9386	0.0255
692.1208	0.0034
692.303	-0.0087
692.4852	-0.0066
692.6673	-0.0019
692.8495	-0.0085
693.0316	-0.004
693.2137	0.0036
693.3958	-0.0016
693.5778	-0.0081
693.7599	0.0151
693.9419	-0.015
694.1239	0.0027
694.3059	0.0039
694.4879	-0.0006
694.6699	-0.0076
694.8518	-0.0189
695.0337	-0.0149
695.2157	0.0109
695.3975	0.0067
695.5794	-0.0353
695.7613	-0.0016
695.9431	-0.0196
696.1249	0.0057
696.3067	-0.0167
696.4885	0.0205
696.6703	-0.0089
696.852	-0.0074
697.0337	0.0111
697.2154	-0.0169
697.3971	0.0022
697.5788	0.0109
697.7605	-0.02
697.9421	-0.0007
698.1237	0.0153
698.3053	-0.0131
698.4869	-0.0271
698.6685	-0.0089
698.85	0.03
699.0315	-0.0168
699.213	0.0239
699.3945	-0.0081
699.576	0.0145
699.7575	0.007
699.9389	-0.0027
700.1203	0.0146
700.3017	0.0008
700.4831	0.0307
700.6645	0.0215
700.8458	-0.0004
701.0271	0.0244
701.2084	0.0071
701.3897	0.0136
701.571	-0.0041
701.7523	-0.0196
701.9335	-0.0074
702.1147	0.0131
702.2959	-0.0109
702.4771	0.0242
702.6583	-0.0056
702.8394	-0.0178
703.0205	-0.0158
703.2016	-0.0316
703.3827	-0.0312
703.5638	-0.003
703.7449	-0.0038
703.9259	0.0095
704.1069	-0.0117
704.2879	0.0063
704.4689	-0.0293
704.6499	-0.0005
704.8308	0.0028
705.0117	0.0198
705.1927	0.03
705.3735	0.0039
705.5544	0.0137
705.7353	-0.0144
705.9161	-0.0172
706.0969	0.0164
706.2777	0.0008
706.4585	-0.0029
706.6393	0.0015
706.82	0.0015
707.0007	-0.0059
707.1815	-0.0069
707.3621	0.0282
707.5428	0.0137
707.7235	-0.0098
707.9041	-0.0119
708.0847	-0.0005
708.2653	0.0213
708.4459	-0.0094
708.6265	-0.0168
708.807	-0.0265
708.9875	0.0044
709.168	-0.0081
709.3485	0.0031
709.529	0.0184
709.7095	-0.0125
709.8899	-0.0026
710.0703	0.0047
710.2507	0.0009
710.4311	-0.0206
710.6115	0.0031
710.7918	0.0191
710.9721	0.0112
711.1524	-0.0167
711.3327	-0.0113
711.513	-0.0048
711.6932	0.0047
711.8735	0.0117
712.0537	0.007
712.2339	-0.0024
712.4141	0.0207
712.5942	-0.0323
712.7744	0.0097
712.9545	0.0219
713.1346	0.0267
713.3147	-0.0185
713.4947	-0.0011
713.6748	-0.0158
713.8548	0.0135
714.0348	-0.0029
714.2148	0.0104
714.3948	-0.0031
714.5748	0.007
714.7547	0.0203
714.9346	0.0148
715.1145	-0.0056
715.2944	-0.044
715.4743	0.0073
715.6541	-0.0127
715.834	0.0245
716.0138	-0.0122
716.1936	0.0032
716.3733	-0.0167
716.5531	-0.0341
716.7328	0.0137
716.9126	-0.001
717.0923	-0.0565
717.2719	-0.0014
717.4516	-0.0201
717.6312	-0.0455
717.8109	0.0152
717.9905	-0.0062
718.1701	-0.0134
718.3496	-0.0055
718.5292	-0.034
718.7087	0.0072
718.8882	0.0099
719.0677	-0
719.2472	-0.0082
719.4267	-0.0033
719.6061	-0.029
719.7856	0.0248
719.965	0.0076
720.1443	-0.018
720.3237	-0.0117
720.5031	0.0159
720.6824	-0.0004
720.8617	-0.0151
721.041	0.019
721.2203	-0.0166
721.3995	-0.0176
721.5788	0.0032
721.758	-0.0123
721.9372	-0.0389
722.1164	0.0144
722.2956	0.0111
722.4747	0.0004
722.6538	-0.0152
722.8329	0.0148
723.012	-0.0284
723.1911	-0.0021
723.3702	-0.0281
723.5492	0.0153
723.7282	-0.003
723.9072	-0.0025
724.0862	0.0118
724.2652	-0.0143
724.4441	-0.0152
724.623	0.0041
724.8019	-0.0229
724.9808	0.0228
725.1597	0.0048
725.3385	0.0078
725.5174	-0.0034
725.6962	-0.0037
725.875	0.0283
726.0538	-0.0069
726.2325	0.0169
726.4112	-0.032
726.59	-0.0057
726.7687	-0.0041
726.9474	0.0061
727.126	0.0011
727.3047	-0.0326
727.4833	-0.0086
727.6619	-0.0144
727.8405	-0.0141
728.0191	0.014
728.1976	0.0057
728.3762	-0.0227
728.5547	-0.0261
728.7332	0.0066
728.9116	-0.0054
729.0901	0.0095
729.2686	-0.0148
729.447	-0.0174
729.6254	-0.013
729.8038	0.0028
729.9821	-0.0206
730.1605	-0.0078
730.3388	-0.0152
730.5171	0.0312
730.6954	-0.0096
730.8737	0.0079
731.0519	-0.0003
731.2302	-0.0003
731.4084	-0.0112
731.5866	-0.0299
731.7648	-0.0202
731.9429	0.0023
732.1211	0.0066
732.2992	0.0087
732.4773	-0.0065
732.6554	-0.0221
732.8335	0.0194
733.0115	-0.0013
733.1896	-0.0249
733.3676	0.0059
733.5456	-0.0048
733.7235	-0.0031
733.9015	0.0119
734.0794	-0.0286
734.2574	-0.0183
734.4353	0.006
734.6131	-0.0137
734.791	-0.013
734.9689	-0.0084
735.1467	-0.0187
735.3245	0.004
735.5023	-0.012
735.68	-0.0008
735.8578	0.0125
736.0355	0.0048
736.2132	0.0102
736.3909	0.0005
736.5686	-0.0281
736.7463	-0.0205
736.9239	-0.0047
737.1015	0.005
737.2791	-0.0025
737.4567	-0.0063
737.6343	-0.006
737.8118	-0.0021
737.9894	0.0032
738.1669	0.0115
738.3444	0.0026
738.5218	-0.0298
738.6993	0.0264
738.8767	-0.0082
739.0541	-0.0103
739.2315	-0.0003
739.4089	0.0235
739.5863	-0.0066
739.7636	-0.0122
739.9409	-0.0108
740.1182	-0.0069
740.2955	0.0235
740.4728	-0.0203
740.65	-0.0129
740.8272	0.0079
741.0044	-0.0222
741.1816	-0.0031
741.3588	-0.0552
741.5359	-0.0045
741.7131	-0.0022
741.8902	-0.0062
742.0673	-0.0287
742.2444	-0.0074
742.4214	0.013
742.5985	0.0067
742.7755	0.0118
742.9525	-0.0311
743.1295	-0.0353
743.3064	-0.019
743.4834	-0.0222
743.6603	0.0299
743.8372	-0.0306
744.0141	0.0137
744.191	0.0019
744.3678	-0.0468
744.5446	-0.012
744.7215	-0.0291
744.8982	0.0121
745.075	0.0116
745.2518	-0.0027
745.4285	0.017
745.6052	-0.0358
745.7819	0.0033
745.9586	-0.0045
746.1353	-0.0491
746.3119	0.0009
746.4885	0.042
746.6651	-0.0034
746.8417	0.0025
747.0183	0.0339
747.1948	0.007
747.3714	0.0047
747.5479	0.0217
747.7244	-0.0347
747.9008	-0.0115
748.0773	0.0113
748.2537	0.0028
748.4301	0.0019
748.6065	0.0124
748.7829	-0.0322
748.9593	-0.0004
749.1356	0.0129
749.3119	-0.0019
749.4882	0.0198
749.6645	0.0061
749.8408	0.0091
750.017	-0.0027
750.1933	-0.025
750.3695	0.0099
750.5457	-0.0335
750.7218	-0.0208
750.898	-0.0113
751.0741	-0.0129
751.2502	-0.0052
751.4263	-0.014
751.6024	-0.0099
751.7784	-0.0265
751.9545	-0.0152
752.1305	0.0053
752.3065	-0.0138
752.4825	-0.0036
752.6584	0.0039
752.8344	-0.0201
753.0103	-0.0187
753.1862	0.0067
753.3621	-0.0173
753.5379	-0.006
753.7138	-0.0123
753.8896	-0.0111
754.0654	0.0092
754.2412	-0.0024
754.417	0.0216
754.5927	-0.0081
754.7685	0.001
754.9442	0.017
755.1199	-0.0185
755.2956	0.009
755.4712	0.0009
755.6469	-0.0017
755.8225	-0.0039
755.9981	0.0046
756.1736	0.0087
756.3492	-0.0082
756.5248	0.0052
756.7003	-0.0059
756.8758	-0.0141
757.0513	-0.0173
757.2267	0.0112
757.4022	-0.0039
757.5776	-0.022
757.753	0.008
757.9284	0.0103
758.1038	0.0132
758.2791	0.0112
758.4545	0.0012
758.6298	0.0194
758.8051	-0.0007
758.9803	0.0029
759.1556	-0.0086
759.3308	-0.0166
759.506	-0.0194
759.6812	0.015
759.8564	-0.0161
760.0316	0.0016
760.2067	0.0135
760.3819	-0.0092
760.557	-0.0011
760.732	-0.0009
760.9071	0.0133
761.0821	-0.0092
761.2572	0.0072
761.4322	0.003
761.6072	-0.0064
761.7821	-0.0229
761.9571	0.0076
762.132	-0.0053
762.3069	0.0119
762.4818	0.0034
762.6567	0.0022
762.8316	0.0238
763.0064	-0.0099
763.1812	0.0046
763.356	-0.0242
763.5308	0.019
763.7055	0.0178
763.8803	-0.0031
764.055	-0.0186
764.2297	-0.01
764.4044	-0.0152
764.579	-0.0046
764.7537	-0.0077
764.9283	0.0054
765.1029	0.0079
765.2775	-0.0049
765.4521	-0.0042
765.6266	-0.0025
765.8011	-0.004
765.9756	-0.0022
766.1501	0.003
766.3246	-0.0138
766.4991	-0.022
766.6735	0.0256
766.8479	0.0054
767.0223	0.0099
767.1967	0.0322
767.371	-0.0046
767.5454	0.0191
767.7197	0.0349
767.894	-0.0135
768.0683	0.0014
768.2425	0.0099
768.4168	-0
768.591	-0.0087
768.7652	-0.0199
768.9394	-0.0323
769.1135	-0.0004
769.2877	0.0361
769.4618	0.0174
769.6359	-0.0091
769.81	0.0049
769.984	-0.0162
770.1581	-0.0022
770.3321	0.0161
770.5061	-0.0137
770.6801	0.0081
770.8541	-0.0034
771.028	0.0368
771.202	0.0135
771.3759	-0.0058
771.5498	0.0184
771.7236	-0.0149
771.8975	0.0172
772.0713	0.0587
772.2451	-0.0082
772.4189	0.0209
772.5927	-0.0264
772.7665	-0.0368
772.9402	0.0354
773.1139	-0.0087
773.2876	-0.0125
773.4613	0.0034
773.635	0.0139
773.8086	0.012
773.9822	-0.0065
774.1558	0.0341
774.3294	-0.0067
774.503	-0.0021
774.6765	0.0202
774.8501	-0.0128
775.0236	0.0078
775.1971	-0.018
775.3705	-0.01
775.544	-0.0085
775.7174	0.0175
775.8908	-0.0052
776.0642	0.0168
776.2376	-0.0017
776.4109	-0.0085
776.5843	-0.0362
776.7576	-0.0263
776.9309	0.0476
777.1041	-0.0216
777.2774	-0.0162
777.4506	-0.0059
777.6238	-0.0061
777.797	0.0128
777.9702	-0.0129
778.1434	0.0075
778.3165	0.0183
778.4896	-0.0365
778.6627	0.0171
778.8358	-0.0296
779.0089	-0.0368
779.1819	-0.0005
779.3549	-0.0176
779.5279	-0.0594
779.7009	0.0235
779.8739	0.0602
780.0468	0.0232
780.2197	0.0142
780.3926	0.0026
780.5655	0.0193
780.7384	-0.0196
780.9112	0.009
781.0841	-0.0203
781.2569	-0.0176
781.4297	0.0087
781.6024	0.0229
781.7752	0.0222
781.9479	0.0375
782.1206	-0.0145
782.2933	-0.0101
782.466	0.0027
782.6386	-0.0185
782.8113	0.0106
782.9839	-0.0206
783.1565	0.0243
783.329	-0.0086
783.5016	-0.0157
783.6741	0.0037
783.8466	0.0065
784.0191	-0.0239
784.1916	-0.0399
784.3641	-0.0468
784.5365	0.01
784.7089	-0.0115
784.8813	0.0966
785.0537	0.0167
785.2261	-0.0138
785.3984	-0.0169
785.5707	-0.0265
785.743	0.0491
785.9153	-0.0409
786.0876	-0.0616
786.2598	0.0199
786.432	0.0388
786.6042	0.037
786.7764	-0.0187
786.9486	-0.0183
787.1207	0.005
787.2928	0.0128
787.4649	0.0052
787.637	-0.0076
787.8091	-0.0386
787.9811	-0.0204
788.1532	-0.0179
788.3252	0.0023
788.4972	-0.0183
788.6691	0.0191
788.8411	-0.0119
789.013	-0.0314
789.1849	-0.0347
789.3568	-0.0109
789.5287	0.0602
789.7005	-0.0792
789.8723	-0.0635
790.0442	-0.0279
790.2159	0.0073
790.3877	0.0247
790.5595	-0.0133
790.7312	-0.0437
790.9029	0.0083
791.0746	0.0281
791.2463	-0.0525
791.4179	-0.0166
791.5896	0.0337
791.7612	0.0215
791.9328	-0.0516
792.1044	0.0139
792.2759	-0.059
792.4474	0.0154
792.619	0.0034
792.7905	-0.0233
792.9619	0.0481
793.1334	0.007
793.3048	0.0321
793.4762	0.0034
793.6476	-0.045
793.819	-0.0105
793.9904	-0.0143
794.1617	-0.0259
794.333	0.0076
794.5043	0.0223
794.6756	0.0213
794.8469	-0.0012
795.0181	0.0173
795.1893	0.0158
795.3605	0.0251
795.5317	-0.0232
795.7029	-0.0221
795.874	-0.0289
796.0452	-0.011
796.2163	0.0604
796.3873	0.0137
796.5584	-0.0142
796.7294	-0.0059
796.9005	0.0319
797.0715	-0.0657
797.2425	0.0892
797.4134	0.0322
797.5844	0.0936
797.7553	-0.0795
797.9262	0.0258
798.0971	0.0413
798.2679	-0.0036
798.4388	-0.0067
798.6096	-0.0514
798.7804	0.0049
798.9512	0.0047
799.122	-0.0676
799.2927	0.0697
799.4635	-0.1038
799.6342	0.0204
799.8049	0.0471
799.9755	-0.0128
800.1462	-0.0428
800.3168	0.0257
800.4874	-0.1286
800.658	0.011
800.8286	-0.0226
800.9991	0.0063
801.1696	-0.0115
801.3402	-0.042
801.5106	-0.068
801.6811	-0.0673
801.8516	0.0943
802.022	0.0134
802.1924	-0.0223
802.3628	0.0304
802.5332	0.0558
802.7035	0.0777
802.8739	-0.0408
803.0442	-0.0609
803.2145	-0.0129
803.3847	0.011
803.555	0.0718
803.7252	-0.0208
803.8954	-0.0208
804.0656	-0.0458
804.2358	0.0301
804.4059	0.0928
804.5761	-0.0094
804.7462	-0.0641
804.9163	0.0275
805.0864	-0.0735
805.2564	-0
805.4264	-0.0065
805.5965	0.0057
805.7665	-0.0688
805.9364	-0.0648
806.1064	-0.0538
806.2763	0.0193
806.4462	0.016
806.6161	0.0253
806.786	-0.0214
806.9559	0.0098
807.1257	-0.0604
807.2955	-0.0187
807.4653	0.0133
807.6351	0.0317
807.8048	-0.0264
807.9746	0.0349
808.1443	-0.0485
808.314	0.0095
808.4837	0.0114
808.6533	-0.0123
808.8229	-0.0294
808.9926	-0.0014
809.1622	0.0071
809.3317	-0.0315
809.5013	-0.0516
809.6708	-0.0501
809.8403	0.0131
810.0098	0.0108
810.1793	0.0236
810.3488	-0.0439
810.5182	0.0903
810.6876	-0.0441
810.857	-0.0236
811.0264	-0.1182
811.1958	0.2868
811.3651	-0.0654
811.5344	0.0167
811.7037	0.0023
811.873	0.0807
812.0422	-0.0625
812.2115	0.0166
812.3807	-0.1261
812.5499	-0.0824
812.7191	-0.0931
812.8882	-0.1174
813.0574	0.0676
813.2265	0.0772
813.3956	0.0798
813.5646	0.1192
813.7337	-0.0426
813.9027	-0.043
814.0718	0.0071
814.2407	0.0474
814.4097	0.0435
814.5787	0.0761
814.7476	0.0059
814.9165	0.0107
815.0854	-0.0793
815.2543	-0.0206
815.4232	0.0506
815.592	-0.0075
815.7608	-0.1712
815.9296	0.02
816.0984	-0.1056
816.2671	-0.283
816.4359	0.1186
816.6046	-0.0379
816.7733	-0.1543
816.942	-0.0644
817.1106	0.1237
817.2793	-0.0306
817.4479	-0.1114
817.6165	-0.0494
817.785	-0.0045
817.9536	-0.0387
818.1221	-0.0021
818.2906	-0
818.4591	-0.011
818.6276	-0
818.7961	-0.1041
818.9645	0.0051
819.1329	-0
819.3013	-0.1492
819.4697	-0.0704
819.638	0.0896
819.8064	-0.061
819.9747	0.2498
820.143	-0.1263
820.3113	0.1568
820.4795	-0.0415
820.6477	0.0539
820.816	-0.0155
820.9842	-0.0664
821.1523	0.0023
821.3205	0.0337
821.4886	-0.0392
821.6567	0.0172
821.8248	0.1162
821.9929	-0.0844
822.1609	0.0277
822.329	0.155
822.497	0.1446
822.665	0.0198
822.833	-0.1482
823.0009	0.0071
823.1688	0.3523
823.3367	-0.1895
823.5046	0.0551
823.6725	-0.0161
823.8404	0.0962
824.0082	-0.1349
824.176	-0.0943
824.3438	0.131
824.5116	-0.0309
824.6793	0.1439
824.847	0.0364
825.0147	0.071
825.1824	0.0621
825.3501	-0.0244
825.5177	-0.0367
825.6854	-0.1718
825.853	-0.0823
826.0206	-0.0573
826.1881	-0.0545
826.3557	-0.0174
826.5232	0.0548
826.6907	-0.0023
826.8582	-0.0851
827.0257	0.0907
827.1931	0.0917
827.3605	-0.1449
827.528	-0.1096
827.6953	-0.2511
827.8627	-0.1048
828.03	0.0794
828.1974	-0.026
828.3647	0.0082
828.532	0.1473
828.6992	0.1272
828.8665	-0.262
829.0337	-0.0563
829.2009	-0.098
829.3681	0.1243
829.5352	-0.1659
829.7024	0.162
829.8695	-0.0467
830.0366	-0.0852
830.2037	0.1095
830.3707	0.2006
830.5378	-0.0216
830.7048	-0.0917
830.8718	0.1072
831.0388	-0.0502
831.2057	-0.0879
831.3727	-0.3457
831.5396	-0.0915
831.7065	-0.7595
831.8734	-0.0123
832.0402	0.0498
832.2071	-0.4492
832.3739	-0.3034
832.5407	-1.3671
832.7075	0.1369
832.8742	-0.2103
833.041	-0.0285
833.2077	0.8422
833.3744	0.3984
833.541	0.2109
833.7077	0.0898
833.8743	-0.1039
834.0409	-0.0573
834.2075	0.0578
834.3741	-0.3766
834.5407	-0.0428
834.7072	-0.1333
834.8737	0.2368
835.0402	0.2751
835.2067	-0.0948
835.3731	-0.109
835.5395	-0.032
835.706	-0.0661
835.8723	-0.1044
836.0387	-0.0062
836.2051	0.0799
836.3714	0.1259
836.5377	0.008
836.704	0.0796
836.8703	-0.295
837.0365	-0.7494
837.2027	0.2964
837.3689	0.2642
837.5351	-0.046
837.7013	-0.1285
837.8674	0.027
838.0335	-0.0673
838.1997	-0.1853
838.3657	1.41
838.5318	-0.6897
838.6978	-0.2595
838.8639	-0.2439
839.0299	0.0663
839.1958	0.0236
839.3618	-0.3596
839.5277	0.0398
839.6937	-0.2873
839.8596	0.1677
840.0254	0.0633
840.1913	-0.2283
840.3571	-0.2275
840.523	-0
840.6888	0.0592
840.8545	-0.6463
841.0203	0.0691
841.186	-0.049
841.3517	-0.2326
841.5174	0.1719
841.6831	0.3673
841.8488	-0.13
842.0144	0.0099
842.18	0.653
842.3456	-0.8476
842.5112	-0
842.6767	-0.0071
842.8422	-0.0472
843.0077	0.3787
843.1732	-0.5473
843.3387	-0.2319
843.5042	-0
843.6696	0.1023
843.835	0.247
844.0004	-0.0916
844.1657	-1.4297
844.3311	0.0929
844.4964	-0.4743
844.6617	-0.0282
844.827	-0
844.9923	-0.046
845.1575	-0.1555
845.3227	-0.192
845.4879	-0.5664
845.6531	1.9115
845.8183	0.2213
845.9834	-0
846.1485	0.1053
846.3136	-0.3148
846.4787	-0
846.6438	0.4132
846.8088	0.1987
846.9738	0.4616
847.1388	0.1494
847.3038	0.2031
847.4687	-0
847.6337	-0.6707
847.7986	-0.3754
847.9635	0.0108
848.1284	-0
848.2932	0.5523
848.458	-0
848.6228	-0.2332
848.7876	-0
848.9524	0.3861
849.1172	-1.8929
849.2819	-0
849.4466	0.1595
849.6113	0.154
849.7759	-0
849.9406	-0.056
850.1052	-1.7012
850.2698	-0
850.4344	-0.2199
850.599	0.2544
850.7635	0.7225
850.928	0.0172
851.0925	-0.0142
851.257	-0.1552
851.4215	-0.1438
851.5859	-0.1257
851.7503	-0
851.9147	-0.2768
852.0791	-0.0993
852.2434	0.4892
852.4078	-0
852.5721	-0
852.7364	0.7391
852.9007	-0.1595
853.0649	-0
853.2291	0
853.3934	-0
853.5575	-0.2858
853.7217	0.3034
853.8859	-0.7855
854.05	-0.7702
854.2141	0.6113
854.3782	-0.105
854.5423	-0
854.7063	-0.0688
854.8703	-0.1721
855.0343	-0.0711
855.1983	0.0232
855.3623	-0.0083
855.5262	-0
855.6901	0.1508
855.854	0.2693
856.0179	0.0327
856.1818	-0
856.3456	-0.0137
856.5094	-0
856.6732	-0
856.837	-0.7805
857.0008	-0.286
857.1645	0.1921
857.3282	-0.2268
857.4919	0.3043
857.6556	-0.1955
857.8192	-0.2633
857.9828	-0.1344
858.1465	-0.2703
858.31	-0
858.4736	-0.1411
858.6372	0.1053
858.8007	0.0828
858.9642	-0.0437
859.1277	0.6906
859.2911	-0.6682
859.4546	-0
859.618	-0.0387
859.7814	-0.2358
859.9448	-0
860.1081	0.3939
860.2715	-1.6067
860.4348	0.1182
860.5981	0.249
860.7614	-0.2703
860.9246	0.192
861.0879	-0.0529
861.2511	-0
861.4143	-0
861.5774	-0.3219
861.7406	-0.0385
861.9037	-0
862.0668	-0.3203
862.2299	-0
862.393	0.6817
862.556	-0.2497
862.7191	-0.5897
862.8821	0.3266
863.0451	0.0895
863.208	0
863.371	-0
863.5339	0.1467
863.6968	-0
863.8597	0.4458
864.0225	0.3799
864.1854	0.0821
864.3482	-0.9013
864.511	-0.2858
864.6737	-0
864.8365	-0.0574
864.9992	-0.2377
865.1619	-0.3203
865.3246	-1.5079
865.4873	-0.3398
865.65	0.0845
865.8126	0.1404
865.9752	0.2908
866.1378	0.0434
866.3004	0.2364
866.4629	-1.8833
866.6254	-0.4217
866.7879	0.0938
866.9504	-0.313
867.1129	0.3454
867.2753	0.2069
867.4377	0.3231
867.6001	-0
867.7625	0.616
867.9249	-0.0188
868.0872	-0.0569
868.2495	1.0432
868.4118	0.7546
868.5741	-0
868.7363	-0
868.8986	0.1914
869.0608	-0
869.223	-0.6197
869.3851	-0
869.5473	0.1407
869.7094	-0
869.8715	-0
870.0336	0.1185
870.1957	-0
870.3577	0.1817
870.5197	-0.351
870.6817	-1.0657
870.8437	-0.1726
871.0057	-0
871.1676	0.4619
871.3295	-0
871.4914	-0
871.6533	-0.0603
871.8151	1.0991
871.977	-0.4467
872.1388	0.2281
872.3006	-0.4263
872.4623	-0.2062
872.6241	0.284
872.7858	-0
872.9475	1.0854
873.1092	0.0928
873.2709	0.2179
873.4325	-1.9381
873.5941	-0
873.7557	-0
873.9173	0.9168
874.0789	0.1385
874.2404	-0
874.4019	0.1443
874.5634	-0
874.7249	-0.0144
874.8863	0.2232
875.0478	-0.1263
875.2092	-0
875.3706	0.1181
875.5319	-0
875.6933	-0.112
875.8546	0.6096
876.0159	1.0058
876.1772	-0
876.3385	-0
876.4997	0.9452
876.6609	-0.0984
876.8221	-0
876.9833	-0
877.1445	0.4248
877.3056	-0.9958
877.4667	-0
877.6278	-0
877.7889	1.7679
877.9499	-0
878.111	-0.6113
878.272	0.0597
878.433	-0.1535
878.5939	-0.2177
878.7549	0.3582
878.9158	-0
879.0767	-0
879.2376	0.1183
879.3984	-0
879.5593	0.187
879.7201	-0
879.8809	0.286
880.0417	-0.1443
880.2024	-0.009
880.3632	0.6517
880.5239	-0.0135
880.6846	-0.5793
880.8452	0.1932
881.0059	-0
881.1665	-0.1736
881.3271	0.8
881.4877	0.0271
881.6483	-0
881.8088	-0
881.9693	-0
882.1298	-0
882.2903	-0
