Data from D4ACN5uM460nmA_Absorbance_13-05-41-345.txt Node
Date: Fri Feb 21 13:05:41 GMT 2025
User: LASERRRRR
Spectrometer: FLMT03099
Trigger mode: 0
Integration Time (sec): 1.500000E-2
Scans to average: 1
Electric dark correction enabled: true
Nonlinearity correction enabled: false
Boxcar width: 0
XAxis mode: Wavelengths
Number of Pixels in Spectrum: 3648
>>>>>Begin Spectral Data<<<<<
179.3399	-0.1413
179.5586	-0.1413
179.7771	-0.1413
179.9957	-0.3565
180.2143	-0
180.4329	-0.0739
180.6514	-0
180.8699	-0
181.0885	-0
181.307	0.3936
181.5255	0.046
181.744	-0
181.9625	-0
182.181	0.1704
182.3994	-0
182.6179	-0.2436
182.8363	-0
183.0547	0.0962
183.2732	0.1834
183.4916	0.2517
183.71	0.1504
183.9284	-0.0233
184.1467	0.0063
184.3651	0.0223
184.5835	0.2115
184.8018	0.0315
185.0201	0.0683
185.2385	0.3944
185.4568	0.1066
185.6751	0.3127
185.8934	0.2393
186.1117	-0.1365
186.3299	0.2261
186.5482	0.1186
186.7664	0.1671
186.9847	0.0495
187.2029	0.1818
187.4211	0.0151
187.6393	0.1247
187.8575	0.1347
188.0757	0.7452
188.2939	0.2033
188.512	0.1132
188.7302	0.071
188.9483	0.0989
189.1665	0.3238
189.3846	0.4204
189.6027	0.1534
189.8208	0.1098
190.0389	0.392
190.257	0.0849
190.475	0.0241
190.6931	-0.0032
190.9111	0.1373
191.1292	0.0932
191.3472	0.2189
191.5652	0.0731
191.7832	0.0865
192.0012	0.1768
192.2192	0.1122
192.4371	0.1012
192.6551	0.0865
192.873	0.1058
193.091	0.0604
193.3089	0.1164
193.5268	0.1955
193.7447	0.1774
193.9626	0.1302
194.1805	0.1682
194.3984	0.1199
194.6162	0.1376
194.8341	0.2575
195.0519	0.2465
195.2697	0.2139
195.4875	0.2466
195.7054	0.2225
195.9231	0.1985
196.1409	0.3448
196.3587	0.2488
196.5765	0.3351
196.7942	0.3376
197.012	0.3265
197.2297	0.3061
197.4474	0.3553
197.6651	0.2925
197.8828	0.3628
198.1005	0.4081
198.3182	0.3562
198.5358	0.3161
198.7535	0.3763
198.9711	0.4469
199.1888	0.3713
199.4064	0.3999
199.624	0.3832
199.8416	0.4155
200.0592	0.3827
200.2767	0.3666
200.4943	0.4237
200.7119	0.3854
200.9294	0.4404
201.1469	0.4474
201.3645	0.4103
201.582	0.4508
201.7995	0.4172
202.017	0.3437
202.2344	0.3728
202.4519	0.387
202.6694	0.431
202.8868	0.4012
203.1042	0.3973
203.3217	0.372
203.5391	0.3834
203.7565	0.3535
203.9739	0.3755
204.1913	0.3637
204.4086	0.3605
204.626	0.3637
204.8433	0.3617
205.0607	0.3524
205.278	0.351
205.4953	0.3368
205.7126	0.3363
205.9299	0.3329
206.1472	0.3204
206.3644	0.3325
206.5817	0.3316
206.7989	0.3474
207.0162	0.2934
207.2334	0.3271
207.4506	0.3114
207.6678	0.2982
207.885	0.2956
208.1022	0.3135
208.3194	0.2947
208.5365	0.2924
208.7537	0.2995
208.9708	0.3044
209.1879	0.2983
209.405	0.3176
209.6222	0.2468
209.8392	0.3085
210.0563	0.2998
210.2734	0.2684
210.4905	0.2725
210.7075	0.2818
210.9245	0.2669
211.1416	0.279
211.3586	0.2727
211.5756	0.2429
211.7926	0.2646
212.0096	0.2656
212.2265	0.2687
212.4435	0.2601
212.6604	0.2499
212.8774	0.2488
213.0943	0.2628
213.3112	0.2493
213.5281	0.2482
213.745	0.2307
213.9619	0.249
214.1788	0.2728
214.3956	0.2558
214.6125	0.2521
214.8293	0.2556
215.0461	0.2609
215.2629	0.2698
215.4798	0.2474
215.6965	0.2496
215.9133	0.2578
216.1301	0.2575
216.3469	0.2791
216.5636	0.2651
216.7803	0.2533
216.9971	0.2559
217.2138	0.2459
217.4305	0.2649
217.6472	0.2483
217.8639	0.2487
218.0805	0.2614
218.2972	0.2504
218.5138	0.2451
218.7305	0.2608
218.9471	0.2579
219.1637	0.2693
219.3803	0.2589
219.5969	0.2634
219.8135	0.2747
220.0301	0.2546
220.2466	0.2615
220.4632	0.2541
220.6797	0.2536
220.8962	0.258
221.1127	0.266
221.3292	0.2771
221.5457	0.284
221.7622	0.2634
221.9787	0.2853
222.1951	0.2738
222.4116	0.2904
222.628	0.2904
222.8444	0.2813
223.0608	0.2852
223.2772	0.2792
223.4936	0.278
223.71	0.2794
223.9264	0.304
224.1427	0.278
224.3591	0.2819
224.5754	0.2949
224.7917	0.283
225.008	0.2973
225.2243	0.3137
225.4406	0.2922
225.6569	0.3026
225.8732	0.3027
226.0894	0.3055
226.3057	0.3197
226.5219	0.3152
226.7381	0.3264
226.9543	0.3063
227.1705	0.3157
227.3867	0.3359
227.6029	0.3239
227.8191	0.3309
228.0352	0.3522
228.2513	0.3596
228.4675	0.3446
228.6836	0.3402
228.8997	0.3392
229.1158	0.3658
229.3319	0.3618
229.548	0.3482
229.764	0.3516
229.9801	0.3661
230.1961	0.3791
230.4121	0.3798
230.6282	0.3809
230.8442	0.3951
231.0602	0.3796
231.2761	0.3842
231.4921	0.394
231.7081	0.3893
231.924	0.4025
232.14	0.4074
232.3559	0.4016
232.5718	0.4083
232.7877	0.4088
233.0036	0.4077
233.2195	0.4096
233.4353	0.4106
233.6512	0.4119
233.867	0.4083
234.0829	0.424
234.2987	0.4254
234.5145	0.4406
234.7303	0.4303
234.9461	0.4387
235.1619	0.4448
235.3776	0.43
235.5934	0.4295
235.8091	0.4354
236.0249	0.4481
236.2406	0.4361
236.4563	0.4483
236.672	0.4346
236.8877	0.454
237.1034	0.448
237.319	0.4449
237.5347	0.45
237.7503	0.4449
237.966	0.4626
238.1816	0.4551
238.3972	0.4618
238.6128	0.4617
238.8284	0.4651
239.0439	0.4606
239.2595	0.4634
239.475	0.4565
239.6906	0.4596
239.9061	0.4524
240.1216	0.4643
240.3371	0.4613
240.5526	0.461
240.7681	0.4569
240.9836	0.4551
241.199	0.4535
241.4145	0.4513
241.6299	0.4514
241.8453	0.4475
242.0607	0.4398
242.2761	0.4336
242.4915	0.4222
242.7069	0.4115
242.9223	0.4126
243.1376	0.4056
243.353	0.3963
243.5683	0.393
243.7836	0.3813
243.9989	0.3716
244.2142	0.372
244.4295	0.368
244.6448	0.3619
244.86	0.3525
245.0753	0.335
245.2905	0.3433
245.5057	0.3225
245.721	0.3254
245.9362	0.3273
246.1514	0.3221
246.3665	0.3034
246.5817	0.2927
246.7969	0.2938
247.012	0.2941
247.2271	0.2842
247.4423	0.279
247.6574	0.282
247.8725	0.2713
248.0876	0.266
248.3026	0.2664
248.5177	0.2562
248.7328	0.2507
248.9478	0.2543
249.1628	0.2436
249.3779	0.2376
249.5929	0.2338
249.8079	0.2351
250.0228	0.2282
250.2378	0.2301
250.4528	0.2364
250.6677	0.2202
250.8827	0.2164
251.0976	0.2166
251.3125	0.2195
251.5274	0.2075
251.7423	0.2064
251.9572	0.2061
252.172	0.2017
252.3869	0.2053
252.6017	0.2057
252.8166	0.2018
253.0314	0.1885
253.2462	0.1936
253.461	0.1953
253.6758	0.1936
253.8906	0.187
254.1053	0.1905
254.3201	0.1953
254.5348	0.1887
254.7496	0.1802
254.9643	0.1877
255.179	0.1905
255.3937	0.1856
255.6083	0.1974
255.823	0.1873
256.0377	0.182
256.2523	0.1813
256.467	0.1825
256.6816	0.1834
256.8962	0.1805
257.1108	0.1831
257.3254	0.1804
257.54	0.1775
257.7545	0.184
257.9691	0.1837
258.1836	0.1699
258.3981	0.1796
258.6127	0.1774
258.8272	0.1781
259.0417	0.1729
259.2561	0.1743
259.4706	0.177
259.6851	0.1766
259.8995	0.1734
260.114	0.1762
260.3284	0.1718
260.5428	0.1734
260.7572	0.1735
260.9716	0.1825
261.186	0.1791
261.4003	0.1704
261.6147	0.1737
261.829	0.1793
262.0433	0.1772
262.2577	0.1793
262.472	0.1793
262.6863	0.1849
262.9005	0.1755
263.1148	0.169
263.3291	0.1812
263.5433	0.1817
263.7576	0.1787
263.9718	0.1732
264.186	0.1727
264.4002	0.1757
264.6144	0.1866
264.8286	0.173
265.0427	0.1745
265.2569	0.1776
265.471	0.1807
265.6851	0.1775
265.8993	0.1773
266.1134	0.1762
266.3275	0.1776
266.5415	0.1782
266.7556	0.1812
266.9697	0.1757
267.1837	0.1764
267.3978	0.175
267.6118	0.1683
267.8258	0.1767
268.0398	0.1756
268.2538	0.1811
268.4677	0.1709
268.6817	0.1722
268.8957	0.1691
269.1096	0.1716
269.3235	0.172
269.5374	0.1688
269.7514	0.1718
269.9652	0.1745
270.1791	0.169
270.393	0.1715
270.6068	0.1737
270.8207	0.1691
271.0345	0.1691
271.2483	0.1597
271.4622	0.169
271.676	0.1658
271.8897	0.1684
272.1035	0.1757
272.3173	0.1671
272.531	0.1687
272.7448	0.1646
272.9585	0.1584
273.1722	0.163
273.3859	0.1664
273.5996	0.1689
273.8133	0.168
274.0269	0.1678
274.2406	0.166
274.4542	0.1642
274.6679	0.1658
274.8815	0.1739
275.0951	0.1724
275.3087	0.166
275.5223	0.1649
275.7358	0.1699
275.9494	0.169
276.1629	0.1742
276.3765	0.1732
276.59	0.1637
276.8035	0.165
277.017	0.1769
277.2305	0.1664
277.444	0.1759
277.6574	0.1749
277.8709	0.1744
278.0843	0.1704
278.2978	0.1753
278.5112	0.1728
278.7246	0.1686
278.938	0.1689
279.1513	0.176
279.3647	0.1706
279.5781	0.1738
279.7914	0.1702
280.0047	0.1702
280.2181	0.1733
280.4314	0.173
280.6447	0.1777
280.8579	0.1712
281.0712	0.1745
281.2845	0.1787
281.4977	0.1747
281.711	0.1751
281.9242	0.1764
282.1374	0.1748
282.3506	0.1793
282.5638	0.1727
282.7769	0.1719
282.9901	0.1781
283.2033	0.1789
283.4164	0.1779
283.6295	0.1819
283.8426	0.1755
284.0557	0.1797
284.2688	0.1807
284.4819	0.1781
284.695	0.1899
284.908	0.1891
285.1211	0.1821
285.3341	0.1776
285.5471	0.1838
285.7601	0.1815
285.9731	0.1841
286.1861	0.188
286.3991	0.184
286.612	0.1875
286.825	0.1867
287.0379	0.1869
287.2508	0.1913
287.4637	0.1896
287.6766	0.1838
287.8895	0.1846
288.1024	0.1891
288.3152	0.1906
288.5281	0.1815
288.7409	0.1934
288.9538	0.1866
289.1666	0.1937
289.3794	0.188
289.5922	0.1851
289.8049	0.1926
290.0177	0.1887
290.2304	0.1859
290.4432	0.1954
290.6559	0.192
290.8686	0.193
291.0813	0.1887
291.294	0.1953
291.5067	0.1898
291.7194	0.1935
291.932	0.1907
292.1447	0.1876
292.3573	0.1923
292.5699	0.192
292.7825	0.191
292.9951	0.196
293.2077	0.1943
293.4203	0.1966
293.6328	0.1977
293.8454	0.1944
294.0579	0.1872
294.2704	0.1979
294.4829	0.1914
294.6954	0.1946
294.9079	0.187
295.1204	0.1875
295.3328	0.1998
295.5453	0.1942
295.7577	0.1917
295.9701	0.1952
296.1825	0.1961
296.3949	0.1927
296.6073	0.1876
296.8197	0.1952
297.0321	0.1944
297.2444	0.1911
297.4567	0.1946
297.6691	0.1942
297.8814	0.1929
298.0937	0.1928
298.306	0.19
298.5182	0.1965
298.7305	0.1905
298.9428	0.1906
299.155	0.1853
299.3672	0.1848
299.5794	0.1938
299.7916	0.1915
300.0038	0.1964
300.216	0.1925
300.4282	0.1909
300.6403	0.1986
300.8525	0.1926
301.0646	0.193
301.2767	0.1904
301.4888	0.191
301.7009	0.1941
301.913	0.1941
302.125	0.1964
302.3371	0.1949
302.5491	0.1952
302.7612	0.198
302.9732	0.1943
303.1852	0.1938
303.3972	0.1936
303.6092	0.1942
303.8211	0.1909
304.0331	0.1891
304.245	0.1957
304.457	0.1882
304.6689	0.1874
304.8808	0.1875
305.0927	0.1864
305.3046	0.1853
305.5164	0.1871
305.7283	0.1799
305.9401	0.1749
306.152	0.1786
306.3638	0.1809
306.5756	0.1859
306.7874	0.1752
306.9992	0.1696
307.2109	0.1714
307.4227	0.1678
307.6344	0.1772
307.8462	0.1635
308.0579	0.1695
308.2696	0.1678
308.4813	0.1674
308.693	0.1586
308.9046	0.1649
309.1163	0.1581
309.328	0.1593
309.5396	0.1595
309.7512	0.1562
309.9628	0.151
310.1744	0.1509
310.386	0.1427
310.5976	0.1445
310.8091	0.1457
311.0207	0.1492
311.2322	0.1414
311.4437	0.1457
311.6552	0.1425
311.8667	0.1391
312.0782	0.1368
312.2897	0.141
312.5012	0.1367
312.7126	0.134
312.924	0.1372
313.1355	0.136
313.3469	0.1327
313.5583	0.1305
313.7696	0.1275
313.981	0.1336
314.1924	0.1278
314.4037	0.1318
314.6151	0.1218
314.8264	0.1334
315.0377	0.1304
315.249	0.1314
315.4603	0.1217
315.6716	0.1243
315.8828	0.122
316.0941	0.1215
316.3053	0.1216
316.5165	0.1231
316.7277	0.1173
316.9389	0.118
317.1501	0.1223
317.3613	0.1216
317.5724	0.1213
317.7836	0.1133
317.9947	0.1202
318.2058	0.1184
318.417	0.1195
318.6281	0.1165
318.8391	0.1254
319.0502	0.1176
319.2613	0.1186
319.4723	0.1214
319.6834	0.1208
319.8944	0.1185
320.1054	0.1185
320.3164	0.1114
320.5274	0.1183
320.7383	0.1206
320.9493	0.1168
321.1602	0.1167
321.3712	0.1175
321.5821	0.1164
321.793	0.1257
322.0039	0.1196
322.2148	0.119
322.4257	0.1146
322.6365	0.1162
322.8474	0.1244
323.0582	0.1215
323.269	0.1211
323.4798	0.121
323.6906	0.1157
323.9014	0.1176
324.1122	0.1212
324.3229	0.1251
324.5337	0.12
324.7444	0.1268
324.9551	0.1172
325.1658	0.1228
325.3765	0.1201
325.5872	0.121
325.7979	0.1145
326.0085	0.1178
326.2192	0.1222
326.4298	0.1286
326.6404	0.1247
326.851	0.1138
327.0616	0.1278
327.2722	0.1258
327.4828	0.1221
327.6933	0.1277
327.9039	0.1231
328.1144	0.1205
328.3249	0.1217
328.5354	0.1233
328.7459	0.1215
328.9564	0.1283
329.1669	0.1267
329.3773	0.1236
329.5878	0.1236
329.7982	0.1293
330.0086	0.1247
330.219	0.1223
330.4294	0.1275
330.6398	0.1278
330.8502	0.1279
331.0605	0.1275
331.2708	0.1259
331.4812	0.1271
331.6915	0.1306
331.9018	0.1248
332.1121	0.1296
332.3224	0.1343
332.5326	0.1252
332.7429	0.1275
332.9531	0.1279
333.1633	0.1238
333.3735	0.1262
333.5837	0.1244
333.7939	0.1291
334.0041	0.1306
334.2143	0.1326
334.4244	0.1363
334.6346	0.131
334.8447	0.1296
335.0548	0.1352
335.2649	0.1333
335.475	0.136
335.685	0.1312
335.8951	0.1257
336.1051	0.1336
336.3152	0.1351
336.5252	0.1284
336.7352	0.1294
336.9452	0.1378
337.1552	0.136
337.3652	0.1347
337.5751	0.133
337.7851	0.1308
337.995	0.1345
338.2049	0.1327
338.4148	0.1357
338.6247	0.1391
338.8346	0.1415
339.0445	0.137
339.2543	0.1336
339.4642	0.1392
339.674	0.1291
339.8838	0.1399
340.0936	0.1408
340.3034	0.1325
340.5132	0.1335
340.7229	0.1398
340.9327	0.1453
341.1424	0.143
341.3522	0.132
341.5619	0.1462
341.7716	0.1428
341.9813	0.1415
342.1909	0.1369
342.4006	0.1488
342.6102	0.1371
342.8199	0.1483
343.0295	0.1367
343.2391	0.1488
343.4487	0.1511
343.6583	0.1488
343.8679	0.1421
344.0774	0.1469
344.287	0.1503
344.4965	0.1464
344.706	0.1521
344.9155	0.1509
345.125	0.1453
345.3345	0.1578
345.544	0.151
345.7534	0.155
345.9629	0.1577
346.1723	0.1588
346.3817	0.1573
346.5911	0.1525
346.8005	0.1616
347.0099	0.1564
347.2193	0.1671
347.4286	0.1618
347.638	0.161
347.8473	0.1622
348.0566	0.1609
348.2659	0.1615
348.4752	0.1587
348.6845	0.1579
348.8937	0.1632
349.103	0.1621
349.3122	0.1626
349.5214	0.1589
349.7306	0.1731
349.9398	0.1672
350.149	0.1628
350.3582	0.1658
350.5674	0.1646
350.7765	0.1779
350.9856	0.1614
351.1948	0.1723
351.4039	0.1723
351.613	0.1754
351.822	0.1755
352.0311	0.176
352.2402	0.1751
352.4492	0.177
352.6582	0.171
352.8672	0.1831
353.0762	0.1774
353.2852	0.1716
353.4942	0.1767
353.7032	0.1744
353.9121	0.1813
354.1211	0.1874
354.33	0.1822
354.5389	0.1785
354.7478	0.1791
354.9567	0.1831
355.1655	0.1815
355.3744	0.1861
355.5833	0.1799
355.7921	0.1897
356.0009	0.1849
356.2097	0.1832
356.4185	0.1876
356.6273	0.1878
356.8361	0.1889
357.0448	0.1976
357.2536	0.1901
357.4623	0.1881
357.671	0.1932
357.8797	0.1925
358.0884	0.1861
358.2971	0.1942
358.5057	0.1944
358.7144	0.1944
358.923	0.2004
359.1316	0.2028
359.3402	0.1992
359.5488	0.2044
359.7574	0.203
359.966	0.2038
360.1746	0.1958
360.3831	0.2128
360.5916	0.206
360.8002	0.1999
361.0087	0.2063
361.2172	0.2072
361.4256	0.2048
361.6341	0.2107
361.8426	0.2056
362.051	0.2121
362.2594	0.215
362.4678	0.2211
362.6762	0.2197
362.8846	0.2156
363.093	0.2143
363.3014	0.2204
363.5097	0.217
363.718	0.227
363.9264	0.2175
364.1347	0.2261
364.343	0.23
364.5513	0.2295
364.7595	0.232
364.9678	0.2227
365.176	0.24
365.3842	0.2222
365.5925	0.2373
365.8007	0.2306
366.0089	0.2376
366.217	0.2311
366.4252	0.2317
366.6333	0.2389
366.8415	0.2419
367.0496	0.2407
367.2577	0.2382
367.4658	0.238
367.6739	0.2381
367.882	0.2453
368.09	0.2402
368.2981	0.2517
368.5061	0.2492
368.7141	0.245
368.9221	0.2536
369.1301	0.2533
369.3381	0.2528
369.5461	0.2491
369.754	0.2545
369.962	0.246
370.1699	0.2601
370.3778	0.2589
370.5857	0.2532
370.7936	0.2617
371.0015	0.2593
371.2093	0.2578
371.4172	0.2614
371.625	0.257
371.8328	0.254
372.0406	0.2672
372.2484	0.2635
372.4562	0.2678
372.664	0.2662
372.8717	0.263
373.0795	0.268
373.2872	0.2787
373.4949	0.267
373.7026	0.2676
373.9103	0.2615
374.118	0.2722
374.3256	0.2646
374.5333	0.2739
374.7409	0.2687
374.9485	0.2757
375.1561	0.2794
375.3637	0.2674
375.5713	0.2819
375.7789	0.2724
375.9864	0.2755
376.194	0.2841
376.4015	0.2779
376.609	0.2775
376.8165	0.2772
377.024	0.2819
377.2315	0.2859
377.4389	0.278
377.6464	0.2898
377.8538	0.2947
378.0612	0.294
378.2686	0.2944
378.476	0.2973
378.6834	0.2875
378.8908	0.2977
379.0981	0.2863
379.3055	0.2852
379.5128	0.2893
379.7201	0.2943
379.9274	0.2934
380.1347	0.2938
380.342	0.3005
380.5492	0.2928
380.7565	0.2925
380.9637	0.3002
381.1709	0.3004
381.3781	0.2987
381.5853	0.2999
381.7925	0.2936
381.9997	0.3069
382.2068	0.3023
382.4139	0.2947
382.6211	0.3002
382.8282	0.3062
383.0353	0.3172
383.2424	0.3013
383.4494	0.3005
383.6565	0.3109
383.8635	0.3026
384.0706	0.3175
384.2776	0.3078
384.4846	0.3059
384.6916	0.3083
384.8986	0.3112
385.1055	0.3165
385.3125	0.3022
385.5194	0.3124
385.7263	0.3053
385.9333	0.3086
386.1402	0.3102
386.347	0.3173
386.5539	0.3157
386.7608	0.3072
386.9676	0.3031
387.1744	0.307
387.3813	0.3148
387.5881	0.3033
387.7948	0.3164
388.0016	0.3124
388.2084	0.3051
388.4151	0.3123
388.6219	0.3032
388.8286	0.3056
389.0353	0.3115
389.242	0.3198
389.4487	0.3046
389.6553	0.299
389.862	0.2974
390.0686	0.3099
390.2753	0.2978
390.4819	0.3068
390.6885	0.3011
390.8951	0.3083
391.1016	0.3024
391.3082	0.307
391.5147	0.2997
391.7213	0.2949
391.9278	0.2898
392.1343	0.2941
392.3408	0.2847
392.5473	0.2973
392.7537	0.285
392.9602	0.2928
393.1666	0.2895
393.373	0.2939
393.5794	0.285
393.7858	0.2887
393.9922	0.2887
394.1986	0.2813
394.4049	0.276
394.6113	0.2806
394.8176	0.2817
395.0239	0.2721
395.2302	0.2859
395.4365	0.2838
395.6428	0.2828
395.8491	0.2727
396.0553	0.2657
396.2615	0.2789
396.4678	0.275
396.674	0.2693
396.8802	0.2747
397.0863	0.2813
397.2925	0.2747
397.4987	0.2654
397.7048	0.2798
397.9109	0.2696
398.117	0.2629
398.3231	0.2555
398.5292	0.258
398.7353	0.2638
398.9413	0.2639
399.1474	0.2617
399.3534	0.2669
399.5594	0.2693
399.7654	0.2623
399.9714	0.2628
400.1774	0.2606
400.3833	0.2679
400.5893	0.2621
400.7952	0.2684
401.0011	0.2641
401.207	0.2599
401.4129	0.2656
401.6188	0.2657
401.8247	0.2768
402.0305	0.263
402.2364	0.2656
402.4422	0.2732
402.648	0.264
402.8538	0.2685
403.0596	0.2652
403.2654	0.2576
403.4711	0.27
403.6768	0.2595
403.8826	0.2635
404.0883	0.2626
404.294	0.2716
404.4997	0.2621
404.7054	0.2627
404.911	0.2663
405.1167	0.2705
405.3223	0.2683
405.5279	0.2618
405.7335	0.2647
405.9391	0.2626
406.1447	0.2654
406.3502	0.2649
406.5558	0.2653
406.7613	0.263
406.9668	0.2584
407.1724	0.2537
407.3778	0.2622
407.5833	0.2585
407.7888	0.264
407.9942	0.2594
408.1997	0.2639
408.4051	0.2672
408.6105	0.267
408.8159	0.2639
409.0213	0.2626
409.2267	0.272
409.432	0.265
409.6374	0.2595
409.8427	0.2684
410.048	0.2531
410.2533	0.2665
410.4586	0.2588
410.6639	0.2683
410.8691	0.267
411.0744	0.2651
411.2796	0.264
411.4848	0.2686
411.69	0.2541
411.8952	0.2678
412.1004	0.2628
412.3056	0.252
412.5107	0.2657
412.7158	0.2635
412.921	0.2648
413.1261	0.2575
413.3312	0.2655
413.5362	0.2684
413.7413	0.2563
413.9464	0.2506
414.1514	0.2621
414.3564	0.2562
414.5614	0.2579
414.7664	0.2536
414.9714	0.2547
415.1764	0.2538
415.3813	0.26
415.5863	0.2648
415.7912	0.2486
415.9961	0.2641
416.201	0.2529
416.4059	0.2537
416.6108	0.2527
416.8156	0.2557
417.0205	0.2597
417.2253	0.2519
417.4301	0.2564
417.6349	0.2576
417.8397	0.2512
418.0445	0.257
418.2492	0.2524
418.454	0.2436
418.6587	0.243
418.8634	0.2567
419.0681	0.2528
419.2728	0.2474
419.4775	0.264
419.6822	0.2461
419.8868	0.2527
420.0915	0.2411
420.2961	0.2565
420.5007	0.2379
420.7053	0.2481
420.9099	0.2402
421.1144	0.2398
421.319	0.2357
421.5235	0.2295
421.728	0.2442
421.9325	0.2408
422.137	0.2386
422.3415	0.2368
422.546	0.2302
422.7504	0.2405
422.9549	0.2489
423.1593	0.2298
423.3637	0.2373
423.5681	0.2351
423.7725	0.2433
423.9769	0.2421
424.1812	0.2305
424.3856	0.2327
424.5899	0.2326
424.7942	0.2297
424.9985	0.2312
425.2028	0.229
425.4071	0.2275
425.6113	0.2242
425.8156	0.2233
426.0198	0.2182
426.224	0.2287
426.4282	0.2183
426.6324	0.211
426.8366	0.2139
427.0407	0.2193
427.2449	0.2207
427.449	0.2098
427.6531	0.2119
427.8572	0.2164
428.0613	0.2157
428.2654	0.2164
428.4694	0.2041
428.6735	0.2028
428.8775	0.1964
429.0815	0.2028
429.2855	0.1899
429.4895	0.2017
429.6935	0.201
429.8975	0.1902
430.1014	0.1963
430.3053	0.1947
430.5093	0.1943
430.7132	0.1852
430.9171	0.1961
431.1209	0.1955
431.3248	0.1862
431.5286	0.1799
431.7325	0.1952
431.9363	0.1868
432.1401	0.1831
432.3439	0.1752
432.5477	0.1719
432.7514	0.176
432.9552	0.17
433.1589	0.1621
433.3627	0.1651
433.5664	0.1612
433.7701	0.173
433.9737	0.1726
434.1774	0.1767
434.3811	0.1623
434.5847	0.1616
434.7883	0.1635
434.9919	0.1579
435.1955	0.1479
435.3991	0.1561
435.6027	0.1486
435.8062	0.1641
436.0098	0.1419
436.2133	0.1453
436.4168	0.1428
436.6203	0.1265
436.8238	0.1407
437.0272	0.1409
437.2307	0.135
437.4341	0.1403
437.6375	0.1423
437.841	0.1249
438.0443	0.1354
438.2477	0.128
438.4511	0.1293
438.6545	0.1264
438.8578	0.1296
439.0611	0.1311
439.2644	0.1239
439.4677	0.1253
439.671	0.1079
439.8743	0.1263
440.0775	0.119
440.2808	0.1171
440.484	0.1111
440.6872	0.11
440.8904	0.0979
441.0936	0.1047
441.2967	0.0901
441.4999	0.1009
441.703	0.0997
441.9062	0.0963
442.1093	0.1063
442.3124	0.0974
442.5155	0.098
442.7185	0.0936
442.9216	0.0847
443.1246	0.0915
443.3276	0.0908
443.5307	0.0796
443.7337	0.0911
443.9366	0.0786
444.1396	0.0785
444.3426	0.0839
444.5455	0.0817
444.7484	0.0762
444.9513	0.0787
445.1542	0.0793
445.3571	0.0743
445.56	0.0633
445.7628	0.0656
445.9657	0.0768
446.1685	0.0672
446.3713	0.0698
446.5741	0.077
446.7769	0.0767
446.9797	0.0715
447.1824	0.0685
447.3852	0.0527
447.5879	0.0549
447.7906	0.0581
447.9933	0.0616
448.196	0.0626
448.3986	0.0557
448.6013	0.0435
448.8039	0.0581
449.0066	0.0583
449.2092	0.0609
449.4118	0.0482
449.6143	0.0559
449.8169	0.0479
450.0195	0.0472
450.222	0.0507
450.4245	0.0527
450.627	0.0468
450.8295	0.0439
451.032	0.0457
451.2345	0.0379
451.4369	0.0434
451.6394	0.0427
451.8418	0.0412
452.0442	0.0374
452.2466	0.027
452.449	0.0512
452.6513	0.0355
452.8537	0.0299
453.056	0.0345
453.2583	0.0294
453.4607	0.0362
453.663	0.0305
453.8652	0.0283
454.0675	0.0439
454.2697	0.0321
454.472	0.0284
454.6742	0.0312
454.8764	0.0363
455.0786	0.0303
455.2808	0.0212
455.4829	0.0252
455.6851	0.0252
455.8872	0.0216
456.0893	0.031
456.2915	0.0246
456.4935	0.0379
456.6956	0.0305
456.8977	0.0198
457.0997	0.0213
457.3018	0.0187
457.5038	0.0327
457.7058	0.0311
457.9078	0.0267
458.1098	0.0227
458.3117	0.0244
458.5137	0.0133
458.7156	0.0263
458.9175	0.0188
459.1194	0.0122
459.3213	0.0175
459.5232	0.0221
459.725	0.0167
459.9269	0.0133
460.1287	0.0149
460.3305	0.0117
460.5323	0.0186
460.7341	0.0159
460.9359	0.0041
461.1376	0.0201
461.3394	0.0214
461.5411	0.0213
461.7428	0.0169
461.9445	0.0094
462.1462	0.0116
462.3479	0.0069
462.5495	0.0235
462.7512	0.0294
462.9528	0.0149
463.1544	0.015
463.356	0.0113
463.5576	0.0212
463.7592	0.0126
463.9607	0.0081
464.1623	0.0189
464.3638	0.0075
464.5653	0.0117
464.7668	0.0128
464.9683	0.0158
465.1697	0.0106
465.3712	0.0054
465.5726	0.0109
465.7741	0.0172
465.9755	0.0152
466.1769	0.002
466.3782	0.0028
466.5796	0.0088
466.7809	0.0054
466.9823	0.0151
467.1836	0.009
467.3849	0.0061
467.5862	0.0037
467.7875	0.0165
467.9887	0.0157
468.19	0.0191
468.3912	0.0182
468.5924	-0.0009
468.7936	0.0087
468.9948	0.0054
469.196	-0.0007
469.3972	-0.0008
469.5983	0.0122
469.7994	0.0228
470.0006	0.0075
470.2017	0.0112
470.4027	0.0205
470.6038	0.0029
470.8049	0.0058
471.0059	0.0061
471.2069	0.0064
471.408	0.0233
471.6089	0.0052
471.8099	0.0151
472.0109	0.0158
472.2119	0.0114
472.4128	0.0038
472.6137	-0.0033
472.8146	0.0127
473.0155	0.0128
473.2164	0.0051
473.4173	0.0016
473.6181	0.0053
473.819	0.0049
474.0198	0.0031
474.2206	-0.0082
474.4214	0.0064
474.6222	-0.0011
474.8229	0.004
475.0237	0.0149
475.2244	0.0043
475.4251	0.0062
475.6258	-0.0017
475.8265	0.0004
476.0272	0.0103
476.2278	0.0042
476.4285	0.0049
476.6291	0.0063
476.8297	0.006
477.0303	-0.0045
477.2309	0.0085
477.4315	0.0057
477.632	-0.0017
477.8326	0.0062
478.0331	0.0022
478.2336	0.0069
478.4341	0.0136
478.6346	0.0022
478.8351	0.0064
479.0355	0.0129
479.236	0.0081
479.4364	0.0066
479.6368	-0.0014
479.8372	0.0072
480.0376	-0.0013
480.2379	0.0033
480.4383	0.0137
480.6386	-0.0029
480.8389	0.0101
481.0392	0.0042
481.2395	0.0099
481.4398	0.0072
481.6401	0.008
481.8403	-0.0011
482.0405	0.0063
482.2408	0.0052
482.441	0.0107
482.6411	0.0054
482.8413	0.0055
483.0415	0.0162
483.2416	-0.002
483.4417	0.006
483.6419	-0.001
483.8419	0.0011
484.042	0.0049
484.2421	0.0013
484.4422	-0.0029
484.6422	0.0028
484.8422	0.0022
485.0422	0.0001
485.2422	0.0026
485.4422	0.0027
485.6422	0.0009
485.8421	0.0015
486.042	0.0083
486.242	0.0027
486.4419	0.0056
486.6417	0.0025
486.8416	0
487.0415	0.0004
487.2413	-0.0098
487.4411	0.0076
487.641	0.0009
487.8408	0.0018
488.0405	0.0068
488.2403	0.0044
488.4401	0.0073
488.6398	0.0024
488.8395	0.0071
489.0392	0.0078
489.2389	0.0075
489.4386	-0.0027
489.6383	0.0118
489.8379	0.0018
490.0376	-0.0004
490.2372	0.0007
490.4368	-0.0027
490.6364	-0.0007
490.836	0.0039
491.0355	-0.002
491.2351	0.0018
491.4346	-0.0028
491.6341	-0.0047
491.8336	0.0032
492.0331	-0.0001
492.2326	0.0021
492.432	0.0013
492.6315	0.0081
492.8309	0.006
493.0303	-0.0015
493.2297	0.003
493.4291	0.0016
493.6284	0.0138
493.8278	-0.0073
494.0271	-0.0009
494.2264	-0.0066
494.4257	0.001
494.625	-0.0015
494.8243	-0.0088
495.0236	0.0043
495.2228	0.0109
495.422	0.0096
495.6213	0.0079
495.8205	0.0014
496.0196	-0
496.2188	-0.0014
496.418	-0.0019
496.6171	0.0032
496.8162	0.0057
497.0153	0.0019
497.2144	-0.0035
497.4135	-0.0017
497.6126	-0.0008
497.8116	-0.0038
498.0107	0.0105
498.2097	-0.0015
498.4087	0.0049
498.6077	-0.0045
498.8067	0.0016
499.0056	0.0013
499.2046	-0.0011
499.4035	0.0041
499.6024	0.0015
499.8013	0.0054
500.0002	0.0104
500.199	0.018
500.3979	-0.0026
500.5967	0.0049
500.7956	0.0016
500.9944	0.0036
501.1932	0.0137
501.3919	0.0076
501.5907	0.0044
501.7895	0.0019
501.9882	0.0027
502.1869	0.0017
502.3856	-0.0003
502.5843	0.0039
502.783	0.0027
502.9816	0.0052
503.1803	0.0003
503.3789	0.0076
503.5775	0.0009
503.7761	-0.0007
503.9747	-0.0021
504.1732	-0.0011
504.3718	0.0077
504.5703	0.0061
504.7689	0
504.9674	-0.0001
505.1658	0.0016
505.3643	0.0086
505.5628	0.0059
505.7612	0.0078
505.9597	-0.0015
506.1581	-0.0008
506.3565	0.0083
506.5549	0.0004
506.7532	0.0002
506.9516	0
507.1499	-0.0024
507.3482	-0.0034
507.5465	0.0045
507.7448	0.0104
507.9431	0.0117
508.1414	0.0012
508.3396	0.0028
508.5379	-0.0083
508.7361	0.0046
508.9343	0.0104
509.1325	0.0022
509.3306	0.0013
509.5288	-0.0034
509.7269	0.0068
509.9251	0.0019
510.1232	0.0046
510.3213	0.0009
510.5193	0.0071
510.7174	-0.0002
510.9154	0.0063
511.1135	-0.0015
511.3115	-0.0046
511.5095	-0.0012
511.7075	0.0037
511.9055	-0.0011
512.1034	-0.0009
512.3014	-0.0028
512.4993	-0.001
512.6972	0.0007
512.8951	0.0014
513.093	0.003
513.2908	0.0175
513.4887	0.0009
513.6865	0.0096
513.8844	0.0043
514.0822	0.0026
514.2799	-0.0001
514.4777	0.0009
514.6755	-0.0012
514.8732	-0.0045
515.0709	-0.0062
515.2687	0.0037
515.4664	0.0201
515.664	0.0022
515.8617	0.0093
516.0594	0.0125
516.257	0.0067
516.4546	0.0113
516.6522	0.0067
516.8498	0.0083
517.0474	-0.0016
517.2449	-0.0087
517.4425	0.007
517.64	0.0011
517.8375	-0.0005
518.035	-0.0068
518.2325	-0.0022
518.43	-0.0056
518.6274	-0.0035
518.8249	-0.001
519.0223	0.013
519.2197	-0.0028
519.4171	-0.0044
519.6145	0.0051
519.8118	-0.0047
520.0092	-0.0082
520.2065	0.012
520.4038	-0.0083
520.6011	0.0067
520.7984	0.0123
520.9956	0.005
521.1929	0.0104
521.3901	0.0101
521.5874	0.0001
521.7846	-0.0017
521.9818	0.005
522.1789	0.0029
522.3761	0.0152
522.5732	-0.0095
522.7704	0.0052
522.9675	-0.0057
523.1646	-0.0026
523.3617	0.0119
523.5587	-0.0022
523.7558	0.0068
523.9528	0.0013
524.1498	-0.0024
524.3468	-0.0015
524.5438	0.0006
524.7408	-0.0045
524.9378	0.0132
525.1347	0.0169
525.3316	-0.0002
525.5285	-0.0005
525.7254	0.0035
525.9223	0.0122
526.1192	0.0056
526.316	-0.0065
526.5129	0.0042
526.7097	-0.002
526.9065	0.0048
527.1033	-0.0003
527.3	-0.0063
527.4968	0.0061
527.6935	-0.0025
527.8903	0.0079
528.087	-0.0006
528.2837	0.0077
528.4804	-0.0058
528.677	0.0024
528.8737	0.0064
529.0703	0.0038
529.2669	0.012
529.4635	-0.0001
529.6601	-0.0017
529.8567	0.0015
530.0532	-0.0029
530.2498	0.0012
530.4463	-0.0112
530.6428	0.0135
530.8393	0.0033
531.0358	-0.0048
531.2322	-0.0072
531.4287	-0.0036
531.6251	-0.01
531.8215	-0.0025
532.0179	0.0007
532.2143	0.0045
532.4107	0.0068
532.607	0.0024
532.8034	-0.0016
532.9997	0.0007
533.196	0.0002
533.3923	0.0103
533.5886	0.0055
533.7848	-0.006
533.9811	0.0026
534.1773	0.0053
534.3735	0.0087
534.5697	0.007
534.7659	0.0085
534.9621	0.004
535.1582	0.0079
535.3544	0.009
535.5505	0.0081
535.7466	-0.0002
535.9427	0.0024
536.1387	-0.0081
536.3348	0.0015
536.5308	-0.0018
536.7269	0.0016
536.9229	0.0108
537.1189	0.0016
537.3148	0.0032
537.5108	0.0052
537.7068	0.008
537.9027	-0.0061
538.0986	-0.0018
538.2945	-0.0009
538.4904	-0.0025
538.6863	-0.0004
538.8821	0.0042
539.078	0.0025
539.2738	0.0083
539.4696	-0.0119
539.6654	0.0022
539.8611	0.0024
540.0569	-0.0055
540.2526	0.0103
540.4484	0.0004
540.6441	-0.0024
540.8398	0.004
541.0355	-0.002
541.2311	-0.003
541.4268	0.0063
541.6224	0.0049
541.818	0.006
542.0136	0.0018
542.2092	0.0031
542.4048	0.0105
542.6003	0.007
542.7959	0.0039
542.9914	0.0127
543.1869	0.0001
543.3824	-0.0029
543.5779	0.0029
543.7734	0.0046
543.9688	0.005
544.1642	-0.0001
544.3596	0.0087
544.555	0.0021
544.7504	0.0143
544.9458	0.0001
545.1411	0.0059
545.3365	0.0045
545.5318	-0.0008
545.7271	0.0115
545.9224	-0.0042
546.1177	0.007
546.3129	-0.0064
546.5081	0.007
546.7034	-0.0001
546.8986	0.0102
547.0938	0.0162
547.289	0.004
547.4841	-0.0017
547.6793	0.0137
547.8744	0.0088
548.0695	-0.0052
548.2646	0.0073
548.4597	0.0009
548.6548	0.0083
548.8498	0.0015
549.0448	0.002
549.2399	0.0113
549.4349	0.0095
549.6298	-0.0011
549.8248	-0.0002
550.0198	0.0089
550.2147	0.0038
550.4096	-0.002
550.6045	0.0049
550.7994	0.0057
550.9943	0.0038
551.1892	-0.0128
551.384	0.0014
551.5788	0.0033
551.7737	0.0083
551.9685	0.011
552.1632	-0.0025
552.358	-0.0009
552.5528	0.0017
552.7475	0.0027
552.9422	0.0056
553.1369	0.0028
553.3316	-0.0009
553.5263	0.0084
553.7209	0.0111
553.9156	0.0015
554.1102	0.0084
554.3048	0.0025
554.4994	0.0065
554.694	0.0059
554.8885	0.0087
555.0831	0.0064
555.2776	0.0095
555.4721	-0.0049
555.6666	0.0038
555.8611	0.0042
556.0555	0.0024
556.25	0.0104
556.4444	-0.0039
556.6388	0
556.8332	0.0046
557.0276	0.0075
557.222	-0.0074
557.4163	0.0067
557.6107	0.0042
557.805	-0.0034
557.9993	0.0015
558.1936	-0.0063
558.3879	0.0098
558.5821	-0.0061
558.7764	-0.007
558.9706	0.0004
559.1648	0.0087
559.359	-0.0002
559.5532	-0.0032
559.7473	0.0012
559.9415	-0.0003
560.1356	0.0094
560.3297	-0.0023
560.5238	0.0116
560.7179	0.0012
560.9119	0.0074
561.106	-0.0113
561.3	0.0049
561.494	-0.0098
561.688	0.0037
561.882	-0.007
562.076	-0.0029
562.2699	0.0153
562.4639	0.0099
562.6578	0.0093
562.8517	0.0048
563.0456	0.0028
563.2395	0.0086
563.4333	0.0084
563.6272	-0.0001
563.821	0.0036
564.0148	0.0076
564.2086	-0.0063
564.4024	0.0049
564.5961	0.0069
564.7899	0.0118
564.9836	0.0083
565.1773	0.0135
565.371	0
565.5647	0.0101
565.7584	0.0133
565.952	0.007
566.1456	-0.0002
566.3393	0.0086
566.5329	0.0075
566.7264	0.0004
566.92	-0.0014
567.1136	0.0035
567.3071	-0.0029
567.5006	0.0044
567.6941	0.0014
567.8876	0.0006
568.0811	0.0191
568.2745	-0.0054
568.468	0.0055
568.6614	0.0044
568.8548	0.0057
569.0482	0.0069
569.2416	0.0034
569.4349	0.0041
569.6283	0.0038
569.8216	0.0057
570.0149	0.0001
570.2082	0.0083
570.4015	-0.0028
570.5947	0.0006
570.788	0.0022
570.9812	-0.0033
571.1744	0.0048
571.3676	0.0038
571.5608	0.0039
571.754	0.0102
571.9471	0.0056
572.1402	0.0015
572.3333	0.0027
572.5264	0.0029
572.7195	0.0008
572.9126	0.0032
573.1057	0.0045
573.2987	0.0056
573.4917	0.0043
573.6847	-0.001
573.8777	0.0043
574.0707	0.0043
574.2636	0.0013
574.4566	-0.0015
574.6495	0.0057
574.8424	0.0048
575.0353	0.0026
575.2281	0.0046
575.421	-0.0051
575.6138	0.0001
575.8067	0.005
575.9995	-0.0009
576.1923	0.0024
576.385	0.0072
576.5778	0.0089
576.7706	0.0047
576.9633	0.0054
577.156	-0.0035
577.3487	0.0028
577.5414	0.0011
577.734	0.0019
577.9267	0.0037
578.1193	0.0013
578.3119	-0.0015
578.5045	0.0014
578.6971	0.0002
578.8897	0.0011
579.0822	0.0079
579.2747	0.0014
579.4673	0.005
579.6598	0.0079
579.8522	0.0018
580.0447	0.0022
580.2372	0.0059
580.4296	0.0048
580.622	0.0035
580.8144	0.0006
581.0068	0.0027
581.1992	0.0042
581.3915	0
581.5839	0.0026
581.7762	-0.0007
581.9685	0.0031
582.1608	0.0014
582.353	0.0025
582.5453	0.0045
582.7375	0.0031
582.9298	-0.0026
583.122	-0.0011
583.3142	0.0074
583.5063	-0.0023
583.6985	0.0029
583.8906	0.0017
584.0827	0.0043
584.2749	-0.0027
584.4669	0.0062
584.659	0.0068
584.8511	0.0059
585.0431	0.0027
585.2352	-0.0024
585.4272	0.0067
585.6192	0.0034
585.8111	-0.0007
586.0031	0.0012
586.195	0.0012
586.387	0.0006
586.5789	0.0071
586.7708	0.0041
586.9627	0.0064
587.1545	0.0032
587.3464	0.0028
587.5382	0.0017
587.73	0.0065
587.9218	0.0054
588.1136	-0.0015
588.3053	0.0016
588.4971	-0.0006
588.6888	-0.0025
588.8805	-0.0053
589.0722	0.0072
589.2639	-0.0011
589.4556	0.0029
589.6472	0.0086
589.8389	0.0043
590.0305	0.0006
590.2221	0.0011
590.4137	-0.0032
590.6052	0.0001
590.7968	0.0069
590.9883	0.0042
591.1798	0.0027
591.3713	0
591.5628	0.0013
591.7543	0.0021
591.9458	-0.0032
592.1372	0.0073
592.3286	0.0059
592.52	-0.0002
592.7114	0.0011
592.9028	0.01
593.0941	-0.0006
593.2855	-0.0016
593.4768	0.0085
593.6681	0.0095
593.8594	0.0068
594.0506	0.0004
594.2419	0.0023
594.4331	0.0029
594.6244	-0.0008
594.8156	-0.0019
595.0067	-0.0024
595.1979	-0.0033
595.3891	0.0035
595.5802	0.0051
595.7713	0.001
595.9624	0.0065
596.1535	0.0042
596.3446	0.0075
596.5357	0.0031
596.7267	0.0057
596.9177	-0.0061
597.1087	-0.0035
597.2997	0.0041
597.4907	0.0011
597.6817	0.0053
597.8726	0.0032
598.0635	0.0035
598.2544	0.0032
598.4453	0.0032
598.6362	0.0017
598.827	0.0028
599.0179	0.0024
599.2087	0.0088
599.3995	0.006
599.5903	0.0124
599.7811	0.0073
599.9718	-0.0002
600.1626	0.0011
600.3533	-0.0029
600.544	0.002
600.7347	0.0011
600.9254	0.0061
601.116	0.0076
601.3067	0.0031
601.4973	0.0059
601.6879	0.0051
601.8785	0.0023
602.0691	0.001
602.2596	0.0014
602.4502	0.0047
602.6407	0.0051
602.8312	0.0043
603.0217	0.0029
603.2122	-0
603.4027	0.0061
603.5931	0.0046
603.7835	0.0049
603.9739	-0.0001
604.1643	0.0033
604.3547	0.0043
604.5451	0.0099
604.7354	0.0026
604.9257	-0.0037
605.116	-0.0016
605.3063	0.0014
605.4966	-0.0012
605.6869	0.0062
605.8771	-0.0001
606.0673	0.003
606.2575	-0.0044
606.4477	0.0036
606.6379	0.0021
606.8281	0.0013
607.0182	0.0014
607.2083	0.0052
607.3985	0.0034
607.5885	0.0069
607.7786	0.0016
607.9687	0.0018
608.1587	0.0038
608.3488	0.0026
608.5388	-0.0025
608.7288	-0.0055
608.9187	-0.0003
609.1087	-0.0006
609.2986	0.0071
609.4886	-0.0006
609.6785	0.003
609.8684	-0.0028
610.0582	-0.0036
610.2481	-0.0043
610.4379	0.0076
610.6278	0.0097
610.8176	0.01
611.0074	-0.0033
611.1971	0.0067
611.3869	0.0048
611.5766	-0.0008
611.7664	0.0072
611.9561	0.0062
612.1458	0.008
612.3354	0.0042
612.5251	0.0031
612.7147	0.008
612.9044	-0.0051
613.094	0.0054
613.2836	0.0046
613.4731	0.0071
613.6627	0.0067
613.8522	0.0072
614.0417	0.0008
614.2313	0.0031
614.4207	0.0063
614.6102	0.0001
614.7997	0.01
614.9891	-0.0025
615.1785	-0.0061
615.3679	-0.0011
615.5573	-0
615.7467	-0.0033
615.9361	0.002
616.1254	0.0021
616.3147	0.0038
616.504	0.0047
616.6933	0.0045
616.8826	0.0064
617.0718	0.0125
617.2611	-0.0012
617.4503	0.0017
617.6395	-0.001
617.8287	0.0038
618.0179	-0.003
618.207	0.0126
618.3961	0.0009
618.5853	0.0015
618.7744	-0.0029
618.9634	0.0059
619.1525	-0.0026
619.3416	0.001
619.5306	0.0133
619.7196	0.008
619.9086	0.0037
620.0976	-0.0074
620.2866	0.0061
620.4755	-0.0036
620.6645	0.0138
620.8534	0.0008
621.0423	0.0015
621.2312	-0.0026
621.42	-0.0008
621.6089	0.0051
621.7977	-0.0018
621.9865	-0.007
622.1753	0.0019
622.3641	-0.0076
622.5529	-0.0047
622.7416	-0.0039
622.9303	-0.0017
623.1191	-0.0049
623.3078	0.0039
623.4964	0.0047
623.6851	0.0076
623.8737	-0.0014
624.0624	-0.0087
624.251	-0.0069
624.4396	-0.0007
624.6282	0.0048
624.8167	-0.0038
625.0053	0.0048
625.1938	-0.0048
625.3823	0.0063
625.5708	-0.0013
625.7593	-0.0034
625.9477	0.0072
626.1362	-0.0023
626.3246	-0.0004
626.513	-0.0014
626.7014	-0.0009
626.8898	0.0151
627.0781	0.0083
627.2665	0.0108
627.4548	0.0006
627.6431	0.0091
627.8314	0.0033
628.0197	0.0045
628.2079	0.0021
628.3962	-0.0052
628.5844	0.0033
628.7726	-0.0016
628.9608	0.0033
629.1489	0.0056
629.3371	0.0103
629.5252	0.0118
629.7134	-0.0067
629.9015	0.0099
630.0895	-0.0102
630.2776	0.0115
630.4657	0.0154
630.6537	0.0105
630.8417	-0.0134
631.0297	0.0013
631.2177	0.0047
631.4057	-0.0047
631.5936	0.0035
631.7815	-0.0068
631.9695	0.0232
632.1574	0.0059
632.3452	0.0055
632.5331	0.0037
632.7209	0.0164
632.9088	0.0071
633.0966	0.0206
633.2844	0.0025
633.4722	0.0102
633.6599	0.0147
633.8477	0.0063
634.0354	0.0151
634.2231	-0.0058
634.4108	-0.0053
634.5985	0.0012
634.7861	-0.0063
634.9738	-0.0074
635.1614	-0.0005
635.349	0.0018
635.5366	0.0101
635.7242	0.0003
635.9117	0.0185
636.0993	0.0035
636.2868	-0.007
636.4743	-0.0034
636.6618	-0.0045
636.8492	0.005
637.0367	-0.0044
637.2241	0.0028
637.4115	0.0287
637.5989	-0.0064
637.7863	0.0227
637.9737	-0.0042
638.161	0.0149
638.3484	-0.0027
638.5357	0.0053
638.723	0.0109
638.9103	-0.0159
639.0975	0.0069
639.2848	0.0056
639.472	0.0133
639.6592	-0.0127
639.8464	-0.0082
640.0336	-0.0017
640.2208	0.0087
640.4079	-0.0223
640.595	0.0035
640.7821	0.0117
640.9692	-0.0049
641.1563	-0.0014
641.3434	0.0045
641.5304	0.0076
641.7174	0.0227
641.9044	0.0059
642.0914	0.0217
642.2784	0.0053
642.4653	-0.0172
642.6523	0.0187
642.8392	0.0168
643.0261	-0.0063
643.213	-0.0015
643.3999	0.0005
643.5867	-0.0009
643.7735	-0.0161
643.9604	0.0041
644.1472	-0.0101
644.3339	0.0014
644.5207	0.0028
644.7075	0.0153
644.8942	-0.0161
645.0809	0.0048
645.2676	-0.0151
645.4543	0.0039
645.6409	0.0162
645.8276	-0.0005
646.0142	-0.0021
646.2008	0.0036
646.3874	-0.0123
646.574	-0.002
646.7605	0.0012
646.9471	0.002
647.1336	-0.0315
647.3201	0.0015
647.5066	-0.0059
647.6931	0.0091
647.8795	-0.0063
648.0659	0.0009
648.2524	0.0024
648.4388	0.0155
648.6252	0.0074
648.8115	0.0083
648.9979	0.0053
649.1842	0.0037
649.3705	0.014
649.5568	-0.0082
649.7431	-0.0062
649.9294	0.0088
650.1156	-0.0103
650.3018	-0.0019
650.488	0
650.6742	0
650.8604	0.0045
651.0466	0.0003
651.2327	0.005
651.4188	-0.0096
651.6049	0.0089
651.791	-0.0125
651.9771	0.0073
652.1632	0.0099
652.3492	-0.0121
652.5352	0.0023
652.7212	0.0129
652.9072	-0.0056
653.0932	0.0061
653.2791	0.0002
653.465	0.0032
653.651	0.0052
653.8369	0.0158
654.0227	-0.0004
654.2086	-0.0002
654.3944	0.0089
654.5803	0.0037
654.7661	-0.0048
654.9519	-0.0029
655.1377	0
655.3234	0
655.5092	0
655.6949	0
655.8806	0
656.0663	0
656.2519	0
656.4376	0
656.6232	0
656.8088	0
656.9945	0
657.18	0
657.3656	0
657.5511	0
657.7367	0
657.9222	0
658.1077	0
658.2932	0
658.4786	0
658.6641	0
658.8495	0
659.0349	0
659.2203	0
659.4057	0
659.591	0.0982
659.7764	0.015
659.9617	0.006
660.147	-0.0003
660.3323	-0.0152
660.5176	0.0055
660.7028	-0.0128
660.888	0.009
661.0733	0.0076
661.2585	-0.0181
661.4436	0.0081
661.6288	0.0305
661.8139	-0.0065
661.9991	-0.0114
662.1842	-0.0091
662.3693	0.0084
662.5544	0.0053
662.7394	0.0251
662.9245	-0.0113
663.1095	-0.0053
663.2945	0.0152
663.4795	-0.0043
663.6644	-0.0234
663.8494	-0.0059
664.0343	0.0169
664.2193	-0.0008
664.4042	0.0249
664.589	0.0214
664.7739	0.0092
664.9587	-0.0186
665.1436	-0.0007
665.3284	-0.0109
665.5132	-0.0346
665.698	0.0085
665.8827	-0.0011
666.0675	-0.0115
666.2522	0.001
666.4369	-0.0058
666.6216	0.0041
666.8063	0.0141
666.9909	-0.0033
667.1756	0
667.3602	-0.0164
667.5448	0.0089
667.7294	0.0068
667.9139	0.0018
668.0985	0.0096
668.283	-0.0157
668.4675	0.0114
668.652	0.0188
668.8365	-0.0178
669.0209	0.0059
669.2054	-0.0009
669.3898	-0.0037
669.5742	0.0136
669.7586	0.0295
669.943	-0.0021
670.1273	-0.0133
670.3117	0.0077
670.496	0.0042
670.6803	0.0199
670.8646	-0.009
671.0488	0.0137
671.2331	-0.0156
671.4173	0.0109
671.6015	-0.0014
671.7857	-0.0036
671.9699	0.0127
672.1541	0.0045
672.3382	-0.004
672.5223	-0.0026
672.7064	0.0111
672.8905	0.0053
673.0746	0.0028
673.2587	0.0214
673.4427	0.0054
673.6267	0.0204
673.8107	0.0064
673.9947	0.0175
674.1787	0.0139
674.3626	0.015
674.5465	0.008
674.7304	0
674.9143	0.0049
675.0982	0.0028
675.2821	0.0064
675.4659	0.001
675.6497	0.0024
675.8335	-0.0041
676.0173	-0.0058
676.2011	-0.0026
676.3849	0.0109
676.5686	0.0007
676.7523	-0.012
676.936	-0.0044
677.1197	-0.0016
677.3034	0.0299
677.487	-0.0023
677.6706	-0.0022
677.8542	-0.0047
678.0378	0.0031
678.2214	0.0141
678.405	0.003
678.5885	0.0113
678.772	0.0199
678.9555	-0.0031
679.139	0.0072
679.3225	0.0059
679.5059	0.0017
679.6894	0.0168
679.8728	-0.0022
680.0562	0.0041
680.2395	-0.0042
680.4229	-0.0101
680.6062	0.0104
680.7896	-0.0065
680.9729	0.0138
681.1562	-0.0157
681.3394	-0.0027
681.5227	0
681.7059	0.0129
681.8891	0.0006
682.0723	0.0006
682.2555	0.001
682.4387	0.0101
682.6218	0.007
682.805	-0.0025
682.9881	0.0268
683.1712	0.0141
683.3542	0.0118
683.5373	0.0012
683.7203	0.0158
683.9034	0.0133
684.0864	0.0081
684.2694	0.0094
684.4523	0.0029
684.6353	-0.0051
684.8182	-0.0099
685.0011	0.004
685.184	0
685.3669	0.0134
685.5498	-0.0087
685.7326	-0.0102
685.9154	-0.0077
686.0982	0.0034
686.281	-0.0084
686.4638	-0.0042
686.6465	-0.0152
686.8293	-0.0178
687.012	-0.0018
687.1947	-0.0081
687.3774	0.0048
687.56	-0.0122
687.7427	0.0029
687.9253	-0.0166
688.1079	-0.0061
688.2905	-0.0018
688.4731	0.0166
688.6556	0.0028
688.8382	-0.0341
689.0207	0.0051
689.2032	0.0309
689.3857	0.0186
689.5681	-0.0022
689.7506	0.0271
689.933	0.0037
690.1154	0.0089
690.2978	0.007
690.4802	-0.0005
690.6626	0.0021
690.8449	0.0121
691.0272	0.0029
691.2095	-0.0161
691.3918	0.004
691.5741	0.0144
691.7563	0.0053
691.9386	0.0121
692.1208	0.0137
692.303	-0.0015
692.4852	-0.0028
692.6673	0.0024
692.8495	-0.0089
693.0316	0.0112
693.2137	0.0131
693.3958	0.0016
693.5778	0.0333
693.7599	-0.0091
693.9419	-0.0197
694.1239	-0.0141
694.3059	0.0217
694.4879	-0.0003
694.6699	-0.007
694.8518	0.0223
695.0337	0.0129
695.2157	0.0358
695.3975	-0.005
695.5794	-0.0322
695.7613	0.0207
695.9431	-0.0085
696.1249	0.0248
696.3067	-0.0129
696.4885	0.018
696.6703	0.0081
696.852	0.0031
697.0337	0.0174
697.2154	0.0064
697.3971	0.007
697.5788	0.0132
697.7605	-0.0078
697.9421	0.0107
698.1237	0.0035
698.3053	-0.0081
698.4869	0.0086
698.6685	0.0006
698.85	0.0084
699.0315	-0.0083
699.213	0.0046
699.3945	-0.0013
699.576	0.0089
699.7575	0.0329
699.9389	-0.0058
700.1203	0.0016
700.3017	0.0056
700.4831	0.0142
700.6645	0.0255
700.8458	-0.0012
701.0271	0.0212
701.2084	0.0176
701.3897	0.0218
701.571	-0.0221
701.7523	-0.0024
701.9335	0.0242
702.1147	0.0326
702.2959	-0.0194
702.4771	-0.0047
702.6583	0.0061
702.8394	-0.0146
703.0205	0.0087
703.2016	-0.0043
703.3827	-0.014
703.5638	-0.0178
703.7449	0.0174
703.9259	0.0008
704.1069	-0.0117
704.2879	-0.0015
704.4689	0.0076
704.6499	0.0042
704.8308	0.0132
705.0117	0.0145
705.1927	0.0135
705.3735	0.0083
705.5544	0.0023
705.7353	-0.0188
705.9161	-0.0161
706.0969	0.0035
706.2777	-0.0055
706.4585	-0.0087
706.6393	0.0176
706.82	0.0136
707.0007	0.0007
707.1815	-0.0061
707.3621	0.0213
707.5428	0.0154
707.7235	0.0121
707.9041	0.0083
708.0847	0.0016
708.2653	0.0065
708.4459	0.0054
708.6265	-0.0288
708.807	-0.0031
708.9875	-0.0172
709.168	-0.0003
709.3485	0.0132
709.529	0.0022
709.7095	-0.0253
709.8899	0.002
710.0703	0.0158
710.2507	-0.0146
710.4311	-0.0256
710.6115	0.0429
710.7918	0.0348
710.9721	0.006
711.1524	-0.0073
711.3327	-0.0314
711.513	0.0101
711.6932	-0.0037
711.8735	0.0109
712.0537	-0.016
712.2339	0.0219
712.4141	0.0149
712.5942	-0.0122
712.7744	0.0175
712.9545	0.0173
713.1346	0.0065
713.3147	-0.0028
713.4947	-0.0052
713.6748	-0.0084
713.8548	0.0121
714.0348	0.025
714.2148	0.0197
714.3948	0.022
714.5748	0.0145
714.7547	0.0151
714.9346	0.0138
715.1145	-0.0043
715.2944	-0.0188
715.4743	0.027
715.6541	-0.0017
715.834	0.0264
716.0138	0.0215
716.1936	-0.0151
716.3733	-0.0054
716.5531	-0.0122
716.7328	-0.0122
716.9126	0.0201
717.0923	-0.0361
717.2719	-0.004
717.4516	0.0316
717.6312	-0.0015
717.8109	0.0212
717.9905	0.0053
718.1701	0.003
718.3496	-0.0203
718.5292	0.0012
718.7087	0.0057
718.8882	0.0151
719.0677	0.0026
719.2472	-0.0007
719.4267	-0.0088
719.6061	-0.02
719.7856	0.0261
719.965	-0.0058
720.1443	-0.0108
720.3237	0.0044
720.5031	-0.0038
720.6824	0.0046
720.8617	-0.0078
721.041	0.0398
721.2203	-0.0274
721.3995	-0.0064
721.5788	0.0004
721.758	0.0067
721.9372	-0.0115
722.1164	0.018
722.2956	0.0366
722.4747	-0.0013
722.6538	-0.0078
722.8329	0.0131
723.012	0.0143
723.1911	0.0086
723.3702	0.0275
723.5492	-0.011
723.7282	0.0127
723.9072	-0.0129
724.0862	0.0005
724.2652	0.0104
724.4441	0.007
724.623	-0.0063
724.8019	-0.0205
724.9808	0.0114
725.1597	0.0031
725.3385	-0.0037
725.5174	-0.006
725.6962	-0.0017
725.875	0.0207
726.0538	0.0159
726.2325	0.0166
726.4112	-0.0107
726.59	-0.0084
726.7687	-0.0102
726.9474	0.0037
727.126	0.0198
727.3047	-0.0192
727.4833	0.0008
727.6619	-0.0148
727.8405	-0.0017
728.0191	0.0249
728.1976	0.0093
728.3762	0.024
728.5547	0.0026
728.7332	0.0241
728.9116	-0.0143
729.0901	-0.0028
729.2686	0.0054
729.447	-0.01
729.6254	0.0086
729.8038	-0.0084
729.9821	-0.0148
730.1605	0.0093
730.3388	-0.0013
730.5171	0.014
730.6954	-0.0177
730.8737	0.0027
731.0519	0.0031
731.2302	0.0105
731.4084	0.0233
731.5866	-0.0046
731.7648	0.0061
731.9429	0.0121
732.1211	-0.009
732.2992	-0.0116
732.4773	-0.0051
732.6554	-0.0131
732.8335	0.0342
733.0115	-0.005
733.1896	-0.0198
733.3676	0.0347
733.5456	-0.007
733.7235	-0.0068
733.9015	0.0011
734.0794	-0.0106
734.2574	-0.0207
734.4353	0.0108
734.6131	-0.0008
734.791	0.0222
734.9689	-0.0037
735.1467	-0.02
735.3245	0.0131
735.5023	-0.0035
735.68	0.0036
735.8578	0.006
736.0355	0.0119
736.2132	-0.0021
736.3909	0.0124
736.5686	-0.0083
736.7463	-0.0273
736.9239	0.0239
737.1015	0.0042
737.2791	0.0019
737.4567	-0.0036
737.6343	-0.0133
737.8118	0.0195
737.9894	-0.001
738.1669	-0.0249
738.3444	0.0233
738.5218	-0.0168
738.6993	0.0067
738.8767	0.0033
739.0541	-0.0113
739.2315	0.0027
739.4089	0.0316
739.5863	0.0162
739.7636	-0.0099
739.9409	-0.01
740.1182	0
740.2955	0.0335
740.4728	-0.006
740.65	-0.0055
740.8272	0.0505
741.0044	-0.0021
741.1816	0.0247
741.3588	-0.0064
741.5359	-0.0133
741.7131	0.026
741.8902	-0.0078
742.0673	-0.0233
742.2444	0.0175
742.4214	-0.0026
742.5985	-0.0111
742.7755	-0.0157
742.9525	-0.0169
743.1295	-0.0244
743.3064	-0.0421
743.4834	0.0422
743.6603	0.03
743.8372	-0.0672
744.0141	0.0322
744.191	0.0081
744.3678	-0.0537
744.5446	0.0124
744.7215	-0.0022
744.8982	0.0051
745.075	0.0497
745.2518	0.0101
745.4285	-0.0084
745.6052	0.001
745.7819	-0.0146
745.9586	0.0194
746.1353	-0.015
746.3119	0.0081
746.4885	0.0129
746.6651	-0.006
746.8417	0.0199
747.0183	0.0215
747.1948	-0.0223
747.3714	0.0352
747.5479	0.0149
747.7244	-0.0022
747.9008	-0.0254
748.0773	0.0482
748.2537	0.0215
748.4301	-0.0081
748.6065	-0.004
748.7829	-0.0159
748.9593	-0.0175
749.1356	0.0084
749.3119	0.0019
749.4882	0.0292
749.6645	0.0052
749.8408	0.0033
750.017	-0.0009
750.1933	-0.0332
750.3695	0.0096
750.5457	0.0106
750.7218	-0.0175
750.898	-0.0363
751.0741	0.0032
751.2502	0.0141
751.4263	-0.0221
751.6024	-0.0013
751.7784	-0.0131
751.9545	0.0045
752.1305	0.0027
752.3065	0.0139
752.4825	0.0073
752.6584	0.0055
752.8344	0.0086
753.0103	-0.0425
753.1862	0.0032
753.3621	0.0126
753.5379	-0.0086
753.7138	0.011
753.8896	0.0321
754.0654	-0.0072
754.2412	0.0052
754.417	0.0078
754.5927	-0.013
754.7685	0.0126
754.9442	0.0105
755.1199	0.0053
755.2956	0.006
755.4712	0.0039
755.6469	0.0081
755.8225	-0.0085
755.9981	0.0183
756.1736	-0.0054
756.3492	-0.0079
756.5248	0.0185
756.7003	0.0073
756.8758	0.0002
757.0513	0.0149
757.2267	0.0059
757.4022	0.0022
757.5776	0.0095
757.753	0.0133
757.9284	-0.0012
758.1038	0.0088
758.2791	0.0078
758.4545	-0.0263
758.6298	-0.0008
758.8051	-0.0025
758.9803	0.0145
759.1556	-0.0134
759.3308	0.0064
759.506	0.0029
759.6812	0.0035
759.8564	0.0059
760.0316	-0.0107
760.2067	0.0131
760.3819	-0.0093
760.557	-0.0012
760.732	0.0016
760.9071	0.0182
761.0821	-0.0271
761.2572	-0.0025
761.4322	0.0117
761.6072	0.0014
761.7821	-0.0039
761.9571	0.0087
762.132	0.0069
762.3069	0.0264
762.4818	0.0077
762.6567	0.0078
762.8316	0.0188
763.0064	0.0212
763.1812	0.0347
763.356	-0.0212
763.5308	0.0194
763.7055	0.0003
763.8803	0.0054
764.055	0.0129
764.2297	-0.0116
764.4044	-0.007
764.579	-0.0043
764.7537	0.0043
764.9283	0.0055
765.1029	0.0044
765.2775	0.01
765.4521	0.0071
765.6266	-0.0003
765.8011	0.0062
765.9756	0.0077
766.1501	0.0137
766.3246	-0.0111
766.4991	0.0177
766.6735	0.0129
766.8479	-0.0192
767.0223	0.0265
767.1967	-0.0045
767.371	0.0073
767.5454	-0.0115
767.7197	0.0092
767.894	0.0106
768.0683	-0.0007
768.2425	0.0085
768.4168	0.0149
768.591	-0.0024
768.7652	0
768.9394	-0.0266
769.1135	-0.014
769.2877	0.0149
769.4618	0.023
769.6359	-0.0239
769.81	0.0223
769.984	0.0076
770.1581	-0.0022
770.3321	0.0395
770.5061	-0.0165
770.6801	0.0379
770.8541	0.0241
771.028	0.0264
771.202	0.0172
771.3759	-0.0027
771.5498	0.0132
771.7236	0.034
771.8975	0.0421
772.0713	0.0005
772.2451	0.0134
772.4189	0.003
772.5927	-0.0463
772.7665	0.0112
772.9402	0.0343
773.1139	-0.0141
773.2876	-0.0219
773.4613	0.0017
773.635	0.0233
773.8086	0.0255
773.9822	0.0468
774.1558	0.0153
774.3294	0.021
774.503	0.0228
774.6765	0.0274
774.8501	-0.0219
775.0236	0.0428
775.1971	0.0016
775.3705	0.0071
775.544	0.0196
775.7174	0.0253
775.8908	-0.0008
776.0642	0.0665
776.2376	0.0374
776.4109	0.0293
776.5843	-0.0138
776.7576	0.0371
776.9309	0.0085
777.1041	-0.0438
777.2774	-0.0024
777.4506	-0.0423
777.6238	0.0089
777.797	-0.0415
777.9702	0.0161
778.1434	0.0222
778.3165	-0.0018
778.4896	-0.0414
778.6627	0.0205
778.8358	-0.0241
779.0089	0.0001
779.1819	0.0038
779.3549	0.0172
779.5279	-0.0331
779.7009	0.0071
779.8739	0.032
780.0468	-0.0028
780.2197	0.0102
780.3926	-0.0482
780.5655	0.0093
780.7384	-0.0081
780.9112	0.01
781.0841	-0.0027
781.2569	-0.0004
781.4297	-0.0103
781.6024	0.0139
781.7752	0.0278
781.9479	0.0281
782.1206	-0.0165
782.2933	0.0029
782.466	0.0196
782.6386	-0.0217
782.8113	0.0088
782.9839	-0.0262
783.1565	0.0279
783.329	0.007
783.5016	0.0145
783.6741	0.0124
783.8466	0.024
784.0191	0.0063
784.1916	-0.007
784.3641	-0.044
784.5365	0.0267
784.7089	-0.0336
784.8813	0.041
785.0537	-0.0303
785.2261	0.019
785.3984	0.0205
785.5707	-0.0374
785.743	0.0317
785.9153	-0.0223
786.0876	-0.0371
786.2598	-0.0323
786.432	0.0245
786.6042	0.0456
786.7764	-0.0446
786.9486	-0.002
787.1207	0.0415
787.2928	0.0379
787.4649	-0.0152
787.637	0.0114
787.8091	0.0006
787.9811	0.032
788.1532	-0.0045
788.3252	-0.0114
788.4972	-0.0162
788.6691	0.0018
788.8411	0.0031
789.013	0.0206
789.1849	-0.0118
789.3568	0.0129
789.5287	0.0403
789.7005	-0.0524
789.8723	0.0105
790.0442	-0.0213
790.2159	-0.045
790.3877	0.0173
790.5595	0.0472
790.7312	-0.0454
790.9029	-0.0353
791.0746	0.0139
791.2463	-0.0524
791.4179	0.0352
791.5896	0.037
791.7612	-0.0088
791.9328	0.0311
792.1044	0.0024
792.2759	-0.0611
792.4474	-0.0114
792.619	-0.0671
792.7905	0.0223
792.9619	0.0494
793.1334	0.0503
793.3048	0.025
793.4762	0.0234
793.6476	-0.0319
793.819	-0.0111
793.9904	0.0123
794.1617	-0.0067
794.333	-0.0203
794.5043	0.0146
794.6756	0.0141
794.8469	0.0062
795.0181	0.0135
795.1893	0.0317
795.3605	0.0181
795.5317	0.0033
795.7029	-0.0124
795.874	0.0029
796.0452	0.0177
796.2163	0.0982
796.3873	0.0539
796.5584	0.0283
796.7294	-0.0259
796.9005	-0.0013
797.0715	0.0113
797.2425	0.027
797.4134	0.0471
797.5844	0.0569
797.7553	-0.0741
797.9262	0.0001
798.0971	0.0746
798.2679	-0.0071
798.4388	0.0452
798.6096	0.0015
798.7804	0.0013
798.9512	0.0992
799.122	0.0348
799.2927	0.011
799.4635	-0.0747
799.6342	-0.0691
799.8049	0.0127
799.9755	-0.0646
800.1462	0.0211
800.3168	0.0175
800.4874	-0.0771
800.658	0.0056
800.8286	-0.0645
800.9991	-0.003
801.1696	0.0195
801.3402	0.0271
801.5106	-0.0476
801.6811	-0.0564
801.8516	0.0925
802.022	0.0058
802.1924	-0.0564
802.3628	-0.0301
802.5332	0.0893
802.7035	0.0279
802.8739	0.0002
803.0442	-0.0109
803.2145	0.0134
803.3847	-0.024
803.555	0.0875
803.7252	0.0314
803.8954	-0.03
804.0656	-0.0291
804.2358	0.0843
804.4059	0.0835
804.5761	-0.0017
804.7462	0.0196
804.9163	0.0887
805.0864	0.0054
805.2564	0.0021
805.4264	-0.0316
805.5965	0.0115
805.7665	-0.0595
805.9364	0.0257
806.1064	-0.0148
806.2763	0.0213
806.4462	0.0459
806.6161	0.0027
806.786	0.0279
806.9559	0.006
807.1257	0.0114
807.2955	-0.0176
807.4653	0.0073
807.6351	0.0603
807.8048	-0.0133
807.9746	0.0364
808.1443	-0.0544
808.314	0.0656
808.4837	0.0645
808.6533	0.0516
808.8229	0.0015
808.9926	0.0042
809.1622	0.0393
809.3317	-0.0361
809.5013	0.0304
809.6708	0.0475
809.8403	-0.0189
810.0098	0.047
810.1793	0.035
810.3488	-0.0756
810.5182	0.1253
810.6876	-0.0037
810.857	0.0299
811.0264	-0.0337
811.1958	0.1913
811.3651	-0.0227
811.5344	0.1035
811.7037	0.0681
811.873	0.0314
812.0422	-0.0572
812.2115	-0.0021
812.3807	-0.106
812.5499	0.0496
812.7191	-0.1157
812.8882	-0.03
813.0574	0.0002
813.2265	-0.0105
813.3956	-0.0471
813.5646	-0.0241
813.7337	0.0534
813.9027	-0.0819
814.0718	0.0115
814.2407	-0.0426
814.4097	0.0272
814.5787	0.0545
814.7476	0.0195
814.9165	0.0414
815.0854	0.0117
815.2543	0.0394
815.4232	-0.0368
815.592	-0.0023
815.7608	-0.14
815.9296	-0.0081
816.0984	0.0146
816.2671	-0.1659
816.4359	0.0317
816.6046	0.0253
816.7733	-0.0359
816.942	-0.0526
817.1106	0.0512
817.2793	-0.069
817.4479	0.017
817.6165	0.0291
817.785	-0.0468
817.9536	-0.1167
818.1221	-0.0355
818.2906	-0.0258
818.4591	-0.0381
818.6276	0.0748
818.7961	0.0617
818.9645	-0.0148
819.1329	-0.0902
819.3013	0.0198
819.4697	0.1263
819.638	0.0737
819.8064	-0.0126
819.9747	0.1203
820.143	-0.0922
820.3113	0.0571
820.4795	-0.0158
820.6477	0.1404
820.816	0.0529
820.9842	0.0185
821.1523	0.1074
821.3205	0.0404
821.4886	0.0191
821.6567	-0.0433
821.8248	0.0701
821.9929	-0.1035
822.1609	-0.0194
822.329	0.0278
822.497	0.0178
822.665	-0.0792
822.833	0.0041
823.0009	0.0256
823.1688	-0.0944
823.3367	-0.0801
823.5046	0.0492
823.6725	-0.0963
823.8404	-0.0275
824.0082	-0.0998
824.176	-0.094
824.3438	0.1359
824.5116	-0.0186
824.6793	0.0679
824.847	-0.0222
825.0147	0.0715
825.1824	0.2054
825.3501	-0.0334
825.5177	-0.11
825.6854	-0.102
825.853	-0.0584
826.0206	-0.0538
826.1881	0.0931
826.3557	0.0373
826.5232	0.1494
826.6907	0.0219
826.8582	-0.0205
827.0257	0.6106
827.1931	0.0317
827.3605	-0.0798
827.528	-0.2193
827.6953	-0.2811
827.8627	-0.0669
828.03	0.0888
828.1974	-0.0533
828.3647	0.2637
828.532	0.0067
828.6992	0.2109
828.8665	-0.1322
829.0337	-0.1059
829.2009	0.0204
829.3681	0.0198
829.5352	-0.3269
829.7024	0.1145
829.8695	-0.0182
830.0366	0.2124
830.2037	0.1935
830.3707	0.0634
830.5378	-0.1635
830.7048	-0.1205
830.8718	0.0135
831.0388	-0.0049
831.2057	-0
831.3727	0.0645
831.5396	0.2665
831.7065	-0.9621
831.8734	-0.0238
832.0402	0.1352
832.2071	-0.5646
832.3739	-0.1771
832.5407	-1.047
832.7075	-0.1144
832.8742	0.0986
833.041	-0.0591
833.2077	0.0064
833.3744	-0.0037
833.541	-0.0988
833.7077	-0.0792
833.8743	0.149
834.0409	0.1124
834.2075	0.1046
834.3741	-0.246
834.5407	0.2015
834.7072	0.13
834.8737	0.0866
835.0402	0.1055
835.2067	-0.0554
835.3731	-0.0828
835.5395	-0.0386
835.706	0.0552
835.8723	-0.085
836.0387	0.2245
836.2051	0.3966
836.3714	0.5859
836.5377	-0.1409
836.704	0.0096
836.8703	-0.1346
837.0365	0.0669
837.2027	0.2528
837.3689	0.1161
837.5351	0.189
837.7013	-0.0725
837.8674	-0.3544
838.0335	-0.1011
838.1997	-0.2068
838.3657	-0
838.5318	-0
838.6978	0.268
838.8639	-0.6257
839.0299	-0.2158
839.1958	-0.0349
839.3618	-0.012
839.5277	0.0005
839.6937	-0.17
839.8596	0.0705
840.0254	0.074
840.1913	-0.1472
840.3571	-0.1702
840.523	-0
840.6888	0.1369
840.8545	-0.7473
841.0203	0.1832
841.186	-0.1044
841.3517	-0.2738
841.5174	0.1073
841.6831	0.0488
841.8488	0.0545
842.0144	0.0526
842.18	0.1707
842.3456	-0.2894
842.5112	-0
842.6767	-0.0065
842.8422	0.155
843.0077	-0.1286
843.1732	-0.2939
843.3387	-0.1816
843.5042	-0
843.6696	-0.1405
843.835	0.0995
844.0004	-0.2429
844.1657	-0.5408
844.3311	0.4523
844.4964	-0
844.6617	0.2249
844.827	-0
844.9923	0.0358
845.1575	-0.3889
845.3227	-0.3942
845.4879	-0.3127
845.6531	0.039
845.8183	-0.2118
845.9834	-0
846.1485	0.0801
846.3136	-0.0216
846.4787	-0
846.6438	-0.2615
846.8088	0.2
846.9738	-0
847.1388	0.949
847.3038	0.2644
847.4687	-0
847.6337	0.0469
847.7986	-0.1429
847.9635	0.0965
848.1284	-0
848.2932	0.4332
848.458	-0
848.6228	0.065
848.7876	-0
848.9524	-0.4293
849.1172	-1.7964
849.2819	-0
849.4466	0.3429
849.6113	-0.113
849.7759	-0.0397
849.9406	-0.2089
850.1052	-1.0435
850.2698	0.1106
850.4344	-0.6044
850.599	-0.2123
850.7635	0.2647
850.928	0.4008
851.0925	0.2804
851.257	0.1806
851.4215	0.2952
851.5859	0.0444
851.7503	-0
851.9147	-0
852.0791	-0.1056
852.2434	-0.1236
852.4078	-0
852.5721	0.5805
852.7364	-0.0196
852.9007	0.3062
853.0649	-0
853.2291	0.0942
853.3934	-0
853.5575	-0.2209
853.7217	0.0061
853.8859	1.3257
854.05	-0.4033
854.2141	0.4229
854.3782	-0.0619
854.5423	-0.0221
854.7063	-0.2688
854.8703	-0.1866
855.0343	-0.1853
855.1983	-0
855.3623	-0.0472
855.5262	-0
855.6901	0.1347
855.854	0.1147
856.0179	-0.2795
856.1818	0.3374
856.3456	0.1019
856.5094	-0.6042
856.6732	-0
856.837	-1.0997
857.0008	-0.3781
857.1645	-0.1924
857.3282	-0.6524
857.4919	0.5275
857.6556	0.2239
857.8192	-0.1696
857.9828	-0.2298
858.1465	0.259
858.31	-0
858.4736	-0.294
858.6372	-0.3275
858.8007	-0.1378
858.9642	0.2399
859.1277	0.525
859.2911	-0.5962
859.4546	-0
859.618	0.2897
859.7814	-0
859.9448	0.3446
860.1081	-0.2789
860.2715	-1.8415
860.4348	-0.1506
860.5981	1.3772
860.7614	-0
860.9246	0.1551
861.0879	-0.062
861.2511	-0
861.4143	-0.3995
861.5774	-0.1344
861.7406	-0
861.9037	0.5576
862.0668	-0.6506
862.2299	0.912
862.393	-0
862.556	-0
862.7191	-0.2772
862.8821	0.1276
863.0451	0.1858
863.208	-0
863.371	-0.5362
863.5339	0.1904
863.6968	0.0118
863.8597	1.4937
864.0225	0.2166
864.1854	0.1803
864.3482	-0.609
864.511	-0.4272
864.6737	-0
864.8365	-0.1275
864.9992	0.9156
865.1619	-0.1398
865.3246	-1.5705
865.4873	-0.5595
865.65	1.0534
865.8126	-0
865.9752	-0.2674
866.1378	-0.0463
866.3004	-0.2296
866.4629	-1.9108
866.6254	0.6659
866.7879	-0.2488
866.9504	-0.0792
867.1129	-0.0536
867.2753	-0.1226
867.4377	-0.0941
867.6001	0.3811
867.7625	-0.1468
867.9249	0.0866
868.0872	0.3592
868.2495	-0
868.4118	-0
868.5741	-0.2277
868.7363	-0
868.8986	-0.2052
869.0608	-0
869.223	-0.2562
869.3851	-0.482
869.5473	-0.1317
869.7094	0.0148
869.8715	-0.1861
870.0336	-0.026
870.1957	-0
870.3577	0.3558
870.5197	0.0009
870.6817	-0
870.8437	-0.1717
871.0057	0.3192
871.1676	0.0004
871.3295	-0.3368
871.4914	-0
871.6533	0.0669
871.8151	0.57
871.977	0.0313
872.1388	-0
872.3006	-0.7895
872.4623	-0
872.6241	0.0992
872.7858	-0
872.9475	-0
873.1092	0.2865
873.2709	0.2568
873.4325	-0.8873
873.5941	-0
873.7557	-0
873.9173	0.0317
874.0789	0.23
874.2404	-0
874.4019	0.0325
874.5634	-0
874.7249	0.3097
874.8863	-0.3213
875.0478	-0.2154
875.2092	-0
875.3706	0.1775
875.5319	0.701
875.6933	-0.182
875.8546	0.5106
876.0159	0.1904
876.1772	-0.2088
876.3385	0.2841
876.4997	-0.2602
876.6609	0.1054
876.8221	-0
876.9833	-0
877.1445	0.2274
877.3056	-0.6847
877.4667	-0.8556
877.6278	0.5049
877.7889	-0.0356
877.9499	-0
878.111	-0.659
878.272	-0
878.433	0.1823
878.5939	0.2603
878.7549	-0.1924
878.9158	-0
879.0767	-0
879.2376	-0.3235
879.3984	0.0314
879.5593	0.6459
879.7201	-1.9108
879.8809	-0.1325
880.0417	-0.12
880.2024	0.9371
880.3632	-0.3594
880.5239	0.0152
880.6846	-0.6166
880.8452	0.0846
881.0059	-0.4007
881.1665	0.2488
881.3271	-0
881.4877	1.9964
881.6483	-0
881.8088	-0
881.9693	-1.1388
882.1298	-1.1388
882.2903	-1.1388
