Data from D4ACN5uM460nmA_Absorbance_13-05-41-450.txt Node
Date: Fri Feb 21 13:05:41 GMT 2025
User: LASERRRRR
Spectrometer: FLMT03099
Trigger mode: 0
Integration Time (sec): 1.500000E-2
Scans to average: 1
Electric dark correction enabled: true
Nonlinearity correction enabled: false
Boxcar width: 0
XAxis mode: Wavelengths
Number of Pixels in Spectrum: 3648
>>>>>Begin Spectral Data<<<<<
179.3399	0.2515
179.5586	0.2515
179.7771	0.2515
179.9957	0.6251
180.2143	-0
180.4329	0.0107
180.6514	-1.2529
180.8699	-0
181.0885	-0
181.307	-0.3319
181.5255	-0.0687
181.744	0.341
181.9625	0.984
182.181	-0
182.3994	-0.3776
182.6179	-0
182.8363	-0.0506
183.0547	0.4915
183.2732	0.1558
183.4916	0.5416
183.71	0.1556
183.9284	0.1913
184.1467	0.0077
184.3651	-0.0071
184.5835	0.2354
184.8018	0.6275
185.0201	0.0383
185.2385	0.1117
185.4568	0.2106
185.6751	0.3088
185.8934	0.055
186.1117	0.0136
186.3299	0.4707
186.5482	0.1559
186.7664	-0
186.9847	0.089
187.2029	0.0907
187.4211	0.0473
187.6393	0.295
187.8575	0.9785
188.0757	0.207
188.2939	0.1808
188.512	0.1977
188.7302	0.1717
188.9483	0.4345
189.1665	0.4623
189.3846	0.1488
189.6027	0.2933
189.8208	0.2845
190.0389	0.437
190.257	0.1768
190.475	0.0818
190.6931	0.1022
190.9111	0.0897
191.1292	0.2369
191.3472	0.3672
191.5652	0.3702
191.7832	0.2313
192.0012	0.0953
192.2192	0.2032
192.4371	0.1241
192.6551	0.1765
192.873	0.2688
193.091	0.2203
193.3089	0.179
193.5268	0.3175
193.7447	0.1621
193.9626	0.172
194.1805	0.2085
194.3984	0.2266
194.6162	0.2673
194.8341	0.3202
195.0519	0.2191
195.2697	0.3044
195.4875	0.4025
195.7054	0.2243
195.9231	0.3085
196.1409	0.3142
196.3587	0.3133
196.5765	0.3279
196.7942	0.3345
197.012	0.3739
197.2297	0.3682
197.4474	0.4339
197.6651	0.2915
197.8828	0.3962
198.1005	0.3765
198.3182	0.4159
198.5358	0.3938
198.7535	0.417
198.9711	0.3526
199.1888	0.3812
199.4064	0.3739
199.624	0.3689
199.8416	0.425
200.0592	0.3385
200.2767	0.3975
200.4943	0.4488
200.7119	0.402
200.9294	0.4031
201.1469	0.4009
201.3645	0.465
201.582	0.4259
201.7995	0.4251
202.017	0.3747
202.2344	0.4404
202.4519	0.4457
202.6694	0.3967
202.8868	0.4178
203.1042	0.4254
203.3217	0.3797
203.5391	0.4307
203.7565	0.3891
203.9739	0.3832
204.1913	0.3474
204.4086	0.34
204.626	0.3584
204.8433	0.3677
205.0607	0.3773
205.278	0.3991
205.4953	0.3514
205.7126	0.3505
205.9299	0.3249
206.1472	0.3271
206.3644	0.3454
206.5817	0.3404
206.7989	0.3278
207.0162	0.3436
207.2334	0.3333
207.4506	0.3298
207.6678	0.3111
207.885	0.3319
208.1022	0.3236
208.3194	0.3196
208.5365	0.2971
208.7537	0.3229
208.9708	0.3209
209.1879	0.3417
209.405	0.2869
209.6222	0.2743
209.8392	0.2965
210.0563	0.3089
210.2734	0.2792
210.4905	0.287
210.7075	0.2642
210.9245	0.2596
211.1416	0.2832
211.3586	0.2617
211.5756	0.2782
211.7926	0.2813
212.0096	0.2973
212.2265	0.2682
212.4435	0.251
212.6604	0.2575
212.8774	0.243
213.0943	0.2648
213.3112	0.2583
213.5281	0.261
213.745	0.2539
213.9619	0.2525
214.1788	0.2737
214.3956	0.2439
214.6125	0.2712
214.8293	0.2631
215.0461	0.2661
215.2629	0.2806
215.4798	0.2567
215.6965	0.2501
215.9133	0.2433
216.1301	0.2632
216.3469	0.2532
216.5636	0.2469
216.7803	0.2286
216.9971	0.2683
217.2138	0.2629
217.4305	0.263
217.6472	0.2596
217.8639	0.2527
218.0805	0.2502
218.2972	0.2649
218.5138	0.2683
218.7305	0.256
218.9471	0.2466
219.1637	0.2758
219.3803	0.2573
219.5969	0.2501
219.8135	0.259
220.0301	0.2702
220.2466	0.2677
220.4632	0.2647
220.6797	0.2804
220.8962	0.2675
221.1127	0.2742
221.3292	0.2749
221.5457	0.2824
221.7622	0.2825
221.9787	0.2784
222.1951	0.2691
222.4116	0.2849
222.628	0.2835
222.8444	0.2729
223.0608	0.3013
223.2772	0.2789
223.4936	0.2843
223.71	0.2846
223.9264	0.2839
224.1427	0.2851
224.3591	0.297
224.5754	0.2924
224.7917	0.3036
225.008	0.2917
225.2243	0.303
225.4406	0.3106
225.6569	0.2907
225.8732	0.3134
226.0894	0.3196
226.3057	0.3136
226.5219	0.3153
226.7381	0.3366
226.9543	0.3287
227.1705	0.3164
227.3867	0.3232
227.6029	0.3394
227.8191	0.3301
228.0352	0.3356
228.2513	0.3478
228.4675	0.3464
228.6836	0.3422
228.8997	0.3425
229.1158	0.3479
229.3319	0.3492
229.548	0.3671
229.764	0.3639
229.9801	0.3732
230.1961	0.3764
230.4121	0.3722
230.6282	0.3843
230.8442	0.3916
231.0602	0.3832
231.2761	0.3858
231.4921	0.3929
231.7081	0.3919
231.924	0.4018
232.14	0.4059
232.3559	0.4022
232.5718	0.4099
232.7877	0.4065
233.0036	0.4086
233.2195	0.4093
233.4353	0.416
233.6512	0.4225
233.867	0.4167
234.0829	0.4296
234.2987	0.4227
234.5145	0.4369
234.7303	0.4392
234.9461	0.4224
235.1619	0.456
235.3776	0.4446
235.5934	0.4294
235.8091	0.4466
236.0249	0.4493
236.2406	0.4414
236.4563	0.4507
236.672	0.4509
236.8877	0.4474
237.1034	0.4519
237.319	0.4667
237.5347	0.4455
237.7503	0.4501
237.966	0.4642
238.1816	0.4618
238.3972	0.4526
238.6128	0.4744
238.8284	0.4611
239.0439	0.458
239.2595	0.4586
239.475	0.4567
239.6906	0.4516
239.9061	0.462
240.1216	0.4634
240.3371	0.4628
240.5526	0.4675
240.7681	0.4603
240.9836	0.4548
241.199	0.4552
241.4145	0.4528
241.6299	0.4548
241.8453	0.4354
242.0607	0.441
242.2761	0.4323
242.4915	0.4198
242.7069	0.4087
242.9223	0.4186
243.1376	0.4022
243.353	0.3889
243.5683	0.3894
243.7836	0.3818
243.9989	0.3702
244.2142	0.3681
244.4295	0.3668
244.6448	0.3573
244.86	0.3478
245.0753	0.3408
245.2905	0.3359
245.5057	0.3338
245.721	0.3257
245.9362	0.3253
246.1514	0.3137
246.3665	0.3115
246.5817	0.2938
246.7969	0.2914
247.012	0.293
247.2271	0.2918
247.4423	0.2877
247.6574	0.278
247.8725	0.268
248.0876	0.2675
248.3026	0.266
248.5177	0.2557
248.7328	0.2513
248.9478	0.2482
249.1628	0.2453
249.3779	0.2438
249.5929	0.2338
249.8079	0.2359
250.0228	0.2254
250.2378	0.2287
250.4528	0.231
250.6677	0.2228
250.8827	0.2142
251.0976	0.2134
251.3125	0.2208
251.5274	0.2103
251.7423	0.2033
251.9572	0.2056
252.172	0.2081
252.3869	0.2046
252.6017	0.2028
252.8166	0.1994
253.0314	0.1926
253.2462	0.1997
253.461	0.1913
253.6758	0.1969
253.8906	0.1948
254.1053	0.1972
254.3201	0.189
254.5348	0.1815
254.7496	0.1841
254.9643	0.1899
255.179	0.1862
255.3937	0.1854
255.6083	0.19
255.823	0.1935
256.0377	0.1798
256.2523	0.1857
256.467	0.1867
256.6816	0.1823
256.8962	0.1827
257.1108	0.1839
257.3254	0.1826
257.54	0.1789
257.7545	0.1835
257.9691	0.1781
258.1836	0.1731
258.3981	0.1819
258.6127	0.1776
258.8272	0.1835
259.0417	0.1767
259.2561	0.1704
259.4706	0.174
259.6851	0.1801
259.8995	0.181
260.114	0.1764
260.3284	0.1722
260.5428	0.1798
260.7572	0.1767
260.9716	0.1846
261.186	0.1699
261.4003	0.1737
261.6147	0.1686
261.829	0.1726
262.0433	0.1688
262.2577	0.1731
262.472	0.1728
262.6863	0.1729
262.9005	0.1785
263.1148	0.1774
263.3291	0.1731
263.5433	0.176
263.7576	0.1743
263.9718	0.1771
264.186	0.1823
264.4002	0.176
264.6144	0.1853
264.8286	0.1788
265.0427	0.1762
265.2569	0.175
265.471	0.1771
265.6851	0.1827
265.8993	0.1731
266.1134	0.1847
266.3275	0.1772
266.5415	0.1786
266.7556	0.1783
266.9697	0.1803
267.1837	0.1724
267.3978	0.1697
267.6118	0.1688
267.8258	0.1811
268.0398	0.1859
268.2538	0.1724
268.4677	0.1726
268.6817	0.1701
268.8957	0.1699
269.1096	0.1715
269.3235	0.1737
269.5374	0.1666
269.7514	0.172
269.9652	0.1694
270.1791	0.1718
270.393	0.1714
270.6068	0.1693
270.8207	0.1665
271.0345	0.169
271.2483	0.1653
271.4622	0.1698
271.676	0.1716
271.8897	0.1652
272.1035	0.1742
272.3173	0.1665
272.531	0.1722
272.7448	0.1662
272.9585	0.1639
273.1722	0.1631
273.3859	0.1672
273.5996	0.1667
273.8133	0.1643
274.0269	0.1641
274.2406	0.1689
274.4542	0.1645
274.6679	0.1651
274.8815	0.168
275.0951	0.173
275.3087	0.1657
275.5223	0.1657
275.7358	0.1754
275.9494	0.1693
276.1629	0.1719
276.3765	0.1668
276.59	0.1668
276.8035	0.169
277.017	0.1749
277.2305	0.1664
277.444	0.1726
277.6574	0.1685
277.8709	0.1758
278.0843	0.176
278.2978	0.1761
278.5112	0.1747
278.7246	0.173
278.938	0.1683
279.1513	0.1734
279.3647	0.1744
279.5781	0.1711
279.7914	0.174
280.0047	0.1747
280.2181	0.1753
280.4314	0.1738
280.6447	0.1744
280.8579	0.1705
281.0712	0.1773
281.2845	0.1777
281.4977	0.1764
281.711	0.1765
281.9242	0.1691
282.1374	0.1813
282.3506	0.182
282.5638	0.1776
282.7769	0.1741
282.9901	0.1806
283.2033	0.1789
283.4164	0.1802
283.6295	0.1784
283.8426	0.1753
284.0557	0.1826
284.2688	0.186
284.4819	0.1755
284.695	0.1866
284.908	0.1799
285.1211	0.1865
285.3341	0.1796
285.5471	0.1844
285.7601	0.1907
285.9731	0.189
286.1861	0.1845
286.3991	0.1917
286.612	0.185
286.825	0.1873
287.0379	0.19
287.2508	0.1868
287.4637	0.1883
287.6766	0.188
287.8895	0.1881
288.1024	0.1883
288.3152	0.1867
288.5281	0.1878
288.7409	0.1952
288.9538	0.1878
289.1666	0.1911
289.3794	0.1921
289.5922	0.1861
289.8049	0.1915
290.0177	0.1962
290.2304	0.1921
290.4432	0.1964
290.6559	0.1922
290.8686	0.1957
291.0813	0.1895
291.294	0.1939
291.5067	0.1871
291.7194	0.1979
291.932	0.189
292.1447	0.1944
292.3573	0.1937
292.5699	0.1926
292.7825	0.1905
292.9951	0.1899
293.2077	0.1952
293.4203	0.1985
293.6328	0.1893
293.8454	0.1952
294.0579	0.1969
294.2704	0.1985
294.4829	0.1953
294.6954	0.1984
294.9079	0.1976
295.1204	0.1951
295.3328	0.1971
295.5453	0.1906
295.7577	0.1926
295.9701	0.1995
296.1825	0.1963
296.3949	0.1943
296.6073	0.1941
296.8197	0.192
297.0321	0.1914
297.2444	0.188
297.4567	0.1978
297.6691	0.1911
297.8814	0.1928
298.0937	0.1972
298.306	0.192
298.5182	0.1965
298.7305	0.1965
298.9428	0.1929
299.155	0.192
299.3672	0.1955
299.5794	0.1932
299.7916	0.1904
300.0038	0.1954
300.216	0.1953
300.4282	0.1916
300.6403	0.1959
300.8525	0.1927
301.0646	0.1902
301.2767	0.1891
301.4888	0.1921
301.7009	0.1989
301.913	0.1934
302.125	0.1879
302.3371	0.1914
302.5491	0.1979
302.7612	0.1931
302.9732	0.194
303.1852	0.1947
303.3972	0.2011
303.6092	0.1934
303.8211	0.1914
304.0331	0.1915
304.245	0.19
304.457	0.1878
304.6689	0.1889
304.8808	0.1881
305.0927	0.194
305.3046	0.188
305.5164	0.18
305.7283	0.1899
305.9401	0.1761
306.152	0.1805
306.3638	0.1807
306.5756	0.182
306.7874	0.1755
306.9992	0.1709
307.2109	0.1718
307.4227	0.1726
307.6344	0.174
307.8462	0.1636
308.0579	0.174
308.2696	0.1681
308.4813	0.1647
308.693	0.1603
308.9046	0.1695
309.1163	0.1575
309.328	0.1568
309.5396	0.157
309.7512	0.1484
309.9628	0.1558
310.1744	0.1484
310.386	0.149
310.5976	0.1439
310.8091	0.1522
311.0207	0.1414
311.2322	0.1417
311.4437	0.1459
311.6552	0.142
311.8667	0.1441
312.0782	0.1442
312.2897	0.1389
312.5012	0.1381
312.7126	0.1359
312.924	0.1358
313.1355	0.1373
313.3469	0.1341
313.5583	0.1312
313.7696	0.1256
313.981	0.132
314.1924	0.1224
314.4037	0.1218
314.6151	0.1254
314.8264	0.1277
315.0377	0.1284
315.249	0.1285
315.4603	0.1259
315.6716	0.1242
315.8828	0.1265
316.0941	0.1289
316.3053	0.1183
316.5165	0.123
316.7277	0.1205
316.9389	0.1262
317.1501	0.1203
317.3613	0.1192
317.5724	0.1184
317.7836	0.1175
317.9947	0.1218
318.2058	0.1196
318.417	0.1124
318.6281	0.1152
318.8391	0.1234
319.0502	0.1206
319.2613	0.1198
319.4723	0.1171
319.6834	0.1197
319.8944	0.1179
320.1054	0.1227
320.3164	0.1178
320.5274	0.1208
320.7383	0.1163
320.9493	0.1203
321.1602	0.1187
321.3712	0.1173
321.5821	0.1176
321.793	0.1254
322.0039	0.1179
322.2148	0.1149
322.4257	0.11
322.6365	0.1156
322.8474	0.1279
323.0582	0.1237
323.269	0.1233
323.4798	0.1201
323.6906	0.1174
323.9014	0.1169
324.1122	0.1156
324.3229	0.1255
324.5337	0.1223
324.7444	0.1187
324.9551	0.1239
325.1658	0.1206
325.3765	0.1241
325.5872	0.1223
325.7979	0.1247
326.0085	0.114
326.2192	0.1194
326.4298	0.1268
326.6404	0.1268
326.851	0.1223
327.0616	0.1243
327.2722	0.1229
327.4828	0.127
327.6933	0.1303
327.9039	0.1211
328.1144	0.1248
328.3249	0.1266
328.5354	0.1258
328.7459	0.1275
328.9564	0.1234
329.1669	0.1296
329.3773	0.1288
329.5878	0.13
329.7982	0.1248
330.0086	0.1318
330.219	0.1265
330.4294	0.127
330.6398	0.1324
330.8502	0.1302
331.0605	0.1254
331.2708	0.1292
331.4812	0.1278
331.6915	0.1348
331.9018	0.123
332.1121	0.1337
332.3224	0.1254
332.5326	0.1282
332.7429	0.1298
332.9531	0.1354
333.1633	0.1319
333.3735	0.1282
333.5837	0.1284
333.7939	0.1316
334.0041	0.1346
334.2143	0.1285
334.4244	0.1392
334.6346	0.1352
334.8447	0.1342
335.0548	0.1368
335.2649	0.1392
335.475	0.1343
335.685	0.1372
335.8951	0.1337
336.1051	0.1335
336.3152	0.1374
336.5252	0.136
336.7352	0.1361
336.9452	0.1389
337.1552	0.1388
337.3652	0.131
337.5751	0.13
337.7851	0.1354
337.995	0.1347
338.2049	0.1303
338.4148	0.1405
338.6247	0.1403
338.8346	0.1326
339.0445	0.1373
339.2543	0.142
339.4642	0.1415
339.674	0.1308
339.8838	0.1358
340.0936	0.1362
340.3034	0.14
340.5132	0.133
340.7229	0.1382
340.9327	0.1422
341.1424	0.1388
341.3522	0.1371
341.5619	0.1454
341.7716	0.1454
341.9813	0.1434
342.1909	0.1482
342.4006	0.1488
342.6102	0.1419
342.8199	0.1447
343.0295	0.1372
343.2391	0.1503
343.4487	0.1502
343.6583	0.1514
343.8679	0.1402
344.0774	0.155
344.287	0.1534
344.4965	0.1513
344.706	0.1487
344.9155	0.1518
345.125	0.142
345.3345	0.1551
345.544	0.1489
345.7534	0.1526
345.9629	0.1598
346.1723	0.1612
346.3817	0.1552
346.5911	0.1592
346.8005	0.1619
347.0099	0.1579
347.2193	0.1556
347.4286	0.1603
347.638	0.1644
347.8473	0.1668
348.0566	0.1615
348.2659	0.1571
348.4752	0.1602
348.6845	0.1657
348.8937	0.1676
349.103	0.16
349.3122	0.1629
349.5214	0.1705
349.7306	0.1767
349.9398	0.1685
350.149	0.1613
350.3582	0.167
350.5674	0.1743
350.7765	0.1714
350.9856	0.1615
351.1948	0.1726
351.4039	0.1708
351.613	0.1685
351.822	0.1774
352.0311	0.1747
352.2402	0.1771
352.4492	0.1743
352.6582	0.1811
352.8672	0.1831
353.0762	0.1739
353.2852	0.1743
353.4942	0.1802
353.7032	0.1766
353.9121	0.1801
354.1211	0.1796
354.33	0.1851
354.5389	0.1793
354.7478	0.179
354.9567	0.1815
355.1655	0.1864
355.3744	0.181
355.5833	0.1852
355.7921	0.1931
356.0009	0.1847
356.2097	0.1889
356.4185	0.1835
356.6273	0.1852
356.8361	0.1845
357.0448	0.1883
357.2536	0.191
357.4623	0.1791
357.671	0.1929
357.8797	0.1964
358.0884	0.1855
358.2971	0.1936
358.5057	0.1967
358.7144	0.1903
358.923	0.2011
359.1316	0.199
359.3402	0.2035
359.5488	0.2029
359.7574	0.2074
359.966	0.2108
360.1746	0.2004
360.3831	0.209
360.5916	0.2046
360.8002	0.2126
361.0087	0.2074
361.2172	0.2067
361.4256	0.2053
361.6341	0.2136
361.8426	0.2077
362.051	0.213
362.2594	0.2154
362.4678	0.216
362.6762	0.2136
362.8846	0.2198
363.093	0.2133
363.3014	0.2255
363.5097	0.2169
363.718	0.2212
363.9264	0.2222
364.1347	0.221
364.343	0.2229
364.5513	0.2328
364.7595	0.235
364.9678	0.2281
365.176	0.2273
365.3842	0.2351
365.5925	0.2338
365.8007	0.2379
366.0089	0.231
366.217	0.2359
366.4252	0.2313
366.6333	0.2419
366.8415	0.2402
367.0496	0.2306
367.2577	0.2417
367.4658	0.2434
367.6739	0.2412
367.882	0.255
368.09	0.237
368.2981	0.2535
368.5061	0.2438
368.7141	0.2397
368.9221	0.2608
369.1301	0.2503
369.3381	0.2556
369.5461	0.2472
369.754	0.2608
369.962	0.2541
370.1699	0.2614
370.3778	0.2695
370.5857	0.2523
370.7936	0.2593
371.0015	0.2557
371.2093	0.2586
371.4172	0.2547
371.625	0.2559
371.8328	0.2551
372.0406	0.2696
372.2484	0.2638
372.4562	0.2693
372.664	0.2623
372.8717	0.2727
373.0795	0.2677
373.2872	0.2751
373.4949	0.2748
373.7026	0.2694
373.9103	0.2643
374.118	0.277
374.3256	0.273
374.5333	0.2734
374.7409	0.271
374.9485	0.2654
375.1561	0.2774
375.3637	0.2727
375.5713	0.286
375.7789	0.2709
375.9864	0.2776
376.194	0.2766
376.4015	0.2865
376.609	0.2797
376.8165	0.2805
377.024	0.2862
377.2315	0.2895
377.4389	0.2825
377.6464	0.2863
377.8538	0.287
378.0612	0.2896
378.2686	0.2925
378.476	0.2943
378.6834	0.287
378.8908	0.2987
379.0981	0.2906
379.3055	0.2949
379.5128	0.284
379.7201	0.3051
379.9274	0.2949
380.1347	0.3046
380.342	0.3069
380.5492	0.2966
380.7565	0.303
380.9637	0.2959
381.1709	0.2866
381.3781	0.3063
381.5853	0.3025
381.7925	0.2926
381.9997	0.3051
382.2068	0.3074
382.4139	0.2971
382.6211	0.3094
382.8282	0.3058
383.0353	0.3057
383.2424	0.2984
383.4494	0.3087
383.6565	0.3072
383.8635	0.3058
384.0706	0.3171
384.2776	0.3103
384.4846	0.3079
384.6916	0.3225
384.8986	0.3115
385.1055	0.3198
385.3125	0.3136
385.5194	0.3142
385.7263	0.3053
385.9333	0.3213
386.1402	0.3125
386.347	0.314
386.5539	0.3141
386.7608	0.3096
386.9676	0.31
387.1744	0.3039
387.3813	0.3147
387.5881	0.3058
387.7948	0.3137
388.0016	0.3219
388.2084	0.3127
388.4151	0.3242
388.6219	0.2969
388.8286	0.3134
389.0353	0.3163
389.242	0.3148
389.4487	0.3071
389.6553	0.3004
389.862	0.2995
390.0686	0.3144
390.2753	0.3103
390.4819	0.3022
390.6885	0.3034
390.8951	0.298
391.1016	0.3061
391.3082	0.3043
391.5147	0.2998
391.7213	0.2944
391.9278	0.2852
392.1343	0.3013
392.3408	0.2983
392.5473	0.2906
392.7537	0.2907
392.9602	0.2856
393.1666	0.2933
393.373	0.2919
393.5794	0.2882
393.7858	0.2892
393.9922	0.2895
394.1986	0.2854
394.4049	0.2921
394.6113	0.285
394.8176	0.2801
395.0239	0.2734
395.2302	0.286
395.4365	0.286
395.6428	0.2703
395.8491	0.2835
396.0553	0.2755
396.2615	0.2775
396.4678	0.2793
396.674	0.2704
396.8802	0.2777
397.0863	0.2714
397.2925	0.2717
397.4987	0.2725
397.7048	0.2662
397.9109	0.2675
398.117	0.2665
398.3231	0.27
398.5292	0.2528
398.7353	0.2707
398.9413	0.2659
399.1474	0.2688
399.3534	0.2642
399.5594	0.268
399.7654	0.2624
399.9714	0.2673
400.1774	0.2608
400.3833	0.2657
400.5893	0.2635
400.7952	0.2656
401.0011	0.2681
401.207	0.2596
401.4129	0.2631
401.6188	0.2688
401.8247	0.2677
402.0305	0.2555
402.2364	0.2705
402.4422	0.2673
402.648	0.2721
402.8538	0.2688
403.0596	0.2687
403.2654	0.266
403.4711	0.2621
403.6768	0.2626
403.8826	0.2634
404.0883	0.2668
404.294	0.2642
404.4997	0.26
404.7054	0.2714
404.911	0.2718
405.1167	0.271
405.3223	0.2662
405.5279	0.2603
405.7335	0.2613
405.9391	0.2677
406.1447	0.2808
406.3502	0.2622
406.5558	0.2635
406.7613	0.2545
406.9668	0.2592
407.1724	0.2648
407.3778	0.2611
407.5833	0.2594
407.7888	0.2593
407.9942	0.2605
408.1997	0.2708
408.4051	0.2699
408.6105	0.2657
408.8159	0.2687
409.0213	0.2703
409.2267	0.27
409.432	0.2648
409.6374	0.2648
409.8427	0.2701
410.048	0.2651
410.2533	0.2699
410.4586	0.2536
410.6639	0.2701
410.8691	0.2621
411.0744	0.2598
411.2796	0.2688
411.4848	0.26
411.69	0.2584
411.8952	0.2614
412.1004	0.2617
412.3056	0.2552
412.5107	0.2731
412.7158	0.2766
412.921	0.2671
413.1261	0.2579
413.3312	0.2698
413.5362	0.2693
413.7413	0.2647
413.9464	0.2579
414.1514	0.2635
414.3564	0.2612
414.5614	0.2646
414.7664	0.2566
414.9714	0.2528
415.1764	0.2484
415.3813	0.2583
415.5863	0.2664
415.7912	0.2478
415.9961	0.2658
416.201	0.272
416.4059	0.2564
416.6108	0.2634
416.8156	0.2585
417.0205	0.2497
417.2253	0.2499
417.4301	0.2574
417.6349	0.2487
417.8397	0.2586
418.0445	0.2511
418.2492	0.2536
418.454	0.2561
418.6587	0.2604
418.8634	0.2552
419.0681	0.2478
419.2728	0.253
419.4775	0.2557
419.6822	0.2438
419.8868	0.2368
420.0915	0.2469
420.2961	0.2357
420.5007	0.241
420.7053	0.2428
420.9099	0.2387
421.1144	0.2443
421.319	0.2403
421.5235	0.2423
421.728	0.2422
421.9325	0.2416
422.137	0.2331
422.3415	0.2374
422.546	0.2317
422.7504	0.2284
422.9549	0.233
423.1593	0.2411
423.3637	0.237
423.5681	0.2311
423.7725	0.2366
423.9769	0.2339
424.1812	0.2227
424.3856	0.2345
424.5899	0.2286
424.7942	0.2284
424.9985	0.2342
425.2028	0.2282
425.4071	0.2275
425.6113	0.2281
425.8156	0.2255
426.0198	0.2261
426.224	0.2258
426.4282	0.2113
426.6324	0.2128
426.8366	0.2213
427.0407	0.2287
427.2449	0.2159
427.449	0.2255
427.6531	0.2199
427.8572	0.2131
428.0613	0.2179
428.2654	0.2115
428.4694	0.1975
428.6735	0.2011
428.8775	0.2133
429.0815	0.1968
429.2855	0.2101
429.4895	0.2054
429.6935	0.2038
429.8975	0.194
430.1014	0.1971
430.3053	0.1974
430.5093	0.1932
430.7132	0.1899
430.9171	0.1907
431.1209	0.1901
431.3248	0.1842
431.5286	0.1813
431.7325	0.192
431.9363	0.174
432.1401	0.1772
432.3439	0.1835
432.5477	0.1794
432.7514	0.1792
432.9552	0.1751
433.1589	0.167
433.3627	0.1652
433.5664	0.1636
433.7701	0.1786
433.9737	0.1708
434.1774	0.1769
434.3811	0.1539
434.5847	0.1642
434.7883	0.1666
434.9919	0.1602
435.1955	0.1594
435.3991	0.1524
435.6027	0.1556
435.8062	0.157
436.0098	0.1513
436.2133	0.1444
436.4168	0.1492
436.6203	0.143
436.8238	0.1448
437.0272	0.1447
437.2307	0.1372
437.4341	0.1384
437.6375	0.1393
437.841	0.1306
438.0443	0.1385
438.2477	0.1304
438.4511	0.1252
438.6545	0.1286
438.8578	0.1217
439.0611	0.1274
439.2644	0.1223
439.4677	0.128
439.671	0.1154
439.8743	0.1243
440.0775	0.1117
440.2808	0.113
440.484	0.1099
440.6872	0.1071
440.8904	0.0958
441.0936	0.115
441.2967	0.0993
441.4999	0.1014
441.703	0.096
441.9062	0.103
442.1093	0.1069
442.3124	0.0962
442.5155	0.0979
442.7185	0.0946
442.9216	0.0914
443.1246	0.0956
443.3276	0.0945
443.5307	0.0906
443.7337	0.0875
443.9366	0.0852
444.1396	0.0777
444.3426	0.0838
444.5455	0.0877
444.7484	0.0735
444.9513	0.0737
445.1542	0.0845
445.3571	0.0769
445.56	0.07
445.7628	0.0681
445.9657	0.0832
446.1685	0.0783
446.3713	0.0794
446.5741	0.07
446.7769	0.0669
446.9797	0.0672
447.1824	0.0626
447.3852	0.0531
447.5879	0.065
447.7906	0.0473
447.9933	0.0573
448.196	0.0537
448.3986	0.0564
448.6013	0.0533
448.8039	0.0573
449.0066	0.0586
449.2092	0.0636
449.4118	0.0624
449.6143	0.0554
449.8169	0.0498
450.0195	0.0542
450.222	0.0566
450.4245	0.051
450.627	0.049
450.8295	0.0443
451.032	0.0506
451.2345	0.0345
451.4369	0.0461
451.6394	0.0435
451.8418	0.0435
452.0442	0.0429
452.2466	0.0326
452.449	0.0399
452.6513	0.0389
452.8537	0.0366
453.056	0.038
453.2583	0.0354
453.4607	0.0236
453.663	0.0354
453.8652	0.0344
454.0675	0.0369
454.2697	0.0325
454.472	0.0337
454.6742	0.0343
454.8764	0.0433
455.0786	0.0287
455.2808	0.0278
455.4829	0.033
455.6851	0.0313
455.8872	0.0204
456.0893	0.0349
456.2915	0.0247
456.4935	0.0369
456.6956	0.024
456.8977	0.0292
457.0997	0.0299
457.3018	0.019
457.5038	0.0255
457.7058	0.0306
457.9078	0.0207
458.1098	0.0245
458.3117	0.0215
458.5137	0.0133
458.7156	0.0276
458.9175	0.0186
459.1194	0.0164
459.3213	0.0208
459.5232	0.0273
459.725	0.0178
459.9269	0.0168
460.1287	0.0174
460.3305	0.0198
460.5323	0.0165
460.7341	0.011
460.9359	0.0158
461.1376	0.0118
461.3394	0.0193
461.5411	0.0164
461.7428	0.0195
461.9445	0.0116
462.1462	0.0092
462.3479	0.006
462.5495	0.0128
462.7512	0.0176
462.9528	0.0073
463.1544	0.0153
463.356	0.0071
463.5576	0.0219
463.7592	0.0144
463.9607	0.0177
464.1623	0.0135
464.3638	0.0112
464.5653	0.0093
464.7668	0.0232
464.9683	0.0154
465.1697	0.0196
465.3712	0.0043
465.5726	0.0105
465.7741	0.0198
465.9755	0.011
466.1769	0.0056
466.3782	0.0066
466.5796	0.0136
466.7809	0.0108
466.9823	0.0106
467.1836	0.0065
467.3849	0.013
467.5862	0.0031
467.7875	0.0096
467.9887	0.0171
468.19	0.0067
468.3912	0.0082
468.5924	0.0076
468.7936	0.007
468.9948	0.0054
469.196	0.0101
469.3972	0.0034
469.5983	0.0111
469.7994	0.0149
470.0006	0.0076
470.2017	0.014
470.4027	0.0257
470.6038	0.0036
470.8049	0.0059
471.0059	0.0069
471.2069	0.0074
471.408	0.0119
471.6089	0.0123
471.8099	0.0163
472.0109	0.0172
472.2119	0.0173
472.4128	0.0036
472.6137	0.0072
472.8146	0.0103
473.0155	0.0153
473.2164	0.0082
473.4173	-0.0029
473.6181	0.0006
473.819	0.0044
474.0198	0.0027
474.2206	-0.0063
474.4214	0.0051
474.6222	-0.0027
474.8229	0.0113
475.0237	0.011
475.2244	0.0083
475.4251	0.0074
475.6258	0.0038
475.8265	0.0083
476.0272	0.0069
476.2278	0.0061
476.4285	0.0131
476.6291	0.0038
476.8297	0.0114
477.0303	0.0042
477.2309	0.0046
477.4315	0.0039
477.632	0.0056
477.8326	0.007
478.0331	0.0158
478.2336	0.0088
478.4341	0.0079
478.6346	0.0008
478.8351	0.0038
479.0355	0.0113
479.236	0.0062
479.4364	0.0048
479.6368	0.0067
479.8372	0.0064
480.0376	0.0005
480.2379	0.0082
480.4383	0.0121
480.6386	-0.0055
480.8389	0.0073
481.0392	0.0054
481.2395	0.0107
481.4398	0.0122
481.6401	0.0009
481.8403	-0.0023
482.0405	0.0046
482.2408	0.0098
482.441	0.0121
482.6411	0.0024
482.8413	0.0016
483.0415	0.017
483.2416	0.0044
483.4417	0.0057
483.6419	-0.0067
483.8419	0.0056
484.042	-0.0005
484.2421	-0.004
484.4422	0.0056
484.6422	0.0019
484.8422	-0.0004
485.0422	0.0051
485.2422	0.0002
485.4422	0.0026
485.6422	0.0011
485.8421	-0.0004
486.042	0.0093
486.242	0.0001
486.4419	0.0066
486.6417	0.0036
486.8416	0.0017
487.0415	-0.0025
487.2413	-0.0049
487.4411	0.0047
487.641	0.0016
487.8408	0.0045
488.0405	0.0045
488.2403	0.0013
488.4401	0.0073
488.6398	0.0021
488.8395	0.0088
489.0392	0.0016
489.2389	0.0024
489.4386	0.0042
489.6383	0.0074
489.8379	-0.0047
490.0376	0.0013
490.2372	-0
490.4368	0.0024
490.6364	-0.0057
490.836	-0.0002
491.0355	-0.0059
491.2351	0.008
491.4346	0.0025
491.6341	0.0061
491.8336	0.0008
492.0331	0.0062
492.2326	0.0087
492.432	0.0052
492.6315	0.0077
492.8309	0.0067
493.0303	0.0085
493.2297	0.0046
493.4291	0.0014
493.6284	0.0067
493.8278	-0.0027
494.0271	0.0035
494.2264	0.0023
494.4257	0.0119
494.625	0.0041
494.8243	0.0102
495.0236	0.0036
495.2228	0.0046
495.422	0.0082
495.6213	0.0066
495.8205	0.0048
496.0196	0.0079
496.2188	0.009
496.418	0.0105
496.6171	-0.0025
496.8162	-0.0028
497.0153	0.001
497.2144	0.0019
497.4135	0.0027
497.6126	0.0012
497.8116	-0.0015
498.0107	0.0066
498.2097	0.0081
498.4087	-0.0019
498.6077	-0.0016
498.8067	0.0038
499.0056	0.0018
499.2046	0.0051
499.4035	0.0088
499.6024	0.0076
499.8013	0.0048
500.0002	0.0048
500.199	0.0079
500.3979	0.0001
500.5967	0.0031
500.7956	0.003
500.9944	0.003
501.1932	0.0126
501.3919	0.0148
501.5907	0.0154
501.7895	0.0002
501.9882	-0.0003
502.1869	0.0129
502.3856	-0.0003
502.5843	0.0061
502.783	-0.0001
502.9816	0.0084
503.1803	0.005
503.3789	0.011
503.5775	-0.0009
503.7761	-0.0167
503.9747	0.0101
504.1732	-0.0015
504.3718	0.0135
504.5703	0.0063
504.7689	-0.0074
504.9674	0.0007
505.1658	-0.0014
505.3643	0.0004
505.5628	0.0025
505.7612	0.0076
505.9597	-0.001
506.1581	0.008
506.3565	-0.0013
506.5549	0.006
506.7532	-0.0037
506.9516	0.0049
507.1499	0.0072
507.3482	0.0032
507.5465	0.0102
507.7448	0.0065
507.9431	0.0082
508.1414	0.0026
508.3396	-0.0048
508.5379	0.0008
508.7361	0.0088
508.9343	0.0101
509.1325	0.0131
509.3306	0.0041
509.5288	-0.0077
509.7269	0.0099
509.9251	0.0103
510.1232	0.0088
510.3213	-0
510.5193	-0.001
510.7174	-0.0041
510.9154	0.0063
511.1135	0.0038
511.3115	0.0063
511.5095	0.0019
511.7075	0.0057
511.9055	0.0037
512.1034	0.0038
512.3014	0.0068
512.4993	0.0066
512.6972	0.0037
512.8951	0.0039
513.093	-0.0053
513.2908	0.0068
513.4887	-0.0001
513.6865	0.0037
513.8844	0.0035
514.0822	0.0082
514.2799	-0.0018
514.4777	-0.0099
514.6755	0.0045
514.8732	0.0003
515.0709	0.0052
515.2687	-0.002
515.4664	0.0075
515.664	0.0097
515.8617	0.0114
516.0594	0.0036
516.257	0.0068
516.4546	0.0232
516.6522	0.0043
516.8498	0.0052
517.0474	0.0136
517.2449	-0.0008
517.4425	0.0022
517.64	0.0143
517.8375	0.0016
518.035	-0.0076
518.2325	-0.0011
518.43	0.0039
518.6274	0.0018
518.8249	-0.0013
519.0223	0.0096
519.2197	0.0051
519.4171	-0.0097
519.6145	0.0097
519.8118	-0.0113
520.0092	-0.0109
520.2065	0.0073
520.4038	-0.0023
520.6011	-0.0024
520.7984	0.0168
520.9956	0.008
521.1929	0.0089
521.3901	0.0076
521.5874	0.013
521.7846	-0.0044
521.9818	-0.0058
522.1789	-0.0107
522.3761	0.015
522.5732	0.0044
522.7704	-0.0049
522.9675	-0.0098
523.1646	0.0024
523.3617	0.0162
523.5587	-0.0018
523.7558	0.0045
523.9528	0.0089
524.1498	-0.0006
524.3468	0.0126
524.5438	0.0072
524.7408	0
524.9378	0.0092
525.1347	-0.002
525.3316	0.0014
525.5285	0.0019
525.7254	0.004
525.9223	0.0048
526.1192	0.0099
526.316	0.0099
526.5129	0.0071
526.7097	0.0002
526.9065	0.0141
527.1033	-0.001
527.3	-0.0015
527.4968	0.0132
527.6935	0.004
527.8903	0.0051
528.087	0.0001
528.2837	0.0061
528.4804	0.0024
528.677	-0.0018
528.8737	0.0055
529.0703	0.0011
529.2669	0.0038
529.4635	0.0028
529.6601	-0.0022
529.8567	0.0066
530.0532	0.0043
530.2498	0.0047
530.4463	-0.0099
530.6428	0.0092
530.8393	0.0158
531.0358	-0.0061
531.2322	-0.0073
531.4287	-0.0005
531.6251	0.0028
531.8215	0.0089
532.0179	0.0112
532.2143	0.003
532.4107	0.0124
532.607	0.0052
532.8034	0.0001
532.9997	0.0011
533.196	-0.0023
533.3923	0.0095
533.5886	-0.0004
533.7848	-0.0048
533.9811	0.0063
534.1773	0.0024
534.3735	0.0021
534.5697	0.001
534.7659	0.008
534.9621	0.003
535.1582	0.0027
535.3544	0.0065
535.5505	0.0069
535.7466	0.0037
535.9427	-0.0036
536.1387	-0.0098
536.3348	0.0113
536.5308	0.0043
536.7269	-0.0011
536.9229	0.0037
537.1189	0.0074
537.3148	0.0023
537.5108	0.0019
537.7068	0.0031
537.9027	-0.0054
538.0986	0.0101
538.2945	0.0034
538.4904	0.003
538.6863	0.0048
538.8821	0.0131
539.078	0.0065
539.2738	0.0028
539.4696	-0.0072
539.6654	0.0111
539.8611	0.0024
540.0569	0.0022
540.2526	0.0122
540.4484	-0.0146
540.6441	0.0052
540.8398	0.0076
541.0355	-0.002
541.2311	0.006
541.4268	0.0095
541.6224	0.0149
541.818	0.0145
542.0136	0.0008
542.2092	0.0122
542.4048	-0.0015
542.6003	-0.001
542.7959	0.0079
542.9914	0.0063
543.1869	0.0003
543.3824	0.0083
543.5779	0.0069
543.7734	0.0155
543.9688	0.0037
544.1642	0.0019
544.3596	0.0144
544.555	0.0024
544.7504	0.0167
544.9458	0.0008
545.1411	-0.0034
545.3365	0.0067
545.5318	0.0154
545.7271	-0.0006
545.9224	0.0025
546.1177	0.0102
546.3129	0.0088
546.5081	-0.0011
546.7034	0.0036
546.8986	0.0087
547.0938	0.0084
547.289	0.0135
547.4841	0.0036
547.6793	0.0098
547.8744	0.0124
548.0695	-0.0004
548.2646	0.0125
548.4597	-0.0003
548.6548	0.0105
548.8498	0.007
549.0448	0.0036
549.2399	0.0094
549.4349	0.009
549.6298	0.0057
549.8248	-0.0015
550.0198	0.0087
550.2147	0.0037
550.4096	-0.0098
550.6045	-0.0009
550.7994	0.0111
550.9943	0.0066
551.1892	-0.0107
551.384	0.0119
551.5788	-0.003
551.7737	0.0052
551.9685	0.0086
552.1632	0.0068
552.358	-0.001
552.5528	0.004
552.7475	-0.0004
552.9422	0.0115
553.1369	0.004
553.3316	0.0079
553.5263	0.0077
553.7209	0.0005
553.9156	0.0071
554.1102	0.0052
554.3048	0.0011
554.4994	0.0149
554.694	0.0087
554.8885	0.0006
555.0831	0.003
555.2776	0.0053
555.4721	0.0107
555.6666	0.0021
555.8611	0.0053
556.0555	0.0007
556.25	0.0141
556.4444	0.0024
556.6388	-0.0074
556.8332	0.0099
557.0276	0.0075
557.222	-0.0032
557.4163	0.0047
557.6107	-0.002
557.805	0.0036
557.9993	0.0015
558.1936	-0.0068
558.3879	0.0033
558.5821	-0.0021
558.7764	-0.0044
558.9706	-0.0011
559.1648	0.0046
559.359	-0.0103
559.5532	-0.0001
559.7473	0.0021
559.9415	0.0002
560.1356	0.0127
560.3297	-0.0044
560.5238	0.012
560.7179	0.0016
560.9119	-0.0047
561.106	-0.0008
561.3	0.0064
561.494	-0.0073
561.688	-0.0071
561.882	0.0062
562.076	-0.0006
562.2699	0.0121
562.4639	0.011
562.6578	0.0106
562.8517	-0.0006
563.0456	0.0037
563.2395	0.0031
563.4333	-0.0004
563.6272	0.0039
563.821	0
564.0148	0.003
564.2086	0.0069
564.4024	0.0151
564.5961	0.0005
564.7899	0.0121
564.9836	-0.001
565.1773	0.0091
565.371	0.0018
565.5647	0.0064
565.7584	0.0045
565.952	0.005
566.1456	0.0033
566.3393	0.0048
566.5329	-0.0009
566.7264	0.0051
566.92	-0.0062
567.1136	-0.0052
567.3071	0.0006
567.5006	0.0039
567.6941	0.002
567.8876	0.0052
568.0811	0.0184
568.2745	-0.0026
568.468	0.0064
568.6614	0.0071
568.8548	0.0063
569.0482	0.0017
569.2416	0.0016
569.4349	-0.0017
569.6283	0
569.8216	0.0021
570.0149	-0.0004
570.2082	0.006
570.4015	-0.0003
570.5947	0.0023
570.788	0.0083
570.9812	0.0005
571.1744	0.0021
571.3676	-0.0012
571.5608	0.0034
571.754	0.0092
571.9471	0.0038
572.1402	0.002
572.3333	-0.0009
572.5264	0.0036
572.7195	0.0015
572.9126	0.0034
573.1057	0.0018
573.2987	0.0053
573.4917	0.0041
573.6847	0.0006
573.8777	0.0064
574.0707	0.0046
574.2636	0.0022
574.4566	0.0017
574.6495	0.0032
574.8424	0.0067
575.0353	0.0043
575.2281	0.0099
575.421	-0.0026
575.6138	0.0045
575.8067	0.0075
575.9995	0.003
576.1923	0.005
576.385	0.0061
576.5778	0.0049
576.7706	0.0044
576.9633	0.0034
577.156	-0.0051
577.3487	-0.003
577.5414	0.0041
577.734	0.0008
577.9267	0.0049
578.1193	0.0056
578.3119	0
578.5045	-0.0028
578.6971	-0.0031
578.8897	-0.0019
579.0822	0.0085
579.2747	0.0035
579.4673	0.0057
579.6598	0.0038
579.8522	0.0058
580.0447	0.0035
580.2372	0.0076
580.4296	0.0073
580.622	0.0006
580.8144	0.0034
581.0068	0.0015
581.1992	0.0028
581.3915	0.0002
581.5839	0.0035
581.7762	0.0019
581.9685	0.0049
582.1608	0.0055
582.353	-0.0001
582.5453	0.0041
582.7375	0.0023
582.9298	-0.0008
583.122	0.0003
583.3142	0.0095
583.5063	0.0042
583.6985	-0.0028
583.8906	0.0013
584.0827	0.0046
584.2749	-0.0012
584.4669	0.0021
584.659	0.0032
584.8511	0.007
585.0431	0.0028
585.2352	0.001
585.4272	0.0019
585.6192	0.0029
585.8111	0.003
586.0031	-0.0009
586.195	0.002
586.387	0.003
586.5789	0.0053
586.7708	0.0055
586.9627	0.0003
587.1545	0.0035
587.3464	0.0041
587.5382	0.0026
587.73	0.0095
587.9218	0.0008
588.1136	-0.0005
588.3053	0.0029
588.4971	-0.0001
588.6888	0.0056
588.8805	0.0021
589.0722	0.0057
589.2639	0.0004
589.4556	0
589.6472	0.0098
589.8389	-0.0017
590.0305	0.0036
590.2221	0.008
590.4137	-0.0005
590.6052	0.0057
590.7968	0.0019
590.9883	0.0047
591.1798	0.0016
591.3713	0.0008
591.5628	0.006
591.7543	0.0046
591.9458	0.0017
592.1372	0.0022
592.3286	0.001
592.52	0.0011
592.7114	0.0027
592.9028	0.0091
593.0941	-0.0012
593.2855	0.0023
593.4768	0.0084
593.6681	0.0045
593.8594	0.0086
594.0506	0.0007
594.2419	0.002
594.4331	0.0026
594.6244	-0.0011
594.8156	0.0024
595.0067	-0.0015
595.1979	0.0011
595.3891	0.0017
595.5802	0.0043
595.7713	0.0007
595.9624	0.0073
596.1535	0.0007
596.3446	0.0011
596.5357	0.0044
596.7267	0.0022
596.9177	-0.0007
597.1087	-0.0025
597.2997	0.0063
597.4907	-0.0021
597.6817	0.0068
597.8726	0.0106
598.0635	0.0006
598.2544	0.006
598.4453	0.0083
598.6362	0.0018
598.827	-0.0007
599.0179	0.0027
599.2087	0.011
599.3995	0.0029
599.5903	0.0072
599.7811	0.0097
599.9718	0.001
600.1626	0.002
600.3533	-0.0035
600.544	0.0037
600.7347	0.0047
600.9254	0.0089
601.116	0.0029
601.3067	0.0046
601.4973	0.0074
601.6879	-0.0021
601.8785	0.0021
602.0691	-0.0015
602.2596	0.0054
602.4502	0.0103
602.6407	-0.0008
602.8312	0.0051
603.0217	0.0014
603.2122	0.0025
603.4027	0.0023
603.5931	0.0047
603.7835	0.0018
603.9739	0.0004
604.1643	0.008
604.3547	0.0109
604.5451	0.0095
604.7354	-0.0079
604.9257	0.0035
605.116	0
605.3063	0.0052
605.4966	0.0062
605.6869	0.0044
605.8771	0.0023
606.0673	0.0004
606.2575	-0.0008
606.4477	0.0066
606.6379	0.0005
606.8281	-0.0011
607.0182	0.0029
607.2083	0.0022
607.3985	0.0019
607.5885	0.0015
607.7786	0.0031
607.9687	0.0051
608.1587	0.0076
608.3488	0.0056
608.5388	-0.0059
608.7288	0.0005
608.9187	0.007
609.1087	0.0106
609.2986	0.0085
609.4886	-0.0002
609.6785	0.0028
609.8684	-0.0012
610.0582	-0.0028
610.2481	0.0039
610.4379	0.0051
610.6278	0.0086
610.8176	0.0101
611.0074	0.0065
611.1971	0.0015
611.3869	0.0025
611.5766	-0.0033
611.7664	0.0098
611.9561	0.0098
612.1458	0.005
612.3354	0.0023
612.5251	0.004
612.7147	0.003
612.9044	0.0014
613.094	0.0011
613.2836	0.0022
613.4731	0.0052
613.6627	0.0116
613.8522	0.0058
614.0417	0.0036
614.2313	0.0058
614.4207	0.0064
614.6102	0.0045
614.7997	0.0109
614.9891	0.0062
615.1785	-0.0021
615.3679	0.0079
615.5573	0.0048
615.7467	0.0039
615.9361	0.0143
616.1254	0.0108
616.3147	0.0032
616.504	0.0018
616.6933	0.0016
616.8826	0.0012
617.0718	0.0032
617.2611	-0.001
617.4503	-0.0031
617.6395	0.0025
617.8287	0.007
618.0179	0.0073
618.207	0.0075
618.3961	-0.0008
618.5853	0.0031
618.7744	0.0055
618.9634	0.013
619.1525	0.0049
619.3416	-0.0038
619.5306	0.0092
619.7196	0.0048
619.9086	-0.0036
620.0976	-0.0047
620.2866	0.0057
620.4755	-0.0043
620.6645	0.0096
620.8534	0.0041
621.0423	0.0036
621.2312	-0.0024
621.42	0.0012
621.6089	-0.0024
621.7977	0.0053
621.9865	0.0006
622.1753	-0.0001
622.3641	-0.0036
622.5529	-0.0035
622.7416	0.0015
622.9303	-0.0012
623.1191	0.0102
623.3078	0.0011
623.4964	0.0143
623.6851	0.0072
623.8737	0.0052
624.0624	-0.0075
624.251	-0.0023
624.4396	0.0073
624.6282	0.0123
624.8167	0.0011
625.0053	0.0096
625.1938	0.003
625.3823	0.0069
625.5708	-0.0079
625.7593	0.0003
625.9477	0.0102
626.1362	0.0077
626.3246	0.004
626.513	-0.0012
626.7014	0.0098
626.8898	0.0154
627.0781	0.0055
627.2665	0.0057
627.4548	-0.0036
627.6431	0.0094
627.8314	0.0099
628.0197	0.0022
628.2079	0.0042
628.3962	0.0135
628.5844	0.008
628.7726	-0.0039
628.9608	0.0142
629.1489	-0.0004
629.3371	-0.0026
629.5252	-0.0015
629.7134	-0.003
629.9015	0.0114
630.0895	-0.0076
630.2776	0.0025
630.4657	0.0072
630.6537	0.0103
630.8417	-0.0013
631.0297	-0.0021
631.2177	0.0075
631.4057	0.0175
631.5936	0.0078
631.7815	0.0036
631.9695	0.0193
632.1574	0.0001
632.3452	0.0154
632.5331	-0.0006
632.7209	0.0247
632.9088	-0.0009
633.0966	0.028
633.2844	0.0041
633.4722	0.0111
633.6599	0.0212
633.8477	0.0059
634.0354	0.0243
634.2231	-0.0018
634.4108	-0.0058
634.5985	0.0132
634.7861	-0.0073
634.9738	-0.0217
635.1614	0.0109
635.349	0.0094
635.5366	0.02
635.7242	0.0036
635.9117	0.013
636.0993	-0.0032
636.2868	0.004
636.4743	0.0116
636.6618	-0.0067
636.8492	0.0056
637.0367	0.0004
637.2241	0.0008
637.4115	0.028
637.5989	0.0026
637.7863	0.025
637.9737	0.0116
638.161	0.0222
638.3484	-0.0164
638.5357	-0.0027
638.723	0.0095
638.9103	-0.0193
639.0975	0.0046
639.2848	0.0168
639.472	0.0073
639.6592	-0.0143
639.8464	-0.0041
640.0336	0.0143
640.2208	0.0005
640.4079	-0.016
640.595	-0.0089
640.7821	0.0042
640.9692	0.0019
641.1563	0.0113
641.3434	0.0252
641.5304	0.017
641.7174	0.0176
641.9044	-0.0049
642.0914	0.0298
642.2784	0.0116
642.4653	-0.0033
642.6523	0.0152
642.8392	-0.0169
643.0261	0.0027
643.213	-0.0095
643.3999	0.0089
643.5867	0.0133
643.7735	0.0106
643.9604	0.0268
644.1472	0.0116
644.3339	-0.0013
644.5207	0.0246
644.7075	0.0073
644.8942	-0.0025
645.0809	0.0142
645.2676	-0.0131
645.4543	-0.0021
645.6409	0.0101
645.8276	0.0106
646.0142	0.0152
646.2008	0.0028
646.3874	-0.0032
646.574	0.0035
646.7605	0.0069
646.9471	0.0006
647.1336	-0.007
647.3201	0.01
647.5066	-0.0108
647.6931	0.0075
647.8795	0.0055
648.0659	-0.0046
648.2524	0.0137
648.4388	0.0064
648.6252	0.0027
648.8115	0.0109
648.9979	0.022
649.1842	0.0093
649.3705	0.0121
649.5568	-0.0162
649.7431	-0.0222
649.9294	0.0112
650.1156	-0.0019
650.3018	0.0181
650.488	0.0191
650.6742	0.0127
650.8604	-0.0024
651.0466	0.0095
651.2327	0.0219
651.4188	-0.0124
651.6049	0.015
651.791	0.0153
651.9771	0.0073
652.1632	0.0154
652.3492	-0.0042
652.5352	0.0144
652.7212	0.0108
652.9072	-0.0003
653.0932	0.0172
653.2791	0.0113
653.465	-0.0026
653.651	0.0011
653.8369	0.0159
654.0227	0.0128
654.2086	0.0078
654.3944	0.0304
654.5803	-0.0057
654.7661	0.0066
654.9519	0.0035
655.1377	0.0002
655.3234	0.0002
655.5092	0.0002
655.6949	0.0002
655.8806	0.0002
656.0663	0.0002
656.2519	0.0002
656.4376	0.0002
656.6232	0.0002
656.8088	0.0002
656.9945	0.0002
657.18	0.0002
657.3656	0.0002
657.5511	0.0002
657.7367	0.0002
657.9222	0.0002
658.1077	0.0002
658.2932	0.0002
658.4786	0.0002
658.6641	0.0002
658.8495	0.0002
659.0349	0.0002
659.2203	0.0002
659.4057	0.0002
659.591	0.0712
659.7764	0.0211
659.9617	-0.0025
660.147	-0.0045
660.3323	0.0005
660.5176	0.0158
660.7028	-0.0084
660.888	0.0144
661.0733	0.0296
661.2585	-0.0123
661.4436	0.0147
661.6288	0.0154
661.8139	-0.0096
661.9991	-0.0053
662.1842	0.0009
662.3693	0.0062
662.5544	0.0064
662.7394	0.0145
662.9245	0.0062
663.1095	-0.0204
663.2945	-0.0066
663.4795	-0.008
663.6644	0.0057
663.8494	0.0157
664.0343	-0.0007
664.2193	0.0096
664.4042	0.0118
664.589	0.0173
664.7739	0.0033
664.9587	0.0183
665.1436	-0.0009
665.3284	0.0008
665.5132	-0.03
665.698	0.0196
665.8827	0.004
666.0675	-0.0136
666.2522	0.0038
666.4369	-0.006
666.6216	0.0163
666.8063	0.0114
666.9909	0.0117
667.1756	-0.0186
667.3602	-0.0057
667.5448	0.0146
667.7294	0.0194
667.9139	-0.0002
668.0985	0.0135
668.283	0.0018
668.4675	0.0231
668.652	0.0112
668.8365	0.0098
669.0209	0.0168
669.2054	-0.0065
669.3898	0.0142
669.5742	0.0292
669.7586	0.0166
669.943	0.0059
670.1273	-0.0046
670.3117	0.0207
670.496	0.0056
670.6803	0.0093
670.8646	-0.004
671.0488	0.0152
671.2331	-0.0075
671.4173	0.0129
671.6015	-0.0051
671.7857	0.0083
671.9699	0.0148
672.1541	0.0061
672.3382	0.0081
672.5223	-0.0035
672.7064	0.0025
672.8905	-0.0044
673.0746	0.0147
673.2587	0.0341
673.4427	-0.0002
673.6267	-0.0031
673.8107	0.0261
673.9947	0.0191
674.1787	0.005
674.3626	0.0167
674.5465	0.0371
674.7304	0.018
674.9143	0.0102
675.0982	0.0063
675.2821	-0.0096
675.4659	-0.0139
675.6497	0.0245
675.8335	0.0135
676.0173	0.0113
676.2011	-0.0137
676.3849	0.0272
676.5686	0.0166
676.7523	0.0088
676.936	0.0013
677.1197	-0.015
677.3034	0.03
677.487	-0.0029
677.6706	0.0057
677.8542	-0.0132
678.0378	0.015
678.2214	0.0075
678.405	-0.0015
678.5885	0.0134
678.772	0.0031
678.9555	0.0062
679.139	0.0256
679.3225	-0.0007
679.5059	-0.002
679.6894	0.0123
679.8728	-0.0012
680.0562	0.0074
680.2395	0.0048
680.4229	0.0038
680.6062	0.0147
680.7896	-0.0045
680.9729	0.0188
681.1562	-0.0041
681.3394	0.0134
681.5227	0.0146
681.7059	0.0023
681.8891	0.0208
682.0723	-0.0031
682.2555	-0.0014
682.4387	0.0175
682.6218	0.0094
682.805	0.0266
682.9881	0.012
683.1712	0.0197
683.3542	0.0194
683.5373	-0.0032
683.7203	0.007
683.9034	-0.0013
684.0864	-0.0047
684.2694	-0.0111
684.4523	0.0072
684.6353	0.0128
684.8182	0.0046
685.0011	0.0001
685.184	-0.0032
685.3669	0.0213
685.5498	0.0099
685.7326	-0.0072
685.9154	0.0085
686.0982	0.0093
686.281	-0.0034
686.4638	0.0079
686.6465	0.0084
686.8293	-0.0185
687.012	0.006
687.1947	0.0005
687.3774	0.0096
687.56	0.0055
687.7427	0.008
687.9253	-0.0069
688.1079	0.0197
688.2905	0.005
688.4731	-0.007
688.6556	0.0021
688.8382	-0.026
689.0207	0.009
689.2032	0.0275
689.3857	-0.0109
689.5681	0.0051
689.7506	0.034
689.933	0.0066
690.1154	0.0035
690.2978	0.0122
690.4802	0.0129
690.6626	0.0033
690.8449	0.0049
691.0272	0.0043
691.2095	-0.003
691.3918	0.0007
691.5741	0.0186
691.7563	0.0188
691.9386	0.0232
692.1208	0.0143
692.303	-0.0064
692.4852	0.0168
692.6673	0.0177
692.8495	-0.0062
693.0316	0.0232
693.2137	0.0174
693.3958	0.0109
693.5778	-0.0031
693.7599	0.0131
693.9419	-0.0009
694.1239	0.0063
694.3059	-0.0088
694.4879	-0.0073
694.6699	0.0007
694.8518	0.0165
695.0337	-0.004
695.2157	0.0246
695.3975	-0.0012
695.5794	-0.0213
695.7613	0.0057
695.9431	-0.0111
696.1249	0.0319
696.3067	-0.0148
696.4885	0.0174
696.6703	-0.0001
696.852	-0.0186
697.0337	0.0182
697.2154	0.0036
697.3971	0.0172
697.5788	0.0121
697.7605	-0.016
697.9421	0.0078
698.1237	0.0098
698.3053	-0.0002
698.4869	-0.0028
698.6685	-0.0163
698.85	0.0263
699.0315	-0.0167
699.213	0.0106
699.3945	-0.0012
699.576	0.0056
699.7575	0.0453
699.9389	-0.0064
700.1203	-0.0042
700.3017	0.0194
700.4831	0.0411
700.6645	0.0473
700.8458	0.0089
701.0271	0.0197
701.2084	0.008
701.3897	-0.0138
701.571	-0.0176
701.7523	0.0018
701.9335	0.0085
702.1147	0.0084
702.2959	0.006
702.4771	0.0097
702.6583	-0.0058
702.8394	-0.0122
703.0205	0.0224
703.2016	-0.0161
703.3827	-0.0165
703.5638	0.0051
703.7449	0.014
703.9259	0.0205
704.1069	-0.0326
704.2879	0.0218
704.4689	0.0059
704.6499	0.0112
704.8308	-0.0063
705.0117	0.02
705.1927	0.0007
705.3735	0.0138
705.5544	0.0194
705.7353	-0.0053
705.9161	-0.0354
706.0969	0.0165
706.2777	0.0223
706.4585	-0.0006
706.6393	0.0288
706.82	0.0128
707.0007	-0.0012
707.1815	-0.0006
707.3621	0.018
707.5428	0.0225
707.7235	0.0016
707.9041	-0.0033
708.0847	-0.0056
708.2653	0.0308
708.4459	-0.0105
708.6265	-0.0095
708.807	0.0228
708.9875	0.0071
709.168	0.0127
709.3485	-0.0033
709.529	0.0145
709.7095	-0.0141
709.8899	-0.0105
710.0703	0.0451
710.2507	0.0017
710.4311	-0.0237
710.6115	0.0352
710.7918	0.0251
710.9721	0.0096
711.1524	-0.0079
711.3327	-0.0111
711.513	0.0226
711.6932	0.0091
711.8735	0.0114
712.0537	-0.0217
712.2339	0.0199
712.4141	0.038
712.5942	0.0131
712.7744	0.0008
712.9545	0.0254
713.1346	0.0424
713.3147	0.0018
713.4947	-0.0062
713.6748	0.0004
713.8548	0.0193
714.0348	0.0203
714.2148	0.0157
714.3948	0.0079
714.5748	0.001
714.7547	0.0257
714.9346	0.0251
715.1145	0.0092
715.2944	-0.0212
715.4743	0.0101
715.6541	-0.022
715.834	0.0512
716.0138	0.0317
716.1936	0.0093
716.3733	-0.0053
716.5531	0.0133
716.7328	0.0268
716.9126	0.0114
717.0923	-0.0131
717.2719	0.0302
717.4516	0.013
717.6312	-0.0073
717.8109	0.0033
717.9905	0.0132
718.1701	0.0045
718.3496	0.0017
718.5292	0.0277
718.7087	0.0138
718.8882	0.0251
719.0677	0.015
719.2472	-0.007
719.4267	-0.0076
719.6061	-0.0183
719.7856	0.027
719.965	0.02
720.1443	-0.0038
720.3237	0.0081
720.5031	0.0063
720.6824	0.0028
720.8617	-0.0069
721.041	0.0266
721.2203	0.0042
721.3995	0.0024
721.5788	-0.0046
721.758	0.0006
721.9372	0.0022
722.1164	0.0172
722.2956	0.0185
722.4747	0.0081
722.6538	0.0145
722.8329	0.0159
723.012	0.01
723.1911	0.007
723.3702	0.0276
723.5492	0.0212
723.7282	0.0097
723.9072	0.0179
724.0862	0.0174
724.2652	0.0079
724.4441	0.0109
724.623	0.022
724.8019	0.0143
724.9808	0.0405
725.1597	0.0143
725.3385	-0.0009
725.5174	0.0038
725.6962	0.0279
725.875	0.0071
726.0538	-0.005
726.2325	0.0177
726.4112	-0.0017
726.59	0.0052
726.7687	-0.0044
726.9474	-0.0011
727.126	0.0032
727.3047	0.0013
727.4833	-0.0032
727.6619	-0.0077
727.8405	-0.0019
728.0191	0.0354
728.1976	0.0145
728.3762	0.0264
728.5547	0.0071
728.7332	0.0053
728.9116	0.0178
729.0901	0.0168
729.2686	0.0084
729.447	-0.0136
729.6254	0.0154
729.8038	0.0174
729.9821	-0.0111
730.1605	0.0159
730.3388	0.0139
730.5171	0.0192
730.6954	-0.0172
730.8737	0.0102
731.0519	0.018
731.2302	0.0053
731.4084	0.0029
731.5866	-0.0016
731.7648	0.02
731.9429	0.0086
732.1211	-0.0133
732.2992	0.0039
732.4773	0.0178
732.6554	0.0044
732.8335	0.0217
733.0115	0.0041
733.1896	0.0014
733.3676	0.0264
733.5456	-0.0063
733.7235	0.0045
733.9015	0.0124
734.0794	0.0086
734.2574	-0.0171
734.4353	0.0396
734.6131	-0.0005
734.791	-0.0027
734.9689	-0.0075
735.1467	0.0054
735.3245	0.0165
735.5023	0.022
735.68	0.0042
735.8578	0.0118
736.0355	-0.0052
736.2132	0.0086
736.3909	0.0236
736.5686	-0.005
736.7463	0.0004
736.9239	0.0176
737.1015	-0.0017
737.2791	0.0159
737.4567	0.0112
737.6343	0.0012
737.8118	0.0076
737.9894	0.0068
738.1669	-0.0098
738.3444	0.0322
738.5218	-0.0261
738.6993	0.0211
738.8767	-0.0041
739.0541	-0.0017
739.2315	-0.0004
739.4089	0.0332
739.5863	0.0283
739.7636	0.0224
739.9409	0.0191
740.1182	0.0122
740.2955	0.0092
740.4728	-0.0012
740.65	-0.0086
740.8272	0.0141
741.0044	-0.029
741.1816	0.0139
741.3588	-0.0004
741.5359	0.0007
741.7131	0.0275
741.8902	0.001
742.0673	-0.018
742.2444	0.0306
742.4214	0.0009
742.5985	0.0043
742.7755	-0.0046
742.9525	-0.0287
743.1295	-0.0028
743.3064	0.0105
743.4834	-0.0111
743.6603	0.0414
743.8372	-0.0255
744.0141	0.0199
744.191	0.0011
744.3678	-0.0162
744.5446	-0.0034
744.7215	-0.0029
744.8982	0.0085
745.075	0.0604
745.2518	0.0042
745.4285	0.0212
745.6052	-0.0256
745.7819	0.0063
745.9586	0.0262
746.1353	-0.0104
746.3119	0.0077
746.4885	0.0091
746.6651	0.0222
746.8417	0.0121
747.0183	0.0423
747.1948	0.0278
747.3714	0.0248
747.5479	0.0365
747.7244	-0.0272
747.9008	-0.002
748.0773	0.0466
748.2537	0.0316
748.4301	0.05
748.6065	0.0135
748.7829	-0.0289
748.9593	-0.0018
749.1356	-0.0019
749.3119	0.0085
749.4882	0.0221
749.6645	0.0031
749.8408	0.0122
750.017	-0.0014
750.1933	-0.0162
750.3695	0.0157
750.5457	-0.0116
750.7218	0.025
750.898	0.0155
751.0741	-0.0186
751.2502	0.0155
751.4263	0.0198
751.6024	0.0001
751.7784	-0.0037
751.9545	0.0061
752.1305	0.0136
752.3065	0.0108
752.4825	-0.0078
752.6584	0.0029
752.8344	-0.0115
753.0103	-0.0274
753.1862	0.0033
753.3621	0.0074
753.5379	0.0001
753.7138	0.0202
753.8896	-0.0082
754.0654	0.0086
754.2412	0.0053
754.417	0.0409
754.5927	0.0207
754.7685	0.0026
754.9442	0.0121
755.1199	0.0122
755.2956	0.0295
755.4712	0.0025
755.6469	0.0129
755.8225	0.018
755.9981	0.0187
756.1736	0.0136
756.3492	0.0001
756.5248	0.0033
756.7003	-0.0041
756.8758	-0.0027
757.0513	-0.0017
757.2267	0.0187
757.4022	-0.013
757.5776	0.0122
757.753	0.0189
757.9284	0.0086
758.1038	0.0197
758.2791	0.0124
758.4545	-0.0005
758.6298	0.02
758.8051	0.0054
758.9803	0.0112
759.1556	0.0102
759.3308	-0.0033
759.506	0.0174
759.6812	-0.0177
759.8564	-0.008
760.0316	0.0096
760.2067	0.0147
760.3819	-0.0128
760.557	0.0118
760.732	0.0108
760.9071	0.0132
761.0821	-0.0142
761.2572	0.0205
761.4322	0.0191
761.6072	-0.008
761.7821	-0.0078
761.9571	0.0218
762.132	0.0164
762.3069	0.0041
762.4818	0.0425
762.6567	0.0094
762.8316	0.0171
763.0064	0.023
763.1812	0.0276
763.356	-0.0072
763.5308	0.0004
763.7055	0.0026
763.8803	-0.0058
764.055	0.0073
764.2297	-0.006
764.4044	0.0056
764.579	-0.004
764.7537	-0.0055
764.9283	0.0193
765.1029	-0.0037
765.2775	0.0144
765.4521	0.0129
765.6266	0.0096
765.8011	0.0035
765.9756	0.0215
766.1501	-0.0127
766.3246	0.0006
766.4991	0.0243
766.6735	0.031
766.8479	-0.0014
767.0223	0.014
767.1967	0.0216
767.371	0.0148
767.5454	0.0476
767.7197	0.0364
767.894	0.0005
768.0683	0.0416
768.2425	0.0072
768.4168	0.0061
768.591	-0.0075
768.7652	-0.0136
768.9394	0.0055
769.1135	-0.021
769.2877	0.0238
769.4618	0.0205
769.6359	-0.0162
769.81	0.0311
769.984	0.002
770.1581	0.0065
770.3321	0.0144
770.5061	0.0095
770.6801	0.0116
770.8541	0.0191
771.028	0.0213
771.202	0.0303
771.3759	0.0005
771.5498	0.0159
771.7236	-0.0003
771.8975	0.0236
772.0713	0.0285
772.2451	0.0026
772.4189	0.012
772.5927	-0.0194
772.7665	-0.0284
772.9402	0.056
773.1139	-0.0009
773.2876	0.0159
773.4613	0.0318
773.635	0.0141
773.8086	0.0013
773.9822	0.0281
774.1558	0.0659
774.3294	0.012
774.503	0.0009
774.6765	0.0176
774.8501	-0.0301
775.0236	0.0661
775.1971	-0.0111
775.3705	-0.0082
775.544	-0.0415
775.7174	0.0161
775.8908	0.0434
776.0642	0.0222
776.2376	0.0296
776.4109	0.0314
776.5843	-0.0169
776.7576	0.0282
776.9309	0.0079
777.1041	-0.0128
777.2774	0.0475
777.4506	-0.0295
777.6238	0.0164
777.797	0.0331
777.9702	0.0328
778.1434	0.0083
778.3165	-0.0203
778.4896	-0.0341
778.6627	0.0267
778.8358	-0.0112
779.0089	0.0149
779.1819	0.0365
779.3549	0.0258
779.5279	-0.0442
779.7009	0.0485
779.8739	0.0924
780.0468	-0.013
780.2197	0.0137
780.3926	-0.0114
780.5655	0.0154
780.7384	0.0054
780.9112	-0.0012
781.0841	0.0318
781.2569	0.0181
781.4297	0.0507
781.6024	0.0498
781.7752	0.0355
781.9479	0.077
782.1206	0.005
782.2933	-0.0049
782.466	-0.0062
782.6386	0.0036
782.8113	0.0031
782.9839	-0.0171
783.1565	0.0234
783.329	0.0364
783.5016	0.0135
783.6741	-0.0016
783.8466	0.031
784.0191	0.0285
784.1916	-0.0198
784.3641	-0.033
784.5365	0.0401
784.7089	-0.0169
784.8813	0.0507
785.0537	0.0234
785.2261	-0.0012
785.3984	-0.0032
785.5707	-0.0318
785.743	0.066
785.9153	-0.05
786.0876	-0.0242
786.2598	-0.0251
786.432	0.0399
786.6042	0.0323
786.7764	-0.023
786.9486	0.0222
787.1207	0.0632
787.2928	0.0659
787.4649	-0.0024
787.637	0.0055
787.8091	0.0452
787.9811	0.0234
788.1532	0.0274
788.3252	0.0132
788.4972	0.0153
788.6691	0.0452
788.8411	0.0093
789.013	0.0334
789.1849	0.0349
789.3568	0.045
789.5287	0.069
789.7005	-0.0488
789.8723	-0.0144
790.0442	0.0302
790.2159	0.0314
790.3877	0.0791
790.5595	0.0887
790.7312	-0.0076
790.9029	-0.0148
791.0746	0.013
791.2463	-0.01
791.4179	-0.008
791.5896	0.0394
791.7612	0.0177
791.9328	0.0464
792.1044	0.0347
792.2759	-0.0166
792.4474	-0.0145
792.619	-0.0008
792.7905	0.0385
792.9619	0.0108
793.1334	0.0562
793.3048	0.0641
793.4762	0.0281
793.6476	0.005
793.819	-0.0044
793.9904	0.0051
794.1617	-0.0041
794.333	0.0014
794.5043	0.0493
794.6756	0.0048
794.8469	0.0063
795.0181	0.0202
795.1893	0.0696
795.3605	0.0234
795.5317	0.0003
795.7029	0.0218
795.874	-0.0153
796.0452	0.0075
796.2163	0.0295
796.3873	0.0632
796.5584	0.0663
796.7294	0.0664
796.9005	0.0703
797.0715	-0.0372
797.2425	0.1111
797.4134	0.0473
797.5844	-0.026
797.7553	-0.0946
797.9262	0.0355
798.0971	0.0184
798.2679	0.0115
798.4388	0.0442
798.6096	0.0651
798.7804	0.0467
798.9512	0.0537
799.122	0.0148
799.2927	0.1257
799.4635	-0.0526
799.6342	0.0225
799.8049	-0.0033
799.9755	0.0432
800.1462	0.0129
800.3168	0.0462
800.4874	-0.1094
800.658	0.126
800.8286	0.0692
800.9991	0.0777
801.1696	-0.0039
801.3402	-0.0053
801.5106	0.0592
801.6811	0.0495
801.8516	0.0461
802.022	-0.0509
802.1924	-0.0721
802.3628	0.0311
802.5332	0.1077
802.7035	0.1503
802.8739	0.0267
803.0442	0.0459
803.2145	0.0224
803.3847	-0.045
803.555	0.0587
803.7252	0.0358
803.8954	-0.0447
804.0656	-0.0025
804.2358	0.0893
804.4059	0.0549
804.5761	0.028
804.7462	0.0075
804.9163	0.1089
805.0864	-0.0198
805.2564	0.0465
805.4264	-0.0172
805.5965	0.0418
805.7665	0.0679
805.9364	-0.0117
806.1064	0.0742
806.2763	0.0878
806.4462	0.033
806.6161	0.0446
806.786	0.0044
806.9559	0.0274
807.1257	0.0683
807.2955	0.0223
807.4653	0.0618
807.6351	0.0523
807.8048	0.0286
807.9746	0.0868
808.1443	0.0313
808.314	0.0447
808.4837	0.1138
808.6533	-0.0355
808.8229	0.0203
808.9926	-0.0063
809.1622	0.058
809.3317	-0.0389
809.5013	0.0309
809.6708	0.0192
809.8403	0.1147
810.0098	0.0169
810.1793	0.1097
810.3488	0.0045
810.5182	0.101
810.6876	0.1332
810.857	0.0942
811.0264	-0.0491
811.1958	0.0965
811.3651	0.0351
811.5344	0.1536
811.7037	0.0126
811.873	0.102
812.0422	0.0129
812.2115	0.058
812.3807	-0.1079
812.5499	-0.034
812.7191	0.1316
812.8882	-0.0631
813.0574	0.0873
813.2265	0.1606
813.3956	0.0332
813.5646	0.0642
813.7337	0.0519
813.9027	-0.0442
814.0718	0.0119
814.2407	0.0427
814.4097	0.1153
814.5787	0.0948
814.7476	0.0353
814.9165	0.1065
815.0854	-0.0287
815.2543	-0.0085
815.4232	0.1692
815.592	0.0432
815.7608	0.0137
815.9296	0.0482
816.0984	0.0303
816.2671	-0.2216
816.4359	0.1437
816.6046	0.1986
816.7733	0.11
816.942	0.0117
817.1106	0.0676
817.2793	0.0905
817.4479	0.0008
817.6165	0.0082
817.785	0.2422
817.9536	-0.019
818.1221	0.0396
818.2906	-0.084
818.4591	0.0785
818.6276	0.0286
818.7961	0.07
818.9645	0.1555
819.1329	0.1749
819.3013	0.101
819.4697	-0.0826
819.638	0.2049
819.8064	0.1575
819.9747	0.0841
820.143	-0.1342
820.3113	0.0839
820.4795	0.053
820.6477	0.1164
820.816	-0.0319
820.9842	0.2178
821.1523	0.0008
821.3205	0.0027
821.4886	0.0305
821.6567	-0.0181
821.8248	0.1214
821.9929	-0.11
822.1609	0.0903
822.329	0.0753
822.497	-0.0185
822.665	0.075
822.833	0.2162
823.0009	0.0012
823.1688	-0.0617
823.3367	-0.2261
823.5046	0.0719
823.6725	0.0352
823.8404	0.3744
824.0082	0.1512
824.176	-0.174
824.3438	0.2224
824.5116	0.0043
824.6793	0.1808
824.847	0.0019
825.0147	0.1911
825.1824	0.2912
825.3501	0.2723
825.5177	-0.0292
825.6854	0.2363
825.853	0.1699
826.0206	-0.0498
826.1881	0.1678
826.3557	0.1378
826.5232	0.2257
826.6907	0.0103
826.8582	0.1246
827.0257	0.246
827.1931	0.0475
827.3605	-0.0211
827.528	0.1958
827.6953	-0.1654
827.8627	-0.039
828.03	0.011
828.1974	-0.0344
828.3647	0.122
828.532	0.0414
828.6992	0.2029
828.8665	-0.2328
829.0337	0.4691
829.2009	-0.061
829.3681	0.2419
829.5352	-0.0298
829.7024	0.2559
829.8695	0.0757
830.0366	0.0284
830.2037	0.4143
830.3707	0.1383
830.5378	-0.147
830.7048	-0.0551
830.8718	0.4432
831.0388	-0.1228
831.2057	0.1543
831.3727	0.0049
831.5396	0.0934
831.7065	0.1597
831.8734	-0
832.0402	0.6071
832.2071	-0.431
832.3739	-0.3348
832.5407	-0.331
832.7075	0.3488
832.8742	0.286
833.041	0.6
833.2077	0.345
833.3744	0.0223
833.541	0.1841
833.7077	0.1244
833.8743	0.2809
834.0409	0.0754
834.2075	-0.0266
834.3741	-0.2159
834.5407	0.4276
834.7072	0.095
834.8737	0.0743
835.0402	0.4535
835.2067	-0.0597
835.3731	0.3124
835.5395	0.0359
835.706	0.446
835.8723	0.0941
836.0387	0.2167
836.2051	0.278
836.3714	0.943
836.5377	-0
836.704	0.4719
836.8703	0.1047
837.0365	0.2515
837.2027	0.0911
837.3689	-0.0419
837.5351	0.2138
837.7013	0.0455
837.8674	-0
838.0335	0.1568
838.1997	1.0631
838.3657	0.732
838.5318	-0.3193
838.6978	0.8571
838.8639	-0.2527
839.0299	-0.0789
839.1958	0.2834
839.3618	-0
839.5277	1.1161
839.6937	0.4967
839.8596	0.261
840.0254	-0.1754
840.1913	-0.3191
840.3571	0.0239
840.523	-0.2553
840.6888	0.3269
840.8545	-0.1635
841.0203	0.2281
841.186	-0.085
841.3517	-0.1906
841.5174	0.1442
841.6831	0.4211
841.8488	0.0971
842.0144	0.23
842.18	0.2088
842.3456	-0.3512
842.5112	-0.2881
842.6767	0.1885
842.8422	-0.0618
843.0077	0.8372
843.1732	-0.37
843.3387	0.0469
843.5042	-0
843.6696	-0.1593
843.835	-0.0083
844.0004	-0.1361
844.1657	-0
844.3311	-0.4817
844.4964	-0
844.6617	0.9792
844.827	-0
844.9923	0.3475
845.1575	0.0079
845.3227	-0.1012
845.4879	-0.2141
845.6531	-0.1025
845.8183	-0
845.9834	-0.1125
846.1485	0.3395
846.3136	-0
846.4787	-0
846.6438	-0
846.8088	-0
846.9738	-0
847.1388	0.4274
847.3038	0.0883
847.4687	-0.0478
847.6337	-0.4415
847.7986	-0.1889
847.9635	0.281
848.1284	-0
848.2932	-0
848.458	-0
848.6228	-0
848.7876	0.3587
848.9524	-0
849.1172	-1.3563
849.2819	-0.1992
849.4466	0.9945
849.6113	0.8687
849.7759	-0.3849
849.9406	0.204
850.1052	-0
850.2698	-0.0082
850.4344	-0.6287
850.599	0.583
850.7635	1.0756
850.928	0.2771
851.0925	0.6958
851.257	-0.0696
851.4215	0.1791
851.5859	0.0541
851.7503	-0
851.9147	-0
852.0791	0.0886
852.2434	-0
852.4078	-0
852.5721	-0
852.7364	2.221
852.9007	0.2005
853.0649	-0
853.2291	0.8079
853.3934	-0.2994
853.5575	-0.1828
853.7217	-0
853.8859	0.3962
854.05	-0.174
854.2141	0.1007
854.3782	0.0415
854.5423	-0
854.7063	0.2021
854.8703	0.2942
855.0343	-0.0461
855.1983	0.3093
855.3623	0.0201
855.5262	-0
855.6901	1.3429
855.854	0.3321
856.0179	-0.387
856.1818	0.3218
856.3456	0.4491
856.5094	-0.3728
856.6732	-0
856.837	-0.676
857.0008	-0.5017
857.1645	0.0075
857.3282	-0.3169
857.4919	0.0269
857.6556	-0.1022
857.8192	0.2128
857.9828	0.1057
858.1465	-0.261
858.31	1.4131
858.4736	-0.8441
858.6372	0.4088
858.8007	-0.0438
858.9642	0.9123
859.1277	0.5559
859.2911	-0.1138
859.4546	-1.4502
859.618	0.2072
859.7814	-0.3998
859.9448	-0
860.1081	-0
860.2715	-0
860.4348	-0
860.5981	-0
860.7614	0.9669
860.9246	-0
861.0879	0.7905
861.2511	-0
861.4143	-0
861.5774	-0.1042
861.7406	-0
861.9037	-0.8656
862.0668	-0.6001
862.2299	-0
862.393	-0
862.556	0.552
862.7191	0.5643
862.8821	0.1481
863.0451	0.6585
863.208	0.0891
863.371	-0
863.5339	0.1485
863.6968	-0
863.8597	-0
864.0225	-0
864.1854	0.2096
864.3482	-0
864.511	-0.0404
864.6737	0.1856
864.8365	1.0669
864.9992	-0
865.1619	-0
865.3246	-2.0682
865.4873	-0
865.65	-0
865.8126	-0
865.9752	0.6705
866.1378	-0
866.3004	0.1088
866.4629	-1.7426
866.6254	-0.147
866.7879	0.4532
866.9504	-0.2778
867.1129	-0.4073
867.2753	-0.0179
867.4377	-0.1898
867.6001	-0.7353
867.7625	-0
867.9249	-0.0126
868.0872	-0
868.2495	0.3131
868.4118	0.3989
868.5741	-0.5017
868.7363	-1.0197
868.8986	-0.6281
869.0608	-0.3945
869.223	0.2727
869.3851	-0
869.5473	-0.0759
869.7094	-0
869.8715	-0
870.0336	0.6396
870.1957	-0
870.3577	2.347
870.5197	-0
870.6817	1.4205
870.8437	-0
871.0057	-0
871.1676	0.4666
871.3295	0.7808
871.4914	-1.1399
871.6533	-0.5863
871.8151	0.5494
871.977	-0.342
872.1388	-0.1104
872.3006	-0
872.4623	-0
872.6241	-0
872.7858	0.1008
872.9475	-0
873.1092	-0
873.2709	1.3834
873.4325	-0.5863
873.5941	-0
873.7557	1.3741
873.9173	2.0731
874.0789	0.7571
874.2404	-0
874.4019	0.3017
874.5634	-0
874.7249	-0
874.8863	0.4813
875.0478	-0.1521
875.2092	-0
875.3706	-0
875.5319	-0
875.6933	0.3317
875.8546	0.652
876.0159	-0
876.1772	-0.2293
876.3385	-0
876.4997	-0
876.6609	-0
876.8221	0.3448
876.9833	0.055
877.1445	0.7163
877.3056	-0.7711
877.4667	-0.925
877.6278	2.1282
877.7889	-0.4302
877.9499	0.5469
878.111	-0.0974
878.272	-0.3159
878.433	-0
878.5939	0.3799
878.7549	-0
878.9158	-0.2225
879.0767	-0.104
879.2376	0.0117
879.3984	0.1966
879.5593	0.4889
879.7201	-1.2852
879.8809	-0
880.0417	0.0036
880.2024	-0
880.3632	-0
880.5239	-0.2017
880.6846	0.0172
880.8452	-0.155
881.0059	0.06
881.1665	0.1542
881.3271	0.2206
881.4877	-0
881.6483	-1.3074
881.8088	-0
881.9693	0.2762
882.1298	0.2762
882.2903	0.2762
