Data from D4ACN5uM460nmA_Absorbance_13-05-41-214.txt Node
Date: Fri Feb 21 13:05:41 GMT 2025
User: LASERRRRR
Spectrometer: FLMT03099
Trigger mode: 0
Integration Time (sec): 1.500000E-2
Scans to average: 1
Electric dark correction enabled: true
Nonlinearity correction enabled: false
Boxcar width: 0
XAxis mode: Wavelengths
Number of Pixels in Spectrum: 3648
>>>>>Begin Spectral Data<<<<<
179.3399	0.5973
179.5586	0.5973
179.7771	0.5973
179.9957	0.0719
180.2143	-1.8129
180.4329	2.5172
180.6514	-0.6259
180.8699	-0
181.0885	-0.2209
181.307	0.0456
181.5255	0.1866
181.744	-0
181.9625	0.224
182.181	-0.1994
182.3994	-0.5765
182.6179	-0.5044
182.8363	-0
183.0547	1.4457
183.2732	0.0947
183.4916	0.2064
183.71	0.2539
183.9284	0.163
184.1467	-0.0076
184.3651	0.144
184.5835	0.3437
184.8018	0.2641
185.0201	0.3632
185.2385	0.121
185.4568	0.2629
185.6751	0.1062
185.8934	0.201
186.1117	0.3354
186.3299	0.2045
186.5482	0.1888
186.7664	0.2756
186.9847	-0.0816
187.2029	0.7119
187.4211	0.1003
187.6393	0.1913
187.8575	0.7065
188.0757	0.6165
188.2939	0.0306
188.512	0.3596
188.7302	0.3036
188.9483	-0
189.1665	0.5196
189.3846	0.5098
189.6027	0.2175
189.8208	0.2545
190.0389	0.2709
190.257	0.124
190.475	0.1827
190.6931	0.1856
190.9111	0.1963
191.1292	0.1838
191.3472	0.1593
191.5652	0.1887
191.7832	0.2244
192.0012	0.1822
192.2192	0.067
192.4371	0.1708
192.6551	0.2483
192.873	0.1209
193.091	0.1416
193.3089	0.1773
193.5268	0.3186
193.7447	0.1497
193.9626	0.1599
194.1805	0.2648
194.3984	0.1933
194.6162	0.2482
194.8341	0.2687
195.0519	0.2252
195.2697	0.2668
195.4875	0.2916
195.7054	0.2441
195.9231	0.2699
196.1409	0.2905
196.3587	0.3138
196.5765	0.3299
196.7942	0.3459
197.012	0.2968
197.2297	0.3082
197.4474	0.4101
197.6651	0.2996
197.8828	0.3985
198.1005	0.3624
198.3182	0.3545
198.5358	0.3968
198.7535	0.3781
198.9711	0.3996
199.1888	0.3625
199.4064	0.3938
199.624	0.3967
199.8416	0.3713
200.0592	0.3823
200.2767	0.3643
200.4943	0.3692
200.7119	0.3841
200.9294	0.3891
201.1469	0.4068
201.3645	0.4387
201.582	0.3881
201.7995	0.4312
202.017	0.3947
202.2344	0.4243
202.4519	0.4677
202.6694	0.3987
202.8868	0.3547
203.1042	0.4319
203.3217	0.3927
203.5391	0.3912
203.7565	0.3662
203.9739	0.3994
204.1913	0.4141
204.4086	0.3287
204.626	0.3647
204.8433	0.35
205.0607	0.3482
205.278	0.3356
205.4953	0.344
205.7126	0.3496
205.9299	0.3271
206.1472	0.3408
206.3644	0.3353
206.5817	0.3208
206.7989	0.3487
207.0162	0.3438
207.2334	0.3176
207.4506	0.3295
207.6678	0.3156
207.885	0.2999
208.1022	0.3109
208.3194	0.2992
208.5365	0.3189
208.7537	0.306
208.9708	0.3086
209.1879	0.2847
209.405	0.2841
209.6222	0.2893
209.8392	0.3244
210.0563	0.2792
210.2734	0.2666
210.4905	0.2858
210.7075	0.2722
210.9245	0.2801
211.1416	0.2741
211.3586	0.2679
211.5756	0.2649
211.7926	0.2897
212.0096	0.2739
212.2265	0.2729
212.4435	0.2514
212.6604	0.259
212.8774	0.2434
213.0943	0.2821
213.3112	0.2373
213.5281	0.2525
213.745	0.2383
213.9619	0.2515
214.1788	0.2751
214.3956	0.2469
214.6125	0.2534
214.8293	0.2664
215.0461	0.2395
215.2629	0.2633
215.4798	0.2519
215.6965	0.2488
215.9133	0.2503
216.1301	0.2529
216.3469	0.2555
216.5636	0.2616
216.7803	0.2506
216.9971	0.2569
217.2138	0.2702
217.4305	0.2586
217.6472	0.2447
217.8639	0.2661
218.0805	0.2564
218.2972	0.2403
218.5138	0.2585
218.7305	0.2542
218.9471	0.2428
219.1637	0.2765
219.3803	0.2638
219.5969	0.2656
219.8135	0.2659
220.0301	0.2701
220.2466	0.2588
220.4632	0.2635
220.6797	0.2582
220.8962	0.2607
221.1127	0.2772
221.3292	0.2825
221.5457	0.2781
221.7622	0.2658
221.9787	0.2837
222.1951	0.2894
222.4116	0.2754
222.628	0.291
222.8444	0.288
223.0608	0.2815
223.2772	0.2822
223.4936	0.2895
223.71	0.2833
223.9264	0.2891
224.1427	0.2889
224.3591	0.2854
224.5754	0.2974
224.7917	0.2934
225.008	0.2956
225.2243	0.3086
225.4406	0.3039
225.6569	0.3104
225.8732	0.3123
226.0894	0.3153
226.3057	0.3179
226.5219	0.3195
226.7381	0.3288
226.9543	0.3163
227.1705	0.3264
227.3867	0.337
227.6029	0.327
227.8191	0.3397
228.0352	0.3429
228.2513	0.35
228.4675	0.3384
228.6836	0.3505
228.8997	0.3439
229.1158	0.3589
229.3319	0.3623
229.548	0.353
229.764	0.3611
229.9801	0.3758
230.1961	0.3763
230.4121	0.3632
230.6282	0.3854
230.8442	0.4012
231.0602	0.3817
231.2761	0.3931
231.4921	0.3917
231.7081	0.4057
231.924	0.4063
232.14	0.3945
232.3559	0.4093
232.5718	0.4113
232.7877	0.401
233.0036	0.4171
233.2195	0.4118
233.4353	0.4147
233.6512	0.4075
233.867	0.4321
234.0829	0.4182
234.2987	0.4321
234.5145	0.4375
234.7303	0.4261
234.9461	0.4442
235.1619	0.4389
235.3776	0.4356
235.5934	0.4414
235.8091	0.4353
236.0249	0.4432
236.2406	0.4384
236.4563	0.4462
236.672	0.4377
236.8877	0.4511
237.1034	0.459
237.319	0.443
237.5347	0.4449
237.7503	0.4442
237.966	0.4634
238.1816	0.4544
238.3972	0.4613
238.6128	0.4777
238.8284	0.4605
239.0439	0.4622
239.2595	0.462
239.475	0.4607
239.6906	0.4575
239.9061	0.4611
240.1216	0.46
240.3371	0.4584
240.5526	0.4491
240.7681	0.4621
240.9836	0.459
241.199	0.4541
241.4145	0.4512
241.6299	0.4414
241.8453	0.4362
242.0607	0.435
242.2761	0.4302
242.4915	0.4244
242.7069	0.4264
242.9223	0.4251
243.1376	0.4023
243.353	0.3994
243.5683	0.3827
243.7836	0.385
243.9989	0.3714
244.2142	0.3677
244.4295	0.3646
244.6448	0.3668
244.86	0.3476
245.0753	0.3455
245.2905	0.3324
245.5057	0.3312
245.721	0.3342
245.9362	0.3206
246.1514	0.3145
246.3665	0.299
246.5817	0.2965
246.7969	0.2996
247.012	0.2953
247.2271	0.292
247.4423	0.2786
247.6574	0.278
247.8725	0.2662
248.0876	0.2608
248.3026	0.2687
248.5177	0.2554
248.7328	0.244
248.9478	0.2473
249.1628	0.2488
249.3779	0.244
249.5929	0.2332
249.8079	0.2371
250.0228	0.232
250.2378	0.2312
250.4528	0.2295
250.6677	0.2241
250.8827	0.2167
251.0976	0.22
251.3125	0.2132
251.5274	0.2089
251.7423	0.2016
251.9572	0.2085
252.172	0.2031
252.3869	0.2068
252.6017	0.2045
252.8166	0.1965
253.0314	0.1967
253.2462	0.1928
253.461	0.1945
253.6758	0.1969
253.8906	0.1978
254.1053	0.1934
254.3201	0.1906
254.5348	0.1836
254.7496	0.1839
254.9643	0.1871
255.179	0.1832
255.3937	0.1916
255.6083	0.1899
255.823	0.1875
256.0377	0.1827
256.2523	0.1807
256.467	0.1833
256.6816	0.182
256.8962	0.1839
257.1108	0.1791
257.3254	0.1765
257.54	0.176
257.7545	0.1819
257.9691	0.1807
258.1836	0.1668
258.3981	0.1777
258.6127	0.173
258.8272	0.1829
259.0417	0.1788
259.2561	0.1764
259.4706	0.1765
259.6851	0.1742
259.8995	0.1697
260.114	0.1703
260.3284	0.1728
260.5428	0.174
260.7572	0.1741
260.9716	0.1865
261.186	0.177
261.4003	0.1709
261.6147	0.1758
261.829	0.1757
262.0433	0.17
262.2577	0.1776
262.472	0.175
262.6863	0.1769
262.9005	0.1758
263.1148	0.1722
263.3291	0.1783
263.5433	0.1791
263.7576	0.1806
263.9718	0.1747
264.186	0.1794
264.4002	0.1769
264.6144	0.185
264.8286	0.1816
265.0427	0.1774
265.2569	0.1755
265.471	0.18
265.6851	0.1808
265.8993	0.1728
266.1134	0.1748
266.3275	0.1804
266.5415	0.1743
266.7556	0.1808
266.9697	0.1794
267.1837	0.1749
267.3978	0.1799
267.6118	0.1767
267.8258	0.1782
268.0398	0.1735
268.2538	0.1775
268.4677	0.1718
268.6817	0.1707
268.8957	0.1737
269.1096	0.1669
269.3235	0.1723
269.5374	0.1702
269.7514	0.1713
269.9652	0.1689
270.1791	0.1687
270.393	0.1664
270.6068	0.1688
270.8207	0.1685
271.0345	0.1668
271.2483	0.1626
271.4622	0.1666
271.676	0.1632
271.8897	0.1666
272.1035	0.1675
272.3173	0.165
272.531	0.1662
272.7448	0.1585
272.9585	0.1653
273.1722	0.1659
273.3859	0.1625
273.5996	0.1684
273.8133	0.169
274.0269	0.1652
274.2406	0.172
274.4542	0.1659
274.6679	0.1712
274.8815	0.1707
275.0951	0.1773
275.3087	0.1685
275.5223	0.1689
275.7358	0.1693
275.9494	0.1716
276.1629	0.1723
276.3765	0.1689
276.59	0.1672
276.8035	0.1686
277.017	0.1755
277.2305	0.1693
277.444	0.1729
277.6574	0.1707
277.8709	0.1739
278.0843	0.1686
278.2978	0.1722
278.5112	0.1739
278.7246	0.1756
278.938	0.1769
279.1513	0.1761
279.3647	0.1758
279.5781	0.1689
279.7914	0.1711
280.0047	0.1761
280.2181	0.1709
280.4314	0.172
280.6447	0.1826
280.8579	0.1726
281.0712	0.1741
281.2845	0.1759
281.4977	0.1789
281.711	0.1748
281.9242	0.1828
282.1374	0.1708
282.3506	0.182
282.5638	0.1768
282.7769	0.1762
282.9901	0.175
283.2033	0.1768
283.4164	0.1814
283.6295	0.1777
283.8426	0.1798
284.0557	0.1843
284.2688	0.1833
284.4819	0.1753
284.695	0.1845
284.908	0.1793
285.1211	0.1886
285.3341	0.1806
285.5471	0.1869
285.7601	0.1863
285.9731	0.1829
286.1861	0.1897
286.3991	0.1913
286.612	0.1795
286.825	0.1895
287.0379	0.1878
287.2508	0.1805
287.4637	0.1927
287.6766	0.19
287.8895	0.1851
288.1024	0.1876
288.3152	0.1906
288.5281	0.1815
288.7409	0.1938
288.9538	0.1882
289.1666	0.1882
289.3794	0.1905
289.5922	0.1902
289.8049	0.1886
290.0177	0.1895
290.2304	0.1889
290.4432	0.1943
290.6559	0.1919
290.8686	0.1917
291.0813	0.1903
291.294	0.1904
291.5067	0.1929
291.7194	0.1934
291.932	0.1915
292.1447	0.1977
292.3573	0.1958
292.5699	0.1962
292.7825	0.1969
292.9951	0.1956
293.2077	0.1947
293.4203	0.1913
293.6328	0.1872
293.8454	0.1955
294.0579	0.1966
294.2704	0.2009
294.4829	0.1917
294.6954	0.1948
294.9079	0.1944
295.1204	0.1872
295.3328	0.1992
295.5453	0.2005
295.7577	0.191
295.9701	0.1931
296.1825	0.1948
296.3949	0.1905
296.6073	0.1918
296.8197	0.1957
297.0321	0.1952
297.2444	0.1846
297.4567	0.1962
297.6691	0.1899
297.8814	0.1958
298.0937	0.1931
298.306	0.1926
298.5182	0.1954
298.7305	0.1952
298.9428	0.1934
299.155	0.1841
299.3672	0.1904
299.5794	0.1941
299.7916	0.1943
300.0038	0.1925
300.216	0.191
300.4282	0.1939
300.6403	0.1945
300.8525	0.1897
301.0646	0.1966
301.2767	0.1907
301.4888	0.1922
301.7009	0.1927
301.913	0.1948
302.125	0.1913
302.3371	0.1946
302.5491	0.1988
302.7612	0.2022
302.9732	0.1988
303.1852	0.1926
303.3972	0.1931
303.6092	0.1883
303.8211	0.1942
304.0331	0.1941
304.245	0.1878
304.457	0.1921
304.6689	0.1932
304.8808	0.1867
305.0927	0.1913
305.3046	0.1868
305.5164	0.1834
305.7283	0.182
305.9401	0.182
306.152	0.1826
306.3638	0.1809
306.5756	0.1765
306.7874	0.1769
306.9992	0.1718
307.2109	0.1724
307.4227	0.1732
307.6344	0.1755
307.8462	0.1694
308.0579	0.1685
308.2696	0.1674
308.4813	0.1699
308.693	0.1608
308.9046	0.1651
309.1163	0.1557
309.328	0.1642
309.5396	0.1531
309.7512	0.153
309.9628	0.1509
310.1744	0.1492
310.386	0.1502
310.5976	0.1433
310.8091	0.1472
311.0207	0.1468
311.2322	0.14
311.4437	0.1434
311.6552	0.1386
311.8667	0.1444
312.0782	0.1427
312.2897	0.1418
312.5012	0.1356
312.7126	0.13
312.924	0.1391
313.1355	0.1336
313.3469	0.134
313.5583	0.1323
313.7696	0.1253
313.981	0.1364
314.1924	0.128
314.4037	0.1254
314.6151	0.131
314.8264	0.1327
315.0377	0.1256
315.249	0.1248
315.4603	0.124
315.6716	0.1221
315.8828	0.1281
316.0941	0.1259
316.3053	0.1224
316.5165	0.1256
316.7277	0.1213
316.9389	0.1236
317.1501	0.1195
317.3613	0.1179
317.5724	0.1224
317.7836	0.1176
317.9947	0.1172
318.2058	0.1145
318.417	0.1174
318.6281	0.1185
318.8391	0.1236
319.0502	0.1196
319.2613	0.1228
319.4723	0.1155
319.6834	0.1203
319.8944	0.1166
320.1054	0.1173
320.3164	0.1144
320.5274	0.1156
320.7383	0.1217
320.9493	0.1147
321.1602	0.1144
321.3712	0.1168
321.5821	0.1171
321.793	0.1242
322.0039	0.1178
322.2148	0.121
322.4257	0.1193
322.6365	0.1178
322.8474	0.1216
323.0582	0.1203
323.269	0.1255
323.4798	0.1216
323.6906	0.1181
323.9014	0.1203
324.1122	0.1233
324.3229	0.1246
324.5337	0.1243
324.7444	0.1248
324.9551	0.1182
325.1658	0.1192
325.3765	0.128
325.5872	0.1222
325.7979	0.1224
326.0085	0.1179
326.2192	0.1207
326.4298	0.1307
326.6404	0.1303
326.851	0.1178
327.0616	0.1174
327.2722	0.1277
327.4828	0.1218
327.6933	0.1244
327.9039	0.1224
328.1144	0.1297
328.3249	0.1333
328.5354	0.1216
328.7459	0.1246
328.9564	0.1222
329.1669	0.123
329.3773	0.1226
329.5878	0.1247
329.7982	0.1263
330.0086	0.1236
330.219	0.1215
330.4294	0.1275
330.6398	0.1345
330.8502	0.1252
331.0605	0.1275
331.2708	0.1289
331.4812	0.1275
331.6915	0.1256
331.9018	0.1257
332.1121	0.1332
332.3224	0.1263
332.5326	0.1252
332.7429	0.126
332.9531	0.1307
333.1633	0.1287
333.3735	0.1278
333.5837	0.1281
333.7939	0.1377
334.0041	0.1332
334.2143	0.1252
334.4244	0.1359
334.6346	0.1308
334.8447	0.1283
335.0548	0.1324
335.2649	0.1367
335.475	0.1284
335.685	0.13
335.8951	0.1369
336.1051	0.1335
336.3152	0.1319
336.5252	0.1325
336.7352	0.1327
336.9452	0.1349
337.1552	0.1342
337.3652	0.1347
337.5751	0.1291
337.7851	0.1354
337.995	0.1351
338.2049	0.1344
338.4148	0.1345
338.6247	0.1376
338.8346	0.1387
339.0445	0.1392
339.2543	0.1358
339.4642	0.1352
339.674	0.1293
339.8838	0.1345
340.0936	0.1348
340.3034	0.134
340.5132	0.1356
340.7229	0.1414
340.9327	0.1471
341.1424	0.1367
341.3522	0.1354
341.5619	0.1409
341.7716	0.1377
341.9813	0.1431
342.1909	0.1511
342.4006	0.1472
342.6102	0.1429
342.8199	0.1479
343.0295	0.137
343.2391	0.1431
343.4487	0.1484
343.6583	0.1531
343.8679	0.1461
344.0774	0.147
344.287	0.1513
344.4965	0.149
344.706	0.1575
344.9155	0.1465
345.125	0.1514
345.3345	0.1624
345.544	0.1534
345.7534	0.1555
345.9629	0.1602
346.1723	0.1556
346.3817	0.1507
346.5911	0.1564
346.8005	0.1596
347.0099	0.1615
347.2193	0.163
347.4286	0.164
347.638	0.1575
347.8473	0.1548
348.0566	0.1621
348.2659	0.1606
348.4752	0.1605
348.6845	0.1676
348.8937	0.164
349.103	0.1605
349.3122	0.1659
349.5214	0.1643
349.7306	0.1666
349.9398	0.1729
350.149	0.1644
350.3582	0.1681
350.5674	0.1671
350.7765	0.1749
350.9856	0.1732
351.1948	0.1693
351.4039	0.1695
351.613	0.1708
351.822	0.1768
352.0311	0.1703
352.2402	0.1777
352.4492	0.1679
352.6582	0.1856
352.8672	0.1751
353.0762	0.1789
353.2852	0.1793
353.4942	0.1846
353.7032	0.1761
353.9121	0.179
354.1211	0.1881
354.33	0.1828
354.5389	0.1811
354.7478	0.1789
354.9567	0.1769
355.1655	0.1814
355.3744	0.1822
355.5833	0.1828
355.7921	0.1923
356.0009	0.1835
356.2097	0.1758
356.4185	0.1848
356.6273	0.1848
356.8361	0.1946
357.0448	0.1927
357.2536	0.1906
357.4623	0.1941
357.671	0.1878
357.8797	0.1951
358.0884	0.188
358.2971	0.1953
358.5057	0.1896
358.7144	0.1978
358.923	0.1982
359.1316	0.1979
359.3402	0.1998
359.5488	0.1974
359.7574	0.2012
359.966	0.2032
360.1746	0.2021
360.3831	0.203
360.5916	0.2033
360.8002	0.2101
361.0087	0.2047
361.2172	0.2132
361.4256	0.2092
361.6341	0.2132
361.8426	0.2181
362.051	0.207
362.2594	0.2185
362.4678	0.215
362.6762	0.2193
362.8846	0.2174
363.093	0.2222
363.3014	0.2264
363.5097	0.2185
363.718	0.2192
363.9264	0.2213
364.1347	0.2219
364.343	0.2236
364.5513	0.2297
364.7595	0.2327
364.9678	0.2273
365.176	0.2334
365.3842	0.2451
365.5925	0.2363
365.8007	0.2336
366.0089	0.2385
366.217	0.2334
366.4252	0.2296
366.6333	0.2425
366.8415	0.2433
367.0496	0.2361
367.2577	0.249
367.4658	0.2411
367.6739	0.2478
367.882	0.2512
368.09	0.2461
368.2981	0.2447
368.5061	0.2502
368.7141	0.2426
368.9221	0.2568
369.1301	0.2527
369.3381	0.2531
369.5461	0.2594
369.754	0.249
369.962	0.2508
370.1699	0.2515
370.3778	0.2636
370.5857	0.2557
370.7936	0.2568
371.0015	0.2529
371.2093	0.2593
371.4172	0.2585
371.625	0.2624
371.8328	0.2578
372.0406	0.2742
372.2484	0.2581
372.4562	0.2591
372.664	0.2747
372.8717	0.2713
373.0795	0.2715
373.2872	0.2757
373.4949	0.2745
373.7026	0.2624
373.9103	0.274
374.118	0.2754
374.3256	0.2798
374.5333	0.2653
374.7409	0.2808
374.9485	0.2745
375.1561	0.2759
375.3637	0.2815
375.5713	0.2793
375.7789	0.2773
375.9864	0.28
376.194	0.2871
376.4015	0.284
376.609	0.2869
376.8165	0.2788
377.024	0.2734
377.2315	0.2826
377.4389	0.2827
377.6464	0.2963
377.8538	0.2882
378.0612	0.2933
378.2686	0.289
378.476	0.2986
378.6834	0.2894
378.8908	0.2993
379.0981	0.29
379.3055	0.2946
379.5128	0.2851
379.7201	0.2975
379.9274	0.2944
380.1347	0.2999
380.342	0.3092
380.5492	0.3
380.7565	0.3047
380.9637	0.2997
381.1709	0.2992
381.3781	0.3082
381.5853	0.2932
381.7925	0.2947
381.9997	0.3055
382.2068	0.2946
382.4139	0.3011
382.6211	0.3114
382.8282	0.3094
383.0353	0.3111
383.2424	0.3043
383.4494	0.2976
383.6565	0.3196
383.8635	0.3058
384.0706	0.3187
384.2776	0.3192
384.4846	0.3122
384.6916	0.3104
384.8986	0.3206
385.1055	0.3169
385.3125	0.3125
385.5194	0.3198
385.7263	0.3146
385.9333	0.3114
386.1402	0.3112
386.347	0.3106
386.5539	0.3137
386.7608	0.3182
386.9676	0.3174
387.1744	0.3052
387.3813	0.3178
387.5881	0.2993
387.7948	0.3128
388.0016	0.3149
388.2084	0.3044
388.4151	0.3116
388.6219	0.306
388.8286	0.3078
389.0353	0.3153
389.242	0.3138
389.4487	0.3022
389.6553	0.306
389.862	0.2987
390.0686	0.3111
390.2753	0.3088
390.4819	0.3109
390.6885	0.3024
390.8951	0.3073
391.1016	0.3008
391.3082	0.3012
391.5147	0.2928
391.7213	0.2986
391.9278	0.291
392.1343	0.2961
392.3408	0.2979
392.5473	0.2924
392.7537	0.2895
392.9602	0.2872
393.1666	0.2921
393.373	0.2836
393.5794	0.291
393.7858	0.2913
393.9922	0.2859
394.1986	0.2895
394.4049	0.2914
394.6113	0.2867
394.8176	0.2844
395.0239	0.2833
395.2302	0.271
395.4365	0.2878
395.6428	0.2737
395.8491	0.2807
396.0553	0.2725
396.2615	0.281
396.4678	0.2761
396.674	0.2695
396.8802	0.273
397.0863	0.2655
397.2925	0.2643
397.4987	0.2741
397.7048	0.276
397.9109	0.2671
398.117	0.2747
398.3231	0.2694
398.5292	0.2562
398.7353	0.2684
398.9413	0.2688
399.1474	0.2615
399.3534	0.2745
399.5594	0.2678
399.7654	0.2681
399.9714	0.2655
400.1774	0.2704
400.3833	0.2589
400.5893	0.263
400.7952	0.2733
401.0011	0.2675
401.207	0.26
401.4129	0.2677
401.6188	0.2659
401.8247	0.2784
402.0305	0.2489
402.2364	0.2665
402.4422	0.2669
402.648	0.2648
402.8538	0.263
403.0596	0.2599
403.2654	0.2658
403.4711	0.2615
403.6768	0.2609
403.8826	0.2678
404.0883	0.2662
404.294	0.258
404.4997	0.2649
404.7054	0.2694
404.911	0.2625
405.1167	0.2559
405.3223	0.264
405.5279	0.2675
405.7335	0.2604
405.9391	0.265
406.1447	0.2709
406.3502	0.2568
406.5558	0.2672
406.7613	0.2589
406.9668	0.2637
407.1724	0.2621
407.3778	0.2662
407.5833	0.2533
407.7888	0.2627
407.9942	0.2657
408.1997	0.2619
408.4051	0.2593
408.6105	0.2739
408.8159	0.2535
409.0213	0.2757
409.2267	0.2714
409.432	0.2618
409.6374	0.2653
409.8427	0.2767
410.048	0.262
410.2533	0.2639
410.4586	0.2551
410.6639	0.2647
410.8691	0.2581
411.0744	0.2716
411.2796	0.268
411.4848	0.2671
411.69	0.2569
411.8952	0.2623
412.1004	0.2631
412.3056	0.2547
412.5107	0.262
412.7158	0.2763
412.921	0.274
413.1261	0.2568
413.3312	0.2674
413.5362	0.2784
413.7413	0.2579
413.9464	0.267
414.1514	0.2518
414.3564	0.2528
414.5614	0.2635
414.7664	0.2616
414.9714	0.2575
415.1764	0.2544
415.3813	0.2584
415.5863	0.26
415.7912	0.2475
415.9961	0.2635
416.201	0.2652
416.4059	0.2605
416.6108	0.2574
416.8156	0.2488
417.0205	0.2538
417.2253	0.2543
417.4301	0.2576
417.6349	0.2607
417.8397	0.2508
418.0445	0.2619
418.2492	0.253
418.454	0.2553
418.6587	0.255
418.8634	0.2585
419.0681	0.2541
419.2728	0.249
419.4775	0.263
419.6822	0.2474
419.8868	0.2522
420.0915	0.2448
420.2961	0.2353
420.5007	0.2503
420.7053	0.243
420.9099	0.246
421.1144	0.2412
421.319	0.2491
421.5235	0.2391
421.728	0.2479
421.9325	0.2451
422.137	0.2474
422.3415	0.2363
422.546	0.2293
422.7504	0.2299
422.9549	0.2445
423.1593	0.2361
423.3637	0.2336
423.5681	0.2462
423.7725	0.2256
423.9769	0.2292
424.1812	0.2343
424.3856	0.2247
424.5899	0.2316
424.7942	0.2317
424.9985	0.2287
425.2028	0.2365
425.4071	0.2279
425.6113	0.2256
425.8156	0.2297
426.0198	0.2181
426.224	0.2205
426.4282	0.2272
426.6324	0.2147
426.8366	0.2198
427.0407	0.2123
427.2449	0.2159
427.449	0.2147
427.6531	0.2221
427.8572	0.2149
428.0613	0.2218
428.2654	0.211
428.4694	0.2052
428.6735	0.2096
428.8775	0.2033
429.0815	0.2023
429.2855	0.1984
429.4895	0.2013
429.6935	0.1965
429.8975	0.1865
430.1014	0.1979
430.3053	0.1995
430.5093	0.1786
430.7132	0.1883
430.9171	0.1954
431.1209	0.1961
431.3248	0.1835
431.5286	0.1813
431.7325	0.1857
431.9363	0.1795
432.1401	0.1785
432.3439	0.1817
432.5477	0.1712
432.7514	0.1743
432.9552	0.1697
433.1589	0.1649
433.3627	0.1836
433.5664	0.1676
433.7701	0.1675
433.9737	0.1776
434.1774	0.163
434.3811	0.1522
434.5847	0.1606
434.7883	0.1595
434.9919	0.1576
435.1955	0.1517
435.3991	0.1452
435.6027	0.1476
435.8062	0.1659
436.0098	0.1458
436.2133	0.149
436.4168	0.144
436.6203	0.1436
436.8238	0.1334
437.0272	0.1395
437.2307	0.1383
437.4341	0.1408
437.6375	0.1393
437.841	0.1342
438.0443	0.1408
438.2477	0.1212
438.4511	0.1261
438.6545	0.1295
438.8578	0.1309
439.0611	0.1234
439.2644	0.1294
439.4677	0.1215
439.671	0.1101
439.8743	0.1178
440.0775	0.1081
440.2808	0.1176
440.484	0.1151
440.6872	0.1082
440.8904	0.1048
441.0936	0.1115
441.2967	0.1009
441.4999	0.0986
441.703	0.1019
441.9062	0.1015
442.1093	0.104
442.3124	0.099
442.5155	0.0994
442.7185	0.0906
442.9216	0.0939
443.1246	0.0946
443.3276	0.0931
443.5307	0.0876
443.7337	0.0906
443.9366	0.0914
444.1396	0.0836
444.3426	0.0825
444.5455	0.0817
444.7484	0.0838
444.9513	0.0856
445.1542	0.0859
445.3571	0.0774
445.56	0.0743
445.7628	0.0764
445.9657	0.0751
446.1685	0.0751
446.3713	0.0634
446.5741	0.078
446.7769	0.0724
446.9797	0.0631
447.1824	0.066
447.3852	0.0515
447.5879	0.0617
447.7906	0.0576
447.9933	0.0657
448.196	0.0576
448.3986	0.0519
448.6013	0.0522
448.8039	0.0616
449.0066	0.0656
449.2092	0.0627
449.4118	0.0539
449.6143	0.05
449.8169	0.0469
450.0195	0.0433
450.222	0.0598
450.4245	0.0548
450.627	0.0454
450.8295	0.0503
451.032	0.0417
451.2345	0.0446
451.4369	0.0386
451.6394	0.0438
451.8418	0.0432
452.0442	0.042
452.2466	0.0255
452.449	0.0436
452.6513	0.0416
452.8537	0.0248
453.056	0.037
453.2583	0.0373
453.4607	0.0271
453.663	0.0354
453.8652	0.0319
454.0675	0.0412
454.2697	0.0313
454.472	0.0283
454.6742	0.0298
454.8764	0.0353
455.0786	0.0283
455.2808	0.032
455.4829	0.0305
455.6851	0.031
455.8872	0.0247
456.0893	0.0285
456.2915	0.0285
456.4935	0.0346
456.6956	0.023
456.8977	0.0264
457.0997	0.0261
457.3018	0.0239
457.5038	0.0296
457.7058	0.0313
457.9078	0.0282
458.1098	0.0301
458.3117	0.0319
458.5137	0.006
458.7156	0.0241
458.9175	0.0183
459.1194	0.0237
459.3213	0.0203
459.5232	0.0203
459.725	0.0225
459.9269	0.0183
460.1287	0.0134
460.3305	0.023
460.5323	0.0229
460.7341	0.0197
460.9359	0.011
461.1376	0.0252
461.3394	0.0163
461.5411	0.0195
461.7428	0.0188
461.9445	0.0081
462.1462	0.0143
462.3479	0.0132
462.5495	0.0171
462.7512	0.0173
462.9528	0.0181
463.1544	0.0118
463.356	0.0103
463.5576	0.0283
463.7592	0.0166
463.9607	0.0177
464.1623	0.0171
464.3638	0.0017
464.5653	0.0141
464.7668	0.0217
464.9683	0.0145
465.1697	0.0133
465.3712	-0.0007
465.5726	0.0105
465.7741	0.0187
465.9755	0.0119
466.1769	0.0075
466.3782	0.0084
466.5796	0.014
466.7809	0.0225
466.9823	0.0039
467.1836	0.0108
467.3849	0.0098
467.5862	-0.0008
467.7875	0.0007
467.9887	0.0149
468.19	0.0072
468.3912	0.0196
468.5924	0.003
468.7936	0.0066
468.9948	-0.0009
469.196	0.0014
469.3972	0.0111
469.5983	-0.0014
469.7994	0.0129
470.0006	0.0061
470.2017	0.0089
470.4027	0.0146
470.6038	0.0143
470.8049	0.0033
471.0059	0.0128
471.2069	0.0112
471.408	0.0144
471.6089	0.0128
471.8099	0.0081
472.0109	0.0054
472.2119	0.0089
472.4128	0.0093
472.6137	0.0129
472.8146	0.0131
473.0155	0.0237
473.2164	0.0135
473.4173	0.0016
473.6181	-0.0008
473.819	0.0021
474.0198	-0.0006
474.2206	-0.0063
474.4214	0.0078
474.6222	-0.001
474.8229	0.0018
475.0237	0.0138
475.2244	0.0106
475.4251	0.0086
475.6258	0.0014
475.8265	0.0093
476.0272	0.0044
476.2278	0.0105
476.4285	0.0066
476.6291	-0.0005
476.8297	0.01
477.0303	-0.0019
477.2309	0.0099
477.4315	0.0125
477.632	0.0001
477.8326	0.0063
478.0331	0.0139
478.2336	-0.0001
478.4341	0.0186
478.6346	0.0068
478.8351	0.0007
479.0355	0.0182
479.236	0.0099
479.4364	0.004
479.6368	0.0061
479.8372	0.0112
480.0376	0.0028
480.2379	0.0113
480.4383	0.0144
480.6386	-0.0022
480.8389	0.0033
481.0392	0.0042
481.2395	0.0151
481.4398	0.0084
481.6401	-0.0041
481.8403	0.0013
482.0405	0.0087
482.2408	0.0061
482.441	0.0068
482.6411	0.009
482.8413	0.0057
483.0415	0.0156
483.2416	0.0068
483.4417	0.0005
483.6419	-0.0034
483.8419	0.0073
484.042	0.0041
484.2421	0
484.4422	0.0022
484.6422	0.0032
484.8422	0.0041
485.0422	0.0049
485.2422	0.0026
485.4422	0.0043
485.6422	-0.0013
485.8421	-0.0002
486.042	0.0058
486.242	-0.0013
486.4419	0.0023
486.6417	0.006
486.8416	0.0058
487.0415	-0.0052
487.2413	0.0016
487.4411	-0.0002
487.641	0.0029
487.8408	0.0062
488.0405	0.0096
488.2403	-0.0003
488.4401	0.0032
488.6398	0.0046
488.8395	0.0061
489.0392	0.0043
489.2389	0.0081
489.4386	0.0009
489.6383	0.0095
489.8379	0.0003
490.0376	0.0088
490.2372	0.0003
490.4368	-0.0045
490.6364	0.0025
490.836	0.0037
491.0355	-0.0055
491.2351	0.0036
491.4346	0.0012
491.6341	0.0028
491.8336	0.0123
492.0331	-0.0034
492.2326	0.0066
492.432	0.0063
492.6315	0.0092
492.8309	0.0081
493.0303	0.0061
493.2297	0.0019
493.4291	0.0036
493.6284	0.0081
493.8278	0.0011
494.0271	0.0022
494.2264	0.0048
494.4257	0.0066
494.625	0.0008
494.8243	0.0048
495.0236	0.0033
495.2228	0.0092
495.422	0.0034
495.6213	0.0007
495.8205	0.004
496.0196	0.001
496.2188	-0.0009
496.418	-0.0005
496.6171	0.0013
496.8162	-0.001
497.0153	0.0068
497.2144	0.0024
497.4135	0.0085
497.6126	0.0097
497.8116	-0.0041
498.0107	0.0047
498.2097	0.01
498.4087	0.0029
498.6077	-0.0045
498.8067	0.0041
499.0056	0.0061
499.2046	0.0012
499.4035	-0.0026
499.6024	0.0001
499.8013	0.0109
500.0002	0.0016
500.199	0.0137
500.3979	-0.0058
500.5967	0.0085
500.7956	0.0114
500.9944	0.0096
501.1932	0.0074
501.3919	0.0116
501.5907	0.0113
501.7895	0.0083
501.9882	0.0029
502.1869	0.0128
502.3856	0.0051
502.5843	-0.0026
502.783	0.007
502.9816	0.0029
503.1803	0.0066
503.3789	0.0054
503.5775	0.001
503.7761	0.0062
503.9747	0.0075
504.1732	-0.01
504.3718	0.0161
504.5703	0.007
504.7689	-0.0003
504.9674	0.0028
505.1658	0.0003
505.3643	0.0041
505.5628	0.0079
505.7612	0.0132
505.9597	-0.0028
506.1581	0.0022
506.3565	-0.0025
506.5549	-0.0023
506.7532	0.0007
506.9516	0.0041
507.1499	-0.0044
507.3482	0
507.5465	0.009
507.7448	0.0054
507.9431	0.0059
508.1414	-0.0025
508.3396	0.0011
508.5379	-0.0087
508.7361	0.0088
508.9343	0.0068
509.1325	0.0106
509.3306	0.0056
509.5288	-0.0002
509.7269	0.0066
509.9251	0.0084
510.1232	0.0075
510.3213	0.0035
510.5193	0.0036
510.7174	0.003
510.9154	0.0126
511.1135	0.0001
511.3115	0.0002
511.5095	0.0094
511.7075	0.0029
511.9055	0.0068
512.1034	0.0016
512.3014	0.0018
512.4993	0.0113
512.6972	-0.0055
512.8951	0.0032
513.093	0.0009
513.2908	0.0113
513.4887	-0.0004
513.6865	0.0076
513.8844	0.0053
514.0822	0.0065
514.2799	-0.0088
514.4777	-0.0094
514.6755	0.0104
514.8732	-0.0029
515.0709	0.0032
515.2687	-0.0035
515.4664	0.0102
515.664	0.0035
515.8617	0.0101
516.0594	0.0124
516.257	-0.0017
516.4546	0.01
516.6522	0.007
516.8498	0.0127
517.0474	0.0082
517.2449	0.0074
517.4425	0.0053
517.64	0.0037
517.8375	-0.0006
518.035	-0.0042
518.2325	-0.0019
518.43	-0.0004
518.6274	-0.002
518.8249	-0.0036
519.0223	0.0142
519.2197	0.0054
519.4171	0.0032
519.6145	0.0084
519.8118	0.0041
520.0092	0.0001
520.2065	0.0167
520.4038	0.0025
520.6011	0.0125
520.7984	0.0032
520.9956	0.0103
521.1929	0.0073
521.3901	0.0046
521.5874	0.0038
521.7846	-0.0017
521.9818	0.0136
522.1789	-0.0069
522.3761	0.0203
522.5732	0.0033
522.7704	-0.0012
522.9675	-0.0092
523.1646	-0.0058
523.3617	0.0087
523.5587	0.0007
523.7558	0.0102
523.9528	0.0082
524.1498	-0.002
524.3468	0.0031
524.5438	0.0018
524.7408	-0.0002
524.9378	0.007
525.1347	0.0046
525.3316	0.0053
525.5285	-0.0047
525.7254	0.0011
525.9223	0.0165
526.1192	0.006
526.316	0.0122
526.5129	0.0086
526.7097	-0.0008
526.9065	0.0011
527.1033	0.0067
527.3	0.0108
527.4968	0.0111
527.6935	-0.0048
527.8903	0.0083
528.087	0.0036
528.2837	0.0125
528.4804	0.0038
528.677	-0.003
528.8737	0.0034
529.0703	-0.0035
529.2669	0.0076
529.4635	0.0034
529.6601	0.0017
529.8567	-0.0027
530.0532	-0.0028
530.2498	-0.0028
530.4463	-0.002
530.6428	0.0027
530.8393	0.013
531.0358	-0.0027
531.2322	0.0037
531.4287	0.0021
531.6251	-0.0066
531.8215	0.0023
532.0179	0.009
532.2143	0.0075
532.4107	0.0108
532.607	0.0066
532.8034	-0
532.9997	0.0079
533.196	-0.0093
533.3923	0.0149
533.5886	0.0091
533.7848	0.0063
533.9811	0.0081
534.1773	0.0015
534.3735	0.0102
534.5697	0.0019
534.7659	0.0052
534.9621	0.0039
535.1582	0.0145
535.3544	0.0051
535.5505	0.0061
535.7466	0.0092
535.9427	0.0045
536.1387	-0.0065
536.3348	0.0091
536.5308	0.0012
536.7269	-0.0012
536.9229	-0.0007
537.1189	0.0051
537.3148	0.0017
537.5108	-0.0004
537.7068	0.0141
537.9027	-0.0122
538.0986	0.0028
538.2945	-0.0048
538.4904	-0.0066
538.6863	0.0031
538.8821	0.0103
539.078	-0
539.2738	0.0026
539.4696	0.0024
539.6654	-0.0017
539.8611	0.008
540.0569	0.0028
540.2526	0.0145
540.4484	-0.0018
540.6441	0.0005
540.8398	0.0107
541.0355	-0.0014
541.2311	-0.0051
541.4268	0.0129
541.6224	0.011
541.818	0.0058
542.0136	0.0145
542.2092	0.0078
542.4048	0.006
542.6003	-0.0027
542.7959	0.0083
542.9914	-0.0039
543.1869	0.0052
543.3824	0.0001
543.5779	0.0082
543.7734	0.0103
543.9688	0.0074
544.1642	0.0019
544.3596	0.0002
544.555	0.0002
544.7504	0.0098
544.9458	0.0043
545.1411	-0.0002
545.3365	0.0028
545.5318	0.0047
545.7271	0.01
545.9224	-0.0016
546.1177	0.0111
546.3129	0.0011
546.5081	0.0042
546.7034	0.0008
546.8986	-0.0059
547.0938	0.0069
547.289	0.0101
547.4841	0.0021
547.6793	0.0061
547.8744	0.0047
548.0695	0.0059
548.2646	0.0023
548.4597	-0.0024
548.6548	0.0167
548.8498	0.0134
549.0448	0.0021
549.2399	0.0101
549.4349	0.0022
549.6298	0.0116
549.8248	0.0063
550.0198	0.01
550.2147	0.0033
550.4096	-0.0017
550.6045	0.0106
550.7994	0.0023
550.9943	0.0066
551.1892	-0.0079
551.384	0.0123
551.5788	-0.0007
551.7737	0.0044
551.9685	0.0116
552.1632	-0.0032
552.358	0.0036
552.5528	0.0031
552.7475	0.0003
552.9422	0.0082
553.1369	0.0054
553.3316	0.0061
553.5263	0.0113
553.7209	0.0074
553.9156	0.0005
554.1102	0.0115
554.3048	-0.0051
554.4994	0.012
554.694	0.0074
554.8885	0.0047
555.0831	0.0155
555.2776	0.0099
555.4721	0.0036
555.6666	0.0001
555.8611	0.0062
556.0555	0.0113
556.25	0.019
556.4444	-0.0022
556.6388	-0.007
556.8332	0.0156
557.0276	0.0095
557.222	0.0011
557.4163	0.006
557.6107	0.0005
557.805	-0.0035
557.9993	0.0041
558.1936	-0.0032
558.3879	0.0081
558.5821	0.0034
558.7764	-0.0021
558.9706	-0.0072
559.1648	0.0141
559.359	-0.0021
559.5532	-0.0062
559.7473	0.0026
559.9415	0.0012
560.1356	0.0095
560.3297	0.0026
560.5238	0.0088
560.7179	0.0039
560.9119	-0.0016
561.106	-0.0088
561.3	-0.0003
561.494	-0.009
561.688	0.0001
561.882	-0.0015
562.076	0.008
562.2699	0.0102
562.4639	0.0185
562.6578	0.0057
562.8517	0.0025
563.0456	-0.0067
563.2395	0.0133
563.4333	-0.002
563.6272	0.002
563.821	0.0069
564.0148	-0.0002
564.2086	0.004
564.4024	0.0097
564.5961	0.0023
564.7899	-0.0014
564.9836	0.0013
565.1773	0.0059
565.371	0.0083
565.5647	0.0129
565.7584	0.0072
565.952	0.0112
566.1456	0.0037
566.3393	0.0003
566.5329	0.004
566.7264	0.0026
566.92	0.003
567.1136	0.0013
567.3071	-0.003
567.5006	0.008
567.6941	0.0026
567.8876	-0.0006
568.0811	0.0196
568.2745	0.0005
568.468	-0.0011
568.6614	0.0108
568.8548	0.006
569.0482	0.0076
569.2416	0.0043
569.4349	0.0026
569.6283	0.0022
569.8216	0.0025
570.0149	-0.0004
570.2082	0.0092
570.4015	0.0014
570.5947	0.0099
570.788	0.0031
570.9812	-0.0012
571.1744	0.0041
571.3676	-0.0019
571.5608	0.0022
571.754	0.0086
571.9471	0.0042
572.1402	0.0069
572.3333	0.0036
572.5264	0.0021
572.7195	0.0052
572.9126	0.0049
573.1057	0.0012
573.2987	0.0025
573.4917	0.0043
573.6847	-0.0009
573.8777	0.0071
574.0707	0.0045
574.2636	0.0005
574.4566	0.0036
574.6495	0.0004
574.8424	0.0076
575.0353	0.0072
575.2281	0.0068
575.421	0.0013
575.6138	-0.0002
575.8067	0.0058
575.9995	0
576.1923	0.0027
576.385	-0.0001
576.5778	0.0029
576.7706	0.0071
576.9633	0.0064
577.156	-0.0053
577.3487	0.0007
577.5414	-0.0011
577.734	0.0031
577.9267	0.0012
578.1193	0.0064
578.3119	0.0009
578.5045	0.0053
578.6971	-0.0014
578.8897	0.0032
579.0822	0.0075
579.2747	0.0022
579.4673	0.0023
579.6598	0.0037
579.8522	0.0036
580.0447	0.0082
580.2372	0.0056
580.4296	0.0104
580.622	-0.0001
580.8144	0.0067
581.0068	-0.0003
581.1992	0.0008
581.3915	0.0002
581.5839	0.003
581.7762	0.0001
581.9685	0.0024
582.1608	-0.001
582.353	-0.0003
582.5453	0.005
582.7375	0.0039
582.9298	-0.0038
583.122	-0.007
583.3142	0.0103
583.5063	0.0082
583.6985	-0.0007
583.8906	0.0007
584.0827	0.008
584.2749	0.0011
584.4669	0.003
584.659	0.005
584.8511	0.0047
585.0431	0.0064
585.2352	0.0047
585.4272	0.0016
585.6192	0.0007
585.8111	0.0003
586.0031	0.005
586.195	0.0022
586.387	-0.0015
586.5789	0.0007
586.7708	0.0029
586.9627	0.0046
587.1545	0.001
587.3464	0.003
587.5382	0.0013
587.73	0.0065
587.9218	-0.0001
588.1136	-0.0048
588.3053	0.0011
588.4971	0.0003
588.6888	0.0058
588.8805	-0.0004
589.0722	0.0094
589.2639	0.0085
589.4556	0.0039
589.6472	0.0056
589.8389	0.0038
590.0305	0.0029
590.2221	0.0044
590.4137	-0.0005
590.6052	-0.0017
590.7968	0.0029
590.9883	0.001
591.1798	0.0087
591.3713	-0.0026
591.5628	0.0098
591.7543	0.0038
591.9458	0.0032
592.1372	0.002
592.3286	0.003
592.52	-0.0023
592.7114	0.0065
592.9028	0.0056
593.0941	-0.001
593.2855	0.0023
593.4768	0.0075
593.6681	0.0039
593.8594	0.0065
594.0506	0.0051
594.2419	0.0009
594.4331	0.0039
594.6244	-0.0009
594.8156	0.0003
595.0067	0.0016
595.1979	0.0041
595.3891	0.0009
595.5802	0.0149
595.7713	-0.0054
595.9624	0.0104
596.1535	0.0062
596.3446	0.0049
596.5357	0.0037
596.7267	0.0061
596.9177	-0.0036
597.1087	0.0026
597.2997	0.0059
597.4907	-0.0046
597.6817	0.0094
597.8726	0.0123
598.0635	0.0004
598.2544	0.0054
598.4453	0.0032
598.6362	-0.0006
598.827	0.0002
599.0179	0.0071
599.2087	0.0054
599.3995	0.0039
599.5903	0.0098
599.7811	0.0082
599.9718	-0.0041
600.1626	0.0033
600.3533	-0.002
600.544	0.0038
600.7347	0.003
600.9254	0.0117
601.116	0.0043
601.3067	0.0023
601.4973	0.0062
601.6879	-0.0012
601.8785	0.0076
602.0691	0.003
602.2596	0.0048
602.4502	0.0009
602.6407	0.0041
602.8312	0.0092
603.0217	0.0029
603.2122	0.0038
603.4027	-0.0002
603.5931	0.001
603.7835	-0.0023
603.9739	0.0031
604.1643	0.0115
604.3547	0.0059
604.5451	0.0027
604.7354	-0.004
604.9257	-0.002
605.116	0.0005
605.3063	0.0013
605.4966	0.0004
605.6869	0.0102
605.8771	0.0054
606.0673	0.0019
606.2575	-0.0018
606.4477	0.0056
606.6379	-0.0002
606.8281	-0.0004
607.0182	0.0033
607.2083	0.0017
607.3985	-0.0021
607.5885	0.0012
607.7786	0.0022
607.9687	0.0064
608.1587	0.0082
608.3488	0.0036
608.5388	0.0044
608.7288	-0.0032
608.9187	0.0091
609.1087	0.008
609.2986	0.0059
609.4886	0.0017
609.6785	0.0065
609.8684	-0.0063
610.0582	-0.0073
610.2481	-0.0053
610.4379	0.0084
610.6278	0.004
610.8176	0.0103
611.0074	0.0019
611.1971	-0.0024
611.3869	0.0001
611.5766	0.0025
611.7664	0.0037
611.9561	0.0074
612.1458	0.0057
612.3354	0.0035
612.5251	-0.0019
612.7147	0.0067
612.9044	-0.0017
613.094	0.0036
613.2836	0.0052
613.4731	0.0004
613.6627	0.0031
613.8522	0.0002
614.0417	0.0058
614.2313	0.0017
614.4207	0.0044
614.6102	0.0152
614.7997	0.007
614.9891	0.0057
615.1785	-0.0031
615.3679	0.0063
615.5573	0.006
615.7467	-0.0032
615.9361	0.0029
616.1254	0.0062
616.3147	0.0019
616.504	0.0026
616.6933	0.0033
616.8826	0.0025
617.0718	0.0025
617.2611	0.0005
617.4503	-0.0006
617.6395	0.0084
617.8287	0.0084
618.0179	0.0063
618.207	0.0097
618.3961	0.001
618.5853	0.0085
618.7744	0.0006
618.9634	0.0073
619.1525	-0.001
619.3416	0.0016
619.5306	0.0062
619.7196	0.0104
619.9086	0.0006
620.0976	0.003
620.2866	0.0067
620.4755	0.0003
620.6645	0.0138
620.8534	0.005
621.0423	0.0008
621.2312	-0.0009
621.42	-0.0031
621.6089	0.0044
621.7977	0.0074
621.9865	0.0031
622.1753	-0.0015
622.3641	-0.0044
622.5529	-0.0057
622.7416	0.0019
622.9303	0.0039
623.1191	0.0051
623.3078	0.006
623.4964	0.0059
623.6851	0.012
623.8737	0.001
624.0624	-0.0002
624.251	0.0074
624.4396	0.0009
624.6282	0.0121
624.8167	0.004
625.0053	0.0106
625.1938	0.0064
625.3823	0.0079
625.5708	-0.0033
625.7593	-0.0007
625.9477	0.0004
626.1362	0.007
626.3246	0.0077
626.513	0.012
626.7014	0.0086
626.8898	0.0142
627.0781	-0.005
627.2665	0.0032
627.4548	-0.0094
627.6431	0.0093
627.8314	0.0244
628.0197	0.0055
628.2079	0.0046
628.3962	0.0038
628.5844	0.0158
628.7726	0.0005
628.9608	0.0077
629.1489	0.0151
629.3371	0.001
629.5252	0.0085
629.7134	-0.0027
629.9015	0.0003
630.0895	-0.0103
630.2776	0.0087
630.4657	0.0044
630.6537	0.0045
630.8417	0.0038
631.0297	-0.0004
631.2177	0.0078
631.4057	0.0081
631.5936	-0.002
631.7815	0.0114
631.9695	0.0098
632.1574	-0.0034
632.3452	0.0075
632.5331	-0.0028
632.7209	-0.0042
632.9088	-0.007
633.0966	0.0321
633.2844	0.0003
633.4722	0.0142
633.6599	0.0284
633.8477	0.0136
634.0354	0.0114
634.2231	-0.0077
634.4108	-0.0008
634.5985	0.0108
634.7861	0.0067
634.9738	-0.0184
635.1614	-0.0002
635.349	0.0165
635.5366	0.0061
635.7242	0.0022
635.9117	0.0001
636.0993	0.0059
636.2868	-0.0051
636.4743	0.0053
636.6618	-0.0137
636.8492	0.0044
637.0367	-0.0117
637.2241	0.0063
637.4115	0.0217
637.5989	0.008
637.7863	0.0303
637.9737	0.002
638.161	0.0167
638.3484	-0.0014
638.5357	0.0023
638.723	-0.0016
638.9103	-0.0167
639.0975	0.0026
639.2848	0.0097
639.472	0.0062
639.6592	-0.0141
639.8464	0.0181
640.0336	0.0055
640.2208	-0.0007
640.4079	0.0096
640.595	-0.01
640.7821	0.0226
640.9692	-0.0058
641.1563	-0.0011
641.3434	0.0151
641.5304	0.0131
641.7174	0.0235
641.9044	-0.0065
642.0914	0.0132
642.2784	0.0006
642.4653	-0.0023
642.6523	0.0056
642.8392	0.0091
643.0261	0.0141
643.213	0.0024
643.3999	0.029
643.5867	0.01
643.7735	0.0065
643.9604	0.0271
644.1472	0.0068
644.3339	0.0002
644.5207	0.0011
644.7075	-0.0048
644.8942	0.0061
645.0809	-0.0013
645.2676	-0.0116
645.4543	0.0112
645.6409	0.0116
645.8276	-0.007
646.0142	-0.0046
646.2008	0.0121
646.3874	-0.022
646.574	-0.0125
646.7605	-0.0107
646.9471	-0.0023
647.1336	-0.0119
647.3201	-0.0008
647.5066	0.0044
647.6931	0.0026
647.8795	0.0151
648.0659	-0.0117
648.2524	0.0148
648.4388	0.0117
648.6252	0.0178
648.8115	-0.0031
648.9979	0.0201
649.1842	0.0003
649.3705	0.0156
649.5568	-0.0198
649.7431	-0.0071
649.9294	0.0155
650.1156	-0.0175
650.3018	0.0147
650.488	0.0187
650.6742	0.0096
650.8604	0.0004
651.0466	-0.0161
651.2327	-0.0015
651.4188	-0.0012
651.6049	0.0165
651.791	0.001
651.9771	0.0135
652.1632	-0.0058
652.3492	-0.0128
652.5352	0.0258
652.7212	0.013
652.9072	-0.0111
653.0932	0.0076
653.2791	0.0149
653.465	0.0071
653.651	0.0127
653.8369	0.0162
654.0227	0.0061
654.2086	-0.0082
654.3944	0.0108
654.5803	0.0085
654.7661	0.007
654.9519	-0.0047
655.1377	0.0002
655.3234	0.0002
655.5092	0.0002
655.6949	0.0002
655.8806	0.0002
656.0663	0.0002
656.2519	0.0002
656.4376	0.0002
656.6232	0.0002
656.8088	0.0002
656.9945	0.0002
657.18	0.0002
657.3656	0.0002
657.5511	0.0002
657.7367	0.0002
657.9222	0.0002
658.1077	0.0002
658.2932	0.0002
658.4786	0.0002
658.6641	0.0002
658.8495	0.0002
659.0349	0.0002
659.2203	0.0002
659.4057	0.0002
659.591	0.0887
659.7764	0.0111
659.9617	-0.0007
660.147	-0.0028
660.3323	0.0078
660.5176	0.0078
660.7028	-0.014
660.888	-0.0005
661.0733	0.0096
661.2585	-0.006
661.4436	-0.0001
661.6288	0.0135
661.8139	-0.0043
661.9991	-0.0049
662.1842	-0.0131
662.3693	-0.0011
662.5544	-0.0022
662.7394	0.0086
662.9245	-0.0042
663.1095	-0.0094
663.2945	-0.0012
663.4795	-0.0098
663.6644	0.002
663.8494	0.0104
664.0343	0.0136
664.2193	0.0084
664.4042	0.014
664.589	-0.0001
664.7739	0.0149
664.9587	-0.0074
665.1436	0.0034
665.3284	-0.0013
665.5132	-0.0155
665.698	0.016
665.8827	0.0316
666.0675	-0.0141
666.2522	0.0195
666.4369	0.0048
666.6216	0.0071
666.8063	0.0057
666.9909	-0.0038
667.1756	-0.0031
667.3602	-0.0127
667.5448	0.0028
667.7294	0.0279
667.9139	0.0041
668.0985	0.014
668.283	0.0081
668.4675	0.0072
668.652	0.0113
668.8365	0.0203
669.0209	-0.0052
669.2054	-0.0007
669.3898	0.0008
669.5742	0.0023
669.7586	0.0108
669.943	-0.0019
670.1273	0.0215
670.3117	0.0048
670.496	0.0077
670.6803	0.007
670.8646	-0.0197
671.0488	0.0231
671.2331	-0.0171
671.4173	0.0079
671.6015	0.009
671.7857	0.0013
671.9699	0.0215
672.1541	-0.0048
672.3382	0.0026
672.5223	0.0103
672.7064	-0.0018
672.8905	-0.008
673.0746	0.0045
673.2587	0.0202
673.4427	0.0018
673.6267	0.0097
673.8107	0.0163
673.9947	0.0118
674.1787	0.0297
674.3626	0.0218
674.5465	0.0253
674.7304	-0.0062
674.9143	-0.0055
675.0982	-0.0056
675.2821	-0.0047
675.4659	0.0096
675.6497	0.0112
675.8335	0.0096
676.0173	-0.0059
676.2011	0.0359
676.3849	-0.0011
676.5686	0.0174
676.7523	-0.0105
676.936	0.0171
677.1197	-0.0173
677.3034	0.0197
677.487	0.0058
677.6706	0.0185
677.8542	0.0111
678.0378	0.0148
678.2214	-0.0085
678.405	0.0116
678.5885	0.023
678.772	0.0017
678.9555	-0.0089
679.139	0.0062
679.3225	0.0077
679.5059	-0.0073
679.6894	0.0171
679.8728	-0.0066
680.0562	-0.0052
680.2395	0.0032
680.4229	-0.0145
680.6062	-0.0156
680.7896	-0.0011
680.9729	0.025
681.1562	0.0086
681.3394	-0.0123
681.5227	0.0089
681.7059	0.0249
681.8891	0.0167
682.0723	-0.0063
682.2555	0.0008
682.4387	0.0087
682.6218	0.0098
682.805	0.0213
682.9881	0.0319
683.1712	0.0254
683.3542	0.0236
683.5373	-0.0225
683.7203	-0.001
683.9034	-0.0077
684.0864	0.0012
684.2694	0.0099
684.4523	0.0101
684.6353	-0.0103
684.8182	-0.0019
685.0011	0.0127
685.184	0.0054
685.3669	0.0037
685.5498	-0.0082
685.7326	-0.011
685.9154	-0.0026
686.0982	-0.0003
686.281	0.0015
686.4638	0.0138
686.6465	0.0024
686.8293	-0.0071
687.012	0.0081
687.1947	0.0246
687.3774	0.0017
687.56	-0.0011
687.7427	-0.0056
687.9253	-0.0093
688.1079	-0.0004
688.2905	0.0091
688.4731	0.0168
688.6556	0.0165
688.8382	-0.0114
689.0207	0.0226
689.2032	0.0229
689.3857	-0.0128
689.5681	0.0046
689.7506	0.0116
689.933	0.0042
690.1154	0.0205
690.2978	-0.0001
690.4802	0.0234
690.6626	0.0144
690.8449	0.0027
691.0272	0.018
691.2095	-0.0066
691.3918	-0.0005
691.5741	0.009
691.7563	0.0047
691.9386	0.0259
692.1208	0.0061
692.303	0.0052
692.4852	-0.0006
692.6673	0.0072
692.8495	-0.0178
693.0316	0.017
693.2137	0.0123
693.3958	-0.0035
693.5778	-0.0045
693.7599	-0.0108
693.9419	-0.0114
694.1239	0.0145
694.3059	0.0018
694.4879	-0.0094
694.6699	-0.0052
694.8518	-0.0004
695.0337	0.0151
695.2157	0.0271
695.3975	-0.0099
695.5794	-0.0035
695.7613	0.0341
695.9431	-0.0072
696.1249	0.0253
696.3067	-0.0145
696.4885	0.0066
696.6703	-0.0029
696.852	0.0028
697.0337	0.0202
697.2154	0.0095
697.3971	0.008
697.5788	0.0166
697.7605	-0.0124
697.9421	0.0063
698.1237	0.0209
698.3053	-0.0093
698.4869	0.011
698.6685	0.0011
698.85	0.0252
699.0315	-0.006
699.213	0.0293
699.3945	-0.027
699.576	0.0396
699.7575	0.0124
699.9389	-0.0135
700.1203	0.0523
700.3017	0.0122
700.4831	0.0441
700.6645	0.0298
700.8458	0.0058
701.0271	0.0357
701.2084	0.0158
701.3897	-0.0024
701.571	-0.0139
701.7523	0.0033
701.9335	0.0102
702.1147	0.0265
702.2959	-0.0095
702.4771	0.005
702.6583	0.0015
702.8394	-0.0205
703.0205	0.0208
703.2016	-0.0146
703.3827	-0.0051
703.5638	-0.0028
703.7449	0.0309
703.9259	0.0127
704.1069	-0.0114
704.2879	0.0034
704.4689	0.0137
704.6499	0.0189
704.8308	0.0149
705.0117	0.0008
705.1927	0.0033
705.3735	-0.0016
705.5544	-0.0024
705.7353	0.0007
705.9161	-0.0363
706.0969	0.0119
706.2777	0.0066
706.4585	0.0042
706.6393	0.0224
706.82	0.0086
707.0007	0.0028
707.1815	0.0146
707.3621	0.01
707.5428	0.0262
707.7235	-0.0065
707.9041	0.013
708.0847	0.0226
708.2653	0.0465
708.4459	-0.0042
708.6265	-0.0182
708.807	0.0002
708.9875	-0.0197
709.168	-0.0085
709.3485	0.027
709.529	0.0146
709.7095	-0.0225
709.8899	0.0172
710.0703	0.0018
710.2507	0.0008
710.4311	-0.0185
710.6115	0.0427
710.7918	0.0052
710.9721	-0.0039
711.1524	-0.0056
711.3327	0.003
711.513	-0.0096
711.6932	0.0049
711.8735	0.0223
712.0537	0.0007
712.2339	0.0072
712.4141	0.0074
712.5942	0.0132
712.7744	0.031
712.9545	-0.0023
713.1346	0.0107
713.3147	0.0148
713.4947	-0.0072
713.6748	-0.0035
713.8548	0.0115
714.0348	0.026
714.2148	0.0072
714.3948	0.0177
714.5748	0.0207
714.7547	0.0189
714.9346	0.0427
715.1145	-0.0004
715.2944	0.0073
715.4743	0.0018
715.6541	-0.0074
715.834	0.0365
716.0138	0.0304
716.1936	-0.0034
716.3733	-0.0047
716.5531	0.0031
716.7328	-0.0038
716.9126	0.0084
717.0923	0.0102
717.2719	-0.0131
717.4516	0.0164
717.6312	-0.0088
717.8109	0.0336
717.9905	-0.0074
718.1701	0.026
718.3496	0.0151
718.5292	-0.0005
718.7087	0.028
718.8882	0.0063
719.0677	0.0039
719.2472	-0.0041
719.4267	0.0192
719.6061	0.0138
719.7856	0.0156
719.965	0.002
720.1443	0.0026
720.3237	0.0127
720.5031	-0.0122
720.6824	-0.0058
720.8617	-0.0001
721.041	0.0408
721.2203	-0.0168
721.3995	-0.0188
721.5788	0.0138
721.758	-0.0132
721.9372	-0.0009
722.1164	0.0003
722.2956	-0.0101
722.4747	-0.0001
722.6538	0.0043
722.8329	0.025
723.012	0.0207
723.1911	0.0007
723.3702	0.0235
723.5492	0.0011
723.7282	0.0413
723.9072	0.0225
724.0862	0.0289
724.2652	0.0286
724.4441	0.0152
724.623	0.0136
724.8019	-0.0015
724.9808	-0.0018
725.1597	0.0023
725.3385	-0.0021
725.5174	0.0122
725.6962	0.0102
725.875	0.023
726.0538	0.0139
726.2325	0.0493
726.4112	-0.0112
726.59	-0.0296
726.7687	0.0048
726.9474	0.0441
727.126	0.0264
727.3047	-0.006
727.4833	0.0148
727.6619	0.0006
727.8405	-0.0022
728.0191	0.045
728.1976	0.0066
728.3762	0.0126
728.5547	-0.007
728.7332	0.0072
728.9116	0.0207
729.0901	0.0091
729.2686	0.012
729.447	0.0072
729.6254	0.0065
729.8038	0.012
729.9821	-0.0039
730.1605	-0.0014
730.3388	0.0036
730.5171	0.0046
730.6954	-0.0096
730.8737	0.0179
731.0519	0.0012
731.2302	0.0096
731.4084	-0.0026
731.5866	-0.0098
731.7648	-0.0016
731.9429	0.0396
732.1211	-0.0057
732.2992	-0.0067
732.4773	0.0117
732.6554	-0.0102
732.8335	0.013
733.0115	0.0144
733.1896	-0.0014
733.3676	0.0125
733.5456	-0.0095
733.7235	-0.0054
733.9015	0.016
734.0794	0.0027
734.2574	-0.0129
734.4353	0.0195
734.6131	0.0164
734.791	-0.0001
734.9689	0.0056
735.1467	0.0005
735.3245	0.0121
735.5023	0.0173
735.68	-0.0039
735.8578	0.0031
736.0355	0.0061
736.2132	-0.0006
736.3909	0.0307
736.5686	-0.0036
736.7463	-0.0062
736.9239	0.0114
737.1015	0.0122
737.2791	0.0089
737.4567	0.0461
737.6343	0.006
737.8118	0.0186
737.9894	0.002
738.1669	0.0012
738.3444	0.0351
738.5218	0.0063
738.6993	0.0128
738.8767	-0.0043
739.0541	-0.0119
739.2315	0.0158
739.4089	0.0291
739.5863	0.005
739.7636	0.0044
739.9409	0.0079
740.1182	0.0045
740.2955	0.0238
740.4728	0.0025
740.65	-0.0075
740.8272	0.0256
741.0044	0.0105
741.1816	0.0266
741.3588	-0.0289
741.5359	-0.01
741.7131	0.0216
741.8902	0.0057
742.0673	-0.0103
742.2444	0.0315
742.4214	0.02
742.5985	-0.0149
742.7755	-0.0074
742.9525	-0.0068
743.1295	-0.0232
743.3064	-0.0011
743.4834	-0.0002
743.6603	0.0455
743.8372	-0.0298
744.0141	0.0473
744.191	0.0127
744.3678	-0.0098
744.5446	0.0239
744.7215	0.0147
744.8982	0.0157
745.075	0.0567
745.2518	0.009
745.4285	0.012
745.6052	-0.0203
745.7819	-0.0062
745.9586	-0.0077
746.1353	-0.0152
746.3119	0.022
746.4885	0.0291
746.6651	0.0029
746.8417	0.011
747.0183	0.0351
747.1948	0.0143
747.3714	0.0103
747.5479	0.0372
747.7244	-0.0119
747.9008	-0.0112
748.0773	0.0311
748.2537	0.0184
748.4301	0.0037
748.6065	-0.0126
748.7829	-0.0253
748.9593	0.013
749.1356	0.0192
749.3119	0.0419
749.4882	0.0228
749.6645	0.0002
749.8408	0.0248
750.017	0.0148
750.1933	-0.0125
750.3695	0.0105
750.5457	-0.0072
750.7218	0.0024
750.898	-0.0185
751.0741	0.0012
751.2502	0.0175
751.4263	-0.0076
751.6024	0.0005
751.7784	0.002
751.9545	-0.0001
752.1305	-0.0157
752.3065	0.0173
752.4825	-0.0131
752.6584	0.0186
752.8344	-0.0081
753.0103	-0.0222
753.1862	0.0012
753.3621	0.0019
753.5379	-0.0126
753.7138	-0.0025
753.8896	-0.0071
754.0654	-0.0067
754.2412	0.0114
754.417	0.0417
754.5927	0.0148
754.7685	0.0481
754.9442	0.0188
755.1199	0.0069
755.2956	-0.0071
755.4712	0.0029
755.6469	-0.0075
755.8225	0.01
755.9981	0.0188
756.1736	0.0164
756.3492	0.0051
756.5248	0.0177
756.7003	0.0057
756.8758	-0.0135
757.0513	-0.0125
757.2267	-0.0001
757.4022	-0.0128
757.5776	-0.0003
757.753	0.0047
757.9284	0.0019
758.1038	0.0356
758.2791	0.0046
758.4545	-0.0044
758.6298	0.0126
758.8051	0.0246
758.9803	0.0176
759.1556	0.0101
759.3308	-0.0061
759.506	0.0004
759.6812	-0.0052
759.8564	-0.003
760.0316	0.004
760.2067	0.0198
760.3819	0.0034
760.557	0.0136
760.732	0.0051
760.9071	0.0176
761.0821	-0.0121
761.2572	0.0114
761.4322	0.0041
761.6072	0.0102
761.7821	-0.0216
761.9571	0.001
762.132	0.0142
762.3069	0.0162
762.4818	-0.005
762.6567	-0.0205
762.8316	0.0118
763.0064	0.0235
763.1812	0.0066
763.356	-0.0243
763.5308	0.0233
763.7055	-0.0072
763.8803	0.0005
764.055	0.0043
764.2297	-0.0192
764.4044	-0.0123
764.579	-0.0082
764.7537	0.0068
764.9283	0.0013
765.1029	0.0107
765.2775	0.0223
765.4521	0.001
765.6266	0.0062
765.8011	0.014
765.9756	0.0112
766.1501	0.0205
766.3246	-0.0029
766.4991	-0.0087
766.6735	0.0223
766.8479	-0.0012
767.0223	0.0165
767.1967	0.0382
767.371	-0.0027
767.5454	-0.0048
767.7197	0.0348
767.894	-0.0005
768.0683	0.022
768.2425	0.0105
768.4168	0.0131
768.591	0.0214
768.7652	-0.0083
768.9394	-0.0091
769.1135	-0.0274
769.2877	0.0248
769.4618	0.0122
769.6359	0.0217
769.81	0.0221
769.984	0.0121
770.1581	0.0033
770.3321	0.0114
770.5061	-0.009
770.6801	0.0162
770.8541	0.0013
771.028	0.0363
771.202	0.0248
771.3759	0.014
771.5498	0.0169
771.7236	0.0181
771.8975	0.0369
772.0713	0.0228
772.2451	0.0198
772.4189	-0.004
772.5927	-0.0083
772.7665	-0.0221
772.9402	0.0274
773.1139	0.0087
773.2876	-0.034
773.4613	0.0265
773.635	0.032
773.8086	0.0217
773.9822	0.0207
774.1558	0.0523
774.3294	-0.0195
774.503	0.0396
774.6765	0.0046
774.8501	0.0018
775.0236	0.031
775.1971	0.0585
775.3705	0.0124
775.544	-0.018
775.7174	-0.0179
775.8908	0.0295
776.0642	0.0268
776.2376	0.0472
776.4109	0.0289
776.5843	-0.025
776.7576	0.0126
776.9309	0.038
777.1041	0.0206
777.2774	0.0022
777.4506	-0.0062
777.6238	-0.0055
777.797	0.0258
777.9702	-0.0035
778.1434	0.0041
778.3165	-0.0093
778.4896	-0.0266
778.6627	0.0126
778.8358	-0.0105
779.0089	-0.0173
779.1819	0.0373
779.3549	0.0285
779.5279	-0.0092
779.7009	0.0573
779.8739	0.0397
780.0468	0.0026
780.2197	0.0216
780.3926	-0.0408
780.5655	0.0338
780.7384	0.0182
780.9112	0.0132
781.0841	0.0256
781.2569	0.0085
781.4297	0.0275
781.6024	0.0076
781.7752	0.0424
781.9479	0.0192
782.1206	0.0121
782.2933	0.016
782.466	0.0233
782.6386	0.0143
782.8113	0.02
782.9839	-0.0191
783.1565	-0.0035
783.329	-0.0054
783.5016	0.001
783.6741	-0.0032
783.8466	0.0152
784.0191	0.0287
784.1916	0.0158
784.3641	-0.0317
784.5365	0.0144
784.7089	-0.0238
784.8813	0.0539
785.0537	0.0222
785.2261	-0.0126
785.3984	0.0005
785.5707	-0.0083
785.743	0.0357
785.9153	0.0335
786.0876	-0.0196
786.2598	-0.0221
786.432	-0.0134
786.6042	0.0474
786.7764	-0.0144
786.9486	0.0189
787.1207	0.0378
787.2928	0.0492
787.4649	-0.0148
787.637	0.0004
787.8091	0.0208
787.9811	0.0277
788.1532	0.0312
788.3252	0.0092
788.4972	0.0115
788.6691	0.0105
788.8411	-0.0265
789.013	0.0432
789.1849	0.0352
789.3568	0.0101
789.5287	0.0171
789.7005	-0.0161
789.8723	-0.0266
790.0442	-0.0438
790.2159	0.0143
790.3877	0.0291
790.5595	0.0387
790.7312	-0.0033
790.9029	-0.0174
791.0746	0.0289
791.2463	-0.059
791.4179	-0.0045
791.5896	0.0474
791.7612	-0.0255
791.9328	0.0386
792.1044	-0.0171
792.2759	-0.0383
792.4474	-0.0414
792.619	0.0008
792.7905	-0.0083
792.9619	0.0838
793.1334	0.0476
793.3048	0.0409
793.4762	0.0091
793.6476	-0.0579
793.819	0.0018
793.9904	-0.0401
794.1617	0.013
794.333	-0.0082
794.5043	0.0191
794.6756	0.0121
794.8469	0.0078
795.0181	0.0304
795.1893	0.0156
795.3605	0.0347
795.5317	0.0159
795.7029	0.0116
795.874	0.0296
796.0452	0.0269
796.2163	0.0489
796.3873	0.1265
796.5584	0.0415
796.7294	0.0319
796.9005	0.0474
797.0715	-0.016
797.2425	0.0591
797.4134	0.0966
797.5844	0.0521
797.7553	-0.0809
797.9262	0.1224
798.0971	0.0467
798.2679	0.0094
798.4388	0.0299
798.6096	-0.0256
798.7804	0.0623
798.9512	0.0138
799.122	0.0021
799.2927	0.0836
799.4635	-0.0194
799.6342	-0.0683
799.8049	0.0494
799.9755	0.0349
800.1462	0.0688
800.3168	0.063
800.4874	-0.0344
800.658	0.0595
800.8286	0.0299
800.9991	0.0423
801.1696	-0.0019
801.3402	0.0198
801.5106	0.0014
801.6811	0.0269
801.8516	0.1309
802.022	-0.019
802.1924	0.0056
802.3628	0.0535
802.5332	0.1085
802.7035	0.0568
802.8739	-0.0535
803.0442	-0.0242
803.2145	0.0683
803.3847	-0.061
803.555	0.0361
803.7252	0.0442
803.8954	-0.0337
804.0656	0.049
804.2358	0.113
804.4059	0.0485
804.5761	-0.0155
804.7462	-0.004
804.9163	0.022
805.0864	0.0082
805.2564	0.0667
805.4264	-0.0443
805.5965	0.0813
805.7665	0.0493
805.9364	-0.0823
806.1064	0.0349
806.2763	0.0894
806.4462	0.0025
806.6161	0.0222
806.786	0.0275
806.9559	-0.0165
807.1257	-0.0153
807.2955	-0.0159
807.4653	0.0056
807.6351	0.0527
807.8048	0.0395
807.9746	-0.0234
808.1443	0.0376
808.314	0.0556
808.4837	0.0953
808.6533	-0.0307
808.8229	-0.0538
808.9926	-0.0125
809.1622	0.0262
809.3317	-0.0368
809.5013	-0.0865
809.6708	-0.0039
809.8403	0.0472
810.0098	-0.0197
810.1793	0.0694
810.3488	-0.0304
810.5182	0.1911
810.6876	-0.0376
810.857	0.0458
811.0264	0.0497
811.1958	0.1373
811.3651	-0.0454
811.5344	0.0653
811.7037	0.1281
811.873	0.1403
812.0422	0.002
812.2115	-0.0573
812.3807	-0.0967
812.5499	0.0313
812.7191	-0.0772
812.8882	-0.0194
813.0574	0.04
813.2265	0.1739
813.3956	0.043
813.5646	0.0951
813.7337	0.067
813.9027	0.0312
814.0718	0.0408
814.2407	0.0468
814.4097	0.0829
814.5787	0.1325
814.7476	-0.0063
814.9165	0.0212
815.0854	0.0148
815.2543	0.046
815.4232	0.1952
815.592	-0.0008
815.7608	-0.0579
815.9296	0.1204
816.0984	0.1529
816.2671	-0.2048
816.4359	-0.0059
816.6046	0.0338
816.7733	-0.0735
816.942	-0.014
817.1106	0.0632
817.2793	-0.1231
817.4479	0.0385
817.6165	0.0126
817.785	0.013
817.9536	-0.023
818.1221	0.0118
818.2906	-0.0516
818.4591	0.0174
818.6276	0.0116
818.7961	-0.0136
818.9645	0.0923
819.1329	0.0914
819.3013	-0.0257
819.4697	-0.0811
819.638	0.2297
819.8064	0.0224
819.9747	0.0934
820.143	-0.0739
820.3113	0.1209
820.4795	0.1619
820.6477	0.1296
820.816	0.0973
820.9842	0.1536
821.1523	0.072
821.3205	0.0307
821.4886	-0.0491
821.6567	-0.0695
821.8248	0.0876
821.9929	-0.164
822.1609	-0.0486
822.329	0.002
822.497	0.0513
822.665	0.1123
822.833	-0.0123
823.0009	-0.0413
823.1688	0.1084
823.3367	-0.082
823.5046	0.086
823.6725	-0.0326
823.8404	0.0825
824.0082	0.0167
824.176	-0.1229
824.3438	0.1525
824.5116	0.0152
824.6793	0.0827
824.847	-0.1138
825.0147	0.0205
825.1824	0.1285
825.3501	0.0867
825.5177	-0.0657
825.6854	0.0136
825.853	-0.089
826.0206	-0.0012
826.1881	-0.0619
826.3557	-0.0082
826.5232	0.0481
826.6907	0.0705
826.8582	0.053
827.0257	-0.0043
827.1931	0.0304
827.3605	0.0103
827.528	-0.022
827.6953	-0.2135
827.8627	-0.0236
828.03	0.1094
828.1974	-0.0011
828.3647	0.0567
828.532	0.0951
828.6992	0.2183
828.8665	0.1
829.0337	0.0063
829.2009	-0.0864
829.3681	0.149
829.5352	-0.1443
829.7024	0.0955
829.8695	0.1151
830.0366	0.069
830.2037	0.0384
830.3707	0.1527
830.5378	-0.0127
830.7048	0.074
830.8718	0.1457
831.0388	0.1414
831.2057	-0
831.3727	-0.2992
831.5396	-0.0064
831.7065	-0.7915
831.8734	0.0369
832.0402	0.2337
832.2071	0.7813
832.3739	0.0576
832.5407	-0.827
832.7075	-0.4681
832.8742	-0
833.041	0.0786
833.2077	0.0612
833.3744	0.1531
833.541	0.216
833.7077	0.0105
833.8743	0.1465
834.0409	0.1472
834.2075	0.1302
834.3741	-0.0734
834.5407	-0.0562
834.7072	0.1554
834.8737	0.3269
835.0402	1.9104
835.2067	-0.0635
835.3731	0.0091
835.5395	-0.0597
835.706	-0.1483
835.8723	0.1432
836.0387	0.0578
836.2051	1.0374
836.3714	0.0481
836.5377	0.2469
836.704	0.3378
836.8703	0.1277
837.0365	-0
837.2027	-0
837.3689	0.4565
837.5351	0.0729
837.7013	0.2257
837.8674	-0.4517
838.0335	0.2508
838.1997	0.0446
838.3657	0.1619
838.5318	-0.1535
838.6978	-0
838.8639	-0.1445
839.0299	-0.0286
839.1958	0.0842
839.3618	0.5166
839.5277	0.9377
839.6937	-0.0035
839.8596	-0.0243
840.0254	0.2085
840.1913	0.4921
840.3571	0.2428
840.523	-0
840.6888	-0.0316
840.8545	-0.4886
841.0203	0.0992
841.186	-0.1239
841.3517	0.2382
841.5174	0.305
841.6831	0.2681
841.8488	-0
842.0144	0.2356
842.18	0.0175
842.3456	-0.479
842.5112	-0
842.6767	0.1019
842.8422	0.643
843.0077	0.1414
843.1732	-0.1001
843.3387	0.3695
843.5042	-0
843.6696	-0.1227
843.835	0.1602
844.0004	-0.1336
844.1657	-0
844.3311	-0
844.4964	-0
844.6617	0.9352
844.827	2.616
844.9923	0.8761
845.1575	-0.1445
845.3227	0.258
845.4879	-0
845.6531	0.7273
845.8183	0.0448
845.9834	1.012
846.1485	0.2327
846.3136	0.145
846.4787	0.2734
846.6438	0.1925
846.8088	-0
846.9738	-0
847.1388	0.2665
847.3038	0.7931
847.4687	-0
847.6337	-0.0135
847.7986	-0.2462
847.9635	-0.0343
848.1284	-0
848.2932	0.7947
848.458	-0
848.6228	0.2641
848.7876	0.2297
848.9524	0.8505
849.1172	-1.6952
849.2819	-0
849.4466	0.6265
849.6113	0.2116
849.7759	-0
849.9406	-0.0589
850.1052	-0.7968
850.2698	-0.1754
850.4344	-0
850.599	-0.1988
850.7635	-0
850.928	0.2085
851.0925	0.3144
851.257	-0.149
851.4215	-0
851.5859	-0.0225
851.7503	-0
851.9147	0.2137
852.0791	0.0058
852.2434	0.0758
852.4078	0.0393
852.5721	0.3782
852.7364	-0.2997
852.9007	0.0527
853.0649	-0
853.2291	0.0671
853.3934	-0
853.5575	0.1138
853.7217	0.3996
853.8859	-0.6736
854.05	-0.345
854.2141	0.4344
854.3782	-0.1225
854.5423	-0.345
854.7063	0.1642
854.8703	0.2299
855.0343	-0.1016
855.1983	-0.0717
855.3623	0.1695
855.5262	-0
855.6901	-0
855.854	0.2996
856.0179	0.1638
856.1818	0.4473
856.3456	0.0896
856.5094	-0
856.6732	-0.0566
856.837	-0.948
857.0008	-0
857.1645	1.0093
857.3282	-0.6064
857.4919	-0.0934
857.6556	-0.4866
857.8192	-0.1093
857.9828	0.3331
858.1465	-0.0292
858.31	-0
858.4736	-0.7153
858.6372	-0
858.8007	0.7668
858.9642	0.6501
859.1277	0.2972
859.2911	-0.5549
859.4546	-0
859.618	0.957
859.7814	-0.3938
859.9448	-0.0795
860.1081	-0
860.2715	-0
860.4348	-0
860.5981	0.415
860.7614	0.0257
860.9246	-0.1721
861.0879	-0
861.2511	-0.699
861.4143	-0.638
861.5774	-0.3646
861.7406	0.258
861.9037	-0.9572
862.0668	0.3786
862.2299	0.2824
862.393	-0
862.556	-0
862.7191	-0.5991
862.8821	0.2283
863.0451	0.2982
863.208	0.2599
863.371	-0.4799
863.5339	0.3112
863.6968	-0.0036
863.8597	-0
864.0225	-0.1323
864.1854	0.4568
864.3482	-0.664
864.511	0.5786
864.6737	0.083
864.8365	-0
864.9992	-0
865.1619	-0.2975
865.3246	-1.5866
865.4873	0.04
865.65	0.0074
865.8126	0.5628
865.9752	1.4284
866.1378	-0.0027
866.3004	-0.005
866.4629	-1.8565
866.6254	0.1653
866.7879	-0.3389
866.9504	-0.1886
867.1129	-0.5075
867.2753	-0.2941
867.4377	-0.134
867.6001	-0.6322
867.7625	-0.2653
867.9249	-0
868.0872	-0.2914
868.2495	-0
868.4118	-0
868.5741	-0
868.7363	-0.2505
868.8986	-0.1195
869.0608	-0
869.223	-0
869.3851	-0
869.5473	-0.0878
869.7094	0.4344
869.8715	-0.8916
870.0336	0.0625
870.1957	-0.7471
870.3577	-0
870.5197	-0.1611
870.6817	-0.8529
870.8437	-0.0996
871.0057	0.4127
871.1676	0.3355
871.3295	-0
871.4914	-0.9912
871.6533	-0.5359
871.8151	0.8618
871.977	-0.4297
872.1388	-0
872.3006	-0.0739
872.4623	-0
872.6241	-0
872.7858	-0
872.9475	-0.2481
873.1092	0.3906
873.2709	0.34
873.4325	-1.4624
873.5941	0.699
873.7557	-0
873.9173	-0.3208
874.0789	-0.017
874.2404	-0
874.4019	0.013
874.5634	-0
874.7249	-0
874.8863	-0.2916
875.0478	-0.2717
875.2092	0.3946
875.3706	-0.1109
875.5319	-0
875.6933	-0
875.8546	-0
876.0159	0.7563
876.1772	-0
876.3385	0.601
876.4997	-0.0046
876.6609	-0.1827
876.8221	-0
876.9833	-0.1945
877.1445	0.0441
877.3056	0.45
877.4667	-0
877.6278	-0
877.7889	-0.2043
877.9499	0.3393
878.111	-0.3914
878.272	-0
878.433	-0.1704
878.5939	0.3943
878.7549	-0.0683
878.9158	0.214
879.0767	-0.3554
879.2376	0.2599
879.3984	-0
879.5593	0.537
879.7201	-1.5942
879.8809	-0
880.0417	0.0531
880.2024	0.0061
880.3632	-0.7485
880.5239	-0.1124
880.6846	0.6511
880.8452	-0.276
881.0059	-0
881.1665	0.063
881.3271	-0
881.4877	-0.02
881.6483	-0
881.8088	-0
881.9693	-0.8523
882.1298	-0.8523
882.2903	-0.8523
