Data from MonoPyChalIsomerACN10uM340nmA_Absorbance_14-14-18-568.txt Node
Date: Fri Jul 05 14:14:18 BST 2024
User: LASERRRRR
Spectrometer: FLMT03099
Trigger mode: 0
Integration Time (sec): 1.000000E-1
Scans to average: 1
Electric dark correction enabled: true
Nonlinearity correction enabled: false
Boxcar width: 0
XAxis mode: Wavelengths
Number of Pixels in Spectrum: 3648
>>>>>Begin Spectral Data<<<<<
179.3399	-0.3785
179.5586	-0.3785
179.7771	-0.3785
179.9957	-0.1761
180.2143	-0
180.4329	-0.452
180.6514	-0
180.8699	-0
181.0885	-0.1951
181.307	0.1284
181.5255	-0
181.744	0.9596
181.9625	-0
182.181	-0.818
182.3994	0.1192
182.6179	-0.562
182.8363	-0
183.0547	0.0802
183.2732	0.0287
183.4916	0.1155
183.71	0.1153
183.9284	0.0963
184.1467	-0.1539
184.3651	-0.0665
184.5835	0.0228
184.8018	0.1316
185.0201	0.1561
185.2385	-0.0154
185.4568	0.0189
185.6751	0.24
185.8934	0.547
186.1117	0.0347
186.3299	0.1558
186.5482	0.1729
186.7664	0.05
186.9847	-0.1227
187.2029	0.1105
187.4211	0.1494
187.6393	0.0935
187.8575	-0.23
188.0757	0.1502
188.2939	0.0478
188.512	-0
188.7302	0.0623
188.9483	-0.1219
189.1665	-0.0465
189.3846	-0.2008
189.6027	-0.0366
189.8208	0.3476
190.0389	0.0458
190.257	0.4225
190.475	0.3867
190.6931	0.3477
190.9111	0.3425
191.1292	0.3463
191.3472	0.5701
191.5652	0.398
191.7832	0.0874
192.0012	0.7346
192.2192	0.2336
192.4371	0.4547
192.6551	0.3392
192.873	0.4356
193.091	0.2703
193.3089	0.6924
193.5268	0.4307
193.7447	0.8407
193.9626	0.5049
194.1805	0.458
194.3984	0.6625
194.6162	0.5685
194.8341	0.6674
195.0519	0.5859
195.2697	0.661
195.4875	0.5928
195.7054	0.6672
195.9231	0.4996
196.1409	0.7044
196.3587	0.4383
196.5765	0.6086
196.7942	0.6478
197.012	0.5393
197.2297	0.5167
197.4474	0.6512
197.6651	0.4961
197.8828	0.567
198.1005	0.6624
198.3182	0.5237
198.5358	0.8462
198.7535	0.5721
198.9711	0.6029
199.1888	0.6656
199.4064	0.8119
199.624	0.5604
199.8416	0.6434
200.0592	0.6471
200.2767	0.7285
200.4943	0.5977
200.7119	0.8259
200.9294	0.7067
201.1469	0.5875
201.3645	0.589
201.582	0.5506
201.7995	0.6728
202.017	0.6448
202.2344	0.5559
202.4519	0.6142
202.6694	0.7423
202.8868	0.6076
203.1042	0.6614
203.3217	0.8121
203.5391	0.7073
203.7565	0.5739
203.9739	0.6835
204.1913	0.6359
204.4086	0.5913
204.626	0.6266
204.8433	0.6565
205.0607	0.5909
205.278	0.6217
205.4953	0.5979
205.7126	0.6573
205.9299	0.673
206.1472	0.6505
206.3644	0.674
206.5817	0.6124
206.7989	0.693
207.0162	0.744
207.2334	0.6981
207.4506	0.6607
207.6678	0.6124
207.885	0.637
208.1022	0.5924
208.3194	0.7089
208.5365	0.69
208.7537	0.5972
208.9708	0.5735
209.1879	0.723
209.405	0.7724
209.6222	0.679
209.8392	0.6738
210.0563	0.5871
210.2734	0.6163
210.4905	0.6289
210.7075	0.6907
210.9245	0.5818
211.1416	0.6636
211.3586	0.5832
211.5756	0.6427
211.7926	0.5621
212.0096	0.6198
212.2265	0.5632
212.4435	0.632
212.6604	0.6128
212.8774	0.6007
213.0943	0.6198
213.3112	0.5402
213.5281	0.5089
213.745	0.484
213.9619	0.4949
214.1788	0.4885
214.3956	0.4484
214.6125	0.4859
214.8293	0.4804
215.0461	0.4573
215.2629	0.5085
215.4798	0.4784
215.6965	0.3846
215.9133	0.4545
216.1301	0.4202
216.3469	0.4463
216.5636	0.4253
216.7803	0.391
216.9971	0.3836
217.2138	0.4131
217.4305	0.3861
217.6472	0.3652
217.8639	0.369
218.0805	0.3538
218.2972	0.3151
218.5138	0.3463
218.7305	0.3233
218.9471	0.3094
219.1637	0.3089
219.3803	0.28
219.5969	0.2996
219.8135	0.2579
220.0301	0.2793
220.2466	0.2806
220.4632	0.26
220.6797	0.2433
220.8962	0.2396
221.1127	0.2596
221.3292	0.2426
221.5457	0.2365
221.7622	0.2495
221.9787	0.2621
222.1951	0.2276
222.4116	0.2524
222.628	0.2579
222.8444	0.2446
223.0608	0.2494
223.2772	0.2671
223.4936	0.2515
223.71	0.248
223.9264	0.2721
224.1427	0.2523
224.3591	0.2669
224.5754	0.257
224.7917	0.2798
225.008	0.2799
225.2243	0.2687
225.4406	0.2672
225.6569	0.2799
225.8732	0.2735
226.0894	0.2537
226.3057	0.2727
226.5219	0.2945
226.7381	0.248
226.9543	0.2863
227.1705	0.295
227.3867	0.2667
227.6029	0.2882
227.8191	0.3076
228.0352	0.2996
228.2513	0.3155
228.4675	0.3293
228.6836	0.3055
228.8997	0.2935
229.1158	0.3286
229.3319	0.3008
229.548	0.3218
229.764	0.3204
229.9801	0.3247
230.1961	0.3314
230.4121	0.3416
230.6282	0.3419
230.8442	0.3213
231.0602	0.3541
231.2761	0.3556
231.4921	0.3485
231.7081	0.3708
231.924	0.3561
232.14	0.3727
232.3559	0.3451
232.5718	0.3638
232.7877	0.3549
233.0036	0.3525
233.2195	0.3662
233.4353	0.3691
233.6512	0.3763
233.867	0.3685
234.0829	0.3659
234.2987	0.3501
234.5145	0.3729
234.7303	0.3874
234.9461	0.3947
235.1619	0.3793
235.3776	0.3804
235.5934	0.3832
235.8091	0.361
236.0249	0.3792
236.2406	0.4034
236.4563	0.3949
236.672	0.4037
236.8877	0.3957
237.1034	0.3978
237.319	0.393
237.5347	0.408
237.7503	0.394
237.966	0.4248
238.1816	0.4031
238.3972	0.3985
238.6128	0.3829
238.8284	0.4022
239.0439	0.4344
239.2595	0.4156
239.475	0.4237
239.6906	0.4051
239.9061	0.3996
240.1216	0.4049
240.3371	0.4121
240.5526	0.3978
240.7681	0.421
240.9836	0.3885
241.199	0.4137
241.4145	0.3931
241.6299	0.3815
241.8453	0.3728
242.0607	0.3763
242.2761	0.3756
242.4915	0.3717
242.7069	0.3552
242.9223	0.3653
243.1376	0.3454
243.353	0.3569
243.5683	0.3352
243.7836	0.3319
243.9989	0.3315
244.2142	0.3167
244.4295	0.3357
244.6448	0.31
244.86	0.3179
245.0753	0.282
245.2905	0.2962
245.5057	0.2716
245.721	0.2707
245.9362	0.2645
246.1514	0.2819
246.3665	0.2541
246.5817	0.255
246.7969	0.2287
247.012	0.243
247.2271	0.242
247.4423	0.2305
247.6574	0.2308
247.8725	0.217
248.0876	0.222
248.3026	0.2367
248.5177	0.2149
248.7328	0.2132
248.9478	0.1996
249.1628	0.2093
249.3779	0.2087
249.5929	0.1989
249.8079	0.2138
250.0228	0.1958
250.2378	0.1958
250.4528	0.1976
250.6677	0.1836
250.8827	0.1955
251.0976	0.1876
251.3125	0.1934
251.5274	0.1684
251.7423	0.1836
251.9572	0.1811
252.172	0.1766
252.3869	0.1843
252.6017	0.1743
252.8166	0.1715
253.0314	0.1681
253.2462	0.1727
253.461	0.1662
253.6758	0.169
253.8906	0.1777
254.1053	0.1621
254.3201	0.1645
254.5348	0.1778
254.7496	0.1724
254.9643	0.1664
255.179	0.1706
255.3937	0.1546
255.6083	0.1774
255.823	0.1787
256.0377	0.1611
256.2523	0.1636
256.467	0.1486
256.6816	0.1775
256.8962	0.1658
257.1108	0.1613
257.3254	0.1834
257.54	0.1642
257.7545	0.1714
257.9691	0.1651
258.1836	0.1792
258.3981	0.1825
258.6127	0.1669
258.8272	0.1627
259.0417	0.1596
259.2561	0.1636
259.4706	0.1637
259.6851	0.1652
259.8995	0.1625
260.114	0.1702
260.3284	0.1674
260.5428	0.1605
260.7572	0.1778
260.9716	0.1755
261.186	0.1582
261.4003	0.1634
261.6147	0.1639
261.829	0.1639
262.0433	0.1627
262.2577	0.1626
262.472	0.1604
262.6863	0.1543
262.9005	0.1626
263.1148	0.1627
263.3291	0.1403
263.5433	0.1678
263.7576	0.1613
263.9718	0.1541
264.186	0.1645
264.4002	0.1485
264.6144	0.1611
264.8286	0.1739
265.0427	0.1554
265.2569	0.161
265.471	0.1608
265.6851	0.1499
265.8993	0.1595
266.1134	0.1543
266.3275	0.1536
266.5415	0.1489
266.7556	0.1551
266.9697	0.1603
267.1837	0.1688
267.3978	0.1598
267.6118	0.1676
267.8258	0.1732
268.0398	0.1481
268.2538	0.1544
268.4677	0.1577
268.6817	0.1384
268.8957	0.1581
269.1096	0.1559
269.3235	0.1644
269.5374	0.155
269.7514	0.144
269.9652	0.1508
270.1791	0.1474
270.393	0.1382
270.6068	0.1554
270.8207	0.1454
271.0345	0.1472
271.2483	0.156
271.4622	0.1434
271.676	0.1459
271.8897	0.142
272.1035	0.145
272.3173	0.1315
272.531	0.1559
272.7448	0.1403
272.9585	0.1282
273.1722	0.1464
273.3859	0.1485
273.5996	0.1241
273.8133	0.1363
274.0269	0.1388
274.2406	0.1375
274.4542	0.1385
274.6679	0.1258
274.8815	0.1359
275.0951	0.1368
275.3087	0.146
275.5223	0.1394
275.7358	0.1433
275.9494	0.1432
276.1629	0.1334
276.3765	0.1397
276.59	0.1464
276.8035	0.1444
277.017	0.146
277.2305	0.1401
277.444	0.1359
277.6574	0.139
277.8709	0.1484
278.0843	0.1352
278.2978	0.1356
278.5112	0.1295
278.7246	0.1383
278.938	0.133
279.1513	0.1469
279.3647	0.1491
279.5781	0.1385
279.7914	0.14
280.0047	0.1503
280.2181	0.1532
280.4314	0.1497
280.6447	0.1396
280.8579	0.1389
281.0712	0.15
281.2845	0.144
281.4977	0.1503
281.711	0.143
281.9242	0.1431
282.1374	0.1533
282.3506	0.1381
282.5638	0.1464
282.7769	0.1453
282.9901	0.1642
283.2033	0.1545
283.4164	0.1537
283.6295	0.1462
283.8426	0.1403
284.0557	0.1527
284.2688	0.157
284.4819	0.1545
284.695	0.1464
284.908	0.165
285.1211	0.1507
285.3341	0.1542
285.5471	0.1563
285.7601	0.1581
285.9731	0.1521
286.1861	0.1546
286.3991	0.1537
286.612	0.1686
286.825	0.1538
287.0379	0.1643
287.2508	0.1529
287.4637	0.1574
287.6766	0.1521
287.8895	0.1668
288.1024	0.1727
288.3152	0.1695
288.5281	0.1651
288.7409	0.1554
288.9538	0.1625
289.1666	0.1673
289.3794	0.1633
289.5922	0.1602
289.8049	0.1621
290.0177	0.168
290.2304	0.1613
290.4432	0.1588
290.6559	0.1629
290.8686	0.176
291.0813	0.1659
291.294	0.1744
291.5067	0.1782
291.7194	0.1638
291.932	0.1795
292.1447	0.1701
292.3573	0.1623
292.5699	0.1766
292.7825	0.1672
292.9951	0.1674
293.2077	0.1697
293.4203	0.1715
293.6328	0.1579
293.8454	0.1726
294.0579	0.1608
294.2704	0.1678
294.4829	0.153
294.6954	0.1669
294.9079	0.1639
295.1204	0.1684
295.3328	0.1623
295.5453	0.1795
295.7577	0.1675
295.9701	0.1468
296.1825	0.1689
296.3949	0.1664
296.6073	0.1598
296.8197	0.1607
297.0321	0.1764
297.2444	0.1567
297.4567	0.1743
297.6691	0.1642
297.8814	0.1577
298.0937	0.1588
298.306	0.1726
298.5182	0.1548
298.7305	0.1748
298.9428	0.1649
299.155	0.1639
299.3672	0.1616
299.5794	0.1655
299.7916	0.1596
300.0038	0.1638
300.216	0.1645
300.4282	0.1581
300.6403	0.1695
300.8525	0.1631
301.0646	0.1597
301.2767	0.1645
301.4888	0.1611
301.7009	0.1626
301.913	0.1529
302.125	0.1724
302.3371	0.1577
302.5491	0.1623
302.7612	0.1748
302.9732	0.1662
303.1852	0.165
303.3972	0.1659
303.6092	0.1629
303.8211	0.1623
304.0331	0.1452
304.245	0.1491
304.457	0.15
304.6689	0.1564
304.8808	0.1667
305.0927	0.1424
305.3046	0.158
305.5164	0.1514
305.7283	0.1369
305.9401	0.1497
306.152	0.1498
306.3638	0.1534
306.5756	0.1443
306.7874	0.152
306.9992	0.1481
307.2109	0.1378
307.4227	0.1354
307.6344	0.163
307.8462	0.1427
308.0579	0.1433
308.2696	0.1359
308.4813	0.1217
308.693	0.1376
308.9046	0.1483
309.1163	0.1344
309.328	0.1281
309.5396	0.122
309.7512	0.1241
309.9628	0.1206
310.1744	0.1227
310.386	0.1199
310.5976	0.1145
310.8091	0.1129
311.0207	0.1122
311.2322	0.1184
311.4437	0.1168
311.6552	0.1124
311.8667	0.1146
312.0782	0.0967
312.2897	0.0922
312.5012	0.1102
312.7126	0.1046
312.924	0.1089
313.1355	0.1159
313.3469	0.1148
313.5583	0.108
313.7696	0.1049
313.981	0.1027
314.1924	0.0955
314.4037	0.0967
314.6151	0.1149
314.8264	0.092
315.0377	0.0906
315.249	0.1023
315.4603	0.1035
315.6716	0.0947
315.8828	0.0861
316.0941	0.0906
316.3053	0.0955
316.5165	0.0928
316.7277	0.0839
316.9389	0.0923
317.1501	0.0941
317.3613	0.0891
317.5724	0.0875
317.7836	0.0939
317.9947	0.095
318.2058	0.0867
318.417	0.0876
318.6281	0.0787
318.8391	0.0922
319.0502	0.0897
319.2613	0.0936
319.4723	0.0942
319.6834	0.0979
319.8944	0.0803
320.1054	0.1001
320.3164	0.0921
320.5274	0.0886
320.7383	0.098
320.9493	0.0893
321.1602	0.1084
321.3712	0.078
321.5821	0.0999
321.793	0.0995
322.0039	0.0893
322.2148	0.0825
322.4257	0.0984
322.6365	0.1088
322.8474	0.104
323.0582	0.0919
323.269	0.0931
323.4798	0.1085
323.6906	0.1046
323.9014	0.0862
324.1122	0.1029
324.3229	0.1004
324.5337	0.0835
324.7444	0.0854
324.9551	0.1053
325.1658	0.1021
325.3765	0.1023
325.5872	0.0936
325.7979	0.0899
326.0085	0.1005
326.2192	0.1047
326.4298	0.0989
326.6404	0.1019
326.851	0.087
327.0616	0.0837
327.2722	0.0968
327.4828	0.1017
327.6933	0.0956
327.9039	0.1115
328.1144	0.0959
328.3249	0.1124
328.5354	0.0839
328.7459	0.0966
328.9564	0.0984
329.1669	0.0968
329.3773	0.0976
329.5878	0.1023
329.7982	0.0963
330.0086	0.1017
330.219	0.1056
330.4294	0.0915
330.6398	0.0963
330.8502	0.0952
331.0605	0.1046
331.2708	0.11
331.4812	0.1065
331.6915	0.0973
331.9018	0.0946
332.1121	0.0959
332.3224	0.107
332.5326	0.1016
332.7429	0.0967
332.9531	0.1155
333.1633	0.1024
333.3735	0.1069
333.5837	0.106
333.7939	0.0922
334.0041	0.1227
334.2143	0.102
334.4244	0.1051
334.6346	0.0841
334.8447	0.1087
335.0548	0.1035
335.2649	0.0884
335.475	0.1055
335.685	0.0941
335.8951	0.1068
336.1051	0.1048
336.3152	0.1108
336.5252	0.0946
336.7352	0.1043
336.9452	0.1044
337.1552	0.1091
337.3652	0.0984
337.5751	0.1024
337.7851	0.1158
337.995	0.0959
338.2049	0.1181
338.4148	0.1079
338.6247	0.1177
338.8346	0.1026
339.0445	0.0941
339.2543	0.1007
339.4642	0.0961
339.674	0.0889
339.8838	0.105
340.0936	0.1054
340.3034	0.118
340.5132	0.1189
340.7229	0.1086
340.9327	0.1078
341.1424	0.0973
341.3522	0.1198
341.5619	0.1121
341.7716	0.1213
341.9813	0.1181
342.1909	0.1115
342.4006	0.1247
342.6102	0.1096
342.8199	0.1129
343.0295	0.1176
343.2391	0.1203
343.4487	0.1323
343.6583	0.12
343.8679	0.1151
344.0774	0.1205
344.287	0.1174
344.4965	0.1142
344.706	0.1221
344.9155	0.1115
345.125	0.1176
345.3345	0.1186
345.544	0.1196
345.7534	0.1198
345.9629	0.1044
346.1723	0.1244
346.3817	0.1152
346.5911	0.1256
346.8005	0.1228
347.0099	0.1276
347.2193	0.1314
347.4286	0.1206
347.638	0.1338
347.8473	0.124
348.0566	0.1293
348.2659	0.1365
348.4752	0.1306
348.6845	0.1314
348.8937	0.136
349.103	0.1315
349.3122	0.1171
349.5214	0.1329
349.7306	0.1397
349.9398	0.1369
350.149	0.132
350.3582	0.1173
350.5674	0.1459
350.7765	0.1352
350.9856	0.1395
351.1948	0.1404
351.4039	0.1257
351.613	0.1348
351.822	0.1411
352.0311	0.136
352.2402	0.1501
352.4492	0.1396
352.6582	0.148
352.8672	0.1395
353.0762	0.127
353.2852	0.1291
353.4942	0.1366
353.7032	0.1448
353.9121	0.1436
354.1211	0.1452
354.33	0.1469
354.5389	0.1533
354.7478	0.1465
354.9567	0.1337
355.1655	0.1415
355.3744	0.1586
355.5833	0.162
355.7921	0.154
356.0009	0.1489
356.2097	0.1619
356.4185	0.1752
356.6273	0.1554
356.8361	0.1575
357.0448	0.1489
357.2536	0.1462
357.4623	0.1602
357.671	0.1482
357.8797	0.1652
358.0884	0.1581
358.2971	0.1773
358.5057	0.1596
358.7144	0.1668
358.923	0.1736
359.1316	0.1674
359.3402	0.1558
359.5488	0.1642
359.7574	0.1554
359.966	0.184
360.1746	0.1745
360.3831	0.1872
360.5916	0.1566
360.8002	0.1615
361.0087	0.1944
361.2172	0.1721
361.4256	0.1721
361.6341	0.1869
361.8426	0.19
362.051	0.1811
362.2594	0.1762
362.4678	0.1714
362.6762	0.1952
362.8846	0.1804
363.093	0.1907
363.3014	0.182
363.5097	0.1686
363.718	0.1897
363.9264	0.1859
364.1347	0.1828
364.343	0.1945
364.5513	0.192
364.7595	0.1984
364.9678	0.2179
365.176	0.2051
365.3842	0.1974
365.5925	0.2013
365.8007	0.1873
366.0089	0.2058
366.217	0.1802
366.4252	0.217
366.6333	0.2096
366.8415	0.212
367.0496	0.1927
367.2577	0.2228
367.4658	0.2152
367.6739	0.212
367.882	0.2106
368.09	0.2051
368.2981	0.2158
368.5061	0.2105
368.7141	0.2115
368.9221	0.225
369.1301	0.2042
369.3381	0.2183
369.5461	0.2
369.754	0.2091
369.962	0.225
370.1699	0.2237
370.3778	0.2217
370.5857	0.2107
370.7936	0.2223
371.0015	0.2301
371.2093	0.2292
371.4172	0.2387
371.625	0.207
371.8328	0.2045
372.0406	0.2253
372.2484	0.2297
372.4562	0.2315
372.664	0.2255
372.8717	0.228
373.0795	0.199
373.2872	0.2355
373.4949	0.2277
373.7026	0.2302
373.9103	0.2353
374.118	0.2359
374.3256	0.2304
374.5333	0.226
374.7409	0.2295
374.9485	0.2518
375.1561	0.2253
375.3637	0.234
375.5713	0.2326
375.7789	0.2282
375.9864	0.2306
376.194	0.2336
376.4015	0.2379
376.609	0.2379
376.8165	0.2395
377.024	0.2264
377.2315	0.2322
377.4389	0.2464
377.6464	0.2468
377.8538	0.2428
378.0612	0.2456
378.2686	0.2667
378.476	0.2637
378.6834	0.2705
378.8908	0.2483
379.0981	0.2465
379.3055	0.254
379.5128	0.2343
379.7201	0.2605
379.9274	0.2366
380.1347	0.2538
380.342	0.2739
380.5492	0.2428
380.7565	0.2532
380.9637	0.2498
381.1709	0.2748
381.3781	0.248
381.5853	0.2608
381.7925	0.261
381.9997	0.2704
382.2068	0.2526
382.4139	0.2679
382.6211	0.2463
382.8282	0.2447
383.0353	0.2621
383.2424	0.2585
383.4494	0.2823
383.6565	0.2682
383.8635	0.2683
384.0706	0.2738
384.2776	0.2658
384.4846	0.2491
384.6916	0.2734
384.8986	0.2763
385.1055	0.2698
385.3125	0.278
385.5194	0.2583
385.7263	0.2579
385.9333	0.237
386.1402	0.2607
386.347	0.2676
386.5539	0.2571
386.7608	0.273
386.9676	0.2482
387.1744	0.2854
387.3813	0.2418
387.5881	0.286
387.7948	0.244
388.0016	0.2515
388.2084	0.2618
388.4151	0.2474
388.6219	0.2554
388.8286	0.2538
389.0353	0.2976
389.242	0.2648
389.4487	0.2394
389.6553	0.2454
389.862	0.2446
390.0686	0.2565
390.2753	0.2546
390.4819	0.2478
390.6885	0.2607
390.8951	0.2643
391.1016	0.2494
391.3082	0.2398
391.5147	0.2401
391.7213	0.242
391.9278	0.2338
392.1343	0.2343
392.3408	0.2498
392.5473	0.2509
392.7537	0.2477
392.9602	0.2406
393.1666	0.2418
393.373	0.2432
393.5794	0.2584
393.7858	0.2307
393.9922	0.2169
394.1986	0.2357
394.4049	0.2501
394.6113	0.221
394.8176	0.2252
395.0239	0.2243
395.2302	0.2333
395.4365	0.2324
395.6428	0.2234
395.8491	0.2305
396.0553	0.2268
396.2615	0.2137
396.4678	0.214
396.674	0.2216
396.8802	0.2192
397.0863	0.2419
397.2925	0.2064
397.4987	0.2279
397.7048	0.2143
397.9109	0.2186
398.117	0.2247
398.3231	0.2202
398.5292	0.24
398.7353	0.2301
398.9413	0.2254
399.1474	0.2319
399.3534	0.2255
399.5594	0.2069
399.7654	0.2303
399.9714	0.227
400.1774	0.2185
400.3833	0.2193
400.5893	0.23
400.7952	0.2324
401.0011	0.2036
401.207	0.2287
401.4129	0.2228
401.6188	0.2161
401.8247	0.2169
402.0305	0.2128
402.2364	0.2157
402.4422	0.2511
402.648	0.2356
402.8538	0.227
403.0596	0.2221
403.2654	0.2253
403.4711	0.2222
403.6768	0.2285
403.8826	0.228
404.0883	0.2268
404.294	0.2256
404.4997	0.2258
404.7054	0.2328
404.911	0.2374
405.1167	0.211
405.3223	0.2313
405.5279	0.2229
405.7335	0.2249
405.9391	0.2425
406.1447	0.1998
406.3502	0.2422
406.5558	0.2133
406.7613	0.2286
406.9668	0.2152
407.1724	0.2039
407.3778	0.2152
407.5833	0.2157
407.7888	0.2283
407.9942	0.2482
408.1997	0.2268
408.4051	0.217
408.6105	0.2309
408.8159	0.2091
409.0213	0.2101
409.2267	0.2616
409.432	0.1992
409.6374	0.2381
409.8427	0.2066
410.048	0.2398
410.2533	0.2288
410.4586	0.2092
410.6639	0.1977
410.8691	0.2104
411.0744	0.2228
411.2796	0.213
411.4848	0.2095
411.69	0.2168
411.8952	0.2533
412.1004	0.2124
412.3056	0.2335
412.5107	0.2036
412.7158	0.2324
412.921	0.2391
413.1261	0.2072
413.3312	0.2114
413.5362	0.2241
413.7413	0.2267
413.9464	0.2099
414.1514	0.2067
414.3564	0.2109
414.5614	0.2143
414.7664	0.2251
414.9714	0.2104
415.1764	0.2037
415.3813	0.221
415.5863	0.2071
415.7912	0.2187
415.9961	0.206
416.201	0.2193
416.4059	0.2247
416.6108	0.2075
416.8156	0.2148
417.0205	0.215
417.2253	0.2009
417.4301	0.2188
417.6349	0.2136
417.8397	0.2265
418.0445	0.2287
418.2492	0.2311
418.454	0.2011
418.6587	0.2158
418.8634	0.2109
419.0681	0.2117
419.2728	0.201
419.4775	0.2025
419.6822	0.1882
419.8868	0.1782
420.0915	0.2041
420.2961	0.1821
420.5007	0.19
420.7053	0.2019
420.9099	0.2209
421.1144	0.2161
421.319	0.1888
421.5235	0.2077
421.728	0.1947
421.9325	0.2107
422.137	0.2159
422.3415	0.1858
422.546	0.1994
422.7504	0.1961
422.9549	0.2065
423.1593	0.193
423.3637	0.2033
423.5681	0.1882
423.7725	0.175
423.9769	0.2023
424.1812	0.1977
424.3856	0.1875
424.5899	0.2068
424.7942	0.1748
424.9985	0.1934
425.2028	0.1814
425.4071	0.2025
425.6113	0.1588
425.8156	0.1995
426.0198	0.1922
426.224	0.1664
426.4282	0.1778
426.6324	0.1698
426.8366	0.167
427.0407	0.1737
427.2449	0.1784
427.449	0.178
427.6531	0.1705
427.8572	0.1816
428.0613	0.1716
428.2654	0.1684
428.4694	0.1699
428.6735	0.1615
428.8775	0.1738
429.0815	0.1666
429.2855	0.1421
429.4895	0.1602
429.6935	0.1625
429.8975	0.1565
430.1014	0.1432
430.3053	0.1269
430.5093	0.1499
430.7132	0.1303
430.9171	0.1489
431.1209	0.1525
431.3248	0.141
431.5286	0.1529
431.7325	0.1466
431.9363	0.1372
432.1401	0.1448
432.3439	0.126
432.5477	0.124
432.7514	0.1382
432.9552	0.1415
433.1589	0.1364
433.3627	0.1334
433.5664	0.1287
433.7701	0.1252
433.9737	0.1289
434.1774	0.1018
434.3811	0.1277
434.5847	0.1189
434.7883	0.1183
434.9919	0.1047
435.1955	0.1209
435.3991	0.11
435.6027	0.1141
435.8062	0.1161
436.0098	0.1131
436.2133	0.1091
436.4168	0.0992
436.6203	0.1069
436.8238	0.11
437.0272	0.094
437.2307	0.1105
437.4341	0.1052
437.6375	0.1094
437.841	0.0851
438.0443	0.0902
438.2477	0.0986
438.4511	0.0801
438.6545	0.102
438.8578	0.1032
439.0611	0.0888
439.2644	0.0948
439.4677	0.0926
439.671	0.0884
439.8743	0.0898
440.0775	0.0936
440.2808	0.0754
440.484	0.0815
440.6872	0.0725
440.8904	0.0628
441.0936	0.0971
441.2967	0.0792
441.4999	0.0822
441.703	0.0685
441.9062	0.0579
442.1093	0.0712
442.3124	0.0752
442.5155	0.0484
442.7185	0.0672
442.9216	0.045
443.1246	0.0745
443.3276	0.066
443.5307	0.0565
443.7337	0.0563
443.9366	0.0613
444.1396	0.0601
444.3426	0.0653
444.5455	0.0616
444.7484	0.0422
444.9513	0.0589
445.1542	0.0667
445.3571	0.0561
445.56	0.0402
445.7628	0.0459
445.9657	0.0348
446.1685	0.0651
446.3713	0.0479
446.5741	0.0426
446.7769	0.0457
446.9797	0.0503
447.1824	0.0433
447.3852	0.0418
447.5879	0.0589
447.7906	0.0498
447.9933	0.045
448.196	0.0265
448.3986	0.0311
448.6013	0.0172
448.8039	0.0298
449.0066	0.0345
449.2092	0.0453
449.4118	0.0442
449.6143	0.0325
449.8169	0.045
450.0195	0.0256
450.222	0.0091
450.4245	0.0122
450.627	0.0367
450.8295	0.0332
451.032	0.0192
451.2345	0.032
451.4369	0.0342
451.6394	0.0294
451.8418	0.0155
452.0442	0.0125
452.2466	0.0293
452.449	0.0073
452.6513	0.0197
452.8537	0.001
453.056	0.0158
453.2583	0.0274
453.4607	0.0096
453.663	0.0047
453.8652	0.0178
454.0675	0.0076
454.2697	0.0258
454.472	0.0187
454.6742	0.0078
454.8764	0.0078
455.0786	0.021
455.2808	0.0192
455.4829	0.0255
455.6851	0.0185
455.8872	0.0202
456.0893	0.0269
456.2915	-0.0027
456.4935	0.0133
456.6956	0.0068
456.8977	0.0195
457.0997	0.0086
457.3018	0.0044
457.5038	0.0151
457.7058	0.0038
457.9078	-0.0076
458.1098	0.0221
458.3117	0.0237
458.5137	0.0197
458.7156	0.0071
458.9175	-0.0095
459.1194	0.0065
459.3213	-0.0005
459.5232	0.0029
459.725	-0.0028
459.9269	-0.0094
460.1287	-0.0029
460.3305	-0.0071
460.5323	0.0129
460.7341	-0.0027
460.9359	0.0001
461.1376	0.0083
461.3394	0.0031
461.5411	0.009
461.7428	0.0009
461.9445	0.0105
462.1462	0.0191
462.3479	0.0005
462.5495	-0.0004
462.7512	0.0137
462.9528	-0.0012
463.1544	-0.0138
463.356	0.005
463.5576	0.012
463.7592	-0.0183
463.9607	0.0082
464.1623	0.0157
464.3638	0.0136
464.5653	-0.0008
464.7668	-0.0027
464.9683	0.0049
465.1697	0.0132
465.3712	-0.0113
465.5726	-0.0122
465.7741	-0.0019
465.9755	-0.0063
466.1769	-0.0051
466.3782	0.0003
466.5796	-0.018
466.7809	0.0121
466.9823	-0.0021
467.1836	0.0064
467.3849	-0.0051
467.5862	0.0169
467.7875	-0.0061
467.9887	0.0143
468.19	-0.0029
468.3912	-0.0058
468.5924	-0.0152
468.7936	-0
468.9948	-0.002
469.196	0.0041
469.3972	-0.007
469.5983	0.0159
469.7994	-0.0076
470.0006	0.0005
470.2017	-0.008
470.4027	-0.0007
470.6038	-0.004
470.8049	-0.005
471.0059	-0.014
471.2069	-0.0363
471.408	0.0182
471.6089	0.0079
471.8099	-0.0028
472.0109	0.0075
472.2119	-0.0081
472.4128	-0.029
472.6137	0.0046
472.8146	-0.0064
473.0155	-0.0009
473.2164	-0.0008
473.4173	0.0101
473.6181	0.0097
473.819	-0.0023
474.0198	-0.0035
474.2206	-0.0143
474.4214	-0.0053
474.6222	0.0021
474.8229	-0.0104
475.0237	-0.024
475.2244	0.0001
475.4251	0.0037
475.6258	-0.0069
475.8265	-0.0066
476.0272	0.0076
476.2278	-0.0082
476.4285	-0.0029
476.6291	-0.0008
476.8297	-0.0024
477.0303	-0.0089
477.2309	0.0073
477.4315	-0.0103
477.632	-0.0016
477.8326	-0.0036
478.0331	-0.0082
478.2336	0.0022
478.4341	-0.0154
478.6346	-0.004
478.8351	-0.0024
479.0355	0.0075
479.236	-0.0055
479.4364	0.0124
479.6368	0.0011
479.8372	-0.0078
480.0376	-0.0018
480.2379	-0.0192
480.4383	-0.0101
480.6386	-0.0066
480.8389	-0.0029
481.0392	-0.0068
481.2395	-0.0097
481.4398	0.007
481.6401	0.0039
481.8403	-0.0085
482.0405	-0.0158
482.2408	0.0066
482.441	0.0139
482.6411	-0.0007
482.8413	-0.0044
483.0415	-0.0089
483.2416	-0.0149
483.4417	0.0015
483.6419	-0.0024
483.8419	-0.0085
484.042	0.0045
484.2421	-0.0054
484.4422	0.0044
484.6422	-0.0005
484.8422	-0.007
485.0422	-0.0091
485.2422	0.0042
485.4422	-0.0062
485.6422	-0.0131
485.8421	-0
486.042	-0.0018
486.242	-0.0045
486.4419	-0.0056
486.6417	-0.0057
486.8416	0.0053
487.0415	-0.0069
487.2413	-0.0099
487.4411	-0.0168
487.641	-0.0104
487.8408	0.0003
488.0405	-0.0108
488.2403	0.0021
488.4401	-0.0023
488.6398	-0.0065
488.8395	-0.0026
489.0392	-0.0058
489.2389	-0.0143
489.4386	-0.0074
489.6383	0.0008
489.8379	0.0059
490.0376	-0.0055
490.2372	-0.0105
490.4368	-0.0087
490.6364	-0.0102
490.836	-0.0079
491.0355	-0.0078
491.2351	-0.0043
491.4346	-0.0069
491.6341	-0.0097
491.8336	-0.0014
492.0331	-0.0088
492.2326	-0.011
492.432	-0.006
492.6315	-0.0018
492.8309	0.0005
493.0303	-0.0135
493.2297	-0.0096
493.4291	-0.0084
493.6284	0.0037
493.8278	0.004
494.0271	0.001
494.2264	-0.0014
494.4257	-0.0108
494.625	0.0004
494.8243	-0.0152
495.0236	-0.0095
495.2228	-0.0094
495.422	-0.0032
495.6213	0.0001
495.8205	-0.0025
496.0196	-0.0054
496.2188	-0.0055
496.418	-0.0108
496.6171	-0.0078
496.8162	-0.0093
497.0153	0.0002
497.2144	-0.0065
497.4135	-0
497.6126	-0.0113
497.8116	-0.011
498.0107	0.0015
498.2097	-0.0097
498.4087	-0.0082
498.6077	-0.0069
498.8067	-0.0056
499.0056	0.001
499.2046	-0.0042
499.4035	-0.026
499.6024	-0.0036
499.8013	-0.0032
500.0002	-0.0184
500.199	-0.0018
500.3979	-0.01
500.5967	-0.0208
500.7956	-0.0035
500.9944	-0.0103
501.1932	-0.0074
501.3919	-0.0105
501.5907	-0.0083
501.7895	-0.0066
501.9882	-0.0096
502.1869	-0.0014
502.3856	-0.0126
502.5843	-0.0026
502.783	-0.0137
502.9816	-0.0064
503.1803	-0.0181
503.3789	-0.013
503.5775	0.0032
503.7761	-0.0104
503.9747	-0.0019
504.1732	-0.0067
504.3718	-0.0009
504.5703	-0.005
504.7689	-0.0204
504.9674	-0.0096
505.1658	-0.0013
505.3643	-0.0042
505.5628	-0.0072
505.7612	-0.0046
505.9597	0.0069
506.1581	-0.0057
506.3565	0.0035
506.5549	-0.0017
506.7532	-0.0183
506.9516	-0.0009
507.1499	-0.0033
507.3482	-0.0055
507.5465	-0.0109
507.7448	0.0017
507.9431	-0.0025
508.1414	-0.0008
508.3396	-0.008
508.5379	-0.0079
508.7361	-0.0133
508.9343	-0.0037
509.1325	-0.0061
509.3306	-0.0115
509.5288	-0.0045
509.7269	0.002
509.9251	-0.0062
510.1232	-0.0139
510.3213	-0.0013
510.5193	0.0025
510.7174	-0.0202
510.9154	-0.006
511.1135	-0.0098
511.3115	-0.0067
511.5095	-0.014
511.7075	-0.0047
511.9055	-0.0051
512.1034	-0.0022
512.3014	0.0021
512.4993	0.0023
512.6972	-0.0083
512.8951	-0.0071
513.093	-0.0045
513.2908	-0.0016
513.4887	0.0002
513.6865	-0.0072
513.8844	-0.0092
514.0822	-0.0018
514.2799	-0.0011
514.4777	-0.0086
514.6755	-0.0117
514.8732	0.0019
515.0709	-0.0016
515.2687	-0.0073
515.4664	-0.0033
515.664	-0.0055
515.8617	-0.0099
516.0594	-0.0226
516.257	0.006
516.4546	-0.0118
516.6522	0.0028
516.8498	-0.0064
517.0474	0.0023
517.2449	-0.0019
517.4425	-0.0115
517.64	-0.0034
517.8375	0.0019
518.035	-0.0052
518.2325	-0.0052
518.43	-0.003
518.6274	0.0054
518.8249	-0.0138
519.0223	-0
519.2197	0.0018
519.4171	-0.0066
519.6145	-0.011
519.8118	-0.0045
520.0092	-0.005
520.2065	-0.0133
520.4038	-0.0154
520.6011	0.0056
520.7984	-0.0025
520.9956	-0.0128
521.1929	-0.0186
521.3901	-0.0037
521.5874	-0.0061
521.7846	-0.0055
521.9818	-0.0044
522.1789	-0.0041
522.3761	-0.0039
522.5732	-0.0001
522.7704	-0.0065
522.9675	-0.0047
523.1646	-0.0173
523.3617	0.0038
523.5587	0.0023
523.7558	0.0003
523.9528	-0.0035
524.1498	-0.0034
524.3468	0.0004
524.5438	0.0071
524.7408	-0.0016
524.9378	-0.0031
525.1347	-0.0049
525.3316	0.0042
525.5285	-0.0117
525.7254	-0.0148
525.9223	-0.001
526.1192	0.0025
526.316	-0.0069
526.5129	0.0073
526.7097	0.0047
526.9065	-0.0057
527.1033	-0.0093
527.3	0.0007
527.4968	-0.0056
527.6935	-0.0006
527.8903	-0.0169
528.087	-0.0091
528.2837	-0.0013
528.4804	-0.0013
528.677	-0.0128
528.8737	0.0067
529.0703	0.0003
529.2669	-0.001
529.4635	0.0018
529.6601	-0.0039
529.8567	-0.0027
530.0532	-0.0088
530.2498	0.0054
530.4463	0.0041
530.6428	-0.0069
530.8393	0.0086
531.0358	-0.0057
531.2322	-0.0025
531.4287	-0.0102
531.6251	-0.0098
531.8215	-0.0016
532.0179	-0.0005
532.2143	-0.0007
532.4107	-0.0019
532.607	0.0022
532.8034	0.0039
532.9997	0.0027
533.196	0.0087
533.3923	-0.011
533.5886	0.0027
533.7848	0.0007
533.9811	0.0002
534.1773	-0.005
534.3735	0.0039
534.5697	-0.0006
534.7659	0.0028
534.9621	0.0001
535.1582	-0.008
535.3544	-0.0057
535.5505	-0.0043
535.7466	-0.0076
535.9427	-0.0017
536.1387	-0.0155
536.3348	-0.0141
536.5308	0.0078
536.7269	-0.016
536.9229	-0.0068
537.1189	-0.0097
537.3148	-0.0061
537.5108	-0.0051
537.7068	-0.0001
537.9027	-0.0058
538.0986	-0.0006
538.2945	-0.0157
538.4904	-0.0043
538.6863	-0.0066
538.8821	-0.0024
539.078	-0.0035
539.2738	-0.0034
539.4696	-0.0037
539.6654	-0.0025
539.8611	0.0066
540.0569	-0.0065
540.2526	-0.0072
540.4484	0.0123
540.6441	0.0149
540.8398	-0.0042
541.0355	0.0036
541.2311	-0.0029
541.4268	-0.0057
541.6224	0.0079
541.818	-0.0012
542.0136	-0.006
542.2092	0.0037
542.4048	-0.0053
542.6003	0.0032
542.7959	-0.0014
542.9914	-0.0082
543.1869	0.0012
543.3824	-0.0048
543.5779	-0.0047
543.7734	-0.008
543.9688	0.0002
544.1642	0.008
544.3596	0.0033
544.555	-0.0127
544.7504	0.004
544.9458	-0.0061
545.1411	0.0036
545.3365	-0.0084
545.5318	-0.001
545.7271	-0.0034
545.9224	0.0032
546.1177	0.0012
546.3129	-0.0011
546.5081	-0.0112
546.7034	0.0039
546.8986	0.0004
547.0938	-0.0014
547.289	-0.0063
547.4841	-0.0017
547.6793	0.004
547.8744	-0.0114
548.0695	-0.008
548.2646	-0.0146
548.4597	-0.0032
548.6548	-0.0014
548.8498	-0.0035
549.0448	0.0025
549.2399	-0.0067
549.4349	0.0046
549.6298	-0.0018
549.8248	-0.0012
550.0198	0.0015
550.2147	-0.0101
550.4096	-0.0086
550.6045	0.0028
550.7994	-0.003
550.9943	0.0047
551.1892	-0.0085
551.384	0.0065
551.5788	-0.0079
551.7737	0.0003
551.9685	-0.0032
552.1632	0.0002
552.358	-0.0063
552.5528	0.0013
552.7475	-0.0028
552.9422	0.0055
553.1369	0.0006
553.3316	0.003
553.5263	-0.0081
553.7209	-0.0013
553.9156	-0.0001
554.1102	-0.0064
554.3048	-0.0033
554.4994	0.0024
554.694	-0.0048
554.8885	0.0052
555.0831	-0.0048
555.2776	0.0039
555.4721	-0.0062
555.6666	-0.0048
555.8611	0.0117
556.0555	-0.008
556.25	-0.0064
556.4444	-0.0108
556.6388	-0.0006
556.8332	-0.0075
557.0276	0.0056
557.222	-0.0046
557.4163	0.0001
557.6107	-0.006
557.805	0.0096
557.9993	-0.0023
558.1936	0.0093
558.3879	0.0017
558.5821	-0.002
558.7764	-0.004
558.9706	0.0085
559.1648	0.0136
559.359	-0.0047
559.5532	0.0011
559.7473	-0.0026
559.9415	-0.0022
560.1356	-0.0004
560.3297	-0.0065
560.5238	-0.0116
560.7179	-0.0053
560.9119	-0.0048
561.106	-0.0032
561.3	0.0026
561.494	-0.0047
561.688	-0.0111
561.882	0.0012
562.076	-0.0014
562.2699	0.0084
562.4639	-0.0051
562.6578	-0.0043
562.8517	-0.0018
563.0456	-0.0046
563.2395	0.0029
563.4333	0.0096
563.6272	0.0106
563.821	-0.0069
564.0148	0.0013
564.2086	-0.0131
564.4024	-0.0048
564.5961	-0.0069
564.7899	0.0035
564.9836	-0.0024
565.1773	-0.0026
565.371	0.0026
565.5647	0.0017
565.7584	0.0003
565.952	0.0023
566.1456	0.0051
566.3393	-0.0017
566.5329	-0.0008
566.7264	0.0019
566.92	-0.0015
567.1136	0.0054
567.3071	0.0049
567.5006	0.0018
567.6941	0.0017
567.8876	0.0008
568.0811	0.0024
568.2745	0.0015
568.468	0.0072
568.6614	-0.002
568.8548	0.0026
569.0482	0.0069
569.2416	0.0056
569.4349	0.0056
569.6283	0.0008
569.8216	0.0002
570.0149	-0.0003
570.2082	0.0049
570.4015	0.006
570.5947	0.0055
570.788	0.0138
570.9812	0.0034
571.1744	-0.001
571.3676	-0.0025
571.5608	-0.0034
571.754	0.0077
571.9471	0.0035
572.1402	0.0027
572.3333	-0.0093
572.5264	-0.0012
572.7195	0.0011
572.9126	0.0029
573.1057	0.0006
573.2987	-0.0007
573.4917	0.006
573.6847	-0.0064
573.8777	0.0039
574.0707	0.0042
574.2636	0.0027
574.4566	-0.0027
574.6495	0.0089
574.8424	0.0051
575.0353	-0.0019
575.2281	0.0124
575.421	-0.0014
575.6138	0.0045
575.8067	0.0032
575.9995	0.0022
576.1923	0.0048
576.385	0.0022
576.5778	0.0013
576.7706	0.003
576.9633	-0.004
577.156	0.0069
577.3487	0.0004
577.5414	-0.0009
577.734	0.0005
577.9267	0.0039
578.1193	-0.0023
578.3119	-0.0065
578.5045	-0.0012
578.6971	0.0006
578.8897	0.0039
579.0822	0.0047
579.2747	0.0035
579.4673	-0.0018
579.6598	-0.0026
579.8522	-0.0045
580.0447	-0.0066
580.2372	-0.0061
580.4296	0.0021
580.622	-0.0044
580.8144	0.0021
581.0068	0.0019
581.1992	-0.0111
581.3915	-0.0007
581.5839	-0.0081
581.7762	-0.0083
581.9685	-0.0054
582.1608	0.0016
582.353	0.0044
582.5453	0.0009
582.7375	0.0003
582.9298	0.0027
583.122	0.0028
583.3142	-0.001
583.5063	0.0017
583.6985	0.0063
583.8906	-0.0036
584.0827	0.0002
584.2749	0.0038
584.4669	-0.0002
584.659	0.0062
584.8511	-0.0041
585.0431	0.0006
585.2352	0.0037
585.4272	-0.0027
585.6192	0.0048
585.8111	-0
586.0031	0.0005
586.195	0.0051
586.387	0.0063
586.5789	-0.0028
586.7708	0.0013
586.9627	-0.0027
587.1545	-0.0046
587.3464	0.0005
587.5382	-0.0004
587.73	0.0054
587.9218	0.0112
588.1136	0
588.3053	0.0022
588.4971	-0.005
588.6888	-0.0076
588.8805	0.0039
589.0722	0.0074
589.2639	-0.002
589.4556	-0.0003
589.6472	-0.0067
589.8389	-0.0053
590.0305	-0.0113
590.2221	0.0043
590.4137	-0.0093
590.6052	0.0021
590.7968	0.0019
590.9883	-0.0021
591.1798	0.0022
591.3713	0.0053
591.5628	0.0044
591.7543	0.0016
591.9458	0.0001
592.1372	0.002
592.3286	0.0075
592.52	0.0031
592.7114	0.0036
592.9028	0.0058
593.0941	-0.0025
593.2855	0.0022
593.4768	-0.0096
593.6681	-0.0021
593.8594	-0.0005
594.0506	-0.0059
594.2419	0.0051
594.4331	0.0008
594.6244	0.0083
594.8156	-0.0039
595.0067	-0.0014
595.1979	0.0079
595.3891	0.0022
595.5802	-0.0019
595.7713	-0.0026
595.9624	-0.0038
596.1535	0.0074
596.3446	0.0071
596.5357	0.0075
596.7267	0.0102
596.9177	0.0044
597.1087	0.0026
597.2997	-0.0005
597.4907	0.002
597.6817	-0.0041
597.8726	-0.001
598.0635	-0.0021
598.2544	0.0081
598.4453	-0.0037
598.6362	0.0006
598.827	0
599.0179	-0.0009
599.2087	0.0045
599.3995	0.0016
599.5903	0.0055
599.7811	0.006
599.9718	-0.0014
600.1626	-0.0018
600.3533	-0.0126
600.544	0
600.7347	-0.006
600.9254	0.0068
601.116	-0.0083
601.3067	-0.0038
601.4973	-0.0007
601.6879	0.0096
601.8785	-0.0003
602.0691	0.0034
602.2596	0.0079
602.4502	0.0137
602.6407	0.007
602.8312	0.0099
603.0217	-0.0027
603.2122	0.0032
603.4027	-0.0033
603.5931	0.0028
603.7835	0.002
603.9739	0
604.1643	-0.0051
604.3547	-0.0034
604.5451	0.0046
604.7354	-0.0009
604.9257	0.0043
605.116	0.0018
605.3063	0.007
605.4966	0.0075
605.6869	0.0002
605.8771	0.0081
606.0673	-0.0011
606.2575	0.0051
606.4477	0.0121
606.6379	0.0069
606.8281	0.0025
607.0182	0.0015
607.2083	0.0074
607.3985	-0.0049
607.5885	0.0031
607.7786	-0.0019
607.9687	-0.0031
608.1587	0.0038
608.3488	-0.0001
608.5388	-0.0023
608.7288	-0.0027
608.9187	-0.0068
609.1087	-0.0053
609.2986	-0.0084
609.4886	-0.0035
609.6785	-0.0045
609.8684	0.0036
610.0582	0.0013
610.2481	0.0038
610.4379	0
610.6278	-0.0017
610.8176	-0.0009
611.0074	0.0014
611.1971	-0.0021
611.3869	-0.0018
611.5766	-0.0071
611.7664	0.0066
611.9561	0.0007
612.1458	-0.0026
612.3354	-0.004
612.5251	0.0064
612.7147	0.0017
612.9044	0.0051
613.094	-0.0071
613.2836	0.0028
613.4731	-0.0035
613.6627	-0.0017
613.8522	0.0024
614.0417	0.0024
614.2313	-0.0032
614.4207	0.0046
614.6102	0.0042
614.7997	-0.0014
614.9891	-0.0087
615.1785	0.0021
615.3679	0.0018
615.5573	0.0056
615.7467	-0.0019
615.9361	-0.001
616.1254	-0.0038
616.3147	-0.0003
616.504	0.007
616.6933	-0.0045
616.8826	0.0088
617.0718	0.009
617.2611	0.0024
617.4503	0.0028
617.6395	0.0027
617.8287	0.0024
618.0179	-0.0017
618.207	0.0107
618.3961	0.0018
618.5853	0.0074
618.7744	0.0075
618.9634	0.0038
619.1525	0.0059
619.3416	0.0073
619.5306	0.0065
619.7196	0.0048
619.9086	-0.0004
620.0976	0.0074
620.2866	-0.0052
620.4755	0.0039
620.6645	0.0077
620.8534	0.0101
621.0423	-0.0002
621.2312	0.011
621.42	0.0013
621.6089	0.0024
621.7977	0.0104
621.9865	0.0039
622.1753	0.0064
622.3641	-0.003
622.5529	0.0017
622.7416	0.0164
622.9303	-0.0059
623.1191	0.0026
623.3078	-0.0029
623.4964	0.0017
623.6851	-0.0002
623.8737	0.0025
624.0624	-0.0031
624.251	-0.0011
624.4396	-0.0015
624.6282	-0.0061
624.8167	-0.0007
625.0053	0.003
625.1938	0.0051
625.3823	0.0024
625.5708	0.0019
625.7593	-0.0027
625.9477	-0.0064
626.1362	-0.0035
626.3246	0.0019
626.513	0.0081
626.7014	0.0033
626.8898	0.003
627.0781	0.0061
627.2665	0.0014
627.4548	0.0085
627.6431	0.0083
627.8314	0.0027
628.0197	0.0041
628.2079	-0.0027
628.3962	-0.0003
628.5844	0.0016
628.7726	0.0019
628.9608	0.0086
629.1489	0.0093
629.3371	0.0059
629.5252	-0.0003
629.7134	0.0082
629.9015	0.0051
630.0895	0.0047
630.2776	-0.0013
630.4657	0.004
630.6537	0.0044
630.8417	-0.0051
631.0297	-0.0045
631.2177	0.0036
631.4057	-0.0027
631.5936	0.0019
631.7815	0.0055
631.9695	-0.0016
632.1574	0.0052
632.3452	0.0074
632.5331	0.0062
632.7209	0.0044
632.9088	0.0156
633.0966	0.0092
633.2844	-0.0016
633.4722	0.0042
633.6599	0.007
633.8477	0.0051
634.0354	0.0068
634.2231	0.0079
634.4108	0.0076
634.5985	0.0041
634.7861	0.0057
634.9738	0.006
635.1614	0.0016
635.349	0.0013
635.5366	-0.0017
635.7242	0.0049
635.9117	0.0006
636.0993	-0.0024
636.2868	0.0025
636.4743	-0.0093
636.6618	0.0077
636.8492	0.0027
637.0367	0.0074
637.2241	-0.0031
637.4115	-0.0046
637.5989	-0.003
637.7863	-0.0061
637.9737	-0.0023
638.161	0.002
638.3484	0.0026
638.5357	0.0015
638.723	-0.0011
638.9103	0.006
639.0975	0.0029
639.2848	0.0102
639.472	0.0075
639.6592	0.0154
639.8464	0.0107
640.0336	0.0141
640.2208	0.0056
640.4079	-0.0009
640.595	0.0048
640.7821	0.0058
640.9692	0.0032
641.1563	0.0037
641.3434	0.0026
641.5304	0.0063
641.7174	0.0058
641.9044	0.0006
642.0914	0.0104
642.2784	0.0029
642.4653	0.012
642.6523	0.0031
642.8392	0.0005
643.0261	0.0045
643.213	0.0063
643.3999	0.001
643.5867	0.0051
643.7735	-0.0014
643.9604	-0.0036
644.1472	0.0054
644.3339	0.0053
644.5207	0.0006
644.7075	0.0032
644.8942	0.0083
645.0809	0.0088
645.2676	0.0098
645.4543	0.0066
645.6409	0.0129
645.8276	0.0044
646.0142	0.0116
646.2008	-0.0038
646.3874	0.0008
646.574	0.0027
646.7605	0.0001
646.9471	-0.0062
647.1336	-0.0007
647.3201	0.0055
647.5066	-0.0005
647.6931	0.0026
647.8795	0.0062
648.0659	0.0074
648.2524	0.0078
648.4388	0.0021
648.6252	0.0042
648.8115	0.0076
648.9979	0
649.1842	0.0105
649.3705	0.0034
649.5568	0.0074
649.7431	0.0052
649.9294	-0.0005
650.1156	0.0053
650.3018	0.0011
650.488	0.0025
650.6742	0.0051
650.8604	0
651.0466	-0.0056
651.2327	0.0053
651.4188	0.0071
651.6049	-0.0027
651.791	0.0042
651.9771	0.0051
652.1632	0.0053
652.3492	0.0014
652.5352	-0.0003
652.7212	-0.005
652.9072	0.0083
653.0932	0.0052
653.2791	-0.0002
653.465	0.0044
653.651	-0.005
653.8369	0.0058
654.0227	0.0064
654.2086	0.0047
654.3944	0.0095
654.5803	0.0095
654.7661	0.0033
654.9519	0.0043
655.1377	0.0004
655.3234	-0.0014
655.5092	-0.001
655.6949	-0.0042
655.8806	-0.0026
656.0663	0.0002
656.2519	0.0001
656.4376	0.0006
656.6232	0.0058
656.8088	0.0033
656.9945	-0.0023
657.18	0.0014
657.3656	0.0029
657.5511	-0.0015
657.7367	-0.0041
657.9222	-0.0003
658.1077	0.0049
658.2932	0.0051
658.4786	-0.0067
658.6641	-0.0008
658.8495	-0.0039
659.0349	0.0042
659.2203	0.0031
659.4057	0.0125
659.591	0.0038
659.7764	-0
659.9617	-0.0049
660.147	-0.0018
660.3323	0.0008
660.5176	0.0065
660.7028	0.0035
660.888	0.011
661.0733	0.0102
661.2585	-0.0035
661.4436	0.0069
661.6288	-0.0019
661.8139	0.0012
661.9991	0.0065
662.1842	0.0008
662.3693	0.0041
662.5544	-0.0017
662.7394	0.0021
662.9245	-0.0039
663.1095	0.0036
663.2945	-0.0049
663.4795	0.0036
663.6644	0.0016
663.8494	0.0101
664.0343	0.0089
664.2193	0.0031
664.4042	0.0068
664.589	-0.0035
664.7739	-0.0002
664.9587	-0.0003
665.1436	-0.0023
665.3284	0.0017
665.5132	-0.0025
665.698	0.0049
665.8827	0.0037
666.0675	-0.0006
666.2522	-0.007
666.4369	0.0077
666.6216	0.0073
666.8063	0.0074
666.9909	0.001
667.1756	0.0047
667.3602	0.0069
667.5448	-0.0006
667.7294	0.0051
667.9139	-0.0016
668.0985	0.0138
668.283	0.0047
668.4675	0.0075
668.652	0.0054
668.8365	-0.0021
669.0209	0.0149
669.2054	0.0155
669.3898	0.0072
669.5742	0.0051
669.7586	0.0121
669.943	0.0109
670.1273	0.0153
670.3117	0.0071
670.496	0.0057
670.6803	0.016
670.8646	0.0083
671.0488	-0.0023
671.2331	0.0083
671.4173	0.0072
671.6015	-0.0001
671.7857	0.0049
671.9699	0.0062
672.1541	0.0039
672.3382	0.0047
672.5223	0.0077
672.7064	0.0024
672.8905	0.0115
673.0746	0.0048
673.2587	-0.0036
673.4427	0.0042
673.6267	0.0036
673.8107	0.0085
673.9947	0.0059
674.1787	0.0029
674.3626	-0.0086
674.5465	0.0069
674.7304	0.0096
674.9143	0.0099
675.0982	0.0066
675.2821	-0.002
675.4659	0.01
675.6497	0.0092
675.8335	0.0052
676.0173	-0.0019
676.2011	0.0017
676.3849	0.003
676.5686	-0.0019
676.7523	0.001
676.936	0.0006
677.1197	-0.0068
677.3034	-0.0078
677.487	0.0044
677.6706	0.0013
677.8542	0.0086
678.0378	0.0006
678.2214	0.0047
678.405	0
678.5885	-0.0025
678.772	0.0081
678.9555	0.0044
679.139	0.0016
679.3225	0.0059
679.5059	0
679.6894	0.004
679.8728	-0.0003
680.0562	-0.0023
680.2395	-0.0045
680.4229	-0.0016
680.6062	0.0033
680.7896	0.0008
680.9729	-0.0076
681.1562	0.0014
681.3394	0.0023
681.5227	-0.0104
681.7059	0.0017
681.8891	0.0068
682.0723	0.0123
682.2555	0.0145
682.4387	0.0043
682.6218	0.0032
682.805	0.0038
682.9881	0.0055
683.1712	0.0075
683.3542	0.0007
683.5373	0.0073
683.7203	-0.0036
683.9034	0.0003
684.0864	-0.006
684.2694	-0.0053
684.4523	-0.0028
684.6353	-0.0037
684.8182	-0.0051
685.0011	-0.0062
685.184	0.0093
685.3669	0.0018
685.5498	-0.0005
685.7326	-0.0051
685.9154	0.0004
686.0982	-0.002
686.281	0.003
686.4638	0.0003
686.6465	-0.001
686.8293	-0.0049
687.012	0.0109
687.1947	-0.0076
687.3774	0.0044
687.56	-0.0017
687.7427	0.0135
687.9253	0.001
688.1079	0.0025
688.2905	0.0169
688.4731	0.0043
688.6556	0.0041
688.8382	0.0073
689.0207	0.005
689.2032	0
689.3857	-0.0045
689.5681	0.0072
689.7506	-0.0017
689.933	0.0056
690.1154	-0.0014
690.2978	0.001
690.4802	0
690.6626	-0.0075
690.8449	0.0021
691.0272	0.006
691.2095	0.0013
691.3918	-0.0018
691.5741	0.0057
691.7563	-0.006
691.9386	0.0023
692.1208	0.0049
692.303	0.0021
692.4852	0.0021
692.6673	0.0018
692.8495	0.0011
693.0316	0.0028
693.2137	0.0063
693.3958	0.0048
693.5778	-0.006
693.7599	-0.0013
693.9419	0.0009
694.1239	0.0008
694.3059	-0.0023
694.4879	0.002
694.6699	0.0106
694.8518	-0.0016
695.0337	0.0004
695.2157	0.0071
695.3975	0.0078
695.5794	0.0102
695.7613	0.0069
695.9431	0.0042
696.1249	0.0089
696.3067	0.0038
696.4885	0.0088
696.6703	0.0017
696.852	0.0104
697.0337	0.0082
697.2154	-0.0002
697.3971	-0.0005
697.5788	0.0047
697.7605	-0.0003
697.9421	0.0017
698.1237	0.0061
698.3053	0.0005
698.4869	0.0017
698.6685	0.0003
698.85	0.001
699.0315	0.009
699.213	0.0068
699.3945	0.0093
699.576	0.0093
699.7575	0.0116
699.9389	0.0102
700.1203	0.001
700.3017	-0.0118
700.4831	-0.0037
700.6645	0.0005
700.8458	0.0032
701.0271	-0.0049
701.2084	0.0043
701.3897	-0.0016
701.571	0.0052
701.7523	-0.0027
701.9335	0.0017
702.1147	-0.0053
702.2959	-0.0024
702.4771	-0.0028
702.6583	-0.0022
702.8394	-0.0035
703.0205	-0
703.2016	-0.0036
703.3827	-0.0014
703.5638	0.0043
703.7449	0.0071
703.9259	0.0087
704.1069	-0.0012
704.2879	0.0044
704.4689	0.0032
704.6499	-0.0017
704.8308	-0.0052
705.0117	0.0009
705.1927	-0.0012
705.3735	0.0075
705.5544	-0.0054
705.7353	-0.0014
705.9161	-0.0022
706.0969	-0.0052
706.2777	0.0073
706.4585	-0.0066
706.6393	0.0056
706.82	0.0023
707.0007	0.0113
707.1815	0.0037
707.3621	0.014
707.5428	0.0045
707.7235	0.0102
707.9041	0.0063
708.0847	-0.0017
708.2653	-0.0003
708.4459	-0.0141
708.6265	0.0009
708.807	0.0013
708.9875	0.005
709.168	-0.0081
709.3485	-0.0048
709.529	0.0057
709.7095	-0.0089
709.8899	-0.0043
710.0703	-0.005
710.2507	0.0017
710.4311	0.004
710.6115	-0.0046
710.7918	-0.0113
710.9721	-0.0018
711.1524	-0.0089
711.3327	-0.0018
711.513	0.0033
711.6932	0.0011
711.8735	0.0051
712.0537	-0.0002
712.2339	0.0029
712.4141	-0.0055
712.5942	-0.0104
712.7744	0.0002
712.9545	-0.0006
713.1346	0.0015
713.3147	0.0016
713.4947	-0.0007
713.6748	0.0005
713.8548	0.0045
714.0348	0.0031
714.2148	-0.0019
714.3948	0.0135
714.5748	-0.0007
714.7547	0.0007
714.9346	0.0033
715.1145	0.0059
715.2944	-0.0046
715.4743	0.0005
715.6541	0.0054
715.834	0.0091
716.0138	0.0031
716.1936	0.003
716.3733	0.0002
716.5531	0.0106
716.7328	-0.0029
716.9126	-0.0019
717.0923	-0.0007
717.2719	0.0014
717.4516	0.0001
717.6312	0.0038
717.8109	-0.006
717.9905	0.0022
718.1701	-0.0003
718.3496	-0.0086
718.5292	-0.0069
718.7087	0.0019
718.8882	-0.0089
719.0677	0.006
719.2472	-0.0055
719.4267	0.0077
719.6061	0.0002
719.7856	0.006
719.965	0.0057
720.1443	-0.0031
720.3237	0.0127
720.5031	-0.0033
720.6824	0.002
720.8617	-0.0019
721.041	0.0004
721.2203	0.0037
721.3995	0.0057
721.5788	0.0039
721.758	0.0034
721.9372	-0.0014
722.1164	0.0075
722.2956	0.0033
722.4747	0.0026
722.6538	-0.0027
722.8329	0.0125
723.012	0.009
723.1911	0.0089
723.3702	-0.0003
723.5492	0.0058
723.7282	-0.0056
723.9072	-0.0004
724.0862	-0.0051
724.2652	-0.0023
724.4441	0.0025
724.623	-0.0045
724.8019	-0.0001
724.9808	0.0012
725.1597	-0.0083
725.3385	0.0101
725.5174	-0.0036
725.6962	0.0009
725.875	0.0049
726.0538	0.0019
726.2325	0.0011
726.4112	0.0031
726.59	-0.0098
726.7687	0.0039
726.9474	0.0064
727.126	-0.0027
727.3047	-0.0054
727.4833	-0.0059
727.6619	-0.0036
727.8405	-0.0082
728.0191	-0.0008
728.1976	0.0025
728.3762	0.0017
728.5547	0.0043
728.7332	-0.006
728.9116	0.0059
729.0901	0.0137
729.2686	-0.0039
729.447	0.008
729.6254	-0.0018
729.8038	0.0067
729.9821	-0.0066
730.1605	0.0031
730.3388	0.0005
730.5171	0.0054
730.6954	-0.0044
730.8737	-0.0028
731.0519	0.0061
731.2302	0.0044
731.4084	0.0041
731.5866	0.003
731.7648	0.0029
731.9429	0.0001
732.1211	-0.0078
732.2992	0.0007
732.4773	-0.003
732.6554	0.0021
732.8335	0.0045
733.0115	0.007
733.1896	0.0089
733.3676	0.0024
733.5456	0.0079
733.7235	0.0047
733.9015	-0.0019
734.0794	-0.0018
734.2574	-0.0089
734.4353	0.0019
734.6131	0.004
734.791	0.0015
734.9689	-0.0001
735.1467	-0.0002
735.3245	0.0008
735.5023	-0.0099
735.68	0.001
735.8578	0.005
736.0355	-0.0155
736.2132	-0.0016
736.3909	0.0002
736.5686	-0.0042
736.7463	0.0083
736.9239	0.0013
737.1015	-0.0081
737.2791	0.0105
737.4567	-0.0014
737.6343	-0.0031
737.8118	0.0108
737.9894	0.01
738.1669	-0.0053
738.3444	-0.0026
738.5218	0.0038
738.6993	0.0007
738.8767	0.006
739.0541	0.0157
739.2315	-0.0049
739.4089	0.0015
739.5863	0.0102
739.7636	-0.0024
739.9409	0.002
740.1182	0.0103
740.2955	0.0126
740.4728	0.0013
740.65	-0.0033
740.8272	0.0083
741.0044	0.0023
741.1816	0.0087
741.3588	0.0046
741.5359	0.0083
741.7131	-0.0107
741.8902	-0.0014
742.0673	0.0056
742.2444	-0.0063
742.4214	-0.005
742.5985	-0.004
742.7755	-0.0038
742.9525	-0.0119
743.1295	0.005
743.3064	0.0009
743.4834	-0.0027
743.6603	-0.0067
743.8372	0.005
744.0141	0.0065
744.191	0.002
744.3678	0.0032
744.5446	0.0071
744.7215	0.0064
744.8982	0.0014
745.075	0.0001
745.2518	-0
745.4285	-0.0012
745.6052	-0.0009
745.7819	-0.0054
745.9586	-0.0007
746.1353	-0.0004
746.3119	-0.011
746.4885	-0.0036
746.6651	-0.0106
746.8417	-0.0053
747.0183	0.0021
747.1948	-0.0015
747.3714	0.0012
747.5479	0.0004
747.7244	0.001
747.9008	0.001
748.0773	0.0067
748.2537	0.0015
748.4301	-0.0093
748.6065	0.0013
748.7829	0.0068
748.9593	-0.0021
749.1356	0.0004
749.3119	0.01
749.4882	-0.0072
749.6645	0.0054
749.8408	-0.0052
750.017	0.0014
750.1933	0.0026
750.3695	-0.0032
750.5457	0.0085
750.7218	-0.0003
750.898	0.0001
751.0741	-0.0127
751.2502	0.0051
751.4263	-0.006
751.6024	-0
751.7784	-0.007
751.9545	0.0017
752.1305	-0.0018
752.3065	0.0032
752.4825	0.0039
752.6584	-0.0045
752.8344	-0.0067
753.0103	-0.0106
753.1862	-0.0049
753.3621	-0
753.5379	-0.0016
753.7138	0.0006
753.8896	-0.005
754.0654	0.0057
754.2412	0.0035
754.417	0.0019
754.5927	-0.0183
754.7685	-0.0111
754.9442	-0.0054
755.1199	0.0148
755.2956	-0.0099
755.4712	0.0032
755.6469	0.0031
755.8225	-0.0002
755.9981	-0.0048
756.1736	-0.0041
756.3492	-0.0005
756.5248	-0.0007
756.7003	0.01
756.8758	0.0109
757.0513	-0.0092
757.2267	-0.0012
757.4022	0.0024
757.5776	-0.0062
757.753	0.0068
757.9284	0.0048
758.1038	0.0107
758.2791	0.0047
758.4545	-0.0119
758.6298	-0.0001
758.8051	0.0074
758.9803	0.0092
759.1556	0.0026
759.3308	-0.0098
759.506	0.0142
759.6812	0.0127
759.8564	0.007
760.0316	0.0081
760.2067	0.0116
760.3819	0.0139
760.557	0.0194
760.732	-0.0012
760.9071	-0.0078
761.0821	0.0049
761.2572	0.0059
761.4322	-0.0071
761.6072	0.0008
761.7821	-0.0029
761.9571	0.0028
762.132	0.0066
762.3069	-0.0114
762.4818	-0.0102
762.6567	-0
762.8316	-0.0085
763.0064	-0.0023
763.1812	-0.0079
763.356	-0.0118
763.5308	-0.0025
763.7055	-0.0003
763.8803	0.0027
764.055	0.0074
764.2297	0.0029
764.4044	0.0036
764.579	-0.007
764.7537	-0.0025
764.9283	0.0114
765.1029	-0.0036
765.2775	-0.013
765.4521	-0.0011
765.6266	-0.0012
765.8011	-0.0054
765.9756	-0.0001
766.1501	-0.0066
766.3246	-0.0038
766.4991	-0.0127
766.6735	-0.0009
766.8479	-0.015
767.0223	0.0121
767.1967	0.001
767.371	0.0016
767.5454	0.0002
767.7197	0.0006
767.894	-0.0129
768.0683	-0.0052
768.2425	-0.0015
768.4168	0.0003
768.591	0.0014
768.7652	-0.0027
768.9394	0.0065
769.1135	-0.0001
769.2877	-0.0037
769.4618	-0.0021
769.6359	-0.0103
769.81	0.0043
769.984	-0.0051
770.1581	-0.0032
770.3321	-0.0048
770.5061	-0.0028
770.6801	0.0028
770.8541	-0.0035
771.028	0.0027
771.202	-0.0117
771.3759	0.0067
771.5498	-0.0042
771.7236	0.0114
771.8975	-0.0008
772.0713	0.0088
772.2451	0.0123
772.4189	0.0108
772.5927	0.0164
772.7665	-0.0019
772.9402	-0.0052
773.1139	0.0055
773.2876	-0.0017
773.4613	0.0112
773.635	0.0137
773.8086	-0.0092
773.9822	-0.0049
774.1558	0.0059
774.3294	-0.0174
774.503	-0.0008
774.6765	-0.0008
774.8501	0.0061
775.0236	0.0033
775.1971	0.0098
775.3705	-0.0096
775.544	0.0018
775.7174	0.0054
775.8908	0.0117
776.0642	0.008
776.2376	0.0055
776.4109	-0.0049
776.5843	0.006
776.7576	0.0176
776.9309	0.019
777.1041	0.023
777.2774	0.0116
777.4506	0.0044
777.6238	-0
777.797	-0.001
777.9702	0.0139
778.1434	-0.0057
778.3165	-0.0189
778.4896	0.0065
778.6627	0.0066
778.8358	-0.0078
779.0089	0.0009
779.1819	0.0058
779.3549	0.018
779.5279	0.0098
779.7009	0.01
779.8739	-0.0025
780.0468	-0.0085
780.2197	0.0167
780.3926	-0.0062
780.5655	0.0007
780.7384	0.0001
780.9112	0.0057
781.0841	0.0058
781.2569	-0.0048
781.4297	0.0065
781.6024	0.0122
781.7752	0.0137
781.9479	0.0136
782.1206	0.0079
782.2933	-0.002
782.466	0.01
782.6386	0.0011
782.8113	0.0017
782.9839	0.0039
783.1565	0.019
783.329	0.0096
783.5016	0.0117
783.6741	0.0075
783.8466	-0.0033
784.0191	0.0138
784.1916	-0.0022
784.3641	0.0028
784.5365	-0.002
784.7089	0.0044
784.8813	-0.0022
785.0537	0.0073
785.2261	0.0049
785.3984	-0.0008
785.5707	-0.0089
785.743	0.0155
785.9153	0.0053
786.0876	-0.0008
786.2598	-0.0063
786.432	-0.0078
786.6042	-0.0008
786.7764	-0.0007
786.9486	0.0126
787.1207	-0.0042
787.2928	0.0146
787.4649	-0.0035
787.637	0.004
787.8091	-0.0062
787.9811	0.0065
788.1532	-0.0122
788.3252	0.0106
788.4972	-0.007
788.6691	0.0011
788.8411	0.0035
789.013	-0.0132
789.1849	0.0078
789.3568	-0.0016
789.5287	0.0077
789.7005	-0.0014
789.8723	0.0007
790.0442	0.0176
790.2159	-0.0024
790.3877	0.0124
790.5595	-0.0107
790.7312	0.0058
790.9029	0.0034
791.0746	-0.0022
791.2463	-0.0022
791.4179	-0.0041
791.5896	-0.0062
791.7612	0.0058
791.9328	0.0149
792.1044	0.0145
792.2759	-0.0073
792.4474	0.0006
792.619	0.0045
792.7905	0.0074
792.9619	-0.0003
793.1334	0.0158
793.3048	0.0114
793.4762	0.0118
793.6476	0.0125
793.819	-0
793.9904	0.0129
794.1617	-0.0122
794.333	0.0016
794.5043	-0.0069
794.6756	-0.0093
794.8469	-0.0207
795.0181	0.0021
795.1893	-0.0092
795.3605	0.0026
795.5317	-0.013
795.7029	-0.0039
795.874	0.0017
796.0452	-0.0123
796.2163	-0.0052
796.3873	-0.0019
796.5584	0.0021
796.7294	-0.0072
796.9005	0.0107
797.0715	-0
797.2425	-0.006
797.4134	0.0051
797.5844	0.0067
797.7553	-0.0034
797.9262	-0.0053
798.0971	-0.0017
798.2679	-0.0179
798.4388	-0.0171
798.6096	0.004
798.7804	-0.0032
798.9512	-0.0127
799.122	-0.0051
799.2927	0.0034
799.4635	0.0111
799.6342	-0.0161
799.8049	-0.0079
799.9755	0.0012
800.1462	0.0027
800.3168	0.0103
800.4874	0.0023
800.658	0.0218
800.8286	-0.0022
800.9991	0.0097
801.1696	0.0151
801.3402	0.0124
801.5106	0.0047
801.6811	-0.0047
801.8516	0.0026
802.022	0.0131
802.1924	-0.0053
802.3628	0.0125
802.5332	0.0057
802.7035	0.0024
802.8739	-0.0028
803.0442	-0.0227
803.2145	0.0054
803.3847	-0.0139
803.555	0.006
803.7252	-0.002
803.8954	-0.03
804.0656	-0.0138
804.2358	-0.0118
804.4059	0.0281
804.5761	-0.0028
804.7462	0.0082
804.9163	-0.0078
805.0864	-0.0228
805.2564	-0.0142
805.4264	0.0154
805.5965	-0.0005
805.7665	0.0041
805.9364	0.0024
806.1064	0.0318
806.2763	0.0183
806.4462	0.0196
806.6161	0.0107
806.786	0.0099
806.9559	0.0002
807.1257	-0.004
807.2955	0.0116
807.4653	-0.0018
807.6351	-0.0029
807.8048	0.0071
807.9746	0.0195
808.1443	0.0076
808.314	0.0012
808.4837	-0.004
808.6533	-0.0017
808.8229	0.0204
808.9926	0.0239
809.1622	0.0318
809.3317	-0.011
809.5013	0.0126
809.6708	0.0091
809.8403	0.0105
810.0098	-0.0252
810.1793	0.0089
810.3488	-0.0048
810.5182	-0.0323
810.6876	0.0136
810.857	-0.0216
811.0264	0.0246
811.1958	0.0005
811.3651	0.0005
811.5344	0.0134
811.7037	0.0021
811.873	-0.0112
812.0422	0.001
812.2115	0.0057
812.3807	-0.0236
812.5499	0.0027
812.7191	0.0103
812.8882	-0.0062
813.0574	-0.0115
813.2265	0.0002
813.3956	-0.0038
813.5646	0.0033
813.7337	0.0151
813.9027	0.0179
814.0718	0.026
814.2407	0.0408
814.4097	-0.0009
814.5787	0.0032
814.7476	-0.0034
814.9165	0.0164
815.0854	-0.0082
815.2543	0.0099
815.4232	-0.0027
815.592	0.0277
815.7608	0.0159
815.9296	-0.0012
816.0984	0.0077
816.2671	0.0056
816.4359	-0.009
816.6046	0.0133
816.7733	-0.0118
816.942	-0.0286
817.1106	0.0119
817.2793	-0.0003
817.4479	0.014
817.6165	0.0074
817.785	0.025
817.9536	-0.0023
818.1221	0.0114
818.2906	0.0064
818.4591	-0.0236
818.6276	-0.014
818.7961	0.006
818.9645	-0.0076
819.1329	0.0303
819.3013	0.0096
819.4697	0.0249
819.638	-0.0007
819.8064	0.0159
819.9747	0.0088
820.143	0.0039
820.3113	-0.0292
820.4795	0.0145
820.6477	-0.0085
820.816	-0.0185
820.9842	0.0003
821.1523	-0.0149
821.3205	-0.0099
821.4886	0.0047
821.6567	0.0025
821.8248	0.0105
821.9929	0.0133
822.1609	0.0015
822.329	0.016
822.497	0.0377
822.665	-0.0156
822.833	-0.0073
823.0009	-0.0026
823.1688	0.0129
823.3367	0.0104
823.5046	-0.0035
823.6725	0.0241
823.8404	0.0031
824.0082	0.0055
824.176	0.0408
824.3438	0.0028
824.5116	0.0025
824.6793	0.0337
824.847	-0.0265
825.0147	-0.0047
825.1824	-0.007
825.3501	0.0243
825.5177	-0.0075
825.6854	0.0113
825.853	0.0042
826.0206	-0.0079
826.1881	0.0087
826.3557	-0.0135
826.5232	0.0078
826.6907	-0.0275
826.8582	-0.0156
827.0257	-0.0105
827.1931	0.017
827.3605	-0.0059
827.528	-0.0174
827.6953	-0.0263
827.8627	-0.0192
828.03	0.0229
828.1974	-0.0225
828.3647	-0.0323
828.532	0.012
828.6992	-0.0079
828.8665	0.0014
829.0337	-0.0105
829.2009	0.0147
829.3681	0.0145
829.5352	0.0376
829.7024	-0.0236
829.8695	-0.0214
830.0366	0.047
830.2037	-0.0141
830.3707	0.0039
830.5378	-0.0038
830.7048	0.0304
830.8718	-0.032
831.0388	-0.0305
831.2057	-0.0137
831.3727	0.0722
831.5396	-0.0113
831.7065	-0.0252
831.8734	0.0131
832.0402	-0.0641
832.2071	-0.0193
832.3739	-0.0391
832.5407	0.0139
832.7075	-0.0573
832.8742	-0.0001
833.041	-0.0272
833.2077	0.0155
833.3744	0.0077
833.541	-0.006
833.7077	-0.0243
833.8743	-0.0401
834.0409	0.0012
834.2075	-0.0051
834.3741	0.0055
834.5407	-0.0101
834.7072	-0.0007
834.8737	-0.0112
835.0402	-0.0054
835.2067	-0.029
835.3731	-0.0092
835.5395	0.0216
835.706	0.0314
835.8723	0.0183
836.0387	0.0344
836.2051	-0.0137
836.3714	-0.0291
836.5377	0.0034
836.704	0.0402
836.8703	-0.0016
837.0365	-0.0144
837.2027	-0.0229
837.3689	0.0519
837.5351	-0.0001
837.7013	-0.0176
837.8674	-0.092
838.0335	-0.0152
838.1997	0.0073
838.3657	-0.0122
838.5318	0.0036
838.6978	0.0693
838.8639	0.0453
839.0299	-0.0052
839.1958	0.0062
839.3618	0.0319
839.5277	0.0282
839.6937	-0.0009
839.8596	-0.0178
840.0254	0.0185
840.1913	-0.0171
840.3571	0.0509
840.523	-0.0243
840.6888	0.0075
840.8545	-0.0457
841.0203	0.0061
841.186	0.0517
841.3517	0.0008
841.5174	-0.0001
841.6831	-0.0473
841.8488	-0.0063
842.0144	0.0282
842.18	0.018
842.3456	0.0104
842.5112	-0.0189
842.6767	-0.0377
842.8422	-0.037
843.0077	-0.0251
843.1732	-0.0598
843.3387	-0.0179
843.5042	-0.0798
843.6696	-0.0085
843.835	-0.0055
844.0004	0.0471
844.1657	-0.008
844.3311	-0.0301
844.4964	-0.0898
844.6617	-0.0435
844.827	-0.0314
844.9923	-0.0202
845.1575	-0.0722
845.3227	0.0011
845.4879	-0.0057
845.6531	-0.0542
845.8183	-0.1051
845.9834	-0.0232
846.1485	-0.0234
846.3136	-0.026
846.4787	-0.0388
846.6438	0.0308
846.8088	-0.1078
846.9738	-0.0429
847.1388	-0.0208
847.3038	-0.0364
847.4687	-0.0811
847.6337	-0.0129
847.7986	0.0416
847.9635	-0.0605
848.1284	0.0536
848.2932	0.0665
848.458	0.0084
848.6228	0.0421
848.7876	0.0832
848.9524	-0.0729
849.1172	-0.0528
849.2819	-0.0057
849.4466	-0.0943
849.6113	-0.0395
849.7759	0.0418
849.9406	-0.0103
850.1052	0.0939
850.2698	0.0313
850.4344	0.0118
850.599	-0.0781
850.7635	0.0889
850.928	-0.0659
851.0925	0.0572
851.257	0.0368
851.4215	-0.0091
851.5859	-0.011
851.7503	0.0251
851.9147	-0.0178
852.0791	-0.0279
852.2434	-0.0519
852.4078	0.0816
852.5721	0.0735
852.7364	-0.0278
852.9007	-0.2255
853.0649	0.0058
853.2291	-0.0244
853.3934	0.0163
853.5575	-0.0077
853.7217	-0.1485
853.8859	-0.1421
854.05	-0.1636
854.2141	0.064
854.3782	-0.1355
854.5423	-0.0784
854.7063	0.0803
854.8703	-0.0807
855.0343	0.0713
855.1983	-0.1124
855.3623	0.1961
855.5262	0.1728
855.6901	-0.1038
855.854	-0.0243
856.0179	0.0065
856.1818	0.0864
856.3456	-0.1433
856.5094	-0.0033
856.6732	-0.1611
856.837	-0.0582
857.0008	-0.0507
857.1645	-0.0435
857.3282	-0.0849
857.4919	0.1835
857.6556	0.0658
857.8192	-0.0003
857.9828	0.0605
858.1465	0.1102
858.31	-0.1813
858.4736	0.0143
858.6372	-0.3509
858.8007	0.0765
858.9642	-0.1527
859.1277	0.0761
859.2911	0.0535
859.4546	0.088
859.618	-0.4253
859.7814	-0.1017
859.9448	0.1242
860.1081	-0.1316
860.2715	0.182
860.4348	0.0582
860.5981	-0.0143
860.7614	0.1296
860.9246	0.0939
861.0879	-0.0249
861.2511	0.0995
861.4143	-0.0951
861.5774	0.214
861.7406	-0.0214
861.9037	0.0779
862.0668	0.0269
862.2299	-0.0352
862.393	-0.4879
862.556	0.0876
862.7191	-0.217
862.8821	-0.0858
863.0451	-0.0664
863.208	0.1649
863.371	-0.0429
863.5339	-0.2772
863.6968	0.0197
863.8597	0.5305
864.0225	-0.0664
864.1854	0.2474
864.3482	1.0464
864.511	0.076
864.6737	0.2735
864.8365	0.0466
864.9992	-0.3807
865.1619	-0.3125
865.3246	0.9676
865.4873	0.0688
865.65	-0.3374
865.8126	0.3943
865.9752	-0.0749
866.1378	-0.0128
866.3004	0.2093
866.4629	0.3116
866.6254	0.879
866.7879	0.133
866.9504	-0.2163
867.1129	-0
867.2753	0.5323
867.4377	0.1523
867.6001	-0.4811
867.7625	-0
867.9249	-0.1391
868.0872	-0.0259
868.2495	-0.0824
868.4118	-0.155
868.5741	-0
868.7363	-0.2095
868.8986	-0
869.0608	-0.3128
869.223	0.214
869.3851	-0.2654
869.5473	0.1151
869.7094	0.5
869.8715	-0.3956
870.0336	-1.0212
870.1957	-0.5755
870.3577	-0
870.5197	-0.2784
870.6817	0.2375
870.8437	-0.2588
871.0057	-0.6097
871.1676	-0.3402
871.3295	0.2081
871.4914	-0.5398
871.6533	-0.35
871.8151	-0.2999
871.977	-0
872.1388	-0
872.3006	-0
872.4623	-0.1174
872.6241	-0.0007
872.7858	0.5413
872.9475	-0.1717
873.1092	-0.2934
873.2709	-0
873.4325	0.0513
873.5941	-0.5114
873.7557	-0
873.9173	-0
874.0789	-0
874.2404	-0
874.4019	-0.0075
874.5634	0.1145
874.7249	0.2075
874.8863	-0.053
875.0478	0.0844
875.2092	-0
875.3706	0.8492
875.5319	-0.5932
875.6933	-0
875.8546	-0.226
876.0159	-0
876.1772	0.1429
876.3385	-0
876.4997	0.2369
876.6609	-0.3878
876.8221	-0
876.9833	0.3855
877.1445	0.6255
877.3056	0.305
877.4667	0.4388
877.6278	-0
877.7889	-0.6426
877.9499	-1.0063
878.111	-0.3379
878.272	0.3882
878.433	-0
878.5939	0.172
878.7549	0.1229
878.9158	-0
879.0767	-0
879.2376	-0
879.3984	-0.384
879.5593	-0
879.7201	-0.0675
879.8809	-0.694
880.0417	0.1702
880.2024	0.4239
880.3632	-0.7864
880.5239	0.2927
880.6846	-0
880.8452	-1.989
881.0059	-0
881.1665	-0.2502
881.3271	-0
881.4877	0.2113
881.6483	-0.5902
881.8088	0.0192
881.9693	-0
882.1298	-0
882.2903	-0
