Data from MonoPyChalIsomerACN10uM340nmA_Absorbance_14-14-16-864.txt Node
Date: Fri Jul 05 14:14:16 BST 2024
User: LASERRRRR
Spectrometer: FLMT03099
Trigger mode: 0
Integration Time (sec): 1.000000E-1
Scans to average: 1
Electric dark correction enabled: true
Nonlinearity correction enabled: false
Boxcar width: 0
XAxis mode: Wavelengths
Number of Pixels in Spectrum: 3648
>>>>>Begin Spectral Data<<<<<
179.3399	-0.2102
179.5586	-0.2102
179.7771	-0.2102
179.9957	-0
180.2143	0.5154
180.4329	0.1202
180.6514	-0
180.8699	-0
181.0885	0.5245
181.307	-0.0132
181.5255	-0.8022
181.744	-0.9282
181.9625	-0
182.181	-0.5718
182.3994	-0
182.6179	-0
182.8363	0.533
183.0547	-0.3745
183.2732	0.1585
183.4916	0.0471
183.71	-0.0299
183.9284	0.4556
184.1467	-0.157
184.3651	-0.0405
184.5835	-0.1411
184.8018	0.1821
185.0201	0.0805
185.2385	-0.0244
185.4568	0.1067
185.6751	0.284
185.8934	0.0999
186.1117	0.1302
186.3299	0.0305
186.5482	0.3055
186.7664	-0.0043
186.9847	-0.0347
187.2029	-0.022
187.4211	0.0034
187.6393	0.4511
187.8575	-0.0112
188.0757	0.3435
188.2939	0.1722
188.512	0.0609
188.7302	0.0567
188.9483	-0.0477
189.1665	0.1886
189.3846	0.1703
189.6027	0.2553
189.8208	0.0908
190.0389	0.2095
190.257	0.1351
190.475	0.1208
190.6931	0.1828
190.9111	0.3128
191.1292	0.2302
191.3472	0.5498
191.5652	0.2775
191.7832	0.1938
192.0012	0.6517
192.2192	0.2776
192.4371	0.4156
192.6551	0.3491
192.873	0.366
193.091	0.3297
193.3089	0.7882
193.5268	0.3769
193.7447	0.6069
193.9626	0.4493
194.1805	0.7088
194.3984	0.6124
194.6162	0.515
194.8341	0.5379
195.0519	0.4449
195.2697	1.0534
195.4875	0.6127
195.7054	0.5371
195.9231	0.52
196.1409	0.6481
196.3587	0.6866
196.5765	0.6436
196.7942	0.5214
197.012	0.4644
197.2297	0.5836
197.4474	0.6906
197.6651	0.5885
197.8828	0.6794
198.1005	0.7163
198.3182	0.5977
198.5358	0.7093
198.7535	0.7203
198.9711	0.6344
199.1888	0.6629
199.4064	0.7987
199.624	0.7369
199.8416	0.7423
200.0592	0.7405
200.2767	0.6006
200.4943	0.7079
200.7119	0.9224
200.9294	0.6211
201.1469	0.5092
201.3645	0.5446
201.582	0.5739
201.7995	0.658
202.017	0.6566
202.2344	0.5884
202.4519	0.6994
202.6694	0.6287
202.8868	0.595
203.1042	0.6393
203.3217	0.7263
203.5391	0.7106
203.7565	0.5838
203.9739	0.5716
204.1913	0.624
204.4086	0.6727
204.626	0.6369
204.8433	0.6344
205.0607	0.5558
205.278	0.6304
205.4953	0.5549
205.7126	0.6336
205.9299	0.7702
206.1472	0.6565
206.3644	0.5738
206.5817	0.6989
206.7989	0.6953
207.0162	0.626
207.2334	0.7504
207.4506	0.6575
207.6678	0.6912
207.885	0.6303
208.1022	0.6918
208.3194	0.583
208.5365	0.592
208.7537	0.6476
208.9708	0.5623
209.1879	0.6085
209.405	0.7046
209.6222	0.6705
209.8392	0.5588
210.0563	0.6027
210.2734	0.5906
210.4905	0.6208
210.7075	0.6744
210.9245	0.5948
211.1416	0.6779
211.3586	0.6618
211.5756	0.6142
211.7926	0.6257
212.0096	0.6089
212.2265	0.5494
212.4435	0.5777
212.6604	0.6487
212.8774	0.6149
213.0943	0.6154
213.3112	0.5499
213.5281	0.5543
213.745	0.4793
213.9619	0.482
214.1788	0.5013
214.3956	0.4455
214.6125	0.4619
214.8293	0.456
215.0461	0.4918
215.2629	0.4751
215.4798	0.4578
215.6965	0.4025
215.9133	0.4654
216.1301	0.4273
216.3469	0.4392
216.5636	0.3856
216.7803	0.3996
216.9971	0.3842
217.2138	0.3742
217.4305	0.3595
217.6472	0.3389
217.8639	0.3819
218.0805	0.3285
218.2972	0.3107
218.5138	0.3168
218.7305	0.2959
218.9471	0.2894
219.1637	0.2731
219.3803	0.2875
219.5969	0.2913
219.8135	0.2602
220.0301	0.2753
220.2466	0.2726
220.4632	0.2949
220.6797	0.2286
220.8962	0.2575
221.1127	0.2663
221.3292	0.2643
221.5457	0.2537
221.7622	0.2298
221.9787	0.2787
222.1951	0.2508
222.4116	0.2587
222.628	0.2719
222.8444	0.2505
223.0608	0.251
223.2772	0.2443
223.4936	0.2592
223.71	0.2489
223.9264	0.2803
224.1427	0.2378
224.3591	0.2514
224.5754	0.2666
224.7917	0.2603
225.008	0.2619
225.2243	0.2676
225.4406	0.2835
225.6569	0.2749
225.8732	0.2732
226.0894	0.2557
226.3057	0.2736
226.5219	0.2931
226.7381	0.2664
226.9543	0.2892
227.1705	0.3038
227.3867	0.2869
227.6029	0.3095
227.8191	0.3154
228.0352	0.3145
228.2513	0.3161
228.4675	0.3105
228.6836	0.2963
228.8997	0.2974
229.1158	0.3082
229.3319	0.3109
229.548	0.3207
229.764	0.3284
229.9801	0.3403
230.1961	0.3392
230.4121	0.3291
230.6282	0.3252
230.8442	0.3445
231.0602	0.3681
231.2761	0.3372
231.4921	0.3497
231.7081	0.349
231.924	0.3553
232.14	0.3628
232.3559	0.3336
232.5718	0.3508
232.7877	0.3818
233.0036	0.3351
233.2195	0.3524
233.4353	0.3503
233.6512	0.3494
233.867	0.3596
234.0829	0.3498
234.2987	0.378
234.5145	0.3815
234.7303	0.3943
234.9461	0.3978
235.1619	0.3873
235.3776	0.3711
235.5934	0.3855
235.8091	0.3757
236.0249	0.3636
236.2406	0.4031
236.4563	0.3957
236.672	0.4211
236.8877	0.4017
237.1034	0.402
237.319	0.3915
237.5347	0.4182
237.7503	0.4144
237.966	0.4027
238.1816	0.4254
238.3972	0.4001
238.6128	0.4079
238.8284	0.4179
239.0439	0.4212
239.2595	0.3958
239.475	0.4177
239.6906	0.4155
239.9061	0.4007
240.1216	0.4156
240.3371	0.3984
240.5526	0.4
240.7681	0.4101
240.9836	0.3873
241.199	0.4033
241.4145	0.3841
241.6299	0.3706
241.8453	0.3827
242.0607	0.3823
242.2761	0.364
242.4915	0.3796
242.7069	0.3522
242.9223	0.3512
243.1376	0.3381
243.353	0.3357
243.5683	0.3629
243.7836	0.3277
243.9989	0.3404
244.2142	0.3155
244.4295	0.3041
244.6448	0.2994
244.86	0.2888
245.0753	0.2869
245.2905	0.2804
245.5057	0.2598
245.721	0.2764
245.9362	0.2721
246.1514	0.2611
246.3665	0.2521
246.5817	0.2462
246.7969	0.2493
247.012	0.238
247.2271	0.2348
247.4423	0.247
247.6574	0.2309
247.8725	0.2372
248.0876	0.2321
248.3026	0.2129
248.5177	0.2284
248.7328	0.2144
248.9478	0.2024
249.1628	0.2116
249.3779	0.2121
249.5929	0.1952
249.8079	0.2081
250.0228	0.1861
250.2378	0.206
250.4528	0.2021
250.6677	0.1857
250.8827	0.2027
251.0976	0.1946
251.3125	0.1704
251.5274	0.1776
251.7423	0.1758
251.9572	0.1874
252.172	0.1778
252.3869	0.1785
252.6017	0.1842
252.8166	0.1647
253.0314	0.1673
253.2462	0.1684
253.461	0.1776
253.6758	0.1731
253.8906	0.1802
254.1053	0.1671
254.3201	0.1717
254.5348	0.1845
254.7496	0.1738
254.9643	0.1682
255.179	0.1673
255.3937	0.1602
255.6083	0.1723
255.823	0.1759
256.0377	0.1611
256.2523	0.17
256.467	0.1449
256.6816	0.1698
256.8962	0.1692
257.1108	0.1518
257.3254	0.177
257.54	0.1587
257.7545	0.1594
257.9691	0.1577
258.1836	0.1581
258.3981	0.1716
258.6127	0.1821
258.8272	0.1633
259.0417	0.1631
259.2561	0.1719
259.4706	0.1606
259.6851	0.1733
259.8995	0.1632
260.114	0.1667
260.3284	0.1605
260.5428	0.1601
260.7572	0.1556
260.9716	0.1826
261.186	0.1509
261.4003	0.1655
261.6147	0.1747
261.829	0.1519
262.0433	0.1632
262.2577	0.1653
262.472	0.1646
262.6863	0.16
262.9005	0.1648
263.1148	0.1552
263.3291	0.1429
263.5433	0.1667
263.7576	0.1697
263.9718	0.1722
264.186	0.1578
264.4002	0.1529
264.6144	0.1557
264.8286	0.1674
265.0427	0.1564
265.2569	0.1651
265.471	0.1513
265.6851	0.1532
265.8993	0.1331
266.1134	0.1474
266.3275	0.1523
266.5415	0.1578
266.7556	0.1664
266.9697	0.1519
267.1837	0.1622
267.3978	0.1539
267.6118	0.1791
267.8258	0.1627
268.0398	0.1565
268.2538	0.1478
268.4677	0.16
268.6817	0.1478
268.8957	0.1559
269.1096	0.1622
269.3235	0.158
269.5374	0.143
269.7514	0.1597
269.9652	0.1436
270.1791	0.1477
270.393	0.14
270.6068	0.153
270.8207	0.1331
271.0345	0.1439
271.2483	0.1459
271.4622	0.1299
271.676	0.1446
271.8897	0.1369
272.1035	0.1357
272.3173	0.1364
272.531	0.1516
272.7448	0.1445
272.9585	0.1274
273.1722	0.1333
273.3859	0.1415
273.5996	0.1236
273.8133	0.1396
274.0269	0.123
274.2406	0.1399
274.4542	0.1347
274.6679	0.1247
274.8815	0.1331
275.0951	0.1388
275.3087	0.135
275.5223	0.1491
275.7358	0.1404
275.9494	0.1416
276.1629	0.129
276.3765	0.1269
276.59	0.1379
276.8035	0.1342
277.017	0.1432
277.2305	0.127
277.444	0.1371
277.6574	0.1348
277.8709	0.1469
278.0843	0.1243
278.2978	0.1374
278.5112	0.1368
278.7246	0.1303
278.938	0.1436
279.1513	0.1385
279.3647	0.1362
279.5781	0.1367
279.7914	0.142
280.0047	0.1447
280.2181	0.1455
280.4314	0.1435
280.6447	0.1408
280.8579	0.1406
281.0712	0.1438
281.2845	0.1446
281.4977	0.1486
281.711	0.1278
281.9242	0.1445
282.1374	0.1551
282.3506	0.1345
282.5638	0.1509
282.7769	0.152
282.9901	0.1491
283.2033	0.1543
283.4164	0.1624
283.6295	0.143
283.8426	0.1402
284.0557	0.1477
284.2688	0.1621
284.4819	0.1507
284.695	0.164
284.908	0.1453
285.1211	0.1462
285.3341	0.1448
285.5471	0.1583
285.7601	0.1501
285.9731	0.1525
286.1861	0.1377
286.3991	0.1601
286.612	0.1719
286.825	0.162
287.0379	0.1539
287.2508	0.1596
287.4637	0.1588
287.6766	0.1559
287.8895	0.168
288.1024	0.1797
288.3152	0.1685
288.5281	0.1605
288.7409	0.1604
288.9538	0.1657
289.1666	0.1646
289.3794	0.1603
289.5922	0.1503
289.8049	0.1764
290.0177	0.1552
290.2304	0.1703
290.4432	0.1625
290.6559	0.177
290.8686	0.1681
291.0813	0.1614
291.294	0.173
291.5067	0.1809
291.7194	0.1688
291.932	0.1831
292.1447	0.1679
292.3573	0.1431
292.5699	0.1799
292.7825	0.1754
292.9951	0.1748
293.2077	0.1768
293.4203	0.1682
293.6328	0.1535
293.8454	0.1722
294.0579	0.1597
294.2704	0.1655
294.4829	0.1617
294.6954	0.1743
294.9079	0.1837
295.1204	0.1727
295.3328	0.1747
295.5453	0.1731
295.7577	0.1732
295.9701	0.1514
296.1825	0.1716
296.3949	0.1686
296.6073	0.1606
296.8197	0.1745
297.0321	0.1773
297.2444	0.1657
297.4567	0.1742
297.6691	0.1716
297.8814	0.1574
298.0937	0.1728
298.306	0.1695
298.5182	0.1786
298.7305	0.1717
298.9428	0.1666
299.155	0.1676
299.3672	0.1727
299.5794	0.1718
299.7916	0.1722
300.0038	0.1691
300.216	0.1755
300.4282	0.1734
300.6403	0.1566
300.8525	0.1758
301.0646	0.17
301.2767	0.1742
301.4888	0.1661
301.7009	0.1699
301.913	0.1692
302.125	0.1673
302.3371	0.1613
302.5491	0.1744
302.7612	0.175
302.9732	0.1668
303.1852	0.1613
303.3972	0.1566
303.6092	0.1599
303.8211	0.156
304.0331	0.1527
304.245	0.1594
304.457	0.162
304.6689	0.1654
304.8808	0.1775
305.0927	0.1581
305.3046	0.1618
305.5164	0.1589
305.7283	0.158
305.9401	0.1476
306.152	0.1377
306.3638	0.1505
306.5756	0.1495
306.7874	0.1455
306.9992	0.1547
307.2109	0.1453
307.4227	0.1323
307.6344	0.1332
307.8462	0.1412
308.0579	0.1415
308.2696	0.1371
308.4813	0.1399
308.693	0.1242
308.9046	0.1395
309.1163	0.1163
309.328	0.1278
309.5396	0.12
309.7512	0.128
309.9628	0.1227
310.1744	0.1204
310.386	0.1209
310.5976	0.1231
310.8091	0.1189
311.0207	0.1137
311.2322	0.1231
311.4437	0.1003
311.6552	0.1149
311.8667	0.1142
312.0782	0.1019
312.2897	0.0932
312.5012	0.0982
312.7126	0.1033
312.924	0.0972
313.1355	0.1092
313.3469	0.1003
313.5583	0.1122
313.7696	0.1045
313.981	0.1086
314.1924	0.0899
314.4037	0.0908
314.6151	0.1123
314.8264	0.0901
315.0377	0.0965
315.249	0.1071
315.4603	0.101
315.6716	0.0932
315.8828	0.1033
316.0941	0.0954
316.3053	0.0942
316.5165	0.0957
316.7277	0.0875
316.9389	0.1139
317.1501	0.0889
317.3613	0.0999
317.5724	0.0823
317.7836	0.101
317.9947	0.0975
318.2058	0.0892
318.417	0.0812
318.6281	0.0893
318.8391	0.0862
319.0502	0.0866
319.2613	0.0939
319.4723	0.0989
319.6834	0.0941
319.8944	0.0764
320.1054	0.0937
320.3164	0.0987
320.5274	0.0841
320.7383	0.0849
320.9493	0.0932
321.1602	0.1023
321.3712	0.088
321.5821	0.0951
321.793	0.1006
322.0039	0.0879
322.2148	0.0912
322.4257	0.101
322.6365	0.099
322.8474	0.0928
323.0582	0.0937
323.269	0.1032
323.4798	0.1037
323.6906	0.1027
323.9014	0.0921
324.1122	0.0903
324.3229	0.0985
324.5337	0.1031
324.7444	0.0886
324.9551	0.093
325.1658	0.0967
325.3765	0.0944
325.5872	0.0865
325.7979	0.0767
326.0085	0.1012
326.2192	0.1007
326.4298	0.0995
326.6404	0.0925
326.851	0.081
327.0616	0.0823
327.2722	0.0966
327.4828	0.1014
327.6933	0.094
327.9039	0.1057
328.1144	0.0844
328.3249	0.0995
328.5354	0.0797
328.7459	0.0894
328.9564	0.0801
329.1669	0.0993
329.3773	0.0949
329.5878	0.101
329.7982	0.1042
330.0086	0.0905
330.219	0.1092
330.4294	0.0853
330.6398	0.089
330.8502	0.1013
331.0605	0.1046
331.2708	0.1056
331.4812	0.0991
331.6915	0.097
331.9018	0.1004
332.1121	0.0958
332.3224	0.1014
332.5326	0.1069
332.7429	0.1005
332.9531	0.1023
333.1633	0.0996
333.3735	0.0971
333.5837	0.0996
333.7939	0.0851
334.0041	0.1137
334.2143	0.1107
334.4244	0.099
334.6346	0.0816
334.8447	0.1131
335.0548	0.0992
335.2649	0.0927
335.475	0.1033
335.685	0.0923
335.8951	0.1143
336.1051	0.1072
336.3152	0.1137
336.5252	0.0929
336.7352	0.1081
336.9452	0.1048
337.1552	0.107
337.3652	0.1017
337.5751	0.099
337.7851	0.101
337.995	0.0896
338.2049	0.1037
338.4148	0.1061
338.6247	0.1082
338.8346	0.096
339.0445	0.0998
339.2543	0.0952
339.4642	0.0948
339.674	0.0967
339.8838	0.1011
340.0936	0.0984
340.3034	0.1022
340.5132	0.1171
340.7229	0.1083
340.9327	0.1083
341.1424	0.1125
341.3522	0.1207
341.5619	0.1018
341.7716	0.1085
341.9813	0.1068
342.1909	0.1069
342.4006	0.1174
342.6102	0.1133
342.8199	0.1037
343.0295	0.1144
343.2391	0.1169
343.4487	0.1168
343.6583	0.111
343.8679	0.1071
344.0774	0.1168
344.287	0.1113
344.4965	0.117
344.706	0.1231
344.9155	0.1205
345.125	0.1175
345.3345	0.1142
345.544	0.1173
345.7534	0.1199
345.9629	0.1161
346.1723	0.1134
346.3817	0.1265
346.5911	0.1203
346.8005	0.1338
347.0099	0.1248
347.2193	0.131
347.4286	0.1241
347.638	0.129
347.8473	0.1251
348.0566	0.121
348.2659	0.129
348.4752	0.1291
348.6845	0.1276
348.8937	0.1214
349.103	0.1365
349.3122	0.1219
349.5214	0.1259
349.7306	0.1321
349.9398	0.1184
350.149	0.1307
350.3582	0.1235
350.5674	0.1567
350.7765	0.125
350.9856	0.1213
351.1948	0.1257
351.4039	0.1244
351.613	0.1275
351.822	0.1485
352.0311	0.1354
352.2402	0.1378
352.4492	0.144
352.6582	0.1505
352.8672	0.1476
353.0762	0.1417
353.2852	0.1257
353.4942	0.1281
353.7032	0.1358
353.9121	0.1458
354.1211	0.1478
354.33	0.1441
354.5389	0.1643
354.7478	0.1464
354.9567	0.1441
355.1655	0.1356
355.3744	0.1453
355.5833	0.1465
355.7921	0.1617
356.0009	0.143
356.2097	0.1697
356.4185	0.17
356.6273	0.1618
356.8361	0.1564
357.0448	0.1625
357.2536	0.1466
357.4623	0.1449
357.671	0.1515
357.8797	0.1708
358.0884	0.1602
358.2971	0.1675
358.5057	0.1647
358.7144	0.1656
358.923	0.1586
359.1316	0.1693
359.3402	0.1764
359.5488	0.1688
359.7574	0.1738
359.966	0.1807
360.1746	0.1719
360.3831	0.1735
360.5916	0.1653
360.8002	0.1794
361.0087	0.1907
361.2172	0.1793
361.4256	0.1721
361.6341	0.191
361.8426	0.1728
362.051	0.1616
362.2594	0.1766
362.4678	0.1641
362.6762	0.2159
362.8846	0.1811
363.093	0.184
363.3014	0.1877
363.5097	0.1573
363.718	0.182
363.9264	0.1814
364.1347	0.172
364.343	0.1973
364.5513	0.1961
364.7595	0.2007
364.9678	0.1919
365.176	0.1957
365.3842	0.1926
365.5925	0.1927
365.8007	0.2049
366.0089	0.1936
366.217	0.1941
366.4252	0.2119
366.6333	0.2127
366.8415	0.1926
367.0496	0.1986
367.2577	0.2111
367.4658	0.2273
367.6739	0.2073
367.882	0.2275
368.09	0.2034
368.2981	0.2158
368.5061	0.202
368.7141	0.2073
368.9221	0.2209
369.1301	0.2082
369.3381	0.2129
369.5461	0.2185
369.754	0.2142
369.962	0.2311
370.1699	0.2171
370.3778	0.2301
370.5857	0.2219
370.7936	0.2349
371.0015	0.2291
371.2093	0.2463
371.4172	0.2333
371.625	0.2169
371.8328	0.2336
372.0406	0.2393
372.2484	0.2257
372.4562	0.2208
372.664	0.2345
372.8717	0.2655
373.0795	0.2112
373.2872	0.2307
373.4949	0.2262
373.7026	0.2385
373.9103	0.2614
374.118	0.2353
374.3256	0.2614
374.5333	0.2449
374.7409	0.2356
374.9485	0.2361
375.1561	0.2307
375.3637	0.2342
375.5713	0.2376
375.7789	0.2401
375.9864	0.2442
376.194	0.2422
376.4015	0.2599
376.609	0.246
376.8165	0.2432
377.024	0.2537
377.2315	0.246
377.4389	0.2531
377.6464	0.2665
377.8538	0.2526
378.0612	0.2509
378.2686	0.2564
378.476	0.2633
378.6834	0.275
378.8908	0.2662
379.0981	0.2566
379.3055	0.2579
379.5128	0.2463
379.7201	0.252
379.9274	0.2587
380.1347	0.2616
380.342	0.2839
380.5492	0.2518
380.7565	0.2786
380.9637	0.2637
381.1709	0.2539
381.3781	0.2727
381.5853	0.2819
381.7925	0.2908
381.9997	0.2819
382.2068	0.2727
382.4139	0.2896
382.6211	0.2537
382.8282	0.2668
383.0353	0.2583
383.2424	0.2659
383.4494	0.2821
383.6565	0.2891
383.8635	0.2732
384.0706	0.2751
384.2776	0.2678
384.4846	0.2626
384.6916	0.2756
384.8986	0.2684
385.1055	0.2621
385.3125	0.2753
385.5194	0.2381
385.7263	0.2831
385.9333	0.2717
386.1402	0.2619
386.347	0.2767
386.5539	0.2689
386.7608	0.2776
386.9676	0.2564
387.1744	0.2654
387.3813	0.2587
387.5881	0.2815
387.7948	0.2596
388.0016	0.27
388.2084	0.2644
388.4151	0.2683
388.6219	0.2709
388.8286	0.2566
389.0353	0.2935
389.242	0.2699
389.4487	0.2559
389.6553	0.2646
389.862	0.2588
390.0686	0.2547
390.2753	0.2573
390.4819	0.2592
390.6885	0.2605
390.8951	0.2649
391.1016	0.2651
391.3082	0.2499
391.5147	0.255
391.7213	0.26
391.9278	0.2325
392.1343	0.2419
392.3408	0.2639
392.5473	0.2426
392.7537	0.2479
392.9602	0.2462
393.1666	0.2414
393.373	0.25
393.5794	0.2506
393.7858	0.2405
393.9922	0.2376
394.1986	0.2471
394.4049	0.2511
394.6113	0.2277
394.8176	0.2327
395.0239	0.2519
395.2302	0.2353
395.4365	0.2298
395.6428	0.236
395.8491	0.2267
396.0553	0.2317
396.2615	0.2237
396.4678	0.2422
396.674	0.2292
396.8802	0.2327
397.0863	0.247
397.2925	0.2405
397.4987	0.2442
397.7048	0.2226
397.9109	0.2393
398.117	0.2327
398.3231	0.2276
398.5292	0.2417
398.7353	0.2323
398.9413	0.2199
399.1474	0.2277
399.3534	0.2432
399.5594	0.2172
399.7654	0.2347
399.9714	0.2305
400.1774	0.2307
400.3833	0.2282
400.5893	0.231
400.7952	0.2346
401.0011	0.2315
401.207	0.2302
401.4129	0.2394
401.6188	0.2516
401.8247	0.2318
402.0305	0.223
402.2364	0.2389
402.4422	0.2429
402.648	0.2329
402.8538	0.2404
403.0596	0.2102
403.2654	0.2258
403.4711	0.231
403.6768	0.23
403.8826	0.2344
404.0883	0.2356
404.294	0.2372
404.4997	0.2176
404.7054	0.2296
404.911	0.2305
405.1167	0.2239
405.3223	0.2402
405.5279	0.2328
405.7335	0.2381
405.9391	0.2447
406.1447	0.2181
406.3502	0.2428
406.5558	0.2105
406.7613	0.2244
406.9668	0.2229
407.1724	0.2124
407.3778	0.2062
407.5833	0.2317
407.7888	0.2234
407.9942	0.2478
408.1997	0.2324
408.4051	0.2238
408.6105	0.2521
408.8159	0.2134
409.0213	0.2207
409.2267	0.253
409.432	0.2209
409.6374	0.2399
409.8427	0.2177
410.048	0.2507
410.2533	0.2267
410.4586	0.235
410.6639	0.2046
410.8691	0.2214
411.0744	0.2004
411.2796	0.2087
411.4848	0.2265
411.69	0.2254
411.8952	0.2478
412.1004	0.2116
412.3056	0.2427
412.5107	0.2234
412.7158	0.2281
412.921	0.2236
413.1261	0.229
413.3312	0.2211
413.5362	0.2095
413.7413	0.2146
413.9464	0.2251
414.1514	0.2162
414.3564	0.2122
414.5614	0.2171
414.7664	0.2218
414.9714	0.2279
415.1764	0.2255
415.3813	0.229
415.5863	0.2132
415.7912	0.2261
415.9961	0.2333
416.201	0.2254
416.4059	0.2221
416.6108	0.2105
416.8156	0.2353
417.0205	0.2158
417.2253	0.2021
417.4301	0.2188
417.6349	0.2201
417.8397	0.2263
418.0445	0.216
418.2492	0.2319
418.454	0.2163
418.6587	0.202
418.8634	0.2168
419.0681	0.1934
419.2728	0.2089
419.4775	0.2344
419.6822	0.2083
419.8868	0.1922
420.0915	0.217
420.2961	0.1896
420.5007	0.2001
420.7053	0.2079
420.9099	0.2137
421.1144	0.2263
421.319	0.1932
421.5235	0.2154
421.728	0.201
421.9325	0.2193
422.137	0.2141
422.3415	0.2015
422.546	0.212
422.7504	0.2085
422.9549	0.2136
423.1593	0.1964
423.3637	0.2069
423.5681	0.2208
423.7725	0.1873
423.9769	0.2083
424.1812	0.1896
424.3856	0.1892
424.5899	0.2048
424.7942	0.1909
424.9985	0.1941
425.2028	0.1947
425.4071	0.2011
425.6113	0.1929
425.8156	0.1998
426.0198	0.193
426.224	0.1752
426.4282	0.1944
426.6324	0.1813
426.8366	0.1828
427.0407	0.1704
427.2449	0.1862
427.449	0.1865
427.6531	0.1562
427.8572	0.1685
428.0613	0.1665
428.2654	0.1834
428.4694	0.1756
428.6735	0.1704
428.8775	0.1732
429.0815	0.1696
429.2855	0.1673
429.4895	0.1756
429.6935	0.1737
429.8975	0.1648
430.1014	0.1641
430.3053	0.1462
430.5093	0.1705
430.7132	0.1468
430.9171	0.1434
431.1209	0.1568
431.3248	0.1453
431.5286	0.1417
431.7325	0.1681
431.9363	0.1287
432.1401	0.1538
432.3439	0.1551
432.5477	0.1328
432.7514	0.1342
432.9552	0.1396
433.1589	0.1406
433.3627	0.1338
433.5664	0.1421
433.7701	0.1412
433.9737	0.1401
434.1774	0.1108
434.3811	0.1147
434.5847	0.1223
434.7883	0.125
434.9919	0.1259
435.1955	0.1175
435.3991	0.1164
435.6027	0.1317
435.8062	0.1094
436.0098	0.1041
436.2133	0.1165
436.4168	0.1074
436.6203	0.1074
436.8238	0.1115
437.0272	0.1055
437.2307	0.1132
437.4341	0.1115
437.6375	0.0963
437.841	0.1001
438.0443	0.1202
438.2477	0.104
438.4511	0.0788
438.6545	0.1193
438.8578	0.1034
439.0611	0.1016
439.2644	0.0871
439.4677	0.0994
439.671	0.0781
439.8743	0.094
440.0775	0.0911
440.2808	0.0775
440.484	0.0645
440.6872	0.0543
440.8904	0.0806
441.0936	0.1073
441.2967	0.0752
441.4999	0.0605
441.703	0.0683
441.9062	0.0823
442.1093	0.0821
442.3124	0.0805
442.5155	0.0635
442.7185	0.0579
442.9216	0.0476
443.1246	0.0717
443.3276	0.0579
443.5307	0.0707
443.7337	0.0559
443.9366	0.0659
444.1396	0.0613
444.3426	0.0658
444.5455	0.0698
444.7484	0.0567
444.9513	0.0488
445.1542	0.0786
445.3571	0.043
445.56	0.0443
445.7628	0.0517
445.9657	0.0526
446.1685	0.0624
446.3713	0.0396
446.5741	0.0467
446.7769	0.0429
446.9797	0.0428
447.1824	0.0418
447.3852	0.0311
447.5879	0.0507
447.7906	0.0377
447.9933	0.0512
448.196	0.0442
448.3986	0.0418
448.6013	0.0325
448.8039	0.0334
449.0066	0.0315
449.2092	0.048
449.4118	0.0459
449.6143	0.0285
449.8169	0.0409
450.0195	0.0177
450.222	0.0052
450.4245	0.0262
450.627	0.0211
450.8295	0.0165
451.032	0.0321
451.2345	0.0292
451.4369	0.0487
451.6394	0.0239
451.8418	0.008
452.0442	0.021
452.2466	0.0433
452.449	0.0171
452.6513	0.03
452.8537	0.0291
453.056	0.017
453.2583	0.0249
453.4607	0.0125
453.663	0.0164
453.8652	0.0425
454.0675	0.0205
454.2697	0.0201
454.472	0.0117
454.6742	0.0157
454.8764	0.0099
455.0786	0.0125
455.2808	0.0031
455.4829	0.0179
455.6851	0.0073
455.8872	0.0278
456.0893	0.0151
456.2915	-0.0023
456.4935	0.0216
456.6956	0.0225
456.8977	0.0295
457.0997	0.0165
457.3018	0
457.5038	0.0128
457.7058	0.0177
457.9078	0.013
458.1098	0.0167
458.3117	0.0123
458.5137	0.002
458.7156	0.0241
458.9175	0.0044
459.1194	0.0087
459.3213	0.0032
459.5232	0.0012
459.725	-0.0071
459.9269	-0.0126
460.1287	0.0095
460.3305	0.0078
460.5323	0.016
460.7341	0.0065
460.9359	0.0038
461.1376	0.0221
461.3394	-0.0059
461.5411	0.0085
461.7428	0.0126
461.9445	0.0157
462.1462	0.0241
462.3479	0.0083
462.5495	0.0065
462.7512	0.0138
462.9528	-0.0074
463.1544	-0.0107
463.356	0.0103
463.5576	0.0076
463.7592	0.0003
463.9607	0.004
464.1623	0.0057
464.3638	0.0142
464.5653	-0.0067
464.7668	0.0119
464.9683	0.0097
465.1697	0.0225
465.3712	0.0024
465.5726	-0.0153
465.7741	0.0056
465.9755	-0.0111
466.1769	-0.0075
466.3782	0.0005
466.5796	0.0041
466.7809	0.0145
466.9823	-0.0047
467.1836	0.0069
467.3849	-0.0088
467.5862	0.0027
467.7875	-0.0137
467.9887	0.0143
468.19	0.0023
468.3912	0.0011
468.5924	0.0041
468.7936	0.0005
468.9948	0.0093
469.196	0.0046
469.3972	-0.0138
469.5983	0.0128
469.7994	-0.0042
470.0006	0.0055
470.2017	-0.0127
470.4027	-0.0028
470.6038	0.004
470.8049	-0.006
471.0059	-0.0152
471.2069	-0.019
471.408	0.0189
471.6089	-0.0086
471.8099	-0.0119
472.0109	-0.0033
472.2119	-0.0089
472.4128	-0.0224
472.6137	0.008
472.8146	-0.0108
473.0155	-0.0101
473.2164	0.0018
473.4173	0.0067
473.6181	0.0044
473.819	0.0021
474.0198	-0.0025
474.2206	-0.0004
474.4214	-0.0019
474.6222	-0.0003
474.8229	-0.0241
475.0237	-0.0137
475.2244	-0.0091
475.4251	0.0001
475.6258	0.0014
475.8265	-0.0066
476.0272	0.0056
476.2278	-0.0075
476.4285	-0.006
476.6291	-0.0008
476.8297	-0.0022
477.0303	-0.0076
477.2309	0.007
477.4315	-0.0166
477.632	-0.0098
477.8326	-0.004
478.0331	0
478.2336	0.0169
478.4341	-0.0161
478.6346	0.003
478.8351	-0.0043
479.0355	-0.0054
479.236	-0.0031
479.4364	-0.0065
479.6368	0.0037
479.8372	0.0028
480.0376	-0.0026
480.2379	-0.0248
480.4383	-0.0127
480.6386	0.0021
480.8389	0.003
481.0392	-0.0138
481.2395	-0.0046
481.4398	0.0075
481.6401	-0.0021
481.8403	-0.0043
482.0405	-0.0041
482.2408	-0.0188
482.441	-0.0001
482.6411	-0.0017
482.8413	0.0007
483.0415	-0.0054
483.2416	-0.0134
483.4417	0.0016
483.6419	-0.0006
483.8419	-0.0014
484.042	0.0066
484.2421	-0.0003
484.4422	0.0016
484.6422	-0.01
484.8422	-0.0026
485.0422	-0.0105
485.2422	-0.0025
485.4422	-0.0154
485.6422	-0.0143
485.8421	-0.0023
486.042	-0.0059
486.242	-0.0007
486.4419	-0.0109
486.6417	-0.0056
486.8416	-0.0063
487.0415	-0.0039
487.2413	-0.0097
487.4411	-0.0114
487.641	-0.0163
487.8408	0.0033
488.0405	-0.005
488.2403	-0.0106
488.4401	0.0096
488.6398	0.0036
488.8395	-0.0069
489.0392	0.0043
489.2389	0.0042
489.4386	-0.0052
489.6383	-0.0045
489.8379	0.0047
490.0376	-0.0025
490.2372	-0.0096
490.4368	-0.0137
490.6364	-0.0072
490.836	-0.008
491.0355	-0.0073
491.2351	-0.0079
491.4346	0.0005
491.6341	-0.0261
491.8336	0.0053
492.0331	-0.0135
492.2326	-0.0148
492.432	-0.0028
492.6315	-0.005
492.8309	-0.0198
493.0303	-0.0119
493.2297	-0.0033
493.4291	-0.0083
493.6284	-0.006
493.8278	-0.0058
494.0271	0.0077
494.2264	0.009
494.4257	-0.0187
494.625	-0.0078
494.8243	-0.01
495.0236	-0.0019
495.2228	-0.0085
495.422	0.0008
495.6213	0.0035
495.8205	-0.0142
496.0196	-0.0121
496.2188	0.006
496.418	-0.0047
496.6171	-0.0044
496.8162	-0.0092
497.0153	-0.0005
497.2144	-0.0017
497.4135	0.0017
497.6126	-0.0185
497.8116	-0.0029
498.0107	0.0016
498.2097	-0.0161
498.4087	-0.01
498.6077	-0.0001
498.8067	-0.0086
499.0056	0.0046
499.2046	0.0044
499.4035	-0.0186
499.6024	0.0014
499.8013	-0.0003
500.0002	-0.0131
500.199	-0.0005
500.3979	-0.0091
500.5967	-0.0224
500.7956	-0.0014
500.9944	0.0046
501.1932	-0.0112
501.3919	-0.0212
501.5907	-0.0154
501.7895	-0.0127
501.9882	-0.0133
502.1869	-0.0178
502.3856	-0.0053
502.5843	-0.0106
502.783	-0.0068
502.9816	-0.0027
503.1803	-0.013
503.3789	-0.0094
503.5775	0.0067
503.7761	-0.0007
503.9747	-0.0107
504.1732	0.0005
504.3718	0.0028
504.5703	-0.0141
504.7689	-0.006
504.9674	-0.0043
505.1658	-0.0168
505.3643	-0.0077
505.5628	-0.0049
505.7612	-0.01
505.9597	0.0022
506.1581	0.0052
506.3565	0.0088
506.5549	-0.0009
506.7532	-0.0073
506.9516	-0.0052
507.1499	-0.0022
507.3482	-0.0142
507.5465	-0.0037
507.7448	-0.0001
507.9431	-0.0042
508.1414	-0.0058
508.3396	-0.0045
508.5379	-0.0083
508.7361	-0.0053
508.9343	-0.0013
509.1325	-0.0019
509.3306	-0.0093
509.5288	-0.0053
509.7269	-0.004
509.9251	-0.0046
510.1232	-0.0065
510.3213	-0.0008
510.5193	0.0002
510.7174	-0.0127
510.9154	-0.0058
511.1135	-0.0149
511.3115	-0.0118
511.5095	0.0031
511.7075	-0.0107
511.9055	-0.0094
512.1034	-0.0142
512.3014	-0.0013
512.4993	0.0014
512.6972	-0.0057
512.8951	-0.0127
513.093	-0.0037
513.2908	-0.0032
513.4887	0.0047
513.6865	-0.0017
513.8844	-0.0108
514.0822	-0.0054
514.2799	-0.0114
514.4777	-0.0155
514.6755	-0.0116
514.8732	-0.0018
515.0709	-0.0009
515.2687	-0.015
515.4664	-0.0055
515.664	-0.01
515.8617	-0.0026
516.0594	-0.0152
516.257	0.0017
516.4546	-0.0138
516.6522	-0.0019
516.8498	0.0016
517.0474	0.0027
517.2449	-0.0029
517.4425	-0.0115
517.64	0.0061
517.8375	0.0033
518.035	0.0003
518.2325	-0.0088
518.43	-0.0063
518.6274	-0.0017
518.8249	-0.0172
519.0223	-0.0111
519.2197	-0.0119
519.4171	-0.008
519.6145	-0.0074
519.8118	0.0085
520.0092	-0.0002
520.2065	-0.007
520.4038	-0.0112
520.6011	-0.0095
520.7984	-0.0084
520.9956	-0.0112
521.1929	-0.0055
521.3901	0.0008
521.5874	0.0007
521.7846	-0.0018
521.9818	0
522.1789	-0.0153
522.3761	-0.0049
522.5732	-0.0032
522.7704	-0.0058
522.9675	-0.0008
523.1646	-0.0045
523.3617	0.0004
523.5587	-0.0061
523.7558	0.0059
523.9528	-0.0142
524.1498	-0.0066
524.3468	-0.0046
524.5438	0.003
524.7408	0.0011
524.9378	0.0083
525.1347	-0.0078
525.3316	-0.0004
525.5285	-0.0091
525.7254	-0.0032
525.9223	-0.0038
526.1192	0.0009
526.316	-0.0076
526.5129	0.0016
526.7097	-0.0008
526.9065	-0.0021
527.1033	-0.0086
527.3	0.0045
527.4968	-0.0121
527.6935	0.0013
527.8903	-0.0019
528.087	0.0011
528.2837	-0.0086
528.4804	-0.0039
528.677	-0.001
528.8737	0.0109
529.0703	0.0013
529.2669	-0.002
529.4635	-0.0078
529.6601	-0.0086
529.8567	-0.0089
530.0532	-0.0048
530.2498	0.004
530.4463	-0.0031
530.6428	-0.0031
530.8393	0.0051
531.0358	0.0016
531.2322	0.0044
531.4287	-0.0054
531.6251	-0.0119
531.8215	0.0085
532.0179	-0.0014
532.2143	0.009
532.4107	-0.0005
532.607	-0.0087
532.8034	-0.0008
532.9997	-0.002
533.196	-0.0052
533.3923	-0.0087
533.5886	0.0019
533.7848	0.0001
533.9811	-0.0077
534.1773	0.0068
534.3735	0.0052
534.5697	-0.0016
534.7659	-0.0044
534.9621	0.0008
535.1582	-0.001
535.3544	-0.011
535.5505	-0.0036
535.7466	-0.0057
535.9427	-0.0113
536.1387	-0.0146
536.3348	-0.0005
536.5308	0.0124
536.7269	-0.0131
536.9229	-0.0009
537.1189	-0.0035
537.3148	-0.005
537.5108	-0.0147
537.7068	-0.0074
537.9027	0.0007
538.0986	-0.0076
538.2945	-0.0099
538.4904	-0.0045
538.6863	-0.0029
538.8821	-0.0039
539.078	-0.0078
539.2738	-0.004
539.4696	-0.0033
539.6654	-0.003
539.8611	0.0131
540.0569	0.0006
540.2526	-0.0046
540.4484	-0.0051
540.6441	0.0006
540.8398	-0.0043
541.0355	0.0073
541.2311	0.0019
541.4268	-0.0076
541.6224	0.0047
541.818	-0.0031
542.0136	-0.0047
542.2092	0.0028
542.4048	0.0047
542.6003	-0.0042
542.7959	-0.0055
542.9914	-0.0019
543.1869	-0.0052
543.3824	-0.0026
543.5779	0.0048
543.7734	-0.0012
543.9688	-0.0084
544.1642	0.0054
544.3596	0.0089
544.555	0.0003
544.7504	0
544.9458	-0.0079
545.1411	-0.0056
545.3365	-0.0012
545.5318	-0.008
545.7271	-0.0044
545.9224	0.0001
546.1177	0.0066
546.3129	0.0028
546.5081	-0.0055
546.7034	-0.0076
546.8986	0.0007
547.0938	-0.0099
547.289	-0.0007
547.4841	-0.0089
547.6793	0.0034
547.8744	-0.0053
548.0695	-0.0012
548.2646	-0.0064
548.4597	0.005
548.6548	-0.0017
548.8498	0.003
549.0448	0.0123
549.2399	0.0012
549.4349	0.0071
549.6298	-0.0002
549.8248	0.0009
550.0198	0.0048
550.2147	-0.0031
550.4096	-0.0063
550.6045	0.0056
550.7994	0.0025
550.9943	0.0058
551.1892	0.0031
551.384	0.0067
551.5788	-0.0043
551.7737	-0.0021
551.9685	0.0013
552.1632	0.008
552.358	-0.004
552.5528	0.0035
552.7475	-0.0014
552.9422	-0.003
553.1369	-0.0031
553.3316	0.0048
553.5263	-0.0146
553.7209	0.0096
553.9156	-0.0018
554.1102	-0.005
554.3048	-0.0033
554.4994	0.0121
554.694	-0.0048
554.8885	0.0008
555.0831	-0.0033
555.2776	-0.0064
555.4721	-0.002
555.6666	-0.0064
555.8611	0.0073
556.0555	0.0022
556.25	-0.0042
556.4444	-0.0104
556.6388	0.0023
556.8332	0.0018
557.0276	-0.0009
557.222	0.002
557.4163	0.0043
557.6107	-0.0084
557.805	0.0087
557.9993	0.0056
558.1936	0.0083
558.3879	0.0062
558.5821	0.0026
558.7764	0.0035
558.9706	0.0006
559.1648	0.0026
559.359	-0.0037
559.5532	-0.0051
559.7473	0.0051
559.9415	0.0006
560.1356	0.0015
560.3297	-0.0063
560.5238	-0.0016
560.7179	-0.0011
560.9119	0.0001
561.106	0.0003
561.3	-0.0099
561.494	-0.0005
561.688	-0.0095
561.882	-0.0028
562.076	0.002
562.2699	0.0047
562.4639	0.0042
562.6578	-0.0041
562.8517	0.0067
563.0456	0.0049
563.2395	-0.0011
563.4333	0.0014
563.6272	0.0209
563.821	0.0017
564.0148	0.0058
564.2086	0.0012
564.4024	-0.0058
564.5961	-0.003
564.7899	0.0017
564.9836	-0.0051
565.1773	0.0037
565.371	0.0191
565.5647	0.0039
565.7584	0.0001
565.952	0.0089
566.1456	0.0003
566.3393	0.0007
566.5329	-0.0002
566.7264	0.0016
566.92	-0.0096
567.1136	-0.0005
567.3071	0.0027
567.5006	0.0082
567.6941	0.0052
567.8876	0.0063
568.0811	-0.0013
568.2745	0.0062
568.468	0.0039
568.6614	0.0063
568.8548	0.0041
569.0482	-0.0016
569.2416	0.0049
569.4349	0
569.6283	0.0031
569.8216	-0.0036
570.0149	-0.0045
570.2082	0.0051
570.4015	0.0111
570.5947	0.0055
570.788	0.004
570.9812	0.0098
571.1744	-0.0007
571.3676	-0.0008
571.5608	-0.0029
571.754	-0.0005
571.9471	0.0055
572.1402	0.0058
572.3333	-0.0051
572.5264	-0
572.7195	0.0043
572.9126	0.0007
573.1057	0.007
573.2987	-0.0046
573.4917	0.0057
573.6847	-0.0021
573.8777	0.008
574.0707	0.002
574.2636	-0.0039
574.4566	-0.0052
574.6495	0.0004
574.8424	-0.0007
575.0353	0.0054
575.2281	0.014
575.421	0.0094
575.6138	0.0061
575.8067	0.0027
575.9995	0.0025
576.1923	0.0097
576.385	0.0056
576.5778	0.0059
576.7706	0.0017
576.9633	-0.0014
577.156	0.0062
577.3487	0.0012
577.5414	0.0066
577.734	-0.0035
577.9267	0.0016
578.1193	-0.0091
578.3119	-0.0013
578.5045	0.003
578.6971	-0.0027
578.8897	0.0071
579.0822	0.0009
579.2747	-0.0013
579.4673	-0.0052
579.6598	-0.0045
579.8522	0.0016
580.0447	-0.0099
580.2372	0.0052
580.4296	0.0051
580.622	0.0029
580.8144	-0.0014
581.0068	0.0004
581.1992	-0.0065
581.3915	-0.0059
581.5839	-0.0043
581.7762	-0.0033
581.9685	-0.0073
582.1608	0.0057
582.353	-0.0037
582.5453	0.0046
582.7375	-0.0005
582.9298	0.0035
583.122	0.002
583.3142	0.0038
583.5063	0.0034
583.6985	-0.0009
583.8906	-0.0013
584.0827	-0.0064
584.2749	0.0008
584.4669	0.0069
584.659	0.0048
584.8511	0.0027
585.0431	0.0033
585.2352	0.0001
585.4272	0.0086
585.6192	0.005
585.8111	0.0047
586.0031	0.0006
586.195	0.0027
586.387	0.0015
586.5789	0.0009
586.7708	0.006
586.9627	0.0065
587.1545	-0.0038
587.3464	0.0049
587.5382	0.0034
587.73	0.0083
587.9218	0.0126
588.1136	0.0053
588.3053	0.0062
588.4971	0.0021
588.6888	-0.0009
588.8805	-0.001
589.0722	0.0096
589.2639	0.0021
589.4556	0.0048
589.6472	-0.0034
589.8389	-0.0008
590.0305	-0.0119
590.2221	0.0013
590.4137	-0.004
590.6052	0.0055
590.7968	0.0004
590.9883	0.0056
591.1798	0.0007
591.3713	-0.0051
591.5628	0.0022
591.7543	0.0039
591.9458	0.0039
592.1372	0.002
592.3286	0.0044
592.52	0.0067
592.7114	-0.0053
592.9028	0.0014
593.0941	-0.0026
593.2855	-0.0025
593.4768	-0.008
593.6681	-0.0028
593.8594	0.0001
594.0506	-0.0003
594.2419	0.005
594.4331	0.0004
594.6244	0.003
594.8156	-0.0049
595.0067	0.0029
595.1979	-0.0015
595.3891	-0.0003
595.5802	0.0028
595.7713	0.0015
595.9624	0.0081
596.1535	0.0079
596.3446	0.0047
596.5357	-0.0021
596.7267	0.002
596.9177	0.0008
597.1087	-0.0061
597.2997	-0
597.4907	0.0062
597.6817	-0.0078
597.8726	-0.0017
598.0635	-0.001
598.2544	0.0008
598.4453	0.0028
598.6362	0.0006
598.827	-0.0064
599.0179	0.0053
599.2087	0.0065
599.3995	0.0056
599.5903	0.0021
599.7811	0.0063
599.9718	0.0033
600.1626	0.0015
600.3533	-0.0041
600.544	0.0005
600.7347	0.0009
600.9254	0.0041
601.116	-0.0059
601.3067	0.0048
601.4973	-0.0023
601.6879	0.0107
601.8785	-0.0032
602.0691	0.008
602.2596	0.0077
602.4502	0.0139
602.6407	0.0071
602.8312	0.0051
603.0217	-0.0084
603.2122	0.003
603.4027	0.0009
603.5931	-0.0022
603.7835	0
603.9739	0.0025
604.1643	0.004
604.3547	-0.0004
604.5451	0.0069
604.7354	0.0024
604.9257	0.0003
605.116	0.0016
605.3063	0.0063
605.4966	0.005
605.6869	0.0026
605.8771	0.0084
606.0673	0.0075
606.2575	0.0074
606.4477	0.0095
606.6379	0.0039
606.8281	-0.0018
607.0182	0.0011
607.2083	0.0131
607.3985	-0.006
607.5885	0.0032
607.7786	0.0063
607.9687	-0.0059
608.1587	0.0042
608.3488	-0.0008
608.5388	0.0024
608.7288	0.0014
608.9187	0.0032
609.1087	-0.005
609.2986	0.0027
609.4886	-0.0002
609.6785	0.0017
609.8684	0.0054
610.0582	0.0049
610.2481	-0.0006
610.4379	0.002
610.6278	-0.0048
610.8176	-0.0007
611.0074	-0.0027
611.1971	0.0005
611.3869	-0.0017
611.5766	-0.0083
611.7664	0.0074
611.9561	0.001
612.1458	0.007
612.3354	-0.0043
612.5251	-0.0017
612.7147	0.0117
612.9044	0.0072
613.094	-0.0068
613.2836	0.0044
613.4731	0.0043
613.6627	-0.0001
613.8522	0.0008
614.0417	0.0046
614.2313	0.0007
614.4207	0.0043
614.6102	0.0045
614.7997	0.0002
614.9891	-0.0015
615.1785	0.0013
615.3679	0.0083
615.5573	0.0149
615.7467	-0.0009
615.9361	0.0002
616.1254	0.0026
616.3147	0.0078
616.504	-0.0044
616.6933	0.0093
616.8826	0.0106
617.0718	0.0032
617.2611	0.0034
617.4503	-0.0004
617.6395	0.0047
617.8287	-0.0004
618.0179	-0.0016
618.207	0.0204
618.3961	0.0086
618.5853	0.0033
618.7744	0.0083
618.9634	0.0068
619.1525	0.0005
619.3416	0.008
619.5306	0.004
619.7196	0.004
619.9086	0.0005
620.0976	0.0071
620.2866	0.0038
620.4755	-0.0006
620.6645	0.0124
620.8534	0.0114
621.0423	0.0064
621.2312	0.0005
621.42	0.0066
621.6089	0.004
621.7977	0.0042
621.9865	0.0024
622.1753	0.0014
622.3641	-0.0057
622.5529	0.0085
622.7416	0.0094
622.9303	-0.0051
623.1191	0.0069
623.3078	-0.0071
623.4964	0.0055
623.6851	-0.0069
623.8737	0.0002
624.0624	0.0104
624.251	0.0065
624.4396	0.0032
624.6282	-0.0069
624.8167	-0.0107
625.0053	0.0047
625.1938	0.0027
625.3823	0.0072
625.5708	0.0049
625.7593	-0.0002
625.9477	-0.0032
626.1362	0.0008
626.3246	0.006
626.513	0.0065
626.7014	0.0057
626.8898	0.0031
627.0781	0.0064
627.2665	-0.0047
627.4548	0.0151
627.6431	0.0103
627.8314	0.0064
628.0197	0.0077
628.2079	-0.0001
628.3962	0.0009
628.5844	0.0042
628.7726	0.0106
628.9608	0.0099
629.1489	0.0028
629.3371	0.0077
629.5252	0.0038
629.7134	0.0085
629.9015	0.0027
630.0895	-0.0023
630.2776	0.0029
630.4657	-0.0043
630.6537	-0.0001
630.8417	-0.0075
631.0297	-0.0017
631.2177	0.001
631.4057	-0.0028
631.5936	0.0033
631.7815	0.0056
631.9695	0.0086
632.1574	0.0029
632.3452	0.0065
632.5331	0.0065
632.7209	0.0053
632.9088	0.0148
633.0966	0.0134
633.2844	0.0009
633.4722	0.0134
633.6599	0.0103
633.8477	0.0021
634.0354	0.0085
634.2231	0.0058
634.4108	0.0058
634.5985	0.0124
634.7861	0.009
634.9738	0.0053
635.1614	0.0029
635.349	0.0006
635.5366	-0.0031
635.7242	0.0037
635.9117	0.0011
636.0993	0.0034
636.2868	0.0034
636.4743	-0.0034
636.6618	0.0077
636.8492	0.0066
637.0367	0.0002
637.2241	-0.0033
637.4115	-0.0054
637.5989	0.0036
637.7863	0.0058
637.9737	0.0023
638.161	0.0084
638.3484	0.0042
638.5357	0.0056
638.723	0.0039
638.9103	0.0042
639.0975	0.0058
639.2848	0.0076
639.472	0.0023
639.6592	0.0084
639.8464	0.0125
640.0336	0.0091
640.2208	0.0091
640.4079	0.0067
640.595	0.0038
640.7821	0.0069
640.9692	0.0044
641.1563	-0.0017
641.3434	0.0097
641.5304	0.0014
641.7174	0.001
641.9044	-0.0023
642.0914	0.0105
642.2784	0.0095
642.4653	0.0088
642.6523	0.0111
642.8392	0.0052
643.0261	0.004
643.213	0.0059
643.3999	0.0012
643.5867	-0.0001
643.7735	0.0064
643.9604	-0.0021
644.1472	0.0066
644.3339	0.0111
644.5207	0.0052
644.7075	0.0079
644.8942	0.0045
645.0809	0.0122
645.2676	0.0131
645.4543	0.0036
645.6409	0.0085
645.8276	0.0099
646.0142	0.0065
646.2008	-0.0002
646.3874	0.0002
646.574	0.0036
646.7605	0.0011
646.9471	-0.0075
647.1336	-0.0027
647.3201	0.0095
647.5066	0.0059
647.6931	0.0116
647.8795	0.0058
648.0659	0.006
648.2524	0.0061
648.4388	0.0036
648.6252	0.0063
648.8115	-0.0038
648.9979	0.0032
649.1842	-0.0025
649.3705	0.01
649.5568	0.0051
649.7431	0.0125
649.9294	0.0049
650.1156	0.0086
650.3018	0.0009
650.488	0.0075
650.6742	0.0069
650.8604	-0.0044
651.0466	-0.002
651.2327	-0.001
651.4188	-0.0067
651.6049	0.0001
651.791	0.0027
651.9771	0.008
652.1632	0.0049
652.3492	0.0036
652.5352	0.0032
652.7212	0.0011
652.9072	0.0064
653.0932	0.0051
653.2791	0.0055
653.465	0.0036
653.651	-0.0004
653.8369	0.0029
654.0227	0.0038
654.2086	0.0065
654.3944	0.0048
654.5803	0.0085
654.7661	0.0058
654.9519	0.0057
655.1377	0.0007
655.3234	0.006
655.5092	0.0005
655.6949	-0.0039
655.8806	0.0014
656.0663	0.002
656.2519	0.0072
656.4376	-0.0006
656.6232	0.0079
656.8088	0.0005
656.9945	0.0047
657.18	0.0006
657.3656	0.0048
657.5511	0.0027
657.7367	-0.0074
657.9222	0.0048
658.1077	0.0043
658.2932	0.0097
658.4786	-0.0003
658.6641	0.0004
658.8495	0.0003
659.0349	0.0016
659.2203	0.0086
659.4057	-0.0005
659.591	0.0021
659.7764	0.0029
659.9617	0.0088
660.147	-0
660.3323	0.0061
660.5176	0.0084
660.7028	0.0115
660.888	0.0073
661.0733	0.0038
661.2585	-0.004
661.4436	0.0046
661.6288	-0.0043
661.8139	0.0022
661.9991	0.0115
662.1842	-0.0006
662.3693	0.0028
662.5544	0.0017
662.7394	0.0053
662.9245	-0.0055
663.1095	0.0033
663.2945	0.0025
663.4795	0.0016
663.6644	0.0069
663.8494	0.0045
664.0343	0.0008
664.2193	-0.0005
664.4042	0.0021
664.589	-0.0056
664.7739	-0.0014
664.9587	-0.0025
665.1436	-0.0019
665.3284	0.0014
665.5132	0.0037
665.698	0.0029
665.8827	0.008
666.0675	0.0023
666.2522	-0.0055
666.4369	0.0061
666.6216	0.0081
666.8063	0.0036
666.9909	0.0069
667.1756	0.0027
667.3602	0.0055
667.5448	0.005
667.7294	0.0106
667.9139	0.0127
668.0985	0.0177
668.283	0.006
668.4675	0.0048
668.652	0.0082
668.8365	-0.0055
669.0209	0.0127
669.2054	0.0097
669.3898	-0.0019
669.5742	0.0059
669.7586	0.0067
669.943	0.0147
670.1273	0.0114
670.3117	0.0099
670.496	0.004
670.6803	0.0135
670.8646	0.0112
671.0488	-0.0012
671.2331	0.0168
671.4173	0.0135
671.6015	0.0049
671.7857	0.0143
671.9699	0.0132
672.1541	0.0089
672.3382	0.0011
672.5223	0.0068
672.7064	0.005
672.8905	0.0112
673.0746	0.0052
673.2587	-0.0028
673.4427	0.006
673.6267	0.009
673.8107	0.0149
673.9947	0.0114
674.1787	0.0021
674.3626	0.0008
674.5465	0.0102
674.7304	0.0152
674.9143	0.0114
675.0982	0.0084
675.2821	-0.0025
675.4659	0.0048
675.6497	0.0029
675.8335	0.0076
676.0173	0.0033
676.2011	0.0056
676.3849	0.0013
676.5686	0.0018
676.7523	0.0065
676.936	-0.001
677.1197	-0.0037
677.3034	0.0027
677.487	0.0059
677.6706	0.0105
677.8542	0.0002
678.0378	-0.0016
678.2214	0.0049
678.405	0
678.5885	-0.0033
678.772	0.0051
678.9555	0.0023
679.139	-0.006
679.3225	0.0044
679.5059	0.0039
679.6894	0.0026
679.8728	0.0096
680.0562	-0.0052
680.2395	-0.0036
680.4229	-0.0013
680.6062	0.0018
680.7896	0.0048
680.9729	-0.0053
681.1562	0.0097
681.3394	0.0018
681.5227	-0.0085
681.7059	0.0046
681.8891	0.006
682.0723	0.0086
682.2555	0.0119
682.4387	-0.0028
682.6218	-0.0021
682.805	0.009
682.9881	0.0077
683.1712	0.0013
683.3542	-0.002
683.5373	0.0098
683.7203	-0.0086
683.9034	0.0043
684.0864	-0.0055
684.2694	-0.0008
684.4523	0.0052
684.6353	-0.0022
684.8182	0.0049
685.0011	-0.003
685.184	0.0052
685.3669	0.0058
685.5498	0.0069
685.7326	-0.002
685.9154	-0.002
686.0982	0.0036
686.281	0.0064
686.4638	0.0042
686.6465	-0.0004
686.8293	0.0019
687.012	0.0024
687.1947	-0.004
687.3774	0.0052
687.56	0.0032
687.7427	0.0014
687.9253	0.0016
688.1079	-0.0002
688.2905	0.0142
688.4731	0.0028
688.6556	0.0007
688.8382	0.0048
689.0207	0.0079
689.2032	-0.0041
689.3857	-0.0007
689.5681	0.0067
689.7506	0.0079
689.933	0.0024
690.1154	0.0091
690.2978	0.0008
690.4802	0.0081
690.6626	-0.0019
690.8449	0.0036
691.0272	0.0061
691.2095	-0.0041
691.3918	-0.001
691.5741	0.0085
691.7563	0.0054
691.9386	0.0044
692.1208	-0.0002
692.303	0.0006
692.4852	-0.0014
692.6673	0.0048
692.8495	0.0032
693.0316	0.0041
693.2137	0.0041
693.3958	0.0032
693.5778	-0.0021
693.7599	-0.0017
693.9419	0.0002
694.1239	0.0012
694.3059	0.0006
694.4879	0.0037
694.6699	0.0004
694.8518	0.003
695.0337	0.0021
695.2157	0.0061
695.3975	0.004
695.5794	0.0054
695.7613	-0.0011
695.9431	-0.0043
696.1249	0.0111
696.3067	0.0051
696.4885	0.0134
696.6703	0.0021
696.852	0.0103
697.0337	0.009
697.2154	0.0056
697.3971	0.0097
697.5788	0.0047
697.7605	0.0022
697.9421	0.0066
698.1237	0.0027
698.3053	0.0013
698.4869	0.0053
698.6685	0.0013
698.85	-0.0022
699.0315	0.013
699.213	0.0006
699.3945	0.0083
699.576	0.0155
699.7575	0.0086
699.9389	0.0105
700.1203	0.0013
700.3017	-0.005
700.4831	-0.0064
700.6645	-0.0075
700.8458	0.009
701.0271	0.0008
701.2084	0.0127
701.3897	-0.0042
701.571	0.0135
701.7523	-0.0022
701.9335	-0.0009
702.1147	-0.0035
702.2959	0.0042
702.4771	0.0013
702.6583	0.0004
702.8394	-0.0016
703.0205	0.0028
703.2016	-0.0002
703.3827	0.0028
703.5638	0.0043
703.7449	0.0006
703.9259	0.0148
704.1069	-0.0007
704.2879	0.0006
704.4689	0.0025
704.6499	-0.0001
704.8308	-0.0006
705.0117	0.0009
705.1927	0.0109
705.3735	0.0043
705.5544	-0.001
705.7353	-0.0013
705.9161	-0.0011
706.0969	-0.0008
706.2777	0.0047
706.4585	-0.0019
706.6393	0.0109
706.82	-0.0042
707.0007	0.007
707.1815	0.0107
707.3621	0.0101
707.5428	0.0058
707.7235	0.009
707.9041	0.0143
708.0847	0.0047
708.2653	-0.0037
708.4459	-0.0061
708.6265	0.0033
708.807	0.0062
708.9875	0.0055
709.168	-0.0005
709.3485	-0.0046
709.529	0.0053
709.7095	-0.011
709.8899	0.0011
710.0703	-0.0063
710.2507	-0.0058
710.4311	0.0021
710.6115	-0.0132
710.7918	-0.0122
710.9721	0.0038
711.1524	-0.0127
711.3327	0.0052
711.513	0.0061
711.6932	0.0039
711.8735	0.0112
712.0537	0.0036
712.2339	0.0038
712.4141	-0.0058
712.5942	-0.0035
712.7744	0.0013
712.9545	-0.0022
713.1346	-0.0008
713.3147	-0.0008
713.4947	0.0039
713.6748	0.0022
713.8548	-0.0007
714.0348	-0.0018
714.2148	0.0006
714.3948	0.0119
714.5748	0.0032
714.7547	0.002
714.9346	0.0056
715.1145	-0.0016
715.2944	-0.0015
715.4743	0.0046
715.6541	-0.0053
715.834	0.0088
716.0138	0.0027
716.1936	-0.006
716.3733	0.002
716.5531	0.0056
716.7328	-0.0033
716.9126	0.003
717.0923	0.006
717.2719	0.0004
717.4516	0.0111
717.6312	-0.0008
717.8109	-0.0097
717.9905	0.0042
718.1701	-0.008
718.3496	-0.0075
718.5292	0.0003
718.7087	-0.0012
718.8882	0.0051
719.0677	0.0006
719.2472	-0.0001
719.4267	-0.0035
719.6061	0.0007
719.7856	0.0084
719.965	0.0062
720.1443	-0.0054
720.3237	0.0063
720.5031	0.0005
720.6824	0.005
720.8617	0.0021
721.041	0.0043
721.2203	0.0125
721.3995	0.0072
721.5788	0.0021
721.758	0.0104
721.9372	-0.001
722.1164	0.0083
722.2956	0.0094
722.4747	0.0016
722.6538	-0.0046
722.8329	0.0146
723.012	0.0104
723.1911	0.0062
723.3702	0.0013
723.5492	0.0068
723.7282	-0.0004
723.9072	-0.0021
724.0862	-0.0022
724.2652	-0.0066
724.4441	0.0016
724.623	-0.0042
724.8019	-0.0018
724.9808	0.0046
725.1597	-0.008
725.3385	0.0029
725.5174	0.003
725.6962	0.0055
725.875	-0.0034
726.0538	0.0053
726.2325	-0.0053
726.4112	0.0032
726.59	0.0011
726.7687	-0.0074
726.9474	0.0047
727.126	-0.0017
727.3047	-0.0021
727.4833	-0.004
727.6619	-0.0053
727.8405	-0.0039
728.0191	-0.0065
728.1976	0.0026
728.3762	0.0095
728.5547	-0.0024
728.7332	-0.0071
728.9116	0.0021
729.0901	0.0111
729.2686	-0.0075
729.447	0.0084
729.6254	0.0075
729.8038	0.0062
729.9821	-0.0062
730.1605	0.0065
730.3388	-0.0026
730.5171	0.0027
730.6954	0.0006
730.8737	0.006
731.0519	0.0044
731.2302	0.0082
731.4084	0.0118
731.5866	0.0065
731.7648	0.0035
731.9429	0.0001
732.1211	-0.0104
732.2992	-0.0001
732.4773	0.0013
732.6554	-0.0029
732.8335	0.0001
733.0115	0.0124
733.1896	0.0064
733.3676	-0.0094
733.5456	0.0051
733.7235	0.0052
733.9015	-0.0082
734.0794	0.0038
734.2574	-0.0033
734.4353	-0.0005
734.6131	0.0122
734.791	-0.0059
734.9689	0.0007
735.1467	0.0067
735.3245	-0.0107
735.5023	-0.0036
735.68	-0.0011
735.8578	0.0114
736.0355	-0.017
736.2132	-0.007
736.3909	-0.0004
736.5686	-0.0048
736.7463	0.0065
736.9239	-0.0076
737.1015	0.005
737.2791	0.0103
737.4567	0.0018
737.6343	0.0029
737.8118	0.0036
737.9894	0.0095
738.1669	-0.0028
738.3444	-0.0006
738.5218	0.0003
738.6993	0.0089
738.8767	0.0019
739.0541	0.0178
739.2315	-0.0021
739.4089	0.0053
739.5863	0.0131
739.7636	-0.0029
739.9409	0.0074
740.1182	0.0173
740.2955	0.006
740.4728	0.0035
740.65	-0.0083
740.8272	-0.001
741.0044	-0.0035
741.1816	0.002
741.3588	0.0041
741.5359	0.0113
741.7131	-0.0024
741.8902	0.002
742.0673	0.0078
742.2444	-0.0083
742.4214	-0.0064
742.5985	-0.0004
742.7755	-0.0052
742.9525	-0.0095
743.1295	-0.0019
743.3064	0.0022
743.4834	0.0127
743.6603	0.0047
743.8372	0.0016
744.0141	0.0077
744.191	0.0028
744.3678	0.0023
744.5446	0.012
744.7215	0.0092
744.8982	0.0019
745.075	-0.0051
745.2518	0.0014
745.4285	0.0049
745.6052	-0.0041
745.7819	0.001
745.9586	-0.0065
746.1353	0.0049
746.3119	-0.0087
746.4885	-0.0028
746.6651	0.0018
746.8417	0.0031
747.0183	0.004
747.1948	-0.0014
747.3714	-0.0013
747.5479	0.0038
747.7244	-0.0033
747.9008	0.0096
748.0773	0.0004
748.2537	-0.0051
748.4301	-0.0125
748.6065	0.0052
748.7829	-0.003
748.9593	-0.0014
749.1356	0.0045
749.3119	0.0098
749.4882	-0.0112
749.6645	0.0019
749.8408	-0.0033
750.017	-0.0067
750.1933	0.0079
750.3695	-0.0072
750.5457	-0.0023
750.7218	-0.0026
750.898	0.0021
751.0741	-0.0078
751.2502	-0.0042
751.4263	-0.0074
751.6024	-0.0054
751.7784	-0.0035
751.9545	-0.0046
752.1305	-0.0001
752.3065	0.0014
752.4825	0.0013
752.6584	-0.0109
752.8344	-0.0017
753.0103	-0.0056
753.1862	-0.0072
753.3621	-0.0071
753.5379	-0.0172
753.7138	-0.0065
753.8896	0.0071
754.0654	0.0071
754.2412	-0.001
754.417	0.008
754.5927	-0.0131
754.7685	-0.0087
754.9442	-0.0025
755.1199	0.0099
755.2956	-0.0091
755.4712	0.0091
755.6469	-0.0021
755.8225	-0.0045
755.9981	-0.0003
756.1736	-0.0029
756.3492	-0.0053
756.5248	-0.0077
756.7003	0
756.8758	0.009
757.0513	-0.01
757.2267	-0.0048
757.4022	0.0022
757.5776	-0.0053
757.753	0.0033
757.9284	-0.002
758.1038	0.009
758.2791	0.0032
758.4545	-0.0014
758.6298	-0.0001
758.8051	0.0077
758.9803	0.0025
759.1556	-0.0051
759.3308	-0.0046
759.506	0.007
759.6812	0.0112
759.8564	0.0093
760.0316	0.0058
760.2067	0.0074
760.3819	0.0088
760.557	0.0127
760.732	0.0013
760.9071	0.0003
761.0821	-0.0004
761.2572	0.009
761.4322	0.0009
761.6072	0.0001
761.7821	0.001
761.9571	0.0102
762.132	0.0007
762.3069	-0.0048
762.4818	-0.0037
762.6567	0.0053
762.8316	-0.0031
763.0064	-0.0026
763.1812	0.007
763.356	-0.0115
763.5308	-0.0041
763.7055	0.0088
763.8803	-0.0076
764.055	-0.0006
764.2297	0.0039
764.4044	-0.0005
764.579	-0.0054
764.7537	0.001
764.9283	0.0156
765.1029	-0.0027
765.2775	-0.002
765.4521	-0.0008
765.6266	-0.0056
765.8011	-0.0049
765.9756	-0.0072
766.1501	-0.0048
766.3246	-0.0054
766.4991	0.0002
766.6735	-0.008
766.8479	-0.0114
767.0223	0.0118
767.1967	0.0052
767.371	0
767.5454	-0.0048
767.7197	0.0045
767.894	-0.0072
768.0683	-0.0112
768.2425	-0.0028
768.4168	0.0042
768.591	0.0005
768.7652	-0.0071
768.9394	-0.0044
769.1135	0.0011
769.2877	0.009
769.4618	-0.0026
769.6359	-0.0012
769.81	0.0026
769.984	-0.0029
770.1581	-0.0061
770.3321	0.0015
770.5061	-0.0123
770.6801	-0.0034
770.8541	-0.0043
771.028	0.0014
771.202	0.0012
771.3759	0.0159
771.5498	-0.0042
771.7236	-0.0007
771.8975	0.0015
772.0713	0.002
772.2451	0.0083
772.4189	0.0131
772.5927	0.0225
772.7665	0.0058
772.9402	0.0141
773.1139	-0.0019
773.2876	0.0015
773.4613	0.0074
773.635	0.0124
773.8086	-0.0037
773.9822	0.0061
774.1558	0.0112
774.3294	-0.0193
774.503	-0.0024
774.6765	0.003
774.8501	0.0117
775.0236	0.0039
775.1971	0.0108
775.3705	-0.015
775.544	0.0038
775.7174	0.0141
775.8908	-0.0029
776.0642	-0.0044
776.2376	0.0093
776.4109	0.0026
776.5843	0.0025
776.7576	0.0063
776.9309	0.0205
777.1041	0.0194
777.2774	0.0113
777.4506	0.0125
777.6238	0.0032
777.797	0.0054
777.9702	-0.0043
778.1434	0.0007
778.3165	-0.0021
778.4896	-0.0064
778.6627	0.0195
778.8358	-0.0028
779.0089	0.0058
779.1819	0.0077
779.3549	0.0241
779.5279	0.0196
779.7009	0.0117
779.8739	0.0136
780.0468	0.0036
780.2197	0.0055
780.3926	0.0111
780.5655	0.0032
780.7384	0.0037
780.9112	0.008
781.0841	0.0044
781.2569	0.0139
781.4297	0.0226
781.6024	0.0147
781.7752	0.0157
781.9479	0.0061
782.1206	0.0109
782.2933	0.0015
782.466	0.0124
782.6386	0.0088
782.8113	0.0014
782.9839	0.0087
783.1565	0.0129
783.329	0.0041
783.5016	-0.0018
783.6741	0.0125
783.8466	-0.0074
784.0191	0.0041
784.1916	-0.0019
784.3641	0.013
784.5365	0.0185
784.7089	-0.0106
784.8813	0.0035
785.0537	0.0038
785.2261	0.012
785.3984	-0.0027
785.5707	0.0187
785.743	0.0147
785.9153	-0.0017
786.0876	0.0104
786.2598	-0.0043
786.432	-0.0037
786.6042	0.0155
786.7764	-0.0058
786.9486	0.0066
787.1207	-0.0039
787.2928	0.0104
787.4649	0.0011
787.637	0.0121
787.8091	-0.0039
787.9811	-0.0041
788.1532	-0.0179
788.3252	0.0052
788.4972	-0.0055
788.6691	0.0027
788.8411	-0.0061
789.013	-0.0071
789.1849	0.0076
789.3568	-0.0075
789.5287	0.0073
789.7005	0.0044
789.8723	0.005
790.0442	0.0077
790.2159	0.002
790.3877	0.0026
790.5595	-0.0132
790.7312	-0.0007
790.9029	0.0022
791.0746	0.0098
791.2463	0.0105
791.4179	-0.0021
791.5896	-0.006
791.7612	0.0207
791.9328	0.0053
792.1044	0
792.2759	-0.01
792.4474	0.0066
792.619	-0.0016
792.7905	0.0136
792.9619	0.0053
793.1334	0.0171
793.3048	0.0175
793.4762	0.0011
793.6476	-0.0029
793.819	-0.0033
793.9904	0.0181
794.1617	-0.0088
794.333	-0.0053
794.5043	-0.0014
794.6756	-0.0103
794.8469	-0.0063
795.0181	-0.0018
795.1893	-0.019
795.3605	0.0128
795.5317	-0.01
795.7029	-0.0137
795.874	0.0016
796.0452	-0.001
796.2163	0.0042
796.3873	0.0165
796.5584	0.0111
796.7294	-0.0055
796.9005	0.0016
797.0715	0.0211
797.2425	-0.0178
797.4134	-0.0036
797.5844	0.0042
797.7553	-0.0193
797.9262	0.0017
798.0971	-0.0128
798.2679	-0.0054
798.4388	-0.027
798.6096	0.0008
798.7804	0.0028
798.9512	0.003
799.122	-0.0075
799.2927	0.012
799.4635	-0.002
799.6342	-0.0231
799.8049	-0.0113
799.9755	-0.0055
800.1462	-0.0044
800.3168	0.0014
800.4874	0.0004
800.658	0.0287
800.8286	0.0029
800.9991	0.0163
801.1696	0.0099
801.3402	0.0058
801.5106	-0.0014
801.6811	0
801.8516	0.0103
802.022	0.0002
802.1924	-0.0207
802.3628	0.0039
802.5332	0.0002
802.7035	0.0194
802.8739	-0.0077
803.0442	-0.014
803.2145	0.0109
803.3847	-0.0235
803.555	0.0026
803.7252	-0.0078
803.8954	-0.0208
804.0656	-0.0228
804.2358	-0.0045
804.4059	0.0113
804.5761	-0.0083
804.7462	0.0058
804.9163	0.0013
805.0864	-0.0283
805.2564	-0.0038
805.4264	0.002
805.5965	-0.0029
805.7665	0.0124
805.9364	-0.0011
806.1064	0.0241
806.2763	0.0097
806.4462	0.0146
806.6161	0.009
806.786	0.0031
806.9559	0.0027
807.1257	0.0026
807.2955	-0.0065
807.4653	-0.0185
807.6351	-0.0186
807.8048	-0.0023
807.9746	-0.0005
808.1443	0.0009
808.314	-0.0002
808.4837	0.0105
808.6533	-0.0042
808.8229	0.0199
808.9926	0.0151
809.1622	0.0186
809.3317	0.0005
809.5013	0.0223
809.6708	0.0057
809.8403	0.009
810.0098	0.0013
810.1793	0
810.3488	0.0015
810.5182	-0.0169
810.6876	0.0048
810.857	-0.0231
811.0264	0.01
811.1958	0.0094
811.3651	-0.001
811.5344	0.0011
811.7037	-0.0078
811.873	-0.0156
812.0422	0
812.2115	0.0003
812.3807	-0.0192
812.5499	-0.0053
812.7191	0.0079
812.8882	0.0083
813.0574	-0.0057
813.2265	0.0077
813.3956	0.0038
813.5646	0.002
813.7337	-0.0174
813.9027	0.0171
814.0718	0.0241
814.2407	0.0109
814.4097	0.0045
814.5787	-0.0205
814.7476	-0.0036
814.9165	-0.0121
815.0854	-0.0088
815.2543	0.0038
815.4232	-0.0104
815.592	0.0117
815.7608	0.016
815.9296	0.0242
816.0984	0.0068
816.2671	-0.0003
816.4359	-0.0057
816.6046	-0.0015
816.7733	-0.0036
816.942	-0.0012
817.1106	0.0248
817.2793	0.0156
817.4479	-0.0091
817.6165	0.0121
817.785	-0.0034
817.9536	-0.031
818.1221	-0.0148
818.2906	0.0176
818.4591	-0.0058
818.6276	-0.0143
818.7961	-0.012
818.9645	0.005
819.1329	0.0268
819.3013	0.0364
819.4697	0.0226
819.638	-0.0061
819.8064	-0.0047
819.9747	0.0138
820.143	-0.0021
820.3113	-0.0153
820.4795	0.0157
820.6477	0.0077
820.816	0.0113
820.9842	-0.0176
821.1523	-0.0228
821.3205	-0.0014
821.4886	-0.0068
821.6567	-0.0116
821.8248	0.0081
821.9929	-0.0115
822.1609	-0.0041
822.329	0.0239
822.497	0.0291
822.665	-0.0047
822.833	-0.032
823.0009	0.0283
823.1688	0.0042
823.3367	0.0414
823.5046	0.0351
823.6725	-0.0105
823.8404	-0.0074
824.0082	0
824.176	-0.0015
824.3438	-0.0129
824.5116	-0.0284
824.6793	-0.0036
824.847	-0.0033
825.0147	-0.0146
825.1824	0.0134
825.3501	0.002
825.5177	-0.0199
825.6854	0.007
825.853	0.008
826.0206	-0.006
826.1881	0.0172
826.3557	-0.0203
826.5232	0.0141
826.6907	-0.0141
826.8582	-0.0098
827.0257	0.0047
827.1931	0.0055
827.3605	-0.0137
827.528	-0.0078
827.6953	-0.0076
827.8627	0.0133
828.03	0.0234
828.1974	-0.006
828.3647	-0.0289
828.532	-0.0155
828.6992	-0.0183
828.8665	0.0226
829.0337	0.0031
829.2009	0.03
829.3681	-0.0085
829.5352	0.0326
829.7024	-0.001
829.8695	-0.0077
830.0366	0.046
830.2037	-0.008
830.3707	-0.0126
830.5378	-0.0274
830.7048	0.0195
830.8718	-0.0227
831.0388	0.0023
831.2057	0.0208
831.3727	0.0415
831.5396	-0.0123
831.7065	-0.0347
831.8734	0.0071
832.0402	-0.0111
832.2071	0.0046
832.3739	-0.0323
832.5407	-0.0088
832.7075	-0.0225
832.8742	0.0069
833.041	-0.0195
833.2077	-0.0024
833.3744	-0.0029
833.541	-0.0059
833.7077	0.0166
833.8743	-0.0058
834.0409	0.0143
834.2075	-0.0087
834.3741	0.0063
834.5407	0.0222
834.7072	-0.0012
834.8737	-0.0052
835.0402	-0.0336
835.2067	0.033
835.3731	0.0231
835.5395	-0.0063
835.706	0.0079
835.8723	0.0147
836.0387	0.0041
836.2051	-0.0129
836.3714	0.0154
836.5377	-0.0135
836.704	-0.0316
836.8703	-0.0106
837.0365	0.0037
837.2027	-0.0097
837.3689	0.0512
837.5351	-0.0581
837.7013	-0.0311
837.8674	-0.0456
838.0335	-0.0328
838.1997	0.0356
838.3657	-0.0395
838.5318	-0.0315
838.6978	0.04
838.8639	0.034
839.0299	0.0204
839.1958	-0.0054
839.3618	-0.0084
839.5277	0.0423
839.6937	0.0076
839.8596	0.0055
840.0254	0.0265
840.1913	0.0669
840.3571	0.0071
840.523	-0.0203
840.6888	-0.0147
840.8545	-0.0592
841.0203	0.0001
841.186	0.0149
841.3517	0.0019
841.5174	-0.0077
841.6831	-0.048
841.8488	-0.0201
842.0144	0.0047
842.18	0.0127
842.3456	0.0193
842.5112	0.0124
842.6767	-0.0029
842.8422	0.0231
843.0077	-0.023
843.1732	-0.0431
843.3387	-0.0502
843.5042	-0.0738
843.6696	-0.0176
843.835	-0.0261
844.0004	0.0571
844.1657	-0.0147
844.3311	-0.0226
844.4964	-0.0412
844.6617	-0.0341
844.827	-0.0247
844.9923	-0.0211
845.1575	-0.0208
845.3227	0.0094
845.4879	-0.0066
845.6531	-0.0657
845.8183	-0.0366
845.9834	-0.0289
846.1485	-0.0414
846.3136	-0.0222
846.4787	-0.0741
846.6438	-0.0163
846.8088	-0.0403
846.9738	-0.0582
847.1388	0.0159
847.3038	0.0266
847.4687	-0.1313
847.6337	-0.0287
847.7986	-0.0764
847.9635	-0.0228
848.1284	-0.0251
848.2932	0.0852
848.458	0.0338
848.6228	0.0579
848.7876	0.0751
848.9524	-0.0282
849.1172	-0.0431
849.2819	0.0663
849.4466	-0.1001
849.6113	-0.1087
849.7759	0.0206
849.9406	-0.0546
850.1052	0.08
850.2698	-0.0482
850.4344	-0.0687
850.599	-0.0359
850.7635	0.0462
850.928	-0.0673
851.0925	-0.0523
851.257	0.0589
851.4215	0.0202
851.5859	-0.017
851.7503	0.0902
851.9147	-0.0376
852.0791	-0.0536
852.2434	-0.0516
852.4078	-0.0379
852.5721	0.0497
852.7364	-0.0947
852.9007	-0.1447
853.0649	-0.0265
853.2291	-0.0193
853.3934	-0.0201
853.5575	0.0182
853.7217	-0.024
853.8859	-0.1838
854.05	-0.0426
854.2141	0.0161
854.3782	-0.0054
854.5423	-0.0626
854.7063	0.0134
854.8703	-0.0518
855.0343	-0.1542
855.1983	-0.0836
855.3623	0.0297
855.5262	-0.0659
855.6901	-0.0258
855.854	-0.0019
856.0179	0.0114
856.1818	0.0978
856.3456	0.0356
856.5094	-0.1531
856.6732	-0.1087
856.837	-0.0105
857.0008	-0.0817
857.1645	-0.0972
857.3282	-0.1845
857.4919	-0.0305
857.6556	0.139
857.8192	-0.0722
857.9828	0.0777
858.1465	0.1161
858.31	-0.1448
858.4736	0.0151
858.6372	0.1031
858.8007	-0.2552
858.9642	0.0915
859.1277	0.0246
859.2911	-0.0265
859.4546	-0.0301
859.618	-0.4574
859.7814	-0.0905
859.9448	0.0461
860.1081	-0.1463
860.2715	0.347
860.4348	-0.0829
860.5981	0.0099
860.7614	0.1098
860.9246	0.0164
861.0879	-0.1696
861.2511	-0.1129
861.4143	-0.2433
861.5774	0.1311
861.7406	-0.2182
861.9037	-0.0229
862.0668	-0.2432
862.2299	-0.274
862.393	-0.6769
862.556	-0.0557
862.7191	-0.4214
862.8821	-0.2282
863.0451	0.1903
863.208	0.0045
863.371	-0.0697
863.5339	0.5781
863.6968	0.1386
863.8597	0.0009
864.0225	-0.1446
864.1854	-0.1751
864.3482	-0.0957
864.511	-0.0454
864.6737	0.0005
864.8365	0.048
864.9992	-0.4562
865.1619	-0
865.3246	-0.1933
865.4873	0.2286
865.65	-0.329
865.8126	0.2221
865.9752	-0.105
866.1378	-0.1237
866.3004	-0.0389
866.4629	0.1479
866.6254	-0.0618
866.7879	0.3108
866.9504	-0.1647
867.1129	-0
867.2753	0.0148
867.4377	0.2191
867.6001	-0.4855
867.7625	0.2485
867.9249	-0.2367
868.0872	0.1553
868.2495	0.0066
868.4118	-0.4316
868.5741	-0.7216
868.7363	-0.3419
868.8986	-0.3215
869.0608	-0.2093
869.223	0.0706
869.3851	-0
869.5473	-0
869.7094	-0.0145
869.8715	-0.3633
870.0336	-0.5441
870.1957	0.223
870.3577	-0.4284
870.5197	-0.0406
870.6817	-0.1806
870.8437	-0.1731
871.0057	-0
871.1676	-0
871.3295	-0.247
871.4914	-0
871.6533	-0.1702
871.8151	-0.1908
871.977	-0
872.1388	0.91
872.3006	-0
872.4623	-0
872.6241	0.4283
872.7858	0.0747
872.9475	-0.1034
873.1092	-0.1093
873.2709	-0
873.4325	-0.0112
873.5941	0.4369
873.7557	-0
873.9173	-0
874.0789	-0.2961
874.2404	-0
874.4019	0.4024
874.5634	-0.2663
874.7249	-0.2244
874.8863	-0.1068
875.0478	-0.0706
875.2092	-0
875.3706	-0
875.5319	-1.1198
875.6933	-0.3567
875.8546	-0.0992
876.0159	0.6057
876.1772	-0.1189
876.3385	-0
876.4997	0.295
876.6609	-0.2761
876.8221	-0.2645
876.9833	0.8626
877.1445	-0
877.3056	-0.0756
877.4667	-0.4193
877.6278	-0.1453
877.7889	-0.8708
877.9499	-0.3198
878.111	-0.0709
878.272	-0
878.433	-0
878.5939	-0
878.7549	-0
878.9158	-0.8064
879.0767	-0.1966
879.2376	-0
879.3984	-0
879.5593	0.1362
879.7201	0.195
879.8809	-0.6271
880.0417	-0.1219
880.2024	0.1467
880.3632	0.301
880.5239	0.8363
880.6846	-0
880.8452	-2.7029
881.0059	-0
881.1665	1.0894
881.3271	0.8193
881.4877	-0.4711
881.6483	-0.6593
881.8088	-0.2773
881.9693	0.4785
882.1298	0.4785
882.2903	0.4785
