Data from MonoPyChalIsomerACN10uM340nmA_Absorbance_14-14-17-064.txt Node
Date: Fri Jul 05 14:14:17 BST 2024
User: LASERRRRR
Spectrometer: FLMT03099
Trigger mode: 0
Integration Time (sec): 1.000000E-1
Scans to average: 1
Electric dark correction enabled: true
Nonlinearity correction enabled: false
Boxcar width: 0
XAxis mode: Wavelengths
Number of Pixels in Spectrum: 3648
>>>>>Begin Spectral Data<<<<<
179.3399	0.8479
179.5586	0.8479
179.7771	0.8479
179.9957	0.2797
180.2143	-0.2838
180.4329	1.2759
180.6514	-0
180.8699	-0
181.0885	-0.012
181.307	-0.0597
181.5255	-0
181.744	-0.666
181.9625	0.4873
182.181	-0.8773
182.3994	0.1858
182.6179	-0
182.8363	0.9651
183.0547	0.2793
183.2732	-0.0535
183.4916	0.0313
183.71	0.1048
183.9284	0.3844
184.1467	0.0387
184.3651	-0.0907
184.5835	-0.0713
184.8018	0.5138
185.0201	0.3899
185.2385	0.0254
185.4568	0.1769
185.6751	-0.0701
185.8934	0.474
186.1117	0.1391
186.3299	0.1155
186.5482	0.2216
186.7664	0.0659
186.9847	-0.1126
187.2029	0.106
187.4211	0.1961
187.6393	-0.0164
187.8575	0.091
188.0757	0.1378
188.2939	0.0506
188.512	0.1855
188.7302	0.9494
188.9483	0.3662
189.1665	0.3311
189.3846	-0.2397
189.6027	0.1907
189.8208	0.1997
190.0389	0.0391
190.257	0.2765
190.475	0.2441
190.6931	0.1176
190.9111	0.7243
191.1292	0.3645
191.3472	0.2482
191.5652	0.2837
191.7832	0.0969
192.0012	0.6894
192.2192	0.2246
192.4371	0.5098
192.6551	0.3966
192.873	0.372
193.091	0.5155
193.3089	0.7597
193.5268	0.638
193.7447	0.507
193.9626	0.5452
194.1805	0.3521
194.3984	0.8462
194.6162	0.4364
194.8341	0.6613
195.0519	0.5942
195.2697	1.0643
195.4875	0.6522
195.7054	0.7658
195.9231	0.577
196.1409	0.6771
196.3587	0.5683
196.5765	0.5938
196.7942	0.6995
197.012	0.6263
197.2297	0.459
197.4474	0.8038
197.6651	0.652
197.8828	0.5899
198.1005	1.0538
198.3182	0.5179
198.5358	0.7523
198.7535	0.6309
198.9711	0.5277
199.1888	0.6434
199.4064	0.7381
199.624	0.5782
199.8416	0.6791
200.0592	0.6129
200.2767	0.6337
200.4943	0.5975
200.7119	0.6842
200.9294	0.6658
201.1469	0.564
201.3645	0.6516
201.582	0.6449
201.7995	0.7286
202.017	0.5129
202.2344	0.5415
202.4519	0.682
202.6694	0.6357
202.8868	0.6485
203.1042	0.6511
203.3217	0.744
203.5391	0.6987
203.7565	0.5517
203.9739	0.6762
204.1913	0.6483
204.4086	0.6962
204.626	0.7134
204.8433	0.691
205.0607	0.5963
205.278	0.7102
205.4953	0.572
205.7126	0.7751
205.9299	0.6951
206.1472	0.7443
206.3644	0.6108
206.5817	0.6466
206.7989	0.6644
207.0162	0.6191
207.2334	0.6703
207.4506	0.5783
207.6678	0.6075
207.885	0.6214
208.1022	0.6119
208.3194	0.7407
208.5365	0.5916
208.7537	0.688
208.9708	0.6181
209.1879	0.6593
209.405	0.6337
209.6222	0.7044
209.8392	0.6688
210.0563	0.5939
210.2734	0.6364
210.4905	0.59
210.7075	0.7204
210.9245	0.6528
211.1416	0.6743
211.3586	0.6198
211.5756	0.6139
211.7926	0.6569
212.0096	0.592
212.2265	0.5167
212.4435	0.5494
212.6604	0.5985
212.8774	0.5436
213.0943	0.5761
213.3112	0.543
213.5281	0.4827
213.745	0.4807
213.9619	0.5056
214.1788	0.4785
214.3956	0.4694
214.6125	0.4762
214.8293	0.4383
215.0461	0.4602
215.2629	0.4591
215.4798	0.4711
215.6965	0.4229
215.9133	0.4311
216.1301	0.4252
216.3469	0.4287
216.5636	0.4309
216.7803	0.3791
216.9971	0.4185
217.2138	0.3764
217.4305	0.375
217.6472	0.3364
217.8639	0.3732
218.0805	0.3225
218.2972	0.3416
218.5138	0.3221
218.7305	0.3237
218.9471	0.3016
219.1637	0.3138
219.3803	0.2952
219.5969	0.2931
219.8135	0.2545
220.0301	0.2679
220.2466	0.2798
220.4632	0.2454
220.6797	0.235
220.8962	0.2416
221.1127	0.2472
221.3292	0.2415
221.5457	0.2485
221.7622	0.2415
221.9787	0.2488
222.1951	0.2549
222.4116	0.2647
222.628	0.2725
222.8444	0.28
223.0608	0.2497
223.2772	0.2485
223.4936	0.2487
223.71	0.2464
223.9264	0.278
224.1427	0.267
224.3591	0.2575
224.5754	0.2901
224.7917	0.2743
225.008	0.272
225.2243	0.2583
225.4406	0.3025
225.6569	0.2489
225.8732	0.2795
226.0894	0.2602
226.3057	0.2662
226.5219	0.2808
226.7381	0.2803
226.9543	0.2908
227.1705	0.286
227.3867	0.2782
227.6029	0.3154
227.8191	0.2925
228.0352	0.3012
228.2513	0.3016
228.4675	0.3044
228.6836	0.2965
228.8997	0.3021
229.1158	0.3098
229.3319	0.3184
229.548	0.336
229.764	0.3204
229.9801	0.3247
230.1961	0.33
230.4121	0.3502
230.6282	0.3387
230.8442	0.3164
231.0602	0.3426
231.2761	0.3402
231.4921	0.3465
231.7081	0.3587
231.924	0.3353
232.14	0.3591
232.3559	0.3196
232.5718	0.3624
232.7877	0.343
233.0036	0.3479
233.2195	0.3712
233.4353	0.3615
233.6512	0.3734
233.867	0.3754
234.0829	0.3572
234.2987	0.3646
234.5145	0.3916
234.7303	0.3537
234.9461	0.378
235.1619	0.3853
235.3776	0.3828
235.5934	0.3988
235.8091	0.378
236.0249	0.389
236.2406	0.3907
236.4563	0.3787
236.672	0.3867
236.8877	0.3984
237.1034	0.4123
237.319	0.3893
237.5347	0.3895
237.7503	0.4008
237.966	0.3987
238.1816	0.4139
238.3972	0.4103
238.6128	0.3997
238.8284	0.4078
239.0439	0.4045
239.2595	0.405
239.475	0.4038
239.6906	0.4167
239.9061	0.3851
240.1216	0.4049
240.3371	0.4048
240.5526	0.4078
240.7681	0.415
240.9836	0.3875
241.199	0.4012
241.4145	0.3709
241.6299	0.3773
241.8453	0.3793
242.0607	0.3977
242.2761	0.3646
242.4915	0.3622
242.7069	0.3502
242.9223	0.3449
243.1376	0.3368
243.353	0.3582
243.5683	0.3478
243.7836	0.3272
243.9989	0.333
244.2142	0.3105
244.4295	0.3128
244.6448	0.3137
244.86	0.2832
245.0753	0.2786
245.2905	0.2834
245.5057	0.2594
245.721	0.2945
245.9362	0.2641
246.1514	0.2842
246.3665	0.2536
246.5817	0.2468
246.7969	0.242
247.012	0.2293
247.2271	0.2265
247.4423	0.2466
247.6574	0.2447
247.8725	0.2324
248.0876	0.2168
248.3026	0.2161
248.5177	0.2069
248.7328	0.217
248.9478	0.2009
249.1628	0.2094
249.3779	0.2123
249.5929	0.1988
249.8079	0.2264
250.0228	0.1996
250.2378	0.2051
250.4528	0.2035
250.6677	0.1882
250.8827	0.1798
251.0976	0.1914
251.3125	0.1729
251.5274	0.1694
251.7423	0.1808
251.9572	0.1812
252.172	0.1888
252.3869	0.181
252.6017	0.1777
252.8166	0.1618
253.0314	0.1638
253.2462	0.1771
253.461	0.1717
253.6758	0.1646
253.8906	0.1678
254.1053	0.1639
254.3201	0.1788
254.5348	0.1756
254.7496	0.1727
254.9643	0.1671
255.179	0.1678
255.3937	0.1652
255.6083	0.1777
255.823	0.1754
256.0377	0.1692
256.2523	0.1574
256.467	0.1587
256.6816	0.1719
256.8962	0.1715
257.1108	0.1642
257.3254	0.1758
257.54	0.1563
257.7545	0.1771
257.9691	0.185
258.1836	0.1652
258.3981	0.1667
258.6127	0.1769
258.8272	0.1604
259.0417	0.1631
259.2561	0.1637
259.4706	0.1476
259.6851	0.1796
259.8995	0.1656
260.114	0.1573
260.3284	0.1517
260.5428	0.1474
260.7572	0.1613
260.9716	0.1637
261.186	0.1509
261.4003	0.1608
261.6147	0.1782
261.829	0.1533
262.0433	0.1592
262.2577	0.155
262.472	0.1717
262.6863	0.1583
262.9005	0.1545
263.1148	0.1709
263.3291	0.1362
263.5433	0.1621
263.7576	0.1687
263.9718	0.1519
264.186	0.1525
264.4002	0.1588
264.6144	0.1589
264.8286	0.1625
265.0427	0.1613
265.2569	0.1611
265.471	0.1514
265.6851	0.1473
265.8993	0.1491
266.1134	0.1546
266.3275	0.1661
266.5415	0.1474
266.7556	0.1656
266.9697	0.1713
267.1837	0.1579
267.3978	0.155
267.6118	0.1582
267.8258	0.1636
268.0398	0.1422
268.2538	0.1626
268.4677	0.1598
268.6817	0.1548
268.8957	0.1485
269.1096	0.1541
269.3235	0.1494
269.5374	0.1537
269.7514	0.1542
269.9652	0.1565
270.1791	0.1473
270.393	0.1432
270.6068	0.1504
270.8207	0.1385
271.0345	0.1328
271.2483	0.1439
271.4622	0.1396
271.676	0.1432
271.8897	0.1323
272.1035	0.1383
272.3173	0.1445
272.531	0.1362
272.7448	0.1412
272.9585	0.1275
273.1722	0.1231
273.3859	0.1343
273.5996	0.1291
273.8133	0.1415
274.0269	0.1293
274.2406	0.1246
274.4542	0.1361
274.6679	0.1263
274.8815	0.1282
275.0951	0.1468
275.3087	0.1387
275.5223	0.143
275.7358	0.1408
275.9494	0.1335
276.1629	0.133
276.3765	0.1212
276.59	0.1345
276.8035	0.1452
277.017	0.1444
277.2305	0.1311
277.444	0.1469
277.6574	0.138
277.8709	0.1437
278.0843	0.1269
278.2978	0.136
278.5112	0.1393
278.7246	0.1378
278.938	0.1396
279.1513	0.1455
279.3647	0.1551
279.5781	0.1436
279.7914	0.1459
280.0047	0.1447
280.2181	0.1402
280.4314	0.1552
280.6447	0.1522
280.8579	0.1393
281.0712	0.146
281.2845	0.1563
281.4977	0.1447
281.711	0.1399
281.9242	0.1453
282.1374	0.1473
282.3506	0.138
282.5638	0.1513
282.7769	0.1468
282.9901	0.1457
283.2033	0.1582
283.4164	0.1572
283.6295	0.1291
283.8426	0.1421
284.0557	0.1516
284.2688	0.1577
284.4819	0.1602
284.695	0.1494
284.908	0.1631
285.1211	0.158
285.3341	0.1498
285.5471	0.1679
285.7601	0.1663
285.9731	0.1532
286.1861	0.1507
286.3991	0.1598
286.612	0.1654
286.825	0.1585
287.0379	0.1673
287.2508	0.151
287.4637	0.1588
287.6766	0.1522
287.8895	0.1651
288.1024	0.1742
288.3152	0.1593
288.5281	0.1564
288.7409	0.1794
288.9538	0.1629
289.1666	0.1666
289.3794	0.1614
289.5922	0.1687
289.8049	0.1607
290.0177	0.1649
290.2304	0.163
290.4432	0.17
290.6559	0.1713
290.8686	0.1785
291.0813	0.1579
291.294	0.1645
291.5067	0.181
291.7194	0.1617
291.932	0.1784
292.1447	0.1711
292.3573	0.1683
292.5699	0.1595
292.7825	0.172
292.9951	0.1612
293.2077	0.1642
293.4203	0.1796
293.6328	0.1541
293.8454	0.1832
294.0579	0.1722
294.2704	0.171
294.4829	0.1674
294.6954	0.1759
294.9079	0.1617
295.1204	0.1711
295.3328	0.1666
295.5453	0.1794
295.7577	0.1673
295.9701	0.1676
296.1825	0.1776
296.3949	0.1596
296.6073	0.1654
296.8197	0.1672
297.0321	0.1727
297.2444	0.1598
297.4567	0.1694
297.6691	0.1715
297.8814	0.1699
298.0937	0.1581
298.306	0.1785
298.5182	0.1691
298.7305	0.1681
298.9428	0.157
299.155	0.1662
299.3672	0.1674
299.5794	0.1624
299.7916	0.1568
300.0038	0.176
300.216	0.1769
300.4282	0.1768
300.6403	0.1564
300.8525	0.1718
301.0646	0.1674
301.2767	0.1828
301.4888	0.1644
301.7009	0.1768
301.913	0.1617
302.125	0.1665
302.3371	0.1702
302.5491	0.1779
302.7612	0.1788
302.9732	0.1609
303.1852	0.1691
303.3972	0.1677
303.6092	0.1635
303.8211	0.1543
304.0331	0.1509
304.245	0.1571
304.457	0.1453
304.6689	0.16
304.8808	0.1644
305.0927	0.1608
305.3046	0.1537
305.5164	0.1656
305.7283	0.1502
305.9401	0.1588
306.152	0.1497
306.3638	0.1518
306.5756	0.1448
306.7874	0.1506
306.9992	0.1564
307.2109	0.1409
307.4227	0.1321
307.6344	0.1419
307.8462	0.1357
308.0579	0.1454
308.2696	0.1302
308.4813	0.1308
308.693	0.132
308.9046	0.1348
309.1163	0.1275
309.328	0.1237
309.5396	0.1194
309.7512	0.1239
309.9628	0.1217
310.1744	0.1177
310.386	0.113
310.5976	0.1094
310.8091	0.1206
311.0207	0.1177
311.2322	0.12
311.4437	0.1119
311.6552	0.1105
311.8667	0.1134
312.0782	0.1055
312.2897	0.0938
312.5012	0.1146
312.7126	0.0968
312.924	0.0984
313.1355	0.1123
313.3469	0.1035
313.5583	0.1022
313.7696	0.1059
313.981	0.1058
314.1924	0.0999
314.4037	0.0952
314.6151	0.1007
314.8264	0.0927
315.0377	0.0968
315.249	0.093
315.4603	0.0978
315.6716	0.094
315.8828	0.0848
316.0941	0.0889
316.3053	0.0924
316.5165	0.0944
316.7277	0.0936
316.9389	0.1022
317.1501	0.098
317.3613	0.1008
317.5724	0.0844
317.7836	0.0909
317.9947	0.0975
318.2058	0.0874
318.417	0.0828
318.6281	0.0831
318.8391	0.0881
319.0502	0.0902
319.2613	0.1013
319.4723	0.0939
319.6834	0.0952
319.8944	0.0805
320.1054	0.0978
320.3164	0.0931
320.5274	0.0933
320.7383	0.0901
320.9493	0.0825
321.1602	0.0987
321.3712	0.0752
321.5821	0.0909
321.793	0.0937
322.0039	0.0929
322.2148	0.0868
322.4257	0.0945
322.6365	0.1018
322.8474	0.0974
323.0582	0.0946
323.269	0.1
323.4798	0.1029
323.6906	0.0954
323.9014	0.0983
324.1122	0.1041
324.3229	0.0803
324.5337	0.0938
324.7444	0.0947
324.9551	0.1053
325.1658	0.0934
325.3765	0.1035
325.5872	0.0953
325.7979	0.0927
326.0085	0.0935
326.2192	0.1128
326.4298	0.0977
326.6404	0.0903
326.851	0.0921
327.0616	0.0963
327.2722	0.0989
327.4828	0.0939
327.6933	0.0936
327.9039	0.0994
328.1144	0.1066
328.3249	0.1083
328.5354	0.0846
328.7459	0.1021
328.9564	0.0905
329.1669	0.0879
329.3773	0.0942
329.5878	0.1028
329.7982	0.1031
330.0086	0.0923
330.219	0.099
330.4294	0.0892
330.6398	0.0999
330.8502	0.0915
331.0605	0.0987
331.2708	0.0956
331.4812	0.1017
331.6915	0.1023
331.9018	0.0977
332.1121	0.0995
332.3224	0.0998
332.5326	0.1065
332.7429	0.1042
332.9531	0.1142
333.1633	0.1043
333.3735	0.1049
333.5837	0.1035
333.7939	0.1023
334.0041	0.0953
334.2143	0.1091
334.4244	0.0977
334.6346	0.0886
334.8447	0.1193
335.0548	0.0979
335.2649	0.0974
335.475	0.117
335.685	0.095
335.8951	0.1176
336.1051	0.1064
336.3152	0.118
336.5252	0.0957
336.7352	0.1101
336.9452	0.1074
337.1552	0.1014
337.3652	0.0982
337.5751	0.0929
337.7851	0.1109
337.995	0.0924
338.2049	0.1107
338.4148	0.1096
338.6247	0.1076
338.8346	0.095
339.0445	0.0946
339.2543	0.0934
339.4642	0.1073
339.674	0.0917
339.8838	0.1007
340.0936	0.0944
340.3034	0.1178
340.5132	0.1118
340.7229	0.0996
340.9327	0.1119
341.1424	0.1058
341.3522	0.1119
341.5619	0.112
341.7716	0.1161
341.9813	0.1118
342.1909	0.1069
342.4006	0.118
342.6102	0.1243
342.8199	0.1152
343.0295	0.1173
343.2391	0.1101
343.4487	0.1178
343.6583	0.1072
343.8679	0.1182
344.0774	0.125
344.287	0.1269
344.4965	0.1158
344.706	0.1014
344.9155	0.1236
345.125	0.1138
345.3345	0.1239
345.544	0.112
345.7534	0.114
345.9629	0.1092
346.1723	0.121
346.3817	0.1229
346.5911	0.1292
346.8005	0.1267
347.0099	0.1215
347.2193	0.1251
347.4286	0.1206
347.638	0.1277
347.8473	0.1415
348.0566	0.1312
348.2659	0.1307
348.4752	0.1177
348.6845	0.1118
348.8937	0.125
349.103	0.1195
349.3122	0.1251
349.5214	0.126
349.7306	0.1298
349.9398	0.1444
350.149	0.1281
350.3582	0.1326
350.5674	0.1414
350.7765	0.1277
350.9856	0.1385
351.1948	0.1352
351.4039	0.118
351.613	0.1378
351.822	0.1417
352.0311	0.1481
352.2402	0.142
352.4492	0.1361
352.6582	0.1465
352.8672	0.1489
353.0762	0.1421
353.2852	0.1408
353.4942	0.1385
353.7032	0.1579
353.9121	0.1438
354.1211	0.1501
354.33	0.1412
354.5389	0.1564
354.7478	0.1564
354.9567	0.1458
355.1655	0.1309
355.3744	0.1411
355.5833	0.1464
355.7921	0.171
356.0009	0.1539
356.2097	0.1594
356.4185	0.163
356.6273	0.1514
356.8361	0.1596
357.0448	0.1508
357.2536	0.1595
357.4623	0.1498
357.671	0.1587
357.8797	0.1593
358.0884	0.159
358.2971	0.1642
358.5057	0.1597
358.7144	0.1634
358.923	0.1674
359.1316	0.1618
359.3402	0.1642
359.5488	0.1687
359.7574	0.1472
359.966	0.1748
360.1746	0.1666
360.3831	0.1856
360.5916	0.1597
360.8002	0.1765
361.0087	0.1861
361.2172	0.177
361.4256	0.1782
361.6341	0.1773
361.8426	0.1782
362.051	0.1717
362.2594	0.1805
362.4678	0.1787
362.6762	0.1993
362.8846	0.1869
363.093	0.1791
363.3014	0.1845
363.5097	0.1676
363.718	0.1857
363.9264	0.1989
364.1347	0.1857
364.343	0.1835
364.5513	0.2014
364.7595	0.2028
364.9678	0.1915
365.176	0.198
365.3842	0.1883
365.5925	0.202
365.8007	0.1912
366.0089	0.1888
366.217	0.1964
366.4252	0.2096
366.6333	0.2077
366.8415	0.2063
367.0496	0.1905
367.2577	0.2112
367.4658	0.2176
367.6739	0.2149
367.882	0.2136
368.09	0.1909
368.2981	0.211
368.5061	0.2059
368.7141	0.2133
368.9221	0.215
369.1301	0.2341
369.3381	0.2145
369.5461	0.2177
369.754	0.2274
369.962	0.2265
370.1699	0.2296
370.3778	0.2319
370.5857	0.2109
370.7936	0.2149
371.0015	0.2211
371.2093	0.2277
371.4172	0.2311
371.625	0.209
371.8328	0.224
372.0406	0.2251
372.2484	0.2387
372.4562	0.2315
372.664	0.2305
372.8717	0.234
373.0795	0.2115
373.2872	0.2235
373.4949	0.2339
373.7026	0.2457
373.9103	0.2276
374.118	0.2353
374.3256	0.2399
374.5333	0.2348
374.7409	0.2372
374.9485	0.2395
375.1561	0.2431
375.3637	0.2331
375.5713	0.2482
375.7789	0.2389
375.9864	0.2563
376.194	0.2435
376.4015	0.2578
376.609	0.2704
376.8165	0.2514
377.024	0.2355
377.2315	0.2226
377.4389	0.2642
377.6464	0.272
377.8538	0.2476
378.0612	0.2421
378.2686	0.2577
378.476	0.2568
378.6834	0.2547
378.8908	0.261
379.0981	0.2499
379.3055	0.2617
379.5128	0.2576
379.7201	0.2618
379.9274	0.2584
380.1347	0.2529
380.342	0.2767
380.5492	0.2549
380.7565	0.2734
380.9637	0.2646
381.1709	0.2569
381.3781	0.2887
381.5853	0.2694
381.7925	0.2737
381.9997	0.2774
382.2068	0.2601
382.4139	0.2757
382.6211	0.2604
382.8282	0.2753
383.0353	0.2714
383.2424	0.2665
383.4494	0.2782
383.6565	0.2762
383.8635	0.2729
384.0706	0.2731
384.2776	0.2701
384.4846	0.2576
384.6916	0.2782
384.8986	0.2653
385.1055	0.2681
385.3125	0.2732
385.5194	0.2399
385.7263	0.2768
385.9333	0.277
386.1402	0.2808
386.347	0.2662
386.5539	0.2536
386.7608	0.2854
386.9676	0.2658
387.1744	0.2634
387.3813	0.2554
387.5881	0.2736
387.7948	0.2714
388.0016	0.2704
388.2084	0.2604
388.4151	0.2634
388.6219	0.2889
388.8286	0.2526
389.0353	0.2764
389.242	0.2581
389.4487	0.2635
389.6553	0.2609
389.862	0.2381
390.0686	0.2819
390.2753	0.2729
390.4819	0.2535
390.6885	0.2594
390.8951	0.2605
391.1016	0.2496
391.3082	0.2383
391.5147	0.2557
391.7213	0.2695
391.9278	0.2426
392.1343	0.2498
392.3408	0.2543
392.5473	0.255
392.7537	0.2479
392.9602	0.2444
393.1666	0.2556
393.373	0.2561
393.5794	0.2483
393.7858	0.2559
393.9922	0.2344
394.1986	0.2554
394.4049	0.2397
394.6113	0.2439
394.8176	0.2326
395.0239	0.2411
395.2302	0.2435
395.4365	0.2548
395.6428	0.233
395.8491	0.2317
396.0553	0.2281
396.2615	0.2183
396.4678	0.2386
396.674	0.2213
396.8802	0.232
397.0863	0.2612
397.2925	0.2379
397.4987	0.2199
397.7048	0.2106
397.9109	0.2283
398.117	0.2327
398.3231	0.2339
398.5292	0.2214
398.7353	0.2564
398.9413	0.2286
399.1474	0.222
399.3534	0.2409
399.5594	0.2093
399.7654	0.2353
399.9714	0.2381
400.1774	0.2375
400.3833	0.2305
400.5893	0.2348
400.7952	0.2232
401.0011	0.2342
401.207	0.243
401.4129	0.216
401.6188	0.2285
401.8247	0.2428
402.0305	0.2279
402.2364	0.2194
402.4422	0.2319
402.648	0.2338
402.8538	0.2577
403.0596	0.227
403.2654	0.2445
403.4711	0.213
403.6768	0.2482
403.8826	0.2325
404.0883	0.2485
404.294	0.2353
404.4997	0.24
404.7054	0.2143
404.911	0.2157
405.1167	0.236
405.3223	0.2389
405.5279	0.2346
405.7335	0.2291
405.9391	0.2147
406.1447	0.2229
406.3502	0.2352
406.5558	0.2144
406.7613	0.2483
406.9668	0.2221
407.1724	0.223
407.3778	0.2387
407.5833	0.2207
407.7888	0.2285
407.9942	0.2322
408.1997	0.2319
408.4051	0.2298
408.6105	0.2288
408.8159	0.2112
409.0213	0.2226
409.2267	0.2467
409.432	0.2003
409.6374	0.2468
409.8427	0.2309
410.048	0.2376
410.2533	0.2409
410.4586	0.2362
410.6639	0.2061
410.8691	0.2198
411.0744	0.2317
411.2796	0.2025
411.4848	0.2194
411.69	0.209
411.8952	0.2379
412.1004	0.2296
412.3056	0.2317
412.5107	0.2188
412.7158	0.2263
412.921	0.238
413.1261	0.2307
413.3312	0.2207
413.5362	0.21
413.7413	0.2153
413.9464	0.2159
414.1514	0.2301
414.3564	0.2223
414.5614	0.2007
414.7664	0.2275
414.9714	0.2351
415.1764	0.2242
415.3813	0.2249
415.5863	0.2111
415.7912	0.2467
415.9961	0.2202
416.201	0.2106
416.4059	0.236
416.6108	0.2107
416.8156	0.2234
417.0205	0.2152
417.2253	0.2113
417.4301	0.2163
417.6349	0.194
417.8397	0.2145
418.0445	0.2248
418.2492	0.2254
418.454	0.2154
418.6587	0.2187
418.8634	0.2202
419.0681	0.1954
419.2728	0.2204
419.4775	0.2134
419.6822	0.1985
419.8868	0.1899
420.0915	0.2232
420.2961	0.2157
420.5007	0.1923
420.7053	0.2188
420.9099	0.215
421.1144	0.2066
421.319	0.1914
421.5235	0.2154
421.728	0.2122
421.9325	0.2237
422.137	0.2374
422.3415	0.2074
422.546	0.2007
422.7504	0.2152
422.9549	0.1993
423.1593	0.2244
423.3637	0.2053
423.5681	0.1894
423.7725	0.1771
423.9769	0.1997
424.1812	0.1916
424.3856	0.1844
424.5899	0.2024
424.7942	0.1992
424.9985	0.1929
425.2028	0.1867
425.4071	0.1947
425.6113	0.1841
425.8156	0.1888
426.0198	0.1753
426.224	0.1883
426.4282	0.1806
426.6324	0.1652
426.8366	0.1953
427.0407	0.1867
427.2449	0.168
427.449	0.1855
427.6531	0.1539
427.8572	0.182
428.0613	0.1716
428.2654	0.1897
428.4694	0.1607
428.6735	0.1708
428.8775	0.1914
429.0815	0.1679
429.2855	0.153
429.4895	0.1825
429.6935	0.1709
429.8975	0.1775
430.1014	0.1562
430.3053	0.1598
430.5093	0.1755
430.7132	0.1332
430.9171	0.1554
431.1209	0.1678
431.3248	0.1564
431.5286	0.1527
431.7325	0.1544
431.9363	0.1292
432.1401	0.165
432.3439	0.1488
432.5477	0.1301
432.7514	0.1373
432.9552	0.1505
433.1589	0.1227
433.3627	0.1345
433.5664	0.1337
433.7701	0.1298
433.9737	0.1253
434.1774	0.1276
434.3811	0.1335
434.5847	0.1286
434.7883	0.1268
434.9919	0.1289
435.1955	0.1207
435.3991	0.131
435.6027	0.1175
435.8062	0.1001
436.0098	0.1079
436.2133	0.1027
436.4168	0.0986
436.6203	0.1119
436.8238	0.1128
437.0272	0.1094
437.2307	0.0911
437.4341	0.1338
437.6375	0.1238
437.841	0.0992
438.0443	0.1007
438.2477	0.1004
438.4511	0.0844
438.6545	0.0979
438.8578	0.1024
439.0611	0.0991
439.2644	0.1008
439.4677	0.0668
439.671	0.0847
439.8743	0.0817
440.0775	0.0953
440.2808	0.082
440.484	0.0846
440.6872	0.076
440.8904	0.0678
441.0936	0.0918
441.2967	0.0692
441.4999	0.0843
441.703	0.0668
441.9062	0.0796
442.1093	0.0735
442.3124	0.0689
442.5155	0.0452
442.7185	0.0669
442.9216	0.0536
443.1246	0.0715
443.3276	0.0616
443.5307	0.055
443.7337	0.0646
443.9366	0.0729
444.1396	0.0724
444.3426	0.0651
444.5455	0.0641
444.7484	0.0481
444.9513	0.055
445.1542	0.0606
445.3571	0.0551
445.56	0.0628
445.7628	0.0421
445.9657	0.0461
446.1685	0.0465
446.3713	0.0477
446.5741	0.034
446.7769	0.0351
446.9797	0.0527
447.1824	0.0521
447.3852	0.0251
447.5879	0.0631
447.7906	0.0565
447.9933	0.0517
448.196	0.028
448.3986	0.045
448.6013	0.0266
448.8039	0.031
449.0066	0.0241
449.2092	0.0525
449.4118	0.0385
449.6143	0.0335
449.8169	0.0554
450.0195	0.0178
450.222	0.0081
450.4245	0.0212
450.627	0.0299
450.8295	0.0212
451.032	0.0353
451.2345	0.0298
451.4369	0.0271
451.6394	0.0316
451.8418	0.0049
452.0442	0.0128
452.2466	0.0301
452.449	0.015
452.6513	0.0294
452.8537	0.0163
453.056	0.0248
453.2583	0.0222
453.4607	0.0094
453.663	0.0113
453.8652	0.022
454.0675	-0.0002
454.2697	0.022
454.472	0.0014
454.6742	0.0248
454.8764	0.0193
455.0786	0.0182
455.2808	0.0135
455.4829	0.023
455.6851	0.0258
455.8872	0.0158
456.0893	0.0401
456.2915	0.0043
456.4935	0.0235
456.6956	0.0083
456.8977	0.0043
457.0997	0.0175
457.3018	-0.0009
457.5038	0.002
457.7058	0.0006
457.9078	0.0123
458.1098	0.019
458.3117	0.0151
458.5137	0.0113
458.7156	0.0117
458.9175	0.0049
459.1194	0.0166
459.3213	0.0025
459.5232	-0
459.725	0.0045
459.9269	-0.0049
460.1287	0.0083
460.3305	0.0042
460.5323	0.0028
460.7341	0.021
460.9359	0.0058
461.1376	0.0084
461.3394	-0.0106
461.5411	-0.0025
461.7428	0.0079
461.9445	0.0129
462.1462	0.0227
462.3479	0.0066
462.5495	-0
462.7512	0.0109
462.9528	-0.0021
463.1544	-0.0162
463.356	0.002
463.5576	0.0067
463.7592	-0.0062
463.9607	0.0052
464.1623	0.0229
464.3638	0.0107
464.5653	-0.0046
464.7668	0.0077
464.9683	0.0268
465.1697	-0.0009
465.3712	-0.0027
465.5726	-0.0045
465.7741	-0.0025
465.9755	-0.0153
466.1769	-0.0038
466.3782	-0.0056
466.5796	0.0098
466.7809	0.0156
466.9823	-0.0008
467.1836	0.0105
467.3849	-0.0062
467.5862	0.0143
467.7875	-0.0232
467.9887	0.0024
468.19	0.0048
468.3912	-0.0124
468.5924	-0.0096
468.7936	-0.0052
468.9948	-0.0151
469.196	0.006
469.3972	-0.0193
469.5983	-0.006
469.7994	-0.0111
470.0006	-0.0151
470.2017	-0.0124
470.4027	-0.0181
470.6038	-0.0012
470.8049	-0.0067
471.0059	-0.004
471.2069	-0.0087
471.408	0.0118
471.6089	-0.002
471.8099	-0.0004
472.0109	0.0021
472.2119	-0.0114
472.4128	-0.0016
472.6137	-0.0021
472.8146	-0.0166
473.0155	-0.018
473.2164	-0.0102
473.4173	0.0006
473.6181	0.0067
473.819	0.0208
474.0198	-0.0101
474.2206	-0.0182
474.4214	-0.0097
474.6222	-0.003
474.8229	-0.0045
475.0237	-0.0156
475.2244	-0.0118
475.4251	0.0053
475.6258	0.0012
475.8265	-0.0012
476.0272	0.0105
476.2278	0.0075
476.4285	-0.0027
476.6291	-0.0161
476.8297	-0.0084
477.0303	-0.0003
477.2309	0.0008
477.4315	-0.0253
477.632	-0.0017
477.8326	0.0057
478.0331	0.0122
478.2336	-0.0047
478.4341	-0.0143
478.6346	-0.0072
478.8351	-0.0062
479.0355	0.0167
479.236	-0.011
479.4364	0.0116
479.6368	-0.0096
479.8372	-0.0115
480.0376	0.0045
480.2379	-0.0076
480.4383	-0.005
480.6386	0.0021
480.8389	-0.0031
481.0392	-0.0089
481.2395	-0.0113
481.4398	0.0077
481.6401	0.0031
481.8403	-0.0111
482.0405	-0.0009
482.2408	-0.0026
482.441	-0.0013
482.6411	0.0015
482.8413	0.0031
483.0415	-0.0019
483.2416	-0.0037
483.4417	-0.0039
483.6419	-0.004
483.8419	-0.0014
484.042	0.009
484.2421	0.0021
484.4422	0.006
484.6422	-0.001
484.8422	-0.0097
485.0422	-0.0124
485.2422	0.0005
485.4422	-0.0082
485.6422	-0.0058
485.8421	-0.0064
486.042	-0.0114
486.242	-0.0018
486.4419	-0.0084
486.6417	-0.0087
486.8416	-0.0067
487.0415	-0.0074
487.2413	0.0002
487.4411	-0.0008
487.641	-0.0073
487.8408	0.0098
488.0405	-0.0036
488.2403	-0.0031
488.4401	-0.0007
488.6398	0.0013
488.8395	-0.0029
489.0392	0.0027
489.2389	0.0044
489.4386	0.0004
489.6383	0.0039
489.8379	0.0034
490.0376	-0.0026
490.2372	-0.0123
490.4368	-0.0139
490.6364	-0.0062
490.836	-0.0114
491.0355	-0.0049
491.2351	-0.0052
491.4346	-0.0145
491.6341	-0.0144
491.8336	-0.0048
492.0331	-0.0134
492.2326	-0.0097
492.432	0.0025
492.6315	0.0005
492.8309	-0.0065
493.0303	-0.0064
493.2297	-0.0151
493.4291	-0.0043
493.6284	0.0034
493.8278	-0.0027
494.0271	0.0109
494.2264	0.0022
494.4257	-0.0027
494.625	-0.0016
494.8243	-0.0146
495.0236	-0.0094
495.2228	-0.0006
495.422	-0.0045
495.6213	-0.0094
495.8205	-0.0024
496.0196	0.0015
496.2188	0.0001
496.418	-0.0011
496.6171	-0.0046
496.8162	-0.0141
497.0153	0.0085
497.2144	-0.0029
497.4135	0.0074
497.6126	-0.0119
497.8116	-0.0108
498.0107	-0.0083
498.2097	-0.0076
498.4087	-0.0084
498.6077	-0.0047
498.8067	-0.0119
499.0056	-0.0094
499.2046	-0.0113
499.4035	-0.0231
499.6024	-0.006
499.8013	-0.0021
500.0002	-0.0041
500.199	-0.0021
500.3979	-0.0142
500.5967	-0.0209
500.7956	-0.0033
500.9944	0.008
501.1932	-0.0174
501.3919	-0.0097
501.5907	-0.0144
501.7895	-0.008
501.9882	-0.0147
502.1869	-0.0054
502.3856	-0.0131
502.5843	-0.0157
502.783	-0.0042
502.9816	-0.007
503.1803	-0.0106
503.3789	-0.0193
503.5775	0.0067
503.7761	-0.0038
503.9747	-0.0027
504.1732	-0.0097
504.3718	-0.0043
504.5703	-0.01
504.7689	-0.0033
504.9674	-0.007
505.1658	-0.0103
505.3643	0.0022
505.5628	-0.0126
505.7612	-0.0124
505.9597	0.0034
506.1581	-0.0131
506.3565	0.0157
506.5549	-0.0077
506.7532	-0.0126
506.9516	-0.0047
507.1499	-0.0068
507.3482	-0.0156
507.5465	-0.0105
507.7448	-0.0113
507.9431	-0
508.1414	-0.0032
508.3396	0.0011
508.5379	-0.0042
508.7361	-0.01
508.9343	-0.0015
509.1325	-0.0065
509.3306	-0.002
509.5288	-0.0083
509.7269	-0.0055
509.9251	-0.0013
510.1232	-0.0078
510.3213	0.001
510.5193	0.0033
510.7174	-0.0102
510.9154	-0.0177
511.1135	-0.0141
511.3115	-0.0157
511.5095	-0.0036
511.7075	-0.0038
511.9055	-0.0033
512.1034	-0.018
512.3014	0.0043
512.4993	0.0026
512.6972	-0.0053
512.8951	-0.0075
513.093	-0.0036
513.2908	-0.0069
513.4887	0.0013
513.6865	-0.0143
513.8844	-0.0175
514.0822	-0.0021
514.2799	-0.0146
514.4777	-0.0186
514.6755	0.0012
514.8732	-0.0134
515.0709	-0.0117
515.2687	-0.0047
515.4664	0.0027
515.664	-0.0004
515.8617	-0.007
516.0594	-0.0248
516.257	-0.0003
516.4546	-0.0157
516.6522	-0.0097
516.8498	-0.0019
517.0474	0.0102
517.2449	0.0138
517.4425	-0.0184
517.64	-0.0041
517.8375	-0.0033
518.035	-0.0007
518.2325	-0.0093
518.43	-0.0095
518.6274	0.0022
518.8249	-0.016
519.0223	-0.0051
519.2197	-0.0093
519.4171	-0.0172
519.6145	-0.001
519.8118	-0.0047
520.0092	-0.005
520.2065	0.002
520.4038	-0.0167
520.6011	-0.0043
520.7984	-0.0066
520.9956	-0.0121
521.1929	-0.0133
521.3901	0.0031
521.5874	-0.0072
521.7846	-0.002
521.9818	0.0019
522.1789	-0.009
522.3761	-0.0075
522.5732	0.0004
522.7704	-0.0072
522.9675	0.003
523.1646	-0.0035
523.3617	-0.0034
523.5587	-0.0029
523.7558	-0.0082
523.9528	-0.0047
524.1498	0.0025
524.3468	-0.0111
524.5438	-0.0019
524.7408	-0.0024
524.9378	0.0018
525.1347	-0.0043
525.3316	0.0025
525.5285	-0.0112
525.7254	0.0027
525.9223	0.0033
526.1192	-0.0017
526.316	-0.0128
526.5129	-0.0075
526.7097	0.0014
526.9065	-0.0025
527.1033	-0.0067
527.3	-0.0003
527.4968	0.0026
527.6935	-0.0108
527.8903	-0.0047
528.087	-0.0108
528.2837	-0.0056
528.4804	-0.002
528.677	-0.0082
528.8737	0.0012
529.0703	-0.0068
529.2669	-0.0008
529.4635	-0.0057
529.6601	-0.0072
529.8567	-0.0035
530.0532	-0.0079
530.2498	0.0001
530.4463	-0.0002
530.6428	0.0012
530.8393	0.0068
531.0358	-0.0044
531.2322	0.0014
531.4287	0.0002
531.6251	-0.0178
531.8215	-0.0046
532.0179	0.0076
532.2143	0.0082
532.4107	-0.0027
532.607	-0.0027
532.8034	0.0076
532.9997	0.0027
533.196	-0.0003
533.3923	-0.0107
533.5886	0.0022
533.7848	0.0056
533.9811	-0.0046
534.1773	0.0026
534.3735	0.0018
534.5697	0.0008
534.7659	-0.0027
534.9621	0.0113
535.1582	0.0012
535.3544	-0.007
535.5505	-0.0084
535.7466	-0.0045
535.9427	0.0015
536.1387	-0.0193
536.3348	-0.0031
536.5308	0.0012
536.7269	-0.0156
536.9229	0.0063
537.1189	0.0059
537.3148	-0.0081
537.5108	-0.0156
537.7068	0.0016
537.9027	0.0012
538.0986	-0.0035
538.2945	-0.0054
538.4904	-0.0032
538.6863	-0.0169
538.8821	-0.0003
539.078	-0.0065
539.2738	-0.0044
539.4696	0.0002
539.6654	-0.0005
539.8611	0.0122
540.0569	-0.0027
540.2526	-0.0019
540.4484	0.0018
540.6441	0.0076
540.8398	0.0058
541.0355	0.007
541.2311	-0.0008
541.4268	-0.0087
541.6224	0.0068
541.818	0.0069
542.0136	-0.0008
542.2092	0.0081
542.4048	0.0013
542.6003	0.0026
542.7959	0.0002
542.9914	-0.0033
543.1869	-0.0024
543.3824	-0.0034
543.5779	-0.0036
543.7734	-0.0009
543.9688	0.0037
544.1642	0.008
544.3596	0.0057
544.555	-0.0015
544.7504	0.0034
544.9458	-0.0114
545.1411	-0.0104
545.3365	-0.0012
545.5318	-0.0042
545.7271	-0.0044
545.9224	-0.004
546.1177	-0.0003
546.3129	0.0007
546.5081	0.0007
546.7034	0.0028
546.8986	-0.011
547.0938	0.0094
547.289	0.002
547.4841	0.005
547.6793	-0.0003
547.8744	-0.0075
548.0695	-0
548.2646	-0.0039
548.4597	0.0085
548.6548	-0.0018
548.8498	-0
549.0448	-0.0004
549.2399	-0.0049
549.4349	0.004
549.6298	-0.0006
549.8248	0.0048
550.0198	-0.0009
550.2147	-0.0032
550.4096	-0.0042
550.6045	0.0026
550.7994	0.0067
550.9943	0.0037
551.1892	-0.0065
551.384	0.0032
551.5788	-0.0063
551.7737	-0.0021
551.9685	-0.0006
552.1632	0.0079
552.358	-0.0033
552.5528	-0.005
552.7475	-0.0025
552.9422	-0.0037
553.1369	-0.0025
553.3316	0.0062
553.5263	-0.0072
553.7209	0.0082
553.9156	-0.0042
554.1102	-0.0074
554.3048	-0.011
554.4994	0.0084
554.694	-0.007
554.8885	0.0008
555.0831	-0.0121
555.2776	0.0009
555.4721	-0.0057
555.6666	0.0016
555.8611	0.0093
556.0555	-0.0034
556.25	0.0014
556.4444	-0.0121
556.6388	-0.0012
556.8332	0.0038
557.0276	0.0057
557.222	0.0024
557.4163	-0.0014
557.6107	-0.0071
557.805	0.004
557.9993	-0.0017
558.1936	0.0084
558.3879	0.0018
558.5821	0.001
558.7764	-0.0025
558.9706	-0.0062
559.1648	0.0052
559.359	-0.0019
559.5532	-0.0029
559.7473	0.0042
559.9415	0.0019
560.1356	0.0016
560.3297	-0.0066
560.5238	-0.0058
560.7179	-0.0034
560.9119	0.0001
561.106	-0.0025
561.3	-0.0076
561.494	-0.0008
561.688	-0.0076
561.882	-0.0078
562.076	-0.0041
562.2699	0.0004
562.4639	-0.0015
562.6578	-0.0035
562.8517	-0.0021
563.0456	-0.0003
563.2395	0.002
563.4333	0.0028
563.6272	-0.0011
563.821	-0.002
564.0148	0.0007
564.2086	0.0003
564.4024	0.0012
564.5961	0.0037
564.7899	0.003
564.9836	-0.0002
565.1773	0.0033
565.371	0.0059
565.5647	0.0107
565.7584	0.0035
565.952	0.0019
566.1456	0.007
566.3393	-0.0017
566.5329	-0.0088
566.7264	0.0047
566.92	-0.0057
567.1136	0.0038
567.3071	0.0057
567.5006	0.0091
567.6941	0.0126
567.8876	-0.0034
568.0811	-0.0024
568.2745	0.0081
568.468	0.0103
568.6614	0.0046
568.8548	-0.0031
569.0482	0.0016
569.2416	0.0037
569.4349	-0.0004
569.6283	0.0096
569.8216	0.0057
570.0149	0.0004
570.2082	0.0034
570.4015	0.0045
570.5947	0.0039
570.788	0.0041
570.9812	0.0087
571.1744	-0.001
571.3676	-0.0035
571.5608	-0.0052
571.754	0.0072
571.9471	0.0079
572.1402	0.003
572.3333	-0.0106
572.5264	-0.0057
572.7195	-0.0013
572.9126	0.0011
573.1057	0.0017
573.2987	-0.0017
573.4917	0.0031
573.6847	-0.0052
573.8777	0.009
574.0707	0.0135
574.2636	-0.008
574.4566	-0.0064
574.6495	0.0042
574.8424	0.0022
575.0353	0.0021
575.2281	0.0117
575.421	0.0073
575.6138	0.0076
575.8067	-0.0003
575.9995	0.0017
576.1923	0.0079
576.385	0.0055
576.5778	0.0032
576.7706	0.0015
576.9633	0.0024
577.156	0.0114
577.3487	0.0024
577.5414	0.0004
577.734	-0.0025
577.9267	0.0013
578.1193	-0.0121
578.3119	-0.0038
578.5045	0.0028
578.6971	0.0054
578.8897	0.0105
579.0822	0.0067
579.2747	-0
579.4673	-0.0022
579.6598	-0.0057
579.8522	0.0007
580.0447	-0.0082
580.2372	-0.0034
580.4296	0.0053
580.622	-0.0005
580.8144	0.0054
581.0068	0.0014
581.1992	-0.0136
581.3915	-0.0062
581.5839	-0.0021
581.7762	-0.0054
581.9685	-0.0054
582.1608	0.0004
582.353	-0.0017
582.5453	-0.0003
582.7375	0.0011
582.9298	0.0051
583.122	0.0013
583.3142	-0.0018
583.5063	0.0019
583.6985	-0.0013
583.8906	0.0022
584.0827	-0.0019
584.2749	0.0012
584.4669	0.0052
584.659	0.0031
584.8511	-0.0021
585.0431	-0.003
585.2352	0.0054
585.4272	0.0054
585.6192	0.0089
585.8111	0.0027
586.0031	-0.0014
586.195	0.0005
586.387	0.0035
586.5789	0.0037
586.7708	0.0024
586.9627	0.0021
587.1545	-0.0028
587.3464	0.005
587.5382	0.0086
587.73	0.006
587.9218	0.0095
588.1136	0.0054
588.3053	0.0055
588.4971	0.0007
588.6888	-0.0071
588.8805	0.0043
589.0722	0.0149
589.2639	0.0005
589.4556	0.0073
589.6472	-0.0005
589.8389	-0.0053
590.0305	-0.0109
590.2221	-0.0011
590.4137	-0.0097
590.6052	0.0057
590.7968	-0.0003
590.9883	0.0055
591.1798	0
591.3713	0.0022
591.5628	0.0054
591.7543	0.0098
591.9458	-0.0063
592.1372	0.005
592.3286	0.0092
592.52	0.0087
592.7114	-0.0006
592.9028	0.0044
593.0941	-0.0035
593.2855	0.0047
593.4768	-0.0022
593.6681	-0.0014
593.8594	-0.0022
594.0506	-0.0038
594.2419	0.0042
594.4331	0.0031
594.6244	0.0001
594.8156	-0.0093
595.0067	0.0036
595.1979	0.0017
595.3891	-0.0035
595.5802	-0.0042
595.7713	-0.0047
595.9624	-0.0031
596.1535	0.0095
596.3446	0.0033
596.5357	0.0036
596.7267	0.0102
596.9177	0.0039
597.1087	-0.0053
597.2997	-0.0082
597.4907	0.0104
597.6817	0.0009
597.8726	0.0045
598.0635	-0.0007
598.2544	0.0026
598.4453	0.0014
598.6362	-0.0023
598.827	-0.0014
599.0179	0.0055
599.2087	0.0035
599.3995	-0.0025
599.5903	0.003
599.7811	-0
599.9718	-0.0004
600.1626	-0.0059
600.3533	-0.0007
600.544	0.0037
600.7347	0
600.9254	-0.0005
601.116	-0.0099
601.3067	0.0057
601.4973	0.0024
601.6879	0.0091
601.8785	0.0036
602.0691	0.008
602.2596	0.0111
602.4502	0.0064
602.6407	0.0084
602.8312	0.0069
603.0217	-0.0032
603.2122	0.0017
603.4027	0.0047
603.5931	0.0081
603.7835	-0.0002
603.9739	0.0034
604.1643	0.003
604.3547	-0.0013
604.5451	0.0008
604.7354	0.0082
604.9257	0.0041
605.116	-0.0016
605.3063	0.0102
605.4966	0.0059
605.6869	0
605.8771	0.0062
606.0673	0.0078
606.2575	0.0105
606.4477	0.0092
606.6379	0.0045
606.8281	0.0003
607.0182	0.0053
607.2083	0.0097
607.3985	-0.0087
607.5885	0.0017
607.7786	0.0035
607.9687	-0.0058
608.1587	0.0051
608.3488	-0.0002
608.5388	0.0025
608.7288	-0.0002
608.9187	0.0011
609.1087	0.0039
609.2986	-0.0063
609.4886	0.0053
609.6785	-0.0014
609.8684	0.0022
610.0582	0.0033
610.2481	0.0013
610.4379	0.0033
610.6278	-0.0048
610.8176	-0.0003
611.0074	0.0031
611.1971	-0.0018
611.3869	-0.0058
611.5766	-0.0079
611.7664	0.0022
611.9561	0.0012
612.1458	0.0047
612.3354	-0.0087
612.5251	0.0028
612.7147	0.0017
612.9044	0.0167
613.094	-0.0049
613.2836	0.0043
613.4731	0.0017
613.6627	-0.0034
613.8522	0.0062
614.0417	0.0043
614.2313	-0.0045
614.4207	0.0043
614.6102	0.0027
614.7997	0.0031
614.9891	-0.0017
615.1785	0.0038
615.3679	-0.0003
615.5573	0.0076
615.7467	-0.0013
615.9361	0.0022
616.1254	-0.0031
616.3147	0.0056
616.504	0.0103
616.6933	0.0057
616.8826	-0.0004
617.0718	0.01
617.2611	0.0043
617.4503	-0.0033
617.6395	0.0005
617.8287	-0.0023
618.0179	-0.0038
618.207	0.008
618.3961	0.0001
618.5853	0.0035
618.7744	0.0037
618.9634	0.0041
619.1525	0.0028
619.3416	0.0065
619.5306	0.0052
619.7196	0.0102
619.9086	-0.0053
620.0976	0.0061
620.2866	0.0016
620.4755	0.0052
620.6645	0.0079
620.8534	0.0023
621.0423	0.0071
621.2312	0.015
621.42	0.0108
621.6089	0.0063
621.7977	0.0071
621.9865	0.0017
622.1753	0.0059
622.3641	-0.0007
622.5529	0.0112
622.7416	0.0057
622.9303	-0.0041
623.1191	-0.001
623.3078	0.0024
623.4964	0.0033
623.6851	-0.0068
623.8737	0.0024
624.0624	0.0029
624.251	0.003
624.4396	-0.0025
624.6282	-0.0042
624.8167	0.0016
625.0053	0.0051
625.1938	0.0101
625.3823	0.0027
625.5708	0.0055
625.7593	-0.0037
625.9477	-0.0014
626.1362	0.0017
626.3246	0.0028
626.513	0.0042
626.7014	0.0088
626.8898	0.0059
627.0781	0.007
627.2665	0.0039
627.4548	0.0003
627.6431	0.0137
627.8314	0.0036
628.0197	0.0116
628.2079	0.002
628.3962	-0.0023
628.5844	0
628.7726	0.007
628.9608	0.0083
629.1489	-0.0009
629.3371	0.0032
629.5252	0.0011
629.7134	0.0164
629.9015	0.0027
630.0895	0.0052
630.2776	0.0049
630.4657	0.0035
630.6537	-0.0006
630.8417	0.0004
631.0297	0.0011
631.2177	-0.0039
631.4057	-0.0031
631.5936	0.003
631.7815	0.0006
631.9695	0.0011
632.1574	0.0119
632.3452	0.0128
632.5331	0.0013
632.7209	0.0033
632.9088	0.0131
633.0966	0.0138
633.2844	-0.0002
633.4722	0.0029
633.6599	0.0089
633.8477	0.0108
634.0354	0.0109
634.2231	0.0021
634.4108	0.0113
634.5985	0.0123
634.7861	0.0062
634.9738	-0.0028
635.1614	0.0086
635.349	0.0099
635.5366	-0.0007
635.7242	-0.003
635.9117	0.0081
636.0993	-0.0042
636.2868	-0.0026
636.4743	-0.0025
636.6618	0.0094
636.8492	0.0052
637.0367	0.0059
637.2241	-0.011
637.4115	0.0005
637.5989	0.0031
637.7863	0.0033
637.9737	0.002
638.161	0.0031
638.3484	0.0013
638.5357	0.0004
638.723	0.0047
638.9103	-0.0018
639.0975	0.0038
639.2848	0.0081
639.472	0.0028
639.6592	0.011
639.8464	0.0171
640.0336	0.0156
640.2208	0.0021
640.4079	-0.0012
640.595	0.003
640.7821	0.0035
640.9692	0.0063
641.1563	0.0103
641.3434	0.0098
641.5304	0.0016
641.7174	0.0056
641.9044	0.0037
642.0914	0.0072
642.2784	0.0093
642.4653	0.0127
642.6523	0.0121
642.8392	0.0029
643.0261	0.0045
643.213	0.0045
643.3999	0.0028
643.5867	-0.0031
643.7735	0.0118
643.9604	-0.0009
644.1472	0.006
644.3339	0.0115
644.5207	0.0056
644.7075	0.0079
644.8942	0.0098
645.0809	0.0094
645.2676	0.0157
645.4543	0.0005
645.6409	0.0076
645.8276	0.003
646.0142	0.0094
646.2008	0.0001
646.3874	-0.0014
646.574	0.0019
646.7605	-0.0043
646.9471	-0.0012
647.1336	0.0027
647.3201	0.0045
647.5066	0.0052
647.6931	0.0115
647.8795	0.0042
648.0659	0.014
648.2524	0.0115
648.4388	0.0015
648.6252	0.0094
648.8115	0.0035
648.9979	0.0066
649.1842	0.0093
649.3705	0.0071
649.5568	0.004
649.7431	0.0133
649.9294	0.0046
650.1156	0.0089
650.3018	-0.0023
650.488	0.0075
650.6742	0.0043
650.8604	0.0082
651.0466	-0.0006
651.2327	-0.001
651.4188	0.0034
651.6049	-0.0073
651.791	-0.0014
651.9771	0.0035
652.1632	0.0057
652.3492	0.003
652.5352	0.0051
652.7212	-0.0019
652.9072	0.0057
653.0932	0.0057
653.2791	0.0013
653.465	0.0065
653.651	-0.0007
653.8369	0.0079
654.0227	0.0023
654.2086	0.0094
654.3944	0.0114
654.5803	0.0012
654.7661	0.0022
654.9519	0.0027
655.1377	-0.0029
655.3234	-0.0005
655.5092	0.0037
655.6949	-0.0054
655.8806	-0.004
656.0663	0.0011
656.2519	0.0039
656.4376	-0.0023
656.6232	0.0115
656.8088	0.0018
656.9945	0.0027
657.18	0.0051
657.3656	0.0004
657.5511	0.0018
657.7367	0.0025
657.9222	0.0049
658.1077	0.0032
658.2932	0.0064
658.4786	-0.0023
658.6641	0.0034
658.8495	0.0014
659.0349	0.0018
659.2203	0.0098
659.4057	0.0053
659.591	0.0086
659.7764	-0.0037
659.9617	0.0105
660.147	0.0046
660.3323	0.0116
660.5176	0.0112
660.7028	0.0104
660.888	0.0015
661.0733	0.0048
661.2585	-0.0063
661.4436	0.0023
661.6288	0.0025
661.8139	0.0014
661.9991	0.0098
662.1842	0.0019
662.3693	-0.0005
662.5544	0.0029
662.7394	0.0032
662.9245	-0.0044
663.1095	0.0042
663.2945	0.0014
663.4795	0.0073
663.6644	0.0096
663.8494	0.0028
664.0343	0.0065
664.2193	-0.001
664.4042	0.0029
664.589	-0.0014
664.7739	0.0029
664.9587	-0.004
665.1436	-0.0034
665.3284	0.0046
665.5132	-0.0008
665.698	0.0012
665.8827	0.0059
666.0675	0.0038
666.2522	-0.0064
666.4369	0.0046
666.6216	0.0108
666.8063	0.0067
666.9909	0.0051
667.1756	0.0004
667.3602	0.0088
667.5448	0.0051
667.7294	0.014
667.9139	0.0121
668.0985	0.0194
668.283	0.0048
668.4675	0.007
668.652	0.0042
668.8365	0.0062
669.0209	0.0109
669.2054	0.0067
669.3898	0.0063
669.5742	0.0075
669.7586	0.0073
669.943	0.0072
670.1273	0.0092
670.3117	0.0122
670.496	0.0072
670.6803	0.0118
670.8646	0.005
671.0488	0.0009
671.2331	0.0101
671.4173	0.0105
671.6015	0.0035
671.7857	0.0121
671.9699	0.0107
672.1541	0.0096
672.3382	0.0067
672.5223	0.0114
672.7064	0.0042
672.8905	0.0097
673.0746	0.0064
673.2587	0.0019
673.4427	0.0061
673.6267	0.0119
673.8107	0.0086
673.9947	0.0077
674.1787	0.008
674.3626	0.0004
674.5465	-0.0014
674.7304	0.0051
674.9143	0.0102
675.0982	0.0119
675.2821	-0.0025
675.4659	0.0089
675.6497	0.003
675.8335	0.0004
676.0173	0.0063
676.2011	0.0089
676.3849	0.0011
676.5686	-0.0009
676.7523	-0.0023
676.936	-0.0077
677.1197	-0.0014
677.3034	0.0044
677.487	-0.002
677.6706	-0.0009
677.8542	0.004
678.0378	0.0046
678.2214	0.0062
678.405	0.0049
678.5885	-0.0028
678.772	0.0075
678.9555	0.0017
679.139	0.0032
679.3225	0.0027
679.5059	0.0012
679.6894	0.0074
679.8728	0.0009
680.0562	-0.0026
680.2395	-0.0058
680.4229	0.0003
680.6062	0.011
680.7896	-0.0012
680.9729	-0.0044
681.1562	0.0081
681.3394	0.002
681.5227	0.0033
681.7059	0.0021
681.8891	0.0055
682.0723	0.011
682.2555	0.0051
682.4387	-0.001
682.6218	0.0047
682.805	0.0068
682.9881	0.0073
683.1712	-0.0045
683.3542	0.0042
683.5373	0.0109
683.7203	-0.0049
683.9034	0
684.0864	-0.0098
684.2694	-0.003
684.4523	0.0037
684.6353	-0.0009
684.8182	0.0004
685.0011	-0.003
685.184	0.0056
685.3669	0.0012
685.5498	0.002
685.7326	-0.0001
685.9154	-0.005
686.0982	-0.0001
686.281	0.0094
686.4638	0.0017
686.6465	-0.0032
686.8293	-0.0032
687.012	0.0023
687.1947	-0.0091
687.3774	0.0045
687.56	-0.0043
687.7427	0.0048
687.9253	-0.002
688.1079	0.0005
688.2905	0.0101
688.4731	0.0012
688.6556	0.0085
688.8382	0.006
689.0207	0.0034
689.2032	-0.0011
689.3857	-0.0035
689.5681	0.0035
689.7506	0.0018
689.933	-0.0021
690.1154	0.0036
690.2978	0.0062
690.4802	0.0141
690.6626	-0.0038
690.8449	0.0028
691.0272	0.0112
691.2095	-0.0011
691.3918	0.0032
691.5741	0.0021
691.7563	0.0021
691.9386	0.0031
692.1208	0.0028
692.303	0.0045
692.4852	0.0004
692.6673	0.0042
692.8495	0.0015
693.0316	0.0102
693.2137	-0.0051
693.3958	0.0027
693.5778	0.0078
693.7599	0.0003
693.9419	-0.0054
694.1239	-0.0021
694.3059	0.0014
694.4879	0.0085
694.6699	0.0106
694.8518	-0.0019
695.0337	-0.0043
695.2157	0.0043
695.3975	-0.0014
695.5794	0.0086
695.7613	0.0033
695.9431	-0.0008
696.1249	0.0078
696.3067	0.0117
696.4885	0.011
696.6703	0.0042
696.852	0.0138
697.0337	0.0053
697.2154	0.0019
697.3971	0.0124
697.5788	0.0099
697.7605	-0.0014
697.9421	0.0044
698.1237	0.0006
698.3053	-0.0003
698.4869	-0.003
698.6685	-0.0054
698.85	0.0059
699.0315	0.0148
699.213	0.0087
699.3945	0.0058
699.576	0.01
699.7575	0.0133
699.9389	0.0094
700.1203	-0.0063
700.3017	-0.0123
700.4831	-0.0047
700.6645	-0.002
700.8458	0.0039
701.0271	0.0003
701.2084	0.0113
701.3897	-0.0011
701.571	0.0039
701.7523	-0.0095
701.9335	0.0006
702.1147	0.0001
702.2959	0.0014
702.4771	-0.0009
702.6583	0.0023
702.8394	0.0043
703.0205	0.005
703.2016	-0.0045
703.3827	0.0021
703.5638	0.0118
703.7449	-0.0001
703.9259	0.0142
704.1069	-0.0021
704.2879	0.0003
704.4689	-0.0025
704.6499	0.0018
704.8308	-0.0008
705.0117	0.0034
705.1927	0.0053
705.3735	0.0053
705.5544	-0.0018
705.7353	0.0044
705.9161	-0.0054
706.0969	-0.0012
706.2777	-0.0033
706.4585	-0.0052
706.6393	-0.003
706.82	0.002
707.0007	0.0021
707.1815	0.0066
707.3621	0.0103
707.5428	0.0016
707.7235	0.0087
707.9041	0.0103
708.0847	0.0039
708.2653	0.0005
708.4459	-0.0098
708.6265	0.0055
708.807	-0.0024
708.9875	-0.0057
709.168	-0.004
709.3485	-0.0036
709.529	0.0018
709.7095	-0.0071
709.8899	-0.0023
710.0703	-0.0054
710.2507	-0.0064
710.4311	-0.0032
710.6115	-0.0101
710.7918	-0.0032
710.9721	-0.0006
711.1524	-0.0128
711.3327	-0.0002
711.513	0.0046
711.6932	-0.0012
711.8735	0.0112
712.0537	0.0081
712.2339	0.0038
712.4141	0.0027
712.5942	-0.0019
712.7744	0.0023
712.9545	-0.0055
713.1346	-0.0079
713.3147	-0.0014
713.4947	-0.0048
713.6748	0.0064
713.8548	0.0086
714.0348	0.004
714.2148	0.0091
714.3948	0.0082
714.5748	-0.0036
714.7547	0.0101
714.9346	0.0077
715.1145	-0.001
715.2944	-0.0023
715.4743	0.008
715.6541	0.0026
715.834	0.0098
716.0138	-0.0006
716.1936	-0.0086
716.3733	0.0011
716.5531	0.0197
716.7328	0.0014
716.9126	0.0023
717.0923	0.0055
717.2719	-0.0001
717.4516	0.0071
717.6312	0.0066
717.8109	-0.0017
717.9905	0.0001
718.1701	-0.0103
718.3496	-0.0099
718.5292	0.0103
718.7087	-0.0044
718.8882	0.0005
719.0677	-0.0034
719.2472	-0.0005
719.4267	0.0073
719.6061	-0.0018
719.7856	0.0019
719.965	0.0085
720.1443	-0.0013
720.3237	0.0045
720.5031	0.0005
720.6824	0.0077
720.8617	0.0041
721.041	-0.0016
721.2203	0.0121
721.3995	-0.0029
721.5788	0.0012
721.758	0.0106
721.9372	0.0033
722.1164	0.0004
722.2956	0.009
722.4747	0.0018
722.6538	0.0097
722.8329	0.0174
723.012	0.001
723.1911	0.0034
723.3702	0.0008
723.5492	0.0097
723.7282	0.0015
723.9072	-0.0007
724.0862	-0.012
724.2652	-0.0003
724.4441	-0.0015
724.623	0.0046
724.8019	-0.0027
724.9808	-0.0031
725.1597	-0.0122
725.3385	0.0088
725.5174	-0.0056
725.6962	-0.002
725.875	0.0031
726.0538	0.0076
726.2325	0.0029
726.4112	0.0077
726.59	-0.001
726.7687	-0.0029
726.9474	-0.0054
727.126	0.0007
727.3047	-0.0082
727.4833	0.0028
727.6619	-0.0015
727.8405	-0.0118
728.0191	-0.0062
728.1976	0.0015
728.3762	0.004
728.5547	0.0075
728.7332	-0.0045
728.9116	0.0056
729.0901	0.0027
729.2686	0.0033
729.447	-0.002
729.6254	0.0032
729.8038	0.0047
729.9821	-0.0061
730.1605	-0.0037
730.3388	0.0041
730.5171	0.0019
730.6954	-0.0083
730.8737	-0.0019
731.0519	0.0033
731.2302	0.0059
731.4084	0.0099
731.5866	0.0069
731.7648	-0.0005
731.9429	0.0065
732.1211	-0.0039
732.2992	0.0018
732.4773	-0.0054
732.6554	0.0072
732.8335	0.0058
733.0115	0.0126
733.1896	0.0108
733.3676	-0.0036
733.5456	0.0016
733.7235	0.0004
733.9015	-0.0022
734.0794	-0.0003
734.2574	-0.0091
734.4353	-0.0011
734.6131	0.0073
734.791	0.0013
734.9689	0.0002
735.1467	0.002
735.3245	-0.0064
735.5023	-0.0058
735.68	0.0029
735.8578	0.0034
736.0355	-0.0136
736.2132	-0.0063
736.3909	-0.0056
736.5686	0.002
736.7463	0.0093
736.9239	-0.0048
737.1015	0.0021
737.2791	0.0116
737.4567	0.008
737.6343	-0
737.8118	0.0066
737.9894	0.0114
738.1669	0.0009
738.3444	-0.0044
738.5218	0.0083
738.6993	-0.0001
738.8767	0.0022
739.0541	0.0157
739.2315	-0.0047
739.4089	0.0062
739.5863	0.0077
739.7636	0.003
739.9409	0.0026
740.1182	0.0042
740.2955	0.0066
740.4728	-0.0027
740.65	-0.0015
740.8272	0.0003
741.0044	-0.0031
741.1816	0.0037
741.3588	0.0017
741.5359	0.0117
741.7131	-0.0109
741.8902	-0.001
742.0673	0.0033
742.2444	-0.0099
742.4214	-0.0032
742.5985	-0.004
742.7755	0.0017
742.9525	-0.0127
743.1295	0.0069
743.3064	-0.008
743.4834	0.004
743.6603	-0.0022
743.8372	-0.0046
744.0141	0.0042
744.191	0.0087
744.3678	-0.0046
744.5446	0.0039
744.7215	0.0036
744.8982	0.0024
745.075	-0.0032
745.2518	0.0084
745.4285	-0.0034
745.6052	-0.0052
745.7819	0.0012
745.9586	-0.0012
746.1353	0.0033
746.3119	-0.0021
746.4885	-0.0039
746.6651	-0.0047
746.8417	-0.003
747.0183	-0.0018
747.1948	-0.0009
747.3714	0.0033
747.5479	0.0001
747.7244	-0.0049
747.9008	0.0049
748.0773	0.0032
748.2537	-0.0025
748.4301	-0.0107
748.6065	0.0027
748.7829	0.008
748.9593	-0.0068
749.1356	0.0012
749.3119	0.0074
749.4882	-0.012
749.6645	0.0009
749.8408	-0.0015
750.017	-0.0021
750.1933	0.0025
750.3695	-0.0019
750.5457	-0.0023
750.7218	-0.0033
750.898	-0.0013
751.0741	-0.0023
751.2502	-0.0072
751.4263	-0.0062
751.6024	-0.0041
751.7784	-0.0083
751.9545	-0.011
752.1305	0.0092
752.3065	-0.0094
752.4825	0.0004
752.6584	-0.0057
752.8344	-0.0017
753.0103	-0.0045
753.1862	-0.0058
753.3621	-0.0052
753.5379	-0.0088
753.7138	-0.0009
753.8896	0.0048
754.0654	0.0019
754.2412	0.0013
754.417	0.0063
754.5927	-0.0059
754.7685	0.0002
754.9442	-0.0027
755.1199	0.0072
755.2956	-0.0036
755.4712	0.0118
755.6469	-0.0059
755.8225	-0.0058
755.9981	-0.0056
756.1736	-0.0013
756.3492	0.0008
756.5248	-0.0085
756.7003	-0.0031
756.8758	0.0095
757.0513	-0.0087
757.2267	-0.0026
757.4022	0.0095
757.5776	-0.0053
757.753	-0.0022
757.9284	-0.0045
758.1038	0.0047
758.2791	0.003
758.4545	-0.0144
758.6298	0.0001
758.8051	0.0009
758.9803	-0.0021
759.1556	0.0064
759.3308	-0.0021
759.506	0.0114
759.6812	0.0029
759.8564	0.0076
760.0316	0.006
760.2067	0.0089
760.3819	0.0056
760.557	0.0158
760.732	0.0078
760.9071	-0.0098
761.0821	0.0047
761.2572	0.0054
761.4322	-0.006
761.6072	0.0054
761.7821	-0.0033
761.9571	0.008
762.132	0.0023
762.3069	-0.0092
762.4818	-0.0014
762.6567	0.0051
762.8316	-0.0046
763.0064	0.0033
763.1812	0.002
763.356	-0.0027
763.5308	0.0019
763.7055	0.0056
763.8803	-0.0056
764.055	0.0051
764.2297	-0.0007
764.4044	-0.0051
764.579	0.0083
764.7537	-0.0028
764.9283	0.0065
765.1029	0.0063
765.2775	-0.0012
765.4521	-0.0028
765.6266	-0.0055
765.8011	-0.0007
765.9756	-0.012
766.1501	0.0026
766.3246	-0.0107
766.4991	-0.0106
766.6735	0.0017
766.8479	-0.0153
767.0223	0.0163
767.1967	0.0032
767.371	0.0044
767.5454	0.0019
767.7197	0.0006
767.894	0.0023
768.0683	-0.0089
768.2425	0.0019
768.4168	0.0007
768.591	0.0019
768.7652	-0.0012
768.9394	0.0021
769.1135	0.0069
769.2877	0.0073
769.4618	0.0113
769.6359	-0.0019
769.81	-0.0064
769.984	-0.0085
770.1581	-0.003
770.3321	-0.0016
770.5061	-0.0069
770.6801	-0.0082
770.8541	-0.0077
771.028	0.0218
771.202	0.0016
771.3759	0.0074
771.5498	0.0016
771.7236	0.0046
771.8975	0.0098
772.0713	0.0066
772.2451	-0.0004
772.4189	0.0131
772.5927	0.0048
772.7665	0.0017
772.9402	0.0049
773.1139	0.0099
773.2876	-0.0025
773.4613	0.0051
773.635	-0.0015
773.8086	-0.0034
773.9822	-0.0009
774.1558	0.0002
774.3294	-0.0109
774.503	-0.0078
774.6765	-0.0144
774.8501	0.0078
775.0236	0.0006
775.1971	-0.0004
775.3705	-0.0105
775.544	0.0077
775.7174	-0.0009
775.8908	0.0064
776.0642	-0.0046
776.2376	0.0097
776.4109	0.0073
776.5843	0.013
776.7576	0.018
776.9309	0.0136
777.1041	0.011
777.2774	0.0166
777.4506	0.0054
777.6238	-0.0044
777.797	0.0107
777.9702	0.0027
778.1434	0.0058
778.3165	0.0033
778.4896	-0.004
778.6627	0.0123
778.8358	0.0032
779.0089	-0.0017
779.1819	-0.0049
779.3549	0.0151
779.5279	0.0221
779.7009	0.0043
779.8739	0.0088
780.0468	0.0026
780.2197	0.006
780.3926	-0.0001
780.5655	0.0112
780.7384	-0.0001
780.9112	0.0073
781.0841	0.0077
781.2569	0.0018
781.4297	0.0081
781.6024	0.0152
781.7752	0.015
781.9479	0.0104
782.1206	0.0121
782.2933	-0.0137
782.466	0.0137
782.6386	0.0095
782.8113	-0.0077
782.9839	-0.0008
783.1565	0.0188
783.329	0.0051
783.5016	0.0055
783.6741	0.0139
783.8466	0.0035
784.0191	0.0122
784.1916	0.0085
784.3641	0.0098
784.5365	0.0088
784.7089	0.0051
784.8813	-0.0008
785.0537	0.0074
785.2261	0.0049
785.3984	-0.0055
785.5707	-0.0019
785.743	0.0049
785.9153	0.0077
786.0876	-0.0022
786.2598	-0.0054
786.432	-0.0078
786.6042	0.0258
786.7764	-0.0073
786.9486	0.0032
787.1207	-0.0063
787.2928	0.016
787.4649	0.01
787.637	0.0098
787.8091	-0.0055
787.9811	-0.0081
788.1532	-0.0048
788.3252	0.0117
788.4972	-0.0107
788.6691	-0.002
788.8411	0.0054
789.013	-0.0154
789.1849	0.0072
789.3568	0.0027
789.5287	-0.0015
789.7005	-0.0015
789.8723	0.0052
790.0442	0.0185
790.2159	0.0106
790.3877	-0.0026
790.5595	-0.0025
790.7312	0.0056
790.9029	0.0048
791.0746	-0.0058
791.2463	0.0004
791.4179	-0.0005
791.5896	-0.0076
791.7612	0.0228
791.9328	0.0108
792.1044	-0.005
792.2759	-0.0209
792.4474	-0.0075
792.619	0.0183
792.7905	0.0003
792.9619	-0.0113
793.1334	0.0018
793.3048	0.0089
793.4762	0.0129
793.6476	0.0094
793.819	-0.0102
793.9904	0.0051
794.1617	0.0043
794.333	0.0042
794.5043	-0.0122
794.6756	0.0057
794.8469	-0.0181
795.0181	0.0001
795.1893	-0.0084
795.3605	0.0083
795.5317	0.0005
795.7029	-0.0016
795.874	-0.0014
796.0452	-0.0187
796.2163	-0.003
796.3873	-0.0002
796.5584	0.0126
796.7294	-0.0085
796.9005	0.0017
797.0715	-0.0012
797.2425	-0.0164
797.4134	-0.0106
797.5844	0.0032
797.7553	-0.0128
797.9262	0.0022
798.0971	-0.0098
798.2679	-0.0165
798.4388	-0.0177
798.6096	-0.001
798.7804	-0.0028
798.9512	-0.0006
799.122	-0.0047
799.2927	0.0017
799.4635	0.0024
799.6342	-0.0258
799.8049	-0.0054
799.9755	0.0021
800.1462	-0.0004
800.3168	0.0054
800.4874	0.0093
800.658	0.0236
800.8286	0.0049
800.9991	0.0093
801.1696	0.0163
801.3402	0.0085
801.5106	-0.0075
801.6811	-0.0063
801.8516	0.0032
802.022	0.0099
802.1924	0.0024
802.3628	0.0022
802.5332	0.0103
802.7035	0.0082
802.8739	-0.0111
803.0442	-0.0246
803.2145	0.0022
803.3847	-0.015
803.555	-0.0005
803.7252	-0.0204
803.8954	-0.0142
804.0656	-0.0117
804.2358	-0.0082
804.4059	0.0044
804.5761	0.0131
804.7462	-0.0106
804.9163	-0.0093
805.0864	-0.0194
805.2564	-0.0032
805.4264	-0.0003
805.5965	-0.0267
805.7665	-0.0005
805.9364	-0.0139
806.1064	0.0504
806.2763	0.0036
806.4462	0.0145
806.6161	0.0015
806.786	0.0159
806.9559	-0.0007
807.1257	-0.001
807.2955	0.0045
807.4653	-0.0025
807.6351	-0.0154
807.8048	-0.0143
807.9746	0.0148
808.1443	0.0123
808.314	0.0067
808.4837	-0.0005
808.6533	0.0172
808.8229	0.0162
808.9926	0.0034
809.1622	0.005
809.3317	0.0099
809.5013	-0.0028
809.6708	0.0012
809.8403	0.012
810.0098	0.0051
810.1793	0.0071
810.3488	0.0169
810.5182	-0.0089
810.6876	0.0076
810.857	-0.0142
811.0264	0.0102
811.1958	0.0122
811.3651	0.0124
811.5344	-0.0189
811.7037	-0.0053
811.873	-0.0107
812.0422	-0.0076
812.2115	-0.0083
812.3807	-0.0155
812.5499	0.0142
812.7191	0.004
812.8882	-0.002
813.0574	-0.0142
813.2265	0.0093
813.3956	0.004
813.5646	0.0052
813.7337	0.0129
813.9027	0.0115
814.0718	0.029
814.2407	0.0155
814.4097	0.003
814.5787	-0.0247
814.7476	0.0085
814.9165	0.0258
815.0854	-0.0152
815.2543	0.0119
815.4232	-0.0001
815.592	0.0075
815.7608	0.0068
815.9296	0.0241
816.0984	-0.003
816.2671	0.0077
816.4359	-0.0069
816.6046	-0.0016
816.7733	0.0089
816.942	-0.0081
817.1106	0.0112
817.2793	0.0126
817.4479	0.0146
817.6165	0.0278
817.785	-0.011
817.9536	-0.0046
818.1221	-0.0262
818.2906	0.0009
818.4591	-0.0155
818.6276	-0.0288
818.7961	-0.0001
818.9645	0.0373
819.1329	0.0207
819.3013	0.0197
819.4697	0.0119
819.638	0.042
819.8064	-0.0065
819.9747	0.0279
820.143	-0.0114
820.3113	0.0102
820.4795	0.0049
820.6477	0.0034
820.816	-0.008
820.9842	-0.0015
821.1523	-0.0015
821.3205	0.0021
821.4886	0.0036
821.6567	-0.0086
821.8248	-0.0018
821.9929	0.0172
822.1609	0.0172
822.329	0.0377
822.497	0.0223
822.665	-0.002
822.833	-0.016
823.0009	-0.0053
823.1688	-0.0008
823.3367	0.0264
823.5046	0.0088
823.6725	0.0014
823.8404	-0.0261
824.0082	0.0031
824.176	0.0148
824.3438	0.0059
824.5116	-0.0181
824.6793	0.0257
824.847	-0.0127
825.0147	-0.0193
825.1824	-0.0086
825.3501	0.0115
825.5177	0.0008
825.6854	-0.0061
825.853	-0.0026
826.0206	0.0041
826.1881	0.0113
826.3557	-0.0271
826.5232	0.0185
826.6907	-0.0392
826.8582	-0.001
827.0257	-0.0128
827.1931	0.0337
827.3605	-0.0059
827.528	-0.0174
827.6953	-0.0373
827.8627	-0.0001
828.03	0.0264
828.1974	-0.0005
828.3647	-0.0168
828.532	-0.0074
828.6992	-0.0189
828.8665	0.028
829.0337	-0.0106
829.2009	0.0358
829.3681	0.0102
829.5352	0.028
829.7024	-0.0054
829.8695	-0.0051
830.0366	0.0314
830.2037	-0.0011
830.3707	0.0109
830.5378	-0.0043
830.7048	0.0005
830.8718	-0.0001
831.0388	-0.0289
831.2057	-0.008
831.3727	0.0284
831.5396	-0.0012
831.7065	-0.0052
831.8734	-0.0012
832.0402	-0.0266
832.2071	-0.021
832.3739	-0.0408
832.5407	0.0077
832.7075	-0.0069
832.8742	-0.0292
833.041	-0.026
833.2077	0.0098
833.3744	-0.0013
833.541	-0.019
833.7077	0.0145
833.8743	0.0045
834.0409	-0.0013
834.2075	-0.012
834.3741	-0.0122
834.5407	0.0069
834.7072	-0.0242
834.8737	-0.0112
835.0402	-0.03
835.2067	-0.0093
835.3731	0.0223
835.5395	-0.0102
835.706	0.0018
835.8723	0.0013
836.0387	0.0545
836.2051	-0.0191
836.3714	0.0082
836.5377	0.0174
836.704	-0.0183
836.8703	0.0302
837.0365	-0.0311
837.2027	-0.0201
837.3689	0.0333
837.5351	-0.0134
837.7013	-0.0383
837.8674	0.0078
838.0335	-0.0069
838.1997	-0.0223
838.3657	-0.0381
838.5318	-0.0256
838.6978	-0.0143
838.8639	0.0698
839.0299	-0.0195
839.1958	0.0118
839.3618	0.0555
839.5277	-0.0299
839.6937	-0.0042
839.8596	-0.0481
840.0254	0.0141
840.1913	-0.0067
840.3571	-0.0215
840.523	-0.009
840.6888	-0.0076
840.8545	-0.0245
841.0203	-0.0165
841.186	-0.001
841.3517	-0.001
841.5174	-0.0036
841.6831	-0.0195
841.8488	-0.0126
842.0144	0.0195
842.18	0.0207
842.3456	0.0319
842.5112	-0.0052
842.6767	0.0018
842.8422	-0.0023
843.0077	0.0092
843.1732	-0.0629
843.3387	-0.0103
843.5042	-0.0549
843.6696	-0.065
843.835	0.0453
844.0004	-0.0247
844.1657	0.0342
844.3311	-0.0706
844.4964	-0.0813
844.6617	0.0099
844.827	-0.0161
844.9923	0.0233
845.1575	-0.0142
845.3227	0.0223
845.4879	-0.043
845.6531	0.0025
845.8183	-0.0271
845.9834	0.0228
846.1485	0.0009
846.3136	-0.0505
846.4787	-0.1262
846.6438	0.041
846.8088	-0.0435
846.9738	-0.0598
847.1388	-0.0141
847.3038	-0.0738
847.4687	-0.1334
847.6337	0.1064
847.7986	-0.0184
847.9635	-0.0175
848.1284	-0.0356
848.2932	0.0574
848.458	-0.0235
848.6228	-0.0125
848.7876	0.0763
848.9524	-0.0491
849.1172	-0.0814
849.2819	0.0331
849.4466	-0.0582
849.6113	-0.0236
849.7759	-0.0199
849.9406	-0.0981
850.1052	-0.0263
850.2698	-0.0906
850.4344	0.0036
850.599	-0.0622
850.7635	0.0905
850.928	-0.0713
851.0925	-0.0209
851.257	0.0813
851.4215	0.0825
851.5859	-0.0238
851.7503	0.0432
851.9147	-0.0068
852.0791	-0.0434
852.2434	-0.0134
852.4078	-0.026
852.5721	0.0869
852.7364	-0.0144
852.9007	-0.1506
853.0649	0.0157
853.2291	-0.084
853.3934	-0.0442
853.5575	0.0046
853.7217	-0.0597
853.8859	-0.1273
854.05	-0.1056
854.2141	0.0022
854.3782	-0.0966
854.5423	-0.0893
854.7063	0.0046
854.8703	-0.014
855.0343	-0.0646
855.1983	-0.1667
855.3623	0.1022
855.5262	0.0551
855.6901	0.007
855.854	0.0546
856.0179	0.0341
856.1818	-0.0367
856.3456	-0.0779
856.5094	-0.0595
856.6732	-0.1231
856.837	-0.1652
857.0008	0.083
857.1645	-0.0154
857.3282	-0.1281
857.4919	-0.0401
857.6556	-0.0167
857.8192	-0.0412
857.9828	-0.0661
858.1465	-0.0451
858.31	-0.0162
858.4736	-0.0716
858.6372	-0.2443
858.8007	-0.183
858.9642	-0.0441
859.1277	-0.001
859.2911	0.2309
859.4546	-0.1107
859.618	-0.3398
859.7814	-0.0773
859.9448	0.1013
860.1081	0.0865
860.2715	0.1234
860.4348	-0.1211
860.5981	-0.1604
860.7614	0.2552
860.9246	-0.0089
861.0879	-0.0703
861.2511	0.0448
861.4143	-0.3316
861.5774	0.1251
861.7406	-0.1882
861.9037	0.0366
862.0668	0.318
862.2299	-0.1466
862.393	-0.6778
862.556	0.1057
862.7191	-0.0863
862.8821	-0.2351
863.0451	0.0274
863.208	-0.0404
863.371	0.0936
863.5339	-0.3443
863.6968	0.0569
863.8597	-0.0019
864.0225	-0.0069
864.1854	-0.1324
864.3482	-0.058
864.511	0.3697
864.6737	-0.0076
864.8365	0.0377
864.9992	-0.6247
865.1619	-0.3489
865.3246	-0.2047
865.4873	0.1869
865.65	-0.269
865.8126	-0.06
865.9752	0.0631
866.1378	-0.1259
866.3004	-0
866.4629	0.4193
866.6254	0.3218
866.7879	-0.064
866.9504	0.4331
867.1129	-0
867.2753	-0.0776
867.4377	0.1517
867.6001	-0.1607
867.7625	-0.1476
867.9249	1.3892
868.0872	0.1775
868.2495	0.2019
868.4118	-0.0463
868.5741	-0.3822
868.7363	-0.3298
868.8986	0.0462
869.0608	-0.1793
869.223	0.7015
869.3851	-0.1809
869.5473	-0
869.7094	0.162
869.8715	-0
870.0336	-0.7427
870.1957	-0.7279
870.3577	-0
870.5197	-0.0873
870.6817	-0.3308
870.8437	-0.1831
871.0057	-0
871.1676	0.0371
871.3295	-0.2504
871.4914	-0.2004
871.6533	-0.3202
871.8151	-0.1951
871.977	-0
872.1388	-0
872.3006	-0
872.4623	-0
872.6241	0.9074
872.7858	-0.301
872.9475	-0.0022
873.1092	-0.0899
873.2709	-0.1211
873.4325	-0.269
873.5941	0.2463
873.7557	-0
873.9173	-0
874.0789	-0.7326
874.2404	-0.6266
874.4019	0.0014
874.5634	-0.3603
874.7249	-0.128
874.8863	0.4366
875.0478	1.468
875.2092	-0
875.3706	0.7243
875.5319	-0.9236
875.6933	-0
875.8546	-0.2271
876.0159	-0
876.1772	0.2649
876.3385	-0
876.4997	0.0717
876.6609	-0.4224
876.8221	-0.5412
876.9833	1.7304
877.1445	-0
877.3056	0.0559
877.4667	-0.4841
877.6278	-0
877.7889	-0.5607
877.9499	-0.6834
878.111	-0.7235
878.272	-0
878.433	-0
878.5939	0.9247
878.7549	-0.0785
878.9158	-0.6158
879.0767	-0
879.2376	-0
879.3984	0.0868
879.5593	-0
879.7201	-0.002
879.8809	-0.5531
880.0417	-0.2053
880.2024	-0
880.3632	-0.8206
880.5239	0.3876
880.6846	0.348
880.8452	-1.8325
881.0059	-0
881.1665	-0.055
881.3271	-0
881.4877	-0.7198
881.6483	-0.6075
881.8088	-0.4691
881.9693	-0
882.1298	-0
882.2903	-0
