Data from MonoPyChalIsomerACN10uM340nmA_Absorbance_14-14-16-665.txt Node
Date: Fri Jul 05 14:14:16 BST 2024
User: LASERRRRR
Spectrometer: FLMT03099
Trigger mode: 0
Integration Time (sec): 1.000000E-1
Scans to average: 1
Electric dark correction enabled: true
Nonlinearity correction enabled: false
Boxcar width: 0
XAxis mode: Wavelengths
Number of Pixels in Spectrum: 3648
>>>>>Begin Spectral Data<<<<<
179.3399	-0.0083
179.5586	-0.0083
179.7771	-0.0083
179.9957	-0
180.2143	0.0941
180.4329	-0.0251
180.6514	-0
180.8699	-0
181.0885	0.3498
181.307	0.1843
181.5255	-0
181.744	-0.0862
181.9625	0.0314
182.181	-0
182.3994	0.4529
182.6179	0.2295
182.8363	0.1257
183.0547	-0.1753
183.2732	-0.0984
183.4916	0.1366
183.71	0.1447
183.9284	0.5914
184.1467	-0.1554
184.3651	0.2466
184.5835	-0.1526
184.8018	-0
185.0201	0.237
185.2385	0.1402
185.4568	0.2514
185.6751	-0.0307
185.8934	0.3155
186.1117	0.0537
186.3299	0.1695
186.5482	0.2915
186.7664	0.0024
186.9847	-0.1102
187.2029	-0.0269
187.4211	0.0557
187.6393	0.0974
187.8575	0.2047
188.0757	0.0914
188.2939	0.0407
188.512	0.9098
188.7302	0.4781
188.9483	0.333
189.1665	0.057
189.3846	0.1595
189.6027	0.4812
189.8208	0.046
190.0389	0.1416
190.257	0.0356
190.475	0.1226
190.6931	0.2973
190.9111	0.1365
191.1292	0.163
191.3472	0.3999
191.5652	0.3007
191.7832	0.1873
192.0012	0.1575
192.2192	0.3577
192.4371	0.6141
192.6551	0.4858
192.873	0.5373
193.091	0.2563
193.3089	0.4176
193.5268	0.7784
193.7447	0.6351
193.9626	0.507
194.1805	0.7842
194.3984	0.7998
194.6162	0.6508
194.8341	0.5113
195.0519	0.5592
195.2697	0.6304
195.4875	0.6558
195.7054	0.565
195.9231	0.7263
196.1409	0.66
196.3587	0.6193
196.5765	0.4595
196.7942	0.7131
197.012	0.4764
197.2297	0.5186
197.4474	1.0612
197.6651	0.7165
197.8828	0.4549
198.1005	0.6404
198.3182	0.6162
198.5358	0.7225
198.7535	0.6608
198.9711	0.5529
199.1888	0.6017
199.4064	0.7915
199.624	0.5651
199.8416	0.5344
200.0592	0.5538
200.2767	0.6506
200.4943	0.6624
200.7119	0.7021
200.9294	0.6387
201.1469	0.6036
201.3645	0.6207
201.582	0.4894
201.7995	0.6164
202.017	0.6492
202.2344	0.6439
202.4519	0.7992
202.6694	0.7188
202.8868	0.629
203.1042	0.6922
203.3217	0.7098
203.5391	0.6339
203.7565	0.6558
203.9739	0.6398
204.1913	0.5476
204.4086	0.5983
204.626	0.6961
204.8433	0.6254
205.0607	0.5939
205.278	0.6168
205.4953	0.6666
205.7126	0.6285
205.9299	0.6898
206.1472	0.6972
206.3644	0.612
206.5817	0.7149
206.7989	0.6712
207.0162	0.5965
207.2334	0.601
207.4506	0.6851
207.6678	0.578
207.885	0.6614
208.1022	0.6401
208.3194	0.785
208.5365	0.6137
208.7537	0.7014
208.9708	0.6219
209.1879	0.6286
209.405	0.7112
209.6222	0.721
209.8392	0.6338
210.0563	0.6483
210.2734	0.5806
210.4905	0.6709
210.7075	0.5787
210.9245	0.5578
211.1416	0.7097
211.3586	0.5851
211.5756	0.6211
211.7926	0.62
212.0096	0.5688
212.2265	0.5436
212.4435	0.5661
212.6604	0.6202
212.8774	0.5628
213.0943	0.5676
213.3112	0.495
213.5281	0.5333
213.745	0.5091
213.9619	0.499
214.1788	0.4807
214.3956	0.4731
214.6125	0.438
214.8293	0.4541
215.0461	0.5028
215.2629	0.4582
215.4798	0.4637
215.6965	0.4259
215.9133	0.4649
216.1301	0.4224
216.3469	0.4044
216.5636	0.4009
216.7803	0.3908
216.9971	0.4258
217.2138	0.3688
217.4305	0.3859
217.6472	0.3494
217.8639	0.3789
218.0805	0.3834
218.2972	0.3123
218.5138	0.3099
218.7305	0.2961
218.9471	0.3212
219.1637	0.2824
219.3803	0.3027
219.5969	0.2798
219.8135	0.2514
220.0301	0.2802
220.2466	0.2583
220.4632	0.2523
220.6797	0.2366
220.8962	0.2705
221.1127	0.2775
221.3292	0.25
221.5457	0.2413
221.7622	0.2454
221.9787	0.2561
222.1951	0.2494
222.4116	0.2501
222.628	0.2507
222.8444	0.2557
223.0608	0.2586
223.2772	0.2499
223.4936	0.2731
223.71	0.2696
223.9264	0.2686
224.1427	0.2707
224.3591	0.25
224.5754	0.2759
224.7917	0.2757
225.008	0.2513
225.2243	0.2718
225.4406	0.2969
225.6569	0.2632
225.8732	0.264
226.0894	0.2725
226.3057	0.2601
226.5219	0.2972
226.7381	0.2702
226.9543	0.2703
227.1705	0.2772
227.3867	0.2858
227.6029	0.3159
227.8191	0.3178
228.0352	0.3003
228.2513	0.3207
228.4675	0.3353
228.6836	0.3085
228.8997	0.2975
229.1158	0.3177
229.3319	0.3166
229.548	0.3122
229.764	0.3285
229.9801	0.3311
230.1961	0.317
230.4121	0.3309
230.6282	0.3267
230.8442	0.335
231.0602	0.3509
231.2761	0.3561
231.4921	0.3444
231.7081	0.3267
231.924	0.3517
232.14	0.356
232.3559	0.345
232.5718	0.3512
232.7877	0.369
233.0036	0.337
233.2195	0.3739
233.4353	0.3586
233.6512	0.3702
233.867	0.3753
234.0829	0.3542
234.2987	0.368
234.5145	0.3875
234.7303	0.3604
234.9461	0.3991
235.1619	0.3781
235.3776	0.3987
235.5934	0.3831
235.8091	0.3758
236.0249	0.3862
236.2406	0.3859
236.4563	0.3858
236.672	0.4053
236.8877	0.4023
237.1034	0.4021
237.319	0.3921
237.5347	0.4147
237.7503	0.3947
237.966	0.4275
238.1816	0.4165
238.3972	0.4084
238.6128	0.4004
238.8284	0.4066
239.0439	0.4083
239.2595	0.3903
239.475	0.4167
239.6906	0.4226
239.9061	0.4061
240.1216	0.4219
240.3371	0.416
240.5526	0.4027
240.7681	0.4028
240.9836	0.3965
241.199	0.3976
241.4145	0.3764
241.6299	0.3856
241.8453	0.3854
242.0607	0.3819
242.2761	0.3598
242.4915	0.3731
242.7069	0.349
242.9223	0.3565
243.1376	0.335
243.353	0.3367
243.5683	0.3356
243.7836	0.3257
243.9989	0.331
244.2142	0.2877
244.4295	0.3034
244.6448	0.3051
244.86	0.2987
245.0753	0.2813
245.2905	0.2752
245.5057	0.279
245.721	0.2834
245.9362	0.2634
246.1514	0.2786
246.3665	0.249
246.5817	0.2503
246.7969	0.2537
247.012	0.2273
247.2271	0.2357
247.4423	0.241
247.6574	0.2391
247.8725	0.2195
248.0876	0.2197
248.3026	0.223
248.5177	0.22
248.7328	0.2193
248.9478	0.2116
249.1628	0.2198
249.3779	0.21
249.5929	0.203
249.8079	0.2114
250.0228	0.1967
250.2378	0.201
250.4528	0.1998
250.6677	0.1762
250.8827	0.1977
251.0976	0.1995
251.3125	0.1901
251.5274	0.1778
251.7423	0.1737
251.9572	0.193
252.172	0.1703
252.3869	0.1848
252.6017	0.1717
252.8166	0.1629
253.0314	0.1669
253.2462	0.1649
253.461	0.1754
253.6758	0.1689
253.8906	0.1874
254.1053	0.1706
254.3201	0.1586
254.5348	0.1702
254.7496	0.1817
254.9643	0.1598
255.179	0.1709
255.3937	0.1633
255.6083	0.1664
255.823	0.1705
256.0377	0.1781
256.2523	0.154
256.467	0.1401
256.6816	0.1605
256.8962	0.1742
257.1108	0.1565
257.3254	0.1568
257.54	0.1546
257.7545	0.1753
257.9691	0.1659
258.1836	0.1633
258.3981	0.174
258.6127	0.176
258.8272	0.1669
259.0417	0.153
259.2561	0.1554
259.4706	0.1665
259.6851	0.1647
259.8995	0.1626
260.114	0.1636
260.3284	0.1587
260.5428	0.1548
260.7572	0.1654
260.9716	0.1746
261.186	0.16
261.4003	0.1671
261.6147	0.1622
261.829	0.1614
262.0433	0.1621
262.2577	0.1653
262.472	0.1607
262.6863	0.1672
262.9005	0.1553
263.1148	0.1572
263.3291	0.145
263.5433	0.1597
263.7576	0.1667
263.9718	0.1639
264.186	0.1619
264.4002	0.1549
264.6144	0.1628
264.8286	0.1598
265.0427	0.1663
265.2569	0.1593
265.471	0.1489
265.6851	0.1581
265.8993	0.1642
266.1134	0.1538
266.3275	0.1534
266.5415	0.152
266.7556	0.1732
266.9697	0.1588
267.1837	0.1596
267.3978	0.1645
267.6118	0.1635
267.8258	0.1702
268.0398	0.1563
268.2538	0.1499
268.4677	0.1632
268.6817	0.1426
268.8957	0.1614
269.1096	0.1594
269.3235	0.1546
269.5374	0.1338
269.7514	0.1356
269.9652	0.1476
270.1791	0.1467
270.393	0.1368
270.6068	0.1506
270.8207	0.1367
271.0345	0.1327
271.2483	0.1437
271.4622	0.1395
271.676	0.1381
271.8897	0.1487
272.1035	0.1398
272.3173	0.1435
272.531	0.1365
272.7448	0.1334
272.9585	0.1213
273.1722	0.149
273.3859	0.1355
273.5996	0.1201
273.8133	0.1309
274.0269	0.1349
274.2406	0.1296
274.4542	0.1266
274.6679	0.136
274.8815	0.1339
275.0951	0.1312
275.3087	0.142
275.5223	0.1397
275.7358	0.1359
275.9494	0.1299
276.1629	0.1229
276.3765	0.1244
276.59	0.147
276.8035	0.1404
277.017	0.1366
277.2305	0.1224
277.444	0.1396
277.6574	0.1308
277.8709	0.1378
278.0843	0.1328
278.2978	0.1403
278.5112	0.1284
278.7246	0.1252
278.938	0.1445
279.1513	0.145
279.3647	0.1353
279.5781	0.142
279.7914	0.1407
280.0047	0.1449
280.2181	0.1502
280.4314	0.1443
280.6447	0.1498
280.8579	0.1287
281.0712	0.1481
281.2845	0.1598
281.4977	0.1396
281.711	0.1314
281.9242	0.1414
282.1374	0.1377
282.3506	0.1321
282.5638	0.1573
282.7769	0.146
282.9901	0.1415
283.2033	0.1514
283.4164	0.1612
283.6295	0.1428
283.8426	0.1394
284.0557	0.1501
284.2688	0.1666
284.4819	0.1627
284.695	0.1576
284.908	0.1542
285.1211	0.146
285.3341	0.1465
285.5471	0.1698
285.7601	0.1472
285.9731	0.1535
286.1861	0.1406
286.3991	0.1662
286.612	0.1617
286.825	0.1581
287.0379	0.1641
287.2508	0.1495
287.4637	0.1636
287.6766	0.1498
287.8895	0.1658
288.1024	0.1723
288.3152	0.1693
288.5281	0.1514
288.7409	0.161
288.9538	0.1693
289.1666	0.1584
289.3794	0.1658
289.5922	0.1713
289.8049	0.1643
290.0177	0.1627
290.2304	0.1667
290.4432	0.1735
290.6559	0.1613
290.8686	0.1744
291.0813	0.1584
291.294	0.1645
291.5067	0.1696
291.7194	0.1631
291.932	0.1786
292.1447	0.1663
292.3573	0.1567
292.5699	0.1781
292.7825	0.1765
292.9951	0.1716
293.2077	0.1629
293.4203	0.174
293.6328	0.1626
293.8454	0.1759
294.0579	0.1721
294.2704	0.171
294.4829	0.1594
294.6954	0.1792
294.9079	0.1667
295.1204	0.1672
295.3328	0.1662
295.5453	0.1688
295.7577	0.1752
295.9701	0.1584
296.1825	0.1646
296.3949	0.1675
296.6073	0.1652
296.8197	0.169
297.0321	0.1778
297.2444	0.1652
297.4567	0.1782
297.6691	0.1737
297.8814	0.1611
298.0937	0.1691
298.306	0.1804
298.5182	0.1694
298.7305	0.1774
298.9428	0.1691
299.155	0.1764
299.3672	0.1678
299.5794	0.166
299.7916	0.1654
300.0038	0.1602
300.216	0.1754
300.4282	0.1732
300.6403	0.1697
300.8525	0.1766
301.0646	0.1584
301.2767	0.1666
301.4888	0.1618
301.7009	0.1733
301.913	0.1699
302.125	0.1624
302.3371	0.1555
302.5491	0.1683
302.7612	0.1652
302.9732	0.1762
303.1852	0.1705
303.3972	0.1628
303.6092	0.1576
303.8211	0.152
304.0331	0.155
304.245	0.1678
304.457	0.1472
304.6689	0.1569
304.8808	0.1653
305.0927	0.1533
305.3046	0.1612
305.5164	0.1593
305.7283	0.1479
305.9401	0.1528
306.152	0.1622
306.3638	0.1642
306.5756	0.1501
306.7874	0.1528
306.9992	0.1556
307.2109	0.1421
307.4227	0.1253
307.6344	0.1478
307.8462	0.1281
308.0579	0.1284
308.2696	0.1321
308.4813	0.1347
308.693	0.1297
308.9046	0.1449
309.1163	0.1271
309.328	0.134
309.5396	0.1261
309.7512	0.1185
309.9628	0.1163
310.1744	0.1174
310.386	0.1116
310.5976	0.1128
310.8091	0.119
311.0207	0.1165
311.2322	0.1159
311.4437	0.1084
311.6552	0.0996
311.8667	0.1128
312.0782	0.0979
312.2897	0.1043
312.5012	0.1045
312.7126	0.1043
312.924	0.0949
313.1355	0.116
313.3469	0.1072
313.5583	0.1086
313.7696	0.0994
313.981	0.1074
314.1924	0.1041
314.4037	0.0938
314.6151	0.1052
314.8264	0.097
315.0377	0.0988
315.249	0.0952
315.4603	0.0952
315.6716	0.1081
315.8828	0.0864
316.0941	0.1009
316.3053	0.0821
316.5165	0.0848
316.7277	0.0896
316.9389	0.1043
317.1501	0.0857
317.3613	0.106
317.5724	0.0796
317.7836	0.0938
317.9947	0.0945
318.2058	0.0951
318.417	0.093
318.6281	0.0806
318.8391	0.095
319.0502	0.0824
319.2613	0.0765
319.4723	0.104
319.6834	0.0963
319.8944	0.0842
320.1054	0.0911
320.3164	0.0911
320.5274	0.0835
320.7383	0.0868
320.9493	0.089
321.1602	0.098
321.3712	0.0919
321.5821	0.1004
321.793	0.0997
322.0039	0.093
322.2148	0.0847
322.4257	0.097
322.6365	0.1029
322.8474	0.1039
323.0582	0.0941
323.269	0.088
323.4798	0.1074
323.6906	0.0884
323.9014	0.0995
324.1122	0.1026
324.3229	0.0864
324.5337	0.0884
324.7444	0.0793
324.9551	0.0955
325.1658	0.0885
325.3765	0.1027
325.5872	0.0891
325.7979	0.1005
326.0085	0.087
326.2192	0.105
326.4298	0.109
326.6404	0.0866
326.851	0.0837
327.0616	0.0895
327.2722	0.0941
327.4828	0.0963
327.6933	0.0995
327.9039	0.0929
328.1144	0.1022
328.3249	0.0985
328.5354	0.0865
328.7459	0.0995
328.9564	0.0936
329.1669	0.0975
329.3773	0.0998
329.5878	0.0895
329.7982	0.0907
330.0086	0.1004
330.219	0.1022
330.4294	0.0822
330.6398	0.0954
330.8502	0.0868
331.0605	0.1013
331.2708	0.0932
331.4812	0.0991
331.6915	0.0935
331.9018	0.1003
332.1121	0.0973
332.3224	0.0901
332.5326	0.1028
332.7429	0.0976
332.9531	0.1107
333.1633	0.1059
333.3735	0.0941
333.5837	0.0954
333.7939	0.0975
334.0041	0.0975
334.2143	0.093
334.4244	0.0996
334.6346	0.0807
334.8447	0.1025
335.0548	0.1014
335.2649	0.0955
335.475	0.1041
335.685	0.0891
335.8951	0.102
336.1051	0.1038
336.3152	0.1141
336.5252	0.0991
336.7352	0.116
336.9452	0.1038
337.1552	0.1074
337.3652	0.0957
337.5751	0.089
337.7851	0.1065
337.995	0.0901
338.2049	0.1023
338.4148	0.1003
338.6247	0.1175
338.8346	0.094
339.0445	0.0938
339.2543	0.1012
339.4642	0.0993
339.674	0.0887
339.8838	0.098
340.0936	0.0934
340.3034	0.1195
340.5132	0.1086
340.7229	0.1019
340.9327	0.0989
341.1424	0.1027
341.3522	0.1119
341.5619	0.1123
341.7716	0.1153
341.9813	0.1171
342.1909	0.1053
342.4006	0.1138
342.6102	0.1172
342.8199	0.1118
343.0295	0.1197
343.2391	0.1235
343.4487	0.1254
343.6583	0.1081
343.8679	0.1153
344.0774	0.1177
344.287	0.1192
344.4965	0.1141
344.706	0.1227
344.9155	0.1104
345.125	0.1268
345.3345	0.1274
345.544	0.1097
345.7534	0.1189
345.9629	0.1228
346.1723	0.1195
346.3817	0.124
346.5911	0.1274
346.8005	0.1247
347.0099	0.1288
347.2193	0.1237
347.4286	0.1277
347.638	0.1225
347.8473	0.1326
348.0566	0.1323
348.2659	0.1324
348.4752	0.1327
348.6845	0.1374
348.8937	0.1372
349.103	0.1365
349.3122	0.1267
349.5214	0.1279
349.7306	0.1286
349.9398	0.1253
350.149	0.1291
350.3582	0.1293
350.5674	0.1462
350.7765	0.1142
350.9856	0.1366
351.1948	0.1392
351.4039	0.1191
351.613	0.1243
351.822	0.1383
352.0311	0.1356
352.2402	0.1563
352.4492	0.1387
352.6582	0.1458
352.8672	0.1329
353.0762	0.1587
353.2852	0.1441
353.4942	0.1334
353.7032	0.1472
353.9121	0.1342
354.1211	0.1574
354.33	0.1502
354.5389	0.1496
354.7478	0.143
354.9567	0.1401
355.1655	0.1397
355.3744	0.1493
355.5833	0.1421
355.7921	0.1751
356.0009	0.1586
356.2097	0.1618
356.4185	0.1666
356.6273	0.1594
356.8361	0.1567
357.0448	0.1445
357.2536	0.1353
357.4623	0.1559
357.671	0.1719
357.8797	0.1529
358.0884	0.1695
358.2971	0.1652
358.5057	0.1709
358.7144	0.1577
358.923	0.1648
359.1316	0.1759
359.3402	0.1507
359.5488	0.1493
359.7574	0.1605
359.966	0.1673
360.1746	0.1775
360.3831	0.1871
360.5916	0.1681
360.8002	0.1619
361.0087	0.1693
361.2172	0.172
361.4256	0.1789
361.6341	0.1808
361.8426	0.1808
362.051	0.1739
362.2594	0.1896
362.4678	0.1715
362.6762	0.2023
362.8846	0.1934
363.093	0.1949
363.3014	0.1784
363.5097	0.1688
363.718	0.1772
363.9264	0.1917
364.1347	0.1705
364.343	0.2041
364.5513	0.1825
364.7595	0.1852
364.9678	0.1996
365.176	0.203
365.3842	0.1931
365.5925	0.1871
365.8007	0.1962
366.0089	0.2072
366.217	0.1962
366.4252	0.2157
366.6333	0.2077
366.8415	0.208
367.0496	0.1924
367.2577	0.2117
367.4658	0.2127
367.6739	0.2023
367.882	0.2191
368.09	0.2281
368.2981	0.2088
368.5061	0.2042
368.7141	0.221
368.9221	0.2165
369.1301	0.2336
369.3381	0.2105
369.5461	0.2114
369.754	0.2227
369.962	0.2366
370.1699	0.2218
370.3778	0.2207
370.5857	0.2083
370.7936	0.2341
371.0015	0.2013
371.2093	0.2273
371.4172	0.2347
371.625	0.2213
371.8328	0.2152
372.0406	0.2216
372.2484	0.2298
372.4562	0.2446
372.664	0.2339
372.8717	0.2326
373.0795	0.2237
373.2872	0.2337
373.4949	0.2446
373.7026	0.2308
373.9103	0.2438
374.118	0.2459
374.3256	0.2303
374.5333	0.2268
374.7409	0.2461
374.9485	0.2475
375.1561	0.2529
375.3637	0.2397
375.5713	0.2415
375.7789	0.2491
375.9864	0.253
376.194	0.2449
376.4015	0.2548
376.609	0.2563
376.8165	0.2428
377.024	0.2654
377.2315	0.2381
377.4389	0.2571
377.6464	0.2717
377.8538	0.2597
378.0612	0.2514
378.2686	0.2673
378.476	0.2774
378.6834	0.2647
378.8908	0.2698
379.0981	0.2621
379.3055	0.2592
379.5128	0.2702
379.7201	0.2549
379.9274	0.2552
380.1347	0.2579
380.342	0.2506
380.5492	0.2626
380.7565	0.2772
380.9637	0.2681
381.1709	0.2584
381.3781	0.2638
381.5853	0.2805
381.7925	0.2814
381.9997	0.278
382.2068	0.2876
382.4139	0.2632
382.6211	0.2466
382.8282	0.273
383.0353	0.2545
383.2424	0.2803
383.4494	0.2718
383.6565	0.2593
383.8635	0.2682
384.0706	0.2701
384.2776	0.2717
384.4846	0.2776
384.6916	0.2592
384.8986	0.2601
385.1055	0.2747
385.3125	0.2644
385.5194	0.2733
385.7263	0.2847
385.9333	0.2728
386.1402	0.2742
386.347	0.2734
386.5539	0.279
386.7608	0.2729
386.9676	0.2575
387.1744	0.2837
387.3813	0.265
387.5881	0.279
387.7948	0.2621
388.0016	0.2572
388.2084	0.2608
388.4151	0.2655
388.6219	0.2858
388.8286	0.267
389.0353	0.269
389.242	0.2706
389.4487	0.2719
389.6553	0.2744
389.862	0.2562
390.0686	0.2663
390.2753	0.2708
390.4819	0.2916
390.6885	0.2559
390.8951	0.2489
391.1016	0.2378
391.3082	0.2618
391.5147	0.2518
391.7213	0.2633
391.9278	0.2343
392.1343	0.2442
392.3408	0.2489
392.5473	0.2517
392.7537	0.2476
392.9602	0.2475
393.1666	0.2663
393.373	0.2436
393.5794	0.2662
393.7858	0.2528
393.9922	0.2384
394.1986	0.2426
394.4049	0.2369
394.6113	0.2338
394.8176	0.2446
395.0239	0.2483
395.2302	0.2209
395.4365	0.2387
395.6428	0.2327
395.8491	0.2379
396.0553	0.2304
396.2615	0.2219
396.4678	0.2345
396.674	0.2264
396.8802	0.242
397.0863	0.2547
397.2925	0.2247
397.4987	0.2136
397.7048	0.252
397.9109	0.244
398.117	0.2254
398.3231	0.2268
398.5292	0.2285
398.7353	0.2508
398.9413	0.2421
399.1474	0.2354
399.3534	0.221
399.5594	0.2266
399.7654	0.2426
399.9714	0.2503
400.1774	0.2262
400.3833	0.2231
400.5893	0.2255
400.7952	0.232
401.0011	0.229
401.207	0.2366
401.4129	0.2321
401.6188	0.2364
401.8247	0.2299
402.0305	0.2155
402.2364	0.2138
402.4422	0.2432
402.648	0.2373
402.8538	0.2528
403.0596	0.2252
403.2654	0.2378
403.4711	0.2366
403.6768	0.2252
403.8826	0.2272
404.0883	0.2357
404.294	0.2305
404.4997	0.2293
404.7054	0.2111
404.911	0.222
405.1167	0.2182
405.3223	0.2461
405.5279	0.2411
405.7335	0.2437
405.9391	0.2405
406.1447	0.2209
406.3502	0.2464
406.5558	0.226
406.7613	0.2424
406.9668	0.2332
407.1724	0.226
407.3778	0.2386
407.5833	0.235
407.7888	0.2172
407.9942	0.2378
408.1997	0.2231
408.4051	0.2256
408.6105	0.2237
408.8159	0.2277
409.0213	0.2103
409.2267	0.2253
409.432	0.2046
409.6374	0.2352
409.8427	0.2339
410.048	0.2288
410.2533	0.2287
410.4586	0.2401
410.6639	0.2214
410.8691	0.2167
411.0744	0.2274
411.2796	0.2062
411.4848	0.23
411.69	0.2366
411.8952	0.2396
412.1004	0.222
412.3056	0.2329
412.5107	0.2197
412.7158	0.2303
412.921	0.2242
413.1261	0.2418
413.3312	0.2137
413.5362	0.2283
413.7413	0.2197
413.9464	0.2173
414.1514	0.2281
414.3564	0.2166
414.5614	0.1951
414.7664	0.2178
414.9714	0.2207
415.1764	0.2382
415.3813	0.2302
415.5863	0.2247
415.7912	0.2288
415.9961	0.2414
416.201	0.2067
416.4059	0.2356
416.6108	0.2143
416.8156	0.2362
417.0205	0.2146
417.2253	0.2042
417.4301	0.2278
417.6349	0.2174
417.8397	0.2072
418.0445	0.22
418.2492	0.2272
418.454	0.2183
418.6587	0.2095
418.8634	0.2162
419.0681	0.1988
419.2728	0.2098
419.4775	0.208
419.6822	0.2151
419.8868	0.1913
420.0915	0.2091
420.2961	0.2096
420.5007	0.1861
420.7053	0.2082
420.9099	0.2156
421.1144	0.2203
421.319	0.1998
421.5235	0.2105
421.728	0.2016
421.9325	0.2106
422.137	0.2294
422.3415	0.2124
422.546	0.2186
422.7504	0.2098
422.9549	0.2005
423.1593	0.2069
423.3637	0.2045
423.5681	0.2044
423.7725	0.1985
423.9769	0.1933
424.1812	0.1771
424.3856	0.2086
424.5899	0.2113
424.7942	0.2079
424.9985	0.2011
425.2028	0.2043
425.4071	0.2112
425.6113	0.166
425.8156	0.2004
426.0198	0.19
426.224	0.1758
426.4282	0.1759
426.6324	0.1755
426.8366	0.1851
427.0407	0.1821
427.2449	0.189
427.449	0.1784
427.6531	0.1681
427.8572	0.1751
428.0613	0.1973
428.2654	0.1821
428.4694	0.1901
428.6735	0.1589
428.8775	0.1784
429.0815	0.1872
429.2855	0.1539
429.4895	0.1712
429.6935	0.1722
429.8975	0.1608
430.1014	0.1549
430.3053	0.149
430.5093	0.1712
430.7132	0.1545
430.9171	0.1579
431.1209	0.1637
431.3248	0.1533
431.5286	0.1486
431.7325	0.1499
431.9363	0.1258
432.1401	0.1625
432.3439	0.1435
432.5477	0.1213
432.7514	0.1315
432.9552	0.143
433.1589	0.1195
433.3627	0.1326
433.5664	0.1356
433.7701	0.1361
433.9737	0.1299
434.1774	0.1259
434.3811	0.1365
434.5847	0.1412
434.7883	0.1213
434.9919	0.1328
435.1955	0.134
435.3991	0.1305
435.6027	0.1076
435.8062	0.1066
436.0098	0.1061
436.2133	0.1173
436.4168	0.1041
436.6203	0.1091
436.8238	0.1146
437.0272	0.1144
437.2307	0.1137
437.4341	0.0991
437.6375	0.099
437.841	0.1019
438.0443	0.1171
438.2477	0.1181
438.4511	0.1046
438.6545	0.1051
438.8578	0.0982
439.0611	0.1064
439.2644	0.0929
439.4677	0.0796
439.671	0.0982
439.8743	0.0958
440.0775	0.0843
440.2808	0.0861
440.484	0.0826
440.6872	0.0678
440.8904	0.0775
441.0936	0.0996
441.2967	0.0868
441.4999	0.0895
441.703	0.0638
441.9062	0.0611
442.1093	0.0654
442.3124	0.0702
442.5155	0.0589
442.7185	0.0629
442.9216	0.0474
443.1246	0.0874
443.3276	0.0617
443.5307	0.0568
443.7337	0.0665
443.9366	0.0628
444.1396	0.0626
444.3426	0.0569
444.5455	0.0602
444.7484	0.0575
444.9513	0.0596
445.1542	0.0561
445.3571	0.0546
445.56	0.0669
445.7628	0.0502
445.9657	0.0471
446.1685	0.0658
446.3713	0.0467
446.5741	0.0473
446.7769	0.0481
446.9797	0.0477
447.1824	0.0496
447.3852	0.0407
447.5879	0.0585
447.7906	0.0536
447.9933	0.0574
448.196	0.0332
448.3986	0.0325
448.6013	0.0323
448.8039	0.0344
449.0066	0.0411
449.2092	0.0462
449.4118	0.0275
449.6143	0.0432
449.8169	0.0399
450.0195	0.0255
450.222	0.0225
450.4245	0.0284
450.627	0.0422
450.8295	0.0262
451.032	0.0258
451.2345	0.0248
451.4369	0.0333
451.6394	0.0431
451.8418	0.0182
452.0442	0.0272
452.2466	0.0343
452.449	0.0198
452.6513	0.0199
452.8537	0.0189
453.056	0.0162
453.2583	0.0293
453.4607	0.0202
453.663	0.0243
453.8652	0.0346
454.0675	-0.002
454.2697	0.027
454.472	0.0155
454.6742	0.0244
454.8764	0.0283
455.0786	0.016
455.2808	0.023
455.4829	0.0203
455.6851	0.0081
455.8872	0.0266
456.0893	0.0238
456.2915	0.0077
456.4935	0.0225
456.6956	0.0055
456.8977	0.026
457.0997	0.0083
457.3018	0.0019
457.5038	0.0146
457.7058	0.0139
457.9078	0.01
458.1098	0.0167
458.3117	0.0141
458.5137	-0.001
458.7156	0.0085
458.9175	0.0014
459.1194	0.0161
459.3213	0.0127
459.5232	0.0065
459.725	0.0021
459.9269	0.0004
460.1287	-0.0039
460.3305	0.0184
460.5323	0.0057
460.7341	0.0099
460.9359	0.0036
461.1376	0.0116
461.3394	0.0009
461.5411	0.0103
461.7428	-0.0027
461.9445	0.0111
462.1462	0.0149
462.3479	0.0017
462.5495	0.0015
462.7512	0.0036
462.9528	0.0041
463.1544	-0.006
463.356	0.0118
463.5576	0.0145
463.7592	-0.0117
463.9607	0.0061
464.1623	0.0277
464.3638	0.0093
464.5653	-0.0048
464.7668	-0.0031
464.9683	0.0103
465.1697	0.0174
465.3712	-0.0083
465.5726	-0.0056
465.7741	-0.0077
465.9755	-0.011
466.1769	0.0051
466.3782	0.0015
466.5796	-0.0049
466.7809	0.0101
466.9823	-0.0159
467.1836	0.0162
467.3849	-0.0021
467.5862	0.0044
467.7875	0.0007
467.9887	0.0128
468.19	-0.0079
468.3912	-0.0136
468.5924	0.0102
468.7936	-0.0048
468.9948	-0.0022
469.196	0.0116
469.3972	-0.0144
469.5983	0.0131
469.7994	-0.0162
470.0006	0.0016
470.2017	-0.0043
470.4027	0.0053
470.6038	0.005
470.8049	-0.0173
471.0059	-0.0054
471.2069	-0.0077
471.408	-0.0044
471.6089	-0.004
471.8099	-0.0081
472.0109	0.0091
472.2119	-0.0039
472.4128	-0.0094
472.6137	0.0028
472.8146	-0.0121
473.0155	-0.0132
473.2164	-0.006
473.4173	0.0055
473.6181	0.0076
473.819	0.0138
474.0198	-0.0075
474.2206	0.003
474.4214	-0.0024
474.6222	-0.0047
474.8229	0.0029
475.0237	-0.0154
475.2244	-0.0008
475.4251	-0.0046
475.6258	-0.0045
475.8265	-0.0028
476.0272	0.0123
476.2278	-0.0023
476.4285	0.0032
476.6291	0.0001
476.8297	0.0031
477.0303	-0.0118
477.2309	0.0014
477.4315	-0.0055
477.632	-0.0099
477.8326	-0.0038
478.0331	0.0077
478.2336	0.0036
478.4341	-0.0033
478.6346	0.0011
478.8351	0.0086
479.0355	0.0043
479.236	-0.0044
479.4364	0.0008
479.6368	-0.0035
479.8372	-0.0116
480.0376	0.0033
480.2379	-0.018
480.4383	-0.0161
480.6386	0.0024
480.8389	0.0079
481.0392	-0.0163
481.2395	-0.0055
481.4398	0.0071
481.6401	0.0168
481.8403	-0.0099
482.0405	-0.003
482.2408	-0.0082
482.441	0.0193
482.6411	-0.0013
482.8413	-0.0071
483.0415	-0.0091
483.2416	-0.0119
483.4417	-0.0006
483.6419	-0.0032
483.8419	-0.0073
484.042	0.0017
484.2421	-0.0006
484.4422	0.0033
484.6422	-0.0072
484.8422	-0.005
485.0422	-0.0012
485.2422	0.0032
485.4422	-0.0136
485.6422	-0.016
485.8421	-0.008
486.042	-0.0059
486.242	-0.0045
486.4419	-0.0098
486.6417	-0.0033
486.8416	0.0007
487.0415	0.0027
487.2413	-0.0108
487.4411	-0.0061
487.641	-0.0077
487.8408	0.0062
488.0405	-0.008
488.2403	-0.0085
488.4401	0.0067
488.6398	-0.0044
488.8395	-0.0095
489.0392	-0.0104
489.2389	-0.0014
489.4386	-0.0003
489.6383	-0.0111
489.8379	-0.0096
490.0376	-0.004
490.2372	-0.014
490.4368	-0.0148
490.6364	0.0019
490.836	-0.0029
491.0355	-0.0015
491.2351	0.0013
491.4346	0.0037
491.6341	-0.0094
491.8336	-0.0058
492.0331	-0.0043
492.2326	-0.0142
492.432	-0.0011
492.6315	-0.0014
492.8309	-0.0156
493.0303	-0.0097
493.2297	0.0035
493.4291	-0.0091
493.6284	-0.0076
493.8278	0.0016
494.0271	-0.0032
494.2264	0.0069
494.4257	-0.0164
494.625	-0.0101
494.8243	-0.0161
495.0236	-0.0056
495.2228	-0.0104
495.422	0.0072
495.6213	0.0032
495.8205	-0.0096
496.0196	-0.0008
496.2188	0.0071
496.418	-0.0049
496.6171	-0.0062
496.8162	-0.0084
497.0153	0.0022
497.2144	-0.0052
497.4135	-0.0057
497.6126	-0.0093
497.8116	-0.0204
498.0107	0.0028
498.2097	-0.0088
498.4087	-0.0113
498.6077	-0.0008
498.8067	-0.0051
499.0056	0.011
499.2046	-0.0077
499.4035	-0.0166
499.6024	-0.0064
499.8013	0.0032
500.0002	-0.0223
500.199	-0.0083
500.3979	-0.003
500.5967	-0.0302
500.7956	0
500.9944	0.0011
501.1932	-0.0083
501.3919	0.0016
501.5907	-0.0073
501.7895	-0.0003
501.9882	-0.0159
502.1869	-0.0122
502.3856	-0.0105
502.5843	-0.0111
502.783	-0.001
502.9816	-0.0001
503.1803	-0.0193
503.3789	-0.0091
503.5775	0.0106
503.7761	-0.0079
503.9747	0.0016
504.1732	-0.0029
504.3718	0.0008
504.5703	0
504.7689	-0.0062
504.9674	-0.0026
505.1658	-0.0116
505.3643	-0.0008
505.5628	-0.0041
505.7612	-0.0007
505.9597	0.0057
506.1581	-0.0109
506.3565	0.0031
506.5549	0.0004
506.7532	-0.0103
506.9516	-0.0032
507.1499	-0.0009
507.3482	-0.0161
507.5465	-0.0063
507.7448	0.0066
507.9431	-0.0015
508.1414	-0.0095
508.3396	-0.0083
508.5379	-0.0035
508.7361	-0.0047
508.9343	-0.0077
509.1325	0.0042
509.3306	0.0022
509.5288	-0.0068
509.7269	-0.0048
509.9251	-0.0028
510.1232	-0.0078
510.3213	-0.0023
510.5193	-0.001
510.7174	-0.0135
510.9154	0.0024
511.1135	-0.0096
511.3115	-0.0074
511.5095	-0.0013
511.7075	-0.0071
511.9055	-0.0023
512.1034	-0.004
512.3014	0.0006
512.4993	-0.0075
512.6972	-0.0058
512.8951	-0.019
513.093	0.0004
513.2908	0.0042
513.4887	-0.0043
513.6865	-0.0115
513.8844	-0.0144
514.0822	0.0009
514.2799	-0.0081
514.4777	-0.0062
514.6755	-0.0089
514.8732	-0.0118
515.0709	-0.0012
515.2687	-0.0069
515.4664	-0.0066
515.664	-0.0064
515.8617	-0.0021
516.0594	-0.0141
516.257	-0.0042
516.4546	-0.0103
516.6522	-0.0117
516.8498	-0.0067
517.0474	0.002
517.2449	0.0018
517.4425	-0.014
517.64	0.0048
517.8375	0.0121
518.035	-0.0108
518.2325	-0.0114
518.43	-0.0112
518.6274	0.0006
518.8249	-0.0084
519.0223	0.0047
519.2197	-0.0041
519.4171	-0.0036
519.6145	-0.0076
519.8118	-0.005
520.0092	-0.0101
520.2065	-0.0122
520.4038	-0.0092
520.6011	0.0033
520.7984	-0.0021
520.9956	-0.0078
521.1929	-0.0068
521.3901	-0.0031
521.5874	-0.0052
521.7846	-0.0052
521.9818	-0.0055
522.1789	-0.011
522.3761	0.0042
522.5732	-0.0031
522.7704	-0.0101
522.9675	0.0004
523.1646	-0.0035
523.3617	-0.0082
523.5587	0.0002
523.7558	-0.0001
523.9528	-0.0073
524.1498	-0.0027
524.3468	-0.0041
524.5438	0.0007
524.7408	-0.0067
524.9378	0.011
525.1347	-0.0072
525.3316	-0.0049
525.5285	-0.0035
525.7254	-0.0112
525.9223	0.0004
526.1192	-0.0032
526.316	-0.0043
526.5129	0.0012
526.7097	-0.0094
526.9065	-0.0018
527.1033	-0.0026
527.3	-0.0004
527.4968	-0.0006
527.6935	-0.0064
527.8903	-0.0129
528.087	0.007
528.2837	-0.0159
528.4804	0.0051
528.677	-0.0119
528.8737	0.0006
529.0703	-0.0069
529.2669	-0.0075
529.4635	-0.0008
529.6601	-0.0026
529.8567	-0.0057
530.0532	-0.015
530.2498	0.0013
530.4463	-0.0026
530.6428	-0.0017
530.8393	0.0011
531.0358	-0.0054
531.2322	-0.0024
531.4287	-0.0095
531.6251	-0.0038
531.8215	0.0008
532.0179	0.0025
532.2143	0.0143
532.4107	0.0075
532.607	-0.0088
532.8034	-0.0021
532.9997	-0.0011
533.196	-0.0005
533.3923	-0.0106
533.5886	-0.0006
533.7848	0.0009
533.9811	-0.0036
534.1773	0.0005
534.3735	0.0019
534.5697	0.0006
534.7659	-0.0057
534.9621	0.0034
535.1582	-0.0078
535.3544	-0.0058
535.5505	-0.0003
535.7466	0.0022
535.9427	-0.0017
536.1387	-0.0101
536.3348	-0.0056
536.5308	0.0035
536.7269	-0.0013
536.9229	0.0066
537.1189	0.0023
537.3148	-0.002
537.5108	-0.0022
537.7068	-0.0043
537.9027	-0.0001
538.0986	-0.0076
538.2945	-0.0125
538.4904	-0.0099
538.6863	-0.0079
538.8821	-0.0006
539.078	0.0084
539.2738	0.0003
539.4696	-0.0051
539.6654	0.0084
539.8611	0.0129
540.0569	0.0029
540.2526	-0.0066
540.4484	-0.0018
540.6441	0.0071
540.8398	0.0086
541.0355	-0.0024
541.2311	0.0035
541.4268	-0.0058
541.6224	0.0056
541.818	0.0037
542.0136	-0.0077
542.2092	0.0061
542.4048	0.0041
542.6003	0.0037
542.7959	-0.0006
542.9914	-0.011
543.1869	0.0066
543.3824	-0.0029
543.5779	-0.0112
543.7734	-0.0047
543.9688	-0.0065
544.1642	0.0051
544.3596	-0.0068
544.555	0.002
544.7504	0.0048
544.9458	-0.0067
545.1411	0.0041
545.3365	-0.0063
545.5318	-0.0032
545.7271	-0.0058
545.9224	-0.0106
546.1177	0.0036
546.3129	0.0061
546.5081	-0.0071
546.7034	0.001
546.8986	-0.0061
547.0938	-0.0089
547.289	-0.0075
547.4841	0
547.6793	-0.0016
547.8744	-0.0075
548.0695	-0.0054
548.2646	-0.005
548.4597	0.0048
548.6548	0.0009
548.8498	0.0048
549.0448	0.0108
549.2399	0.004
549.4349	0.0129
549.6298	-0.0007
549.8248	-0.0018
550.0198	-0.0003
550.2147	-0.0057
550.4096	-0.0041
550.6045	-0.0016
550.7994	0.005
550.9943	0.0025
551.1892	-0.0057
551.384	0.0067
551.5788	-0.0064
551.7737	0.007
551.9685	-0.0026
552.1632	0.003
552.358	-0.0041
552.5528	-0.0028
552.7475	0.0025
552.9422	0.005
553.1369	-0.0043
553.3316	-0.0004
553.5263	-0.0028
553.7209	0.0059
553.9156	0.0012
554.1102	-0.0084
554.3048	-0.0113
554.4994	0.0143
554.694	0.0021
554.8885	0.0066
555.0831	-0.0045
555.2776	0.0005
555.4721	0.0002
555.6666	-0.003
555.8611	0.0055
556.0555	-0.0038
556.25	0.0003
556.4444	-0.001
556.6388	-0.0013
556.8332	-0.0035
557.0276	0.0037
557.222	0.0069
557.4163	-0.0009
557.6107	-0.0022
557.805	0.0096
557.9993	0.0058
558.1936	-0.0005
558.3879	0.0055
558.5821	-0.0052
558.7764	-0.0002
558.9706	0
559.1648	0.0042
559.359	-0.0062
559.5532	-0.0083
559.7473	0.0091
559.9415	-0.0034
560.1356	-0.0011
560.3297	-0.0049
560.5238	-0.0006
560.7179	-0.0072
560.9119	-0.0051
561.106	-0.0017
561.3	-0.0026
561.494	0.0062
561.688	-0.0004
561.882	-0.005
562.076	0.0008
562.2699	0.0006
562.4639	0.0036
562.6578	-0.0026
562.8517	0.001
563.0456	-0.003
563.2395	-0.0002
563.4333	0.0028
563.6272	0.0077
563.821	-0.0117
564.0148	0.0029
564.2086	-0.0118
564.4024	0.0026
564.5961	-0.0022
564.7899	0.0081
564.9836	-0.0019
565.1773	0.0017
565.371	0.0033
565.5647	0.0022
565.7584	-0.0065
565.952	0.0042
566.1456	0.0065
566.3393	0.0067
566.5329	0.0054
566.7264	0.0001
566.92	0.0005
567.1136	0.0065
567.3071	0.0013
567.5006	0.0056
567.6941	0.0059
567.8876	0.0038
568.0811	-0.0005
568.2745	0.0106
568.468	0.0017
568.6614	0.0057
568.8548	0.0035
569.0482	-0.0007
569.2416	0.004
569.4349	0.0026
569.6283	0.0119
569.8216	0.0071
570.0149	-0.0062
570.2082	0.0054
570.4015	0.009
570.5947	0.0076
570.788	0.004
570.9812	0.0023
571.1744	0.0021
571.3676	-0.0043
571.5608	0.0041
571.754	0.0068
571.9471	0.0036
572.1402	0.0026
572.3333	-0.0009
572.5264	0.0001
572.7195	0.0064
572.9126	0.0033
573.1057	-0.0001
573.2987	-0.0037
573.4917	0.001
573.6847	-0.0047
573.8777	0.0101
574.0707	0.0095
574.2636	-0.001
574.4566	0.0003
574.6495	0.0069
574.8424	0.0005
575.0353	0.004
575.2281	0.005
575.421	0.0084
575.6138	0.0075
575.8067	-0.0002
575.9995	0.0095
576.1923	0.01
576.385	0.0082
576.5778	0.0016
576.7706	0.0019
576.9633	0.0055
577.156	0.0051
577.3487	-0.0015
577.5414	0.0036
577.734	0.0007
577.9267	0.0068
578.1193	-0.008
578.3119	0.0007
578.5045	0.0047
578.6971	-0.0027
578.8897	0.0083
579.0822	0.0036
579.2747	0.0003
579.4673	-0.0042
579.6598	0.0014
579.8522	-0.0041
580.0447	-0.0064
580.2372	-0.0015
580.4296	0.0078
580.622	0.0034
580.8144	0.0007
581.0068	-0.006
581.1992	-0.0124
581.3915	-0.0057
581.5839	-0.0078
581.7762	-0.0056
581.9685	-0.0045
582.1608	0.0004
582.353	-0.0021
582.5453	-0.0009
582.7375	-0.0055
582.9298	0.0086
583.122	-0.0009
583.3142	-0.0023
583.5063	0.0066
583.6985	0.002
583.8906	-0.0011
584.0827	-0.0039
584.2749	0.0054
584.4669	0.0066
584.659	0.0014
584.8511	-0.0013
585.0431	0.0011
585.2352	0.0074
585.4272	0.0019
585.6192	0.0037
585.8111	0.0034
586.0031	-0.002
586.195	0
586.387	0.0039
586.5789	0.0031
586.7708	0.0041
586.9627	0.0012
587.1545	0.0019
587.3464	0.0042
587.5382	0.0052
587.73	0.0065
587.9218	0.0074
588.1136	0.0011
588.3053	0.0082
588.4971	0.0014
588.6888	-0.0087
588.8805	0.0013
589.0722	0.01
589.2639	0.0042
589.4556	0.0014
589.6472	-0.0042
589.8389	-0.0023
590.0305	-0.0056
590.2221	-0.0016
590.4137	-0.0118
590.6052	0.0058
590.7968	0.0068
590.9883	0.0005
591.1798	-0.0026
591.3713	0.0061
591.5628	0.0031
591.7543	0.0036
591.9458	0.0049
592.1372	-0.0046
592.3286	0.0102
592.52	0.0072
592.7114	0.0007
592.9028	0.0059
593.0941	-0.0056
593.2855	0.0023
593.4768	-0.0017
593.6681	-0.0086
593.8594	-0.0039
594.0506	-0.0029
594.2419	0.0027
594.4331	0.0038
594.6244	0.005
594.8156	-0.0066
595.0067	-0.0011
595.1979	-0.0013
595.3891	0.008
595.5802	0.0018
595.7713	0.0031
595.9624	-0.0016
596.1535	0.0115
596.3446	0.0006
596.5357	0.0062
596.7267	0.0054
596.9177	-0.0039
597.1087	-0.0068
597.2997	0.0039
597.4907	0.0038
597.6817	-0.0057
597.8726	0.0079
598.0635	0.0002
598.2544	0.0102
598.4453	0.0014
598.6362	-0.0006
598.827	-0.0056
599.0179	0.0029
599.2087	0.0034
599.3995	0.0055
599.5903	0.0042
599.7811	0.005
599.9718	0.0052
600.1626	0.0003
600.3533	-0.0057
600.544	0.0035
600.7347	0.0002
600.9254	0.0021
601.116	-0.0049
601.3067	-0.0015
601.4973	-0.0006
601.6879	0.008
601.8785	0.0016
602.0691	0.0059
602.2596	0.0095
602.4502	0.009
602.6407	0.013
602.8312	0.0053
603.0217	-0.0013
603.2122	0.0056
603.4027	-0.001
603.5931	0.0015
603.7835	-0.0014
603.9739	0.0032
604.1643	0.0043
604.3547	-0.0011
604.5451	0.0073
604.7354	-0.0024
604.9257	0.0045
605.116	-0.001
605.3063	0.007
605.4966	0.009
605.6869	0.0069
605.8771	0.0091
606.0673	0.0081
606.2575	0.0086
606.4477	0.0096
606.6379	0.0113
606.8281	0.0009
607.0182	0.0019
607.2083	0.0125
607.3985	-0.0035
607.5885	0.0003
607.7786	0.0057
607.9687	-0.0018
608.1587	0.0025
608.3488	0.0078
608.5388	-0.0002
608.7288	0.0014
608.9187	-0.0059
609.1087	-0.0034
609.2986	-0.0073
609.4886	0.0021
609.6785	-0.0017
609.8684	0.0064
610.0582	0.0052
610.2481	0.0032
610.4379	0.0031
610.6278	-0.0011
610.8176	-0.0044
611.0074	-0.0008
611.1971	-0.0014
611.3869	0.004
611.5766	-0.0027
611.7664	0.0008
611.9561	0.0072
612.1458	0.0048
612.3354	-0.0004
612.5251	0.0019
612.7147	0.0056
612.9044	0.0123
613.094	-0.0029
613.2836	0.0078
613.4731	-0.0096
613.6627	-0.0045
613.8522	0.0027
614.0417	0.0115
614.2313	-0.0001
614.4207	-0.0025
614.6102	0.0076
614.7997	0.0028
614.9891	-0
615.1785	0.0068
615.3679	0.0002
615.5573	0.0101
615.7467	0.0007
615.9361	-0.0022
616.1254	0.0011
616.3147	0.0054
616.504	0.0051
616.6933	0.0006
616.8826	0.002
617.0718	0.005
617.2611	0.0057
617.4503	0.0024
617.6395	0.0027
617.8287	0.0045
618.0179	0.0007
618.207	0.0105
618.3961	0.01
618.5853	0.004
618.7744	0.0061
618.9634	0.0097
619.1525	0.0066
619.3416	0.0077
619.5306	0.003
619.7196	0.0069
619.9086	-0.0016
620.0976	0.0037
620.2866	-0.0013
620.4755	0.0063
620.6645	0.01
620.8534	0.0096
621.0423	0.0044
621.2312	0.0109
621.42	0.0115
621.6089	0.0047
621.7977	0.0086
621.9865	0.0017
622.1753	0.0067
622.3641	-0.0062
622.5529	0.0067
622.7416	0.004
622.9303	-0.0002
623.1191	0.0006
623.3078	-0.0056
623.4964	0.0052
623.6851	0.0023
623.8737	-0.0011
624.0624	0.0107
624.251	-0.0069
624.4396	0.0016
624.6282	-0.0066
624.8167	0.0011
625.0053	0.0051
625.1938	0.007
625.3823	0.0054
625.5708	0.0026
625.7593	-0.0007
625.9477	-0.0018
626.1362	0.0037
626.3246	0.0013
626.513	0.0038
626.7014	0.0047
626.8898	0.0061
627.0781	0.0033
627.2665	0.0021
627.4548	0.0014
627.6431	0.006
627.8314	0.015
628.0197	0.01
628.2079	0.0014
628.3962	0.0015
628.5844	0.0079
628.7726	0.0142
628.9608	0.0076
629.1489	0.0041
629.3371	0.0067
629.5252	0.0066
629.7134	0.0065
629.9015	0.0012
630.0895	0.0016
630.2776	0.0054
630.4657	-0.0016
630.6537	0.0029
630.8417	-0.0063
631.0297	-0.0029
631.2177	0.0014
631.4057	-0.0029
631.5936	0.0107
631.7815	0.0107
631.9695	-0.0038
632.1574	0.0032
632.3452	0.0127
632.5331	0.008
632.7209	0.0069
632.9088	0.0115
633.0966	0.0145
633.2844	0.0046
633.4722	0.0007
633.6599	0.0105
633.8477	0.0113
634.0354	0.005
634.2231	0.0118
634.4108	0.0105
634.5985	0.0095
634.7861	0.0105
634.9738	0.0075
635.1614	0.0086
635.349	0.004
635.5366	-0.0012
635.7242	0.0019
635.9117	0.0029
636.0993	-0.006
636.2868	-0.0004
636.4743	-0.0061
636.6618	0.0067
636.8492	0.0025
637.0367	0.0011
637.2241	-0.0043
637.4115	-0.0089
637.5989	-0.0005
637.7863	-0.0056
637.9737	-0.0001
638.161	0.0034
638.3484	0.0025
638.5357	0.0039
638.723	-0.0005
638.9103	-0.0002
639.0975	0.0055
639.2848	0.0102
639.472	0.0058
639.6592	0.0094
639.8464	0.0107
640.0336	0.0088
640.2208	0.0017
640.4079	0.0054
640.595	-0.0014
640.7821	0.0008
640.9692	0.0021
641.1563	0.0099
641.3434	0.0017
641.5304	0.0022
641.7174	0.001
641.9044	0.0071
642.0914	0.0069
642.2784	0.0096
642.4653	0.0134
642.6523	0.0019
642.8392	0.0036
643.0261	0.0052
643.213	0.0029
643.3999	-0.005
643.5867	0.0017
643.7735	0.0065
643.9604	0.0006
644.1472	0.0101
644.3339	0.0079
644.5207	0.0064
644.7075	0.0007
644.8942	0.006
645.0809	0.0108
645.2676	0.0095
645.4543	0.0032
645.6409	0.0149
645.8276	0.0036
646.0142	0.0015
646.2008	0.0047
646.3874	-0.0012
646.574	0.002
646.7605	0.001
646.9471	-0.0071
647.1336	0.0037
647.3201	0.0092
647.5066	0.0004
647.6931	0.0109
647.8795	0.004
648.0659	0.0024
648.2524	0.0156
648.4388	0.0023
648.6252	0.0094
648.8115	0.0053
648.9979	0.0005
649.1842	0.0026
649.3705	0.0008
649.5568	0.0032
649.7431	0.0034
649.9294	0.0041
650.1156	0.0062
650.3018	-0.0041
650.488	0.0036
650.6742	0.0086
650.8604	0.006
651.0466	-0.0008
651.2327	-0.0012
651.4188	0.0053
651.6049	0.0027
651.791	-0.0043
651.9771	0.011
652.1632	0.0026
652.3492	0.0076
652.5352	-0.0032
652.7212	0.0024
652.9072	0.0117
653.0932	0.006
653.2791	-0.0005
653.465	0.0077
653.651	-0.0017
653.8369	0.0031
654.0227	0.0016
654.2086	0.0054
654.3944	0.0068
654.5803	0.0031
654.7661	-0.0007
654.9519	0.0099
655.1377	-0.0026
655.3234	0.0033
655.5092	0.0017
655.6949	-0.002
655.8806	0.0031
656.0663	-0.001
656.2519	0.0022
656.4376	0.0005
656.6232	0.0077
656.8088	0.0033
656.9945	-0.0004
657.18	0.004
657.3656	0.0018
657.5511	0.0032
657.7367	0.0038
657.9222	0.0092
658.1077	-0.0006
658.2932	0.0059
658.4786	-0.0069
658.6641	0.0025
658.8495	-0.0021
659.0349	0.0014
659.2203	0.006
659.4057	0.0006
659.591	0.0099
659.7764	-0.0013
659.9617	-0.0008
660.147	-0.0003
660.3323	0.0016
660.5176	0.0103
660.7028	0.0098
660.888	0.0058
661.0733	0.0087
661.2585	-0.002
661.4436	0.0023
661.6288	0.0058
661.8139	0.0038
661.9991	0.0038
662.1842	0.0006
662.3693	0.0017
662.5544	-0.0028
662.7394	0.0047
662.9245	-0.0018
663.1095	0.0092
663.2945	-0.0035
663.4795	-0.0044
663.6644	0.0078
663.8494	0.0076
664.0343	0.0018
664.2193	-0.0069
664.4042	0.0061
664.589	-0.0026
664.7739	0.0045
664.9587	-0.0049
665.1436	0.0004
665.3284	0.0029
665.5132	-0.0032
665.698	-0.0025
665.8827	0.0078
666.0675	0.0041
666.2522	-0.0062
666.4369	0.0021
666.6216	0.0089
666.8063	0.0065
666.9909	0.0056
667.1756	0.0028
667.3602	0.0061
667.5448	0.0046
667.7294	0.0127
667.9139	0.0107
668.0985	0.0173
668.283	0.0112
668.4675	0.006
668.652	0.0027
668.8365	0.0026
669.0209	0.0123
669.2054	0.0136
669.3898	0.0073
669.5742	0.0073
669.7586	0.0063
669.943	0.0077
670.1273	0.0131
670.3117	0.007
670.496	0.0151
670.6803	0.0159
670.8646	0.0083
671.0488	-0.0008
671.2331	0.0035
671.4173	0.0114
671.6015	0.0086
671.7857	0.0087
671.9699	0.0135
672.1541	0.0067
672.3382	0.0054
672.5223	0.0076
672.7064	0.0046
672.8905	0.0029
673.0746	0.0044
673.2587	-0.0022
673.4427	0.0056
673.6267	0.0036
673.8107	0.0141
673.9947	0.0057
674.1787	0.0105
674.3626	0.0021
674.5465	0.0159
674.7304	0.0074
674.9143	0.0068
675.0982	0.0031
675.2821	-0.0063
675.4659	0.0037
675.6497	0.0067
675.8335	0.0045
676.0173	0.0012
676.2011	0.0017
676.3849	0.0044
676.5686	-0.0024
676.7523	0.0022
676.936	0.0042
677.1197	-0.0004
677.3034	-0.0027
677.487	-0.0007
677.6706	0.0069
677.8542	0.0082
678.0378	0.004
678.2214	0.0064
678.405	0.0047
678.5885	-0.0032
678.772	0.0004
678.9555	-0.0019
679.139	0.0067
679.3225	0.0027
679.5059	0.0036
679.6894	0.0061
679.8728	0.008
680.0562	-0.0013
680.2395	-0.0054
680.4229	0.0042
680.6062	0.0004
680.7896	-0.0009
680.9729	-0.0039
681.1562	0.0044
681.3394	-0.0027
681.5227	-0.0068
681.7059	0.009
681.8891	-0.0001
682.0723	0.0052
682.2555	0.0108
682.4387	0.005
682.6218	-0.0047
682.805	0.0073
682.9881	0.0111
683.1712	0.0092
683.3542	0.0002
683.5373	0.0105
683.7203	0.0037
683.9034	0.0058
684.0864	-0.0021
684.2694	-0.0048
684.4523	0.0028
684.6353	-0.0088
684.8182	0.002
685.0011	-0.0052
685.184	0.0061
685.3669	-0.0016
685.5498	0.0026
685.7326	0.0072
685.9154	-0.0057
686.0982	0.0044
686.281	0.0096
686.4638	0.004
686.6465	-0.0018
686.8293	-0.0036
687.012	0.001
687.1947	-0.0071
687.3774	0.0005
687.56	-0.0028
687.7427	0.0048
687.9253	-0.0028
688.1079	-0.0005
688.2905	0.0123
688.4731	0.0078
688.6556	0.001
688.8382	0.003
689.0207	0.004
689.2032	-0.0029
689.3857	-0.0021
689.5681	0.0037
689.7506	0.0035
689.933	0.0027
690.1154	0.0045
690.2978	0.0065
690.4802	0.0076
690.6626	-0.0045
690.8449	0.001
691.0272	0.0066
691.2095	-0.0014
691.3918	-0.002
691.5741	0.0051
691.7563	0.0094
691.9386	0.0052
692.1208	0.0022
692.303	0.001
692.4852	0.0033
692.6673	0.0065
692.8495	0.001
693.0316	0.0018
693.2137	0.0059
693.3958	0.0034
693.5778	-0.0009
693.7599	-0.0034
693.9419	0.0056
694.1239	-0.0018
694.3059	-0.0015
694.4879	0.0084
694.6699	0.0091
694.8518	0.0008
695.0337	-0.0038
695.2157	0.0097
695.3975	0.003
695.5794	0.0023
695.7613	0.0031
695.9431	-0.0026
696.1249	0.0103
696.3067	0.0071
696.4885	0.0073
696.6703	0.0059
696.852	0.0073
697.0337	0.0111
697.2154	0.0061
697.3971	0.0102
697.5788	-0.0032
697.7605	0.0063
697.9421	0.0093
698.1237	0.0056
698.3053	0.0072
698.4869	0.0049
698.6685	-0.0033
698.85	0.0028
699.0315	0.0065
699.213	0.0044
699.3945	0.0053
699.576	0.0154
699.7575	0.0105
699.9389	0.0092
700.1203	-0.0017
700.3017	-0.001
700.4831	-0.0052
700.6645	0.0047
700.8458	0.0006
701.0271	0.0005
701.2084	0.01
701.3897	0.0012
701.571	0.0047
701.7523	-0.0086
701.9335	0.0033
702.1147	-0.0029
702.2959	0.0014
702.4771	-0.0029
702.6583	0.0026
702.8394	-0.002
703.0205	0.0081
703.2016	-0.0005
703.3827	0.0021
703.5638	0.0103
703.7449	0.007
703.9259	0.0087
704.1069	-0.0001
704.2879	0.0019
704.4689	0.0034
704.6499	-0.0012
704.8308	0.0022
705.0117	0.0064
705.1927	0.0041
705.3735	0.0022
705.5544	-0.0019
705.7353	-0.0021
705.9161	-0.0005
706.0969	-0.0075
706.2777	-0.0018
706.4585	0.0054
706.6393	0.0031
706.82	-0.0002
707.0007	0.0084
707.1815	0.0077
707.3621	0.0065
707.5428	0.0015
707.7235	0.0136
707.9041	0.0115
708.0847	-0.0039
708.2653	-0.0052
708.4459	-0.0046
708.6265	0.0018
708.807	0.0009
708.9875	-0.0027
709.168	-0.0065
709.3485	-0.0062
709.529	-0.0021
709.7095	-0.0151
709.8899	0.0055
710.0703	-0.0078
710.2507	0.0051
710.4311	0
710.6115	-0.0042
710.7918	-0.0046
710.9721	-0.0031
711.1524	-0.0031
711.3327	0.0015
711.513	0.003
711.6932	0.0057
711.8735	0.0044
712.0537	0.0013
712.2339	-0.0051
712.4141	-0.0058
712.5942	0.0067
712.7744	0.0027
712.9545	-0.0062
713.1346	-0.001
713.3147	0.0029
713.4947	0.0039
713.6748	0.004
713.8548	-0.0013
714.0348	-0.0009
714.2148	-0.0019
714.3948	0.0082
714.5748	0.0031
714.7547	0.0009
714.9346	0.0074
715.1145	0.0015
715.2944	-0.0066
715.4743	-0
715.6541	-0.0011
715.834	0.0097
716.0138	-0.0025
716.1936	-0.0082
716.3733	0.0072
716.5531	0.0117
716.7328	-0
716.9126	-0.0015
717.0923	0.0003
717.2719	0.0032
717.4516	0.005
717.6312	-0.0034
717.8109	-0.0104
717.9905	-0.0066
718.1701	-0.0082
718.3496	-0.005
718.5292	0.0048
718.7087	-0.0063
718.8882	-0.0002
719.0677	0.0015
719.2472	-0.003
719.4267	-0.0012
719.6061	-0.0054
719.7856	0.0098
719.965	-0.0051
720.1443	-0.0052
720.3237	0.0062
720.5031	-0.0025
720.6824	0.0029
720.8617	0.005
721.041	0.0062
721.2203	0.0106
721.3995	0.0054
721.5788	0.0054
721.758	0.0085
721.9372	0.0012
722.1164	0.0017
722.2956	0.0094
722.4747	0.0028
722.6538	0.0064
722.8329	0.0098
723.012	0.0026
723.1911	0.0044
723.3702	0.003
723.5492	0.0116
723.7282	0.0032
723.9072	-0.0045
724.0862	0.0064
724.2652	0.0005
724.4441	-0.0069
724.623	-0.0004
724.8019	-0.0011
724.9808	0.0019
725.1597	-0.0131
725.3385	0.0047
725.5174	0.0027
725.6962	0.0011
725.875	0.007
726.0538	-0.0006
726.2325	-0
726.4112	0.0013
726.59	-0.0047
726.7687	-0.0071
726.9474	-0.0017
727.126	0.0032
727.3047	-0.0092
727.4833	0.0041
727.6619	-0.0111
727.8405	-0.0064
728.0191	0.0004
728.1976	0.0047
728.3762	0.0011
728.5547	0.0042
728.7332	-0.0038
728.9116	0.0069
729.0901	0.0068
729.2686	0.0056
729.447	0.0023
729.6254	-0.001
729.8038	0.0026
729.9821	-0.0055
730.1605	0.0027
730.3388	0.007
730.5171	0.0057
730.6954	-0.0061
730.8737	0.0041
731.0519	0.0056
731.2302	0.0046
731.4084	0.0048
731.5866	0.0013
731.7648	-0.0029
731.9429	0.0084
732.1211	-0.002
732.2992	0.0014
732.4773	0.0011
732.6554	-0.0034
732.8335	0.0042
733.0115	0.008
733.1896	0.0116
733.3676	-0.0035
733.5456	0.0025
733.7235	0.005
733.9015	-0.0033
734.0794	0.0006
734.2574	0.0085
734.4353	-0.0032
734.6131	0.0066
734.791	0.0017
734.9689	0.0021
735.1467	-0.0012
735.3245	-0.0083
735.5023	-0.0113
735.68	0.0011
735.8578	0.004
736.0355	-0.0114
736.2132	-0.0048
736.3909	-0.0024
736.5686	-0.0084
736.7463	0.0073
736.9239	-0.0008
737.1015	-0.0074
737.2791	0.0172
737.4567	0.0004
737.6343	0.0026
737.8118	0.0077
737.9894	0.0002
738.1669	-0.0025
738.3444	-0.0022
738.5218	0.0004
738.6993	0.0005
738.8767	-0.0022
739.0541	0.0117
739.2315	-0.0046
739.4089	0.0058
739.5863	0.0093
739.7636	-0.0091
739.9409	0.0079
740.1182	0.0097
740.2955	0.0092
740.4728	0.0052
740.65	0.0008
740.8272	0.0053
741.0044	0.0038
741.1816	0.0047
741.3588	0.0051
741.5359	0.0032
741.7131	-0.0076
741.8902	-0.0053
742.0673	-0.0019
742.2444	-0.0123
742.4214	-0.0006
742.5985	-0.0008
742.7755	-0.0023
742.9525	-0.0105
743.1295	-0.0059
743.3064	0.0044
743.4834	0.0007
743.6603	-0.0034
743.8372	0.0044
744.0141	-0.0007
744.191	0.0099
744.3678	0.0004
744.5446	0.0013
744.7215	0.0003
744.8982	0.0072
745.075	0.0018
745.2518	0.0067
745.4285	0.0026
745.6052	-0.0008
745.7819	-0.0028
745.9586	0.0001
746.1353	-0.0051
746.3119	-0.0058
746.4885	-0.0081
746.6651	-0.0034
746.8417	-0.0049
747.0183	0.0081
747.1948	-0.0044
747.3714	0.0083
747.5479	0.0066
747.7244	-0.0057
747.9008	0.0088
748.0773	-0.0016
748.2537	-0.0108
748.4301	-0.0037
748.6065	0.0037
748.7829	0.005
748.9593	-0.0001
749.1356	0.0054
749.3119	0.0051
749.4882	-0.0072
749.6645	0.007
749.8408	-0.0064
750.017	-0.0091
750.1933	-0.001
750.3695	-0.003
750.5457	0.003
750.7218	-0.011
750.898	-0.0001
751.0741	-0.0006
751.2502	-0.0071
751.4263	-0.0072
751.6024	-0.0057
751.7784	0.0013
751.9545	-0.008
752.1305	0.0101
752.3065	0.001
752.4825	0.0107
752.6584	-0.003
752.8344	-0.0103
753.0103	-0.0092
753.1862	-0.0072
753.3621	-0.0058
753.5379	0.002
753.7138	-0.0017
753.8896	0.0032
754.0654	0.0017
754.2412	0.0101
754.417	-0.0021
754.5927	-0.0074
754.7685	-0.0036
754.9442	-0.0085
755.1199	0.0011
755.2956	-0.0022
755.4712	0.0105
755.6469	0.0036
755.8225	-0.006
755.9981	-0.002
756.1736	-0.0051
756.3492	-0.0061
756.5248	-0.0062
756.7003	-0.0001
756.8758	0.0062
757.0513	-0.0087
757.2267	-0.0053
757.4022	0.0086
757.5776	-0.0024
757.753	0.0051
757.9284	0.0009
758.1038	0.0101
758.2791	0.0071
758.4545	-0.0146
758.6298	-0.0006
758.8051	0.003
758.9803	0.0053
759.1556	0.0065
759.3308	0.0045
759.506	0.019
759.6812	0.0065
759.8564	0.0118
760.0316	-0.0047
760.2067	0.0061
760.3819	0.0136
760.557	0.0147
760.732	0.0067
760.9071	-0.0084
761.0821	0.0068
761.2572	0.0102
761.4322	0.0026
761.6072	0.0024
761.7821	-0.0031
761.9571	0.0032
762.132	-0.0036
762.3069	-0.0008
762.4818	0.0085
762.6567	-0.0046
762.8316	-0.0016
763.0064	-0.0004
763.1812	-0.0002
763.356	-0.0019
763.5308	0.0004
763.7055	-0.0014
763.8803	-0.0055
764.055	-0.0052
764.2297	0.0005
764.4044	-0.003
764.579	0.0014
764.7537	-0.0125
764.9283	0.0072
765.1029	0.0091
765.2775	-0.0053
765.4521	-0.0098
765.6266	-0.0015
765.8011	-0.0052
765.9756	0.0035
766.1501	0.0029
766.3246	-0.0099
766.4991	-0.0072
766.6735	0.0052
766.8479	-0.0077
767.0223	0.021
767.1967	-0.0044
767.371	0.0044
767.5454	-0.0065
767.7197	-0.004
767.894	-0.0046
768.0683	-0.0057
768.2425	0.003
768.4168	0.0028
768.591	-0.0017
768.7652	-0.0062
768.9394	0.0025
769.1135	0.0053
769.2877	0.0121
769.4618	0.0027
769.6359	0.0015
769.81	-0.0041
769.984	-0.003
770.1581	-0.01
770.3321	-0.0107
770.5061	0.0107
770.6801	-0.0121
770.8541	-0.0007
771.028	-0.0042
771.202	-0.0061
771.3759	0.0137
771.5498	-0.001
771.7236	0.0028
771.8975	0.0022
772.0713	0.0023
772.2451	0.0089
772.4189	0.0183
772.5927	0.0161
772.7665	0.0118
772.9402	0.0082
773.1139	0.0061
773.2876	0.0001
773.4613	0.009
773.635	0.0085
773.8086	0.0004
773.9822	0.0036
774.1558	0.0058
774.3294	-0.0096
774.503	0.0071
774.6765	0.0012
774.8501	0.0022
775.0236	0.0037
775.1971	0.0079
775.3705	-0.0085
775.544	0.0165
775.7174	-0.004
775.8908	0.0031
776.0642	-0.0028
776.2376	0.0027
776.4109	-0.0017
776.5843	0.003
776.7576	0.0147
776.9309	0.0127
777.1041	0.0174
777.2774	0.0124
777.4506	0.0138
777.6238	0.0046
777.797	-0.0002
777.9702	0.0009
778.1434	0.0024
778.3165	0.0092
778.4896	0.0022
778.6627	0.01
778.8358	-0.0009
779.0089	0.0106
779.1819	0.0131
779.3549	0.0246
779.5279	0.0107
779.7009	0.0073
779.8739	0.014
780.0468	0.0137
780.2197	0.0097
780.3926	0.0123
780.5655	0.0032
780.7384	0.0039
780.9112	0.0059
781.0841	-0.0044
781.2569	0.0022
781.4297	0.0166
781.6024	0.018
781.7752	0.0246
781.9479	0.0072
782.1206	0.0019
782.2933	-0.0015
782.466	0.0032
782.6386	0.0083
782.8113	0.0019
782.9839	0.0021
783.1565	0.0032
783.329	0.0041
783.5016	0.0007
783.6741	0.0025
783.8466	0.0055
784.0191	0.0107
784.1916	0.0001
784.3641	0.0053
784.5365	0.0107
784.7089	-0.0084
784.8813	0.0018
785.0537	0.0108
785.2261	-0.0083
785.3984	-0.0047
785.5707	0.0056
785.743	-0.0035
785.9153	0.0026
786.0876	0.0097
786.2598	0.0016
786.432	-0.0068
786.6042	0.0103
786.7764	0.0012
786.9486	0.0071
787.1207	-0.0028
787.2928	0.0004
787.4649	0.0044
787.637	0.0099
787.8091	-0.0048
787.9811	-0.0011
788.1532	0.0156
788.3252	-0.0019
788.4972	-0.0068
788.6691	0.0016
788.8411	0.0149
789.013	-0.0074
789.1849	0.0026
789.3568	-0.0102
789.5287	0.0077
789.7005	0.0061
789.8723	0.0038
790.0442	0.0203
790.2159	0.0168
790.3877	-0.0011
790.5595	-0.0175
790.7312	0.0172
790.9029	0.0207
791.0746	0.0015
791.2463	0.0068
791.4179	0.0024
791.5896	-0.0106
791.7612	0.0166
791.9328	0.0154
792.1044	-0.0031
792.2759	-0.0124
792.4474	-0.0034
792.619	0.0089
792.7905	0.0037
792.9619	0.0181
793.1334	0.0135
793.3048	0.0083
793.4762	0.0118
793.6476	0.0076
793.819	-0.01
793.9904	0.0091
794.1617	-0.0085
794.333	0.009
794.5043	-0.0144
794.6756	0.0019
794.8469	-0.0178
795.0181	-0.0075
795.1893	-0.0104
795.3605	0.0036
795.5317	-0.0009
795.7029	-0.0082
795.874	0.0026
796.0452	-0.0066
796.2163	-0.0123
796.3873	-0.0085
796.5584	-0.0038
796.7294	0.0051
796.9005	0.0055
797.0715	0.0011
797.2425	-0.0369
797.4134	-0.0039
797.5844	0.0006
797.7553	0.0062
797.9262	-0.0037
798.0971	-0.014
798.2679	-0.0029
798.4388	-0.0068
798.6096	-0.0129
798.7804	-0.0048
798.9512	0.0027
799.122	-0.0186
799.2927	0.0181
799.4635	0.0097
799.6342	-0.0135
799.8049	-0.0072
799.9755	-0.0015
800.1462	0.0036
800.3168	-0.0087
800.4874	0.0015
800.658	0.0161
800.8286	0.0109
800.9991	-0.0112
801.1696	0.0116
801.3402	0.0059
801.5106	-0.018
801.6811	-0.0109
801.8516	0.0085
802.022	-0.011
802.1924	0.0005
802.3628	0.0011
802.5332	0.0148
802.7035	0.01
802.8739	-0.0284
803.0442	-0.0158
803.2145	0.0189
803.3847	-0.0302
803.555	-0.0081
803.7252	-0.0105
803.8954	-0.0154
804.0656	-0.0128
804.2358	0.0001
804.4059	0.0174
804.5761	0.0005
804.7462	0.0043
804.9163	-0.0083
805.0864	-0.0171
805.2564	0.003
805.4264	-0.0005
805.5965	-0.0083
805.7665	0.0134
805.9364	0.003
806.1064	0.027
806.2763	0.0129
806.4462	0.019
806.6161	0.0225
806.786	0.0105
806.9559	-0.0033
807.1257	-0.004
807.2955	0.0049
807.4653	0.0063
807.6351	-0.0074
807.8048	0.0041
807.9746	0.0077
808.1443	-0.0006
808.314	-0.0032
808.4837	-0.0161
808.6533	-0.0072
808.8229	0.0228
808.9926	0.0009
809.1622	-0.0101
809.3317	-0.0128
809.5013	-0.0066
809.6708	0.0102
809.8403	0.0219
810.0098	-0.0011
810.1793	0.0119
810.3488	0.0024
810.5182	0.0014
810.6876	0.0072
810.857	-0.0094
811.0264	0.0252
811.1958	0.0092
811.3651	0.0241
811.5344	0.0177
811.7037	-0.0168
811.873	0.0045
812.0422	-0.0103
812.2115	-0.0092
812.3807	-0.0131
812.5499	-0.0057
812.7191	0.011
812.8882	-0.0063
813.0574	0.0054
813.2265	-0.0161
813.3956	0.0058
813.5646	0.0188
813.7337	-0.0283
813.9027	0.0161
814.0718	0.0267
814.2407	0.0276
814.4097	0.0106
814.5787	-0.0142
814.7476	0.0113
814.9165	-0.0026
815.0854	-0.0004
815.2543	0.0022
815.4232	0.0075
815.592	0.0331
815.7608	0.0152
815.9296	0.0255
816.0984	0.0255
816.2671	-0.0031
816.4359	-0.0088
816.6046	0.0055
816.7733	0.0182
816.942	0.0014
817.1106	0.0127
817.2793	0.0122
817.4479	0.0066
817.6165	0.0026
817.785	0.0218
817.9536	-0.0311
818.1221	-0.01
818.2906	-0.0046
818.4591	-0.0111
818.6276	-0.0235
818.7961	0.0085
818.9645	-0.0022
819.1329	0.0065
819.3013	0.0271
819.4697	0.0319
819.638	0.0109
819.8064	0.0088
819.9747	0.003
820.143	-0.008
820.3113	-0.0077
820.4795	0.0115
820.6477	0.0068
820.816	0.0076
820.9842	-0.0052
821.1523	-0.0161
821.3205	-0.0544
821.4886	-0.0027
821.6567	0.0092
821.8248	0.0019
821.9929	0.0124
822.1609	0.0036
822.329	0.0099
822.497	0.0192
822.665	-0.0119
822.833	-0.0172
823.0009	0.0112
823.1688	0.0047
823.3367	0.0407
823.5046	0.0146
823.6725	0.0287
823.8404	-0.0065
824.0082	0.0033
824.176	-0.0202
824.3438	0.0177
824.5116	-0.0258
824.6793	0.0102
824.847	-0.0192
825.0147	0.0028
825.1824	0.0035
825.3501	0.0296
825.5177	-0.0437
825.6854	-0.0167
825.853	0.0074
826.0206	-0.0394
826.1881	0.0015
826.3557	-0.0339
826.5232	-0.0024
826.6907	-0.034
826.8582	0.002
827.0257	-0.0034
827.1931	-0.0136
827.3605	-0.0016
827.528	0.0188
827.6953	-0.0131
827.8627	-0.0067
828.03	0.0263
828.1974	-0.0104
828.3647	-0.0059
828.532	0.0042
828.6992	-0.0157
828.8665	-0.0097
829.0337	-0.0161
829.2009	0.0449
829.3681	-0.0003
829.5352	0.0049
829.7024	-0.0228
829.8695	-0.0269
830.0366	0.0553
830.2037	-0.0321
830.3707	0.0411
830.5378	0.0024
830.7048	-0.0236
830.8718	-0.0057
831.0388	-0.0355
831.2057	0.0155
831.3727	0.0003
831.5396	-0.0491
831.7065	-0.0026
831.8734	-0.0051
832.0402	-0.034
832.2071	-0.0437
832.3739	-0.0003
832.5407	-0.0161
832.7075	-0.0287
832.8742	0.0071
833.041	-0.0096
833.2077	0.0089
833.3744	0.036
833.541	0.0088
833.7077	-0.0287
833.8743	-0.0183
834.0409	-0.0153
834.2075	0.0171
834.3741	0.0128
834.5407	-0.0104
834.7072	0.0185
834.8737	-0.0267
835.0402	0.0003
835.2067	0.0286
835.3731	0.0319
835.5395	-0.0239
835.706	0.0115
835.8723	-0.011
836.0387	-0.0077
836.2051	-0.035
836.3714	-0.0031
836.5377	0.0094
836.704	0.0061
836.8703	0.0299
837.0365	-0.032
837.2027	-0.0218
837.3689	-0.0034
837.5351	-0.0258
837.7013	-0.0154
837.8674	-0.083
838.0335	-0.0114
838.1997	0.0255
838.3657	-0.0503
838.5318	-0.0231
838.6978	0.0524
838.8639	-0.0004
839.0299	-0.0383
839.1958	-0.0074
839.3618	-0.0064
839.5277	-0.0237
839.6937	-0.0045
839.8596	-0.0041
840.0254	0.019
840.1913	-0.0078
840.3571	0.0111
840.523	-0.0161
840.6888	-0.0033
840.8545	-0.032
841.0203	-0.0039
841.186	-0.0122
841.3517	0.0517
841.5174	-0.0091
841.6831	-0.0098
841.8488	-0.0085
842.0144	0.0051
842.18	-0.0031
842.3456	0.0206
842.5112	0.0139
842.6767	-0.0044
842.8422	-0.0214
843.0077	-0.0609
843.1732	0.0332
843.3387	-0.0006
843.5042	-0.0222
843.6696	-0.0042
843.835	-0.0277
844.0004	0.0455
844.1657	-0.0248
844.3311	-0.0184
844.4964	-0.0784
844.6617	-0.0568
844.827	0.0172
844.9923	0.0052
845.1575	0.0392
845.3227	-0.012
845.4879	-0.0267
845.6531	-0.0721
845.8183	-0.0654
845.9834	-0.0555
846.1485	-0.0279
846.3136	-0.0168
846.4787	-0.1243
846.6438	0.0176
846.8088	-0.0221
846.9738	-0.0776
847.1388	-0.0253
847.3038	-0.02
847.4687	-0.0352
847.6337	0.0372
847.7986	-0.0137
847.9635	-0.0095
848.1284	0.016
848.2932	0.0296
848.458	-0.0506
848.6228	0.0399
848.7876	0.0405
848.9524	-0.1003
849.1172	-0.0877
849.2819	-0.0482
849.4466	-0.0028
849.6113	-0.0559
849.7759	-0.005
849.9406	-0.0338
850.1052	0.0437
850.2698	-0.0355
850.4344	0.0466
850.599	-0.0583
850.7635	0.0751
850.928	0.0591
851.0925	0.0068
851.257	0.0062
851.4215	-0.0558
851.5859	-0.0011
851.7503	-0.0275
851.9147	-0.0057
852.0791	-0.0733
852.2434	-0.0047
852.4078	0.0042
852.5721	0.0577
852.7364	-0.0704
852.9007	-0.206
853.0649	-0.1172
853.2291	-0.0111
853.3934	-0.0692
853.5575	0.1959
853.7217	-0.1126
853.8859	-0.2285
854.05	-0.0627
854.2141	-0.0879
854.3782	-0.1721
854.5423	-0.0815
854.7063	0.1057
854.8703	0.0544
855.0343	0.0047
855.1983	-0.1979
855.3623	0.2226
855.5262	0.0448
855.6901	-0.0179
855.854	0.0115
856.0179	-0.0351
856.1818	0.0921
856.3456	-0.1008
856.5094	-0.1099
856.6732	-0.0824
856.837	-0.1188
857.0008	-0.0125
857.1645	0.0464
857.3282	-0.2466
857.4919	0.0561
857.6556	0.1087
857.8192	0.036
857.9828	-0.0208
858.1465	-0.1144
858.31	-0.1758
858.4736	-0.0347
858.6372	-0.2749
858.8007	-0.1741
858.9642	0.3095
859.1277	-0.124
859.2911	0.1566
859.4546	0.022
859.618	-0.3613
859.7814	-0.0866
859.9448	-0.0314
860.1081	0.1246
860.2715	0.2003
860.4348	0.2995
860.5981	-0.1134
860.7614	0.0841
860.9246	-0.1178
861.0879	0.1414
861.2511	-0.0166
861.4143	-0.2094
861.5774	0.0749
861.7406	-0.1513
861.9037	0.0225
862.0668	-0.0762
862.2299	-0.0246
862.393	-0.6712
862.556	0.0178
862.7191	-0.4855
862.8821	-0.2259
863.0451	0.1608
863.208	0.111
863.371	-0.1352
863.5339	-0.0381
863.6968	0.0551
863.8597	0.288
864.0225	-0.0634
864.1854	-0.022
864.3482	-0.2524
864.511	0.0687
864.6737	-0.1172
864.8365	0.1554
864.9992	-0
865.1619	-0.5337
865.3246	-0.1297
865.4873	-0.0073
865.65	-0.1376
865.8126	-0.2391
865.9752	-0.0081
866.1378	-0.2656
866.3004	1.0677
866.4629	0.3004
866.6254	-0.1708
866.7879	0.0147
866.9504	-0.2925
867.1129	-0
867.2753	-0.0368
867.4377	0.0243
867.6001	-0.2957
867.7625	0.0803
867.9249	-0
868.0872	-0.1103
868.2495	-0.003
868.4118	0.5119
868.5741	-0.6445
868.7363	-0.2566
868.8986	-0.2548
869.0608	-0.0983
869.223	0.079
869.3851	-0
869.5473	0.2142
869.7094	0.0507
869.8715	-0.6109
870.0336	-0.834
870.1957	-0.4022
870.3577	-0
870.5197	-0.2273
870.6817	-0.4277
870.8437	-0.0352
871.0057	-0
871.1676	-0.6975
871.3295	0.4354
871.4914	-0
871.6533	-0.4778
871.8151	-0.4315
871.977	-0
872.1388	1.98
872.3006	-0
872.4623	-0
872.6241	0.0688
872.7858	0.5696
872.9475	-0.2966
873.1092	0.1784
873.2709	-0
873.4325	-0.084
873.5941	-0.1184
873.7557	-0
873.9173	-0
874.0789	-0.4662
874.2404	-0.8903
874.4019	0.241
874.5634	-0.2041
874.7249	-0.1756
874.8863	0.1355
875.0478	0.2375
875.2092	-0
875.3706	0.0928
875.5319	-0.6962
875.6933	-0
875.8546	-0.4932
876.0159	-0
876.1772	-0
876.3385	-0
876.4997	0.0349
876.6609	-0.3152
876.8221	-0
876.9833	0.9175
877.1445	-0
877.3056	0.392
877.4667	-0.1207
877.6278	0.5242
877.7889	-0.8207
877.9499	-0
878.111	-0
878.272	-0
878.433	-0
878.5939	0.6237
878.7549	0.086
878.9158	-0.965
879.0767	1.9518
879.2376	0.0756
879.3984	-0.161
879.5593	0.1695
879.7201	-0.006
879.8809	-0.7384
880.0417	-0.2451
880.2024	-0.0737
880.3632	-0
880.5239	0.0715
880.6846	-0
880.8452	-2.4378
881.0059	-0
881.1665	1.0314
881.3271	1.8893
881.4877	-0
881.6483	-0
881.8088	-0.2728
881.9693	0.5634
882.1298	0.5634
882.2903	0.5634
