Data from MonoPyChalIsomerACN10uM340nmA_Absorbance_14-14-19-267.txt Node
Date: Fri Jul 05 14:14:19 BST 2024
User: LASERRRRR
Spectrometer: FLMT03099
Trigger mode: 0
Integration Time (sec): 1.000000E-1
Scans to average: 1
Electric dark correction enabled: true
Nonlinearity correction enabled: false
Boxcar width: 0
XAxis mode: Wavelengths
Number of Pixels in Spectrum: 3648
>>>>>Begin Spectral Data<<<<<
179.3399	-0.0014
179.5586	-0.0014
179.7771	-0.0014
179.9957	-0
180.2143	-0
180.4329	0.4932
180.6514	1.5691
180.8699	-0
181.0885	-0.31
181.307	-0.0265
181.5255	-0
181.744	-0.5789
181.9625	-0
182.181	-0.8968
182.3994	-0
182.6179	-0.0773
182.8363	0.533
183.0547	-0.0134
183.2732	-0.0076
183.4916	0.3284
183.71	0.0913
183.9284	0.0461
184.1467	-0.1682
184.3651	0.0351
184.5835	0.0795
184.8018	0.1329
185.0201	0.2014
185.2385	0.1814
185.4568	0.2081
185.6751	0.1851
185.8934	0.2689
186.1117	-0.1198
186.3299	0.1362
186.5482	-0.0257
186.7664	-0.2391
186.9847	0.0538
187.2029	0.2318
187.4211	0.0264
187.6393	0.0392
187.8575	-0.0706
188.0757	0.2366
188.2939	0.0454
188.512	0.1096
188.7302	-0.0844
188.9483	-0.0361
189.1665	0.0453
189.3846	-0.0237
189.6027	0.0672
189.8208	0.2145
190.0389	0.087
190.257	0.054
190.475	0.0601
190.6931	0.1877
190.9111	0.4599
191.1292	0.1054
191.3472	0.3979
191.5652	0.3461
191.7832	0.2558
192.0012	0.3658
192.2192	0.4145
192.4371	0.6668
192.6551	0.2359
192.873	0.3299
193.091	0.3935
193.3089	0.4622
193.5268	0.5096
193.7447	0.4144
193.9626	0.502
194.1805	0.7015
194.3984	0.7725
194.6162	0.5993
194.8341	0.5549
195.0519	0.6513
195.2697	0.7752
195.4875	0.8215
195.7054	0.6258
195.9231	0.5445
196.1409	0.4938
196.3587	0.6218
196.5765	0.6767
196.7942	0.5455
197.012	0.5902
197.2297	0.5108
197.4474	0.6295
197.6651	0.5885
197.8828	0.4454
198.1005	0.6715
198.3182	0.6663
198.5358	0.7977
198.7535	0.5996
198.9711	0.4888
199.1888	0.6758
199.4064	0.7351
199.624	0.5883
199.8416	0.5824
200.0592	0.8484
200.2767	0.6617
200.4943	0.6762
200.7119	0.7818
200.9294	0.5726
201.1469	0.6152
201.3645	0.5247
201.582	0.455
201.7995	0.602
202.017	0.6181
202.2344	0.5774
202.4519	0.6123
202.6694	0.6164
202.8868	0.5395
203.1042	0.6802
203.3217	0.662
203.5391	0.6031
203.7565	0.5705
203.9739	0.5572
204.1913	0.6488
204.4086	0.7331
204.626	0.6705
204.8433	0.6631
205.0607	0.5875
205.278	0.6699
205.4953	0.6136
205.7126	0.7174
205.9299	0.7649
206.1472	0.676
206.3644	0.5972
206.5817	0.6585
206.7989	0.6933
207.0162	0.6821
207.2334	0.6324
207.4506	0.6307
207.6678	0.624
207.885	0.6607
208.1022	0.6248
208.3194	0.5995
208.5365	0.7053
208.7537	0.6667
208.9708	0.6044
209.1879	0.597
209.405	0.7065
209.6222	0.6619
209.8392	0.6407
210.0563	0.5555
210.2734	0.6
210.4905	0.574
210.7075	0.6178
210.9245	0.5729
211.1416	0.6779
211.3586	0.5761
211.5756	0.5686
211.7926	0.5568
212.0096	0.565
212.2265	0.5891
212.4435	0.6259
212.6604	0.5937
212.8774	0.5156
213.0943	0.5816
213.3112	0.5219
213.5281	0.5144
213.745	0.545
213.9619	0.4777
214.1788	0.4812
214.3956	0.4501
214.6125	0.4662
214.8293	0.4523
215.0461	0.4596
215.2629	0.4708
215.4798	0.4448
215.6965	0.4105
215.9133	0.4313
216.1301	0.3943
216.3469	0.4418
216.5636	0.4323
216.7803	0.3666
216.9971	0.4181
217.2138	0.3474
217.4305	0.3522
217.6472	0.3433
217.8639	0.3644
218.0805	0.3295
218.2972	0.3275
218.5138	0.2946
218.7305	0.3123
218.9471	0.2923
219.1637	0.2993
219.3803	0.2983
219.5969	0.2827
219.8135	0.2625
220.0301	0.2861
220.2466	0.2885
220.4632	0.249
220.6797	0.2375
220.8962	0.2441
221.1127	0.2734
221.3292	0.2551
221.5457	0.2212
221.7622	0.2253
221.9787	0.2566
222.1951	0.2318
222.4116	0.2546
222.628	0.2406
222.8444	0.2509
223.0608	0.2507
223.2772	0.235
223.4936	0.2527
223.71	0.2337
223.9264	0.2404
224.1427	0.2584
224.3591	0.2551
224.5754	0.2544
224.7917	0.2668
225.008	0.2532
225.2243	0.2717
225.4406	0.2782
225.6569	0.2734
225.8732	0.2709
226.0894	0.2674
226.3057	0.2718
226.5219	0.2882
226.7381	0.254
226.9543	0.2746
227.1705	0.2881
227.3867	0.2659
227.6029	0.3074
227.8191	0.3015
228.0352	0.2845
228.2513	0.3345
228.4675	0.2998
228.6836	0.3123
228.8997	0.3033
229.1158	0.3121
229.3319	0.3075
229.548	0.3349
229.764	0.3174
229.9801	0.3214
230.1961	0.3136
230.4121	0.3431
230.6282	0.3294
230.8442	0.3087
231.0602	0.3454
231.2761	0.3455
231.4921	0.3421
231.7081	0.3593
231.924	0.3353
232.14	0.3418
232.3559	0.3298
232.5718	0.3664
232.7877	0.3574
233.0036	0.3496
233.2195	0.3452
233.4353	0.3536
233.6512	0.3448
233.867	0.3475
234.0829	0.3501
234.2987	0.3698
234.5145	0.3781
234.7303	0.375
234.9461	0.3743
235.1619	0.3896
235.3776	0.3883
235.5934	0.3816
235.8091	0.3759
236.0249	0.372
236.2406	0.3929
236.4563	0.3903
236.672	0.3889
236.8877	0.3957
237.1034	0.3943
237.319	0.3881
237.5347	0.4163
237.7503	0.4088
237.966	0.3857
238.1816	0.3957
238.3972	0.3926
238.6128	0.4112
238.8284	0.4002
239.0439	0.3895
239.2595	0.4038
239.475	0.4125
239.6906	0.4214
239.9061	0.3886
240.1216	0.3905
240.3371	0.3997
240.5526	0.3917
240.7681	0.4068
240.9836	0.4033
241.199	0.3952
241.4145	0.3926
241.6299	0.3855
241.8453	0.3796
242.0607	0.3749
242.2761	0.355
242.4915	0.3575
242.7069	0.373
242.9223	0.3596
243.1376	0.3377
243.353	0.3473
243.5683	0.3431
243.7836	0.3269
243.9989	0.3224
244.2142	0.3068
244.4295	0.3311
244.6448	0.3078
244.86	0.2906
245.0753	0.2833
245.2905	0.2796
245.5057	0.2629
245.721	0.266
245.9362	0.2672
246.1514	0.271
246.3665	0.2578
246.5817	0.2571
246.7969	0.2561
247.012	0.2576
247.2271	0.235
247.4423	0.2327
247.6574	0.2482
247.8725	0.2286
248.0876	0.2214
248.3026	0.2141
248.5177	0.2148
248.7328	0.1968
248.9478	0.2179
249.1628	0.2007
249.3779	0.2121
249.5929	0.1959
249.8079	0.2061
250.0228	0.197
250.2378	0.2067
250.4528	0.1975
250.6677	0.1916
250.8827	0.1878
251.0976	0.19
251.3125	0.1829
251.5274	0.1698
251.7423	0.1802
251.9572	0.192
252.172	0.1722
252.3869	0.1858
252.6017	0.1777
252.8166	0.163
253.0314	0.1627
253.2462	0.1701
253.461	0.1777
253.6758	0.172
253.8906	0.1779
254.1053	0.1694
254.3201	0.1684
254.5348	0.1773
254.7496	0.1731
254.9643	0.1604
255.179	0.1575
255.3937	0.1653
255.6083	0.1668
255.823	0.1668
256.0377	0.1682
256.2523	0.1571
256.467	0.1529
256.6816	0.1794
256.8962	0.1536
257.1108	0.1553
257.3254	0.1636
257.54	0.1621
257.7545	0.1618
257.9691	0.1736
258.1836	0.1577
258.3981	0.1703
258.6127	0.1653
258.8272	0.1615
259.0417	0.1487
259.2561	0.16
259.4706	0.1691
259.6851	0.1631
259.8995	0.1631
260.114	0.1595
260.3284	0.1668
260.5428	0.1539
260.7572	0.1739
260.9716	0.1682
261.186	0.158
261.4003	0.1507
261.6147	0.1692
261.829	0.1692
262.0433	0.1564
262.2577	0.15
262.472	0.1612
262.6863	0.1545
262.9005	0.1498
263.1148	0.1661
263.3291	0.1464
263.5433	0.1583
263.7576	0.1567
263.9718	0.1765
264.186	0.1484
264.4002	0.1507
264.6144	0.1485
264.8286	0.171
265.0427	0.1488
265.2569	0.164
265.471	0.1588
265.6851	0.1542
265.8993	0.1548
266.1134	0.1523
266.3275	0.1581
266.5415	0.1533
266.7556	0.1412
266.9697	0.1583
267.1837	0.166
267.3978	0.1621
267.6118	0.1617
267.8258	0.1637
268.0398	0.1462
268.2538	0.1626
268.4677	0.1536
268.6817	0.1443
268.8957	0.151
269.1096	0.1608
269.3235	0.1699
269.5374	0.1521
269.7514	0.1419
269.9652	0.1471
270.1791	0.154
270.393	0.1501
270.6068	0.1532
270.8207	0.1469
271.0345	0.1371
271.2483	0.1494
271.4622	0.1383
271.676	0.1492
271.8897	0.1373
272.1035	0.1522
272.3173	0.1389
272.531	0.1401
272.7448	0.1425
272.9585	0.1357
273.1722	0.1313
273.3859	0.1473
273.5996	0.1237
273.8133	0.1435
274.0269	0.1294
274.2406	0.1296
274.4542	0.1445
274.6679	0.1228
274.8815	0.1315
275.0951	0.1371
275.3087	0.1446
275.5223	0.1458
275.7358	0.1438
275.9494	0.1361
276.1629	0.1339
276.3765	0.1299
276.59	0.1425
276.8035	0.1455
277.017	0.1404
277.2305	0.1345
277.444	0.1434
277.6574	0.1412
277.8709	0.1463
278.0843	0.1372
278.2978	0.1347
278.5112	0.14
278.7246	0.1472
278.938	0.1522
279.1513	0.1427
279.3647	0.1506
279.5781	0.1456
279.7914	0.1492
280.0047	0.1507
280.2181	0.1332
280.4314	0.1503
280.6447	0.1508
280.8579	0.1428
281.0712	0.1486
281.2845	0.1541
281.4977	0.1559
281.711	0.1351
281.9242	0.1559
282.1374	0.1527
282.3506	0.1384
282.5638	0.1517
282.7769	0.1492
282.9901	0.1463
283.2033	0.1579
283.4164	0.1549
283.6295	0.1461
283.8426	0.139
284.0557	0.1491
284.2688	0.1593
284.4819	0.1559
284.695	0.149
284.908	0.1614
285.1211	0.1485
285.3341	0.1418
285.5471	0.1594
285.7601	0.1513
285.9731	0.1454
286.1861	0.1492
286.3991	0.1626
286.612	0.1577
286.825	0.153
287.0379	0.1591
287.2508	0.1599
287.4637	0.164
287.6766	0.1596
287.8895	0.1603
288.1024	0.1685
288.3152	0.1689
288.5281	0.1524
288.7409	0.1591
288.9538	0.1641
289.1666	0.1566
289.3794	0.1599
289.5922	0.1632
289.8049	0.1699
290.0177	0.1563
290.2304	0.1766
290.4432	0.1604
290.6559	0.1698
290.8686	0.1603
291.0813	0.1707
291.294	0.1668
291.5067	0.1757
291.7194	0.1668
291.932	0.171
292.1447	0.1641
292.3573	0.1653
292.5699	0.1654
292.7825	0.1593
292.9951	0.1591
293.2077	0.1651
293.4203	0.1572
293.6328	0.1542
293.8454	0.1657
294.0579	0.1587
294.2704	0.1688
294.4829	0.1518
294.6954	0.1609
294.9079	0.1723
295.1204	0.162
295.3328	0.1627
295.5453	0.1713
295.7577	0.1693
295.9701	0.1653
296.1825	0.1584
296.3949	0.1668
296.6073	0.158
296.8197	0.1552
297.0321	0.1664
297.2444	0.1473
297.4567	0.1649
297.6691	0.1642
297.8814	0.1616
298.0937	0.1619
298.306	0.1681
298.5182	0.1591
298.7305	0.1713
298.9428	0.1623
299.155	0.1715
299.3672	0.1668
299.5794	0.1566
299.7916	0.1608
300.0038	0.1766
300.216	0.1624
300.4282	0.1646
300.6403	0.1636
300.8525	0.1671
301.0646	0.1627
301.2767	0.1608
301.4888	0.1642
301.7009	0.1653
301.913	0.1587
302.125	0.1581
302.3371	0.1581
302.5491	0.1659
302.7612	0.167
302.9732	0.1621
303.1852	0.1736
303.3972	0.16
303.6092	0.1494
303.8211	0.1524
304.0331	0.1542
304.245	0.1584
304.457	0.1476
304.6689	0.1472
304.8808	0.1638
305.0927	0.1398
305.3046	0.1518
305.5164	0.1509
305.7283	0.1436
305.9401	0.1551
306.152	0.1413
306.3638	0.1435
306.5756	0.151
306.7874	0.1387
306.9992	0.1457
307.2109	0.1447
307.4227	0.1301
307.6344	0.1438
307.8462	0.1337
308.0579	0.1424
308.2696	0.1329
308.4813	0.1297
308.693	0.1293
308.9046	0.1349
309.1163	0.128
309.328	0.1281
309.5396	0.1195
309.7512	0.1194
309.9628	0.111
310.1744	0.1243
310.386	0.1188
310.5976	0.1131
310.8091	0.1137
311.0207	0.1179
311.2322	0.1194
311.4437	0.1073
311.6552	0.11
311.8667	0.1126
312.0782	0.0859
312.2897	0.0956
312.5012	0.1184
312.7126	0.1016
312.924	0.0926
313.1355	0.1121
313.3469	0.105
313.5583	0.1148
313.7696	0.1113
313.981	0.1044
314.1924	0.0948
314.4037	0.0924
314.6151	0.1104
314.8264	0.0953
315.0377	0.1008
315.249	0.0953
315.4603	0.1049
315.6716	0.1031
315.8828	0.0818
316.0941	0.0936
316.3053	0.0929
316.5165	0.0867
316.7277	0.0853
316.9389	0.1006
317.1501	0.1005
317.3613	0.092
317.5724	0.0805
317.7836	0.0936
317.9947	0.0957
318.2058	0.0867
318.417	0.08
318.6281	0.0915
318.8391	0.1017
319.0502	0.0914
319.2613	0.095
319.4723	0.0898
319.6834	0.0954
319.8944	0.0794
320.1054	0.0905
320.3164	0.0843
320.5274	0.0844
320.7383	0.0811
320.9493	0.0904
321.1602	0.1089
321.3712	0.0863
321.5821	0.0906
321.793	0.0977
322.0039	0.0943
322.2148	0.0901
322.4257	0.0956
322.6365	0.1048
322.8474	0.1041
323.0582	0.0921
323.269	0.1063
323.4798	0.1116
323.6906	0.0881
323.9014	0.0908
324.1122	0.0978
324.3229	0.0854
324.5337	0.0947
324.7444	0.0824
324.9551	0.1069
325.1658	0.0959
325.3765	0.0923
325.5872	0.1058
325.7979	0.0968
326.0085	0.0868
326.2192	0.1039
326.4298	0.1011
326.6404	0.0787
326.851	0.0855
327.0616	0.0852
327.2722	0.0967
327.4828	0.1052
327.6933	0.0965
327.9039	0.0958
328.1144	0.1074
328.3249	0.1006
328.5354	0.0909
328.7459	0.0992
328.9564	0.0934
329.1669	0.1
329.3773	0.1005
329.5878	0.1066
329.7982	0.0856
330.0086	0.0963
330.219	0.0978
330.4294	0.1031
330.6398	0.1065
330.8502	0.0984
331.0605	0.1056
331.2708	0.104
331.4812	0.1015
331.6915	0.1034
331.9018	0.1074
332.1121	0.101
332.3224	0.1041
332.5326	0.1106
332.7429	0.0933
332.9531	0.111
333.1633	0.1104
333.3735	0.0986
333.5837	0.0888
333.7939	0.102
334.0041	0.1037
334.2143	0.1032
334.4244	0.0866
334.6346	0.0803
334.8447	0.1124
335.0548	0.1009
335.2649	0.0862
335.475	0.1018
335.685	0.0935
335.8951	0.1153
336.1051	0.1099
336.3152	0.1178
336.5252	0.1093
336.7352	0.1008
336.9452	0.1055
337.1552	0.1072
337.3652	0.1011
337.5751	0.0992
337.7851	0.1081
337.995	0.097
338.2049	0.1068
338.4148	0.0971
338.6247	0.1165
338.8346	0.0971
339.0445	0.0978
339.2543	0.0964
339.4642	0.1057
339.674	0.1027
339.8838	0.0901
340.0936	0.104
340.3034	0.1069
340.5132	0.1143
340.7229	0.1099
340.9327	0.1012
341.1424	0.1098
341.3522	0.1215
341.5619	0.1156
341.7716	0.1145
341.9813	0.11
342.1909	0.1131
342.4006	0.1339
342.6102	0.1307
342.8199	0.116
343.0295	0.1095
343.2391	0.1181
343.4487	0.1133
343.6583	0.1091
343.8679	0.1085
344.0774	0.1088
344.287	0.1196
344.4965	0.1257
344.706	0.1314
344.9155	0.1206
345.125	0.1299
345.3345	0.1244
345.544	0.1145
345.7534	0.124
345.9629	0.129
346.1723	0.1149
346.3817	0.1207
346.5911	0.1155
346.8005	0.1259
347.0099	0.1279
347.2193	0.1276
347.4286	0.1251
347.638	0.1364
347.8473	0.1287
348.0566	0.138
348.2659	0.1268
348.4752	0.1309
348.6845	0.1254
348.8937	0.1204
349.103	0.143
349.3122	0.1193
349.5214	0.1264
349.7306	0.1333
349.9398	0.1403
350.149	0.1372
350.3582	0.1352
350.5674	0.1379
350.7765	0.1329
350.9856	0.1356
351.1948	0.1422
351.4039	0.1222
351.613	0.1317
351.822	0.1426
352.0311	0.1464
352.2402	0.1456
352.4492	0.1351
352.6582	0.1526
352.8672	0.1491
353.0762	0.1387
353.2852	0.1289
353.4942	0.131
353.7032	0.1538
353.9121	0.147
354.1211	0.1466
354.33	0.1491
354.5389	0.1492
354.7478	0.1426
354.9567	0.1486
355.1655	0.1395
355.3744	0.132
355.5833	0.1626
355.7921	0.1565
356.0009	0.145
356.2097	0.1646
356.4185	0.1616
356.6273	0.1577
356.8361	0.1542
357.0448	0.1496
357.2536	0.1437
357.4623	0.1508
357.671	0.1663
357.8797	0.1564
358.0884	0.1525
358.2971	0.1739
358.5057	0.1593
358.7144	0.1674
358.923	0.1501
359.1316	0.1615
359.3402	0.1713
359.5488	0.1644
359.7574	0.1642
359.966	0.1694
360.1746	0.1744
360.3831	0.1799
360.5916	0.1598
360.8002	0.1473
361.0087	0.1726
361.2172	0.1732
361.4256	0.1718
361.6341	0.1865
361.8426	0.1763
362.051	0.1709
362.2594	0.173
362.4678	0.1747
362.6762	0.2001
362.8846	0.1822
363.093	0.1806
363.3014	0.1826
363.5097	0.1741
363.718	0.1931
363.9264	0.1943
364.1347	0.1759
364.343	0.1787
364.5513	0.1922
364.7595	0.193
364.9678	0.19
365.176	0.1891
365.3842	0.1851
365.5925	0.1885
365.8007	0.2082
366.0089	0.1767
366.217	0.1748
366.4252	0.192
366.6333	0.2015
366.8415	0.213
367.0496	0.1944
367.2577	0.2128
367.4658	0.2073
367.6739	0.1991
367.882	0.2124
368.09	0.1907
368.2981	0.2193
368.5061	0.1945
368.7141	0.2084
368.9221	0.2181
369.1301	0.2115
369.3381	0.1978
369.5461	0.2129
369.754	0.2163
369.962	0.2147
370.1699	0.2207
370.3778	0.2352
370.5857	0.2107
370.7936	0.2137
371.0015	0.2138
371.2093	0.2178
371.4172	0.2253
371.625	0.2014
371.8328	0.2147
372.0406	0.2073
372.2484	0.2123
372.4562	0.2305
372.664	0.2139
372.8717	0.241
373.0795	0.2082
373.2872	0.2131
373.4949	0.233
373.7026	0.2177
373.9103	0.231
374.118	0.2377
374.3256	0.2222
374.5333	0.2284
374.7409	0.2173
374.9485	0.2549
375.1561	0.2383
375.3637	0.239
375.5713	0.2238
375.7789	0.2304
375.9864	0.2348
376.194	0.2178
376.4015	0.2449
376.609	0.258
376.8165	0.2425
377.024	0.2435
377.2315	0.2237
377.4389	0.254
377.6464	0.2515
377.8538	0.2464
378.0612	0.2367
378.2686	0.2588
378.476	0.2635
378.6834	0.2438
378.8908	0.244
379.0981	0.2491
379.3055	0.25
379.5128	0.2401
379.7201	0.2544
379.9274	0.2388
380.1347	0.2401
380.342	0.2649
380.5492	0.2378
380.7565	0.2696
380.9637	0.251
381.1709	0.2641
381.3781	0.2625
381.5853	0.2524
381.7925	0.2698
381.9997	0.2675
382.2068	0.2734
382.4139	0.2543
382.6211	0.2588
382.8282	0.2432
383.0353	0.2463
383.2424	0.2333
383.4494	0.2624
383.6565	0.2569
383.8635	0.2613
384.0706	0.256
384.2776	0.2708
384.4846	0.2334
384.6916	0.2652
384.8986	0.2597
385.1055	0.2738
385.3125	0.2722
385.5194	0.243
385.7263	0.2721
385.9333	0.257
386.1402	0.2506
386.347	0.2674
386.5539	0.2466
386.7608	0.2592
386.9676	0.2463
387.1744	0.2737
387.3813	0.2548
387.5881	0.2657
387.7948	0.2509
388.0016	0.2531
388.2084	0.2611
388.4151	0.2453
388.6219	0.2648
388.8286	0.247
389.0353	0.2634
389.242	0.2616
389.4487	0.2343
389.6553	0.2369
389.862	0.2281
390.0686	0.248
390.2753	0.2504
390.4819	0.2562
390.6885	0.2382
390.8951	0.2542
391.1016	0.2333
391.3082	0.2355
391.5147	0.2383
391.7213	0.2444
391.9278	0.2506
392.1343	0.2361
392.3408	0.2379
392.5473	0.2223
392.7537	0.2406
392.9602	0.2402
393.1666	0.2504
393.373	0.2587
393.5794	0.2434
393.7858	0.2263
393.9922	0.2167
394.1986	0.2296
394.4049	0.2137
394.6113	0.2143
394.8176	0.2093
395.0239	0.2193
395.2302	0.2343
395.4365	0.2277
395.6428	0.2228
395.8491	0.2239
396.0553	0.23
396.2615	0.231
396.4678	0.2287
396.674	0.2037
396.8802	0.2233
397.0863	0.2347
397.2925	0.2091
397.4987	0.2197
397.7048	0.2145
397.9109	0.2178
398.117	0.2013
398.3231	0.2163
398.5292	0.2151
398.7353	0.2247
398.9413	0.2196
399.1474	0.2061
399.3534	0.2222
399.5594	0.202
399.7654	0.214
399.9714	0.2186
400.1774	0.2181
400.3833	0.2005
400.5893	0.2285
400.7952	0.2152
401.0011	0.2074
401.207	0.2254
401.4129	0.2115
401.6188	0.2076
401.8247	0.2188
402.0305	0.2041
402.2364	0.218
402.4422	0.2111
402.648	0.2311
402.8538	0.2436
403.0596	0.2165
403.2654	0.2251
403.4711	0.2147
403.6768	0.2227
403.8826	0.2373
404.0883	0.2041
404.294	0.2161
404.4997	0.2223
404.7054	0.2123
404.911	0.2131
405.1167	0.206
405.3223	0.2343
405.5279	0.2268
405.7335	0.214
405.9391	0.226
406.1447	0.2237
406.3502	0.24
406.5558	0.2032
406.7613	0.2271
406.9668	0.2214
407.1724	0.2161
407.3778	0.2152
407.5833	0.212
407.7888	0.2012
407.9942	0.2425
408.1997	0.1982
408.4051	0.2243
408.6105	0.2231
408.8159	0.1988
409.0213	0.2043
409.2267	0.2338
409.432	0.2019
409.6374	0.2088
409.8427	0.208
410.048	0.2094
410.2533	0.2106
410.4586	0.229
410.6639	0.1985
410.8691	0.206
411.0744	0.2081
411.2796	0.2104
411.4848	0.2081
411.69	0.2164
411.8952	0.2426
412.1004	0.2077
412.3056	0.2263
412.5107	0.2114
412.7158	0.2228
412.921	0.191
413.1261	0.1888
413.3312	0.2095
413.5362	0.2042
413.7413	0.2047
413.9464	0.2053
414.1514	0.2199
414.3564	0.2152
414.5614	0.1924
414.7664	0.1891
414.9714	0.2128
415.1764	0.1912
415.3813	0.2325
415.5863	0.2124
415.7912	0.2089
415.9961	0.2048
416.201	0.2156
416.4059	0.2195
416.6108	0.2094
416.8156	0.2118
417.0205	0.2094
417.2253	0.1919
417.4301	0.2291
417.6349	0.1926
417.8397	0.2063
418.0445	0.2137
418.2492	0.2246
418.454	0.1991
418.6587	0.2129
418.8634	0.2013
419.0681	0.1896
419.2728	0.1949
419.4775	0.1968
419.6822	0.1856
419.8868	0.1716
420.0915	0.1875
420.2961	0.1828
420.5007	0.1967
420.7053	0.1977
420.9099	0.2041
421.1144	0.1938
421.319	0.1913
421.5235	0.208
421.728	0.1941
421.9325	0.1976
422.137	0.1928
422.3415	0.1885
422.546	0.1786
422.7504	0.2087
422.9549	0.2048
423.1593	0.1867
423.3637	0.1892
423.5681	0.1905
423.7725	0.172
423.9769	0.183
424.1812	0.1737
424.3856	0.1746
424.5899	0.1865
424.7942	0.1581
424.9985	0.1687
425.2028	0.1835
425.4071	0.1975
425.6113	0.1519
425.8156	0.1856
426.0198	0.1916
426.224	0.162
426.4282	0.1601
426.6324	0.1472
426.8366	0.1825
427.0407	0.1556
427.2449	0.1646
427.449	0.1729
427.6531	0.1521
427.8572	0.1711
428.0613	0.1519
428.2654	0.161
428.4694	0.1395
428.6735	0.1528
428.8775	0.1785
429.0815	0.162
429.2855	0.1477
429.4895	0.1482
429.6935	0.1551
429.8975	0.1656
430.1014	0.1522
430.3053	0.1395
430.5093	0.1355
430.7132	0.1462
430.9171	0.1457
431.1209	0.1492
431.3248	0.1373
431.5286	0.1462
431.7325	0.1516
431.9363	0.1299
432.1401	0.1419
432.3439	0.1216
432.5477	0.1234
432.7514	0.1243
432.9552	0.1215
433.1589	0.1128
433.3627	0.137
433.5664	0.129
433.7701	0.1167
433.9737	0.1238
434.1774	0.1192
434.3811	0.1286
434.5847	0.1217
434.7883	0.1138
434.9919	0.0988
435.1955	0.1038
435.3991	0.1186
435.6027	0.1183
435.8062	0.0981
436.0098	0.0938
436.2133	0.1131
436.4168	0.0938
436.6203	0.0886
436.8238	0.1095
437.0272	0.1003
437.2307	0.0896
437.4341	0.1083
437.6375	0.1092
437.841	0.0849
438.0443	0.0947
438.2477	0.0958
438.4511	0.0828
438.6545	0.0896
438.8578	0.1005
439.0611	0.083
439.2644	0.0817
439.4677	0.0888
439.671	0.0766
439.8743	0.0743
440.0775	0.0965
440.2808	0.0632
440.484	0.0617
440.6872	0.0575
440.8904	0.0649
441.0936	0.0913
441.2967	0.0779
441.4999	0.0636
441.703	0.0609
441.9062	0.0686
442.1093	0.0623
442.3124	0.0757
442.5155	0.0427
442.7185	0.0692
442.9216	0.0391
443.1246	0.0737
443.3276	0.0708
443.5307	0.0545
443.7337	0.0621
443.9366	0.0642
444.1396	0.0568
444.3426	0.0433
444.5455	0.0676
444.7484	0.0424
444.9513	0.0595
445.1542	0.0549
445.3571	0.0507
445.56	0.0522
445.7628	0.0296
445.9657	0.0308
446.1685	0.0472
446.3713	0.0429
446.5741	0.0573
446.7769	0.0313
446.9797	0.05
447.1824	0.0426
447.3852	0.0476
447.5879	0.0407
447.7906	0.0436
447.9933	0.0339
448.196	0.0262
448.3986	0.0335
448.6013	0.0283
448.8039	0.0259
449.0066	0.0315
449.2092	0.0295
449.4118	0.0186
449.6143	0.0288
449.8169	0.0243
450.0195	0.0186
450.222	0.0167
450.4245	0.04
450.627	0.0283
450.8295	0.0197
451.032	0.014
451.2345	0.0257
451.4369	0.0341
451.6394	0.0235
451.8418	0.0071
452.0442	0.0211
452.2466	0.0438
452.449	0.0032
452.6513	0.0207
452.8537	0.0083
453.056	0.0104
453.2583	0.0208
453.4607	0.0122
453.663	0.0005
453.8652	0.0202
454.0675	-0.0002
454.2697	0.0176
454.472	-0.0014
454.6742	0.0274
454.8764	0.0138
455.0786	0.0144
455.2808	0.0072
455.4829	0.0265
455.6851	0.0227
455.8872	0.0237
456.0893	0.0098
456.2915	0.018
456.4935	0.0254
456.6956	0.017
456.8977	0.0068
457.0997	0.0078
457.3018	-0.0085
457.5038	0.0029
457.7058	0.0117
457.9078	0.0079
458.1098	0.0119
458.3117	0.0081
458.5137	0.0064
458.7156	0.0132
458.9175	-0.0055
459.1194	0.0115
459.3213	0.003
459.5232	0.0021
459.725	0.0037
459.9269	-0.0008
460.1287	-0.0001
460.3305	0.0067
460.5323	0.0099
460.7341	0.0184
460.9359	0.0045
461.1376	0.0088
461.3394	-0.0052
461.5411	-0.0022
461.7428	-0.0073
461.9445	0.0171
462.1462	0.0129
462.3479	-0.0095
462.5495	0.003
462.7512	0.0019
462.9528	-0.0087
463.1544	-0.0175
463.356	-0.008
463.5576	0.0042
463.7592	-0.005
463.9607	-0.0095
464.1623	0.0125
464.3638	0.015
464.5653	-0.0128
464.7668	0.0038
464.9683	0.0071
465.1697	0.002
465.3712	-0.0047
465.5726	-0.0093
465.7741	-0.0094
465.9755	-0.0141
466.1769	0.0075
466.3782	0
466.5796	-0.008
466.7809	0.005
466.9823	-0.0065
467.1836	-0.0181
467.3849	0.006
467.5862	0.0027
467.7875	-0.0067
467.9887	0.0226
468.19	-0.0029
468.3912	-0.0171
468.5924	-0.0097
468.7936	-0.0096
468.9948	-0.0056
469.196	0.013
469.3972	-0.0185
469.5983	0.0029
469.7994	-0.0199
470.0006	-0.0141
470.2017	-0.024
470.4027	0.0071
470.6038	0.002
470.8049	-0.0193
471.0059	-0.0064
471.2069	-0.0295
471.408	0.0034
471.6089	0.0083
471.8099	0.0027
472.0109	0.008
472.2119	-0.0154
472.4128	-0.0223
472.6137	0.0008
472.8146	-0.027
473.0155	-0.0153
473.2164	-0.0076
473.4173	0.0061
473.6181	-0.0003
473.819	0.0017
474.0198	-0.0132
474.2206	-0.0101
474.4214	-0.0063
474.6222	0.0019
474.8229	-0.0038
475.0237	-0.0181
475.2244	-0.0143
475.4251	0.0023
475.6258	-0.013
475.8265	0.0046
476.0272	0.0094
476.2278	0.0097
476.4285	-0.0128
476.6291	-0.0077
476.8297	0.001
477.0303	-0.0197
477.2309	-0.0031
477.4315	-0.0134
477.632	-0.0008
477.8326	-0.0091
478.0331	0.0022
478.2336	-0.0044
478.4341	-0.0069
478.6346	0.0001
478.8351	-0.003
479.0355	-0.0034
479.236	-0.0022
479.4364	0.0052
479.6368	-0.0055
479.8372	-0.0143
480.0376	-0.0107
480.2379	-0.0103
480.4383	-0.0182
480.6386	-0.0028
480.8389	-0.0039
481.0392	-0.0132
481.2395	-0.0149
481.4398	0.0007
481.6401	-0.0037
481.8403	-0.0112
482.0405	-0.0048
482.2408	-0.0129
482.441	0.0093
482.6411	0.0024
482.8413	-0.0042
483.0415	-0.0126
483.2416	-0.0024
483.4417	-0.0079
483.6419	-0.0073
483.8419	-0.0103
484.042	0.0014
484.2421	0.0052
484.4422	-0.0003
484.6422	-0.0126
484.8422	-0.0017
485.0422	-0.0143
485.2422	0.0085
485.4422	-0.0173
485.6422	-0.0073
485.8421	-0.0018
486.042	-0.0017
486.242	-0.0094
486.4419	-0.0085
486.6417	-0.0121
486.8416	-0.0055
487.0415	-0.0093
487.2413	-0.0057
487.4411	-0.008
487.641	-0.0007
487.8408	0.0005
488.0405	-0.0091
488.2403	-0.0026
488.4401	0.0072
488.6398	0.005
488.8395	-0.0066
489.0392	-0.001
489.2389	-0.0051
489.4386	-0.0037
489.6383	-0.0025
489.8379	0
490.0376	-0.0055
490.2372	-0.0162
490.4368	-0.0172
490.6364	-0.0006
490.836	-0.0095
491.0355	-0.005
491.2351	-0.0028
491.4346	-0.0131
491.6341	-0.0119
491.8336	-0.0069
492.0331	-0.0087
492.2326	-0.012
492.432	-0.011
492.6315	-0.0026
492.8309	-0.0103
493.0303	-0.0086
493.2297	-0.0099
493.4291	-0.0001
493.6284	-0.0043
493.8278	-0.006
494.0271	0.009
494.2264	-0.005
494.4257	-0.0085
494.625	-0.0074
494.8243	-0.0182
495.0236	-0.0216
495.2228	-0.0092
495.422	-0.0053
495.6213	-0.0016
495.8205	-0.0036
496.0196	-0.0075
496.2188	0.0038
496.418	-0.0124
496.6171	-0.0116
496.8162	-0.0142
497.0153	-0.0077
497.2144	-0.0149
497.4135	-0.0063
497.6126	-0.0109
497.8116	-0.0077
498.0107	-0.0069
498.2097	-0.0197
498.4087	-0.0094
498.6077	-0.0027
498.8067	-0.0071
499.0056	0.0015
499.2046	-0.0097
499.4035	-0.0264
499.6024	-0.0065
499.8013	-0.0039
500.0002	-0.0197
500.199	-0.0117
500.3979	-0.0071
500.5967	-0.0333
500.7956	-0.0011
500.9944	-0.0042
501.1932	-0.0172
501.3919	-0.0106
501.5907	-0.0141
501.7895	-0.0037
501.9882	-0.01
502.1869	-0.0083
502.3856	-0.0082
502.5843	-0.0101
502.783	-0.013
502.9816	-0.0071
503.1803	-0.0096
503.3789	-0.0056
503.5775	0.0045
503.7761	-0.0105
503.9747	0.0005
504.1732	-0.0058
504.3718	-0.0039
504.5703	-0.0083
504.7689	-0.0142
504.9674	-0.0075
505.1658	-0.0161
505.3643	-0.0148
505.5628	-0.0075
505.7612	-0.0084
505.9597	-0.0005
506.1581	-0.012
506.3565	0.0053
506.5549	0.0014
506.7532	-0.0094
506.9516	-0.0134
507.1499	-0.0074
507.3482	-0.0161
507.5465	-0.0099
507.7448	0.0025
507.9431	-0.0122
508.1414	0.0004
508.3396	-0.0079
508.5379	-0.0019
508.7361	-0.0128
508.9343	0.0011
509.1325	-0.0032
509.3306	-0.0098
509.5288	-0.006
509.7269	-0.0206
509.9251	-0.0005
510.1232	-0.012
510.3213	-0.0086
510.5193	-0.0026
510.7174	-0.0082
510.9154	-0.0117
511.1135	-0.0139
511.3115	-0.01
511.5095	-0.0027
511.7075	-0.0115
511.9055	-0.0194
512.1034	-0.0119
512.3014	0.0032
512.4993	0.0022
512.6972	-0.0088
512.8951	-0.0153
513.093	-0.0093
513.2908	-0.0039
513.4887	-0.0039
513.6865	-0.014
513.8844	-0.0051
514.0822	-0.005
514.2799	-0.0144
514.4777	-0.0026
514.6755	-0.0125
514.8732	-0.008
515.0709	-0.0047
515.2687	0.0054
515.4664	-0.0001
515.664	-0.0066
515.8617	-0.0074
516.0594	-0.0157
516.257	-0.0006
516.4546	-0.0103
516.6522	-0.0008
516.8498	-0.0082
517.0474	-0.0031
517.2449	-0.011
517.4425	-0.0162
517.64	-0.0025
517.8375	0.0101
518.035	-0.0132
518.2325	-0.0094
518.43	-0.0132
518.6274	-0.0071
518.8249	-0.0168
519.0223	-0.0027
519.2197	-0.0053
519.4171	-0.0017
519.6145	-0.0164
519.8118	-0.0004
520.0092	-0.0089
520.2065	-0.0117
520.4038	-0.0172
520.6011	0.0007
520.7984	-0.0076
520.9956	-0.0053
521.1929	-0.0174
521.3901	0.0025
521.5874	-0.0065
521.7846	0.0076
521.9818	-0.0117
522.1789	-0.0112
522.3761	-0.0043
522.5732	-0.0051
522.7704	-0.0006
522.9675	-0.0052
523.1646	-0.0079
523.3617	-0.0095
523.5587	-0.0027
523.7558	-0.0054
523.9528	-0.0124
524.1498	-0.0039
524.3468	-0.006
524.5438	-0.0054
524.7408	0.0009
524.9378	0.0026
525.1347	-0.0096
525.3316	-0.0077
525.5285	-0.0117
525.7254	-0.0061
525.9223	-0.0134
526.1192	0.0006
526.316	-0.0181
526.5129	-0.0004
526.7097	-0.0002
526.9065	-0.0028
527.1033	-0.0104
527.3	-0.0099
527.4968	-0.0024
527.6935	-0.0003
527.8903	-0.0086
528.087	-0.0024
528.2837	0.0012
528.4804	-0.0034
528.677	-0.0049
528.8737	-0.0064
529.0703	0.0003
529.2669	-0.0146
529.4635	-0.0023
529.6601	0.0047
529.8567	0.0024
530.0532	-0.0165
530.2498	-0.0076
530.4463	0.0056
530.6428	-0.006
530.8393	0.0025
531.0358	-0.0068
531.2322	-0.0038
531.4287	-0.011
531.6251	-0.0083
531.8215	0.0096
532.0179	0.0023
532.2143	0.001
532.4107	-0.0026
532.607	-0.0057
532.8034	0.004
532.9997	-0.0058
533.196	-0.001
533.3923	-0.0141
533.5886	-0.0072
533.7848	-0.0004
533.9811	0.0017
534.1773	-0.0052
534.3735	0.0064
534.5697	-0.0104
534.7659	-0.0025
534.9621	-0.0065
535.1582	-0.0088
535.3544	-0.0101
535.5505	-0.0085
535.7466	-0.0084
535.9427	-0.0116
536.1387	-0.0153
536.3348	-0.005
536.5308	-0.0021
536.7269	-0.0122
536.9229	-0.004
537.1189	-0.0081
537.3148	0.002
537.5108	-0.0076
537.7068	-0.0144
537.9027	-0.0066
538.0986	-0.0082
538.2945	-0.0173
538.4904	-0.0037
538.6863	-0.0122
538.8821	-0.0083
539.078	-0.0134
539.2738	-0.0029
539.4696	-0.0119
539.6654	0.0026
539.8611	0.0037
540.0569	-0.002
540.2526	-0.0129
540.4484	-0.0022
540.6441	0.0062
540.8398	-0.0021
541.0355	0.003
541.2311	0.008
541.4268	-0.0078
541.6224	-0.0049
541.818	0.0002
542.0136	-0.0102
542.2092	-0.0049
542.4048	-0.0023
542.6003	-0.0055
542.7959	-0.0091
542.9914	-0.0095
543.1869	-0.0082
543.3824	0.0006
543.5779	-0.0087
543.7734	-0.0008
543.9688	-0.0107
544.1642	0.0011
544.3596	0.005
544.555	-0.0066
544.7504	0.0114
544.9458	-0.003
545.1411	-0.0064
545.3365	-0.0056
545.5318	-0.0053
545.7271	0.0034
545.9224	-0.0069
546.1177	0.0045
546.3129	0.0005
546.5081	-0.003
546.7034	-0.0081
546.8986	-0.0057
547.0938	-0.0079
547.289	-0.0015
547.4841	-0.0021
547.6793	0.0113
547.8744	-0.0098
548.0695	-0.0073
548.2646	-0.0037
548.4597	-0.0006
548.6548	-0.0031
548.8498	0.0031
549.0448	-0.0068
549.2399	-0.0068
549.4349	0.0104
549.6298	0.0057
549.8248	0.0059
550.0198	0.0004
550.2147	-0.0087
550.4096	-0.0068
550.6045	-0.0056
550.7994	0.0043
550.9943	0.0038
551.1892	0.0058
551.384	0.0033
551.5788	-0.0018
551.7737	-0.001
551.9685	0.002
552.1632	0.0077
552.358	0.0047
552.5528	-0.0039
552.7475	-0.0058
552.9422	0.0053
553.1369	-0.0036
553.3316	-0.0007
553.5263	-0.0036
553.7209	0.0035
553.9156	0.0008
554.1102	-0.0045
554.3048	-0.008
554.4994	0.0069
554.694	-0.0026
554.8885	-0.0016
555.0831	-0.0058
555.2776	-0.0038
555.4721	-0.0061
555.6666	-0.0093
555.8611	0.0076
556.0555	-0.0072
556.25	0.0028
556.4444	-0.0078
556.6388	-0.0013
556.8332	0.0039
557.0276	0.0054
557.222	-0.0012
557.4163	0.0049
557.6107	-0.0082
557.805	0.0034
557.9993	-0.0109
558.1936	0.0017
558.3879	-0.0001
558.5821	0.003
558.7764	-0.0032
558.9706	0.0075
559.1648	-0.0009
559.359	-0.0061
559.5532	-0.0129
559.7473	0.0039
559.9415	0.0008
560.1356	-0.0079
560.3297	-0.0153
560.5238	-0.0181
560.7179	-0.0043
560.9119	-0.0046
561.106	-0.0053
561.3	-0.0094
561.494	-0.0054
561.688	-0.0097
561.882	-0.0063
562.076	-0.0093
562.2699	0.0035
562.4639	-0.0049
562.6578	-0.0022
562.8517	-0.0073
563.0456	0.0028
563.2395	-0.006
563.4333	-0.0003
563.6272	0.0072
563.821	-0.0026
564.0148	-0.0049
564.2086	-0.0049
564.4024	0.0023
564.5961	-0.0054
564.7899	0.0015
564.9836	-0.0042
565.1773	-0.0001
565.371	0.0049
565.5647	0.0028
565.7584	0.0019
565.952	0.0012
566.1456	-0.0024
566.3393	0.0008
566.5329	-0.0054
566.7264	-0.0027
566.92	-0.0125
567.1136	0.013
567.3071	-0.0038
567.5006	0.0031
567.6941	0.005
567.8876	-0.0046
568.0811	-0.0038
568.2745	-0.0126
568.468	0.0048
568.6614	-0.0005
568.8548	-0.0013
569.0482	0.0008
569.2416	0.0032
569.4349	-0.0028
569.6283	0.0017
569.8216	-0.0027
570.0149	-0.0054
570.2082	0.0087
570.4015	0.0097
570.5947	0.0075
570.788	0.0043
570.9812	0.0018
571.1744	0.0025
571.3676	-0.0088
571.5608	-0.0007
571.754	0.0035
571.9471	0.0064
572.1402	0.002
572.3333	-0.0024
572.5264	-0.0025
572.7195	0.0077
572.9126	0.0048
573.1057	-0.0017
573.2987	-0.0004
573.4917	0.0002
573.6847	-0.0077
573.8777	0.0058
574.0707	0.0075
574.2636	-0.0029
574.4566	0.0024
574.6495	0.0094
574.8424	0.0031
575.0353	-0.001
575.2281	0.0048
575.421	0.0089
575.6138	-0.0046
575.8067	0.0027
575.9995	0.0058
576.1923	0.0035
576.385	0.0008
576.5778	-0.0012
576.7706	-0.0054
576.9633	-0.002
577.156	-0.0004
577.3487	-0.0008
577.5414	0.0027
577.734	-0.0038
577.9267	0.0042
578.1193	-0.0097
578.3119	-0.0023
578.5045	-0.0013
578.6971	0.0048
578.8897	0.0107
579.0822	-0.0002
579.2747	0.0019
579.4673	-0.0009
579.6598	-0.0042
579.8522	-0.0041
580.0447	-0.0049
580.2372	-0.0063
580.4296	-0.0042
580.622	-0.0011
580.8144	-0.0022
581.0068	-0.0007
581.1992	-0.0111
581.3915	-0.0087
581.5839	-0.0062
581.7762	-0.015
581.9685	-0.0053
582.1608	0.0047
582.353	-0.0025
582.5453	-0.0022
582.7375	0.0021
582.9298	-0.0041
583.122	-0.0022
583.3142	0.0004
583.5063	-0.0027
583.6985	0.0023
583.8906	-0.0037
584.0827	-0.0071
584.2749	-0.0023
584.4669	0.0024
584.659	-0.0014
584.8511	-0.0044
585.0431	-0.002
585.2352	0.0059
585.4272	0.0041
585.6192	0.0014
585.8111	0.0051
586.0031	-0.002
586.195	-0.0003
586.387	0.0061
586.5789	0.0047
586.7708	0.004
586.9627	0.0027
587.1545	0.0017
587.3464	0.0012
587.5382	0.0018
587.73	-0
587.9218	0.0075
588.1136	0.0064
588.3053	0.0079
588.4971	-0.0032
588.6888	-0.0056
588.8805	-0.0056
589.0722	0.0058
589.2639	0.0023
589.4556	-0.0008
589.6472	-0.0064
589.8389	-0.0039
590.0305	-0.0041
590.2221	0.0006
590.4137	-0.0141
590.6052	0.0022
590.7968	-0.0007
590.9883	0.0016
591.1798	-0.0012
591.3713	-0.0037
591.5628	0.0066
591.7543	0.0017
591.9458	-0.003
592.1372	0.0105
592.3286	0.009
592.52	0.0063
592.7114	-0.0054
592.9028	-0.0047
593.0941	0.0002
593.2855	-0.0025
593.4768	-0.0034
593.6681	-0.0075
593.8594	-0.0067
594.0506	-0.0019
594.2419	0.0094
594.4331	0.0004
594.6244	0.0055
594.8156	-0.0103
595.0067	0.0019
595.1979	-0.0004
595.3891	-0.0057
595.5802	-0.0068
595.7713	0.0045
595.9624	-0.0016
596.1535	0.0073
596.3446	0.0049
596.5357	0.0071
596.7267	0.0122
596.9177	-0.0032
597.1087	-0.0046
597.2997	-0.0059
597.4907	-0.0002
597.6817	-0.0019
597.8726	0.0034
598.0635	-0.0028
598.2544	0.0009
598.4453	-0.0004
598.6362	-0.0041
598.827	-0.0025
599.0179	-0.0007
599.2087	0.0043
599.3995	-0.0048
599.5903	0.0031
599.7811	-0.0029
599.9718	0.0035
600.1626	-0.005
600.3533	-0.0042
600.544	0.006
600.7347	0.001
600.9254	0.0003
601.116	-0.0099
601.3067	-0
601.4973	-0.0024
601.6879	0.0132
601.8785	-0.0022
602.0691	0.006
602.2596	0.0083
602.4502	0.0077
602.6407	0.0034
602.8312	0.0038
603.0217	-0.0058
603.2122	-0.002
603.4027	-0.0042
603.5931	-0.0011
603.7835	-0.006
603.9739	-0.0024
604.1643	-0.0028
604.3547	-0.0054
604.5451	-0.0019
604.7354	-0.0024
604.9257	0.0003
605.116	-0.0008
605.3063	0.001
605.4966	0.0117
605.6869	0.0007
605.8771	0.006
606.0673	0.0035
606.2575	0.0026
606.4477	0.0097
606.6379	0.001
606.8281	-0.0006
607.0182	-0.0029
607.2083	0.0122
607.3985	-0.0082
607.5885	0.0042
607.7786	0.0013
607.9687	-0.0041
608.1587	0.0053
608.3488	-0.0007
608.5388	0.0017
608.7288	-0.0014
608.9187	-0.0003
609.1087	-0.0036
609.2986	-0.0061
609.4886	-0.0017
609.6785	-0.0023
609.8684	0.0014
610.0582	-0.0033
610.2481	0.0058
610.4379	-0.0034
610.6278	-0.009
610.8176	-0.0048
611.0074	-0.0005
611.1971	-0.003
611.3869	-0.0073
611.5766	-0.0032
611.7664	0.0042
611.9561	0.0071
612.1458	-0.0017
612.3354	-0.0124
612.5251	0.0055
612.7147	0.0067
612.9044	-0.0001
613.094	-0.0056
613.2836	0.0025
613.4731	-0.0007
613.6627	-0.001
613.8522	0.0014
614.0417	0.0042
614.2313	-0.0041
614.4207	-0.0075
614.6102	0.0026
614.7997	-0.0035
614.9891	-0.0046
615.1785	0.0002
615.3679	-0.0024
615.5573	0.0102
615.7467	-0.002
615.9361	0.0015
616.1254	0.0014
616.3147	-0.0002
616.504	0.0089
616.6933	0.0056
616.8826	0.0038
617.0718	0.0073
617.2611	-0.0003
617.4503	-0.0012
617.6395	-0.0043
617.8287	-0.0006
618.0179	-0.0019
618.207	0.0108
618.3961	0.0007
618.5853	-0.0028
618.7744	0.0085
618.9634	0.0098
619.1525	0.0068
619.3416	0.0062
619.5306	0.0022
619.7196	0.0077
619.9086	-0.0058
620.0976	0.0122
620.2866	-0.0043
620.4755	0.0054
620.6645	0.0029
620.8534	0.005
621.0423	0.0027
621.2312	0.0091
621.42	0.0035
621.6089	-0.0018
621.7977	0.0123
621.9865	0.0005
622.1753	0.0033
622.3641	-0.0007
622.5529	0.0131
622.7416	0.0052
622.9303	-0.002
623.1191	0.0027
623.3078	0.0001
623.4964	-0.0087
623.6851	-0.0068
623.8737	-0.0048
624.0624	0.0065
624.251	-0.0036
624.4396	-0.0039
624.6282	-0.0104
624.8167	0.0017
625.0053	0.0051
625.1938	0.0048
625.3823	-0.006
625.5708	-0.0018
625.7593	-0.007
625.9477	-0.0077
626.1362	-0.0006
626.3246	0.0009
626.513	0.0048
626.7014	0.0095
626.8898	0.0037
627.0781	0.0061
627.2665	-0.0015
627.4548	0.0088
627.6431	0.0078
627.8314	0.0061
628.0197	0.0051
628.2079	-0.0012
628.3962	-0.0079
628.5844	0.0053
628.7726	0.0046
628.9608	0.0058
629.1489	0.0037
629.3371	0.0051
629.5252	-0.0052
629.7134	0.0063
629.9015	0.0009
630.0895	-0.0041
630.2776	0.0026
630.4657	0.004
630.6537	0.0076
630.8417	-0.0077
631.0297	-0.0031
631.2177	0.004
631.4057	-0.0086
631.5936	0.0031
631.7815	-0.0007
631.9695	-0.0013
632.1574	0.0049
632.3452	0.0095
632.5331	0.0018
632.7209	-0.0008
632.9088	0.0113
633.0966	0.0066
633.2844	-0.0026
633.4722	0.0014
633.6599	0.0054
633.8477	0.0056
634.0354	0.0023
634.2231	-0.0012
634.4108	0.0047
634.5985	0.0117
634.7861	-0.0006
634.9738	-0.0063
635.1614	0.0051
635.349	0.0009
635.5366	0.0023
635.7242	0.0017
635.9117	0.007
636.0993	-0.0035
636.2868	0.0035
636.4743	-0.0058
636.6618	0.0103
636.8492	0.0047
637.0367	-0.006
637.2241	-0.0027
637.4115	-0.0025
637.5989	-0.0027
637.7863	0.0014
637.9737	-0.0026
638.161	-0.0048
638.3484	-0.004
638.5357	-0.0002
638.723	-0.0026
638.9103	0.0003
639.0975	0.0103
639.2848	0.002
639.472	-0.0035
639.6592	0.0031
639.8464	0.0131
640.0336	0.0048
640.2208	0.0026
640.4079	0.0024
640.595	-0.0032
640.7821	0.008
640.9692	0.0023
641.1563	0.0045
641.3434	0.0046
641.5304	-0.0017
641.7174	0.0047
641.9044	0.0099
642.0914	0.0002
642.2784	0.01
642.4653	0.0147
642.6523	0.0094
642.8392	-0.0022
643.0261	0.003
643.213	0.005
643.3999	-0.0007
643.5867	0.0006
643.7735	0.0039
643.9604	-0.0031
644.1472	0.0068
644.3339	0.0043
644.5207	0.0094
644.7075	0.0004
644.8942	0.0012
645.0809	0.0093
645.2676	0.0113
645.4543	0.0062
645.6409	0.0043
645.8276	-0.0024
646.0142	0.0063
646.2008	-0.0036
646.3874	0.0056
646.574	0
646.7605	-0.0001
646.9471	-0.0133
647.1336	-0.0006
647.3201	0.0029
647.5066	-0.0019
647.6931	0.0067
647.8795	-0.0013
648.0659	0.0096
648.2524	0.0085
648.4388	-0.0009
648.6252	-0.0035
648.8115	0.006
648.9979	-0.0013
649.1842	-0.0007
649.3705	0.0092
649.5568	0.008
649.7431	0.0072
649.9294	0.0002
650.1156	0.0095
650.3018	-0.0128
650.488	0.0035
650.6742	0.0042
650.8604	0.01
651.0466	-0.0034
651.2327	-0.0044
651.4188	-0.0026
651.6049	-0.0041
651.791	0.0011
651.9771	0.0022
652.1632	0.0064
652.3492	0.0029
652.5352	-0.0011
652.7212	0.0026
652.9072	0.009
653.0932	-0.0001
653.2791	0.005
653.465	0.0067
653.651	0.0018
653.8369	-0.0008
654.0227	-0.003
654.2086	0.0064
654.3944	0.0132
654.5803	0.0132
654.7661	-0.0038
654.9519	0.0019
655.1377	0.0022
655.3234	0.0022
655.5092	-0.0003
655.6949	-0.0023
655.8806	-0.002
656.0663	0.0006
656.2519	0.0011
656.4376	-0.0019
656.6232	0.0042
656.8088	-0.0016
656.9945	-0.0002
657.18	0.0042
657.3656	0.002
657.5511	-0.0043
657.7367	-0.0016
657.9222	0.0064
658.1077	0.0023
658.2932	0.0097
658.4786	-0.0002
658.6641	-0.0007
658.8495	0.0073
659.0349	-0.0037
659.2203	0.0084
659.4057	-0.0019
659.591	0.0055
659.7764	0.0018
659.9617	0.0024
660.147	0.0023
660.3323	0.0076
660.5176	0.0058
660.7028	-0.0003
660.888	0.0117
661.0733	0.0024
661.2585	-0.0025
661.4436	0.0028
661.6288	-0.0013
661.8139	0.0022
661.9991	0.0074
662.1842	-0.0052
662.3693	0.0025
662.5544	0.0019
662.7394	-0.0035
662.9245	-0.0087
663.1095	0.0015
663.2945	-0.0016
663.4795	-0.0012
663.6644	0.01
663.8494	0.004
664.0343	0.0008
664.2193	-0.0051
664.4042	0.0017
664.589	-0.004
664.7739	0.0007
664.9587	-0.002
665.1436	0.007
665.3284	0.0041
665.5132	-0.0059
665.698	0.0013
665.8827	0.0035
666.0675	0.0019
666.2522	-0.0005
666.4369	-0.006
666.6216	0.0093
666.8063	-0.0006
666.9909	0.0087
667.1756	-0.0026
667.3602	0.0115
667.5448	0.0008
667.7294	0.0155
667.9139	0.0118
668.0985	0.0161
668.283	0.0011
668.4675	0.0044
668.652	0.0012
668.8365	-0.0053
669.0209	0.0095
669.2054	0.0105
669.3898	0.007
669.5742	0.009
669.7586	0.0049
669.943	0.0152
670.1273	0.0112
670.3117	0.0029
670.496	0.0079
670.6803	0.0187
670.8646	0.0107
671.0488	0.0023
671.2331	0.0079
671.4173	0.011
671.6015	0.0039
671.7857	0.0023
671.9699	0.0064
672.1541	0.0017
672.3382	0.0069
672.5223	0.0097
672.7064	0.007
672.8905	0.0062
673.0746	0.0006
673.2587	0.0022
673.4427	-0.0002
673.6267	0.0029
673.8107	0.007
673.9947	0.0011
674.1787	0.0031
674.3626	-0.0024
674.5465	0.0057
674.7304	0.01
674.9143	0.0076
675.0982	0.0093
675.2821	-0.0008
675.4659	0.0122
675.6497	0.0046
675.8335	-0.0006
676.0173	0.0045
676.2011	0.0064
676.3849	-0.0012
676.5686	-0.0052
676.7523	0.0005
676.936	0.0013
677.1197	-0.011
677.3034	-0.0042
677.487	-0.0003
677.6706	0.0028
677.8542	0.0002
678.0378	0.0004
678.2214	-0.0058
678.405	-0.0002
678.5885	-0.008
678.772	0.0027
678.9555	-0.006
679.139	-0.004
679.3225	-0.0016
679.5059	0.0034
679.6894	0.0011
679.8728	0.0009
680.0562	-0.0001
680.2395	-0.0006
680.4229	0.0072
680.6062	0.0051
680.7896	-0.0022
680.9729	0.0011
681.1562	0.0026
681.3394	-0.0032
681.5227	-0.006
681.7059	-0.0064
681.8891	-0.0005
682.0723	0.0117
682.2555	0.0061
682.4387	0.0011
682.6218	-0.0064
682.805	0.0045
682.9881	0.0004
683.1712	0.0014
683.3542	0.0039
683.5373	0.0097
683.7203	-0.0041
683.9034	-0.0026
684.0864	-0.0019
684.2694	-0.0056
684.4523	0.0064
684.6353	-0.0087
684.8182	0.0023
685.0011	-0.0023
685.184	0.0069
685.3669	-0.0007
685.5498	0.0082
685.7326	-0.005
685.9154	-0.0079
686.0982	0.003
686.281	0.0036
686.4638	0.0068
686.6465	0.0061
686.8293	-0.0069
687.012	0.0048
687.1947	-0.0016
687.3774	-0.0002
687.56	-0.0048
687.7427	0.0012
687.9253	-0.0066
688.1079	0.0041
688.2905	0.0085
688.4731	-0.0028
688.6556	0.0007
688.8382	0.007
689.0207	-0.002
689.2032	-0.0034
689.3857	-0.006
689.5681	-0.0008
689.7506	0.0018
689.933	-0.0021
690.1154	0.0104
690.2978	0.0012
690.4802	0.0015
690.6626	-0.0006
690.8449	-0.0002
691.0272	0.007
691.2095	0.0025
691.3918	-0.0016
691.5741	-0.0039
691.7563	-0.0046
691.9386	0.0082
692.1208	0.0039
692.303	0.0073
692.4852	-0.0057
692.6673	0.0014
692.8495	0.0004
693.0316	0.0011
693.2137	0.0002
693.3958	0.0038
693.5778	-0.006
693.7599	0.0004
693.9419	-0.0022
694.1239	0.0012
694.3059	-0.0026
694.4879	0.0047
694.6699	0.0033
694.8518	-0.0025
695.0337	-0.0051
695.2157	0.006
695.3975	0.0001
695.5794	0.003
695.7613	0.0018
695.9431	-0.0014
696.1249	0.0122
696.3067	0.0045
696.4885	0.0098
696.6703	0.0042
696.852	0.0078
697.0337	0.0042
697.2154	0.0025
697.3971	0.0038
697.5788	0.0017
697.7605	0.0017
697.9421	0.001
698.1237	-0.0033
698.3053	0.0008
698.4869	-0.0031
698.6685	-0.0016
698.85	-0.0018
699.0315	0.0058
699.213	-0.0029
699.3945	0.0057
699.576	0.0106
699.7575	0.0149
699.9389	0.0103
700.1203	-0.0014
700.3017	-0.0032
700.4831	-0.0017
700.6645	-0.0035
700.8458	0.0012
701.0271	-0.0065
701.2084	0.0051
701.3897	-0.0102
701.571	0.0019
701.7523	-0.0057
701.9335	-0.0006
702.1147	-0.006
702.2959	-0.0001
702.4771	0.0021
702.6583	0.0057
702.8394	-0.0049
703.0205	0.0022
703.2016	-0.0091
703.3827	0.0008
703.5638	0.0098
703.7449	-0.0031
703.9259	0.012
704.1069	-0.0042
704.2879	0.0027
704.4689	-0.002
704.6499	0.0008
704.8308	0.0023
705.0117	0.0026
705.1927	0.0035
705.3735	0.0008
705.5544	-0.0027
705.7353	0.0063
705.9161	0.001
706.0969	-0.0032
706.2777	0.0021
706.4585	-0.0042
706.6393	0.0085
706.82	-0.006
707.0007	0.0086
707.1815	0.0069
707.3621	0.0086
707.5428	0.0053
707.7235	0.0011
707.9041	0.0099
708.0847	-0.0003
708.2653	-0.008
708.4459	-0.0141
708.6265	0.0013
708.807	-0.0076
708.9875	0.0035
709.168	-0.005
709.3485	-0.0045
709.529	-0.0045
709.7095	-0.0069
709.8899	0.0007
710.0703	-0.0088
710.2507	0.0026
710.4311	-0.0035
710.6115	-0.0093
710.7918	-0.0125
710.9721	-0.0031
711.1524	-0.009
711.3327	-0.0017
711.513	0.0011
711.6932	0.005
711.8735	0.0108
712.0537	0.0017
712.2339	-0.0021
712.4141	-0.005
712.5942	-0.0008
712.7744	-0.005
712.9545	-0.0107
713.1346	-0.0045
713.3147	-0.0011
713.4947	-0.0034
713.6748	-0.0047
713.8548	-0.0001
714.0348	-0.0018
714.2148	-0.0071
714.3948	0.0188
714.5748	-0.0004
714.7547	0.0046
714.9346	0.0075
715.1145	-0.0058
715.2944	-0.0061
715.4743	0.0025
715.6541	-0.0007
715.834	0.0022
716.0138	0.0068
716.1936	-0.0038
716.3733	0.002
716.5531	0.0054
716.7328	-0.0002
716.9126	0.0071
717.0923	0.0055
717.2719	-0.002
717.4516	0.0024
717.6312	0.0032
717.8109	-0.0078
717.9905	-0.0041
718.1701	-0.0036
718.3496	-0.0115
718.5292	0.0013
718.7087	-0.0035
718.8882	-0.0056
719.0677	0.0021
719.2472	-0.0085
719.4267	0.0006
719.6061	0.0008
719.7856	0.0084
719.965	0.0015
720.1443	-0.0044
720.3237	0.0125
720.5031	-0.008
720.6824	0.0058
720.8617	-0.0047
721.041	0.0043
721.2203	0.0067
721.3995	0.003
721.5788	-0.0006
721.758	0.0048
721.9372	0.0033
722.1164	0.0041
722.2956	0.0023
722.4747	0.0122
722.6538	-0.0012
722.8329	0.0078
723.012	0.0053
723.1911	0.0044
723.3702	0.0041
723.5492	0.0108
723.7282	-0.0044
723.9072	0.0061
724.0862	-0.0086
724.2652	-0.0039
724.4441	0.0026
724.623	-0.0032
724.8019	0.0013
724.9808	0.0005
725.1597	-0.0005
725.3385	0.0094
725.5174	-0.0008
725.6962	0
725.875	-0.0043
726.0538	0.005
726.2325	-0.0007
726.4112	-0.0053
726.59	-0.0076
726.7687	0.0058
726.9474	0.0003
727.126	-0.0005
727.3047	-0.0122
727.4833	-0.0022
727.6619	-0.0056
727.8405	-0.0161
728.0191	-0.0079
728.1976	-0.0019
728.3762	0.0012
728.5547	-0.0022
728.7332	-0.0114
728.9116	0.0035
729.0901	0.003
729.2686	-0.0052
729.447	0.0059
729.6254	0.0008
729.8038	0.0004
729.9821	-0.012
730.1605	0.0033
730.3388	0.003
730.5171	0.0001
730.6954	-0.0028
730.8737	0.0007
731.0519	0.0045
731.2302	-0.001
731.4084	0.0101
731.5866	0.0066
731.7648	0.0017
731.9429	-0.0087
732.1211	-0.0005
732.2992	0.0072
732.4773	-0.0055
732.6554	-0.0027
732.8335	-0.0015
733.0115	0.0057
733.1896	0.0034
733.3676	-0.0052
733.5456	0.0101
733.7235	-0.0038
733.9015	0.0003
734.0794	0.0034
734.2574	-0.0046
734.4353	-0.0013
734.6131	0.0071
734.791	0.0008
734.9689	-0.0004
735.1467	0.0018
735.3245	-0.012
735.5023	-0.0124
735.68	-0.0047
735.8578	0.0055
736.0355	-0.017
736.2132	0.0027
736.3909	-0.001
736.5686	-0.0061
736.7463	0.0071
736.9239	-0.0006
737.1015	0.0019
737.2791	0.0109
737.4567	0.0007
737.6343	-0.0078
737.8118	0.0072
737.9894	0.0089
738.1669	-0.0083
738.3444	0.0009
738.5218	0.0045
738.6993	-0.0011
738.8767	0.0033
739.0541	0.0125
739.2315	-0.0046
739.4089	0.0074
739.5863	0.0054
739.7636	0.0033
739.9409	0.0013
740.1182	0.0096
740.2955	0.009
740.4728	0.0044
740.65	0.0009
740.8272	-0.0062
741.0044	0.002
741.1816	-0.0008
741.3588	0.0068
741.5359	0.0106
741.7131	-0.0117
741.8902	-0.0022
742.0673	-0.0003
742.2444	-0.0008
742.4214	-0.0163
742.5985	-0.0034
742.7755	-0.0053
742.9525	-0.0246
743.1295	-0.0086
743.3064	0.0012
743.4834	0.0142
743.6603	-0.0014
743.8372	-0.0057
744.0141	0
744.191	-0.0003
744.3678	-0.0021
744.5446	0.0004
744.7215	0.0054
744.8982	-0.0029
745.075	-0.009
745.2518	0.0061
745.4285	-0.0022
745.6052	-0.0075
745.7819	0.0002
745.9586	-0.0101
746.1353	-0.0011
746.3119	-0.0068
746.4885	-0.0053
746.6651	-0.0042
746.8417	-0.0052
747.0183	0.001
747.1948	-0.003
747.3714	0.0006
747.5479	-0.0002
747.7244	-0.0035
747.9008	-0.0004
748.0773	0.0057
748.2537	-0.0057
748.4301	-0.0162
748.6065	0.0002
748.7829	0.0024
748.9593	-0.0034
749.1356	-0.0015
749.3119	0.0068
749.4882	-0.0011
749.6645	-0.0008
749.8408	-0.0032
750.017	-0.0045
750.1933	0.0052
750.3695	-0.0082
750.5457	0.0061
750.7218	-0.0019
750.898	0.0008
751.0741	-0.006
751.2502	-0.0032
751.4263	-0.0041
751.6024	-0.0055
751.7784	-0.007
751.9545	-0.0033
752.1305	-0.0014
752.3065	-0.0087
752.4825	0.0077
752.6584	-0.007
752.8344	-0.0101
753.0103	-0.0099
753.1862	-0.0067
753.3621	-0.0099
753.5379	-0.0088
753.7138	-0.0001
753.8896	0.0013
754.0654	-0.0034
754.2412	-0.0031
754.417	-0.0085
754.5927	-0.0143
754.7685	-0.0082
754.9442	-0.0072
755.1199	0.0013
755.2956	-0.0085
755.4712	0.0051
755.6469	0.0015
755.8225	-0.0048
755.9981	0
756.1736	-0.0015
756.3492	-0.0012
756.5248	-0.0102
756.7003	0.0054
756.8758	0.0071
757.0513	-0.0126
757.2267	-0.0026
757.4022	0.002
757.5776	-0.0088
757.753	0.0016
757.9284	0.0045
758.1038	0.0209
758.2791	0.0058
758.4545	-0.0106
758.6298	-0.005
758.8051	-0.0032
758.9803	-0.0066
759.1556	0.0002
759.3308	-0.0036
759.506	0.0101
759.6812	0.0031
759.8564	0.0053
760.0316	-0.0007
760.2067	0.0087
760.3819	0.0197
760.557	0.0146
760.732	0.0052
760.9071	-0.0075
761.0821	0.0002
761.2572	0.0098
761.4322	-0.0105
761.6072	-0.0032
761.7821	0.0019
761.9571	0.0054
762.132	0.0092
762.3069	-0.0154
762.4818	-0.0052
762.6567	-0.0077
762.8316	-0.0039
763.0064	0
763.1812	-0.0053
763.356	-0.0059
763.5308	-0.0088
763.7055	0.008
763.8803	-0.0032
764.055	-0.0032
764.2297	0.0015
764.4044	0.0005
764.579	-0.0083
764.7537	-0.0035
764.9283	-0.0014
765.1029	-0.0125
765.2775	-0.0083
765.4521	-0.0001
765.6266	-0.0022
765.8011	0.0029
765.9756	-0.0074
766.1501	0.0036
766.3246	-0.0095
766.4991	-0.0007
766.6735	0.0066
766.8479	-0.0131
767.0223	0.002
767.1967	-0.0037
767.371	0.0023
767.5454	0.0009
767.7197	0.0016
767.894	-0.0081
768.0683	-0.0102
768.2425	0.0079
768.4168	0.0029
768.591	-0.0054
768.7652	-0.0003
768.9394	-0.005
769.1135	-0.001
769.2877	0.0087
769.4618	-0.0036
769.6359	-0.0052
769.81	0.0061
769.984	-0.008
770.1581	-0.0114
770.3321	0.0069
770.5061	-0.0023
770.6801	-0.007
770.8541	-0.009
771.028	0.0122
771.202	-0.0099
771.3759	0.0074
771.5498	-0.007
771.7236	0.0117
771.8975	0.0059
772.0713	0.003
772.2451	0.0068
772.4189	0.0124
772.5927	0.0077
772.7665	0.0008
772.9402	0.0054
773.1139	0.0014
773.2876	-0.0065
773.4613	0.0038
773.635	0.0085
773.8086	-0.0067
773.9822	-0.0023
774.1558	0.0128
774.3294	-0.007
774.503	-0.0072
774.6765	-0.0049
774.8501	0.0069
775.0236	-0.0024
775.1971	0.0102
775.3705	-0.0097
775.544	0.0045
775.7174	-0.0047
775.8908	0.0121
776.0642	0.0031
776.2376	0.0009
776.4109	-0.0039
776.5843	0.0016
776.7576	0.0181
776.9309	0.0179
777.1041	0.01
777.2774	0.0175
777.4506	0.0125
777.6238	-0.0052
777.797	-0.0006
777.9702	0.0159
778.1434	0.0043
778.3165	-0.0069
778.4896	-0.0048
778.6627	0.0038
778.8358	0.0029
779.0089	-0.0026
779.1819	-0.0008
779.3549	0.0112
779.5279	0.0017
779.7009	0.0037
779.8739	-0.0076
780.0468	0.0158
780.2197	0.0055
780.3926	0.0006
780.5655	-0.0028
780.7384	0.0082
780.9112	0.001
781.0841	0.0035
781.2569	0.0054
781.4297	-0.0055
781.6024	0.0078
781.7752	0.0032
781.9479	0.0049
782.1206	0.0143
782.2933	-0.0011
782.466	-0.005
782.6386	0.0097
782.8113	-0.0013
782.9839	-0.0051
783.1565	0.0068
783.329	-0.0036
783.5016	0.0025
783.6741	-0.0039
783.8466	-0.007
784.0191	0.012
784.1916	0.0003
784.3641	0.0054
784.5365	0.0061
784.7089	0.0036
784.8813	0.001
785.0537	0.0154
785.2261	0.0113
785.3984	-0.0119
785.5707	0.0012
785.743	0.0013
785.9153	-0.0014
786.0876	-0.0001
786.2598	-0.0133
786.432	0.0007
786.6042	0.0119
786.7764	-0.0001
786.9486	0.009
787.1207	-0.0014
787.2928	0.0111
787.4649	0.0061
787.637	0.0032
787.8091	0.0026
787.9811	-0.0072
788.1532	-0.0049
788.3252	0.0076
788.4972	-0.0035
788.6691	0.0105
788.8411	-0.0006
789.013	0.0017
789.1849	-0.0039
789.3568	-0.0166
789.5287	0.0024
789.7005	-0.0045
789.8723	-0.0059
790.0442	0.0207
790.2159	0.0188
790.3877	0.0031
790.5595	-0.0252
790.7312	0.0135
790.9029	0.0011
791.0746	-0.0134
791.2463	-0.0104
791.4179	-0.0047
791.5896	-0.0113
791.7612	-0.0006
791.9328	0.0037
792.1044	-0.0058
792.2759	-0.0086
792.4474	-0.0041
792.619	0.0119
792.7905	-0.0104
792.9619	-0.0044
793.1334	0.0009
793.3048	0.0027
793.4762	0.0153
793.6476	0.0034
793.819	0.0003
793.9904	0.0184
794.1617	-0.0006
794.333	0.0065
794.5043	0.0037
794.6756	-0.0031
794.8469	0.0116
795.0181	0.0073
795.1893	-0.0111
795.3605	-0.0097
795.5317	0.0007
795.7029	-0.007
795.874	-0.0114
796.0452	-0.0075
796.2163	-0.0093
796.3873	0.0038
796.5584	0.0093
796.7294	0.0061
796.9005	0.0113
797.0715	-0.0033
797.2425	-0.0135
797.4134	-0.0129
797.5844	0.0067
797.7553	-0.0159
797.9262	-0.0033
798.0971	-0.002
798.2679	-0.0078
798.4388	-0.0195
798.6096	-0.017
798.7804	0.001
798.9512	-0.0009
799.122	-0.0002
799.2927	0.0031
799.4635	-0.0005
799.6342	-0.0362
799.8049	-0.0138
799.9755	-0.0084
800.1462	-0.0207
800.3168	0.0141
800.4874	-0.0046
800.658	0.0314
800.8286	0.0006
800.9991	0.0084
801.1696	0.0119
801.3402	0.0097
801.5106	-0.0042
801.6811	-0.0144
801.8516	0.0149
802.022	-0.0057
802.1924	0.0089
802.3628	0.0033
802.5332	0.0068
802.7035	0
802.8739	-0.01
803.0442	0.0046
803.2145	0.0151
803.3847	-0.0241
803.555	0.0052
803.7252	-0.0091
803.8954	-0.0124
804.0656	-0.0026
804.2358	-0.0045
804.4059	0.0119
804.5761	-0.0015
804.7462	-0.0076
804.9163	-0.0047
805.0864	-0.0082
805.2564	0.0009
805.4264	-0.0134
805.5965	-0.0075
805.7665	0.0111
805.9364	0.0079
806.1064	0.025
806.2763	0.0177
806.4462	0.0087
806.6161	0.0017
806.786	0.004
806.9559	0.0009
807.1257	0.0061
807.2955	0.0043
807.4653	0.0041
807.6351	-0.0128
807.8048	-0.0138
807.9746	-0.0068
808.1443	0.0147
808.314	0.01
808.4837	-0.0189
808.6533	0.0024
808.8229	0.0199
808.9926	-0.0007
809.1622	0.001
809.3317	-0.0186
809.5013	0.0119
809.6708	0.0086
809.8403	-0.0015
810.0098	0
810.1793	0.0128
810.3488	-0.006
810.5182	-0.0018
810.6876	0.0115
810.857	0.0049
811.0264	0.0118
811.1958	0.0036
811.3651	0.0077
811.5344	-0.005
811.7037	-0.0049
811.873	-0.0164
812.0422	-0.0127
812.2115	-0.0019
812.3807	-0.0305
812.5499	0.003
812.7191	0.0041
812.8882	-0.0073
813.0574	-0.0106
813.2265	-0.017
813.3956	-0.0083
813.5646	0.0042
813.7337	-0.0078
813.9027	0.0124
814.0718	0.0282
814.2407	0.0106
814.4097	-0.0058
814.5787	-0.0221
814.7476	-0.0084
814.9165	0.0009
815.0854	-0.0026
815.2543	0.0029
815.4232	-0.0098
815.592	0.0079
815.7608	-0.0041
815.9296	-0.0046
816.0984	0.0189
816.2671	0.0006
816.4359	-0.0036
816.6046	0.0156
816.7733	-0.0144
816.942	-0.0169
817.1106	0.0003
817.2793	-0.0135
817.4479	0.0096
817.6165	0.0043
817.785	-0.0059
817.9536	-0.0211
818.1221	-0.0089
818.2906	-0.0113
818.4591	-0.0138
818.6276	-0.03
818.7961	-0.0107
818.9645	0.019
819.1329	-0.0105
819.3013	0.0138
819.4697	0.0331
819.638	-0.0125
819.8064	-0.0047
819.9747	0.0056
820.143	-0.0099
820.3113	-0.0213
820.4795	0.0007
820.6477	0.0179
820.816	-0.0103
820.9842	-0.0085
821.1523	0.011
821.3205	-0.0191
821.4886	-0.0159
821.6567	0.0004
821.8248	0.022
821.9929	0.018
822.1609	-0.0063
822.329	0.0015
822.497	0.0118
822.665	-0.0182
822.833	-0.0211
823.0009	-0.0092
823.1688	0.0122
823.3367	0.0136
823.5046	-0.0231
823.6725	0.032
823.8404	0.0004
824.0082	-0.0023
824.176	0.0024
824.3438	0.025
824.5116	-0.0204
824.6793	0.0176
824.847	-0.0299
825.0147	-0.0029
825.1824	0.0427
825.3501	0.0108
825.5177	-0.0229
825.6854	-0.0135
825.853	0.0051
826.0206	-0.0244
826.1881	-0.0127
826.3557	-0.0194
826.5232	-0.017
826.6907	-0.0395
826.8582	0.0078
827.0257	0.0014
827.1931	-0.0076
827.3605	-0.0036
827.528	0.0094
827.6953	-0.0177
827.8627	0.028
828.03	0.0354
828.1974	-0.0308
828.3647	-0.0356
828.532	-0.0422
828.6992	-0.04
828.8665	0.0122
829.0337	-0.0119
829.2009	0.0163
829.3681	-0.0045
829.5352	0.0081
829.7024	-0.0194
829.8695	-0.0375
830.0366	0.0429
830.2037	0.0328
830.3707	0.0275
830.5378	-0.0193
830.7048	0.0006
830.8718	-0.0123
831.0388	-0.0163
831.2057	0.0006
831.3727	0.0219
831.5396	0.0012
831.7065	-0.0426
831.8734	-0.021
832.0402	-0.0609
832.2071	-0.0111
832.3739	-0.0439
832.5407	-0.0283
832.7075	-0.0231
832.8742	-0.0568
833.041	-0.049
833.2077	0.0093
833.3744	0.0102
833.541	-0.0065
833.7077	-0.033
833.8743	-0.037
834.0409	0.0099
834.2075	0.0149
834.3741	-0.0245
834.5407	0.011
834.7072	-0.0282
834.8737	-0.0356
835.0402	-0.036
835.2067	-0.0176
835.3731	0.0266
835.5395	-0.0031
835.706	0.0435
835.8723	-0.0014
836.0387	0.0316
836.2051	-0.0196
836.3714	0.0357
836.5377	0.0028
836.704	-0.0604
836.8703	-0.0203
837.0365	-0.0057
837.2027	-0.0355
837.3689	0.0402
837.5351	-0.0132
837.7013	-0.0108
837.8674	-0.0051
838.0335	-0.0117
838.1997	-0.0498
838.3657	-0.0146
838.5318	-0.0449
838.6978	0.0155
838.8639	0.0053
839.0299	0.024
839.1958	-0.0038
839.3618	0.0423
839.5277	-0.0289
839.6937	0.0434
839.8596	-0.0116
840.0254	-0.0065
840.1913	0.0092
840.3571	0.0179
840.523	-0.0279
840.6888	-0.0495
840.8545	-0.0438
841.0203	-0.0077
841.186	0.0122
841.3517	0.0091
841.5174	-0.0034
841.6831	-0.0429
841.8488	-0.0244
842.0144	-0.0274
842.18	-0.0266
842.3456	0.0076
842.5112	-0.0178
842.6767	-0.0191
842.8422	-0.0105
843.0077	-0.0411
843.1732	-0.0159
843.3387	-0.0621
843.5042	-0.0114
843.6696	-0.0532
843.835	-0.0241
844.0004	0.021
844.1657	-0.0049
844.3311	-0.0335
844.4964	-0.0722
844.6617	-0.0735
844.827	-0.0291
844.9923	-0.0371
845.1575	-0.0058
845.3227	-0.0289
845.4879	0.0023
845.6531	-0.0859
845.8183	-0.0782
845.9834	0.0365
846.1485	-0.0283
846.3136	-0.0136
846.4787	-0.1574
846.6438	0.0049
846.8088	-0.0272
846.9738	-0.0947
847.1388	0.0058
847.3038	-0.0983
847.4687	-0.1459
847.6337	-0.0038
847.7986	-0.0819
847.9635	-0.0144
848.1284	0.0477
848.2932	-0.0014
848.458	-0.0214
848.6228	-0.0135
848.7876	0.0277
848.9524	-0.0518
849.1172	-0.0939
849.2819	0.0663
849.4466	-0.0986
849.6113	-0.068
849.7759	-0.0766
849.9406	-0.0576
850.1052	0.0348
850.2698	-0.0414
850.4344	-0.0392
850.599	-0.0215
850.7635	0.0462
850.928	-0.0378
851.0925	-0.0523
851.257	0.0469
851.4215	-0.0219
851.5859	0.009
851.7503	0.0157
851.9147	-0.0048
852.0791	-0.0386
852.2434	-0.12
852.4078	-0.0439
852.5721	0.0389
852.7364	-0.0641
852.9007	-0.0525
853.0649	-0.0057
853.2291	0.0589
853.3934	-0.0044
853.5575	0.0398
853.7217	-0.1403
853.8859	-0.2222
854.05	-0.1173
854.2141	-0.0176
854.3782	-0.116
854.5423	-0.1135
854.7063	0.1196
854.8703	-0.0394
855.0343	-0.1339
855.1983	-0.1943
855.3623	0.1907
855.5262	-0.0366
855.6901	-0.0482
855.854	-0.01
856.0179	0.0206
856.1818	-0.0169
856.3456	-0.0772
856.5094	-0.1402
856.6732	-0.1418
856.837	-0.0414
857.0008	0.0088
857.1645	-0.1068
857.3282	-0.0104
857.4919	-0.0509
857.6556	-0.0157
857.8192	-0.0805
857.9828	-0.0869
858.1465	0.1424
858.31	-0.2564
858.4736	0.0625
858.6372	-0.3798
858.8007	-0.2439
858.9642	-0.1324
859.1277	-0.1715
859.2911	0.0004
859.4546	-0.1012
859.618	-0.3629
859.7814	-0.1195
859.9448	0.0181
860.1081	0.1217
860.2715	0.0667
860.4348	-0.2077
860.5981	-0.1221
860.7614	0.1937
860.9246	-0.0961
861.0879	-0.2275
861.2511	0.1282
861.4143	-0.3303
861.5774	0.1456
861.7406	-0.0713
861.9037	0.1082
862.0668	-0.0377
862.2299	-0.1187
862.393	-0.5221
862.556	0.1544
862.7191	-0.2937
862.8821	-0.044
863.0451	-0.1061
863.208	-0.0581
863.371	-0.1267
863.5339	-0.2113
863.6968	0.0935
863.8597	0.0621
864.0225	-0.0903
864.1854	-0.1102
864.3482	-0.2873
864.511	0.1151
864.6737	0.0718
864.8365	0.048
864.9992	-0.3226
865.1619	-0.4984
865.3246	-0.277
865.4873	0.0698
865.65	-0.2412
865.8126	0.0007
865.9752	-0.0507
866.1378	-0.323
866.3004	0.4115
866.4629	0.1763
866.6254	2.5866
866.7879	0.0307
866.9504	0.19
867.1129	-0
867.2753	0.13
867.4377	0.0752
867.6001	-0.4116
867.7625	-0.1464
867.9249	-0.4119
868.0872	-0.2243
868.2495	-0.1058
868.4118	-0.267
868.5741	-0.3932
868.7363	-0.3419
868.8986	-0.4972
869.0608	-0.2704
869.223	0.3267
869.3851	-0
869.5473	0.6474
869.7094	0.1943
869.8715	-0.5688
870.0336	-0
870.1957	-0.3369
870.3577	-0
870.5197	-0.2085
870.6817	-0.7041
870.8437	-0.2582
871.0057	-0.6799
871.1676	-0.6065
871.3295	-0.2333
871.4914	-0
871.6533	-0.4435
871.8151	-0.1153
871.977	-0
872.1388	-0
872.3006	-0
872.4623	0.7347
872.6241	0.4283
872.7858	-0
872.9475	-0.1522
873.1092	0.1909
873.2709	0.2004
873.4325	-0.0459
873.5941	-0.643
873.7557	-0
873.9173	-0
874.0789	-0
874.2404	-0.7583
874.4019	-0
874.5634	-0.1747
874.7249	-0.1331
874.8863	-0.2465
875.0478	0.2901
875.2092	-0
875.3706	-0.0369
875.5319	-0.9005
875.6933	0.215
875.8546	-0.3311
876.0159	-0.2579
876.1772	-0.152
876.3385	0.143
876.4997	0.2493
876.6609	-0.522
876.8221	-0
876.9833	-0
877.1445	-0
877.3056	0.0644
877.4667	-0.5984
877.6278	-0
877.7889	-0.6408
877.9499	-0
878.111	-0.4932
878.272	0.301
878.433	-0
878.5939	-0
878.7549	-0.1982
878.9158	-1.0867
879.0767	1.5125
879.2376	-0
879.3984	-0.0376
879.5593	-0.2421
879.7201	-0.1982
879.8809	-0.8384
880.0417	-0.2355
880.2024	0.2889
880.3632	-0.8706
880.5239	0.4582
880.6846	0.0273
880.8452	-2.8038
881.0059	-0
881.1665	-0.0129
881.3271	-0.049
881.4877	-0.6838
881.6483	-0.6136
881.8088	-0.4154
881.9693	0.2851
882.1298	0.2851
882.2903	0.2851
