Data from MonoPyChalIsomerACN10uM410nmA_Absorbance_14-53-27-473.txt Node
Date: Fri Jul 05 14:53:27 BST 2024
User: LASERRRRR
Spectrometer: FLMT03099
Trigger mode: 0
Integration Time (sec): 1.000000E-1
Scans to average: 1
Electric dark correction enabled: true
Nonlinearity correction enabled: false
Boxcar width: 0
XAxis mode: Wavelengths
Number of Pixels in Spectrum: 3648
>>>>>Begin Spectral Data<<<<<
179.3399	0.4743
179.5586	0.4743
179.7771	0.4743
179.9957	-0.1126
180.2143	-0
180.4329	-0.2048
180.6514	-0
180.8699	-0
181.0885	-0.1237
181.307	0.3116
181.5255	0.9777
181.744	-0.05
181.9625	-0
182.181	-0
182.3994	-0
182.6179	-0
182.8363	0.0874
183.0547	-0.1719
183.2732	-0.1192
183.4916	0.1092
183.71	0.0667
183.9284	0.1923
184.1467	-0.0519
184.3651	0.0496
184.5835	-0.0184
184.8018	0.0941
185.0201	0.1285
185.2385	0.0893
185.4568	0.184
185.6751	0.3157
185.8934	0.4221
186.1117	0.2241
186.3299	0.2168
186.5482	0.1048
186.7664	0.0137
186.9847	0.0525
187.2029	0.1273
187.4211	0.1025
187.6393	0.309
187.8575	-0.0184
188.0757	0.082
188.2939	0.1154
188.512	0.3848
188.7302	0.1351
188.9483	0.2069
189.1665	0.0513
189.3846	0.4425
189.6027	0.1698
189.8208	0.2468
190.0389	0.3454
190.257	0.2654
190.475	0.4193
190.6931	0.5795
190.9111	0.5398
191.1292	0.1807
191.3472	0.624
191.5652	0.2837
191.7832	0.3326
192.0012	0.5324
192.2192	0.3213
192.4371	0.6563
192.6551	0.4231
192.873	0.6354
193.091	0.6795
193.3089	0.4367
193.5268	0.4824
193.7447	0.6056
193.9626	0.5011
194.1805	0.4702
194.3984	0.7629
194.6162	0.5729
194.8341	0.5495
195.0519	0.4897
195.2697	0.8047
195.4875	0.7819
195.7054	0.7912
195.9231	0.6717
196.1409	0.5921
196.3587	0.5319
196.5765	0.6976
196.7942	0.6656
197.012	0.5145
197.2297	0.7186
197.4474	0.8449
197.6651	0.5703
197.8828	0.5724
198.1005	0.6662
198.3182	0.6692
198.5358	0.7238
198.7535	0.6729
198.9711	0.5686
199.1888	0.8361
199.4064	0.7461
199.624	0.6374
199.8416	0.6157
200.0592	0.6311
200.2767	0.7506
200.4943	0.7484
200.7119	0.7264
200.9294	0.6658
201.1469	0.6688
201.3645	0.5441
201.582	0.5829
201.7995	0.5961
202.017	0.7701
202.2344	0.5923
202.4519	0.6607
202.6694	0.6206
202.8868	0.6939
203.1042	0.6104
203.3217	0.744
203.5391	0.5916
203.7565	0.6387
203.9739	0.7609
204.1913	0.5982
204.4086	0.7378
204.626	0.7538
204.8433	0.7214
205.0607	0.557
205.278	0.6977
205.4953	0.5865
205.7126	0.6783
205.9299	0.7975
206.1472	0.8233
206.3644	0.6616
206.5817	0.658
206.7989	0.7405
207.0162	0.6509
207.2334	0.6609
207.4506	0.7065
207.6678	0.6488
207.885	0.7028
208.1022	0.684
208.3194	0.7198
208.5365	0.6684
208.7537	0.7055
208.9708	0.5878
209.1879	0.7172
209.405	0.637
209.6222	0.7063
209.8392	0.6388
210.0563	0.6441
210.2734	0.6305
210.4905	0.6344
210.7075	0.644
210.9245	0.6555
211.1416	0.6559
211.3586	0.6081
211.5756	0.6399
211.7926	0.6241
212.0096	0.6441
212.2265	0.5865
212.4435	0.5944
212.6604	0.5884
212.8774	0.5915
213.0943	0.6325
213.3112	0.5401
213.5281	0.5806
213.745	0.4906
213.9619	0.5056
214.1788	0.508
214.3956	0.463
214.6125	0.4996
214.8293	0.4221
215.0461	0.4965
215.2629	0.4556
215.4798	0.4577
215.6965	0.4012
215.9133	0.463
216.1301	0.415
216.3469	0.4058
216.5636	0.4209
216.7803	0.4157
216.9971	0.4142
217.2138	0.3885
217.4305	0.3777
217.6472	0.3345
217.8639	0.3632
218.0805	0.3344
218.2972	0.3146
218.5138	0.3221
218.7305	0.2858
218.9471	0.3138
219.1637	0.2854
219.3803	0.2653
219.5969	0.2689
219.8135	0.2519
220.0301	0.2519
220.2466	0.2673
220.4632	0.2496
220.6797	0.2195
220.8962	0.2336
221.1127	0.2627
221.3292	0.2656
221.5457	0.2564
221.7622	0.2553
221.9787	0.2611
222.1951	0.2233
222.4116	0.2392
222.628	0.2363
222.8444	0.278
223.0608	0.2386
223.2772	0.2602
223.4936	0.2594
223.71	0.2565
223.9264	0.2547
224.1427	0.2302
224.3591	0.2429
224.5754	0.2717
224.7917	0.2671
225.008	0.242
225.2243	0.2433
225.4406	0.2761
225.6569	0.2647
225.8732	0.2613
226.0894	0.2467
226.3057	0.2616
226.5219	0.2805
226.7381	0.2622
226.9543	0.2778
227.1705	0.2809
227.3867	0.2598
227.6029	0.2918
227.8191	0.2969
228.0352	0.2841
228.2513	0.3065
228.4675	0.3158
228.6836	0.3022
228.8997	0.3012
229.1158	0.2926
229.3319	0.3145
229.548	0.3229
229.764	0.3249
229.9801	0.3038
230.1961	0.3325
230.4121	0.319
230.6282	0.3237
230.8442	0.304
231.0602	0.3381
231.2761	0.3358
231.4921	0.3508
231.7081	0.3517
231.924	0.3603
232.14	0.3433
232.3559	0.3384
232.5718	0.3593
232.7877	0.3549
233.0036	0.3549
233.2195	0.3634
233.4353	0.3473
233.6512	0.3547
233.867	0.3671
234.0829	0.3725
234.2987	0.3625
234.5145	0.3811
234.7303	0.372
234.9461	0.3796
235.1619	0.3678
235.3776	0.3779
235.5934	0.3894
235.8091	0.3537
236.0249	0.3712
236.2406	0.3857
236.4563	0.3711
236.672	0.3801
236.8877	0.3879
237.1034	0.3945
237.319	0.3893
237.5347	0.3892
237.7503	0.3844
237.966	0.3992
238.1816	0.4041
238.3972	0.4116
238.6128	0.39
238.8284	0.3908
239.0439	0.4131
239.2595	0.4071
239.475	0.4054
239.6906	0.4154
239.9061	0.4016
240.1216	0.4008
240.3371	0.4074
240.5526	0.4153
240.7681	0.408
240.9836	0.3928
241.199	0.3967
241.4145	0.3816
241.6299	0.38
241.8453	0.4009
242.0607	0.3787
242.2761	0.3777
242.4915	0.3734
242.7069	0.372
242.9223	0.3671
243.1376	0.3518
243.353	0.3475
243.5683	0.3548
243.7836	0.3346
243.9989	0.3436
244.2142	0.3184
244.4295	0.3115
244.6448	0.3314
244.86	0.3016
245.0753	0.2938
245.2905	0.2919
245.5057	0.2926
245.721	0.2682
245.9362	0.2875
246.1514	0.2778
246.3665	0.2662
246.5817	0.2552
246.7969	0.2605
247.012	0.2473
247.2271	0.243
247.4423	0.2407
247.6574	0.2398
247.8725	0.2301
248.0876	0.2335
248.3026	0.2262
248.5177	0.2257
248.7328	0.211
248.9478	0.216
249.1628	0.2132
249.3779	0.2116
249.5929	0.2092
249.8079	0.2201
250.0228	0.2113
250.2378	0.1984
250.4528	0.2141
250.6677	0.1888
250.8827	0.1922
251.0976	0.1965
251.3125	0.1879
251.5274	0.1758
251.7423	0.1846
251.9572	0.1886
252.172	0.1839
252.3869	0.1873
252.6017	0.1931
252.8166	0.1733
253.0314	0.1812
253.2462	0.1791
253.461	0.179
253.6758	0.165
253.8906	0.1708
254.1053	0.1756
254.3201	0.1693
254.5348	0.1881
254.7496	0.1836
254.9643	0.1579
255.179	0.1819
255.3937	0.1674
255.6083	0.1686
255.823	0.1768
256.0377	0.1641
256.2523	0.1682
256.467	0.1587
256.6816	0.1772
256.8962	0.1632
257.1108	0.1496
257.3254	0.1718
257.54	0.1568
257.7545	0.1627
257.9691	0.1662
258.1836	0.1612
258.3981	0.1553
258.6127	0.1799
258.8272	0.157
259.0417	0.1655
259.2561	0.1645
259.4706	0.153
259.6851	0.1661
259.8995	0.167
260.114	0.161
260.3284	0.1703
260.5428	0.1534
260.7572	0.1696
260.9716	0.173
261.186	0.1586
261.4003	0.1667
261.6147	0.1699
261.829	0.1651
262.0433	0.161
262.2577	0.1518
262.472	0.1787
262.6863	0.1578
262.9005	0.1661
263.1148	0.1596
263.3291	0.1475
263.5433	0.1538
263.7576	0.157
263.9718	0.156
264.186	0.168
264.4002	0.1654
264.6144	0.144
264.8286	0.173
265.0427	0.1652
265.2569	0.164
265.471	0.1627
265.6851	0.1557
265.8993	0.1599
266.1134	0.1605
266.3275	0.155
266.5415	0.1543
266.7556	0.1709
266.9697	0.1552
267.1837	0.1692
267.3978	0.1578
267.6118	0.171
267.8258	0.1752
268.0398	0.1536
268.2538	0.1736
268.4677	0.171
268.6817	0.1504
268.8957	0.1655
269.1096	0.1566
269.3235	0.1699
269.5374	0.1592
269.7514	0.1536
269.9652	0.1491
270.1791	0.1559
270.393	0.1458
270.6068	0.1531
270.8207	0.1396
271.0345	0.156
271.2483	0.1729
271.4622	0.1567
271.676	0.1588
271.8897	0.1498
272.1035	0.144
272.3173	0.1533
272.531	0.1547
272.7448	0.1485
272.9585	0.139
273.1722	0.1489
273.3859	0.1517
273.5996	0.1405
273.8133	0.1546
274.0269	0.1353
274.2406	0.1402
274.4542	0.1415
274.6679	0.1373
274.8815	0.1494
275.0951	0.1576
275.3087	0.1608
275.5223	0.1556
275.7358	0.1535
275.9494	0.1578
276.1629	0.1471
276.3765	0.1567
276.59	0.1503
276.8035	0.1489
277.017	0.1531
277.2305	0.1512
277.444	0.1652
277.6574	0.1503
277.8709	0.1508
278.0843	0.1464
278.2978	0.156
278.5112	0.1484
278.7246	0.148
278.938	0.1592
279.1513	0.1584
279.3647	0.1737
279.5781	0.149
279.7914	0.1464
280.0047	0.1663
280.2181	0.1654
280.4314	0.1676
280.6447	0.1625
280.8579	0.1576
281.0712	0.1624
281.2845	0.1551
281.4977	0.1624
281.711	0.1512
281.9242	0.16
282.1374	0.1729
282.3506	0.1565
282.5638	0.1613
282.7769	0.1615
282.9901	0.1501
283.2033	0.1646
283.4164	0.1661
283.6295	0.1382
283.8426	0.154
284.0557	0.1633
284.2688	0.1756
284.4819	0.1651
284.695	0.1551
284.908	0.1705
285.1211	0.1527
285.3341	0.158
285.5471	0.166
285.7601	0.1588
285.9731	0.1547
286.1861	0.157
286.3991	0.1614
286.612	0.17
286.825	0.1611
287.0379	0.1619
287.2508	0.1731
287.4637	0.1694
287.6766	0.1546
287.8895	0.1671
288.1024	0.1728
288.3152	0.168
288.5281	0.1441
288.7409	0.1665
288.9538	0.1598
289.1666	0.1573
289.3794	0.1606
289.5922	0.151
289.8049	0.1513
290.0177	0.1561
290.2304	0.1578
290.4432	0.1724
290.6559	0.1527
290.8686	0.1676
291.0813	0.1451
291.294	0.1574
291.5067	0.1587
291.7194	0.1665
291.932	0.1641
292.1447	0.1594
292.3573	0.1547
292.5699	0.1635
292.7825	0.1649
292.9951	0.1543
293.2077	0.1623
293.4203	0.1561
293.6328	0.1485
293.8454	0.1679
294.0579	0.1567
294.2704	0.1589
294.4829	0.1531
294.6954	0.1609
294.9079	0.1677
295.1204	0.1484
295.3328	0.1625
295.5453	0.1644
295.7577	0.1608
295.9701	0.145
296.1825	0.1589
296.3949	0.148
296.6073	0.1513
296.8197	0.147
297.0321	0.1648
297.2444	0.1492
297.4567	0.157
297.6691	0.1499
297.8814	0.1526
298.0937	0.1549
298.306	0.1541
298.5182	0.149
298.7305	0.1642
298.9428	0.1535
299.155	0.1602
299.3672	0.153
299.5794	0.1498
299.7916	0.1576
300.0038	0.1609
300.216	0.1623
300.4282	0.1518
300.6403	0.1459
300.8525	0.1592
301.0646	0.1542
301.2767	0.1555
301.4888	0.1576
301.7009	0.1523
301.913	0.1546
302.125	0.158
302.3371	0.1634
302.5491	0.1548
302.7612	0.1593
302.9732	0.1562
303.1852	0.1516
303.3972	0.1604
303.6092	0.1435
303.8211	0.1483
304.0331	0.154
304.245	0.1396
304.457	0.144
304.6689	0.1535
304.8808	0.1522
305.0927	0.1422
305.3046	0.1486
305.5164	0.1528
305.7283	0.1474
305.9401	0.1552
306.152	0.1428
306.3638	0.1478
306.5756	0.1413
306.7874	0.14
306.9992	0.1453
307.2109	0.1458
307.4227	0.119
307.6344	0.1484
307.8462	0.1278
308.0579	0.1338
308.2696	0.1276
308.4813	0.1282
308.693	0.124
308.9046	0.1299
309.1163	0.1285
309.328	0.1248
309.5396	0.1138
309.7512	0.1131
309.9628	0.127
310.1744	0.1226
310.386	0.1281
310.5976	0.116
310.8091	0.1195
311.0207	0.118
311.2322	0.1162
311.4437	0.1041
311.6552	0.1047
311.8667	0.1236
312.0782	0.114
312.2897	0.0994
312.5012	0.1076
312.7126	0.1051
312.924	0.0982
313.1355	0.1166
313.3469	0.1016
313.5583	0.1117
313.7696	0.1168
313.981	0.1068
314.1924	0.093
314.4037	0.1013
314.6151	0.1148
314.8264	0.0923
315.0377	0.0997
315.249	0.1028
315.4603	0.1224
315.6716	0.0932
315.8828	0.1025
316.0941	0.1047
316.3053	0.0975
316.5165	0.1012
316.7277	0.0942
316.9389	0.1138
317.1501	0.0976
317.3613	0.0965
317.5724	0.0929
317.7836	0.1071
317.9947	0.1015
318.2058	0.1009
318.417	0.0953
318.6281	0.0944
318.8391	0.0976
319.0502	0.1048
319.2613	0.1008
319.4723	0.1075
319.6834	0.1074
319.8944	0.0936
320.1054	0.1002
320.3164	0.1034
320.5274	0.1005
320.7383	0.1025
320.9493	0.0964
321.1602	0.1066
321.3712	0.1048
321.5821	0.1144
321.793	0.1033
322.0039	0.0983
322.2148	0.1004
322.4257	0.1026
322.6365	0.1065
322.8474	0.111
323.0582	0.11
323.269	0.1044
323.4798	0.1154
323.6906	0.1147
323.9014	0.1059
324.1122	0.1066
324.3229	0.0963
324.5337	0.0999
324.7444	0.099
324.9551	0.1205
325.1658	0.1001
325.3765	0.1146
325.5872	0.1033
325.7979	0.1025
326.0085	0.1003
326.2192	0.1276
326.4298	0.1055
326.6404	0.1044
326.851	0.1001
327.0616	0.1023
327.2722	0.1035
327.4828	0.1214
327.6933	0.1092
327.9039	0.1069
328.1144	0.1188
328.3249	0.1099
328.5354	0.1099
328.7459	0.1133
328.9564	0.1155
329.1669	0.1159
329.3773	0.1126
329.5878	0.1064
329.7982	0.1112
330.0086	0.1125
330.219	0.1092
330.4294	0.1084
330.6398	0.1218
330.8502	0.0885
331.0605	0.107
331.2708	0.1054
331.4812	0.1106
331.6915	0.1069
331.9018	0.1181
332.1121	0.1027
332.3224	0.1207
332.5326	0.1047
332.7429	0.113
332.9531	0.1166
333.1633	0.1197
333.3735	0.102
333.5837	0.1094
333.7939	0.1042
334.0041	0.1225
334.2143	0.1126
334.4244	0.108
334.6346	0.1
334.8447	0.1291
335.0548	0.1046
335.2649	0.1073
335.475	0.1226
335.685	0.1116
335.8951	0.1163
336.1051	0.1186
336.3152	0.1129
336.5252	0.1082
336.7352	0.1159
336.9452	0.1178
337.1552	0.1196
337.3652	0.1043
337.5751	0.1148
337.7851	0.1141
337.995	0.1038
338.2049	0.1151
338.4148	0.1172
338.6247	0.1195
338.8346	0.1019
339.0445	0.1099
339.2543	0.1044
339.4642	0.1162
339.674	0.1096
339.8838	0.115
340.0936	0.1211
340.3034	0.1227
340.5132	0.129
340.7229	0.1224
340.9327	0.1254
341.1424	0.1133
341.3522	0.1345
341.5619	0.1338
341.7716	0.123
341.9813	0.1416
342.1909	0.1228
342.4006	0.1222
342.6102	0.1288
342.8199	0.1255
343.0295	0.1267
343.2391	0.1304
343.4487	0.1317
343.6583	0.1292
343.8679	0.1378
344.0774	0.1356
344.287	0.1418
344.4965	0.13
344.706	0.1359
344.9155	0.1309
345.125	0.1225
345.3345	0.1408
345.544	0.1277
345.7534	0.1313
345.9629	0.125
346.1723	0.1239
346.3817	0.1318
346.5911	0.1271
346.8005	0.1352
347.0099	0.133
347.2193	0.1381
347.4286	0.1312
347.638	0.1425
347.8473	0.152
348.0566	0.1294
348.2659	0.1497
348.4752	0.1483
348.6845	0.1364
348.8937	0.1281
349.103	0.1485
349.3122	0.1306
349.5214	0.1416
349.7306	0.1432
349.9398	0.1401
350.149	0.1409
350.3582	0.1439
350.5674	0.1458
350.7765	0.1412
350.9856	0.1377
351.1948	0.1449
351.4039	0.1271
351.613	0.1413
351.822	0.1345
352.0311	0.1449
352.2402	0.1526
352.4492	0.1507
352.6582	0.1636
352.8672	0.1487
353.0762	0.1512
353.2852	0.1608
353.4942	0.1486
353.7032	0.1559
353.9121	0.1492
354.1211	0.148
354.33	0.1577
354.5389	0.152
354.7478	0.1473
354.9567	0.154
355.1655	0.1405
355.3744	0.1566
355.5833	0.162
355.7921	0.1626
356.0009	0.1544
356.2097	0.1807
356.4185	0.1582
356.6273	0.1635
356.8361	0.18
357.0448	0.1558
357.2536	0.1477
357.4623	0.1443
357.671	0.1641
357.8797	0.1512
358.0884	0.1579
358.2971	0.1664
358.5057	0.165
358.7144	0.1713
358.923	0.1632
359.1316	0.1659
359.3402	0.1564
359.5488	0.1743
359.7574	0.1687
359.966	0.1801
360.1746	0.1778
360.3831	0.1769
360.5916	0.1697
360.8002	0.1648
361.0087	0.1749
361.2172	0.1836
361.4256	0.1779
361.6341	0.1931
361.8426	0.1848
362.051	0.1841
362.2594	0.1874
362.4678	0.1847
362.6762	0.1958
362.8846	0.1865
363.093	0.1899
363.3014	0.1678
363.5097	0.1727
363.718	0.176
363.9264	0.1777
364.1347	0.1776
364.343	0.1951
364.5513	0.1907
364.7595	0.1965
364.9678	0.1934
365.176	0.1949
365.3842	0.1836
365.5925	0.1792
365.8007	0.184
366.0089	0.1897
366.217	0.1753
366.4252	0.201
366.6333	0.2246
366.8415	0.1895
367.0496	0.1797
367.2577	0.1976
367.4658	0.2111
367.6739	0.2013
367.882	0.1936
368.09	0.1994
368.2981	0.2093
368.5061	0.2021
368.7141	0.2035
368.9221	0.2042
369.1301	0.2114
369.3381	0.2033
369.5461	0.2056
369.754	0.1967
369.962	0.2133
370.1699	0.2098
370.3778	0.2073
370.5857	0.1895
370.7936	0.2183
371.0015	0.2116
371.2093	0.2128
371.4172	0.2112
371.625	0.2086
371.8328	0.2013
372.0406	0.2028
372.2484	0.1982
372.4562	0.2043
372.664	0.2191
372.8717	0.2259
373.0795	0.1988
373.2872	0.226
373.4949	0.2143
373.7026	0.2228
373.9103	0.2297
374.118	0.2209
374.3256	0.2314
374.5333	0.2214
374.7409	0.2128
374.9485	0.2127
375.1561	0.2285
375.3637	0.225
375.5713	0.2316
375.7789	0.2186
375.9864	0.2081
376.194	0.215
376.4015	0.2327
376.609	0.2479
376.8165	0.2229
377.024	0.2081
377.2315	0.2213
377.4389	0.2192
377.6464	0.2274
377.8538	0.2333
378.0612	0.2245
378.2686	0.2275
378.476	0.2408
378.6834	0.2461
378.8908	0.2388
379.0981	0.2251
379.3055	0.2336
379.5128	0.2374
379.7201	0.2497
379.9274	0.2215
380.1347	0.2185
380.342	0.2507
380.5492	0.2197
380.7565	0.2326
380.9637	0.2282
381.1709	0.2242
381.3781	0.2318
381.5853	0.2441
381.7925	0.2393
381.9997	0.2443
382.2068	0.2412
382.4139	0.2658
382.6211	0.2202
382.8282	0.2436
383.0353	0.2247
383.2424	0.239
383.4494	0.2484
383.6565	0.2241
383.8635	0.2346
384.0706	0.2344
384.2776	0.238
384.4846	0.2307
384.6916	0.2356
384.8986	0.2482
385.1055	0.2469
385.3125	0.2284
385.5194	0.2213
385.7263	0.2541
385.9333	0.2477
386.1402	0.2298
386.347	0.2296
386.5539	0.2208
386.7608	0.2498
386.9676	0.2234
387.1744	0.2474
387.3813	0.213
387.5881	0.238
387.7948	0.2342
388.0016	0.2229
388.2084	0.2389
388.4151	0.2209
388.6219	0.2461
388.8286	0.2155
389.0353	0.2446
389.242	0.2373
389.4487	0.2312
389.6553	0.2137
389.862	0.2112
390.0686	0.2298
390.2753	0.2139
390.4819	0.2343
390.6885	0.2143
390.8951	0.2139
391.1016	0.2256
391.3082	0.2175
391.5147	0.2142
391.7213	0.2245
391.9278	0.2233
392.1343	0.2152
392.3408	0.2203
392.5473	0.1959
392.7537	0.1911
392.9602	0.1996
393.1666	0.2091
393.373	0.2287
393.5794	0.2242
393.7858	0.2166
393.9922	0.206
394.1986	0.2122
394.4049	0.2196
394.6113	0.189
394.8176	0.1958
395.0239	0.2086
395.2302	0.2101
395.4365	0.2074
395.6428	0.2116
395.8491	0.204
396.0553	0.2094
396.2615	0.2121
396.4678	0.1975
396.674	0.1837
396.8802	0.1938
397.0863	0.21
397.2925	0.2121
397.4987	0.193
397.7048	0.1852
397.9109	0.2087
398.117	0.1856
398.3231	0.1928
398.5292	0.2093
398.7353	0.1992
398.9413	0.192
399.1474	0.1987
399.3534	0.197
399.5594	0.1674
399.7654	0.2133
399.9714	0.1976
400.1774	0.205
400.3833	0.1808
400.5893	0.1926
400.7952	0.1851
401.0011	0.1906
401.207	0.2145
401.4129	0.1971
401.6188	0.2026
401.8247	0.2005
402.0305	0.1909
402.2364	0.1868
402.4422	0.2031
402.648	0.1904
402.8538	0.2054
403.0596	0.1885
403.2654	0.2201
403.4711	0.1867
403.6768	0.1964
403.8826	0.2029
404.0883	0.2018
404.294	0.1981
404.4997	0.1928
404.7054	0.1963
404.911	0.1699
405.1167	0.1957
405.3223	0.1954
405.5279	0.184
405.7335	0.209
405.9391	0.1879
406.1447	0.1895
406.3502	0.1945
406.5558	0.1815
406.7613	0.188
406.9668	0.1846
407.1724	0.1737
407.3778	0.184
407.5833	0.2028
407.7888	0.1855
407.9942	0.2133
408.1997	0.1779
408.4051	0.1899
408.6105	0.1942
408.8159	0.1722
409.0213	0.183
409.2267	0.1841
409.432	0.1847
409.6374	0.1953
409.8427	0.1788
410.048	0.1944
410.2533	0.1916
410.4586	0.1882
410.6639	0.1814
410.8691	0.1764
411.0744	0.1996
411.2796	0.1941
411.4848	0.1923
411.69	0.1597
411.8952	0.22
412.1004	0.1741
412.3056	0.1978
412.5107	0.1892
412.7158	0.2064
412.921	0.2006
413.1261	0.1795
413.3312	0.1674
413.5362	0.1895
413.7413	0.1902
413.9464	0.1809
414.1514	0.1819
414.3564	0.1935
414.5614	0.1857
414.7664	0.175
414.9714	0.1946
415.1764	0.1913
415.3813	0.1963
415.5863	0.1896
415.7912	0.2013
415.9961	0.1803
416.201	0.1875
416.4059	0.1842
416.6108	0.1983
416.8156	0.2038
417.0205	0.1831
417.2253	0.1795
417.4301	0.1837
417.6349	0.1824
417.8397	0.1691
418.0445	0.1971
418.2492	0.1933
418.454	0.1706
418.6587	0.1807
418.8634	0.1642
419.0681	0.1718
419.2728	0.1662
419.4775	0.1721
419.6822	0.1641
419.8868	0.1525
420.0915	0.1904
420.2961	0.1594
420.5007	0.1747
420.7053	0.1786
420.9099	0.1792
421.1144	0.1645
421.319	0.1694
421.5235	0.1752
421.728	0.1783
421.9325	0.1791
422.137	0.1906
422.3415	0.1662
422.546	0.1788
422.7504	0.1727
422.9549	0.1635
423.1593	0.1744
423.3637	0.1916
423.5681	0.1525
423.7725	0.1653
423.9769	0.1596
424.1812	0.1527
424.3856	0.1506
424.5899	0.164
424.7942	0.1589
424.9985	0.1573
425.2028	0.1631
425.4071	0.1829
425.6113	0.1472
425.8156	0.16
426.0198	0.1514
426.224	0.1425
426.4282	0.1539
426.6324	0.1463
426.8366	0.1559
427.0407	0.1409
427.2449	0.148
427.449	0.1532
427.6531	0.1355
427.8572	0.1471
428.0613	0.153
428.2654	0.1395
428.4694	0.1397
428.6735	0.1322
428.8775	0.1437
429.0815	0.1399
429.2855	0.1191
429.4895	0.1425
429.6935	0.1422
429.8975	0.132
430.1014	0.1271
430.3053	0.1223
430.5093	0.1363
430.7132	0.1217
430.9171	0.1246
431.1209	0.1286
431.3248	0.1256
431.5286	0.1231
431.7325	0.1161
431.9363	0.1206
432.1401	0.1186
432.3439	0.1172
432.5477	0.0951
432.7514	0.1023
432.9552	0.1166
433.1589	0.0871
433.3627	0.103
433.5664	0.113
433.7701	0.0988
433.9737	0.0955
434.1774	0.094
434.3811	0.1121
434.5847	0.0994
434.7883	0.0997
434.9919	0.1137
435.1955	0.097
435.3991	0.1021
435.6027	0.1028
435.8062	0.0933
436.0098	0.0936
436.2133	0.0874
436.4168	0.0857
436.6203	0.0899
436.8238	0.1126
437.0272	0.0843
437.2307	0.0863
437.4341	0.0914
437.6375	0.0989
437.841	0.0745
438.0443	0.1039
438.2477	0.0833
438.4511	0.0831
438.6545	0.0893
438.8578	0.0746
439.0611	0.0857
439.2644	0.0803
439.4677	0.0612
439.671	0.0692
439.8743	0.0745
440.0775	0.0703
440.2808	0.077
440.484	0.0464
440.6872	0.0475
440.8904	0.0557
441.0936	0.0757
441.2967	0.0564
441.4999	0.0657
441.703	0.0497
441.9062	0.0524
442.1093	0.0597
442.3124	0.0639
442.5155	0.0343
442.7185	0.0547
442.9216	0.0297
443.1246	0.0673
443.3276	0.0498
443.5307	0.0684
443.7337	0.0671
443.9366	0.05
444.1396	0.0529
444.3426	0.0559
444.5455	0.0558
444.7484	0.0383
444.9513	0.0511
445.1542	0.0373
445.3571	0.0418
445.56	0.0515
445.7628	0.0309
445.9657	0.0295
446.1685	0.0526
446.3713	0.0498
446.5741	0.0434
446.7769	0.0209
446.9797	0.0369
447.1824	0.0416
447.3852	0.0182
447.5879	0.0572
447.7906	0.0585
447.9933	0.0374
448.196	0.0377
448.3986	0.0409
448.6013	0.024
448.8039	0.0202
449.0066	0.0223
449.2092	0.037
449.4118	0.0194
449.6143	0.0378
449.8169	0.0359
450.0195	0.0283
450.222	0.008
450.4245	0.0241
450.627	0.025
450.8295	0.0254
451.032	0.0157
451.2345	0.0181
451.4369	0.0334
451.6394	0.0245
451.8418	0.0072
452.0442	0.0115
452.2466	0.0192
452.449	0.0059
452.6513	0.0141
452.8537	0.0082
453.056	0.004
453.2583	0.011
453.4607	0.0208
453.663	0.0063
453.8652	0.0126
454.0675	0.011
454.2697	0.0195
454.472	-0.0054
454.6742	0.0198
454.8764	0.0213
455.0786	0.0077
455.2808	0.0113
455.4829	0.0117
455.6851	0.024
455.8872	0.0198
456.0893	0.0214
456.2915	-0.0007
456.4935	0.0073
456.6956	0.013
456.8977	0.0111
457.0997	0.0121
457.3018	0.0029
457.5038	0.0145
457.7058	0.0076
457.9078	0.0031
458.1098	0.0273
458.3117	0.0179
458.5137	0.0121
458.7156	0.0169
458.9175	-0.0005
459.1194	0.0062
459.3213	0.0015
459.5232	0.0029
459.725	0.005
459.9269	-0.0038
460.1287	-0.006
460.3305	-0.0045
460.5323	-0.0003
460.7341	0.0088
460.9359	0.0041
461.1376	0.0135
461.3394	-0.0048
461.5411	0.0129
461.7428	-0.004
461.9445	0.0181
462.1462	0.0166
462.3479	0.0064
462.5495	0.004
462.7512	-0.0159
462.9528	0.0077
463.1544	-0.0198
463.356	0.0022
463.5576	0.0099
463.7592	0.0005
463.9607	-0.0074
464.1623	0.0115
464.3638	-0.0037
464.5653	-0.0022
464.7668	-0.0032
464.9683	0.0122
465.1697	0.0179
465.3712	-0.0086
465.5726	-0.0029
465.7741	0.0039
465.9755	-0.0116
466.1769	0.001
466.3782	-0.0049
466.5796	-0.007
466.7809	0.0099
466.9823	-0.0011
467.1836	-0.0126
467.3849	-0.0056
467.5862	0.0153
467.7875	-0.0147
467.9887	0.0097
468.19	-0.0066
468.3912	-0.0184
468.5924	-0.0138
468.7936	-0.0106
468.9948	-0.0024
469.196	-0.0127
469.3972	-0.0051
469.5983	-0.0007
469.7994	-0.024
470.0006	-0.0114
470.2017	-0.0126
470.4027	-0.0156
470.6038	-0.0015
470.8049	-0.0174
471.0059	-0.0179
471.2069	-0.032
471.408	0.0039
471.6089	0.0114
471.8099	-0.0054
472.0109	0.005
472.2119	-0.0037
472.4128	-0.0126
472.6137	-0.0076
472.8146	-0.0102
473.0155	-0.0025
473.2164	-0.0147
473.4173	0.0076
473.6181	0.0029
473.819	0.0012
474.0198	-0.0005
474.2206	0.0059
474.4214	-0.0025
474.6222	0.0032
474.8229	-0.0058
475.0237	-0.011
475.2244	-0.0037
475.4251	-0.0061
475.6258	-0.0018
475.8265	-0.0003
476.0272	0.004
476.2278	-0.0073
476.4285	-0.0116
476.6291	-0.0046
476.8297	-0.0088
477.0303	-0.0147
477.2309	-0.0029
477.4315	-0.0066
477.632	-0.0049
477.8326	-0.0153
478.0331	-0.0073
478.2336	0.0029
478.4341	0.0002
478.6346	-0.0094
478.8351	-0.0053
479.0355	-0.0078
479.236	-0.0062
479.4364	0.0102
479.6368	-0.0047
479.8372	-0.0186
480.0376	-0.0139
480.2379	-0.0263
480.4383	-0.0072
480.6386	0.0071
480.8389	-0.0067
481.0392	-0.0118
481.2395	-0.0142
481.4398	0.0004
481.6401	-0.0137
481.8403	-0.0084
482.0405	-0.0033
482.2408	-0.0089
482.441	0.0085
482.6411	-0.0102
482.8413	-0.0006
483.0415	-0.0103
483.2416	-0.0037
483.4417	-0.0085
483.6419	-0.007
483.8419	-0.0147
484.042	0.0118
484.2421	-0.0055
484.4422	-0.0063
484.6422	-0.0134
484.8422	-0.0041
485.0422	-0.0118
485.2422	-0.0117
485.4422	-0.0199
485.6422	-0.0144
485.8421	-0.0159
486.042	-0.0002
486.242	-0.0081
486.4419	-0.0079
486.6417	-0.0069
486.8416	-0.0065
487.0415	-0.0103
487.2413	-0.0096
487.4411	-0.0104
487.641	-0.0146
487.8408	-0.0097
488.0405	-0.0154
488.2403	-0.0183
488.4401	-0.0102
488.6398	-0.0035
488.8395	-0.014
489.0392	-0.0072
489.2389	-0.0025
489.4386	-0.0168
489.6383	-0.011
489.8379	0.0014
490.0376	-0.0044
490.2372	-0.0121
490.4368	-0.0202
490.6364	-0.0104
490.836	-0.0104
491.0355	-0.0089
491.2351	-0.0156
491.4346	-0.0115
491.6341	-0.01
491.8336	-0.005
492.0331	-0.0079
492.2326	-0.0066
492.432	0.0012
492.6315	-0.0125
492.8309	-0.0185
493.0303	-0.0017
493.2297	-0.009
493.4291	-0.009
493.6284	-0.0139
493.8278	-0.0104
494.0271	-0.008
494.2264	0.0068
494.4257	-0.0106
494.625	-0.0079
494.8243	-0.0226
495.0236	-0.0224
495.2228	-0.0188
495.422	-0.0003
495.6213	-0.0152
495.8205	-0.0038
496.0196	-0.0117
496.2188	-0.0038
496.418	-0.0175
496.6171	-0.015
496.8162	-0.0164
497.0153	-0.0059
497.2144	-0.0079
497.4135	-0.0006
497.6126	-0.0195
497.8116	-0.0113
498.0107	-0.0033
498.2097	-0.0103
498.4087	-0.0093
498.6077	-0.0052
498.8067	-0.0104
499.0056	0.0028
499.2046	-0.0078
499.4035	-0.0124
499.6024	-0.0105
499.8013	-0.006
500.0002	-0.0117
500.199	-0.0068
500.3979	-0.0105
500.5967	-0.0163
500.7956	-0.0087
500.9944	-0.0042
501.1932	-0.0105
501.3919	-0.0076
501.5907	-0.019
501.7895	-0.0036
501.9882	-0.0175
502.1869	-0.014
502.3856	-0.0199
502.5843	-0.0204
502.783	-0.0148
502.9816	-0.0133
503.1803	-0.024
503.3789	-0.0242
503.5775	0.0049
503.7761	-0.0182
503.9747	-0.0068
504.1732	-0.0135
504.3718	-0.0115
504.5703	-0.0019
504.7689	-0.0117
504.9674	-0.0062
505.1658	-0.0077
505.3643	-0.0158
505.5628	-0.0102
505.7612	-0.0109
505.9597	0.0002
506.1581	-0.0147
506.3565	-0.0006
506.5549	-0.0164
506.7532	-0.0286
506.9516	-0.0056
507.1499	-0.0015
507.3482	-0.0132
507.5465	-0.0156
507.7448	-0.0066
507.9431	-0.0012
508.1414	-0.006
508.3396	-0.0124
508.5379	-0.0095
508.7361	-0.0107
508.9343	-0.0095
509.1325	0.0041
509.3306	-0.0136
509.5288	-0.0142
509.7269	-0.0108
509.9251	-0.0084
510.1232	-0.0118
510.3213	-0.0054
510.5193	-0.0089
510.7174	-0.019
510.9154	-0.0167
511.1135	-0.0107
511.3115	-0.0107
511.5095	-0.0053
511.7075	-0.0109
511.9055	-0.0126
512.1034	-0.0087
512.3014	-0.0046
512.4993	-0.0028
512.6972	-0.0221
512.8951	-0.0128
513.093	-0.0123
513.2908	0.0019
513.4887	-0.0129
513.6865	-0.0123
513.8844	-0.0078
514.0822	-0.0164
514.2799	-0.0153
514.4777	-0.0105
514.6755	-0.0146
514.8732	-0.0128
515.0709	-0.0064
515.2687	-0.0088
515.4664	-0.0062
515.664	-0.0019
515.8617	-0.0102
516.0594	-0.0179
516.257	-0.0063
516.4546	-0.0209
516.6522	-0.0033
516.8498	-0.0099
517.0474	-0.0037
517.2449	-0.0058
517.4425	-0.0194
517.64	-0.0073
517.8375	-0.0067
518.035	-0.001
518.2325	-0.0191
518.43	-0.0078
518.6274	-0.0149
518.8249	-0.018
519.0223	-0.0053
519.2197	-0.0142
519.4171	-0.0216
519.6145	-0.0191
519.8118	-0.0004
520.0092	-0.0193
520.2065	-0.0082
520.4038	-0.0218
520.6011	-0.0163
520.7984	-0.0187
520.9956	-0.0162
521.1929	-0.0121
521.3901	0.0053
521.5874	0.0006
521.7846	-0.0087
521.9818	-0.0105
522.1789	-0.0163
522.3761	-0.0067
522.5732	-0.0188
522.7704	-0.0045
522.9675	-0.0069
523.1646	-0.0194
523.3617	-0.0093
523.5587	-0.0004
523.7558	0.0036
523.9528	-0.0157
524.1498	-0.01
524.3468	-0.0161
524.5438	-0.0138
524.7408	-0.0066
524.9378	-0.0007
525.1347	-0.0111
525.3316	-0.0127
525.5285	-0.0195
525.7254	-0.0133
525.9223	-0.0039
526.1192	-0.0073
526.316	-0.0112
526.5129	0.0088
526.7097	-0.0011
526.9065	-0.0054
527.1033	-0.0124
527.3	0.0025
527.4968	-0.0072
527.6935	-0.0071
527.8903	-0.0168
528.087	-0.006
528.2837	-0.0103
528.4804	-0.0104
528.677	-0.009
528.8737	-0.0102
529.0703	-0.0034
529.2669	-0.0059
529.4635	-0.0111
529.6601	-0.0081
529.8567	-0.0058
530.0532	-0.0149
530.2498	-0.0034
530.4463	-0.0024
530.6428	-0.007
530.8393	-0.0007
531.0358	-0.0105
531.2322	0.0055
531.4287	-0.011
531.6251	-0.0127
531.8215	-0.004
532.0179	-0.0087
532.2143	0.0005
532.4107	-0.0153
532.607	-0.0043
532.8034	-0.0025
532.9997	-0.0075
533.196	-0.0072
533.3923	-0.0098
533.5886	-0.0014
533.7848	-0.0027
533.9811	-0.0013
534.1773	-0.0028
534.3735	-0.0083
534.5697	-0.0091
534.7659	0.0059
534.9621	0.0018
535.1582	-0.0141
535.3544	-0.0178
535.5505	-0.0052
535.7466	-0.0133
535.9427	-0.0065
536.1387	-0.0084
536.3348	-0.0037
536.5308	0.0032
536.7269	-0.0201
536.9229	0.0037
537.1189	-0.0098
537.3148	-0.0134
537.5108	-0.0213
537.7068	-0.0114
537.9027	-0.0103
538.0986	-0.0048
538.2945	-0.0102
538.4904	-0.0054
538.6863	-0.0041
538.8821	-0.0084
539.078	0.0017
539.2738	-0.0072
539.4696	-0.0044
539.6654	0.003
539.8611	0.0052
540.0569	-0.0021
540.2526	-0.0099
540.4484	-0.001
540.6441	0.002
540.8398	-0.0046
541.0355	0.0016
541.2311	-0.0034
541.4268	-0.0118
541.6224	0.003
541.818	-0.0103
542.0136	-0.0068
542.2092	-0.0068
542.4048	-0.0013
542.6003	0.0036
542.7959	-0.0053
542.9914	-0.0098
543.1869	-0.0118
543.3824	-0.0086
543.5779	-0.0022
543.7734	-0.0122
543.9688	-0.0109
544.1642	-0.0004
544.3596	-0.0006
544.555	-0.0094
544.7504	-0.0068
544.9458	-0.0052
545.1411	-0.0101
545.3365	-0.0048
545.5318	-0.0034
545.7271	0.005
545.9224	-0.005
546.1177	-0.0042
546.3129	0.0074
546.5081	-0.0096
546.7034	-0.0064
546.8986	-0.0037
547.0938	-0.0104
547.289	-0.002
547.4841	-0.0026
547.6793	-0.0003
547.8744	-0.0089
548.0695	-0.0064
548.2646	-0.0033
548.4597	0.0027
548.6548	-0.0017
548.8498	-0.0079
549.0448	0.0017
549.2399	-0.007
549.4349	0.0023
549.6298	-0.007
549.8248	-0.0029
550.0198	-0.0015
550.2147	-0.0154
550.4096	-0.0003
550.6045	-0.0068
550.7994	0.0037
550.9943	0.0039
551.1892	-0.0026
551.384	0.003
551.5788	-0.009
551.7737	-0.0024
551.9685	-0.001
552.1632	-0.007
552.358	-0.0033
552.5528	-0.0077
552.7475	0.001
552.9422	0.0057
553.1369	-0.0037
553.3316	0.0067
553.5263	-0.0021
553.7209	0.0013
553.9156	-0.0144
554.1102	-0.0082
554.3048	-0.0081
554.4994	0.0086
554.694	-0.0121
554.8885	0.0016
555.0831	-0.0112
555.2776	-0.0093
555.4721	-0.0053
555.6666	0.0009
555.8611	0.0147
556.0555	-0.0036
556.25	-0.0012
556.4444	-0.0042
556.6388	-0.0026
556.8332	-0.0116
557.0276	-0.0036
557.222	-0.0133
557.4163	-0.0073
557.6107	-0.0104
557.805	0.0038
557.9993	-0.0069
558.1936	0.002
558.3879	-0.0041
558.5821	-0.0018
558.7764	-0.0151
558.9706	-0.0046
559.1648	0.0006
559.359	-0.0121
559.5532	-0.0165
559.7473	-0.0023
559.9415	-0.0082
560.1356	-0.0066
560.3297	-0.0108
560.5238	-0.002
560.7179	-0.0089
560.9119	-0.0038
561.106	-0.0024
561.3	-0.0046
561.494	0.002
561.688	-0.0082
561.882	-0.01
562.076	-0.0086
562.2699	0.0061
562.4639	-0.0014
562.6578	0.0029
562.8517	-0.0055
563.0456	-0.0052
563.2395	-0.0031
563.4333	-0.0011
563.6272	0.0046
563.821	0.0022
564.0148	-0.0023
564.2086	-0.0096
564.4024	-0.0031
564.5961	-0.001
564.7899	0.0038
564.9836	-0.0029
565.1773	-0.0043
565.371	0.0012
565.5647	0.0083
565.7584	0.0038
565.952	-0.0013
566.1456	-0.0018
566.3393	-0.0048
566.5329	0.001
566.7264	-0.0014
566.92	-0.0093
567.1136	-0.0009
567.3071	-0.01
567.5006	0.001
567.6941	-0.0038
567.8876	-0.0036
568.0811	-0.0008
568.2745	-0.0009
568.468	0.0047
568.6614	-0.0037
568.8548	-0.0061
569.0482	-0.0043
569.2416	0.0017
569.4349	-0.0048
569.6283	-0.0014
569.8216	-0.0041
570.0149	-0.0125
570.2082	0.0026
570.4015	0.0068
570.5947	0.0011
570.788	-0.0033
570.9812	-0.0002
571.1744	-0.0018
571.3676	-0.0053
571.5608	-0.0049
571.754	0.0039
571.9471	-0.0001
572.1402	0.0057
572.3333	-0.0059
572.5264	-0.0065
572.7195	0.0011
572.9126	0.0017
573.1057	-0.0041
573.2987	-0.0067
573.4917	0.0056
573.6847	-0.0076
573.8777	0.0009
574.0707	0.0022
574.2636	-0.0071
574.4566	-0.0073
574.6495	0.0085
574.8424	0.0012
575.0353	-0.0057
575.2281	-0.0003
575.421	-0.0032
575.6138	0.0014
575.8067	-0.0045
575.9995	0.0014
576.1923	-0.0004
576.385	-0.0003
576.5778	-0.0051
576.7706	-0.0034
576.9633	-0.0029
577.156	-0.0001
577.3487	-0.0062
577.5414	0.0011
577.734	-0.0025
577.9267	0.0007
578.1193	-0.0083
578.3119	-0.0067
578.5045	-0.0093
578.6971	-0.0056
578.8897	0.0027
579.0822	0.0004
579.2747	0.0025
579.4673	-0.0053
579.6598	-0.0018
579.8522	-0.0056
580.0447	-0.0082
580.2372	-0.0023
580.4296	-0.0016
580.622	-0.0033
580.8144	-0.0007
581.0068	-0.0024
581.1992	-0.0076
581.3915	-0.0068
581.5839	-0.0076
581.7762	-0.017
581.9685	-0.0099
582.1608	0.0024
582.353	-0.0026
582.5453	0.0021
582.7375	-0.0039
582.9298	-0.0043
583.122	-0.002
583.3142	-0.0083
583.5063	-0.0054
583.6985	-0.0008
583.8906	-0.0058
584.0827	-0.0088
584.2749	0.0049
584.4669	-0.0009
584.659	-0.0045
584.8511	-0.0057
585.0431	-0.0077
585.2352	0.0047
585.4272	-0.0048
585.6192	0.0031
585.8111	-0.0073
586.0031	-0.004
586.195	-0.0072
586.387	0.0001
586.5789	0.0004
586.7708	0.0073
586.9627	0.002
587.1545	-0.0067
587.3464	0.0017
587.5382	0.0021
587.73	-0.0003
587.9218	0.0005
588.1136	-0.002
588.3053	0.0041
588.4971	-0.0009
588.6888	-0.0094
588.8805	0.0018
589.0722	0.0062
589.2639	-0
589.4556	0.0011
589.6472	-0.0069
589.8389	-0.003
590.0305	-0.0077
590.2221	-0.001
590.4137	-0.0062
590.6052	0.0064
590.7968	0.0032
590.9883	-0.0011
591.1798	-0.0054
591.3713	-0.0006
591.5628	-0.0003
591.7543	0.0018
591.9458	-0.0055
592.1372	0.0014
592.3286	0.0067
592.52	0.0035
592.7114	-0.0072
592.9028	-0.0004
593.0941	-0.0019
593.2855	-0.0002
593.4768	-0.0027
593.6681	-0.0086
593.8594	-0.0069
594.0506	-0.0051
594.2419	0.0071
594.4331	-0.0023
594.6244	0.0008
594.8156	-0.0127
595.0067	0.0033
595.1979	0.0069
595.3891	-0.0023
595.5802	-0.0058
595.7713	-0.002
595.9624	-0.0092
596.1535	-0.0021
596.3446	-0.0029
596.5357	0.0007
596.7267	-0.0019
596.9177	-0.0009
597.1087	-0.0062
597.2997	-0.0107
597.4907	-0.0004
597.6817	-0.0052
597.8726	-0.001
598.0635	-0.0013
598.2544	0.0017
598.4453	-0.0038
598.6362	-0.0035
598.827	-0.0012
599.0179	0.0055
599.2087	0.0033
599.3995	0.0055
599.5903	0.0002
599.7811	-0.0005
599.9718	-0.0004
600.1626	-0.0005
600.3533	-0.0126
600.544	-0.0014
600.7347	-0.0034
600.9254	0.0009
601.116	-0.0172
601.3067	-0.0104
601.4973	-0.002
601.6879	0.0002
601.8785	-0.006
602.0691	0.0038
602.2596	0.0015
602.4502	0.0027
602.6407	0.0102
602.8312	0.0006
603.0217	-0.0115
603.2122	-0.0013
603.4027	0.0018
603.5931	0.0018
603.7835	-0.0031
603.9739	-0.0026
604.1643	-0.0005
604.3547	-0.0038
604.5451	0.002
604.7354	0.0007
604.9257	0.0017
605.116	-0.0013
605.3063	0.0015
605.4966	-0.0005
605.6869	0.0048
605.8771	0.0017
606.0673	0.0008
606.2575	0.0088
606.4477	0.0073
606.6379	0.0014
606.8281	-0.006
607.0182	0.0045
607.2083	0.0034
607.3985	-0.0055
607.5885	0.0022
607.7786	0.0031
607.9687	0
608.1587	-0.0062
608.3488	-0.0009
608.5388	-0.0012
608.7288	-0.0054
608.9187	-0.0079
609.1087	-0.0046
609.2986	-0.0003
609.4886	-0.0069
609.6785	-0.002
609.8684	0.0068
610.0582	0.002
610.2481	0.0034
610.4379	-0.0063
610.6278	-0.0005
610.8176	0.0004
611.0074	-0.0019
611.1971	-0.0001
611.3869	-0.0019
611.5766	-0.0072
611.7664	0.0054
611.9561	0.0061
612.1458	0.0011
612.3354	-0.0046
612.5251	-0.0001
612.7147	-0.0006
612.9044	0.0048
613.094	-0.0045
613.2836	0.0059
613.4731	-0.0114
613.6627	-0.0051
613.8522	0.003
614.0417	0.0059
614.2313	-0.0013
614.4207	-0.0034
614.6102	0.0056
614.7997	-0.0072
614.9891	-0.0114
615.1785	-0.0046
615.3679	-0.0066
615.5573	0.0059
615.7467	-0.0014
615.9361	-0.0019
616.1254	-0.0052
616.3147	0.0027
616.504	0.0022
616.6933	-0.0029
616.8826	0.0071
617.0718	-0.001
617.2611	0.0009
617.4503	-0.0023
617.6395	-0.0059
617.8287	-0.0041
618.0179	0.0031
618.207	0.0056
618.3961	0.0014
618.5853	-0.0003
618.7744	0.0052
618.9634	0.0035
619.1525	-0.0006
619.3416	0.0006
619.5306	0.0021
619.7196	-0.0048
619.9086	-0.0005
620.0976	-0.0067
620.2866	-0.0039
620.4755	-0.0013
620.6645	-0.0008
620.8534	0.0046
621.0423	-0.0001
621.2312	0.0069
621.42	0.0069
621.6089	-0.0007
621.7977	0.0055
621.9865	-0.0039
622.1753	-0.0019
622.3641	-0.0011
622.5529	0.0007
622.7416	0.0026
622.9303	0.0031
623.1191	0.0052
623.3078	-0.0008
623.4964	0.0031
623.6851	-0.0048
623.8737	-0.0097
624.0624	-0.0015
624.251	-0.0041
624.4396	0.0012
624.6282	-0.0017
624.8167	0.0014
625.0053	0.005
625.1938	0.0094
625.3823	0.0033
625.5708	0.001
625.7593	-0.0113
625.9477	-0.0077
626.1362	-0.0046
626.3246	-0.0011
626.513	0.003
626.7014	-0.001
626.8898	-0.0068
627.0781	-0.0007
627.2665	-0.0074
627.4548	0.0035
627.6431	0.0023
627.8314	0.0056
628.0197	0.0011
628.2079	-0.0039
628.3962	0.0057
628.5844	0.0001
628.7726	0.0006
628.9608	0.0077
629.1489	-0.0045
629.3371	0.0013
629.5252	-0.0031
629.7134	0.0021
629.9015	-0.0042
630.0895	0.0073
630.2776	0.0081
630.4657	0.002
630.6537	0.0018
630.8417	-0.0015
631.0297	-0.0083
631.2177	-0.0039
631.4057	-0.0088
631.5936	0.001
631.7815	0.0026
631.9695	0
632.1574	0.0042
632.3452	0.012
632.5331	0.0063
632.7209	0.0007
632.9088	0.0131
633.0966	0.0016
633.2844	0.0007
633.4722	0.0007
633.6599	0.0065
633.8477	-0.0025
634.0354	-0.0034
634.2231	-0.0006
634.4108	-0.0013
634.5985	0.0076
634.7861	-0.0013
634.9738	-0.0009
635.1614	0.0028
635.349	0.0021
635.5366	-0.0023
635.7242	0.0059
635.9117	0.0068
636.0993	0.0038
636.2868	0.0067
636.4743	0.0062
636.6618	0.0126
636.8492	-0.0063
637.0367	-0.003
637.2241	0.001
637.4115	-0.0046
637.5989	-0.005
637.7863	0.0054
637.9737	0.0005
638.161	0.0001
638.3484	0.0036
638.5357	0.0052
638.723	-0.0061
638.9103	0.0044
639.0975	0.0049
639.2848	0.0075
639.472	0.0003
639.6592	0.0086
639.8464	0.0051
640.0336	0.0071
640.2208	0.0011
640.4079	0.005
640.595	0.0019
640.7821	-0.0033
640.9692	0.0057
641.1563	0.0042
641.3434	0.0042
641.5304	0.0033
641.7174	0.0082
641.9044	0.0072
642.0914	0.0123
642.2784	0.0122
642.4653	0.0113
642.6523	0.0039
642.8392	0.0021
643.0261	0.0001
643.213	0.0031
643.3999	-0.0002
643.5867	0.0032
643.7735	0.0019
643.9604	-0.0065
644.1472	0.0014
644.3339	0.0069
644.5207	0.0061
644.7075	-0.0004
644.8942	0.006
645.0809	0.0075
645.2676	0.0072
645.4543	0.0044
645.6409	0.0109
645.8276	0.0041
646.0142	0.0089
646.2008	-0.01
646.3874	-0.0045
646.574	0.0054
646.7605	0.0007
646.9471	-0.0153
647.1336	-0.0007
647.3201	0.0013
647.5066	0.0002
647.6931	0.0063
647.8795	-0.0003
648.0659	0.0018
648.2524	0.0054
648.4388	-0.0037
648.6252	0.0018
648.8115	0.003
648.9979	-0.0005
649.1842	0.0036
649.3705	0.0073
649.5568	0.0022
649.7431	0.0045
649.9294	-0.0008
650.1156	-0.0025
650.3018	-0.0037
650.488	0.0073
650.6742	0.0042
650.8604	0.0015
651.0466	-0.0063
651.2327	0.0003
651.4188	0.0018
651.6049	0.0014
651.791	-0.003
651.9771	0.0072
652.1632	-0
652.3492	0.0041
652.5352	-0.0052
652.7212	-0.0078
652.9072	0.0078
653.0932	-0.0024
653.2791	-0.0083
653.465	0.0007
653.651	-0.0034
653.8369	-0.0013
654.0227	0.0103
654.2086	0.0041
654.3944	0.0087
654.5803	0.0033
654.7661	-0.0076
654.9519	0.0024
655.1377	-0.0005
655.3234	-0.0023
655.5092	-0.0076
655.6949	-0.0032
655.8806	-0.0062
656.0663	-0.0009
656.2519	-0.0029
656.4376	-0.0037
656.6232	0.006
656.8088	0.0031
656.9945	0.0039
657.18	0.0027
657.3656	0.0067
657.5511	0.003
657.7367	-0.0021
657.9222	0.0027
658.1077	-0.0008
658.2932	0.0049
658.4786	-0.0032
658.6641	-0.0031
658.8495	-0.005
659.0349	0.0017
659.2203	0.0047
659.4057	0.0063
659.591	-0.0018
659.7764	-0.0024
659.9617	0.0088
660.147	0.0063
660.3323	0.0056
660.5176	0.0087
660.7028	0.0108
660.888	0.0009
661.0733	0.0014
661.2585	-0.006
661.4436	-0.0014
661.6288	0.0024
661.8139	-0.001
661.9991	0.0041
662.1842	0.0012
662.3693	-0.0005
662.5544	0.0002
662.7394	0.0054
662.9245	0.0013
663.1095	-0.0006
663.2945	-0.0012
663.4795	-0.0028
663.6644	0.0078
663.8494	-0.0003
664.0343	0.0074
664.2193	-0.0007
664.4042	0.0007
664.589	-0.0131
664.7739	-0.0039
664.9587	-0.0097
665.1436	0.0003
665.3284	-0.004
665.5132	-0.0096
665.698	0.0021
665.8827	-0.001
666.0675	-0.0054
666.2522	-0.004
666.4369	-0.0039
666.6216	0.0088
666.8063	0.0057
666.9909	0.0051
667.1756	-0.0033
667.3602	-0.0002
667.5448	-0.0059
667.7294	0.0068
667.9139	0.0055
668.0985	0.0114
668.283	-0.0021
668.4675	-0.002
668.652	-0.0065
668.8365	-0.0036
669.0209	0.0048
669.2054	0.0095
669.3898	-0.0027
669.5742	0.0036
669.7586	0.0043
669.943	0.0096
670.1273	0.0008
670.3117	0.005
670.496	-0.0028
670.6803	0.0113
670.8646	0.0016
671.0488	0.0012
671.2331	0.0076
671.4173	0.0055
671.6015	-0.0006
671.7857	0.0039
671.9699	0.002
672.1541	0.0043
672.3382	0.0088
672.5223	0.0051
672.7064	0.0006
672.8905	0.0036
673.0746	0.0029
673.2587	-0.0022
673.4427	0.0017
673.6267	0.0099
673.8107	0.005
673.9947	-0.0016
674.1787	0.0032
674.3626	-0.0016
674.5465	-0.0006
674.7304	0.0055
674.9143	0.0077
675.0982	0.0066
675.2821	-0.0025
675.4659	0.0049
675.6497	0.002
675.8335	0.0007
676.0173	-0.0013
676.2011	0.0007
676.3849	0.0055
676.5686	-0.0086
676.7523	0.002
676.936	-0.0039
677.1197	-0.0015
677.3034	-0.0049
677.487	0.0005
677.6706	0.0026
677.8542	-0.0001
678.0378	0.0046
678.2214	-0.0023
678.405	0.0032
678.5885	-0.0109
678.772	0.0014
678.9555	0
679.139	0.0035
679.3225	0.0095
679.5059	-0.0028
679.6894	0.0001
679.8728	-0.0004
680.0562	-0.0033
680.2395	-0.0054
680.4229	-0.0025
680.6062	0.007
680.7896	-0.0014
680.9729	-0.0037
681.1562	0.0014
681.3394	0.0026
681.5227	-0.0042
681.7059	-0.0059
681.8891	0.002
682.0723	0.0068
682.2555	0.0091
682.4387	-0.0054
682.6218	-0.0003
682.805	-0.0005
682.9881	0.0026
683.1712	0.0051
683.3542	-0.0006
683.5373	0.0018
683.7203	-0.0055
683.9034	-0.0022
684.0864	-0.0065
684.2694	-0.0044
684.4523	-0.0052
684.6353	-0.0017
684.8182	-0.0068
685.0011	-0.0089
685.184	-0.0046
685.3669	-0.0061
685.5498	-0.0022
685.7326	0.0027
685.9154	-0.0059
686.0982	0.0091
686.281	0.0034
686.4638	0.003
686.6465	0.0052
686.8293	-0.0066
687.012	0.0032
687.1947	-0.0078
687.3774	-0.0013
687.56	-0.0042
687.7427	-0.0017
687.9253	-0.0117
688.1079	-0.0042
688.2905	0.0052
688.4731	-0.008
688.6556	-0.0055
688.8382	-0.0046
689.0207	-0.0034
689.2032	-0.0161
689.3857	-0.0091
689.5681	-0.0006
689.7506	-0.0121
689.933	-0.01
690.1154	-0.0077
690.2978	-0.0084
690.4802	0.0037
690.6626	-0.02
690.8449	-0.0153
691.0272	0.0029
691.2095	-0.01
691.3918	-0.007
691.5741	-0.0017
691.7563	-0.0076
691.9386	-0.0024
692.1208	-0.0099
692.303	-0.005
692.4852	0.0031
692.6673	-0.003
692.8495	-0.0007
693.0316	-0.0043
693.2137	-0.0068
693.3958	0.0017
693.5778	0.0017
693.7599	-0.003
693.9419	0.0064
694.1239	-0.0021
694.3059	-0.0092
694.4879	0.0044
694.6699	0.008
694.8518	0.0038
695.0337	-0.0031
695.2157	0.0085
695.3975	0.0026
695.5794	0.0007
695.7613	0.0022
695.9431	-0.0035
696.1249	0.0004
696.3067	0.0041
696.4885	0.0041
696.6703	-0.0077
696.852	-0.0029
697.0337	0.0051
697.2154	0.0036
697.3971	0.0061
697.5788	0.0071
697.7605	0.0012
697.9421	-0.004
698.1237	0.0028
698.3053	0.0047
698.4869	-0.0053
698.6685	-0.0077
698.85	-0.0029
699.0315	0.005
699.213	-0.0039
699.3945	0.0093
699.576	0.0017
699.7575	0.0014
699.9389	0.007
700.1203	-0.0073
700.3017	-0.0077
700.4831	-0.0067
700.6645	-0.0042
700.8458	-0.0061
701.0271	-0.0048
701.2084	0.0012
701.3897	-0.0013
701.571	0.0087
701.7523	-0.0054
701.9335	0.0048
702.1147	0.0008
702.2959	0.0036
702.4771	0.0007
702.6583	-0.0024
702.8394	0.0003
703.0205	0.0018
703.2016	-0.0039
703.3827	-0.0028
703.5638	0.0065
703.7449	0.0107
703.9259	0.0087
704.1069	-0.0062
704.2879	0.0027
704.4689	0.0033
704.6499	0.003
704.8308	0.0018
705.0117	0.0026
705.1927	-0.0011
705.3735	0.0017
705.5544	-0.0044
705.7353	-0.0024
705.9161	-0.0021
706.0969	-0.007
706.2777	-0.0059
706.4585	-0.0048
706.6393	0.0013
706.82	-0.006
707.0007	0.0036
707.1815	0.0021
707.3621	0.0081
707.5428	0.0038
707.7235	0.0028
707.9041	0.0026
708.0847	-0.0122
708.2653	-0.0076
708.4459	-0.0125
708.6265	-0.0044
708.807	-0.0064
708.9875	-0.0009
709.168	-0.0036
709.3485	-0.009
709.529	-0.0037
709.7095	-0.0071
709.8899	-0.0062
710.0703	-0.0051
710.2507	0.007
710.4311	-0.0047
710.6115	-0.0082
710.7918	-0.0128
710.9721	0.0038
711.1524	-0.002
711.3327	0.0002
711.513	0.0005
711.6932	0.005
711.8735	0.0125
712.0537	0.0102
712.2339	-0.0005
712.4141	-0.0095
712.5942	-0.0063
712.7744	-0.0077
712.9545	-0.0074
713.1346	-0.01
713.3147	-0.0038
713.4947	-0.0067
713.6748	-0.0049
713.8548	-0.0017
714.0348	-0.0046
714.2148	-0.0023
714.3948	0.0105
714.5748	-0.0083
714.7547	-0.0129
714.9346	0.0023
715.1145	-0.0027
715.2944	0.0008
715.4743	0.0023
715.6541	-0.0081
715.834	0.0062
716.0138	-0.0035
716.1936	-0.0112
716.3733	-0.0084
716.5531	-0.0005
716.7328	0.0014
716.9126	-0.0017
717.0923	0.0126
717.2719	0.0007
717.4516	0.0119
717.6312	0.0072
717.8109	-0.0105
717.9905	0.0011
718.1701	-0.0099
718.3496	-0.014
718.5292	0.0031
718.7087	-0.0019
718.8882	-0.004
719.0677	0.0017
719.2472	-0.0055
719.4267	-0.0011
719.6061	0.0062
719.7856	0.006
719.965	0.0017
720.1443	-0.0045
720.3237	0.0142
720.5031	0.009
720.6824	0.0063
720.8617	-0.0039
721.041	0.0072
721.2203	0.0059
721.3995	0.0066
721.5788	-0.0011
721.758	-0.0047
721.9372	-0.0023
722.1164	-0.0038
722.2956	0.0017
722.4747	0.0007
722.6538	-0.001
722.8329	0.0081
723.012	0.0073
723.1911	-0.0003
723.3702	0.0006
723.5492	0.0047
723.7282	-0.0037
723.9072	-0.0015
724.0862	0.0002
724.2652	-0.0083
724.4441	-0.0078
724.623	0.0026
724.8019	-0.0037
724.9808	-0.0052
725.1597	-0.0088
725.3385	-0.0016
725.5174	-0.0031
725.6962	-0.0028
725.875	0.004
726.0538	0.0109
726.2325	-0.006
726.4112	0.0028
726.59	0.0004
726.7687	-0.0056
726.9474	0.0026
727.126	-0.0002
727.3047	-0.0065
727.4833	0.0055
727.6619	-0.005
727.8405	-0.0043
728.0191	-0.0027
728.1976	0.0019
728.3762	-0.0018
728.5547	0.0016
728.7332	-0.015
728.9116	0.0023
729.0901	0.0041
729.2686	-0.0098
729.447	-0.0017
729.6254	-0.0041
729.8038	0.0009
729.9821	-0.0109
730.1605	-0.0024
730.3388	-0.0026
730.5171	0.0016
730.6954	-0.0019
730.8737	0.0033
731.0519	0.0078
731.2302	-0.0071
731.4084	0.0059
731.5866	-0.0005
731.7648	-0.0078
731.9429	-0.0083
732.1211	-0.013
732.2992	-0.0025
732.4773	-0.0082
732.6554	-0.0007
732.8335	-0.0007
733.0115	0.0082
733.1896	0.0055
733.3676	-0.0185
733.5456	0.0071
733.7235	0.0012
733.9015	-0.0092
734.0794	0.0017
734.2574	-0.0084
734.4353	0.0008
734.6131	0.0079
734.791	0.0047
734.9689	-0.0015
735.1467	-0.0011
735.3245	-0.0099
735.5023	-0.0078
735.68	-0.0032
735.8578	-0.0039
736.0355	-0.0155
736.2132	-0.0104
736.3909	-0.0017
736.5686	-0.0157
736.7463	-0.0011
736.9239	-0.0067
737.1015	-0.0023
737.2791	0.0086
737.4567	0.0025
737.6343	-0.0014
737.8118	0.0027
737.9894	0.0016
738.1669	-0.0085
738.3444	0.0017
738.5218	-0.0038
738.6993	0.0001
738.8767	-0.0006
739.0541	0.0062
739.2315	-0.0059
739.4089	-0.0009
739.5863	0.0061
739.7636	-0.0015
739.9409	0.0047
740.1182	-0.0008
740.2955	0.0055
740.4728	-0.0052
740.65	-0.0079
740.8272	-0.004
741.0044	-0.0117
741.1816	0.0095
741.3588	0.0008
741.5359	-0.0002
741.7131	-0.0062
741.8902	-0.0066
742.0673	-0.0056
742.2444	-0.011
742.4214	-0.0112
742.5985	-0.0099
742.7755	-0.0055
742.9525	-0.0212
743.1295	-0.0052
743.3064	-0.0055
743.4834	-0.0053
743.6603	-0.0109
743.8372	-0.0037
744.0141	-0.0065
744.191	-0.0047
744.3678	-0.0035
744.5446	-0.0025
744.7215	0.0107
744.8982	-0.0033
745.075	-0.0129
745.2518	0.002
745.4285	0.0007
745.6052	-0.0125
745.7819	-0.0113
745.9586	-0.0142
746.1353	-0.0098
746.3119	-0.0057
746.4885	-0.0009
746.6651	-0.0078
746.8417	-0.0053
747.0183	0.0061
747.1948	-0.0016
747.3714	0.0024
747.5479	-0.0002
747.7244	-0.0068
747.9008	0.0064
748.0773	0.0003
748.2537	-0.0062
748.4301	-0.0033
748.6065	0.0044
748.7829	0.0034
748.9593	-0.0031
749.1356	-0.008
749.3119	0.0084
749.4882	-0.0087
749.6645	0.0063
749.8408	-0.0055
750.017	-0.0161
750.1933	0.0004
750.3695	-0.0065
750.5457	0.0038
750.7218	-0.0028
750.898	-0.0012
751.0741	-0.003
751.2502	0.0055
751.4263	-0.0062
751.6024	-0.0056
751.7784	-0.0021
751.9545	-0.0121
752.1305	-0.0031
752.3065	-0.006
752.4825	0.0024
752.6584	-0.0086
752.8344	-0.0061
753.0103	-0.0052
753.1862	-0.0033
753.3621	-0.0043
753.5379	0.0016
753.7138	-0.0044
753.8896	0.0004
754.0654	0.0011
754.2412	0.0134
754.417	0.0067
754.5927	-0.0116
754.7685	-0.0057
754.9442	-0.0012
755.1199	0.0092
755.2956	0.004
755.4712	0.0101
755.6469	0.013
755.8225	0.0026
755.9981	-0.0074
756.1736	0.0083
756.3492	0.0023
756.5248	0.0052
756.7003	0.0048
756.8758	0.0118
757.0513	-0.0102
757.2267	-0.0097
757.4022	-0.005
757.5776	-0.003
757.753	-0.0049
757.9284	0.006
758.1038	0.007
758.2791	-0.0012
758.4545	-0.021
758.6298	0.0056
758.8051	-0.0094
758.9803	-0.0094
759.1556	-0.0012
759.3308	-0.008
759.506	0.0007
759.6812	-0.0031
759.8564	-0.0001
760.0316	-0.0004
760.2067	0.0092
760.3819	0.0075
760.557	0.0165
760.732	0.0024
760.9071	-0.0075
761.0821	0.0047
761.2572	0.0141
761.4322	0.0002
761.6072	-0.0045
761.7821	0.0034
761.9571	0.0125
762.132	0.0027
762.3069	-0.0081
762.4818	0.0047
762.6567	-0.001
762.8316	-0.0005
763.0064	-0.0052
763.1812	-0.0059
763.356	-0.006
763.5308	-0.0035
763.7055	-0.0022
763.8803	-0.0007
764.055	-0.0022
764.2297	-0.0115
764.4044	-0.0027
764.579	-0.007
764.7537	-0.0127
764.9283	0.0014
765.1029	0.0006
765.2775	0.0019
765.4521	-0.0077
765.6266	-0.0032
765.8011	0.0021
765.9756	0.0072
766.1501	0.0091
766.3246	-0.004
766.4991	-0.0113
766.6735	0.0054
766.8479	-0.015
767.0223	0.0109
767.1967	-0.0077
767.371	-0.0013
767.5454	-0.0088
767.7197	0.0026
767.894	-0.0098
768.0683	-0.0145
768.2425	-0.0083
768.4168	0.0087
768.591	-0.0066
768.7652	0.0021
768.9394	0.0061
769.1135	0.0023
769.2877	0.0011
769.4618	-0.0016
769.6359	0.0103
769.81	-0.0009
769.984	0.002
770.1581	-0.0089
770.3321	0.0091
770.5061	-0.0007
770.6801	0.0047
770.8541	0.0019
771.028	0.0007
771.202	-0.0042
771.3759	0.0056
771.5498	-0.0017
771.7236	0.0039
771.8975	0.0076
772.0713	0.0073
772.2451	0.0115
772.4189	0.0081
772.5927	0.0044
772.7665	0.0037
772.9402	-0.0018
773.1139	0.0059
773.2876	-0.0037
773.4613	0.013
773.635	0.021
773.8086	-0.0014
773.9822	0.0088
774.1558	0.0094
774.3294	-0.0161
774.503	-0.0048
774.6765	0.0022
774.8501	0.0093
775.0236	0.0141
775.1971	0.0072
775.3705	-0.0045
775.544	0.0092
775.7174	0.0045
775.8908	-0.0016
776.0642	-0.0059
776.2376	-0.0018
776.4109	-0.0138
776.5843	-0.0109
776.7576	0.0011
776.9309	0.0087
777.1041	0.0087
777.2774	0.0072
777.4506	-0.0025
777.6238	-0.0087
777.797	-0.0027
777.9702	0.0032
778.1434	0.01
778.3165	-0.0086
778.4896	0.0053
778.6627	0.0097
778.8358	-0
779.0089	-0.0037
779.1819	-0.0063
779.3549	0.0158
779.5279	0.0256
779.7009	-0.0016
779.8739	0.0066
780.0468	0.0035
780.2197	0.0068
780.3926	-0.0044
780.5655	0.0053
780.7384	-0.0055
780.9112	-0.0041
781.0841	-0.0006
781.2569	-0.0044
781.4297	0.0113
781.6024	0.0019
781.7752	-0.0048
781.9479	-0.0071
782.1206	-0.001
782.2933	-0.0082
782.466	-0.0039
782.6386	0.0133
782.8113	0.0069
782.9839	0.0047
783.1565	0.0123
783.329	0.0035
783.5016	0.0088
783.6741	-0.0009
783.8466	-0.0018
784.0191	0.0165
784.1916	-0.0059
784.3641	-0.0071
784.5365	0.0027
784.7089	-0
784.8813	0.0017
785.0537	0.0015
785.2261	-0.0099
785.3984	-0.0202
785.5707	-0.0012
785.743	0.0105
785.9153	0.0025
786.0876	0.0075
786.2598	-0.0087
786.432	-0.0083
786.6042	0.0025
786.7764	0.0003
786.9486	0.0226
787.1207	-0.0131
787.2928	-0.0044
787.4649	0.0107
787.637	0.0053
787.8091	0.0024
787.9811	0.0036
788.1532	-0.0062
788.3252	0.0026
788.4972	0.01
788.6691	0.0045
788.8411	0.0072
789.013	-0.0058
789.1849	0.011
789.3568	-0.0106
789.5287	-0.0056
789.7005	0.0016
789.8723	0.009
790.0442	0.0146
790.2159	-0.005
790.3877	-0.0029
790.5595	-0.0164
790.7312	0.0032
790.9029	0.0087
791.0746	-0.0191
791.2463	-0.0215
791.4179	0.003
791.5896	-0.0275
791.7612	-0.0079
791.9328	0.0125
792.1044	-0.0112
792.2759	-0.012
792.4474	-0.0129
792.619	-0.0094
792.7905	-0.0002
792.9619	-0.0113
793.1334	0.0058
793.3048	0.0057
793.4762	-0.0026
793.6476	0.0078
793.819	-0.0139
793.9904	-0.0006
794.1617	-0.0107
794.333	-0.0158
794.5043	-0.0188
794.6756	-0.0095
794.8469	-0.0171
795.0181	-0.0108
795.1893	-0.0004
795.3605	0.0126
795.5317	-0.0164
795.7029	-0.0065
795.874	-0.0038
796.0452	0.0007
796.2163	-0.0035
796.3873	0.0177
796.5584	0.0007
796.7294	0.0064
796.9005	0.0054
797.0715	0.0136
797.2425	-0.0124
797.4134	-0.012
797.5844	-0.0042
797.7553	-0.0077
797.9262	-0.0057
798.0971	-0.009
798.2679	0.0064
798.4388	-0.0096
798.6096	-0.0029
798.7804	0.0058
798.9512	-0.0024
799.122	0.0088
799.2927	-0.0027
799.4635	0.0092
799.6342	-0.0233
799.8049	-0.0147
799.9755	-0.0032
800.1462	-0.0039
800.3168	0.0097
800.4874	0.0035
800.658	0.0154
800.8286	0.0049
800.9991	0.0224
801.1696	0.011
801.3402	0.0188
801.5106	0.0086
801.6811	0.0088
801.8516	0.0073
802.022	-0.0063
802.1924	0.0118
802.3628	0.0132
802.5332	0.0118
802.7035	0.0185
802.8739	-0.0032
803.0442	-0.013
803.2145	0.0064
803.3847	-0.0182
803.555	0.0015
803.7252	-0.0339
803.8954	0.0055
804.0656	-0.0121
804.2358	-0.0146
804.4059	0.0235
804.5761	0.0155
804.7462	-0.0037
804.9163	-0.0016
805.0864	-0.014
805.2564	-0.0056
805.4264	-0.0005
805.5965	-0.0231
805.7665	-0.0121
805.9364	-0.0104
806.1064	0.0157
806.2763	0.0038
806.4462	0.0229
806.6161	0.0032
806.786	0.0164
806.9559	-0.0032
807.1257	-0.006
807.2955	0.0022
807.4653	-0.0102
807.6351	0.0028
807.8048	-0.0014
807.9746	0.0042
808.1443	0.0154
808.314	0.0058
808.4837	0.0021
808.6533	0.0052
808.8229	0.0284
808.9926	-0.0045
809.1622	0.0074
809.3317	-0.0158
809.5013	-0.006
809.6708	-0.0013
809.8403	0.0176
810.0098	-0.0083
810.1793	0.0048
810.3488	0.0058
810.5182	-0.015
810.6876	-0.0026
810.857	-0.0103
811.0264	0.0074
811.1958	0.0101
811.3651	0.0095
811.5344	0.0123
811.7037	-0.0132
811.873	-0.0118
812.0422	-0.0053
812.2115	-0.0172
812.3807	-0.0206
812.5499	0.0114
812.7191	0.0002
812.8882	-0.017
813.0574	-0.0031
813.2265	-0.0022
813.3956	-0.0107
813.5646	0.0036
813.7337	-0.0174
813.9027	0.0071
814.0718	0.0301
814.2407	-0.0177
814.4097	-0.014
814.5787	-0.0133
814.7476	-0.029
814.9165	-0.0086
815.0854	-0.0205
815.2543	0.004
815.4232	-0.0102
815.592	0.0134
815.7608	-0.0082
815.9296	0.0143
816.0984	-0
816.2671	-0.0083
816.4359	0.0066
816.6046	0.0009
816.7733	0.0064
816.942	0.0066
817.1106	0.0081
817.2793	0.0025
817.4479	-0.0004
817.6165	0.0024
817.785	-0.0276
817.9536	-0.0329
818.1221	0.0094
818.2906	-0.013
818.4591	-0.001
818.6276	-0.0205
818.7961	-0.0004
818.9645	0.01
819.1329	0.0131
819.3013	0.0176
819.4697	0.0103
819.638	0.0082
819.8064	0.0013
819.9747	0.0006
820.143	-0.0072
820.3113	-0.032
820.4795	0.0045
820.6477	-0.0099
820.816	0.0127
820.9842	-0.0068
821.1523	-0.0058
821.3205	-0.0102
821.4886	-0.0086
821.6567	-0.0367
821.8248	0.0129
821.9929	0.0385
822.1609	-0.0064
822.329	0.0238
822.497	0.026
822.665	0.0067
822.833	-0.026
823.0009	0.0175
823.1688	0.0215
823.3367	0.0167
823.5046	-0.008
823.6725	0.0149
823.8404	0.0184
824.0082	0.0195
824.176	0.0027
824.3438	0.0092
824.5116	-0.0225
824.6793	0.0244
824.847	-0.0111
825.0147	0.0081
825.1824	0.012
825.3501	0.014
825.5177	-0.0183
825.6854	0.0153
825.853	0.0178
826.0206	-0.0183
826.1881	0.0135
826.3557	-0.0094
826.5232	-0.0027
826.6907	-0.0636
826.8582	0.0049
827.0257	-0.0146
827.1931	-0.0005
827.3605	0.0099
827.528	0.0013
827.6953	-0.0081
827.8627	-0.0259
828.03	0.0079
828.1974	0.0009
828.3647	-0.0148
828.532	-0.0477
828.6992	0.0039
828.8665	-0.0015
829.0337	0.0091
829.2009	0.0423
829.3681	-0.0031
829.5352	0.0137
829.7024	-0.0312
829.8695	-0.0144
830.0366	0.0565
830.2037	-0.0161
830.3707	0.0094
830.5378	0.0026
830.7048	-0.0108
830.8718	-0.0114
831.0388	-0.0411
831.2057	-0.0006
831.3727	0.0284
831.5396	-0.0195
831.7065	-0.0192
831.8734	0.0255
832.0402	-0.0187
832.2071	0.0073
832.3739	-0.0143
832.5407	0.0047
832.7075	0.0243
832.8742	-0.0222
833.041	-0.0509
833.2077	0.0017
833.3744	0.0161
833.541	-0.0382
833.7077	-0.0166
833.8743	0.0012
834.0409	0.0042
834.2075	-0.0217
834.3741	0.0011
834.5407	0.005
834.7072	-0.0026
834.8737	-0.0047
835.0402	-0.0028
835.2067	0.0295
835.3731	0.0265
835.5395	-0.0108
835.706	0.0217
835.8723	-0.0108
836.0387	0.0108
836.2051	0.0422
836.3714	0.0117
836.5377	0.0117
836.704	-0.0023
836.8703	0.0148
837.0365	-0.0102
837.2027	-0.0024
837.3689	-0.0092
837.5351	-0.0039
837.7013	-0.0225
837.8674	-0.0122
838.0335	0.005
838.1997	-0.0106
838.3657	0.0043
838.5318	-0.0052
838.6978	0.0667
838.8639	0.0274
839.0299	-0.007
839.1958	-0.0056
839.3618	0.0042
839.5277	-0.0331
839.6937	0.009
839.8596	-0.0291
840.0254	0.0397
840.1913	0.0107
840.3571	0.0168
840.523	-0.0364
840.6888	-0.003
840.8545	-0.0335
841.0203	0.0223
841.186	0.0459
841.3517	-0.0142
841.5174	-0.0036
841.6831	0.0103
841.8488	0.0258
842.0144	0.0512
842.18	-0.0167
842.3456	0.0084
842.5112	-0.019
842.6767	0.0314
842.8422	-0.0055
843.0077	-0.0533
843.1732	-0.0071
843.3387	-0.0024
843.5042	-0.0508
843.6696	-0.005
843.835	0.0405
844.0004	0.0384
844.1657	0.031
844.3311	-0.0254
844.4964	-0.1077
844.6617	0.0077
844.827	0.0092
844.9923	-0.0332
845.1575	-0.0108
845.3227	0.0021
845.4879	0.0398
845.6531	-0.0751
845.8183	-0.0751
845.9834	-0.0113
846.1485	-0.0255
846.3136	-0.0482
846.4787	-0.077
846.6438	0.0695
846.8088	-0.0656
846.9738	-0.0832
847.1388	-0.0393
847.3038	0.0058
847.4687	-0.1857
847.6337	-0.013
847.7986	-0.0159
847.9635	-0.0204
848.1284	0.0504
848.2932	-0.0286
848.458	-0.0104
848.6228	0.045
848.7876	0.0472
848.9524	-0.0205
849.1172	-0.0741
849.2819	0.0168
849.4466	-0.0853
849.6113	-0.1191
849.7759	-0.0886
849.9406	-0.0458
850.1052	0.0797
850.2698	0.0562
850.4344	-0.0967
850.599	-0.0284
850.7635	0.131
850.928	-0.0749
851.0925	-0.006
851.257	0.0543
851.4215	-0.0432
851.5859	-0.0653
851.7503	-0.0342
851.9147	0.0576
852.0791	-0.1203
852.2434	0.0606
852.4078	0.1506
852.5721	0.0332
852.7364	-0.0299
852.9007	-0.2144
853.0649	0.0076
853.2291	-0.0127
853.3934	0.0357
853.5575	-0.0104
853.7217	0.0051
853.8859	-0.1976
854.05	-0.0286
854.2141	-0.0586
854.3782	-0.0851
854.5423	-0.0632
854.7063	0.048
854.8703	0.04
855.0343	-0.1504
855.1983	-0.0813
855.3623	0.2851
855.5262	-0.014
855.6901	-0.0803
855.854	-0.0065
856.0179	0.0318
856.1818	0.0359
856.3456	-0.0363
856.5094	-0.1319
856.6732	-0.0428
856.837	-0.0802
857.0008	0.0081
857.1645	-0.0929
857.3282	0.0392
857.4919	0.1074
857.6556	-0.1181
857.8192	0.0706
857.9828	0.1794
858.1465	0.1988
858.31	0.0316
858.4736	0.0239
858.6372	-0.316
858.8007	-0.1627
858.9642	0.1908
859.1277	-0.0759
859.2911	0.0428
859.4546	0.0509
859.618	-0.3055
859.7814	0.0804
859.9448	0.0261
860.1081	-0.0911
860.2715	0.1166
860.4348	-0.0451
860.5981	-0.0192
860.7614	0.3026
860.9246	-0.1038
861.0879	-0.0977
861.2511	0.1483
861.4143	0.1049
861.5774	0.1697
861.7406	-0.2192
861.9037	0.0323
862.0668	-0.0687
862.2299	0.1737
862.393	-0.5713
862.556	-0.0611
862.7191	-0.3238
862.8821	-0.3371
863.0451	0.2929
863.208	-0.0517
863.371	-0.0225
863.5339	0.0096
863.6968	0.0981
863.8597	0.046
864.0225	-0.0069
864.1854	-0.0443
864.3482	-0.1925
864.511	0.0357
864.6737	0.1275
864.8365	0.0543
864.9992	-0.3135
865.1619	-0.2472
865.3246	0.0428
865.4873	0.2183
865.65	-0.145
865.8126	-0.1686
865.9752	0.7791
866.1378	0.0487
866.3004	-0.3775
866.4629	0.3441
866.6254	-0.2732
866.7879	0.4692
866.9504	-0.2472
867.1129	-0
867.2753	0.1773
867.4377	0.1223
867.6001	-0.443
867.7625	0.0666
867.9249	-0.2443
868.0872	0.044
868.2495	0.0778
868.4118	0.013
868.5741	-0.7233
868.7363	0.0969
868.8986	-0.3243
869.0608	-0.1215
869.223	0.7015
869.3851	-0.1056
869.5473	-0
869.7094	0.0584
869.8715	-0.1005
870.0336	0.0263
870.1957	-0.301
870.3577	-0
870.5197	0.3142
870.6817	-0.078
870.8437	0.0633
871.0057	-0
871.1676	-0
871.3295	-0.4758
871.4914	-0
871.6533	-0.274
871.8151	-0.4077
871.977	-0
872.1388	-0
872.3006	-0.2069
872.4623	-0
872.6241	0.0431
872.7858	0.4932
872.9475	0.1717
873.1092	0.1855
873.2709	-0
873.4325	-0.1809
873.5941	0.3209
873.7557	-0
873.9173	-0
874.0789	-0.5003
874.2404	-0
874.4019	-0.1384
874.5634	-0.0021
874.7249	-0.1673
874.8863	-0.073
875.0478	0.2847
875.2092	-0
875.3706	-0
875.5319	-1.115
875.6933	-0.1555
875.8546	-0
876.0159	-0.3808
876.1772	0.238
876.3385	-0
876.4997	0.1959
876.6609	-0.4613
876.8221	-0.3394
876.9833	-0
877.1445	0.5306
877.3056	0.578
877.4667	0.7118
877.6278	-0
877.7889	-0.722
877.9499	-0.5757
878.111	-0
878.272	-0
878.433	0.0849
878.5939	0.5037
878.7549	0.3727
878.9158	-0.7828
879.0767	0.2529
879.2376	-0
879.3984	-0.1704
879.5593	-0
879.7201	-0
879.8809	-0
880.0417	0.658
880.2024	0.0501
880.3632	0.2109
880.5239	0.3042
880.6846	-0
880.8452	-2.6314
881.0059	-1.7193
881.1665	0.7304
881.3271	-0.3255
881.4877	-0.4747
881.6483	-0.5369
881.8088	-0.1563
881.9693	0.8644
882.1298	0.8644
882.2903	0.8644
