Data from MonoPyChalIsomerACN10uM410nmA_Absorbance_14-53-25-873.txt Node
Date: Fri Jul 05 14:53:25 BST 2024
User: LASERRRRR
Spectrometer: FLMT03099
Trigger mode: 0
Integration Time (sec): 1.000000E-1
Scans to average: 1
Electric dark correction enabled: true
Nonlinearity correction enabled: false
Boxcar width: 0
XAxis mode: Wavelengths
Number of Pixels in Spectrum: 3648
>>>>>Begin Spectral Data<<<<<
179.3399	-0.1277
179.5586	-0.1277
179.7771	-0.1277
179.9957	-0.1345
180.2143	-0
180.4329	-0.0811
180.6514	0.967
180.8699	0.2143
181.0885	-0.2937
181.307	0.2215
181.5255	-0.5905
181.744	-0
181.9625	-0
182.181	-0.4658
182.3994	0.2421
182.6179	-0
182.8363	0.2141
183.0547	-0.4507
183.2732	0.103
183.4916	0.249
183.71	0.0033
183.9284	0.1354
184.1467	-0.2463
184.3651	-0.0668
184.5835	0.0038
184.8018	-0.0544
185.0201	-0.0152
185.2385	0.0254
185.4568	0.1987
185.6751	0.3531
185.8934	0.1034
186.1117	-0.0364
186.3299	0.3177
186.5482	0.0037
186.7664	-0.0829
186.9847	-0.0522
187.2029	0.0333
187.4211	0.0357
187.6393	0.268
187.8575	-0.2268
188.0757	0.0325
188.2939	0.1332
188.512	0.0773
188.7302	0.0686
188.9483	-0.0074
189.1665	0.1922
189.3846	-0.2815
189.6027	0.1854
189.8208	0.1909
190.0389	0.0722
190.257	0.1341
190.475	0.1284
190.6931	0.6316
190.9111	0.4182
191.1292	0.2997
191.3472	0.4775
191.5652	0.2909
191.7832	0.1459
192.0012	0.4973
192.2192	0.1886
192.4371	0.6091
192.6551	0.4231
192.873	0.3355
193.091	0.4236
193.3089	0.6147
193.5268	0.4978
193.7447	0.3915
193.9626	0.3669
194.1805	0.3822
194.3984	0.9378
194.6162	0.5097
194.8341	0.4271
195.0519	0.5812
195.2697	0.6724
195.4875	0.5878
195.7054	0.6818
195.9231	0.4742
196.1409	0.4862
196.3587	0.5878
196.5765	0.8663
196.7942	0.5273
197.012	0.4533
197.2297	0.6699
197.4474	0.6071
197.6651	0.613
197.8828	0.5214
198.1005	0.5965
198.3182	0.4559
198.5358	0.7008
198.7535	0.6146
198.9711	0.537
199.1888	0.6373
199.4064	0.7543
199.624	0.5939
199.8416	0.6217
200.0592	0.6129
200.2767	0.5866
200.4943	0.6078
200.7119	0.6873
200.9294	0.6748
201.1469	0.5047
201.3645	0.5778
201.582	0.5926
201.7995	0.634
202.017	0.5944
202.2344	0.6014
202.4519	0.6903
202.6694	0.6566
202.8868	0.6509
203.1042	0.6664
203.3217	0.61
203.5391	0.6467
203.7565	0.6132
203.9739	0.536
204.1913	0.6215
204.4086	0.6698
204.626	0.7134
204.8433	0.6821
205.0607	0.6039
205.278	0.6762
205.4953	0.5702
205.7126	0.641
205.9299	0.6198
206.1472	0.6338
206.3644	0.5783
206.5817	0.6737
206.7989	0.7516
207.0162	0.6389
207.2334	0.6182
207.4506	0.6469
207.6678	0.5697
207.885	0.7131
208.1022	0.6341
208.3194	0.6419
208.5365	0.6005
208.7537	0.6258
208.9708	0.5657
209.1879	0.6479
209.405	0.6946
209.6222	0.6367
209.8392	0.6239
210.0563	0.6081
210.2734	0.6037
210.4905	0.6359
210.7075	0.6756
210.9245	0.6624
211.1416	0.6227
211.3586	0.5966
211.5756	0.5649
211.7926	0.6267
212.0096	0.5908
212.2265	0.5418
212.4435	0.528
212.6604	0.6469
212.8774	0.522
213.0943	0.5639
213.3112	0.5234
213.5281	0.5188
213.745	0.5164
213.9619	0.5348
214.1788	0.4867
214.3956	0.4856
214.6125	0.4762
214.8293	0.4506
215.0461	0.4281
215.2629	0.4219
215.4798	0.4626
215.6965	0.4268
215.9133	0.4251
216.1301	0.4051
216.3469	0.4149
216.5636	0.4322
216.7803	0.3739
216.9971	0.3795
217.2138	0.3662
217.4305	0.3298
217.6472	0.3359
217.8639	0.3684
218.0805	0.3533
218.2972	0.3242
218.5138	0.323
218.7305	0.3009
218.9471	0.3063
219.1637	0.28
219.3803	0.2957
219.5969	0.2912
219.8135	0.2457
220.0301	0.2852
220.2466	0.2454
220.4632	0.2405
220.6797	0.2475
220.8962	0.2362
221.1127	0.2568
221.3292	0.2358
221.5457	0.2308
221.7622	0.2323
221.9787	0.2631
222.1951	0.2466
222.4116	0.2282
222.628	0.2502
222.8444	0.2415
223.0608	0.2359
223.2772	0.2524
223.4936	0.2514
223.71	0.2334
223.9264	0.2743
224.1427	0.2418
224.3591	0.2618
224.5754	0.2576
224.7917	0.2507
225.008	0.256
225.2243	0.2693
225.4406	0.2706
225.6569	0.2548
225.8732	0.2663
226.0894	0.2458
226.3057	0.2461
226.5219	0.2764
226.7381	0.2691
226.9543	0.2764
227.1705	0.2745
227.3867	0.2871
227.6029	0.2837
227.8191	0.2906
228.0352	0.2979
228.2513	0.3117
228.4675	0.306
228.6836	0.3033
228.8997	0.31
229.1158	0.3126
229.3319	0.3066
229.548	0.3066
229.764	0.3149
229.9801	0.3292
230.1961	0.3196
230.4121	0.3302
230.6282	0.3184
230.8442	0.3256
231.0602	0.3469
231.2761	0.3452
231.4921	0.3431
231.7081	0.3503
231.924	0.3538
232.14	0.3685
232.3559	0.3487
232.5718	0.342
232.7877	0.349
233.0036	0.3574
233.2195	0.3626
233.4353	0.3401
233.6512	0.3549
233.867	0.3612
234.0829	0.3559
234.2987	0.359
234.5145	0.3612
234.7303	0.3899
234.9461	0.3674
235.1619	0.379
235.3776	0.3763
235.5934	0.3951
235.8091	0.3686
236.0249	0.368
236.2406	0.3787
236.4563	0.374
236.672	0.3822
236.8877	0.3882
237.1034	0.3888
237.319	0.3917
237.5347	0.4132
237.7503	0.3857
237.966	0.4037
238.1816	0.402
238.3972	0.3951
238.6128	0.3916
238.8284	0.3905
239.0439	0.415
239.2595	0.3892
239.475	0.403
239.6906	0.4073
239.9061	0.4011
240.1216	0.4085
240.3371	0.4097
240.5526	0.4067
240.7681	0.4021
240.9836	0.3755
241.199	0.3984
241.4145	0.376
241.6299	0.3676
241.8453	0.3895
242.0607	0.3791
242.2761	0.3634
242.4915	0.3741
242.7069	0.3659
242.9223	0.3527
243.1376	0.3529
243.353	0.3409
243.5683	0.3337
243.7836	0.3285
243.9989	0.3232
244.2142	0.2997
244.4295	0.3069
244.6448	0.2966
244.86	0.3013
245.0753	0.2767
245.2905	0.2843
245.5057	0.2742
245.721	0.2668
245.9362	0.2607
246.1514	0.2703
246.3665	0.2417
246.5817	0.2564
246.7969	0.2588
247.012	0.2327
247.2271	0.2301
247.4423	0.244
247.6574	0.232
247.8725	0.22
248.0876	0.2278
248.3026	0.228
248.5177	0.2249
248.7328	0.2107
248.9478	0.2044
249.1628	0.2305
249.3779	0.2191
249.5929	0.1921
249.8079	0.2164
250.0228	0.2072
250.2378	0.2081
250.4528	0.2058
250.6677	0.1753
250.8827	0.1885
251.0976	0.1932
251.3125	0.1824
251.5274	0.1764
251.7423	0.1697
251.9572	0.182
252.172	0.1881
252.3869	0.1789
252.6017	0.1711
252.8166	0.1627
253.0314	0.1604
253.2462	0.1685
253.461	0.176
253.6758	0.1614
253.8906	0.1798
254.1053	0.16
254.3201	0.1681
254.5348	0.1811
254.7496	0.1789
254.9643	0.1614
255.179	0.1674
255.3937	0.159
255.6083	0.1692
255.823	0.1761
256.0377	0.1589
256.2523	0.1694
256.467	0.1465
256.6816	0.1666
256.8962	0.1534
257.1108	0.1682
257.3254	0.1703
257.54	0.1692
257.7545	0.1647
257.9691	0.1718
258.1836	0.1705
258.3981	0.1655
258.6127	0.1742
258.8272	0.1601
259.0417	0.1649
259.2561	0.1614
259.4706	0.1668
259.6851	0.1658
259.8995	0.1722
260.114	0.1636
260.3284	0.1578
260.5428	0.1581
260.7572	0.1685
260.9716	0.1733
261.186	0.1602
261.4003	0.1578
261.6147	0.1629
261.829	0.1658
262.0433	0.1525
262.2577	0.156
262.472	0.1583
262.6863	0.1638
262.9005	0.1568
263.1148	0.1603
263.3291	0.1429
263.5433	0.1651
263.7576	0.1717
263.9718	0.1645
264.186	0.1603
264.4002	0.1575
264.6144	0.1594
264.8286	0.1656
265.0427	0.1658
265.2569	0.1575
265.471	0.1523
265.6851	0.1557
265.8993	0.1632
266.1134	0.1505
266.3275	0.1581
266.5415	0.1489
266.7556	0.1673
266.9697	0.1651
267.1837	0.162
267.3978	0.1618
267.6118	0.1658
267.8258	0.1696
268.0398	0.1542
268.2538	0.1755
268.4677	0.1667
268.6817	0.1522
268.8957	0.1668
269.1096	0.1691
269.3235	0.1594
269.5374	0.1515
269.7514	0.1611
269.9652	0.1506
270.1791	0.1503
270.393	0.1423
270.6068	0.1578
270.8207	0.1357
271.0345	0.151
271.2483	0.1565
271.4622	0.1432
271.676	0.1493
271.8897	0.1356
272.1035	0.1326
272.3173	0.1465
272.531	0.1358
272.7448	0.1437
272.9585	0.1237
273.1722	0.1391
273.3859	0.1545
273.5996	0.1295
273.8133	0.1471
274.0269	0.1471
274.2406	0.1374
274.4542	0.1455
274.6679	0.1392
274.8815	0.1418
275.0951	0.1532
275.3087	0.1474
275.5223	0.1532
275.7358	0.1533
275.9494	0.1484
276.1629	0.1477
276.3765	0.1481
276.59	0.1482
276.8035	0.1502
277.017	0.1345
277.2305	0.134
277.444	0.1453
277.6574	0.1364
277.8709	0.1391
278.0843	0.1299
278.2978	0.1457
278.5112	0.1333
278.7246	0.1422
278.938	0.1438
279.1513	0.1374
279.3647	0.151
279.5781	0.1395
279.7914	0.1515
280.0047	0.1513
280.2181	0.1617
280.4314	0.1497
280.6447	0.154
280.8579	0.1384
281.0712	0.1543
281.2845	0.1578
281.4977	0.1524
281.711	0.1393
281.9242	0.1426
282.1374	0.1499
282.3506	0.1424
282.5638	0.1647
282.7769	0.1541
282.9901	0.1497
283.2033	0.1533
283.4164	0.1555
283.6295	0.1562
283.8426	0.1502
284.0557	0.148
284.2688	0.1659
284.4819	0.1454
284.695	0.1534
284.908	0.1629
285.1211	0.1526
285.3341	0.1573
285.5471	0.1545
285.7601	0.1618
285.9731	0.1623
286.1861	0.1553
286.3991	0.1658
286.612	0.1696
286.825	0.1597
287.0379	0.1662
287.2508	0.1638
287.4637	0.1586
287.6766	0.1542
287.8895	0.1705
288.1024	0.1729
288.3152	0.1611
288.5281	0.1499
288.7409	0.1721
288.9538	0.1542
289.1666	0.1526
289.3794	0.1632
289.5922	0.1512
289.8049	0.1542
290.0177	0.1579
290.2304	0.159
290.4432	0.1662
290.6559	0.1528
290.8686	0.1831
291.0813	0.1714
291.294	0.1658
291.5067	0.166
291.7194	0.168
291.932	0.174
292.1447	0.1687
292.3573	0.1619
292.5699	0.164
292.7825	0.1579
292.9951	0.16
293.2077	0.1653
293.4203	0.166
293.6328	0.1489
293.8454	0.156
294.0579	0.1658
294.2704	0.1554
294.4829	0.1564
294.6954	0.1758
294.9079	0.1608
295.1204	0.161
295.3328	0.1705
295.5453	0.158
295.7577	0.1642
295.9701	0.1496
296.1825	0.1554
296.3949	0.1567
296.6073	0.1496
296.8197	0.1576
297.0321	0.1679
297.2444	0.1528
297.4567	0.1669
297.6691	0.1603
297.8814	0.156
298.0937	0.1511
298.306	0.1684
298.5182	0.1567
298.7305	0.1603
298.9428	0.1645
299.155	0.1648
299.3672	0.1571
299.5794	0.1525
299.7916	0.1606
300.0038	0.1694
300.216	0.164
300.4282	0.1692
300.6403	0.1554
300.8525	0.1675
301.0646	0.1502
301.2767	0.17
301.4888	0.1564
301.7009	0.1672
301.913	0.1485
302.125	0.164
302.3371	0.1553
302.5491	0.1594
302.7612	0.1762
302.9732	0.1639
303.1852	0.1617
303.3972	0.159
303.6092	0.1559
303.8211	0.1493
304.0331	0.166
304.245	0.1475
304.457	0.1498
304.6689	0.1606
304.8808	0.1649
305.0927	0.1482
305.3046	0.1473
305.5164	0.1494
305.7283	0.1467
305.9401	0.1621
306.152	0.1458
306.3638	0.1454
306.5756	0.1421
306.7874	0.137
306.9992	0.1455
307.2109	0.1503
307.4227	0.1262
307.6344	0.1387
307.8462	0.1307
308.0579	0.1322
308.2696	0.13
308.4813	0.128
308.693	0.1338
308.9046	0.1293
309.1163	0.1272
309.328	0.1195
309.5396	0.1238
309.7512	0.1228
309.9628	0.1197
310.1744	0.1245
310.386	0.1153
310.5976	0.1152
310.8091	0.1178
311.0207	0.1149
311.2322	0.1049
311.4437	0.1013
311.6552	0.1042
311.8667	0.1128
312.0782	0.0992
312.2897	0.0972
312.5012	0.1088
312.7126	0.1034
312.924	0.0964
313.1355	0.1112
313.3469	0.1022
313.5583	0.1036
313.7696	0.1077
313.981	0.1095
314.1924	0.1018
314.4037	0.0958
314.6151	0.1098
314.8264	0.1053
315.0377	0.1003
315.249	0.0992
315.4603	0.0997
315.6716	0.1109
315.8828	0.093
316.0941	0.0959
316.3053	0.097
316.5165	0.0945
316.7277	0.088
316.9389	0.0984
317.1501	0.0869
317.3613	0.0998
317.5724	0.0849
317.7836	0.0999
317.9947	0.1025
318.2058	0.0982
318.417	0.0928
318.6281	0.0795
318.8391	0.0916
319.0502	0.0823
319.2613	0.1062
319.4723	0.0949
319.6834	0.1036
319.8944	0.0859
320.1054	0.0999
320.3164	0.0983
320.5274	0.0917
320.7383	0.0916
320.9493	0.0974
321.1602	0.0961
321.3712	0.0918
321.5821	0.087
321.793	0.1005
322.0039	0.0912
322.2148	0.0929
322.4257	0.1023
322.6365	0.1046
322.8474	0.1009
323.0582	0.0861
323.269	0.0982
323.4798	0.1109
323.6906	0.0978
323.9014	0.1017
324.1122	0.1021
324.3229	0.0972
324.5337	0.0946
324.7444	0.0982
324.9551	0.1153
325.1658	0.1158
325.3765	0.1009
325.5872	0.1008
325.7979	0.0979
326.0085	0.099
326.2192	0.0987
326.4298	0.1044
326.6404	0.0944
326.851	0.0909
327.0616	0.0958
327.2722	0.1079
327.4828	0.1138
327.6933	0.0959
327.9039	0.1104
328.1144	0.1123
328.3249	0.1066
328.5354	0.1037
328.7459	0.1052
328.9564	0.1012
329.1669	0.1038
329.3773	0.0991
329.5878	0.1006
329.7982	0.1048
330.0086	0.1001
330.219	0.1122
330.4294	0.1005
330.6398	0.112
330.8502	0.0994
331.0605	0.1061
331.2708	0.1032
331.4812	0.117
331.6915	0.1067
331.9018	0.114
332.1121	0.0979
332.3224	0.1006
332.5326	0.1083
332.7429	0.1083
332.9531	0.1211
333.1633	0.1143
333.3735	0.1043
333.5837	0.1032
333.7939	0.1059
334.0041	0.1091
334.2143	0.1046
334.4244	0.098
334.6346	0.1001
334.8447	0.1058
335.0548	0.1001
335.2649	0.1025
335.475	0.1149
335.685	0.0992
335.8951	0.1045
336.1051	0.1098
336.3152	0.1228
336.5252	0.1082
336.7352	0.118
336.9452	0.1163
337.1552	0.1195
337.3652	0.097
337.5751	0.1039
337.7851	0.1051
337.995	0.104
338.2049	0.1114
338.4148	0.1107
338.6247	0.1158
338.8346	0.1039
339.0445	0.1012
339.2543	0.1117
339.4642	0.1123
339.674	0.1098
339.8838	0.1063
340.0936	0.1143
340.3034	0.1155
340.5132	0.1178
340.7229	0.1249
340.9327	0.1231
341.1424	0.1169
341.3522	0.1131
341.5619	0.1142
341.7716	0.1254
341.9813	0.128
342.1909	0.1091
342.4006	0.1395
342.6102	0.1288
342.8199	0.1197
343.0295	0.1143
343.2391	0.1286
343.4487	0.1299
343.6583	0.1268
343.8679	0.1298
344.0774	0.1232
344.287	0.1297
344.4965	0.1258
344.706	0.1312
344.9155	0.1204
345.125	0.1328
345.3345	0.1276
345.544	0.1359
345.7534	0.1219
345.9629	0.1115
346.1723	0.127
346.3817	0.1104
346.5911	0.1201
346.8005	0.1153
347.0099	0.123
347.2193	0.1277
347.4286	0.1167
347.638	0.129
347.8473	0.123
348.0566	0.1429
348.2659	0.1344
348.4752	0.1309
348.6845	0.1324
348.8937	0.1378
349.103	0.1431
349.3122	0.1197
349.5214	0.1308
349.7306	0.1389
349.9398	0.1348
350.149	0.1418
350.3582	0.1437
350.5674	0.1471
350.7765	0.1383
350.9856	0.1306
351.1948	0.1443
351.4039	0.1184
351.613	0.1303
351.822	0.1453
352.0311	0.1411
352.2402	0.1409
352.4492	0.1393
352.6582	0.1412
352.8672	0.1504
353.0762	0.1476
353.2852	0.1365
353.4942	0.1399
353.7032	0.1486
353.9121	0.1458
354.1211	0.1379
354.33	0.1529
354.5389	0.1441
354.7478	0.1335
354.9567	0.1433
355.1655	0.1393
355.3744	0.1486
355.5833	0.1487
355.7921	0.1812
356.0009	0.152
356.2097	0.1578
356.4185	0.1654
356.6273	0.1552
356.8361	0.1644
357.0448	0.1556
357.2536	0.1461
357.4623	0.154
357.671	0.167
357.8797	0.1644
358.0884	0.1592
358.2971	0.1468
358.5057	0.1648
358.7144	0.1684
358.923	0.163
359.1316	0.1682
359.3402	0.1654
359.5488	0.1659
359.7574	0.1633
359.966	0.1763
360.1746	0.1569
360.3831	0.1747
360.5916	0.1726
360.8002	0.1622
361.0087	0.1722
361.2172	0.1702
361.4256	0.1741
361.6341	0.1777
361.8426	0.1849
362.051	0.167
362.2594	0.1771
362.4678	0.179
362.6762	0.1984
362.8846	0.1867
363.093	0.1651
363.3014	0.1785
363.5097	0.1667
363.718	0.1738
363.9264	0.1966
364.1347	0.173
364.343	0.196
364.5513	0.1935
364.7595	0.1917
364.9678	0.1919
365.176	0.1945
365.3842	0.1797
365.5925	0.1916
365.8007	0.1944
366.0089	0.196
366.217	0.1774
366.4252	0.2117
366.6333	0.2077
366.8415	0.2017
367.0496	0.2001
367.2577	0.2077
367.4658	0.2029
367.6739	0.211
367.882	0.2102
368.09	0.1916
368.2981	0.2139
368.5061	0.201
368.7141	0.2177
368.9221	0.2146
369.1301	0.2138
369.3381	0.1982
369.5461	0.2123
369.754	0.2067
369.962	0.2173
370.1699	0.2227
370.3778	0.2161
370.5857	0.191
370.7936	0.2257
371.0015	0.207
371.2093	0.2138
371.4172	0.2202
371.625	0.1984
371.8328	0.218
372.0406	0.2063
372.2484	0.2311
372.4562	0.2211
372.664	0.2279
372.8717	0.2368
373.0795	0.199
373.2872	0.2174
373.4949	0.2158
373.7026	0.2226
373.9103	0.2197
374.118	0.2298
374.3256	0.2209
374.5333	0.217
374.7409	0.2196
374.9485	0.2454
375.1561	0.2339
375.3637	0.2491
375.5713	0.228
375.7789	0.2325
375.9864	0.2234
376.194	0.222
376.4015	0.2449
376.609	0.2488
376.8165	0.231
377.024	0.2374
377.2315	0.2267
377.4389	0.2407
377.6464	0.2428
377.8538	0.2367
378.0612	0.2339
378.2686	0.2486
378.476	0.2478
378.6834	0.236
378.8908	0.2536
379.0981	0.2501
379.3055	0.2464
379.5128	0.2396
379.7201	0.2463
379.9274	0.2385
380.1347	0.2465
380.342	0.2628
380.5492	0.2239
380.7565	0.2351
380.9637	0.258
381.1709	0.2423
381.3781	0.2377
381.5853	0.2445
381.7925	0.2532
381.9997	0.2493
382.2068	0.2655
382.4139	0.2572
382.6211	0.2453
382.8282	0.2405
383.0353	0.2492
383.2424	0.2568
383.4494	0.2578
383.6565	0.2425
383.8635	0.2383
384.0706	0.254
384.2776	0.2607
384.4846	0.243
384.6916	0.2669
384.8986	0.2548
385.1055	0.2599
385.3125	0.2458
385.5194	0.2305
385.7263	0.2704
385.9333	0.245
386.1402	0.2421
386.347	0.2566
386.5539	0.2312
386.7608	0.2735
386.9676	0.2356
387.1744	0.2568
387.3813	0.2382
387.5881	0.2537
387.7948	0.2519
388.0016	0.2441
388.2084	0.2363
388.4151	0.2359
388.6219	0.2589
388.8286	0.2648
389.0353	0.2652
389.242	0.2522
389.4487	0.2438
389.6553	0.2533
389.862	0.2276
390.0686	0.2399
390.2753	0.2321
390.4819	0.2322
390.6885	0.2403
390.8951	0.2516
391.1016	0.2267
391.3082	0.2268
391.5147	0.2455
391.7213	0.2342
391.9278	0.2335
392.1343	0.2159
392.3408	0.2375
392.5473	0.2308
392.7537	0.232
392.9602	0.2295
393.1666	0.2277
393.373	0.2412
393.5794	0.2384
393.7858	0.2276
393.9922	0.2287
394.1986	0.2353
394.4049	0.2306
394.6113	0.2285
394.8176	0.2076
395.0239	0.2172
395.2302	0.2134
395.4365	0.2219
395.6428	0.2157
395.8491	0.204
396.0553	0.2174
396.2615	0.221
396.4678	0.2134
396.674	0.209
396.8802	0.2109
397.0863	0.246
397.2925	0.2051
397.4987	0.2158
397.7048	0.21
397.9109	0.2107
398.117	0.2064
398.3231	0.2064
398.5292	0.2259
398.7353	0.2288
398.9413	0.21
399.1474	0.2081
399.3534	0.2089
399.5594	0.2001
399.7654	0.2188
399.9714	0.2363
400.1774	0.2108
400.3833	0.209
400.5893	0.1958
400.7952	0.2036
401.0011	0.2113
401.207	0.2152
401.4129	0.1974
401.6188	0.2053
401.8247	0.2026
402.0305	0.1961
402.2364	0.1964
402.4422	0.2064
402.648	0.2141
402.8538	0.2234
403.0596	0.1795
403.2654	0.2134
403.4711	0.1916
403.6768	0.2142
403.8826	0.2136
404.0883	0.2135
404.294	0.2108
404.4997	0.1966
404.7054	0.2026
404.911	0.2102
405.1167	0.2216
405.3223	0.2403
405.5279	0.2016
405.7335	0.2128
405.9391	0.2073
406.1447	0.2083
406.3502	0.2128
406.5558	0.1982
406.7613	0.2194
406.9668	0.2007
407.1724	0.2092
407.3778	0.1941
407.5833	0.2043
407.7888	0.2216
407.9942	0.2364
408.1997	0.2071
408.4051	0.2023
408.6105	0.2176
408.8159	0.2015
409.0213	0.2016
409.2267	0.2064
409.432	0.2035
409.6374	0.2121
409.8427	0.2149
410.048	0.2142
410.2533	0.2123
410.4586	0.2026
410.6639	0.1752
410.8691	0.2006
411.0744	0.1996
411.2796	0.1786
411.4848	0.2003
411.69	0.2052
411.8952	0.2225
412.1004	0.191
412.3056	0.2216
412.5107	0.1969
412.7158	0.2136
412.921	0.2043
413.1261	0.2173
413.3312	0.2084
413.5362	0.2015
413.7413	0.2007
413.9464	0.2091
414.1514	0.2157
414.3564	0.2154
414.5614	0.1838
414.7664	0.1943
414.9714	0.2089
415.1764	0.1873
415.3813	0.1966
415.5863	0.2068
415.7912	0.195
415.9961	0.2057
416.201	0.2012
416.4059	0.2012
416.6108	0.1806
416.8156	0.2224
417.0205	0.2017
417.2253	0.1952
417.4301	0.2119
417.6349	0.1931
417.8397	0.1871
418.0445	0.1976
418.2492	0.196
418.454	0.1925
418.6587	0.1853
418.8634	0.2012
419.0681	0.1828
419.2728	0.1869
419.4775	0.1906
419.6822	0.1781
419.8868	0.1857
420.0915	0.1996
420.2961	0.1758
420.5007	0.1788
420.7053	0.1887
420.9099	0.2082
421.1144	0.1823
421.319	0.1854
421.5235	0.1946
421.728	0.2006
421.9325	0.2107
422.137	0.1994
422.3415	0.1874
422.546	0.1826
422.7504	0.1845
422.9549	0.1952
423.1593	0.1812
423.3637	0.1811
423.5681	0.1838
423.7725	0.1737
423.9769	0.1852
424.1812	0.1657
424.3856	0.1621
424.5899	0.1816
424.7942	0.1697
424.9985	0.1793
425.2028	0.1742
425.4071	0.1711
425.6113	0.1441
425.8156	0.1579
426.0198	0.1785
426.224	0.1425
426.4282	0.1596
426.6324	0.1582
426.8366	0.1651
427.0407	0.1679
427.2449	0.1694
427.449	0.1715
427.6531	0.1465
427.8572	0.1593
428.0613	0.1627
428.2654	0.1482
428.4694	0.1512
428.6735	0.1554
428.8775	0.1603
429.0815	0.1617
429.2855	0.1465
429.4895	0.1653
429.6935	0.1623
429.8975	0.1695
430.1014	0.1527
430.3053	0.1363
430.5093	0.1408
430.7132	0.1365
430.9171	0.1475
431.1209	0.1405
431.3248	0.1379
431.5286	0.1478
431.7325	0.1416
431.9363	0.1355
432.1401	0.1454
432.3439	0.1264
432.5477	0.1175
432.7514	0.1301
432.9552	0.134
433.1589	0.1084
433.3627	0.1237
433.5664	0.1166
433.7701	0.1195
433.9737	0.1025
434.1774	0.1125
434.3811	0.1181
434.5847	0.1265
434.7883	0.1077
434.9919	0.1051
435.1955	0.1031
435.3991	0.1027
435.6027	0.1059
435.8062	0.0968
436.0098	0.0947
436.2133	0.1138
436.4168	0.0953
436.6203	0.0917
436.8238	0.0968
437.0272	0.0886
437.2307	0.0973
437.4341	0.0947
437.6375	0.0866
437.841	0.0864
438.0443	0.0986
438.2477	0.0963
438.4511	0.0793
438.6545	0.0843
438.8578	0.1034
439.0611	0.0893
439.2644	0.0837
439.4677	0.0693
439.671	0.067
439.8743	0.0851
440.0775	0.0844
440.2808	0.074
440.484	0.0675
440.6872	0.0563
440.8904	0.0618
441.0936	0.0795
441.2967	0.0741
441.4999	0.0738
441.703	0.076
441.9062	0.0595
442.1093	0.0678
442.3124	0.0536
442.5155	0.0534
442.7185	0.081
442.9216	0.0451
443.1246	0.0705
443.3276	0.0577
443.5307	0.0514
443.7337	0.0532
443.9366	0.0561
444.1396	0.0493
444.3426	0.0601
444.5455	0.0579
444.7484	0.0433
444.9513	0.0488
445.1542	0.0606
445.3571	0.0416
445.56	0.056
445.7628	0.033
445.9657	0.0361
446.1685	0.0405
446.3713	0.0407
446.5741	0.0507
446.7769	0.0366
446.9797	0.0377
447.1824	0.0468
447.3852	0.0276
447.5879	0.0343
447.7906	0.0443
447.9933	0.0538
448.196	0.0329
448.3986	0.0288
448.6013	0.0236
448.8039	0.021
449.0066	0.0231
449.2092	0.036
449.4118	0.0419
449.6143	0.0263
449.8169	0.0313
450.0195	0.0208
450.222	0.0168
450.4245	0.018
450.627	0.0322
450.8295	0.0161
451.032	0.0339
451.2345	0.0194
451.4369	0.0344
451.6394	0.0196
451.8418	0.0143
452.0442	0.0142
452.2466	0.022
452.449	0.0052
452.6513	0.0153
452.8537	0.0084
453.056	0.0056
453.2583	0.0192
453.4607	0.0139
453.663	0.0109
453.8652	0.0253
454.0675	0.0059
454.2697	0.0135
454.472	0.0059
454.6742	0.0164
454.8764	0.0116
455.0786	0.008
455.2808	0.0054
455.4829	0.0169
455.6851	0.0326
455.8872	0.0165
456.0893	0.0202
456.2915	-0.0032
456.4935	0.0174
456.6956	0.0008
456.8977	0.0036
457.0997	0.0008
457.3018	-0.0156
457.5038	0.0135
457.7058	0.0032
457.9078	0.0021
458.1098	0.0163
458.3117	0.0033
458.5137	0.0153
458.7156	0.0041
458.9175	0.0003
459.1194	0.0008
459.3213	-0.004
459.5232	-0.0157
459.725	-0.0132
459.9269	-0.002
460.1287	0.0064
460.3305	0.0001
460.5323	0.0107
460.7341	-0.003
460.9359	-0.0022
461.1376	0.0202
461.3394	-0.0069
461.5411	0.0037
461.7428	-0.0046
461.9445	0.005
462.1462	-0.0023
462.3479	-0.0046
462.5495	-0.0059
462.7512	-0.0035
462.9528	0.0005
463.1544	-0.0244
463.356	0.0017
463.5576	0.021
463.7592	-0.01
463.9607	0.0036
464.1623	0.015
464.3638	0.0125
464.5653	-0.0111
464.7668	0.0054
464.9683	0.0088
465.1697	0.0155
465.3712	-0.0093
465.5726	-0.0089
465.7741	0.0009
465.9755	-0.0105
466.1769	-0.0177
466.3782	-0.0005
466.5796	-0.0155
466.7809	0.0169
466.9823	-0.0015
467.1836	0.0049
467.3849	-0.0184
467.5862	0.0008
467.7875	-0.0005
467.9887	0.012
468.19	-0.0034
468.3912	-0.0087
468.5924	-0.0121
468.7936	-0.0211
468.9948	0.006
469.196	-0.0015
469.3972	-0.0183
469.5983	-0.0039
469.7994	-0.018
470.0006	-0.0037
470.2017	-0.015
470.4027	-0.0043
470.6038	0.0246
470.8049	-0.0123
471.0059	-0.0048
471.2069	-0.0283
471.408	0.0034
471.6089	0.0044
471.8099	0.005
472.0109	-0.0058
472.2119	-0.0045
472.4128	-0.0169
472.6137	0.0007
472.8146	-0.0196
473.0155	-0.0151
473.2164	-0.0179
473.4173	-0.011
473.6181	-0.011
473.819	-0
474.0198	-0.0024
474.2206	-0.001
474.4214	-0.008
474.6222	-0.0028
474.8229	-0.0049
475.0237	-0.0173
475.2244	-0.0098
475.4251	-0.0024
475.6258	0.0041
475.8265	-0.0115
476.0272	-0.0066
476.2278	-0.0097
476.4285	-0.0071
476.6291	-0.0114
476.8297	-0.0068
477.0303	-0.0061
477.2309	0.0005
477.4315	-0.0242
477.632	0.0044
477.8326	-0.0189
478.0331	-0.0056
478.2336	0.0022
478.4341	-0.0149
478.6346	-0.0125
478.8351	-0.0207
479.0355	-0.0084
479.236	-0.005
479.4364	-0.0091
479.6368	0.0001
479.8372	-0.0287
480.0376	-0.0071
480.2379	-0.036
480.4383	-0.0094
480.6386	0.0009
480.8389	0.0007
481.0392	-0.0057
481.2395	-0.0101
481.4398	-0.0024
481.6401	-0.0103
481.8403	-0.0089
482.0405	0.0002
482.2408	-0.0106
482.441	0.0008
482.6411	-0.0154
482.8413	-0.0141
483.0415	-0.0165
483.2416	-0.0235
483.4417	-0.0118
483.6419	-0.0112
483.8419	-0.0108
484.042	0.0026
484.2421	-0.0062
484.4422	-0.0077
484.6422	-0.0036
484.8422	-0.0018
485.0422	-0.0148
485.2422	-0.0103
485.4422	-0.0138
485.6422	-0.0092
485.8421	-0.0161
486.042	-0.0128
486.242	-0.0097
486.4419	-0.0269
486.6417	-0.0091
486.8416	-0.0094
487.0415	-0.0115
487.2413	-0.0161
487.4411	0.0004
487.641	-0.0115
487.8408	-0.0013
488.0405	-0.0064
488.2403	-0.0078
488.4401	-0.0047
488.6398	-0.0117
488.8395	-0.012
489.0392	-0.0082
489.2389	-0.001
489.4386	-0.0121
489.6383	-0.0084
489.8379	0.0003
490.0376	-0.0119
490.2372	-0.0141
490.4368	-0.0196
490.6364	-0.0105
490.836	-0.008
491.0355	-0.0033
491.2351	-0.009
491.4346	-0.0109
491.6341	-0.0276
491.8336	0.0021
492.0331	-0.0217
492.2326	-0.0223
492.432	-0.0108
492.6315	-0.0133
492.8309	-0.0175
493.0303	-0.0107
493.2297	-0.013
493.4291	-0.01
493.6284	-0.011
493.8278	-0.0074
494.0271	-0.0067
494.2264	-0.006
494.4257	-0.0312
494.625	-0.0054
494.8243	-0.0309
495.0236	-0.0273
495.2228	-0.0099
495.422	-0.0096
495.6213	-0.0065
495.8205	-0.0143
496.0196	-0.0158
496.2188	-0.0075
496.418	-0.015
496.6171	-0.02
496.8162	-0.0145
497.0153	0.0024
497.2144	-0.0085
497.4135	0.0106
497.6126	-0.0181
497.8116	-0.0079
498.0107	-0.0047
498.2097	-0.0243
498.4087	-0.0194
498.6077	-0.009
498.8067	-0.0161
499.0056	-0.0117
499.2046	-0.016
499.4035	-0.0234
499.6024	-0.0123
499.8013	-0.014
500.0002	-0.0114
500.199	-0.014
500.3979	-0.0127
500.5967	-0.0205
500.7956	-0.0076
500.9944	-0.0143
501.1932	-0.0277
501.3919	-0.016
501.5907	-0.0209
501.7895	-0.0099
501.9882	-0.0217
502.1869	-0.0087
502.3856	-0.0087
502.5843	-0.0195
502.783	-0.0093
502.9816	-0.012
503.1803	-0.0172
503.3789	-0.0142
503.5775	-0.0086
503.7761	-0.0144
503.9747	-0.0057
504.1732	-0.0094
504.3718	-0.0087
504.5703	0.0024
504.7689	-0.013
504.9674	-0.0075
505.1658	-0.0156
505.3643	-0.0089
505.5628	-0.009
505.7612	-0.0147
505.9597	0.0009
506.1581	-0.0131
506.3565	0.0032
506.5549	-0.0128
506.7532	-0.0179
506.9516	-0.0084
507.1499	-0.016
507.3482	-0.0176
507.5465	-0.0145
507.7448	-0.0107
507.9431	-0.0015
508.1414	-0.0125
508.3396	-0.0094
508.5379	-0.0164
508.7361	-0.0169
508.9343	-0.0087
509.1325	-0.0119
509.3306	-0.0039
509.5288	-0.0123
509.7269	-0.0189
509.9251	-0.0152
510.1232	-0.019
510.3213	-0.0171
510.5193	-0.0061
510.7174	-0.0059
510.9154	-0.0184
511.1135	-0.0133
511.3115	-0.0121
511.5095	-0.0133
511.7075	-0.0063
511.9055	-0.0051
512.1034	-0.0243
512.3014	-0.0021
512.4993	-0.0086
512.6972	-0.0161
512.8951	-0.0196
513.093	-0.006
513.2908	-0.0097
513.4887	-0.0139
513.6865	-0.0105
513.8844	-0.0126
514.0822	-0.0169
514.2799	-0.0126
514.4777	-0.0185
514.6755	-0.0115
514.8732	-0.0178
515.0709	-0.0188
515.2687	-0.0054
515.4664	-0.0162
515.664	-0.015
515.8617	-0.0154
516.0594	-0.0138
516.257	-0.0072
516.4546	-0.0192
516.6522	-0.0116
516.8498	-0.0162
517.0474	-0.011
517.2449	-0.004
517.4425	-0.0163
517.64	-0.01
517.8375	-0.0067
518.035	-0.0074
518.2325	-0.0176
518.43	-0.0079
518.6274	-0.0129
518.8249	-0.0228
519.0223	-0.0134
519.2197	-0.0171
519.4171	-0.0142
519.6145	-0.0098
519.8118	-0.0118
520.0092	-0.0229
520.2065	-0.0157
520.4038	-0.022
520.6011	-0.0122
520.7984	-0.0199
520.9956	-0.0129
521.1929	-0.019
521.3901	-0.0012
521.5874	-0.0056
521.7846	-0.0087
521.9818	-0.0121
522.1789	-0.0139
522.3761	-0.012
522.5732	-0.0126
522.7704	-0.0069
522.9675	-0.0163
523.1646	-0.0114
523.3617	-0.0084
523.5587	-0.0106
523.7558	-0.0159
523.9528	-0.0101
524.1498	-0.0058
524.3468	-0.0107
524.5438	-0.014
524.7408	-0.0019
524.9378	-0.0048
525.1347	-0.0116
525.3316	-0.0011
525.5285	-0.0157
525.7254	-0.0093
525.9223	-0.0048
526.1192	-0.0055
526.316	-0.0116
526.5129	-0.0074
526.7097	-0.0033
526.9065	-0.0067
527.1033	-0.0042
527.3	-0.0055
527.4968	-0.0086
527.6935	-0.0104
527.8903	-0.0153
528.087	-0.0075
528.2837	-0.0066
528.4804	-0.0044
528.677	-0.0087
528.8737	-0.0124
529.0703	-0.0058
529.2669	-0.01
529.4635	-0.0169
529.6601	-0.0074
529.8567	-0.0055
530.0532	-0.0142
530.2498	-0.0031
530.4463	-0.0048
530.6428	-0.01
530.8393	-0.0017
531.0358	-0.0127
531.2322	-0.016
531.4287	-0.022
531.6251	-0.021
531.8215	0.0032
532.0179	-0.012
532.2143	-0.0026
532.4107	-0.0131
532.607	-0.0126
532.8034	-0.0024
532.9997	-0.0004
533.196	-0.0073
533.3923	-0.0154
533.5886	-0.0058
533.7848	0.0009
533.9811	0.0045
534.1773	-0.0051
534.3735	0.0015
534.5697	-0.0078
534.7659	-0.0191
534.9621	-0.0043
535.1582	-0.0184
535.3544	-0.0085
535.5505	-0.0083
535.7466	-0.0114
535.9427	-0.0066
536.1387	-0.0022
536.3348	-0.009
536.5308	-0.0029
536.7269	-0.0152
536.9229	-0.0018
537.1189	-0.0041
537.3148	-0.0045
537.5108	-0.0221
537.7068	-0.0065
537.9027	-0.0109
538.0986	-0.016
538.2945	-0.0113
538.4904	-0.0092
538.6863	-0.012
538.8821	-0.0168
539.078	-0.0059
539.2738	-0.0025
539.4696	-0.0141
539.6654	-0.0033
539.8611	0.0005
540.0569	-0.0067
540.2526	-0.0152
540.4484	-0.0096
540.6441	0.0009
540.8398	-0.0027
541.0355	-0.0049
541.2311	-0.0014
541.4268	-0.0151
541.6224	-0.0029
541.818	-0.0111
542.0136	-0.008
542.2092	-0.0136
542.4048	-0.004
542.6003	-0.0116
542.7959	-0.0126
542.9914	-0.0108
543.1869	-0.0076
543.3824	-0.0078
543.5779	-0.0113
543.7734	-0.0077
543.9688	-0.0171
544.1642	-0.0046
544.3596	-0.0043
544.555	-0.0065
544.7504	-0.001
544.9458	-0.0126
545.1411	-0.0038
545.3365	-0.005
545.5318	-0.0057
545.7271	-0.0086
545.9224	-0.0009
546.1177	0.0045
546.3129	-0.003
546.5081	-0.0113
546.7034	-0.0036
546.8986	-0.0144
547.0938	-0.0064
547.289	-0.0035
547.4841	0.0008
547.6793	0.0001
547.8744	-0.0143
548.0695	-0.0066
548.2646	-0.0087
548.4597	-0.001
548.6548	-0.0053
548.8498	0.0002
549.0448	-0.0052
549.2399	-0.0124
549.4349	0.0005
549.6298	-0.0074
549.8248	-0.0065
550.0198	-0.0042
550.2147	-0.008
550.4096	-0.0105
550.6045	-0.0094
550.7994	-0.0009
550.9943	-0.0012
551.1892	-0.0076
551.384	0.0027
551.5788	-0.0063
551.7737	-0.0031
551.9685	-0.0079
552.1632	-0.0025
552.358	-0.0034
552.5528	0.0042
552.7475	0.0026
552.9422	0.002
553.1369	-0.0017
553.3316	0.0013
553.5263	-0.0185
553.7209	-0.0032
553.9156	-0.0149
554.1102	-0.0049
554.3048	-0.0054
554.4994	0.011
554.694	-0.0015
554.8885	-0.0079
555.0831	-0.0037
555.2776	-0.0049
555.4721	-0.0074
555.6666	-0.0057
555.8611	0.0118
556.0555	-0.0002
556.25	-0.0009
556.4444	-0.0108
556.6388	-0.0077
556.8332	-0.0041
557.0276	-0.0074
557.222	-0.0064
557.4163	-0.0045
557.6107	-0.0115
557.805	0.0027
557.9993	-0.0081
558.1936	0.0031
558.3879	-0.0059
558.5821	-0.0014
558.7764	-0.0045
558.9706	0.0012
559.1648	0.0049
559.359	-0.0134
559.5532	-0.0117
559.7473	-0.0045
559.9415	0.0024
560.1356	-0.008
560.3297	-0.0137
560.5238	-0.0112
560.7179	-0.0069
560.9119	-0.0109
561.106	-0.0025
561.3	-0.0051
561.494	-0.002
561.688	-0.0154
561.882	-0.0114
562.076	-0.007
562.2699	0.0063
562.4639	-0.0036
562.6578	-0.006
562.8517	-0.0007
563.0456	-0.0087
563.2395	0.0019
563.4333	-0.0013
563.6272	0.0051
563.821	-0.0065
564.0148	-0.0051
564.2086	-0.011
564.4024	-0.0077
564.5961	-0.0064
564.7899	0.0021
564.9836	-0.0086
565.1773	-0.0051
565.371	0.004
565.5647	0.001
565.7584	-0.0004
565.952	-0.0012
566.1456	0.0011
566.3393	-0.0026
566.5329	-0.0103
566.7264	-0.0024
566.92	-0.0149
567.1136	-0.0039
567.3071	-0.0021
567.5006	0.0027
567.6941	-0
567.8876	-0.0023
568.0811	-0.0038
568.2745	-0.0014
568.468	-0.0007
568.6614	0.0004
568.8548	-0.0028
569.0482	-0.0019
569.2416	-0.0027
569.4349	-0.0016
569.6283	0.0022
569.8216	-0.0017
570.0149	-0.0079
570.2082	0.0004
570.4015	0.0062
570.5947	0.0008
570.788	-0.0012
570.9812	0.0082
571.1744	-0.0033
571.3676	-0.0048
571.5608	-0.0042
571.754	-0.0016
571.9471	0.0068
572.1402	0.0012
572.3333	-0.0026
572.5264	-0.0029
572.7195	-0.0019
572.9126	-0.0013
573.1057	-0.0041
573.2987	-0.0047
573.4917	0.0017
573.6847	-0.0038
573.8777	0.0015
574.0707	0.0058
574.2636	-0.0006
574.4566	-0.0045
574.6495	0.006
574.8424	-0.0032
575.0353	-0.0062
575.2281	0.0061
575.421	-0.0037
575.6138	0.0038
575.8067	0.0007
575.9995	0.0015
576.1923	0.0061
576.385	-0.0039
576.5778	-0.002
576.7706	0.0067
576.9633	0.0003
577.156	0.0082
577.3487	-0.0041
577.5414	0.0027
577.734	-0.0037
577.9267	0.0057
578.1193	-0.0101
578.3119	-0.0053
578.5045	-0.0035
578.6971	-0.0048
578.8897	0.0044
579.0822	0.0016
579.2747	-0.0027
579.4673	-0.0039
579.6598	-0.0075
579.8522	-0.0035
580.0447	-0.0086
580.2372	0.0006
580.4296	0.002
580.622	-0.0077
580.8144	-0.0039
581.0068	-0.0066
581.1992	-0.0109
581.3915	-0.0047
581.5839	-0.008
581.7762	-0.0072
581.9685	0.0007
582.1608	0.0029
582.353	-0.0031
582.5453	-0.0026
582.7375	-0.0003
582.9298	0.0022
583.122	-0.0002
583.3142	-0.0062
583.5063	-0.0046
583.6985	-0.0025
583.8906	-0.0086
584.0827	-0.0017
584.2749	0.002
584.4669	-0.002
584.659	-0.0028
584.8511	-0.0044
585.0431	-0.0027
585.2352	0.0023
585.4272	-0.006
585.6192	0.0036
585.8111	0.0015
586.0031	-0.0029
586.195	0.0004
586.387	0.0048
586.5789	-0.0031
586.7708	-0.0006
586.9627	-0.0011
587.1545	-0.0049
587.3464	0.0055
587.5382	-0.0001
587.73	0.0064
587.9218	0.0056
588.1136	-0.0003
588.3053	0.0058
588.4971	-0.0041
588.6888	-0.0075
588.8805	-0.004
589.0722	0.0038
589.2639	0.0043
589.4556	-0.0015
589.6472	-0.0072
589.8389	-0.0088
590.0305	-0.004
590.2221	0.002
590.4137	-0.0034
590.6052	0.0051
590.7968	-0.0022
590.9883	-0.0006
591.1798	-0.0003
591.3713	-0.0005
591.5628	-0.0022
591.7543	0.0038
591.9458	0.001
592.1372	0.0019
592.3286	0.0032
592.52	0.0016
592.7114	-0.0049
592.9028	-0.0033
593.0941	-0.0035
593.2855	0.0025
593.4768	-0.0052
593.6681	-0.0099
593.8594	-0.0053
594.0506	-0.0094
594.2419	0.0081
594.4331	0.0054
594.6244	0.0012
594.8156	-0.0092
595.0067	0.0059
595.1979	0.0039
595.3891	0.0065
595.5802	-0.0036
595.7713	-0.0051
595.9624	-0.0063
596.1535	-0
596.3446	-0.0051
596.5357	-0.0017
596.7267	0.0052
596.9177	-0.008
597.1087	-0.0097
597.2997	-0.0022
597.4907	0.0004
597.6817	-0.0016
597.8726	-0.0032
598.0635	-0.0067
598.2544	0.0012
598.4453	-0.0034
598.6362	-0.0053
598.827	-0.009
599.0179	0.0034
599.2087	0.0037
599.3995	0.0021
599.5903	-0.0034
599.7811	0.0043
599.9718	-0.003
600.1626	-0.0021
600.3533	-0.0032
600.544	0.0038
600.7347	0.0009
600.9254	-0.002
601.116	-0.0081
601.3067	0.0013
601.4973	-0.0089
601.6879	0.0039
601.8785	-0.006
602.0691	0.0064
602.2596	0.002
602.4502	0.0027
602.6407	-0.0042
602.8312	-0.0056
603.0217	-0.0137
603.2122	0.0046
603.4027	0.0022
603.5931	0.0063
603.7835	-0.0013
603.9739	-0.0094
604.1643	-0.0072
604.3547	-0.0038
604.5451	-0.001
604.7354	-0.0045
604.9257	-0.0045
605.116	-0.0051
605.3063	-0.0037
605.4966	0.0015
605.6869	0.0018
605.8771	-0.0006
606.0673	0.0056
606.2575	0.0043
606.4477	0.005
606.6379	-0.0004
606.8281	0.0018
607.0182	0.0028
607.2083	0.016
607.3985	-0.0036
607.5885	0.0004
607.7786	0.0035
607.9687	-0.0082
608.1587	-0.0013
608.3488	-0.0015
608.5388	0.0035
608.7288	-0.0058
608.9187	-0.0071
609.1087	-0.0105
609.2986	-0.0093
609.4886	-0.0031
609.6785	-0.0014
609.8684	0.0016
610.0582	0.0055
610.2481	-0.0022
610.4379	0.0006
610.6278	-0.0014
610.8176	-0.0043
611.0074	-0.0042
611.1971	0.0024
611.3869	-0.0022
611.5766	-0.0031
611.7664	0.0068
611.9561	0.0029
612.1458	0.0012
612.3354	-0.0068
612.5251	-0.0013
612.7147	-0.0012
612.9044	0.006
613.094	-0.0106
613.2836	0.0043
613.4731	-0.0044
613.6627	-0.0101
613.8522	-0.006
614.0417	0.0004
614.2313	-0.0002
614.4207	-0.0028
614.6102	-0
614.7997	-0.0029
614.9891	-0.006
615.1785	0.002
615.3679	-0.0016
615.5573	0.0049
615.7467	0.0004
615.9361	-0.0064
616.1254	-0.0033
616.3147	0.0016
616.504	0.0022
616.6933	0.0047
616.8826	0.0005
617.0718	0.0052
617.2611	0.0041
617.4503	-0.009
617.6395	-0.0017
617.8287	-0.0085
618.0179	0.0019
618.207	0.0075
618.3961	-0.0008
618.5853	0.0031
618.7744	0.0048
618.9634	0.0089
619.1525	0.0016
619.3416	-0.001
619.5306	0.0024
619.7196	-0.0031
619.9086	-0.006
620.0976	-0.0016
620.2866	-0.0066
620.4755	0.0059
620.6645	0.0024
620.8534	0.0067
621.0423	0.0061
621.2312	0.0095
621.42	0.0032
621.6089	0.003
621.7977	0.0054
621.9865	-0.008
622.1753	-0.0006
622.3641	-0.0043
622.5529	0.0039
622.7416	0.0051
622.9303	-0.0069
623.1191	0.0006
623.3078	-0.0051
623.4964	-0.0054
623.6851	-0.0008
623.8737	0.0017
624.0624	0.0052
624.251	-0.0023
624.4396	-0.006
624.6282	-0.0049
624.8167	-0.0041
625.0053	0.0043
625.1938	-0.0004
625.3823	0.0012
625.5708	0.0028
625.7593	-0.0051
625.9477	-0.0035
626.1362	-0.0061
626.3246	0.0007
626.513	0.0044
626.7014	0.0029
626.8898	-0.006
627.0781	-0.0095
627.2665	-0.0084
627.4548	0.0028
627.6431	-0.0027
627.8314	0.0016
628.0197	-0.0039
628.2079	-0.0034
628.3962	-0.0082
628.5844	0.0037
628.7726	0.0052
628.9608	0.0044
629.1489	-0.0014
629.3371	-0.003
629.5252	0.0011
629.7134	0.0036
629.9015	0.0005
630.0895	0.0026
630.2776	0.0021
630.4657	0.0003
630.6537	0.0035
630.8417	0.0011
631.0297	0.0032
631.2177	0.0005
631.4057	-0.003
631.5936	0.0027
631.7815	0.0031
631.9695	0.0068
632.1574	0.0094
632.3452	0.0153
632.5331	0.0017
632.7209	0.0005
632.9088	0.0157
633.0966	0.0046
633.2844	-0.004
633.4722	0.0027
633.6599	0.0058
633.8477	0.0035
634.0354	-0.002
634.2231	-0.0015
634.4108	0.0003
634.5985	0.0081
634.7861	0.0076
634.9738	-0.0019
635.1614	-0.001
635.349	0.001
635.5366	-0.0018
635.7242	0.0001
635.9117	-0.0031
636.0993	-0.0001
636.2868	0.0048
636.4743	0.0055
636.6618	0.0059
636.8492	0.0005
637.0367	0.0012
637.2241	-0.0024
637.4115	-0.0007
637.5989	-0
637.7863	-0.0013
637.9737	-0.0027
638.161	-0.0007
638.3484	-0.0004
638.5357	-0.0011
638.723	-0.0038
638.9103	0.0068
639.0975	0.0117
639.2848	0.0083
639.472	0.0051
639.6592	0.0059
639.8464	0.0111
640.0336	0.0044
640.2208	-0.0004
640.4079	0.0005
640.595	0.0066
640.7821	-0.0009
640.9692	0.0063
641.1563	0.007
641.3434	0.002
641.5304	0.0001
641.7174	0.0061
641.9044	0.0049
642.0914	0.0089
642.2784	0.0145
642.4653	0.0062
642.6523	0.0039
642.8392	-0
643.0261	0.0114
643.213	0.0015
643.3999	-0.0091
643.5867	-0.002
643.7735	0.001
643.9604	0.0003
644.1472	0.0015
644.3339	0.0031
644.5207	0.0044
644.7075	0.0006
644.8942	0.0069
645.0809	0.0059
645.2676	0.0078
645.4543	0.006
645.6409	-0.0001
645.8276	0.0031
646.0142	0.0103
646.2008	0.0001
646.3874	-0.0037
646.574	-0.0021
646.7605	-0.0083
646.9471	-0.0093
647.1336	-0.0028
647.3201	0.0025
647.5066	0.0007
647.6931	0.0093
647.8795	-0.002
648.0659	0.0041
648.2524	0.0081
648.4388	-0.0007
648.6252	-0.0024
648.8115	0.0015
648.9979	0.0011
649.1842	-0.0005
649.3705	0.0043
649.5568	0.0046
649.7431	0.0017
649.9294	0.0039
650.1156	0.0009
650.3018	-0.0087
650.488	0.0042
650.6742	0.0029
650.8604	-0.0042
651.0466	-0.002
651.2327	-0.0049
651.4188	0.0039
651.6049	-0.0028
651.791	-0.0034
651.9771	0.0057
652.1632	0.0028
652.3492	-0.0004
652.5352	-0.0005
652.7212	-0.0039
652.9072	0.002
653.0932	-0.0036
653.2791	-0.012
653.465	-0.0005
653.651	-0.0054
653.8369	-0.0023
654.0227	-0.0005
654.2086	0.0007
654.3944	0.0055
654.5803	-0.0005
654.7661	-0.002
654.9519	0.0025
655.1377	-0.0054
655.3234	-0.0006
655.5092	-0.003
655.6949	-0.0056
655.8806	-0.0073
656.0663	-0.0034
656.2519	-0.0023
656.4376	-0.002
656.6232	0.0061
656.8088	-0.0019
656.9945	0.0021
657.18	0.0015
657.3656	-0.0028
657.5511	-0.0025
657.7367	-0.0063
657.9222	0.0073
658.1077	-0.0024
658.2932	0.0057
658.4786	-0.0045
658.6641	-0.0004
658.8495	-0.003
659.0349	-0.0003
659.2203	0.0013
659.4057	-0.0028
659.591	-0.0019
659.7764	-0.0028
659.9617	0.0032
660.147	0.0038
660.3323	0.001
660.5176	0.0153
660.7028	0.0003
660.888	-0.0016
661.0733	0.0047
661.2585	-0.0077
661.4436	-0.0013
661.6288	-0.0037
661.8139	-0.0065
661.9991	0.0095
662.1842	0.0038
662.3693	0.0022
662.5544	0.0012
662.7394	-0.0034
662.9245	0.0042
663.1095	0.0057
663.2945	-0.0033
663.4795	0.0006
663.6644	0.0082
663.8494	0.0014
664.0343	0.0033
664.2193	-0.0043
664.4042	0.0002
664.589	-0.008
664.7739	-0.0016
664.9587	-0.0063
665.1436	-0.0067
665.3284	-0.0023
665.5132	-0.0054
665.698	-0.0005
665.8827	0.0081
666.0675	-0.0039
666.2522	-0.0079
666.4369	0.0028
666.6216	0.0092
666.8063	0.0045
666.9909	0.0044
667.1756	0.0017
667.3602	-0.0017
667.5448	-0.0046
667.7294	0.0152
667.9139	0.0085
668.0985	0.0095
668.283	-0.0013
668.4675	0.0037
668.652	0.0016
668.8365	0.001
669.0209	-0.0007
669.2054	0.0103
669.3898	0.0015
669.5742	0.0077
669.7586	0.0026
669.943	0.006
670.1273	0.0007
670.3117	0.0017
670.496	0.0018
670.6803	0.0154
670.8646	0.0012
671.0488	-0.0082
671.2331	0.0029
671.4173	0.004
671.6015	-0.0006
671.7857	0.0083
671.9699	0.0029
672.1541	0.0013
672.3382	-0.0016
672.5223	0.0064
672.7064	0.0001
672.8905	0.0076
673.0746	0.0002
673.2587	0.0009
673.4427	0.0008
673.6267	0.0068
673.8107	0.0088
673.9947	-0.0002
674.1787	-0.0053
674.3626	-0.0024
674.5465	0.0049
674.7304	0.0072
674.9143	0.0049
675.0982	0.0173
675.2821	-0.0066
675.4659	0.0011
675.6497	0.0009
675.8335	-0.0022
676.0173	-0.0013
676.2011	0.0037
676.3849	-0.001
676.5686	-0.0123
676.7523	0.0025
676.936	0.0037
677.1197	-0
677.3034	-0.0097
677.487	0.0068
677.6706	-0.0033
677.8542	0.0015
678.0378	-0.0011
678.2214	-0.0021
678.405	-0.0036
678.5885	-0.0078
678.772	-0.0012
678.9555	-0.0066
679.139	-0.0034
679.3225	0.0015
679.5059	-0.0055
679.6894	-0.0004
679.8728	0.0031
680.0562	-0.0049
680.2395	-0.0079
680.4229	0.0043
680.6062	0.0079
680.7896	0.0074
680.9729	-0.0113
681.1562	-0.0001
681.3394	-0.0024
681.5227	-0.0063
681.7059	-0.0036
681.8891	0.0003
682.0723	0.0039
682.2555	-0.001
682.4387	-0.0011
682.6218	0.0002
682.805	0.0045
682.9881	0.0019
683.1712	-0.0035
683.3542	-0.0032
683.5373	-0.0025
683.7203	-0.0048
683.9034	-0.0005
684.0864	-0.0016
684.2694	-0.0001
684.4523	0.0042
684.6353	-0.013
684.8182	-0.0003
685.0011	-0.0139
685.184	0.0009
685.3669	0.0005
685.5498	0.0025
685.7326	0.0026
685.9154	-0.0094
686.0982	0.009
686.281	0.0114
686.4638	0.0097
686.6465	-0.0055
686.8293	-0.0007
687.012	0.0021
687.1947	-0.0129
687.3774	0.0012
687.56	0.0026
687.7427	0.006
687.9253	-0.0045
688.1079	-0.0021
688.2905	0.0049
688.4731	-0.0043
688.6556	-0.0092
688.8382	-0.0089
689.0207	-0.0025
689.2032	-0.012
689.3857	-0.0085
689.5681	0.0018
689.7506	-0.0142
689.933	-0.004
690.1154	-0.0042
690.2978	0.0022
690.4802	-0.004
690.6626	-0.0115
690.8449	-0.0091
691.0272	-0.0013
691.2095	-0.0079
691.3918	-0.0055
691.5741	-0.0009
691.7563	-0.0063
691.9386	0.0051
692.1208	-0.0049
692.303	0.0014
692.4852	-0.0037
692.6673	0.0005
692.8495	-0.0052
693.0316	-0.0064
693.2137	-0.0019
693.3958	0.0045
693.5778	-0.0084
693.7599	0.0045
693.9419	0.0049
694.1239	0.0024
694.3059	-0.0081
694.4879	-0.0002
694.6699	0.0087
694.8518	0.0026
695.0337	-0.002
695.2157	0.0013
695.3975	0.0043
695.5794	0.0044
695.7613	0.0049
695.9431	-0.0009
696.1249	-0.0024
696.3067	0.0011
696.4885	0.0095
696.6703	-0.0072
696.852	0.0029
697.0337	0.0034
697.2154	0.0001
697.3971	0.0011
697.5788	0.0032
697.7605	0.0034
697.9421	0.0005
698.1237	-0.0014
698.3053	0.0053
698.4869	0.0007
698.6685	-0.0112
698.85	-0.006
699.0315	0.0055
699.213	-0.0035
699.3945	0.0015
699.576	0.0068
699.7575	-0.0014
699.9389	-0.0011
700.1203	-0.0059
700.3017	-0.0093
700.4831	-0.0004
700.6645	-0.0059
700.8458	-0.0072
701.0271	-0.0104
701.2084	0.0076
701.3897	-0.0009
701.571	0.0014
701.7523	-0.0037
701.9335	0.0032
702.1147	-0.0069
702.2959	0.0055
702.4771	0.0001
702.6583	0.0013
702.8394	-0.0086
703.0205	0.0021
703.2016	-0.0026
703.3827	-0.0017
703.5638	0.0048
703.7449	-0.0008
703.9259	0.0043
704.1069	-0.0045
704.2879	0.0031
704.4689	0.0036
704.6499	-0.0015
704.8308	0.0036
705.0117	0.0018
705.1927	-0.009
705.3735	0.0078
705.5544	-0.0001
705.7353	-0.0025
705.9161	-0.0069
706.0969	-0.0143
706.2777	-0.0012
706.4585	0.0012
706.6393	0.0037
706.82	0.0042
707.0007	0.0015
707.1815	-0.0005
707.3621	0.0059
707.5428	-0.0018
707.7235	-0.0047
707.9041	0.0007
708.0847	-0.0124
708.2653	-0.0116
708.4459	-0.0128
708.6265	-0.0021
708.807	0.0034
708.9875	0.0016
709.168	-0.006
709.3485	-0.0037
709.529	-0.0041
709.7095	-0.0119
709.8899	-0.0016
710.0703	-0.0073
710.2507	-0.0009
710.4311	-0.0055
710.6115	-0.0106
710.7918	-0.0093
710.9721	0.0002
711.1524	-0.0051
711.3327	0.0032
711.513	-0.0044
711.6932	0.0004
711.8735	0.0042
712.0537	-0.0009
712.2339	0.002
712.4141	-0.0093
712.5942	-0.0089
712.7744	0.0023
712.9545	-0.0092
713.1346	-0.0153
713.3147	-0.0079
713.4947	-0.0026
713.6748	0.0003
713.8548	0.0025
714.0348	-0.0005
714.2148	-0.0061
714.3948	0.0013
714.5748	-0.0046
714.7547	-0.0057
714.9346	-0.0034
715.1145	-0.005
715.2944	-0.0017
715.4743	-0.0056
715.6541	-0.0083
715.834	0.0003
716.0138	-0.0069
716.1936	-0.0109
716.3733	-0.0137
716.5531	0.0051
716.7328	-0.0033
716.9126	-0.0028
717.0923	0.0072
717.2719	0.0055
717.4516	0.0017
717.6312	0.0016
717.8109	-0.0002
717.9905	0.0033
718.1701	-0.0071
718.3496	-0.0151
718.5292	-0.0019
718.7087	-0.0026
718.8882	-0.0077
719.0677	-0.0041
719.2472	-0.0062
719.4267	-0.0015
719.6061	-0.0042
719.7856	0.0034
719.965	0.0063
720.1443	0.0016
720.3237	0.0119
720.5031	0.0065
720.6824	0.0063
720.8617	0.0002
721.041	0.0005
721.2203	0.0029
721.3995	0.0008
721.5788	-0.0003
721.758	0.0012
721.9372	0.0029
722.1164	0.0023
722.2956	-0.0038
722.4747	-0.0015
722.6538	-0.0047
722.8329	0.0089
723.012	0.0028
723.1911	0.0028
723.3702	0.0047
723.5492	0.0121
723.7282	0.0005
723.9072	0.0057
724.0862	-0.0017
724.2652	-0.0037
724.4441	0.0001
724.623	-0.006
724.8019	-0.0025
724.9808	0.0037
725.1597	-0.0046
725.3385	0.0018
725.5174	-0.0077
725.6962	-0.0051
725.875	-0.0016
726.0538	0.0039
726.2325	0.0047
726.4112	0.0023
726.59	-0.0083
726.7687	-0.0036
726.9474	0.0086
727.126	0.0005
727.3047	-0.0022
727.4833	-0.0028
727.6619	-0.0049
727.8405	0.0016
728.0191	0.0018
728.1976	-0.0018
728.3762	0.004
728.5547	-0.0045
728.7332	-0.0133
728.9116	-0.0086
729.0901	0.0016
729.2686	-0.0071
729.447	-0.0011
729.6254	-0.0025
729.8038	-0.0039
729.9821	-0.0042
730.1605	-0.0016
730.3388	-0.002
730.5171	0.0007
730.6954	-0.0081
730.8737	0.0032
731.0519	0.009
731.2302	-0.0006
731.4084	0.0054
731.5866	-0.0009
731.7648	-0.0047
731.9429	-0.0028
732.1211	-0.0145
732.2992	-0.0067
732.4773	-0.012
732.6554	-0.0084
732.8335	0.0002
733.0115	-0.003
733.1896	0.0014
733.3676	-0.0163
733.5456	-0
733.7235	0.0028
733.9015	-0.0021
734.0794	-0.0098
734.2574	-0.0024
734.4353	-0.0065
734.6131	0.0075
734.791	-0.0022
734.9689	0.0038
735.1467	0.0004
735.3245	-0.0136
735.5023	-0.0153
735.68	0.0044
735.8578	0.0056
736.0355	-0.0192
736.2132	-0.0098
736.3909	-0.0058
736.5686	-0.01
736.7463	0.0008
736.9239	-0.0004
737.1015	-0.0075
737.2791	0.001
737.4567	0.0024
737.6343	-0.0004
737.8118	0.0004
737.9894	0.0062
738.1669	-0.0096
738.3444	-0.0072
738.5218	0.003
738.6993	0.0057
738.8767	-0.007
739.0541	0.0102
739.2315	-0.0051
739.4089	-0.0006
739.5863	0.0026
739.7636	-0.0019
739.9409	0.0029
740.1182	0.0094
740.2955	0.0067
740.4728	-0.0003
740.65	-0.0019
740.8272	-0.002
741.0044	-0.0082
741.1816	-0.0018
741.3588	-0.0002
741.5359	-0.0077
741.7131	-0.0143
741.8902	-0.0079
742.0673	-0.005
742.2444	-0.0086
742.4214	-0.0174
742.5985	-0.0115
742.7755	-0.0071
742.9525	-0.02
743.1295	-0.0022
743.3064	-0.011
743.4834	-0.0005
743.6603	-0.0121
743.8372	-0.0113
744.0141	0.0037
744.191	0.0009
744.3678	-0.0013
744.5446	0.0022
744.7215	-0.0003
744.8982	-0.0111
745.075	-0.0164
745.2518	-0.0006
745.4285	-0.0051
745.6052	-0.0049
745.7819	-0.0116
745.9586	-0.0101
746.1353	-0.0076
746.3119	-0.0162
746.4885	-0.0067
746.6651	-0.0056
746.8417	0.0063
747.0183	0.0001
747.1948	-0.0084
747.3714	0.0026
747.5479	0.0048
747.7244	-0.0047
747.9008	0.0068
748.0773	-0.0064
748.2537	-0.0027
748.4301	-0.0016
748.6065	-0.0045
748.7829	-0.0049
748.9593	-0.0071
749.1356	-0.0047
749.3119	0.0108
749.4882	-0.0065
749.6645	0.0019
749.8408	-0.011
750.017	-0.0034
750.1933	-0.0004
750.3695	-0.0166
750.5457	0.0063
750.7218	-0.0038
750.898	0.0041
751.0741	-0.0091
751.2502	-0.0077
751.4263	-0.0007
751.6024	0.0008
751.7784	0.0008
751.9545	-0.0066
752.1305	0.0032
752.3065	-0.0081
752.4825	-0.0024
752.6584	-0.0046
752.8344	-0.0091
753.0103	-0.007
753.1862	-0.0068
753.3621	-0.0017
753.5379	-0.0035
753.7138	-0.0014
753.8896	0.0004
754.0654	0.0056
754.2412	0.0103
754.417	0.008
754.5927	-0.0031
754.7685	0.0018
754.9442	-0.0026
755.1199	0.0092
755.2956	-0.007
755.4712	0.0131
755.6469	0.005
755.8225	-0.0024
755.9981	-0.0045
756.1736	0.0045
756.3492	0.0022
756.5248	-0.004
756.7003	-0.0012
756.8758	0.0143
757.0513	0.0001
757.2267	-0.0027
757.4022	0.0007
757.5776	-0.0127
757.753	-0.0011
757.9284	0.0007
758.1038	0.0049
758.2791	-0.0107
758.4545	-0.0115
758.6298	-0.0093
758.8051	-0.0019
758.9803	0.0028
759.1556	-0.0088
759.3308	-0.0048
759.506	0.0099
759.6812	0.0024
759.8564	0.0031
760.0316	-0.0015
760.2067	0.0082
760.3819	0.0053
760.557	0.0115
760.732	0.0016
760.9071	-0.0146
761.0821	0.0112
761.2572	0.0156
761.4322	0.0011
761.6072	0.0008
761.7821	0.0012
761.9571	0.0097
762.132	0.0043
762.3069	-0.0067
762.4818	-0.0034
762.6567	0.0012
762.8316	-0.0009
763.0064	-0.0021
763.1812	0.0036
763.356	-0.0045
763.5308	-0.0011
763.7055	-0.0063
763.8803	-0.0016
764.055	-0.0014
764.2297	-0.004
764.4044	0.0009
764.579	-0.0036
764.7537	-0.0191
764.9283	-0.005
765.1029	-0.0049
765.2775	-0.0021
765.4521	-0.013
765.6266	-0.0095
765.8011	-0.0159
765.9756	-0.0008
766.1501	0.0062
766.3246	-0.0001
766.4991	-0.0042
766.6735	-0.0023
766.8479	-0.0099
767.0223	0.0114
767.1967	0.0083
767.371	0.0048
767.5454	0.0005
767.7197	0.0024
767.894	-0.0053
768.0683	-0.0133
768.2425	0.0016
768.4168	0.0007
768.591	0.0029
768.7652	-0.0045
768.9394	-0.0115
769.1135	-0.0014
769.2877	0.0023
769.4618	0.0005
769.6359	-0.0043
769.81	0.0046
769.984	-0.0022
770.1581	-0.0107
770.3321	0.0065
770.5061	0.0001
770.6801	0.0041
770.8541	-0.0084
771.028	0.0025
771.202	-0.0129
771.3759	0.0174
771.5498	-0.0033
771.7236	0.0056
771.8975	0.0028
772.0713	0.014
772.2451	-0.0035
772.4189	0.0079
772.5927	0.01
772.7665	-0.0016
772.9402	0.0047
773.1139	-0.0015
773.2876	0.0004
773.4613	0.0133
773.635	0.0066
773.8086	-0.0185
773.9822	0.0075
774.1558	0.0074
774.3294	-0.0088
774.503	-0.0011
774.6765	-0.0045
774.8501	0.0196
775.0236	0.0025
775.1971	0.0032
775.3705	-0.0138
775.544	0.0055
775.7174	-0.0104
775.8908	-0.0031
776.0642	-0.0064
776.2376	0.001
776.4109	-0.025
776.5843	-0.0079
776.7576	0.0056
776.9309	0.0145
777.1041	0.0044
777.2774	0.0029
777.4506	0.0101
777.6238	-0.0023
777.797	0.0003
777.9702	-0.0018
778.1434	-0.0091
778.3165	-0.0175
778.4896	0.0036
778.6627	0.012
778.8358	0.004
779.0089	0.0015
779.1819	-0.0109
779.3549	0.0091
779.5279	0.0059
779.7009	-0.0009
779.8739	0.019
780.0468	-0.0037
780.2197	-0.0039
780.3926	-0.0081
780.5655	-0.0012
780.7384	-0.0051
780.9112	-0.0021
781.0841	0.0008
781.2569	-0.0065
781.4297	-0.0093
781.6024	0.0053
781.7752	0.0023
781.9479	0.0011
782.1206	-0.0049
782.2933	-0.0205
782.466	-0.0009
782.6386	-0.0049
782.8113	-0.0008
782.9839	0.001
783.1565	0.0166
783.329	0.0049
783.5016	0.0117
783.6741	0.0046
783.8466	-0.0065
784.0191	0.0108
784.1916	-0.0054
784.3641	0.0017
784.5365	0.0024
784.7089	0.0044
784.8813	-0.0054
785.0537	-0.0158
785.2261	-0.0017
785.3984	-0.0122
785.5707	-0.0022
785.743	-0.0121
785.9153	-0.0021
786.0876	-0.0105
786.2598	-0.0146
786.432	-0.0211
786.6042	-0.0013
786.7764	-0.0077
786.9486	0.0065
787.1207	-0.011
787.2928	0.0061
787.4649	0.0129
787.637	-0.0036
787.8091	-0.0033
787.9811	0.0068
788.1532	0.0047
788.3252	-0.0029
788.4972	-0.0014
788.6691	-0.009
788.8411	0.0126
789.013	-0.0021
789.1849	0.0102
789.3568	0.0001
789.5287	0.0007
789.7005	-0.0033
789.8723	-0.0055
790.0442	0.0179
790.2159	0.0055
790.3877	-0.0024
790.5595	-0.02
790.7312	-0.002
790.9029	-0.0045
791.0746	-0.0109
791.2463	-0.0086
791.4179	-0.0076
791.5896	-0.0118
791.7612	0.0086
791.9328	0.0059
792.1044	-0.0208
792.2759	-0.0193
792.4474	-0.0175
792.619	-0.0037
792.7905	-0.0014
792.9619	-0.0092
793.1334	0.0112
793.3048	0.0092
793.4762	-0.0072
793.6476	0.0108
793.819	0.0044
793.9904	0.0071
794.1617	-0.008
794.333	0.0046
794.5043	-0.0148
794.6756	-0.0093
794.8469	-0.0047
795.0181	-0.0056
795.1893	-0.0007
795.3605	-0.0061
795.5317	-0.0077
795.7029	-0.0134
795.874	-0.0036
796.0452	-0.017
796.2163	0.0015
796.3873	0.0082
796.5584	0.0024
796.7294	-0.0073
796.9005	0.0143
797.0715	0.0031
797.2425	-0.0168
797.4134	-0.0156
797.5844	0.0005
797.7553	-0.0079
797.9262	-0
798.0971	-0.0107
798.2679	-0.0133
798.4388	-0.0154
798.6096	-0.0052
798.7804	-0.011
798.9512	-0.0002
799.122	-0.0186
799.2927	0.0005
799.4635	0.0141
799.6342	-0.0032
799.8049	-0.0117
799.9755	-0.0127
800.1462	-0.0025
800.3168	0.0203
800.4874	0.0048
800.658	0.0214
800.8286	0.0096
800.9991	0.0072
801.1696	0.0045
801.3402	0.0188
801.5106	0.0024
801.6811	0.0016
801.8516	-0.0017
802.022	-0.0023
802.1924	0.0049
802.3628	-0.0037
802.5332	-0
802.7035	0.0312
802.8739	-0.0034
803.0442	-0.0242
803.2145	0.0215
803.3847	-0.0198
803.555	0.0066
803.7252	-0.0014
803.8954	-0.0079
804.0656	-0.0211
804.2358	0.0028
804.4059	0.0156
804.5761	-0.0109
804.7462	-0.0029
804.9163	-0.0177
805.0864	-0.0185
805.2564	-0.0081
805.4264	-0.0122
805.5965	-0.0104
805.7665	0.0004
805.9364	-0.0051
806.1064	0.0251
806.2763	-0.0056
806.4462	0.0202
806.6161	0.0015
806.786	-0.0095
806.9559	-0.0161
807.1257	-0
807.2955	0.0011
807.4653	-0.0233
807.6351	-0.0186
807.8048	-0.0132
807.9746	-0.0167
808.1443	-0.0023
808.314	-0.0102
808.4837	-0.01
808.6533	-0.0106
808.8229	0.012
808.9926	-0.005
809.1622	0.0014
809.3317	-0.0098
809.5013	-0.0236
809.6708	0.0088
809.8403	0.0189
810.0098	-0.0018
810.1793	0.0015
810.3488	-0.0087
810.5182	-0.0096
810.6876	0.0038
810.857	-0.0027
811.0264	0.0248
811.1958	0.0156
811.3651	-0.0091
811.5344	-0.0082
811.7037	-0.0255
811.873	-0.0115
812.0422	-0.0091
812.2115	0.0005
812.3807	-0.0174
812.5499	-0.0043
812.7191	0.0158
812.8882	-0.0281
813.0574	0.0075
813.2265	-0.0006
813.3956	-0.011
813.5646	0.0038
813.7337	-0.0191
813.9027	0.0145
814.0718	0.017
814.2407	0.01
814.4097	-0.0186
814.5787	-0.0211
814.7476	-0.0012
814.9165	-0.018
815.0854	-0.0111
815.2543	0.004
815.4232	-0.0244
815.592	0.0125
815.7608	-0.0097
815.9296	0.0097
816.0984	0.0167
816.2671	-0.0129
816.4359	-0.014
816.6046	-0.001
816.7733	-0.0019
816.942	-0.0359
817.1106	0.0048
817.2793	-0.0172
817.4479	-0.0085
817.6165	-0.0022
817.785	-0.0026
817.9536	-0.0271
818.1221	-0.0058
818.2906	0.0077
818.4591	-0.0098
818.6276	-0.0247
818.7961	-0.003
818.9645	-0.0141
819.1329	-0.0138
819.3013	0.0109
819.4697	0.0282
819.638	-0.0218
819.8064	0.0047
819.9747	-0.0164
820.143	-0.0132
820.3113	-0.0001
820.4795	0.0017
820.6477	0.015
820.816	-0.0297
820.9842	0.0135
821.1523	0.0116
821.3205	-0.0015
821.4886	-0.0139
821.6567	0.016
821.8248	0.0133
821.9929	0.0273
822.1609	-0.017
822.329	0.0072
822.497	0.0099
822.665	-0.032
822.833	-0.0285
823.0009	0.0183
823.1688	-0.0001
823.3367	0.0155
823.5046	0.0135
823.6725	0.0395
823.8404	-0.0005
824.0082	-0.012
824.176	0.0087
824.3438	0.0076
824.5116	-0.048
824.6793	0.0045
824.847	-0.0273
825.0147	-0.0056
825.1824	0.0301
825.3501	0.0197
825.5177	-0.0162
825.6854	-0.0005
825.853	0.0062
826.0206	-0.0447
826.1881	-0.012
826.3557	-0.0462
826.5232	-0.0014
826.6907	-0.0326
826.8582	-0.0251
827.0257	-0.0265
827.1931	0.0081
827.3605	0.0063
827.528	-0.0183
827.6953	-0.0173
827.8627	-0.0111
828.03	0.0181
828.1974	0.0004
828.3647	-0.0534
828.532	-0.0127
828.6992	-0.0103
828.8665	-0.0156
829.0337	-0.0237
829.2009	-0.0006
829.3681	-0.0047
829.5352	0.0255
829.7024	-0.0236
829.8695	-0.0262
830.0366	0.0278
830.2037	-0.0016
830.3707	-0.0001
830.5378	-0.008
830.7048	0.0104
830.8718	-0.0098
831.0388	-0.0279
831.2057	-0.0168
831.3727	0.018
831.5396	-0.0163
831.7065	-0.0125
831.8734	0.0103
832.0402	-0.0101
832.2071	-0.0327
832.3739	-0.0183
832.5407	-0.0001
832.7075	-0.0045
832.8742	-0.0152
833.041	-0.0034
833.2077	-0.0157
833.3744	0.0285
833.541	-0.0469
833.7077	-0.0273
833.8743	-0.0124
834.0409	-0.0186
834.2075	-0.0229
834.3741	-0.0019
834.5407	-0.0007
834.7072	-0.0001
834.8737	-0.0106
835.0402	-0.0166
835.2067	0.0049
835.3731	0.06
835.5395	-0.0176
835.706	-0.0084
835.8723	0.0123
836.0387	-0.0048
836.2051	-0.0309
836.3714	-0.0122
836.5377	0.0146
836.704	-0.033
836.8703	-0.0241
837.0365	-0.0291
837.2027	-0.0222
837.3689	0.0123
837.5351	-0.0284
837.7013	-0.0184
837.8674	-0.0505
838.0335	-0.0432
838.1997	-0.0026
838.3657	-0.0291
838.5318	0.0347
838.6978	0.0168
838.8639	0.0346
839.0299	-0.0019
839.1958	-0.039
839.3618	0.0033
839.5277	-0.0178
839.6937	0.0414
839.8596	-0.0366
840.0254	0.0099
840.1913	0.0405
840.3571	0.0279
840.523	-0.0318
840.6888	-0.0489
840.8545	-0.0049
841.0203	-0.0165
841.186	-0.0128
841.3517	-0.037
841.5174	-0.0001
841.6831	-0.0623
841.8488	0.0035
842.0144	-0.0469
842.18	-0.0019
842.3456	-0.0067
842.5112	-0.0102
842.6767	-0.0798
842.8422	-0.019
843.0077	0.0123
843.1732	-0.0294
843.3387	-0.074
843.5042	0.0033
843.6696	-0.0416
843.835	-0.0045
844.0004	0.0238
844.1657	0.0353
844.3311	-0.0572
844.4964	-0.0736
844.6617	-0.0123
844.827	-0.0737
844.9923	-0.0214
845.1575	0.0665
845.3227	-0.0013
845.4879	-0.0135
845.6531	-0.0728
845.8183	-0.0707
845.9834	-0.0197
846.1485	-0.0204
846.3136	-0.0682
846.4787	-0.0665
846.6438	0.041
846.8088	-0.056
846.9738	-0.1008
847.1388	-0.0845
847.3038	0.0136
847.4687	-0.1857
847.6337	-0.018
847.7986	-0.0222
847.9635	-0.0757
848.1284	0.0581
848.2932	0.0453
848.458	-0.0737
848.6228	0.0481
848.7876	0.0631
848.9524	-0.0716
849.1172	-0.08
849.2819	0.0026
849.4466	-0.1093
849.6113	-0.1289
849.7759	-0.0547
849.9406	-0.0799
850.1052	0.0168
850.2698	-0.0314
850.4344	-0.0251
850.599	-0.0768
850.7635	0.0165
850.928	-0.1167
851.0925	-0.0823
851.257	-0.0056
851.4215	-0.0165
851.5859	-0.0963
851.7503	0.0169
851.9147	-0.0164
852.0791	-0.1239
852.2434	-0.0797
852.4078	-0.0428
852.5721	-0.0051
852.7364	-0.0466
852.9007	-0.2388
853.0649	0.0116
853.2291	0.0582
853.3934	0.0185
853.5575	-0.0786
853.7217	-0.05
853.8859	-0.1423
854.05	-0.0755
854.2141	-0.0081
854.3782	0.0288
854.5423	-0.0935
854.7063	0.13
854.8703	-0.0809
855.0343	-0.1391
855.1983	-0.0633
855.3623	0.0416
855.5262	0.0051
855.6901	-0.0721
855.854	0.043
856.0179	0.0563
856.1818	0.1193
856.3456	-0.1311
856.5094	-0.075
856.6732	-0.0884
856.837	0.0334
857.0008	-0.0116
857.1645	-0.1327
857.3282	-0.2698
857.4919	0.0684
857.6556	0.0245
857.8192	-0.1468
857.9828	0.0941
858.1465	-0.0981
858.31	-0.1604
858.4736	-0.1827
858.6372	-0.3512
858.8007	-0.1557
858.9642	-0.0273
859.1277	-0.0609
859.2911	-0.1733
859.4546	0.0053
859.618	-0.3398
859.7814	-0.036
859.9448	0.0645
860.1081	-0.1358
860.2715	0.075
860.4348	-0.0614
860.5981	0.1174
860.7614	0.1378
860.9246	-0.2064
861.0879	-0.2137
861.2511	0.0314
861.4143	-0.1732
861.5774	-0.0807
861.7406	-0.2149
861.9037	0.0454
862.0668	-0.0269
862.2299	-0.186
862.393	-0.7568
862.556	-0.0739
862.7191	-0.2516
862.8821	-0.4303
863.0451	0.0392
863.208	0.0385
863.371	-0.1565
863.5339	-0.3693
863.6968	-0.0731
863.8597	0.6116
864.0225	-0.2797
864.1854	0.1106
864.3482	0.106
864.511	0.1554
864.6737	0.1739
864.8365	0.1926
864.9992	-0.0735
865.1619	-0.392
865.3246	-0.2223
865.4873	-0.0008
865.65	0.1008
865.8126	0.0853
865.9752	0.177
866.1378	-0.0981
866.3004	-0.0784
866.4629	0.095
866.6254	-0.0529
866.7879	0.0945
866.9504	0.0216
867.1129	-0
867.2753	0.1277
867.4377	-0.0493
867.6001	-0.4313
867.7625	-0.0282
867.9249	0.1104
868.0872	-0.058
868.2495	-0.0128
868.4118	-0.197
868.5741	-0.6656
868.7363	-0.4662
868.8986	-0.004
869.0608	-0.2536
869.223	0.1387
869.3851	-0
869.5473	-0
869.7094	-0.03
869.8715	0.5623
870.0336	-0.6504
870.1957	-0.6195
870.3577	-0
870.5197	0.1401
870.6817	0.2007
870.8437	-0.1831
871.0057	-0
871.1676	-0.0839
871.3295	-0.0698
871.4914	-0
871.6533	-0.4585
871.8151	-0.5498
871.977	-0
872.1388	-0
872.3006	-0
872.4623	-0
872.6241	0.4008
872.7858	0.1037
872.9475	-0.2526
873.1092	-0.2082
873.2709	-0.0257
873.4325	-0.3132
873.5941	-0.5577
873.7557	-0
873.9173	-0
874.0789	-0.5357
874.2404	-0
874.4019	0.4292
874.5634	-0.2397
874.7249	-0.0771
874.8863	-0.1002
875.0478	0.6229
875.2092	-0
875.3706	0.2084
875.5319	-0.9135
875.6933	0.1636
875.8546	-0.1698
876.0159	-0
876.1772	-0
876.3385	-0
876.4997	1.1253
876.6609	-0.1914
876.8221	-0.301
876.9833	0.2606
877.1445	-0
877.3056	-0.0069
877.4667	-0.6423
877.6278	-0
877.7889	-0.346
877.9499	0.6284
878.111	-0
878.272	-0
878.433	-0
878.5939	-0
878.7549	0.0909
878.9158	-0
879.0767	-0
879.2376	-0
879.3984	0.1126
879.5593	-0
879.7201	-0.2222
879.8809	-0.5876
880.0417	-0
880.2024	0.0788
880.3632	-0
880.5239	0.2563
880.6846	-0
880.8452	-2.6435
881.0059	-0
881.1665	0.0676
881.3271	0.1411
881.4877	0.4843
881.6483	-0.6464
881.8088	-0.4691
881.9693	1.2068
882.1298	1.2068
882.2903	1.2068
