Data from MonoPyChalIsomerACN10uM410nmA_Absorbance_14-53-26-173.txt Node
Date: Fri Jul 05 14:53:26 BST 2024
User: LASERRRRR
Spectrometer: FLMT03099
Trigger mode: 0
Integration Time (sec): 1.000000E-1
Scans to average: 1
Electric dark correction enabled: true
Nonlinearity correction enabled: false
Boxcar width: 0
XAxis mode: Wavelengths
Number of Pixels in Spectrum: 3648
>>>>>Begin Spectral Data<<<<<
179.3399	-0.3825
179.5586	-0.3825
179.7771	-0.3825
179.9957	-0.0213
180.2143	-0
180.4329	0.0267
180.6514	-0
180.8699	-0
181.0885	-0.1089
181.307	-0.0238
181.5255	-0.7466
181.744	-0.4517
181.9625	-0
182.181	-0.8305
182.3994	-0.1491
182.6179	-0
182.8363	0.4044
183.0547	-0.2041
183.2732	-0.006
183.4916	0.3935
183.71	0.022
183.9284	0.263
184.1467	-0.1439
184.3651	0.0985
184.5835	-0.0067
184.8018	0.045
185.0201	0.1602
185.2385	0.3543
185.4568	0.2685
185.6751	0.0931
185.8934	0.2258
186.1117	-0.0376
186.3299	0.0647
186.5482	0.0917
186.7664	0.064
186.9847	-0.0329
187.2029	0.0252
187.4211	0.1657
187.6393	0.0245
187.8575	-0.293
188.0757	0.2191
188.2939	0.0095
188.512	0.4627
188.7302	0.0463
188.9483	0.1204
189.1665	0.205
189.3846	0.1782
189.6027	0.0729
189.8208	0.2501
190.0389	0.0286
190.257	0.2171
190.475	0.1833
190.6931	0.3237
190.9111	0.3795
191.1292	0.0731
191.3472	0.4254
191.5652	0.2616
191.7832	0.1301
192.0012	0.4444
192.2192	0.591
192.4371	0.745
192.6551	0.351
192.873	0.4183
193.091	0.549
193.3089	1.0368
193.5268	0.4757
193.7447	0.5749
193.9626	0.5325
194.1805	0.767
194.3984	0.7998
194.6162	0.6686
194.8341	0.7583
195.0519	0.6197
195.2697	0.461
195.4875	0.6836
195.7054	0.6701
195.9231	0.5318
196.1409	0.5092
196.3587	0.6503
196.5765	0.5005
196.7942	0.6734
197.012	0.5412
197.2297	0.5559
197.4474	0.7297
197.6651	0.5398
197.8828	0.5413
198.1005	0.5847
198.3182	0.645
198.5358	0.7594
198.7535	0.4796
198.9711	0.6357
199.1888	0.8251
199.4064	0.8146
199.624	0.7005
199.8416	0.5418
200.0592	0.5697
200.2767	0.5339
200.4943	0.7159
200.7119	0.7795
200.9294	0.6501
201.1469	0.5021
201.3645	0.5859
201.582	0.5541
201.7995	0.6164
202.017	0.7263
202.2344	0.7064
202.4519	0.724
202.6694	0.5777
202.8868	0.598
203.1042	0.7296
203.3217	0.6763
203.5391	0.5498
203.7565	0.6003
203.9739	0.5457
204.1913	0.5994
204.4086	0.642
204.626	0.6802
204.8433	0.6373
205.0607	0.6051
205.278	0.5687
205.4953	0.5952
205.7126	0.6228
205.9299	0.8024
206.1472	0.7275
206.3644	0.6898
206.5817	0.671
206.7989	0.7041
207.0162	0.6435
207.2334	0.7289
207.4506	0.6565
207.6678	0.6997
207.885	0.6784
208.1022	0.6797
208.3194	0.6588
208.5365	0.6523
208.7537	0.7085
208.9708	0.6064
209.1879	0.7054
209.405	0.6793
209.6222	0.7369
209.8392	0.7624
210.0563	0.6595
210.2734	0.6271
210.4905	0.5795
210.7075	0.7345
210.9245	0.6261
211.1416	0.745
211.3586	0.5731
211.5756	0.5589
211.7926	0.6378
212.0096	0.5986
212.2265	0.5499
212.4435	0.586
212.6604	0.5443
212.8774	0.565
213.0943	0.5468
213.3112	0.525
213.5281	0.5094
213.745	0.5056
213.9619	0.5072
214.1788	0.5201
214.3956	0.4764
214.6125	0.4781
214.8293	0.4317
215.0461	0.4592
215.2629	0.4589
215.4798	0.4796
215.6965	0.3826
215.9133	0.4657
216.1301	0.408
216.3469	0.4272
216.5636	0.3991
216.7803	0.395
216.9971	0.3996
217.2138	0.3877
217.4305	0.3809
217.6472	0.3372
217.8639	0.3908
218.0805	0.3433
218.2972	0.2969
218.5138	0.3224
218.7305	0.3046
218.9471	0.3145
219.1637	0.3114
219.3803	0.2947
219.5969	0.2714
219.8135	0.2507
220.0301	0.3035
220.2466	0.2863
220.4632	0.2717
220.6797	0.2438
220.8962	0.2265
221.1127	0.2512
221.3292	0.2644
221.5457	0.2477
221.7622	0.2261
221.9787	0.2538
222.1951	0.2179
222.4116	0.251
222.628	0.2344
222.8444	0.2404
223.0608	0.24
223.2772	0.2508
223.4936	0.268
223.71	0.2439
223.9264	0.2529
224.1427	0.2738
224.3591	0.2531
224.5754	0.2728
224.7917	0.2699
225.008	0.2539
225.2243	0.2695
225.4406	0.2792
225.6569	0.275
225.8732	0.2466
226.0894	0.2623
226.3057	0.2629
226.5219	0.2749
226.7381	0.2452
226.9543	0.2744
227.1705	0.2736
227.3867	0.279
227.6029	0.2778
227.8191	0.2988
228.0352	0.2805
228.2513	0.3207
228.4675	0.3177
228.6836	0.3024
228.8997	0.2956
229.1158	0.3148
229.3319	0.3273
229.548	0.2888
229.764	0.3326
229.9801	0.3064
230.1961	0.3107
230.4121	0.316
230.6282	0.3267
230.8442	0.3049
231.0602	0.3349
231.2761	0.3622
231.4921	0.3413
231.7081	0.3417
231.924	0.3403
232.14	0.3533
232.3559	0.3342
232.5718	0.3564
232.7877	0.3503
233.0036	0.3573
233.2195	0.3432
233.4353	0.3712
233.6512	0.3586
233.867	0.3541
234.0829	0.3394
234.2987	0.3537
234.5145	0.3593
234.7303	0.373
234.9461	0.3957
235.1619	0.3653
235.3776	0.3794
235.5934	0.3913
235.8091	0.3541
236.0249	0.378
236.2406	0.3872
236.4563	0.3739
236.672	0.3832
236.8877	0.3921
237.1034	0.3993
237.319	0.3892
237.5347	0.4077
237.7503	0.4129
237.966	0.3965
238.1816	0.4097
238.3972	0.406
238.6128	0.3879
238.8284	0.404
239.0439	0.4028
239.2595	0.3878
239.475	0.42
239.6906	0.4005
239.9061	0.396
240.1216	0.4025
240.3371	0.4055
240.5526	0.3941
240.7681	0.4036
240.9836	0.375
241.199	0.3871
241.4145	0.3892
241.6299	0.3704
241.8453	0.369
242.0607	0.3798
242.2761	0.3578
242.4915	0.3635
242.7069	0.365
242.9223	0.3629
243.1376	0.3384
243.353	0.332
243.5683	0.3545
243.7836	0.3259
243.9989	0.3367
244.2142	0.2938
244.4295	0.3093
244.6448	0.3129
244.86	0.2918
245.0753	0.2916
245.2905	0.3022
245.5057	0.2722
245.721	0.2784
245.9362	0.2699
246.1514	0.2843
246.3665	0.2513
246.5817	0.2542
246.7969	0.246
247.012	0.2474
247.2271	0.2455
247.4423	0.2507
247.6574	0.2417
247.8725	0.2377
248.0876	0.2368
248.3026	0.2329
248.5177	0.2149
248.7328	0.2143
248.9478	0.2113
249.1628	0.2228
249.3779	0.2169
249.5929	0.2007
249.8079	0.225
250.0228	0.2009
250.2378	0.2085
250.4528	0.1994
250.6677	0.1827
250.8827	0.1911
251.0976	0.1932
251.3125	0.1936
251.5274	0.1678
251.7423	0.1786
251.9572	0.1887
252.172	0.1848
252.3869	0.1821
252.6017	0.1799
252.8166	0.1612
253.0314	0.1692
253.2462	0.1731
253.461	0.1786
253.6758	0.1736
253.8906	0.1754
254.1053	0.1789
254.3201	0.1749
254.5348	0.1692
254.7496	0.1746
254.9643	0.173
255.179	0.1723
255.3937	0.1652
255.6083	0.1815
255.823	0.1742
256.0377	0.1751
256.2523	0.1794
256.467	0.1634
256.6816	0.1667
256.8962	0.1628
257.1108	0.1564
257.3254	0.1744
257.54	0.1658
257.7545	0.1611
257.9691	0.1676
258.1836	0.1758
258.3981	0.1731
258.6127	0.1793
258.8272	0.1578
259.0417	0.1526
259.2561	0.1614
259.4706	0.1643
259.6851	0.1612
259.8995	0.1556
260.114	0.1527
260.3284	0.1676
260.5428	0.1599
260.7572	0.1709
260.9716	0.1771
261.186	0.1637
261.4003	0.1543
261.6147	0.1612
261.829	0.1662
262.0433	0.1634
262.2577	0.1607
262.472	0.1634
262.6863	0.1677
262.9005	0.1577
263.1148	0.1695
263.3291	0.145
263.5433	0.1551
263.7576	0.1588
263.9718	0.1717
264.186	0.1646
264.4002	0.154
264.6144	0.1556
264.8286	0.1742
265.0427	0.1607
265.2569	0.1631
265.471	0.1616
265.6851	0.1592
265.8993	0.1547
266.1134	0.1559
266.3275	0.1622
266.5415	0.1543
266.7556	0.1663
266.9697	0.1664
267.1837	0.1564
267.3978	0.1557
267.6118	0.1763
267.8258	0.1739
268.0398	0.1474
268.2538	0.1704
268.4677	0.1591
268.6817	0.1595
268.8957	0.1508
269.1096	0.1559
269.3235	0.1586
269.5374	0.1514
269.7514	0.152
269.9652	0.143
270.1791	0.1496
270.393	0.144
270.6068	0.1554
270.8207	0.1506
271.0345	0.1479
271.2483	0.153
271.4622	0.1432
271.676	0.1491
271.8897	0.1408
272.1035	0.1361
272.3173	0.1437
272.531	0.137
272.7448	0.1455
272.9585	0.144
273.1722	0.1441
273.3859	0.1541
273.5996	0.1438
273.8133	0.1406
274.0269	0.147
274.2406	0.1334
274.4542	0.1427
274.6679	0.1282
274.8815	0.1488
275.0951	0.1511
275.3087	0.1543
275.5223	0.1483
275.7358	0.1517
275.9494	0.1403
276.1629	0.1365
276.3765	0.1426
276.59	0.1509
276.8035	0.1522
277.017	0.1437
277.2305	0.1507
277.444	0.1574
277.6574	0.1372
277.8709	0.1519
278.0843	0.1331
278.2978	0.1422
278.5112	0.1464
278.7246	0.1444
278.938	0.1478
279.1513	0.1494
279.3647	0.1608
279.5781	0.1425
279.7914	0.1402
280.0047	0.1609
280.2181	0.1505
280.4314	0.157
280.6447	0.1477
280.8579	0.1378
281.0712	0.1485
281.2845	0.161
281.4977	0.1531
281.711	0.15
281.9242	0.1534
282.1374	0.1467
282.3506	0.1501
282.5638	0.1567
282.7769	0.1549
282.9901	0.1435
283.2033	0.1623
283.4164	0.1595
283.6295	0.1433
283.8426	0.1399
284.0557	0.1484
284.2688	0.1726
284.4819	0.1664
284.695	0.1505
284.908	0.1586
285.1211	0.1514
285.3341	0.1512
285.5471	0.1567
285.7601	0.1566
285.9731	0.1446
286.1861	0.1655
286.3991	0.1571
286.612	0.1726
286.825	0.1512
287.0379	0.1734
287.2508	0.1575
287.4637	0.1615
287.6766	0.1464
287.8895	0.1654
288.1024	0.1677
288.3152	0.1554
288.5281	0.1516
288.7409	0.1618
288.9538	0.154
289.1666	0.1603
289.3794	0.1622
289.5922	0.1593
289.8049	0.1637
290.0177	0.1519
290.2304	0.1636
290.4432	0.1669
290.6559	0.1651
290.8686	0.1691
291.0813	0.1703
291.294	0.1577
291.5067	0.1647
291.7194	0.1595
291.932	0.1797
292.1447	0.1617
292.3573	0.1544
292.5699	0.1637
292.7825	0.1592
292.9951	0.1503
293.2077	0.1624
293.4203	0.1567
293.6328	0.1622
293.8454	0.1732
294.0579	0.1606
294.2704	0.1727
294.4829	0.1594
294.6954	0.1483
294.9079	0.1655
295.1204	0.1556
295.3328	0.1564
295.5453	0.1692
295.7577	0.1674
295.9701	0.161
296.1825	0.1699
296.3949	0.1563
296.6073	0.1584
296.8197	0.1446
297.0321	0.1731
297.2444	0.151
297.4567	0.1691
297.6691	0.1589
297.8814	0.1606
298.0937	0.163
298.306	0.164
298.5182	0.1535
298.7305	0.1725
298.9428	0.16
299.155	0.1545
299.3672	0.1583
299.5794	0.1565
299.7916	0.1534
300.0038	0.1716
300.216	0.1676
300.4282	0.1583
300.6403	0.1518
300.8525	0.1612
301.0646	0.1512
301.2767	0.1612
301.4888	0.1654
301.7009	0.1627
301.913	0.1597
302.125	0.1569
302.3371	0.154
302.5491	0.1542
302.7612	0.1637
302.9732	0.1671
303.1852	0.1612
303.3972	0.153
303.6092	0.1538
303.8211	0.1557
304.0331	0.1548
304.245	0.1468
304.457	0.1383
304.6689	0.1483
304.8808	0.1623
305.0927	0.1476
305.3046	0.1484
305.5164	0.1478
305.7283	0.1454
305.9401	0.1398
306.152	0.1534
306.3638	0.1427
306.5756	0.1456
306.7874	0.1469
306.9992	0.1582
307.2109	0.1355
307.4227	0.1239
307.6344	0.1345
307.8462	0.1335
308.0579	0.1364
308.2696	0.1337
308.4813	0.1386
308.693	0.1333
308.9046	0.1325
309.1163	0.1305
309.328	0.123
309.5396	0.119
309.7512	0.1155
309.9628	0.1181
310.1744	0.1153
310.386	0.1142
310.5976	0.1187
310.8091	0.1206
311.0207	0.1181
311.2322	0.1175
311.4437	0.1069
311.6552	0.1163
311.8667	0.1148
312.0782	0.1016
312.2897	0.1006
312.5012	0.1177
312.7126	0.1035
312.924	0.1042
313.1355	0.1118
313.3469	0.1137
313.5583	0.1121
313.7696	0.1031
313.981	0.1138
314.1924	0.0962
314.4037	0.1029
314.6151	0.114
314.8264	0.0979
315.0377	0.0862
315.249	0.1024
315.4603	0.1148
315.6716	0.0975
315.8828	0.0891
316.0941	0.0914
316.3053	0.0976
316.5165	0.095
316.7277	0.0896
316.9389	0.1083
317.1501	0.0891
317.3613	0.099
317.5724	0.0921
317.7836	0.1054
317.9947	0.101
318.2058	0.089
318.417	0.0754
318.6281	0.0866
318.8391	0.0896
319.0502	0.0966
319.2613	0.1042
319.4723	0.1042
319.6834	0.1005
319.8944	0.0988
320.1054	0.1022
320.3164	0.1039
320.5274	0.0987
320.7383	0.0922
320.9493	0.0993
321.1602	0.1126
321.3712	0.0988
321.5821	0.0998
321.793	0.1064
322.0039	0.1027
322.2148	0.0964
322.4257	0.1061
322.6365	0.1033
322.8474	0.0957
323.0582	0.0993
323.269	0.1141
323.4798	0.1092
323.6906	0.0976
323.9014	0.0931
324.1122	0.1053
324.3229	0.101
324.5337	0.0981
324.7444	0.0899
324.9551	0.1128
325.1658	0.1023
325.3765	0.1065
325.5872	0.1083
325.7979	0.1048
326.0085	0.1019
326.2192	0.104
326.4298	0.1146
326.6404	0.092
326.851	0.0978
327.0616	0.0973
327.2722	0.1136
327.4828	0.1135
327.6933	0.1043
327.9039	0.1067
328.1144	0.116
328.3249	0.108
328.5354	0.0984
328.7459	0.1101
328.9564	0.0924
329.1669	0.1017
329.3773	0.1041
329.5878	0.1132
329.7982	0.0964
330.0086	0.1088
330.219	0.1111
330.4294	0.1015
330.6398	0.1034
330.8502	0.0987
331.0605	0.1045
331.2708	0.1003
331.4812	0.1082
331.6915	0.1126
331.9018	0.104
332.1121	0.1073
332.3224	0.1038
332.5326	0.1081
332.7429	0.1071
332.9531	0.111
333.1633	0.1173
333.3735	0.1026
333.5837	0.0965
333.7939	0.1043
334.0041	0.1205
334.2143	0.1129
334.4244	0.11
334.6346	0.091
334.8447	0.1193
335.0548	0.0945
335.2649	0.0996
335.475	0.113
335.685	0.0972
335.8951	0.1214
336.1051	0.1143
336.3152	0.111
336.5252	0.0964
336.7352	0.1214
336.9452	0.1095
337.1552	0.1046
337.3652	0.0979
337.5751	0.1121
337.7851	0.1116
337.995	0.0974
338.2049	0.1142
338.4148	0.1079
338.6247	0.1179
338.8346	0.1035
339.0445	0.1022
339.2543	0.1176
339.4642	0.1203
339.674	0.1004
339.8838	0.1143
340.0936	0.1087
340.3034	0.1212
340.5132	0.1067
340.7229	0.112
340.9327	0.1025
341.1424	0.1132
341.3522	0.1335
341.5619	0.1241
341.7716	0.1204
341.9813	0.1167
342.1909	0.1196
342.4006	0.1233
342.6102	0.119
342.8199	0.1192
343.0295	0.1206
343.2391	0.1204
343.4487	0.1374
343.6583	0.1338
343.8679	0.1264
344.0774	0.1282
344.287	0.1341
344.4965	0.122
344.706	0.1245
344.9155	0.1209
345.125	0.1339
345.3345	0.132
345.544	0.129
345.7534	0.1364
345.9629	0.1145
346.1723	0.1239
346.3817	0.1169
346.5911	0.1247
346.8005	0.1236
347.0099	0.1331
347.2193	0.1383
347.4286	0.1259
347.638	0.1246
347.8473	0.1425
348.0566	0.1483
348.2659	0.1387
348.4752	0.1318
348.6845	0.144
348.8937	0.1289
349.103	0.1433
349.3122	0.1281
349.5214	0.1388
349.7306	0.1384
349.9398	0.1549
350.149	0.1511
350.3582	0.1363
350.5674	0.145
350.7765	0.1422
350.9856	0.1298
351.1948	0.1423
351.4039	0.1258
351.613	0.1295
351.822	0.1404
352.0311	0.1474
352.2402	0.1423
352.4492	0.1508
352.6582	0.1476
352.8672	0.1495
353.0762	0.1444
353.2852	0.1421
353.4942	0.1557
353.7032	0.1469
353.9121	0.1587
354.1211	0.1541
354.33	0.1404
354.5389	0.1559
354.7478	0.1499
354.9567	0.1532
355.1655	0.1412
355.3744	0.1551
355.5833	0.158
355.7921	0.1739
356.0009	0.1559
356.2097	0.166
356.4185	0.1627
356.6273	0.1551
356.8361	0.1675
357.0448	0.1616
357.2536	0.1635
357.4623	0.15
357.671	0.1506
357.8797	0.1724
358.0884	0.1574
358.2971	0.1555
358.5057	0.1671
358.7144	0.1695
358.923	0.1731
359.1316	0.1735
359.3402	0.1763
359.5488	0.1713
359.7574	0.1587
359.966	0.1827
360.1746	0.1827
360.3831	0.1682
360.5916	0.1713
360.8002	0.1583
361.0087	0.1779
361.2172	0.1713
361.4256	0.1664
361.6341	0.1915
361.8426	0.1829
362.051	0.1695
362.2594	0.1655
362.4678	0.1694
362.6762	0.1894
362.8846	0.1867
363.093	0.1834
363.3014	0.1777
363.5097	0.1851
363.718	0.1983
363.9264	0.1962
364.1347	0.1682
364.343	0.1793
364.5513	0.1978
364.7595	0.1993
364.9678	0.1935
365.176	0.1872
365.3842	0.1908
365.5925	0.1952
365.8007	0.2
366.0089	0.1858
366.217	0.1886
366.4252	0.2151
366.6333	0.1991
366.8415	0.2033
367.0496	0.1825
367.2577	0.2021
367.4658	0.2077
367.6739	0.2219
367.882	0.1968
368.09	0.1984
368.2981	0.2125
368.5061	0.1924
368.7141	0.2146
368.9221	0.2097
369.1301	0.2094
369.3381	0.1831
369.5461	0.2073
369.754	0.2207
369.962	0.2199
370.1699	0.1974
370.3778	0.2123
370.5857	0.2039
370.7936	0.2138
371.0015	0.2149
371.2093	0.2298
371.4172	0.233
371.625	0.2083
371.8328	0.2
372.0406	0.205
372.2484	0.2262
372.4562	0.2197
372.664	0.214
372.8717	0.2371
373.0795	0.1884
373.2872	0.2167
373.4949	0.2239
373.7026	0.2308
373.9103	0.2384
374.118	0.2271
374.3256	0.2339
374.5333	0.2233
374.7409	0.2172
374.9485	0.2345
375.1561	0.2278
375.3637	0.23
375.5713	0.2351
375.7789	0.2328
375.9864	0.224
376.194	0.2344
376.4015	0.235
376.609	0.2432
376.8165	0.2291
377.024	0.2354
377.2315	0.214
377.4389	0.2314
377.6464	0.2463
377.8538	0.241
378.0612	0.2313
378.2686	0.2418
378.476	0.235
378.6834	0.2307
378.8908	0.2473
379.0981	0.2366
379.3055	0.2634
379.5128	0.2342
379.7201	0.2413
379.9274	0.2472
380.1347	0.2351
380.342	0.2436
380.5492	0.241
380.7565	0.2271
380.9637	0.2504
381.1709	0.2427
381.3781	0.2486
381.5853	0.2566
381.7925	0.2446
381.9997	0.2441
382.2068	0.2643
382.4139	0.2506
382.6211	0.2505
382.8282	0.2568
383.0353	0.2374
383.2424	0.2273
383.4494	0.2662
383.6565	0.2425
383.8635	0.2414
384.0706	0.2611
384.2776	0.2516
384.4846	0.2307
384.6916	0.2481
384.8986	0.2605
385.1055	0.2663
385.3125	0.2326
385.5194	0.2377
385.7263	0.2582
385.9333	0.2423
386.1402	0.2495
386.347	0.2472
386.5539	0.2489
386.7608	0.2672
386.9676	0.2442
387.1744	0.2407
387.3813	0.2419
387.5881	0.2333
387.7948	0.2408
388.0016	0.2354
388.2084	0.2541
388.4151	0.2431
388.6219	0.2453
388.8286	0.2375
389.0353	0.2582
389.242	0.2605
389.4487	0.2348
389.6553	0.2336
389.862	0.2184
390.0686	0.2199
390.2753	0.2414
390.4819	0.2449
390.6885	0.2488
390.8951	0.2473
391.1016	0.2204
391.3082	0.2382
391.5147	0.2322
391.7213	0.2319
391.9278	0.2302
392.1343	0.2362
392.3408	0.2224
392.5473	0.2245
392.7537	0.2242
392.9602	0.2215
393.1666	0.2197
393.373	0.2201
393.5794	0.2394
393.7858	0.2291
393.9922	0.2033
394.1986	0.2266
394.4049	0.2113
394.6113	0.2071
394.8176	0.2185
395.0239	0.2114
395.2302	0.2012
395.4365	0.2257
395.6428	0.2167
395.8491	0.1994
396.0553	0.2117
396.2615	0.2032
396.4678	0.2064
396.674	0.2106
396.8802	0.2065
397.0863	0.2172
397.2925	0.2039
397.4987	0.2138
397.7048	0.1988
397.9109	0.2062
398.117	0.2027
398.3231	0.2024
398.5292	0.2166
398.7353	0.2143
398.9413	0.206
399.1474	0.2054
399.3534	0.2165
399.5594	0.2255
399.7654	0.2304
399.9714	0.2208
400.1774	0.2036
400.3833	0.2071
400.5893	0.2223
400.7952	0.1993
401.0011	0.2114
401.207	0.1978
401.4129	0.2062
401.6188	0.2289
401.8247	0.2038
402.0305	0.1897
402.2364	0.1954
402.4422	0.2096
402.648	0.2033
402.8538	0.2107
403.0596	0.2032
403.2654	0.1994
403.4711	0.2014
403.6768	0.2192
403.8826	0.2244
404.0883	0.2116
404.294	0.235
404.4997	0.1934
404.7054	0.204
404.911	0.1976
405.1167	0.2131
405.3223	0.2049
405.5279	0.2153
405.7335	0.2127
405.9391	0.2155
406.1447	0.2138
406.3502	0.2198
406.5558	0.2129
406.7613	0.1969
406.9668	0.2246
407.1724	0.1962
407.3778	0.1894
407.5833	0.1967
407.7888	0.1993
407.9942	0.2237
408.1997	0.2049
408.4051	0.1979
408.6105	0.2055
408.8159	0.2088
409.0213	0.1974
409.2267	0.2262
409.432	0.1921
409.6374	0.1932
409.8427	0.2197
410.048	0.2008
410.2533	0.2026
410.4586	0.1924
410.6639	0.1892
410.8691	0.1905
411.0744	0.1937
411.2796	0.1913
411.4848	0.202
411.69	0.2089
411.8952	0.2095
412.1004	0.2035
412.3056	0.2087
412.5107	0.2023
412.7158	0.1935
412.921	0.2017
413.1261	0.2088
413.3312	0.1961
413.5362	0.2062
413.7413	0.2045
413.9464	0.2088
414.1514	0.1969
414.3564	0.2041
414.5614	0.1913
414.7664	0.188
414.9714	0.1953
415.1764	0.1874
415.3813	0.2117
415.5863	0.1945
415.7912	0.1992
415.9961	0.2039
416.201	0.2101
416.4059	0.2032
416.6108	0.1699
416.8156	0.2017
417.0205	0.2042
417.2253	0.1927
417.4301	0.1863
417.6349	0.1891
417.8397	0.2008
418.0445	0.1978
418.2492	0.1982
418.454	0.2033
418.6587	0.2021
418.8634	0.2049
419.0681	0.1795
419.2728	0.1848
419.4775	0.1986
419.6822	0.1917
419.8868	0.1736
420.0915	0.191
420.2961	0.1734
420.5007	0.1906
420.7053	0.1715
420.9099	0.1854
421.1144	0.1927
421.319	0.1798
421.5235	0.1933
421.728	0.1864
421.9325	0.1695
422.137	0.1963
422.3415	0.1667
422.546	0.1911
422.7504	0.1824
422.9549	0.1835
423.1593	0.1889
423.3637	0.181
423.5681	0.1938
423.7725	0.1637
423.9769	0.166
424.1812	0.161
424.3856	0.1733
424.5899	0.1874
424.7942	0.1752
424.9985	0.1834
425.2028	0.165
425.4071	0.1842
425.6113	0.163
425.8156	0.1726
426.0198	0.1572
426.224	0.1427
426.4282	0.1611
426.6324	0.1626
426.8366	0.1655
427.0407	0.1605
427.2449	0.164
427.449	0.1668
427.6531	0.1442
427.8572	0.1595
428.0613	0.1622
428.2654	0.1527
428.4694	0.1482
428.6735	0.1445
428.8775	0.1594
429.0815	0.1577
429.2855	0.1406
429.4895	0.1518
429.6935	0.1385
429.8975	0.1478
430.1014	0.1463
430.3053	0.1236
430.5093	0.1445
430.7132	0.1368
430.9171	0.1337
431.1209	0.1475
431.3248	0.136
431.5286	0.1395
431.7325	0.1469
431.9363	0.1393
432.1401	0.1321
432.3439	0.1335
432.5477	0.1256
432.7514	0.1129
432.9552	0.1263
433.1589	0.1098
433.3627	0.1015
433.5664	0.1216
433.7701	0.0989
433.9737	0.106
434.1774	0.1058
434.3811	0.0988
434.5847	0.1169
434.7883	0.109
434.9919	0.113
435.1955	0.1072
435.3991	0.1014
435.6027	0.1103
435.8062	0.1055
436.0098	0.0933
436.2133	0.0982
436.4168	0.0881
436.6203	0.0796
436.8238	0.1119
437.0272	0.0994
437.2307	0.0914
437.4341	0.0941
437.6375	0.0897
437.841	0.0799
438.0443	0.1001
438.2477	0.1005
438.4511	0.0849
438.6545	0.094
438.8578	0.1019
439.0611	0.0904
439.2644	0.0765
439.4677	0.0854
439.671	0.0634
439.8743	0.0788
440.0775	0.0895
440.2808	0.0697
440.484	0.0728
440.6872	0.0531
440.8904	0.0631
441.0936	0.084
441.2967	0.0649
441.4999	0.0681
441.703	0.0722
441.9062	0.0543
442.1093	0.074
442.3124	0.0603
442.5155	0.0507
442.7185	0.0582
442.9216	0.0379
443.1246	0.0687
443.3276	0.0553
443.5307	0.0494
443.7337	0.0598
443.9366	0.0574
444.1396	0.0458
444.3426	0.0596
444.5455	0.053
444.7484	0.048
444.9513	0.0583
445.1542	0.0548
445.3571	0.0508
445.56	0.0565
445.7628	0.032
445.9657	0.0541
446.1685	0.0599
446.3713	0.0516
446.5741	0.0384
446.7769	0.0389
446.9797	0.0352
447.1824	0.0411
447.3852	0.0368
447.5879	0.0384
447.7906	0.0406
447.9933	0.0362
448.196	0.0221
448.3986	0.031
448.6013	0.0064
448.8039	0.0323
449.0066	0.0293
449.2092	0.0437
449.4118	0.0349
449.6143	0.0276
449.8169	0.0383
450.0195	0.0184
450.222	0.0122
450.4245	0.0328
450.627	0.0405
450.8295	0.036
451.032	0.0144
451.2345	0.0263
451.4369	0.0317
451.6394	0.0271
451.8418	0.01
452.0442	0.0132
452.2466	0.0261
452.449	0.011
452.6513	0.0321
452.8537	0.0125
453.056	0.004
453.2583	0.0186
453.4607	0.0002
453.663	0.0254
453.8652	0.0235
454.0675	-0.0063
454.2697	0.002
454.472	-0.0081
454.6742	0.0114
454.8764	0.0268
455.0786	0.0209
455.2808	0.0183
455.4829	0.0007
455.6851	0.0213
455.8872	0.0149
456.0893	0.0354
456.2915	0.0043
456.4935	0.017
456.6956	0.0008
456.8977	0.0104
457.0997	0.004
457.3018	-0.0053
457.5038	0.0162
457.7058	0.0142
457.9078	0.0041
458.1098	-0.0061
458.3117	0.0097
458.5137	0.0117
458.7156	0.009
458.9175	0.0029
459.1194	0.0011
459.3213	0.0017
459.5232	-0.0009
459.725	-0.0039
459.9269	-0.0153
460.1287	0.0094
460.3305	-0.0073
460.5323	0.0016
460.7341	-0.0091
460.9359	-0.0099
461.1376	0.012
461.3394	0.0012
461.5411	0.0035
461.7428	-0.0003
461.9445	0.0063
462.1462	0.0125
462.3479	-0.001
462.5495	0.013
462.7512	0.011
462.9528	-0.0062
463.1544	-0.0104
463.356	0.0112
463.5576	0.0099
463.7592	-0.0082
463.9607	0.0072
464.1623	0.0107
464.3638	0.0208
464.5653	-0.0188
464.7668	-0.0109
464.9683	0.0033
465.1697	0.0199
465.3712	-0.0008
465.5726	-0.019
465.7741	0.0004
465.9755	-0.0064
466.1769	-0.0038
466.3782	0.0029
466.5796	-0.0178
466.7809	-0.0015
466.9823	-0.0059
467.1836	0.001
467.3849	-0.0116
467.5862	0.0079
467.7875	-0.0133
467.9887	0.0175
468.19	0.001
468.3912	-0.0112
468.5924	-0.0057
468.7936	-0.0066
468.9948	-0.0056
469.196	0.0007
469.3972	-0.014
469.5983	-0.0033
469.7994	-0.0115
470.0006	-0.0199
470.2017	-0.0145
470.4027	-0.0036
470.6038	0.0004
470.8049	-0.0115
471.0059	-0.0098
471.2069	-0.0177
471.408	0.0143
471.6089	0.0054
471.8099	0.0047
472.0109	0.0049
472.2119	-0.0046
472.4128	-0.0211
472.6137	-0.0001
472.8146	-0.0081
473.0155	-0.0129
473.2164	-0.0039
473.4173	0.0063
473.6181	-0.0043
473.819	-0.001
474.0198	-0.0135
474.2206	-0.0196
474.4214	-0.0045
474.6222	-0.0013
474.8229	-0.0192
475.0237	-0.0206
475.2244	-0.0099
475.4251	0.0006
475.6258	-0.0061
475.8265	-0.0024
476.0272	-0.0013
476.2278	0.0073
476.4285	-0.0117
476.6291	-0.0057
476.8297	-0.0076
477.0303	-0.0061
477.2309	0.0005
477.4315	-0.0124
477.632	-0.0067
477.8326	-0.0022
478.0331	-0.0034
478.2336	0.0019
478.4341	-0.0071
478.6346	-0.0137
478.8351	-0.0106
479.0355	0.0006
479.236	-0.0098
479.4364	0.005
479.6368	-0.0177
479.8372	-0.0103
480.0376	0.0002
480.2379	-0.0333
480.4383	-0.0103
480.6386	-0.0065
480.8389	-0.0041
481.0392	-0.0055
481.2395	-0.0044
481.4398	0.0006
481.6401	-0.0019
481.8403	-0.0027
482.0405	-0.0063
482.2408	-0.0192
482.441	-0.0002
482.6411	-0.0167
482.8413	-0.0068
483.0415	-0.0162
483.2416	-0.0212
483.4417	-0.004
483.6419	-0.0002
483.8419	-0.0127
484.042	0.002
484.2421	-0.0035
484.4422	-0.0015
484.6422	-0.01
484.8422	-0.0068
485.0422	-0.0177
485.2422	-0.0043
485.4422	-0.0141
485.6422	-0.0147
485.8421	-0.0079
486.042	-0.0002
486.242	-0.0068
486.4419	-0.0226
486.6417	-0.0134
486.8416	-0.0025
487.0415	-0.0089
487.2413	-0.0205
487.4411	-0.0124
487.641	-0.0185
487.8408	-0.0081
488.0405	-0.0134
488.2403	-0.0083
488.4401	-0.0011
488.6398	-0.0127
488.8395	-0.0147
489.0392	-0.0029
489.2389	-0.0073
489.4386	-0.0082
489.6383	-0.0128
489.8379	-0.0069
490.0376	-0.0077
490.2372	-0.0206
490.4368	-0.0195
490.6364	-0.0145
490.836	-0.0079
491.0355	-0.006
491.2351	-0.0125
491.4346	0.0016
491.6341	-0.0157
491.8336	-0.0112
492.0331	-0.0237
492.2326	-0.005
492.432	-0.0039
492.6315	-0.0084
492.8309	-0.0224
493.0303	-0.0107
493.2297	-0.0188
493.4291	-0.0151
493.6284	-0.0121
493.8278	-0.0064
494.0271	0.0039
494.2264	-0.0039
494.4257	-0.0255
494.625	-0.014
494.8243	-0.0253
495.0236	-0.0126
495.2228	-0.0211
495.422	-0.0064
495.6213	0.0017
495.8205	-0.0063
496.0196	-0.0105
496.2188	-0.0023
496.418	-0.0204
496.6171	-0.0077
496.8162	-0.0229
497.0153	-0.0073
497.2144	-0.0021
497.4135	0.002
497.6126	-0.0191
497.8116	-0.006
498.0107	0.0008
498.2097	-0.0152
498.4087	-0.0138
498.6077	-0.008
498.8067	-0.0194
499.0056	-0.0042
499.2046	-0.0085
499.4035	-0.0146
499.6024	-0.0077
499.8013	-0.0069
500.0002	-0.0168
500.199	-0.0125
500.3979	-0.0107
500.5967	-0.0237
500.7956	-0.0093
500.9944	-0.0096
501.1932	-0.0115
501.3919	-0.0194
501.5907	-0.0159
501.7895	-0.018
501.9882	-0.0221
502.1869	-0.0031
502.3856	-0.0205
502.5843	-0.0114
502.783	-0.0118
502.9816	-0.0122
503.1803	-0.0127
503.3789	-0.0064
503.5775	-0.0034
503.7761	-0.0171
503.9747	-0.0099
504.1732	-0.0084
504.3718	-0.0071
504.5703	-0.0101
504.7689	-0.0145
504.9674	-0.0108
505.1658	-0.0249
505.3643	-0.0058
505.5628	-0.0112
505.7612	-0.0205
505.9597	-0.0001
506.1581	-0.0033
506.3565	0.0013
506.5549	-0.0029
506.7532	-0.0207
506.9516	-0.0045
507.1499	-0.0165
507.3482	-0.0095
507.5465	-0.0054
507.7448	-0.0115
507.9431	-0.0058
508.1414	-0.0049
508.3396	-0.0178
508.5379	-0.0016
508.7361	-0.0205
508.9343	-0.0139
509.1325	-0.0046
509.3306	-0.0104
509.5288	-0.0085
509.7269	-0.0156
509.9251	-0.0085
510.1232	-0.0193
510.3213	-0.0099
510.5193	-0.0029
510.7174	-0.0207
510.9154	-0.004
511.1135	-0.0089
511.3115	-0.0116
511.5095	-0.0089
511.7075	-0.0122
511.9055	-0.0191
512.1034	-0.0096
512.3014	-0.0076
512.4993	-0.0114
512.6972	-0.0079
512.8951	-0.0165
513.093	-0.0206
513.2908	-0.0003
513.4887	-0.0024
513.6865	-0.0097
513.8844	-0.0056
514.0822	-0.0168
514.2799	-0.0135
514.4777	-0.0177
514.6755	-0.0126
514.8732	-0.0076
515.0709	-0.0094
515.2687	-0.0155
515.4664	-0.0101
515.664	-0.0105
515.8617	-0.0087
516.0594	-0.0199
516.257	-0.003
516.4546	-0.0126
516.6522	-0.0051
516.8498	-0.0026
517.0474	-0.0038
517.2449	-0.0065
517.4425	-0.0237
517.64	-0.0078
517.8375	-0.0008
518.035	-0.0047
518.2325	-0.0217
518.43	-0.0111
518.6274	-0.0093
518.8249	-0.0156
519.0223	-0.0133
519.2197	-0.0114
519.4171	-0.0084
519.6145	-0.0147
519.8118	-0.0106
520.0092	-0.0063
520.2065	-0.0129
520.4038	-0.0157
520.6011	-0.0098
520.7984	-0.0134
520.9956	-0.0109
521.1929	-0.0229
521.3901	-0.0061
521.5874	-0.0153
521.7846	-0.0165
521.9818	-0.0163
522.1789	-0.0143
522.3761	-0.0115
522.5732	-0.0087
522.7704	-0.0182
522.9675	-0.0092
523.1646	-0.0201
523.3617	-0.0047
523.5587	-0.0005
523.7558	-0.0095
523.9528	-0.0098
524.1498	-0.0125
524.3468	-0.0052
524.5438	-0.0096
524.7408	-0.0132
524.9378	-0.0057
525.1347	0.0008
525.3316	0.0005
525.5285	-0.0101
525.7254	-0.0143
525.9223	-0.0051
526.1192	-0.0163
526.316	-0.019
526.5129	-0.0115
526.7097	0.001
526.9065	-0.0072
527.1033	-0.0134
527.3	-0.0059
527.4968	-0.0165
527.6935	-0.0075
527.8903	-0.0135
528.087	-0.0077
528.2837	-0.0124
528.4804	-0.0032
528.677	-0.0198
528.8737	-0.0089
529.0703	-0.0103
529.2669	-0.0108
529.4635	-0.012
529.6601	-0.0105
529.8567	-0.0038
530.0532	-0.0205
530.2498	-0.0043
530.4463	-0.0029
530.6428	-0.0062
530.8393	-0.0091
531.0358	-0.0088
531.2322	-0.0045
531.4287	-0.0038
531.6251	-0.0123
531.8215	0.0039
532.0179	-0.0092
532.2143	-0.0003
532.4107	-0.0098
532.607	-0.0143
532.8034	-0.0016
532.9997	-0.0032
533.196	-0.0106
533.3923	-0.0044
533.5886	-0.0073
533.7848	0.0011
533.9811	-0.0067
534.1773	-0.0091
534.3735	0.0012
534.5697	-0.0033
534.7659	0.0005
534.9621	-0.0068
535.1582	-0.0183
535.3544	-0.0018
535.5505	-0.0131
535.7466	-0.011
535.9427	-0.0112
536.1387	-0.0077
536.3348	-0.0044
536.5308	-0.0046
536.7269	-0.0038
536.9229	-0.0023
537.1189	-0.01
537.3148	-0.0064
537.5108	-0.0125
537.7068	-0.0107
537.9027	-0.0142
538.0986	-0.01
538.2945	-0.0112
538.4904	-0.0068
538.6863	-0.0177
538.8821	-0.0043
539.078	-0.0132
539.2738	-0.0031
539.4696	-0.008
539.6654	0.0024
539.8611	0.0077
540.0569	-0.0049
540.2526	-0.0087
540.4484	-0.0071
540.6441	0.0033
540.8398	-0.0043
541.0355	-0.0074
541.2311	-0.0083
541.4268	-0.0094
541.6224	-0.0015
541.818	0.0084
542.0136	-0.0175
542.2092	0.0037
542.4048	-0.0014
542.6003	-0.0079
542.7959	-0.0009
542.9914	-0.0157
543.1869	0.0051
543.3824	-0.0081
543.5779	-0.0018
543.7734	-0.0073
543.9688	-0.01
544.1642	-0.0002
544.3596	-0.0017
544.555	-0.0134
544.7504	-0.0088
544.9458	-0.0181
545.1411	-0.0009
545.3365	-0.0083
545.5318	-0.0061
545.7271	-0.0023
545.9224	0.0018
546.1177	-0.0043
546.3129	-0.0013
546.5081	-0.0042
546.7034	-0.0095
546.8986	-0.0088
547.0938	-0.0085
547.289	-0.0081
547.4841	-0.0005
547.6793	0.0099
547.8744	-0.0167
548.0695	-0.0043
548.2646	-0.0168
548.4597	-0.0026
548.6548	-0.0044
548.8498	0.0022
549.0448	-0.0043
549.2399	-0.0026
549.4349	0.005
549.6298	-0.0068
549.8248	-0.0016
550.0198	-0.0018
550.2147	-0.0093
550.4096	-0.0113
550.6045	-0.0023
550.7994	-0.0012
550.9943	-0.0006
551.1892	-0.0004
551.384	-0.0016
551.5788	-0.0099
551.7737	0.0011
551.9685	-0.0019
552.1632	-0.0027
552.358	-0.0053
552.5528	-0.0059
552.7475	-0.0039
552.9422	0.0049
553.1369	-0.0014
553.3316	-0.0107
553.5263	-0.013
553.7209	0.001
553.9156	-0.0077
554.1102	-0.0071
554.3048	-0.0061
554.4994	0.0038
554.694	-0.0078
554.8885	0.0082
555.0831	-0.0092
555.2776	-0.0028
555.4721	-0.0054
555.6666	-0.0142
555.8611	0.0022
556.0555	-0.0081
556.25	-0.0031
556.4444	-0.0078
556.6388	-0.0028
556.8332	-0.0046
557.0276	0.0016
557.222	-0.0129
557.4163	-0.0058
557.6107	-0.0166
557.805	-0.0018
557.9993	-0.0128
558.1936	-0.0033
558.3879	-0.0057
558.5821	0.0012
558.7764	-0.0099
558.9706	-0.0016
559.1648	-0.0028
559.359	-0.012
559.5532	-0.0043
559.7473	0
559.9415	0.0027
560.1356	-0.01
560.3297	-0.0084
560.5238	-0.0037
560.7179	-0.0078
560.9119	-0.005
561.106	-0.01
561.3	-0.0097
561.494	-0.0123
561.688	-0.0048
561.882	-0.0173
562.076	-0.0131
562.2699	0.0048
562.4639	-0.0006
562.6578	-0.0093
562.8517	-0.0051
563.0456	-0.0002
563.2395	-0.0026
563.4333	0.0041
563.6272	0.0012
563.821	-0.0061
564.0148	-0.0047
564.2086	-0.0093
564.4024	-0.0029
564.5961	-0.0139
564.7899	0.0065
564.9836	-0.0022
565.1773	0.005
565.371	0.0028
565.5647	-0.0041
565.7584	0.0023
565.952	0.0015
566.1456	-0.0052
566.3393	0.0024
566.5329	-0.0059
566.7264	-0.0008
566.92	-0.0065
567.1136	0.0066
567.3071	-0.0047
567.5006	0.0022
567.6941	0.0021
567.8876	-0.0034
568.0811	-0.0054
568.2745	-0.0025
568.468	0.01
568.6614	0.0026
568.8548	-0.0043
569.0482	-0.0036
569.2416	-0.007
569.4349	-0.0028
569.6283	-0.0012
569.8216	-0.0001
570.0149	0.0016
570.2082	0.0053
570.4015	0.003
570.5947	0.0007
570.788	0.0027
570.9812	0.0029
571.1744	-0.0021
571.3676	-0.0076
571.5608	-0.0038
571.754	0.0045
571.9471	0.0026
572.1402	0.0036
572.3333	-0.009
572.5264	-0.0037
572.7195	0.0009
572.9126	0.004
573.1057	-0.0039
573.2987	-0.0109
573.4917	0.0002
573.6847	-0.0052
573.8777	-0.0002
574.0707	0.0058
574.2636	-0.0004
574.4566	-0.0014
574.6495	0.0025
574.8424	-0.0048
575.0353	-0.0006
575.2281	0.0021
575.421	0.0039
575.6138	-0.0055
575.8067	-0.0084
575.9995	-0.0012
576.1923	0.0055
576.385	0.0033
576.5778	-0.0034
576.7706	-0.0051
576.9633	0
577.156	-0.003
577.3487	-0.0023
577.5414	0.0007
577.734	-0.004
577.9267	0.0049
578.1193	-0.0109
578.3119	-0.0021
578.5045	-0.0039
578.6971	0.0004
578.8897	0.0014
579.0822	-0.0046
579.2747	0.0014
579.4673	-0.0006
579.6598	-0.0099
579.8522	0.001
580.0447	-0.0029
580.2372	-0.0072
580.4296	0.0065
580.622	-0.0031
580.8144	0.0021
581.0068	-0.0017
581.1992	-0.0151
581.3915	-0.0084
581.5839	-0.009
581.7762	-0.0097
581.9685	-0.0036
582.1608	-0.0023
582.353	-0.0001
582.5453	-0.0019
582.7375	0.0012
582.9298	0.0006
583.122	-0.0019
583.3142	-0.0038
583.5063	-0.0016
583.6985	-0.0036
583.8906	-0.0001
584.0827	-0.0071
584.2749	0.0005
584.4669	-0.0008
584.659	-0.0002
584.8511	-0.0028
585.0431	-0.0031
585.2352	-0.0008
585.4272	-0.0029
585.6192	-0.0067
585.8111	0.004
586.0031	-0.0037
586.195	-0.0026
586.387	-0.0025
586.5789	-0.002
586.7708	0.0041
586.9627	-0.0063
587.1545	0.0028
587.3464	-0.0049
587.5382	0.0038
587.73	0.0021
587.9218	-0.0032
588.1136	-0.0011
588.3053	-0.0006
588.4971	-0.0061
588.6888	-0.0125
588.8805	0.0051
589.0722	0.0021
589.2639	-0.0002
589.4556	0.0024
589.6472	-0.0018
589.8389	-0.002
590.0305	-0.0074
590.2221	0.0048
590.4137	0.0027
590.6052	0.0065
590.7968	0.0015
590.9883	0.0042
591.1798	0.0027
591.3713	-0.0075
591.5628	-0.001
591.7543	-0.001
591.9458	-0.001
592.1372	0.0031
592.3286	0.011
592.52	0.0011
592.7114	-0.0065
592.9028	-0.0038
593.0941	-0.0031
593.2855	0.0004
593.4768	-0.0105
593.6681	-0.0125
593.8594	-0.0086
594.0506	-0.0019
594.2419	0.0058
594.4331	0.0019
594.6244	0.0039
594.8156	-0.0072
595.0067	0.0021
595.1979	0.0003
595.3891	0.0058
595.5802	-0.0025
595.7713	-0.0123
595.9624	-0.0103
596.1535	0.0038
596.3446	0.0029
596.5357	-0.0044
596.7267	0.004
596.9177	0.0003
597.1087	-0.0069
597.2997	-0.004
597.4907	0
597.6817	-0.0069
597.8726	0.004
598.0635	-0.0046
598.2544	-0.0074
598.4453	0.0004
598.6362	-0.0026
598.827	-0.0035
599.0179	0.0023
599.2087	0.0022
599.3995	-0.0035
599.5903	0.001
599.7811	0.0031
599.9718	-0.0024
600.1626	0.0029
600.3533	-0.0059
600.544	-0.001
600.7347	-0.0006
600.9254	0.0048
601.116	-0.0069
601.3067	-0.0039
601.4973	-0.0049
601.6879	0.0027
601.8785	-0.0042
602.0691	-0.0009
602.2596	-0.0019
602.4502	0.0077
602.6407	-0.0027
602.8312	-0.0023
603.0217	-0.0058
603.2122	-0.0004
603.4027	0.0011
603.5931	0.0042
603.7835	-0.0048
603.9739	0.0019
604.1643	-0.0015
604.3547	0.0015
604.5451	0.0053
604.7354	0.0049
604.9257	0.0066
605.116	-0.0022
605.3063	0.0035
605.4966	0.0003
605.6869	-0.0018
605.8771	-0.0003
606.0673	0.0019
606.2575	0.0079
606.4477	0.0066
606.6379	0.003
606.8281	0.004
607.0182	0.0028
607.2083	0.0092
607.3985	0
607.5885	-0.003
607.7786	-0.0016
607.9687	-0.0005
608.1587	0.0024
608.3488	-0.002
608.5388	0.0064
608.7288	-0.0035
608.9187	-0.0048
609.1087	-0.0061
609.2986	-0.007
609.4886	-0.0044
609.6785	-0.0015
609.8684	0.0039
610.0582	-0.0012
610.2481	-0.0016
610.4379	-0.0037
610.6278	-0.0072
610.8176	-0.0063
611.0074	-0.0049
611.1971	-0.0091
611.3869	-0.0003
611.5766	-0.0072
611.7664	0.0068
611.9561	-0.0017
612.1458	-0.0039
612.3354	-0.0082
612.5251	-0.0062
612.7147	0.0026
612.9044	-0.0008
613.094	-0.0061
613.2836	0.0007
613.4731	-0.0015
613.6627	-0.0024
613.8522	0.0023
614.0417	0.002
614.2313	0.0022
614.4207	-0.0078
614.6102	0.0009
614.7997	0.0003
614.9891	-0.0069
615.1785	-0.0039
615.3679	-0.0071
615.5573	-0.0019
615.7467	0.0077
615.9361	0.0053
616.1254	-0.0014
616.3147	-0.001
616.504	0.0027
616.6933	0.0005
616.8826	0.0041
617.0718	0.0086
617.2611	0.0007
617.4503	-0.0054
617.6395	-0.0066
617.8287	-0.0012
618.0179	0.001
618.207	0.0079
618.3961	0.0011
618.5853	-0.003
618.7744	0.0036
618.9634	0.0035
619.1525	-0.0003
619.3416	0.0029
619.5306	0.0078
619.7196	-0.0066
619.9086	-0.0002
620.0976	-0.0037
620.2866	-0.004
620.4755	-0.003
620.6645	0.0031
620.8534	0.0033
621.0423	0.0038
621.2312	0.0084
621.42	-0.0019
621.6089	-0.0039
621.7977	0.0073
621.9865	-0.0006
622.1753	0.0029
622.3641	-0.0042
622.5529	0.0044
622.7416	0.0012
622.9303	0.0035
623.1191	0.002
623.3078	-0.0083
623.4964	-0.0001
623.6851	-0.002
623.8737	-0.0087
624.0624	0.0087
624.251	-0.0004
624.4396	0.0009
624.6282	-0.0101
624.8167	-0.0049
625.0053	0.0011
625.1938	0.0028
625.3823	0.0038
625.5708	-0.003
625.7593	-0.006
625.9477	-0.0083
626.1362	-0.0104
626.3246	-0.0031
626.513	0.004
626.7014	0.0093
626.8898	-0.0051
627.0781	-0.0053
627.2665	-0.006
627.4548	0.0043
627.6431	0.0008
627.8314	-0.0013
628.0197	0.0063
628.2079	-0.0075
628.3962	-0.0067
628.5844	0.0011
628.7726	0.0044
628.9608	0.0066
629.1489	0.0088
629.3371	0.0134
629.5252	0.002
629.7134	0.0083
629.9015	-0.0001
630.0895	0.0012
630.2776	-0.0023
630.4657	0.0009
630.6537	0.0005
630.8417	-0.0088
631.0297	-0.0043
631.2177	0.001
631.4057	-0.0063
631.5936	0.0037
631.7815	0.0061
631.9695	0.0076
632.1574	0.0113
632.3452	0.0099
632.5331	0.002
632.7209	0.0008
632.9088	0.0051
633.0966	0.0051
633.2844	-0.0044
633.4722	0.0061
633.6599	0.0067
633.8477	0.0014
634.0354	-0.0071
634.2231	-0.0018
634.4108	-0.0009
634.5985	0.0076
634.7861	0.0023
634.9738	-0.0063
635.1614	-0.0019
635.349	0.0072
635.5366	0.0001
635.7242	0.0027
635.9117	0.0036
636.0993	0.0049
636.2868	0.0022
636.4743	-0.0003
636.6618	0.0092
636.8492	-0.0038
637.0367	0.0025
637.2241	-0.0009
637.4115	-0.0002
637.5989	-0.0062
637.7863	0.0006
637.9737	-0.0023
638.161	0.0046
638.3484	-0.0007
638.5357	0.0029
638.723	-0.0018
638.9103	0.0005
639.0975	0.0067
639.2848	0.0026
639.472	0.0003
639.6592	0.0079
639.8464	0.0079
640.0336	0.0046
640.2208	-0.001
640.4079	0.004
640.595	0.004
640.7821	0.0046
640.9692	0.008
641.1563	0.006
641.3434	0.008
641.5304	0.0044
641.7174	0.0018
641.9044	0.0016
642.0914	0.0049
642.2784	0.0033
642.4653	0.004
642.6523	0.0034
642.8392	-0.0032
643.0261	0.0131
643.213	-0.0001
643.3999	0.0004
643.5867	0.0021
643.7735	0.0063
643.9604	-0.0023
644.1472	0.0014
644.3339	0.0045
644.5207	0.0021
644.7075	-0.0048
644.8942	0.0048
645.0809	0.0076
645.2676	0.0118
645.4543	0.0049
645.6409	0.011
645.8276	0.0008
646.0142	0.0067
646.2008	-0.0023
646.3874	-0.0048
646.574	0.0034
646.7605	-0.0059
646.9471	-0.0093
647.1336	0.0016
647.3201	0.003
647.5066	-0.0026
647.6931	-0.0001
647.8795	0.0035
648.0659	0.003
648.2524	0.0042
648.4388	-0.008
648.6252	-0.0001
648.8115	-0.0012
648.9979	0.001
649.1842	0.0083
649.3705	0.0038
649.5568	0.0014
649.7431	0.0051
649.9294	-0.0027
650.1156	-0
650.3018	-0.006
650.488	0.0006
650.6742	0.0011
650.8604	-0.0013
651.0466	-0.0072
651.2327	0.0018
651.4188	-0.0007
651.6049	-0.004
651.791	-0.0016
651.9771	0.0036
652.1632	-0.0007
652.3492	-0.0013
652.5352	0.002
652.7212	-0.0039
652.9072	0.0085
653.0932	-0.0065
653.2791	-0.0078
653.465	0.0006
653.651	0.0002
653.8369	-0.0051
654.0227	0.0017
654.2086	0.0022
654.3944	0.0036
654.5803	0.0088
654.7661	-0.0024
654.9519	0.0006
655.1377	-0.0063
655.3234	-0.0006
655.5092	0.0005
655.6949	-0.002
655.8806	-0.0059
656.0663	-0.002
656.2519	0.0006
656.4376	0.0001
656.6232	0.005
656.8088	-0.0002
656.9945	-0.0021
657.18	0.0042
657.3656	-0.0017
657.5511	0.0016
657.7367	-0.0118
657.9222	0.0053
658.1077	0.0027
658.2932	0.002
658.4786	-0.0066
658.6641	0.0004
658.8495	-0.0008
659.0349	0.0009
659.2203	-0.002
659.4057	0.0025
659.591	0.0005
659.7764	-0.0027
659.9617	-0.0015
660.147	-0.001
660.3323	-0.0014
660.5176	0.0098
660.7028	-0.0001
660.888	0.0064
661.0733	-0.0052
661.2585	-0.0045
661.4436	0.001
661.6288	-0.0037
661.8139	-0.0029
661.9991	0.0064
662.1842	-0.0079
662.3693	0.0062
662.5544	-0.0101
662.7394	0.0005
662.9245	0.0017
663.1095	0.0054
663.2945	-0.001
663.4795	-0.0009
663.6644	0.0085
663.8494	0.0023
664.0343	0.0009
664.2193	-0.0028
664.4042	0.0016
664.589	-0.0075
664.7739	-0.0074
664.9587	-0.0171
665.1436	0.0024
665.3284	0.0004
665.5132	-0.0021
665.698	-0.0049
665.8827	0.0007
666.0675	0.0017
666.2522	-0.0046
666.4369	0.0003
666.6216	0.0036
666.8063	0.0032
666.9909	0.0066
667.1756	-0.0011
667.3602	-0.0022
667.5448	-0.0019
667.7294	0.0109
667.9139	-0.0036
668.0985	0.0122
668.283	-0.0038
668.4675	0.0033
668.652	-0.0024
668.8365	-0.0082
669.0209	0.002
669.2054	0.007
669.3898	-0.0008
669.5742	0.0012
669.7586	0.006
669.943	0.0128
670.1273	-0.0002
670.3117	0.0033
670.496	0.0064
670.6803	0.012
670.8646	0.008
671.0488	0.0044
671.2331	0.0011
671.4173	0.0035
671.6015	-0.003
671.7857	0.0051
671.9699	-0.0003
672.1541	0.0015
672.3382	0.0093
672.5223	0.0088
672.7064	-0.0011
672.8905	0.0029
673.0746	-0.0002
673.2587	0.0019
673.4427	-0.0001
673.6267	0.01
673.8107	0.0082
673.9947	0.0095
674.1787	0.0081
674.3626	-0.006
674.5465	0.0053
674.7304	0.0041
674.9143	0.0017
675.0982	0.0111
675.2821	-0.0067
675.4659	0.0044
675.6497	0.0034
675.8335	0.0002
676.0173	-0.0028
676.2011	0.0012
676.3849	-0.0029
676.5686	-0.0011
676.7523	-0.0036
676.936	-0.0004
677.1197	0.0052
677.3034	-0.004
677.487	0.0049
677.6706	-0.0003
677.8542	0.0019
678.0378	-0.0029
678.2214	-0.0002
678.405	-0.0013
678.5885	-0.0089
678.772	0.0006
678.9555	-0.0047
679.139	0.0007
679.3225	-0.0003
679.5059	0.0046
679.6894	0.0062
679.8728	-0.0012
680.0562	-0.0122
680.2395	-0.002
680.4229	0.0052
680.6062	0.0105
680.7896	-0.0016
680.9729	-0.0067
681.1562	0.0062
681.3394	-0.0016
681.5227	-0.0057
681.7059	-0.0043
681.8891	0.0003
682.0723	-0.0014
682.2555	0.0037
682.4387	0.0028
682.6218	-0.001
682.805	-0.0007
682.9881	-0.0007
683.1712	-0.0076
683.3542	0
683.5373	-0.0024
683.7203	-0.0074
683.9034	-0.0022
684.0864	-0.0068
684.2694	-0.0048
684.4523	0.0032
684.6353	-0.0042
684.8182	-0.0009
685.0011	-0.0071
685.184	0.0069
685.3669	-0.002
685.5498	0.0087
685.7326	-0.0009
685.9154	-0.0079
686.0982	0.0025
686.281	0.0117
686.4638	-0.0014
686.6465	-0.0014
686.8293	-0.004
687.012	0.0028
687.1947	-0.0104
687.3774	0.0019
687.56	-0.0076
687.7427	-0.0019
687.9253	-0.0095
688.1079	0.0018
688.2905	0.0033
688.4731	0.0049
688.6556	-0.0036
688.8382	-0.0034
689.0207	0.008
689.2032	-0.0108
689.3857	-0.0095
689.5681	-0.0016
689.7506	-0.0054
689.933	-0.0104
690.1154	-0.0077
690.2978	-0.0035
690.4802	-0.0039
690.6626	-0.0099
690.8449	-0.0103
691.0272	0.0002
691.2095	-0.0103
691.3918	-0.0101
691.5741	-0.0005
691.7563	-0.0075
691.9386	0.0019
692.1208	-0.0065
692.303	0.0046
692.4852	-0.0009
692.6673	-0.0025
692.8495	0.0029
693.0316	0.0062
693.2137	0.004
693.3958	0.0012
693.5778	-0.0023
693.7599	0.0008
693.9419	0.001
694.1239	-0.0016
694.3059	-0.0018
694.4879	0.0024
694.6699	0.0001
694.8518	0.0109
695.0337	-0.0048
695.2157	0.0039
695.3975	0.0031
695.5794	-0.0006
695.7613	0.0055
695.9431	0.0009
696.1249	0.0045
696.3067	0.0016
696.4885	0.0059
696.6703	-0.0051
696.852	0.001
697.0337	-0.0011
697.2154	0.0019
697.3971	0.0004
697.5788	0.0026
697.7605	0.0007
697.9421	-0.0001
698.1237	-0.0001
698.3053	0.0037
698.4869	-0.0014
698.6685	0.0017
698.85	-0.0049
699.0315	0.0083
699.213	-0.0018
699.3945	-0.0026
699.576	0.0033
699.7575	0.0066
699.9389	0.0068
700.1203	-0.0052
700.3017	-0.0096
700.4831	-0.0051
700.6645	-0.011
700.8458	-0.0009
701.0271	0.0007
701.2084	0.0052
701.3897	0.0001
701.571	-0.0006
701.7523	-0.0084
701.9335	0.0009
702.1147	0.0017
702.2959	0.0046
702.4771	-0.0011
702.6583	-0.0003
702.8394	-0.0047
703.0205	0.0038
703.2016	-0.0032
703.3827	0.0014
703.5638	0.0132
703.7449	0.0034
703.9259	-0.0005
704.1069	-0.0022
704.2879	-0.004
704.4689	-0.0044
704.6499	-0.0024
704.8308	-0.0003
705.0117	0.008
705.1927	-0.0004
705.3735	-0.0046
705.5544	-0.0066
705.7353	-0.0033
705.9161	-0.007
706.0969	-0.009
706.2777	0.0038
706.4585	-0.0072
706.6393	-0.0014
706.82	0.0023
707.0007	0.0057
707.1815	0.002
707.3621	0.0081
707.5428	0.0005
707.7235	-0.0002
707.9041	-0.0009
708.0847	-0.0133
708.2653	-0.0067
708.4459	-0.01
708.6265	-0.0006
708.807	0.0019
708.9875	0.0007
709.168	0.002
709.3485	-0.0004
709.529	-0.0084
709.7095	-0.0174
709.8899	-0.0096
710.0703	-0.0101
710.2507	0.004
710.4311	-0.0014
710.6115	-0.017
710.7918	-0.0079
710.9721	0.0031
711.1524	-0.0046
711.3327	-0.0019
711.513	0.0019
711.6932	-0.0011
711.8735	0.0162
712.0537	0.001
712.2339	0.0048
712.4141	0.0022
712.5942	-0.0086
712.7744	-0.0055
712.9545	-0.0057
713.1346	-0.0026
713.3147	-0.0072
713.4947	-0.0021
713.6748	-0.004
713.8548	-0.005
714.0348	-0.0052
714.2148	-0.0059
714.3948	0.0075
714.5748	-0.0001
714.7547	-0.0052
714.9346	-0.0023
715.1145	-0.0008
715.2944	-0.0068
715.4743	0.0021
715.6541	-0.0042
715.834	0.0051
716.0138	-0.0025
716.1936	-0.0118
716.3733	-0.0083
716.5531	-0.0016
716.7328	-0.0081
716.9126	-0.0043
717.0923	0.0056
717.2719	0.0027
717.4516	-0.0024
717.6312	-0.0029
717.8109	0.0005
717.9905	0.0107
718.1701	-0.0051
718.3496	-0.0112
718.5292	-0
718.7087	-0.0008
718.8882	-0.0063
719.0677	0.0096
719.2472	-0.0024
719.4267	-0.0063
719.6061	0.0071
719.7856	0.0006
719.965	0.0061
720.1443	-0.0065
720.3237	0.0154
720.5031	-0.0045
720.6824	0.0065
720.8617	-0.0048
721.041	0.0006
721.2203	0.0081
721.3995	0.0054
721.5788	0.0065
721.758	-0.0027
721.9372	-0.0021
722.1164	0.0048
722.2956	0.0006
722.4747	0.0005
722.6538	-0.0043
722.8329	0.003
723.012	0.0035
723.1911	0.0002
723.3702	-0.0011
723.5492	0.0082
723.7282	0.0022
723.9072	0.002
724.0862	-0.0069
724.2652	-0.0004
724.4441	-0.0002
724.623	0.0022
724.8019	-0.0028
724.9808	-0.0013
725.1597	-0.0109
725.3385	0.0045
725.5174	-0.0041
725.6962	-0.0058
725.875	0.0008
726.0538	0.0019
726.2325	0.0033
726.4112	-0.0042
726.59	-0.0003
726.7687	-0.0055
726.9474	0.0098
727.126	0.004
727.3047	-0.0017
727.4833	0.0087
727.6619	0.0003
727.8405	-0.0012
728.0191	-0.0011
728.1976	0.0011
728.3762	0.0011
728.5547	0.009
728.7332	-0.0112
728.9116	0.0079
729.0901	0.0021
729.2686	-0.0033
729.447	-0.0049
729.6254	-0.0018
729.8038	-0.0012
729.9821	-0.0145
730.1605	0.0071
730.3388	0.0044
730.5171	-0.0004
730.6954	-0.0073
730.8737	0.0045
731.0519	-0.003
731.2302	-0.0012
731.4084	0.0038
731.5866	0.01
731.7648	-0.0103
731.9429	-0.0086
732.1211	-0.0109
732.2992	-0.0037
732.4773	-0.002
732.6554	-0.0071
732.8335	-0.0057
733.0115	0.0056
733.1896	0.0019
733.3676	-0.0105
733.5456	-0.0006
733.7235	0.0014
733.9015	-0.0028
734.0794	-0.0008
734.2574	-0.009
734.4353	-0.0009
734.6131	0.0031
734.791	0.004
734.9689	-0.0004
735.1467	-0.0057
735.3245	-0.0084
735.5023	-0.0146
735.68	-0.0001
735.8578	0.0037
736.0355	-0.0181
736.2132	-0.0162
736.3909	-0.0056
736.5686	-0.0083
736.7463	-0.0032
736.9239	0.0014
737.1015	0.0012
737.2791	0.0059
737.4567	0.0045
737.6343	0.0003
737.8118	0.0043
737.9894	0.0023
738.1669	-0.008
738.3444	0.0016
738.5218	0.0088
738.6993	-0.0033
738.8767	-0.0009
739.0541	0.0141
739.2315	-0.0052
739.4089	-0.006
739.5863	0.0067
739.7636	-0.0039
739.9409	0.0059
740.1182	0.0072
740.2955	0.0054
740.4728	-0.0032
740.65	0.0036
740.8272	-0.005
741.0044	-0.0081
741.1816	-0.0002
741.3588	-0.0005
741.5359	-0.0014
741.7131	-0.0098
741.8902	-0.0117
742.0673	-0.0067
742.2444	-0.0168
742.4214	-0.0142
742.5985	-0.0103
742.7755	-0.0117
742.9525	-0.0232
743.1295	-0.0016
743.3064	-0.0101
743.4834	-0.0028
743.6603	-0.0052
743.8372	-0.0074
744.0141	-0.0012
744.191	-0.0035
744.3678	0.0014
744.5446	0.0033
744.7215	0.0006
744.8982	-0.0008
745.075	-0.0129
745.2518	0.0055
745.4285	-0.008
745.6052	-0.0137
745.7819	-0.0115
745.9586	-0.0046
746.1353	-0.005
746.3119	-0.0054
746.4885	-0.0075
746.6651	-0.0033
746.8417	-0.0049
747.0183	-0.0042
747.1948	-0.0082
747.3714	0.0006
747.5479	0.0014
747.7244	-0.0027
747.9008	0.0087
748.0773	0.0006
748.2537	0.0029
748.4301	-0.0121
748.6065	0.0083
748.7829	0.0057
748.9593	-0.0022
749.1356	0.0023
749.3119	0.0071
749.4882	-0.0116
749.6645	0.0017
749.8408	-0.0129
750.017	-0.0076
750.1933	0.0012
750.3695	-0.0051
750.5457	-0.0039
750.7218	-0.0009
750.898	0.0038
751.0741	-0.0049
751.2502	-0.0013
751.4263	-0.0107
751.6024	-0.0028
751.7784	-0.0102
751.9545	-0.0074
752.1305	-0.0028
752.3065	-0.0063
752.4825	-0.0034
752.6584	-0.0029
752.8344	-0.0065
753.0103	-0.0078
753.1862	-0.0066
753.3621	-0.0012
753.5379	-0.0047
753.7138	0.0108
753.8896	-0.0039
754.0654	0.005
754.2412	0.005
754.417	-0.0024
754.5927	-0.0045
754.7685	0.0046
754.9442	0.0002
755.1199	0.0106
755.2956	-0.0022
755.4712	0.0107
755.6469	0.0059
755.8225	0.0019
755.9981	-0.0055
756.1736	-0.0023
756.3492	0.0026
756.5248	-0.0069
756.7003	0.0005
756.8758	0.0051
757.0513	-0.0094
757.2267	0.0011
757.4022	0.0122
757.5776	-0.0006
757.753	-0.0031
757.9284	0.0041
758.1038	0.0081
758.2791	0.0083
758.4545	-0.0084
758.6298	-0.0077
758.8051	0.0013
758.9803	-0.0044
759.1556	0.0027
759.3308	-0.0103
759.506	0.007
759.6812	-0.0002
759.8564	0.0108
760.0316	-0.0105
760.2067	0.0007
760.3819	0.0069
760.557	0.0096
760.732	0.007
760.9071	-0.0088
761.0821	0.0034
761.2572	0.0161
761.4322	-0.0042
761.6072	-0.0005
761.7821	-0.0045
761.9571	0.0097
762.132	0.0081
762.3069	-0.0069
762.4818	0.007
762.6567	0.0004
762.8316	0.0025
763.0064	-0.0064
763.1812	0.0023
763.356	-0.0023
763.5308	-0.0043
763.7055	-0.0036
763.8803	-0.0017
764.055	-0.0039
764.2297	0.0009
764.4044	-0.0064
764.579	-0.004
764.7537	-0.0194
764.9283	0.0029
765.1029	-0.0102
765.2775	-0.0117
765.4521	-0.0081
765.6266	-0.0109
765.8011	-0.0134
765.9756	-0.0052
766.1501	0.0017
766.3246	-0.0013
766.4991	-0.003
766.6735	0.0085
766.8479	-0.0109
767.0223	0.0098
767.1967	0
767.371	-0.0004
767.5454	-0.0042
767.7197	0.0065
767.894	0.0009
768.0683	-0.0088
768.2425	0.0036
768.4168	-0.0061
768.591	0.0066
768.7652	0.0046
768.9394	0.0017
769.1135	0.003
769.2877	-0.0087
769.4618	0.0032
769.6359	-0.0034
769.81	0.0022
769.984	0.0093
770.1581	0.0085
770.3321	0.0091
770.5061	-0.0008
770.6801	0.0014
770.8541	0.0092
771.028	0.01
771.202	-0.0086
771.3759	0.013
771.5498	-0.0041
771.7236	0.0064
771.8975	-0.0002
772.0713	0.0122
772.2451	0.0077
772.4189	-0.0013
772.5927	0.0106
772.7665	0.0011
772.9402	-0.0035
773.1139	0.0071
773.2876	0.0112
773.4613	0.0104
773.635	0.0137
773.8086	0.0036
773.9822	0.0086
774.1558	-0.0007
774.3294	-0.0068
774.503	-0.0001
774.6765	-0.0045
774.8501	0.0054
775.0236	-0.0018
775.1971	-0.0027
775.3705	-0.0128
775.544	0.0011
775.7174	-0.0071
775.8908	-0.0053
776.0642	-0.0147
776.2376	-0.0016
776.4109	-0.0074
776.5843	0.0073
776.7576	0.0034
776.9309	0.0051
777.1041	0.0088
777.2774	0.0087
777.4506	-0.0065
777.6238	-0.005
777.797	0.0052
777.9702	0.0109
778.1434	0.004
778.3165	-0.0085
778.4896	-0.0026
778.6627	0.0068
778.8358	-0.0023
779.0089	-0.0033
779.1819	-0.0041
779.3549	0.0026
779.5279	0.0051
779.7009	-0.0015
779.8739	0.0029
780.0468	0.0045
780.2197	0.0057
780.3926	-0.0036
780.5655	0.0003
780.7384	0.0013
780.9112	-0.0025
781.0841	0.0033
781.2569	0.0105
781.4297	0.003
781.6024	0.0051
781.7752	0.0029
781.9479	0.0091
782.1206	0.0058
782.2933	-0.0114
782.466	0.0008
782.6386	0.0017
782.8113	0.0037
782.9839	0.0013
783.1565	0.0087
783.329	0.0016
783.5016	0.0081
783.6741	0.0218
783.8466	-0.0074
784.0191	0.0126
784.1916	0.004
784.3641	0.0071
784.5365	-0.0013
784.7089	-0.0051
784.8813	-0.0055
785.0537	-0.0018
785.2261	-0.0159
785.3984	-0.004
785.5707	-0.0124
785.743	0.0071
785.9153	-0.0139
786.0876	-0.0005
786.2598	-0.003
786.432	-0.0124
786.6042	0.0174
786.7764	-0.0076
786.9486	0.0039
787.1207	-0.0105
787.2928	0.0141
787.4649	0.0022
787.637	0.0071
787.8091	0.0008
787.9811	-0.0098
788.1532	0.0009
788.3252	0.0022
788.4972	-0.0033
788.6691	0.0052
788.8411	0.0086
789.013	-0.0122
789.1849	0.0063
789.3568	0.0023
789.5287	-0.0031
789.7005	0.0034
789.8723	-0.0075
790.0442	0.0119
790.2159	0.0051
790.3877	-0.0064
790.5595	-0.0083
790.7312	0.0019
790.9029	0.0005
791.0746	-0.0123
791.2463	-0.0131
791.4179	-0.0164
791.5896	-0.0083
791.7612	-0.0081
791.9328	-0.0088
792.1044	-0.0073
792.2759	-0.0188
792.4474	-0.0125
792.619	0.0141
792.7905	0.0073
792.9619	-0.0075
793.1334	0.0043
793.3048	-0.0013
793.4762	0.0034
793.6476	0.0051
793.819	-0.0214
793.9904	-0.0052
794.1617	-0.0098
794.333	-0.0024
794.5043	-0.0061
794.6756	-0.0133
794.8469	-0.0156
795.0181	-0.0058
795.1893	-0.0234
795.3605	0.0054
795.5317	-0.0061
795.7029	-0.0037
795.874	0.003
796.0452	0.0111
796.2163	0.0036
796.3873	0.0101
796.5584	0.0079
796.7294	-0.0052
796.9005	0.0237
797.0715	0.0013
797.2425	-0.0044
797.4134	-0.0091
797.5844	-0.0031
797.7553	-0.0109
797.9262	0.009
798.0971	-0.0118
798.2679	-0.0218
798.4388	-0.0313
798.6096	-0.0029
798.7804	-0.002
798.9512	-0.0129
799.122	-0.0039
799.2927	0.0084
799.4635	0.0003
799.6342	-0.0249
799.8049	0.0064
799.9755	-0.0077
800.1462	-0.0079
800.3168	0.0038
800.4874	0.0055
800.658	0.0191
800.8286	-0.007
800.9991	0.0166
801.1696	0.0244
801.3402	0.0112
801.5106	-0.0105
801.6811	0.0095
801.8516	0.0077
802.022	0.0145
802.1924	0.0113
802.3628	-0.0001
802.5332	0.0111
802.7035	0.017
802.8739	-0.0077
803.0442	-0.0063
803.2145	0.0009
803.3847	-0.0044
803.555	0.0016
803.7252	-0.022
803.8954	-0.0082
804.0656	-0.0063
804.2358	0.0085
804.4059	0.0037
804.5761	-0.0063
804.7462	0.0103
804.9163	-0.0081
805.0864	-0.0035
805.2564	-0.0203
805.4264	-0.0012
805.5965	-0.0234
805.7665	0.0031
805.9364	-0.0081
806.1064	0.012
806.2763	0.0109
806.4462	0.0118
806.6161	0.001
806.786	-0.001
806.9559	-0.01
807.1257	-0.01
807.2955	-0.0104
807.4653	-0.006
807.6351	-0.0187
807.8048	0.0096
807.9746	0.0128
808.1443	0.0153
808.314	0.0008
808.4837	-0.0032
808.6533	-0.0165
808.8229	0.0205
808.9926	-0.005
809.1622	-0.0004
809.3317	-0.0159
809.5013	0.0024
809.6708	0.0043
809.8403	0.0016
810.0098	-0.0163
810.1793	-0.0094
810.3488	-0.0083
810.5182	-0.0095
810.6876	0.0032
810.857	0.0007
811.0264	0.0096
811.1958	0.0158
811.3651	-0.0246
811.5344	-0.0038
811.7037	-0.0009
811.873	-0.0116
812.0422	-0.0043
812.2115	-0.006
812.3807	-0.0183
812.5499	-0.0092
812.7191	-0.0159
812.8882	-0.0212
813.0574	-0.0064
813.2265	-0.009
813.3956	-0.0098
813.5646	-0.0167
813.7337	-0.0082
813.9027	0.0015
814.0718	0.009
814.2407	0.0091
814.4097	-0.0184
814.5787	-0.0264
814.7476	-0.0097
814.9165	0.0052
815.0854	-0.0397
815.2543	0.008
815.4232	-0.0029
815.592	0.0027
815.7608	0.0121
815.9296	-0.0019
816.0984	0.0037
816.2671	-0.0212
816.4359	-0.0041
816.6046	-0.01
816.7733	-0.0175
816.942	-0.0228
817.1106	-0.0111
817.2793	0.0065
817.4479	-0.0116
817.6165	0.0132
817.785	0.0059
817.9536	-0.0241
818.1221	-0.0172
818.2906	-0.0018
818.4591	0.0101
818.6276	-0.0324
818.7961	0.0085
818.9645	-0.0038
819.1329	-0.0045
819.3013	0.0153
819.4697	0.0227
819.638	-0.0002
819.8064	0.0207
819.9747	0.0086
820.143	-0.0101
820.3113	-0.0009
820.4795	-0.0057
820.6477	-0.0097
820.816	0.0012
820.9842	0.0242
821.1523	-0.0077
821.3205	-0.0062
821.4886	-0.0251
821.6567	-0.003
821.8248	0.0125
821.9929	0.0106
822.1609	0.0047
822.329	0.0279
822.497	0.0112
822.665	-0.0045
822.833	0.0002
823.0009	-0.0061
823.1688	0.0182
823.3367	0.0266
823.5046	0.0114
823.6725	0.0186
823.8404	-0.0022
824.0082	0.0049
824.176	-0.0126
824.3438	0.0231
824.5116	0.0019
824.6793	0.0308
824.847	-0.0084
825.0147	0.0058
825.1824	0.0295
825.3501	0.0126
825.5177	-0.0064
825.6854	-0.0066
825.853	0.0091
826.0206	-0.0269
826.1881	0.0041
826.3557	-0.0369
826.5232	0.0059
826.6907	-0.0226
826.8582	-0.0274
827.0257	0.0007
827.1931	0.0103
827.3605	-0.0043
827.528	-0.0039
827.6953	-0.0214
827.8627	-0.0304
828.03	0.0438
828.1974	-0.0332
828.3647	-0.0517
828.532	-0.0416
828.6992	-0.0452
828.8665	-0.0078
829.0337	-0.0038
829.2009	0.0165
829.3681	-0.0317
829.5352	0.0174
829.7024	-0.0202
829.8695	-0.0409
830.0366	0.0706
830.2037	0.0195
830.3707	-0.0129
830.5378	-0.016
830.7048	0.008
830.8718	-0.021
831.0388	-0.0116
831.2057	0.0089
831.3727	-0.0075
831.5396	-0.0087
831.7065	-0.0227
831.8734	0.0219
832.0402	-0.0279
832.2071	-0.0092
832.3739	-0.0098
832.5407	-0.0045
832.7075	-0.0339
832.8742	-0.0076
833.041	-0.0036
833.2077	0.0065
833.3744	0.0009
833.541	0.0251
833.7077	0.0098
833.8743	0.0177
834.0409	0.0426
834.2075	-0.0171
834.3741	-0.0184
834.5407	0.0126
834.7072	0.0225
834.8737	-0.0329
835.0402	-0.0187
835.2067	-0.0053
835.3731	-0.0121
835.5395	0.0391
835.706	0.0263
835.8723	-0.0447
836.0387	0.0282
836.2051	-0.0388
836.3714	0.01
836.5377	-0.0132
836.704	-0.0533
836.8703	0.0299
837.0365	0.0092
837.2027	-0.0174
837.3689	0.02
837.5351	0.0041
837.7013	-0.0417
837.8674	-0.0276
838.0335	-0.0564
838.1997	0.0178
838.3657	-0.0202
838.5318	-0.0004
838.6978	0.018
838.8639	0.0194
839.0299	0.043
839.1958	-0.0051
839.3618	0.038
839.5277	-0.0443
839.6937	-0.0406
839.8596	-0.0361
840.0254	-0.0012
840.1913	0.033
840.3571	0.0102
840.523	-0.018
840.6888	-0.0161
840.8545	-0.0555
841.0203	-0.0031
841.186	0.0352
841.3517	0.0398
841.5174	0.0004
841.6831	-0.018
841.8488	0.0068
842.0144	0.0051
842.18	-0.0169
842.3456	0.0408
842.5112	-0.0466
842.6767	-0.0015
842.8422	-0.0111
843.0077	0.0015
843.1732	-0.0561
843.3387	-0.0226
843.5042	-0.0288
843.6696	-0.0308
843.835	0.0509
844.0004	0.0296
844.1657	-0.0025
844.3311	-0.0461
844.4964	-0.0478
844.6617	-0.0449
844.827	-0.0254
844.9923	-0.0017
845.1575	-0.0018
845.3227	0.038
845.4879	0.0017
845.6531	-0.0164
845.8183	-0.0918
845.9834	0.0082
846.1485	-0.035
846.3136	-0.0739
846.4787	-0.0351
846.6438	0.0152
846.8088	-0.0411
846.9738	-0.0907
847.1388	-0.0063
847.3038	-0.0626
847.4687	-0.1207
847.6337	0.0046
847.7986	0.006
847.9635	-0.0333
848.1284	0.009
848.2932	0.0329
848.458	-0.0336
848.6228	0.0191
848.7876	0.0107
848.9524	-0.103
849.1172	-0.0919
849.2819	-0.0035
849.4466	-0.0919
849.6113	-0.0727
849.7759	-0.0776
849.9406	-0.0804
850.1052	-0.0095
850.2698	-0.0559
850.4344	-0.0331
850.599	-0.1077
850.7635	0.0483
850.928	-0.0594
851.0925	-0.065
851.257	-0.0266
851.4215	-0.041
851.5859	-0.0771
851.7503	0.0054
851.9147	-0.0279
852.0791	-0.1316
852.2434	-0.0802
852.4078	0.1118
852.5721	0.0223
852.7364	-0.0807
852.9007	-0.08
853.0649	-0.001
853.2291	-0.0416
853.3934	-0.0214
853.5575	-0.0622
853.7217	-0.0383
853.8859	-0.1906
854.05	-0.0392
854.2141	-0.0432
854.3782	-0.0789
854.5423	-0.0815
854.7063	0.0894
854.8703	-0.077
855.0343	-0.0405
855.1983	-0.1723
855.3623	0.0472
855.5262	0.1104
855.6901	-0.0707
855.854	-0.0192
856.0179	0.1699
856.1818	0.0444
856.3456	-0.0215
856.5094	-0.1122
856.6732	-0.1209
856.837	-0.1243
857.0008	0.1028
857.1645	-0.101
857.3282	-0.2209
857.4919	-0.0553
857.6556	-0.0101
857.8192	0.0931
857.9828	0.0248
858.1465	-0.1733
858.31	-0.2313
858.4736	-0.1082
858.6372	-0.2326
858.8007	-0.1808
858.9642	-0.1173
859.1277	-0.0575
859.2911	0.0311
859.4546	-0.0498
859.618	-0.3652
859.7814	0.0017
859.9448	0.0154
860.1081	0.0027
860.2715	0.1056
860.4348	-0.072
860.5981	-0.1449
860.7614	0.1155
860.9246	-0.0189
861.0879	-0.1893
861.2511	0.1781
861.4143	-0.1232
861.5774	0.2731
861.7406	0.1175
861.9037	-0.0362
862.0668	0.0607
862.2299	-0.1829
862.393	-0.3399
862.556	-0.1412
862.7191	-0.0172
862.8821	-0.3471
863.0451	0.1529
863.208	-0.0984
863.371	-0.0794
863.5339	-0.0167
863.6968	0.0551
863.8597	-0.0167
864.0225	0.0814
864.1854	0.0527
864.3482	0.0311
864.511	0.1006
864.6737	0.1074
864.8365	0.1773
864.9992	-0.5262
865.1619	-0.503
865.3246	-0.1078
865.4873	0.0125
865.65	-0.1376
865.8126	0.037
865.9752	-0.0946
866.1378	-0.1199
866.3004	-0
866.4629	0.1339
866.6254	0.0814
866.7879	-0.2354
866.9504	-0
867.1129	-0
867.2753	0.5225
867.4377	0.0198
867.6001	0.2677
867.7625	0.1246
867.9249	-0.3351
868.0872	1.1361
868.2495	-0.059
868.4118	-0.0076
868.5741	-0.5022
868.7363	-0.2041
868.8986	0.0121
869.0608	-0.29
869.223	0.1646
869.3851	-0.0255
869.5473	-0
869.7094	0.2306
869.8715	0.3318
870.0336	-0
870.1957	-0.4188
870.3577	-0
870.5197	-0.13
870.6817	-0.3791
870.8437	0.1839
871.0057	-0
871.1676	-0.3482
871.3295	-0.3167
871.4914	-0.4407
871.6533	-0.3406
871.8151	-0.3186
871.977	-0
872.1388	-0
872.3006	0.1875
872.4623	-0
872.6241	0.681
872.7858	1.0814
872.9475	-0.0777
873.1092	-0.0335
873.2709	-0
873.4325	0.1042
873.5941	-0.019
873.7557	-0
873.9173	-0
874.0789	-0.0877
874.2404	-0.6453
874.4019	0.3367
874.5634	-0.4693
874.7249	-0
874.8863	0.1063
875.0478	0.7083
875.2092	-0
875.3706	0.2031
875.5319	-0.9066
875.6933	-0.1771
875.8546	-0.4784
876.0159	0.2063
876.1772	-0
876.3385	-0
876.4997	0.1307
876.6609	-0.4331
876.8221	-0
876.9833	0.2461
877.1445	-0
877.3056	0.0959
877.4667	-0.1207
877.6278	-0.1693
877.7889	-0.3736
877.9499	-0.5177
878.111	-0.1107
878.272	-0
878.433	-0
878.5939	-0
878.7549	0.3633
878.9158	-0
879.0767	0.4605
879.2376	-0
879.3984	0.19
879.5593	-0.3857
879.7201	0.2225
879.8809	-0.0209
880.0417	0.0146
880.2024	-0.1411
880.3632	-0
880.5239	0.3258
880.6846	-0
880.8452	-2.2041
881.0059	-1.6021
881.1665	0.6335
881.3271	0.0085
881.4877	-0.2866
881.6483	0.0168
881.8088	-0.4644
881.9693	0.0425
882.1298	0.0425
882.2903	0.0425
