Data from MonoPyChalIsomerACN10uM410nmA_Absorbance_14-53-28-173.txt Node
Date: Fri Jul 05 14:53:28 BST 2024
User: LASERRRRR
Spectrometer: FLMT03099
Trigger mode: 0
Integration Time (sec): 1.000000E-1
Scans to average: 1
Electric dark correction enabled: true
Nonlinearity correction enabled: false
Boxcar width: 0
XAxis mode: Wavelengths
Number of Pixels in Spectrum: 3648
>>>>>Begin Spectral Data<<<<<
179.3399	0.0114
179.5586	0.0114
179.7771	0.0114
179.9957	-0
180.2143	1.0414
180.4329	0.0058
180.6514	1.1516
180.8699	0.5798
181.0885	1.1389
181.307	0.2044
181.5255	-0.4921
181.744	-0.3166
181.9625	-0
182.181	-0
182.3994	-0
182.6179	-0
182.8363	-0.1796
183.0547	-0.3666
183.2732	-0.0027
183.4916	-0.0029
183.71	0.2914
183.9284	0.1325
184.1467	-0.059
184.3651	-0.0809
184.5835	-0.0416
184.8018	-0.0906
185.0201	0.0761
185.2385	0.0739
185.4568	0.3983
185.6751	0.1214
185.8934	0.3982
186.1117	0.1021
186.3299	0.185
186.5482	-0.0118
186.7664	-0.1827
186.9847	0.0499
187.2029	0.1429
187.4211	-0.0355
187.6393	0.5756
187.8575	0.2031
188.0757	0.1358
188.2939	0.1936
188.512	-0.0781
188.7302	0.1312
188.9483	0.1107
189.1665	0.2042
189.3846	-0.2978
189.6027	0.1286
189.8208	0.5174
190.0389	0.0603
190.257	0.327
190.475	0.1488
190.6931	0.3435
190.9111	0.3924
191.1292	0.1098
191.3472	0.6366
191.5652	0.3076
191.7832	0.3903
192.0012	0.4743
192.2192	0.3938
192.4371	0.5909
192.6551	0.4314
192.873	0.4496
193.091	0.4646
193.3089	1.8556
193.5268	0.748
193.7447	0.7436
193.9626	0.4439
194.1805	0.914
194.3984	0.6711
194.6162	0.5424
194.8341	0.499
195.0519	0.5791
195.2697	0.7476
195.4875	0.7643
195.7054	0.5272
195.9231	0.5175
196.1409	0.6349
196.3587	0.4809
196.5765	0.6909
196.7942	0.6069
197.012	0.4926
197.2297	0.7009
197.4474	0.6918
197.6651	0.4888
197.8828	0.5435
198.1005	0.6945
198.3182	0.6956
198.5358	0.8589
198.7535	0.7173
198.9711	0.5453
199.1888	0.6701
199.4064	0.7522
199.624	0.4909
199.8416	0.5057
200.0592	0.5665
200.2767	0.5623
200.4943	0.617
200.7119	0.718
200.9294	0.6439
201.1469	0.5674
201.3645	0.5638
201.582	0.5361
201.7995	0.6298
202.017	0.6058
202.2344	0.5758
202.4519	0.703
202.6694	0.6715
202.8868	0.6355
203.1042	0.8375
203.3217	0.6758
203.5391	0.6406
203.7565	0.7061
203.9739	0.6267
204.1913	0.6068
204.4086	0.633
204.626	0.7244
204.8433	0.647
205.0607	0.675
205.278	0.7348
205.4953	0.6025
205.7126	0.6582
205.9299	0.7575
206.1472	0.767
206.3644	0.6225
206.5817	0.744
206.7989	0.6455
207.0162	0.6788
207.2334	0.66
207.4506	0.6377
207.6678	0.6099
207.885	0.6395
208.1022	0.7054
208.3194	0.6474
208.5365	0.6537
208.7537	0.6221
208.9708	0.5715
209.1879	0.6299
209.405	0.7089
209.6222	0.7509
209.8392	0.6712
210.0563	0.6809
210.2734	0.6709
210.4905	0.5945
210.7075	0.6283
210.9245	0.5395
211.1416	0.683
211.3586	0.6593
211.5756	0.5565
211.7926	0.6099
212.0096	0.562
212.2265	0.5331
212.4435	0.5938
212.6604	0.616
212.8774	0.5898
213.0943	0.6636
213.3112	0.5454
213.5281	0.536
213.745	0.5011
213.9619	0.5034
214.1788	0.4653
214.3956	0.4397
214.6125	0.4877
214.8293	0.4644
215.0461	0.4591
215.2629	0.4462
215.4798	0.4395
215.6965	0.3942
215.9133	0.4321
216.1301	0.4091
216.3469	0.4329
216.5636	0.4369
216.7803	0.3986
216.9971	0.4201
217.2138	0.361
217.4305	0.3791
217.6472	0.3543
217.8639	0.3968
218.0805	0.369
218.2972	0.33
218.5138	0.2956
218.7305	0.2868
218.9471	0.2962
219.1637	0.292
219.3803	0.262
219.5969	0.2713
219.8135	0.2668
220.0301	0.2655
220.2466	0.2894
220.4632	0.2598
220.6797	0.2544
220.8962	0.2367
221.1127	0.2542
221.3292	0.232
221.5457	0.2317
221.7622	0.2264
221.9787	0.2338
222.1951	0.2277
222.4116	0.2557
222.628	0.2379
222.8444	0.2447
223.0608	0.256
223.2772	0.2544
223.4936	0.2438
223.71	0.2499
223.9264	0.2627
224.1427	0.25
224.3591	0.231
224.5754	0.2586
224.7917	0.2483
225.008	0.262
225.2243	0.2605
225.4406	0.2708
225.6569	0.2694
225.8732	0.265
226.0894	0.2566
226.3057	0.279
226.5219	0.271
226.7381	0.259
226.9543	0.2791
227.1705	0.2945
227.3867	0.2764
227.6029	0.278
227.8191	0.2943
228.0352	0.2969
228.2513	0.2949
228.4675	0.3089
228.6836	0.2832
228.8997	0.2879
229.1158	0.3051
229.3319	0.304
229.548	0.3163
229.764	0.3217
229.9801	0.3342
230.1961	0.3191
230.4121	0.313
230.6282	0.3178
230.8442	0.3062
231.0602	0.3476
231.2761	0.3677
231.4921	0.3461
231.7081	0.3444
231.924	0.3284
232.14	0.3432
232.3559	0.3207
232.5718	0.3536
232.7877	0.3505
233.0036	0.3354
233.2195	0.3492
233.4353	0.3553
233.6512	0.3638
233.867	0.3651
234.0829	0.3565
234.2987	0.3497
234.5145	0.3656
234.7303	0.3543
234.9461	0.3808
235.1619	0.3794
235.3776	0.3925
235.5934	0.3696
235.8091	0.358
236.0249	0.375
236.2406	0.3758
236.4563	0.3754
236.672	0.4019
236.8877	0.3902
237.1034	0.383
237.319	0.3908
237.5347	0.4068
237.7503	0.4006
237.966	0.3819
238.1816	0.4016
238.3972	0.383
238.6128	0.3884
238.8284	0.3982
239.0439	0.4028
239.2595	0.3971
239.475	0.4104
239.6906	0.4097
239.9061	0.3953
240.1216	0.3888
240.3371	0.3931
240.5526	0.4019
240.7681	0.4188
240.9836	0.3832
241.199	0.4081
241.4145	0.3872
241.6299	0.3833
241.8453	0.3901
242.0607	0.4011
242.2761	0.3582
242.4915	0.3766
242.7069	0.3598
242.9223	0.358
243.1376	0.3575
243.353	0.3585
243.5683	0.3518
243.7836	0.3396
243.9989	0.3255
244.2142	0.3206
244.4295	0.3385
244.6448	0.3161
244.86	0.3192
245.0753	0.296
245.2905	0.3042
245.5057	0.2825
245.721	0.2955
245.9362	0.2715
246.1514	0.2928
246.3665	0.2684
246.5817	0.262
246.7969	0.2684
247.012	0.2389
247.2271	0.2492
247.4423	0.2574
247.6574	0.2629
247.8725	0.2469
248.0876	0.2342
248.3026	0.2217
248.5177	0.2209
248.7328	0.2156
248.9478	0.2124
249.1628	0.2203
249.3779	0.2297
249.5929	0.2105
249.8079	0.2208
250.0228	0.2074
250.2378	0.2156
250.4528	0.2066
250.6677	0.1969
250.8827	0.1943
251.0976	0.1998
251.3125	0.1918
251.5274	0.1631
251.7423	0.1764
251.9572	0.1911
252.172	0.1926
252.3869	0.1826
252.6017	0.1903
252.8166	0.1695
253.0314	0.1617
253.2462	0.1826
253.461	0.1686
253.6758	0.178
253.8906	0.1812
254.1053	0.1646
254.3201	0.1672
254.5348	0.1801
254.7496	0.1833
254.9643	0.1713
255.179	0.1727
255.3937	0.1664
255.6083	0.1659
255.823	0.1629
256.0377	0.1568
256.2523	0.1755
256.467	0.1467
256.6816	0.1728
256.8962	0.1639
257.1108	0.1591
257.3254	0.1771
257.54	0.1559
257.7545	0.1624
257.9691	0.1723
258.1836	0.1584
258.3981	0.1696
258.6127	0.1813
258.8272	0.1625
259.0417	0.1562
259.2561	0.1581
259.4706	0.1547
259.6851	0.1587
259.8995	0.1695
260.114	0.1649
260.3284	0.1674
260.5428	0.1571
260.7572	0.174
260.9716	0.1675
261.186	0.16
261.4003	0.152
261.6147	0.1711
261.829	0.1608
262.0433	0.1641
262.2577	0.1561
262.472	0.1673
262.6863	0.1604
262.9005	0.1705
263.1148	0.162
263.3291	0.15
263.5433	0.1607
263.7576	0.1683
263.9718	0.1718
264.186	0.1656
264.4002	0.1643
264.6144	0.1576
264.8286	0.1753
265.0427	0.1552
265.2569	0.1553
265.471	0.1643
265.6851	0.1618
265.8993	0.1629
266.1134	0.142
266.3275	0.1618
266.5415	0.1631
266.7556	0.162
266.9697	0.1528
267.1837	0.1605
267.3978	0.1653
267.6118	0.1722
267.8258	0.166
268.0398	0.1643
268.2538	0.1786
268.4677	0.163
268.6817	0.1489
268.8957	0.1636
269.1096	0.1645
269.3235	0.177
269.5374	0.156
269.7514	0.151
269.9652	0.1551
270.1791	0.1574
270.393	0.1531
270.6068	0.1446
270.8207	0.1591
271.0345	0.1423
271.2483	0.1459
271.4622	0.1525
271.676	0.1572
271.8897	0.1421
272.1035	0.1444
272.3173	0.146
272.531	0.1564
272.7448	0.1465
272.9585	0.1529
273.1722	0.1567
273.3859	0.1544
273.5996	0.1403
273.8133	0.1607
274.0269	0.1491
274.2406	0.1473
274.4542	0.1533
274.6679	0.1431
274.8815	0.1528
275.0951	0.1654
275.3087	0.1529
275.5223	0.157
275.7358	0.1591
275.9494	0.1548
276.1629	0.1545
276.3765	0.1457
276.59	0.15
276.8035	0.1602
277.017	0.1489
277.2305	0.1598
277.444	0.161
277.6574	0.1495
277.8709	0.1441
278.0843	0.1526
278.2978	0.1473
278.5112	0.1587
278.7246	0.1499
278.938	0.1536
279.1513	0.1671
279.3647	0.17
279.5781	0.1597
279.7914	0.1522
280.0047	0.1685
280.2181	0.1522
280.4314	0.1582
280.6447	0.1651
280.8579	0.1608
281.0712	0.1575
281.2845	0.1585
281.4977	0.1642
281.711	0.1457
281.9242	0.1599
282.1374	0.1581
282.3506	0.1483
282.5638	0.1635
282.7769	0.1547
282.9901	0.1572
283.2033	0.1636
283.4164	0.1739
283.6295	0.1533
283.8426	0.1495
284.0557	0.1619
284.2688	0.1809
284.4819	0.1621
284.695	0.1547
284.908	0.1752
285.1211	0.1549
285.3341	0.1618
285.5471	0.1619
285.7601	0.1569
285.9731	0.1596
286.1861	0.1623
286.3991	0.1628
286.612	0.175
286.825	0.1583
287.0379	0.1635
287.2508	0.1516
287.4637	0.1582
287.6766	0.14
287.8895	0.1689
288.1024	0.1702
288.3152	0.1715
288.5281	0.1615
288.7409	0.1481
288.9538	0.1497
289.1666	0.1601
289.3794	0.1602
289.5922	0.1534
289.8049	0.1558
290.0177	0.1503
290.2304	0.1607
290.4432	0.1656
290.6559	0.1685
290.8686	0.1654
291.0813	0.1615
291.294	0.1563
291.5067	0.1642
291.7194	0.1558
291.932	0.1775
292.1447	0.1568
292.3573	0.1503
292.5699	0.1588
292.7825	0.1665
292.9951	0.1527
293.2077	0.1542
293.4203	0.1475
293.6328	0.1474
293.8454	0.1643
294.0579	0.1607
294.2704	0.1559
294.4829	0.1406
294.6954	0.1528
294.9079	0.1647
295.1204	0.1587
295.3328	0.1501
295.5453	0.1512
295.7577	0.1544
295.9701	0.1398
296.1825	0.1475
296.3949	0.1497
296.6073	0.1492
296.8197	0.1454
297.0321	0.1604
297.2444	0.1399
297.4567	0.161
297.6691	0.1671
297.8814	0.1423
298.0937	0.149
298.306	0.1618
298.5182	0.1468
298.7305	0.1511
298.9428	0.1482
299.155	0.1639
299.3672	0.1538
299.5794	0.143
299.7916	0.1523
300.0038	0.1558
300.216	0.1491
300.4282	0.1618
300.6403	0.1572
300.8525	0.1596
301.0646	0.1459
301.2767	0.1499
301.4888	0.1422
301.7009	0.155
301.913	0.1583
302.125	0.1579
302.3371	0.1528
302.5491	0.1537
302.7612	0.1644
302.9732	0.1538
303.1852	0.162
303.3972	0.1496
303.6092	0.1433
303.8211	0.1416
304.0331	0.1538
304.245	0.1423
304.457	0.1387
304.6689	0.1596
304.8808	0.1454
305.0927	0.1364
305.3046	0.1505
305.5164	0.1466
305.7283	0.1342
305.9401	0.1368
306.152	0.1484
306.3638	0.1434
306.5756	0.1335
306.7874	0.1497
306.9992	0.144
307.2109	0.1413
307.4227	0.1244
307.6344	0.1358
307.8462	0.1298
308.0579	0.1351
308.2696	0.1289
308.4813	0.1254
308.693	0.1257
308.9046	0.1375
309.1163	0.122
309.328	0.1226
309.5396	0.1231
309.7512	0.1166
309.9628	0.1218
310.1744	0.1264
310.386	0.1183
310.5976	0.1203
310.8091	0.1247
311.0207	0.1107
311.2322	0.1157
311.4437	0.102
311.6552	0.11
311.8667	0.1201
312.0782	0.0948
312.2897	0.0983
312.5012	0.1039
312.7126	0.1001
312.924	0.1182
313.1355	0.1226
313.3469	0.1102
313.5583	0.1056
313.7696	0.1156
313.981	0.1207
314.1924	0.0981
314.4037	0.1048
314.6151	0.1128
314.8264	0.1016
315.0377	0.1012
315.249	0.0988
315.4603	0.1077
315.6716	0.1055
315.8828	0.095
316.0941	0.0932
316.3053	0.1042
316.5165	0.0892
316.7277	0.0969
316.9389	0.1249
317.1501	0.1046
317.3613	0.1106
317.5724	0.0911
317.7836	0.1055
317.9947	0.1017
318.2058	0.1047
318.417	0.1005
318.6281	0.092
318.8391	0.097
319.0502	0.0964
319.2613	0.1044
319.4723	0.0995
319.6834	0.104
319.8944	0.097
320.1054	0.1086
320.3164	0.0999
320.5274	0.0976
320.7383	0.0993
320.9493	0.0974
321.1602	0.1203
321.3712	0.0979
321.5821	0.1125
321.793	0.1115
322.0039	0.1113
322.2148	0.0996
322.4257	0.1088
322.6365	0.1148
322.8474	0.106
323.0582	0.1019
323.269	0.1088
323.4798	0.1175
323.6906	0.0976
323.9014	0.1077
324.1122	0.104
324.3229	0.1006
324.5337	0.1053
324.7444	0.0937
324.9551	0.1271
325.1658	0.1193
325.3765	0.1166
325.5872	0.105
325.7979	0.1086
326.0085	0.1146
326.2192	0.1098
326.4298	0.1154
326.6404	0.1062
326.851	0.1089
327.0616	0.1004
327.2722	0.1096
327.4828	0.1169
327.6933	0.099
327.9039	0.1128
328.1144	0.116
328.3249	0.1146
328.5354	0.099
328.7459	0.1129
328.9564	0.1038
329.1669	0.1096
329.3773	0.1159
329.5878	0.1135
329.7982	0.1163
330.0086	0.0997
330.219	0.1261
330.4294	0.1157
330.6398	0.1204
330.8502	0.1207
331.0605	0.1152
331.2708	0.1141
331.4812	0.1077
331.6915	0.116
331.9018	0.1118
332.1121	0.1107
332.3224	0.1187
332.5326	0.1296
332.7429	0.1036
332.9531	0.1212
333.1633	0.1141
333.3735	0.1166
333.5837	0.1191
333.7939	0.1184
334.0041	0.1133
334.2143	0.1157
334.4244	0.1105
334.6346	0.0911
334.8447	0.1272
335.0548	0.1086
335.2649	0.1046
335.475	0.1196
335.685	0.1081
335.8951	0.1263
336.1051	0.1192
336.3152	0.1221
336.5252	0.1187
336.7352	0.1177
336.9452	0.1165
337.1552	0.1262
337.3652	0.1153
337.5751	0.1128
337.7851	0.1166
337.995	0.0975
338.2049	0.1265
338.4148	0.1232
338.6247	0.1148
338.8346	0.1116
339.0445	0.1172
339.2543	0.1115
339.4642	0.1278
339.674	0.1219
339.8838	0.1156
340.0936	0.1302
340.3034	0.1342
340.5132	0.1335
340.7229	0.1288
340.9327	0.1209
341.1424	0.1244
341.3522	0.1377
341.5619	0.1296
341.7716	0.1225
341.9813	0.1257
342.1909	0.1154
342.4006	0.1355
342.6102	0.1354
342.8199	0.1301
343.0295	0.1246
343.2391	0.1324
343.4487	0.1324
343.6583	0.1164
343.8679	0.1309
344.0774	0.1343
344.287	0.1305
344.4965	0.132
344.706	0.1414
344.9155	0.1402
345.125	0.1376
345.3345	0.1407
345.544	0.1374
345.7534	0.1217
345.9629	0.1404
346.1723	0.1384
346.3817	0.1188
346.5911	0.1418
346.8005	0.134
347.0099	0.1406
347.2193	0.1346
347.4286	0.1257
347.638	0.1393
347.8473	0.1432
348.0566	0.148
348.2659	0.132
348.4752	0.1415
348.6845	0.1338
348.8937	0.1233
349.103	0.1457
349.3122	0.1384
349.5214	0.1359
349.7306	0.1318
349.9398	0.1482
350.149	0.1419
350.3582	0.1392
350.5674	0.1464
350.7765	0.1435
350.9856	0.1456
351.1948	0.1421
351.4039	0.1434
351.613	0.1466
351.822	0.1443
352.0311	0.1579
352.2402	0.148
352.4492	0.1458
352.6582	0.1402
352.8672	0.1411
353.0762	0.1546
353.2852	0.1412
353.4942	0.152
353.7032	0.1439
353.9121	0.1463
354.1211	0.1566
354.33	0.1538
354.5389	0.1485
354.7478	0.1464
354.9567	0.1509
355.1655	0.1495
355.3744	0.1502
355.5833	0.1649
355.7921	0.1794
356.0009	0.1686
356.2097	0.1721
356.4185	0.1679
356.6273	0.1688
356.8361	0.1613
357.0448	0.1585
357.2536	0.1531
357.4623	0.1576
357.671	0.1664
357.8797	0.1527
358.0884	0.156
358.2971	0.1716
358.5057	0.1616
358.7144	0.1628
358.923	0.1762
359.1316	0.1769
359.3402	0.1724
359.5488	0.1587
359.7574	0.1663
359.966	0.179
360.1746	0.168
360.3831	0.1697
360.5916	0.1699
360.8002	0.1771
361.0087	0.1813
361.2172	0.1767
361.4256	0.1847
361.6341	0.198
361.8426	0.1859
362.051	0.1722
362.2594	0.1714
362.4678	0.1788
362.6762	0.2003
362.8846	0.1921
363.093	0.1739
363.3014	0.1716
363.5097	0.1579
363.718	0.1891
363.9264	0.1893
364.1347	0.1727
364.343	0.1874
364.5513	0.1894
364.7595	0.2017
364.9678	0.178
365.176	0.1866
365.3842	0.1813
365.5925	0.1939
365.8007	0.1874
366.0089	0.1891
366.217	0.1808
366.4252	0.1876
366.6333	0.2063
366.8415	0.2022
367.0496	0.1734
367.2577	0.2054
367.4658	0.1991
367.6739	0.204
367.882	0.2012
368.09	0.1848
368.2981	0.205
368.5061	0.1913
368.7141	0.2073
368.9221	0.1975
369.1301	0.1944
369.3381	0.1929
369.5461	0.1929
369.754	0.204
369.962	0.2043
370.1699	0.2022
370.3778	0.1955
370.5857	0.1906
370.7936	0.2008
371.0015	0.2091
371.2093	0.2065
371.4172	0.2266
371.625	0.2009
371.8328	0.2018
372.0406	0.2056
372.2484	0.201
372.4562	0.2086
372.664	0.1994
372.8717	0.2027
373.0795	0.1741
373.2872	0.2076
373.4949	0.2091
373.7026	0.2017
373.9103	0.2149
374.118	0.22
374.3256	0.2187
374.5333	0.2114
374.7409	0.2036
374.9485	0.2247
375.1561	0.2162
375.3637	0.2224
375.5713	0.2157
375.7789	0.2087
375.9864	0.2194
376.194	0.2073
376.4015	0.2181
376.609	0.2363
376.8165	0.211
377.024	0.2104
377.2315	0.2161
377.4389	0.2224
377.6464	0.2256
377.8538	0.2247
378.0612	0.2119
378.2686	0.2285
378.476	0.2321
378.6834	0.2195
378.8908	0.2311
379.0981	0.2226
379.3055	0.2329
379.5128	0.2075
379.7201	0.2058
379.9274	0.2172
380.1347	0.2223
380.342	0.2364
380.5492	0.2202
380.7565	0.2338
380.9637	0.2144
381.1709	0.2184
381.3781	0.2222
381.5853	0.2458
381.7925	0.2183
381.9997	0.235
382.2068	0.2362
382.4139	0.2405
382.6211	0.2091
382.8282	0.24
383.0353	0.2154
383.2424	0.2023
383.4494	0.2356
383.6565	0.2339
383.8635	0.2384
384.0706	0.2363
384.2776	0.2578
384.4846	0.2209
384.6916	0.2483
384.8986	0.234
385.1055	0.2368
385.3125	0.2433
385.5194	0.21
385.7263	0.2398
385.9333	0.243
386.1402	0.2436
386.347	0.2275
386.5539	0.2104
386.7608	0.2328
386.9676	0.2163
387.1744	0.2273
387.3813	0.2245
387.5881	0.2117
387.7948	0.2306
388.0016	0.2135
388.2084	0.2251
388.4151	0.218
388.6219	0.2249
388.8286	0.2282
389.0353	0.2361
389.242	0.246
389.4487	0.203
389.6553	0.2162
389.862	0.2034
390.0686	0.2013
390.2753	0.2197
390.4819	0.2181
390.6885	0.2093
390.8951	0.2244
391.1016	0.2096
391.3082	0.2174
391.5147	0.2095
391.7213	0.2194
391.9278	0.2005
392.1343	0.2192
392.3408	0.2067
392.5473	0.2152
392.7537	0.2136
392.9602	0.2007
393.1666	0.2063
393.373	0.21
393.5794	0.2125
393.7858	0.2051
393.9922	0.1878
394.1986	0.2039
394.4049	0.213
394.6113	0.1912
394.8176	0.1968
395.0239	0.1946
395.2302	0.1915
395.4365	0.1931
395.6428	0.198
395.8491	0.1856
396.0553	0.1858
396.2615	0.1958
396.4678	0.168
396.674	0.1838
396.8802	0.1902
397.0863	0.2028
397.2925	0.1913
397.4987	0.1801
397.7048	0.1926
397.9109	0.1973
398.117	0.1724
398.3231	0.1914
398.5292	0.1829
398.7353	0.1937
398.9413	0.1782
399.1474	0.1891
399.3534	0.1898
399.5594	0.1935
399.7654	0.1944
399.9714	0.2139
400.1774	0.1864
400.3833	0.1805
400.5893	0.1837
400.7952	0.1827
401.0011	0.1858
401.207	0.1951
401.4129	0.192
401.6188	0.1799
401.8247	0.1943
402.0305	0.1784
402.2364	0.1769
402.4422	0.1883
402.648	0.1928
402.8538	0.2019
403.0596	0.1792
403.2654	0.1903
403.4711	0.1781
403.6768	0.1824
403.8826	0.1934
404.0883	0.1946
404.294	0.1851
404.4997	0.1925
404.7054	0.1777
404.911	0.1826
405.1167	0.1945
405.3223	0.1799
405.5279	0.2039
405.7335	0.1946
405.9391	0.2065
406.1447	0.1903
406.3502	0.2033
406.5558	0.1741
406.7613	0.2046
406.9668	0.2043
407.1724	0.1674
407.3778	0.1844
407.5833	0.1927
407.7888	0.1802
407.9942	0.1908
408.1997	0.1778
408.4051	0.1769
408.6105	0.1887
408.8159	0.1777
409.0213	0.1844
409.2267	0.1719
409.432	0.156
409.6374	0.1992
409.8427	0.1762
410.048	0.1826
410.2533	0.1811
410.4586	0.2022
410.6639	0.1686
410.8691	0.1747
411.0744	0.1836
411.2796	0.1749
411.4848	0.2005
411.69	0.1686
411.8952	0.1915
412.1004	0.1766
412.3056	0.1897
412.5107	0.168
412.7158	0.2002
412.921	0.1636
413.1261	0.1967
413.3312	0.1774
413.5362	0.2026
413.7413	0.1736
413.9464	0.1766
414.1514	0.1902
414.3564	0.1879
414.5614	0.1713
414.7664	0.1623
414.9714	0.1713
415.1764	0.1799
415.3813	0.2086
415.5863	0.1731
415.7912	0.1832
415.9961	0.1705
416.201	0.1693
416.4059	0.1922
416.6108	0.1696
416.8156	0.1764
417.0205	0.1789
417.2253	0.1636
417.4301	0.1804
417.6349	0.1627
417.8397	0.1598
418.0445	0.1736
418.2492	0.1887
418.454	0.1695
418.6587	0.1602
418.8634	0.1736
419.0681	0.1444
419.2728	0.1785
419.4775	0.1634
419.6822	0.173
419.8868	0.1428
420.0915	0.1513
420.2961	0.1615
420.5007	0.1724
420.7053	0.1633
420.9099	0.1873
421.1144	0.1703
421.319	0.1476
421.5235	0.1575
421.728	0.1694
421.9325	0.1643
422.137	0.1541
422.3415	0.1579
422.546	0.1647
422.7504	0.1699
422.9549	0.1634
423.1593	0.1659
423.3637	0.1704
423.5681	0.1569
423.7725	0.1317
423.9769	0.1459
424.1812	0.1553
424.3856	0.1373
424.5899	0.1615
424.7942	0.1562
424.9985	0.1635
425.2028	0.1431
425.4071	0.1743
425.6113	0.1555
425.8156	0.1528
426.0198	0.1745
426.224	0.1327
426.4282	0.1305
426.6324	0.1363
426.8366	0.1322
427.0407	0.1366
427.2449	0.1417
427.449	0.1509
427.6531	0.12
427.8572	0.1324
428.0613	0.1385
428.2654	0.1356
428.4694	0.1425
428.6735	0.1309
428.8775	0.1333
429.0815	0.1375
429.2855	0.1231
429.4895	0.1327
429.6935	0.1356
429.8975	0.1314
430.1014	0.1254
430.3053	0.1252
430.5093	0.1344
430.7132	0.1168
430.9171	0.1182
431.1209	0.1356
431.3248	0.1069
431.5286	0.13
431.7325	0.1293
431.9363	0.1182
432.1401	0.1043
432.3439	0.0909
432.5477	0.0946
432.7514	0.1064
432.9552	0.1043
433.1589	0.0949
433.3627	0.1035
433.5664	0.1079
433.7701	0.0969
433.9737	0.0903
434.1774	0.1181
434.3811	0.0969
434.5847	0.0989
434.7883	0.098
434.9919	0.0882
435.1955	0.0935
435.3991	0.0959
435.6027	0.0995
435.8062	0.0803
436.0098	0.0723
436.2133	0.0944
436.4168	0.0812
436.6203	0.0831
436.8238	0.0862
437.0272	0.0917
437.2307	0.0776
437.4341	0.0798
437.6375	0.0884
437.841	0.0825
438.0443	0.0827
438.2477	0.0865
438.4511	0.056
438.6545	0.0819
438.8578	0.076
439.0611	0.0797
439.2644	0.0728
439.4677	0.0643
439.671	0.0596
439.8743	0.0651
440.0775	0.0644
440.2808	0.0561
440.484	0.0589
440.6872	0.0481
440.8904	0.0778
441.0936	0.0616
441.2967	0.0594
441.4999	0.0649
441.703	0.0691
441.9062	0.0525
442.1093	0.0627
442.3124	0.0662
442.5155	0.036
442.7185	0.0543
442.9216	0.0263
443.1246	0.0561
443.3276	0.0383
443.5307	0.0543
443.7337	0.0592
443.9366	0.0505
444.1396	0.0477
444.3426	0.0467
444.5455	0.046
444.7484	0.0365
444.9513	0.0467
445.1542	0.0564
445.3571	0.0454
445.56	0.05
445.7628	0.0338
445.9657	0.0354
446.1685	0.0496
446.3713	0.0439
446.5741	0.0435
446.7769	0.0274
446.9797	0.0257
447.1824	0.0389
447.3852	0.0229
447.5879	0.032
447.7906	0.0367
447.9933	0.026
448.196	0.0317
448.3986	0.0384
448.6013	0.0097
448.8039	0.0239
449.0066	0.0316
449.2092	0.0262
449.4118	0.0262
449.6143	0.0271
449.8169	0.0305
450.0195	0.0173
450.222	0.0036
450.4245	0.0179
450.627	0.018
450.8295	0.0145
451.032	0.0233
451.2345	0.0198
451.4369	0.028
451.6394	0.023
451.8418	-0.0026
452.0442	0.0122
452.2466	0.0257
452.449	-0.0026
452.6513	0.0221
452.8537	0.0056
453.056	-0.007
453.2583	0.0216
453.4607	0.0169
453.663	0.0153
453.8652	0.0228
454.0675	0.0137
454.2697	0.0213
454.472	-0.0058
454.6742	0.02
454.8764	0.0163
455.0786	0.024
455.2808	-0.0017
455.4829	0.0232
455.6851	0.0155
455.8872	0.027
456.0893	0.0189
456.2915	-0.0009
456.4935	0.0149
456.6956	0.0125
456.8977	0.0102
457.0997	0.0047
457.3018	-0.0036
457.5038	0.019
457.7058	0.0029
457.9078	0.0126
458.1098	0.0143
458.3117	0.0102
458.5137	0.0074
458.7156	0.0004
458.9175	0.0053
459.1194	0.0076
459.3213	0.0052
459.5232	0.0061
459.725	0.0051
459.9269	0.0092
460.1287	0.0029
460.3305	-0.0073
460.5323	-0.0039
460.7341	0.0051
460.9359	0.0005
461.1376	0.0039
461.3394	-0.004
461.5411	-0.002
461.7428	0.0062
461.9445	0.0158
462.1462	0.0222
462.3479	0.0061
462.5495	-0.0091
462.7512	0.0049
462.9528	0.0038
463.1544	-0.0098
463.356	0.0137
463.5576	0.0029
463.7592	-0.0097
463.9607	0.0082
464.1623	0.0199
464.3638	0.0225
464.5653	-0.0166
464.7668	-0.0041
464.9683	0.0187
465.1697	0.0098
465.3712	-0.0125
465.5726	-0.0047
465.7741	-0.003
465.9755	-0.0226
466.1769	-0.0022
466.3782	-0.0107
466.5796	0.0022
466.7809	0.0099
466.9823	-0.0121
467.1836	-0.0014
467.3849	-0.0076
467.5862	0.0018
467.7875	-0.0032
467.9887	0.0029
468.19	-0.0093
468.3912	-0.0113
468.5924	-0.0078
468.7936	0.0042
468.9948	-0.0038
469.196	-0.0051
469.3972	-0.0161
469.5983	-0.0054
469.7994	-0.0079
470.0006	0.0002
470.2017	-0.0179
470.4027	-0.0101
470.6038	0.0044
470.8049	-0.0211
471.0059	0.0004
471.2069	-0.0174
471.408	0.0027
471.6089	0.0083
471.8099	-0.013
472.0109	0.0169
472.2119	-0.0168
472.4128	-0.0132
472.6137	0.0025
472.8146	-0.0112
473.0155	-0.0175
473.2164	-0.0129
473.4173	0.0017
473.6181	0.0049
473.819	0.0085
474.0198	-0.0143
474.2206	-0.0027
474.4214	-0.0089
474.6222	0.0037
474.8229	-0.0094
475.0237	-0.0069
475.2244	-0.021
475.4251	-0.0045
475.6258	-0.0005
475.8265	-0.0016
476.0272	0.0058
476.2278	-0.0024
476.4285	-0.0227
476.6291	-0.004
476.8297	-0.0018
477.0303	-0.0093
477.2309	-0.0057
477.4315	-0.0163
477.632	-0.0163
477.8326	-0.0092
478.0331	-0.0064
478.2336	-0.0073
478.4341	-0.0103
478.6346	-0.0116
478.8351	-0.0155
479.0355	-0.0055
479.236	-0.0169
479.4364	0.0003
479.6368	-0.0125
479.8372	-0.0118
480.0376	0.0009
480.2379	-0.0282
480.4383	-0.0121
480.6386	0.0038
480.8389	0.0024
481.0392	-0.016
481.2395	-0.0175
481.4398	0.0086
481.6401	-0.0003
481.8403	-0.0131
482.0405	-0.0077
482.2408	-0.0037
482.441	-0.0023
482.6411	-0.0036
482.8413	-0.0145
483.0415	-0.0093
483.2416	-0.0154
483.4417	-0.0066
483.6419	-0.0055
483.8419	-0.0108
484.042	-0.0008
484.2421	0.0045
484.4422	-0.0009
484.6422	-0.0062
484.8422	-0.0036
485.0422	-0.0085
485.2422	-0.0011
485.4422	-0.0117
485.6422	-0.0164
485.8421	-0.0084
486.042	-0.0039
486.242	-0.0034
486.4419	-0.0172
486.6417	-0.0022
486.8416	0.0034
487.0415	-0.0136
487.2413	-0.0011
487.4411	-0.0055
487.641	-0.0152
487.8408	-0.0022
488.0405	-0.0067
488.2403	-0.0102
488.4401	-0.0023
488.6398	-0.0161
488.8395	-0.0095
489.0392	0.0002
489.2389	-0.0112
489.4386	-0.0049
489.6383	0.0006
489.8379	-0.0014
490.0376	-0.0087
490.2372	-0.0102
490.4368	-0.0171
490.6364	-0.0158
490.836	-0.0126
491.0355	-0.0096
491.2351	-0.0128
491.4346	-0.0084
491.6341	-0.005
491.8336	-0.005
492.0331	-0.0065
492.2326	-0.0219
492.432	-0.0074
492.6315	-0.017
492.8309	-0.024
493.0303	-0.0212
493.2297	-0.0086
493.4291	-0.0069
493.6284	-0.0077
493.8278	-0.0104
494.0271	0.0007
494.2264	-0.0055
494.4257	-0.0108
494.625	-0.0046
494.8243	-0.0187
495.0236	-0.015
495.2228	-0.0234
495.422	-0.0103
495.6213	-0.0102
495.8205	-0.0091
496.0196	-0.0176
496.2188	0.0044
496.418	-0.0033
496.6171	-0.0139
496.8162	-0.014
497.0153	0.0018
497.2144	-0.0112
497.4135	-0.0109
497.6126	-0.0212
497.8116	-0.0133
498.0107	-0.0046
498.2097	-0.0142
498.4087	-0.0165
498.6077	-0.0109
498.8067	-0.0155
499.0056	-0.0023
499.2046	-0.0171
499.4035	-0.0336
499.6024	-0.0138
499.8013	-0.0041
500.0002	-0.0184
500.199	-0.0059
500.3979	-0.0117
500.5967	-0.0314
500.7956	-0.0108
500.9944	-0.0165
501.1932	-0.0154
501.3919	-0.0128
501.5907	-0.0129
501.7895	-0.0111
501.9882	-0.0122
502.1869	-0.0213
502.3856	-0.0155
502.5843	-0.019
502.783	-0.0122
502.9816	-0.0065
503.1803	-0.0189
503.3789	-0.0177
503.5775	0.0039
503.7761	-0.0118
503.9747	-0.0099
504.1732	-0.0141
504.3718	-0.0033
504.5703	-0.0131
504.7689	-0.014
504.9674	-0.0028
505.1658	-0.0089
505.3643	-0.0121
505.5628	-0.008
505.7612	-0.0167
505.9597	0.0067
506.1581	-0.0165
506.3565	0.0063
506.5549	-0.004
506.7532	-0.018
506.9516	-0.0161
507.1499	-0.0052
507.3482	-0.0206
507.5465	-0.0151
507.7448	-0.0016
507.9431	-0.0071
508.1414	-0.0007
508.3396	-0.0161
508.5379	-0.0076
508.7361	-0.0213
508.9343	-0.0138
509.1325	-0.004
509.3306	-0.0038
509.5288	-0.0118
509.7269	-0.0211
509.9251	-0.0071
510.1232	-0.0115
510.3213	-0.0038
510.5193	-0.0034
510.7174	-0.0169
510.9154	-0.0121
511.1135	-0.0105
511.3115	-0.0166
511.5095	0.0021
511.7075	-0.0077
511.9055	-0.0012
512.1034	-0.0176
512.3014	-0.0077
512.4993	-0.0061
512.6972	-0.0109
512.8951	-0.0225
513.093	-0.0107
513.2908	-0.0087
513.4887	0.0027
513.6865	-0.0092
513.8844	-0.0102
514.0822	-0.0106
514.2799	-0.0127
514.4777	-0.0147
514.6755	-0.0128
514.8732	-0.0117
515.0709	-0.0092
515.2687	-0.0174
515.4664	0.0023
515.664	-0.0115
515.8617	-0.009
516.0594	-0.0198
516.257	-0.0113
516.4546	-0.0188
516.6522	0.0012
516.8498	-0.0143
517.0474	-0.003
517.2449	-0.0015
517.4425	-0.0142
517.64	-0.0144
517.8375	-0.0088
518.035	-0.009
518.2325	-0.0137
518.43	-0.0054
518.6274	-0.0156
518.8249	-0.0202
519.0223	0.0017
519.2197	-0.0044
519.4171	-0.017
519.6145	-0.0165
519.8118	-0.0085
520.0092	-0.0152
520.2065	-0.0089
520.4038	-0.0158
520.6011	-0.0045
520.7984	-0.0141
520.9956	-0.0137
521.1929	-0.004
521.3901	-0.0082
521.5874	-0.0054
521.7846	-0.0047
521.9818	-0.0106
522.1789	-0.022
522.3761	-0.0181
522.5732	-0.0064
522.7704	-0.0101
522.9675	-0.0069
523.1646	-0.0142
523.3617	-0.0051
523.5587	-0.0114
523.7558	-0.0037
523.9528	-0.0072
524.1498	-0.003
524.3468	0.001
524.5438	-0.0094
524.7408	-0.0154
524.9378	-0.0077
525.1347	-0.0116
525.3316	-0.0045
525.5285	-0.0027
525.7254	-0.01
525.9223	-0.0013
526.1192	-0.0136
526.316	-0.0155
526.5129	-0.0034
526.7097	-0.0084
526.9065	0.0012
527.1033	-0.0076
527.3	-0.0041
527.4968	-0.0042
527.6935	-0.0018
527.8903	-0.0117
528.087	-0.0067
528.2837	-0.0057
528.4804	-0.0086
528.677	-0.0139
528.8737	-0.0036
529.0703	-0.011
529.2669	-0.0027
529.4635	-0.0104
529.6601	-0.0094
529.8567	-0.0105
530.0532	-0.0133
530.2498	-0.0064
530.4463	0.0036
530.6428	-0.0005
530.8393	0.0054
531.0358	-0.0061
531.2322	-0.0076
531.4287	-0.0031
531.6251	-0.0166
531.8215	0.0001
532.0179	-0.0053
532.2143	-0.0003
532.4107	-0.0059
532.607	0.0012
532.8034	-0.0061
532.9997	-0.0094
533.196	-0.0031
533.3923	-0.018
533.5886	-0.0032
533.7848	-0.0052
533.9811	0.0021
534.1773	0.0008
534.3735	0.0013
534.5697	-0.0101
534.7659	-0.0113
534.9621	0.0007
535.1582	-0.0139
535.3544	-0.015
535.5505	-0.0075
535.7466	-0.0022
535.9427	-0.0027
536.1387	-0.0143
536.3348	-0.0088
536.5308	0.0037
536.7269	-0.0104
536.9229	-0.0009
537.1189	-0.0051
537.3148	-0.0015
537.5108	-0.015
537.7068	0.0013
537.9027	-0.0019
538.0986	-0.0092
538.2945	-0.0112
538.4904	-0.0065
538.6863	-0.0039
538.8821	-0.0119
539.078	-0.0099
539.2738	-0.0094
539.4696	-0.0073
539.6654	0.005
539.8611	0.0103
540.0569	-0.0101
540.2526	-0.0055
540.4484	-0.008
540.6441	-0.0012
540.8398	-0.002
541.0355	0.0011
541.2311	-0.0013
541.4268	-0.0258
541.6224	-0.0008
541.818	-0.0078
542.0136	-0.0164
542.2092	-0.0065
542.4048	-0.0047
542.6003	0.0006
542.7959	0.0001
542.9914	-0.0142
543.1869	-0.0099
543.3824	-0.0116
543.5779	-0.0027
543.7734	-0.0068
543.9688	-0.0061
544.1642	-0.001
544.3596	0.0037
544.555	-0.009
544.7504	-0.0018
544.9458	-0.0027
545.1411	-0.008
545.3365	-0.0066
545.5318	-0.0015
545.7271	-0.0015
545.9224	-0.0086
546.1177	0.0077
546.3129	-0.0013
546.5081	-0.0064
546.7034	-0.0117
546.8986	-0.0041
547.0938	-0.0117
547.289	-0.0151
547.4841	-0.0039
547.6793	0.0063
547.8744	-0.0093
548.0695	-0.0062
548.2646	-0.007
548.4597	0.0011
548.6548	-0.0087
548.8498	-0.0026
549.0448	0.006
549.2399	-0.0127
549.4349	0.0048
549.6298	-0.0027
549.8248	-0.0026
550.0198	-0.0122
550.2147	-0.0104
550.4096	-0.0124
550.6045	-0.0068
550.7994	0.0016
550.9943	-0.0048
551.1892	-0.005
551.384	0.0034
551.5788	-0.0058
551.7737	0.0005
551.9685	-0.0038
552.1632	0.0009
552.358	-0.0072
552.5528	-0.0028
552.7475	-0.002
552.9422	-0.0016
553.1369	0.0005
553.3316	0.0038
553.5263	-0.0159
553.7209	0.0044
553.9156	-0.0038
554.1102	-0.014
554.3048	-0.0093
554.4994	0.0049
554.694	-0.0052
554.8885	0.0001
555.0831	-0.0122
555.2776	-0.0115
555.4721	-0.0083
555.6666	-0.0089
555.8611	0.0058
556.0555	-0.0062
556.25	-0.0009
556.4444	-0.0155
556.6388	-0.0089
556.8332	-0.0101
557.0276	-0.0045
557.222	-0.0058
557.4163	-0.0033
557.6107	-0.0093
557.805	0.006
557.9993	-0.0079
558.1936	0.005
558.3879	-0.0076
558.5821	-0.0035
558.7764	-0.0087
558.9706	-0.0045
559.1648	0.001
559.359	-0.004
559.5532	-0.0096
559.7473	-0.0055
559.9415	-0.0102
560.1356	-0.0053
560.3297	-0.0055
560.5238	-0.0085
560.7179	-0.0044
560.9119	-0.0089
561.106	-0.0075
561.3	-0.0078
561.494	-0.0058
561.688	-0.0103
561.882	-0.0104
562.076	-0.0072
562.2699	-0.0015
562.4639	0.0007
562.6578	-0.0041
562.8517	-0.0046
563.0456	-0.0012
563.2395	-0.002
563.4333	-0.0004
563.6272	0.0043
563.821	-0.0113
564.0148	-0.0021
564.2086	-0.0138
564.4024	0
564.5961	0.002
564.7899	0.0038
564.9836	-0.0041
565.1773	-0.0054
565.371	0.0041
565.5647	-0.0024
565.7584	-0.0031
565.952	-0.0029
566.1456	-0.0013
566.3393	-0.0027
566.5329	-0.0044
566.7264	-0.006
566.92	-0.0035
567.1136	-0.005
567.3071	-0.0046
567.5006	0.0028
567.6941	0.0007
567.8876	0.001
568.0811	-0.0096
568.2745	-0.0035
568.468	0.0046
568.6614	-0.0031
568.8548	-0.0028
569.0482	-0.005
569.2416	-0.0024
569.4349	0.0021
569.6283	0.004
569.8216	-0.0106
570.0149	-0.0039
570.2082	-0.0009
570.4015	0.0062
570.5947	0.0079
570.788	0.0075
570.9812	0.0054
571.1744	-0.0005
571.3676	-0.0009
571.5608	-0.0007
571.754	-0.0027
571.9471	0.0005
572.1402	0.0012
572.3333	-0.0086
572.5264	-0.0007
572.7195	-0.006
572.9126	-0.0014
573.1057	-0.0057
573.2987	-0.0097
573.4917	-0.0059
573.6847	-0.0097
573.8777	0.0015
574.0707	0.0033
574.2636	-0.0042
574.4566	-0.008
574.6495	0.0079
574.8424	-0.0016
575.0353	-0.0033
575.2281	0.0079
575.421	0.0006
575.6138	0.0045
575.8067	-0.0051
575.9995	0.0004
576.1923	-0.001
576.385	-0.0006
576.5778	-0.0008
576.7706	-0.0043
576.9633	0.0021
577.156	0.0051
577.3487	-0.0031
577.5414	-0.0032
577.734	-0.0045
577.9267	0.0069
578.1193	-0.0135
578.3119	-0.0078
578.5045	-0.0011
578.6971	-0.0039
578.8897	0.0018
579.0822	0.0019
579.2747	0.0033
579.4673	-0.0011
579.6598	-0.0051
579.8522	-0.0028
580.0447	-0.005
580.2372	-0.0061
580.4296	0.0016
580.622	-0.0074
580.8144	-0.0041
581.0068	-0.0094
581.1992	-0.009
581.3915	-0.0104
581.5839	-0.0188
581.7762	-0.0062
581.9685	-0.0057
582.1608	0.0031
582.353	-0.0034
582.5453	0.0002
582.7375	-0.0045
582.9298	0.001
583.122	-0.0064
583.3142	-0.0046
583.5063	-0.0041
583.6985	-0.0042
583.8906	-0.0095
584.0827	-0.006
584.2749	-0.0001
584.4669	0.0058
584.659	-0.0036
584.8511	0.0004
585.0431	-0.0148
585.2352	-0.002
585.4272	-0.0058
585.6192	-0.0039
585.8111	0.0014
586.0031	-0.0082
586.195	0.0025
586.387	-0.0016
586.5789	-0.0021
586.7708	0.0001
586.9627	0.0019
587.1545	-0.004
587.3464	-0.0002
587.5382	0.0035
587.73	0.002
587.9218	0.0038
588.1136	-0.0025
588.3053	-0.0023
588.4971	-0.0045
588.6888	-0.0081
588.8805	0.0007
589.0722	0.0082
589.2639	-0.0051
589.4556	-0.0031
589.6472	0.0015
589.8389	-0.0049
590.0305	-0.007
590.2221	-0.003
590.4137	-0.0082
590.6052	0.0056
590.7968	0.0003
590.9883	0.0016
591.1798	-0.0053
591.3713	0.0006
591.5628	-0.0007
591.7543	0.0007
591.9458	-0
592.1372	0.0052
592.3286	0.0007
592.52	0.0071
592.7114	-0.0065
592.9028	-0.0048
593.0941	-0.0076
593.2855	-0.0004
593.4768	-0.0094
593.6681	-0.0048
593.8594	-0.0065
594.0506	-0.0068
594.2419	0.0044
594.4331	-0.003
594.6244	0.0097
594.8156	-0.0078
595.0067	0.0031
595.1979	-0.0008
595.3891	0.0068
595.5802	-0.0079
595.7713	-0.0064
595.9624	-0.0032
596.1535	0.0016
596.3446	-0.0013
596.5357	-0.0011
596.7267	0.0026
596.9177	-0.0012
597.1087	-0.0055
597.2997	-0.0027
597.4907	-0.0039
597.6817	-0.0036
597.8726	0.0001
598.0635	0.0002
598.2544	0.0049
598.4453	-0.0002
598.6362	-0.0033
598.827	-0.005
599.0179	0.0055
599.2087	0.0023
599.3995	-0.0038
599.5903	-0.0007
599.7811	0.0003
599.9718	0.0004
600.1626	-0.0065
600.3533	-0.0058
600.544	0.0009
600.7347	-0.0003
600.9254	-0.0035
601.116	-0.0097
601.3067	-0.0077
601.4973	-0.001
601.6879	0.0036
601.8785	-0.0038
602.0691	0.0015
602.2596	-0.0019
602.4502	-0.003
602.6407	0.0038
602.8312	-0.0059
603.0217	-0.0053
603.2122	-0.0076
603.4027	0.0002
603.5931	-0.0073
603.7835	-0.0019
603.9739	-0.0025
604.1643	-0.0025
604.3547	-0.0055
604.5451	0.0001
604.7354	-0.0029
604.9257	0.0037
605.116	0.0011
605.3063	-0.0007
605.4966	0.0011
605.6869	-0.0049
605.8771	-0.0024
606.0673	0.0056
606.2575	0.0043
606.4477	0.0034
606.6379	0.0037
606.8281	0.0052
607.0182	0.0037
607.2083	0.0041
607.3985	-0.0037
607.5885	-0.0032
607.7786	-0.0018
607.9687	-0.003
608.1587	0.0025
608.3488	0.0013
608.5388	0.0028
608.7288	-0.0054
608.9187	-0.003
609.1087	-0.0059
609.2986	-0.0045
609.4886	0.0012
609.6785	-0.0034
609.8684	0.0056
610.0582	0.0013
610.2481	0.0041
610.4379	-0.0016
610.6278	-0.003
610.8176	-0.0019
611.0074	-0.002
611.1971	-0.0037
611.3869	-0.0029
611.5766	-0.0091
611.7664	0.001
611.9561	0.0006
612.1458	0.003
612.3354	-0.0115
612.5251	-0.0022
612.7147	0.0029
612.9044	0.0063
613.094	-0.004
613.2836	-0.003
613.4731	-0.0056
613.6627	0.0004
613.8522	0.0074
614.0417	0.0049
614.2313	0.0038
614.4207	-0.0054
614.6102	0.0011
614.7997	-0.0075
614.9891	-0.0093
615.1785	-0.0033
615.3679	-0.0069
615.5573	0.0039
615.7467	-0.0005
615.9361	-0.0096
616.1254	-0.0024
616.3147	0.0042
616.504	0.0044
616.6933	-0.0013
616.8826	-0.0043
617.0718	-0.0013
617.2611	0.0032
617.4503	-0.002
617.6395	-0.0012
617.8287	-0.0065
618.0179	-0.0021
618.207	0.0061
618.3961	-0.0009
618.5853	0.0007
618.7744	0.005
618.9634	0.0045
619.1525	0.0035
619.3416	0.0028
619.5306	-0.0018
619.7196	0.0002
619.9086	-0.0077
620.0976	-0.0021
620.2866	-0.0004
620.4755	-0.0002
620.6645	0.0002
620.8534	0.0051
621.0423	0.0075
621.2312	0.0063
621.42	0.0071
621.6089	-0.0071
621.7977	0.008
621.9865	-0.0028
622.1753	0.0082
622.3641	-0.0032
622.5529	0.0059
622.7416	0.0037
622.9303	0.0012
623.1191	-0.0009
623.3078	-0.003
623.4964	0.0022
623.6851	-0.0063
623.8737	-0.003
624.0624	-0.0008
624.251	-0.0077
624.4396	0.0024
624.6282	-0.0083
624.8167	-0.0017
625.0053	0.0048
625.1938	0.0053
625.3823	-0.004
625.5708	-0.0028
625.7593	-0.0102
625.9477	-0.0049
626.1362	0.0006
626.3246	-0.0013
626.513	0.0009
626.7014	0.0081
626.8898	-0.0044
627.0781	0.0018
627.2665	-0.0036
627.4548	0.0024
627.6431	0.0044
627.8314	0.0018
628.0197	-0.0019
628.2079	-0.0022
628.3962	-0.0042
628.5844	0.0035
628.7726	0.008
628.9608	0.0037
629.1489	-0.0017
629.3371	0.0053
629.5252	-0.0061
629.7134	0.0095
629.9015	0.0006
630.0895	0.004
630.2776	0.0052
630.4657	0.0041
630.6537	0.0023
630.8417	-0.0085
631.0297	-0.0065
631.2177	-0.0037
631.4057	-0.002
631.5936	-0.0002
631.7815	-0.0023
631.9695	0.0028
632.1574	0.0089
632.3452	0.0118
632.5331	0.001
632.7209	-0.0003
632.9088	0.0072
633.0966	0.0104
633.2844	-0.006
633.4722	0.0015
633.6599	0.0072
633.8477	-0.0018
634.0354	-0.0025
634.2231	-0.0058
634.4108	-0.0043
634.5985	0.0026
634.7861	-0.0005
634.9738	-0.0008
635.1614	-0.0036
635.349	0.0012
635.5366	0.0012
635.7242	-0.0066
635.9117	0.0049
636.0993	-0.0038
636.2868	0.0013
636.4743	-0.0081
636.6618	0.0039
636.8492	0.0051
637.0367	0.0056
637.2241	-0.0026
637.4115	-0.005
637.5989	0.0011
637.7863	-0.0002
637.9737	-0.0056
638.161	-0.0013
638.3484	-0.0033
638.5357	0.0047
638.723	0.003
638.9103	0.0024
639.0975	0.0065
639.2848	0.0032
639.472	0.0014
639.6592	0.0001
639.8464	0.0058
640.0336	0.0031
640.2208	-0.0001
640.4079	-0.0006
640.595	0.0007
640.7821	-0
640.9692	-0.0007
641.1563	0.0088
641.3434	-0.0016
641.5304	0.0047
641.7174	0.0025
641.9044	0.0057
642.0914	0.0078
642.2784	0.0081
642.4653	0.0094
642.6523	0.0017
642.8392	0.0007
643.0261	0.0057
643.213	0.0061
643.3999	0.0022
643.5867	0.0081
643.7735	0.001
643.9604	-0.0074
644.1472	-0.0022
644.3339	0.0045
644.5207	0.0045
644.7075	-0.0045
644.8942	0.0071
645.0809	0.0047
645.2676	0.0058
645.4543	0.0018
645.6409	0.0028
645.8276	-0.0032
646.0142	0.0062
646.2008	-0.0001
646.3874	-0.0037
646.574	-0.0023
646.7605	-0.0031
646.9471	-0.01
647.1336	-0.0007
647.3201	0.0055
647.5066	-0.0014
647.6931	0.008
647.8795	-0.0018
648.0659	0.0066
648.2524	0.0039
648.4388	-0.0009
648.6252	-0.0001
648.8115	0.003
648.9979	-0.0014
649.1842	0.0027
649.3705	0.002
649.5568	0.0002
649.7431	0.0048
649.9294	0.004
650.1156	0.0055
650.3018	-0.0104
650.488	0.0018
650.6742	0.0094
650.8604	0.0002
651.0466	-0.0045
651.2327	-0.008
651.4188	-0.0014
651.6049	-0.0042
651.791	-0.0044
651.9771	0.0069
652.1632	0.0072
652.3492	0.0011
652.5352	-0.0003
652.7212	0.0018
652.9072	0.0042
653.0932	0.001
653.2791	0.002
653.465	0.0015
653.651	-0.0019
653.8369	-0.0018
654.0227	-0.0026
654.2086	0.0084
654.3944	0.0072
654.5803	0.0006
654.7661	-0.0011
654.9519	0.0066
655.1377	-0.0074
655.3234	-0.0001
655.5092	-0.007
655.6949	-0.0076
655.8806	-0.0058
656.0663	-0.0016
656.2519	0.0011
656.4376	0.0011
656.6232	-0.0001
656.8088	-0.0025
656.9945	-0.0033
657.18	-0.001
657.3656	0.0005
657.5511	0.0026
657.7367	-0.0062
657.9222	0.0043
658.1077	-0.002
658.2932	0.008
658.4786	-0.011
658.6641	-0.0104
658.8495	0.0056
659.0349	-0.0008
659.2203	-0.0002
659.4057	0.0049
659.591	0.0029
659.7764	-0.006
659.9617	0.0041
660.147	-0.0001
660.3323	0.0015
660.5176	0.0086
660.7028	0.0029
660.888	0.0067
661.0733	0.0058
661.2585	-0.0031
661.4436	-0.0043
661.6288	-0.0073
661.8139	-0.0023
661.9991	0.0042
662.1842	0.0009
662.3693	0.0055
662.5544	0.0024
662.7394	0.002
662.9245	0.0022
663.1095	0.0041
663.2945	0.0041
663.4795	0.0025
663.6644	0.0036
663.8494	0.0045
664.0343	-0.0022
664.2193	-0.0041
664.4042	-0.0063
664.589	-0.0053
664.7739	-0.0002
664.9587	-0.0075
665.1436	-0.0053
665.3284	0.0002
665.5132	-0.0082
665.698	-0.0001
665.8827	0.0007
666.0675	0.0037
666.2522	-0.0065
666.4369	0.0018
666.6216	0.0084
666.8063	0.0017
666.9909	-0.0036
667.1756	-0.0002
667.3602	-0.0027
667.5448	0.002
667.7294	0.0075
667.9139	0.0021
668.0985	0.0099
668.283	-0.0008
668.4675	0.0066
668.652	-0.0014
668.8365	-0.0095
669.0209	0.0039
669.2054	0.0019
669.3898	-0.0029
669.5742	0.001
669.7586	0.0052
669.943	0.0027
670.1273	0.0065
670.3117	-0.0011
670.496	0.0013
670.6803	0.0112
670.8646	0.0005
671.0488	-0.0011
671.2331	0.0023
671.4173	0.0057
671.6015	-0.0066
671.7857	0.0033
671.9699	0.0012
672.1541	0.0118
672.3382	0.0054
672.5223	0.0044
672.7064	-0.0023
672.8905	0.0031
673.0746	-0.0051
673.2587	-0.0016
673.4427	0.001
673.6267	0.0052
673.8107	0.0105
673.9947	0.0007
674.1787	-0.0015
674.3626	-0.0023
674.5465	0.0096
674.7304	-0.0013
674.9143	0.0092
675.0982	0.0092
675.2821	-0.0005
675.4659	0.0037
675.6497	0.0054
675.8335	0.0028
676.0173	0.0063
676.2011	0.0001
676.3849	0.0053
676.5686	-0.0024
676.7523	-0.001
676.936	-0.0022
677.1197	-0.004
677.3034	-0.0045
677.487	-0.0024
677.6706	-0.0055
677.8542	0.003
678.0378	-0.0038
678.2214	-0.004
678.405	-0.003
678.5885	-0.0082
678.772	0.0029
678.9555	-0.0047
679.139	0.0012
679.3225	0.0003
679.5059	-0.0032
679.6894	0.0005
679.8728	0.003
680.0562	-0.0082
680.2395	-0.0022
680.4229	0.0043
680.6062	0.002
680.7896	-0.0008
680.9729	-0.0093
681.1562	0.0027
681.3394	0.0058
681.5227	-0.002
681.7059	-0.0026
681.8891	0.0047
682.0723	0.0032
682.2555	0.0029
682.4387	-0.0015
682.6218	-0.0054
682.805	0.0073
682.9881	-0.0032
683.1712	-0.0077
683.3542	-0.0045
683.5373	0.0057
683.7203	-0.0023
683.9034	-0.0038
684.0864	-0.0153
684.2694	-0.0023
684.4523	0.0001
684.6353	-0.0104
684.8182	-0.0016
685.0011	-0.0091
685.184	-0.0033
685.3669	-0.0044
685.5498	-0.0036
685.7326	-0
685.9154	-0.0048
686.0982	0.0041
686.281	0.0053
686.4638	0.0013
686.6465	-0.001
686.8293	-0.0006
687.012	-0.002
687.1947	-0.0194
687.3774	-0.0024
687.56	0.001
687.7427	0.0013
687.9253	-0.008
688.1079	-0.0051
688.2905	0.0006
688.4731	-0.0026
688.6556	-0.0071
688.8382	-0.004
689.0207	-0.0048
689.2032	-0.0148
689.3857	-0.0109
689.5681	-0.0047
689.7506	-0.0069
689.933	-0.0081
690.1154	-0.005
690.2978	-0.0117
690.4802	-0.0035
690.6626	-0.0119
690.8449	-0.0096
691.0272	0.0043
691.2095	-0.009
691.3918	-0.0092
691.5741	-0.005
691.7563	-0.0042
691.9386	0.0039
692.1208	-0.0026
692.303	0.0024
692.4852	-0.0093
692.6673	-0.0065
692.8495	-0.009
693.0316	0.0019
693.2137	0.0013
693.3958	0.0037
693.5778	-0.0048
693.7599	0.0011
693.9419	-0.0018
694.1239	-0.0049
694.3059	0.0038
694.4879	0.0033
694.6699	0.0001
694.8518	0.0041
695.0337	-0.0063
695.2157	0.0027
695.3975	-0.0022
695.5794	0.0096
695.7613	0
695.9431	0.006
696.1249	-0.0004
696.3067	0.0059
696.4885	0.0056
696.6703	-0.0085
696.852	0.0017
697.0337	-0.0032
697.2154	0.0056
697.3971	0.0004
697.5788	0.0037
697.7605	-0.001
697.9421	0.0047
698.1237	0.0057
698.3053	-0.0053
698.4869	0.0016
698.6685	-0.0074
698.85	-0.0103
699.0315	0.0043
699.213	-0.0067
699.3945	0.0004
699.576	0.0033
699.7575	0.0064
699.9389	-0.0021
700.1203	0.0018
700.3017	-0.0125
700.4831	-0.0081
700.6645	-0.0031
700.8458	0.0005
701.0271	-0.0077
701.2084	0.0039
701.3897	-0.0031
701.571	0.01
701.7523	-0.0054
701.9335	-0.0012
702.1147	0.0022
702.2959	0.0028
702.4771	-0.0072
702.6583	-0.0032
702.8394	-0.0025
703.0205	-0.0015
703.2016	-0.0063
703.3827	-0.0077
703.5638	0.0043
703.7449	-0.0036
703.9259	0.0095
704.1069	0.001
704.2879	0.0003
704.4689	0.0063
704.6499	0.0047
704.8308	-0.0008
705.0117	-0.0017
705.1927	0.0011
705.3735	-0.0027
705.5544	-0.0023
705.7353	-0.0005
705.9161	-0.0087
706.0969	-0.0038
706.2777	-0.0008
706.4585	-0.0016
706.6393	-0.0029
706.82	-0.0012
707.0007	0.004
707.1815	-0.0043
707.3621	0.006
707.5428	0.0027
707.7235	0.0009
707.9041	-0.0017
708.0847	-0.0036
708.2653	-0.0071
708.4459	-0.0126
708.6265	0.0027
708.807	-0.0029
708.9875	-0.0033
709.168	-0.0065
709.3485	-0.0059
709.529	-0.0007
709.7095	-0.0185
709.8899	-0.0037
710.0703	-0.009
710.2507	0.0004
710.4311	-0.0123
710.6115	-0.0092
710.7918	-0.0046
710.9721	0.0009
711.1524	-0.0089
711.3327	-0.0056
711.513	-0.0056
711.6932	0.0062
711.8735	0.0048
712.0537	-0.0037
712.2339	0.0004
712.4141	-0.0041
712.5942	-0.0046
712.7744	-0.007
712.9545	-0.0129
713.1346	-0.0083
713.3147	-0.0054
713.4947	-0.0064
713.6748	-0.0016
713.8548	-0.0005
714.0348	-0.0102
714.2148	-0.0027
714.3948	0.0021
714.5748	-0.0025
714.7547	-0.0054
714.9346	-0.0015
715.1145	-0.0023
715.2944	-0.0053
715.4743	0.0008
715.6541	-0.0067
715.834	0.0059
716.0138	-0.0041
716.1936	-0.0182
716.3733	-0.0093
716.5531	-0.0003
716.7328	-0.0035
716.9126	0.0005
717.0923	0.0054
717.2719	-0.0055
717.4516	0.0047
717.6312	0.0049
717.8109	-0.0107
717.9905	0.0009
718.1701	-0.0064
718.3496	-0.0119
718.5292	-0.0061
718.7087	-0.007
718.8882	-0.0032
719.0677	0.0026
719.2472	-0.0015
719.4267	0.0088
719.6061	0.001
719.7856	0.0064
719.965	0.0102
720.1443	0.0016
720.3237	0.0127
720.5031	0.0015
720.6824	0.0123
720.8617	-0.0022
721.041	-0.0049
721.2203	0.0051
721.3995	0.0041
721.5788	0.0018
721.758	-0.0026
721.9372	0.0014
722.1164	-0.0038
722.2956	0.0052
722.4747	-0.0059
722.6538	-0.0031
722.8329	0.0014
723.012	0.006
723.1911	0.0009
723.3702	-0.0007
723.5492	0.0032
723.7282	-0.0017
723.9072	-0.0032
724.0862	-0.0017
724.2652	0.0055
724.4441	0.0006
724.623	-0.0046
724.8019	-0.0048
724.9808	0.0012
725.1597	-0.0189
725.3385	0.004
725.5174	-0.0023
725.6962	-0.0011
725.875	-0.0029
726.0538	-0.0029
726.2325	-0.0114
726.4112	-0.0048
726.59	-0.0031
726.7687	-0.0036
726.9474	0.0076
727.126	0.0049
727.3047	0.0063
727.4833	-0.0079
727.6619	0.0024
727.8405	0.0002
728.0191	-0.0041
728.1976	-0.0003
728.3762	-0.002
728.5547	0.001
728.7332	-0.0055
728.9116	-0.0021
729.0901	0.0026
729.2686	-0.0081
729.447	-0.004
729.6254	0.0042
729.8038	-0.0101
729.9821	-0.0188
730.1605	0.0042
730.3388	0.0046
730.5171	-0.0019
730.6954	0.0018
730.8737	0.0055
731.0519	0.0034
731.2302	0.0012
731.4084	0.0055
731.5866	0.0022
731.7648	-0.0044
731.9429	-0.0093
732.1211	-0.0117
732.2992	-0.0096
732.4773	-0.0052
732.6554	-0.0044
732.8335	-0.0138
733.0115	-0.0001
733.1896	0.0012
733.3676	-0.0113
733.5456	0.0005
733.7235	0.0016
733.9015	-0.0046
734.0794	-0.0054
734.2574	-0.0039
734.4353	0.0009
734.6131	0.0054
734.791	0.0008
734.9689	0.0038
735.1467	-0.0056
735.3245	-0.0116
735.5023	0
735.68	0.0043
735.8578	0.0042
736.0355	-0.0179
736.2132	-0.0064
736.3909	-0.0053
736.5686	-0.0085
736.7463	-0.0014
736.9239	-0.0045
737.1015	-0.0065
737.2791	0.0083
737.4567	-0.0015
737.6343	-0.0023
737.8118	-0.0012
737.9894	0.0063
738.1669	-0.0064
738.3444	-0.005
738.5218	0.0006
738.6993	-0.0007
738.8767	-0.008
739.0541	0.0066
739.2315	-0.0095
739.4089	-0.0052
739.5863	0.0003
739.7636	0.0005
739.9409	-0.0049
740.1182	0.0076
740.2955	0.0007
740.4728	-0.0053
740.65	-0.0073
740.8272	-0.0049
741.0044	-0.0082
741.1816	-0.0092
741.3588	-0.0021
741.5359	-0.0005
741.7131	-0.0097
741.8902	-0.002
742.0673	-0.0031
742.2444	-0.0136
742.4214	-0.0094
742.5985	-0.0051
742.7755	-0.0125
742.9525	-0.027
743.1295	-0.0073
743.3064	-0.0058
743.4834	-0.0042
743.6603	-0.0042
743.8372	-0.0084
744.0141	-0.0014
744.191	0.0033
744.3678	-0.0054
744.5446	-0.0001
744.7215	0.0054
744.8982	-0.0057
745.075	-0.0137
745.2518	-0.0025
745.4285	-0.0008
745.6052	-0.0102
745.7819	-0.0086
745.9586	-0.012
746.1353	-0.0028
746.3119	-0.0069
746.4885	-0.0071
746.6651	-0.0057
746.8417	-0.0056
747.0183	-0.0035
747.1948	-0.0074
747.3714	0.0037
747.5479	0.0096
747.7244	-0.0031
747.9008	0.0072
748.0773	-0.0009
748.2537	-0.0041
748.4301	-0.0064
748.6065	0.0012
748.7829	-0.0033
748.9593	-0.0067
749.1356	0.0008
749.3119	0.0059
749.4882	-0.0051
749.6645	0.003
749.8408	-0.0095
750.017	0.0051
750.1933	0.0018
750.3695	0.004
750.5457	0.0108
750.7218	-0.0062
750.898	0.0029
751.0741	-0.0126
751.2502	-0.0004
751.4263	-0.009
751.6024	-0.0037
751.7784	-0.0094
751.9545	-0.0132
752.1305	-0.0096
752.3065	-0.0067
752.4825	0.0034
752.6584	-0.0053
752.8344	-0.0106
753.0103	-0.0111
753.1862	-0.008
753.3621	-0.0093
753.5379	-0.0049
753.7138	-0.0037
753.8896	0.0002
754.0654	0.0037
754.2412	0.0033
754.417	0.0068
754.5927	-0.0027
754.7685	0.004
754.9442	-0.0013
755.1199	0.0074
755.2956	-0.0046
755.4712	0.0081
755.6469	0.0032
755.8225	0.0023
755.9981	-0.0024
756.1736	0.0018
756.3492	0.0053
756.5248	0.0002
756.7003	0.0005
756.8758	0.002
757.0513	-0.0151
757.2267	-0.0118
757.4022	0.0132
757.5776	-0.0015
757.753	-0.0004
757.9284	0.0017
758.1038	0.0034
758.2791	0.006
758.4545	-0.0094
758.6298	-0.0054
758.8051	0.0069
758.9803	-0.0088
759.1556	-0.003
759.3308	-0.0063
759.506	0.0115
759.6812	0.0056
759.8564	0.0048
760.0316	0.0096
760.2067	0.003
760.3819	0.0069
760.557	0.0074
760.732	0.001
760.9071	0.0019
761.0821	0.0014
761.2572	0.0056
761.4322	-0.0053
761.6072	0.0006
761.7821	0
761.9571	0.0049
762.132	0.0016
762.3069	0.001
762.4818	-0.0054
762.6567	0.0026
762.8316	0.0011
763.0064	-0.0033
763.1812	0.0033
763.356	-0.0018
763.5308	-0.0023
763.7055	0.007
763.8803	-0.0042
764.055	0.0014
764.2297	0.0014
764.4044	-0.0007
764.579	-0.0165
764.7537	-0.0177
764.9283	-0.0018
765.1029	-0.0104
765.2775	-0.0126
765.4521	-0.0115
765.6266	-0.0046
765.8011	-0.0011
765.9756	-0.002
766.1501	-0.0047
766.3246	0.0038
766.4991	-0.0045
766.6735	-0.0055
766.8479	-0.0158
767.0223	0.0053
767.1967	-0.0077
767.371	-0.0019
767.5454	-0.0057
767.7197	0.0062
767.894	-0.0061
768.0683	0.001
768.2425	0.0008
768.4168	-0.0034
768.591	-0.0005
768.7652	-0.0054
768.9394	-0.0107
769.1135	-0.0024
769.2877	-0.0006
769.4618	0.0014
769.6359	-0.0075
769.81	0.009
769.984	0.0067
770.1581	-0.0014
770.3321	0.0028
770.5061	0.0046
770.6801	-0.0024
770.8541	0.0001
771.028	0.0059
771.202	-0.019
771.3759	0.002
771.5498	0.0121
771.7236	0.0055
771.8975	-0.0095
772.0713	0.0041
772.2451	-0.008
772.4189	0.0085
772.5927	0.008
772.7665	0.0097
772.9402	-0.0045
773.1139	0.0006
773.2876	0.005
773.4613	0.0084
773.635	0.011
773.8086	-0.0043
773.9822	0.0068
774.1558	0.0101
774.3294	-0.0187
774.503	0.0031
774.6765	-0.0056
774.8501	0
775.0236	0.0059
775.1971	0.0039
775.3705	-0.0133
775.544	-0.0064
775.7174	-0.0089
775.8908	-0.0001
776.0642	-0.0118
776.2376	-0.0012
776.4109	-0.0025
776.5843	-0.0153
776.7576	0.0079
776.9309	0.0027
777.1041	0.0106
777.2774	0.0067
777.4506	-0.0039
777.6238	-0.0093
777.797	0.0074
777.9702	0.0082
778.1434	0.0041
778.3165	-0.0153
778.4896	-0.0063
778.6627	0.005
778.8358	0.0021
779.0089	-0.0049
779.1819	-0.0093
779.3549	-0.0005
779.5279	0.006
779.7009	-0.007
779.8739	0.001
780.0468	-0.0009
780.2197	0.0055
780.3926	-0.0034
780.5655	-0.0053
780.7384	-0.0154
780.9112	-0.0078
781.0841	-0.0106
781.2569	0.0002
781.4297	0.0023
781.6024	0.0014
781.7752	0.0063
781.9479	0.0118
782.1206	-0.005
782.2933	-0.0207
782.466	0.0125
782.6386	-0.0055
782.8113	-0.0075
782.9839	-0.0041
783.1565	0.0123
783.329	0.0071
783.5016	0.0074
783.6741	0.009
783.8466	0.0076
784.0191	0.015
784.1916	0.003
784.3641	0.0035
784.5365	-0.0002
784.7089	0.0004
784.8813	-0.0028
785.0537	0.0063
785.2261	-0.0048
785.3984	-0.0121
785.5707	-0.011
785.743	-0.0067
785.9153	-0.0027
786.0876	-0.002
786.2598	-0.0061
786.432	-0.0025
786.6042	0.0145
786.7764	0.001
786.9486	-0.0026
787.1207	-0.0124
787.2928	0.0077
787.4649	-0.0012
787.637	0.0006
787.8091	-0.0044
787.9811	-0.0018
788.1532	0.0012
788.3252	0.0047
788.4972	0.0105
788.6691	0.0111
788.8411	0.0098
789.013	-0.0025
789.1849	-0.0027
789.3568	-0.005
789.5287	-0.0099
789.7005	-0.0089
789.8723	0.009
790.0442	0.0046
790.2159	0.0099
790.3877	0.0034
790.5595	-0.0122
790.7312	-0.0088
790.9029	-0.0021
791.0746	-0.0155
791.2463	-0.0134
791.4179	-0.0068
791.5896	-0.0125
791.7612	0.0013
791.9328	-0.0009
792.1044	-0.0113
792.2759	-0.0102
792.4474	-0.0093
792.619	-0.0073
792.7905	-0.0024
792.9619	-0.0091
793.1334	-0.0027
793.3048	0.0187
793.4762	-0.0037
793.6476	0.004
793.819	-0.0059
793.9904	0.0126
794.1617	-0.015
794.333	-0.0062
794.5043	-0.0043
794.6756	-0.0086
794.8469	-0.0071
795.0181	0.0138
795.1893	-0.0096
795.3605	0.007
795.5317	-0.007
795.7029	-0.0106
795.874	0.0151
796.0452	0.0021
796.2163	-0.0001
796.3873	0.0113
796.5584	-0.0006
796.7294	0.0009
796.9005	0.009
797.0715	0.0074
797.2425	-0.0127
797.4134	-0.0242
797.5844	0.0073
797.7553	-0.0203
797.9262	0.0034
798.0971	-0.0022
798.2679	-0.009
798.4388	-0.015
798.6096	-0.0079
798.7804	0.0004
798.9512	-0.0086
799.122	-0.0061
799.2927	-0.0073
799.4635	0.0056
799.6342	-0.0204
799.8049	-0.0076
799.9755	0.0044
800.1462	-0.0055
800.3168	0.017
800.4874	-0.0132
800.658	0.0325
800.8286	0.0095
800.9991	0.0028
801.1696	0.0139
801.3402	0.0047
801.5106	0.0037
801.6811	-0.0142
801.8516	0.0112
802.022	0.0001
802.1924	-0.0014
802.3628	0.0001
802.5332	0.0077
802.7035	0.0324
802.8739	0.0097
803.0442	0.0051
803.2145	0.018
803.3847	-0.0197
803.555	-0.0098
803.7252	-0.0151
803.8954	-0.0107
804.0656	-0.025
804.2358	-0.0132
804.4059	0.0056
804.5761	-0.0068
804.7462	-0.0142
804.9163	-0.0045
805.0864	-0.0266
805.2564	-0.0163
805.4264	-0.0001
805.5965	-0.0044
805.7665	-0.0016
805.9364	-0.003
806.1064	0.0162
806.2763	-0.001
806.4462	0.0114
806.6161	-0.0079
806.786	0.0129
806.9559	-0.0024
807.1257	-0.0352
807.2955	-0.0071
807.4653	0.0072
807.6351	-0.018
807.8048	-0.0048
807.9746	-0.0004
808.1443	-0.0128
808.314	-0.0052
808.4837	-0.0125
808.6533	0.0027
808.8229	0.0225
808.9926	-0.015
809.1622	0.0127
809.3317	-0.0068
809.5013	-0.0108
809.6708	0.0072
809.8403	0.0045
810.0098	-0.0082
810.1793	0.008
810.3488	0.0034
810.5182	-0.011
810.6876	-0.0029
810.857	-0.0164
811.0264	0.0182
811.1958	0.0233
811.3651	0.0091
811.5344	-0.0039
811.7037	-0.0181
811.873	-0.0151
812.0422	-0.0095
812.2115	0.0083
812.3807	-0.0323
812.5499	0.0001
812.7191	0.0017
812.8882	-0.018
813.0574	-0.0146
813.2265	-0.0075
813.3956	0.0069
813.5646	-0.013
813.7337	0.001
813.9027	0.0144
814.0718	0.0081
814.2407	0.0088
814.4097	-0.0035
814.5787	-0.0182
814.7476	-0.0075
814.9165	-0.0082
815.0854	-0.0343
815.2543	-0.0221
815.4232	-0.0062
815.592	-0.0019
815.7608	0.0158
815.9296	0.0141
816.0984	0.0105
816.2671	-0.0078
816.4359	-0.0053
816.6046	-0.0076
816.7733	-0.0096
816.942	-0.0135
817.1106	-0.0047
817.2793	-0.0098
817.4479	-0.0111
817.6165	0.001
817.785	-0.0021
817.9536	-0.015
818.1221	-0.006
818.2906	-0.0091
818.4591	-0.0118
818.6276	-0.0009
818.7961	-0.0145
818.9645	0.0115
819.1329	0.0072
819.3013	0.0042
819.4697	0.0233
819.638	-0.0094
819.8064	0.0008
819.9747	0.0125
820.143	-0.026
820.3113	-0.0467
820.4795	0.0033
820.6477	0.0099
820.816	0.0047
820.9842	0.0111
821.1523	-0.0017
821.3205	-0.0052
821.4886	-0.0123
821.6567	-0.0188
821.8248	-0.0013
821.9929	-0.0019
822.1609	0.0016
822.329	0.0044
822.497	0.0367
822.665	-0.0188
822.833	-0.0006
823.0009	0.0268
823.1688	0.0043
823.3367	0.0067
823.5046	-0.0014
823.6725	0.0228
823.8404	-0.001
824.0082	0.0096
824.176	0.032
824.3438	-0.0174
824.5116	-0.0456
824.6793	0.0294
824.847	-0.0011
825.0147	-0.0174
825.1824	0.033
825.3501	0.0166
825.5177	-0.0194
825.6854	0.0067
825.853	0.0242
826.0206	-0.0433
826.1881	0.0177
826.3557	-0.0269
826.5232	0.0071
826.6907	-0.029
826.8582	0.0139
827.0257	-0.0263
827.1931	-0.0012
827.3605	-0.0039
827.528	-0.0304
827.6953	-0.0184
827.8627	0.0002
828.03	0.041
828.1974	0.0054
828.3647	-0.0321
828.532	-0.0312
828.6992	-0.0243
828.8665	0.0002
829.0337	-0.0078
829.2009	0.0139
829.3681	0.0012
829.5352	0.0358
829.7024	-0.0162
829.8695	-0.0338
830.0366	0.0467
830.2037	-0.0039
830.3707	0.0096
830.5378	0.0007
830.7048	-0.0036
830.8718	-0.0241
831.0388	-0.0161
831.2057	0.0204
831.3727	0.0231
831.5396	-0.0105
831.7065	0.0048
831.8734	0.0275
832.0402	0.0008
832.2071	-0.0207
832.3739	-0.0388
832.5407	0.0191
832.7075	-0.0048
832.8742	0.0114
833.041	-0.0281
833.2077	0.0132
833.3744	0.0462
833.541	-0.0146
833.7077	-0.0335
833.8743	-0.0308
834.0409	-0.0177
834.2075	-0.0123
834.3741	-0.0053
834.5407	0.0177
834.7072	0.0092
834.8737	-0.0116
835.0402	-0.0058
835.2067	0.0259
835.3731	0.0411
835.5395	0.0475
835.706	0.0366
835.8723	-0.0276
836.0387	-0.0004
836.2051	0.0216
836.3714	0.003
836.5377	0.0114
836.704	-0.0019
836.8703	0.0484
837.0365	-0.0184
837.2027	-0.0197
837.3689	-0.0286
837.5351	-0.0079
837.7013	-0.0472
837.8674	-0.0285
838.0335	0.0054
838.1997	0.0245
838.3657	-0.0237
838.5318	0.0359
838.6978	0.0363
838.8639	-0.0086
839.0299	0.0505
839.1958	0.0236
839.3618	-0.0165
839.5277	-0.0023
839.6937	0.0145
839.8596	-0.0227
840.0254	0.0086
840.1913	0.0028
840.3571	-0.0006
840.523	-0.0477
840.6888	-0.0216
840.8545	-0.0073
841.0203	0.0349
841.186	0.0369
841.3517	0.0377
841.5174	0.019
841.6831	-0.0384
841.8488	0.0094
842.0144	0.0267
842.18	0.0065
842.3456	-0.0243
842.5112	-0.0366
842.6767	-0.0497
842.8422	-0.0154
843.0077	-0.0217
843.1732	-0.0439
843.3387	0.0334
843.5042	-0.0804
843.6696	-0.008
843.835	-0.0563
844.0004	0.0336
844.1657	0.0054
844.3311	-0.0543
844.4964	-0.1112
844.6617	-0.0308
844.827	-0.0427
844.9923	0.0564
845.1575	-0.0148
845.3227	-0.0019
845.4879	0.0004
845.6531	0.0099
845.8183	-0.0877
845.9834	-0.0131
846.1485	-0.004
846.3136	-0.0059
846.4787	-0.0577
846.6438	0.0275
846.8088	-0.047
846.9738	-0.0778
847.1388	0.0481
847.3038	-0.0129
847.4687	-0.2049
847.6337	0.0176
847.7986	0.0511
847.9635	-0.0266
848.1284	0.0346
848.2932	0.1418
848.458	0.0109
848.6228	0.0103
848.7876	0.1013
848.9524	-0.0498
849.1172	-0.0396
849.2819	0.0176
849.4466	-0.059
849.6113	-0.1049
849.7759	0.0233
849.9406	0.0092
850.1052	0.0174
850.2698	-0.0427
850.4344	-0.1083
850.599	-0.1223
850.7635	0.0172
850.928	0.0287
851.0925	-0.0013
851.257	0.0434
851.4215	0.0174
851.5859	0.0164
851.7503	0.0242
851.9147	0.0005
852.0791	-0.1176
852.2434	-0.005
852.4078	-0.0375
852.5721	0.1516
852.7364	-0.0402
852.9007	-0.1849
853.0649	0.0146
853.2291	-0.0163
853.3934	0.0903
853.5575	-0.0017
853.7217	-0.0751
853.8859	-0.0772
854.05	-0.1423
854.2141	-0.0436
854.3782	-0.1549
854.5423	-0.062
854.7063	0.0562
854.8703	0.0037
855.0343	-0.1334
855.1983	-0.1775
855.3623	0.1944
855.5262	0.0149
855.6901	-0.0411
855.854	0.0581
856.0179	-0.0209
856.1818	0.1532
856.3456	-0.0793
856.5094	-0.1056
856.6732	-0.1778
856.837	-0.0787
857.0008	0.1279
857.1645	-0.0767
857.3282	-0.1422
857.4919	-0.0641
857.6556	-0.1408
857.8192	-0.0427
857.9828	0.0785
858.1465	-0.0573
858.31	-0.0922
858.4736	-0.0399
858.6372	-0.1815
858.8007	-0.1504
858.9642	-0.0778
859.1277	0.0452
859.2911	0.2942
859.4546	0.0558
859.618	-0.4471
859.7814	0.029
859.9448	-0.0991
860.1081	-0.0387
860.2715	0.0674
860.4348	-0.0325
860.5981	0.0905
860.7614	0.1486
860.9246	-0.1129
861.0879	-0.2112
861.2511	0.0104
861.4143	-0.2653
861.5774	0.1993
861.7406	-0.2214
861.9037	0.2003
862.0668	-0.1042
862.2299	-0.2534
862.393	-0.4729
862.556	0.2887
862.7191	-0.1096
862.8821	-0.0978
863.0451	0.0187
863.208	0.0272
863.371	-0.0492
863.5339	-0.2746
863.6968	0.0598
863.8597	0.0788
864.0225	0.1414
864.1854	-0.1291
864.3482	0.029
864.511	0.0148
864.6737	0.4085
864.8365	0.1755
864.9992	0.2886
865.1619	-0.5349
865.3246	-0.1207
865.4873	-0.1369
865.65	0.7655
865.8126	0.0805
865.9752	0.2622
866.1378	-0.0632
866.3004	-0.1066
866.4629	0.557
866.6254	-0.1631
866.7879	-0.0064
866.9504	0.0634
867.1129	-0
867.2753	0.039
867.4377	-0
867.6001	-0.2365
867.7625	0.172
867.9249	-0.3392
868.0872	-0.1737
868.2495	0.0601
868.4118	-0.239
868.5741	0.2505
868.7363	-0.1014
868.8986	-0.2297
869.0608	0.011
869.223	0.0721
869.3851	-0.2693
869.5473	-0
869.7094	0.5768
869.8715	-0.1661
870.0336	-0
870.1957	0.3229
870.3577	-0.996
870.5197	0.1711
870.6817	-0.3061
870.8437	-0.0238
871.0057	-0.6518
871.1676	0.1725
871.3295	-0.0595
871.4914	-0.4352
871.6533	0.6268
871.8151	-0.4232
871.977	-0
872.1388	-0
872.3006	-0.3094
872.4623	-0
872.6241	-0.116
872.7858	0.4726
872.9475	1.0684
873.1092	-0.195
873.2709	0.1742
873.4325	-0
873.5941	-0.3643
873.7557	-0
873.9173	-0
874.0789	-0.227
874.2404	-0.7226
874.4019	0.358
874.5634	-0.2433
874.7249	0.2965
874.8863	0.09
875.0478	1.6721
875.2092	-0
875.3706	0.306
875.5319	-0.2795
875.6933	-0.175
875.8546	0.0564
876.0159	-0
876.1772	-0
876.3385	-0
876.4997	0.1636
876.6609	-0.3372
876.8221	-0.2245
876.9833	0.0894
877.1445	-0
877.3056	0.0661
877.4667	-0
877.6278	-0
877.7889	-0.8
877.9499	-0
878.111	-0
878.272	-0
878.433	-0
878.5939	-0
878.7549	0.5235
878.9158	-0.2795
879.0767	-0
879.2376	-0
879.3984	-0.2163
879.5593	-0
879.7201	0.2834
879.8809	-0.654
880.0417	-0.4406
880.2024	1.6253
880.3632	-0.699
880.5239	0.5008
880.6846	0.8494
880.8452	-2.5899
881.0059	-0.1461
881.1665	0.0469
881.3271	0.0114
881.4877	0.0611
881.6483	-0.2927
881.8088	-0.389
881.9693	-0
882.1298	-0
882.2903	-0
