Data from MonoPyChalIsomerACN10uM410nmA_Absorbance_14-53-24-873.txt Node
Date: Fri Jul 05 14:53:24 BST 2024
User: LASERRRRR
Spectrometer: FLMT03099
Trigger mode: 0
Integration Time (sec): 1.000000E-1
Scans to average: 1
Electric dark correction enabled: true
Nonlinearity correction enabled: false
Boxcar width: 0
XAxis mode: Wavelengths
Number of Pixels in Spectrum: 3648
>>>>>Begin Spectral Data<<<<<
179.3399	-0.1714
179.5586	-0.1714
179.7771	-0.1714
179.9957	0.2358
180.2143	-0.4752
180.4329	-0.0998
180.6514	-0
180.8699	1.0746
181.0885	0.3498
181.307	-0.0796
181.5255	-0.0637
181.744	-0.7011
181.9625	-0
182.181	-0.9114
182.3994	0.5636
182.6179	-0.1866
182.8363	0.2905
183.0547	-0.1335
183.2732	0.0227
183.4916	-0.0824
183.71	0.0139
183.9284	0.1161
184.1467	-0.0582
184.3651	-0.092
184.5835	0.287
184.8018	0.0644
185.0201	0.0771
185.2385	0.0872
185.4568	-0.0252
185.6751	-0.0413
185.8934	0.0835
186.1117	0.1638
186.3299	-0.0333
186.5482	0.1262
186.7664	-0.0387
186.9847	0.2824
187.2029	0.0612
187.4211	-0.0408
187.6393	-0.0331
187.8575	0.0743
188.0757	0.3795
188.2939	0.0711
188.512	0.5388
188.7302	-0.092
188.9483	-0
189.1665	0.1954
189.3846	0.4309
189.6027	0.1681
189.8208	0.0819
190.0389	0.1416
190.257	0.2026
190.475	0.3755
190.6931	0.1799
190.9111	0.2645
191.1292	0.1435
191.3472	0.4755
191.5652	0.352
191.7832	0.1337
192.0012	0.5228
192.2192	0.4442
192.4371	0.4684
192.6551	0.3699
192.873	0.3708
193.091	0.4705
193.3089	0.8985
193.5268	0.4909
193.7447	0.522
193.9626	0.4353
194.1805	0.5629
194.3984	0.8166
194.6162	0.5387
194.8341	0.5884
195.0519	0.5356
195.2697	0.7278
195.4875	0.6779
195.7054	0.5423
195.9231	0.4763
196.1409	0.7365
196.3587	0.6739
196.5765	0.5652
196.7942	0.5262
197.012	0.5225
197.2297	0.6045
197.4474	0.9208
197.6651	0.5899
197.8828	0.5106
198.1005	0.5112
198.3182	0.5638
198.5358	0.9626
198.7535	0.519
198.9711	0.5269
199.1888	0.5422
199.4064	0.6195
199.624	0.5253
199.8416	0.557
200.0592	0.567
200.2767	0.7198
200.4943	0.7365
200.7119	0.6801
200.9294	0.8755
201.1469	0.5818
201.3645	0.6914
201.582	0.625
201.7995	0.5394
202.017	0.5741
202.2344	0.6647
202.4519	0.5797
202.6694	0.6273
202.8868	0.5959
203.1042	0.7387
203.3217	0.8069
203.5391	0.6842
203.7565	0.6043
203.9739	0.664
204.1913	0.6829
204.4086	0.6714
204.626	0.7175
204.8433	0.5973
205.0607	0.5865
205.278	0.6849
205.4953	0.6346
205.7126	0.6463
205.9299	0.7399
206.1472	0.6951
206.3644	0.6014
206.5817	0.7397
206.7989	0.5913
207.0162	0.6904
207.2334	0.7117
207.4506	0.588
207.6678	0.6214
207.885	0.667
208.1022	0.6176
208.3194	0.6218
208.5365	0.5683
208.7537	0.5925
208.9708	0.6611
209.1879	0.7036
209.405	0.6188
209.6222	0.5949
209.8392	0.6293
210.0563	0.6222
210.2734	0.6257
210.4905	0.6079
210.7075	0.5933
210.9245	0.6377
211.1416	0.7639
211.3586	0.6301
211.5756	0.6047
211.7926	0.5573
212.0096	0.5892
212.2265	0.5125
212.4435	0.6022
212.6604	0.6422
212.8774	0.6002
213.0943	0.6513
213.3112	0.5804
213.5281	0.5157
213.745	0.4668
213.9619	0.5035
214.1788	0.471
214.3956	0.5014
214.6125	0.4552
214.8293	0.4518
215.0461	0.4329
215.2629	0.4191
215.4798	0.4759
215.6965	0.4028
215.9133	0.4628
216.1301	0.4414
216.3469	0.4534
216.5636	0.4345
216.7803	0.3801
216.9971	0.3914
217.2138	0.375
217.4305	0.3688
217.6472	0.3494
217.8639	0.3538
218.0805	0.3228
218.2972	0.3789
218.5138	0.322
218.7305	0.2991
218.9471	0.3176
219.1637	0.2891
219.3803	0.3205
219.5969	0.2828
219.8135	0.268
220.0301	0.281
220.2466	0.2828
220.4632	0.2665
220.6797	0.2393
220.8962	0.2243
221.1127	0.2518
221.3292	0.2497
221.5457	0.2373
221.7622	0.2397
221.9787	0.2461
222.1951	0.2106
222.4116	0.2652
222.628	0.255
222.8444	0.2488
223.0608	0.269
223.2772	0.2591
223.4936	0.2599
223.71	0.253
223.9264	0.2767
224.1427	0.2447
224.3591	0.2516
224.5754	0.2689
224.7917	0.2637
225.008	0.2749
225.2243	0.258
225.4406	0.2875
225.6569	0.2634
225.8732	0.2587
226.0894	0.2569
226.3057	0.2758
226.5219	0.2872
226.7381	0.2688
226.9543	0.3023
227.1705	0.2678
227.3867	0.2688
227.6029	0.2974
227.8191	0.2891
228.0352	0.312
228.2513	0.3171
228.4675	0.3165
228.6836	0.3104
228.8997	0.2936
229.1158	0.3005
229.3319	0.3027
229.548	0.3166
229.764	0.3331
229.9801	0.3154
230.1961	0.311
230.4121	0.3325
230.6282	0.3255
230.8442	0.3152
231.0602	0.337
231.2761	0.3373
231.4921	0.353
231.7081	0.3477
231.924	0.333
232.14	0.3637
232.3559	0.3245
232.5718	0.3852
232.7877	0.3516
233.0036	0.3275
233.2195	0.3611
233.4353	0.3639
233.6512	0.3532
233.867	0.3455
234.0829	0.3441
234.2987	0.3837
234.5145	0.3627
234.7303	0.3735
234.9461	0.3801
235.1619	0.3861
235.3776	0.3901
235.5934	0.3884
235.8091	0.3664
236.0249	0.3889
236.2406	0.393
236.4563	0.3713
236.672	0.3818
236.8877	0.3829
237.1034	0.3966
237.319	0.405
237.5347	0.4222
237.7503	0.3977
237.966	0.3958
238.1816	0.4078
238.3972	0.3989
238.6128	0.3849
238.8284	0.4169
239.0439	0.4062
239.2595	0.4026
239.475	0.4178
239.6906	0.412
239.9061	0.397
240.1216	0.4012
240.3371	0.3904
240.5526	0.3998
240.7681	0.4043
240.9836	0.374
241.199	0.3878
241.4145	0.3771
241.6299	0.3789
241.8453	0.3906
242.0607	0.3684
242.2761	0.3609
242.4915	0.3501
242.7069	0.3703
242.9223	0.343
243.1376	0.3515
243.353	0.355
243.5683	0.346
243.7836	0.323
243.9989	0.3099
244.2142	0.3108
244.4295	0.3118
244.6448	0.2975
244.86	0.2999
245.0753	0.2766
245.2905	0.295
245.5057	0.2662
245.721	0.2673
245.9362	0.2607
246.1514	0.2685
246.3665	0.2601
246.5817	0.2507
246.7969	0.2365
247.012	0.2446
247.2271	0.2402
247.4423	0.2514
247.6574	0.2473
247.8725	0.2136
248.0876	0.2239
248.3026	0.2191
248.5177	0.2122
248.7328	0.2099
248.9478	0.2078
249.1628	0.2131
249.3779	0.212
249.5929	0.1897
249.8079	0.2155
250.0228	0.1908
250.2378	0.1974
250.4528	0.2088
250.6677	0.1884
250.8827	0.1934
251.0976	0.1951
251.3125	0.1915
251.5274	0.1783
251.7423	0.1863
251.9572	0.1907
252.172	0.1787
252.3869	0.182
252.6017	0.1721
252.8166	0.1708
253.0314	0.1732
253.2462	0.1649
253.461	0.1716
253.6758	0.1681
253.8906	0.175
254.1053	0.1579
254.3201	0.1774
254.5348	0.1682
254.7496	0.1871
254.9643	0.1633
255.179	0.1634
255.3937	0.1661
255.6083	0.1769
255.823	0.1703
256.0377	0.159
256.2523	0.17
256.467	0.1514
256.6816	0.163
256.8962	0.1561
257.1108	0.1622
257.3254	0.1736
257.54	0.162
257.7545	0.1661
257.9691	0.1694
258.1836	0.171
258.3981	0.1706
258.6127	0.181
258.8272	0.1625
259.0417	0.1625
259.2561	0.1579
259.4706	0.1657
259.6851	0.1549
259.8995	0.1663
260.114	0.1711
260.3284	0.1616
260.5428	0.1463
260.7572	0.1643
260.9716	0.1673
261.186	0.162
261.4003	0.1589
261.6147	0.1645
261.829	0.1652
262.0433	0.1642
262.2577	0.1487
262.472	0.1619
262.6863	0.1547
262.9005	0.1741
263.1148	0.1672
263.3291	0.1544
263.5433	0.1553
263.7576	0.1614
263.9718	0.172
264.186	0.1541
264.4002	0.1511
264.6144	0.159
264.8286	0.1661
265.0427	0.1539
265.2569	0.1465
265.471	0.1481
265.6851	0.1547
265.8993	0.1534
266.1134	0.1494
266.3275	0.1468
266.5415	0.1429
266.7556	0.1513
266.9697	0.1541
267.1837	0.169
267.3978	0.1575
267.6118	0.1827
267.8258	0.1636
268.0398	0.1529
268.2538	0.1553
268.4677	0.1538
268.6817	0.1558
268.8957	0.1582
269.1096	0.1552
269.3235	0.1688
269.5374	0.1507
269.7514	0.1579
269.9652	0.1414
270.1791	0.1411
270.393	0.1507
270.6068	0.1539
270.8207	0.1447
271.0345	0.1432
271.2483	0.1413
271.4622	0.1477
271.676	0.138
271.8897	0.1394
272.1035	0.1432
272.3173	0.1439
272.531	0.1378
272.7448	0.1428
272.9585	0.1304
273.1722	0.1452
273.3859	0.1399
273.5996	0.1367
273.8133	0.139
274.0269	0.1432
274.2406	0.1326
274.4542	0.1454
274.6679	0.1271
274.8815	0.1272
275.0951	0.1411
275.3087	0.1343
275.5223	0.1521
275.7358	0.1412
275.9494	0.1508
276.1629	0.1305
276.3765	0.1302
276.59	0.1464
276.8035	0.1426
277.017	0.1363
277.2305	0.1342
277.444	0.1476
277.6574	0.1365
277.8709	0.1448
278.0843	0.1406
278.2978	0.1517
278.5112	0.1352
278.7246	0.1512
278.938	0.1467
279.1513	0.1345
279.3647	0.1469
279.5781	0.1409
279.7914	0.1398
280.0047	0.1623
280.2181	0.1337
280.4314	0.1408
280.6447	0.1444
280.8579	0.1489
281.0712	0.1464
281.2845	0.1552
281.4977	0.141
281.711	0.1363
281.9242	0.1468
282.1374	0.1548
282.3506	0.1504
282.5638	0.1556
282.7769	0.1555
282.9901	0.1518
283.2033	0.1619
283.4164	0.158
283.6295	0.1475
283.8426	0.1473
284.0557	0.1446
284.2688	0.1614
284.4819	0.1609
284.695	0.1504
284.908	0.1626
285.1211	0.1559
285.3341	0.1556
285.5471	0.1599
285.7601	0.1527
285.9731	0.1522
286.1861	0.148
286.3991	0.1719
286.612	0.1567
286.825	0.1502
287.0379	0.1561
287.2508	0.1549
287.4637	0.1561
287.6766	0.1476
287.8895	0.1664
288.1024	0.1807
288.3152	0.1682
288.5281	0.1504
288.7409	0.1574
288.9538	0.1616
289.1666	0.1593
289.3794	0.1644
289.5922	0.1676
289.8049	0.1679
290.0177	0.1624
290.2304	0.172
290.4432	0.1689
290.6559	0.1642
290.8686	0.1639
291.0813	0.169
291.294	0.1651
291.5067	0.1712
291.7194	0.1703
291.932	0.1829
292.1447	0.1582
292.3573	0.1613
292.5699	0.1717
292.7825	0.1728
292.9951	0.1683
293.2077	0.1627
293.4203	0.1582
293.6328	0.1591
293.8454	0.1747
294.0579	0.1644
294.2704	0.1606
294.4829	0.1576
294.6954	0.1668
294.9079	0.1654
295.1204	0.1798
295.3328	0.1687
295.5453	0.1618
295.7577	0.1663
295.9701	0.1634
296.1825	0.1684
296.3949	0.1655
296.6073	0.1662
296.8197	0.159
297.0321	0.1741
297.2444	0.1513
297.4567	0.1688
297.6691	0.1671
297.8814	0.1601
298.0937	0.1696
298.306	0.1689
298.5182	0.1745
298.7305	0.1618
298.9428	0.1542
299.155	0.1632
299.3672	0.1672
299.5794	0.1632
299.7916	0.1595
300.0038	0.1706
300.216	0.1782
300.4282	0.1771
300.6403	0.1733
300.8525	0.1612
301.0646	0.1567
301.2767	0.1689
301.4888	0.1675
301.7009	0.1622
301.913	0.1623
302.125	0.1702
302.3371	0.1567
302.5491	0.1713
302.7612	0.1732
302.9732	0.1716
303.1852	0.1592
303.3972	0.1588
303.6092	0.155
303.8211	0.1576
304.0331	0.1591
304.245	0.1416
304.457	0.1605
304.6689	0.1531
304.8808	0.1735
305.0927	0.1474
305.3046	0.1535
305.5164	0.1538
305.7283	0.1487
305.9401	0.148
306.152	0.1493
306.3638	0.1548
306.5756	0.1399
306.7874	0.1535
306.9992	0.1547
307.2109	0.1463
307.4227	0.1276
307.6344	0.1433
307.8462	0.1323
308.0579	0.1329
308.2696	0.1358
308.4813	0.1312
308.693	0.1371
308.9046	0.1382
309.1163	0.1295
309.328	0.1201
309.5396	0.1265
309.7512	0.129
309.9628	0.1184
310.1744	0.1218
310.386	0.119
310.5976	0.1109
310.8091	0.1087
311.0207	0.1103
311.2322	0.1187
311.4437	0.1083
311.6552	0.116
311.8667	0.1178
312.0782	0.1023
312.2897	0.1105
312.5012	0.1149
312.7126	0.1066
312.924	0.1003
313.1355	0.1099
313.3469	0.1029
313.5583	0.1074
313.7696	0.1123
313.981	0.1032
314.1924	0.1021
314.4037	0.1008
314.6151	0.11
314.8264	0.0916
315.0377	0.0959
315.249	0.1081
315.4603	0.105
315.6716	0.0909
315.8828	0.0914
316.0941	0.0996
316.3053	0.0925
316.5165	0.0968
316.7277	0.0856
316.9389	0.1063
317.1501	0.0953
317.3613	0.093
317.5724	0.075
317.7836	0.1007
317.9947	0.0933
318.2058	0.0986
318.417	0.0869
318.6281	0.0847
318.8391	0.093
319.0502	0.0947
319.2613	0.0995
319.4723	0.0984
319.6834	0.0998
319.8944	0.081
320.1054	0.0951
320.3164	0.0972
320.5274	0.0813
320.7383	0.084
320.9493	0.0936
321.1602	0.0921
321.3712	0.0934
321.5821	0.0882
321.793	0.0959
322.0039	0.0848
322.2148	0.0831
322.4257	0.1063
322.6365	0.1019
322.8474	0.1033
323.0582	0.0825
323.269	0.0945
323.4798	0.104
323.6906	0.1035
323.9014	0.0932
324.1122	0.0907
324.3229	0.093
324.5337	0.1029
324.7444	0.0871
324.9551	0.1145
325.1658	0.109
325.3765	0.1102
325.5872	0.0997
325.7979	0.0975
326.0085	0.0944
326.2192	0.1043
326.4298	0.1044
326.6404	0.091
326.851	0.0924
327.0616	0.0955
327.2722	0.1043
327.4828	0.1067
327.6933	0.1005
327.9039	0.1061
328.1144	0.1025
328.3249	0.0996
328.5354	0.1015
328.7459	0.0935
328.9564	0.0918
329.1669	0.0903
329.3773	0.0987
329.5878	0.1044
329.7982	0.0964
330.0086	0.1021
330.219	0.1049
330.4294	0.1035
330.6398	0.1078
330.8502	0.0956
331.0605	0.1066
331.2708	0.095
331.4812	0.0918
331.6915	0.1122
331.9018	0.0985
332.1121	0.0973
332.3224	0.102
332.5326	0.1042
332.7429	0.1013
332.9531	0.1172
333.1633	0.0981
333.3735	0.1027
333.5837	0.1011
333.7939	0.0995
334.0041	0.1143
334.2143	0.1041
334.4244	0.0978
334.6346	0.0843
334.8447	0.1156
335.0548	0.1123
335.2649	0.1112
335.475	0.11
335.685	0.1019
335.8951	0.1144
336.1051	0.1111
336.3152	0.1073
336.5252	0.0992
336.7352	0.1096
336.9452	0.1039
337.1552	0.1116
337.3652	0.1062
337.5751	0.1061
337.7851	0.1209
337.995	0.1012
338.2049	0.1036
338.4148	0.1103
338.6247	0.114
338.8346	0.1072
339.0445	0.1057
339.2543	0.1096
339.4642	0.1084
339.674	0.1031
339.8838	0.1115
340.0936	0.1016
340.3034	0.1199
340.5132	0.1073
340.7229	0.1076
340.9327	0.1025
341.1424	0.1071
341.3522	0.1188
341.5619	0.1282
341.7716	0.1199
341.9813	0.1143
342.1909	0.1038
342.4006	0.1129
342.6102	0.1244
342.8199	0.1151
343.0295	0.1235
343.2391	0.1253
343.4487	0.1318
343.6583	0.1199
343.8679	0.1065
344.0774	0.1221
344.287	0.128
344.4965	0.127
344.706	0.1286
344.9155	0.1183
345.125	0.1247
345.3345	0.1337
345.544	0.1167
345.7534	0.1181
345.9629	0.1262
346.1723	0.1355
346.3817	0.1289
346.5911	0.1195
346.8005	0.1362
347.0099	0.1231
347.2193	0.1313
347.4286	0.119
347.638	0.1295
347.8473	0.1402
348.0566	0.1392
348.2659	0.1323
348.4752	0.1289
348.6845	0.1404
348.8937	0.134
349.103	0.1387
349.3122	0.1342
349.5214	0.1422
349.7306	0.1476
349.9398	0.1349
350.149	0.1354
350.3582	0.1324
350.5674	0.1468
350.7765	0.1333
350.9856	0.1424
351.1948	0.1361
351.4039	0.123
351.613	0.1316
351.822	0.1448
352.0311	0.1397
352.2402	0.1462
352.4492	0.1445
352.6582	0.1548
352.8672	0.144
353.0762	0.1526
353.2852	0.143
353.4942	0.1337
353.7032	0.1535
353.9121	0.1508
354.1211	0.1468
354.33	0.1454
354.5389	0.1616
354.7478	0.1395
354.9567	0.1421
355.1655	0.1349
355.3744	0.1596
355.5833	0.1643
355.7921	0.1831
356.0009	0.1531
356.2097	0.1671
356.4185	0.1527
356.6273	0.1555
356.8361	0.166
357.0448	0.1536
357.2536	0.1513
357.4623	0.1482
357.671	0.1567
357.8797	0.1712
358.0884	0.17
358.2971	0.1501
358.5057	0.1624
358.7144	0.1758
358.923	0.1628
359.1316	0.1663
359.3402	0.1664
359.5488	0.1727
359.7574	0.161
359.966	0.1761
360.1746	0.1652
360.3831	0.1693
360.5916	0.1682
360.8002	0.1675
361.0087	0.1836
361.2172	0.1862
361.4256	0.177
361.6341	0.1931
361.8426	0.1858
362.051	0.1746
362.2594	0.1772
362.4678	0.179
362.6762	0.2028
362.8846	0.1849
363.093	0.1785
363.3014	0.1839
363.5097	0.1803
363.718	0.2002
363.9264	0.1845
364.1347	0.1736
364.343	0.2064
364.5513	0.1884
364.7595	0.2006
364.9678	0.2086
365.176	0.193
365.3842	0.1931
365.5925	0.1908
365.8007	0.1943
366.0089	0.2092
366.217	0.1965
366.4252	0.2036
366.6333	0.2288
366.8415	0.2061
367.0496	0.1958
367.2577	0.201
367.4658	0.2166
367.6739	0.2078
367.882	0.2137
368.09	0.1977
368.2981	0.2231
368.5061	0.2032
368.7141	0.2188
368.9221	0.2274
369.1301	0.2177
369.3381	0.212
369.5461	0.2267
369.754	0.215
369.962	0.2278
370.1699	0.2202
370.3778	0.216
370.5857	0.2009
370.7936	0.2105
371.0015	0.2252
371.2093	0.2229
371.4172	0.2302
371.625	0.2259
371.8328	0.2109
372.0406	0.2374
372.2484	0.2097
372.4562	0.2339
372.664	0.2346
372.8717	0.2356
373.0795	0.2121
373.2872	0.2235
373.4949	0.2405
373.7026	0.2266
373.9103	0.2482
374.118	0.2414
374.3256	0.224
374.5333	0.2301
374.7409	0.2463
374.9485	0.2451
375.1561	0.2395
375.3637	0.2463
375.5713	0.2525
375.7789	0.2538
375.9864	0.2418
376.194	0.2639
376.4015	0.247
376.609	0.2458
376.8165	0.2422
377.024	0.2434
377.2315	0.2372
377.4389	0.2479
377.6464	0.2507
377.8538	0.2482
378.0612	0.2485
378.2686	0.2569
378.476	0.2584
378.6834	0.2417
378.8908	0.2593
379.0981	0.2556
379.3055	0.2391
379.5128	0.2386
379.7201	0.2545
379.9274	0.2548
380.1347	0.2524
380.342	0.2832
380.5492	0.2428
380.7565	0.2604
380.9637	0.2645
381.1709	0.2602
381.3781	0.2818
381.5853	0.2649
381.7925	0.2673
381.9997	0.264
382.2068	0.2784
382.4139	0.2715
382.6211	0.2459
382.8282	0.2561
383.0353	0.2634
383.2424	0.2577
383.4494	0.2718
383.6565	0.2558
383.8635	0.2599
384.0706	0.2633
384.2776	0.2662
384.4846	0.2573
384.6916	0.2585
384.8986	0.2673
385.1055	0.2764
385.3125	0.2844
385.5194	0.2543
385.7263	0.2618
385.9333	0.2603
386.1402	0.2601
386.347	0.268
386.5539	0.261
386.7608	0.279
386.9676	0.2445
387.1744	0.2623
387.3813	0.2471
387.5881	0.2854
387.7948	0.2689
388.0016	0.2567
388.2084	0.2502
388.4151	0.2578
388.6219	0.2649
388.8286	0.2562
389.0353	0.2529
389.242	0.2615
389.4487	0.2636
389.6553	0.2767
389.862	0.2347
390.0686	0.2704
390.2753	0.2555
390.4819	0.2597
390.6885	0.2445
390.8951	0.242
391.1016	0.2467
391.3082	0.25
391.5147	0.2535
391.7213	0.2515
391.9278	0.2551
392.1343	0.2379
392.3408	0.2353
392.5473	0.2512
392.7537	0.2322
392.9602	0.2294
393.1666	0.2473
393.373	0.2458
393.5794	0.2466
393.7858	0.2275
393.9922	0.2469
394.1986	0.2408
394.4049	0.2238
394.6113	0.2356
394.8176	0.2301
395.0239	0.2157
395.2302	0.2344
395.4365	0.2339
395.6428	0.2397
395.8491	0.2237
396.0553	0.2402
396.2615	0.2233
396.4678	0.2288
396.674	0.2254
396.8802	0.2412
397.0863	0.2583
397.2925	0.2333
397.4987	0.2256
397.7048	0.2202
397.9109	0.2177
398.117	0.2216
398.3231	0.2217
398.5292	0.2264
398.7353	0.2401
398.9413	0.2143
399.1474	0.2153
399.3534	0.2163
399.5594	0.1939
399.7654	0.2451
399.9714	0.2407
400.1774	0.2239
400.3833	0.2148
400.5893	0.2138
400.7952	0.2268
401.0011	0.2346
401.207	0.2149
401.4129	0.2321
401.6188	0.2311
401.8247	0.2407
402.0305	0.2087
402.2364	0.2058
402.4422	0.2293
402.648	0.2427
402.8538	0.2259
403.0596	0.2212
403.2654	0.2271
403.4711	0.2279
403.6768	0.2428
403.8826	0.2489
404.0883	0.2185
404.294	0.2324
404.4997	0.2324
404.7054	0.2311
404.911	0.2116
405.1167	0.2182
405.3223	0.2393
405.5279	0.2174
405.7335	0.2209
405.9391	0.2374
406.1447	0.207
406.3502	0.2552
406.5558	0.2277
406.7613	0.2135
406.9668	0.2264
407.1724	0.2111
407.3778	0.2128
407.5833	0.2081
407.7888	0.2366
407.9942	0.2411
408.1997	0.2159
408.4051	0.2119
408.6105	0.2135
408.8159	0.2137
409.0213	0.2344
409.2267	0.2468
409.432	0.2108
409.6374	0.2202
409.8427	0.2065
410.048	0.2277
410.2533	0.213
410.4586	0.2047
410.6639	0.2004
410.8691	0.2243
411.0744	0.2112
411.2796	0.2007
411.4848	0.2158
411.69	0.2244
411.8952	0.2375
412.1004	0.2076
412.3056	0.2152
412.5107	0.216
412.7158	0.2149
412.921	0.2104
413.1261	0.1947
413.3312	0.2091
413.5362	0.2062
413.7413	0.2132
413.9464	0.201
414.1514	0.2049
414.3564	0.2108
414.5614	0.1989
414.7664	0.2124
414.9714	0.2098
415.1764	0.2251
415.3813	0.2251
415.5863	0.2148
415.7912	0.2152
415.9961	0.2201
416.201	0.223
416.4059	0.2172
416.6108	0.2103
416.8156	0.2312
417.0205	0.1994
417.2253	0.202
417.4301	0.216
417.6349	0.2089
417.8397	0.1988
418.0445	0.21
418.2492	0.2107
418.454	0.1884
418.6587	0.2106
418.8634	0.2182
419.0681	0.1996
419.2728	0.1988
419.4775	0.1832
419.6822	0.1976
419.8868	0.1891
420.0915	0.2249
420.2961	0.2054
420.5007	0.2044
420.7053	0.2092
420.9099	0.1992
421.1144	0.2013
421.319	0.1914
421.5235	0.2039
421.728	0.2074
421.9325	0.1998
422.137	0.2147
422.3415	0.1926
422.546	0.1856
422.7504	0.2028
422.9549	0.1915
423.1593	0.2207
423.3637	0.1873
423.5681	0.1796
423.7725	0.187
423.9769	0.1813
424.1812	0.1897
424.3856	0.1824
424.5899	0.1717
424.7942	0.2005
424.9985	0.187
425.2028	0.1852
425.4071	0.1867
425.6113	0.1607
425.8156	0.195
426.0198	0.1874
426.224	0.1696
426.4282	0.1757
426.6324	0.1795
426.8366	0.1917
427.0407	0.1785
427.2449	0.1622
427.449	0.1788
427.6531	0.1568
427.8572	0.176
428.0613	0.165
428.2654	0.1656
428.4694	0.1597
428.6735	0.1647
428.8775	0.1644
429.0815	0.1585
429.2855	0.1525
429.4895	0.1626
429.6935	0.1651
429.8975	0.1586
430.1014	0.1489
430.3053	0.1323
430.5093	0.1632
430.7132	0.1484
430.9171	0.1416
431.1209	0.1536
431.3248	0.1545
431.5286	0.1426
431.7325	0.1471
431.9363	0.1365
432.1401	0.1544
432.3439	0.1284
432.5477	0.1222
432.7514	0.1323
432.9552	0.1346
433.1589	0.139
433.3627	0.1164
433.5664	0.1312
433.7701	0.131
433.9737	0.0994
434.1774	0.1253
434.3811	0.1215
434.5847	0.1226
434.7883	0.1182
434.9919	0.0926
435.1955	0.1178
435.3991	0.1198
435.6027	0.1088
435.8062	0.1095
436.0098	0.095
436.2133	0.1
436.4168	0.0956
436.6203	0.0922
436.8238	0.119
437.0272	0.1059
437.2307	0.1088
437.4341	0.1196
437.6375	0.1023
437.841	0.0968
438.0443	0.1046
438.2477	0.1015
438.4511	0.0765
438.6545	0.0967
438.8578	0.0877
439.0611	0.1039
439.2644	0.0855
439.4677	0.0691
439.671	0.0738
439.8743	0.082
440.0775	0.0885
440.2808	0.0953
440.484	0.0797
440.6872	0.0763
440.8904	0.0689
441.0936	0.0867
441.2967	0.0787
441.4999	0.0797
441.703	0.0571
441.9062	0.0711
442.1093	0.0638
442.3124	0.0711
442.5155	0.0582
442.7185	0.059
442.9216	0.0426
443.1246	0.0726
443.3276	0.0525
443.5307	0.0528
443.7337	0.0677
443.9366	0.071
444.1396	0.0612
444.3426	0.0618
444.5455	0.0617
444.7484	0.061
444.9513	0.0562
445.1542	0.0649
445.3571	0.0541
445.56	0.0441
445.7628	0.0429
445.9657	0.0352
446.1685	0.0501
446.3713	0.0462
446.5741	0.037
446.7769	0.0415
446.9797	0.0337
447.1824	0.045
447.3852	0.0385
447.5879	0.0531
447.7906	0.0578
447.9933	0.0482
448.196	0.0332
448.3986	0.0438
448.6013	0.0311
448.8039	0.0284
449.0066	0.019
449.2092	0.0358
449.4118	0.0317
449.6143	0.0363
449.8169	0.0443
450.0195	0.0283
450.222	0.0129
450.4245	0.0351
450.627	0.0302
450.8295	0.0352
451.032	0.0384
451.2345	0.0216
451.4369	0.0399
451.6394	0.0247
451.8418	0.0004
452.0442	0.0167
452.2466	0.0424
452.449	0.0129
452.6513	0.0216
452.8537	0.014
453.056	0.0107
453.2583	0.0089
453.4607	0.0107
453.663	0.0143
453.8652	0.0323
454.0675	0.0145
454.2697	0.0198
454.472	0.009
454.6742	0.0213
454.8764	0.0117
455.0786	0.0181
455.2808	0.0206
455.4829	0.0178
455.6851	0.0128
455.8872	0.0289
456.0893	0.0321
456.2915	0.004
456.4935	0.0057
456.6956	0.005
456.8977	0.0081
457.0997	0.0207
457.3018	-0.0058
457.5038	0.0069
457.7058	0.0131
457.9078	0.006
458.1098	0.0154
458.3117	0.0125
458.5137	0.0216
458.7156	0.0132
458.9175	-0.0046
459.1194	0.0094
459.3213	0.0007
459.5232	0.0022
459.725	-0.0024
459.9269	-0.0051
460.1287	-0.0012
460.3305	0.0068
460.5323	0.0165
460.7341	0.0078
460.9359	0.0101
461.1376	0.0167
461.3394	0.0039
461.5411	0.0065
461.7428	-0.0024
461.9445	0.0203
462.1462	0.0115
462.3479	0.0051
462.5495	0.0068
462.7512	0.0092
462.9528	-0.0181
463.1544	-0.0042
463.356	-0.0119
463.5576	0.0008
463.7592	-0.0064
463.9607	0.0058
464.1623	0.0088
464.3638	0.0222
464.5653	-0.0107
464.7668	0.0101
464.9683	0.0091
465.1697	0.0108
465.3712	-0.0056
465.5726	-0.0071
465.7741	-0.014
465.9755	0.0024
466.1769	-0.0019
466.3782	0.0059
466.5796	-0.0096
466.7809	0.0191
466.9823	-0.014
467.1836	-0.0002
467.3849	-0.0058
467.5862	-0.0054
467.7875	-0.0119
467.9887	0.0228
468.19	-0.0123
468.3912	-0.0141
468.5924	-0.006
468.7936	-0.0098
468.9948	0.0074
469.196	0.0046
469.3972	-0.0077
469.5983	-0.0049
469.7994	-0.0322
470.0006	0.0019
470.2017	-0.0182
470.4027	-0.0093
470.6038	-0.0024
470.8049	-0.0342
471.0059	-0.0181
471.2069	-0.0393
471.408	0.0015
471.6089	0.0127
471.8099	-0.0029
472.0109	-0.0011
472.2119	-0.006
472.4128	-0.018
472.6137	0.0054
472.8146	-0.0077
473.0155	0.0001
473.2164	0.002
473.4173	0.0091
473.6181	0.0048
473.819	0.0037
474.0198	-0.0034
474.2206	-0.0221
474.4214	-0.0101
474.6222	0.0082
474.8229	-0.0204
475.0237	-0.0215
475.2244	-0.0108
475.4251	-0.0123
475.6258	-0.0096
475.8265	-0.0002
476.0272	0.0106
476.2278	-0.0075
476.4285	0.0041
476.6291	-0.0121
476.8297	-0.0095
477.0303	-0.0114
477.2309	-0.0061
477.4315	-0.0181
477.632	-0.0083
477.8326	-0.0055
478.0331	0.0053
478.2336	-0.0086
478.4341	-0.0127
478.6346	-0.0015
478.8351	-0.0134
479.0355	-0.011
479.236	-0.0152
479.4364	-0.0051
479.6368	-0.0074
479.8372	-0.0204
480.0376	-0.014
480.2379	-0.0305
480.4383	-0.0153
480.6386	0.0026
480.8389	-0.0035
481.0392	-0.0163
481.2395	-0.015
481.4398	-0.0034
481.6401	-0.0013
481.8403	-0.0069
482.0405	-0.0188
482.2408	-0.0126
482.441	0.0014
482.6411	-0.0102
482.8413	-0.0095
483.0415	-0.0162
483.2416	-0.0111
483.4417	-0.005
483.6419	-0.0166
483.8419	-0.0191
484.042	-0.0013
484.2421	-0.0108
484.4422	-0.0012
484.6422	-0.0046
484.8422	-0.0041
485.0422	-0.0168
485.2422	-0.0122
485.4422	-0.0153
485.6422	-0.0112
485.8421	-0.0092
486.042	-0.0091
486.242	-0.0035
486.4419	-0.0151
486.6417	-0.0107
486.8416	-0.0115
487.0415	-0.0109
487.2413	-0.0108
487.4411	-0.0087
487.641	-0.01
487.8408	-0.0049
488.0405	-0.016
488.2403	-0.0126
488.4401	-0.0084
488.6398	-0.0098
488.8395	-0.007
489.0392	-0.0048
489.2389	-0.0002
489.4386	-0.0196
489.6383	-0.0064
489.8379	-0.006
490.0376	-0.0079
490.2372	-0.0152
490.4368	-0.0203
490.6364	-0.0138
490.836	-0.0157
491.0355	-0.0087
491.2351	-0.0195
491.4346	-0.0111
491.6341	-0.0142
491.8336	-0.0071
492.0331	-0.0188
492.2326	-0.0161
492.432	-0.021
492.6315	-0.0036
492.8309	-0.02
493.0303	-0.0087
493.2297	-0.0115
493.4291	-0.013
493.6284	-0.0086
493.8278	-0.0023
494.0271	-0.0139
494.2264	0.0023
494.4257	-0.0155
494.625	-0.012
494.8243	-0.025
495.0236	-0.0184
495.2228	-0.0185
495.422	-0.0028
495.6213	-0.0133
495.8205	-0.0048
496.0196	-0.0165
496.2188	-0.0031
496.418	-0.0187
496.6171	-0.0019
496.8162	-0.0082
497.0153	-0.0007
497.2144	-0.0082
497.4135	-0.01
497.6126	-0.0226
497.8116	-0.0135
498.0107	-0.0055
498.2097	-0.024
498.4087	-0.0119
498.6077	-0.0038
498.8067	-0.0069
499.0056	-0.0024
499.2046	-0.0112
499.4035	-0.0191
499.6024	-0.0193
499.8013	-0.0111
500.0002	-0.0175
500.199	-0.0137
500.3979	-0.0087
500.5967	-0.0193
500.7956	-0.0004
500.9944	-0.0102
501.1932	-0.0093
501.3919	-0.0042
501.5907	-0.0133
501.7895	-0.0078
501.9882	-0.0128
502.1869	-0.0128
502.3856	-0.0172
502.5843	-0.0131
502.783	-0.0162
502.9816	-0.0098
503.1803	-0.0267
503.3789	-0.0191
503.5775	-0.0079
503.7761	-0.0119
503.9747	-0.0098
504.1732	-0.0161
504.3718	-0.0105
504.5703	-0.0074
504.7689	-0.0208
504.9674	-0.0158
505.1658	-0.0113
505.3643	-0.005
505.5628	-0.0098
505.7612	-0.0104
505.9597	-0.0105
506.1581	-0.0112
506.3565	0.0004
506.5549	-0.0137
506.7532	-0.0131
506.9516	0.0006
507.1499	-0.0104
507.3482	-0.023
507.5465	-0.0076
507.7448	-0.008
507.9431	-0.0051
508.1414	-0.0047
508.3396	-0.0143
508.5379	-0.0113
508.7361	-0.0107
508.9343	-0.0112
509.1325	-0.0082
509.3306	-0.0192
509.5288	-0.0116
509.7269	-0.0133
509.9251	-0.0102
510.1232	-0.0238
510.3213	-0.0102
510.5193	-0.0058
510.7174	-0.0188
510.9154	-0.0233
511.1135	-0.0109
511.3115	-0.0069
511.5095	-0.0167
511.7075	-0.0056
511.9055	-0.0036
512.1034	-0.0185
512.3014	-0.0071
512.4993	-0.0066
512.6972	-0.0118
512.8951	-0.0184
513.093	-0.0086
513.2908	-0.0117
513.4887	-0.0071
513.6865	-0.0067
513.8844	-0.007
514.0822	-0.0084
514.2799	-0.0155
514.4777	-0.0172
514.6755	-0.0178
514.8732	-0.0126
515.0709	-0.0137
515.2687	-0.0182
515.4664	-0.0072
515.664	-0.0188
515.8617	-0.0128
516.0594	-0.0145
516.257	-0.0158
516.4546	-0.0122
516.6522	-0.0029
516.8498	-0.0062
517.0474	-0.0025
517.2449	0.0017
517.4425	-0.0202
517.64	-0.0128
517.8375	-0.003
518.035	-0.005
518.2325	-0.0253
518.43	-0.0161
518.6274	-0.0116
518.8249	-0.0117
519.0223	-0.0097
519.2197	-0.0137
519.4171	-0.021
519.6145	-0.0124
519.8118	-0.0013
520.0092	-0.02
520.2065	-0.0147
520.4038	-0.026
520.6011	-0.0099
520.7984	-0.0149
520.9956	-0.0189
521.1929	-0.0176
521.3901	-0.0077
521.5874	-0.0113
521.7846	-0.0087
521.9818	-0.025
522.1789	-0.0161
522.3761	-0.0049
522.5732	-0.0156
522.7704	-0.0044
522.9675	-0.0042
523.1646	-0.0147
523.3617	-0.0094
523.5587	-0.0126
523.7558	-0.0123
523.9528	-0.0202
524.1498	-0.0142
524.3468	-0.0143
524.5438	-0.0193
524.7408	-0.0247
524.9378	-0.0013
525.1347	-0.017
525.3316	-0.0024
525.5285	-0.0146
525.7254	-0.0152
525.9223	-0.0116
526.1192	-0.0127
526.316	-0.011
526.5129	-0.0035
526.7097	-0.0022
526.9065	-0.0081
527.1033	-0.0179
527.3	-0.0126
527.4968	-0.009
527.6935	-0.0043
527.8903	-0.0185
528.087	-0.0078
528.2837	-0.0153
528.4804	0.0014
528.677	-0.0125
528.8737	-0.0025
529.0703	-0.0003
529.2669	-0.0125
529.4635	-0.0235
529.6601	-0.0118
529.8567	-0.0091
530.0532	-0.0122
530.2498	0.0017
530.4463	-0.007
530.6428	-0.0072
530.8393	-0
531.0358	-0.0078
531.2322	-0.0135
531.4287	-0.0036
531.6251	-0.0214
531.8215	0.0023
532.0179	-0.0007
532.2143	-0.007
532.4107	-0.0035
532.607	-0.0134
532.8034	0.0024
532.9997	-0.0064
533.196	-0.004
533.3923	-0.0189
533.5886	-0.0005
533.7848	-0.0042
533.9811	-0.0037
534.1773	-0.0002
534.3735	-0.0081
534.5697	-0.0065
534.7659	-0.0074
534.9621	-0.0067
535.1582	-0.0115
535.3544	-0.0191
535.5505	-0.0105
535.7466	-0.0108
535.9427	-0.0073
536.1387	-0.0166
536.3348	-0.0039
536.5308	-0.0088
536.7269	-0.0146
536.9229	-0.0048
537.1189	-0.0052
537.3148	-0.0112
537.5108	-0.0071
537.7068	-0.0132
537.9027	-0.008
538.0986	-0.0116
538.2945	-0.0141
538.4904	-0.0071
538.6863	-0.0027
538.8821	-0.0117
539.078	-0.0083
539.2738	-0.0045
539.4696	-0.0115
539.6654	0.0002
539.8611	-0.0007
540.0569	-0.0071
540.2526	-0.0109
540.4484	-0.0079
540.6441	0.0005
540.8398	-0.0103
541.0355	-0.0033
541.2311	-0.0072
541.4268	-0.0144
541.6224	-0.0021
541.818	-0.0069
542.0136	-0.0172
542.2092	-0.0088
542.4048	-0.0096
542.6003	-0.004
542.7959	-0.0069
542.9914	-0.011
543.1869	-0.0029
543.3824	-0.0103
543.5779	-0.0211
543.7734	-0.0111
543.9688	-0.0048
544.1642	-0.0031
544.3596	0.0038
544.555	-0.007
544.7504	-0.0029
544.9458	-0.016
545.1411	-0.0054
545.3365	-0.0097
545.5318	-0.0077
545.7271	-0.0067
545.9224	0.0006
546.1177	-0.0063
546.3129	0.0058
546.5081	-0.0137
546.7034	0.0003
546.8986	-0.0063
547.0938	-0.0096
547.289	-0.0078
547.4841	-0.0038
547.6793	0.004
547.8744	-0.0087
548.0695	-0.001
548.2646	-0.0041
548.4597	-0.0004
548.6548	-0.0036
548.8498	-0.0014
549.0448	-0.0025
549.2399	-0.0041
549.4349	0.0037
549.6298	-0.0045
549.8248	-0.0093
550.0198	-0.0086
550.2147	-0.0046
550.4096	-0.0047
550.6045	-0.0051
550.7994	-0.0033
550.9943	0.0085
551.1892	-0.0027
551.384	0.0026
551.5788	-0.0113
551.7737	0.0003
551.9685	-0.0092
552.1632	-0.0018
552.358	0.0002
552.5528	-0.0026
552.7475	-0.0071
552.9422	-0.0055
553.1369	-0.0037
553.3316	0.0028
553.5263	-0.0128
553.7209	0.0066
553.9156	-0.0093
554.1102	-0.0099
554.3048	-0.002
554.4994	0.0032
554.694	-0.0001
554.8885	0.0022
555.0831	-0.0075
555.2776	-0.0141
555.4721	-0.0039
555.6666	-0.0094
555.8611	0.0094
556.0555	-0.0084
556.25	-0.0065
556.4444	-0.0144
556.6388	0.0012
556.8332	-0.0027
557.0276	-0.0029
557.222	0.001
557.4163	-0.0088
557.6107	-0.0037
557.805	0.0013
557.9993	-0.004
558.1936	-0.0044
558.3879	0.0023
558.5821	-0.0067
558.7764	-0.0018
558.9706	-0.0064
559.1648	-0.0034
559.359	-0.004
559.5532	-0.0125
559.7473	-0.0071
559.9415	-0.0089
560.1356	-0.0133
560.3297	-0.0129
560.5238	-0.0063
560.7179	-0.0023
560.9119	0.0007
561.106	-0.0082
561.3	-0.0023
561.494	-0.0061
561.688	-0.0128
561.882	-0.0151
562.076	-0.0076
562.2699	0.0025
562.4639	-0.0012
562.6578	-0.0041
562.8517	-0.0049
563.0456	0.0035
563.2395	-0.0012
563.4333	-0.0006
563.6272	0.0061
563.821	-0.0058
564.0148	0.0002
564.2086	-0
564.4024	-0.0042
564.5961	-0.0069
564.7899	-0.0012
564.9836	-0.0088
565.1773	-0.0045
565.371	0.0048
565.5647	0.0033
565.7584	0.0014
565.952	0.005
566.1456	-0.0005
566.3393	-0.0024
566.5329	-0.0058
566.7264	-0.0056
566.92	-0.0054
567.1136	-0.0027
567.3071	-0.0053
567.5006	0.0021
567.6941	0.0009
567.8876	-0.0031
568.0811	-0.0057
568.2745	-0.0043
568.468	0.0034
568.6614	0.0016
568.8548	-0.0003
569.0482	-0.0036
569.2416	0.0014
569.4349	-0.0022
569.6283	0.0084
569.8216	-0.0069
570.0149	-0.009
570.2082	0.0008
570.4015	0.0004
570.5947	0.0067
570.788	0.0016
570.9812	0.0063
571.1744	-0.0023
571.3676	-0.0003
571.5608	-0.0013
571.754	0.004
571.9471	-0.001
572.1402	0.0018
572.3333	0.0008
572.5264	-0.0028
572.7195	-0.0003
572.9126	-0.0043
573.1057	-0.0029
573.2987	-0.0041
573.4917	0.0014
573.6847	-0.009
573.8777	0.004
574.0707	0.0076
574.2636	-0.0084
574.4566	-0.0052
574.6495	0.0014
574.8424	-0.0011
575.0353	-0.0018
575.2281	0.006
575.421	0.0013
575.6138	0.0005
575.8067	0.0006
575.9995	-0.0036
576.1923	0.015
576.385	-0.0022
576.5778	0.0042
576.7706	-0.0012
576.9633	0.0017
577.156	-0.0026
577.3487	-0.003
577.5414	-0.0031
577.734	-0.0034
577.9267	0.0001
578.1193	-0.0108
578.3119	-0.0072
578.5045	-0.0023
578.6971	-0.0005
578.8897	0.0062
579.0822	0.0029
579.2747	-0.0006
579.4673	-0.0009
579.6598	-0.0077
579.8522	0.0003
580.0447	-0.0062
580.2372	-0.0016
580.4296	0.0015
580.622	-0.0014
580.8144	0.0037
581.0068	-0.0025
581.1992	-0.015
581.3915	-0.007
581.5839	-0.0061
581.7762	-0.0074
581.9685	-0.0078
582.1608	0.0033
582.353	-0.0018
582.5453	-0.0003
582.7375	0.0016
582.9298	0.0009
583.122	-0.0071
583.3142	-0.0017
583.5063	-0.0082
583.6985	-0.0056
583.8906	-0.0018
584.0827	-0.0075
584.2749	0.003
584.4669	0.0008
584.659	-0.003
584.8511	-0.0028
585.0431	-0.008
585.2352	-0.0074
585.4272	-0.0073
585.6192	-0.0007
585.8111	-0.0009
586.0031	0.0015
586.195	0.0035
586.387	0.0002
586.5789	0.0021
586.7708	-0.0005
586.9627	-0.0019
587.1545	-0.0107
587.3464	0.0006
587.5382	0.0021
587.73	0.0025
587.9218	0.0078
588.1136	-0.0058
588.3053	0.004
588.4971	-0.0009
588.6888	-0.0099
588.8805	-0.0002
589.0722	0.0064
589.2639	0.0006
589.4556	0.006
589.6472	-0.0058
589.8389	-0.0094
590.0305	-0.0092
590.2221	-0.0003
590.4137	-0.005
590.6052	0.0051
590.7968	0.0053
590.9883	0.0031
591.1798	-0.0055
591.3713	-0.0012
591.5628	0.0024
591.7543	0.001
591.9458	-0.0018
592.1372	0.0045
592.3286	0.0016
592.52	0.0059
592.7114	-0.0023
592.9028	-0.0016
593.0941	-0.0053
593.2855	0.0012
593.4768	0.0006
593.6681	-0.0102
593.8594	-0.0027
594.0506	-0.0023
594.2419	0.0068
594.4331	-0.0029
594.6244	0.001
594.8156	-0.0092
595.0067	-0.0019
595.1979	0.0098
595.3891	0.004
595.5802	-0.0059
595.7713	0.0002
595.9624	0.0008
596.1535	0.0053
596.3446	-0.0025
596.5357	0.0007
596.7267	0.0051
596.9177	-0.0024
597.1087	-0.0089
597.2997	-0.0025
597.4907	-0.0002
597.6817	0.0024
597.8726	-0.0013
598.0635	-0.0073
598.2544	0.0002
598.4453	0.004
598.6362	0.0066
598.827	-0.0052
599.0179	0.0012
599.2087	0.0039
599.3995	-0.0016
599.5903	-0.0013
599.7811	0.0065
599.9718	-0.0008
600.1626	-0.0046
600.3533	-0.0076
600.544	-0.0065
600.7347	0.0005
600.9254	0.0002
601.116	-0.0066
601.3067	-0.0009
601.4973	-0.0044
601.6879	0.0054
601.8785	-0.0114
602.0691	-0.0009
602.2596	-0.002
602.4502	0.0013
602.6407	0.0057
602.8312	0.0053
603.0217	-0.0128
603.2122	0.002
603.4027	0.0032
603.5931	0.0038
603.7835	-0.0042
603.9739	-0.0003
604.1643	-0.0026
604.3547	-0.0088
604.5451	0.0035
604.7354	-0.006
604.9257	0.0007
605.116	-0.0017
605.3063	0.0004
605.4966	0.005
605.6869	0.0009
605.8771	0.0063
606.0673	0.0054
606.2575	0.0071
606.4477	0.0054
606.6379	0.0038
606.8281	0.0006
607.0182	0.001
607.2083	0.0109
607.3985	0.0043
607.5885	0.0012
607.7786	0.0042
607.9687	-0.0108
608.1587	0.0036
608.3488	0
608.5388	-0.0037
608.7288	0.0007
608.9187	-0.0024
609.1087	-0.0039
609.2986	-0.0041
609.4886	-0.0043
609.6785	-0.0054
609.8684	0.0004
610.0582	-0.0018
610.2481	0.0041
610.4379	-0.0003
610.6278	-0.0011
610.8176	-0.0023
611.0074	-0.004
611.1971	-0.0036
611.3869	0.0005
611.5766	-0.0052
611.7664	0.0042
611.9561	0.0057
612.1458	0.0001
612.3354	-0.0028
612.5251	0.003
612.7147	-0.0029
612.9044	0.0043
613.094	-0.0058
613.2836	0.0041
613.4731	-0.0008
613.6627	0.0012
613.8522	0.0061
614.0417	0.009
614.2313	-0.0007
614.4207	-0.0082
614.6102	0.0033
614.7997	-0.0008
614.9891	-0.0049
615.1785	-0.004
615.3679	-0.0015
615.5573	0.0061
615.7467	-0.0012
615.9361	0.0005
616.1254	-0.0015
616.3147	-0.0065
616.504	-0.0001
616.6933	0.0015
616.8826	0.0007
617.0718	0.0015
617.2611	0.0004
617.4503	-0.0074
617.6395	-0.0009
617.8287	-0.0059
618.0179	0.0075
618.207	0.0087
618.3961	0.0024
618.5853	-0.0045
618.7744	0.004
618.9634	0.0043
619.1525	0.0061
619.3416	0.0072
619.5306	0.002
619.7196	-0.0018
619.9086	-0.0009
620.0976	0.0071
620.2866	-0.0019
620.4755	0.0042
620.6645	0.0121
620.8534	0.0045
621.0423	-0.0032
621.2312	0.0073
621.42	0.0018
621.6089	0.0022
621.7977	0.0041
621.9865	-0.0015
622.1753	0.0035
622.3641	0.0039
622.5529	0.0064
622.7416	0.0054
622.9303	0.0003
623.1191	-0.0019
623.3078	-0.0031
623.4964	-0.0033
623.6851	-0.0104
623.8737	-0.0017
624.0624	0.0071
624.251	0.0044
624.4396	-0.0031
624.6282	-0.0111
624.8167	-0.0007
625.0053	0.0085
625.1938	0.0061
625.3823	0.003
625.5708	-0.003
625.7593	-0.0001
625.9477	-0.0005
626.1362	-0.0025
626.3246	0.0057
626.513	0.007
626.7014	0.0117
626.8898	-0.0049
627.0781	0.0067
627.2665	-0.0085
627.4548	0.006
627.6431	0.0006
627.8314	-0.0009
628.0197	0.0051
628.2079	-0.0102
628.3962	-0.0069
628.5844	-0
628.7726	0.0047
628.9608	0.0075
629.1489	0.0074
629.3371	0.0086
629.5252	-0.0063
629.7134	0.0108
629.9015	-0.0039
630.0895	0.0023
630.2776	0.0077
630.4657	-0.0041
630.6537	0.0044
630.8417	0.0015
631.0297	-0.0081
631.2177	0.0001
631.4057	-0.0057
631.5936	-0.0022
631.7815	0.0051
631.9695	0.0097
632.1574	0.0114
632.3452	0.0161
632.5331	0.0045
632.7209	-0.0071
632.9088	0.0069
633.0966	0.0108
633.2844	-0.0008
633.4722	0.0018
633.6599	0.0062
633.8477	-0.0018
634.0354	-0.0013
634.2231	-0.0037
634.4108	0.0006
634.5985	0.0036
634.7861	0.0063
634.9738	-0.0014
635.1614	0.0005
635.349	0.0041
635.5366	0.0053
635.7242	-0.0006
635.9117	0.0056
636.0993	-0.0015
636.2868	0.0012
636.4743	-0.0029
636.6618	0.0097
636.8492	0.0024
637.0367	-0.0001
637.2241	0.0001
637.4115	0.0003
637.5989	-0.0027
637.7863	-0.0021
637.9737	-0.0012
638.161	0.0035
638.3484	0.0031
638.5357	0.0047
638.723	-0.0084
638.9103	0.002
639.0975	0.0082
639.2848	0.0071
639.472	-0.0007
639.6592	0.0102
639.8464	0.009
640.0336	0.0089
640.2208	0.0037
640.4079	0.0071
640.595	0.0015
640.7821	0.0018
640.9692	-0.0012
641.1563	0.0025
641.3434	0.0073
641.5304	0.0042
641.7174	0.0071
641.9044	0.0058
642.0914	0.0031
642.2784	0.0042
642.4653	0.0064
642.6523	0.0057
642.8392	-0.0007
643.0261	0.0127
643.213	0.0058
643.3999	-0.0027
643.5867	-0.0043
643.7735	-0.0007
643.9604	0.001
644.1472	0.0006
644.3339	0.0031
644.5207	0.0007
644.7075	0.0072
644.8942	0.0028
645.0809	0.0023
645.2676	0.0039
645.4543	0.0111
645.6409	0.007
645.8276	0.0072
646.0142	0.0093
646.2008	-0.0029
646.3874	-0.0065
646.574	0.0062
646.7605	-0.0017
646.9471	-0.0114
647.1336	0.0049
647.3201	0.0046
647.5066	-0.0036
647.6931	0.0076
647.8795	-0.0006
648.0659	0.0012
648.2524	0.0134
648.4388	-0.0032
648.6252	0.0044
648.8115	-0.0057
648.9979	-0.0019
649.1842	0.0053
649.3705	0.0007
649.5568	0.0054
649.7431	0.0026
649.9294	-0.0005
650.1156	0.0058
650.3018	-0.0002
650.488	0.0049
650.6742	0.001
650.8604	0.0041
651.0466	-0.0034
651.2327	0.0023
651.4188	-0
651.6049	0.001
651.791	0.0026
651.9771	0.0035
652.1632	0.0032
652.3492	0.0028
652.5352	-0.0014
652.7212	0.0013
652.9072	0.007
653.0932	0.0039
653.2791	0.0001
653.465	-0.0021
653.651	-0.0087
653.8369	-0.002
654.0227	0.0001
654.2086	0.0071
654.3944	0.0057
654.5803	0.0028
654.7661	-0.0025
654.9519	0.0013
655.1377	-0.001
655.3234	0.0021
655.5092	-0.0031
655.6949	-0.006
655.8806	-0.0019
656.0663	-0.001
656.2519	-0.0034
656.4376	-0.0049
656.6232	0.0049
656.8088	0.0039
656.9945	-0.0033
657.18	0.0082
657.3656	0.0115
657.5511	-0.0022
657.7367	-0.007
657.9222	0.0057
658.1077	0.0008
658.2932	0.0061
658.4786	-0.0046
658.6641	-0.0043
658.8495	-0.0031
659.0349	-0.0007
659.2203	0.0109
659.4057	0.0047
659.591	0.0033
659.7764	-0.0052
659.9617	0.0044
660.147	0.0065
660.3323	0.0031
660.5176	0.0115
660.7028	0.0092
660.888	0.0094
661.0733	-0.0008
661.2585	-0.0007
661.4436	-0.0049
661.6288	-0.0017
661.8139	0.0007
661.9991	0.0084
662.1842	-0.0013
662.3693	0.0027
662.5544	-0.0058
662.7394	0.0052
662.9245	-0.0017
663.1095	-0.0059
663.2945	0.0001
663.4795	-0.002
663.6644	0.0058
663.8494	-0.0027
664.0343	0.0097
664.2193	-0.0023
664.4042	-0.0001
664.589	-0.0033
664.7739	0.0001
664.9587	-0.0033
665.1436	-0.0035
665.3284	-0.0026
665.5132	-0.0047
665.698	-0.0051
665.8827	0.0116
666.0675	0.0015
666.2522	-0.0023
666.4369	0.0058
666.6216	0.0083
666.8063	-0.0074
666.9909	0.0012
667.1756	0.0031
667.3602	0.0015
667.5448	0.0035
667.7294	0.0144
667.9139	0.0068
668.0985	0.0149
668.283	-0.0053
668.4675	0
668.652	0.0082
668.8365	0.0007
669.0209	0.0066
669.2054	0.0082
669.3898	-0.0012
669.5742	0.0014
669.7586	0.0025
669.943	0.0033
670.1273	0.0108
670.3117	0.0051
670.496	0.0031
670.6803	0.0117
670.8646	0.0065
671.0488	-0.0059
671.2331	0.0033
671.4173	0.0009
671.6015	-0.0024
671.7857	0.0029
671.9699	0.0034
672.1541	0.0057
672.3382	0.0032
672.5223	0.0066
672.7064	-0.0026
672.8905	0.0063
673.0746	-0.0023
673.2587	-0.0053
673.4427	0.0026
673.6267	0.0092
673.8107	0.0116
673.9947	0.0081
674.1787	0.0088
674.3626	-0.0044
674.5465	0.0066
674.7304	0.0004
674.9143	0.0078
675.0982	0.0061
675.2821	-0.0122
675.4659	0.0098
675.6497	0.0013
675.8335	-0.0034
676.0173	0.0045
676.2011	0.0016
676.3849	0.0037
676.5686	-0.0075
676.7523	0.0006
676.936	-0.0008
677.1197	-0.0058
677.3034	-0.0039
677.487	0.0014
677.6706	0.0042
677.8542	0.0036
678.0378	-0.0003
678.2214	-0.004
678.405	-0.0063
678.5885	-0.0107
678.772	0.003
678.9555	-0.0036
679.139	0.004
679.3225	0.0092
679.5059	0.0017
679.6894	-0.0012
679.8728	0.0004
680.0562	-0.0008
680.2395	0.0003
680.4229	0.0002
680.6062	0.0067
680.7896	0.0046
680.9729	-0.0091
681.1562	0.0014
681.3394	-0.0064
681.5227	-0.0089
681.7059	-0.0034
681.8891	-0.0021
682.0723	0.0067
682.2555	0.0046
682.4387	0.0028
682.6218	-0.0042
682.805	0.0102
682.9881	0.0013
683.1712	-0.0025
683.3542	0.0012
683.5373	0.0063
683.7203	-0.0067
683.9034	-0.0013
684.0864	-0.0023
684.2694	0.0022
684.4523	0.0031
684.6353	0.0029
684.8182	0.0054
685.0011	-0.0061
685.184	0.0012
685.3669	-0.0027
685.5498	0.0028
685.7326	-0.0027
685.9154	-0.0054
686.0982	0.0106
686.281	0.0027
686.4638	0.008
686.6465	0.0008
686.8293	0.0001
687.012	0.0027
687.1947	-0.0127
687.3774	-0.0024
687.56	-0.0056
687.7427	0.0016
687.9253	-0.0112
688.1079	-0.0024
688.2905	0.0044
688.4731	0.0004
688.6556	-0.0023
688.8382	-0.0033
689.0207	0.0042
689.2032	-0.0063
689.3857	-0.0092
689.5681	-0.005
689.7506	-0.007
689.933	-0.0062
690.1154	-0.0103
690.2978	-0.0002
690.4802	-0.0042
690.6626	-0.0095
690.8449	-0.0087
691.0272	-0.0007
691.2095	-0.0099
691.3918	-0.0018
691.5741	-0.0014
691.7563	-0.0015
691.9386	-0.0004
692.1208	0.0005
692.303	0.0048
692.4852	-0.0091
692.6673	-0.0031
692.8495	0.0051
693.0316	0.004
693.2137	-0.0002
693.3958	0.0007
693.5778	0.0082
693.7599	0.0033
693.9419	-0.003
694.1239	0.0005
694.3059	-0.0101
694.4879	0.0015
694.6699	0.0131
694.8518	0.0006
695.0337	-0.0053
695.2157	0.0019
695.3975	0.0024
695.5794	0.003
695.7613	0.0035
695.9431	0.0038
696.1249	0.0027
696.3067	0.0103
696.4885	0.0011
696.6703	-0.0061
696.852	0.0023
697.0337	0.0023
697.2154	-0.0045
697.3971	0.0044
697.5788	0.0032
697.7605	-0.0053
697.9421	0.0031
698.1237	0.0026
698.3053	-0.0026
698.4869	-0.0054
698.6685	-0.0085
698.85	-0.0057
699.0315	-0.0015
699.213	-0.0035
699.3945	0.0094
699.576	0.0098
699.7575	0.0078
699.9389	0.0098
700.1203	-0.0053
700.3017	-0.0069
700.4831	-0.0117
700.6645	-0.0094
700.8458	0.0014
701.0271	-0.003
701.2084	0.0035
701.3897	0.0013
701.571	0.0076
701.7523	-0.0022
701.9335	0.0065
702.1147	0.0005
702.2959	0.0018
702.4771	0.0011
702.6583	0.0011
702.8394	-0.0027
703.0205	-0.002
703.2016	-0.0059
703.3827	-0.0004
703.5638	0.0123
703.7449	0.0074
703.9259	0.0103
704.1069	0.0024
704.2879	0.0081
704.4689	0.0024
704.6499	0.0004
704.8308	0.0014
705.0117	0.0034
705.1927	-0.0024
705.3735	0.0028
705.5544	-0.0056
705.7353	-0.0037
705.9161	-0.0081
706.0969	-0.0062
706.2777	0.0022
706.4585	-0.0065
706.6393	0.0018
706.82	-0.0006
707.0007	-0.0002
707.1815	0.0095
707.3621	0.0001
707.5428	0.0085
707.7235	-0.0005
707.9041	0.0006
708.0847	-0.0086
708.2653	-0.0094
708.4459	-0.0132
708.6265	0.0013
708.807	0.0012
708.9875	0.003
709.168	-0.0019
709.3485	-0.0075
709.529	-0.0049
709.7095	-0.0148
709.8899	-0.0007
710.0703	-0.007
710.2507	-0.0054
710.4311	-0.0029
710.6115	-0.0113
710.7918	-0.0108
710.9721	-0.0029
711.1524	-0.0047
711.3327	0.0009
711.513	0.0067
711.6932	0.0017
711.8735	0.0088
712.0537	0.0048
712.2339	-0.0001
712.4141	-0.0055
712.5942	-0.005
712.7744	-0.0067
712.9545	-0.0133
713.1346	-0.0116
713.3147	-0.0036
713.4947	-0.0056
713.6748	-0.0049
713.8548	0.0016
714.0348	-0.0034
714.2148	-0.0093
714.3948	0.0066
714.5748	-0.0055
714.7547	-0.0056
714.9346	-0.0019
715.1145	-0.0073
715.2944	-0.0121
715.4743	-0.005
715.6541	-0.0084
715.834	-0.0062
716.0138	-0.0032
716.1936	-0.0139
716.3733	-0.0084
716.5531	0.0047
716.7328	-0.006
716.9126	-0.0059
717.0923	0.0067
717.2719	0.009
717.4516	0.0107
717.6312	0.0014
717.8109	-0.0065
717.9905	0.001
718.1701	-0.0031
718.3496	-0.0098
718.5292	-0.0053
718.7087	-0.0018
718.8882	-0.0004
719.0677	0.0046
719.2472	-0.0006
719.4267	0.0056
719.6061	0.0038
719.7856	0.0057
719.965	0.0094
720.1443	-0.0039
720.3237	0.012
720.5031	0.0009
720.6824	0.007
720.8617	0.0014
721.041	-0.0062
721.2203	0.0202
721.3995	0.0037
721.5788	0.0063
721.758	0.0079
721.9372	-0.0009
722.1164	-0.0004
722.2956	-0.0002
722.4747	0.0018
722.6538	-0.0029
722.8329	0.006
723.012	0.0008
723.1911	-0.0008
723.3702	0.0106
723.5492	-0.0002
723.7282	-0.0036
723.9072	-0.0023
724.0862	-0.01
724.2652	0.0025
724.4441	-0.0059
724.623	-0.0004
724.8019	-0.0046
724.9808	-0.0033
725.1597	-0.0171
725.3385	0.0074
725.5174	-0.0026
725.6962	-0.0017
725.875	-0.0006
726.0538	0.0091
726.2325	-0.0065
726.4112	0.0068
726.59	-0.0081
726.7687	-0.0019
726.9474	0.0016
727.126	0.0017
727.3047	-0.0075
727.4833	-0.0006
727.6619	-0.0029
727.8405	-0.0022
728.0191	-0.0051
728.1976	0.007
728.3762	0.0034
728.5547	-0.0038
728.7332	-0.011
728.9116	-0.0043
729.0901	-0.0012
729.2686	-0.002
729.447	-0.0061
729.6254	0.0021
729.8038	-0.0003
729.9821	-0.0034
730.1605	0.0019
730.3388	0.0002
730.5171	0.0013
730.6954	-0.0071
730.8737	0.0076
731.0519	0.0041
731.2302	-0.003
731.4084	0.0054
731.5866	0.0002
731.7648	-0.0065
731.9429	-0.0009
732.1211	-0.0129
732.2992	-0.0051
732.4773	-0.0052
732.6554	-0.0076
732.8335	-0.0024
733.0115	-0.0058
733.1896	0.0056
733.3676	-0.0128
733.5456	0.0001
733.7235	0.0055
733.9015	-0.0103
734.0794	-0.0062
734.2574	-0.003
734.4353	-0.0019
734.6131	0.0056
734.791	-0.0035
734.9689	-0.0003
735.1467	0.0048
735.3245	-0.0162
735.5023	-0.0103
735.68	-0.0012
735.8578	0.002
736.0355	-0.0151
736.2132	-0.0077
736.3909	-0.0007
736.5686	-0.0063
736.7463	0.004
736.9239	-0.0032
737.1015	-0.0005
737.2791	0.0091
737.4567	0.0018
737.6343	-0.0021
737.8118	0.0014
737.9894	0.0071
738.1669	-0.0071
738.3444	-0.0022
738.5218	-0.0031
738.6993	0.0031
738.8767	-0.0077
739.0541	0.0106
739.2315	-0.0126
739.4089	-0.0008
739.5863	0.0046
739.7636	-0.0062
739.9409	-0.0012
740.1182	0.0131
740.2955	0.0059
740.4728	-0.006
740.65	-0.0065
740.8272	-0.0005
741.0044	-0.0073
741.1816	-0.0038
741.3588	0.002
741.5359	0.0004
741.7131	-0.0107
741.8902	-0.0091
742.0673	-0.0015
742.2444	-0.011
742.4214	-0.0099
742.5985	-0.0073
742.7755	-0.0059
742.9525	-0.0244
743.1295	-0.0054
743.3064	-0.0005
743.4834	0.0029
743.6603	-0.0188
743.8372	-0.0037
744.0141	-0.0053
744.191	0.0003
744.3678	-0.0015
744.5446	-0.0004
744.7215	-0.0016
744.8982	-0.005
745.075	-0.0115
745.2518	-0.0066
745.4285	0.0022
745.6052	-0.0045
745.7819	0.007
745.9586	-0.0072
746.1353	-0.0066
746.3119	-0.0087
746.4885	-0.0127
746.6651	-0.0027
746.8417	0.0087
747.0183	-0
747.1948	-0.0019
747.3714	0.0008
747.5479	0.0077
747.7244	-0.0032
747.9008	0.0119
748.0773	0.0036
748.2537	0.0005
748.4301	-0.0082
748.6065	0.004
748.7829	0.006
748.9593	-0.0025
749.1356	0.0073
749.3119	0.0102
749.4882	-0.0027
749.6645	0.0066
749.8408	-0.0058
750.017	-0.01
750.1933	-0.0029
750.3695	-0.0163
750.5457	0.006
750.7218	0.0024
750.898	-0.006
751.0741	-0.0019
751.2502	-0.0066
751.4263	-0.0033
751.6024	-0.0011
751.7784	-0.0067
751.9545	-0.0102
752.1305	0.0012
752.3065	-0.0128
752.4825	-0.0021
752.6584	-0.0063
752.8344	-0.0028
753.0103	-0.015
753.1862	-0.0101
753.3621	-0
753.5379	-0.0049
753.7138	-0.0006
753.8896	-0.0031
754.0654	0.0055
754.2412	0.0057
754.417	-0.0012
754.5927	-0.0074
754.7685	-0.0015
754.9442	0.0056
755.1199	0.0136
755.2956	0.0029
755.4712	0.0177
755.6469	0.0036
755.8225	0.0003
755.9981	-0.0018
756.1736	0.003
756.3492	0.0003
756.5248	-0.0014
756.7003	0.0003
756.8758	0.0094
757.0513	-0.0062
757.2267	0.0013
757.4022	0.0045
757.5776	-0.003
757.753	0.007
757.9284	0.0006
758.1038	0.0086
758.2791	-0.0008
758.4545	-0.013
758.6298	-0.0027
758.8051	0.0103
758.9803	-0.0055
759.1556	-0.0013
759.3308	-0.0052
759.506	0.0127
759.6812	0.0047
759.8564	0.0075
760.0316	0.006
760.2067	0.0043
760.3819	0.0093
760.557	0.0117
760.732	-0.0016
760.9071	-0.0046
761.0821	-0.0004
761.2572	0.0151
761.4322	0.0067
761.6072	0.0041
761.7821	0.0067
761.9571	0.0097
762.132	-0.0036
762.3069	-0.0029
762.4818	-0.0005
762.6567	0.0038
762.8316	0.0076
763.0064	0.0017
763.1812	0.0036
763.356	-0.0003
763.5308	0.0012
763.7055	0.0024
763.8803	-0.0004
764.055	0.0015
764.2297	-0.0043
764.4044	-0.0075
764.579	-0.0007
764.7537	-0.0146
764.9283	-0.0049
765.1029	-0.003
765.2775	0.0028
765.4521	-0.0091
765.6266	-0.0119
765.8011	-0.0092
765.9756	-0.0053
766.1501	0.0139
766.3246	-0.0048
766.4991	-0.0023
766.6735	-0.0052
766.8479	-0.0065
767.0223	0.0134
767.1967	0.0003
767.371	0.0011
767.5454	-0.0023
767.7197	0.0066
767.894	-0.006
768.0683	-0.0154
768.2425	0.0008
768.4168	0.0065
768.591	-0.0015
768.7652	-0.0059
768.9394	0.0013
769.1135	0.0047
769.2877	0.0068
769.4618	-0.001
769.6359	-0.001
769.81	0.0042
769.984	0.0085
770.1581	0.0094
770.3321	0.0059
770.5061	0.0066
770.6801	-0.0029
770.8541	0.0059
771.028	0.0096
771.202	-0.0044
771.3759	0.0027
771.5498	0.0053
771.7236	-0.0004
771.8975	-0.0002
772.0713	0.0125
772.2451	0.0038
772.4189	0.0114
772.5927	0.0066
772.7665	0.0044
772.9402	0.0052
773.1139	0.0033
773.2876	0.0095
773.4613	0.0124
773.635	0.0135
773.8086	-0.0007
773.9822	-0.0007
774.1558	0.0058
774.3294	-0.0039
774.503	0.0049
774.6765	0.0062
774.8501	0.0065
775.0236	0.0059
775.1971	0.0047
775.3705	-0.0085
775.544	-0.0025
775.7174	-0.0029
775.8908	-0.0052
776.0642	-0.0039
776.2376	-0.0038
776.4109	-0.009
776.5843	-0.0027
776.7576	-0.0018
776.9309	0.0092
777.1041	-0.0032
777.2774	0.0175
777.4506	0.0056
777.6238	-0.0087
777.797	0.0033
777.9702	0.0016
778.1434	-0.0075
778.3165	-0.0066
778.4896	-0.0059
778.6627	0.0068
778.8358	0.0021
779.0089	-0.0062
779.1819	0.004
779.3549	0.0187
779.5279	0.0123
779.7009	-0.0036
779.8739	-0.0069
780.0468	0.0057
780.2197	0.0043
780.3926	-0.0033
780.5655	0.0005
780.7384	0.0001
780.9112	-0.0021
781.0841	-0.0136
781.2569	0.0111
781.4297	0.0124
781.6024	0.0089
781.7752	0.0091
781.9479	0.0007
782.1206	0.0083
782.2933	-0.0087
782.466	0.0017
782.6386	0.0056
782.8113	-0.0075
782.9839	0.0039
783.1565	0.0124
783.329	-0.0014
783.5016	-0.0064
783.6741	0.002
783.8466	-0.0071
784.0191	0.0153
784.1916	-0.0017
784.3641	-0.001
784.5365	0.0051
784.7089	-0.0015
784.8813	-0.0007
785.0537	0.0024
785.2261	-0.0124
785.3984	-0.0165
785.5707	-0.0079
785.743	0.0062
785.9153	-0.0127
786.0876	-0.0025
786.2598	-0.0157
786.432	-0.0215
786.6042	0.0081
786.7764	0.006
786.9486	-0.0093
787.1207	-0.0048
787.2928	-0.0032
787.4649	0.0026
787.637	0.0041
787.8091	-0.0064
787.9811	0.0015
788.1532	-0.0078
788.3252	0.0023
788.4972	-0.0037
788.6691	0.0058
788.8411	0.008
789.013	0.0044
789.1849	-0.0071
789.3568	0.0025
789.5287	0.0085
789.7005	-0.0059
789.8723	-0.01
790.0442	0.0134
790.2159	0.0076
790.3877	-0.0007
790.5595	-0.0224
790.7312	0.0042
790.9029	-0.0002
791.0746	-0.0054
791.2463	-0.0117
791.4179	-0.0016
791.5896	-0.017
791.7612	-0.0052
791.9328	0.0027
792.1044	-0.0108
792.2759	-0.0206
792.4474	-0.0053
792.619	0.0065
792.7905	-0.004
792.9619	0.0073
793.1334	0.0001
793.3048	0.0207
793.4762	0.0094
793.6476	0.0086
793.819	-0.0126
793.9904	0.0024
794.1617	-0.0184
794.333	-0.0054
794.5043	-0.0075
794.6756	-0.0094
794.8469	-0.0043
795.0181	-0.009
795.1893	-0.0054
795.3605	0.0091
795.5317	-0.0098
795.7029	0.0008
795.874	0.004
796.0452	0.0027
796.2163	0.0034
796.3873	0.0096
796.5584	0.016
796.7294	-0.0057
796.9005	0.0168
797.0715	0.005
797.2425	-0.0215
797.4134	-0.0177
797.5844	-0.0055
797.7553	-0.0251
797.9262	-0.0001
798.0971	-0.0192
798.2679	-0.013
798.4388	-0.0076
798.6096	-0.006
798.7804	0.0212
798.9512	-0.0113
799.122	-0.0074
799.2927	-0.0088
799.4635	0.0065
799.6342	-0.0105
799.8049	-0.0148
799.9755	0.0047
800.1462	-0.0089
800.3168	0.0122
800.4874	0.0001
800.658	0.0067
800.8286	0.0007
800.9991	0.0156
801.1696	-0.003
801.3402	0.0124
801.5106	-0.006
801.6811	0.0023
801.8516	0.0114
802.022	0.0107
802.1924	0.0011
802.3628	0.01
802.5332	0.0165
802.7035	0.0131
802.8739	-0.0012
803.0442	-0.0137
803.2145	0.0028
803.3847	-0.0145
803.555	-0.0085
803.7252	-0.0222
803.8954	-0.0032
804.0656	-0.0056
804.2358	0.0069
804.4059	0.0192
804.5761	0.0064
804.7462	-0.0122
804.9163	-0.0195
805.0864	-0.0324
805.2564	0.0076
805.4264	0.0056
805.5965	-0.0114
805.7665	-0.0005
805.9364	0.0069
806.1064	0.0253
806.2763	0.0014
806.4462	0.029
806.6161	0.0053
806.786	0.0134
806.9559	0.0142
807.1257	-0.0208
807.2955	-0.0075
807.4653	-0.0122
807.6351	-0.0187
807.8048	0.0074
807.9746	0.0018
808.1443	0.0136
808.314	-0.011
808.4837	-0.0078
808.6533	0.0066
808.8229	0.0218
808.9926	0.0081
809.1622	0.0086
809.3317	-0.0048
809.5013	0.0082
809.6708	0.0117
809.8403	0.0114
810.0098	-0.0146
810.1793	0.0019
810.3488	0.0085
810.5182	-0.0153
810.6876	0.0114
810.857	-0.0151
811.0264	0.0152
811.1958	0.0006
811.3651	0.0247
811.5344	-0.0033
811.7037	-0.0209
811.873	-0.0055
812.0422	-0.0229
812.2115	-0.0118
812.3807	-0.0299
812.5499	-0.0121
812.7191	-0.0009
812.8882	-0.0133
813.0574	-0.0073
813.2265	-0.0004
813.3956	0.0122
813.5646	-0.0105
813.7337	-0.0099
813.9027	0.0018
814.0718	0.0069
814.2407	0.0091
814.4097	0.001
814.5787	-0.0054
814.7476	-0.0072
814.9165	-0.0032
815.0854	-0.0232
815.2543	-0.0059
815.4232	-0.0005
815.592	0.0107
815.7608	-0.0181
815.9296	0.0246
816.0984	-0.0028
816.2671	-0.0028
816.4359	0.0041
816.6046	-0.0051
816.7733	-0.0128
816.942	-0.0147
817.1106	0.0056
817.2793	-0.0048
817.4479	-0.0098
817.6165	-0.0083
817.785	0.003
817.9536	-0.0222
818.1221	-0.0215
818.2906	0.003
818.4591	-0.0359
818.6276	-0.0213
818.7961	0.0095
818.9645	0.0147
819.1329	0.0096
819.3013	0.0178
819.4697	0.0144
819.638	-0.0215
819.8064	0.0002
819.9747	-0.0002
820.143	-0.007
820.3113	-0.0201
820.4795	-0.0057
820.6477	0.0246
820.816	0.0026
820.9842	0.0197
821.1523	-0.0348
821.3205	-0.0138
821.4886	-0.0179
821.6567	-0.0044
821.8248	0.004
821.9929	0.0113
822.1609	0.0051
822.329	0.0237
822.497	0.0199
822.665	-0.0045
822.833	-0.0101
823.0009	0.0097
823.1688	0.0237
823.3367	0.021
823.5046	0.0091
823.6725	0.005
823.8404	0.0046
824.0082	0.0173
824.176	0.0146
824.3438	0.0152
824.5116	-0.0391
824.6793	-0.0079
824.847	0.0069
825.0147	-0.0267
825.1824	0.0052
825.3501	0.0082
825.5177	-0.0125
825.6854	-0.0146
825.853	0.0129
826.0206	-0.0256
826.1881	0.0156
826.3557	-0.0295
826.5232	0.0312
826.6907	-0.0467
826.8582	0.0089
827.0257	-0.0161
827.1931	-0.0114
827.3605	-0.0174
827.528	-0.0171
827.6953	-0.0395
827.8627	0.0063
828.03	0.0374
828.1974	-0.0186
828.3647	-0.0209
828.532	-0.027
828.6992	-0.01
828.8665	0.0109
829.0337	-0.0068
829.2009	0.0023
829.3681	-0.0173
829.5352	0.004
829.7024	-0.0008
829.8695	-0.0237
830.0366	0.0819
830.2037	-0.0216
830.3707	0.0169
830.5378	0.0013
830.7048	0.0372
830.8718	0.0307
831.0388	-0.0291
831.2057	-0.0019
831.3727	0.0238
831.5396	-0.0082
831.7065	0.0014
831.8734	0.0525
832.0402	-0.0257
832.2071	-0.0059
832.3739	-0.0399
832.5407	-0.0173
832.7075	-0.0328
832.8742	-0.0445
833.041	-0.0312
833.2077	0.0028
833.3744	-0.0044
833.541	0.0021
833.7077	-0.0126
833.8743	-0.0151
834.0409	-0.0123
834.2075	0.0218
834.3741	-0.0124
834.5407	-0.0238
834.7072	0.0395
834.8737	-0.0108
835.0402	0.0085
835.2067	-0.0168
835.3731	-0.0153
835.5395	-0.0067
835.706	-0.0048
835.8723	-0.0186
836.0387	0.0275
836.2051	0.0166
836.3714	0.0072
836.5377	0.0108
836.704	-0.0171
836.8703	0.0234
837.0365	-0.0004
837.2027	-0.0428
837.3689	-0.0095
837.5351	-0.01
837.7013	-0.0401
837.8674	0.004
838.0335	-0.0317
838.1997	-0.0124
838.3657	-0.0302
838.5318	-0.021
838.6978	0.0113
838.8639	0.0319
839.0299	-0.019
839.1958	-0.0247
839.3618	-0.0013
839.5277	-0.0004
839.6937	-0.0126
839.8596	-0.0336
840.0254	0.0147
840.1913	-0.0142
840.3571	-0.0134
840.523	0.0096
840.6888	-0.007
840.8545	-0.0373
841.0203	-0.0251
841.186	0.0297
841.3517	0.034
841.5174	0.0192
841.6831	-0.0189
841.8488	0.0264
842.0144	0.0135
842.18	-0.0161
842.3456	0.0014
842.5112	-0.0164
842.6767	-0.029
842.8422	-0.0384
843.0077	-0.0527
843.1732	-0.0602
843.3387	-0.0617
843.5042	-0.0553
843.6696	-0.0137
843.835	0.0137
844.0004	0.0093
844.1657	-0.0035
844.3311	0.0501
844.4964	-0.0729
844.6617	-0.0006
844.827	-0.021
844.9923	0.0181
845.1575	-0.0053
845.3227	-0.004
845.4879	0.0357
845.6531	-0.0855
845.8183	-0.0275
845.9834	-0.0433
846.1485	-0.03
846.3136	-0.0497
846.4787	-0.0561
846.6438	0.1147
846.8088	0.0119
846.9738	-0.1236
847.1388	0.0391
847.3038	-0.0742
847.4687	-0.0819
847.6337	0.033
847.7986	-0.0072
847.9635	-0.0519
848.1284	0.0062
848.2932	0.0657
848.458	-0.0841
848.6228	0.0206
848.7876	0.0876
848.9524	-0.0275
849.1172	-0.0919
849.2819	0.0035
849.4466	-0.0935
849.6113	-0.1046
849.7759	-0.0553
849.9406	-0.0659
850.1052	0.0326
850.2698	-0.0407
850.4344	-0.0526
850.599	-0.0289
850.7635	0.0984
850.928	-0.0408
851.0925	0.1147
851.257	-0.0332
851.4215	-0.0199
851.5859	-0.014
851.7503	0.0039
851.9147	0.0369
852.0791	-0.0793
852.2434	0.0086
852.4078	0.0195
852.5721	0.0522
852.7364	-0.0209
852.9007	-0.2083
853.0649	0.0069
853.2291	-0.037
853.3934	0.0768
853.5575	0.022
853.7217	-0.0907
853.8859	-0.2543
854.05	-0.0915
854.2141	-0.0385
854.3782	-0.0928
854.5423	-0.0525
854.7063	0.0795
854.8703	0.007
855.0343	-0.0866
855.1983	-0.0794
855.3623	0.0409
855.5262	0.0097
855.6901	-0.0272
855.854	0.0179
856.0179	-0.033
856.1818	0.0163
856.3456	-0.1394
856.5094	-0.0733
856.6732	0.0067
856.837	0.0205
857.0008	0.1324
857.1645	-0.0307
857.3282	-0.1494
857.4919	0.1143
857.6556	-0.018
857.8192	-0.0081
857.9828	-0.0208
858.1465	-0.08
858.31	-0.0278
858.4736	-0.0302
858.6372	-0.3351
858.8007	-0.1604
858.9642	-0.0329
859.1277	0.0529
859.2911	0.1909
859.4546	0.019
859.618	-0.2747
859.7814	-0.0017
859.9448	0.0154
860.1081	-0.0232
860.2715	0.1614
860.4348	-0.1093
860.5981	-0.1312
860.7614	0.0841
860.9246	-0.1626
861.0879	-0.1318
861.2511	-0.0225
861.4143	-0.2347
861.5774	0.3773
861.7406	-0.2164
861.9037	-0.0814
862.0668	0.0101
862.2299	-0.0879
862.393	-0.6249
862.556	0.0501
862.7191	-0.3825
862.8821	-0.1396
863.0451	0.2685
863.208	0.1564
863.371	0.0497
863.5339	-0.229
863.6968	0.0125
863.8597	-0.123
864.0225	-0.0582
864.1854	-0.1073
864.3482	0.2225
864.511	0.0111
864.6737	-0.1691
864.8365	-0.0111
864.9992	-0.503
865.1619	-0.5624
865.3246	-0.0727
865.4873	0.2238
865.65	-0.326
865.8126	0.004
865.9752	-0.0858
866.1378	0.2225
866.3004	0.9294
866.4629	0.0744
866.6254	0.05
866.7879	1.2288
866.9504	-0.6611
867.1129	-0
867.2753	0.072
867.4377	0.0065
867.6001	-0.1752
867.7625	0.0178
867.9249	-0.1906
868.0872	-0.1609
868.2495	0.2599
868.4118	-0.2099
868.5741	-0.7049
868.7363	-0.1851
868.8986	-0.3392
869.0608	-0.2641
869.223	0.2713
869.3851	0.066
869.5473	-0
869.7094	0.0233
869.8715	-0.2702
870.0336	-0
870.1957	-0.4795
870.3577	-0
870.5197	-0.1235
870.6817	0.0546
870.8437	-0.0873
871.0057	0.0389
871.1676	-0
871.3295	-0.0961
871.4914	-0
871.6533	-0.2832
871.8151	-0.3898
871.977	-0
872.1388	-0
872.3006	-0
872.4623	-0
872.6241	-0
872.7858	0.098
872.9475	-0.1665
873.1092	-0.1155
873.2709	-0.0327
873.4325	0.1042
873.5941	-0.0547
873.7557	-0
873.9173	-0
874.0789	0.1101
874.2404	-0.8229
874.4019	0.0861
874.5634	-0
874.7249	-0.3071
874.8863	0.2776
875.0478	0.1835
875.2092	-0
875.3706	0.1877
875.5319	-0.6226
875.6933	0.2336
875.8546	-0.4222
876.0159	-0.1063
876.1772	0.221
876.3385	-0
876.4997	-0.1052
876.6609	-0.3453
876.8221	-0.2041
876.9833	1.0314
877.1445	-0
877.3056	-0.0883
877.4667	-0.4435
877.6278	-0
877.7889	-0.5519
877.9499	-0
878.111	-0
878.272	-0
878.433	-0
878.5939	0.2759
878.7549	0.1323
878.9158	-0.7287
879.0767	0.3836
879.2376	0.5651
879.3984	-0.4501
879.5593	-0.2943
879.7201	0.3633
879.8809	-0.1285
880.0417	-0.5488
880.2024	0.1368
880.3632	-0
880.5239	0.2201
880.6846	0.5958
880.8452	-2.6513
881.0059	-0
881.1665	0.2053
881.3271	-0
881.4877	-0.3849
881.6483	-0.2726
881.8088	-0.3959
881.9693	0.243
882.1298	0.243
882.2903	0.243
