Data from MonoPyChalIsomerACN10uM410nmA_Absorbance_14-53-25-475.txt Node
Date: Fri Jul 05 14:53:25 BST 2024
User: LASERRRRR
Spectrometer: FLMT03099
Trigger mode: 0
Integration Time (sec): 1.000000E-1
Scans to average: 1
Electric dark correction enabled: true
Nonlinearity correction enabled: false
Boxcar width: 0
XAxis mode: Wavelengths
Number of Pixels in Spectrum: 3648
>>>>>Begin Spectral Data<<<<<
179.3399	0.4421
179.5586	0.4421
179.7771	0.4421
179.9957	-0.2005
180.2143	-0
180.4329	-0.0411
180.6514	-0
180.8699	-0
181.0885	-0.4023
181.307	0.1436
181.5255	-0.8147
181.744	-0
181.9625	-0
182.181	-0
182.3994	-0
182.6179	0.2295
182.8363	-0
183.0547	0.2699
183.2732	-0.0138
183.4916	0.025
183.71	0.263
183.9284	0.164
184.1467	-0.2055
184.3651	-0.1071
184.5835	-0.1231
184.8018	0.1284
185.0201	-0.0977
185.2385	-0.0812
185.4568	0.2112
185.6751	0.0268
185.8934	0.1842
186.1117	-0.0577
186.3299	0.0954
186.5482	-0.0067
186.7664	-0.0763
186.9847	-0.0244
187.2029	-0.0948
187.4211	0.3689
187.6393	0.3504
187.8575	-0.003
188.0757	0.2004
188.2939	0.1177
188.512	0.4627
188.7302	0.0595
188.9483	-0.165
189.1665	0.1631
189.3846	-0
189.6027	0.1294
189.8208	0.6007
190.0389	0.0849
190.257	0.1577
190.475	0.0254
190.6931	0.5292
190.9111	0.2753
191.1292	0.2322
191.3472	0.4525
191.5652	0.2825
191.7832	0.2774
192.0012	0.4326
192.2192	0.2566
192.4371	0.6141
192.6551	0.2986
192.873	0.4221
193.091	0.3953
193.3089	1.0368
193.5268	0.8202
193.7447	0.4566
193.9626	0.6015
194.1805	0.6372
194.3984	0.5988
194.6162	0.6508
194.8341	0.5837
195.0519	0.5841
195.2697	0.3929
195.4875	0.6147
195.7054	0.4935
195.9231	0.6204
196.1409	0.6753
196.3587	0.6458
196.5765	0.8384
196.7942	0.8527
197.012	0.6448
197.2297	0.7715
197.4474	0.5815
197.6651	0.5935
197.8828	0.518
198.1005	0.4911
198.3182	0.5991
198.5358	0.6183
198.7535	0.5826
198.9711	0.5224
199.1888	0.6045
199.4064	0.7696
199.624	0.6433
199.8416	0.5393
200.0592	0.6179
200.2767	0.6757
200.4943	0.6595
200.7119	0.6336
200.9294	0.7324
201.1469	0.5771
201.3645	0.6456
201.582	0.5113
201.7995	0.6563
202.017	0.5247
202.2344	0.6006
202.4519	0.6921
202.6694	0.7818
202.8868	0.6154
203.1042	0.7387
203.3217	0.6763
203.5391	0.6634
203.7565	0.6535
203.9739	0.6441
204.1913	0.5476
204.4086	0.6312
204.626	0.6649
204.8433	0.6473
205.0607	0.5957
205.278	0.5562
205.4953	0.6105
205.7126	0.6712
205.9299	0.7106
206.1472	0.6768
206.3644	0.5979
206.5817	0.6204
206.7989	0.7226
207.0162	0.7409
207.2334	0.6402
207.4506	0.7176
207.6678	0.607
207.885	0.6043
208.1022	0.6176
208.3194	0.6769
208.5365	0.6838
208.7537	0.6136
208.9708	0.6502
209.1879	0.6195
209.405	0.6866
209.6222	0.7171
209.8392	0.646
210.0563	0.5691
210.2734	0.6315
210.4905	0.634
210.7075	0.6228
210.9245	0.5578
211.1416	0.693
211.3586	0.6537
211.5756	0.625
211.7926	0.6064
212.0096	0.6307
212.2265	0.5827
212.4435	0.5929
212.6604	0.541
212.8774	0.5934
213.0943	0.6091
213.3112	0.5533
213.5281	0.5296
213.745	0.4878
213.9619	0.5296
214.1788	0.475
214.3956	0.478
214.6125	0.4841
214.8293	0.4669
215.0461	0.4848
215.2629	0.474
215.4798	0.4796
215.6965	0.4363
215.9133	0.4289
216.1301	0.418
216.3469	0.4664
216.5636	0.4263
216.7803	0.3842
216.9971	0.4062
217.2138	0.411
217.4305	0.3803
217.6472	0.3661
217.8639	0.3953
218.0805	0.3199
218.2972	0.3264
218.5138	0.3008
218.7305	0.3169
218.9471	0.3258
219.1637	0.2724
219.3803	0.2711
219.5969	0.2718
219.8135	0.2503
220.0301	0.2758
220.2466	0.2824
220.4632	0.2548
220.6797	0.2214
220.8962	0.2364
221.1127	0.275
221.3292	0.2559
221.5457	0.2343
221.7622	0.2293
221.9787	0.2663
222.1951	0.2314
222.4116	0.2678
222.628	0.2749
222.8444	0.251
223.0608	0.2552
223.2772	0.2529
223.4936	0.2462
223.71	0.2527
223.9264	0.2505
224.1427	0.2432
224.3591	0.2667
224.5754	0.2589
224.7917	0.2787
225.008	0.2665
225.2243	0.2617
225.4406	0.2657
225.6569	0.2583
225.8732	0.2587
226.0894	0.2601
226.3057	0.283
226.5219	0.2975
226.7381	0.2693
226.9543	0.273
227.1705	0.3025
227.3867	0.2725
227.6029	0.292
227.8191	0.2853
228.0352	0.3037
228.2513	0.305
228.4675	0.3174
228.6836	0.2907
228.8997	0.3031
229.1158	0.2982
229.3319	0.3226
229.548	0.3164
229.764	0.3369
229.9801	0.3215
230.1961	0.3313
230.4121	0.3381
230.6282	0.3331
230.8442	0.3266
231.0602	0.3531
231.2761	0.3302
231.4921	0.3211
231.7081	0.3354
231.924	0.3562
232.14	0.359
232.3559	0.3543
232.5718	0.3471
232.7877	0.3431
233.0036	0.3444
233.2195	0.349
233.4353	0.3419
233.6512	0.3543
233.867	0.3584
234.0829	0.3555
234.2987	0.3573
234.5145	0.381
234.7303	0.3804
234.9461	0.3715
235.1619	0.3913
235.3776	0.372
235.5934	0.3726
235.8091	0.3691
236.0249	0.3826
236.2406	0.3823
236.4563	0.369
236.672	0.3992
236.8877	0.4054
237.1034	0.3898
237.319	0.3827
237.5347	0.4147
237.7503	0.3958
237.966	0.4033
238.1816	0.4168
238.3972	0.3991
238.6128	0.3889
238.8284	0.4207
239.0439	0.4112
239.2595	0.3974
239.475	0.4266
239.6906	0.4072
239.9061	0.3946
240.1216	0.3921
240.3371	0.3937
240.5526	0.4032
240.7681	0.41
240.9836	0.3823
241.199	0.3951
241.4145	0.3793
241.6299	0.3694
241.8453	0.375
242.0607	0.3783
242.2761	0.3422
242.4915	0.3721
242.7069	0.3634
242.9223	0.3551
243.1376	0.3573
243.353	0.3415
243.5683	0.3523
243.7836	0.3369
243.9989	0.3393
244.2142	0.3067
244.4295	0.3022
244.6448	0.3109
244.86	0.2972
245.0753	0.3027
245.2905	0.2922
245.5057	0.2762
245.721	0.2738
245.9362	0.2682
246.1514	0.2715
246.3665	0.2554
246.5817	0.2542
246.7969	0.2387
247.012	0.2376
247.2271	0.2512
247.4423	0.2403
247.6574	0.2386
247.8725	0.229
248.0876	0.2211
248.3026	0.2156
248.5177	0.2326
248.7328	0.2146
248.9478	0.1992
249.1628	0.2171
249.3779	0.2175
249.5929	0.2085
249.8079	0.209
250.0228	0.1996
250.2378	0.2072
250.4528	0.1958
250.6677	0.1821
250.8827	0.193
251.0976	0.2023
251.3125	0.1858
251.5274	0.1867
251.7423	0.1867
251.9572	0.194
252.172	0.1767
252.3869	0.1815
252.6017	0.1735
252.8166	0.1673
253.0314	0.1599
253.2462	0.1616
253.461	0.1757
253.6758	0.1763
253.8906	0.1602
254.1053	0.1559
254.3201	0.174
254.5348	0.1819
254.7496	0.1764
254.9643	0.1741
255.179	0.1628
255.3937	0.17
255.6083	0.1627
255.823	0.1772
256.0377	0.17
256.2523	0.1643
256.467	0.147
256.6816	0.1646
256.8962	0.1665
257.1108	0.1565
257.3254	0.1884
257.54	0.1586
257.7545	0.1801
257.9691	0.1727
258.1836	0.152
258.3981	0.1714
258.6127	0.1854
258.8272	0.1604
259.0417	0.1798
259.2561	0.159
259.4706	0.1644
259.6851	0.1741
259.8995	0.1762
260.114	0.1608
260.3284	0.1612
260.5428	0.1706
260.7572	0.1728
260.9716	0.1793
261.186	0.1582
261.4003	0.1735
261.6147	0.1732
261.829	0.167
262.0433	0.16
262.2577	0.1603
262.472	0.1684
262.6863	0.1545
262.9005	0.1721
263.1148	0.1649
263.3291	0.1475
263.5433	0.1585
263.7576	0.1685
263.9718	0.1712
264.186	0.151
264.4002	0.1662
264.6144	0.15
264.8286	0.1665
265.0427	0.1743
265.2569	0.1548
265.471	0.1447
265.6851	0.1704
265.8993	0.16
266.1134	0.1455
266.3275	0.1584
266.5415	0.1449
266.7556	0.1692
266.9697	0.1684
267.1837	0.1658
267.3978	0.1621
267.6118	0.1669
267.8258	0.1693
268.0398	0.1557
268.2538	0.1707
268.4677	0.1549
268.6817	0.1379
268.8957	0.1501
269.1096	0.1548
269.3235	0.1518
269.5374	0.1526
269.7514	0.1464
269.9652	0.1448
270.1791	0.1482
270.393	0.1542
270.6068	0.1606
270.8207	0.1428
271.0345	0.127
271.2483	0.1523
271.4622	0.1431
271.676	0.1495
271.8897	0.1428
272.1035	0.1327
272.3173	0.1398
272.531	0.1388
272.7448	0.1371
272.9585	0.1483
273.1722	0.1416
273.3859	0.141
273.5996	0.1348
273.8133	0.1521
274.0269	0.136
274.2406	0.1328
274.4542	0.1401
274.6679	0.1337
274.8815	0.1388
275.0951	0.1569
275.3087	0.1528
275.5223	0.1451
275.7358	0.1481
275.9494	0.1423
276.1629	0.1467
276.3765	0.1444
276.59	0.1449
276.8035	0.1474
277.017	0.1374
277.2305	0.1382
277.444	0.1417
277.6574	0.1366
277.8709	0.1431
278.0843	0.1322
278.2978	0.1484
278.5112	0.1375
278.7246	0.1364
278.938	0.1411
279.1513	0.1498
279.3647	0.1599
279.5781	0.1448
279.7914	0.1389
280.0047	0.1567
280.2181	0.1401
280.4314	0.1425
280.6447	0.1494
280.8579	0.1452
281.0712	0.1509
281.2845	0.1574
281.4977	0.149
281.711	0.1413
281.9242	0.1422
282.1374	0.1597
282.3506	0.1337
282.5638	0.155
282.7769	0.1648
282.9901	0.1544
283.2033	0.1587
283.4164	0.1601
283.6295	0.1376
283.8426	0.1556
284.0557	0.1439
284.2688	0.1669
284.4819	0.1562
284.695	0.1632
284.908	0.1636
285.1211	0.1478
285.3341	0.1576
285.5471	0.1679
285.7601	0.1548
285.9731	0.1542
286.1861	0.1544
286.3991	0.164
286.612	0.1676
286.825	0.1486
287.0379	0.1628
287.2508	0.167
287.4637	0.173
287.6766	0.1542
287.8895	0.1704
288.1024	0.1765
288.3152	0.1576
288.5281	0.1581
288.7409	0.1705
288.9538	0.1597
289.1666	0.1539
289.3794	0.1581
289.5922	0.1554
289.8049	0.1667
290.0177	0.1461
290.2304	0.1651
290.4432	0.1563
290.6559	0.1695
290.8686	0.1749
291.0813	0.1636
291.294	0.1583
291.5067	0.1765
291.7194	0.1542
291.932	0.1818
292.1447	0.1634
292.3573	0.1458
292.5699	0.1626
292.7825	0.1638
292.9951	0.1592
293.2077	0.1553
293.4203	0.1523
293.6328	0.1633
293.8454	0.1767
294.0579	0.1647
294.2704	0.1652
294.4829	0.1571
294.6954	0.1646
294.9079	0.1692
295.1204	0.1724
295.3328	0.164
295.5453	0.1721
295.7577	0.1645
295.9701	0.1559
296.1825	0.1709
296.3949	0.1495
296.6073	0.1608
296.8197	0.1565
297.0321	0.1735
297.2444	0.1712
297.4567	0.1688
297.6691	0.1541
297.8814	0.1596
298.0937	0.1603
298.306	0.1643
298.5182	0.1642
298.7305	0.1722
298.9428	0.1554
299.155	0.169
299.3672	0.1618
299.5794	0.1633
299.7916	0.1609
300.0038	0.16
300.216	0.1706
300.4282	0.1644
300.6403	0.1513
300.8525	0.161
301.0646	0.1576
301.2767	0.1662
301.4888	0.157
301.7009	0.1757
301.913	0.1489
302.125	0.1615
302.3371	0.1644
302.5491	0.1687
302.7612	0.1687
302.9732	0.1609
303.1852	0.1649
303.3972	0.1628
303.6092	0.1584
303.8211	0.1577
304.0331	0.1571
304.245	0.1475
304.457	0.154
304.6689	0.1532
304.8808	0.1649
305.0927	0.1512
305.3046	0.1554
305.5164	0.1525
305.7283	0.1469
305.9401	0.1612
306.152	0.1506
306.3638	0.1543
306.5756	0.1462
306.7874	0.1477
306.9992	0.1542
307.2109	0.1421
307.4227	0.1244
307.6344	0.1366
307.8462	0.1376
308.0579	0.1466
308.2696	0.1242
308.4813	0.1324
308.693	0.1345
308.9046	0.1299
309.1163	0.1262
309.328	0.1255
309.5396	0.1268
309.7512	0.1254
309.9628	0.1271
310.1744	0.1276
310.386	0.1222
310.5976	0.1206
310.8091	0.1101
311.0207	0.1129
311.2322	0.1129
311.4437	0.1076
311.6552	0.1044
311.8667	0.1129
312.0782	0.0984
312.2897	0.1024
312.5012	0.1108
312.7126	0.1158
312.924	0.0918
313.1355	0.1234
313.3469	0.1074
313.5583	0.1031
313.7696	0.1052
313.981	0.1051
314.1924	0.1036
314.4037	0.0952
314.6151	0.1223
314.8264	0.0994
315.0377	0.0982
315.249	0.1033
315.4603	0.0931
315.6716	0.0962
315.8828	0.098
316.0941	0.0905
316.3053	0.0916
316.5165	0.0936
316.7277	0.095
316.9389	0.1026
317.1501	0.0948
317.3613	0.0943
317.5724	0.0865
317.7836	0.0978
317.9947	0.0955
318.2058	0.0944
318.417	0.091
318.6281	0.086
318.8391	0.0906
319.0502	0.0972
319.2613	0.0965
319.4723	0.1036
319.6834	0.1007
319.8944	0.0869
320.1054	0.0978
320.3164	0.1026
320.5274	0.089
320.7383	0.0784
320.9493	0.1008
321.1602	0.1021
321.3712	0.0849
321.5821	0.1004
321.793	0.0854
322.0039	0.0996
322.2148	0.0884
322.4257	0.0992
322.6365	0.1044
322.8474	0.1015
323.0582	0.0945
323.269	0.1016
323.4798	0.0999
323.6906	0.0955
323.9014	0.1074
324.1122	0.0947
324.3229	0.0926
324.5337	0.0928
324.7444	0.0943
324.9551	0.1028
325.1658	0.1012
325.3765	0.1018
325.5872	0.1036
325.7979	0.101
326.0085	0.0995
326.2192	0.1109
326.4298	0.0999
326.6404	0.087
326.851	0.0965
327.0616	0.0906
327.2722	0.1003
327.4828	0.1034
327.6933	0.1049
327.9039	0.106
328.1144	0.103
328.3249	0.1107
328.5354	0.108
328.7459	0.1062
328.9564	0.1016
329.1669	0.0997
329.3773	0.1031
329.5878	0.1052
329.7982	0.1025
330.0086	0.1036
330.219	0.108
330.4294	0.1021
330.6398	0.1051
330.8502	0.1011
331.0605	0.1119
331.2708	0.1108
331.4812	0.1135
331.6915	0.1038
331.9018	0.1011
332.1121	0.0933
332.3224	0.1035
332.5326	0.1053
332.7429	0.1049
332.9531	0.1122
333.1633	0.105
333.3735	0.1064
333.5837	0.1048
333.7939	0.101
334.0041	0.1185
334.2143	0.1067
334.4244	0.1094
334.6346	0.0814
334.8447	0.1022
335.0548	0.1018
335.2649	0.0911
335.475	0.1178
335.685	0.0998
335.8951	0.1152
336.1051	0.1004
336.3152	0.1146
336.5252	0.1019
336.7352	0.1049
336.9452	0.1082
337.1552	0.1177
337.3652	0.094
337.5751	0.1067
337.7851	0.0969
337.995	0.1058
338.2049	0.1003
338.4148	0.1114
338.6247	0.1161
338.8346	0.0957
339.0445	0.1043
339.2543	0.0972
339.4642	0.1137
339.674	0.1074
339.8838	0.1122
340.0936	0.1039
340.3034	0.1237
340.5132	0.1123
340.7229	0.1082
340.9327	0.1055
341.1424	0.1013
341.3522	0.1214
341.5619	0.1237
341.7716	0.1058
341.9813	0.1264
342.1909	0.1183
342.4006	0.1288
342.6102	0.1271
342.8199	0.1112
343.0295	0.117
343.2391	0.1185
343.4487	0.1274
343.6583	0.119
343.8679	0.1178
344.0774	0.123
344.287	0.121
344.4965	0.1268
344.706	0.1257
344.9155	0.1189
345.125	0.1214
345.3345	0.1229
345.544	0.1251
345.7534	0.1331
345.9629	0.1213
346.1723	0.1326
346.3817	0.112
346.5911	0.1302
346.8005	0.1294
347.0099	0.1232
347.2193	0.1248
347.4286	0.1148
347.638	0.1468
347.8473	0.1246
348.0566	0.1316
348.2659	0.1348
348.4752	0.132
348.6845	0.1301
348.8937	0.1365
349.103	0.1467
349.3122	0.1295
349.5214	0.1355
349.7306	0.1336
349.9398	0.1291
350.149	0.1359
350.3582	0.138
350.5674	0.1545
350.7765	0.1311
350.9856	0.1343
351.1948	0.1522
351.4039	0.1336
351.613	0.1273
351.822	0.1349
352.0311	0.1468
352.2402	0.1424
352.4492	0.1551
352.6582	0.1434
352.8672	0.1507
353.0762	0.1562
353.2852	0.1433
353.4942	0.1401
353.7032	0.1504
353.9121	0.1513
354.1211	0.1519
354.33	0.1442
354.5389	0.1474
354.7478	0.1541
354.9567	0.1466
355.1655	0.1567
355.3744	0.1627
355.5833	0.1649
355.7921	0.1742
356.0009	0.1504
356.2097	0.1681
356.4185	0.1679
356.6273	0.1537
356.8361	0.1581
357.0448	0.1658
357.2536	0.15
357.4623	0.1588
357.671	0.1798
357.8797	0.1754
358.0884	0.1647
358.2971	0.1539
358.5057	0.1736
358.7144	0.1725
358.923	0.1678
359.1316	0.1668
359.3402	0.1731
359.5488	0.1779
359.7574	0.1534
359.966	0.1846
360.1746	0.1662
360.3831	0.1716
360.5916	0.1589
360.8002	0.1689
361.0087	0.1774
361.2172	0.1787
361.4256	0.183
361.6341	0.1882
361.8426	0.1899
362.051	0.1779
362.2594	0.1765
362.4678	0.176
362.6762	0.1968
362.8846	0.1897
363.093	0.1836
363.3014	0.1812
363.5097	0.1725
363.718	0.1915
363.9264	0.1971
364.1347	0.1654
364.343	0.1939
364.5513	0.1905
364.7595	0.1868
364.9678	0.1909
365.176	0.1917
365.3842	0.1977
365.5925	0.2006
365.8007	0.2011
366.0089	0.2006
366.217	0.1845
366.4252	0.203
366.6333	0.2195
366.8415	0.1992
367.0496	0.1899
367.2577	0.2172
367.4658	0.2006
367.6739	0.2087
367.882	0.1999
368.09	0.2013
368.2981	0.22
368.5061	0.197
368.7141	0.204
368.9221	0.2095
369.1301	0.2063
369.3381	0.2091
369.5461	0.2028
369.754	0.218
369.962	0.2189
370.1699	0.2194
370.3778	0.2257
370.5857	0.2141
370.7936	0.2214
371.0015	0.2368
371.2093	0.2362
371.4172	0.2222
371.625	0.1936
371.8328	0.2214
372.0406	0.2284
372.2484	0.2091
372.4562	0.2356
372.664	0.2174
372.8717	0.2371
373.0795	0.1985
373.2872	0.2251
373.4949	0.2131
373.7026	0.2339
373.9103	0.2399
374.118	0.2421
374.3256	0.2254
374.5333	0.2299
374.7409	0.22
374.9485	0.2499
375.1561	0.2384
375.3637	0.2345
375.5713	0.2381
375.7789	0.2341
375.9864	0.24
376.194	0.2294
376.4015	0.2492
376.609	0.2418
376.8165	0.2349
377.024	0.2231
377.2315	0.2345
377.4389	0.2457
377.6464	0.2583
377.8538	0.2549
378.0612	0.233
378.2686	0.2545
378.476	0.2617
378.6834	0.2563
378.8908	0.2631
379.0981	0.2435
379.3055	0.2721
379.5128	0.241
379.7201	0.2462
379.9274	0.2355
380.1347	0.2554
380.342	0.2495
380.5492	0.2323
380.7565	0.2451
380.9637	0.2447
381.1709	0.2483
381.3781	0.2403
381.5853	0.267
381.7925	0.272
381.9997	0.2467
382.2068	0.2603
382.4139	0.2623
382.6211	0.2423
382.8282	0.2618
383.0353	0.2531
383.2424	0.2538
383.4494	0.2555
383.6565	0.2542
383.8635	0.2578
384.0706	0.2621
384.2776	0.2641
384.4846	0.267
384.6916	0.2555
384.8986	0.2463
385.1055	0.2636
385.3125	0.2481
385.5194	0.253
385.7263	0.2779
385.9333	0.2558
386.1402	0.2568
386.347	0.234
386.5539	0.2615
386.7608	0.2764
386.9676	0.2536
387.1744	0.2613
387.3813	0.2377
387.5881	0.2697
387.7948	0.2516
388.0016	0.2361
388.2084	0.25
388.4151	0.2372
388.6219	0.2639
388.8286	0.2473
389.0353	0.2618
389.242	0.265
389.4487	0.2543
389.6553	0.2199
389.862	0.235
390.0686	0.2398
390.2753	0.2488
390.4819	0.2439
390.6885	0.2327
390.8951	0.2452
391.1016	0.2406
391.3082	0.2219
391.5147	0.2549
391.7213	0.2403
391.9278	0.2335
392.1343	0.2183
392.3408	0.2453
392.5473	0.239
392.7537	0.2282
392.9602	0.2247
393.1666	0.2447
393.373	0.2425
393.5794	0.2309
393.7858	0.2171
393.9922	0.2175
394.1986	0.2285
394.4049	0.231
394.6113	0.2307
394.8176	0.2289
395.0239	0.2247
395.2302	0.2156
395.4365	0.2246
395.6428	0.2375
395.8491	0.2254
396.0553	0.2051
396.2615	0.2366
396.4678	0.1989
396.674	0.2038
396.8802	0.2361
397.0863	0.2375
397.2925	0.2257
397.4987	0.2151
397.7048	0.2242
397.9109	0.2278
398.117	0.1978
398.3231	0.2148
398.5292	0.2154
398.7353	0.2081
398.9413	0.2116
399.1474	0.2178
399.3534	0.2128
399.5594	0.2071
399.7654	0.2243
399.9714	0.221
400.1774	0.215
400.3833	0.1919
400.5893	0.2155
400.7952	0.2013
401.0011	0.2244
401.207	0.207
401.4129	0.2203
401.6188	0.2232
401.8247	0.2239
402.0305	0.2134
402.2364	0.2209
402.4422	0.23
402.648	0.2145
402.8538	0.2171
403.0596	0.2156
403.2654	0.2191
403.4711	0.2009
403.6768	0.2165
403.8826	0.2196
404.0883	0.2281
404.294	0.2178
404.4997	0.224
404.7054	0.2216
404.911	0.1911
405.1167	0.2052
405.3223	0.2354
405.5279	0.2096
405.7335	0.2109
405.9391	0.2247
406.1447	0.2049
406.3502	0.2312
406.5558	0.2082
406.7613	0.2176
406.9668	0.2151
407.1724	0.2255
407.3778	0.2184
407.5833	0.2106
407.7888	0.2027
407.9942	0.2199
408.1997	0.2051
408.4051	0.1945
408.6105	0.223
408.8159	0.2116
409.0213	0.2041
409.2267	0.2317
409.432	0.213
409.6374	0.2227
409.8427	0.217
410.048	0.2137
410.2533	0.2072
410.4586	0.2153
410.6639	0.1984
410.8691	0.1884
411.0744	0.2089
411.2796	0.2129
411.4848	0.2211
411.69	0.2134
411.8952	0.2399
412.1004	0.1944
412.3056	0.2164
412.5107	0.2093
412.7158	0.2374
412.921	0.1984
413.1261	0.2067
413.3312	0.2098
413.5362	0.2065
413.7413	0.2023
413.9464	0.2098
414.1514	0.2056
414.3564	0.2004
414.5614	0.2016
414.7664	0.1947
414.9714	0.2106
415.1764	0.1975
415.3813	0.2177
415.5863	0.2118
415.7912	0.2024
415.9961	0.2257
416.201	0.2018
416.4059	0.1917
416.6108	0.2037
416.8156	0.2057
417.0205	0.194
417.2253	0.2049
417.4301	0.1994
417.6349	0.2074
417.8397	0.188
418.0445	0.1941
418.2492	0.2074
418.454	0.1968
418.6587	0.2148
418.8634	0.212
419.0681	0.1917
419.2728	0.1973
419.4775	0.1962
419.6822	0.1837
419.8868	0.1854
420.0915	0.1899
420.2961	0.1792
420.5007	0.1755
420.7053	0.2073
420.9099	0.2016
421.1144	0.2019
421.319	0.2084
421.5235	0.1986
421.728	0.208
421.9325	0.1994
422.137	0.2062
422.3415	0.1786
422.546	0.1975
422.7504	0.1877
422.9549	0.1966
423.1593	0.1986
423.3637	0.1902
423.5681	0.1928
423.7725	0.1721
423.9769	0.1757
424.1812	0.1826
424.3856	0.1701
424.5899	0.1726
424.7942	0.2031
424.9985	0.1714
425.2028	0.171
425.4071	0.2149
425.6113	0.1614
425.8156	0.17
426.0198	0.1926
426.224	0.1528
426.4282	0.1656
426.6324	0.1704
426.8366	0.1699
427.0407	0.1533
427.2449	0.1722
427.449	0.168
427.6531	0.1482
427.8572	0.1444
428.0613	0.1381
428.2654	0.1584
428.4694	0.1465
428.6735	0.1622
428.8775	0.1726
429.0815	0.1521
429.2855	0.1406
429.4895	0.1626
429.6935	0.1633
429.8975	0.1561
430.1014	0.1445
430.3053	0.152
430.5093	0.1385
430.7132	0.1331
430.9171	0.1341
431.1209	0.1421
431.3248	0.1384
431.5286	0.1418
431.7325	0.1493
431.9363	0.1176
432.1401	0.1428
432.3439	0.1342
432.5477	0.1129
432.7514	0.1239
432.9552	0.1311
433.1589	0.1285
433.3627	0.1021
433.5664	0.1219
433.7701	0.1093
433.9737	0.1039
434.1774	0.112
434.3811	0.1139
434.5847	0.1205
434.7883	0.1141
434.9919	0.1013
435.1955	0.1122
435.3991	0.1048
435.6027	0.1194
435.8062	0.1066
436.0098	0.0872
436.2133	0.0905
436.4168	0.0974
436.6203	0.0835
436.8238	0.0962
437.0272	0.1022
437.2307	0.087
437.4341	0.1105
437.6375	0.0892
437.841	0.0892
438.0443	0.1018
438.2477	0.0957
438.4511	0.0859
438.6545	0.0889
438.8578	0.0923
439.0611	0.0872
439.2644	0.0703
439.4677	0.0691
439.671	0.074
439.8743	0.0791
440.0775	0.0834
440.2808	0.0682
440.484	0.0743
440.6872	0.0515
440.8904	0.0624
441.0936	0.1079
441.2967	0.0736
441.4999	0.0673
441.703	0.0567
441.9062	0.0651
442.1093	0.082
442.3124	0.0779
442.5155	0.0497
442.7185	0.0741
442.9216	0.037
443.1246	0.0696
443.3276	0.055
443.5307	0.0517
443.7337	0.0665
443.9366	0.0591
444.1396	0.0549
444.3426	0.0606
444.5455	0.0556
444.7484	0.0527
444.9513	0.0498
445.1542	0.0611
445.3571	0.0434
445.56	0.0526
445.7628	0.0357
445.9657	0.0433
446.1685	0.0488
446.3713	0.0319
446.5741	0.0458
446.7769	0.041
446.9797	0.0567
447.1824	0.039
447.3852	0.0226
447.5879	0.0423
447.7906	0.0533
447.9933	0.0353
448.196	0.0281
448.3986	0.0314
448.6013	0.0345
448.8039	0.0227
449.0066	0.0319
449.2092	0.0425
449.4118	0.0282
449.6143	0.0138
449.8169	0.027
450.0195	0.0239
450.222	0.0159
450.4245	0.0162
450.627	0.035
450.8295	0.0185
451.032	0.0379
451.2345	0.0395
451.4369	0.0335
451.6394	0.0261
451.8418	0.0122
452.0442	0.0193
452.2466	0.0328
452.449	0.0029
452.6513	0.0273
452.8537	0.0106
453.056	-0.0008
453.2583	0.0195
453.4607	0.0186
453.663	0.0111
453.8652	0.0205
454.0675	-0.0088
454.2697	0.0152
454.472	0.0079
454.6742	0.0103
454.8764	0.0089
455.0786	0.0192
455.2808	-0.0078
455.4829	0.0142
455.6851	0.021
455.8872	0.0189
456.0893	0.0229
456.2915	-0.0077
456.4935	0.0241
456.6956	0.0117
456.8977	0.0143
457.0997	0.0047
457.3018	0.0047
457.5038	0.02
457.7058	0.0075
457.9078	0.0013
458.1098	0.0149
458.3117	0.0187
458.5137	0.0078
458.7156	0.0128
458.9175	-0.0184
459.1194	-0.0014
459.3213	0.0068
459.5232	-0.011
459.725	-0.0061
459.9269	-0.0077
460.1287	-0.0112
460.3305	0.0101
460.5323	0.0056
460.7341	0.0015
460.9359	0.0103
461.1376	-0.0021
461.3394	-0.0032
461.5411	0.0057
461.7428	-0.006
461.9445	0.0151
462.1462	0.0198
462.3479	-0.0056
462.5495	0.0114
462.7512	0.0145
462.9528	0.0011
463.1544	-0.0074
463.356	-0.0027
463.5576	-0.0002
463.7592	-0.0084
463.9607	-0.0038
464.1623	0.0161
464.3638	0.0187
464.5653	-0.002
464.7668	-0.0004
464.9683	-0.0039
465.1697	0.0111
465.3712	-0.0073
465.5726	-0.007
465.7741	-0.0056
465.9755	-0.0059
466.1769	0.0042
466.3782	-0.0031
466.5796	-0.0121
466.7809	0.0046
466.9823	-0.0018
467.1836	0.0086
467.3849	-0.0087
467.5862	0.0084
467.7875	-0.0002
467.9887	-0.0018
468.19	-0.0186
468.3912	-0.0049
468.5924	-0.0145
468.7936	-0.0174
468.9948	-0.0038
469.196	0.0048
469.3972	-0.0135
469.5983	-0.007
469.7994	-0.0148
470.0006	-0.0166
470.2017	-0.0144
470.4027	-0.019
470.6038	-0.0036
470.8049	-0.0236
471.0059	0.0003
471.2069	-0.0191
471.408	0.0093
471.6089	0.0135
471.8099	0.0012
472.0109	0.0067
472.2119	-0.0164
472.4128	-0.0211
472.6137	0.0017
472.8146	-0.0155
473.0155	-0.0096
473.2164	-0.0117
473.4173	0.0096
473.6181	-0.0053
473.819	-0.0011
474.0198	-0.0106
474.2206	-0.0104
474.4214	-0.0092
474.6222	0.0001
474.8229	-0.0098
475.0237	-0.0067
475.2244	-0.0157
475.4251	0.0065
475.6258	-0.0064
475.8265	0.0073
476.0272	0.0085
476.2278	-0.0166
476.4285	-0.0178
476.6291	-0.0155
476.8297	-0.0129
477.0303	-0.0178
477.2309	0.0059
477.4315	-0.0173
477.632	-0.0106
477.8326	-0.0002
478.0331	-0.0003
478.2336	0.0006
478.4341	-0.0064
478.6346	-0.0088
478.8351	-0.0131
479.0355	-0.0082
479.236	-0.0046
479.4364	-0.0105
479.6368	-0.0086
479.8372	-0.0076
480.0376	-0.0093
480.2379	-0.0271
480.4383	-0.014
480.6386	-0.0066
480.8389	-0.0162
481.0392	-0.0156
481.2395	-0.0178
481.4398	-0.0057
481.6401	-0.0029
481.8403	-0.0171
482.0405	-0.0145
482.2408	-0.0071
482.441	-0.0044
482.6411	-0.0077
482.8413	-0.0146
483.0415	-0.0043
483.2416	-0.0189
483.4417	-0.0059
483.6419	-0.0164
483.8419	-0.0247
484.042	-0.0011
484.2421	-0.0022
484.4422	-0.0095
484.6422	-0.0054
484.8422	-0.0086
485.0422	-0.0159
485.2422	-0.0021
485.4422	-0.0192
485.6422	-0.0113
485.8421	-0.0074
486.042	-0.0075
486.242	-0.0078
486.4419	-0.0205
486.6417	-0.0095
486.8416	-0.0145
487.0415	-0.0139
487.2413	-0.0132
487.4411	-0.0034
487.641	-0.0212
487.8408	-0.0041
488.0405	-0.0198
488.2403	-0.0116
488.4401	0.0029
488.6398	-0.013
488.8395	-0.004
489.0392	-0.0077
489.2389	-0.0151
489.4386	-0.011
489.6383	-0.0094
489.8379	0.0052
490.0376	-0.0152
490.2372	-0.0217
490.4368	-0.0155
490.6364	-0.0064
490.836	-0.01
491.0355	-0.0145
491.2351	-0.011
491.4346	-0.0096
491.6341	-0.0102
491.8336	-0.0068
492.0331	-0.0244
492.2326	-0.0181
492.432	-0.007
492.6315	-0.0143
492.8309	-0.0312
493.0303	-0.0176
493.2297	-0.0092
493.4291	-0.0159
493.6284	-0.012
493.8278	-0.0072
494.0271	-0.0051
494.2264	-0.014
494.4257	-0.0153
494.625	-0.0053
494.8243	-0.0244
495.0236	-0.0086
495.2228	-0.0142
495.422	0.0006
495.6213	-0.0067
495.8205	-0.0031
496.0196	-0.0083
496.2188	-0.0012
496.418	-0.0195
496.6171	-0.018
496.8162	-0.0099
497.0153	0.0064
497.2144	-0.0247
497.4135	-0.0023
497.6126	-0.0118
497.8116	-0.0103
498.0107	-0.0085
498.2097	-0.0161
498.4087	-0.0169
498.6077	-0.0035
498.8067	-0.0178
499.0056	-0.0081
499.2046	-0.0158
499.4035	-0.016
499.6024	-0.0092
499.8013	-0.0092
500.0002	-0.0145
500.199	-0.011
500.3979	-0.0112
500.5967	-0.0217
500.7956	-0.0035
500.9944	-0.0047
501.1932	-0.0129
501.3919	-0.0197
501.5907	-0.0193
501.7895	-0.0084
501.9882	-0.0162
502.1869	-0.0174
502.3856	-0.0168
502.5843	-0.0111
502.783	-0.0123
502.9816	-0.0116
503.1803	-0.0271
503.3789	-0.0142
503.5775	-0.0122
503.7761	-0.014
503.9747	-0.0144
504.1732	-0.0094
504.3718	-0.012
504.5703	-0.0042
504.7689	-0.0138
504.9674	-0.0057
505.1658	-0.0173
505.3643	-0.0153
505.5628	-0.0186
505.7612	-0.0145
505.9597	0.0049
506.1581	-0.0167
506.3565	-0.0026
506.5549	-0.0225
506.7532	-0.0253
506.9516	-0.0097
507.1499	-0.0125
507.3482	-0.0165
507.5465	-0.0219
507.7448	-0.0032
507.9431	-0.0228
508.1414	-0.0048
508.3396	-0.0184
508.5379	-0.0142
508.7361	-0.0171
508.9343	-0.011
509.1325	-0.0082
509.3306	-0.0068
509.5288	-0.0066
509.7269	-0.0135
509.9251	-0.0134
510.1232	-0.0199
510.3213	-0.0178
510.5193	-0.0048
510.7174	-0.0164
510.9154	-0.0133
511.1135	-0.018
511.3115	-0.0174
511.5095	-0.0098
511.7075	-0.0186
511.9055	-0.003
512.1034	-0.0152
512.3014	-0.0116
512.4993	-0.0084
512.6972	-0.0161
512.8951	-0.0186
513.093	-0.013
513.2908	-0.0057
513.4887	-0.0068
513.6865	-0.007
513.8844	-0.0067
514.0822	-0.0142
514.2799	-0.0146
514.4777	-0.0213
514.6755	-0.0158
514.8732	-0.0144
515.0709	-0.0076
515.2687	-0.003
515.4664	-0.0032
515.664	-0.0122
515.8617	-0.0127
516.0594	-0.0257
516.257	-0.0148
516.4546	-0.0113
516.6522	-0.0012
516.8498	-0.0117
517.0474	-0.0044
517.2449	0.0008
517.4425	-0.019
517.64	-0.012
517.8375	-0.0011
518.035	-0.0133
518.2325	-0.0206
518.43	-0.0088
518.6274	-0.0079
518.8249	-0.0217
519.0223	-0.0129
519.2197	-0.0161
519.4171	-0.0073
519.6145	-0.0172
519.8118	-0.0063
520.0092	-0.0094
520.2065	-0.0191
520.4038	-0.0193
520.6011	-0.002
520.7984	-0.0136
520.9956	-0.0155
521.1929	-0.0161
521.3901	-0.01
521.5874	-0.0111
521.7846	-0.0078
521.9818	-0.0121
522.1789	-0.0196
522.3761	-0.0164
522.5732	-0.0139
522.7704	-0.0118
522.9675	-0.0135
523.1646	-0.0246
523.3617	-0.0142
523.5587	-0.0065
523.7558	-0.0089
523.9528	-0.0147
524.1498	-0.0052
524.3468	-0.0102
524.5438	-0.0083
524.7408	-0.0058
524.9378	-0.0061
525.1347	-0.017
525.3316	0.0021
525.5285	-0.0123
525.7254	-0.0194
525.9223	-0.0068
526.1192	-0.0054
526.316	-0.0248
526.5129	0.0062
526.7097	-0.014
526.9065	-0.0148
527.1033	-0.0084
527.3	-0.0117
527.4968	-0.009
527.6935	-0.0059
527.8903	-0.0098
528.087	-0.0118
528.2837	-0.0104
528.4804	-0.0103
528.677	-0.017
528.8737	-0.0015
529.0703	-0.0098
529.2669	-0.0119
529.4635	-0.0152
529.6601	0.0023
529.8567	-0.013
530.0532	-0.0116
530.2498	0.0022
530.4463	0.0056
530.6428	-0.0171
530.8393	0.0041
531.0358	-0.0094
531.2322	-0.0079
531.4287	-0.0106
531.6251	-0.0072
531.8215	-0.0023
532.0179	-0.0039
532.2143	-0.0064
532.4107	-0.0129
532.607	-0.0015
532.8034	-0.0065
532.9997	-0.0054
533.196	-0.0049
533.3923	-0.0115
533.5886	0.007
533.7848	-0.0049
533.9811	-0.0103
534.1773	-0.0033
534.3735	0.0024
534.5697	-0.008
534.7659	-0.0035
534.9621	-0.0072
535.1582	-0.0117
535.3544	-0.0069
535.5505	-0.0121
535.7466	-0.0132
535.9427	-0.0065
536.1387	-0.0154
536.3348	-0.0118
536.5308	0.0052
536.7269	-0.0148
536.9229	-0.0096
537.1189	-0.0085
537.3148	-0.0049
537.5108	-0.0141
537.7068	-0.0108
537.9027	-0.008
538.0986	-0.0098
538.2945	-0.0022
538.4904	-0.0087
538.6863	-0.0083
538.8821	-0.0032
539.078	-0.0049
539.2738	-0.0021
539.4696	-0.0091
539.6654	0.0006
539.8611	0.003
540.0569	-0.003
540.2526	-0.0046
540.4484	-0.007
540.6441	0.0087
540.8398	-0.0046
541.0355	-0.0057
541.2311	-0.007
541.4268	-0.0136
541.6224	0.0052
541.818	-0.0056
542.0136	-0.0108
542.2092	-0.0038
542.4048	0.0036
542.6003	-0.0063
542.7959	-0.0073
542.9914	-0.0051
543.1869	-0.013
543.3824	-0.0097
543.5779	-0.0132
543.7734	-0.0125
543.9688	-0.0136
544.1642	0.0023
544.3596	-0.0099
544.555	-0.0045
544.7504	-0.0104
544.9458	-0.0084
545.1411	-0.0096
545.3365	-0.0088
545.5318	-0.017
545.7271	-0.006
545.9224	-0.0102
546.1177	-0.0035
546.3129	-0.0001
546.5081	-0.0164
546.7034	0.0088
546.8986	-0.0072
547.0938	0.0015
547.289	-0.0045
547.4841	-0.0066
547.6793	-0.0063
547.8744	-0.0093
548.0695	-0.0122
548.2646	-0.0124
548.4597	0.0021
548.6548	-0.0082
548.8498	-0.0015
549.0448	0.0041
549.2399	-0.0085
549.4349	0.0048
549.6298	-0.0008
549.8248	-0.0023
550.0198	-0.0051
550.2147	-0.0125
550.4096	-0.0062
550.6045	-0.0109
550.7994	0.002
550.9943	-0.0018
551.1892	-0.0097
551.384	-0.0025
551.5788	-0.0069
551.7737	0.003
551.9685	-0.0013
552.1632	-0.0055
552.358	-0.0053
552.5528	0.0004
552.7475	-0.0014
552.9422	-0.008
553.1369	-0.0013
553.3316	0.0005
553.5263	-0.0108
553.7209	-0.0015
553.9156	-0.0045
554.1102	-0.0077
554.3048	-0.007
554.4994	0.0077
554.694	-0.0087
554.8885	-0.004
555.0831	-0.0098
555.2776	-0.0013
555.4721	-0.0004
555.6666	-0.0079
555.8611	0.0059
556.0555	-0.0036
556.25	-0.0003
556.4444	-0.0165
556.6388	0.0024
556.8332	-0.0018
557.0276	-0.0058
557.222	-0.0051
557.4163	-0.0024
557.6107	-0.0046
557.805	0.0027
557.9993	-0.012
558.1936	0.0017
558.3879	-0.0036
558.5821	0.0001
558.7764	-0.0061
558.9706	-0.0078
559.1648	-0.0001
559.359	-0.0036
559.5532	-0.0058
559.7473	-0.0016
559.9415	-0.0007
560.1356	-0.0043
560.3297	-0.0129
560.5238	-0.0137
560.7179	-0.009
560.9119	-0.0052
561.106	-0.0078
561.3	-0.0084
561.494	0.0029
561.688	-0.0095
561.882	-0.0112
562.076	-0.0105
562.2699	0.001
562.4639	-0.0011
562.6578	0.0036
562.8517	-0.0063
563.0456	-0.0043
563.2395	-0.002
563.4333	-0.0064
563.6272	0.0073
563.821	-0.0116
564.0148	0.0019
564.2086	-0.0056
564.4024	-0.0067
564.5961	-0.0078
564.7899	-0.0008
564.9836	-0.0058
565.1773	-0.0062
565.371	0.0124
565.5647	-0.0041
565.7584	-0.0107
565.952	-0.005
566.1456	-0.0018
566.3393	-0.0014
566.5329	-0.005
566.7264	-0.0097
566.92	-0.0066
567.1136	0.0025
567.3071	-0.0081
567.5006	-0.0018
567.6941	0.0068
567.8876	-0.0059
568.0811	-0.0023
568.2745	-0.0013
568.468	0.0015
568.6614	-0.0015
568.8548	-0.0046
569.0482	-0.0017
569.2416	-0.0064
569.4349	0.0003
569.6283	0.0032
569.8216	0.0009
570.0149	-0.0042
570.2082	0.0041
570.4015	0.0006
570.5947	0.0026
570.788	-0.001
570.9812	0.0019
571.1744	0.0005
571.3676	-0.0106
571.5608	-0.0034
571.754	0.0074
571.9471	0.008
572.1402	0.0072
572.3333	0.0023
572.5264	-0.0003
572.7195	-0.0039
572.9126	0.0012
573.1057	-0.0038
573.2987	-0.009
573.4917	-0.0008
573.6847	-0.0084
573.8777	0.0058
574.0707	0.0032
574.2636	-0.0053
574.4566	-0.0004
574.6495	0.0084
574.8424	-0.002
575.0353	-0.0009
575.2281	0.0074
575.421	-0.0001
575.6138	0.0061
575.8067	-0.0029
575.9995	-0.0015
576.1923	0.005
576.385	-0.0042
576.5778	-0.0019
576.7706	-0.0027
576.9633	0.0013
577.156	0.0015
577.3487	-0.0013
577.5414	0.0003
577.734	0.0003
577.9267	0.0017
578.1193	-0.0048
578.3119	-0.0051
578.5045	0.0006
578.6971	0.0009
578.8897	0.0025
579.0822	0.0046
579.2747	-0.0029
579.4673	-0.0024
579.6598	-0.0071
579.8522	-0.0022
580.0447	-0.0072
580.2372	-0.0084
580.4296	0.0039
580.622	-0.0042
580.8144	-0.0043
581.0068	-0.0045
581.1992	-0.0164
581.3915	-0.0011
581.5839	-0.0085
581.7762	-0.0059
581.9685	-0.0051
582.1608	-0.0037
582.353	-0.0026
582.5453	0.0013
582.7375	-0.0061
582.9298	-0.0045
583.122	0.0002
583.3142	-0.0039
583.5063	-0.0013
583.6985	-0.0013
583.8906	-0.0001
584.0827	-0.0075
584.2749	-0.0029
584.4669	-0.001
584.659	0.0024
584.8511	-0.004
585.0431	-0.0001
585.2352	-0.0053
585.4272	-0.002
585.6192	0.0037
585.8111	-0.0047
586.0031	-0.0045
586.195	-0.0051
586.387	0.0034
586.5789	-0.0049
586.7708	0.0043
586.9627	0.0036
587.1545	-0.005
587.3464	0.0059
587.5382	0.0044
587.73	-0.0018
587.9218	0.0069
588.1136	-0.0028
588.3053	0.0049
588.4971	-0.0075
588.6888	-0.005
588.8805	-0.001
589.0722	-0.0035
589.2639	-0.0074
589.4556	0.0056
589.6472	0.0038
589.8389	-0.0038
590.0305	-0.0054
590.2221	0.002
590.4137	-0.0087
590.6052	0.0024
590.7968	-0.0043
590.9883	0.0024
591.1798	-0.0008
591.3713	-0.0035
591.5628	0.0029
591.7543	0.0042
591.9458	-0.0044
592.1372	0.0027
592.3286	0.0037
592.52	0.0047
592.7114	-0.0027
592.9028	-0.0037
593.0941	0.0018
593.2855	0.0004
593.4768	-0.0086
593.6681	-0.005
593.8594	-0.0078
594.0506	-0.0054
594.2419	0.0101
594.4331	-0.0008
594.6244	0.0015
594.8156	-0.0067
595.0067	-0.0008
595.1979	-0.0012
595.3891	0.0022
595.5802	-0.0049
595.7713	0.0003
595.9624	0.0037
596.1535	0.0048
596.3446	-0.0011
596.5357	-0.0053
596.7267	0.0049
596.9177	-0.0046
597.1087	-0.0077
597.2997	-0.0077
597.4907	-0.0052
597.6817	-0.0063
597.8726	-0.0023
598.0635	-0.002
598.2544	-0.0011
598.4453	0.0055
598.6362	-0.0023
598.827	-0.0063
599.0179	0.0055
599.2087	0.0038
599.3995	-0.0026
599.5903	-0.0006
599.7811	-0.0003
599.9718	-0.0013
600.1626	-0.0021
600.3533	-0.0056
600.544	-0.0069
600.7347	-0.0019
600.9254	0.0042
601.116	-0.0103
601.3067	-0.0007
601.4973	-0.0015
601.6879	0.0072
601.8785	-0.0017
602.0691	0.0037
602.2596	0.0039
602.4502	0.0009
602.6407	0.0054
602.8312	0.0011
603.0217	-0.0055
603.2122	-0.0042
603.4027	0.0026
603.5931	0.0004
603.7835	-0.0042
603.9739	-0.0036
604.1643	-0.0048
604.3547	-0.0116
604.5451	-0.0012
604.7354	-0.0026
604.9257	0.0042
605.116	-0.005
605.3063	0.005
605.4966	0.0019
605.6869	0.0014
605.8771	-0.0027
606.0673	0.0093
606.2575	0.0083
606.4477	0.0068
606.6379	0.0018
606.8281	0.0052
607.0182	-0.0054
607.2083	0.0135
607.3985	0.0032
607.5885	0.0024
607.7786	-0.0014
607.9687	-0.0034
608.1587	0.0017
608.3488	0.001
608.5388	0.0033
608.7288	0.0048
608.9187	-0.0031
609.1087	-0.0074
609.2986	-0.0053
609.4886	0.0002
609.6785	0.0024
609.8684	0.0039
610.0582	0.0094
610.2481	0.0006
610.4379	-0.0005
610.6278	-0.0071
610.8176	0.001
611.0074	-0.0029
611.1971	-0.0048
611.3869	-0.0024
611.5766	-0.0074
611.7664	0.0063
611.9561	0.0064
612.1458	-0.0037
612.3354	-0.0107
612.5251	0.0002
612.7147	-0.0009
612.9044	0.0067
613.094	-0.0078
613.2836	0.0011
613.4731	-0.0033
613.6627	-0.0052
613.8522	0.005
614.0417	0.0053
614.2313	-0.0044
614.4207	-0.0009
614.6102	-0.0044
614.7997	-0.0006
614.9891	-0.0083
615.1785	-0.0004
615.3679	-0.0004
615.5573	0.0055
615.7467	-0.0075
615.9361	-0.0013
616.1254	0.0036
616.3147	0.0004
616.504	0.0032
616.6933	0.0047
616.8826	0.005
617.0718	-0.0022
617.2611	0.0012
617.4503	-0.0042
617.6395	-0.0048
617.8287	0.0034
618.0179	0.0038
618.207	0.0092
618.3961	0.0076
618.5853	-0.0029
618.7744	0.0073
618.9634	0.004
619.1525	0.0013
619.3416	-0.0028
619.5306	0.0025
619.7196	0.0014
619.9086	-0.0021
620.0976	0.0011
620.2866	-0.0034
620.4755	0.0002
620.6645	0.0035
620.8534	0.0088
621.0423	0.0044
621.2312	0.0028
621.42	0.0007
621.6089	-0.0003
621.7977	0.0006
621.9865	-0.0061
622.1753	0.0031
622.3641	-0.003
622.5529	0.0054
622.7416	0.0026
622.9303	-0.0061
623.1191	0.0057
623.3078	-0.0046
623.4964	0.0047
623.6851	-0.0008
623.8737	0.0036
624.0624	0.0037
624.251	-0.0049
624.4396	-0.0045
624.6282	-0.0064
624.8167	-0.0066
625.0053	-0.002
625.1938	0.0059
625.3823	0.0005
625.5708	-0.0035
625.7593	-0.0092
625.9477	-0.0068
626.1362	-0.0016
626.3246	0.0012
626.513	-0.0053
626.7014	0.0017
626.8898	-0.0056
627.0781	0.0011
627.2665	-0.0027
627.4548	0.0062
627.6431	0.0034
627.8314	0.0024
628.0197	0.003
628.2079	-0.0059
628.3962	0.0001
628.5844	0.0081
628.7726	0.0057
628.9608	0.0006
629.1489	-0.0002
629.3371	0.0068
629.5252	0.0019
629.7134	0.0097
629.9015	-0.0001
630.0895	0.0001
630.2776	0.0091
630.4657	0.0013
630.6537	-0.003
630.8417	-0.0041
631.0297	-0.0034
631.2177	0.002
631.4057	-0.001
631.5936	0.0014
631.7815	0.0003
631.9695	-0.0035
632.1574	0.0114
632.3452	0.0122
632.5331	0.004
632.7209	-0.0023
632.9088	0.0123
633.0966	0.008
633.2844	-0.0055
633.4722	0.004
633.6599	0.0038
633.8477	0.0029
634.0354	-0.0022
634.2231	0.0009
634.4108	-0.0063
634.5985	0.0094
634.7861	0.002
634.9738	0.0007
635.1614	0.0022
635.349	0.0007
635.5366	-0.0043
635.7242	-0.0043
635.9117	0.0054
636.0993	-0.0041
636.2868	0.0022
636.4743	0.0026
636.6618	0.0053
636.8492	-0.0019
637.0367	0.0035
637.2241	-0.0042
637.4115	0.0007
637.5989	0.0003
637.7863	-0.0027
637.9737	0.0008
638.161	-0.0056
638.3484	-0.0019
638.5357	0.0022
638.723	-0.0043
638.9103	0.0037
639.0975	0.0106
639.2848	0.0034
639.472	0.0067
639.6592	0.0006
639.8464	0.0083
640.0336	0.004
640.2208	-0.005
640.4079	0.0003
640.595	-0.0054
640.7821	0.0033
640.9692	-0.0025
641.1563	0.0008
641.3434	0.0025
641.5304	-0.0007
641.7174	0.0011
641.9044	0.0002
642.0914	0.0032
642.2784	0.0134
642.4653	0.0088
642.6523	0.0049
642.8392	-0.0017
643.0261	0.0095
643.213	0.0047
643.3999	0.0012
643.5867	-0.0028
643.7735	0.0046
643.9604	-0.0041
644.1472	0.0051
644.3339	0.0084
644.5207	0.0047
644.7075	0.0001
644.8942	-0.0001
645.0809	0.0059
645.2676	0.0066
645.4543	0.0011
645.6409	0.0057
645.8276	0.0053
646.0142	0.0031
646.2008	-0.002
646.3874	-0.0007
646.574	-0.0036
646.7605	-0.0058
646.9471	-0.005
647.1336	-0.0007
647.3201	0.0074
647.5066	0.0017
647.6931	0.003
647.8795	0.0006
648.0659	0.0028
648.2524	0.0005
648.4388	-0.0036
648.6252	0.0084
648.8115	0.0017
648.9979	-0.0028
649.1842	0.0022
649.3705	0.0018
649.5568	0.0009
649.7431	0.0029
649.9294	-0.0011
650.1156	0.0077
650.3018	0.0013
650.488	0.0031
650.6742	0.0069
650.8604	-0.0002
651.0466	-0.0031
651.2327	-0.0002
651.4188	-0.0029
651.6049	-0.005
651.791	-0.0037
651.9771	0.0072
652.1632	0.0013
652.3492	-0.0048
652.5352	0.0028
652.7212	0.0005
652.9072	0.0076
653.0932	-0.0007
653.2791	-0.0092
653.465	-0.0026
653.651	-0.0095
653.8369	-0.0044
654.0227	-0.0073
654.2086	0.003
654.3944	0.0086
654.5803	0.0049
654.7661	-0.0012
654.9519	0.0006
655.1377	-0.0047
655.3234	-0.0019
655.5092	-0.0024
655.6949	-0.0096
655.8806	-0.0045
656.0663	-0.0032
656.2519	0.0016
656.4376	-0.0047
656.6232	0.0017
656.8088	0.0024
656.9945	0.0023
657.18	0.0019
657.3656	-0.002
657.5511	-0.0029
657.7367	-0.0047
657.9222	0.0028
658.1077	0.0059
658.2932	-0.0006
658.4786	-0.006
658.6641	-0.0032
658.8495	0.0031
659.0349	-0.0045
659.2203	0.0028
659.4057	0.0028
659.591	0.0052
659.7764	0.0038
659.9617	0.0043
660.147	-0.0015
660.3323	0.0097
660.5176	0.0114
660.7028	0.0041
660.888	0.0054
661.0733	-0.0012
661.2585	0.0005
661.4436	-0.0072
661.6288	0.0006
661.8139	0.0006
661.9991	0.0058
662.1842	-0.0066
662.3693	0.0042
662.5544	-0.0028
662.7394	0.0045
662.9245	-0.0003
663.1095	-0.0017
663.2945	0.0005
663.4795	0.0031
663.6644	-0.0013
663.8494	0.0033
664.0343	0.0012
664.2193	-0.0037
664.4042	0.0026
664.589	-0.0044
664.7739	-0.0018
664.9587	-0.0095
665.1436	-0.0052
665.3284	0.0025
665.5132	-0.0004
665.698	-0.0003
665.8827	-0.0015
666.0675	0.0013
666.2522	-0.0034
666.4369	0
666.6216	0.0045
666.8063	0.0043
666.9909	-0.0052
667.1756	-0.0075
667.3602	0.0048
667.5448	-0.0009
667.7294	0.0086
667.9139	0.0031
668.0985	0.0047
668.283	-0.0019
668.4675	-0.0016
668.652	0.0015
668.8365	-0.005
669.0209	0.0021
669.2054	0.0046
669.3898	-0.0005
669.5742	0.0049
669.7586	-0.0001
669.943	0.004
670.1273	-0.0004
670.3117	0.0039
670.496	0.0007
670.6803	0.0073
670.8646	0.0046
671.0488	-0.0011
671.2331	0.0055
671.4173	0.0051
671.6015	-0.0017
671.7857	0.005
671.9699	0.0011
672.1541	0.0063
672.3382	-0.0039
672.5223	0.0131
672.7064	-0.0016
672.8905	0.0064
673.0746	0.0009
673.2587	-0.0003
673.4427	0.0025
673.6267	0.0125
673.8107	0.0078
673.9947	0.0085
674.1787	-0.003
674.3626	-0.0055
674.5465	-0.0024
674.7304	0.0092
674.9143	0.0012
675.0982	0.0151
675.2821	-0.0054
675.4659	0.0016
675.6497	0.0061
675.8335	0.0002
676.0173	0.0043
676.2011	0.0045
676.3849	-0.0019
676.5686	-0.0035
676.7523	0.0001
676.936	0.0003
677.1197	0.0068
677.3034	-0.003
677.487	0.0046
677.6706	-0.0004
677.8542	0.0049
678.0378	-0.0042
678.2214	-0.003
678.405	0.0003
678.5885	-0.0081
678.772	0.0015
678.9555	-0.0109
679.139	-0.0028
679.3225	0.0007
679.5059	-0.01
679.6894	0.0043
679.8728	0.0047
680.0562	-0.0037
680.2395	-0.0019
680.4229	-0.001
680.6062	0.0069
680.7896	0.0021
680.9729	-0.0063
681.1562	-0.0002
681.3394	0.0037
681.5227	-0.0118
681.7059	-0.0044
681.8891	-0.0021
682.0723	0.0025
682.2555	0.0062
682.4387	-0.0022
682.6218	-0.0015
682.805	0.0014
682.9881	0.0042
683.1712	-0.002
683.3542	-0.0041
683.5373	0.0039
683.7203	-0.0024
683.9034	-0.0004
684.0864	-0.0135
684.2694	-0.0019
684.4523	0.0026
684.6353	-0.0036
684.8182	0
685.0011	0.0002
685.184	0.0034
685.3669	0.0008
685.5498	0.0038
685.7326	0.0052
685.9154	-0.0061
686.0982	0.0081
686.281	0.0017
686.4638	0.0069
686.6465	0.0007
686.8293	-0.0004
687.012	0.0063
687.1947	-0.0082
687.3774	0.0034
687.56	-0.0006
687.7427	0.0049
687.9253	-0.0058
688.1079	-0.0016
688.2905	0.004
688.4731	0.0002
688.6556	0.0025
688.8382	0.0001
689.0207	-0.0024
689.2032	-0.0085
689.3857	-0.0078
689.5681	-0.0028
689.7506	-0.0064
689.933	-0.0071
690.1154	-0.0069
690.2978	-0.0071
690.4802	-0.0069
690.6626	-0.0128
690.8449	-0.006
691.0272	0.004
691.2095	-0.0185
691.3918	-0.0037
691.5741	0.0054
691.7563	-0.004
691.9386	0.0022
692.1208	-0.0079
692.303	-0.001
692.4852	-0.0011
692.6673	-0.0029
692.8495	-0.0064
693.0316	-0.0012
693.2137	-0.0005
693.3958	0.0014
693.5778	-0.0027
693.7599	0.0005
693.9419	0.0046
694.1239	0.0068
694.3059	-0.0064
694.4879	0.0082
694.6699	0.0074
694.8518	0.0024
695.0337	-0.0018
695.2157	0.0038
695.3975	-0.0049
695.5794	-0.0017
695.7613	0.0016
695.9431	0.0015
696.1249	0.0033
696.3067	0.0029
696.4885	0.0116
696.6703	-0.0101
696.852	0.0027
697.0337	0.0018
697.2154	0.0014
697.3971	0.0052
697.5788	0.0055
697.7605	0.0036
697.9421	-0.0012
698.1237	-0.0008
698.3053	0.0008
698.4869	-0.0016
698.6685	-0.0076
698.85	-0.0039
699.0315	0.0077
699.213	-0.0112
699.3945	0.0021
699.576	0.0083
699.7575	0.0084
699.9389	0.0049
700.1203	-0.002
700.3017	-0.0134
700.4831	-0.0116
700.6645	-0.004
700.8458	-0.0008
701.0271	-0.0028
701.2084	0.0024
701.3897	0.0068
701.571	0.0008
701.7523	0.0048
701.9335	0.0002
702.1147	0.0019
702.2959	-0.0025
702.4771	0.0048
702.6583	-0.0034
702.8394	-0.0103
703.0205	0.0032
703.2016	-0.0027
703.3827	0.001
703.5638	0.0074
703.7449	0.0025
703.9259	0.0112
704.1069	-0.0069
704.2879	0.0031
704.4689	0.0084
704.6499	0.0037
704.8308	-0.003
705.0117	-0.0065
705.1927	0.0025
705.3735	0.0019
705.5544	0.0015
705.7353	-0.0028
705.9161	-0.006
706.0969	-0.0011
706.2777	-0.002
706.4585	-0.0021
706.6393	0.0022
706.82	-0.0063
707.0007	0.0005
707.1815	0.005
707.3621	0.01
707.5428	0.0004
707.7235	0.0027
707.9041	0.0045
708.0847	-0.0072
708.2653	-0.0023
708.4459	-0.0124
708.6265	0.0015
708.807	0.0013
708.9875	0
709.168	0.0038
709.3485	-0.0087
709.529	-0.0057
709.7095	-0.0172
709.8899	0.0022
710.0703	-0.0085
710.2507	-0.0029
710.4311	-0.0001
710.6115	-0.0091
710.7918	-0.0044
710.9721	-0.0027
711.1524	-0.008
711.3327	-0.0025
711.513	0.0006
711.6932	-0.0024
711.8735	0.0099
712.0537	0.0084
712.2339	-0.0007
712.4141	0.0008
712.5942	-0.0043
712.7744	0.0001
712.9545	-0.003
713.1346	-0.0081
713.3147	-0.0034
713.4947	-0.0025
713.6748	-0.002
713.8548	-0.0043
714.0348	-0.0033
714.2148	-0.0034
714.3948	0.0097
714.5748	-0.0027
714.7547	0.0005
714.9346	0.0034
715.1145	0.0023
715.2944	-0.0086
715.4743	-0.0036
715.6541	-0.0075
715.834	0.0017
716.0138	-0.0067
716.1936	-0.012
716.3733	-0.0055
716.5531	0.0031
716.7328	-0.0093
716.9126	-0.003
717.0923	0.0043
717.2719	0.0023
717.4516	0.0077
717.6312	0.0009
717.8109	-0.0031
717.9905	0.0015
718.1701	-0.0079
718.3496	-0.0114
718.5292	-0.0009
718.7087	0.0009
718.8882	-0.0029
719.0677	0.0021
719.2472	-0.0012
719.4267	-0.0031
719.6061	0.0021
719.7856	0.0078
719.965	-0.0019
720.1443	-0.0073
720.3237	0.0156
720.5031	0.0039
720.6824	0.0068
720.8617	-0.0056
721.041	0.0036
721.2203	0.0056
721.3995	-0.0001
721.5788	-0.0032
721.758	0.001
721.9372	0.0012
722.1164	-0.0054
722.2956	-0
722.4747	0.0022
722.6538	0.0006
722.8329	0.0095
723.012	-0.0042
723.1911	-0.0001
723.3702	0.0068
723.5492	0.0047
723.7282	-0.0004
723.9072	-0.0025
724.0862	-0.0012
724.2652	0.0032
724.4441	-0.001
724.623	-0.0068
724.8019	-0.006
724.9808	0.0037
725.1597	-0.0132
725.3385	-0.0027
725.5174	-0.0007
725.6962	0.001
725.875	-0.0016
726.0538	0.0085
726.2325	-0.0043
726.4112	0.0125
726.59	-0.0121
726.7687	-0.007
726.9474	0.0054
727.126	0.002
727.3047	0.0016
727.4833	0.0004
727.6619	-0.0048
727.8405	-0.011
728.0191	-0.0073
728.1976	0.0029
728.3762	0.0078
728.5547	0.003
728.7332	-0.0108
728.9116	0.0039
729.0901	0.0054
729.2686	-0.0044
729.447	0.0075
729.6254	-0.0006
729.8038	-0.0006
729.9821	-0.011
730.1605	-0.0002
730.3388	0.0009
730.5171	0.0005
730.6954	-0.0033
730.8737	0.0032
731.0519	-0.0048
731.2302	0.0077
731.4084	-0.0028
731.5866	0.0086
731.7648	-0.0088
731.9429	-0.01
732.1211	-0.0127
732.2992	0.0013
732.4773	-0.0069
732.6554	-0.0019
732.8335	-0.0106
733.0115	-0.0026
733.1896	-0.0006
733.3676	-0.011
733.5456	-0.0009
733.7235	0.0027
733.9015	-0.0085
734.0794	-0.0014
734.2574	-0.0041
734.4353	0.002
734.6131	0.0059
734.791	-0.0002
734.9689	-0.001
735.1467	-0.0001
735.3245	-0.0007
735.5023	-0.0149
735.68	-0.006
735.8578	-0.0019
736.0355	-0.015
736.2132	0.0009
736.3909	-0.0128
736.5686	-0.0166
736.7463	0.0071
736.9239	-0.0066
737.1015	-0.0032
737.2791	0.0078
737.4567	-0.0073
737.6343	-0.0022
737.8118	-0.0026
737.9894	0.0064
738.1669	0.0013
738.3444	-0.0039
738.5218	0.0046
738.6993	-0.0023
738.8767	-0.0018
739.0541	0.0135
739.2315	-0.0015
739.4089	0.0021
739.5863	0.0048
739.7636	-0.0053
739.9409	-0.0033
740.1182	0.0039
740.2955	-0.0004
740.4728	0.0027
740.65	-0.0026
740.8272	-0.0108
741.0044	0
741.1816	-0.0037
741.3588	-0.0044
741.5359	-0.0032
741.7131	-0.0169
741.8902	-0.0055
742.0673	-0.0077
742.2444	-0.0026
742.4214	-0.0154
742.5985	-0.008
742.7755	-0.0129
742.9525	-0.0153
743.1295	-0.0046
743.3064	-0.0108
743.4834	-0.0037
743.6603	-0.0121
743.8372	-0.0114
744.0141	-0.0052
744.191	0.0011
744.3678	-0.0033
744.5446	0.0035
744.7215	0.0094
744.8982	-0.0051
745.075	-0.0158
745.2518	-0.0009
745.4285	-0.0038
745.6052	0.001
745.7819	-0.0065
745.9586	-0.0104
746.1353	-0.0034
746.3119	-0.0182
746.4885	-0.0126
746.6651	-0.0044
746.8417	-0.0004
747.0183	0.0018
747.1948	0.0041
747.3714	0.0035
747.5479	0.006
747.7244	-0.0031
747.9008	0.0086
748.0773	-0.0035
748.2537	0.0049
748.4301	-0.0064
748.6065	0.001
748.7829	0.0024
748.9593	-0.0131
749.1356	-0.0042
749.3119	0.003
749.4882	-0.0089
749.6645	-0.006
749.8408	-0.0033
750.017	-0.0009
750.1933	-0.0016
750.3695	-0.0094
750.5457	0.0036
750.7218	0.001
750.898	0.0087
751.0741	-0.0026
751.2502	-0.0049
751.4263	-0.008
751.6024	0.0006
751.7784	0.0073
751.9545	-0.0042
752.1305	-0.0031
752.3065	-0.009
752.4825	0.0026
752.6584	-0.0025
752.8344	-0.0087
753.0103	-0.0087
753.1862	-0.0113
753.3621	-0.013
753.5379	-0.0055
753.7138	-0.0045
753.8896	0.0025
754.0654	0.0076
754.2412	0.0163
754.417	0.01
754.5927	-0.0025
754.7685	-0.0009
754.9442	0.0037
755.1199	0.0158
755.2956	-0.0044
755.4712	0.0147
755.6469	0.0106
755.8225	-0.0033
755.9981	0.0096
756.1736	0.0114
756.3492	0.0022
756.5248	-0.0079
756.7003	0.0002
756.8758	0.0139
757.0513	-0.009
757.2267	-0.0009
757.4022	0.004
757.5776	-0.0106
757.753	0.0012
757.9284	-0.0124
758.1038	0.0171
758.2791	-0.0007
758.4545	-0.0133
758.6298	-0.004
758.8051	0.008
758.9803	-0.0054
759.1556	-0.0092
759.3308	-0.0091
759.506	-0.0009
759.6812	-0.0021
759.8564	0.0036
760.0316	0.0103
760.2067	0.0123
760.3819	0.0044
760.557	0.0133
760.732	0.0009
760.9071	-0.0054
761.0821	0.0033
761.2572	0.011
761.4322	0.003
761.6072	0.0035
761.7821	-0.0035
761.9571	0.01
762.132	0.0039
762.3069	-0.0078
762.4818	-0.0028
762.6567	-0.0075
762.8316	0.0059
763.0064	-0.0009
763.1812	0.0019
763.356	-0.0072
763.5308	0.0028
763.7055	0.0026
763.8803	0.0032
764.055	0.0058
764.2297	-0.0024
764.4044	-0.0068
764.579	-0.0048
764.7537	0.0013
764.9283	-0.0036
765.1029	-0.0054
765.2775	-0.006
765.4521	-0.0002
765.6266	-0.002
765.8011	0.0008
765.9756	-0.0025
766.1501	0.0053
766.3246	0.0011
766.4991	-0.0044
766.6735	0
766.8479	-0.0094
767.0223	0.0061
767.1967	-0.0053
767.371	0.0028
767.5454	-0.0049
767.7197	-0.0032
767.894	-0.0073
768.0683	-0.01
768.2425	-0.0037
768.4168	-0.0047
768.591	0.0001
768.7652	-0
768.9394	-0.0013
769.1135	-0.0003
769.2877	0.0045
769.4618	0.0027
769.6359	-0.003
769.81	0.0025
769.984	0.0012
770.1581	0.003
770.3321	0.0029
770.5061	0.0091
770.6801	0.0054
770.8541	0.0078
771.028	0.0039
771.202	-0.0054
771.3759	0.0068
771.5498	-0.0014
771.7236	0.0085
771.8975	0.0034
772.0713	-0.0003
772.2451	0.0012
772.4189	0.0151
772.5927	0.0066
772.7665	-0.0026
772.9402	0.0023
773.1139	0.0098
773.2876	0.0021
773.4613	0.0147
773.635	0.01
773.8086	0.0021
773.9822	-0.0049
774.1558	0.0199
774.3294	-0.011
774.503	0.002
774.6765	0.0046
774.8501	0.0048
775.0236	0.0065
775.1971	0.008
775.3705	-0.0126
775.544	0.0099
775.7174	-0.0012
775.8908	-0.0095
776.0642	-0.0173
776.2376	-0.0086
776.4109	-0.0009
776.5843	-0.0077
776.7576	0.0015
776.9309	0.0099
777.1041	0.0114
777.2774	0.0175
777.4506	-0.0174
777.6238	-0.0025
777.797	-0.0092
777.9702	0.0044
778.1434	-0.0081
778.3165	-0.012
778.4896	-0.0027
778.6627	0.0094
778.8358	0.001
779.0089	-0.0061
779.1819	-0.009
779.3549	0.0145
779.5279	0.0101
779.7009	-0.0079
779.8739	-0.0029
780.0468	0.005
780.2197	-0.0056
780.3926	-0.0029
780.5655	-0.0034
780.7384	-0.0078
780.9112	0.0032
781.0841	-0.0124
781.2569	-0.0026
781.4297	0.0021
781.6024	0.0002
781.7752	0.0152
781.9479	0.0024
782.1206	0.0012
782.2933	0.0024
782.466	0.0006
782.6386	-0.0024
782.8113	0.002
782.9839	0.0099
783.1565	0.0091
783.329	-0.0015
783.5016	0.0155
783.6741	-0.0064
783.8466	-0.0178
784.0191	0.0136
784.1916	-0.0042
784.3641	0.0154
784.5365	-0.0011
784.7089	-0.0175
784.8813	-0.0086
785.0537	-0.0111
785.2261	-0.0003
785.3984	-0.0202
785.5707	-0.0036
785.743	0.0014
785.9153	-0.0112
786.0876	-0.0022
786.2598	0.0011
786.432	-0.0068
786.6042	0.0151
786.7764	0.0014
786.9486	0.0002
787.1207	-0.0098
787.2928	0.0145
787.4649	0.0051
787.637	0.0029
787.8091	0.0011
787.9811	-0.0018
788.1532	-0.011
788.3252	0.012
788.4972	-0.0008
788.6691	0.0009
788.8411	0.0034
789.013	-0.0101
789.1849	-0.0014
789.3568	0.0002
789.5287	0.0017
789.7005	0.0038
789.8723	-0.0035
790.0442	0.0194
790.2159	0.0054
790.3877	-0.0074
790.5595	-0.0071
790.7312	-0.0017
790.9029	-0.0082
791.0746	-0.0075
791.2463	-0.0007
791.4179	-0.0086
791.5896	-0.0153
791.7612	-0.0072
791.9328	-0.0102
792.1044	-0.0033
792.2759	-0.0126
792.4474	-0.02
792.619	-0.0007
792.7905	-0.0032
792.9619	0.0039
793.1334	0.0082
793.3048	0.0077
793.4762	-0.0019
793.6476	-0.0007
793.819	-0.0149
793.9904	0.0086
794.1617	-0.0142
794.333	-0.0131
794.5043	-0.008
794.6756	-0.0089
794.8469	-0.0134
795.0181	0.0055
795.1893	-0.0112
795.3605	0.0105
795.5317	-0.0066
795.7029	0.0001
795.874	0.0064
796.0452	-0.0016
796.2163	-0.001
796.3873	0.0081
796.5584	0.0019
796.7294	0.0035
796.9005	0.0246
797.0715	0.0006
797.2425	-0.0199
797.4134	0.0039
797.5844	-0.0013
797.7553	-0.0116
797.9262	0.0017
798.0971	-0.0165
798.2679	-0.0112
798.4388	-0.0003
798.6096	0.0026
798.7804	0.0035
798.9512	-0.0038
799.122	0.0001
799.2927	-0.0001
799.4635	0.0159
799.6342	-0.0232
799.8049	-0.011
799.9755	-0.0042
800.1462	0.0073
800.3168	0.0079
800.4874	0.012
800.658	0.0272
800.8286	0.0022
800.9991	0.0075
801.1696	0.0072
801.3402	0.0026
801.5106	0.0017
801.6811	-0.0019
801.8516	0.0207
802.022	-0.0052
802.1924	0.0065
802.3628	0.015
802.5332	0.0032
802.7035	0.0216
802.8739	-0.0022
803.0442	0.0069
803.2145	0.0204
803.3847	-0.007
803.555	-0.006
803.7252	-0.0169
803.8954	-0.0091
804.0656	-0.0083
804.2358	0.0047
804.4059	0.0129
804.5761	-0.0166
804.7462	0.0074
804.9163	-0.0184
805.0864	-0.024
805.2564	-0.0083
805.4264	-0.0064
805.5965	-0.02
805.7665	0.0014
805.9364	-0.0001
806.1064	0.0213
806.2763	0.0038
806.4462	0.0226
806.6161	-0.0014
806.786	0.0202
806.9559	0.0044
807.1257	0.0048
807.2955	0.012
807.4653	0.0026
807.6351	0.0042
807.8048	-0.0269
807.9746	0.0063
808.1443	-0.0085
808.314	-0.0115
808.4837	-0.0129
808.6533	0.0032
808.8229	0.0144
808.9926	0.0048
809.1622	-0.0072
809.3317	-0.0187
809.5013	0.0031
809.6708	0.0068
809.8403	0.0124
810.0098	-0.0097
810.1793	-0.0106
810.3488	-0.0069
810.5182	-0.0191
810.6876	0.0106
810.857	-0.02
811.0264	0.0106
811.1958	0.0043
811.3651	0.003
811.5344	-0.0121
811.7037	-0.0012
811.873	-0.0001
812.0422	-0.0082
812.2115	-0.0036
812.3807	-0.032
812.5499	0.0066
812.7191	-0.0044
812.8882	-0.0016
813.0574	-0.0132
813.2265	0.0015
813.3956	-0.0063
813.5646	-0.0233
813.7337	-0.0139
813.9027	0.005
814.0718	-0.0001
814.2407	0.0023
814.4097	-0.0103
814.5787	-0.003
814.7476	0.0038
814.9165	-0.0029
815.0854	-0.0356
815.2543	-0.0176
815.4232	-0.0225
815.592	0.016
815.7608	-0.0164
815.9296	-0.0013
816.0984	-0.0057
816.2671	-0.0046
816.4359	-0.0121
816.6046	-0.0161
816.7733	0.0035
816.942	-0.0171
817.1106	0.0105
817.2793	-0.0218
817.4479	0.0038
817.6165	0.0107
817.785	-0.0129
817.9536	-0.0219
818.1221	-0.0175
818.2906	0.0079
818.4591	-0.0212
818.6276	-0.0283
818.7961	-0.0202
818.9645	0.0233
819.1329	-0.0005
819.3013	0.0125
819.4697	-0.003
819.638	-0.0166
819.8064	-0.0046
819.9747	-0.0159
820.143	-0.0077
820.3113	-0.0187
820.4795	-0.0023
820.6477	-0.0036
820.816	-0.0023
820.9842	-0.008
821.1523	-0.0027
821.3205	-0.0124
821.4886	0.0082
821.6567	0.0241
821.8248	0.0107
821.9929	0.0279
822.1609	0.0025
822.329	0.0233
822.497	0.0112
822.665	-0.0134
822.833	-0.0415
823.0009	-0.0069
823.1688	0.0024
823.3367	0.0033
823.5046	0.0118
823.6725	0.0255
823.8404	-0.0092
824.0082	-0.0002
824.176	0.0026
824.3438	-0.0104
824.5116	-0.0313
824.6793	0.0119
824.847	0.0056
825.0147	0.0084
825.1824	0.0106
825.3501	0.0038
825.5177	-0.0197
825.6854	-0.01
825.853	0.0116
826.0206	-0.0122
826.1881	0.0227
826.3557	-0.0021
826.5232	0.0188
826.6907	-0.0459
826.8582	-0.0366
827.0257	-0.0466
827.1931	0.0007
827.3605	0.0061
827.528	-0.0108
827.6953	-0.0056
827.8627	-0.0131
828.03	0.0424
828.1974	-0.0049
828.3647	-0.0344
828.532	-0.0105
828.6992	0.0047
828.8665	-0.0106
829.0337	-0.0281
829.2009	0.0058
829.3681	0.0008
829.5352	0.0263
829.7024	-0.0202
829.8695	-0.0569
830.0366	0.0537
830.2037	-0.0192
830.3707	0.0148
830.5378	0.0046
830.7048	0.003
830.8718	-0.0276
831.0388	0.0026
831.2057	0.0193
831.3727	-0.009
831.5396	-0.024
831.7065	-0.0205
831.8734	0.0112
832.0402	-0.0097
832.2071	-0.0233
832.3739	-0.0254
832.5407	0.0332
832.7075	-0.031
832.8742	-0.0189
833.041	-0.0102
833.2077	-0.0415
833.3744	-0.0114
833.541	-0.0139
833.7077	-0.0216
833.8743	-0.0325
834.0409	-0.007
834.2075	0.0041
834.3741	-0.0237
834.5407	-0.0072
834.7072	-0.0047
834.8737	0.0124
835.0402	0.001
835.2067	0.026
835.3731	0.011
835.5395	0.0042
835.706	0.0222
835.8723	-0.0096
836.0387	-0.013
836.2051	-0.0344
836.3714	-0.0044
836.5377	-0.0315
836.704	-0.045
836.8703	-0.0148
837.0365	0.0004
837.2027	-0.0116
837.3689	0.016
837.5351	-0.0452
837.7013	-0.0163
837.8674	-0.0569
838.0335	-0.013
838.1997	-0.0124
838.3657	-0.0252
838.5318	-0.0373
838.6978	0.0263
838.8639	0.028
839.0299	0.0308
839.1958	-0.0051
839.3618	0.0297
839.5277	-0.0081
839.6937	-0.0142
839.8596	-0.0076
840.0254	0.0269
840.1913	-0.0061
840.3571	0.0285
840.523	-0.0237
840.6888	-0.007
840.8545	-0.0373
841.0203	0.0075
841.186	-0.0512
841.3517	0.0077
841.5174	0.0057
841.6831	-0.0494
841.8488	0.0041
842.0144	0.0116
842.18	0.0094
842.3456	0.064
842.5112	0.0025
842.6767	-0.0299
842.8422	-0.0461
843.0077	-0.0322
843.1732	-0.08
843.3387	-0.0597
843.5042	-0.0563
843.6696	0.0067
843.835	-0.0185
844.0004	0.0083
844.1657	0.0066
844.3311	0.0165
844.4964	-0.0849
844.6617	0.0062
844.827	-0.0176
844.9923	-0.025
845.1575	0.0078
845.3227	0.0006
845.4879	-0.0382
845.6531	-0.057
845.8183	-0.0875
845.9834	-0.0201
846.1485	0.0116
846.3136	-0.0168
846.4787	-0.1493
846.6438	0.0662
846.8088	-0.0467
846.9738	-0.0727
847.1388	-0.02
847.3038	-0.0599
847.4687	-0.1531
847.6337	-0.0342
847.7986	-0.0435
847.9635	-0.0571
848.1284	0.0289
848.2932	0.0149
848.458	0.0077
848.6228	0.0077
848.7876	0.0498
848.9524	-0.0572
849.1172	-0.1003
849.2819	-0.0049
849.4466	-0.1475
849.6113	-0.118
849.7759	-0.0518
849.9406	-0.0127
850.1052	0.0137
850.2698	-0.0084
850.4344	-0.0613
850.599	-0.0627
850.7635	0.0146
850.928	-0.0052
851.0925	0.0247
851.257	0.036
851.4215	-0.0023
851.5859	-0.0054
851.7503	-0.0289
851.9147	0.0211
852.0791	-0.1118
852.2434	-0.0266
852.4078	0.0426
852.5721	0.0207
852.7364	-0.094
852.9007	-0.0706
853.0649	-0.0812
853.2291	0.0012
853.3934	-0.0592
853.5575	0.0064
853.7217	-0.0123
853.8859	-0.1906
854.05	-0.1145
854.2141	-0.0337
854.3782	-0.1064
854.5423	-0.1636
854.7063	0.0954
854.8703	-0.0069
855.0343	-0.1621
855.1983	-0.0853
855.3623	0.2163
855.5262	-0.0554
855.6901	-0.0728
855.854	-0.0328
856.0179	-0.0491
856.1818	0.0444
856.3456	-0.076
856.5094	-0.1849
856.6732	-0.1141
856.837	-0.0658
857.0008	0.0587
857.1645	-0.0864
857.3282	-0.0912
857.4919	0.0597
857.6556	0.1358
857.8192	-0.0569
857.9828	-0.0367
858.1465	0.0303
858.31	-0.1758
858.4736	-0.0165
858.6372	-0.3098
858.8007	-0.1741
858.9642	-0.0068
859.1277	0.0595
859.2911	0.0311
859.4546	0.0372
859.618	-0.5038
859.7814	-0.0401
859.9448	0.1218
860.1081	-0.0428
860.2715	0.0561
860.4348	-0.1021
860.5981	-0.034
860.7614	0.0341
860.9246	0.1621
861.0879	-0.1947
861.2511	0.2651
861.4143	-0.0545
861.5774	0.2731
861.7406	-0.1757
861.9037	-0.0175
862.0668	-0.1033
862.2299	-0.2647
862.393	-0.514
862.556	0.0337
862.7191	-0.4538
862.8821	-0.0404
863.0451	0.5064
863.208	0.1004
863.371	-0.1818
863.5339	-0.4081
863.6968	-0.04
863.8597	-0.0276
864.0225	0.0213
864.1854	-0.1279
864.3482	1.3365
864.511	0.0486
864.6737	0.0449
864.8365	0.4709
864.9992	-0.1395
865.1619	-0.3413
865.3246	0.0874
865.4873	0.1624
865.65	-0.2193
865.8126	-0.1541
865.9752	0.0027
866.1378	0.1164
866.3004	0.0677
866.4629	0.1968
866.6254	-0.2382
866.7879	-0.1691
866.9504	-0.1574
867.1129	-0
867.2753	0.1153
867.4377	0.2366
867.6001	-0.478
867.7625	-0.0618
867.9249	-0.0258
868.0872	-0.2063
868.2495	0.2282
868.4118	0.3828
868.5741	-0
868.7363	-0.0357
868.8986	-0.056
869.0608	0.0384
869.223	0.3103
869.3851	-0
869.5473	-0.1282
869.7094	0.182
869.8715	-0
870.0336	-1.1425
870.1957	-0.52
870.3577	-0
870.5197	-0
870.6817	-0.3044
870.8437	-0.0473
871.0057	-0
871.1676	-0
871.3295	-0.4003
871.4914	-0
871.6533	-0.3285
871.8151	-0.278
871.977	-0
872.1388	-0
872.3006	-0
872.4623	0.6767
872.6241	0.2996
872.7858	-0.1018
872.9475	-0.1094
873.1092	-0.2024
873.2709	0.7183
873.4325	0.0455
873.5941	-0.1471
873.7557	-0.4747
873.9173	-0
874.0789	-0.2231
874.2404	-0.3665
874.4019	0.2269
874.5634	-0.0187
874.7249	0.2995
874.8863	-0
875.0478	0.2571
875.2092	-0
875.3706	0.5424
875.5319	-0.9169
875.6933	1.2336
875.8546	-0.2447
876.0159	-0
876.1772	0.8231
876.3385	-0
876.4997	0.1067
876.6609	-0.5856
876.8221	0.9098
876.9833	-0.1887
877.1445	-0
877.3056	0.3502
877.4667	-0.5109
877.6278	-0
877.7889	-0.7675
877.9499	-0
878.111	-0.4531
878.272	-1.3089
878.433	-0
878.5939	0.8522
878.7549	-0.0401
878.9158	-1.0324
879.0767	-0
879.2376	-0
879.3984	-0.3434
879.5593	-0
879.7201	-0.1464
879.8809	-0.6524
880.0417	-0.5488
880.2024	0.9819
880.3632	-0
880.5239	0.2098
880.6846	-0
880.8452	-2.6684
881.0059	-1.7356
881.1665	0.0061
881.3271	0.0831
881.4877	-0.1592
881.6483	-0.6414
881.8088	-0.3959
881.9693	0.1898
882.1298	0.1898
882.2903	0.1898
