Data from MonoPyChalIsomerACN10uM410nmA_Absorbance_14-53-31-673.txt Node
Date: Fri Jul 05 14:53:31 BST 2024
User: LASERRRRR
Spectrometer: FLMT03099
Trigger mode: 0
Integration Time (sec): 1.000000E-1
Scans to average: 1
Electric dark correction enabled: true
Nonlinearity correction enabled: false
Boxcar width: 0
XAxis mode: Wavelengths
Number of Pixels in Spectrum: 3648
>>>>>Begin Spectral Data<<<<<
179.3399	-0.2296
179.5586	-0.2296
179.7771	-0.2296
179.9957	-0.3022
180.2143	-0.2502
180.4329	0.1183
180.6514	0.423
180.8699	-0
181.0885	-0.4275
181.307	0.007
181.5255	-1.3696
181.744	-0.6099
181.9625	0.0653
182.181	-0
182.3994	0.6317
182.6179	-0.3667
182.8363	-0.1412
183.0547	0.1192
183.2732	-0.0771
183.4916	0.1713
183.71	0.2813
183.9284	-0.0681
184.1467	0.0704
184.3651	-0.0186
184.5835	-0.1446
184.8018	0.2888
185.0201	-0.0373
185.2385	-0.1038
185.4568	0.0292
185.6751	0.0237
185.8934	0.2894
186.1117	0.0191
186.3299	0.0668
186.5482	-0.0344
186.7664	-0.193
186.9847	0.0431
187.2029	0.0374
187.4211	0.3037
187.6393	0.5139
187.8575	0.1816
188.0757	0.2167
188.2939	0.1922
188.512	-0.0079
188.7302	0.0837
188.9483	-0.0063
189.1665	0.2598
189.3846	0.3823
189.6027	0.1002
189.8208	0.2095
190.0389	0.2751
190.257	0.0779
190.475	0.294
190.6931	0.1584
190.9111	0.2726
191.1292	0.1493
191.3472	0.3974
191.5652	0.4031
191.7832	0.3167
192.0012	0.7721
192.2192	0.3557
192.4371	0.4499
192.6551	0.424
192.873	0.5248
193.091	0.3407
193.3089	0.2901
193.5268	0.5663
193.7447	0.5158
193.9626	0.5536
194.1805	0.5551
194.3984	0.6511
194.6162	0.6778
194.8341	0.7759
195.0519	0.5453
195.2697	0.7745
195.4875	0.6221
195.7054	0.5155
195.9231	0.834
196.1409	0.9528
196.3587	0.5652
196.5765	0.5473
196.7942	0.4284
197.012	0.6193
197.2297	0.6105
197.4474	0.6425
197.6651	0.6694
197.8828	0.7768
198.1005	0.4705
198.3182	0.611
198.5358	0.8572
198.7535	0.5334
198.9711	0.5844
199.1888	0.6172
199.4064	0.6934
199.624	0.549
199.8416	0.6629
200.0592	0.6442
200.2767	0.704
200.4943	0.5953
200.7119	0.7815
200.9294	0.6515
201.1469	0.505
201.3645	0.5227
201.582	0.6398
201.7995	0.6097
202.017	0.6285
202.2344	0.5904
202.4519	0.6935
202.6694	0.6464
202.8868	0.5702
203.1042	0.7402
203.3217	0.7414
203.5391	0.5941
203.7565	0.5502
203.9739	0.5752
204.1913	0.5518
204.4086	0.6259
204.626	0.6858
204.8433	0.6566
205.0607	0.6237
205.278	0.5733
205.4953	0.5652
205.7126	0.6941
205.9299	0.7262
206.1472	0.8046
206.3644	0.7174
206.5817	0.645
206.7989	0.7258
207.0162	0.5957
207.2334	0.6358
207.4506	0.6661
207.6678	0.6388
207.885	0.7073
208.1022	0.6393
208.3194	0.767
208.5365	0.692
208.7537	0.6428
208.9708	0.6099
209.1879	0.5898
209.405	0.6591
209.6222	0.6704
209.8392	0.6241
210.0563	0.626
210.2734	0.7035
210.4905	0.5569
210.7075	0.6308
210.9245	0.5627
211.1416	0.6356
211.3586	0.6559
211.5756	0.5835
211.7926	0.5755
212.0096	0.5898
212.2265	0.5578
212.4435	0.5666
212.6604	0.6129
212.8774	0.6089
213.0943	0.5763
213.3112	0.5537
213.5281	0.53
213.745	0.4849
213.9619	0.4941
214.1788	0.4877
214.3956	0.4833
214.6125	0.4626
214.8293	0.4154
215.0461	0.4375
215.2629	0.4508
215.4798	0.4578
215.6965	0.4192
215.9133	0.4252
216.1301	0.4196
216.3469	0.4282
216.5636	0.3755
216.7803	0.4045
216.9971	0.4083
217.2138	0.3927
217.4305	0.3605
217.6472	0.382
217.8639	0.3659
218.0805	0.3497
218.2972	0.3489
218.5138	0.3093
218.7305	0.3088
218.9471	0.2848
219.1637	0.2834
219.3803	0.2805
219.5969	0.2597
219.8135	0.2238
220.0301	0.259
220.2466	0.2799
220.4632	0.2615
220.6797	0.2114
220.8962	0.2478
221.1127	0.2634
221.3292	0.2339
221.5457	0.218
221.7622	0.2324
221.9787	0.2387
222.1951	0.2464
222.4116	0.2282
222.628	0.2586
222.8444	0.2431
223.0608	0.2333
223.2772	0.2268
223.4936	0.2422
223.71	0.242
223.9264	0.2462
224.1427	0.2487
224.3591	0.2376
224.5754	0.2612
224.7917	0.2615
225.008	0.2678
225.2243	0.2587
225.4406	0.2738
225.6569	0.2579
225.8732	0.2369
226.0894	0.2456
226.3057	0.2472
226.5219	0.2674
226.7381	0.2669
226.9543	0.2674
227.1705	0.2556
227.3867	0.2743
227.6029	0.2848
227.8191	0.2997
228.0352	0.2904
228.2513	0.3063
228.4675	0.3066
228.6836	0.2992
228.8997	0.2965
229.1158	0.2995
229.3319	0.2906
229.548	0.3165
229.764	0.3155
229.9801	0.3205
230.1961	0.3065
230.4121	0.3063
230.6282	0.3477
230.8442	0.3148
231.0602	0.3293
231.2761	0.3306
231.4921	0.3301
231.7081	0.3385
231.924	0.3321
232.14	0.3633
232.3559	0.3303
232.5718	0.3538
232.7877	0.3376
233.0036	0.3504
233.2195	0.343
233.4353	0.3552
233.6512	0.3491
233.867	0.3461
234.0829	0.3495
234.2987	0.3512
234.5145	0.368
234.7303	0.359
234.9461	0.3743
235.1619	0.3977
235.3776	0.3611
235.5934	0.3646
235.8091	0.3344
236.0249	0.3665
236.2406	0.377
236.4563	0.3751
236.672	0.3749
236.8877	0.3762
237.1034	0.3851
237.319	0.3746
237.5347	0.3864
237.7503	0.3983
237.966	0.3928
238.1816	0.409
238.3972	0.3956
238.6128	0.3891
238.8284	0.3789
239.0439	0.3857
239.2595	0.4019
239.475	0.4052
239.6906	0.4201
239.9061	0.3893
240.1216	0.3937
240.3371	0.402
240.5526	0.406
240.7681	0.4277
240.9836	0.3763
241.199	0.3904
241.4145	0.3979
241.6299	0.3825
241.8453	0.3895
242.0607	0.3821
242.2761	0.3733
242.4915	0.3815
242.7069	0.3611
242.9223	0.3714
243.1376	0.3783
243.353	0.3546
243.5683	0.3513
243.7836	0.3487
243.9989	0.3597
244.2142	0.3237
244.4295	0.3448
244.6448	0.3287
244.86	0.3191
245.0753	0.2969
245.2905	0.3028
245.5057	0.3051
245.721	0.287
245.9362	0.2908
246.1514	0.2816
246.3665	0.2751
246.5817	0.2772
246.7969	0.2654
247.012	0.2443
247.2271	0.2614
247.4423	0.2594
247.6574	0.2608
247.8725	0.2597
248.0876	0.239
248.3026	0.2291
248.5177	0.2433
248.7328	0.211
248.9478	0.2261
249.1628	0.2277
249.3779	0.2253
249.5929	0.212
249.8079	0.2386
250.0228	0.2022
250.2378	0.2029
250.4528	0.2174
250.6677	0.1975
250.8827	0.1995
251.0976	0.201
251.3125	0.1996
251.5274	0.1908
251.7423	0.189
251.9572	0.1867
252.172	0.1817
252.3869	0.1843
252.6017	0.1811
252.8166	0.1817
253.0314	0.1716
253.2462	0.1777
253.461	0.1941
253.6758	0.1724
253.8906	0.1762
254.1053	0.1681
254.3201	0.1751
254.5348	0.1814
254.7496	0.1911
254.9643	0.1658
255.179	0.1593
255.3937	0.1703
255.6083	0.1749
255.823	0.1659
256.0377	0.1644
256.2523	0.1713
256.467	0.1443
256.6816	0.1613
256.8962	0.1568
257.1108	0.1575
257.3254	0.1716
257.54	0.1448
257.7545	0.1729
257.9691	0.1663
258.1836	0.1646
258.3981	0.1804
258.6127	0.1723
258.8272	0.1623
259.0417	0.1683
259.2561	0.16
259.4706	0.1654
259.6851	0.1556
259.8995	0.1667
260.114	0.1695
260.3284	0.1729
260.5428	0.1547
260.7572	0.1793
260.9716	0.1569
261.186	0.1557
261.4003	0.1624
261.6147	0.1659
261.829	0.1548
262.0433	0.1499
262.2577	0.1547
262.472	0.1642
262.6863	0.1671
262.9005	0.1649
263.1148	0.1701
263.3291	0.1494
263.5433	0.1746
263.7576	0.1589
263.9718	0.1657
264.186	0.1686
264.4002	0.1686
264.6144	0.1647
264.8286	0.1813
265.0427	0.1708
265.2569	0.1692
265.471	0.1547
265.6851	0.1574
265.8993	0.1721
266.1134	0.152
266.3275	0.1699
266.5415	0.1641
266.7556	0.1623
266.9697	0.1751
267.1837	0.1771
267.3978	0.1692
267.6118	0.1743
267.8258	0.1932
268.0398	0.1604
268.2538	0.1722
268.4677	0.1681
268.6817	0.1586
268.8957	0.183
269.1096	0.1719
269.3235	0.1748
269.5374	0.1703
269.7514	0.1708
269.9652	0.1636
270.1791	0.1471
270.393	0.1743
270.6068	0.1665
270.8207	0.1643
271.0345	0.1542
271.2483	0.1568
271.4622	0.1654
271.676	0.169
271.8897	0.157
272.1035	0.1533
272.3173	0.1646
272.531	0.1642
272.7448	0.1538
272.9585	0.166
273.1722	0.1571
273.3859	0.166
273.5996	0.1649
273.8133	0.1686
274.0269	0.1632
274.2406	0.1567
274.4542	0.1639
274.6679	0.1559
274.8815	0.1661
275.0951	0.1592
275.3087	0.1734
275.5223	0.1835
275.7358	0.163
275.9494	0.1677
276.1629	0.1656
276.3765	0.1697
276.59	0.1747
276.8035	0.1679
277.017	0.1544
277.2305	0.1554
277.444	0.1831
277.6574	0.1637
277.8709	0.1679
278.0843	0.1586
278.2978	0.1615
278.5112	0.1632
278.7246	0.1641
278.938	0.1665
279.1513	0.1776
279.3647	0.1938
279.5781	0.1677
279.7914	0.1569
280.0047	0.1757
280.2181	0.1629
280.4314	0.1744
280.6447	0.1706
280.8579	0.1732
281.0712	0.1723
281.2845	0.1743
281.4977	0.1698
281.711	0.159
281.9242	0.1619
282.1374	0.17
282.3506	0.1629
282.5638	0.1642
282.7769	0.1714
282.9901	0.1542
283.2033	0.1661
283.4164	0.1728
283.6295	0.167
283.8426	0.1569
284.0557	0.168
284.2688	0.1853
284.4819	0.1723
284.695	0.1622
284.908	0.1647
285.1211	0.1614
285.3341	0.1677
285.5471	0.1666
285.7601	0.168
285.9731	0.1531
286.1861	0.1623
286.3991	0.1738
286.612	0.172
286.825	0.1473
287.0379	0.1536
287.2508	0.1511
287.4637	0.1615
287.6766	0.1451
287.8895	0.1634
288.1024	0.1653
288.3152	0.1568
288.5281	0.1482
288.7409	0.1641
288.9538	0.1465
289.1666	0.1554
289.3794	0.153
289.5922	0.1539
289.8049	0.1551
290.0177	0.1592
290.2304	0.1527
290.4432	0.1537
290.6559	0.1534
290.8686	0.1525
291.0813	0.147
291.294	0.1515
291.5067	0.1527
291.7194	0.1612
291.932	0.1566
292.1447	0.1537
292.3573	0.1319
292.5699	0.1559
292.7825	0.1562
292.9951	0.1399
293.2077	0.155
293.4203	0.1489
293.6328	0.1324
293.8454	0.153
294.0579	0.1502
294.2704	0.1516
294.4829	0.1384
294.6954	0.1554
294.9079	0.1442
295.1204	0.1529
295.3328	0.1448
295.5453	0.1456
295.7577	0.1419
295.9701	0.1341
296.1825	0.1574
296.3949	0.1346
296.6073	0.1414
296.8197	0.1475
297.0321	0.1517
297.2444	0.1343
297.4567	0.1483
297.6691	0.1566
297.8814	0.1337
298.0937	0.1516
298.306	0.1506
298.5182	0.1339
298.7305	0.1398
298.9428	0.1321
299.155	0.1472
299.3672	0.1278
299.5794	0.132
299.7916	0.1233
300.0038	0.1464
300.216	0.1456
300.4282	0.139
300.6403	0.1355
300.8525	0.1471
301.0646	0.1326
301.2767	0.1445
301.4888	0.1375
301.7009	0.1351
301.913	0.1418
302.125	0.1475
302.3371	0.1389
302.5491	0.1448
302.7612	0.145
302.9732	0.1471
303.1852	0.1461
303.3972	0.1344
303.6092	0.1407
303.8211	0.1262
304.0331	0.134
304.245	0.1321
304.457	0.1252
304.6689	0.1361
304.8808	0.137
305.0927	0.1253
305.3046	0.1363
305.5164	0.1401
305.7283	0.1197
305.9401	0.1318
306.152	0.1342
306.3638	0.1325
306.5756	0.1388
306.7874	0.1364
306.9992	0.135
307.2109	0.1305
307.4227	0.119
307.6344	0.1305
307.8462	0.1284
308.0579	0.1234
308.2696	0.1236
308.4813	0.1193
308.693	0.1206
308.9046	0.1201
309.1163	0.1246
309.328	0.12
309.5396	0.1184
309.7512	0.1139
309.9628	0.1148
310.1744	0.12
310.386	0.1145
310.5976	0.1172
310.8091	0.1274
311.0207	0.1226
311.2322	0.1182
311.4437	0.1083
311.6552	0.1174
311.8667	0.121
312.0782	0.104
312.2897	0.1025
312.5012	0.113
312.7126	0.1188
312.924	0.1117
313.1355	0.1137
313.3469	0.1074
313.5583	0.1157
313.7696	0.1125
313.981	0.1163
314.1924	0.105
314.4037	0.1074
314.6151	0.1157
314.8264	0.1037
315.0377	0.1131
315.249	0.1152
315.4603	0.1209
315.6716	0.1138
315.8828	0.1078
316.0941	0.103
316.3053	0.0968
316.5165	0.1016
316.7277	0.1022
316.9389	0.1153
317.1501	0.1149
317.3613	0.108
317.5724	0.0974
317.7836	0.1212
317.9947	0.1068
318.2058	0.1029
318.417	0.0972
318.6281	0.1008
318.8391	0.1052
319.0502	0.1041
319.2613	0.1045
319.4723	0.1084
319.6834	0.1092
319.8944	0.0942
320.1054	0.1122
320.3164	0.1115
320.5274	0.1144
320.7383	0.1076
320.9493	0.1089
321.1602	0.1145
321.3712	0.1044
321.5821	0.1204
321.793	0.1154
322.0039	0.1205
322.2148	0.1042
322.4257	0.1155
322.6365	0.1271
322.8474	0.1241
323.0582	0.1207
323.269	0.1153
323.4798	0.1235
323.6906	0.1199
323.9014	0.1156
324.1122	0.1264
324.3229	0.1064
324.5337	0.1116
324.7444	0.116
324.9551	0.1342
325.1658	0.1275
325.3765	0.1191
325.5872	0.122
325.7979	0.1186
326.0085	0.1263
326.2192	0.1186
326.4298	0.1181
326.6404	0.1041
326.851	0.1165
327.0616	0.106
327.2722	0.1205
327.4828	0.1277
327.6933	0.1266
327.9039	0.1178
328.1144	0.1216
328.3249	0.1289
328.5354	0.1184
328.7459	0.1131
328.9564	0.1212
329.1669	0.1208
329.3773	0.1183
329.5878	0.1227
329.7982	0.1131
330.0086	0.1275
330.219	0.124
330.4294	0.1157
330.6398	0.1261
330.8502	0.1206
331.0605	0.1194
331.2708	0.1134
331.4812	0.1241
331.6915	0.1251
331.9018	0.12
332.1121	0.1111
332.3224	0.1145
332.5326	0.1205
332.7429	0.1224
332.9531	0.1385
333.1633	0.1158
333.3735	0.1168
333.5837	0.112
333.7939	0.1318
334.0041	0.1341
334.2143	0.1226
334.4244	0.1218
334.6346	0.1039
334.8447	0.1314
335.0548	0.112
335.2649	0.1256
335.475	0.126
335.685	0.1192
335.8951	0.1444
336.1051	0.115
336.3152	0.1324
336.5252	0.1167
336.7352	0.1359
336.9452	0.1151
337.1552	0.1297
337.3652	0.1126
337.5751	0.1304
337.7851	0.1341
337.995	0.1215
338.2049	0.1249
338.4148	0.1268
338.6247	0.1408
338.8346	0.1133
339.0445	0.1203
339.2543	0.1202
339.4642	0.1319
339.674	0.1215
339.8838	0.1252
340.0936	0.1222
340.3034	0.1453
340.5132	0.1276
340.7229	0.1356
340.9327	0.1271
341.1424	0.1322
341.3522	0.1404
341.5619	0.124
341.7716	0.1393
341.9813	0.1294
342.1909	0.1358
342.4006	0.1434
342.6102	0.1458
342.8199	0.1357
343.0295	0.1455
343.2391	0.1397
343.4487	0.1407
343.6583	0.131
343.8679	0.1379
344.0774	0.1399
344.287	0.1401
344.4965	0.1356
344.706	0.137
344.9155	0.1354
345.125	0.1345
345.3345	0.1386
345.544	0.134
345.7534	0.1452
345.9629	0.1431
346.1723	0.1348
346.3817	0.1381
346.5911	0.1368
346.8005	0.1429
347.0099	0.1376
347.2193	0.1333
347.4286	0.1308
347.638	0.1401
347.8473	0.1377
348.0566	0.1481
348.2659	0.1502
348.4752	0.1383
348.6845	0.1416
348.8937	0.1353
349.103	0.1577
349.3122	0.141
349.5214	0.1406
349.7306	0.1562
349.9398	0.1369
350.149	0.1501
350.3582	0.1444
350.5674	0.1553
350.7765	0.1447
350.9856	0.1345
351.1948	0.1414
351.4039	0.1294
351.613	0.1567
351.822	0.1593
352.0311	0.1496
352.2402	0.1485
352.4492	0.157
352.6582	0.1511
352.8672	0.1456
353.0762	0.1666
353.2852	0.1546
353.4942	0.1455
353.7032	0.1567
353.9121	0.1572
354.1211	0.1564
354.33	0.153
354.5389	0.1477
354.7478	0.1407
354.9567	0.1552
355.1655	0.141
355.3744	0.1602
355.5833	0.1555
355.7921	0.1695
356.0009	0.1639
356.2097	0.1644
356.4185	0.1535
356.6273	0.1502
356.8361	0.176
357.0448	0.1457
357.2536	0.1508
357.4623	0.155
357.671	0.1646
357.8797	0.1598
358.0884	0.1721
358.2971	0.173
358.5057	0.1566
358.7144	0.1821
358.923	0.1568
359.1316	0.1599
359.3402	0.1682
359.5488	0.1619
359.7574	0.1576
359.966	0.1796
360.1746	0.1715
360.3831	0.1763
360.5916	0.1629
360.8002	0.1646
361.0087	0.1877
361.2172	0.17
361.4256	0.1687
361.6341	0.1809
361.8426	0.1768
362.051	0.1742
362.2594	0.1696
362.4678	0.1668
362.6762	0.1889
362.8846	0.1787
363.093	0.1758
363.3014	0.1604
363.5097	0.1662
363.718	0.1678
363.9264	0.1769
364.1347	0.1757
364.343	0.1798
364.5513	0.1767
364.7595	0.1943
364.9678	0.1766
365.176	0.1905
365.3842	0.1909
365.5925	0.1787
365.8007	0.1699
366.0089	0.18
366.217	0.1778
366.4252	0.1746
366.6333	0.1945
366.8415	0.1748
367.0496	0.1757
367.2577	0.1892
367.4658	0.189
367.6739	0.1956
367.882	0.196
368.09	0.1858
368.2981	0.1893
368.5061	0.1921
368.7141	0.1861
368.9221	0.1945
369.1301	0.1846
369.3381	0.1934
369.5461	0.1921
369.754	0.1892
369.962	0.2094
370.1699	0.1817
370.3778	0.178
370.5857	0.1868
370.7936	0.1859
371.0015	0.1904
371.2093	0.1998
371.4172	0.1925
371.625	0.1844
371.8328	0.1946
372.0406	0.1877
372.2484	0.1988
372.4562	0.2024
372.664	0.185
372.8717	0.1922
373.0795	0.1699
373.2872	0.1864
373.4949	0.1774
373.7026	0.2044
373.9103	0.1936
374.118	0.1961
374.3256	0.1989
374.5333	0.1963
374.7409	0.1882
374.9485	0.2083
375.1561	0.1809
375.3637	0.2158
375.5713	0.2081
375.7789	0.1992
375.9864	0.203
376.194	0.1935
376.4015	0.2038
376.609	0.1918
376.8165	0.1808
377.024	0.1948
377.2315	0.1884
377.4389	0.1896
377.6464	0.2125
377.8538	0.2011
378.0612	0.1882
378.2686	0.2117
378.476	0.2049
378.6834	0.2155
378.8908	0.2012
379.0981	0.2007
379.3055	0.2046
379.5128	0.1989
379.7201	0.2083
379.9274	0.1827
380.1347	0.1992
380.342	0.2212
380.5492	0.2021
380.7565	0.1985
380.9637	0.2016
381.1709	0.2058
381.3781	0.2019
381.5853	0.215
381.7925	0.1915
381.9997	0.1977
382.2068	0.2244
382.4139	0.2086
382.6211	0.2015
382.8282	0.2054
383.0353	0.2019
383.2424	0.1998
383.4494	0.2176
383.6565	0.1818
383.8635	0.1976
384.0706	0.2063
384.2776	0.2006
384.4846	0.1884
384.6916	0.1988
384.8986	0.193
385.1055	0.2271
385.3125	0.197
385.5194	0.1894
385.7263	0.2033
385.9333	0.1914
386.1402	0.1968
386.347	0.2068
386.5539	0.1904
386.7608	0.2087
386.9676	0.1715
387.1744	0.1951
387.3813	0.1762
387.5881	0.2034
387.7948	0.1851
388.0016	0.1811
388.2084	0.1835
388.4151	0.1773
388.6219	0.2029
388.8286	0.1924
389.0353	0.2076
389.242	0.1915
389.4487	0.1972
389.6553	0.175
389.862	0.1691
390.0686	0.1868
390.2753	0.1996
390.4819	0.1893
390.6885	0.1696
390.8951	0.2004
391.1016	0.1838
391.3082	0.178
391.5147	0.1903
391.7213	0.1896
391.9278	0.1759
392.1343	0.1823
392.3408	0.1828
392.5473	0.1835
392.7537	0.1741
392.9602	0.1869
393.1666	0.1777
393.373	0.174
393.5794	0.1891
393.7858	0.1704
393.9922	0.1603
394.1986	0.1873
394.4049	0.1745
394.6113	0.1569
394.8176	0.1726
395.0239	0.1632
395.2302	0.154
395.4365	0.162
395.6428	0.1704
395.8491	0.1558
396.0553	0.165
396.2615	0.1583
396.4678	0.158
396.674	0.15
396.8802	0.1528
397.0863	0.1647
397.2925	0.1426
397.4987	0.1663
397.7048	0.1549
397.9109	0.1694
398.117	0.1495
398.3231	0.1641
398.5292	0.1634
398.7353	0.1587
398.9413	0.1625
399.1474	0.152
399.3534	0.1519
399.5594	0.1505
399.7654	0.1693
399.9714	0.1772
400.1774	0.1687
400.3833	0.1582
400.5893	0.1748
400.7952	0.1703
401.0011	0.1706
401.207	0.1791
401.4129	0.1564
401.6188	0.1631
401.8247	0.1683
402.0305	0.1338
402.2364	0.1517
402.4422	0.1683
402.648	0.1647
402.8538	0.1676
403.0596	0.1511
403.2654	0.1596
403.4711	0.1443
403.6768	0.1621
403.8826	0.1544
404.0883	0.1782
404.294	0.1518
404.4997	0.1651
404.7054	0.1486
404.911	0.1545
405.1167	0.1598
405.3223	0.157
405.5279	0.1752
405.7335	0.1694
405.9391	0.1781
406.1447	0.1465
406.3502	0.1738
406.5558	0.1582
406.7613	0.1557
406.9668	0.1607
407.1724	0.1625
407.3778	0.1528
407.5833	0.172
407.7888	0.1617
407.9942	0.1735
408.1997	0.1556
408.4051	0.1284
408.6105	0.1499
408.8159	0.1582
409.0213	0.1467
409.2267	0.1567
409.432	0.1401
409.6374	0.1374
409.8427	0.1409
410.048	0.1549
410.2533	0.1419
410.4586	0.1586
410.6639	0.1357
410.8691	0.1505
411.0744	0.147
411.2796	0.1406
411.4848	0.1468
411.69	0.14
411.8952	0.1727
412.1004	0.1309
412.3056	0.1644
412.5107	0.1318
412.7158	0.1677
412.921	0.1513
413.1261	0.1423
413.3312	0.1361
413.5362	0.1501
413.7413	0.1358
413.9464	0.14
414.1514	0.1522
414.3564	0.1419
414.5614	0.1366
414.7664	0.1602
414.9714	0.1613
415.1764	0.1389
415.3813	0.1628
415.5863	0.1581
415.7912	0.1537
415.9961	0.1442
416.201	0.1364
416.4059	0.1444
416.6108	0.141
416.8156	0.156
417.0205	0.149
417.2253	0.1354
417.4301	0.129
417.6349	0.147
417.8397	0.1428
418.0445	0.1553
418.2492	0.1442
418.454	0.149
418.6587	0.1472
418.8634	0.1362
419.0681	0.1231
419.2728	0.1417
419.4775	0.1405
419.6822	0.1426
419.8868	0.1128
420.0915	0.1436
420.2961	0.131
420.5007	0.1248
420.7053	0.1558
420.9099	0.1409
421.1144	0.1374
421.319	0.1342
421.5235	0.1326
421.728	0.1369
421.9325	0.1402
422.137	0.1365
422.3415	0.1397
422.546	0.125
422.7504	0.1386
422.9549	0.1409
423.1593	0.128
423.3637	0.1248
423.5681	0.1387
423.7725	0.1259
423.9769	0.1172
424.1812	0.13
424.3856	0.1086
424.5899	0.1225
424.7942	0.1232
424.9985	0.1184
425.2028	0.1063
425.4071	0.1487
425.6113	0.1228
425.8156	0.1187
426.0198	0.1296
426.224	0.1139
426.4282	0.1151
426.6324	0.122
426.8366	0.1235
427.0407	0.1262
427.2449	0.116
427.449	0.1142
427.6531	0.0985
427.8572	0.1134
428.0613	0.1054
428.2654	0.1047
428.4694	0.1072
428.6735	0.1221
428.8775	0.1313
429.0815	0.1189
429.2855	0.1035
429.4895	0.1212
429.6935	0.1053
429.8975	0.1082
430.1014	0.0969
430.3053	0.0991
430.5093	0.107
430.7132	0.0976
430.9171	0.0837
431.1209	0.1097
431.3248	0.087
431.5286	0.1003
431.7325	0.1052
431.9363	0.0941
432.1401	0.0983
432.3439	0.0832
432.5477	0.0818
432.7514	0.0751
432.9552	0.0985
433.1589	0.0731
433.3627	0.0767
433.5664	0.0896
433.7701	0.079
433.9737	0.0808
434.1774	0.088
434.3811	0.069
434.5847	0.0921
434.7883	0.0744
434.9919	0.074
435.1955	0.0737
435.3991	0.0719
435.6027	0.0777
435.8062	0.0785
436.0098	0.0623
436.2133	0.0735
436.4168	0.0654
436.6203	0.0686
436.8238	0.0676
437.0272	0.0634
437.2307	0.0698
437.4341	0.0707
437.6375	0.0718
437.841	0.0632
438.0443	0.0753
438.2477	0.0549
438.4511	0.0574
438.6545	0.0614
438.8578	0.0668
439.0611	0.0561
439.2644	0.0613
439.4677	0.0418
439.671	0.0606
439.8743	0.0565
440.0775	0.0519
440.2808	0.055
440.484	0.0389
440.6872	0.0403
440.8904	0.0353
441.0936	0.0644
441.2967	0.0415
441.4999	0.0535
441.703	0.0389
441.9062	0.0382
442.1093	0.0564
442.3124	0.042
442.5155	0.0234
442.7185	0.0425
442.9216	0.014
443.1246	0.058
443.3276	0.028
443.5307	0.033
443.7337	0.0434
443.9366	0.0475
444.1396	0.0416
444.3426	0.0425
444.5455	0.0393
444.7484	0.038
444.9513	0.0297
445.1542	0.0449
445.3571	0.0439
445.56	0.0409
445.7628	0.0211
445.9657	0.0279
446.1685	0.0307
446.3713	0.0357
446.5741	0.0286
446.7769	0.0004
446.9797	0.0343
447.1824	0.0341
447.3852	0.0257
447.5879	0.0329
447.7906	0.0518
447.9933	0.0235
448.196	0.0194
448.3986	0.031
448.6013	0.0219
448.8039	0.0061
449.0066	0.0293
449.2092	0.0264
449.4118	0.0303
449.6143	0.0123
449.8169	0.0244
450.0195	0.009
450.222	0.0003
450.4245	0.0188
450.627	0.0157
450.8295	0.0211
451.032	0.0049
451.2345	0.0212
451.4369	0.0204
451.6394	0.0187
451.8418	-0.0036
452.0442	0.006
452.2466	0.0174
452.449	0.0085
452.6513	0.0116
452.8537	0.0076
453.056	-0.008
453.2583	0.0093
453.4607	-0.0048
453.663	0.0175
453.8652	0.0214
454.0675	0.0103
454.2697	0.0065
454.472	0.0014
454.6742	0.006
454.8764	0.005
455.0786	0.0198
455.2808	0.0031
455.4829	0.0105
455.6851	-0.0036
455.8872	0.0155
456.0893	0.0204
456.2915	0.0061
456.4935	0.0098
456.6956	0.0022
456.8977	0.0209
457.0997	-0.0086
457.3018	0.0077
457.5038	0.0071
457.7058	0.0053
457.9078	-0.0087
458.1098	0.0168
458.3117	0.0119
458.5137	0.0108
458.7156	0.0011
458.9175	-0.0096
459.1194	0.0054
459.3213	-0.0007
459.5232	0.0021
459.725	-0.0096
459.9269	-0.0117
460.1287	-0.0126
460.3305	0.0164
460.5323	0.0115
460.7341	-0.0079
460.9359	0.0091
461.1376	0.0054
461.3394	-0.0064
461.5411	0.017
461.7428	-0.0047
461.9445	0.0022
462.1462	0.0129
462.3479	-0.0065
462.5495	-0
462.7512	0.0061
462.9528	-0.005
463.1544	-0.0163
463.356	0.0125
463.5576	0.0002
463.7592	-0
463.9607	0.0095
464.1623	0.0189
464.3638	0.0172
464.5653	-0.0133
464.7668	0.0056
464.9683	0.0081
465.1697	0.0067
465.3712	-0.0051
465.5726	-0.0098
465.7741	-0.0004
465.9755	-0.0111
466.1769	-0.011
466.3782	-0.0061
466.5796	-0.0123
466.7809	0.0023
466.9823	-0.0092
467.1836	0.0069
467.3849	-0.0172
467.5862	-0.0003
467.7875	0.0006
467.9887	0.0062
468.19	0.0023
468.3912	-0.0173
468.5924	-0.0171
468.7936	-0.0116
468.9948	-0.0042
469.196	-0.0036
469.3972	-0.0059
469.5983	0.0095
469.7994	-0.0151
470.0006	-0.0045
470.2017	-0.0071
470.4027	-0.0023
470.6038	0.0138
470.8049	-0.0247
471.0059	-0.0038
471.2069	-0.0323
471.408	-0
471.6089	-0.0063
471.8099	0.0078
472.0109	-0.0028
472.2119	0.0033
472.4128	-0.0229
472.6137	0.0087
472.8146	-0.022
473.0155	-0.004
473.2164	-0.0052
473.4173	0.0034
473.6181	-0.0033
473.819	0.0075
474.0198	-0.0054
474.2206	-0.0073
474.4214	-0.0061
474.6222	0.0027
474.8229	-0.0108
475.0237	-0.0198
475.2244	-0.0242
475.4251	-0.0103
475.6258	-0.0115
475.8265	-0.0133
476.0272	0.0155
476.2278	-0.008
476.4285	0.0027
476.6291	-0.0134
476.8297	-0.0135
477.0303	-0.0034
477.2309	-0.0082
477.4315	-0.0209
477.632	-0.0085
477.8326	-0.0049
478.0331	0.0022
478.2336	0.0101
478.4341	-0.0128
478.6346	-0.0004
478.8351	-0.0138
479.0355	-0.0052
479.236	-0.0064
479.4364	-0.0031
479.6368	0.0041
479.8372	-0.0101
480.0376	-0.014
480.2379	-0.0235
480.4383	-0.0075
480.6386	0.0066
480.8389	-0.01
481.0392	-0.0198
481.2395	-0.0049
481.4398	0.0102
481.6401	-0.0057
481.8403	-0.0014
482.0405	-0.0105
482.2408	-0.0093
482.441	-0.0024
482.6411	-0.016
482.8413	-0.0044
483.0415	-0.0107
483.2416	-0.0251
483.4417	-0.0034
483.6419	-0.0173
483.8419	-0.0103
484.042	0.004
484.2421	0.006
484.4422	-0.0174
484.6422	-0.0054
484.8422	-0.0064
485.0422	-0.0123
485.2422	0.0054
485.4422	-0.0095
485.6422	-0.0187
485.8421	-0.0131
486.042	-0.0034
486.242	-0.0129
486.4419	-0.0122
486.6417	-0.011
486.8416	-0.0039
487.0415	-0.0174
487.2413	-0.0065
487.4411	-0.0014
487.641	-0.0116
487.8408	0.0042
488.0405	-0.0098
488.2403	-0.0145
488.4401	-0.0041
488.6398	-0.002
488.8395	-0.0098
489.0392	-0.01
489.2389	-0.005
489.4386	-0.0082
489.6383	-0.0079
489.8379	-0.0007
490.0376	-0.0084
490.2372	-0.017
490.4368	-0.0111
490.6364	-0.0148
490.836	-0.0126
491.0355	-0.0142
491.2351	-0.0182
491.4346	-0.009
491.6341	-0.0207
491.8336	-0.0095
492.0331	-0.0173
492.2326	-0.0125
492.432	-0.0045
492.6315	-0.0093
492.8309	-0.0186
493.0303	-0.0123
493.2297	-0.0093
493.4291	-0.0081
493.6284	-0.0102
493.8278	-0.0185
494.0271	-0.0064
494.2264	-0.0131
494.4257	-0.0114
494.625	-0.0075
494.8243	-0.0126
495.0236	-0.0144
495.2228	-0.0182
495.422	-0.0068
495.6213	-0.0117
495.8205	-0.0025
496.0196	-0.0105
496.2188	0.0011
496.418	-0.0105
496.6171	-0.0244
496.8162	-0.0207
497.0153	0.0031
497.2144	-0.0018
497.4135	0.0016
497.6126	-0.016
497.8116	-0.0047
498.0107	-0.0042
498.2097	-0.0154
498.4087	-0.0269
498.6077	-0.0164
498.8067	-0.014
499.0056	0.0026
499.2046	-0.0132
499.4035	-0.0144
499.6024	-0.0032
499.8013	-0.0073
500.0002	-0.0185
500.199	-0.0067
500.3979	-0
500.5967	-0.0256
500.7956	-0.0028
500.9944	-0.0018
501.1932	-0.0168
501.3919	-0.0145
501.5907	-0.0124
501.7895	-0.0123
501.9882	-0.0216
502.1869	-0.0035
502.3856	-0.0086
502.5843	-0.0099
502.783	-0.0056
502.9816	-0.0084
503.1803	-0.0155
503.3789	-0.0108
503.5775	-0.0036
503.7761	-0.0039
503.9747	-0.0074
504.1732	-0.0165
504.3718	-0.0016
504.5703	-0.0138
504.7689	-0.0068
504.9674	-0.0064
505.1658	-0.0094
505.3643	-0.0116
505.5628	-0.0169
505.7612	-0.0164
505.9597	-0.0094
506.1581	-0.0164
506.3565	0.0016
506.5549	-0.0076
506.7532	-0.0219
506.9516	-0.0152
507.1499	-0.0109
507.3482	-0.0104
507.5465	-0.0081
507.7448	-0.0156
507.9431	-0.0006
508.1414	-0.0032
508.3396	-0.0123
508.5379	-0.0146
508.7361	-0.016
508.9343	-0.0026
509.1325	-0.004
509.3306	-0.0028
509.5288	-0.0093
509.7269	-0.0207
509.9251	-0.0096
510.1232	-0.0121
510.3213	-0.0043
510.5193	0.0081
510.7174	-0.0229
510.9154	-0.0125
511.1135	-0.0057
511.3115	-0.013
511.5095	-0.0166
511.7075	-0.0126
511.9055	-0.0134
512.1034	-0.0162
512.3014	-0.0055
512.4993	-0.0083
512.6972	-0.0104
512.8951	-0.0217
513.093	0.002
513.2908	-0.005
513.4887	-0.0075
513.6865	-0.0098
513.8844	-0.002
514.0822	-0.0104
514.2799	-0.0183
514.4777	-0.0146
514.6755	-0.0142
514.8732	-0.0091
515.0709	-0.0043
515.2687	-0.0137
515.4664	0.002
515.664	-0.0027
515.8617	-0.0125
516.0594	-0.0103
516.257	-0.0085
516.4546	-0.0214
516.6522	-0.0039
516.8498	-0.0033
517.0474	-0.0112
517.2449	-0.008
517.4425	-0.0139
517.64	-0.0057
517.8375	-0.0026
518.035	-0.0183
518.2325	-0.0137
518.43	-0.0178
518.6274	-0.0073
518.8249	-0.0176
519.0223	-0.0016
519.2197	-0.0137
519.4171	-0.0166
519.6145	-0.012
519.8118	-0.0107
520.0092	-0.0042
520.2065	-0.007
520.4038	-0.0114
520.6011	-0.0116
520.7984	-0.0092
520.9956	-0.0158
521.1929	-0.0181
521.3901	-0.0008
521.5874	-0.0091
521.7846	-0.0164
521.9818	-0.0186
522.1789	-0.0233
522.3761	-0.0104
522.5732	-0.0061
522.7704	-0.0104
522.9675	0.0003
523.1646	-0.0165
523.3617	0.0001
523.5587	-0.0057
523.7558	-0.0006
523.9528	-0.007
524.1498	-0.0013
524.3468	-0.0123
524.5438	-0.0142
524.7408	-0.0104
524.9378	-0.0035
525.1347	-0.0094
525.3316	-0.0004
525.5285	-0.0125
525.7254	-0.0119
525.9223	-0.0077
526.1192	-0.0094
526.316	-0.0161
526.5129	0.0021
526.7097	-0.0082
526.9065	-0.0148
527.1033	-0.0144
527.3	-0.0038
527.4968	-0.0017
527.6935	-0.0071
527.8903	-0.0208
528.087	-0.0129
528.2837	-0.0013
528.4804	-0.0038
528.677	-0.0042
528.8737	0.0032
529.0703	-0.0042
529.2669	-0.0111
529.4635	-0.0077
529.6601	-0.0154
529.8567	-0.0023
530.0532	-0.0073
530.2498	-0.0107
530.4463	0.0011
530.6428	-0.0114
530.8393	-0.0026
531.0358	-0.0158
531.2322	-0.0091
531.4287	-0.0056
531.6251	-0.0185
531.8215	0.0038
532.0179	-0.0006
532.2143	-0.0027
532.4107	-0.0003
532.607	-0.0103
532.8034	-0.0027
532.9997	-0.006
533.196	-0.0066
533.3923	-0.0106
533.5886	-0.003
533.7848	-0.0045
533.9811	-0.0039
534.1773	-0.0089
534.3735	0.004
534.5697	-0.005
534.7659	-0.0077
534.9621	-0.0017
535.1582	-0.013
535.3544	-0.0144
535.5505	-0.0127
535.7466	-0.0105
535.9427	-0.0092
536.1387	-0.0068
536.3348	-0.0071
536.5308	0.0019
536.7269	-0.018
536.9229	0.0017
537.1189	-0.0048
537.3148	-0.0091
537.5108	-0.0102
537.7068	-0.0077
537.9027	-0.0006
538.0986	-0.0123
538.2945	-0.012
538.4904	-0.0159
538.6863	-0.0093
538.8821	-0.0077
539.078	-0.0068
539.2738	-0.0013
539.4696	-0.0081
539.6654	-0.0022
539.8611	0.0052
540.0569	-0.0041
540.2526	-0.0093
540.4484	-0.0015
540.6441	-0.0054
540.8398	-0.0062
541.0355	-0.0008
541.2311	-0.0107
541.4268	-0.0132
541.6224	0.0002
541.818	-0.0077
542.0136	-0.0052
542.2092	-0.0028
542.4048	0.0046
542.6003	-0.0126
542.7959	-0.009
542.9914	-0.0002
543.1869	-0.0116
543.3824	-0.014
543.5779	-0.0111
543.7734	-0.008
543.9688	-0.0039
544.1642	-0.0002
544.3596	0.0023
544.555	0.0019
544.7504	-0.0089
544.9458	-0.0048
545.1411	-0.0117
545.3365	-0.0112
545.5318	-0.0142
545.7271	-0.0092
545.9224	-0.0059
546.1177	-0.0041
546.3129	0.0078
546.5081	-0.0077
546.7034	0.0026
546.8986	-0.008
547.0938	-0.013
547.289	-0.007
547.4841	-0.0031
547.6793	0.0023
547.8744	-0.0099
548.0695	0.0036
548.2646	-0.0072
548.4597	-0.0021
548.6548	-0.0029
548.8498	-0.0078
549.0448	-0.001
549.2399	-0.0042
549.4349	0.0061
549.6298	-0.0042
549.8248	0.0015
550.0198	-0.0133
550.2147	-0.005
550.4096	-0.0098
550.6045	-0.0062
550.7994	-0.0079
550.9943	-0.0008
551.1892	-0.0046
551.384	-0.0014
551.5788	-0.0085
551.7737	-0.0044
551.9685	-0.0078
552.1632	0.0003
552.358	-0.0066
552.5528	0.003
552.7475	-0.0012
552.9422	-0.002
553.1369	-0.001
553.3316	-0.0022
553.5263	-0.0175
553.7209	-0.0084
553.9156	-0.0121
554.1102	-0.0091
554.3048	-0.0092
554.4994	0.0025
554.694	-0.0094
554.8885	0.0011
555.0831	-0.0073
555.2776	-0.0035
555.4721	0.0004
555.6666	-0.0071
555.8611	0.003
556.0555	-0.0006
556.25	0.0003
556.4444	-0.0106
556.6388	0.0028
556.8332	0.0068
557.0276	-0.0057
557.222	-0.0089
557.4163	-0.0025
557.6107	-0.0162
557.805	0.0037
557.9993	-0.0028
558.1936	0.0029
558.3879	-0.0025
558.5821	0.0035
558.7764	-0.0029
558.9706	-0.0044
559.1648	0.0015
559.359	-0.0159
559.5532	-0.0062
559.7473	-0.0033
559.9415	-0.0031
560.1356	-0.0149
560.3297	-0.0171
560.5238	-0.0025
560.7179	-0.009
560.9119	-0.0057
561.106	-0.0002
561.3	-0.0122
561.494	-0.0058
561.688	-0.0086
561.882	-0.0177
562.076	-0.0087
562.2699	-0.002
562.4639	-0.0066
562.6578	-0.003
562.8517	-0.0109
563.0456	-0.0041
563.2395	0.0021
563.4333	0.0002
563.6272	0.0099
563.821	-0.0061
564.0148	-0.0055
564.2086	-0.0107
564.4024	-0.0099
564.5961	-0.0152
564.7899	0.002
564.9836	-0.0098
565.1773	-0.0105
565.371	0.0013
565.5647	-0.0007
565.7584	0.0045
565.952	-0.0021
566.1456	0.0034
566.3393	-0.0032
566.5329	0.0006
566.7264	-0.0063
566.92	-0.0102
567.1136	0.0087
567.3071	-0.0095
567.5006	-0.0041
567.6941	-0.0053
567.8876	-0.0059
568.0811	-0.0008
568.2745	-0.0077
568.468	-0.0037
568.6614	-0.0079
568.8548	-0.0093
569.0482	-0.0045
569.2416	0.0026
569.4349	-0.0057
569.6283	0.0064
569.8216	0.0011
570.0149	-0.0059
570.2082	0.0008
570.4015	-0.0011
570.5947	0.0044
570.788	0.0052
570.9812	0.0006
571.1744	-0.0044
571.3676	-0.0068
571.5608	-0.0002
571.754	0.0032
571.9471	0.0045
572.1402	-0.001
572.3333	-0.001
572.5264	-0.0022
572.7195	-0.0042
572.9126	-0.0028
573.1057	-0.0059
573.2987	-0.0027
573.4917	-0.0032
573.6847	-0.0113
573.8777	0.0008
574.0707	-0.0054
574.2636	-0.009
574.4566	-0.0075
574.6495	0.005
574.8424	0.0019
575.0353	-0.0065
575.2281	0.0066
575.421	0.0033
575.6138	0.0019
575.8067	-0.0058
575.9995	0
576.1923	0.0041
576.385	-0.0067
576.5778	-0.0054
576.7706	0.0006
576.9633	0.0025
577.156	0.0002
577.3487	-0.0024
577.5414	0.0028
577.734	-0.0037
577.9267	0.0066
578.1193	-0.0077
578.3119	-0.007
578.5045	0.0015
578.6971	-0.0041
578.8897	-0.0023
579.0822	-0.0029
579.2747	0.0021
579.4673	-0.0094
579.6598	-0.0031
579.8522	-0.0041
580.0447	-0.0078
580.2372	0.0031
580.4296	0.007
580.622	-0.003
580.8144	-0.0024
581.0068	-0.0061
581.1992	-0.0132
581.3915	-0.0067
581.5839	-0.0104
581.7762	-0.0123
581.9685	-0.0039
582.1608	0.0008
582.353	-0.0062
582.5453	-0.006
582.7375	-0.0009
582.9298	-0.0022
583.122	-0.0035
583.3142	-0.0058
583.5063	-0.0061
583.6985	-0.0001
583.8906	-0.0081
584.0827	-0.007
584.2749	-0.004
584.4669	-0
584.659	-0.0055
584.8511	0.0004
585.0431	-0.0074
585.2352	0.0023
585.4272	-0.0087
585.6192	0.0033
585.8111	-0.0014
586.0031	-0.0058
586.195	0.0043
586.387	0.0039
586.5789	0.0025
586.7708	-0.0027
586.9627	-0.0019
587.1545	-0.0068
587.3464	0.0053
587.5382	-0.0123
587.73	-0.002
587.9218	0.003
588.1136	-0.0048
588.3053	0.0052
588.4971	-0.0098
588.6888	-0.0114
588.8805	-0.0012
589.0722	0.0056
589.2639	-0.0026
589.4556	-0.0014
589.6472	-0.0016
589.8389	-0.0134
590.0305	-0.012
590.2221	0.0022
590.4137	-0.0097
590.6052	0.0066
590.7968	0.0005
590.9883	-0.0026
591.1798	0.0023
591.3713	0.0003
591.5628	0.0026
591.7543	0.0042
591.9458	-0.0038
592.1372	0.001
592.3286	0.005
592.52	-0
592.7114	-0.0058
592.9028	-0.0022
593.0941	-0.0043
593.2855	-0.0003
593.4768	-0.0097
593.6681	-0.0065
593.8594	-0.0045
594.0506	0.0041
594.2419	0.008
594.4331	0.0026
594.6244	0.0003
594.8156	-0.0019
595.0067	-0
595.1979	-0.0004
595.3891	-0.0031
595.5802	-0.0035
595.7713	-0.0057
595.9624	-0.0058
596.1535	-0.0004
596.3446	-0.0051
596.5357	-0.0037
596.7267	-0.0016
596.9177	-0.0006
597.1087	-0.0033
597.2997	-0.0052
597.4907	-0.0026
597.6817	-0.009
597.8726	-0.0004
598.0635	-0.0012
598.2544	0.001
598.4453	-0.0013
598.6362	-0.0022
598.827	-0.0043
599.0179	-0.0011
599.2087	0.0016
599.3995	0.0071
599.5903	0.0076
599.7811	0.0034
599.9718	-0.0045
600.1626	-0.0036
600.3533	-0.0032
600.544	-0.0009
600.7347	0.0023
600.9254	0.006
601.116	-0.0063
601.3067	0.0017
601.4973	-0.0003
601.6879	0.0051
601.8785	0.0015
602.0691	0.0032
602.2596	0.0004
602.4502	-0.0016
602.6407	0.0015
602.8312	-0.0023
603.0217	-0.0023
603.2122	0.0012
603.4027	0.003
603.5931	-0.0017
603.7835	0.0015
603.9739	-0.0006
604.1643	0.0033
604.3547	-0.0096
604.5451	0.0051
604.7354	-0.0019
604.9257	0.0037
605.116	-0.0048
605.3063	0.0093
605.4966	0.0015
605.6869	-0.0032
605.8771	0.0039
606.0673	0.0014
606.2575	0.0028
606.4477	0.0048
606.6379	0.0032
606.8281	-0.0045
607.0182	-0.0055
607.2083	0.0106
607.3985	-0.0094
607.5885	0.0018
607.7786	0.0003
607.9687	-0.0029
608.1587	0.006
608.3488	-0.0003
608.5388	-0.0055
608.7288	-0.0032
608.9187	-0.005
609.1087	0.0008
609.2986	-0.0011
609.4886	-0.0036
609.6785	-0.0013
609.8684	-0.0009
610.0582	-0.0016
610.2481	0.0023
610.4379	-0.0077
610.6278	-0.0053
610.8176	-0.0042
611.0074	-0.0043
611.1971	0.0023
611.3869	-0.0051
611.5766	-0.0077
611.7664	0.0066
611.9561	-0.0001
612.1458	0.0024
612.3354	-0.002
612.5251	-0.0014
612.7147	0.0021
612.9044	0.0127
613.094	-0.0079
613.2836	-0.001
613.4731	-0.0068
613.6627	0.0018
613.8522	0.0024
614.0417	0.0038
614.2313	-0.0008
614.4207	-0.0027
614.6102	0.0005
614.7997	-0.0038
614.9891	-0.0058
615.1785	-0.0049
615.3679	-0.0039
615.5573	0.0083
615.7467	0.0015
615.9361	-0.0039
616.1254	0.0026
616.3147	-0.0028
616.504	0.005
616.6933	0.0045
616.8826	0.0041
617.0718	-0.0006
617.2611	-0.0012
617.4503	-0.0019
617.6395	-0.0081
617.8287	0.0004
618.0179	0.0007
618.207	0.009
618.3961	-0.0002
618.5853	-0.0045
618.7744	-0.002
618.9634	0.0086
619.1525	0.0043
619.3416	-0.0062
619.5306	0.0039
619.7196	-0.0047
619.9086	-0.0036
620.0976	-0.0037
620.2866	-0.0006
620.4755	-0.0039
620.6645	-0.0046
620.8534	-0.0019
621.0423	0.0038
621.2312	0.0008
621.42	0.005
621.6089	-0.0038
621.7977	0.0064
621.9865	-0.0038
622.1753	0.009
622.3641	-0.0021
622.5529	0.0022
622.7416	-0.0026
622.9303	-0.0071
623.1191	0.0075
623.3078	-0.0051
623.4964	-0.0026
623.6851	-0.004
623.8737	-0.0087
624.0624	0.003
624.251	0.0026
624.4396	-0.0024
624.6282	-0.0081
624.8167	-0.0015
625.0053	-0.0025
625.1938	0.0038
625.3823	0.0022
625.5708	0.0019
625.7593	-0.0075
625.9477	-0.0063
626.1362	-0.0071
626.3246	-0.0047
626.513	0.0031
626.7014	0.0056
626.8898	0.0004
627.0781	-0.0011
627.2665	-0.0047
627.4548	0.0034
627.6431	-0.0016
627.8314	0.0032
628.0197	0.0102
628.2079	-0.0101
628.3962	-0.0067
628.5844	-0.0006
628.7726	-0.0015
628.9608	0.007
629.1489	-0.0042
629.3371	0.0073
629.5252	-0.0034
629.7134	0.006
629.9015	0.0022
630.0895	0.0014
630.2776	0.0071
630.4657	0.0017
630.6537	-0.0011
630.8417	-0.0003
631.0297	-0.005
631.2177	-0.0003
631.4057	-0.0101
631.5936	0.0035
631.7815	0.0007
631.9695	0.0037
632.1574	0.0127
632.3452	0.008
632.5331	0.0041
632.7209	-0.0063
632.9088	0.0153
633.0966	0.0028
633.2844	-0.0054
633.4722	0.0082
633.6599	0.0094
633.8477	-0.0053
634.0354	-0.0025
634.2231	0.0013
634.4108	0.0026
634.5985	0.0054
634.7861	0.0002
634.9738	-0.0043
635.1614	0.0005
635.349	-0.0035
635.5366	-0.0072
635.7242	0.0055
635.9117	0.0053
636.0993	-0.0065
636.2868	0.0032
636.4743	-0.0077
636.6618	0.0067
636.8492	-0.0005
637.0367	0.0024
637.2241	-0.0035
637.4115	-0.0004
637.5989	-0.0014
637.7863	0.0003
637.9737	0.0032
638.161	-0.0034
638.3484	0.0026
638.5357	0.008
638.723	-0.001
638.9103	0.0016
639.0975	0.0043
639.2848	0.0046
639.472	0.0048
639.6592	0.0064
639.8464	0.011
640.0336	0.0097
640.2208	0.0024
640.4079	0.0044
640.595	0.0001
640.7821	-0.0002
640.9692	0.0002
641.1563	0.006
641.3434	0.0057
641.5304	0.0055
641.7174	0.0039
641.9044	0.0048
642.0914	0.007
642.2784	0.0064
642.4653	0.0124
642.6523	0.005
642.8392	0.0002
643.0261	-0.0006
643.213	0.0052
643.3999	0.0003
643.5867	0.0067
643.7735	0.0024
643.9604	-0.0027
644.1472	0.0061
644.3339	0.0006
644.5207	0.0035
644.7075	0.0022
644.8942	0.0049
645.0809	0.0124
645.2676	0.0052
645.4543	0.0031
645.6409	0.0002
645.8276	0.0119
646.0142	0.001
646.2008	0.0024
646.3874	-0.0015
646.574	0.0028
646.7605	-0.0061
646.9471	-0.0092
647.1336	-0.0052
647.3201	0.0041
647.5066	-0.0053
647.6931	0.0079
647.8795	-0.0038
648.0659	0.004
648.2524	0.0081
648.4388	-0.0041
648.6252	-0.0029
648.8115	-0.004
648.9979	-0.0053
649.1842	0.001
649.3705	0.0056
649.5568	-0.0012
649.7431	0.0008
649.9294	-0.0002
650.1156	0.003
650.3018	-0.0071
650.488	0.0016
650.6742	-0.0052
650.8604	-0.0009
651.0466	-0.009
651.2327	-0.0021
651.4188	0.0039
651.6049	-0.0058
651.791	0.0007
651.9771	-0.002
652.1632	0.0025
652.3492	0.0044
652.5352	-0.0034
652.7212	-0.0088
652.9072	0.0097
653.0932	-0.0013
653.2791	-0.0048
653.465	0.0024
653.651	-0.0036
653.8369	-0.0035
654.0227	0.0055
654.2086	0.0147
654.3944	0.002
654.5803	-0.0002
654.7661	-0.0001
654.9519	0.0005
655.1377	-0.004
655.3234	0.0015
655.5092	-0.0024
655.6949	-0.0032
655.8806	-0.0061
656.0663	-0.0038
656.2519	-0.0082
656.4376	-0.0081
656.6232	0.0028
656.8088	-0
656.9945	-0.0021
657.18	-0.0015
657.3656	0.0013
657.5511	-0.003
657.7367	-0.0079
657.9222	0.0033
658.1077	-0.0036
658.2932	0.0057
658.4786	-0.0081
658.6641	-0.0037
658.8495	-0.0024
659.0349	0.0007
659.2203	-0.0018
659.4057	0.0006
659.591	-0.0004
659.7764	0.001
659.9617	0.007
660.147	0.0019
660.3323	0.0024
660.5176	-0.0015
660.7028	-0.002
660.888	0.0027
661.0733	-0.0075
661.2585	-0.0058
661.4436	-0.003
661.6288	0.0012
661.8139	-0.0041
661.9991	0.0006
662.1842	0.0019
662.3693	0.0016
662.5544	-0.0019
662.7394	-0.0046
662.9245	0.0011
663.1095	0.0026
663.2945	0.0032
663.4795	-0.0033
663.6644	0.0026
663.8494	-0.0007
664.0343	-0.0015
664.2193	-0.0033
664.4042	-0.0072
664.589	-0.0071
664.7739	-0.0105
664.9587	-0.0113
665.1436	-0.0015
665.3284	0.0005
665.5132	-0.0077
665.698	-0.0037
665.8827	-0.0037
666.0675	-0.0004
666.2522	-0.0071
666.4369	0.0025
666.6216	0.002
666.8063	0.0039
666.9909	0.0013
667.1756	-0.0001
667.3602	-0.0023
667.5448	0.002
667.7294	0.0032
667.9139	0.002
668.0985	0.012
668.283	0.0022
668.4675	-0.0075
668.652	0.0047
668.8365	-0.0024
669.0209	0.0046
669.2054	0.0026
669.3898	0.0079
669.5742	0.0006
669.7586	0.0028
669.943	0.0053
670.1273	-0.0002
670.3117	0.0024
670.496	0.0032
670.6803	0.0079
670.8646	-0.0012
671.0488	-0.007
671.2331	0.0076
671.4173	0.0035
671.6015	-0.0031
671.7857	0.0051
671.9699	0.0048
672.1541	0.0046
672.3382	0.0078
672.5223	-0.0008
672.7064	0.0057
672.8905	0.0116
673.0746	0.0012
673.2587	-0.0028
673.4427	0.0051
673.6267	0.0029
673.8107	0.0078
673.9947	0.0039
674.1787	0.0076
674.3626	-0.0026
674.5465	-0.0026
674.7304	0.006
674.9143	0.0077
675.0982	0.0124
675.2821	-0.0093
675.4659	0.0065
675.6497	-0.0071
675.8335	-0.003
676.0173	-0.0028
676.2011	-0.0036
676.3849	0.0094
676.5686	-0.0035
676.7523	0.0021
676.936	0.002
677.1197	-0.0036
677.3034	-0.0103
677.487	0.0005
677.6706	-0.0066
677.8542	0.0042
678.0378	-0.0062
678.2214	-0.0031
678.405	0.0025
678.5885	-0.0072
678.772	0.0003
678.9555	-0.0044
679.139	-0.0069
679.3225	0.0007
679.5059	-0.0035
679.6894	0.0009
679.8728	0.0067
680.0562	-0.007
680.2395	-0.0021
680.4229	-0.0028
680.6062	0.0067
680.7896	-0.0069
680.9729	-0.0108
681.1562	0.0021
681.3394	-0.0036
681.5227	-0.0083
681.7059	-0.0011
681.8891	-0.0053
682.0723	0.0058
682.2555	0.0005
682.4387	0.0015
682.6218	-0.0027
682.805	0.0011
682.9881	0.0012
683.1712	-0.0049
683.3542	-0.0044
683.5373	-0.0029
683.7203	-0.0093
683.9034	-0.0012
684.0864	-0.0098
684.2694	-0.0037
684.4523	0.0024
684.6353	-0.0044
684.8182	-0.0022
685.0011	-0.0083
685.184	-0.0001
685.3669	-0.0019
685.5498	0.0052
685.7326	0.004
685.9154	-0.0019
686.0982	0.0093
686.281	0.0073
686.4638	0.006
686.6465	0.0012
686.8293	0.0006
687.012	0.0003
687.1947	-0.0167
687.3774	0.0037
687.56	-0.0079
687.7427	0.003
687.9253	-0.0113
688.1079	0.0045
688.2905	-0.0025
688.4731	-0.0038
688.6556	-0.0044
688.8382	-0.0013
689.0207	-0.0034
689.2032	-0.0118
689.3857	-0.0111
689.5681	-0.0044
689.7506	-0.0068
689.933	-0.0052
690.1154	-0.0104
690.2978	-0.0155
690.4802	-0.0041
690.6626	-0.011
690.8449	-0.0108
691.0272	0.0015
691.2095	-0.0138
691.3918	-0.0106
691.5741	0.002
691.7563	-0.0007
691.9386	0.0028
692.1208	-0.0056
692.303	0.0075
692.4852	-0.0013
692.6673	-0.0021
692.8495	-0.0036
693.0316	0.0023
693.2137	-0.0008
693.3958	0.0012
693.5778	0.0017
693.7599	0.0012
693.9419	-0.0002
694.1239	-0.0078
694.3059	-0.0083
694.4879	0.0007
694.6699	0.0087
694.8518	-0.0011
695.0337	-0.001
695.2157	0.0072
695.3975	-0.0004
695.5794	-0.0029
695.7613	0.0079
695.9431	-0.004
696.1249	0.0017
696.3067	-0.0011
696.4885	0.0056
696.6703	-0.0061
696.852	-0.0024
697.0337	0.0017
697.2154	0.0003
697.3971	0.0033
697.5788	0.0024
697.7605	0.002
697.9421	-0.0013
698.1237	-0.0014
698.3053	0.0021
698.4869	-0.0032
698.6685	-0.0059
698.85	-0.0061
699.0315	0.009
699.213	0.0012
699.3945	-0.0019
699.576	0.0013
699.7575	0.0055
699.9389	0.0103
700.1203	0.0049
700.3017	-0.0094
700.4831	-0.0082
700.6645	-0.009
700.8458	-0.0026
701.0271	-0.0051
701.2084	0.0048
701.3897	0.0029
701.571	-0.0015
701.7523	-0.0058
701.9335	-0.0002
702.1147	-0.0063
702.2959	0.001
702.4771	0.0021
702.6583	0.0024
702.8394	-0.0001
703.0205	0.0026
703.2016	-0.0064
703.3827	-0.0006
703.5638	0.0079
703.7449	-0.0052
703.9259	0.0072
704.1069	-0.0065
704.2879	-0.0007
704.4689	0.0009
704.6499	0.0007
704.8308	0.0016
705.0117	-0.002
705.1927	-0.0059
705.3735	-0.003
705.5544	-0.0001
705.7353	0.001
705.9161	-0.0051
706.0969	-0.0054
706.2777	-0.0073
706.4585	-0.0074
706.6393	0.0024
706.82	-0.0041
707.0007	0.0058
707.1815	-0.0005
707.3621	0.0089
707.5428	0.0043
707.7235	-0.0071
707.9041	0.0032
708.0847	-0.0062
708.2653	-0.0087
708.4459	-0.009
708.6265	0.0032
708.807	-0.005
708.9875	0.0043
709.168	-0.0091
709.3485	-0.0053
709.529	-0.0075
709.7095	-0.0082
709.8899	-0.0019
710.0703	-0.0073
710.2507	-0.008
710.4311	-0.0084
710.6115	-0.0073
710.7918	-0.0042
710.9721	0.0001
711.1524	-0.0037
711.3327	0.0064
711.513	-0.0024
711.6932	0.0041
711.8735	0.0023
712.0537	0.0039
712.2339	-0.0029
712.4141	-0.0065
712.5942	-0.0038
712.7744	-0.0021
712.9545	-0.0069
713.1346	-0.0082
713.3147	-0.009
713.4947	-0.0043
713.6748	-0.0077
713.8548	-0.0066
714.0348	-0.0009
714.2148	-0.0043
714.3948	0.0008
714.5748	-0.002
714.7547	-0.001
714.9346	0.0007
715.1145	-0.0049
715.2944	-0.0082
715.4743	-0.0004
715.6541	-0.0046
715.834	0.006
716.0138	-0.0103
716.1936	-0.0083
716.3733	-0.0151
716.5531	0.0004
716.7328	-0.0076
716.9126	-0.0079
717.0923	0.0025
717.2719	-0.003
717.4516	0.0023
717.6312	0.0028
717.8109	-0.0047
717.9905	0.0009
718.1701	0.0004
718.3496	-0.0094
718.5292	-0.0057
718.7087	-0.0017
718.8882	-0.0037
719.0677	0.0067
719.2472	-0.0029
719.4267	0.0029
719.6061	-0.0041
719.7856	0.0099
719.965	0.0058
720.1443	-0.0095
720.3237	0.0172
720.5031	-0.0005
720.6824	0.0006
720.8617	0.0017
721.041	-0.0044
721.2203	0.0098
721.3995	0.0063
721.5788	-0.0056
721.758	0.0041
721.9372	-0.0058
722.1164	-0.0006
722.2956	0.0077
722.4747	-0.006
722.6538	-0.0054
722.8329	0.0063
723.012	0.0036
723.1911	0.0008
723.3702	-0.0027
723.5492	0.0082
723.7282	-0.0011
723.9072	0.0065
724.0862	-0.004
724.2652	-0.0038
724.4441	0.0017
724.623	-0.0033
724.8019	-0.0037
724.9808	-0.0025
725.1597	-0.0103
725.3385	0.0039
725.5174	-0.0045
725.6962	0.0005
725.875	0.0003
726.0538	0.0111
726.2325	0.0047
726.4112	0.0048
726.59	-0.0041
726.7687	0.0017
726.9474	0.0164
727.126	0.0033
727.3047	-0.0028
727.4833	0.0038
727.6619	-0.0069
727.8405	-0.0099
728.0191	-0.0036
728.1976	0.0019
728.3762	0.0066
728.5547	-0.0006
728.7332	-0.0087
728.9116	-0.0023
729.0901	0.0035
729.2686	-0.0091
729.447	0.002
729.6254	-0.0026
729.8038	-0.0014
729.9821	-0.0088
730.1605	-0.0011
730.3388	-0.007
730.5171	-0.0007
730.6954	-0.0084
730.8737	-0.0019
731.0519	0.0086
731.2302	-0.0046
731.4084	-0.0061
731.5866	-0.0063
731.7648	-0.0064
731.9429	-0.0109
732.1211	-0.0151
732.2992	-0.0123
732.4773	-0.0074
732.6554	-0.002
732.8335	-0.0033
733.0115	0.003
733.1896	-0.001
733.3676	-0.0139
733.5456	-0
733.7235	0.0013
733.9015	-0
734.0794	-0.0071
734.2574	-0.0019
734.4353	-0.0052
734.6131	0.0012
734.791	-0.004
734.9689	-0.0014
735.1467	0.0016
735.3245	-0.0088
735.5023	-0.0075
735.68	-0.0018
735.8578	0.0049
736.0355	-0.0213
736.2132	-0.0138
736.3909	-0.01
736.5686	-0.0022
736.7463	0.002
736.9239	0.0017
737.1015	-0.0001
737.2791	0.0074
737.4567	-0.0009
737.6343	-0.0018
737.8118	-0.0028
737.9894	0.012
738.1669	-0.0094
738.3444	-0.0073
738.5218	-0.0041
738.6993	-0.0007
738.8767	-0.0056
739.0541	0.0055
739.2315	-0.0119
739.4089	-0.0035
739.5863	-0.0002
739.7636	0.0048
739.9409	-0.0044
740.1182	0.0035
740.2955	0.0013
740.4728	-0.0006
740.65	-0.0055
740.8272	-0.0048
741.0044	-0.0012
741.1816	0.0053
741.3588	-0.002
741.5359	-0.0045
741.7131	-0.0059
741.8902	-0.008
742.0673	0.0017
742.2444	-0.0133
742.4214	-0.0163
742.5985	-0.0091
742.7755	-0.0125
742.9525	-0.0154
743.1295	-0.0123
743.3064	-0.0041
743.4834	0.003
743.6603	-0.0103
743.8372	-0.0167
744.0141	-0.0076
744.191	-0.0043
744.3678	-0.0015
744.5446	-0.0081
744.7215	-0.008
744.8982	-0.0102
745.075	-0.0166
745.2518	0.0003
745.4285	-0.0058
745.6052	-0.014
745.7819	-0.0022
745.9586	-0.0125
746.1353	-0.0049
746.3119	-0.0076
746.4885	-0.0123
746.6651	-0.0076
746.8417	-0.0156
747.0183	0.0002
747.1948	-0.005
747.3714	0.0045
747.5479	0.0026
747.7244	-0.006
747.9008	0.0058
748.0773	0.0041
748.2537	-0.001
748.4301	-0.0115
748.6065	0.0042
748.7829	-0.0029
748.9593	-0.0063
749.1356	-0.0044
749.3119	0.0092
749.4882	-0.0178
749.6645	0.0036
749.8408	-0.0083
750.017	-0.0067
750.1933	-0.0019
750.3695	-0.0098
750.5457	0.004
750.7218	-0.0038
750.898	0.0042
751.0741	0.0025
751.2502	0.0033
751.4263	-0.0018
751.6024	-0.0063
751.7784	-0.0053
751.9545	-0.0123
752.1305	-0.0011
752.3065	-0.0084
752.4825	0.0093
752.6584	-0.013
752.8344	0.0005
753.0103	-0.0092
753.1862	-0.0065
753.3621	-0.0017
753.5379	-0.0013
753.7138	-0.0006
753.8896	-0.0032
754.0654	0.0025
754.2412	-0.0005
754.417	0.0018
754.5927	-0.0038
754.7685	0.0035
754.9442	-0.0037
755.1199	0.0068
755.2956	0.0012
755.4712	0.0091
755.6469	0.0007
755.8225	-0.0057
755.9981	0.0016
756.1736	0.0001
756.3492	0.0042
756.5248	-0.0008
756.7003	0.0055
756.8758	0.004
757.0513	-0.0114
757.2267	-0.0099
757.4022	0.0009
757.5776	-0.0041
757.753	0.0066
757.9284	-0.0079
758.1038	0.0048
758.2791	0.0005
758.4545	-0.0192
758.6298	-0.0085
758.8051	-0.0014
758.9803	0.0035
759.1556	-0.0056
759.3308	-0.0014
759.506	0.0109
759.6812	-0.003
759.8564	0.012
760.0316	-0.0002
760.2067	0.0048
760.3819	0.0065
760.557	0.016
760.732	0.0002
760.9071	-0.0077
761.0821	0.005
761.2572	0.0135
761.4322	0.0095
761.6072	-0.0005
761.7821	-0.0001
761.9571	0.0172
762.132	-0.0012
762.3069	0.0015
762.4818	-0.0052
762.6567	-0.0043
762.8316	0.002
763.0064	0.0051
763.1812	0.0016
763.356	-0.0057
763.5308	0.0031
763.7055	0.0044
763.8803	-0.001
764.055	-0.0018
764.2297	-0.0041
764.4044	-0.0063
764.579	-0.0127
764.7537	-0.0116
764.9283	-0.001
765.1029	-0.008
765.2775	-0.0079
765.4521	-0.0076
765.6266	-0.0064
765.8011	-0.006
765.9756	-0.0018
766.1501	0.0024
766.3246	0.0004
766.4991	-0.004
766.6735	-0.0108
766.8479	-0.0091
767.0223	0.0112
767.1967	-0.0053
767.371	-0.0021
767.5454	-0.009
767.7197	-0.0069
767.894	-0.0121
768.0683	-0.0138
768.2425	-0.0051
768.4168	-0.0001
768.591	-0.0025
768.7652	-0.0029
768.9394	-0.0004
769.1135	-0.0036
769.2877	0.0085
769.4618	0.0036
769.6359	-0.0026
769.81	0.0062
769.984	0.0031
770.1581	-0.0047
770.3321	0.0121
770.5061	0.0118
770.6801	-0.0044
770.8541	0.0145
771.028	0.0134
771.202	-0.0121
771.3759	0.0058
771.5498	0.001
771.7236	0.0021
771.8975	0.004
772.0713	0.007
772.2451	0.0003
772.4189	-0.0001
772.5927	0.0106
772.7665	0.0096
772.9402	-0.0018
773.1139	0.0021
773.2876	0.0086
773.4613	0.002
773.635	0.0081
773.8086	-0.007
773.9822	0.004
774.1558	0.009
774.3294	-0.0159
774.503	-0.0015
774.6765	-0.0044
774.8501	0.007
775.0236	0.0071
775.1971	0.0083
775.3705	-0.0039
775.544	0.0024
775.7174	-0.0133
775.8908	-0.0156
776.0642	-0.0038
776.2376	-0.0043
776.4109	-0.0119
776.5843	-0.0021
776.7576	0.0001
776.9309	0.0069
777.1041	0.0111
777.2774	0.0107
777.4506	-0.0006
777.6238	-0.0146
777.797	-0.0053
777.9702	0.0035
778.1434	-0.0008
778.3165	-0.0125
778.4896	-0.0083
778.6627	0.0076
778.8358	0.0001
779.0089	-0.0084
779.1819	-0.0071
779.3549	0.0145
779.5279	0.0004
779.7009	-0.0021
779.8739	0.0078
780.0468	-0.0001
780.2197	0.0032
780.3926	-0.0027
780.5655	0.0086
780.7384	-0.0012
780.9112	-0.0103
781.0841	-0.0154
781.2569	-0.0005
781.4297	0.005
781.6024	0.0101
781.7752	-0.007
781.9479	-0.0044
782.1206	0.001
782.2933	-0.0017
782.466	0.0053
782.6386	-0.0062
782.8113	-0.001
782.9839	0.0001
783.1565	0.0148
783.329	0.0072
783.5016	0.0034
783.6741	0.0021
783.8466	0.0034
784.0191	0.0229
784.1916	0.0076
784.3641	0.0062
784.5365	0.0088
784.7089	-0.0057
784.8813	-0.0111
785.0537	-0.0092
785.2261	0.0003
785.3984	-0.0126
785.5707	-0.0085
785.743	0.0058
785.9153	-0.0134
786.0876	0.0046
786.2598	-0.0067
786.432	-0.0041
786.6042	0.0061
786.7764	-0.0014
786.9486	0.0145
787.1207	-0.0128
787.2928	0.0077
787.4649	-0.0007
787.637	-0.0073
787.8091	0.003
787.9811	-0.001
788.1532	-0.0092
788.3252	0.009
788.4972	-0.0051
788.6691	0.0113
788.8411	-0.0019
789.013	-0.0021
789.1849	0.0041
789.3568	-0.0066
789.5287	-0.0042
789.7005	-0.0009
789.8723	-0.0036
790.0442	0.0056
790.2159	0.0173
790.3877	-0.02
790.5595	-0.0204
790.7312	0.0065
790.9029	0.0008
791.0746	-0.011
791.2463	-0.0051
791.4179	-0.0061
791.5896	-0.0051
791.7612	0.0017
791.9328	0.017
792.1044	-0.0023
792.2759	-0.0157
792.4474	-0.0138
792.619	-0.0041
792.7905	0.003
792.9619	-0.0003
793.1334	0.0096
793.3048	0.0107
793.4762	0.0084
793.6476	0.0006
793.819	-0.0011
793.9904	0.0087
794.1617	-0.0067
794.333	0.0013
794.5043	-0.0083
794.6756	-0.0005
794.8469	-0.0031
795.0181	-0.0005
795.1893	0.0003
795.3605	0.0039
795.5317	-0.0112
795.7029	-0.007
795.874	0.0057
796.0452	-0.0048
796.2163	-0.0054
796.3873	0.0168
796.5584	0.0075
796.7294	-0.002
796.9005	-0
797.0715	0.0044
797.2425	-0.014
797.4134	-0.0154
797.5844	-0.0059
797.7553	-0.0222
797.9262	0.0094
798.0971	-0.0142
798.2679	-0.0048
798.4388	-0.0126
798.6096	-0.0176
798.7804	0.0087
798.9512	-0.0179
799.122	-0.0011
799.2927	-0.0059
799.4635	0.0168
799.6342	-0.019
799.8049	-0.0096
799.9755	0.003
800.1462	-0.0025
800.3168	0.0111
800.4874	-0.0013
800.658	0.0077
800.8286	-0.0012
800.9991	0.0234
801.1696	0.0165
801.3402	0.017
801.5106	-0.0032
801.6811	-0
801.8516	0.0186
802.022	0.0062
802.1924	0.0025
802.3628	0.0142
802.5332	-0.0135
802.7035	0.033
802.8739	-0.0011
803.0442	-0.0098
803.2145	0.0149
803.3847	-0.0227
803.555	-0.0088
803.7252	-0.0151
803.8954	-0.0044
804.0656	0.0027
804.2358	-0.0131
804.4059	-0.0029
804.5761	0.0017
804.7462	-0.0104
804.9163	-0.0022
805.0864	-0.0266
805.2564	-0.0118
805.4264	0.0058
805.5965	-0.0022
805.7665	0.0071
805.9364	-0.0064
806.1064	0.0236
806.2763	-0.0172
806.4462	0.0225
806.6161	0.0033
806.786	0.0119
806.9559	-0.0025
807.1257	0.0007
807.2955	-0.0105
807.4653	0.0005
807.6351	-0.0085
807.8048	0.0031
807.9746	0.0028
808.1443	-0.003
808.314	0.0031
808.4837	-0.007
808.6533	-0.0026
808.8229	-0.0068
808.9926	-0.0064
809.1622	-0.0116
809.3317	-0.009
809.5013	-0.0022
809.6708	-0.0053
809.8403	0.0027
810.0098	-0.014
810.1793	-0.0168
810.3488	0.0127
810.5182	-0.0055
810.6876	-0.008
810.857	0.0089
811.0264	0.0075
811.1958	0.0046
811.3651	-0.0042
811.5344	0.0024
811.7037	-0.0132
811.873	-0.0123
812.0422	-0.0091
812.2115	-0.0135
812.3807	-0.0171
812.5499	-0.0003
812.7191	-0.0135
812.8882	0.0031
813.0574	-0.0138
813.2265	-0.007
813.3956	0.0016
813.5646	-0.0106
813.7337	-0.0281
813.9027	0.0277
814.0718	0.0173
814.2407	0.0164
814.4097	-0.0003
814.5787	-0.0266
814.7476	-0.0128
814.9165	-0.0053
815.0854	-0.0047
815.2543	-0.0091
815.4232	0.0024
815.592	0.0014
815.7608	-0.016
815.9296	0.0015
816.0984	0.0035
816.2671	-0.0177
816.4359	-0.0175
816.6046	-0.0022
816.7733	-0.0182
816.942	-0.0154
817.1106	0.0006
817.2793	-0.0084
817.4479	-0.0224
817.6165	0.0112
817.785	-0.0179
817.9536	-0.0288
818.1221	-0.021
818.2906	0.0048
818.4591	-0.0119
818.6276	0.001
818.7961	-0.0003
818.9645	0.001
819.1329	-0.0189
819.3013	0.0145
819.4697	0.0156
819.638	-0.0227
819.8064	-0.002
819.9747	0.0038
820.143	0.0165
820.3113	-0.0261
820.4795	-0.0066
820.6477	-0.0027
820.816	0.0014
820.9842	-0.0117
821.1523	-0.0169
821.3205	-0.0272
821.4886	-0.0184
821.6567	-0.0053
821.8248	0.0176
821.9929	0.0161
822.1609	-0.0122
822.329	0.0369
822.497	0.022
822.665	0.0068
822.833	-0.0197
823.0009	0.0359
823.1688	0.0053
823.3367	0.024
823.5046	-0.011
823.6725	0.0015
823.8404	-0.0132
824.0082	0.0099
824.176	-0.0279
824.3438	0.0137
824.5116	0.008
824.6793	-0.0133
824.847	-0.0045
825.0147	-0.0093
825.1824	0.0193
825.3501	0.0072
825.5177	-0.014
825.6854	-0.0271
825.853	0.0149
826.0206	-0.0297
826.1881	-0.0169
826.3557	-0.0385
826.5232	-0.012
826.6907	-0.0371
826.8582	-0.0237
827.0257	-0.0082
827.1931	0.0018
827.3605	-0.0155
827.528	-0.0253
827.6953	-0.0181
827.8627	-0.0183
828.03	0.0012
828.1974	0.0014
828.3647	-0.0389
828.532	-0.0184
828.6992	-0.0212
828.8665	-0.0205
829.0337	-0.0265
829.2009	0.0189
829.3681	-0.0041
829.5352	0.0485
829.7024	-0.0296
829.8695	-0.01
830.0366	0.0381
830.2037	-0.0005
830.3707	0.0207
830.5378	-0.0021
830.7048	0.0241
830.8718	0.0038
831.0388	-0.0331
831.2057	0.0191
831.3727	0.0063
831.5396	-0.0254
831.7065	0.0093
831.8734	-0.0016
832.0402	0.0036
832.2071	-0.0188
832.3739	-0.0153
832.5407	0.0109
832.7075	-0.0044
832.8742	-0.0409
833.041	-0.0277
833.2077	0.0219
833.3744	0.0114
833.541	-0.0137
833.7077	-0.029
833.8743	-0.0273
834.0409	-0.0261
834.2075	0.0116
834.3741	-0.0163
834.5407	-0.0032
834.7072	0.0149
834.8737	-0.0046
835.0402	-0.0197
835.2067	0.0384
835.3731	0.0148
835.5395	0.0117
835.706	0.0246
835.8723	0.0139
836.0387	0.0054
836.2051	0.0077
836.3714	0.0153
836.5377	0.0219
836.704	-0.0395
836.8703	-0.0038
837.0365	-0.0158
837.2027	-0.0141
837.3689	0.0156
837.5351	-0.0241
837.7013	-0.0183
837.8674	-0.0805
838.0335	-0.0225
838.1997	-0.0374
838.3657	-0.0483
838.5318	-0.0302
838.6978	0.0132
838.8639	-0.0167
839.0299	-0.0085
839.1958	-0.0131
839.3618	0.0238
839.5277	0.0069
839.6937	-0.017
839.8596	-0.0357
840.0254	0.0067
840.1913	0.01
840.3571	0.0827
840.523	-0.0399
840.6888	-0.0093
840.8545	0.0446
841.0203	0.0106
841.186	0.0052
841.3517	-0.021
841.5174	-0.0287
841.6831	-0.0157
841.8488	-0.0354
842.0144	0.0225
842.18	-0.0026
842.3456	-0.0246
842.5112	-0.0461
842.6767	0.0059
842.8422	-0.0542
843.0077	-0.0171
843.1732	-0.0776
843.3387	-0.0543
843.5042	-0.1134
843.6696	-0.0533
843.835	0.0065
844.0004	0.0471
844.1657	-0.0374
844.3311	-0.0288
844.4964	-0.0822
844.6617	0.017
844.827	-0.0514
844.9923	0.0057
845.1575	0.0157
845.3227	-0.0376
845.4879	0.0207
845.6531	-0.0611
845.8183	-0.0556
845.9834	-0.0207
846.1485	-0.0264
846.3136	-0.0174
846.4787	-0.0845
846.6438	0.0505
846.8088	-0.053
846.9738	-0.1164
847.1388	-0.0125
847.3038	0.0107
847.4687	-0.2081
847.6337	0.0105
847.7986	-0.0344
847.9635	0.0242
848.1284	-0.0316
848.2932	0.1023
848.458	-0.0437
848.6228	-0.0334
848.7876	0.0783
848.9524	-0.0843
849.1172	-0.1024
849.2819	-0.0387
849.4466	-0.0972
849.6113	-0.1302
849.7759	-0.1288
849.9406	-0.0102
850.1052	0.021
850.2698	-0.0293
850.4344	-0.0604
850.599	0.0017
850.7635	0.101
850.928	-0.1132
851.0925	-0.035
851.257	0.0648
851.4215	-0.0361
851.5859	-0.0706
851.7503	-0.0195
851.9147	-0.0016
852.0791	0.0048
852.2434	-0.0112
852.4078	0.1065
852.5721	0.0406
852.7364	-0.0948
852.9007	-0.1144
853.0649	-0.0465
853.2291	0.0502
853.3934	-0.0114
853.5575	-0.0173
853.7217	-0.0918
853.8859	-0.2297
854.05	-0.0861
854.2141	0.0324
854.3782	-0.1415
854.5423	-0.0397
854.7063	0.1392
854.8703	-0.0735
855.0343	0.0905
855.1983	-0.131
855.3623	0.0612
855.5262	0.0619
855.6901	-0.0759
855.854	0.0389
856.0179	0.0345
856.1818	0.027
856.3456	0.0034
856.5094	-0.1575
856.6732	-0.0656
856.837	0.0148
857.0008	0.0202
857.1645	-0.0901
857.3282	-0.2291
857.4919	0.0842
857.6556	-0
857.8192	0.0342
857.9828	0.0115
858.1465	0.0453
858.31	-0
858.4736	0.1028
858.6372	-0.0764
858.8007	-0.1621
858.9642	-0.0596
859.1277	0.0241
859.2911	0.1403
859.4546	0.0326
859.618	-0.371
859.7814	-0.0852
859.9448	0.0554
860.1081	0.0624
860.2715	0.1105
860.4348	-0.1404
860.5981	-0.0891
860.7614	0.0674
860.9246	-0.0712
861.0879	-0.1287
861.2511	-0.0887
861.4143	-0.1426
861.5774	0.0254
861.7406	-0.2185
861.9037	0.0461
862.0668	-0.1995
862.2299	-0.0347
862.393	-0.7113
862.556	-0.0732
862.7191	-0.2821
862.8821	-0.3002
863.0451	0.2069
863.208	0.2384
863.371	0.0624
863.5339	-0.3922
863.6968	-0.116
863.8597	1.0811
864.0225	-0.2155
864.1854	-0.1695
864.3482	-0.306
864.511	0.0817
864.6737	0.3411
864.8365	0.2185
864.9992	-0.5589
865.1619	-0.4005
865.3246	0.0787
865.4873	0.0992
865.65	-0.0839
865.8126	0.1715
865.9752	-0.122
866.1378	0.0376
866.3004	0.9931
866.4629	0.2965
866.6254	-0.2931
866.7879	0.1212
866.9504	1.1677
867.1129	-0
867.2753	0.2862
867.4377	0.1844
867.6001	-0.3231
867.7625	0.007
867.9249	0.4114
868.0872	-0.1639
868.2495	0.2545
868.4118	-0.2593
868.5741	-0.672
868.7363	-0.3145
868.8986	-0.4824
869.0608	-0.2046
869.223	0.082
869.3851	-0.1942
869.5473	0.1129
869.7094	0.1147
869.8715	-0.6238
870.0336	-0.5825
870.1957	-0.628
870.3577	-0.8099
870.5197	-0.0491
870.6817	-0.3571
870.8437	-0.2241
871.0057	-0
871.1676	-0
871.3295	-0.1585
871.4914	-0
871.6533	-0.0938
871.8151	0.2014
871.977	-0
872.1388	-0
872.3006	-0
872.4623	-0
872.6241	0.0944
872.7858	-0.2497
872.9475	-0.3992
873.1092	-0.1799
873.2709	0.2346
873.4325	-0.1629
873.5941	-0
873.7557	-0
873.9173	-0
874.0789	-0.2978
874.2404	-0.5944
874.4019	0.957
874.5634	-0.0366
874.7249	-0.1269
874.8863	0.0855
875.0478	0.0992
875.2092	-0
875.3706	0.5256
875.5319	-0.8204
875.6933	-0.0701
875.8546	0.9468
876.0159	-0
876.1772	0.4251
876.3385	-0
876.4997	-0
876.6609	0.0221
876.8221	0.0886
876.9833	1.102
877.1445	-0
877.3056	0.2192
877.4667	0.0834
877.6278	-0
877.7889	-0.6079
877.9499	-0
878.111	-0.372
878.272	-0
878.433	-0
878.5939	-0.1997
878.7549	-0.1912
878.9158	-0.372
879.0767	0.2751
879.2376	-0
879.3984	0.5356
879.5593	0.1408
879.7201	0.1575
879.8809	-0.6178
880.0417	-0.6196
880.2024	-0.3061
880.3632	-0
880.5239	0.0982
880.6846	0.2511
880.8452	-2.2577
881.0059	-1.0719
881.1665	0.4134
881.3271	-0.249
881.4877	-0
881.6483	-0.5542
881.8088	-0.5327
881.9693	-0
882.1298	-0
882.2903	-0
