Data from MonoPyChalIsomerACN10uM410nmA_Absorbance_14-53-28-073.txt Node
Date: Fri Jul 05 14:53:28 BST 2024
User: LASERRRRR
Spectrometer: FLMT03099
Trigger mode: 0
Integration Time (sec): 1.000000E-1
Scans to average: 1
Electric dark correction enabled: true
Nonlinearity correction enabled: false
Boxcar width: 0
XAxis mode: Wavelengths
Number of Pixels in Spectrum: 3648
>>>>>Begin Spectral Data<<<<<
179.3399	0.1277
179.5586	0.1277
179.7771	0.1277
179.9957	0.9628
180.2143	-0
180.4329	-0.269
180.6514	-0
180.8699	-0
181.0885	-0
181.307	0.6248
181.5255	-0.6967
181.744	-0.2165
181.9625	-0
182.181	-0
182.3994	0.1117
182.6179	-0.4364
182.8363	0.5186
183.0547	-0.3115
183.2732	0.0484
183.4916	0.2697
183.71	0.4927
183.9284	0.11
184.1467	-0.1244
184.3651	0.0636
184.5835	-0.033
184.8018	0.3408
185.0201	0.1596
185.2385	-0.003
185.4568	0.4911
185.6751	-0.1761
185.8934	0.3549
186.1117	0.0931
186.3299	0.0686
186.5482	0.2112
186.7664	-0.1599
186.9847	0.3087
187.2029	0.018
187.4211	0.1297
187.6393	0.0529
187.8575	0.0531
188.0757	0.1131
188.2939	0.0677
188.512	0.0733
188.7302	0.1822
188.9483	0.4228
189.1665	0.195
189.3846	-0.0197
189.6027	0.1677
189.8208	0.2301
190.0389	0.0954
190.257	0.0976
190.475	0.173
190.6931	0.3513
190.9111	0.2046
191.1292	0.0507
191.3472	0.3897
191.5652	0.3352
191.7832	0.2574
192.0012	0.7774
192.2192	0.3693
192.4371	0.4521
192.6551	0.4981
192.873	0.3918
193.091	0.35
193.3089	0.8805
193.5268	0.6964
193.7447	0.7878
193.9626	0.4005
194.1805	0.6184
194.3984	0.5138
194.6162	0.5428
194.8341	0.5478
195.0519	0.5711
195.2697	0.5597
195.4875	0.7189
195.7054	0.9075
195.9231	0.6374
196.1409	0.5655
196.3587	0.7248
196.5765	0.7482
196.7942	0.5797
197.012	0.6364
197.2297	0.6244
197.4474	0.8871
197.6651	0.5932
197.8828	0.6557
198.1005	0.3629
198.3182	0.6159
198.5358	0.8703
198.7535	0.5884
198.9711	0.6658
199.1888	0.6184
199.4064	0.7736
199.624	0.6395
199.8416	0.5944
200.0592	0.5858
200.2767	0.6534
200.4943	0.7578
200.7119	0.8238
200.9294	0.6586
201.1469	0.5304
201.3645	0.5453
201.582	0.5562
201.7995	0.6999
202.017	0.6243
202.2344	0.5847
202.4519	0.6154
202.6694	0.7997
202.8868	0.6645
203.1042	0.7604
203.3217	0.6842
203.5391	0.6173
203.7565	0.6511
203.9739	0.6374
204.1913	0.5735
204.4086	0.6977
204.626	0.7296
204.8433	0.6044
205.0607	0.6346
205.278	0.6895
205.4953	0.6242
205.7126	0.7352
205.9299	0.6634
206.1472	0.6847
206.3644	0.6375
206.5817	0.7038
206.7989	0.7019
207.0162	0.6282
207.2334	0.6192
207.4506	0.5835
207.6678	0.6395
207.885	0.738
208.1022	0.6499
208.3194	0.7009
208.5365	0.6074
208.7537	0.7286
208.9708	0.564
209.1879	0.6285
209.405	0.7188
209.6222	0.7307
209.8392	0.6262
210.0563	0.581
210.2734	0.6727
210.4905	0.6881
210.7075	0.6112
210.9245	0.6429
211.1416	0.6961
211.3586	0.6368
211.5756	0.5782
211.7926	0.655
212.0096	0.6143
212.2265	0.6096
212.4435	0.5207
212.6604	0.5917
212.8774	0.5575
213.0943	0.6391
213.3112	0.56
213.5281	0.539
213.745	0.4747
213.9619	0.4927
214.1788	0.5111
214.3956	0.4383
214.6125	0.5031
214.8293	0.4668
215.0461	0.4721
215.2629	0.4518
215.4798	0.4369
215.6965	0.4046
215.9133	0.4493
216.1301	0.4055
216.3469	0.4507
216.5636	0.4164
216.7803	0.4005
216.9971	0.381
217.2138	0.3859
217.4305	0.3938
217.6472	0.3489
217.8639	0.3661
218.0805	0.3287
218.2972	0.306
218.5138	0.347
218.7305	0.3102
218.9471	0.292
219.1637	0.2527
219.3803	0.2819
219.5969	0.2537
219.8135	0.2477
220.0301	0.2854
220.2466	0.2713
220.4632	0.2484
220.6797	0.2359
220.8962	0.2672
221.1127	0.2597
221.3292	0.251
221.5457	0.244
221.7622	0.2216
221.9787	0.2486
222.1951	0.2238
222.4116	0.2442
222.628	0.2437
222.8444	0.2541
223.0608	0.2378
223.2772	0.2255
223.4936	0.2489
223.71	0.2365
223.9264	0.2676
224.1427	0.257
224.3591	0.2428
224.5754	0.2601
224.7917	0.2569
225.008	0.253
225.2243	0.2689
225.4406	0.2734
225.6569	0.2628
225.8732	0.2534
226.0894	0.2381
226.3057	0.2549
226.5219	0.2686
226.7381	0.2571
226.9543	0.2786
227.1705	0.2876
227.3867	0.2973
227.6029	0.2985
227.8191	0.2946
228.0352	0.2848
228.2513	0.2811
228.4675	0.3004
228.6836	0.2915
228.8997	0.2862
229.1158	0.3027
229.3319	0.2945
229.548	0.3222
229.764	0.3265
229.9801	0.3123
230.1961	0.3167
230.4121	0.321
230.6282	0.3241
230.8442	0.3201
231.0602	0.3498
231.2761	0.3529
231.4921	0.3495
231.7081	0.343
231.924	0.3494
232.14	0.3456
232.3559	0.3248
232.5718	0.3556
232.7877	0.3416
233.0036	0.3444
233.2195	0.3461
233.4353	0.3475
233.6512	0.3586
233.867	0.3646
234.0829	0.3533
234.2987	0.3685
234.5145	0.354
234.7303	0.3588
234.9461	0.3792
235.1619	0.3585
235.3776	0.3802
235.5934	0.3737
235.8091	0.3549
236.0249	0.3886
236.2406	0.3733
236.4563	0.3805
236.672	0.3975
236.8877	0.3841
237.1034	0.3788
237.319	0.3773
237.5347	0.4049
237.7503	0.3976
237.966	0.4162
238.1816	0.3887
238.3972	0.4023
238.6128	0.3946
238.8284	0.3995
239.0439	0.4192
239.2595	0.4054
239.475	0.4048
239.6906	0.407
239.9061	0.395
240.1216	0.3898
240.3371	0.4068
240.5526	0.3908
240.7681	0.4005
240.9836	0.384
241.199	0.3966
241.4145	0.3983
241.6299	0.3836
241.8453	0.3785
242.0607	0.3838
242.2761	0.3709
242.4915	0.361
242.7069	0.379
242.9223	0.3753
243.1376	0.3571
243.353	0.3534
243.5683	0.3572
243.7836	0.3373
243.9989	0.3394
244.2142	0.3085
244.4295	0.319
244.6448	0.3135
244.86	0.297
245.0753	0.2937
245.2905	0.2955
245.5057	0.2867
245.721	0.2784
245.9362	0.2759
246.1514	0.2734
246.3665	0.2642
246.5817	0.2737
246.7969	0.2505
247.012	0.258
247.2271	0.2517
247.4423	0.258
247.6574	0.2561
247.8725	0.2301
248.0876	0.2333
248.3026	0.2272
248.5177	0.2262
248.7328	0.2236
248.9478	0.2106
249.1628	0.2237
249.3779	0.2114
249.5929	0.2091
249.8079	0.2112
250.0228	0.2027
250.2378	0.2053
250.4528	0.2055
250.6677	0.1856
250.8827	0.2052
251.0976	0.2085
251.3125	0.1808
251.5274	0.178
251.7423	0.1864
251.9572	0.188
252.172	0.1745
252.3869	0.1906
252.6017	0.1718
252.8166	0.1638
253.0314	0.1625
253.2462	0.1724
253.461	0.1718
253.6758	0.1772
253.8906	0.1856
254.1053	0.1679
254.3201	0.1602
254.5348	0.1758
254.7496	0.1711
254.9643	0.1664
255.179	0.1799
255.3937	0.1737
255.6083	0.1743
255.823	0.1637
256.0377	0.172
256.2523	0.176
256.467	0.1387
256.6816	0.1589
256.8962	0.1576
257.1108	0.1692
257.3254	0.1694
257.54	0.1533
257.7545	0.1663
257.9691	0.1791
258.1836	0.1603
258.3981	0.1741
258.6127	0.1798
258.8272	0.16
259.0417	0.1582
259.2561	0.1706
259.4706	0.166
259.6851	0.1741
259.8995	0.1547
260.114	0.1624
260.3284	0.1468
260.5428	0.1559
260.7572	0.1679
260.9716	0.1775
261.186	0.1557
261.4003	0.1658
261.6147	0.1667
261.829	0.1712
262.0433	0.1517
262.2577	0.1749
262.472	0.1648
262.6863	0.1609
262.9005	0.1845
263.1148	0.1661
263.3291	0.15
263.5433	0.1582
263.7576	0.1557
263.9718	0.1559
264.186	0.165
264.4002	0.1699
264.6144	0.1678
264.8286	0.1869
265.0427	0.157
265.2569	0.1643
265.471	0.1646
265.6851	0.1657
265.8993	0.1565
266.1134	0.1676
266.3275	0.1521
266.5415	0.158
266.7556	0.1637
266.9697	0.1653
267.1837	0.178
267.3978	0.1616
267.6118	0.1813
267.8258	0.1812
268.0398	0.1507
268.2538	0.1705
268.4677	0.1655
268.6817	0.161
268.8957	0.1658
269.1096	0.165
269.3235	0.1777
269.5374	0.1596
269.7514	0.1552
269.9652	0.1566
270.1791	0.1602
270.393	0.1577
270.6068	0.1602
270.8207	0.169
271.0345	0.153
271.2483	0.1612
271.4622	0.1522
271.676	0.1692
271.8897	0.1499
272.1035	0.1451
272.3173	0.1484
272.531	0.1539
272.7448	0.1448
272.9585	0.1443
273.1722	0.1559
273.3859	0.1625
273.5996	0.1448
273.8133	0.1628
274.0269	0.1295
274.2406	0.1456
274.4542	0.1567
274.6679	0.1534
274.8815	0.1519
275.0951	0.156
275.3087	0.1574
275.5223	0.1548
275.7358	0.1574
275.9494	0.1489
276.1629	0.1513
276.3765	0.1443
276.59	0.1418
276.8035	0.1488
277.017	0.1542
277.2305	0.1439
277.444	0.1539
277.6574	0.1495
277.8709	0.1673
278.0843	0.1434
278.2978	0.1471
278.5112	0.1506
278.7246	0.1608
278.938	0.1626
279.1513	0.1619
279.3647	0.1754
279.5781	0.1531
279.7914	0.156
280.0047	0.1541
280.2181	0.1606
280.4314	0.1602
280.6447	0.1558
280.8579	0.155
281.0712	0.1614
281.2845	0.1605
281.4977	0.1495
281.711	0.1422
281.9242	0.1557
282.1374	0.1645
282.3506	0.1473
282.5638	0.163
282.7769	0.1517
282.9901	0.1518
283.2033	0.1648
283.4164	0.1689
283.6295	0.1522
283.8426	0.1527
284.0557	0.1504
284.2688	0.1819
284.4819	0.1603
284.695	0.1564
284.908	0.1563
285.1211	0.1491
285.3341	0.1493
285.5471	0.1667
285.7601	0.1543
285.9731	0.1568
286.1861	0.1616
286.3991	0.1749
286.612	0.1614
286.825	0.1562
287.0379	0.1625
287.2508	0.1488
287.4637	0.166
287.6766	0.1625
287.8895	0.1708
288.1024	0.1688
288.3152	0.156
288.5281	0.1496
288.7409	0.1605
288.9538	0.1503
289.1666	0.1589
289.3794	0.1537
289.5922	0.1543
289.8049	0.1516
290.0177	0.1616
290.2304	0.1602
290.4432	0.1615
290.6559	0.1584
290.8686	0.1586
291.0813	0.1559
291.294	0.1491
291.5067	0.1608
291.7194	0.1483
291.932	0.1786
292.1447	0.1539
292.3573	0.1506
292.5699	0.1585
292.7825	0.1638
292.9951	0.1596
293.2077	0.1551
293.4203	0.1538
293.6328	0.1375
293.8454	0.1606
294.0579	0.152
294.2704	0.1535
294.4829	0.1504
294.6954	0.1675
294.9079	0.1473
295.1204	0.1422
295.3328	0.1562
295.5453	0.1527
295.7577	0.1656
295.9701	0.1457
296.1825	0.1504
296.3949	0.1546
296.6073	0.1572
296.8197	0.1385
297.0321	0.1657
297.2444	0.1468
297.4567	0.1437
297.6691	0.1471
297.8814	0.1559
298.0937	0.1496
298.306	0.1577
298.5182	0.1586
298.7305	0.1552
298.9428	0.1404
299.155	0.1495
299.3672	0.1499
299.5794	0.1494
299.7916	0.1559
300.0038	0.1631
300.216	0.1631
300.4282	0.1548
300.6403	0.1493
300.8525	0.1587
301.0646	0.1425
301.2767	0.158
301.4888	0.1422
301.7009	0.1582
301.913	0.1553
302.125	0.1588
302.3371	0.1486
302.5491	0.1513
302.7612	0.1575
302.9732	0.1608
303.1852	0.1586
303.3972	0.1541
303.6092	0.1504
303.8211	0.1469
304.0331	0.1577
304.245	0.145
304.457	0.1439
304.6689	0.1433
304.8808	0.1552
305.0927	0.1412
305.3046	0.1335
305.5164	0.1569
305.7283	0.1443
305.9401	0.154
306.152	0.1354
306.3638	0.1416
306.5756	0.1323
306.7874	0.1355
306.9992	0.1299
307.2109	0.1409
307.4227	0.1182
307.6344	0.1396
307.8462	0.1342
308.0579	0.1264
308.2696	0.1356
308.4813	0.1368
308.693	0.1399
308.9046	0.1333
309.1163	0.1135
309.328	0.1232
309.5396	0.1165
309.7512	0.1215
309.9628	0.1174
310.1744	0.1197
310.386	0.1247
310.5976	0.1193
310.8091	0.1276
311.0207	0.1245
311.2322	0.1205
311.4437	0.1177
311.6552	0.1153
311.8667	0.1186
312.0782	0.1019
312.2897	0.0988
312.5012	0.113
312.7126	0.1008
312.924	0.1042
313.1355	0.1181
313.3469	0.1063
313.5583	0.113
313.7696	0.1165
313.981	0.1159
314.1924	0.1027
314.4037	0.1008
314.6151	0.1152
314.8264	0.0956
315.0377	0.1076
315.249	0.1052
315.4603	0.1078
315.6716	0.1091
315.8828	0.0931
316.0941	0.0998
316.3053	0.1037
316.5165	0.1032
316.7277	0.0933
316.9389	0.1018
317.1501	0.0953
317.3613	0.0993
317.5724	0.0871
317.7836	0.1049
317.9947	0.0917
318.2058	0.1033
318.417	0.0958
318.6281	0.091
318.8391	0.0983
319.0502	0.0975
319.2613	0.1097
319.4723	0.1013
319.6834	0.1006
319.8944	0.0956
320.1054	0.1135
320.3164	0.0963
320.5274	0.1077
320.7383	0.1042
320.9493	0.098
321.1602	0.1084
321.3712	0.0935
321.5821	0.1036
321.793	0.1132
322.0039	0.1006
322.2148	0.0986
322.4257	0.106
322.6365	0.1045
322.8474	0.1129
323.0582	0.0967
323.269	0.1128
323.4798	0.1103
323.6906	0.1038
323.9014	0.1098
324.1122	0.1122
324.3229	0.1058
324.5337	0.1047
324.7444	0.0909
324.9551	0.1246
325.1658	0.1133
325.3765	0.1087
325.5872	0.1014
325.7979	0.1026
326.0085	0.1041
326.2192	0.1185
326.4298	0.0992
326.6404	0.1063
326.851	0.1064
327.0616	0.0964
327.2722	0.1046
327.4828	0.1137
327.6933	0.1111
327.9039	0.1035
328.1144	0.1204
328.3249	0.1069
328.5354	0.0977
328.7459	0.1095
328.9564	0.0979
329.1669	0.1106
329.3773	0.1135
329.5878	0.1182
329.7982	0.1051
330.0086	0.1081
330.219	0.1078
330.4294	0.1113
330.6398	0.1087
330.8502	0.112
331.0605	0.1073
331.2708	0.1072
331.4812	0.1131
331.6915	0.1061
331.9018	0.1109
332.1121	0.0953
332.3224	0.1121
332.5326	0.1123
332.7429	0.1188
332.9531	0.1261
333.1633	0.1197
333.3735	0.1123
333.5837	0.1013
333.7939	0.1192
334.0041	0.1333
334.2143	0.1191
334.4244	0.1134
334.6346	0.0951
334.8447	0.124
335.0548	0.1187
335.2649	0.1073
335.475	0.1178
335.685	0.1062
335.8951	0.1198
336.1051	0.1081
336.3152	0.1227
336.5252	0.1021
336.7352	0.1316
336.9452	0.1142
337.1552	0.1257
337.3652	0.1129
337.5751	0.116
337.7851	0.1219
337.995	0.1036
338.2049	0.1299
338.4148	0.1155
338.6247	0.1119
338.8346	0.1032
339.0445	0.104
339.2543	0.1183
339.4642	0.1216
339.674	0.113
339.8838	0.1324
340.0936	0.1193
340.3034	0.1265
340.5132	0.126
340.7229	0.1303
340.9327	0.1241
341.1424	0.1251
341.3522	0.1272
341.5619	0.1311
341.7716	0.1282
341.9813	0.1392
342.1909	0.1305
342.4006	0.1306
342.6102	0.1386
342.8199	0.1225
343.0295	0.1349
343.2391	0.1334
343.4487	0.1328
343.6583	0.1275
343.8679	0.1306
344.0774	0.1212
344.287	0.1302
344.4965	0.1327
344.706	0.1354
344.9155	0.1356
345.125	0.1291
345.3345	0.139
345.544	0.125
345.7534	0.1318
345.9629	0.1228
346.1723	0.1253
346.3817	0.1356
346.5911	0.129
346.8005	0.1325
347.0099	0.1299
347.2193	0.1471
347.4286	0.1393
347.638	0.1393
347.8473	0.1472
348.0566	0.1333
348.2659	0.1463
348.4752	0.1349
348.6845	0.1354
348.8937	0.1316
349.103	0.1394
349.3122	0.1333
349.5214	0.1446
349.7306	0.1427
349.9398	0.1465
350.149	0.1533
350.3582	0.1367
350.5674	0.149
350.7765	0.1394
350.9856	0.1358
351.1948	0.1339
351.4039	0.12
351.613	0.144
351.822	0.1433
352.0311	0.1466
352.2402	0.143
352.4492	0.151
352.6582	0.1514
352.8672	0.1538
353.0762	0.1535
353.2852	0.1409
353.4942	0.1479
353.7032	0.1535
353.9121	0.1503
354.1211	0.1459
354.33	0.1445
354.5389	0.1429
354.7478	0.1536
354.9567	0.164
355.1655	0.1489
355.3744	0.151
355.5833	0.1556
355.7921	0.1699
356.0009	0.1524
356.2097	0.173
356.4185	0.1728
356.6273	0.1541
356.8361	0.1586
357.0448	0.1564
357.2536	0.1497
357.4623	0.1587
357.671	0.1529
357.8797	0.1662
358.0884	0.1744
358.2971	0.1776
358.5057	0.16
358.7144	0.1744
358.923	0.1641
359.1316	0.1633
359.3402	0.1635
359.5488	0.1624
359.7574	0.1525
359.966	0.1829
360.1746	0.1669
360.3831	0.1695
360.5916	0.1827
360.8002	0.1602
361.0087	0.1708
361.2172	0.1808
361.4256	0.1771
361.6341	0.1832
361.8426	0.1758
362.051	0.1732
362.2594	0.1669
362.4678	0.1772
362.6762	0.1831
362.8846	0.1829
363.093	0.1729
363.3014	0.172
363.5097	0.1538
363.718	0.1745
363.9264	0.1902
364.1347	0.1675
364.343	0.1816
364.5513	0.2008
364.7595	0.2073
364.9678	0.1778
365.176	0.187
365.3842	0.1889
365.5925	0.1784
365.8007	0.1824
366.0089	0.1909
366.217	0.1763
366.4252	0.1998
366.6333	0.1902
366.8415	0.1858
367.0496	0.195
367.2577	0.1841
367.4658	0.2042
367.6739	0.1931
367.882	0.2117
368.09	0.2017
368.2981	0.2126
368.5061	0.1849
368.7141	0.2095
368.9221	0.2241
369.1301	0.2057
369.3381	0.1996
369.5461	0.1886
369.754	0.1919
369.962	0.2194
370.1699	0.198
370.3778	0.2186
370.5857	0.1919
370.7936	0.1974
371.0015	0.2045
371.2093	0.2179
371.4172	0.2237
371.625	0.1899
371.8328	0.1963
372.0406	0.2137
372.2484	0.202
372.4562	0.2035
372.664	0.2045
372.8717	0.2222
373.0795	0.1929
373.2872	0.206
373.4949	0.2083
373.7026	0.2048
373.9103	0.1997
374.118	0.2215
374.3256	0.2111
374.5333	0.2198
374.7409	0.2247
374.9485	0.2237
375.1561	0.2295
375.3637	0.2213
375.5713	0.2112
375.7789	0.2175
375.9864	0.2218
376.194	0.21
376.4015	0.2311
376.609	0.2328
376.8165	0.2089
377.024	0.2024
377.2315	0.208
377.4389	0.2195
377.6464	0.2233
377.8538	0.2195
378.0612	0.2165
378.2686	0.2427
378.476	0.2364
378.6834	0.2386
378.8908	0.229
379.0981	0.2296
379.3055	0.212
379.5128	0.229
379.7201	0.2218
379.9274	0.2204
380.1347	0.214
380.342	0.2275
380.5492	0.2091
380.7565	0.2301
380.9637	0.2469
381.1709	0.2241
381.3781	0.2409
381.5853	0.2352
381.7925	0.2314
381.9997	0.2391
382.2068	0.2309
382.4139	0.2182
382.6211	0.2256
382.8282	0.2145
383.0353	0.2294
383.2424	0.2135
383.4494	0.2474
383.6565	0.2159
383.8635	0.2323
384.0706	0.2223
384.2776	0.2412
384.4846	0.2175
384.6916	0.2254
384.8986	0.2271
385.1055	0.2199
385.3125	0.2363
385.5194	0.2283
385.7263	0.2288
385.9333	0.2352
386.1402	0.2242
386.347	0.2329
386.5539	0.2265
386.7608	0.2475
386.9676	0.2125
387.1744	0.2324
387.3813	0.2248
387.5881	0.2301
387.7948	0.2205
388.0016	0.2127
388.2084	0.2333
388.4151	0.2278
388.6219	0.2369
388.8286	0.2283
389.0353	0.2337
389.242	0.229
389.4487	0.2081
389.6553	0.2039
389.862	0.2015
390.0686	0.2281
390.2753	0.2191
390.4819	0.231
390.6885	0.2067
390.8951	0.2299
391.1016	0.2024
391.3082	0.2065
391.5147	0.2202
391.7213	0.2205
391.9278	0.2125
392.1343	0.2024
392.3408	0.2043
392.5473	0.2155
392.7537	0.1968
392.9602	0.1945
393.1666	0.2084
393.373	0.2192
393.5794	0.2171
393.7858	0.2116
393.9922	0.2209
394.1986	0.2207
394.4049	0.2036
394.6113	0.1945
394.8176	0.1931
395.0239	0.195
395.2302	0.1944
395.4365	0.1927
395.6428	0.2117
395.8491	0.1851
396.0553	0.1891
396.2615	0.1891
396.4678	0.1846
396.674	0.1904
396.8802	0.1852
397.0863	0.1976
397.2925	0.1894
397.4987	0.1855
397.7048	0.1878
397.9109	0.1889
398.117	0.1844
398.3231	0.1724
398.5292	0.1865
398.7353	0.2147
398.9413	0.1931
399.1474	0.1851
399.3534	0.1955
399.5594	0.1733
399.7654	0.2157
399.9714	0.193
400.1774	0.1973
400.3833	0.1888
400.5893	0.1919
400.7952	0.184
401.0011	0.1918
401.207	0.1891
401.4129	0.2123
401.6188	0.1945
401.8247	0.1877
402.0305	0.1753
402.2364	0.1882
402.4422	0.1913
402.648	0.1799
402.8538	0.1966
403.0596	0.1846
403.2654	0.1971
403.4711	0.1861
403.6768	0.2009
403.8826	0.1966
404.0883	0.1931
404.294	0.1885
404.4997	0.203
404.7054	0.2119
404.911	0.1808
405.1167	0.1918
405.3223	0.1955
405.5279	0.198
405.7335	0.1804
405.9391	0.201
406.1447	0.1897
406.3502	0.2077
406.5558	0.1676
406.7613	0.182
406.9668	0.1779
407.1724	0.1804
407.3778	0.1832
407.5833	0.1678
407.7888	0.1807
407.9942	0.1976
408.1997	0.1919
408.4051	0.1847
408.6105	0.1908
408.8159	0.1725
409.0213	0.1999
409.2267	0.192
409.432	0.1798
409.6374	0.1841
409.8427	0.1712
410.048	0.1838
410.2533	0.1671
410.4586	0.1703
410.6639	0.1589
410.8691	0.1738
411.0744	0.1867
411.2796	0.1635
411.4848	0.1867
411.69	0.1746
411.8952	0.2087
412.1004	0.1775
412.3056	0.1829
412.5107	0.1854
412.7158	0.1795
412.921	0.1798
413.1261	0.1617
413.3312	0.176
413.5362	0.1748
413.7413	0.1686
413.9464	0.1776
414.1514	0.1864
414.3564	0.1652
414.5614	0.1734
414.7664	0.177
414.9714	0.18
415.1764	0.1915
415.3813	0.195
415.5863	0.1642
415.7912	0.1744
415.9961	0.1772
416.201	0.1687
416.4059	0.1839
416.6108	0.1872
416.8156	0.1806
417.0205	0.1709
417.2253	0.1556
417.4301	0.1938
417.6349	0.1752
417.8397	0.1687
418.0445	0.1783
418.2492	0.1753
418.454	0.1803
418.6587	0.1684
418.8634	0.1723
419.0681	0.1717
419.2728	0.1597
419.4775	0.1715
419.6822	0.1688
419.8868	0.1428
420.0915	0.1816
420.2961	0.151
420.5007	0.1481
420.7053	0.1608
420.9099	0.166
421.1144	0.1669
421.319	0.1613
421.5235	0.177
421.728	0.1665
421.9325	0.1562
422.137	0.1664
422.3415	0.1572
422.546	0.1664
422.7504	0.1604
422.9549	0.1463
423.1593	0.1583
423.3637	0.1631
423.5681	0.1539
423.7725	0.1673
423.9769	0.154
424.1812	0.1614
424.3856	0.1529
424.5899	0.1459
424.7942	0.1657
424.9985	0.1475
425.2028	0.1348
425.4071	0.161
425.6113	0.1482
425.8156	0.1509
426.0198	0.147
426.224	0.1413
426.4282	0.1525
426.6324	0.1604
426.8366	0.1416
427.0407	0.1252
427.2449	0.1481
427.449	0.1487
427.6531	0.1375
427.8572	0.1379
428.0613	0.12
428.2654	0.1331
428.4694	0.1458
428.6735	0.1388
428.8775	0.1476
429.0815	0.1331
429.2855	0.1299
429.4895	0.1419
429.6935	0.1248
429.8975	0.1378
430.1014	0.1247
430.3053	0.1165
430.5093	0.1307
430.7132	0.1247
430.9171	0.1056
431.1209	0.1228
431.3248	0.1174
431.5286	0.1083
431.7325	0.1354
431.9363	0.1001
432.1401	0.1217
432.3439	0.1073
432.5477	0.1038
432.7514	0.1008
432.9552	0.1084
433.1589	0.0888
433.3627	0.0989
433.5664	0.104
433.7701	0.1003
433.9737	0.0921
434.1774	0.0914
434.3811	0.1011
434.5847	0.1101
434.7883	0.1048
434.9919	0.0852
435.1955	0.0915
435.3991	0.0988
435.6027	0.091
435.8062	0.0828
436.0098	0.0927
436.2133	0.0869
436.4168	0.0841
436.6203	0.0841
436.8238	0.1044
437.0272	0.0885
437.2307	0.0802
437.4341	0.0987
437.6375	0.0869
437.841	0.0743
438.0443	0.0773
438.2477	0.0829
438.4511	0.0685
438.6545	0.0729
438.8578	0.0765
439.0611	0.0634
439.2644	0.0793
439.4677	0.0722
439.671	0.0638
439.8743	0.0694
440.0775	0.0847
440.2808	0.0667
440.484	0.064
440.6872	0.0587
440.8904	0.0522
441.0936	0.0819
441.2967	0.0584
441.4999	0.0651
441.703	0.0531
441.9062	0.0469
442.1093	0.0517
442.3124	0.0554
442.5155	0.0383
442.7185	0.05
442.9216	0.0347
443.1246	0.0534
443.3276	0.0468
443.5307	0.0463
443.7337	0.0653
443.9366	0.0506
444.1396	0.0499
444.3426	0.0447
444.5455	0.0462
444.7484	0.0446
444.9513	0.0505
445.1542	0.0556
445.3571	0.0357
445.56	0.0382
445.7628	0.029
445.9657	0.0395
446.1685	0.0485
446.3713	0.0455
446.5741	0.0384
446.7769	0.0301
446.9797	0.0509
447.1824	0.0453
447.3852	0.0212
447.5879	0.0573
447.7906	0.0552
447.9933	0.0279
448.196	0.0214
448.3986	0.02
448.6013	0.0211
448.8039	0.0074
449.0066	0.0232
449.2092	0.0291
449.4118	0.0231
449.6143	0.0167
449.8169	0.0327
450.0195	0.0171
450.222	0.0109
450.4245	0.0376
450.627	0.0262
450.8295	0.0142
451.032	0.0199
451.2345	0.0108
451.4369	0.0229
451.6394	0.0258
451.8418	0.005
452.0442	0.0157
452.2466	0.0286
452.449	0.0139
452.6513	0.0139
452.8537	0.0152
453.056	0.01
453.2583	0.0089
453.4607	0.0124
453.663	0.0157
453.8652	0.0268
454.0675	0.0114
454.2697	0.0153
454.472	0.0024
454.6742	0.0115
454.8764	0.0073
455.0786	0.0153
455.2808	-0.0013
455.4829	0.0154
455.6851	0.0119
455.8872	0.0271
456.0893	0.0155
456.2915	-0.0089
456.4935	0.0107
456.6956	0.0067
456.8977	0.0094
457.0997	0.0014
457.3018	-0.0114
457.5038	0.0125
457.7058	0.0104
457.9078	-0.0049
458.1098	0.0164
458.3117	0.0206
458.5137	0.0214
458.7156	0.0047
458.9175	-0.022
459.1194	0.0041
459.3213	0.0112
459.5232	-0.0001
459.725	-0.0062
459.9269	0.0024
460.1287	-0.011
460.3305	0.003
460.5323	0.0035
460.7341	-0.0106
460.9359	-0.0004
461.1376	0.0026
461.3394	-0.0042
461.5411	-0.0019
461.7428	0.0079
461.9445	0.013
462.1462	0.0169
462.3479	0.0049
462.5495	0.0025
462.7512	0.0064
462.9528	-0.0076
463.1544	-0.0171
463.356	-0.015
463.5576	0.0029
463.7592	-0.0154
463.9607	-0.0065
464.1623	0.0169
464.3638	0.0111
464.5653	-0.0231
464.7668	-0.004
464.9683	0.0055
465.1697	0.0069
465.3712	-0.0118
465.5726	-0.0064
465.7741	-0.0073
465.9755	-0.0108
466.1769	-0.0035
466.3782	0.0132
466.5796	-0.0184
466.7809	0.0151
466.9823	-0.0053
467.1836	0.0071
467.3849	0.0045
467.5862	0.0071
467.7875	-0.0113
467.9887	0.0079
468.19	0.0072
468.3912	-0.0094
468.5924	0.0007
468.7936	0.003
468.9948	-0.0025
469.196	-0.0092
469.3972	-0.0209
469.5983	0.0069
469.7994	-0.0169
470.0006	-0.0036
470.2017	-0.0145
470.4027	-0.01
470.6038	-0.0229
470.8049	-0.0259
471.0059	-0.0011
471.2069	-0.0257
471.408	0.0046
471.6089	0.0134
471.8099	-0.0058
472.0109	0.0104
472.2119	-0.0087
472.4128	-0.0105
472.6137	0.0031
472.8146	-0.0192
473.0155	-0.0068
473.2164	-0.0144
473.4173	-0.0095
473.6181	-0.0083
473.819	0.0097
474.0198	-0.015
474.2206	-0.0089
474.4214	-0.0081
474.6222	-0.0057
474.8229	-0.0161
475.0237	-0.0211
475.2244	-0.0073
475.4251	0.0054
475.6258	-0.0029
475.8265	0.0054
476.0272	-0.0001
476.2278	0.0049
476.4285	-0.0134
476.6291	-0.0015
476.8297	-0.0041
477.0303	-0.0198
477.2309	-0.0058
477.4315	-0.0266
477.632	-0.0147
477.8326	-0.0155
478.0331	-0.0012
478.2336	-0.0053
478.4341	-0.0109
478.6346	-0.0078
478.8351	-0.0093
479.0355	0.0004
479.236	-0.0101
479.4364	-0.0084
479.6368	-0.0052
479.8372	-0.0187
480.0376	-0.0109
480.2379	-0.0201
480.4383	-0.0068
480.6386	-0.0062
480.8389	0.0079
481.0392	-0.0175
481.2395	-0.0096
481.4398	-0.0072
481.6401	0.0026
481.8403	-0.0079
482.0405	-0.0061
482.2408	-0.0071
482.441	0.0028
482.6411	-0.0112
482.8413	-0.02
483.0415	-0.0228
483.2416	-0.0178
483.4417	0.0021
483.6419	-0.0097
483.8419	-0.0145
484.042	-0.0037
484.2421	-0.0167
484.4422	-0.0117
484.6422	-0.0171
484.8422	0.0027
485.0422	-0.0103
485.2422	-0.0058
485.4422	-0.0165
485.6422	-0.0144
485.8421	-0.0132
486.042	-0.0061
486.242	-0.0093
486.4419	-0.008
486.6417	-0.0168
486.8416	-0.0038
487.0415	-0.0134
487.2413	-0.0095
487.4411	0.0004
487.641	-0.0212
487.8408	-0.0013
488.0405	-0.0126
488.2403	-0.0187
488.4401	-0.001
488.6398	-0.0146
488.8395	-0.0166
489.0392	-0.0073
489.2389	-0.0077
489.4386	-0.0089
489.6383	-0.0102
489.8379	0.0061
490.0376	-0.0074
490.2372	-0.0201
490.4368	-0.0234
490.6364	-0.0016
490.836	-0.005
491.0355	-0.0233
491.2351	-0.0165
491.4346	-0.0061
491.6341	-0.0124
491.8336	-0.0027
492.0331	-0.0143
492.2326	-0.0282
492.432	-0.0179
492.6315	-0.0127
492.8309	-0.0168
493.0303	-0.0155
493.2297	-0.0096
493.4291	-0.0114
493.6284	-0.0065
493.8278	-0.0171
494.0271	-0.0117
494.2264	-0.0035
494.4257	-0.0147
494.625	-0.012
494.8243	-0.0283
495.0236	-0.0092
495.2228	-0.0185
495.422	-0.0076
495.6213	-0.0104
495.8205	-0.012
496.0196	-0.0146
496.2188	-0.005
496.418	-0.0089
496.6171	-0.0126
496.8162	-0.0155
497.0153	-0.0049
497.2144	-0.0122
497.4135	-0.0047
497.6126	-0.011
497.8116	-0.0179
498.0107	-0.0158
498.2097	-0.0092
498.4087	-0.0125
498.6077	-0.0099
498.8067	-0.009
499.0056	-0.0018
499.2046	-0.018
499.4035	-0.0207
499.6024	-0.0112
499.8013	-0.0141
500.0002	-0.0151
500.199	-0.008
500.3979	-0.0133
500.5967	-0.032
500.7956	-0.0063
500.9944	-0.0163
501.1932	-0.017
501.3919	-0.0072
501.5907	-0.0194
501.7895	-0.0074
501.9882	-0.0139
502.1869	-0.0094
502.3856	-0.0196
502.5843	-0.0153
502.783	-0.0128
502.9816	-0.0116
503.1803	-0.0251
503.3789	-0.022
503.5775	-0.0085
503.7761	-0.0123
503.9747	0.0004
504.1732	-0.0166
504.3718	-0.0026
504.5703	-0.004
504.7689	-0.02
504.9674	-0.01
505.1658	-0.0193
505.3643	-0.0073
505.5628	-0.0099
505.7612	-0.0094
505.9597	0.0022
506.1581	-0.0175
506.3565	-0.0054
506.5549	-0.0092
506.7532	-0.0221
506.9516	-0.0211
507.1499	-0.0097
507.3482	-0.0204
507.5465	-0.0144
507.7448	-0.0119
507.9431	-0.0083
508.1414	-0.0108
508.3396	-0.0058
508.5379	-0.021
508.7361	-0.0195
508.9343	-0.0111
509.1325	-0.0074
509.3306	-0.0098
509.5288	-0.0013
509.7269	-0.0167
509.9251	-0.0069
510.1232	-0.0223
510.3213	-0.0035
510.5193	-0.0138
510.7174	-0.0193
510.9154	-0.0157
511.1135	-0.0241
511.3115	-0.0122
511.5095	-0.0071
511.7075	-0.015
511.9055	-0.0111
512.1034	-0.0155
512.3014	-0.0103
512.4993	-0.0164
512.6972	-0.0117
512.8951	-0.026
513.093	-0.0044
513.2908	-0.0051
513.4887	-0.0094
513.6865	-0.0154
513.8844	-0.0114
514.0822	-0.0164
514.2799	-0.0218
514.4777	-0.0182
514.6755	-0.0166
514.8732	-0.0148
515.0709	-0.0102
515.2687	-0.0127
515.4664	-0.0078
515.664	-0.0128
515.8617	-0.0148
516.0594	-0.0259
516.257	-0.0077
516.4546	-0.0212
516.6522	-0.0059
516.8498	-0.0063
517.0474	-0.0008
517.2449	-0.0016
517.4425	-0.0237
517.64	-0.0112
517.8375	-0.0089
518.035	-0.0151
518.2325	-0.0181
518.43	-0.0121
518.6274	-0.0102
518.8249	-0.0168
519.0223	-0.0058
519.2197	-0.02
519.4171	-0.01
519.6145	-0.0189
519.8118	-0.0108
520.0092	-0.0051
520.2065	-0.0272
520.4038	-0.0137
520.6011	-0.0034
520.7984	-0.0135
520.9956	-0.0196
521.1929	-0.0175
521.3901	-0.0031
521.5874	-0.0023
521.7846	-0.0066
521.9818	-0.0119
522.1789	-0.0169
522.3761	-0.0145
522.5732	-0.0107
522.7704	-0.0134
522.9675	-0.0133
523.1646	-0.0165
523.3617	-0.0194
523.5587	-0.0103
523.7558	-0.0099
523.9528	-0.0223
524.1498	-0.0058
524.3468	-0.0095
524.5438	-0.018
524.7408	-0.0087
524.9378	-0.0054
525.1347	-0.0045
525.3316	-0.0067
525.5285	-0.0122
525.7254	-0.0086
525.9223	-0.0121
526.1192	-0.0154
526.316	-0.0101
526.5129	-0.0008
526.7097	0
526.9065	-0.0085
527.1033	-0.0066
527.3	-0.0074
527.4968	-0.0161
527.6935	-0.0037
527.8903	-0.0007
528.087	-0.0123
528.2837	-0.0091
528.4804	0.0048
528.677	-0.0088
528.8737	-0.0096
529.0703	-0.0041
529.2669	-0.0082
529.4635	-0.0145
529.6601	-0.0013
529.8567	-0.0062
530.0532	-0.0073
530.2498	-0.0054
530.4463	0.0002
530.6428	-0.0182
530.8393	-0.003
531.0358	-0.011
531.2322	-0.0066
531.4287	0.0021
531.6251	-0.0159
531.8215	0.0097
532.0179	-0.0111
532.2143	-0.006
532.4107	-0.0045
532.607	-0.0016
532.8034	-0.0063
532.9997	-0.008
533.196	-0.0117
533.3923	-0.0199
533.5886	-0.006
533.7848	-0.0069
533.9811	-0.0038
534.1773	-0.0016
534.3735	-0.0082
534.5697	0.001
534.7659	-0.0043
534.9621	0.0037
535.1582	-0.0105
535.3544	-0.0088
535.5505	-0.0141
535.7466	0.0022
535.9427	-0.0062
536.1387	0.0007
536.3348	-0.0173
536.5308	-0.002
536.7269	-0.0226
536.9229	-0.0012
537.1189	-0.0039
537.3148	-0.0156
537.5108	-0.0108
537.7068	-0.008
537.9027	-0.0049
538.0986	-0.0131
538.2945	-0.018
538.4904	-0.0101
538.6863	-0.0126
538.8821	-0.0115
539.078	-0.0122
539.2738	-0.0069
539.4696	-0.0079
539.6654	0.0011
539.8611	0.013
540.0569	-0.0082
540.2526	-0.0156
540.4484	-0.0078
540.6441	-0.0067
540.8398	-0.0051
541.0355	0.0034
541.2311	-0.006
541.4268	-0.0123
541.6224	-0.0012
541.818	-0.0054
542.0136	-0.0225
542.2092	-0.0086
542.4048	-0.012
542.6003	0.0045
542.7959	-0.0088
542.9914	-0.0083
543.1869	-0.0011
543.3824	-0.0096
543.5779	-0.0028
543.7734	-0.0069
543.9688	-0.0125
544.1642	-0.0071
544.3596	-0.0029
544.555	-0.0047
544.7504	-0.0094
544.9458	-0.006
545.1411	-0.0178
545.3365	0.0004
545.5318	-0.0038
545.7271	-0.0063
545.9224	-0.0016
546.1177	-0.0023
546.3129	0.0042
546.5081	-0.0164
546.7034	-0.0051
546.8986	-0.0077
547.0938	-0.0078
547.289	-0.0072
547.4841	-0.0029
547.6793	0.0046
547.8744	-0.0051
548.0695	-0.0083
548.2646	-0.0106
548.4597	-0.0019
548.6548	-0.0112
548.8498	-0.0017
549.0448	0.0087
549.2399	-0.0064
549.4349	-0.002
549.6298	0.0072
549.8248	-0.005
550.0198	0.0016
550.2147	-0.0089
550.4096	-0.0107
550.6045	-0.0078
550.7994	-0.0086
550.9943	0.0031
551.1892	-0.0086
551.384	0.0057
551.5788	-0.0134
551.7737	0.0011
551.9685	-0.0013
552.1632	-0.0091
552.358	0.0031
552.5528	-0.0027
552.7475	-0.0028
552.9422	-0.0074
553.1369	-0.0036
553.3316	-0.0005
553.5263	-0.0148
553.7209	0.0038
553.9156	-0.0137
554.1102	-0.0161
554.3048	-0.0068
554.4994	0.0057
554.694	-0.0013
554.8885	-0.0025
555.0831	-0.008
555.2776	-0.0076
555.4721	-0.0072
555.6666	0.0008
555.8611	0.0108
556.0555	-0.0055
556.25	-0.0021
556.4444	-0.0144
556.6388	-0.0063
556.8332	0.0004
557.0276	0.0039
557.222	-0.0022
557.4163	-0.007
557.6107	-0.0196
557.805	0.0008
557.9993	-0.0121
558.1936	-0.0065
558.3879	0.0029
558.5821	-0.0038
558.7764	-0.0104
558.9706	-0.0087
559.1648	-0.0008
559.359	-0.0145
559.5532	-0.0184
559.7473	-0.0092
559.9415	-0.0014
560.1356	-0.0091
560.3297	-0.0139
560.5238	-0.0128
560.7179	-0.0045
560.9119	-0.0061
561.106	-0.0068
561.3	-0.0083
561.494	-0.0084
561.688	-0.0081
561.882	-0.0162
562.076	-0.0067
562.2699	-0.0011
562.4639	-0.0078
562.6578	-0.0037
562.8517	-0.0052
563.0456	-0.0077
563.2395	0.0005
563.4333	-0.0048
563.6272	0.0019
563.821	-0.0089
564.0148	-0.0067
564.2086	-0.0075
564.4024	0.0009
564.5961	0.0004
564.7899	-0.0067
564.9836	-0.0089
565.1773	-0.0019
565.371	-0.0013
565.5647	0.0004
565.7584	-0.0029
565.952	-0.0013
566.1456	0.0067
566.3393	0.0013
566.5329	-0.0158
566.7264	0.0001
566.92	-0.0058
567.1136	-0.0013
567.3071	-0.0051
567.5006	-0.0048
567.6941	-0.0004
567.8876	-0.0013
568.0811	-0.005
568.2745	-0.0005
568.468	0.0008
568.6614	0.0005
568.8548	-0.0054
569.0482	-0.0061
569.2416	-0.0022
569.4349	-0.0045
569.6283	-0.002
569.8216	-0.0039
570.0149	-0.002
570.2082	0.004
570.4015	0.0101
570.5947	0.0056
570.788	0.003
570.9812	0.0006
571.1744	-0.001
571.3676	-0.0056
571.5608	-0.0024
571.754	0.001
571.9471	0.0015
572.1402	0.0045
572.3333	-0.0044
572.5264	-0.0059
572.7195	-0.0017
572.9126	-0.0006
573.1057	-0.0076
573.2987	-0.0006
573.4917	0.004
573.6847	-0.0056
573.8777	0.0004
574.0707	-0.0007
574.2636	-0.0052
574.4566	-0.0048
574.6495	0.0066
574.8424	-0.0068
575.0353	-0.0031
575.2281	0.0051
575.421	0.0008
575.6138	-0.0056
575.8067	-0.006
575.9995	0.0071
576.1923	-0.0024
576.385	0.0006
576.5778	-0.0045
576.7706	-0.0044
576.9633	0.0085
577.156	-0.0008
577.3487	0.002
577.5414	-0.0016
577.734	-0.0051
577.9267	0.005
578.1193	-0.0116
578.3119	-0.0108
578.5045	-0.0036
578.6971	-0.0034
578.8897	0.0008
579.0822	-0.0008
579.2747	-0.0012
579.4673	-0.0043
579.6598	-0.0031
579.8522	-0.0084
580.0447	0.0003
580.2372	-0.0154
580.4296	0.0033
580.622	-0.0077
580.8144	0.0009
581.0068	-0.0016
581.1992	-0.0106
581.3915	-0.0051
581.5839	-0.0056
581.7762	-0.0065
581.9685	-0.005
582.1608	0.0037
582.353	-0.0008
582.5453	-0.0059
582.7375	-0.0042
582.9298	-0.01
583.122	-0.0038
583.3142	-0.0053
583.5063	-0.0013
583.6985	-0.0015
583.8906	-0.0066
584.0827	-0.01
584.2749	-0.0005
584.4669	-0.002
584.659	-0.0007
584.8511	-0.0077
585.0431	-0.0054
585.2352	0.0011
585.4272	0.0015
585.6192	0.0012
585.8111	-0.0073
586.0031	-0.0004
586.195	-0.0029
586.387	0.0063
586.5789	-0.0068
586.7708	-0.0018
586.9627	-0.0021
587.1545	-0.0095
587.3464	-0.0039
587.5382	-0.0025
587.73	-0.0029
587.9218	0
588.1136	-0.0062
588.3053	0.0052
588.4971	-0.0088
588.6888	-0.0042
588.8805	-0.0011
589.0722	-0.0004
589.2639	0.0024
589.4556	-0.0025
589.6472	-0.0109
589.8389	-0.0057
590.0305	-0.0072
590.2221	0.0006
590.4137	-0.0108
590.6052	-0.0011
590.7968	-0.0012
590.9883	-0.0018
591.1798	0.0024
591.3713	-0.0058
591.5628	0.0007
591.7543	0.0037
591.9458	-0.0013
592.1372	0.0044
592.3286	0.0064
592.52	0.0027
592.7114	-0.0056
592.9028	-0.0063
593.0941	-0.0033
593.2855	-0.0011
593.4768	-0.0077
593.6681	-0.0085
593.8594	-0.0071
594.0506	-0.0055
594.2419	0.0059
594.4331	-0.0041
594.6244	0.002
594.8156	-0.0097
595.0067	-0.0013
595.1979	0.0051
595.3891	-0.0041
595.5802	-0.0006
595.7713	-0.0061
595.9624	-0.0054
596.1535	0.002
596.3446	-0.0037
596.5357	-0.0078
596.7267	0.0072
596.9177	-0
597.1087	-0.0085
597.2997	-0.0096
597.4907	0.0009
597.6817	0.0026
597.8726	0.0021
598.0635	-0.0053
598.2544	-0.0014
598.4453	-0.0011
598.6362	-0.0062
598.827	-0.0015
599.0179	-0.0048
599.2087	-0.001
599.3995	-0.0052
599.5903	0.0035
599.7811	0.0042
599.9718	-0.0025
600.1626	-0.0045
600.3533	-0.0061
600.544	0.0002
600.7347	-0.0053
600.9254	0.0041
601.116	-0.0099
601.3067	-0.0015
601.4973	0.0036
601.6879	0.0048
601.8785	-0.0124
602.0691	0.0047
602.2596	-0.0007
602.4502	0.0042
602.6407	0.0003
602.8312	-0.0035
603.0217	-0.0098
603.2122	-0.0046
603.4027	-0.0073
603.5931	-0.005
603.7835	-0.0063
603.9739	-0.0061
604.1643	-0.0044
604.3547	-0.0064
604.5451	0.0046
604.7354	-0.0028
604.9257	-0.006
605.116	-0.0049
605.3063	0.0003
605.4966	-0.0009
605.6869	-0.0057
605.8771	-0.002
606.0673	0.0053
606.2575	0.0058
606.4477	0.0018
606.6379	0.0086
606.8281	-0.0018
607.0182	-0.0042
607.2083	0.0101
607.3985	-0.0046
607.5885	-0.0049
607.7786	0.002
607.9687	-0.0012
608.1587	0.0017
608.3488	0.0025
608.5388	0.0027
608.7288	-0.0046
608.9187	-0.0005
609.1087	-0.0048
609.2986	-0.0097
609.4886	-0.0025
609.6785	-0.0016
609.8684	-0.0013
610.0582	-0.0031
610.2481	0.0012
610.4379	-0.0036
610.6278	-0.0041
610.8176	-0.0024
611.0074	-0.0018
611.1971	-0.0024
611.3869	-0.0002
611.5766	-0.0025
611.7664	0.0053
611.9561	0.0067
612.1458	-0.0011
612.3354	-0.0074
612.5251	-0.0034
612.7147	0.007
612.9044	0.0025
613.094	-0.0101
613.2836	-0.0083
613.4731	-0.008
613.6627	-0.0041
613.8522	0.0038
614.0417	0.0011
614.2313	-0.001
614.4207	-0.0052
614.6102	0.0009
614.7997	0.0026
614.9891	0.0028
615.1785	0.0012
615.3679	-0.0039
615.5573	0.0045
615.7467	-0.0064
615.9361	-0.0014
616.1254	0.0059
616.3147	0.0016
616.504	0.0037
616.6933	0.0018
616.8826	-0.0033
617.0718	0.0003
617.2611	-0.0022
617.4503	-0.0031
617.6395	-0.0036
617.8287	-0.0005
618.0179	0.0003
618.207	0.0137
618.3961	-0.0002
618.5853	-0.0002
618.7744	0.0001
618.9634	0.0054
619.1525	0.0033
619.3416	0.003
619.5306	0.0027
619.7196	-0.004
619.9086	-0.007
620.0976	-0.005
620.2866	-0.0065
620.4755	0.0009
620.6645	0.0073
620.8534	0.0051
621.0423	0.0006
621.2312	0.0064
621.42	0.0008
621.6089	0.0045
621.7977	0.0035
621.9865	-0.0054
622.1753	-0.0003
622.3641	-0.0074
622.5529	0.0029
622.7416	0.0041
622.9303	-0.0064
623.1191	-0.0019
623.3078	-0.0034
623.4964	-0.0032
623.6851	-0.0036
623.8737	-0.0002
624.0624	0.0049
624.251	-0.0006
624.4396	-0.0006
624.6282	-0.0082
624.8167	0.0032
625.0053	0.0001
625.1938	0.0072
625.3823	-0.0007
625.5708	-0.0069
625.7593	-0.0053
625.9477	-0.0135
626.1362	-0.0118
626.3246	-0.0013
626.513	0.0008
626.7014	0.0048
626.8898	-0.0066
627.0781	-0.003
627.2665	-0.0069
627.4548	0.0042
627.6431	0.0001
627.8314	0.0024
628.0197	-0.0022
628.2079	-0.0029
628.3962	-0.004
628.5844	0.0065
628.7726	0.0016
628.9608	0.012
629.1489	-0.0006
629.3371	0.0023
629.5252	-0.0026
629.7134	0.0076
629.9015	-0.003
630.0895	-0.0017
630.2776	0.0022
630.4657	-0.0001
630.6537	-0.0027
630.8417	-0.0042
631.0297	-0.0003
631.2177	-0.0041
631.4057	-0.0095
631.5936	-0.0039
631.7815	-0.0017
631.9695	0.0038
632.1574	0.0017
632.3452	0.0075
632.5331	-0.0009
632.7209	0.0031
632.9088	0.0088
633.0966	0.007
633.2844	-0.0009
633.4722	0.0009
633.6599	0.0037
633.8477	-0.0041
634.0354	-0.0036
634.2231	-0.0104
634.4108	-0.0014
634.5985	0.0062
634.7861	0.0054
634.9738	0.0007
635.1614	-0.0034
635.349	-0.001
635.5366	-0.0002
635.7242	0.0067
635.9117	0.009
636.0993	0.0025
636.2868	0.0022
636.4743	-0.0023
636.6618	0.0173
636.8492	-0.0022
637.0367	-0
637.2241	-0.0061
637.4115	-0.0087
637.5989	-0.0051
637.7863	-0.004
637.9737	-0.0069
638.161	0.0013
638.3484	-0.0064
638.5357	0.0013
638.723	0.0071
638.9103	0.0019
639.0975	0.0027
639.2848	0.0042
639.472	0.0019
639.6592	0.0072
639.8464	0.0159
640.0336	0.0021
640.2208	0.0013
640.4079	-0.0014
640.595	0.0095
640.7821	0.0038
640.9692	0.0069
641.1563	0.0059
641.3434	0.0055
641.5304	0.0005
641.7174	0.0035
641.9044	0.0035
642.0914	0.0069
642.2784	0.0059
642.4653	0.0077
642.6523	0.0048
642.8392	-0.0005
643.0261	0.0066
643.213	0.003
643.3999	-0.0043
643.5867	-0.0003
643.7735	-0.0053
643.9604	-0.0024
644.1472	0
644.3339	0.0038
644.5207	0.0033
644.7075	-0.0006
644.8942	0.0059
645.0809	0.0078
645.2676	0.0091
645.4543	0.0035
645.6409	-0.0003
645.8276	0.0084
646.0142	0.0077
646.2008	-0.0039
646.3874	0.0002
646.574	0.0031
646.7605	-0.0013
646.9471	-0.0109
647.1336	-0.0041
647.3201	0.0082
647.5066	-0.0062
647.6931	0.0052
647.8795	-0.0039
648.0659	0.0071
648.2524	0.0076
648.4388	-0.0022
648.6252	0.0013
648.8115	0.0014
648.9979	0.0047
649.1842	0.0033
649.3705	0.005
649.5568	0.0046
649.7431	0.005
649.9294	-0.0021
650.1156	-0.0011
650.3018	-0.0063
650.488	0.0018
650.6742	-0.0034
650.8604	-0.0048
651.0466	-0.0055
651.2327	0.0002
651.4188	-0.007
651.6049	-0.0043
651.791	-0.003
651.9771	0.0099
652.1632	0.0107
652.3492	-0.0033
652.5352	0.001
652.7212	-0.0075
652.9072	0.0036
653.0932	-0.0023
653.2791	-0.0044
653.465	0.0017
653.651	0.0018
653.8369	0.0044
654.0227	-0.0001
654.2086	0.0069
654.3944	0.0058
654.5803	-0.0051
654.7661	0.0003
654.9519	0.0003
655.1377	-0.0081
655.3234	0.0014
655.5092	-0.0026
655.6949	-0.007
655.8806	-0.007
656.0663	-0.0015
656.2519	-0.0014
656.4376	-0.0064
656.6232	0.0002
656.8088	-0.0032
656.9945	-0.0024
657.18	-0.0012
657.3656	-0.0002
657.5511	-0.0067
657.7367	-0.0049
657.9222	0.0067
658.1077	0.0004
658.2932	0.0028
658.4786	-0.0072
658.6641	-0.0019
658.8495	0.0026
659.0349	0.0018
659.2203	0.0021
659.4057	0.0027
659.591	0.0048
659.7764	0.0025
659.9617	-0.0023
660.147	-0.006
660.3323	-0.0027
660.5176	0.0171
660.7028	-0.0015
660.888	0.0021
661.0733	0.0022
661.2585	-0.0065
661.4436	0.004
661.6288	-0.0032
661.8139	-0.0054
661.9991	0.0056
662.1842	-0.0016
662.3693	0.002
662.5544	-0.0064
662.7394	-0.0017
662.9245	0.0045
663.1095	0.0039
663.2945	0.0028
663.4795	0.0029
663.6644	0.0062
663.8494	0.0048
664.0343	0.0013
664.2193	-0.0012
664.4042	-0.0063
664.589	-0.0037
664.7739	-0.007
664.9587	-0.0153
665.1436	0.0002
665.3284	-0.0001
665.5132	-0.0122
665.698	-0.0041
665.8827	0.0019
666.0675	-0.0022
666.2522	-0.0104
666.4369	-0.0007
666.6216	0.0006
666.8063	0.0037
666.9909	-0.0039
667.1756	-0.0068
667.3602	-0.0015
667.5448	-0.0028
667.7294	0.008
667.9139	0.002
668.0985	0.0109
668.283	-0.0018
668.4675	-0.0011
668.652	-0.001
668.8365	-0.0022
669.0209	0.0006
669.2054	0.0074
669.3898	0.0003
669.5742	0.0047
669.7586	0.0049
669.943	0.0084
670.1273	-0.0004
670.3117	0.0007
670.496	0.0068
670.6803	0.0082
670.8646	0.002
671.0488	-0.0115
671.2331	0.0093
671.4173	0.0069
671.6015	-0.0055
671.7857	0.0021
671.9699	0.0097
672.1541	0.0029
672.3382	0.0013
672.5223	0.0113
672.7064	0.0018
672.8905	0.0012
673.0746	0.0032
673.2587	-0.0045
673.4427	-0.0023
673.6267	0.0053
673.8107	-0.0041
673.9947	0.0075
674.1787	0.005
674.3626	-0.0041
674.5465	0.0068
674.7304	0.0055
674.9143	0.0087
675.0982	0.0054
675.2821	-0.0056
675.4659	0.0087
675.6497	-0.0006
675.8335	-0.0012
676.0173	0.002
676.2011	0.0062
676.3849	-0.0012
676.5686	-0.0009
676.7523	0.002
676.936	0.0005
677.1197	-0.0052
677.3034	-0.0116
677.487	0.0022
677.6706	0.0037
677.8542	0.0004
678.0378	0.0018
678.2214	-0.002
678.405	-0.0031
678.5885	-0.0029
678.772	0.0051
678.9555	-0.0074
679.139	-0.0055
679.3225	0.0063
679.5059	0.0007
679.6894	0.0015
679.8728	-0.0015
680.0562	-0.0013
680.2395	-0.0045
680.4229	-0.001
680.6062	0.0041
680.7896	0.0049
680.9729	-0.0034
681.1562	0.0017
681.3394	0.0004
681.5227	-0.0128
681.7059	0.0001
681.8891	-0.0064
682.0723	0.007
682.2555	0.0057
682.4387	0.003
682.6218	-0.0016
682.805	0.0062
682.9881	-0.0026
683.1712	-0.0075
683.3542	-0.0041
683.5373	0.0016
683.7203	-0.0053
683.9034	-0
684.0864	-0.006
684.2694	-0.0025
684.4523	0.0051
684.6353	-0.0102
684.8182	0.0052
685.0011	-0.0091
685.184	0.0032
685.3669	0.0027
685.5498	0.0039
685.7326	0.0035
685.9154	-0.0052
686.0982	0.0004
686.281	0.0018
686.4638	0.0008
686.6465	-0.0048
686.8293	-0.0065
687.012	-0.001
687.1947	-0.0102
687.3774	0.0008
687.56	-0.0112
687.7427	0.0028
687.9253	-0.0095
688.1079	-0.0042
688.2905	0.0112
688.4731	-0.0009
688.6556	-0.0065
688.8382	-0.006
689.0207	-0.0071
689.2032	-0.01
689.3857	-0.0141
689.5681	-0.0038
689.7506	-0.0075
689.933	-0.0127
690.1154	-0.0109
690.2978	-0.0032
690.4802	-0.0067
690.6626	-0.0112
690.8449	-0.0071
691.0272	0.0023
691.2095	-0.0159
691.3918	-0.0026
691.5741	-0.0007
691.7563	-0.003
691.9386	0.0045
692.1208	-0.0005
692.303	0.0009
692.4852	-0.0093
692.6673	0.0008
692.8495	-0.0048
693.0316	-0.0056
693.2137	-0.0016
693.3958	0.0005
693.5778	0.0006
693.7599	0.0032
693.9419	-0.0009
694.1239	-0.004
694.3059	-0.0082
694.4879	0.0057
694.6699	0.0161
694.8518	0.0021
695.0337	-0.0021
695.2157	0.0014
695.3975	0.0096
695.5794	0.0012
695.7613	0.0007
695.9431	-0.0034
696.1249	-0.0032
696.3067	0.0018
696.4885	0.0154
696.6703	-0.0046
696.852	0.0002
697.0337	-0.0029
697.2154	-0.0014
697.3971	0.0036
697.5788	0.0013
697.7605	0.0044
697.9421	0.0083
698.1237	-0.0063
698.3053	0.0059
698.4869	-0.0001
698.6685	-0.0043
698.85	-0.004
699.0315	0.0036
699.213	0.0004
699.3945	-0.0033
699.576	0.0082
699.7575	0.0049
699.9389	0.0015
700.1203	-0.0131
700.3017	-0.0085
700.4831	-0.0079
700.6645	-0.0075
700.8458	0.0023
701.0271	-0.0079
701.2084	0.0056
701.3897	0.0025
701.571	0.0051
701.7523	-0.0022
701.9335	0.0098
702.1147	-0.0017
702.2959	0.0048
702.4771	-0.0053
702.6583	0.0005
702.8394	-0.0034
703.0205	0.0036
703.2016	-0.0072
703.3827	-0.0016
703.5638	0.009
703.7449	-0.0023
703.9259	0.0117
704.1069	-0.0036
704.2879	0.0057
704.4689	0.0038
704.6499	-0.0008
704.8308	-0.0001
705.0117	0.0002
705.1927	0.0012
705.3735	0.0007
705.5544	-0.0111
705.7353	-0.0089
705.9161	-0.002
706.0969	-0.0046
706.2777	-0.0029
706.4585	-0.0048
706.6393	-0.0014
706.82	-0.004
707.0007	0.0025
707.1815	0.0028
707.3621	0.0062
707.5428	-0.0002
707.7235	-0.0019
707.9041	-0.0029
708.0847	-0.0124
708.2653	-0.0029
708.4459	-0.0099
708.6265	0.005
708.807	-0.0055
708.9875	-0.0044
709.168	-0.0115
709.3485	-0.0027
709.529	-0.0054
709.7095	-0.0115
709.8899	0
710.0703	-0.0072
710.2507	0.0042
710.4311	-0.0032
710.6115	-0.0148
710.7918	-0.0113
710.9721	-0.0038
711.1524	-0.0106
711.3327	-0.0056
711.513	-0.0038
711.6932	0.0015
711.8735	0.0077
712.0537	0.0021
712.2339	-0.0004
712.4141	-0.0074
712.5942	0.0012
712.7744	-0.0006
712.9545	-0.0057
713.1346	-0.0039
713.3147	-0.0051
713.4947	-0.0064
713.6748	0.0083
713.8548	0.0013
714.0348	-0.0078
714.2148	-0.0068
714.3948	0.0052
714.5748	-0.0083
714.7547	-0.008
714.9346	0.0038
715.1145	-0.0155
715.2944	-0.0077
715.4743	0.001
715.6541	-0.0012
715.834	0.0014
716.0138	-0.01
716.1936	-0.0127
716.3733	-0.0131
716.5531	-0.0009
716.7328	-0.0114
716.9126	-0.0083
717.0923	0.0059
717.2719	0.0033
717.4516	0.0092
717.6312	0.0025
717.8109	-0.0024
717.9905	0.0044
718.1701	-0.0029
718.3496	-0.0066
718.5292	-0.0035
718.7087	-0.0006
718.8882	-0.0005
719.0677	0.0065
719.2472	0.0001
719.4267	0.0002
719.6061	-0.0009
719.7856	0.0056
719.965	0.0092
720.1443	0.0025
720.3237	0.0118
720.5031	0.008
720.6824	0.0078
720.8617	-0.0031
721.041	-0.0005
721.2203	0.006
721.3995	0.0082
721.5788	0.0072
721.758	0.0028
721.9372	-0.0056
722.1164	-0.0007
722.2956	0.003
722.4747	0.0019
722.6538	-0.0027
722.8329	0.0096
723.012	0.004
723.1911	-0.0075
723.3702	0.0027
723.5492	0.0079
723.7282	0.0002
723.9072	-0.011
724.0862	-0.0037
724.2652	-0.0082
724.4441	-0.0007
724.623	-0.0057
724.8019	-0.0057
724.9808	-0.0004
725.1597	-0.0136
725.3385	-0.003
725.5174	-0.003
725.6962	-0.0064
725.875	0.0012
726.0538	-0.0017
726.2325	-0.0004
726.4112	-0.0041
726.59	-0.0039
726.7687	-0.0062
726.9474	0.002
727.126	-0.0012
727.3047	-0.0033
727.4833	0
727.6619	-0.0047
727.8405	0.0024
728.0191	-0.0028
728.1976	0.0101
728.3762	0.0052
728.5547	-0.006
728.7332	-0.015
728.9116	0.0005
729.0901	0.0035
729.2686	-0.005
729.447	-0.0056
729.6254	0.0013
729.8038	0.0014
729.9821	-0.0089
730.1605	-0.003
730.3388	0.0054
730.5171	-0.0029
730.6954	-0.0056
730.8737	-0.0033
731.0519	0.0035
731.2302	0.0014
731.4084	0.0088
731.5866	0.0032
731.7648	-0.0042
731.9429	-0.0083
732.1211	-0.0135
732.2992	-0.0029
732.4773	-0.0088
732.6554	-0.0095
732.8335	-0.0048
733.0115	0.0025
733.1896	0.0015
733.3676	-0.0082
733.5456	0.0047
733.7235	0.005
733.9015	0.0006
734.0794	-0.0017
734.2574	-0.006
734.4353	-0.0032
734.6131	-0.002
734.791	-0.0009
734.9689	0.0013
735.1467	0
735.3245	-0.0103
735.5023	-0.0075
735.68	-0.0027
735.8578	0.0056
736.0355	-0.0242
736.2132	-0.0123
736.3909	-0.003
736.5686	-0.0202
736.7463	0.0019
736.9239	-0.003
737.1015	-0.0002
737.2791	0.012
737.4567	0.0024
737.6343	-0.0077
737.8118	-0.0019
737.9894	0.0042
738.1669	-0.0142
738.3444	-0.0032
738.5218	0.0001
738.6993	0.0001
738.8767	0.0022
739.0541	0.0102
739.2315	-0.0246
739.4089	-0.0039
739.5863	-0.0017
739.7636	-0.0092
739.9409	0.0042
740.1182	0.0013
740.2955	-0.0028
740.4728	0.0034
740.65	-0.0031
740.8272	-0.0132
741.0044	-0.0114
741.1816	0.0016
741.3588	-0.0024
741.5359	-0.0017
741.7131	-0.0097
741.8902	-0.0021
742.0673	-0.0073
742.2444	-0.0129
742.4214	-0.0091
742.5985	-0.0048
742.7755	-0.0171
742.9525	-0.0257
743.1295	-0.0064
743.3064	-0.0109
743.4834	-0.0035
743.6603	-0.0028
743.8372	-0.0077
744.0141	-0.0043
744.191	-0.0013
744.3678	-0.003
744.5446	-0.0057
744.7215	0.0043
744.8982	-0.0078
745.075	-0.0131
745.2518	-0.0001
745.4285	-0.0058
745.6052	0.0013
745.7819	-0.0091
745.9586	-0.004
746.1353	-0.0008
746.3119	-0.0036
746.4885	-0.0064
746.6651	-0.0047
746.8417	-0.0035
747.0183	-0.0009
747.1948	-0.0022
747.3714	0.0067
747.5479	-0
747.7244	-0.0081
747.9008	0.0067
748.0773	0.0134
748.2537	0.0034
748.4301	-0.0134
748.6065	0.0004
748.7829	0.0048
748.9593	-0.008
749.1356	-0.0032
749.3119	-0.001
749.4882	-0.0104
749.6645	0.0027
749.8408	-0.0079
750.017	-0.0074
750.1933	0.003
750.3695	-0.005
750.5457	0.0087
750.7218	-0.0026
750.898	0.0007
751.0741	-0.0009
751.2502	-0.0049
751.4263	-0.0067
751.6024	0.0054
751.7784	-0.0044
751.9545	-0.0106
752.1305	-0.0008
752.3065	-0.0093
752.4825	-0.0067
752.6584	-0.0044
752.8344	0.0003
753.0103	-0.0032
753.1862	-0.0078
753.3621	0.0032
753.5379	-0.0018
753.7138	0.0037
753.8896	0.0028
754.0654	-0.0006
754.2412	0.0086
754.417	0.0081
754.5927	0.0025
754.7685	0.0011
754.9442	0.0102
755.1199	0.0077
755.2956	-0.0062
755.4712	0.0094
755.6469	0.0105
755.8225	-0.003
755.9981	-0.0017
756.1736	-0.0029
756.3492	-0.0026
756.5248	0.0029
756.7003	-0.0011
756.8758	0.0052
757.0513	-0.0091
757.2267	-0.0062
757.4022	0.0041
757.5776	-0.0117
757.753	0.0014
757.9284	-0.0039
758.1038	0.0034
758.2791	-0.0001
758.4545	-0.0126
758.6298	-0.0099
758.8051	-0.0023
758.9803	-0.0008
759.1556	-0.0063
759.3308	-0.0091
759.506	0.0064
759.6812	-0.0011
759.8564	0.009
760.0316	-0.0063
760.2067	0.0065
760.3819	0.0053
760.557	0.0046
760.732	0
760.9071	0.0018
761.0821	0.0099
761.2572	0.0104
761.4322	0.006
761.6072	0.0014
761.7821	0.0051
761.9571	0.0115
762.132	0.0017
762.3069	0.0017
762.4818	-0.0001
762.6567	0.0078
762.8316	-0.0001
763.0064	0.0093
763.1812	0.0019
763.356	-0.0105
763.5308	-0.0039
763.7055	0.0046
763.8803	-0.0015
764.055	-0.0112
764.2297	0.0028
764.4044	-0.009
764.579	-0.0013
764.7537	-0.0116
764.9283	0.0054
765.1029	-0.0091
765.2775	-0.0099
765.4521	-0.0066
765.6266	-0.0115
765.8011	-0.0134
765.9756	0.0008
766.1501	0.0022
766.3246	-0.0012
766.4991	-0.01
766.6735	-0.0054
766.8479	-0.0021
767.0223	0.001
767.1967	0.0007
767.371	-0.0028
767.5454	0.0005
767.7197	-0.0092
767.894	-0.0036
768.0683	-0.0003
768.2425	0.0031
768.4168	-0.0023
768.591	-0.0073
768.7652	0.0047
768.9394	0.0047
769.1135	-0.0107
769.2877	0.0097
769.4618	0.0012
769.6359	0.002
769.81	0.0006
769.984	-0.0134
770.1581	-0.0093
770.3321	-0.0011
770.5061	0.0022
770.6801	-0.0003
770.8541	0.008
771.028	0.0104
771.202	-0.0161
771.3759	0.0046
771.5498	0.0152
771.7236	0.0073
771.8975	-0.004
772.0713	0.0062
772.2451	0.0031
772.4189	0.0095
772.5927	0.0118
772.7665	-0.004
772.9402	-0.0042
773.1139	-0.0018
773.2876	-0.0046
773.4613	0.0142
773.635	0.0135
773.8086	0.0058
773.9822	0.0077
774.1558	0.0068
774.3294	-0.0141
774.503	0.0041
774.6765	0.0056
774.8501	0.0037
775.0236	0.0019
775.1971	0.0171
775.3705	-0.0012
775.544	-0.0014
775.7174	-0.0034
775.8908	-0.0018
776.0642	-0.0099
776.2376	0.0004
776.4109	-0.0092
776.5843	-0.0019
776.7576	0.0033
776.9309	0.0101
777.1041	0.0022
777.2774	0.0069
777.4506	0.0002
777.6238	-0.0079
777.797	-0.0073
777.9702	0.0048
778.1434	0.0085
778.3165	-0.0114
778.4896	0.0005
778.6627	0.0145
778.8358	0.0041
779.0089	-0.0132
779.1819	-0.0087
779.3549	0.0048
779.5279	0.0037
779.7009	-0.002
779.8739	-0.0012
780.0468	0.0009
780.2197	-0.0033
780.3926	-0.0014
780.5655	-0.002
780.7384	-0.0027
780.9112	0.0106
781.0841	-0.0097
781.2569	-0.0031
781.4297	0.006
781.6024	0.011
781.7752	-0.0018
781.9479	0.0101
782.1206	-0.0018
782.2933	-0.018
782.466	0.0098
782.6386	0.0093
782.8113	0.0033
782.9839	-0.0093
783.1565	0.0074
783.329	0.0069
783.5016	0.0035
783.6741	0.0165
783.8466	-0.0168
784.0191	0.0142
784.1916	-0.0018
784.3641	-0.0066
784.5365	0.0029
784.7089	-0.0029
784.8813	-0.0036
785.0537	-0.0054
785.2261	-0.0127
785.3984	-0.0164
785.5707	0.0016
785.743	0.0026
785.9153	-0.0132
786.0876	0.0037
786.2598	-0.0194
786.432	-0.0039
786.6042	0.0066
786.7764	-0.0084
786.9486	0.0114
787.1207	-0.0146
787.2928	-0.0027
787.4649	0.0023
787.637	0.0045
787.8091	-0.0125
787.9811	-0.0261
788.1532	-0.0075
788.3252	0.0037
788.4972	-0.0022
788.6691	0.0117
788.8411	0.0158
789.013	-0.006
789.1849	-0.0056
789.3568	-0.0044
789.5287	0.0019
789.7005	-0.0072
789.8723	-0.0008
790.0442	0.006
790.2159	-0.0085
790.3877	0.0046
790.5595	-0.0161
790.7312	0.0005
790.9029	0.0057
791.0746	-0.0036
791.2463	-0.0023
791.4179	-0.0101
791.5896	-0.0078
791.7612	-0.0037
791.9328	0.0079
792.1044	-0.0006
792.2759	-0.0189
792.4474	-0.0136
792.619	0.002
792.7905	-0.001
792.9619	0.0104
793.1334	0.0026
793.3048	0.0143
793.4762	0.0053
793.6476	0.0013
793.819	-0.0062
793.9904	0.0139
794.1617	-0.0207
794.333	-0.0001
794.5043	-0.0094
794.6756	-0.0035
794.8469	-0.0062
795.0181	-0.0058
795.1893	-0.0067
795.3605	0.0069
795.5317	-0.0101
795.7029	-0.0205
795.874	-0.0023
796.0452	-0.0075
796.2163	0.0009
796.3873	0.0142
796.5584	0.0091
796.7294	-0.0138
796.9005	0.0179
797.0715	0.0085
797.2425	-0.004
797.4134	-0.0093
797.5844	-0.0101
797.7553	-0.0133
797.9262	-0.01
798.0971	-0.0042
798.2679	-0.004
798.4388	-0.0207
798.6096	-0.012
798.7804	0.0001
798.9512	-0.0187
799.122	-0.0028
799.2927	-0.0081
799.4635	0.0026
799.6342	-0.0085
799.8049	-0.0124
799.9755	-0.0011
800.1462	0.0044
800.3168	0.01
800.4874	0.0138
800.658	0.0352
800.8286	0.0085
800.9991	0.0286
801.1696	0.0152
801.3402	0.003
801.5106	0.0046
801.6811	0.0162
801.8516	0.0029
802.022	-0.002
802.1924	-0.0164
802.3628	0.0056
802.5332	-0.0028
802.7035	0.0128
802.8739	0.0024
803.0442	-0.0044
803.2145	0.0141
803.3847	-0.0275
803.555	-0.005
803.7252	-0.0121
803.8954	-0.0211
804.0656	-0.0174
804.2358	0.0001
804.4059	0.0056
804.5761	-0.0025
804.7462	0.0096
804.9163	-0.0077
805.0864	-0.0053
805.2564	-0.016
805.4264	-0.0103
805.5965	-0.0138
805.7665	-0.005
805.9364	-0.0004
806.1064	0.0053
806.2763	0.007
806.4462	0.0335
806.6161	0.0023
806.786	0.0003
806.9559	0.0019
807.1257	-0.0172
807.2955	0.0021
807.4653	-0.0123
807.6351	0.0037
807.8048	-0.0036
807.9746	-0.0018
808.1443	0.0001
808.314	0.004
808.4837	-0.0067
808.6533	-0.0051
808.8229	0.0225
808.9926	0.0011
809.1622	0.0108
809.3317	-0.0065
809.5013	-0.0006
809.6708	0.0055
809.8403	0.0006
810.0098	-0.0019
810.1793	-0.0037
810.3488	-0.0106
810.5182	-0.0281
810.6876	0.0034
810.857	-0.0172
811.0264	0.0281
811.1958	-0.0068
811.3651	0.0014
811.5344	0.0062
811.7037	-0.0074
811.873	-0.0274
812.0422	-0.0154
812.2115	0.0058
812.3807	-0.0291
812.5499	0.0023
812.7191	-0.0076
812.8882	-0.0279
813.0574	-0.0029
813.2265	-0.0039
813.3956	-0.01
813.5646	-0.0073
813.7337	-0.0239
813.9027	0.0097
814.0718	0.0108
814.2407	-0.0034
814.4097	-0.0222
814.5787	-0.0316
814.7476	-0.0238
814.9165	0.0018
815.0854	-0.0209
815.2543	-0.0127
815.4232	-0.0165
815.592	0.0048
815.7608	0.0076
815.9296	0.0114
816.0984	-0.0066
816.2671	-0.0139
816.4359	-0.0094
816.6046	-0.0134
816.7733	-0.0092
816.942	-0.0049
817.1106	0.0074
817.2793	-0.0177
817.4479	-0.012
817.6165	-0.0002
817.785	-0.0036
817.9536	-0.0447
818.1221	-0.0053
818.2906	-0.0211
818.4591	0.0034
818.6276	-0.0197
818.7961	0.0028
818.9645	-0.0032
819.1329	-0.0162
819.3013	0.0185
819.4697	0.015
819.638	0.0119
819.8064	0.0122
819.9747	0.033
820.143	0.0081
820.3113	-0.0338
820.4795	0.0083
820.6477	0.0001
820.816	0.0086
820.9842	-0.0009
821.1523	-0.0056
821.3205	0.0084
821.4886	-0.0049
821.6567	-0.0013
821.8248	0.0001
821.9929	0.0156
822.1609	0.0055
822.329	0.0012
822.497	0.0058
822.665	-0.0169
822.833	-0.0202
823.0009	0.0127
823.1688	-0.0058
823.3367	0.0126
823.5046	0.0142
823.6725	0.0326
823.8404	0.013
824.0082	0.0049
824.176	0.0041
824.3438	-0.0069
824.5116	-0.0143
824.6793	0.0212
824.847	-0.008
825.0147	0.0023
825.1824	0.0438
825.3501	-0.0077
825.5177	-0.0294
825.6854	-0.0007
825.853	0.0163
826.0206	-0.0113
826.1881	-0.0015
826.3557	-0.021
826.5232	0.0094
826.6907	-0.0213
826.8582	-0.014
827.0257	-0.0188
827.1931	-0.0399
827.3605	-0.0188
827.528	0.0153
827.6953	-0.0295
827.8627	-0.0421
828.03	0.0284
828.1974	-0.0031
828.3647	-0.0577
828.532	-0.0385
828.6992	-0.0037
828.8665	-0.0262
829.0337	-0.0137
829.2009	0.0207
829.3681	-0.0183
829.5352	0.0184
829.7024	-0.0408
829.8695	-0.0141
830.0366	0.0079
830.2037	0.0012
830.3707	0.022
830.5378	0.0078
830.7048	0.0254
830.8718	-0.0353
831.0388	-0.0366
831.2057	0.0232
831.3727	-0.0055
831.5396	-0.0054
831.7065	-0.0361
831.8734	0.0241
832.0402	-0.019
832.2071	0.021
832.3739	-0.0134
832.5407	0.0255
832.7075	0.0015
832.8742	0.0003
833.041	-0.0256
833.2077	-0.02
833.3744	0.0424
833.541	0.0387
833.7077	0.0015
833.8743	0.0177
834.0409	0.0287
834.2075	-0.006
834.3741	-0.0358
834.5407	-0.0178
834.7072	-0.0079
834.8737	-0.0185
835.0402	0.0037
835.2067	0.0213
835.3731	0.011
835.5395	-0.0148
835.706	0.0181
835.8723	-0.0068
836.0387	0.0519
836.2051	-0.0545
836.3714	-0.0224
836.5377	0.0222
836.704	0.0039
836.8703	-0.0119
837.0365	0.0003
837.2027	-0.0019
837.3689	-0.0027
837.5351	-0.013
837.7013	-0.0097
837.8674	-0.0235
838.0335	-0.0683
838.1997	-0.0172
838.3657	-0.0144
838.5318	0.0003
838.6978	0.0332
838.8639	0.0408
839.0299	0.003
839.1958	-0.0188
839.3618	-0.0214
839.5277	0.0055
839.6937	0.0241
839.8596	-0.0095
840.0254	0.0138
840.1913	-0.0086
840.3571	0.0065
840.523	-0.0133
840.6888	-0.026
840.8545	-0.0556
841.0203	-0.0235
841.186	-0.0342
841.3517	0.0349
841.5174	0.0004
841.6831	-0.0135
841.8488	0.0169
842.0144	-0.0389
842.18	0.0084
842.3456	-0.0373
842.5112	-0.0337
842.6767	-0.0235
842.8422	-0.0153
843.0077	-0.0256
843.1732	-0.0552
843.3387	-0.027
843.5042	-0.0574
843.6696	-0.0431
843.835	-0.0476
844.0004	0.039
844.1657	-0.0095
844.3311	-0.0754
844.4964	-0.0502
844.6617	-0.0018
844.827	-0.032
844.9923	-0.0163
845.1575	0.0509
845.3227	0.0158
845.4879	-0.031
845.6531	0.0101
845.8183	-0.1045
845.9834	-0.0142
846.1485	-0.0124
846.3136	-0.0218
846.4787	-0.0979
846.6438	0.0471
846.8088	-0.0607
846.9738	-0.1334
847.1388	-0.0587
847.3038	-0.0186
847.4687	-0.2185
847.6337	-0.0084
847.7986	-0.0681
847.9635	-0.0067
848.1284	-0.0142
848.2932	0.0602
848.458	0.0163
848.6228	0.0383
848.7876	0.091
848.9524	-0.0893
849.1172	0.0007
849.2819	-0.0199
849.4466	-0.0921
849.6113	-0.1438
849.7759	-0.0572
849.9406	-0.0449
850.1052	0.0202
850.2698	-0.0086
850.4344	-0.1218
850.599	-0.0817
850.7635	0.0497
850.928	-0.0945
851.0925	0.0086
851.257	0.0535
851.4215	0.0144
851.5859	-0.0845
851.7503	0.0227
851.9147	-0.0059
852.0791	-0.097
852.2434	-0.0232
852.4078	0.0461
852.5721	0.0395
852.7364	-0.0344
852.9007	-0.1673
853.0649	0.023
853.2291	-0.0485
853.3934	0.0711
853.5575	0.0753
853.7217	-0.0152
853.8859	-0.0804
854.05	-0.0764
854.2141	-0.1088
854.3782	-0.029
854.5423	-0.0986
854.7063	0.2031
854.8703	-0.0749
855.0343	0.034
855.1983	-0.1701
855.3623	0.1714
855.5262	0.1319
855.6901	-0.011
855.854	-0.0626
856.0179	0.0732
856.1818	0.0811
856.3456	0.0259
856.5094	-0.0473
856.6732	-0.2378
856.837	-0.0692
857.0008	0.0155
857.1645	-0.0281
857.3282	-0.1574
857.4919	-0.0413
857.6556	-0.0838
857.8192	0.0502
857.9828	0.0336
858.1465	0.0471
858.31	-0.1998
858.4736	-0.0651
858.6372	-0.2418
858.8007	-0.2681
858.9642	-0.0333
859.1277	-0.1499
859.2911	-0.0585
859.4546	-0.1072
859.618	-0.2654
859.7814	-0.0841
859.9448	0.0018
860.1081	0.0296
860.2715	0.0141
860.4348	0.0228
860.5981	-0.0255
860.7614	0.0616
860.9246	-0.1299
861.0879	-0.2308
861.2511	-0.0427
861.4143	-0.4414
861.5774	0.1004
861.7406	-0.1901
861.9037	0.0057
862.0668	-0.0478
862.2299	-0.0385
862.393	-0.5684
862.556	0.0174
862.7191	-0.4244
862.8821	-0.36
863.0451	-0.0826
863.208	0.116
863.371	0.0913
863.5339	-0.0284
863.6968	0.0436
863.8597	0.4129
864.0225	-0.0319
864.1854	-0.2454
864.3482	0.5269
864.511	0.2128
864.6737	0.4271
864.8365	0.1139
864.9992	-0.3186
865.1619	-0.4161
865.3246	-0.1514
865.4873	0.169
865.65	-0.2382
865.8126	0.2007
865.9752	-0.0393
866.1378	-0.3379
866.3004	-0
866.4629	0.6352
866.6254	0.0339
866.7879	-0.1142
866.9504	-0.2532
867.1129	-0
867.2753	0.1729
867.4377	0.1615
867.6001	-0.2628
867.7625	0.1834
867.9249	-0.4254
868.0872	0.04
868.2495	-0.0094
868.4118	-0.2806
868.5741	-0.3735
868.7363	-0.3787
868.8986	-0.3176
869.0608	-0.2274
869.223	0.0726
869.3851	-0
869.5473	0.1853
869.7094	0.0124
869.8715	-0
870.0336	1.0544
870.1957	-0.0983
870.3577	-1.2453
870.5197	-0.0831
870.6817	-0.4127
870.8437	-0.1438
871.0057	-0
871.1676	-0.1616
871.3295	-0.1994
871.4914	-0
871.6533	-0.4868
871.8151	0.5319
871.977	-0
872.1388	-0
872.3006	-0
872.4623	0.8474
872.6241	0.3154
872.7858	-0
872.9475	0.2251
873.1092	-0.2679
873.2709	-0
873.4325	1.3031
873.5941	-0
873.7557	-0.4734
873.9173	-0.3673
874.0789	-0.6029
874.2404	-0
874.4019	0.0305
874.5634	-0.1632
874.7249	-0.0567
874.8863	-0.0861
875.0478	0.3199
875.2092	-0
875.3706	-0.0153
875.5319	-0.4251
875.6933	0.3924
875.8546	-0.2827
876.0159	0.9452
876.1772	1.1077
876.3385	-0
876.4997	0.5567
876.6609	-0.4008
876.8221	-0.0534
876.9833	0.3434
877.1445	-0
877.3056	0.1103
877.4667	0.2457
877.6278	1.1543
877.7889	-0.9229
877.9499	-0
878.111	-0
878.272	-0
878.433	0.3909
878.5939	-0
878.7549	-0.0726
878.9158	-0
879.0767	0.1083
879.2376	-0
879.3984	0.649
879.5593	-0
879.7201	0.8816
879.8809	-0.3864
880.0417	-0
880.2024	0.3221
880.3632	-0
880.5239	1.5969
880.6846	0.7043
880.8452	-2.4836
881.0059	-0
881.1665	0.152
881.3271	-0
881.4877	-0.5338
881.6483	-0.4799
881.8088	-0.3053
881.9693	-0
882.1298	-0
882.2903	-0
