Data from MonoPyChalIsomerACN10uM410nmA_Absorbance_14-53-29-173.txt Node
Date: Fri Jul 05 14:53:29 BST 2024
User: LASERRRRR
Spectrometer: FLMT03099
Trigger mode: 0
Integration Time (sec): 1.000000E-1
Scans to average: 1
Electric dark correction enabled: true
Nonlinearity correction enabled: false
Boxcar width: 0
XAxis mode: Wavelengths
Number of Pixels in Spectrum: 3648
>>>>>Begin Spectral Data<<<<<
179.3399	-0.0178
179.5586	-0.0178
179.7771	-0.0178
179.9957	0.3636
180.2143	-0
180.4329	-0.4193
180.6514	-0
180.8699	-0
181.0885	-0
181.307	0.2873
181.5255	-0.2055
181.744	-0.7326
181.9625	-0
182.181	-0
182.3994	-0
182.6179	-0
182.8363	-0.2335
183.0547	-0.0677
183.2732	0.0942
183.4916	0.199
183.71	0.2895
183.9284	0.5082
184.1467	-0.1134
184.3651	0.0052
184.5835	0.1763
184.8018	0.0424
185.0201	-0.0754
185.2385	-0.1564
185.4568	0.472
185.6751	0.5732
185.8934	0.3779
186.1117	0.0824
186.3299	0.0981
186.5482	0.0329
186.7664	-0.1834
186.9847	-0.0749
187.2029	0.1946
187.4211	0.1116
187.6393	0.0691
187.8575	0.0065
188.0757	0.4356
188.2939	0.0544
188.512	-0.0993
188.7302	0.3506
188.9483	-0.1162
189.1665	0.088
189.3846	-0.1661
189.6027	0.2084
189.8208	0.0978
190.0389	0.2142
190.257	0.1038
190.475	0.4483
190.6931	0.4109
190.9111	0.127
191.1292	0.2075
191.3472	0.536
191.5652	0.3259
191.7832	0.2753
192.0012	0.7732
192.2192	0.2942
192.4371	0.4109
192.6551	0.4413
192.873	0.4444
193.091	0.4247
193.3089	0.8752
193.5268	0.4226
193.7447	0.4516
193.9626	0.4401
194.1805	0.5767
194.3984	1.315
194.6162	0.4902
194.8341	0.5379
195.0519	0.6086
195.2697	0.7458
195.4875	0.5709
195.7054	0.7204
195.9231	0.5067
196.1409	0.6019
196.3587	0.6967
196.5765	0.5807
196.7942	0.6668
197.012	0.4539
197.2297	0.6804
197.4474	0.8256
197.6651	0.5052
197.8828	0.5647
198.1005	0.7163
198.3182	0.5533
198.5358	0.863
198.7535	0.5844
198.9711	0.5642
199.1888	0.7395
199.4064	0.8521
199.624	0.5379
199.8416	0.6407
200.0592	0.5905
200.2767	0.6088
200.4943	0.6438
200.7119	0.7591
200.9294	0.5313
201.1469	0.4802
201.3645	0.6575
201.582	0.5577
201.7995	0.6072
202.017	0.7748
202.2344	0.5302
202.4519	0.6411
202.6694	0.5529
202.8868	0.6763
203.1042	0.7498
203.3217	0.7842
203.5391	0.6912
203.7565	0.5995
203.9739	0.6262
204.1913	0.5503
204.4086	0.5936
204.626	0.6726
204.8433	0.6266
205.0607	0.5839
205.278	0.6389
205.4953	0.642
205.7126	0.6536
205.9299	0.6522
206.1472	0.7221
206.3644	0.6805
206.5817	0.7184
206.7989	0.6381
207.0162	0.7274
207.2334	0.6595
207.4506	0.6917
207.6678	0.7087
207.885	0.6552
208.1022	0.641
208.3194	0.6197
208.5365	0.6619
208.7537	0.6322
208.9708	0.603
209.1879	0.6467
209.405	0.7261
209.6222	0.7221
209.8392	0.6858
210.0563	0.6654
210.2734	0.6152
210.4905	0.6292
210.7075	0.6584
210.9245	0.6118
211.1416	0.6301
211.3586	0.5761
211.5756	0.6129
211.7926	0.5525
212.0096	0.6102
212.2265	0.5288
212.4435	0.6373
212.6604	0.6458
212.8774	0.5389
213.0943	0.6098
213.3112	0.5182
213.5281	0.5435
213.745	0.4672
213.9619	0.5302
214.1788	0.4473
214.3956	0.4809
214.6125	0.4479
214.8293	0.4501
215.0461	0.4869
215.2629	0.4833
215.4798	0.4327
215.6965	0.4199
215.9133	0.436
216.1301	0.4052
216.3469	0.3929
216.5636	0.418
216.7803	0.3911
216.9971	0.3917
217.2138	0.4089
217.4305	0.3828
217.6472	0.338
217.8639	0.3781
218.0805	0.3467
218.2972	0.3407
218.5138	0.3177
218.7305	0.318
218.9471	0.3038
219.1637	0.2772
219.3803	0.2838
219.5969	0.2877
219.8135	0.2451
220.0301	0.2712
220.2466	0.2523
220.4632	0.2451
220.6797	0.204
220.8962	0.233
221.1127	0.232
221.3292	0.2289
221.5457	0.2534
221.7622	0.2279
221.9787	0.254
222.1951	0.2423
222.4116	0.2622
222.628	0.2586
222.8444	0.2565
223.0608	0.2434
223.2772	0.2356
223.4936	0.2527
223.71	0.2566
223.9264	0.2654
224.1427	0.2624
224.3591	0.238
224.5754	0.2615
224.7917	0.2403
225.008	0.239
225.2243	0.2559
225.4406	0.2667
225.6569	0.2419
225.8732	0.2484
226.0894	0.2551
226.3057	0.2344
226.5219	0.2837
226.7381	0.26
226.9543	0.2875
227.1705	0.2793
227.3867	0.2588
227.6029	0.2916
227.8191	0.2901
228.0352	0.2954
228.2513	0.3189
228.4675	0.2909
228.6836	0.2837
228.8997	0.2661
229.1158	0.3219
229.3319	0.3045
229.548	0.2989
229.764	0.3021
229.9801	0.3186
230.1961	0.2993
230.4121	0.3417
230.6282	0.337
230.8442	0.3114
231.0602	0.3411
231.2761	0.3328
231.4921	0.3266
231.7081	0.3565
231.924	0.3408
232.14	0.3702
232.3559	0.3446
232.5718	0.3594
232.7877	0.3539
233.0036	0.3445
233.2195	0.3605
233.4353	0.3541
233.6512	0.3545
233.867	0.3522
234.0829	0.3627
234.2987	0.3883
234.5145	0.3563
234.7303	0.3637
234.9461	0.3956
235.1619	0.3715
235.3776	0.3529
235.5934	0.3562
235.8091	0.3637
236.0249	0.3579
236.2406	0.377
236.4563	0.3798
236.672	0.3759
236.8877	0.3809
237.1034	0.3821
237.319	0.3756
237.5347	0.3945
237.7503	0.3924
237.966	0.3936
238.1816	0.3884
238.3972	0.388
238.6128	0.3795
238.8284	0.3929
239.0439	0.4261
239.2595	0.4058
239.475	0.4092
239.6906	0.4016
239.9061	0.3974
240.1216	0.3942
240.3371	0.4067
240.5526	0.4007
240.7681	0.4237
240.9836	0.3861
241.199	0.4003
241.4145	0.3778
241.6299	0.3931
241.8453	0.3756
242.0607	0.3773
242.2761	0.3635
242.4915	0.3704
242.7069	0.3587
242.9223	0.3591
243.1376	0.3608
243.353	0.3649
243.5683	0.3582
243.7836	0.3283
243.9989	0.3432
244.2142	0.3001
244.4295	0.3154
244.6448	0.3405
244.86	0.3229
245.0753	0.3038
245.2905	0.3049
245.5057	0.2939
245.721	0.2816
245.9362	0.2887
246.1514	0.2809
246.3665	0.2733
246.5817	0.2794
246.7969	0.2649
247.012	0.2613
247.2271	0.2551
247.4423	0.2545
247.6574	0.2447
247.8725	0.2456
248.0876	0.2355
248.3026	0.2438
248.5177	0.2262
248.7328	0.2175
248.9478	0.211
249.1628	0.226
249.3779	0.2202
249.5929	0.2194
249.8079	0.2184
250.0228	0.2066
250.2378	0.2021
250.4528	0.2105
250.6677	0.1972
250.8827	0.1994
251.0976	0.2016
251.3125	0.2019
251.5274	0.1763
251.7423	0.197
251.9572	0.1947
252.172	0.1699
252.3869	0.1914
252.6017	0.1798
252.8166	0.1659
253.0314	0.1625
253.2462	0.1777
253.461	0.1825
253.6758	0.1663
253.8906	0.1802
254.1053	0.1702
254.3201	0.17
254.5348	0.1789
254.7496	0.1771
254.9643	0.1654
255.179	0.1732
255.3937	0.1674
255.6083	0.1626
255.823	0.169
256.0377	0.1771
256.2523	0.1625
256.467	0.154
256.6816	0.17
256.8962	0.165
257.1108	0.1676
257.3254	0.1686
257.54	0.1587
257.7545	0.1685
257.9691	0.169
258.1836	0.1688
258.3981	0.1688
258.6127	0.1813
258.8272	0.1638
259.0417	0.1627
259.2561	0.1589
259.4706	0.1723
259.6851	0.1716
259.8995	0.1637
260.114	0.1735
260.3284	0.1696
260.5428	0.1506
260.7572	0.1583
260.9716	0.1787
261.186	0.1634
261.4003	0.1649
261.6147	0.1586
261.829	0.1563
262.0433	0.1703
262.2577	0.1718
262.472	0.1724
262.6863	0.1574
262.9005	0.1704
263.1148	0.1631
263.3291	0.1414
263.5433	0.1644
263.7576	0.1632
263.9718	0.1638
264.186	0.1744
264.4002	0.1585
264.6144	0.1562
264.8286	0.1777
265.0427	0.1552
265.2569	0.1639
265.471	0.1604
265.6851	0.1629
265.8993	0.156
266.1134	0.1659
266.3275	0.1519
266.5415	0.161
266.7556	0.18
266.9697	0.165
267.1837	0.1754
267.3978	0.1726
267.6118	0.1697
267.8258	0.175
268.0398	0.1559
268.2538	0.18
268.4677	0.1681
268.6817	0.1541
268.8957	0.1716
269.1096	0.1662
269.3235	0.1716
269.5374	0.1589
269.7514	0.1577
269.9652	0.1589
270.1791	0.1611
270.393	0.1593
270.6068	0.1652
270.8207	0.1634
271.0345	0.1506
271.2483	0.155
271.4622	0.1508
271.676	0.1666
271.8897	0.1459
272.1035	0.1594
272.3173	0.1607
272.531	0.1586
272.7448	0.1524
272.9585	0.1371
273.1722	0.1421
273.3859	0.1458
273.5996	0.1493
273.8133	0.1572
274.0269	0.155
274.2406	0.1477
274.4542	0.1529
274.6679	0.1428
274.8815	0.1585
275.0951	0.1779
275.3087	0.1665
275.5223	0.169
275.7358	0.1653
275.9494	0.1682
276.1629	0.146
276.3765	0.1611
276.59	0.1664
276.8035	0.1694
277.017	0.1572
277.2305	0.1647
277.444	0.1647
277.6574	0.1593
277.8709	0.1608
278.0843	0.1379
278.2978	0.1575
278.5112	0.159
278.7246	0.1587
278.938	0.1696
279.1513	0.1681
279.3647	0.157
279.5781	0.1562
279.7914	0.1681
280.0047	0.1714
280.2181	0.1563
280.4314	0.1604
280.6447	0.1658
280.8579	0.1529
281.0712	0.1571
281.2845	0.1601
281.4977	0.1638
281.711	0.1531
281.9242	0.1554
282.1374	0.1638
282.3506	0.1565
282.5638	0.1598
282.7769	0.1527
282.9901	0.1565
283.2033	0.1677
283.4164	0.1648
283.6295	0.1465
283.8426	0.1584
284.0557	0.161
284.2688	0.1711
284.4819	0.1606
284.695	0.1668
284.908	0.1623
285.1211	0.1508
285.3341	0.1671
285.5471	0.1691
285.7601	0.1583
285.9731	0.1571
286.1861	0.1557
286.3991	0.1761
286.612	0.1649
286.825	0.165
287.0379	0.1725
287.2508	0.1606
287.4637	0.1616
287.6766	0.1471
287.8895	0.1673
288.1024	0.1776
288.3152	0.1622
288.5281	0.1465
288.7409	0.1535
288.9538	0.1517
289.1666	0.1521
289.3794	0.1641
289.5922	0.1543
289.8049	0.1442
290.0177	0.156
290.2304	0.1536
290.4432	0.1692
290.6559	0.1595
290.8686	0.163
291.0813	0.1522
291.294	0.1589
291.5067	0.1631
291.7194	0.161
291.932	0.1589
292.1447	0.1579
292.3573	0.1605
292.5699	0.148
292.7825	0.1531
292.9951	0.1603
293.2077	0.1519
293.4203	0.1513
293.6328	0.1424
293.8454	0.1594
294.0579	0.1519
294.2704	0.1498
294.4829	0.1427
294.6954	0.1485
294.9079	0.1488
295.1204	0.1529
295.3328	0.1479
295.5453	0.1493
295.7577	0.1505
295.9701	0.1498
296.1825	0.1563
296.3949	0.1507
296.6073	0.1555
296.8197	0.1416
297.0321	0.1582
297.2444	0.1437
297.4567	0.1521
297.6691	0.1449
297.8814	0.1379
298.0937	0.1541
298.306	0.1472
298.5182	0.1529
298.7305	0.1617
298.9428	0.1386
299.155	0.1516
299.3672	0.1449
299.5794	0.1478
299.7916	0.1519
300.0038	0.1359
300.216	0.1501
300.4282	0.1559
300.6403	0.1473
300.8525	0.1505
301.0646	0.1477
301.2767	0.1498
301.4888	0.1417
301.7009	0.1456
301.913	0.1438
302.125	0.1502
302.3371	0.1484
302.5491	0.1416
302.7612	0.1547
302.9732	0.1582
303.1852	0.143
303.3972	0.143
303.6092	0.151
303.8211	0.1413
304.0331	0.1374
304.245	0.1314
304.457	0.1451
304.6689	0.1336
304.8808	0.1538
305.0927	0.1428
305.3046	0.1295
305.5164	0.1453
305.7283	0.1318
305.9401	0.1265
306.152	0.1253
306.3638	0.1406
306.5756	0.1363
306.7874	0.1425
306.9992	0.1398
307.2109	0.1371
307.4227	0.1136
307.6344	0.1409
307.8462	0.1252
308.0579	0.1247
308.2696	0.1307
308.4813	0.1328
308.693	0.118
308.9046	0.1369
309.1163	0.1219
309.328	0.122
309.5396	0.122
309.7512	0.1262
309.9628	0.1155
310.1744	0.1142
310.386	0.1177
310.5976	0.1168
310.8091	0.121
311.0207	0.1188
311.2322	0.1148
311.4437	0.1123
311.6552	0.1158
311.8667	0.1073
312.0782	0.0992
312.2897	0.1077
312.5012	0.111
312.7126	0.097
312.924	0.1099
313.1355	0.1164
313.3469	0.1063
313.5583	0.1099
313.7696	0.1154
313.981	0.1007
314.1924	0.0966
314.4037	0.1075
314.6151	0.1206
314.8264	0.1015
315.0377	0.0995
315.249	0.1075
315.4603	0.1129
315.6716	0.1032
315.8828	0.0918
316.0941	0.1158
316.3053	0.107
316.5165	0.1029
316.7277	0.0874
316.9389	0.1071
317.1501	0.1052
317.3613	0.1218
317.5724	0.1004
317.7836	0.0973
317.9947	0.1048
318.2058	0.0969
318.417	0.0998
318.6281	0.1002
318.8391	0.097
319.0502	0.0984
319.2613	0.104
319.4723	0.1094
319.6834	0.1175
319.8944	0.0966
320.1054	0.1106
320.3164	0.1103
320.5274	0.0992
320.7383	0.1186
320.9493	0.1123
321.1602	0.1164
321.3712	0.1008
321.5821	0.105
321.793	0.1071
322.0039	0.107
322.2148	0.1075
322.4257	0.1048
322.6365	0.1127
322.8474	0.113
323.0582	0.0976
323.269	0.107
323.4798	0.117
323.6906	0.1035
323.9014	0.105
324.1122	0.1117
324.3229	0.1051
324.5337	0.1141
324.7444	0.0994
324.9551	0.1239
325.1658	0.1179
325.3765	0.1082
325.5872	0.1128
325.7979	0.101
326.0085	0.1138
326.2192	0.1254
326.4298	0.1056
326.6404	0.0995
326.851	0.108
327.0616	0.0969
327.2722	0.1237
327.4828	0.1301
327.6933	0.1203
327.9039	0.121
328.1144	0.1215
328.3249	0.1204
328.5354	0.1088
328.7459	0.1156
328.9564	0.1072
329.1669	0.1133
329.3773	0.124
329.5878	0.1136
329.7982	0.1145
330.0086	0.1073
330.219	0.1102
330.4294	0.1031
330.6398	0.1177
330.8502	0.1097
331.0605	0.1181
331.2708	0.1201
331.4812	0.1143
331.6915	0.1046
331.9018	0.1228
332.1121	0.1123
332.3224	0.1161
332.5326	0.1087
332.7429	0.1057
332.9531	0.1335
333.1633	0.1125
333.3735	0.1133
333.5837	0.1132
333.7939	0.1102
334.0041	0.1295
334.2143	0.1264
334.4244	0.1205
334.6346	0.0981
334.8447	0.1291
335.0548	0.1131
335.2649	0.1055
335.475	0.134
335.685	0.1057
335.8951	0.1325
336.1051	0.1258
336.3152	0.1175
336.5252	0.1102
336.7352	0.12
336.9452	0.1242
337.1552	0.126
337.3652	0.1207
337.5751	0.1132
337.7851	0.1224
337.995	0.1135
338.2049	0.1255
338.4148	0.112
338.6247	0.1343
338.8346	0.1211
339.0445	0.1025
339.2543	0.1294
339.4642	0.1233
339.674	0.1133
339.8838	0.1223
340.0936	0.1212
340.3034	0.1367
340.5132	0.1314
340.7229	0.1324
340.9327	0.1261
341.1424	0.1352
341.3522	0.1207
341.5619	0.1336
341.7716	0.1342
341.9813	0.1166
342.1909	0.1197
342.4006	0.1428
342.6102	0.1317
342.8199	0.1341
343.0295	0.1351
343.2391	0.1335
343.4487	0.1503
343.6583	0.1276
343.8679	0.1281
344.0774	0.1405
344.287	0.1384
344.4965	0.1275
344.706	0.1402
344.9155	0.1311
345.125	0.1298
345.3345	0.1427
345.544	0.1288
345.7534	0.1405
345.9629	0.1347
346.1723	0.131
346.3817	0.1313
346.5911	0.1347
346.8005	0.1272
347.0099	0.1298
347.2193	0.1435
347.4286	0.1305
347.638	0.142
347.8473	0.1495
348.0566	0.143
348.2659	0.1342
348.4752	0.1332
348.6845	0.1471
348.8937	0.1258
349.103	0.1567
349.3122	0.1341
349.5214	0.1278
349.7306	0.1508
349.9398	0.1516
350.149	0.1456
350.3582	0.1404
350.5674	0.1581
350.7765	0.1438
350.9856	0.1488
351.1948	0.1392
351.4039	0.1343
351.613	0.1484
351.822	0.1508
352.0311	0.161
352.2402	0.1476
352.4492	0.1386
352.6582	0.1473
352.8672	0.1415
353.0762	0.1563
353.2852	0.147
353.4942	0.145
353.7032	0.1479
353.9121	0.1409
354.1211	0.153
354.33	0.1604
354.5389	0.1483
354.7478	0.1555
354.9567	0.1544
355.1655	0.1409
355.3744	0.1413
355.5833	0.1571
355.7921	0.1593
356.0009	0.147
356.2097	0.1779
356.4185	0.1674
356.6273	0.1638
356.8361	0.1685
357.0448	0.1513
357.2536	0.1466
357.4623	0.1506
357.671	0.1598
357.8797	0.1641
358.0884	0.1691
358.2971	0.1581
358.5057	0.1599
358.7144	0.1777
358.923	0.1647
359.1316	0.1722
359.3402	0.1585
359.5488	0.1551
359.7574	0.1659
359.966	0.1723
360.1746	0.1607
360.3831	0.1684
360.5916	0.1593
360.8002	0.1629
361.0087	0.1823
361.2172	0.1804
361.4256	0.1736
361.6341	0.1779
361.8426	0.1791
362.051	0.1701
362.2594	0.1757
362.4678	0.173
362.6762	0.1969
362.8846	0.1739
363.093	0.1719
363.3014	0.1787
363.5097	0.1677
363.718	0.1701
363.9264	0.1751
364.1347	0.1702
364.343	0.1859
364.5513	0.1959
364.7595	0.1831
364.9678	0.1743
365.176	0.1958
365.3842	0.1844
365.5925	0.1894
365.8007	0.1769
366.0089	0.1819
366.217	0.1705
366.4252	0.1697
366.6333	0.2076
366.8415	0.1924
367.0496	0.1783
367.2577	0.194
367.4658	0.2044
367.6739	0.196
367.882	0.1971
368.09	0.1866
368.2981	0.2103
368.5061	0.176
368.7141	0.1942
368.9221	0.1954
369.1301	0.2035
369.3381	0.1972
369.5461	0.1837
369.754	0.195
369.962	0.1889
370.1699	0.1921
370.3778	0.2056
370.5857	0.1888
370.7936	0.1956
371.0015	0.203
371.2093	0.2002
371.4172	0.211
371.625	0.1908
371.8328	0.2013
372.0406	0.193
372.2484	0.1897
372.4562	0.2003
372.664	0.1917
372.8717	0.1991
373.0795	0.182
373.2872	0.2061
373.4949	0.1853
373.7026	0.2054
373.9103	0.2161
374.118	0.21
374.3256	0.2064
374.5333	0.1992
374.7409	0.2097
374.9485	0.2166
375.1561	0.2111
375.3637	0.2095
375.5713	0.2008
375.7789	0.2088
375.9864	0.1977
376.194	0.2143
376.4015	0.2127
376.609	0.2205
376.8165	0.2058
377.024	0.2053
377.2315	0.2064
377.4389	0.207
377.6464	0.2257
377.8538	0.2146
378.0612	0.2036
378.2686	0.2177
378.476	0.2274
378.6834	0.2132
378.8908	0.214
379.0981	0.2148
379.3055	0.2156
379.5128	0.2066
379.7201	0.2223
379.9274	0.2072
380.1347	0.2273
380.342	0.233
380.5492	0.2039
380.7565	0.2192
380.9637	0.232
381.1709	0.2179
381.3781	0.2228
381.5853	0.2417
381.7925	0.2034
381.9997	0.2405
382.2068	0.2296
382.4139	0.2368
382.6211	0.2034
382.8282	0.209
383.0353	0.2211
383.2424	0.2174
383.4494	0.2332
383.6565	0.2225
383.8635	0.2178
384.0706	0.2293
384.2776	0.2174
384.4846	0.2028
384.6916	0.221
384.8986	0.2336
385.1055	0.2146
385.3125	0.2325
385.5194	0.2129
385.7263	0.215
385.9333	0.2209
386.1402	0.2269
386.347	0.2189
386.5539	0.2144
386.7608	0.2219
386.9676	0.2052
387.1744	0.2165
387.3813	0.1972
387.5881	0.2184
387.7948	0.2237
388.0016	0.2139
388.2084	0.2199
388.4151	0.1978
388.6219	0.2103
388.8286	0.2203
389.0353	0.223
389.242	0.2027
389.4487	0.2073
389.6553	0.1839
389.862	0.1973
390.0686	0.1924
390.2753	0.2216
390.4819	0.2003
390.6885	0.2011
390.8951	0.223
391.1016	0.1864
391.3082	0.1932
391.5147	0.1983
391.7213	0.2057
391.9278	0.1998
392.1343	0.2048
392.3408	0.2012
392.5473	0.1998
392.7537	0.1912
392.9602	0.1903
393.1666	0.198
393.373	0.2126
393.5794	0.204
393.7858	0.1813
393.9922	0.1707
394.1986	0.1942
394.4049	0.2116
394.6113	0.1885
394.8176	0.2033
395.0239	0.1824
395.2302	0.177
395.4365	0.1833
395.6428	0.183
395.8491	0.192
396.0553	0.183
396.2615	0.194
396.4678	0.1879
396.674	0.1656
396.8802	0.1928
397.0863	0.2046
397.2925	0.1756
397.4987	0.1781
397.7048	0.1665
397.9109	0.1824
398.117	0.1794
398.3231	0.1779
398.5292	0.1951
398.7353	0.1891
398.9413	0.1781
399.1474	0.1812
399.3534	0.1863
399.5594	0.1786
399.7654	0.1988
399.9714	0.2005
400.1774	0.1929
400.3833	0.1665
400.5893	0.1804
400.7952	0.1801
401.0011	0.1793
401.207	0.1908
401.4129	0.1684
401.6188	0.1727
401.8247	0.1706
402.0305	0.1767
402.2364	0.16
402.4422	0.1853
402.648	0.1826
402.8538	0.1902
403.0596	0.1695
403.2654	0.1737
403.4711	0.1594
403.6768	0.1645
403.8826	0.1893
404.0883	0.1788
404.294	0.1736
404.4997	0.1773
404.7054	0.1814
404.911	0.1847
405.1167	0.1575
405.3223	0.1836
405.5279	0.1807
405.7335	0.1822
405.9391	0.1766
406.1447	0.183
406.3502	0.181
406.5558	0.1652
406.7613	0.1826
406.9668	0.1755
407.1724	0.1727
407.3778	0.1717
407.5833	0.1534
407.7888	0.1597
407.9942	0.1804
408.1997	0.173
408.4051	0.1617
408.6105	0.1698
408.8159	0.1568
409.0213	0.1643
409.2267	0.1731
409.432	0.1606
409.6374	0.1768
409.8427	0.1702
410.048	0.1699
410.2533	0.1777
410.4586	0.164
410.6639	0.1825
410.8691	0.1652
411.0744	0.168
411.2796	0.1413
411.4848	0.1646
411.69	0.1645
411.8952	0.191
412.1004	0.1555
412.3056	0.1848
412.5107	0.1683
412.7158	0.1824
412.921	0.1655
413.1261	0.1686
413.3312	0.1598
413.5362	0.1652
413.7413	0.1795
413.9464	0.1639
414.1514	0.1709
414.3564	0.1598
414.5614	0.147
414.7664	0.1495
414.9714	0.1769
415.1764	0.1717
415.3813	0.1748
415.5863	0.1595
415.7912	0.1701
415.9961	0.156
416.201	0.1662
416.4059	0.1708
416.6108	0.1518
416.8156	0.16
417.0205	0.1546
417.2253	0.1548
417.4301	0.1643
417.6349	0.1568
417.8397	0.1682
418.0445	0.148
418.2492	0.1595
418.454	0.1485
418.6587	0.1878
418.8634	0.1631
419.0681	0.1469
419.2728	0.1514
419.4775	0.1522
419.6822	0.1646
419.8868	0.1364
420.0915	0.1727
420.2961	0.1379
420.5007	0.1444
420.7053	0.1589
420.9099	0.1596
421.1144	0.1531
421.319	0.1448
421.5235	0.162
421.728	0.1629
421.9325	0.1573
422.137	0.1497
422.3415	0.1474
422.546	0.1534
422.7504	0.1637
422.9549	0.1522
423.1593	0.1618
423.3637	0.1583
423.5681	0.1465
423.7725	0.1382
423.9769	0.1294
424.1812	0.1425
424.3856	0.1422
424.5899	0.1426
424.7942	0.1477
424.9985	0.1338
425.2028	0.1184
425.4071	0.1528
425.6113	0.1138
425.8156	0.1454
426.0198	0.1364
426.224	0.132
426.4282	0.1444
426.6324	0.1337
426.8366	0.1283
427.0407	0.1273
427.2449	0.1351
427.449	0.1307
427.6531	0.1147
427.8572	0.1243
428.0613	0.1363
428.2654	0.1345
428.4694	0.1228
428.6735	0.1229
428.8775	0.1242
429.0815	0.1262
429.2855	0.1169
429.4895	0.1136
429.6935	0.1178
429.8975	0.1245
430.1014	0.1089
430.3053	0.1063
430.5093	0.1112
430.7132	0.1018
430.9171	0.0969
431.1209	0.116
431.3248	0.1102
431.5286	0.1194
431.7325	0.1119
431.9363	0.0976
432.1401	0.1129
432.3439	0.0993
432.5477	0.0842
432.7514	0.0912
432.9552	0.119
433.1589	0.0952
433.3627	0.102
433.5664	0.0969
433.7701	0.099
433.9737	0.0888
434.1774	0.0839
434.3811	0.0973
434.5847	0.0943
434.7883	0.1053
434.9919	0.0885
435.1955	0.0849
435.3991	0.0781
435.6027	0.0815
435.8062	0.0753
436.0098	0.0906
436.2133	0.0823
436.4168	0.0696
436.6203	0.0677
436.8238	0.089
437.0272	0.0748
437.2307	0.0698
437.4341	0.089
437.6375	0.0917
437.841	0.0655
438.0443	0.0723
438.2477	0.0729
438.4511	0.0558
438.6545	0.0699
438.8578	0.0886
439.0611	0.0707
439.2644	0.0635
439.4677	0.056
439.671	0.0689
439.8743	0.0639
440.0775	0.0736
440.2808	0.0543
440.484	0.0576
440.6872	0.0457
440.8904	0.0603
441.0936	0.0747
441.2967	0.0446
441.4999	0.052
441.703	0.0438
441.9062	0.061
442.1093	0.0479
442.3124	0.0618
442.5155	0.0428
442.7185	0.0458
442.9216	0.0239
443.1246	0.0658
443.3276	0.0467
443.5307	0.0411
443.7337	0.0496
443.9366	0.035
444.1396	0.0482
444.3426	0.0407
444.5455	0.0491
444.7484	0.0426
444.9513	0.0439
445.1542	0.0468
445.3571	0.032
445.56	0.0458
445.7628	0.0285
445.9657	0.0366
446.1685	0.0472
446.3713	0.0376
446.5741	0.0287
446.7769	0.0312
446.9797	0.0314
447.1824	0.0363
447.3852	0.0265
447.5879	0.0409
447.7906	0.0359
447.9933	0.0406
448.196	0.0199
448.3986	0.0243
448.6013	0.0282
448.8039	0.018
449.0066	0.0272
449.2092	0.0268
449.4118	0.0273
449.6143	0.0396
449.8169	0.034
450.0195	0.0267
450.222	0.0068
450.4245	0.0139
450.627	0.0364
450.8295	0.0213
451.032	0.029
451.2345	0.0146
451.4369	0.0301
451.6394	0.0198
451.8418	0.0115
452.0442	0.0133
452.2466	0.028
452.449	0.0037
452.6513	0.0326
452.8537	0.0107
453.056	0.0005
453.2583	0.0212
453.4607	0.0233
453.663	0.0244
453.8652	0.0309
454.0675	-0.0048
454.2697	0.0093
454.472	-0.0023
454.6742	0.0186
454.8764	0.0048
455.0786	0.0233
455.2808	0.0116
455.4829	0
455.6851	0.0209
455.8872	0.02
456.0893	0.0208
456.2915	0.0041
456.4935	0.0178
456.6956	-0.0057
456.8977	0.0058
457.0997	0.0097
457.3018	0.0012
457.5038	0.0107
457.7058	0.0023
457.9078	-0.0069
458.1098	0.016
458.3117	0.0153
458.5137	0.0144
458.7156	0.0127
458.9175	0.0016
459.1194	-0.0018
459.3213	-0.0126
459.5232	-0.0061
459.725	-0.0097
459.9269	-0.0028
460.1287	0.0027
460.3305	-0.0034
460.5323	0.0115
460.7341	-0.0101
460.9359	0.0041
461.1376	0.0053
461.3394	-0.0117
461.5411	-0.0042
461.7428	-0.0038
461.9445	0.0169
462.1462	0.025
462.3479	-0.0081
462.5495	0.0099
462.7512	0.0072
462.9528	-0.0031
463.1544	-0.0165
463.356	-0.0127
463.5576	0.0059
463.7592	-0.0249
463.9607	0.0155
464.1623	0.0057
464.3638	0.0284
464.5653	-0.0122
464.7668	0.0003
464.9683	0.0026
465.1697	0.0096
465.3712	-0.0202
465.5726	-0.0039
465.7741	0.0035
465.9755	-0.0037
466.1769	0.0033
466.3782	-0.0124
466.5796	-0.0164
466.7809	0.0014
466.9823	-0.0095
467.1836	0.0063
467.3849	-0.0096
467.5862	0.0176
467.7875	0.0008
467.9887	0.0188
468.19	-0.0079
468.3912	-0.0157
468.5924	-0.0184
468.7936	-0.02
468.9948	-0.0118
469.196	0.0013
469.3972	-0.0233
469.5983	0.0032
469.7994	-0.0185
470.0006	-0.0087
470.2017	-0.0124
470.4027	-0.004
470.6038	0.0088
470.8049	-0.0145
471.0059	-0.0138
471.2069	-0.0199
471.408	0.0071
471.6089	-0.0105
471.8099	-0.0064
472.0109	-0.001
472.2119	-0.0178
472.4128	-0.019
472.6137	-0.0066
472.8146	-0.0176
473.0155	-0.0049
473.2164	-0.0083
473.4173	0.0006
473.6181	0.0029
473.819	0.0094
474.0198	-0.0161
474.2206	-0.0148
474.4214	-0.0004
474.6222	-0.0099
474.8229	-0.0147
475.0237	-0.0156
475.2244	-0.0125
475.4251	-0.0038
475.6258	-0.0127
475.8265	-0.0155
476.0272	0.0044
476.2278	-0.0041
476.4285	-0.0035
476.6291	-0.0026
476.8297	-0.0072
477.0303	-0.01
477.2309	-0.009
477.4315	-0.0263
477.632	-0.0136
477.8326	-0.0133
478.0331	0.0084
478.2336	-0.0059
478.4341	-0.0168
478.6346	-0.015
478.8351	-0.0051
479.0355	-0.0099
479.236	-0.012
479.4364	-0.0072
479.6368	-0.0032
479.8372	-0.0109
480.0376	-0.0086
480.2379	-0.0247
480.4383	-0.0177
480.6386	0.0014
480.8389	0.0026
481.0392	-0.0114
481.2395	-0.0103
481.4398	-0.0036
481.6401	-0.007
481.8403	-0.0178
482.0405	-0.0201
482.2408	-0.0069
482.441	0.0107
482.6411	-0.0012
482.8413	-0.0197
483.0415	-0.016
483.2416	-0.0113
483.4417	-0.0136
483.6419	-0.0087
483.8419	-0.0153
484.042	0.0131
484.2421	0.0026
484.4422	-0.0007
484.6422	-0.0018
484.8422	-0.0096
485.0422	-0.0093
485.2422	-0.0011
485.4422	-0.0155
485.6422	-0.0183
485.8421	-0.0112
486.042	-0.0061
486.242	-0.0099
486.4419	-0.0165
486.6417	-0.009
486.8416	-0.0096
487.0415	-0.0101
487.2413	-0.0062
487.4411	-0.0065
487.641	-0.0172
487.8408	-0.0086
488.0405	-0.0131
488.2403	-0.0122
488.4401	-0.0003
488.6398	-0.0113
488.8395	-0.0127
489.0392	-0.0139
489.2389	-0.0096
489.4386	-0.01
489.6383	0.0022
489.8379	-0.0088
490.0376	-0.0079
490.2372	-0.0164
490.4368	-0.0145
490.6364	-0.0167
490.836	-0.0072
491.0355	-0.014
491.2351	-0.0065
491.4346	-0.0018
491.6341	-0.0142
491.8336	-0.005
492.0331	-0.0171
492.2326	-0.0235
492.432	-0.0141
492.6315	-0.0146
492.8309	-0.0162
493.0303	-0.0169
493.2297	-0.0103
493.4291	-0.0175
493.6284	-0.0165
493.8278	-0.0099
494.0271	-0.01
494.2264	-0.0001
494.4257	-0.0189
494.625	-0.0027
494.8243	-0.0215
495.0236	-0.0155
495.2228	-0.0174
495.422	-0.0077
495.6213	-0.0128
495.8205	-0.0113
496.0196	-0.0048
496.2188	-0.009
496.418	-0.0077
496.6171	-0.0067
496.8162	-0.0065
497.0153	-0.0137
497.2144	-0.0141
497.4135	-0.0079
497.6126	-0.0131
497.8116	-0.0143
498.0107	-0.0031
498.2097	-0.0296
498.4087	-0.0217
498.6077	-0.0111
498.8067	-0.0133
499.0056	-0.0024
499.2046	-0.0141
499.4035	-0.0194
499.6024	-0.0113
499.8013	0.0002
500.0002	-0.0205
500.199	-0.0103
500.3979	-0.0121
500.5967	-0.0304
500.7956	-0.0123
500.9944	-0.0124
501.1932	-0.0204
501.3919	-0.0144
501.5907	-0.011
501.7895	-0.0043
501.9882	-0.0079
502.1869	-0.0156
502.3856	-0.0178
502.5843	-0.0138
502.783	-0.0103
502.9816	-0.0105
503.1803	-0.0245
503.3789	-0.0187
503.5775	0.0017
503.7761	-0.0167
503.9747	-0.009
504.1732	-0.0089
504.3718	-0.0037
504.5703	-0.0083
504.7689	-0.0172
504.9674	-0.0132
505.1658	-0.0156
505.3643	-0.0052
505.5628	-0.0068
505.7612	-0.0207
505.9597	0.0025
506.1581	-0.0085
506.3565	-0.0038
506.5549	-0.0057
506.7532	-0.0342
506.9516	-0.0144
507.1499	-0.0116
507.3482	-0.0186
507.5465	-0.0216
507.7448	-0.0062
507.9431	-0.0046
508.1414	-0.0092
508.3396	-0.0017
508.5379	-0.0056
508.7361	-0.0142
508.9343	-0.0139
509.1325	-0.003
509.3306	-0.0118
509.5288	-0.0057
509.7269	-0.0162
509.9251	-0.0027
510.1232	-0.0094
510.3213	-0.0104
510.5193	-0.0007
510.7174	-0.0179
510.9154	-0.0132
511.1135	-0.0058
511.3115	-0.0096
511.5095	-0.0108
511.7075	-0.0055
511.9055	-0.0117
512.1034	-0.0108
512.3014	-0.0074
512.4993	-0.0115
512.6972	-0.0107
512.8951	-0.0191
513.093	-0.0065
513.2908	-0.0112
513.4887	-0.0115
513.6865	-0.0102
513.8844	-0.0205
514.0822	-0.0187
514.2799	-0.0254
514.4777	-0.0125
514.6755	-0.0156
514.8732	-0.0234
515.0709	-0.0076
515.2687	-0.0134
515.4664	-0.01
515.664	-0.018
515.8617	-0.0046
516.0594	-0.0245
516.257	-0.0055
516.4546	-0.0182
516.6522	-0.0057
516.8498	-0.0072
517.0474	0.0005
517.2449	-0.0075
517.4425	-0.0145
517.64	-0.0087
517.8375	-0.0085
518.035	-0.0143
518.2325	-0.0152
518.43	-0.0168
518.6274	-0.0142
518.8249	-0.0221
519.0223	-0.0083
519.2197	-0.0178
519.4171	-0.0163
519.6145	-0.0172
519.8118	-0.0133
520.0092	-0.0118
520.2065	-0.0239
520.4038	-0.0111
520.6011	-0.0109
520.7984	-0.0197
520.9956	-0.0107
521.1929	-0.0206
521.3901	0.0004
521.5874	-0.0074
521.7846	-0.0135
521.9818	-0.0122
522.1789	-0.0109
522.3761	-0.012
522.5732	-0.009
522.7704	-0.0066
522.9675	-0.0059
523.1646	-0.0116
523.3617	-0.0154
523.5587	-0.0008
523.7558	-0.0078
523.9528	-0.0146
524.1498	-0.0101
524.3468	-0.0143
524.5438	-0.0137
524.7408	-0.0056
524.9378	0.0002
525.1347	-0.0063
525.3316	-0.0037
525.5285	-0.0112
525.7254	-0.0213
525.9223	-0.0057
526.1192	-0.0033
526.316	-0.0106
526.5129	-0.0025
526.7097	-0.0059
526.9065	-0.0194
527.1033	-0.0089
527.3	-0.0115
527.4968	-0.013
527.6935	-0.0108
527.8903	-0.0152
528.087	-0.0065
528.2837	-0.0115
528.4804	-0.0129
528.677	-0.008
528.8737	0.0035
529.0703	-0.0104
529.2669	-0.005
529.4635	-0.0083
529.6601	-0.0094
529.8567	-0.016
530.0532	-0.0105
530.2498	0.0013
530.4463	-0.0047
530.6428	-0.0239
530.8393	-0.0042
531.0358	-0.0035
531.2322	-0.0119
531.4287	-0.0153
531.6251	-0.0144
531.8215	0.0071
532.0179	-0.0046
532.2143	0.0025
532.4107	-0.0123
532.607	-0.0215
532.8034	-0.0059
532.9997	-0.0089
533.196	-0.0053
533.3923	-0.014
533.5886	-0.0062
533.7848	-0.004
533.9811	-0.0008
534.1773	-0.0092
534.3735	0.0003
534.5697	-0.0042
534.7659	-0.0042
534.9621	-0.0026
535.1582	-0.0183
535.3544	-0.0174
535.5505	-0.0154
535.7466	-0.0101
535.9427	-0.0008
536.1387	-0.004
536.3348	-0.0199
536.5308	-0.0011
536.7269	-0.0163
536.9229	0.0017
537.1189	-0.0173
537.3148	-0.0185
537.5108	-0.0183
537.7068	-0.0033
537.9027	-0.0049
538.0986	-0.0112
538.2945	-0.0132
538.4904	-0.0086
538.6863	-0.0067
538.8821	-0.007
539.078	-0.0173
539.2738	-0.0075
539.4696	-0.0115
539.6654	-0.0064
539.8611	0.0062
540.0569	-0.0042
540.2526	-0.0087
540.4484	0.0001
540.6441	-0.0009
540.8398	-0.0075
541.0355	-0.0025
541.2311	-0.0124
541.4268	-0.0181
541.6224	-0.0007
541.818	-0.0088
542.0136	-0.0103
542.2092	-0.009
542.4048	0.0012
542.6003	-0.0034
542.7959	-0.0103
542.9914	-0.008
543.1869	-0.0044
543.3824	-0.009
543.5779	-0.0102
543.7734	-0.0065
543.9688	-0.0146
544.1642	-0.0017
544.3596	-0.0107
544.555	-0.0071
544.7504	-0.008
544.9458	-0.0087
545.1411	-0.0108
545.3365	-0.0128
545.5318	-0.0074
545.7271	-0.0043
545.9224	-0.0039
546.1177	-0.002
546.3129	-0.0054
546.5081	-0.0097
546.7034	-0.0074
546.8986	-0.0046
547.0938	-0.0054
547.289	-0.0081
547.4841	-0.0009
547.6793	0.0081
547.8744	-0.0083
548.0695	-0.0024
548.2646	-0.009
548.4597	-0.0039
548.6548	-0.0076
548.8498	-0.0079
549.0448	0.0051
549.2399	-0.0115
549.4349	-0.0001
549.6298	-0.0047
549.8248	-0.0051
550.0198	-0.0073
550.2147	-0.0044
550.4096	-0.0063
550.6045	-0.0063
550.7994	-0.0011
550.9943	-0.0015
551.1892	-0.0036
551.384	-0.0029
551.5788	-0.0137
551.7737	-0.0008
551.9685	-0.0078
552.1632	0.0017
552.358	-0.0025
552.5528	0.0058
552.7475	-0.0005
552.9422	0.0009
553.1369	-0.0073
553.3316	0.0046
553.5263	-0.0073
553.7209	-0.0022
553.9156	-0.002
554.1102	-0.0222
554.3048	-0.0038
554.4994	0.0029
554.694	0.0005
554.8885	-0.0035
555.0831	-0.0107
555.2776	-0.0067
555.4721	-0.0017
555.6666	-0.0169
555.8611	0.0078
556.0555	-0.0023
556.25	-0.001
556.4444	-0.0077
556.6388	-0.0053
556.8332	0.0033
557.0276	0.0014
557.222	-0.0062
557.4163	-0.0032
557.6107	-0.0075
557.805	0.0053
557.9993	-0.0047
558.1936	-0.0058
558.3879	0.0025
558.5821	0.0002
558.7764	-0.0059
558.9706	-0.0042
559.1648	0.0002
559.359	-0.0069
559.5532	-0.0088
559.7473	-0.0034
559.9415	-0.0069
560.1356	-0.0118
560.3297	-0.0105
560.5238	-0.0047
560.7179	-0.0084
560.9119	-0.0079
561.106	-0.0042
561.3	-0.0042
561.494	-0.0086
561.688	-0.0079
561.882	-0.0172
562.076	-0.0183
562.2699	0.0032
562.4639	-0.0029
562.6578	-0.0098
562.8517	-0.0024
563.0456	0.0058
563.2395	-0.0034
563.4333	0.0033
563.6272	0.0062
563.821	-0.0057
564.0148	-0.0058
564.2086	-0.0097
564.4024	-0.0109
564.5961	-0.0016
564.7899	0.0035
564.9836	-0.0085
565.1773	-0.0043
565.371	0.0062
565.5647	0.001
565.7584	0.0024
565.952	0.0056
566.1456	0.0038
566.3393	-0.0012
566.5329	-0.0091
566.7264	-0.0052
566.92	-0.0067
567.1136	0.0028
567.3071	-0.0143
567.5006	0.0072
567.6941	0.0008
567.8876	0
568.0811	0.0004
568.2745	-0.0071
568.468	0.0031
568.6614	0.0015
568.8548	0.0011
569.0482	-0.0073
569.2416	0.0021
569.4349	-0.0055
569.6283	0.0051
569.8216	-0.0028
570.0149	-0.0078
570.2082	-0.0007
570.4015	-0.0019
570.5947	0.0016
570.788	0.0047
570.9812	0.0007
571.1744	0.0013
571.3676	-0.009
571.5608	-0.0031
571.754	0.0015
571.9471	0.0027
572.1402	0.0017
572.3333	-0.0049
572.5264	-0.0028
572.7195	-0.0003
572.9126	-0.0039
573.1057	-0.0093
573.2987	-0.0045
573.4917	0.0011
573.6847	-0.0097
573.8777	0.0012
574.0707	0.0042
574.2636	-0.0085
574.4566	-0.0098
574.6495	0.0078
574.8424	-0.0046
575.0353	0.0014
575.2281	0.003
575.421	-0.0015
575.6138	-0.0017
575.8067	-0.0079
575.9995	0.0002
576.1923	-0.0055
576.385	-0.0026
576.5778	0.0016
576.7706	-0.006
576.9633	-0.0025
577.156	0.0025
577.3487	-0.005
577.5414	0.0013
577.734	-0.005
577.9267	0.0026
578.1193	-0.0105
578.3119	-0.0079
578.5045	-0.0003
578.6971	-0.0018
578.8897	0.0007
579.0822	-0.0034
579.2747	0.0025
579.4673	-0.0012
579.6598	-0.0099
579.8522	0.0021
580.0447	-0.0071
580.2372	-0.0049
580.4296	0.0013
580.622	-0.003
580.8144	-0.0043
581.0068	-0.0022
581.1992	-0.0074
581.3915	-0.0064
581.5839	-0.0092
581.7762	-0.0059
581.9685	-0.0079
582.1608	-0.0011
582.353	0.001
582.5453	0.0007
582.7375	0.0019
582.9298	-0.0013
583.122	-0.0042
583.3142	-0.0008
583.5063	-0.0072
583.6985	-0.0049
583.8906	-0.0042
584.0827	-0.0084
584.2749	0.0015
584.4669	-0.0058
584.659	-0.0015
584.8511	-0.0031
585.0431	-0.0093
585.2352	0.0036
585.4272	-0.0047
585.6192	0.0006
585.8111	-0.0056
586.0031	-0.0068
586.195	-0.0064
586.387	0.0069
586.5789	-0.0018
586.7708	0.0089
586.9627	-0.0041
587.1545	-0.003
587.3464	-0.0008
587.5382	-0.0012
587.73	-0.0015
587.9218	0.0058
588.1136	0
588.3053	0.0043
588.4971	-0.0054
588.6888	-0.0135
588.8805	-0.001
589.0722	-0.0001
589.2639	-0.0025
589.4556	-0.0014
589.6472	-0.0067
589.8389	-0.0105
590.0305	-0.0034
590.2221	0.0009
590.4137	-0.0086
590.6052	0.0058
590.7968	-0.0021
590.9883	-0.0056
591.1798	-0.005
591.3713	0.0023
591.5628	0.0041
591.7543	0.0011
591.9458	-0.001
592.1372	-0.0023
592.3286	0.002
592.52	0.0005
592.7114	-0.0051
592.9028	-0.0051
593.0941	-0.0017
593.2855	-0.001
593.4768	-0.0087
593.6681	-0.0129
593.8594	-0.0109
594.0506	-0.0016
594.2419	0.0082
594.4331	-0.0038
594.6244	0.002
594.8156	-0.0095
595.0067	0.0029
595.1979	-0.0037
595.3891	-0.0016
595.5802	-0.0065
595.7713	-0.0066
595.9624	-0.0129
596.1535	0.0079
596.3446	0.0007
596.5357	-0.0088
596.7267	0.0012
596.9177	-0.0065
597.1087	-0.0084
597.2997	-0.0053
597.4907	-0.0004
597.6817	-0.0034
597.8726	-0.0025
598.0635	-0.0033
598.2544	-0.0012
598.4453	-0.0029
598.6362	0.0004
598.827	-0.0019
599.0179	0.006
599.2087	-0.0006
599.3995	-0.0016
599.5903	-0.0005
599.7811	0.0002
599.9718	-0.0044
600.1626	-0.0055
600.3533	-0.0041
600.544	0.0016
600.7347	-0.0064
600.9254	-0.0014
601.116	-0.0078
601.3067	-0.0045
601.4973	-0.0024
601.6879	0.0068
601.8785	-0.0034
602.0691	-0.0059
602.2596	0.0044
602.4502	0.0028
602.6407	0.0046
602.8312	0.0032
603.0217	-0.0094
603.2122	0.0001
603.4027	-0.0011
603.5931	-0.0057
603.7835	-0.0115
603.9739	0.0009
604.1643	-0.0031
604.3547	-0.0063
604.5451	0.0011
604.7354	0.005
604.9257	-0.0038
605.116	-0.0034
605.3063	0.0025
605.4966	-0.0031
605.6869	-0.0038
605.8771	-0.0049
606.0673	0.0042
606.2575	-0.0006
606.4477	0.0045
606.6379	-0.0012
606.8281	0.0028
607.0182	-0.0008
607.2083	0.0093
607.3985	-0.0009
607.5885	-0.002
607.7786	-0.0008
607.9687	-0.0046
608.1587	0.0021
608.3488	-0.0003
608.5388	0.0013
608.7288	-0.0034
608.9187	-0.0034
609.1087	-0.0039
609.2986	-0.0056
609.4886	-0.0063
609.6785	-0.0007
609.8684	-0.002
610.0582	0.0017
610.2481	-0.0048
610.4379	-0.0022
610.6278	-0.0063
610.8176	-0.0018
611.0074	-0.0053
611.1971	-0.0054
611.3869	-0.0039
611.5766	-0.0114
611.7664	0.0053
611.9561	0.0008
612.1458	-0.001
612.3354	-0.0047
612.5251	-0.0013
612.7147	-0.0034
612.9044	0.0056
613.094	-0.0096
613.2836	-0.0014
613.4731	-0.0071
613.6627	-0.0048
613.8522	0.0037
614.0417	0.0105
614.2313	-0.0016
614.4207	-0.0055
614.6102	-0.0007
614.7997	-0.0039
614.9891	-0.0092
615.1785	-0.0023
615.3679	-0.0094
615.5573	0.0015
615.7467	0.0014
615.9361	-0.0071
616.1254	-0.0053
616.3147	0.0015
616.504	0.0035
616.6933	0.0014
616.8826	0.0123
617.0718	0.0079
617.2611	-0.0023
617.4503	-0.0101
617.6395	-0.0028
617.8287	-0.0023
618.0179	-0.0044
618.207	0.0119
618.3961	-0.0046
618.5853	-0.0011
618.7744	0.009
618.9634	0.0027
619.1525	-0.0004
619.3416	-0.0031
619.5306	-0.0082
619.7196	-0.005
619.9086	-0.0077
620.0976	0.0022
620.2866	-0.0056
620.4755	0.0064
620.6645	0.0064
620.8534	0.0018
621.0423	0.006
621.2312	0.0077
621.42	0.0038
621.6089	-0.0015
621.7977	-0.0004
621.9865	-0.0149
622.1753	0.0043
622.3641	-0.0076
622.5529	-0.0036
622.7416	-0.0004
622.9303	-0.0005
623.1191	0.0041
623.3078	-0.0049
623.4964	0.0003
623.6851	-0.0015
623.8737	-0.0069
624.0624	0.0053
624.251	-0.0021
624.4396	-0.0045
624.6282	-0.013
624.8167	-0.0014
625.0053	0.0045
625.1938	-0.0042
625.3823	0.002
625.5708	0.0007
625.7593	-0.0093
625.9477	-0.0072
626.1362	-0.009
626.3246	-0.0002
626.513	0.0034
626.7014	-0.003
626.8898	0.0006
627.0781	-0.01
627.2665	-0.0005
627.4548	-0.0012
627.6431	0.0026
627.8314	0.0081
628.0197	0.0133
628.2079	-0.0068
628.3962	-0.0017
628.5844	0
628.7726	0.0031
628.9608	-0.0032
629.1489	-0.0018
629.3371	-0.0008
629.5252	-0.0067
629.7134	0.0053
629.9015	-0.0021
630.0895	-0.0054
630.2776	0.0074
630.4657	0.0014
630.6537	0.0026
630.8417	0.0025
631.0297	-0.0052
631.2177	0.0016
631.4057	-0.0095
631.5936	0.0015
631.7815	-0.0023
631.9695	-0.0033
632.1574	0.0015
632.3452	0.0139
632.5331	0.001
632.7209	-0.0015
632.9088	0.007
633.0966	0.0131
633.2844	0.0028
633.4722	0.0025
633.6599	0.0016
633.8477	-0.0021
634.0354	-0.0037
634.2231	-0.0032
634.4108	-0
634.5985	0.0036
634.7861	-0.0001
634.9738	-0.0023
635.1614	0.0042
635.349	0.0032
635.5366	0.001
635.7242	-0.0016
635.9117	0.0049
636.0993	0.0059
636.2868	0.0079
636.4743	-0.0065
636.6618	0.004
636.8492	-0.0011
637.0367	0.003
637.2241	0.0009
637.4115	-0.0039
637.5989	0.0011
637.7863	0.0033
637.9737	-0.0044
638.161	0.0005
638.3484	-0.0032
638.5357	0.0048
638.723	0.0045
638.9103	0.0018
639.0975	0.0062
639.2848	0.0077
639.472	0.0016
639.6592	0.0092
639.8464	0.0133
640.0336	0.007
640.2208	0.0004
640.4079	-0.0013
640.595	0.0043
640.7821	0.0048
640.9692	0.0001
641.1563	0.0005
641.3434	-0.0041
641.5304	0.0025
641.7174	0.003
641.9044	0.0019
642.0914	0.008
642.2784	0.0086
642.4653	0.0088
642.6523	0.0061
642.8392	-0.0015
643.0261	0.0006
643.213	0.0036
643.3999	0.0013
643.5867	-0.0057
643.7735	-0.0047
643.9604	-0.0068
644.1472	0.003
644.3339	0.0067
644.5207	-0.005
644.7075	0.0021
644.8942	0.0026
645.0809	0.0093
645.2676	0.0066
645.4543	0.0035
645.6409	0.0041
645.8276	-0.0014
646.0142	0.0001
646.2008	0.0017
646.3874	-0.0053
646.574	0.0004
646.7605	-0.0038
646.9471	-0.0071
647.1336	-0.0012
647.3201	0.0082
647.5066	-0.0079
647.6931	0.004
647.8795	-0.0008
648.0659	0.0021
648.2524	0.007
648.4388	-0.0048
648.6252	0.0062
648.8115	-0.0053
648.9979	0.001
649.1842	-0.0019
649.3705	0.006
649.5568	0
649.7431	0.0063
649.9294	-0.0073
650.1156	0.0025
650.3018	-0.0064
650.488	0.0073
650.6742	0.0047
650.8604	0.0049
651.0466	-0.0041
651.2327	0.006
651.4188	0.0013
651.6049	-0.0005
651.791	-0.0043
651.9771	0.0026
652.1632	-0.0033
652.3492	0.0007
652.5352	-0.0083
652.7212	-0.0104
652.9072	0.002
653.0932	-0.0026
653.2791	-0.0089
653.465	-0.0027
653.651	-0.0112
653.8369	-0.0013
654.0227	0.004
654.2086	0.0107
654.3944	0.0055
654.5803	0.0065
654.7661	0.0063
654.9519	0.0049
655.1377	-0.0072
655.3234	-0.0046
655.5092	-0.0035
655.6949	-0.007
655.8806	-0.0016
656.0663	-0.0005
656.2519	-0.0054
656.4376	-0.0023
656.6232	0.0009
656.8088	0.0028
656.9945	0
657.18	0.0041
657.3656	0.0016
657.5511	-0.0058
657.7367	-0.0096
657.9222	0.0054
658.1077	0.0038
658.2932	0.0004
658.4786	-0.0086
658.6641	-0.0051
658.8495	0.0015
659.0349	0.0087
659.2203	0.007
659.4057	-0.001
659.591	0.0005
659.7764	-0.004
659.9617	-0.0074
660.147	-0.0026
660.3323	0.0011
660.5176	0.0038
660.7028	0.0055
660.888	0.0073
661.0733	-0.0012
661.2585	-0.0065
661.4436	0.0059
661.6288	0.0028
661.8139	0.0017
661.9991	0.0037
662.1842	-0.0023
662.3693	0.0009
662.5544	-0.001
662.7394	0.002
662.9245	-0.0004
663.1095	-0.0043
663.2945	-0.0058
663.4795	-0.001
663.6644	0.0018
663.8494	0.0011
664.0343	0.0009
664.2193	0.0023
664.4042	-0.0041
664.589	-0.0106
664.7739	-0.0033
664.9587	-0.0105
665.1436	-0.0057
665.3284	-0.0043
665.5132	-0.004
665.698	-0.0073
665.8827	-0.0012
666.0675	-0.0056
666.2522	-0.003
666.4369	0.0011
666.6216	0.0027
666.8063	0.0036
666.9909	-0.0004
667.1756	0.0026
667.3602	-0.0013
667.5448	0.003
667.7294	0.0106
667.9139	0.0017
668.0985	0.0137
668.283	-0.001
668.4675	-0.0022
668.652	0.004
668.8365	-0.0061
669.0209	0.003
669.2054	0.0008
669.3898	-0.0044
669.5742	-0.0004
669.7586	0.0045
669.943	0.0069
670.1273	0.0024
670.3117	-0.0009
670.496	-0.0042
670.6803	0.0061
670.8646	-0.0012
671.0488	0.0028
671.2331	0.0057
671.4173	0.0011
671.6015	-0.0042
671.7857	0.0043
671.9699	-0.0016
672.1541	0.0022
672.3382	0.0021
672.5223	0.0001
672.7064	0.0005
672.8905	0.0067
673.0746	0.0033
673.2587	-0.005
673.4427	-0.0027
673.6267	0.0057
673.8107	0.0075
673.9947	0.0048
674.1787	0.0075
674.3626	-0.0102
674.5465	0.0022
674.7304	0.0069
674.9143	0.0017
675.0982	0.0035
675.2821	-0.0072
675.4659	0.0129
675.6497	0.0025
675.8335	-0.0069
676.0173	0.0039
676.2011	0.001
676.3849	0.0065
676.5686	-0.0081
676.7523	-0.0013
676.936	0.0023
677.1197	0.0053
677.3034	-0.0073
677.487	0.0022
677.6706	-0.0025
677.8542	0.0064
678.0378	-0.0034
678.2214	-0.002
678.405	-0.0024
678.5885	-0.0095
678.772	-0.002
678.9555	-0.0048
679.139	-0.0029
679.3225	0.0004
679.5059	0.0003
679.6894	0.0007
679.8728	-0.0042
680.0562	-0.0137
680.2395	-0.0033
680.4229	-0.0006
680.6062	0.0042
680.7896	0.0063
680.9729	-0.0062
681.1562	-0.0006
681.3394	0.0026
681.5227	-0.0104
681.7059	-0.0014
681.8891	-0.0005
682.0723	0.0017
682.2555	0.0031
682.4387	-0.0019
682.6218	-0.0025
682.805	0.0024
682.9881	0.0049
683.1712	-0.0053
683.3542	-0.0015
683.5373	-0.001
683.7203	-0.0077
683.9034	-0
684.0864	-0.0091
684.2694	0
684.4523	-0.0035
684.6353	-0.0026
684.8182	0.0015
685.0011	-0.0074
685.184	0.0006
685.3669	-0.004
685.5498	0.0007
685.7326	-0.0019
685.9154	-0.0044
686.0982	0.0054
686.281	0.0064
686.4638	-0.0019
686.6465	-0.0032
686.8293	-0.0006
687.012	-0.0032
687.1947	-0.0106
687.3774	-0.0054
687.56	-0.0062
687.7427	0.0001
687.9253	-0.0074
688.1079	-0.0034
688.2905	-0.0025
688.4731	-0.0051
688.6556	-0.0026
688.8382	-0.005
689.0207	-0.0009
689.2032	-0.0167
689.3857	-0.013
689.5681	-0.0085
689.7506	-0.0121
689.933	-0.0034
690.1154	-0.0059
690.2978	-0.0007
690.4802	-0
690.6626	-0.0204
690.8449	-0.0096
691.0272	0.0024
691.2095	-0.0081
691.3918	-0.0059
691.5741	-0.0004
691.7563	-0.0074
691.9386	0.001
692.1208	-0.0059
692.303	0.0062
692.4852	-0.0064
692.6673	0.0046
692.8495	-0.0031
693.0316	0.0024
693.2137	0.0009
693.3958	0.0017
693.5778	-0.0048
693.7599	-0.0054
693.9419	0.0012
694.1239	0.0019
694.3059	-0.0059
694.4879	0.0012
694.6699	0.0086
694.8518	0.0034
695.0337	-0.0083
695.2157	0.0049
695.3975	-0.001
695.5794	-0.0003
695.7613	0.0033
695.9431	0.0027
696.1249	0.0023
696.3067	-0.0045
696.4885	0.0093
696.6703	-0.0081
696.852	0.0046
697.0337	0.0004
697.2154	-0.0031
697.3971	-0.0002
697.5788	0.004
697.7605	-0.006
697.9421	0.0005
698.1237	-0.0038
698.3053	0.0032
698.4869	-0.0055
698.6685	-0.0079
698.85	-0.0081
699.0315	0.005
699.213	-0.0085
699.3945	-0.0018
699.576	0.0035
699.7575	-0.0023
699.9389	0.0038
700.1203	-0.0004
700.3017	-0.014
700.4831	-0.0134
700.6645	-0.0027
700.8458	-0.0035
701.0271	-0.0042
701.2084	0.0053
701.3897	0.0049
701.571	0.0028
701.7523	-0.0041
701.9335	0.0011
702.1147	0.0006
702.2959	0.0014
702.4771	-0.0001
702.6583	-0.0017
702.8394	-0.0032
703.0205	0.0021
703.2016	-0.0006
703.3827	0.0007
703.5638	0.0108
703.7449	-0.0008
703.9259	0.0071
704.1069	-0.0136
704.2879	0.0061
704.4689	0.011
704.6499	-0.003
704.8308	0.001
705.0117	0.0013
705.1927	0.0046
705.3735	0.0036
705.5544	-0.0094
705.7353	-0.0019
705.9161	-0.0084
706.0969	-0.0058
706.2777	0.0016
706.4585	-0.0027
706.6393	-0.0009
706.82	-0.0025
707.0007	0.0023
707.1815	-0.0014
707.3621	0.0088
707.5428	-0.0048
707.7235	0.0073
707.9041	0.0036
708.0847	-0.007
708.2653	-0.0062
708.4459	-0.0076
708.6265	-0.0025
708.807	0.0047
708.9875	-0.0011
709.168	-0.002
709.3485	-0.0045
709.529	-0.0091
709.7095	-0.0184
709.8899	-0.0042
710.0703	-0.0075
710.2507	-0.002
710.4311	-0.0047
710.6115	-0.0098
710.7918	-0.0057
710.9721	0.005
711.1524	-0.0092
711.3327	0.0017
711.513	0.0027
711.6932	0.0007
711.8735	0.0142
712.0537	0
712.2339	-0.0055
712.4141	-0.0103
712.5942	0.0005
712.7744	-0.0066
712.9545	-0.0127
713.1346	-0.0037
713.3147	-0.0045
713.4947	-0.0066
713.6748	-0.0048
713.8548	-0.0049
714.0348	-0.0016
714.2148	-0.0008
714.3948	0.0029
714.5748	-0.0049
714.7547	-0.0047
714.9346	0.0001
715.1145	-0.012
715.2944	-0.0111
715.4743	-0.0047
715.6541	0.0001
715.834	-0.0028
716.0138	0.0014
716.1936	-0.0088
716.3733	-0.0094
716.5531	0.0008
716.7328	-0.0009
716.9126	-0.0035
717.0923	0.0024
717.2719	-0.0002
717.4516	0.0001
717.6312	0.0081
717.8109	-0.004
717.9905	-0.0031
718.1701	-0.0092
718.3496	-0.0052
718.5292	-0.0024
718.7087	-0.0141
718.8882	-0.0012
719.0677	-0.002
719.2472	-0.0021
719.4267	0.0015
719.6061	0.0004
719.7856	0.0018
719.965	0.0061
720.1443	-0.0023
720.3237	0.0022
720.5031	0.0037
720.6824	0.0054
720.8617	0.0001
721.041	0.0019
721.2203	0.0042
721.3995	-0.004
721.5788	0.004
721.758	-0.0001
721.9372	-0.0015
722.1164	0.0003
722.2956	0.0057
722.4747	-0.0049
722.6538	-0.0108
722.8329	0.0011
723.012	0.0073
723.1911	-0.002
723.3702	0.0039
723.5492	0.0043
723.7282	-0.0001
723.9072	-0.0032
724.0862	-0.005
724.2652	-0.0062
724.4441	-0.0035
724.623	0.0021
724.8019	-0.0099
724.9808	-0.0035
725.1597	-0.0148
725.3385	0.0005
725.5174	-0.0039
725.6962	0
725.875	-0.0002
726.0538	0.0009
726.2325	-0.004
726.4112	-0.0013
726.59	-0.0058
726.7687	-0.0038
726.9474	0.0015
727.126	-0.0011
727.3047	-0.0001
727.4833	0.0021
727.6619	0.0004
727.8405	-0.0124
728.0191	-0.0041
728.1976	0.0039
728.3762	0.0042
728.5547	0.0038
728.7332	-0.0153
728.9116	0.0002
729.0901	0.0003
729.2686	-0.0039
729.447	-0.0008
729.6254	-0.0044
729.8038	0.0076
729.9821	-0.0013
730.1605	0.0038
730.3388	0.0019
730.5171	-0.0035
730.6954	-0.0009
730.8737	-0.0039
731.0519	0.0026
731.2302	0.0082
731.4084	0.0087
731.5866	-0.004
731.7648	-0.0082
731.9429	0.0053
732.1211	-0.02
732.2992	-0.004
732.4773	-0.0096
732.6554	-0.0027
732.8335	-0.0024
733.0115	-0.0073
733.1896	0.0054
733.3676	-0.0142
733.5456	-0.0014
733.7235	0.0016
733.9015	-0.002
734.0794	0
734.2574	-0.0079
734.4353	0.0056
734.6131	0.0006
734.791	-0.0039
734.9689	-0.0049
735.1467	-0.0039
735.3245	-0.0143
735.5023	-0.0108
735.68	-0.001
735.8578	0.0092
736.0355	-0.0256
736.2132	-0.0116
736.3909	-0.0041
736.5686	-0.009
736.7463	-0.0008
736.9239	-0.0021
737.1015	-0.0035
737.2791	0.0011
737.4567	-0.0034
737.6343	-0.0112
737.8118	-0.0037
737.9894	0.0053
738.1669	-0.002
738.3444	-0.0046
738.5218	-0.0075
738.6993	-0.0023
738.8767	-0.0034
739.0541	0.0112
739.2315	-0.0155
739.4089	-0.0029
739.5863	0.0049
739.7636	-0.0058
739.9409	-0.004
740.1182	0.0021
740.2955	-0.0008
740.4728	0.0019
740.65	-0.0008
740.8272	-0.0067
741.0044	-0.0104
741.1816	0.003
741.3588	-0.0029
741.5359	-0.002
741.7131	-0.0148
741.8902	-0.0086
742.0673	-0.0065
742.2444	-0.011
742.4214	-0.0163
742.5985	-0.0062
742.7755	-0.013
742.9525	-0.0241
743.1295	-0.0075
743.3064	-0.0094
743.4834	-0.0103
743.6603	-0.0043
743.8372	-0.0102
744.0141	0.0006
744.191	-0.0049
744.3678	-0.0029
744.5446	-0.0045
744.7215	0.0017
744.8982	-0.011
745.075	-0.0116
745.2518	-0.0095
745.4285	-0.0017
745.6052	-0.0032
745.7819	-0.0083
745.9586	-0.0107
746.1353	-0.0084
746.3119	-0.0104
746.4885	-0.0194
746.6651	-0.0112
746.8417	0.0009
747.0183	-0.0004
747.1948	-0.0001
747.3714	0.0007
747.5479	0.0005
747.7244	-0.0087
747.9008	-0.0019
748.0773	-0.0045
748.2537	-0.0041
748.4301	-0.0092
748.6065	0.0024
748.7829	0.007
748.9593	-0.0069
749.1356	0.0025
749.3119	-0.0038
749.4882	-0.0068
749.6645	0.0024
749.8408	-0.0065
750.017	-0.009
750.1933	-0.0065
750.3695	-0.0088
750.5457	0.0005
750.7218	-0.0031
750.898	0.0012
751.0741	-0.0057
751.2502	-0.0086
751.4263	-0.0001
751.6024	0.002
751.7784	-0.0039
751.9545	-0.0114
752.1305	-0.0081
752.3065	-0.0067
752.4825	-0.0001
752.6584	-0.0044
752.8344	0.0004
753.0103	-0.0113
753.1862	-0.0073
753.3621	-0.0079
753.5379	-0.0034
753.7138	-0.0095
753.8896	-0.0023
754.0654	0.0092
754.2412	-0.0021
754.417	0.0061
754.5927	0.0026
754.7685	-0.0034
754.9442	0.0047
755.1199	0.0142
755.2956	-0.0026
755.4712	0.0119
755.6469	0.004
755.8225	0.0013
755.9981	-0.003
756.1736	0.008
756.3492	0.0011
756.5248	-0.0069
756.7003	-0.0015
756.8758	0.0106
757.0513	-0.0035
757.2267	0.0018
757.4022	-0.0042
757.5776	-0.0107
757.753	-0.0004
757.9284	-0.004
758.1038	0.0027
758.2791	-0.0028
758.4545	-0.0193
758.6298	-0.0045
758.8051	0.0022
758.9803	-0.0002
759.1556	0.0006
759.3308	-0.0065
759.506	0.0059
759.6812	0.003
759.8564	0.0124
760.0316	-0.0011
760.2067	0.008
760.3819	-0.0026
760.557	0.0113
760.732	0.0005
760.9071	-0.009
761.0821	0.0108
761.2572	0.0082
761.4322	0.009
761.6072	0.001
761.7821	0.0009
761.9571	0.0022
762.132	-0.0023
762.3069	-0.0028
762.4818	-0.0076
762.6567	0.0002
762.8316	0.001
763.0064	0.0047
763.1812	0.0082
763.356	0.0004
763.5308	-0.0092
763.7055	-0.0013
763.8803	-0.007
764.055	-0.0084
764.2297	-0.0012
764.4044	-0.0053
764.579	-0.0147
764.7537	-0.0171
764.9283	-0.0007
765.1029	-0.0061
765.2775	-0.0056
765.4521	-0.0092
765.6266	-0.0106
765.8011	-0.011
765.9756	0.0009
766.1501	0.0001
766.3246	-0.004
766.4991	0.0065
766.6735	-0.0002
766.8479	-0.0103
767.0223	0.0089
767.1967	0.0033
767.371	-0.004
767.5454	0.0016
767.7197	-0.0067
767.894	-0.0096
768.0683	-0.013
768.2425	-0.0121
768.4168	0.0036
768.591	0.0013
768.7652	-0.0037
768.9394	-0.0051
769.1135	-0.0044
769.2877	0.0107
769.4618	-0.0053
769.6359	0.0019
769.81	0.0036
769.984	0.0103
770.1581	-0.0002
770.3321	0.0053
770.5061	0.0084
770.6801	-0.0011
770.8541	0.0081
771.028	0.0158
771.202	-0.006
771.3759	-0.0017
771.5498	-0.0089
771.7236	0.0029
771.8975	-0.006
772.0713	0.0089
772.2451	0.0041
772.4189	0.0055
772.5927	0.006
772.7665	-0.0059
772.9402	-0.0025
773.1139	0.0036
773.2876	-0.0073
773.4613	0.0043
773.635	0.0033
773.8086	-0.0058
773.9822	-0.0017
774.1558	-0.0024
774.3294	-0.0245
774.503	-0.0015
774.6765	0.0047
774.8501	0.0043
775.0236	0.0023
775.1971	0.0092
775.3705	-0.0125
775.544	-0.0004
775.7174	0.0023
775.8908	-0.0051
776.0642	-0.0047
776.2376	-0.0018
776.4109	-0.0094
776.5843	-0.0084
776.7576	0.0012
776.9309	0.0141
777.1041	-0.0007
777.2774	0.0101
777.4506	0.001
777.6238	-0.0125
777.797	0.0034
777.9702	0.0085
778.1434	-0.0148
778.3165	-0.0126
778.4896	0.0023
778.6627	0.0058
778.8358	0.0012
779.0089	-0.0049
779.1819	-0.0095
779.3549	-0.0042
779.5279	0.0112
779.7009	0.0141
779.8739	0.0054
780.0468	-0.004
780.2197	0.0021
780.3926	-0.0052
780.5655	-0.0111
780.7384	-0.005
780.9112	-0.001
781.0841	-0.0097
781.2569	-0.0082
781.4297	0.001
781.6024	0.0148
781.7752	0.0057
781.9479	0.0026
782.1206	0.0047
782.2933	-0.0165
782.466	0.0103
782.6386	-0.002
782.8113	-0.0065
782.9839	-0.0047
783.1565	0.0106
783.329	-0.0042
783.5016	0.0069
783.6741	0.003
783.8466	-0.0091
784.0191	0.014
784.1916	0.0079
784.3641	-0.0041
784.5365	-0.0003
784.7089	0.0019
784.8813	-0.0113
785.0537	-0.0122
785.2261	0.0043
785.3984	-0.0176
785.5707	-0.0015
785.743	0.0043
785.9153	-0.015
786.0876	0
786.2598	-0.0055
786.432	-0.0179
786.6042	-0.0016
786.7764	-0.0116
786.9486	-0.0008
787.1207	-0.0099
787.2928	0.0051
787.4649	0.0132
787.637	-0.0037
787.8091	0.0006
787.9811	-0.0099
788.1532	0.005
788.3252	0.0126
788.4972	-0.0046
788.6691	-0.0091
788.8411	-0.01
789.013	-0.012
789.1849	0.0034
789.3568	0.0027
789.5287	0.003
789.7005	-0.0071
789.8723	0.0009
790.0442	0.0083
790.2159	-0.0066
790.3877	-0.0026
790.5595	-0.0139
790.7312	-0.0084
790.9029	-0.004
791.0746	-0.0041
791.2463	-0.0194
791.4179	0.0104
791.5896	-0.0204
791.7612	-0.0012
791.9328	0.0011
792.1044	-0.0159
792.2759	-0.0173
792.4474	-0.0055
792.619	-0.0008
792.7905	0.0079
792.9619	-0.0011
793.1334	0.005
793.3048	0.0049
793.4762	0.0034
793.6476	0.0109
793.819	-0.0206
793.9904	0.0053
794.1617	-0.0217
794.333	-0.0014
794.5043	-0.0037
794.6756	-0.0048
794.8469	-0.0185
795.0181	-0.0086
795.1893	-0.0092
795.3605	0.018
795.5317	-0.0035
795.7029	-0.018
795.874	-0.0094
796.0452	-0.0029
796.2163	-0.0098
796.3873	0.0052
796.5584	-0.0113
796.7294	-0.0097
796.9005	0.0053
797.0715	-0.0069
797.2425	-0.0158
797.4134	-0.0086
797.5844	0.0075
797.7553	-0.0108
797.9262	-0.0062
798.0971	-0.0064
798.2679	-0.0127
798.4388	-0.0268
798.6096	-0.0198
798.7804	-0.0171
798.9512	-0.0079
799.122	-0.0218
799.2927	-0.0013
799.4635	0.0063
799.6342	-0.0182
799.8049	-0.0013
799.9755	0.0054
800.1462	0.0021
800.3168	0.0056
800.4874	0.0029
800.658	0.0214
800.8286	0.0135
800.9991	0.0222
801.1696	0.0198
801.3402	0.0137
801.5106	-0.0058
801.6811	-0.0076
801.8516	0.0134
802.022	-0.0045
802.1924	0.0162
802.3628	0.0057
802.5332	0.0019
802.7035	0.0132
802.8739	-0.0027
803.0442	-0.0079
803.2145	-0.0041
803.3847	-0.0219
803.555	-0.009
803.7252	-0.0227
803.8954	-0.0114
804.0656	-0.0189
804.2358	-0.0032
804.4059	0.0006
804.5761	-0.0038
804.7462	0.0035
804.9163	0.0007
805.0864	-0.0281
805.2564	0.0073
805.4264	-0.002
805.5965	-0.029
805.7665	-0.0089
805.9364	0.0036
806.1064	0.0205
806.2763	-0.003
806.4462	0.0146
806.6161	-0.0153
806.786	0.0077
806.9559	-0.0121
807.1257	-0.003
807.2955	-0.0074
807.4653	-0.0047
807.6351	-0.0047
807.8048	-0.009
807.9746	-0.0023
808.1443	0.0051
808.314	0.0015
808.4837	-0.0093
808.6533	-0.0026
808.8229	0.0087
808.9926	0.0113
809.1622	-0.0073
809.3317	-0.0174
809.5013	-0.0076
809.6708	-0.0058
809.8403	0.0013
810.0098	-0.0073
810.1793	0.0105
810.3488	0.0038
810.5182	-0.022
810.6876	0.0105
810.857	-0.0116
811.0264	0.0143
811.1958	-0.003
811.3651	0.0053
811.5344	-0.0148
811.7037	-0.0195
811.873	-0.0285
812.0422	-0.0185
812.2115	0.0057
812.3807	-0.014
812.5499	-0.0151
812.7191	-0.0074
812.8882	-0.0272
813.0574	-0.0101
813.2265	-0.0199
813.3956	0.0049
813.5646	-0.0178
813.7337	-0.0151
813.9027	-0.0011
814.0718	0.0187
814.2407	0.0006
814.4097	-0.0118
814.5787	-0.0205
814.7476	-0.0144
814.9165	0.0017
815.0854	-0.0165
815.2543	0.0079
815.4232	-0.0157
815.592	0.0183
815.7608	0.0012
815.9296	-0.0133
816.0984	0.0047
816.2671	0.003
816.4359	-0.0006
816.6046	-0.0099
816.7733	-0.0188
816.942	-0.0238
817.1106	-0.0036
817.2793	-0.0006
817.4479	-0.0027
817.6165	-0.0033
817.785	-0.01
817.9536	-0.0167
818.1221	-0.0268
818.2906	-0.0254
818.4591	-0.0119
818.6276	-0.0146
818.7961	-0.0078
818.9645	0.006
819.1329	-0.0046
819.3013	0.0117
819.4697	0.0019
819.638	-0.0088
819.8064	0.0045
819.9747	0.0145
820.143	0.0158
820.3113	-0.0312
820.4795	0.0245
820.6477	0.0059
820.816	0.0053
820.9842	0.0088
821.1523	-0.0036
821.3205	-0.0007
821.4886	-0.0068
821.6567	-0.0182
821.8248	-0.0014
821.9929	0.0289
822.1609	-0.014
822.329	0.0164
822.497	0.0004
822.665	0.0016
822.833	-0.0317
823.0009	-0.0003
823.1688	0.0111
823.3367	0.0105
823.5046	0.0236
823.6725	0.0416
823.8404	0.0072
824.0082	0.0188
824.176	0.0269
824.3438	-0.016
824.5116	-0.0256
824.6793	0.0037
824.847	-0.017
825.0147	0.0148
825.1824	-0.0089
825.3501	0.0149
825.5177	0.0005
825.6854	0.0092
825.853	-0.016
826.0206	-0.0279
826.1881	0.0074
826.3557	-0.0401
826.5232	-0.0004
826.6907	-0.03
826.8582	-0.0347
827.0257	0.0117
827.1931	0.029
827.3605	0.0018
827.528	0.0047
827.6953	-0.0405
827.8627	-0.0115
828.03	0.0408
828.1974	-0.0023
828.3647	-0.0112
828.532	0.003
828.6992	-0.0258
828.8665	-0.0066
829.0337	-0.0478
829.2009	0.0163
829.3681	-0.0209
829.5352	0.0276
829.7024	-0.0331
829.8695	-0.0441
830.0366	0.015
830.2037	-0.009
830.3707	0.0055
830.5378	-0.0031
830.7048	0.0061
830.8718	-0.0181
831.0388	-0.0441
831.2057	-0.0021
831.3727	0.0241
831.5396	0.0198
831.7065	-0.0261
831.8734	0.048
832.0402	-0.0494
832.2071	-0.0061
832.3739	0.0025
832.5407	0.0079
832.7075	0.0044
832.8742	-0.0091
833.041	-0.0543
833.2077	-0.019
833.3744	0.0066
833.541	-0.013
833.7077	-0.0031
833.8743	-0.0235
834.0409	0.0093
834.2075	-0.0037
834.3741	0.0125
834.5407	-0.0037
834.7072	-0.0037
834.8737	-0.0091
835.0402	-0.0397
835.2067	-0.0347
835.3731	0.0027
835.5395	-0.0126
835.706	0.002
835.8723	0.0245
836.0387	0.0103
836.2051	0.0142
836.3714	0.0189
836.5377	-0.0122
836.704	-0.0401
836.8703	-0.0015
837.0365	0.0296
837.2027	-0.0445
837.3689	0.0062
837.5351	0.0008
837.7013	-0.0557
837.8674	-0.0511
838.0335	-0.0678
838.1997	-0.0298
838.3657	-0.0427
838.5318	-0.015
838.6978	0.0051
838.8639	0.0631
839.0299	-0.0177
839.1958	-0.0054
839.3618	0.0035
839.5277	-0.0134
839.6937	-0.0065
839.8596	-0.0331
840.0254	0.0195
840.1913	-0.0113
840.3571	0.0071
840.523	0.0507
840.6888	-0.0183
840.8545	-0.0592
841.0203	0.0009
841.186	0.0423
841.3517	0.0326
841.5174	0.0134
841.6831	-0.0395
841.8488	-0.0269
842.0144	-0.0499
842.18	-0.007
842.3456	0.0057
842.5112	-0.0246
842.6767	-0.0067
842.8422	-0.0218
843.0077	-0.0121
843.1732	-0.0785
843.3387	-0.0022
843.5042	-0.0215
843.6696	-0.0211
843.835	-0.0137
844.0004	0.0149
844.1657	-0.0098
844.3311	-0.0569
844.4964	-0.0907
844.6617	-0.0279
844.827	-0.0605
844.9923	0.0408
845.1575	-0.0197
845.3227	0.0001
845.4879	0.0126
845.6531	-0.0737
845.8183	-0.0556
845.9834	-0.0122
846.1485	-0.0232
846.3136	-0.087
846.4787	-0.0688
846.6438	0.0615
846.8088	-0.0092
846.9738	-0.0744
847.1388	0.0838
847.3038	-0.1054
847.4687	-0.1553
847.6337	-0.0012
847.7986	0.0041
847.9635	-0.0186
848.1284	0.007
848.2932	0.1184
848.458	-0.0295
848.6228	0.0001
848.7876	-0.0137
848.9524	-0.0799
849.1172	-0.0678
849.2819	0.0114
849.4466	-0.0755
849.6113	-0.1428
849.7759	-0.0058
849.9406	-0.0265
850.1052	-0.0211
850.2698	-0.0681
850.4344	-0.032
850.599	-0.085
850.7635	0.0696
850.928	-0.0281
851.0925	-0.0349
851.257	0.0109
851.4215	-0.036
851.5859	-0.0495
851.7503	-0.0366
851.9147	0.0221
852.0791	-0.1052
852.2434	0.0078
852.4078	-0.0032
852.5721	0.0663
852.7364	-0.0294
852.9007	-0.1198
853.0649	-0.0076
853.2291	-0.0996
853.3934	0.0439
853.5575	-0.0171
853.7217	-0.1322
853.8859	-0.1589
854.05	0.0275
854.2141	-0.0419
854.3782	-0.0455
854.5423	-0.093
854.7063	0.0728
854.8703	0.0229
855.0343	0.0909
855.1983	-0.1538
855.3623	0.1819
855.5262	-0.0539
855.6901	0.0176
855.854	-0.0468
856.0179	0.0229
856.1818	-0.0467
856.3456	-0.1428
856.5094	-0.0562
856.6732	-0.1513
856.837	-0.0944
857.0008	-0.0528
857.1645	-0.0874
857.3282	-0.2447
857.4919	0.0619
857.6556	0.2472
857.8192	-0.0063
857.9828	-0.0026
858.1465	0.1534
858.31	-0.1738
858.4736	0.3743
858.6372	-0.0759
858.8007	-0.2293
858.9642	-0.0787
859.1277	-0.1793
859.2911	0.029
859.4546	0.0267
859.618	-0.359
859.7814	0.0174
859.9448	0.0319
860.1081	0.1148
860.2715	0.0462
860.4348	0.393
860.5981	-0.191
860.7614	0.2566
860.9246	0.0859
861.0879	-0.0961
861.2511	0.0631
861.4143	-0.4028
861.5774	0.1033
861.7406	0.0006
861.9037	0.0334
862.0668	-0.1358
862.2299	-0.2817
862.393	-0.4745
862.556	-0.1705
862.7191	-0.1208
862.8821	-0.2112
863.0451	-0.0157
863.208	0.0879
863.371	-0.034
863.5339	-0.2182
863.6968	0.1666
863.8597	0.0621
864.0225	-0.1654
864.1854	-0.1811
864.3482	0.3519
864.511	0.0515
864.6737	-0.006
864.8365	0.1839
864.9992	0.2764
865.1619	-0.4562
865.3246	-0.2372
865.4873	-0.2072
865.65	-0.2412
865.8126	-0.0582
865.9752	0.1181
866.1378	-0.2276
866.3004	-0.1406
866.4629	0.3731
866.6254	0.5038
866.7879	0.0008
866.9504	-0.2578
867.1129	-0
867.2753	0.0006
867.4377	0.2191
867.6001	-0.22
867.7625	0.4907
867.9249	-0.2943
868.0872	-0.1921
868.2495	0.0869
868.4118	-0.1194
868.5741	-0.7845
868.7363	-0.0802
868.8986	-0.2603
869.0608	-0.1991
869.223	0.1838
869.3851	-0
869.5473	-0
869.7094	0.1788
869.8715	-0.2388
870.0336	-0
870.1957	-0
870.3577	-0
870.5197	0.1312
870.6817	-0.1669
870.8437	-0.1863
871.0057	-0.6306
871.1676	-0
871.3295	-0
871.4914	-0
871.6533	-0.3123
871.8151	-0.0487
871.977	-0
872.1388	-0
872.3006	-0
872.4623	-0
872.6241	0.4283
872.7858	0.6572
872.9475	0.2634
873.1092	0.1698
873.2709	-0
873.4325	-0.1174
873.5941	-0.4304
873.7557	-0
873.9173	-0.2172
874.0789	-0
874.2404	-0.2934
874.4019	0.5211
874.5634	-0.3645
874.7249	-0.3911
874.8863	0.0604
875.0478	0.3356
875.2092	0.722
875.3706	0.3423
875.5319	-1.0727
875.6933	-0
875.8546	-0
876.0159	-0
876.1772	0.995
876.3385	-0
876.4997	0.3197
876.6609	-0.3682
876.8221	-0.3617
876.9833	-0.117
877.1445	-0
877.3056	0.2836
877.4667	-0.2716
877.6278	-0
877.7889	-0.5303
877.9499	-0
878.111	-0.5194
878.272	-0
878.433	-0
878.5939	0.2358
878.7549	-0.1237
878.9158	-0.8319
879.0767	-0
879.2376	-0
879.3984	-0
879.5593	-0
879.7201	-0
879.8809	-0.7716
880.0417	-0.2518
880.2024	-0.0459
880.3632	-1.0636
880.5239	0.0198
880.6846	2.6128
880.8452	-2.6112
881.0059	-1.3784
881.1665	-0.1352
881.3271	0.4158
881.4877	-0
881.6483	-0.7261
881.8088	-0.0737
881.9693	0.5301
882.1298	0.5301
882.2903	0.5301
