Data from MonoPyChalIsomerACN10uM410nmA_Absorbance_14-53-28-373.txt Node
Date: Fri Jul 05 14:53:28 BST 2024
User: LASERRRRR
Spectrometer: FLMT03099
Trigger mode: 0
Integration Time (sec): 1.000000E-1
Scans to average: 1
Electric dark correction enabled: true
Nonlinearity correction enabled: false
Boxcar width: 0
XAxis mode: Wavelengths
Number of Pixels in Spectrum: 3648
>>>>>Begin Spectral Data<<<<<
179.3399	-0.3038
179.5586	-0.3038
179.7771	-0.3038
179.9957	0.0597
180.2143	-0
180.4329	-0.2894
180.6514	0.3028
180.8699	-0.0792
181.0885	0.0768
181.307	-0.0698
181.5255	-0.6755
181.744	-0.3958
181.9625	-0
182.181	-0
182.3994	0.2161
182.6179	-0
182.8363	-0.027
183.0547	0.0025
183.2732	-0.0304
183.4916	0.1286
183.71	0.2606
183.9284	0.4692
184.1467	-0.0737
184.3651	-0.0133
184.5835	-0.0701
184.8018	0.1575
185.0201	0.081
185.2385	0.1979
185.4568	0.0352
185.6751	0.3575
185.8934	0.7071
186.1117	0.0828
186.3299	0.1366
186.5482	0.2632
186.7664	-0.0614
186.9847	-0.0468
187.2029	0.0488
187.4211	0.03
187.6393	0.3019
187.8575	0.2111
188.0757	0.1313
188.2939	0.2277
188.512	-0
188.7302	-0.0983
188.9483	0.3422
189.1665	0.3203
189.3846	-0.3237
189.6027	0.1419
189.8208	0.3886
190.0389	0.0275
190.257	0.0156
190.475	0.229
190.6931	0.2138
190.9111	0.2628
191.1292	0.1538
191.3472	0.4677
191.5652	0.2885
191.7832	0.3828
192.0012	0.5981
192.2192	0.4774
192.4371	0.4113
192.6551	0.3448
192.873	0.453
193.091	0.5061
193.3089	0.3784
193.5268	0.6477
193.7447	0.9397
193.9626	0.5388
194.1805	0.6351
194.3984	0.9532
194.6162	0.4747
194.8341	0.5597
195.0519	0.5306
195.2697	0.7121
195.4875	0.7632
195.7054	0.5266
195.9231	0.7244
196.1409	0.6067
196.3587	0.6771
196.5765	0.5415
196.7942	0.6672
197.012	0.5155
197.2297	0.5143
197.4474	1.0127
197.6651	0.5888
197.8828	0.5431
198.1005	0.5502
198.3182	0.5244
198.5358	0.7212
198.7535	0.6968
198.9711	0.5796
199.1888	0.7248
199.4064	0.673
199.624	0.6281
199.8416	0.5216
200.0592	0.611
200.2767	0.6811
200.4943	0.6356
200.7119	0.6582
200.9294	0.6698
201.1469	0.6756
201.3645	0.6577
201.582	0.5934
201.7995	0.5717
202.017	0.6959
202.2344	0.5502
202.4519	0.8236
202.6694	0.6289
202.8868	0.6541
203.1042	0.6698
203.3217	0.6177
203.5391	0.5453
203.7565	0.6505
203.9739	0.813
204.1913	0.6045
204.4086	0.6824
204.626	0.7191
204.8433	0.6152
205.0607	0.597
205.278	0.6369
205.4953	0.6422
205.7126	0.626
205.9299	0.6586
206.1472	0.7569
206.3644	0.6204
206.5817	0.7507
206.7989	0.7637
207.0162	0.6294
207.2334	0.6946
207.4506	0.7071
207.6678	0.6689
207.885	0.7531
208.1022	0.672
208.3194	0.6615
208.5365	0.6484
208.7537	0.6263
208.9708	0.595
209.1879	0.6327
209.405	0.6646
209.6222	0.7223
209.8392	0.6501
210.0563	0.6
210.2734	0.6596
210.4905	0.6168
210.7075	0.5888
210.9245	0.6033
211.1416	0.6316
211.3586	0.6678
211.5756	0.603
211.7926	0.6024
212.0096	0.5774
212.2265	0.5835
212.4435	0.5625
212.6604	0.5754
212.8774	0.6246
213.0943	0.6121
213.3112	0.5638
213.5281	0.5191
213.745	0.4697
213.9619	0.4925
214.1788	0.5225
214.3956	0.4729
214.6125	0.4983
214.8293	0.4357
215.0461	0.4696
215.2629	0.4551
215.4798	0.4607
215.6965	0.4206
215.9133	0.4429
216.1301	0.401
216.3469	0.4302
216.5636	0.415
216.7803	0.3918
216.9971	0.4078
217.2138	0.3945
217.4305	0.3559
217.6472	0.3337
217.8639	0.3814
218.0805	0.3396
218.2972	0.3202
218.5138	0.3085
218.7305	0.3071
218.9471	0.3122
219.1637	0.2662
219.3803	0.2702
219.5969	0.3041
219.8135	0.2436
220.0301	0.2471
220.2466	0.2563
220.4632	0.2476
220.6797	0.2451
220.8962	0.2499
221.1127	0.25
221.3292	0.2293
221.5457	0.2534
221.7622	0.2463
221.9787	0.2341
222.1951	0.2346
222.4116	0.2603
222.628	0.2457
222.8444	0.2566
223.0608	0.2591
223.2772	0.2473
223.4936	0.2519
223.71	0.2382
223.9264	0.263
224.1427	0.2482
224.3591	0.2374
224.5754	0.2583
224.7917	0.2722
225.008	0.2538
225.2243	0.2556
225.4406	0.2803
225.6569	0.2628
225.8732	0.2493
226.0894	0.2574
226.3057	0.2594
226.5219	0.2832
226.7381	0.274
226.9543	0.2738
227.1705	0.2766
227.3867	0.2662
227.6029	0.2993
227.8191	0.2888
228.0352	0.2946
228.2513	0.3282
228.4675	0.3179
228.6836	0.2872
228.8997	0.2884
229.1158	0.2865
229.3319	0.3064
229.548	0.3105
229.764	0.3236
229.9801	0.3339
230.1961	0.3269
230.4121	0.3308
230.6282	0.3365
230.8442	0.3043
231.0602	0.3517
231.2761	0.3612
231.4921	0.3371
231.7081	0.3665
231.924	0.3397
232.14	0.3439
232.3559	0.3196
232.5718	0.3676
232.7877	0.3502
233.0036	0.3456
233.2195	0.3516
233.4353	0.3429
233.6512	0.3504
233.867	0.3621
234.0829	0.3503
234.2987	0.3736
234.5145	0.3804
234.7303	0.3759
234.9461	0.3744
235.1619	0.3751
235.3776	0.3922
235.5934	0.3631
235.8091	0.3695
236.0249	0.3707
236.2406	0.3861
236.4563	0.3889
236.672	0.3868
236.8877	0.3875
237.1034	0.4026
237.319	0.3915
237.5347	0.3865
237.7503	0.3871
237.966	0.4191
238.1816	0.401
238.3972	0.4161
238.6128	0.3984
238.8284	0.3777
239.0439	0.4064
239.2595	0.3905
239.475	0.4112
239.6906	0.3989
239.9061	0.406
240.1216	0.4083
240.3371	0.4025
240.5526	0.3762
240.7681	0.4192
240.9836	0.3819
241.199	0.4034
241.4145	0.3861
241.6299	0.3806
241.8453	0.3934
242.0607	0.3874
242.2761	0.3708
242.4915	0.3763
242.7069	0.3782
242.9223	0.37
243.1376	0.3416
243.353	0.359
243.5683	0.3582
243.7836	0.3422
243.9989	0.3318
244.2142	0.3151
244.4295	0.3279
244.6448	0.3217
244.86	0.3
245.0753	0.2981
245.2905	0.2904
245.5057	0.2966
245.721	0.2782
245.9362	0.2733
246.1514	0.2647
246.3665	0.2658
246.5817	0.2569
246.7969	0.2614
247.012	0.2513
247.2271	0.2527
247.4423	0.2477
247.6574	0.2472
247.8725	0.2433
248.0876	0.234
248.3026	0.225
248.5177	0.2247
248.7328	0.2309
248.9478	0.2306
249.1628	0.2279
249.3779	0.2277
249.5929	0.2034
249.8079	0.2277
250.0228	0.2046
250.2378	0.2044
250.4528	0.2155
250.6677	0.1826
250.8827	0.1969
251.0976	0.2042
251.3125	0.1891
251.5274	0.179
251.7423	0.1917
251.9572	0.1877
252.172	0.1868
252.3869	0.1795
252.6017	0.181
252.8166	0.1714
253.0314	0.163
253.2462	0.1599
253.461	0.1709
253.6758	0.1775
253.8906	0.1821
254.1053	0.1763
254.3201	0.1692
254.5348	0.1809
254.7496	0.1871
254.9643	0.1722
255.179	0.1577
255.3937	0.1676
255.6083	0.1722
255.823	0.1647
256.0377	0.1678
256.2523	0.166
256.467	0.1561
256.6816	0.1748
256.8962	0.1683
257.1108	0.1668
257.3254	0.1757
257.54	0.1559
257.7545	0.1549
257.9691	0.1778
258.1836	0.1566
258.3981	0.1781
258.6127	0.1756
258.8272	0.1602
259.0417	0.1611
259.2561	0.1605
259.4706	0.1626
259.6851	0.1638
259.8995	0.1608
260.114	0.1652
260.3284	0.1561
260.5428	0.1549
260.7572	0.1687
260.9716	0.166
261.186	0.1697
261.4003	0.173
261.6147	0.1621
261.829	0.1657
262.0433	0.1534
262.2577	0.1512
262.472	0.1642
262.6863	0.1697
262.9005	0.1704
263.1148	0.1673
263.3291	0.1498
263.5433	0.1676
263.7576	0.1705
263.9718	0.1609
264.186	0.1517
264.4002	0.1595
264.6144	0.1592
264.8286	0.1686
265.0427	0.1599
265.2569	0.1609
265.471	0.1597
265.6851	0.1625
265.8993	0.1535
266.1134	0.1708
266.3275	0.1692
266.5415	0.1635
266.7556	0.162
266.9697	0.158
267.1837	0.1629
267.3978	0.1628
267.6118	0.1646
267.8258	0.1761
268.0398	0.1468
268.2538	0.175
268.4677	0.168
268.6817	0.1509
268.8957	0.1587
269.1096	0.177
269.3235	0.1635
269.5374	0.1595
269.7514	0.1639
269.9652	0.152
270.1791	0.1587
270.393	0.159
270.6068	0.1659
270.8207	0.163
271.0345	0.1506
271.2483	0.1665
271.4622	0.1484
271.676	0.1624
271.8897	0.1535
272.1035	0.1554
272.3173	0.1467
272.531	0.1494
272.7448	0.1446
272.9585	0.1462
273.1722	0.1532
273.3859	0.1617
273.5996	0.1477
273.8133	0.1436
274.0269	0.1447
274.2406	0.1453
274.4542	0.1497
274.6679	0.1357
274.8815	0.1519
275.0951	0.147
275.3087	0.1662
275.5223	0.1556
275.7358	0.1598
275.9494	0.1609
276.1629	0.1531
276.3765	0.1514
276.59	0.147
276.8035	0.1548
277.017	0.1565
277.2305	0.1527
277.444	0.1554
277.6574	0.1491
277.8709	0.158
278.0843	0.1461
278.2978	0.1541
278.5112	0.1436
278.7246	0.1685
278.938	0.1604
279.1513	0.1623
279.3647	0.1651
279.5781	0.1514
279.7914	0.1583
280.0047	0.1718
280.2181	0.1531
280.4314	0.1662
280.6447	0.1701
280.8579	0.1503
281.0712	0.1687
281.2845	0.1586
281.4977	0.1671
281.711	0.1618
281.9242	0.1607
282.1374	0.1692
282.3506	0.1529
282.5638	0.1713
282.7769	0.1698
282.9901	0.1563
283.2033	0.1769
283.4164	0.178
283.6295	0.1567
283.8426	0.1564
284.0557	0.1668
284.2688	0.1717
284.4819	0.1661
284.695	0.1596
284.908	0.1628
285.1211	0.155
285.3341	0.1617
285.5471	0.1709
285.7601	0.1597
285.9731	0.1531
286.1861	0.1465
286.3991	0.1669
286.612	0.1642
286.825	0.1609
287.0379	0.1767
287.2508	0.1572
287.4637	0.1649
287.6766	0.154
287.8895	0.1638
288.1024	0.1717
288.3152	0.1645
288.5281	0.1472
288.7409	0.1719
288.9538	0.16
289.1666	0.161
289.3794	0.1606
289.5922	0.1556
289.8049	0.1607
290.0177	0.1541
290.2304	0.1565
290.4432	0.1611
290.6559	0.1533
290.8686	0.1688
291.0813	0.1613
291.294	0.1593
291.5067	0.1552
291.7194	0.1634
291.932	0.1636
292.1447	0.1559
292.3573	0.1554
292.5699	0.1451
292.7825	0.1601
292.9951	0.1499
293.2077	0.1471
293.4203	0.1578
293.6328	0.1439
293.8454	0.1608
294.0579	0.1457
294.2704	0.1496
294.4829	0.1499
294.6954	0.1602
294.9079	0.1534
295.1204	0.1562
295.3328	0.1473
295.5453	0.1519
295.7577	0.1628
295.9701	0.1432
296.1825	0.1532
296.3949	0.1563
296.6073	0.1515
296.8197	0.1504
297.0321	0.1669
297.2444	0.1363
297.4567	0.1586
297.6691	0.1544
297.8814	0.1439
298.0937	0.1446
298.306	0.1593
298.5182	0.1458
298.7305	0.1659
298.9428	0.1462
299.155	0.1469
299.3672	0.151
299.5794	0.1476
299.7916	0.1537
300.0038	0.1605
300.216	0.157
300.4282	0.1583
300.6403	0.1466
300.8525	0.1519
301.0646	0.1509
301.2767	0.1452
301.4888	0.1371
301.7009	0.1614
301.913	0.1607
302.125	0.1576
302.3371	0.148
302.5491	0.1604
302.7612	0.1505
302.9732	0.154
303.1852	0.1464
303.3972	0.1539
303.6092	0.1529
303.8211	0.1526
304.0331	0.143
304.245	0.1391
304.457	0.1321
304.6689	0.1469
304.8808	0.1583
305.0927	0.139
305.3046	0.1509
305.5164	0.1479
305.7283	0.1357
305.9401	0.1364
306.152	0.1392
306.3638	0.1506
306.5756	0.1385
306.7874	0.1515
306.9992	0.1352
307.2109	0.1296
307.4227	0.1189
307.6344	0.1393
307.8462	0.1294
308.0579	0.1346
308.2696	0.1334
308.4813	0.1273
308.693	0.1326
308.9046	0.1376
309.1163	0.125
309.328	0.1276
309.5396	0.1156
309.7512	0.1203
309.9628	0.1146
310.1744	0.1259
310.386	0.1212
310.5976	0.1237
310.8091	0.1148
311.0207	0.1137
311.2322	0.1167
311.4437	0.1066
311.6552	0.0992
311.8667	0.1168
312.0782	0.0987
312.2897	0.1035
312.5012	0.1177
312.7126	0.1039
312.924	0.1004
313.1355	0.1133
313.3469	0.1015
313.5583	0.1099
313.7696	0.108
313.981	0.1185
314.1924	0.1112
314.4037	0.1116
314.6151	0.1176
314.8264	0.1085
315.0377	0.1064
315.249	0.1025
315.4603	0.114
315.6716	0.0984
315.8828	0.0908
316.0941	0.1064
316.3053	0.1006
316.5165	0.1088
316.7277	0.1006
316.9389	0.103
317.1501	0.0989
317.3613	0.1107
317.5724	0.0994
317.7836	0.1106
317.9947	0.1096
318.2058	0.1073
318.417	0.0867
318.6281	0.0962
318.8391	0.1078
319.0502	0.1039
319.2613	0.1038
319.4723	0.1048
319.6834	0.1205
319.8944	0.098
320.1054	0.1157
320.3164	0.1027
320.5274	0.1062
320.7383	0.0994
320.9493	0.1023
321.1602	0.1148
321.3712	0.0911
321.5821	0.1133
321.793	0.1104
322.0039	0.0998
322.2148	0.1025
322.4257	0.1093
322.6365	0.1134
322.8474	0.1029
323.0582	0.1003
323.269	0.1149
323.4798	0.1056
323.6906	0.1074
323.9014	0.104
324.1122	0.1132
324.3229	0.1049
324.5337	0.1074
324.7444	0.1088
324.9551	0.1266
325.1658	0.1143
325.3765	0.1165
325.5872	0.1078
325.7979	0.1027
326.0085	0.1151
326.2192	0.1162
326.4298	0.1259
326.6404	0.1063
326.851	0.1006
327.0616	0.1037
327.2722	0.1107
327.4828	0.1073
327.6933	0.1076
327.9039	0.1115
328.1144	0.1219
328.3249	0.1206
328.5354	0.1039
328.7459	0.1092
328.9564	0.1093
329.1669	0.1105
329.3773	0.1186
329.5878	0.1184
329.7982	0.106
330.0086	0.1057
330.219	0.1088
330.4294	0.1127
330.6398	0.118
330.8502	0.1105
331.0605	0.1004
331.2708	0.116
331.4812	0.1167
331.6915	0.1038
331.9018	0.1149
332.1121	0.108
332.3224	0.1082
332.5326	0.1136
332.7429	0.1184
332.9531	0.1243
333.1633	0.1102
333.3735	0.1238
333.5837	0.0995
333.7939	0.1077
334.0041	0.1168
334.2143	0.1072
334.4244	0.1104
334.6346	0.0942
334.8447	0.1286
335.0548	0.1103
335.2649	0.105
335.475	0.1295
335.685	0.1029
335.8951	0.1305
336.1051	0.1087
336.3152	0.1175
336.5252	0.1144
336.7352	0.117
336.9452	0.1237
337.1552	0.119
337.3652	0.1184
337.5751	0.1184
337.7851	0.1187
337.995	0.1169
338.2049	0.1239
338.4148	0.1137
338.6247	0.1213
338.8346	0.11
339.0445	0.1203
339.2543	0.1154
339.4642	0.1232
339.674	0.1246
339.8838	0.1161
340.0936	0.1182
340.3034	0.1297
340.5132	0.1309
340.7229	0.1303
340.9327	0.1123
341.1424	0.1152
341.3522	0.1403
341.5619	0.1278
341.7716	0.1256
341.9813	0.1395
342.1909	0.1224
342.4006	0.1323
342.6102	0.1317
342.8199	0.1291
343.0295	0.1221
343.2391	0.1234
343.4487	0.1359
343.6583	0.1156
343.8679	0.127
344.0774	0.1249
344.287	0.1313
344.4965	0.1332
344.706	0.1453
344.9155	0.1322
345.125	0.1358
345.3345	0.1458
345.544	0.1301
345.7534	0.1271
345.9629	0.1247
346.1723	0.1414
346.3817	0.1307
346.5911	0.1317
346.8005	0.1387
347.0099	0.13
347.2193	0.1493
347.4286	0.1409
347.638	0.145
347.8473	0.1366
348.0566	0.1439
348.2659	0.1515
348.4752	0.1431
348.6845	0.1285
348.8937	0.1301
349.103	0.15
349.3122	0.1357
349.5214	0.1306
349.7306	0.1419
349.9398	0.1443
350.149	0.1497
350.3582	0.14
350.5674	0.1486
350.7765	0.148
350.9856	0.1426
351.1948	0.1526
351.4039	0.1382
351.613	0.1235
351.822	0.1361
352.0311	0.156
352.2402	0.1438
352.4492	0.1529
352.6582	0.1439
352.8672	0.1459
353.0762	0.1497
353.2852	0.1502
353.4942	0.1468
353.7032	0.1529
353.9121	0.1517
354.1211	0.1499
354.33	0.1471
354.5389	0.1619
354.7478	0.1465
354.9567	0.1484
355.1655	0.1461
355.3744	0.1575
355.5833	0.1554
355.7921	0.1747
356.0009	0.1637
356.2097	0.1623
356.4185	0.17
356.6273	0.1502
356.8361	0.1638
357.0448	0.1612
357.2536	0.1508
357.4623	0.1647
357.671	0.1721
357.8797	0.17
358.0884	0.1765
358.2971	0.1619
358.5057	0.164
358.7144	0.1527
358.923	0.1593
359.1316	0.1681
359.3402	0.1626
359.5488	0.1612
359.7574	0.1525
359.966	0.1818
360.1746	0.16
360.3831	0.1617
360.5916	0.1626
360.8002	0.1502
361.0087	0.174
361.2172	0.1755
361.4256	0.1713
361.6341	0.1832
361.8426	0.1875
362.051	0.184
362.2594	0.1675
362.4678	0.1697
362.6762	0.1911
362.8846	0.1882
363.093	0.182
363.3014	0.1747
363.5097	0.1701
363.718	0.1753
363.9264	0.1756
364.1347	0.1727
364.343	0.1902
364.5513	0.1964
364.7595	0.1868
364.9678	0.1794
365.176	0.1788
365.3842	0.173
365.5925	0.1863
365.8007	0.206
366.0089	0.1944
366.217	0.1857
366.4252	0.194
366.6333	0.2194
366.8415	0.1859
367.0496	0.1787
367.2577	0.2044
367.4658	0.1971
367.6739	0.2025
367.882	0.2029
368.09	0.1902
368.2981	0.2086
368.5061	0.1861
368.7141	0.204
368.9221	0.2065
369.1301	0.1978
369.3381	0.1939
369.5461	0.2112
369.754	0.2018
369.962	0.2118
370.1699	0.1998
370.3778	0.211
370.5857	0.2083
370.7936	0.2016
371.0015	0.1946
371.2093	0.2111
371.4172	0.2084
371.625	0.1965
371.8328	0.1909
372.0406	0.1953
372.2484	0.2079
372.4562	0.2192
372.664	0.1951
372.8717	0.2232
373.0795	0.1841
373.2872	0.2166
373.4949	0.204
373.7026	0.2066
373.9103	0.2225
374.118	0.232
374.3256	0.202
374.5333	0.2084
374.7409	0.2171
374.9485	0.2144
375.1561	0.2186
375.3637	0.2097
375.5713	0.2059
375.7789	0.2024
375.9864	0.2158
376.194	0.2172
376.4015	0.2275
376.609	0.2148
376.8165	0.2031
377.024	0.2225
377.2315	0.2079
377.4389	0.2347
377.6464	0.2306
377.8538	0.2051
378.0612	0.2293
378.2686	0.2194
378.476	0.2242
378.6834	0.228
378.8908	0.2264
379.0981	0.2135
379.3055	0.2117
379.5128	0.2317
379.7201	0.2364
379.9274	0.2171
380.1347	0.2163
380.342	0.2398
380.5492	0.2174
380.7565	0.2141
380.9637	0.2159
381.1709	0.2243
381.3781	0.2127
381.5853	0.2495
381.7925	0.2195
381.9997	0.2373
382.2068	0.2336
382.4139	0.225
382.6211	0.2061
382.8282	0.2311
383.0353	0.2181
383.2424	0.2189
383.4494	0.2498
383.6565	0.233
383.8635	0.226
384.0706	0.2212
384.2776	0.2265
384.4846	0.2191
384.6916	0.243
384.8986	0.231
385.1055	0.2332
385.3125	0.2156
385.5194	0.2109
385.7263	0.2444
385.9333	0.2173
386.1402	0.2178
386.347	0.2078
386.5539	0.2173
386.7608	0.2393
386.9676	0.2216
387.1744	0.2246
387.3813	0.2102
387.5881	0.2332
387.7948	0.2139
388.0016	0.2044
388.2084	0.212
388.4151	0.2049
388.6219	0.2231
388.8286	0.2142
389.0353	0.2343
389.242	0.2212
389.4487	0.2222
389.6553	0.2054
389.862	0.2027
390.0686	0.2228
390.2753	0.2095
390.4819	0.2165
390.6885	0.1971
390.8951	0.2221
391.1016	0.2142
391.3082	0.2155
391.5147	0.2213
391.7213	0.2085
391.9278	0.1982
392.1343	0.2115
392.3408	0.2123
392.5473	0.1923
392.7537	0.1989
392.9602	0.1888
393.1666	0.2047
393.373	0.187
393.5794	0.21
393.7858	0.199
393.9922	0.2122
394.1986	0.2039
394.4049	0.205
394.6113	0.1869
394.8176	0.1851
395.0239	0.1918
395.2302	0.1964
395.4365	0.1935
395.6428	0.1977
395.8491	0.191
396.0553	0.1711
396.2615	0.1984
396.4678	0.1672
396.674	0.1695
396.8802	0.1868
397.0863	0.1864
397.2925	0.1831
397.4987	0.1832
397.7048	0.1908
397.9109	0.1951
398.117	0.1789
398.3231	0.1753
398.5292	0.1926
398.7353	0.1875
398.9413	0.1713
399.1474	0.182
399.3534	0.1857
399.5594	0.1738
399.7654	0.2071
399.9714	0.2084
400.1774	0.1895
400.3833	0.17
400.5893	0.1865
400.7952	0.1964
401.0011	0.1774
401.207	0.1899
401.4129	0.1863
401.6188	0.1966
401.8247	0.1779
402.0305	0.1871
402.2364	0.176
402.4422	0.1957
402.648	0.1841
402.8538	0.205
403.0596	0.1863
403.2654	0.187
403.4711	0.1805
403.6768	0.1872
403.8826	0.1815
404.0883	0.1848
404.294	0.1785
404.4997	0.1801
404.7054	0.1864
404.911	0.1784
405.1167	0.1913
405.3223	0.2055
405.5279	0.1984
405.7335	0.198
405.9391	0.1848
406.1447	0.167
406.3502	0.1976
406.5558	0.1867
406.7613	0.1915
406.9668	0.1966
407.1724	0.1868
407.3778	0.178
407.5833	0.1819
407.7888	0.1868
407.9942	0.1908
408.1997	0.1903
408.4051	0.1782
408.6105	0.1857
408.8159	0.174
409.0213	0.1707
409.2267	0.1972
409.432	0.1729
409.6374	0.1966
409.8427	0.1853
410.048	0.1903
410.2533	0.1773
410.4586	0.181
410.6639	0.17
410.8691	0.1724
411.0744	0.1705
411.2796	0.1526
411.4848	0.1657
411.69	0.1746
411.8952	0.191
412.1004	0.1624
412.3056	0.1867
412.5107	0.1737
412.7158	0.2047
412.921	0.1804
413.1261	0.1555
413.3312	0.1739
413.5362	0.1732
413.7413	0.1809
413.9464	0.178
414.1514	0.1711
414.3564	0.1743
414.5614	0.1539
414.7664	0.1737
414.9714	0.1838
415.1764	0.1817
415.3813	0.1897
415.5863	0.1753
415.7912	0.1732
415.9961	0.1755
416.201	0.1709
416.4059	0.181
416.6108	0.1764
416.8156	0.1782
417.0205	0.172
417.2253	0.1544
417.4301	0.169
417.6349	0.1629
417.8397	0.1644
418.0445	0.1837
418.2492	0.1738
418.454	0.1528
418.6587	0.1816
418.8634	0.1795
419.0681	0.1584
419.2728	0.1599
419.4775	0.1717
419.6822	0.1649
419.8868	0.1655
420.0915	0.1589
420.2961	0.1529
420.5007	0.1637
420.7053	0.1725
420.9099	0.1636
421.1144	0.1513
421.319	0.1587
421.5235	0.1548
421.728	0.1561
421.9325	0.1643
422.137	0.1785
422.3415	0.1571
422.546	0.1599
422.7504	0.1436
422.9549	0.1526
423.1593	0.1637
423.3637	0.179
423.5681	0.1555
423.7725	0.1555
423.9769	0.1421
424.1812	0.1436
424.3856	0.1276
424.5899	0.1633
424.7942	0.1451
424.9985	0.1454
425.2028	0.1383
425.4071	0.1679
425.6113	0.1315
425.8156	0.1442
426.0198	0.1527
426.224	0.134
426.4282	0.1476
426.6324	0.1367
426.8366	0.1505
427.0407	0.1415
427.2449	0.1302
427.449	0.1265
427.6531	0.1141
427.8572	0.1237
428.0613	0.1376
428.2654	0.1404
428.4694	0.1379
428.6735	0.1208
428.8775	0.1489
429.0815	0.1323
429.2855	0.1214
429.4895	0.1416
429.6935	0.1368
429.8975	0.1257
430.1014	0.1236
430.3053	0.1161
430.5093	0.1256
430.7132	0.1057
430.9171	0.1141
431.1209	0.1112
431.3248	0.1307
431.5286	0.1197
431.7325	0.1114
431.9363	0.1103
432.1401	0.1175
432.3439	0.1049
432.5477	0.0911
432.7514	0.1112
432.9552	0.1125
433.1589	0.095
433.3627	0.0917
433.5664	0.1069
433.7701	0.0903
433.9737	0.1015
434.1774	0.0936
434.3811	0.0967
434.5847	0.1055
434.7883	0.0935
434.9919	0.0982
435.1955	0.0812
435.3991	0.0886
435.6027	0.1033
435.8062	0.0821
436.0098	0.091
436.2133	0.0809
436.4168	0.089
436.6203	0.0842
436.8238	0.0869
437.0272	0.0802
437.2307	0.0779
437.4341	0.0892
437.6375	0.0738
437.841	0.0802
438.0443	0.0893
438.2477	0.0768
438.4511	0.0599
438.6545	0.0752
438.8578	0.0808
439.0611	0.0913
439.2644	0.0787
439.4677	0.0552
439.671	0.0636
439.8743	0.0719
440.0775	0.0549
440.2808	0.061
440.484	0.0657
440.6872	0.0421
440.8904	0.0428
441.0936	0.0768
441.2967	0.0592
441.4999	0.0635
441.703	0.0524
441.9062	0.0451
442.1093	0.0582
442.3124	0.0545
442.5155	0.0427
442.7185	0.0563
442.9216	0.0137
443.1246	0.0572
443.3276	0.0613
443.5307	0.042
443.7337	0.054
443.9366	0.054
444.1396	0.0456
444.3426	0.0375
444.5455	0.0473
444.7484	0.0534
444.9513	0.0326
445.1542	0.0488
445.3571	0.0483
445.56	0.0343
445.7628	0.0368
445.9657	0.044
446.1685	0.0592
446.3713	0.0526
446.5741	0.0381
446.7769	0.0225
446.9797	0.0261
447.1824	0.0355
447.3852	0.0195
447.5879	0.0457
447.7906	0.0425
447.9933	0.0478
448.196	0.0351
448.3986	0.0196
448.6013	0.0191
448.8039	0.0154
449.0066	0.021
449.2092	0.0336
449.4118	0.033
449.6143	0.032
449.8169	0.0285
450.0195	0.0234
450.222	0.0098
450.4245	0.0179
450.627	0.0267
450.8295	0.0303
451.032	0.0237
451.2345	0.0193
451.4369	0.0252
451.6394	0.0248
451.8418	0.0142
452.0442	0.0127
452.2466	0.0227
452.449	0.0051
452.6513	0.0277
452.8537	0.011
453.056	-0.0025
453.2583	0.0053
453.4607	0.0155
453.663	0.0057
453.8652	0.008
454.0675	-0.0015
454.2697	0.0174
454.472	0.0022
454.6742	0.0011
454.8764	0.0127
455.0786	0.0143
455.2808	0.0121
455.4829	0.0134
455.6851	0.0185
455.8872	0.0148
456.0893	0.0139
456.2915	-0.0005
456.4935	0.0168
456.6956	0.0094
456.8977	0.0073
457.0997	-0.0034
457.3018	-0.0072
457.5038	-0.0003
457.7058	0.0302
457.9078	-0.0015
458.1098	0.0358
458.3117	0.01
458.5137	0.0134
458.7156	0.0131
458.9175	-0.0096
459.1194	0.002
459.3213	0.0071
459.5232	0.0074
459.725	-0.0164
459.9269	0.0023
460.1287	-0.0001
460.3305	0.0099
460.5323	0.0103
460.7341	-0.0031
460.9359	-0.0028
461.1376	0.0158
461.3394	0.0004
461.5411	0.0139
461.7428	-0.02
461.9445	0.0042
462.1462	0.0012
462.3479	0.0006
462.5495	0.0076
462.7512	-0.0092
462.9528	-0.0043
463.1544	-0.0024
463.356	0.0049
463.5576	0.001
463.7592	-0.0181
463.9607	0.0038
464.1623	0.0155
464.3638	0.0172
464.5653	-0.0052
464.7668	0.0055
464.9683	0.0056
465.1697	0.0164
465.3712	0.0032
465.5726	-0.0165
465.7741	-0.0016
465.9755	-0.0027
466.1769	-0.0018
466.3782	-0.0056
466.5796	-0.0129
466.7809	0.0121
466.9823	-0.0065
467.1836	-0.0069
467.3849	-0.0076
467.5862	0.0165
467.7875	-0.0072
467.9887	0
468.19	-0.0065
468.3912	-0.0097
468.5924	-0.0041
468.7936	-0.0195
468.9948	-0.0048
469.196	0.0007
469.3972	-0.0137
469.5983	0.0036
469.7994	-0.0204
470.0006	-0.0035
470.2017	-0.011
470.4027	-0.0133
470.6038	-0.0008
470.8049	-0.0245
471.0059	-0.0073
471.2069	-0.0276
471.408	0.003
471.6089	0.0083
471.8099	-0.0051
472.0109	0
472.2119	-0.0128
472.4128	-0.0202
472.6137	0.0089
472.8146	-0.0266
473.0155	-0.0137
473.2164	-0.0044
473.4173	-0.0106
473.6181	0.0013
473.819	0.002
474.0198	-0.0175
474.2206	-0.0149
474.4214	-0.0137
474.6222	0.0073
474.8229	-0.0036
475.0237	-0.0176
475.2244	-0.012
475.4251	-0.0032
475.6258	0.0006
475.8265	-0.0028
476.0272	-0.0057
476.2278	0.0034
476.4285	-0.0117
476.6291	-0.0043
476.8297	-0.0126
477.0303	-0.009
477.2309	-0.0094
477.4315	-0.0146
477.632	-0.0141
477.8326	-0.0084
478.0331	-0.002
478.2336	0.0005
478.4341	-0.0162
478.6346	-0.0101
478.8351	-0.0013
479.0355	-0.018
479.236	-0.0098
479.4364	-0.0051
479.6368	-0.0144
479.8372	-0.0105
480.0376	-0.002
480.2379	-0.026
480.4383	-0.0184
480.6386	-0.0067
480.8389	0.0001
481.0392	-0.0197
481.2395	-0.0031
481.4398	-0.0028
481.6401	-0.0077
481.8403	-0.0013
482.0405	-0.0048
482.2408	-0.0003
482.441	0.0049
482.6411	-0.0079
482.8413	-0.008
483.0415	-0.0104
483.2416	-0.0076
483.4417	-0.0047
483.6419	-0.0149
483.8419	-0.0021
484.042	-0.0063
484.2421	-0.0073
484.4422	-0.0026
484.6422	-0.0069
484.8422	-0.0074
485.0422	-0.015
485.2422	-0.0037
485.4422	-0.0131
485.6422	-0.0101
485.8421	-0.0142
486.042	-0.0058
486.242	0.0005
486.4419	-0.0047
486.6417	-0.0127
486.8416	-0.01
487.0415	-0.0142
487.2413	-0.0111
487.4411	-0.0067
487.641	-0.009
487.8408	0.0014
488.0405	-0.0029
488.2403	-0.0222
488.4401	0.0027
488.6398	-0.0104
488.8395	-0.0116
489.0392	-0.0126
489.2389	-0.0107
489.4386	-0.0029
489.6383	-0.0185
489.8379	-0.0008
490.0376	-0.0152
490.2372	-0.0096
490.4368	-0.0144
490.6364	-0.0096
490.836	-0.0181
491.0355	-0.015
491.2351	-0.0218
491.4346	-0.0088
491.6341	-0.0233
491.8336	0.0011
492.0331	-0.0215
492.2326	-0.028
492.432	-0.0056
492.6315	-0.0181
492.8309	-0.0213
493.0303	-0.0195
493.2297	-0.0137
493.4291	-0.0114
493.6284	-0.0031
493.8278	-0.0046
494.0271	-0.0068
494.2264	0.0026
494.4257	-0.0153
494.625	-0.0112
494.8243	-0.0264
495.0236	-0.0122
495.2228	-0.0234
495.422	-0.0091
495.6213	-0.0129
495.8205	-0.0111
496.0196	-0.0023
496.2188	-0.0058
496.418	-0.0247
496.6171	-0.018
496.8162	-0.0118
497.0153	-0.0051
497.2144	-0.009
497.4135	-0.0058
497.6126	-0.0035
497.8116	-0.0142
498.0107	-0.0021
498.2097	-0.013
498.4087	-0.0209
498.6077	-0.0112
498.8067	-0.0145
499.0056	0.0009
499.2046	-0.0184
499.4035	-0.0214
499.6024	-0.0121
499.8013	-0.0113
500.0002	-0.0168
500.199	-0.0123
500.3979	-0.0029
500.5967	-0.0292
500.7956	-0.0084
500.9944	-0.0019
501.1932	-0.0178
501.3919	-0.0158
501.5907	-0.0182
501.7895	-0.0059
501.9882	-0.0135
502.1869	-0.0095
502.3856	-0.0067
502.5843	-0.0161
502.783	-0.019
502.9816	-0.0098
503.1803	-0.0255
503.3789	-0.0121
503.5775	-0.0082
503.7761	-0.0153
503.9747	-0.0079
504.1732	-0.0041
504.3718	-0.0112
504.5703	-0.0094
504.7689	-0.0147
504.9674	-0.0106
505.1658	-0.0131
505.3643	-0.0164
505.5628	-0.0096
505.7612	-0.018
505.9597	-0.0049
506.1581	-0.0154
506.3565	-0.004
506.5549	-0.0059
506.7532	-0.0139
506.9516	-0.0072
507.1499	-0.0043
507.3482	-0.0139
507.5465	-0.0178
507.7448	-0.0015
507.9431	-0.0086
508.1414	-0.0081
508.3396	-0.0094
508.5379	0.0016
508.7361	-0.0091
508.9343	-0.0157
509.1325	-0.0032
509.3306	-0.0077
509.5288	-0.0117
509.7269	-0.0157
509.9251	-0.0139
510.1232	-0.0174
510.3213	-0.0138
510.5193	-0.0072
510.7174	-0.0226
510.9154	-0.0121
511.1135	-0.0104
511.3115	-0.0214
511.5095	-0.0099
511.7075	-0.0103
511.9055	-0.0177
512.1034	-0.0179
512.3014	-0.0125
512.4993	0.0054
512.6972	-0.0071
512.8951	-0.0215
513.093	-0.0045
513.2908	-0.0006
513.4887	-0.0123
513.6865	0.0013
513.8844	-0.0098
514.0822	-0.0152
514.2799	-0.0202
514.4777	-0.0168
514.6755	-0.0151
514.8732	-0.0117
515.0709	-0.0192
515.2687	-0.0199
515.4664	-0.0063
515.664	-0.0052
515.8617	-0.0056
516.0594	-0.0124
516.257	-0.0135
516.4546	-0.0226
516.6522	-0.0084
516.8498	-0.0102
517.0474	-0.0013
517.2449	-0.0032
517.4425	-0.0219
517.64	-0.0113
517.8375	-0.0058
518.035	-0.0052
518.2325	-0.0171
518.43	-0.0076
518.6274	-0.0111
518.8249	-0.0131
519.0223	-0.0032
519.2197	-0.0182
519.4171	-0.0175
519.6145	-0.016
519.8118	-0.0052
520.0092	-0.0084
520.2065	-0.0228
520.4038	-0.0141
520.6011	-0.006
520.7984	-0.0103
520.9956	-0.0227
521.1929	-0.0216
521.3901	-0.0057
521.5874	-0.0154
521.7846	-0.0178
521.9818	-0.0189
522.1789	-0.0116
522.3761	-0.0182
522.5732	-0.0066
522.7704	-0.0102
522.9675	-0.0046
523.1646	-0.01
523.3617	-0.0028
523.5587	-0.0155
523.7558	-0.0039
523.9528	-0.0092
524.1498	-0.0144
524.3468	-0.0092
524.5438	-0.0086
524.7408	-0.0075
524.9378	-0.0029
525.1347	-0.0104
525.3316	-0.0017
525.5285	-0.0222
525.7254	-0.0143
525.9223	-0.0126
526.1192	-0.0055
526.316	-0.008
526.5129	-0.0003
526.7097	-0.0076
526.9065	-0.0158
527.1033	-0.015
527.3	-0.003
527.4968	-0.0097
527.6935	-0.0018
527.8903	-0.0134
528.087	0.0059
528.2837	-0.005
528.4804	-0.0078
528.677	-0.0081
528.8737	-0.0039
529.0703	-0.008
529.2669	-0.0091
529.4635	-0.0055
529.6601	-0.0077
529.8567	-0.0139
530.0532	-0.0124
530.2498	-0.007
530.4463	-0.0059
530.6428	-0.0129
530.8393	0.0061
531.0358	-0.0036
531.2322	-0.0068
531.4287	-0.0049
531.6251	-0.0039
531.8215	-0.0022
532.0179	-0.009
532.2143	-0.0043
532.4107	-0.0094
532.607	-0.0076
532.8034	-0.0003
532.9997	-0.0043
533.196	-0.0118
533.3923	-0.0149
533.5886	0.0005
533.7848	-0.0106
533.9811	-0.0083
534.1773	0.0013
534.3735	0.0107
534.5697	-0.004
534.7659	-0.0024
534.9621	-0.0044
535.1582	-0.0195
535.3544	-0.0139
535.5505	-0.0117
535.7466	-0.0133
535.9427	-0.0093
536.1387	-0.0121
536.3348	-0.0122
536.5308	0.0005
536.7269	-0.015
536.9229	0.0009
537.1189	-0.0035
537.3148	-0.0109
537.5108	-0.0127
537.7068	-0.0029
537.9027	0.0007
538.0986	-0.0055
538.2945	-0.0101
538.4904	-0.0071
538.6863	-0.0109
538.8821	-0.0091
539.078	-0.0101
539.2738	-0.0096
539.4696	-0.0279
539.6654	-0.0062
539.8611	0.0023
540.0569	-0.0036
540.2526	-0.009
540.4484	-0.0064
540.6441	0.0001
540.8398	-0.0036
541.0355	0.0044
541.2311	0
541.4268	-0.0123
541.6224	0.0006
541.818	-0.003
542.0136	-0.0095
542.2092	0.0023
542.4048	-0.0105
542.6003	0.0025
542.7959	-0.0118
542.9914	-0.0051
543.1869	-0.0068
543.3824	-0.0119
543.5779	-0.0042
543.7734	-0.009
543.9688	-0.0056
544.1642	0.0036
544.3596	0.0006
544.555	-0.0037
544.7504	-0.0075
544.9458	-0.0075
545.1411	-0.003
545.3365	-0.0093
545.5318	-0.0063
545.7271	-0.0048
545.9224	-0.0147
546.1177	-0.0052
546.3129	-0.0031
546.5081	-0.0034
546.7034	-0.0002
546.8986	-0.0035
547.0938	-0.0126
547.289	-0.009
547.4841	-0.0034
547.6793	0.0071
547.8744	-0.0031
548.0695	-0.0114
548.2646	-0.0208
548.4597	-0.0014
548.6548	-0.001
548.8498	-0.0041
549.0448	0.0008
549.2399	-0.0016
549.4349	0.0002
549.6298	-0.0031
549.8248	-0.0007
550.0198	-0.0111
550.2147	-0.0065
550.4096	-0.0001
550.6045	-0.0056
550.7994	0.0011
550.9943	-0.0007
551.1892	-0.001
551.384	0.005
551.5788	-0.0052
551.7737	-0.0033
551.9685	-0.0072
552.1632	-0.0007
552.358	-0.0054
552.5528	-0.0036
552.7475	-0.0065
552.9422	0.0047
553.1369	-0.0022
553.3316	-0.0003
553.5263	-0.0104
553.7209	-0.0023
553.9156	-0.0004
554.1102	-0.007
554.3048	-0.0113
554.4994	-0.0006
554.694	-0.0028
554.8885	-0.0017
555.0831	-0.0073
555.2776	-0.0074
555.4721	-0.0067
555.6666	-0.012
555.8611	-0.0001
556.0555	-0.0053
556.25	-0.0034
556.4444	-0.0079
556.6388	-0.0041
556.8332	0.0013
557.0276	-0.0004
557.222	-0.0088
557.4163	-0.0093
557.6107	-0.0072
557.805	-0.0005
557.9993	-0.0058
558.1936	-0.0045
558.3879	-0.0033
558.5821	-0.002
558.7764	-0.0076
558.9706	-0.0064
559.1648	-0.0013
559.359	-0.0076
559.5532	-0.0096
559.7473	-0.0154
559.9415	-0.0017
560.1356	-0.0072
560.3297	-0.0158
560.5238	-0.0056
560.7179	-0.0066
560.9119	-0.002
561.106	-0.0045
561.3	-0.0137
561.494	-0.0093
561.688	-0.0096
561.882	-0.0078
562.076	-0.0067
562.2699	-0.0002
562.4639	0.001
562.6578	0.0063
562.8517	-0.0119
563.0456	0.0062
563.2395	-0.0063
563.4333	-0.0078
563.6272	0.0052
563.821	0.0004
564.0148	0.0058
564.2086	-0.0068
564.4024	-0.0133
564.5961	-0.0032
564.7899	0.004
564.9836	0.0013
565.1773	-0.0063
565.371	-0.0003
565.5647	0.0019
565.7584	-0.0033
565.952	0.0022
566.1456	-0.0022
566.3393	-0.0053
566.5329	-0.0067
566.7264	-0.0054
566.92	-0.0049
567.1136	-0.0042
567.3071	-0.0109
567.5006	-0.0015
567.6941	0.0058
567.8876	-0.0054
568.0811	-0.0099
568.2745	-0.004
568.468	0.0039
568.6614	-0.0039
568.8548	-0.0012
569.0482	-0.004
569.2416	-0.0037
569.4349	-0.0003
569.6283	-0.0019
569.8216	-0.0026
570.0149	-0.006
570.2082	0.0011
570.4015	0.0024
570.5947	0.0084
570.788	0.0057
570.9812	0.0048
571.1744	-0.0048
571.3676	-0.0042
571.5608	0.0053
571.754	-0.0033
571.9471	-0.0056
572.1402	0.0034
572.3333	-0.001
572.5264	-0.0079
572.7195	0.0032
572.9126	0.0026
573.1057	-0.0063
573.2987	-0.007
573.4917	0.0018
573.6847	-0.0129
573.8777	-0.0026
574.0707	-0.0013
574.2636	-0.0037
574.4566	-0.0001
574.6495	0.0047
574.8424	0.0015
575.0353	-0.0033
575.2281	0.0099
575.421	-0.0043
575.6138	0.0024
575.8067	-0.01
575.9995	-0.0007
576.1923	-0.0001
576.385	-0.0063
576.5778	-0.0079
576.7706	-0.0024
576.9633	-0.0054
577.156	-0.0004
577.3487	0.0028
577.5414	0
577.734	-0.0025
577.9267	0.0066
578.1193	-0.0115
578.3119	-0.0082
578.5045	-0.0056
578.6971	-0.0098
578.8897	-0.0034
579.0822	-0.0009
579.2747	-0.0019
579.4673	-0.0082
579.6598	-0.0088
579.8522	-0.0059
580.0447	-0.0028
580.2372	-0.0025
580.4296	0.0014
580.622	-0.004
580.8144	0.0006
581.0068	-0.0016
581.1992	-0.0097
581.3915	-0.0048
581.5839	-0.0055
581.7762	-0.0135
581.9685	-0.0055
582.1608	-0.0008
582.353	-0.0065
582.5453	0.0014
582.7375	-0.0076
582.9298	-0.0021
583.122	0.005
583.3142	-0.0017
583.5063	-0.0055
583.6985	-0.0104
583.8906	-0.0028
584.0827	-0.0034
584.2749	-0.0027
584.4669	-0.0036
584.659	0.0008
584.8511	-0.0018
585.0431	-0.0021
585.2352	-0.0008
585.4272	-0.0065
585.6192	0
585.8111	0.0004
586.0031	-0.0032
586.195	-0.0016
586.387	0.0019
586.5789	-0.002
586.7708	-0.0004
586.9627	0.0013
587.1545	-0.0135
587.3464	-0.003
587.5382	0.0002
587.73	0.0027
587.9218	0.0101
588.1136	-0.0038
588.3053	0.0052
588.4971	-0.0053
588.6888	-0.0089
588.8805	-0.0028
589.0722	0.0033
589.2639	0.0025
589.4556	0.0002
589.6472	-0.0036
589.8389	-0.006
590.0305	-0.0082
590.2221	0.0011
590.4137	-0.0099
590.6052	0.0015
590.7968	0.0005
590.9883	0.0042
591.1798	-0.0024
591.3713	-0.0069
591.5628	-0.0024
591.7543	0.0045
591.9458	0.0017
592.1372	-0.0047
592.3286	0.0064
592.52	0.0052
592.7114	-0.0079
592.9028	0.0001
593.0941	-0.0047
593.2855	-0.0061
593.4768	-0.01
593.6681	-0.0086
593.8594	-0.0132
594.0506	-0.0006
594.2419	0.003
594.4331	0.0011
594.6244	0.0081
594.8156	-0.0066
595.0067	-0.0049
595.1979	-0.0022
595.3891	0.0016
595.5802	-0.003
595.7713	-0.0043
595.9624	-0.0069
596.1535	0.009
596.3446	-0.0058
596.5357	-0.0002
596.7267	0.0063
596.9177	-0.002
597.1087	-0.0167
597.2997	-0.0061
597.4907	0.0032
597.6817	-0.006
597.8726	-0.0024
598.0635	-0.0086
598.2544	-0.0043
598.4453	-0.0041
598.6362	-0.0052
598.827	-0.0029
599.0179	0.0096
599.2087	0.0013
599.3995	0.0009
599.5903	0.0014
599.7811	0.0018
599.9718	0.0025
600.1626	-0.0054
600.3533	-0.007
600.544	-0.0022
600.7347	-0.0056
600.9254	0.0056
601.116	-0.0132
601.3067	0.0002
601.4973	-0.0009
601.6879	0.0038
601.8785	-0.0007
602.0691	0.0002
602.2596	0.0014
602.4502	0.0022
602.6407	-0.0041
602.8312	0.0013
603.0217	-0.0061
603.2122	0.0011
603.4027	-0.0013
603.5931	-0.0061
603.7835	-0.0015
603.9739	-0.0063
604.1643	-0.0062
604.3547	-0.0078
604.5451	0.0002
604.7354	-0.0009
604.9257	0.0029
605.116	-0.0031
605.3063	0.0049
605.4966	0.0042
605.6869	-0.0038
605.8771	0.0054
606.0673	0.01
606.2575	0.0024
606.4477	0.0073
606.6379	-0.0008
606.8281	-0.004
607.0182	-0.0031
607.2083	0.0053
607.3985	-0.0027
607.5885	-0.0024
607.7786	-0.0007
607.9687	-0.0076
608.1587	0
608.3488	-0.0034
608.5388	-0.0014
608.7288	-0.0043
608.9187	-0.0061
609.1087	-0.0038
609.2986	-0.0036
609.4886	0.0017
609.6785	-0.0048
609.8684	0.0058
610.0582	0.0044
610.2481	-0.004
610.4379	-0.0022
610.6278	0.0021
610.8176	0.0018
611.0074	-0.0076
611.1971	-0.0066
611.3869	-0.0053
611.5766	-0.0047
611.7664	-0.0002
611.9561	0.0001
612.1458	0.0038
612.3354	-0.011
612.5251	0.0022
612.7147	0.0027
612.9044	0.0058
613.094	-0.006
613.2836	-0.0013
613.4731	-0.0018
613.6627	-0.001
613.8522	-0.0014
614.0417	0.0035
614.2313	-0.0099
614.4207	-0.0057
614.6102	-0.0051
614.7997	-0.0055
614.9891	-0.0082
615.1785	0.0021
615.3679	-0.008
615.5573	0.0093
615.7467	-0.0004
615.9361	-0.0057
616.1254	-0.0041
616.3147	-0.0034
616.504	0.0014
616.6933	0.01
616.8826	0.0048
617.0718	0.002
617.2611	0.0011
617.4503	-0.0076
617.6395	-0.0018
617.8287	0.0024
618.0179	-0.0077
618.207	0.0094
618.3961	0.0001
618.5853	-0.0018
618.7744	-0.0015
618.9634	0.0024
619.1525	-0.0004
619.3416	-0.0039
619.5306	0.0002
619.7196	-0.004
619.9086	-0.0086
620.0976	0.0037
620.2866	-0.0063
620.4755	-0.002
620.6645	-0.0009
620.8534	0.0031
621.0423	0.0048
621.2312	0.007
621.42	-0.0003
621.6089	-0.0007
621.7977	0.007
621.9865	-0.0035
622.1753	0.0005
622.3641	-0.0038
622.5529	0.0052
622.7416	0.003
622.9303	-0.0075
623.1191	-0.0028
623.3078	-0.0027
623.4964	0.002
623.6851	-0.0035
623.8737	-0.0112
624.0624	0.0028
624.251	-0.0048
624.4396	-0.0077
624.6282	-0.0054
624.8167	-0.001
625.0053	0.0001
625.1938	0.0007
625.3823	-0.0035
625.5708	-0.0032
625.7593	-0.0117
625.9477	-0.0093
626.1362	-0.0041
626.3246	-0.0051
626.513	0.0022
626.7014	0.0075
626.8898	0.0009
627.0781	-0.0005
627.2665	-0.0012
627.4548	0.0043
627.6431	0.0075
627.8314	0.0032
628.0197	0.0031
628.2079	-0.001
628.3962	-0.0018
628.5844	0.0044
628.7726	-0.001
628.9608	0.004
629.1489	0.0047
629.3371	-0.0004
629.5252	0.002
629.7134	0.005
629.9015	0.0027
630.0895	0.0041
630.2776	0.0013
630.4657	-0.0021
630.6537	0.0007
630.8417	0.003
631.0297	-0.0042
631.2177	0.0004
631.4057	0.0016
631.5936	0.0049
631.7815	-0.0022
631.9695	0.0049
632.1574	0.0058
632.3452	0.0052
632.5331	0.0033
632.7209	-0.0033
632.9088	0.0088
633.0966	0.0138
633.2844	-0.0071
633.4722	0.0007
633.6599	0.0014
633.8477	0.0021
634.0354	-0.0027
634.2231	-0.0011
634.4108	-0.0013
634.5985	0.0032
634.7861	0.0057
634.9738	-0.0059
635.1614	-0.0057
635.349	0.003
635.5366	-0.0026
635.7242	-0.004
635.9117	0.0062
636.0993	-0.004
636.2868	0.0008
636.4743	-0.0058
636.6618	0.0096
636.8492	-0.0008
637.0367	0.0023
637.2241	-0.0042
637.4115	-0.002
637.5989	-0.0023
637.7863	-0.0024
637.9737	-0.0052
638.161	-0.0033
638.3484	0
638.5357	0.0043
638.723	-0.0055
638.9103	0.0061
639.0975	0.0094
639.2848	0.0023
639.472	0.0005
639.6592	0.0122
639.8464	0.008
640.0336	0.0058
640.2208	-0.005
640.4079	0.0046
640.595	0.0028
640.7821	-0.0006
640.9692	-0.0008
641.1563	0.0088
641.3434	0.0095
641.5304	0.0005
641.7174	0.0034
641.9044	0.0062
642.0914	0.0094
642.2784	0.0096
642.4653	0.0027
642.6523	-0.0006
642.8392	0.001
643.0261	0.0113
643.213	0.009
643.3999	-0.0009
643.5867	-0.003
643.7735	0.0096
643.9604	0.002
644.1472	0.0008
644.3339	0.0048
644.5207	0.0058
644.7075	0.0026
644.8942	0.0146
645.0809	0.003
645.2676	0.0041
645.4543	0.0007
645.6409	0.0041
645.8276	-0.0054
646.0142	0.0035
646.2008	-0.0067
646.3874	-0.0066
646.574	0.0026
646.7605	-0.0012
646.9471	-0.0109
647.1336	0.0064
647.3201	0.0012
647.5066	-0.0073
647.6931	0.0037
647.8795	0.0046
648.0659	0.0046
648.2524	0.0048
648.4388	-0.0032
648.6252	0
648.8115	0.0026
648.9979	-0.0017
649.1842	-0.0017
649.3705	0.0041
649.5568	0.0043
649.7431	0.0029
649.9294	-0.0056
650.1156	0.0026
650.3018	0.0007
650.488	0.0039
650.6742	0.0082
650.8604	-0.0008
651.0466	-0.0107
651.2327	0.0005
651.4188	0.0018
651.6049	0.0058
651.791	-0.0034
651.9771	0.0019
652.1632	0.0042
652.3492	0.0039
652.5352	-0.0026
652.7212	-0.0005
652.9072	0.0046
653.0932	-0.0043
653.2791	-0.0021
653.465	0.0002
653.651	-0.0007
653.8369	-0.0098
654.0227	0.0062
654.2086	0.0059
654.3944	0.005
654.5803	-0.0032
654.7661	-0.0014
654.9519	-0.002
655.1377	-0.0018
655.3234	0.0015
655.5092	-0.007
655.6949	-0.0079
655.8806	-0.0067
656.0663	0.0023
656.2519	-0.0042
656.4376	-0.0029
656.6232	0.0052
656.8088	-0.0023
656.9945	0.0036
657.18	-0.0011
657.3656	0.0043
657.5511	-0.0038
657.7367	-0.0093
657.9222	0.0054
658.1077	0.0029
658.2932	0.0011
658.4786	-0.0075
658.6641	-0.0004
658.8495	-0.0051
659.0349	-0.0037
659.2203	0.0036
659.4057	0.0001
659.591	0.002
659.7764	-0.004
659.9617	-0.0021
660.147	-0.0006
660.3323	-0.0002
660.5176	0.0048
660.7028	0.0043
660.888	0.0031
661.0733	-0.0037
661.2585	-0.001
661.4436	0.0007
661.6288	-0.0019
661.8139	0.003
661.9991	0.0035
662.1842	-0.0035
662.3693	0.0029
662.5544	-0.0007
662.7394	0.0005
662.9245	-0.0032
663.1095	0.0018
663.2945	-0.0018
663.4795	-0.0051
663.6644	0.0097
663.8494	-0.0005
664.0343	0.003
664.2193	-0.0054
664.4042	-0.0003
664.589	-0.0042
664.7739	-0.008
664.9587	-0.0048
665.1436	-0.0069
665.3284	-0.0029
665.5132	-0.0035
665.698	-0.0026
665.8827	0.0024
666.0675	0.0007
666.2522	-0.0056
666.4369	-0.0018
666.6216	0.0041
666.8063	-0.0005
666.9909	0.0003
667.1756	0.0034
667.3602	-0.0031
667.5448	0.0048
667.7294	0.0056
667.9139	0.0036
668.0985	0.0038
668.283	-0.0059
668.4675	-0.0029
668.652	-0.0011
668.8365	-0.0007
669.0209	0.0039
669.2054	0.0083
669.3898	0.0056
669.5742	0.0015
669.7586	0.0059
669.943	0.0076
670.1273	0.0001
670.3117	0.0042
670.496	0.0001
670.6803	0.0098
670.8646	0.0029
671.0488	-0.0063
671.2331	0.0047
671.4173	0.0064
671.6015	0.003
671.7857	0.0005
671.9699	0.0075
672.1541	0.0049
672.3382	0.004
672.5223	0.0015
672.7064	0.0033
672.8905	0.0014
673.0746	-0.0028
673.2587	-0.0001
673.4427	0.0008
673.6267	0.005
673.8107	0.0082
673.9947	0.0068
674.1787	0.0019
674.3626	-0.0001
674.5465	0.0017
674.7304	0.0035
674.9143	-0.0021
675.0982	0.003
675.2821	-0.0035
675.4659	0.0063
675.6497	-0.002
675.8335	0.0027
676.0173	-0.0032
676.2011	0.0038
676.3849	-0.0012
676.5686	-0.0051
676.7523	0.0002
676.936	-0.0046
677.1197	-0.0036
677.3034	-0.0007
677.487	0.0045
677.6706	0.0074
677.8542	-0.0006
678.0378	0.002
678.2214	-0.0047
678.405	-0.0046
678.5885	-0.0064
678.772	-0.0028
678.9555	-0.0026
679.139	-0.0035
679.3225	0.002
679.5059	-0.0068
679.6894	-0.0019
679.8728	-0.0014
680.0562	-0.0089
680.2395	-0.0119
680.4229	-0.0045
680.6062	0.0081
680.7896	-0.0032
680.9729	-0.0022
681.1562	-0.0006
681.3394	-0.0031
681.5227	-0.007
681.7059	-0.0068
681.8891	0.0022
682.0723	-0.0009
682.2555	-0.0008
682.4387	0.0003
682.6218	-0.0019
682.805	0.0015
682.9881	-0.0024
683.1712	-0.0036
683.3542	-0.0079
683.5373	0.0061
683.7203	-0.0047
683.9034	0.003
684.0864	-0.0046
684.2694	-0.0037
684.4523	0.0012
684.6353	-0.0055
684.8182	-0.0016
685.0011	-0.0027
685.184	0.0029
685.3669	-0.0026
685.5498	0.0075
685.7326	0.0002
685.9154	0.0019
686.0982	0.0004
686.281	0.0056
686.4638	0.0035
686.6465	-0.0027
686.8293	0.0006
687.012	0.0004
687.1947	-0.0066
687.3774	0.0011
687.56	-0.002
687.7427	0.0023
687.9253	-0.0068
688.1079	-0.0015
688.2905	0.0057
688.4731	-0.0017
688.6556	-0.0045
688.8382	-0.0049
689.0207	-0.0059
689.2032	-0.0131
689.3857	-0.0078
689.5681	-0.0046
689.7506	-0.0161
689.933	-0.0054
690.1154	-0.0059
690.2978	-0.0049
690.4802	0.0011
690.6626	-0.0148
690.8449	-0.0093
691.0272	0.0033
691.2095	-0.0105
691.3918	-0.0032
691.5741	-0.0007
691.7563	-0.0115
691.9386	0.0022
692.1208	-0.0017
692.303	0.0002
692.4852	-0.0047
692.6673	-0.0032
692.8495	-0.0034
693.0316	0.0026
693.2137	0.0002
693.3958	-0.0002
693.5778	-0.0022
693.7599	-0.0019
693.9419	0.0005
694.1239	0.0012
694.3059	-0.0032
694.4879	0.0028
694.6699	0.008
694.8518	-0.0006
695.0337	-0.0026
695.2157	0.0011
695.3975	-0.0037
695.5794	0.0059
695.7613	0.0037
695.9431	0.001
696.1249	0.0068
696.3067	0.0077
696.4885	0.0009
696.6703	-0.0045
696.852	0.0041
697.0337	-0.002
697.2154	-0.0019
697.3971	0.0049
697.5788	0.0001
697.7605	-0.0013
697.9421	0.0031
698.1237	0.0035
698.3053	-0.0044
698.4869	-0.0055
698.6685	-0.0041
698.85	-0.0028
699.0315	0.004
699.213	-0.0066
699.3945	-0.0147
699.576	0.0016
699.7575	0.0006
699.9389	0.0049
700.1203	-0.003
700.3017	-0.0133
700.4831	-0.0168
700.6645	-0.005
700.8458	-0.0027
701.0271	-0.0038
701.2084	0.001
701.3897	0.0014
701.571	0.0048
701.7523	-0.01
701.9335	-0.0029
702.1147	-0.0051
702.2959	-0.0012
702.4771	0.0021
702.6583	-0.0008
702.8394	-0.0045
703.0205	0.0007
703.2016	-0.0051
703.3827	0.0002
703.5638	0.0058
703.7449	-0.0055
703.9259	0.0082
704.1069	-0.0017
704.2879	0.006
704.4689	-0.0038
704.6499	-0.0027
704.8308	-0.0032
705.0117	-0.0003
705.1927	0.0051
705.3735	0.003
705.5544	-0.0116
705.7353	-0.0053
705.9161	-0.005
706.0969	-0.0095
706.2777	-0.0078
706.4585	-0.0066
706.6393	0.0021
706.82	-0.0102
707.0007	0.0046
707.1815	-0.0012
707.3621	0.0006
707.5428	-0.002
707.7235	-0.0031
707.9041	0.0029
708.0847	-0.0131
708.2653	0.0006
708.4459	-0.0183
708.6265	0.0034
708.807	-0.0006
708.9875	-0.0015
709.168	-0.0002
709.3485	-0.0042
709.529	-0.0118
709.7095	-0.0138
709.8899	-0.0009
710.0703	-0.014
710.2507	0.0002
710.4311	-0.0074
710.6115	-0.0025
710.7918	-0.0071
710.9721	-0.0041
711.1524	-0.0115
711.3327	0.0013
711.513	0.0031
711.6932	-0.004
711.8735	0.0129
712.0537	0.0017
712.2339	0.0043
712.4141	-0.0071
712.5942	-0.0052
712.7744	-0.0071
712.9545	-0.0113
713.1346	-0.0119
713.3147	-0.0073
713.4947	-0.0086
713.6748	-0.0036
713.8548	0.0023
714.0348	-0.0004
714.2148	-0.0104
714.3948	0.0047
714.5748	-0.0056
714.7547	-0.0051
714.9346	0.0054
715.1145	-0.0042
715.2944	-0.0052
715.4743	-0.0014
715.6541	-0.0053
715.834	-0.0007
716.0138	-0.0102
716.1936	-0.0177
716.3733	-0.0057
716.5531	0.005
716.7328	-0.0028
716.9126	-0.0105
717.0923	0.0042
717.2719	-0.0013
717.4516	-0.0006
717.6312	0.002
717.8109	-0.0051
717.9905	0.0007
718.1701	-0.0023
718.3496	-0.0097
718.5292	-0.0029
718.7087	-0.005
718.8882	-0.0019
719.0677	0.0062
719.2472	-0.0003
719.4267	0.004
719.6061	-0.0035
719.7856	0.0066
719.965	0.0043
720.1443	-0.0029
720.3237	0.017
720.5031	0.0016
720.6824	0.002
720.8617	0.0031
721.041	0.0011
721.2203	0.0053
721.3995	0.0076
721.5788	-0.0006
721.758	0.0045
721.9372	-0.0102
722.1164	-0.0069
722.2956	0.0046
722.4747	0
722.6538	-0.0003
722.8329	0.0123
723.012	0.0036
723.1911	-0.0073
723.3702	0.0053
723.5492	0.0068
723.7282	-0.0105
723.9072	0.0043
724.0862	-0.007
724.2652	0.0046
724.4441	-0.0003
724.623	-0.0022
724.8019	-0.0092
724.9808	0.0019
725.1597	-0.0107
725.3385	0.0022
725.5174	-0.0053
725.6962	-0.0032
725.875	-0.0013
726.0538	0.0018
726.2325	-0.0087
726.4112	0.0074
726.59	-0.0003
726.7687	-0.0038
726.9474	0.0045
727.126	0
727.3047	-0.0016
727.4833	-0.004
727.6619	-0.0042
727.8405	-0.0044
728.0191	-0.0034
728.1976	0.0015
728.3762	-0.0041
728.5547	-0.002
728.7332	-0.0171
728.9116	-0.0035
729.0901	0.0037
729.2686	-0.0071
729.447	-0.0058
729.6254	-0.0049
729.8038	0.0001
729.9821	-0.011
730.1605	0.002
730.3388	-0.0001
730.5171	-0.0061
730.6954	-0.0088
730.8737	0.0031
731.0519	0.0014
731.2302	-0.0037
731.4084	0.0089
731.5866	-0.0028
731.7648	-0.0125
731.9429	-0.0083
732.1211	-0.0208
732.2992	-0.0051
732.4773	-0.0114
732.6554	0.0001
732.8335	0.0069
733.0115	0.0003
733.1896	0.0038
733.3676	-0.0148
733.5456	0.0071
733.7235	-0.0018
733.9015	-0.0044
734.0794	0
734.2574	0.0012
734.4353	0.0004
734.6131	0.0045
734.791	-0.0068
734.9689	0.0043
735.1467	0.0009
735.3245	-0.0006
735.5023	-0.0056
735.68	0.0046
735.8578	-0.0042
736.0355	-0.007
736.2132	0.0017
736.3909	-0.0064
736.5686	-0.0123
736.7463	0.0023
736.9239	-0.0117
737.1015	-0.0062
737.2791	0.0053
737.4567	-0.0073
737.6343	0.0063
737.8118	0.005
737.9894	0.0052
738.1669	-0.0033
738.3444	-0.0009
738.5218	0.0036
738.6993	-0.0038
738.8767	0.0019
739.0541	0.0123
739.2315	-0.0097
739.4089	-0.0045
739.5863	0.0015
739.7636	-0.0149
739.9409	0.0043
740.1182	0.0066
740.2955	-0.0024
740.4728	-0.0066
740.65	-0.0062
740.8272	-0.0038
741.0044	-0.0027
741.1816	-0.0042
741.3588	-0.0017
741.5359	0.0035
741.7131	-0.0048
741.8902	-0.0034
742.0673	-0.0071
742.2444	-0.0097
742.4214	-0.0132
742.5985	-0.0054
742.7755	-0.0168
742.9525	-0.0191
743.1295	-0.0098
743.3064	-0.0004
743.4834	0.0007
743.6603	-0.0135
743.8372	-0.005
744.0141	-0.0052
744.191	-0.0044
744.3678	-0.0082
744.5446	-0.0066
744.7215	-0.0028
744.8982	-0.0028
745.075	-0.0183
745.2518	-0.0044
745.4285	0.0002
745.6052	-0.0149
745.7819	-0.0032
745.9586	-0.0076
746.1353	0.0025
746.3119	-0.0034
746.4885	-0.0092
746.6651	-0.013
746.8417	-0.004
747.0183	-0.0036
747.1948	-0.0006
747.3714	0.0066
747.5479	0
747.7244	-0.0053
747.9008	0.0077
748.0773	-0.0042
748.2537	0.0056
748.4301	-0.0046
748.6065	0.0084
748.7829	0.0072
748.9593	-0.003
749.1356	-0.007
749.3119	0.0019
749.4882	-0.0122
749.6645	0.0019
749.8408	-0.0115
750.017	-0.0077
750.1933	0.0004
750.3695	-0.0118
750.5457	0.0062
750.7218	-0.0002
750.898	0.0083
751.0741	-0.0051
751.2502	-0.0014
751.4263	-0.008
751.6024	-0.007
751.7784	-0.0057
751.9545	-0.017
752.1305	-0.004
752.3065	-0.0054
752.4825	-0.0063
752.6584	-0.0138
752.8344	-0.0082
753.0103	-0.0139
753.1862	-0.0165
753.3621	0.0014
753.5379	-0.0036
753.7138	0.0039
753.8896	0.0089
754.0654	0.0031
754.2412	0.0078
754.417	0.001
754.5927	-0.0046
754.7685	-0.0078
754.9442	0.0088
755.1199	0.0155
755.2956	0.0009
755.4712	0.0002
755.6469	0.0047
755.8225	0.0047
755.9981	-0.0017
756.1736	0.0074
756.3492	0.0019
756.5248	-0.0022
756.7003	-0.0028
756.8758	0.0031
757.0513	-0.0144
757.2267	0.0003
757.4022	0.0049
757.5776	-0.0098
757.753	0.0012
757.9284	0.0022
758.1038	0.0045
758.2791	-0.0067
758.4545	-0.02
758.6298	-0.0064
758.8051	0.0074
758.9803	-0.0003
759.1556	-0.009
759.3308	-0.0087
759.506	0.0096
759.6812	-0.0049
759.8564	0.0059
760.0316	-0.0048
760.2067	0.0092
760.3819	0.0064
760.557	0.0127
760.732	-0.0034
760.9071	-0.007
761.0821	0.0094
761.2572	0.0135
761.4322	0.0067
761.6072	-0.0001
761.7821	-0.0017
761.9571	0.0098
762.132	0.0016
762.3069	-0.0047
762.4818	-0.0045
762.6567	0.0019
762.8316	0.0032
763.0064	0.001
763.1812	-0.0066
763.356	-0.0154
763.5308	0.0011
763.7055	0.004
763.8803	-0.0033
764.055	0.001
764.2297	-0.0054
764.4044	-0.0074
764.579	-0.0098
764.7537	-0.0184
764.9283	0.0025
765.1029	-0.0073
765.2775	-0.0007
765.4521	-0.0124
765.6266	-0.006
765.8011	-0.0075
765.9756	0.0038
766.1501	0.005
766.3246	0.0026
766.4991	0.0044
766.6735	0.0081
766.8479	0.0036
767.0223	0.0164
767.1967	-0.0065
767.371	0.0079
767.5454	-0.013
767.7197	-0.0123
767.894	-0.0085
768.0683	-0.0093
768.2425	0.0055
768.4168	0.0074
768.591	-0.0042
768.7652	-0.0057
768.9394	0.0025
769.1135	-0.0051
769.2877	0.0164
769.4618	-0.0043
769.6359	0.0041
769.81	0.0032
769.984	-0.0041
770.1581	0.0011
770.3321	0.0038
770.5061	0.0071
770.6801	-0.0017
770.8541	0.0128
771.028	0.0085
771.202	-0.0169
771.3759	0.0069
771.5498	-0.0033
771.7236	0.002
771.8975	-0.0002
772.0713	0.0098
772.2451	0.0021
772.4189	0.0037
772.5927	0.0191
772.7665	0.0019
772.9402	0.0035
773.1139	-0.009
773.2876	-0.0096
773.4613	0.0137
773.635	0.0056
773.8086	-0.0143
773.9822	0.0028
774.1558	0.0008
774.3294	-0.0202
774.503	-0.0162
774.6765	0.0056
774.8501	0.0114
775.0236	0.0132
775.1971	-0.0009
775.3705	-0.0045
775.544	0.0005
775.7174	-0.0003
775.8908	0.0022
776.0642	-0.0059
776.2376	-0.0087
776.4109	-0.0125
776.5843	-0.0111
776.7576	0.0054
776.9309	0.0093
777.1041	0.0256
777.2774	0.0071
777.4506	-0.0044
777.6238	-0.0048
777.797	0.004
777.9702	-0.0029
778.1434	0
778.3165	-0.0077
778.4896	-0.0009
778.6627	0.0041
778.8358	0.001
779.0089	-0.0088
779.1819	-0.0113
779.3549	0.0188
779.5279	0.0074
779.7009	-0.003
779.8739	0.0111
780.0468	0.0028
780.2197	0.0006
780.3926	0.0042
780.5655	-0.0058
780.7384	0.0018
780.9112	0.0042
781.0841	-0.0094
781.2569	-0.0024
781.4297	0.0053
781.6024	0.0024
781.7752	-0.0005
781.9479	0.0103
782.1206	0.0083
782.2933	-0.0007
782.466	0.0086
782.6386	0.0024
782.8113	0.0008
782.9839	-0.005
783.1565	0.0115
783.329	0.0042
783.5016	0.0029
783.6741	0.0064
783.8466	-0.0134
784.0191	0.0239
784.1916	0.0046
784.3641	0.0043
784.5365	-0.0054
784.7089	-0.0151
784.8813	-0.0106
785.0537	-0.0119
785.2261	-0.009
785.3984	-0.0167
785.5707	-0.0109
785.743	-0.0083
785.9153	-0.0059
786.0876	0.0097
786.2598	-0.0165
786.432	-0.0104
786.6042	0.0021
786.7764	-0.0033
786.9486	-0.002
787.1207	-0.0024
787.2928	0.0087
787.4649	-0.0005
787.637	0.0192
787.8091	-0.0017
787.9811	-0.0079
788.1532	-0.0038
788.3252	0.015
788.4972	-0.0048
788.6691	-0.0154
788.8411	0.0006
789.013	-0.0133
789.1849	0.0008
789.3568	-0.0062
789.5287	-0.0082
789.7005	-0.0074
789.8723	0.0026
790.0442	0.0002
790.2159	-0.0018
790.3877	0.0008
790.5595	-0.0061
790.7312	-0.0103
790.9029	0.0134
791.0746	-0.0023
791.2463	-0.0038
791.4179	-0.0113
791.5896	-0.0129
791.7612	0.0157
791.9328	0.0074
792.1044	-0.0077
792.2759	-0.0117
792.4474	-0.0099
792.619	-0.0088
792.7905	0.005
792.9619	-0.0011
793.1334	0.0134
793.3048	0.0046
793.4762	0.0046
793.6476	-0.0068
793.819	-0.0004
793.9904	-0.0082
794.1617	-0.0144
794.333	0.0002
794.5043	-0.0082
794.6756	-0.0075
794.8469	-0.0082
795.0181	-0.0005
795.1893	-0.0097
795.3605	0.002
795.5317	-0.0072
795.7029	-0.0015
795.874	-0.0039
796.0452	-0.0138
796.2163	0.0041
796.3873	-0.0036
796.5584	0.0046
796.7294	-0.0179
796.9005	0.0146
797.0715	0.012
797.2425	-0.0194
797.4134	-0.0047
797.5844	-0.0119
797.7553	-0.0045
797.9262	0.0008
798.0971	-0.005
798.2679	-0.0077
798.4388	-0.0044
798.6096	-0.0126
798.7804	-0.0093
798.9512	-0.0042
799.122	-0.0034
799.2927	0.0095
799.4635	0.0102
799.6342	-0.0257
799.8049	-0.0101
799.9755	-0.0021
800.1462	-0.0048
800.3168	0.007
800.4874	0.0006
800.658	0.02
800.8286	0.0218
800.9991	0.0102
801.1696	0.0065
801.3402	0.0161
801.5106	0.0011
801.6811	0.0066
801.8516	0.0185
802.022	0.0031
802.1924	0.0158
802.3628	0.0219
802.5332	0.0127
802.7035	0.0421
802.8739	-0.0008
803.0442	-0.0131
803.2145	0.0149
803.3847	-0.0251
803.555	0.0181
803.7252	-0.0149
803.8954	-0.0165
804.0656	-0.014
804.2358	-0.0206
804.4059	0
804.5761	-0.0072
804.7462	0.0161
804.9163	-0.0183
805.0864	-0.0362
805.2564	-0.0172
805.4264	0.0047
805.5965	-0.0171
805.7665	0.0041
805.9364	-0.0013
806.1064	0.0208
806.2763	0.0015
806.4462	0.0185
806.6161	0.0035
806.786	0.0102
806.9559	-0.0038
807.1257	-0.0037
807.2955	-0.004
807.4653	0.003
807.6351	-0.0149
807.8048	0.0057
807.9746	0.0137
808.1443	0.0142
808.314	0.0066
808.4837	-0.0051
808.6533	0.0075
808.8229	0.0153
808.9926	-0.01
809.1622	0.0078
809.3317	-0.0095
809.5013	-0.0034
809.6708	0.001
809.8403	-0.0073
810.0098	-0.0027
810.1793	0.0023
810.3488	-0.0138
810.5182	-0.0323
810.6876	0.0196
810.857	-0.0082
811.0264	0.0179
811.1958	-0.0023
811.3651	-0.0002
811.5344	-0.0039
811.7037	0.0024
811.873	-0.0106
812.0422	-0.0036
812.2115	0.0011
812.3807	-0.0353
812.5499	0.0134
812.7191	0.0153
812.8882	0.0075
813.0574	-0.0217
813.2265	0.0011
813.3956	-0.0024
813.5646	0.0079
813.7337	-0.0159
813.9027	0.0121
814.0718	0.0166
814.2407	0.0226
814.4097	-0.0099
814.5787	-0.0103
814.7476	-0.0133
814.9165	-0.0147
815.0854	-0.0255
815.2543	-0.0025
815.4232	-0.0133
815.592	0.0238
815.7608	-0.0173
815.9296	0.0113
816.0984	0.0174
816.2671	-0.0087
816.4359	-0.0039
816.6046	-0.0147
816.7733	-0.0063
816.942	-0.0223
817.1106	-0.0053
817.2793	0.0001
817.4479	-0.0015
817.6165	-0.0048
817.785	-0.013
817.9536	-0.0093
818.1221	-0.0129
818.2906	-0.023
818.4591	-0.0068
818.6276	-0.0096
818.7961	0.0067
818.9645	0.0184
819.1329	0.0061
819.3013	-0.0067
819.4697	0.0007
819.638	0.0049
819.8064	-0.009
819.9747	0.0074
820.143	0.0095
820.3113	-0.0167
820.4795	0.0135
820.6477	-0.0023
820.816	0.0293
820.9842	0.0029
821.1523	-0.0193
821.3205	-0.0284
821.4886	-0.018
821.6567	0.0135
821.8248	-0.0095
821.9929	0.0025
822.1609	-0.0187
822.329	0.0224
822.497	0.0265
822.665	0.0016
822.833	-0.0341
823.0009	-0.0085
823.1688	0.0126
823.3367	0.0184
823.5046	0.0101
823.6725	0.0196
823.8404	0.0198
824.0082	0.0052
824.176	0.0178
824.3438	0.0154
824.5116	0.0005
824.6793	0.013
824.847	-0.0077
825.0147	-0.0063
825.1824	0.0194
825.3501	-0.0027
825.5177	-0.0216
825.6854	-0.0172
825.853	-0.0127
826.0206	-0.0155
826.1881	-0.0021
826.3557	-0.0499
826.5232	0.0133
826.6907	-0.0472
826.8582	-0.0071
827.0257	-0.0319
827.1931	0.0101
827.3605	-0.0106
827.528	-0.0221
827.6953	-0.0254
827.8627	-0.0069
828.03	0.0196
828.1974	0.0062
828.3647	-0.0477
828.532	-0.0164
828.6992	0.0006
828.8665	-0.0056
829.0337	-0.0094
829.2009	-0.0029
829.3681	-0.002
829.5352	0.0062
829.7024	-0.0305
829.8695	-0.0359
830.0366	0.045
830.2037	-0.0095
830.3707	0.0198
830.5378	0.0093
830.7048	-0.0258
830.8718	0.0111
831.0388	-0.0073
831.2057	0.0044
831.3727	-0.0217
831.5396	-0.0022
831.7065	-0.0011
831.8734	0.0349
832.0402	-0.0418
832.2071	-0.0192
832.3739	0.0154
832.5407	0.0141
832.7075	0.0206
832.8742	-0.0226
833.041	-0.059
833.2077	0.0131
833.3744	0.0231
833.541	-0.0047
833.7077	0.0064
833.8743	0.0034
834.0409	0.0169
834.2075	-0.0209
834.3741	0.0069
834.5407	0.0156
834.7072	0.002
834.8737	-0.0168
835.0402	0.0138
835.2067	0.0051
835.3731	-0.0186
835.5395	-0.0113
835.706	0.0206
835.8723	-0.0291
836.0387	-0.0171
836.2051	-0.0422
836.3714	-0.0134
836.5377	-0.0067
836.704	-0.0146
836.8703	0.0048
837.0365	0.0068
837.2027	-0.0291
837.3689	0.0001
837.5351	-0.0218
837.7013	-0.0066
837.8674	-0.0128
838.0335	-0.0304
838.1997	-0.0402
838.3657	-0.0321
838.5318	-0.0114
838.6978	0.0292
838.8639	0.0373
839.0299	0.0323
839.1958	-0.0175
839.3618	0.0414
839.5277	0.0036
839.6937	-0.0184
839.8596	-0.0262
840.0254	-0.0232
840.1913	0.0574
840.3571	0.0703
840.523	-0.0107
840.6888	-0.0236
840.8545	-0.0385
841.0203	0.0081
841.186	0.023
841.3517	0.0524
841.5174	-0.0335
841.6831	-0.0429
841.8488	-0.0131
842.0144	0.0057
842.18	-0.0155
842.3456	-0.0182
842.5112	-0.0302
842.6767	-0.0779
842.8422	-0.0338
843.0077	0.0053
843.1732	-0.0636
843.3387	-0.046
843.5042	-0.0577
843.6696	0.0328
843.835	-0.0321
844.0004	0.0377
844.1657	0.0501
844.3311	-0.0075
844.4964	-0.0754
844.6617	-0.0289
844.827	-0.0124
844.9923	-0.0155
845.1575	-0.0069
845.3227	-0.019
845.4879	-0.0054
845.6531	-0.0515
845.8183	-0.0089
845.9834	0.0052
846.1485	0.0002
846.3136	-0.0501
846.4787	-0.1164
846.6438	0.0575
846.8088	-0.0458
846.9738	-0.0452
847.1388	-0.0177
847.3038	-0.0262
847.4687	-0.2228
847.6337	-0.031
847.7986	-0.0379
847.9635	-0.0364
848.1284	0.0127
848.2932	0.0441
848.458	-0.0717
848.6228	0.0892
848.7876	0.0446
848.9524	-0.0711
849.1172	-0.1022
849.2819	-0.0372
849.4466	-0.1358
849.6113	-0.0489
849.7759	-0.0115
849.9406	0.0003
850.1052	0.0253
850.2698	0.04
850.4344	-0.048
850.599	-0.1
850.7635	0.1243
850.928	-0.0279
851.0925	-0.0092
851.257	0.055
851.4215	-0.0247
851.5859	-0.0939
851.7503	0.0438
851.9147	-0.0405
852.0791	-0.0839
852.2434	0.0277
852.4078	0.0036
852.5721	0.0936
852.7364	-0.0896
852.9007	-0.2381
853.0649	-0.0567
853.2291	-0.0355
853.3934	-0.011
853.5575	-0.0563
853.7217	-0.0937
853.8859	-0.0639
854.05	-0.0836
854.2141	-0.0297
854.3782	-0.0376
854.5423	-0.0174
854.7063	0.1285
854.8703	0.0088
855.0343	-0.0414
855.1983	-0.1384
855.3623	0.2477
855.5262	-0.0157
855.6901	-0.063
855.854	-0.0648
856.0179	0.0302
856.1818	0.0631
856.3456	-0.1976
856.5094	-0.1244
856.6732	0.0097
856.837	-0.003
857.0008	-0.0399
857.1645	-0.051
857.3282	-0.2445
857.4919	0.0887
857.6556	0.026
857.8192	-0.0521
857.9828	-0.0529
858.1465	-0.1184
858.31	-0.137
858.4736	-0.1655
858.6372	-0.2385
858.8007	-0.11
858.9642	-0.0301
859.1277	0.0314
859.2911	0.1226
859.4546	-0.0632
859.618	-0.3426
859.7814	0.0108
859.9448	0.0816
860.1081	0.0009
860.2715	0.1639
860.4348	0.1823
860.5981	-0.0688
860.7614	0.0363
860.9246	-0.2417
861.0879	-0.0535
861.2511	0.0425
861.4143	-0.2115
861.5774	0.1315
861.7406	-0.2509
861.9037	-0.1142
862.0668	-0.0185
862.2299	-0.1449
862.393	-0.5382
862.556	-0.0725
862.7191	-0.2559
862.8821	-0.199
863.0451	0.3303
863.208	0.1256
863.371	-0.0769
863.5339	-0.1817
863.6968	0.3542
863.8597	0.4056
864.0225	-0.1569
864.1854	-0.0576
864.3482	0.0959
864.511	0.0721
864.6737	-0.0245
864.8365	0.0926
864.9992	0.3316
865.1619	-0.2838
865.3246	-0.052
865.4873	0.1391
865.65	0.0348
865.8126	0.1184
865.9752	0.1047
866.1378	0.2159
866.3004	-0.0861
866.4629	0.2678
866.6254	0.6623
866.7879	-0.0612
866.9504	-0.0663
867.1129	-0
867.2753	0.4511
867.4377	0.2126
867.6001	0.0916
867.7625	0.0082
867.9249	0.0669
868.0872	-0.1321
868.2495	-0.0659
868.4118	-0.528
868.5741	-0.568
868.7363	-0.3275
868.8986	-0.5331
869.0608	-0.2038
869.223	0.4089
869.3851	-0.1235
869.5473	-0.0033
869.7094	-0.0514
869.8715	-0
870.0336	-0
870.1957	0.229
870.3577	-1.1681
870.5197	0.2091
870.6817	-0.5552
870.8437	-0.0493
871.0057	-0.8873
871.1676	-0
871.3295	-0.3842
871.4914	-0.5199
871.6533	-0.2786
871.8151	-0.5238
871.977	-0
872.1388	0.9008
872.3006	-0.4102
872.4623	0.4214
872.6241	0.2466
872.7858	0.277
872.9475	-0.1783
873.1092	-0.2387
873.2709	0.2825
873.4325	0.4322
873.5941	-0
873.7557	-0.4223
873.9173	-0
874.0789	-0.2945
874.2404	-0.8168
874.4019	0.1318
874.5634	-0.1196
874.7249	0.1965
874.8863	0.8148
875.0478	0.5929
875.2092	-0
875.3706	1.168
875.5319	-0.4329
875.6933	0.5804
875.8546	0.6805
876.0159	13.9509
876.1772	-0.0453
876.3385	0.1357
876.4997	0.1991
876.6609	-0.6299
876.8221	-0.545
876.9833	-0
877.1445	-0
877.3056	0.373
877.4667	-0.3094
877.6278	-0
877.7889	-0
877.9499	-0
878.111	-0
878.272	-0
878.433	-0
878.5939	-0
878.7549	0.0268
878.9158	-0.1899
879.0767	0.5205
879.2376	1.1487
879.3984	1.0246
879.5593	-0
879.7201	-0.2125
879.8809	-0.6161
880.0417	-0
880.2024	0.5047
880.3632	-0.2663
880.5239	0.4249
880.6846	-0
880.8452	-2.4409
881.0059	-1.3802
881.1665	0.0358
881.3271	0.2081
881.4877	1.0072
881.6483	-0.4487
881.8088	-0.5934
881.9693	0.5256
882.1298	0.5256
882.2903	0.5256
