Data from MonoPyChalIsomerACN10uM410nmA_Absorbance_14-53-30-073.txt Node
Date: Fri Jul 05 14:53:30 BST 2024
User: LASERRRRR
Spectrometer: FLMT03099
Trigger mode: 0
Integration Time (sec): 1.000000E-1
Scans to average: 1
Electric dark correction enabled: true
Nonlinearity correction enabled: false
Boxcar width: 0
XAxis mode: Wavelengths
Number of Pixels in Spectrum: 3648
>>>>>Begin Spectral Data<<<<<
179.3399	-0.1401
179.5586	-0.1401
179.7771	-0.1401
179.9957	-0
180.2143	1.2844
180.4329	-0.0811
180.6514	1.4789
180.8699	-0
181.0885	0.1389
181.307	0.1371
181.5255	-0.7125
181.744	-0
181.9625	-0
182.181	-0
182.3994	0.2037
182.6179	0.3757
182.8363	0.3937
183.0547	-0.017
183.2732	-0.1131
183.4916	0.0871
183.71	-0.0197
183.9284	0.008
184.1467	-0.0931
184.3651	-0.0945
184.5835	-0.027
184.8018	-0.1649
185.0201	0.0969
185.2385	0.077
185.4568	0.2138
185.6751	0.2293
185.8934	0.2279
186.1117	0.0343
186.3299	-0.0078
186.5482	0.3311
186.7664	-0.0829
186.9847	-0.1624
187.2029	0.0333
187.4211	0.1272
187.6393	0.1639
187.8575	0.0234
188.0757	0.1339
188.2939	0.0786
188.512	-0.1196
188.7302	-0.144
188.9483	-0.1411
189.1665	0.1514
189.3846	-0.3975
189.6027	0.3276
189.8208	0.2569
190.0389	0.1899
190.257	-0.0456
190.475	0.1951
190.6931	0.2393
190.9111	0.4258
191.1292	0.0582
191.3472	0.5695
191.5652	0.3095
191.7832	0.2499
192.0012	0.5787
192.2192	0.371
192.4371	0.3868
192.6551	0.4342
192.873	0.3198
193.091	0.2832
193.3089	0.5494
193.5268	0.5137
193.7447	0.4913
193.9626	0.3853
194.1805	0.492
194.3984	0.8195
194.6162	0.5402
194.8341	0.4607
195.0519	0.4762
195.2697	0.5302
195.4875	0.7966
195.7054	0.433
195.9231	0.4773
196.1409	0.7326
196.3587	0.6294
196.5765	0.4901
196.7942	0.7473
197.012	0.6502
197.2297	0.5431
197.4474	0.4814
197.6651	0.4818
197.8828	0.7047
198.1005	0.5894
198.3182	0.6036
198.5358	0.6163
198.7535	0.6309
198.9711	0.5164
199.1888	0.5944
199.4064	0.7711
199.624	0.5752
199.8416	0.7146
200.0592	0.5444
200.2767	0.6026
200.4943	0.6694
200.7119	0.8047
200.9294	0.6748
201.1469	0.4969
201.3645	0.538
201.582	0.5223
201.7995	0.6484
202.017	0.6096
202.2344	0.5182
202.4519	0.6331
202.6694	0.6647
202.8868	0.5353
203.1042	0.6638
203.3217	0.8267
203.5391	0.6492
203.7565	0.595
203.9739	0.6094
204.1913	0.5707
204.4086	0.6449
204.626	0.6487
204.8433	0.6542
205.0607	0.5674
205.278	0.588
205.4953	0.5958
205.7126	0.6871
205.9299	0.7696
206.1472	0.6755
206.3644	0.6596
206.5817	0.7178
206.7989	0.6718
207.0162	0.644
207.2334	0.6373
207.4506	0.6191
207.6678	0.7183
207.885	0.6529
208.1022	0.7181
208.3194	0.5867
208.5365	0.766
208.7537	0.6795
208.9708	0.5838
209.1879	0.6642
209.405	0.6891
209.6222	0.6179
209.8392	0.5623
210.0563	0.5842
210.2734	0.6897
210.4905	0.5799
210.7075	0.638
210.9245	0.591
211.1416	0.6712
211.3586	0.6211
211.5756	0.5615
211.7926	0.6216
212.0096	0.6026
212.2265	0.5741
212.4435	0.5143
212.6604	0.6193
212.8774	0.5749
213.0943	0.5629
213.3112	0.5171
213.5281	0.5017
213.745	0.4889
213.9619	0.5065
214.1788	0.4761
214.3956	0.4312
214.6125	0.4512
214.8293	0.4319
215.0461	0.4717
215.2629	0.4174
215.4798	0.4306
215.6965	0.3868
215.9133	0.4271
216.1301	0.4057
216.3469	0.4046
216.5636	0.3929
216.7803	0.3497
216.9971	0.4094
217.2138	0.3832
217.4305	0.3744
217.6472	0.3626
217.8639	0.3658
218.0805	0.3186
218.2972	0.3066
218.5138	0.2945
218.7305	0.3324
218.9471	0.3187
219.1637	0.2842
219.3803	0.2788
219.5969	0.2567
219.8135	0.249
220.0301	0.2533
220.2466	0.2899
220.4632	0.2546
220.6797	0.2189
220.8962	0.2382
221.1127	0.2411
221.3292	0.2351
221.5457	0.2315
221.7622	0.2253
221.9787	0.253
222.1951	0.2212
222.4116	0.2527
222.628	0.236
222.8444	0.2524
223.0608	0.2356
223.2772	0.2373
223.4936	0.246
223.71	0.2449
223.9264	0.2574
224.1427	0.2319
224.3591	0.2517
224.5754	0.2526
224.7917	0.247
225.008	0.2619
225.2243	0.2381
225.4406	0.2649
225.6569	0.2511
225.8732	0.259
226.0894	0.2442
226.3057	0.2573
226.5219	0.2612
226.7381	0.2561
226.9543	0.2679
227.1705	0.2849
227.3867	0.2667
227.6029	0.2932
227.8191	0.2852
228.0352	0.286
228.2513	0.2974
228.4675	0.311
228.6836	0.2873
228.8997	0.2921
229.1158	0.3008
229.3319	0.294
229.548	0.2852
229.764	0.3042
229.9801	0.3152
230.1961	0.3143
230.4121	0.3217
230.6282	0.3298
230.8442	0.3196
231.0602	0.3434
231.2761	0.3358
231.4921	0.3462
231.7081	0.3407
231.924	0.3121
232.14	0.371
232.3559	0.3451
232.5718	0.3593
232.7877	0.3472
233.0036	0.3426
233.2195	0.3566
233.4353	0.346
233.6512	0.3525
233.867	0.3474
234.0829	0.3698
234.2987	0.3716
234.5145	0.3723
234.7303	0.3637
234.9461	0.3829
235.1619	0.3678
235.3776	0.375
235.5934	0.3874
235.8091	0.3729
236.0249	0.3599
236.2406	0.3713
236.4563	0.3678
236.672	0.3825
236.8877	0.3742
237.1034	0.3713
237.319	0.3781
237.5347	0.3929
237.7503	0.3727
237.966	0.3977
238.1816	0.3803
238.3972	0.3854
238.6128	0.3983
238.8284	0.3831
239.0439	0.4081
239.2595	0.4027
239.475	0.406
239.6906	0.4198
239.9061	0.3836
240.1216	0.4103
240.3371	0.4212
240.5526	0.3896
240.7681	0.4155
240.9836	0.3938
241.199	0.4182
241.4145	0.3878
241.6299	0.3766
241.8453	0.3824
242.0607	0.3975
242.2761	0.3824
242.4915	0.3657
242.7069	0.3747
242.9223	0.3667
243.1376	0.3619
243.353	0.3424
243.5683	0.3642
243.7836	0.3378
243.9989	0.3475
244.2142	0.3215
244.4295	0.3347
244.6448	0.3266
244.86	0.3223
245.0753	0.3123
245.2905	0.3128
245.5057	0.2958
245.721	0.2921
245.9362	0.2913
246.1514	0.2887
246.3665	0.2745
246.5817	0.2736
246.7969	0.2712
247.012	0.263
247.2271	0.2563
247.4423	0.2567
247.6574	0.2644
247.8725	0.2454
248.0876	0.2371
248.3026	0.2273
248.5177	0.2311
248.7328	0.2299
248.9478	0.2277
249.1628	0.2094
249.3779	0.2201
249.5929	0.2113
249.8079	0.2222
250.0228	0.2076
250.2378	0.2042
250.4528	0.2126
250.6677	0.1761
250.8827	0.1918
251.0976	0.2049
251.3125	0.2067
251.5274	0.1794
251.7423	0.1802
251.9572	0.1888
252.172	0.185
252.3869	0.2033
252.6017	0.1781
252.8166	0.1668
253.0314	0.1596
253.2462	0.177
253.461	0.1914
253.6758	0.1729
253.8906	0.1767
254.1053	0.1791
254.3201	0.1746
254.5348	0.1756
254.7496	0.1737
254.9643	0.1777
255.179	0.1711
255.3937	0.1553
255.6083	0.1708
255.823	0.1791
256.0377	0.1604
256.2523	0.1775
256.467	0.1473
256.6816	0.178
256.8962	0.1576
257.1108	0.1627
257.3254	0.1865
257.54	0.1641
257.7545	0.1634
257.9691	0.1564
258.1836	0.161
258.3981	0.1767
258.6127	0.1751
258.8272	0.1616
259.0417	0.1593
259.2561	0.1626
259.4706	0.1564
259.6851	0.162
259.8995	0.1609
260.114	0.155
260.3284	0.1646
260.5428	0.1465
260.7572	0.1784
260.9716	0.17
261.186	0.1551
261.4003	0.1607
261.6147	0.1582
261.829	0.1666
262.0433	0.1629
262.2577	0.1594
262.472	0.1627
262.6863	0.1515
262.9005	0.1685
263.1148	0.1567
263.3291	0.1528
263.5433	0.1529
263.7576	0.1654
263.9718	0.1565
264.186	0.1643
264.4002	0.1535
264.6144	0.1623
264.8286	0.1722
265.0427	0.1741
265.2569	0.1487
265.471	0.158
265.6851	0.1577
265.8993	0.1598
266.1134	0.1568
266.3275	0.1586
266.5415	0.1575
266.7556	0.1725
266.9697	0.17
267.1837	0.1735
267.3978	0.1698
267.6118	0.1793
267.8258	0.1747
268.0398	0.1535
268.2538	0.1665
268.4677	0.1704
268.6817	0.1614
268.8957	0.1651
269.1096	0.1691
269.3235	0.1645
269.5374	0.1613
269.7514	0.1701
269.9652	0.1701
270.1791	0.1496
270.393	0.1473
270.6068	0.1603
270.8207	0.1569
271.0345	0.1498
271.2483	0.1636
271.4622	0.1557
271.676	0.1596
271.8897	0.1566
272.1035	0.1535
272.3173	0.1449
272.531	0.1557
272.7448	0.1571
272.9585	0.1437
273.1722	0.1514
273.3859	0.1601
273.5996	0.1614
273.8133	0.1666
274.0269	0.1587
274.2406	0.1597
274.4542	0.1601
274.6679	0.1432
274.8815	0.1705
275.0951	0.1586
275.3087	0.1688
275.5223	0.1614
275.7358	0.1693
275.9494	0.1591
276.1629	0.1558
276.3765	0.1451
276.59	0.1652
276.8035	0.1586
277.017	0.1592
277.2305	0.1577
277.444	0.165
277.6574	0.142
277.8709	0.1657
278.0843	0.1468
278.2978	0.1607
278.5112	0.1592
278.7246	0.1637
278.938	0.1611
279.1513	0.1697
279.3647	0.1719
279.5781	0.1574
279.7914	0.1679
280.0047	0.1634
280.2181	0.1498
280.4314	0.168
280.6447	0.1625
280.8579	0.1613
281.0712	0.1755
281.2845	0.1648
281.4977	0.1634
281.711	0.161
281.9242	0.1526
282.1374	0.1697
282.3506	0.1737
282.5638	0.1638
282.7769	0.1672
282.9901	0.1632
283.2033	0.1605
283.4164	0.1687
283.6295	0.1676
283.8426	0.1499
284.0557	0.1644
284.2688	0.1642
284.4819	0.1722
284.695	0.1635
284.908	0.1677
285.1211	0.1606
285.3341	0.163
285.5471	0.1563
285.7601	0.1639
285.9731	0.1518
286.1861	0.153
286.3991	0.1762
286.612	0.1655
286.825	0.1571
287.0379	0.1652
287.2508	0.1538
287.4637	0.1608
287.6766	0.155
287.8895	0.1571
288.1024	0.1729
288.3152	0.1653
288.5281	0.1553
288.7409	0.1605
288.9538	0.1533
289.1666	0.1472
289.3794	0.1602
289.5922	0.1525
289.8049	0.1551
290.0177	0.1521
290.2304	0.1555
290.4432	0.1642
290.6559	0.1521
290.8686	0.1586
291.0813	0.1574
291.294	0.1509
291.5067	0.1551
291.7194	0.162
291.932	0.1607
292.1447	0.1487
292.3573	0.1404
292.5699	0.1519
292.7825	0.1591
292.9951	0.1456
293.2077	0.1483
293.4203	0.155
293.6328	0.1418
293.8454	0.1558
294.0579	0.1394
294.2704	0.1451
294.4829	0.1467
294.6954	0.1517
294.9079	0.1543
295.1204	0.1491
295.3328	0.144
295.5453	0.1572
295.7577	0.1405
295.9701	0.1384
296.1825	0.1472
296.3949	0.1502
296.6073	0.1348
296.8197	0.1422
297.0321	0.1529
297.2444	0.1193
297.4567	0.1492
297.6691	0.1494
297.8814	0.1507
298.0937	0.1379
298.306	0.1601
298.5182	0.1366
298.7305	0.1533
298.9428	0.1498
299.155	0.1537
299.3672	0.1479
299.5794	0.1449
299.7916	0.1417
300.0038	0.1362
300.216	0.1482
300.4282	0.156
300.6403	0.1392
300.8525	0.1461
301.0646	0.1562
301.2767	0.1449
301.4888	0.1458
301.7009	0.1397
301.913	0.1443
302.125	0.1527
302.3371	0.1512
302.5491	0.1405
302.7612	0.1445
302.9732	0.1387
303.1852	0.1521
303.3972	0.1415
303.6092	0.1441
303.8211	0.1425
304.0331	0.1343
304.245	0.1316
304.457	0.1421
304.6689	0.1359
304.8808	0.153
305.0927	0.1337
305.3046	0.1331
305.5164	0.1338
305.7283	0.1259
305.9401	0.1396
306.152	0.1438
306.3638	0.1388
306.5756	0.1412
306.7874	0.127
306.9992	0.1469
307.2109	0.1293
307.4227	0.1162
307.6344	0.1241
307.8462	0.1234
308.0579	0.1289
308.2696	0.1292
308.4813	0.1285
308.693	0.1194
308.9046	0.1334
309.1163	0.1205
309.328	0.1197
309.5396	0.1162
309.7512	0.125
309.9628	0.1246
310.1744	0.1246
310.386	0.1018
310.5976	0.1173
310.8091	0.1095
311.0207	0.1113
311.2322	0.116
311.4437	0.1028
311.6552	0.1096
311.8667	0.1173
312.0782	0.1026
312.2897	0.1082
312.5012	0.1128
312.7126	0.1019
312.924	0.1072
313.1355	0.1164
313.3469	0.1069
313.5583	0.1176
313.7696	0.105
313.981	0.1135
314.1924	0.1056
314.4037	0.1022
314.6151	0.121
314.8264	0.1064
315.0377	0.1063
315.249	0.1107
315.4603	0.1194
315.6716	0.1091
315.8828	0.0966
316.0941	0.1122
316.3053	0.1059
316.5165	0.1041
316.7277	0.0956
316.9389	0.1113
317.1501	0.1012
317.3613	0.1072
317.5724	0.0988
317.7836	0.1124
317.9947	0.102
318.2058	0.102
318.417	0.0991
318.6281	0.091
318.8391	0.1045
319.0502	0.1073
319.2613	0.1069
319.4723	0.1133
319.6834	0.1109
319.8944	0.0889
320.1054	0.109
320.3164	0.1061
320.5274	0.1024
320.7383	0.1035
320.9493	0.1051
321.1602	0.1283
321.3712	0.09
321.5821	0.1059
321.793	0.1177
322.0039	0.1094
322.2148	0.1056
322.4257	0.1098
322.6365	0.1086
322.8474	0.1106
323.0582	0.1032
323.269	0.1033
323.4798	0.1162
323.6906	0.1112
323.9014	0.1114
324.1122	0.1035
324.3229	0.1216
324.5337	0.1115
324.7444	0.1036
324.9551	0.1153
325.1658	0.1244
325.3765	0.1154
325.5872	0.1125
325.7979	0.108
326.0085	0.1159
326.2192	0.1195
326.4298	0.1171
326.6404	0.1111
326.851	0.1093
327.0616	0.1158
327.2722	0.1223
327.4828	0.1238
327.6933	0.1144
327.9039	0.1249
328.1144	0.13
328.3249	0.1186
328.5354	0.1089
328.7459	0.1051
328.9564	0.1115
329.1669	0.1195
329.3773	0.1053
329.5878	0.1288
329.7982	0.1198
330.0086	0.1066
330.219	0.1112
330.4294	0.1261
330.6398	0.1177
330.8502	0.1111
331.0605	0.1148
331.2708	0.1205
331.4812	0.119
331.6915	0.1303
331.9018	0.1111
332.1121	0.1131
332.3224	0.1217
332.5326	0.1241
332.7429	0.1168
332.9531	0.1354
333.1633	0.1149
333.3735	0.1178
333.5837	0.1193
333.7939	0.1048
334.0041	0.1371
334.2143	0.1255
334.4244	0.1092
334.6346	0.0978
334.8447	0.1385
335.0548	0.12
335.2649	0.1146
335.475	0.1146
335.685	0.1111
335.8951	0.1348
336.1051	0.1195
336.3152	0.1275
336.5252	0.1143
336.7352	0.1203
336.9452	0.1279
337.1552	0.1309
337.3652	0.1172
337.5751	0.1234
337.7851	0.1263
337.995	0.1165
338.2049	0.1174
338.4148	0.1253
338.6247	0.1356
338.8346	0.1173
339.0445	0.1232
339.2543	0.1126
339.4642	0.1214
339.674	0.1251
339.8838	0.1352
340.0936	0.1297
340.3034	0.1364
340.5132	0.1319
340.7229	0.1282
340.9327	0.1224
341.1424	0.1223
341.3522	0.1326
341.5619	0.1313
341.7716	0.1222
341.9813	0.131
342.1909	0.1291
342.4006	0.1324
342.6102	0.1408
342.8199	0.1303
343.0295	0.1267
343.2391	0.1418
343.4487	0.1341
343.6583	0.1259
343.8679	0.1323
344.0774	0.1395
344.287	0.1329
344.4965	0.1273
344.706	0.142
344.9155	0.1316
345.125	0.1356
345.3345	0.1352
345.544	0.1351
345.7534	0.1334
345.9629	0.1143
346.1723	0.1329
346.3817	0.1388
346.5911	0.1332
346.8005	0.1493
347.0099	0.1302
347.2193	0.1443
347.4286	0.1222
347.638	0.1539
347.8473	0.1404
348.0566	0.145
348.2659	0.138
348.4752	0.141
348.6845	0.1434
348.8937	0.1247
349.103	0.1441
349.3122	0.1183
349.5214	0.1348
349.7306	0.1542
349.9398	0.1484
350.149	0.1511
350.3582	0.1401
350.5674	0.1498
350.7765	0.1588
350.9856	0.1375
351.1948	0.1396
351.4039	0.1282
351.613	0.1322
351.822	0.1408
352.0311	0.1584
352.2402	0.1489
352.4492	0.1569
352.6582	0.1463
352.8672	0.1466
353.0762	0.151
353.2852	0.1463
353.4942	0.1355
353.7032	0.1591
353.9121	0.1608
354.1211	0.1483
354.33	0.1564
354.5389	0.1475
354.7478	0.1525
354.9567	0.1487
355.1655	0.139
355.3744	0.1628
355.5833	0.148
355.7921	0.171
356.0009	0.1647
356.2097	0.1639
356.4185	0.1697
356.6273	0.1615
356.8361	0.1716
357.0448	0.1508
357.2536	0.1402
357.4623	0.1488
357.671	0.1597
357.8797	0.1687
358.0884	0.1656
358.2971	0.1649
358.5057	0.1701
358.7144	0.1718
358.923	0.1632
359.1316	0.1638
359.3402	0.1642
359.5488	0.1666
359.7574	0.1619
359.966	0.1826
360.1746	0.1706
360.3831	0.1627
360.5916	0.1634
360.8002	0.1639
361.0087	0.1783
361.2172	0.1848
361.4256	0.1699
361.6341	0.1692
361.8426	0.1644
362.051	0.1766
362.2594	0.1889
362.4678	0.1788
362.6762	0.1898
362.8846	0.1809
363.093	0.1599
363.3014	0.168
363.5097	0.1622
363.718	0.1778
363.9264	0.1643
364.1347	0.1853
364.343	0.1734
364.5513	0.186
364.7595	0.1952
364.9678	0.1861
365.176	0.1713
365.3842	0.1669
365.5925	0.1881
365.8007	0.1834
366.0089	0.1823
366.217	0.1786
366.4252	0.1841
366.6333	0.2035
366.8415	0.1914
367.0496	0.1776
367.2577	0.2005
367.4658	0.1985
367.6739	0.1981
367.882	0.2048
368.09	0.1797
368.2981	0.1922
368.5061	0.188
368.7141	0.207
368.9221	0.1882
369.1301	0.1877
369.3381	0.1925
369.5461	0.1783
369.754	0.1899
369.962	0.1851
370.1699	0.1879
370.3778	0.1911
370.5857	0.2005
370.7936	0.2064
371.0015	0.1884
371.2093	0.199
371.4172	0.1986
371.625	0.1968
371.8328	0.1864
372.0406	0.1865
372.2484	0.2144
372.4562	0.1998
372.664	0.2035
372.8717	0.2105
373.0795	0.1879
373.2872	0.2057
373.4949	0.1957
373.7026	0.1936
373.9103	0.2028
374.118	0.2087
374.3256	0.1932
374.5333	0.1887
374.7409	0.1993
374.9485	0.2056
375.1561	0.1985
375.3637	0.1994
375.5713	0.1968
375.7789	0.208
375.9864	0.1797
376.194	0.188
376.4015	0.2021
376.609	0.2127
376.8165	0.1977
377.024	0.1942
377.2315	0.1846
377.4389	0.2055
377.6464	0.2074
377.8538	0.1975
378.0612	0.2018
378.2686	0.2094
378.476	0.2163
378.6834	0.2032
378.8908	0.1982
379.0981	0.2165
379.3055	0.2118
379.5128	0.1956
379.7201	0.2073
379.9274	0.1934
380.1347	0.2096
380.342	0.2204
380.5492	0.2091
380.7565	0.2132
380.9637	0.2052
381.1709	0.2215
381.3781	0.2013
381.5853	0.2291
381.7925	0.2023
381.9997	0.2278
382.2068	0.2021
382.4139	0.2091
382.6211	0.2058
382.8282	0.2148
383.0353	0.1982
383.2424	0.2024
383.4494	0.2308
383.6565	0.2192
383.8635	0.2034
384.0706	0.2187
384.2776	0.2186
384.4846	0.1878
384.6916	0.2175
384.8986	0.1952
385.1055	0.2105
385.3125	0.1984
385.5194	0.2049
385.7263	0.2283
385.9333	0.2007
386.1402	0.2004
386.347	0.1986
386.5539	0.1974
386.7608	0.2115
386.9676	0.1872
387.1744	0.2021
387.3813	0.2043
387.5881	0.2219
387.7948	0.2021
388.0016	0.2023
388.2084	0.2086
388.4151	0.1888
388.6219	0.2121
388.8286	0.1948
389.0353	0.2241
389.242	0.2137
389.4487	0.2057
389.6553	0.2006
389.862	0.177
390.0686	0.1896
390.2753	0.1934
390.4819	0.2013
390.6885	0.1968
390.8951	0.2023
391.1016	0.1851
391.3082	0.186
391.5147	0.1773
391.7213	0.1887
391.9278	0.1776
392.1343	0.189
392.3408	0.1893
392.5473	0.1943
392.7537	0.1828
392.9602	0.1688
393.1666	0.1922
393.373	0.1912
393.5794	0.1814
393.7858	0.1931
393.9922	0.1748
394.1986	0.2057
394.4049	0.1968
394.6113	0.1717
394.8176	0.1805
395.0239	0.1624
395.2302	0.1819
395.4365	0.178
395.6428	0.1803
395.8491	0.1891
396.0553	0.1741
396.2615	0.1597
396.4678	0.1792
396.674	0.1558
396.8802	0.1778
397.0863	0.183
397.2925	0.1618
397.4987	0.1538
397.7048	0.1781
397.9109	0.1645
398.117	0.1605
398.3231	0.1632
398.5292	0.1619
398.7353	0.1896
398.9413	0.1703
399.1474	0.1689
399.3534	0.184
399.5594	0.1564
399.7654	0.1744
399.9714	0.176
400.1774	0.1646
400.3833	0.152
400.5893	0.1623
400.7952	0.168
401.0011	0.1523
401.207	0.1741
401.4129	0.1587
401.6188	0.1699
401.8247	0.1631
402.0305	0.1534
402.2364	0.1632
402.4422	0.1693
402.648	0.1632
402.8538	0.1848
403.0596	0.157
403.2654	0.1676
403.4711	0.1518
403.6768	0.1714
403.8826	0.1692
404.0883	0.161
404.294	0.1766
404.4997	0.1636
404.7054	0.1577
404.911	0.1582
405.1167	0.1708
405.3223	0.1827
405.5279	0.1677
405.7335	0.1732
405.9391	0.1903
406.1447	0.1589
406.3502	0.1887
406.5558	0.159
406.7613	0.1544
406.9668	0.177
407.1724	0.1568
407.3778	0.1705
407.5833	0.1668
407.7888	0.168
407.9942	0.1854
408.1997	0.1659
408.4051	0.1464
408.6105	0.1636
408.8159	0.1728
409.0213	0.1568
409.2267	0.1798
409.432	0.1535
409.6374	0.1766
409.8427	0.1618
410.048	0.1665
410.2533	0.1549
410.4586	0.1575
410.6639	0.153
410.8691	0.1473
411.0744	0.1711
411.2796	0.1618
411.4848	0.1732
411.69	0.1601
411.8952	0.1895
412.1004	0.1619
412.3056	0.1567
412.5107	0.1513
412.7158	0.1806
412.921	0.1482
413.1261	0.1487
413.3312	0.1454
413.5362	0.1513
413.7413	0.1584
413.9464	0.1563
414.1514	0.1415
414.3564	0.1705
414.5614	0.1399
414.7664	0.1574
414.9714	0.157
415.1764	0.152
415.3813	0.1764
415.5863	0.143
415.7912	0.1498
415.9961	0.1591
416.201	0.1494
416.4059	0.1707
416.6108	0.1536
416.8156	0.1502
417.0205	0.1523
417.2253	0.1579
417.4301	0.1649
417.6349	0.1565
417.8397	0.1567
418.0445	0.1577
418.2492	0.1617
418.454	0.1478
418.6587	0.1556
418.8634	0.1551
419.0681	0.1448
419.2728	0.1413
419.4775	0.1398
419.6822	0.1424
419.8868	0.127
420.0915	0.1507
420.2961	0.1491
420.5007	0.1388
420.7053	0.1486
420.9099	0.1468
421.1144	0.1385
421.319	0.1287
421.5235	0.142
421.728	0.1566
421.9325	0.1445
422.137	0.1487
422.3415	0.1381
422.546	0.1404
422.7504	0.143
422.9549	0.1414
423.1593	0.144
423.3637	0.1479
423.5681	0.1281
423.7725	0.1393
423.9769	0.1295
424.1812	0.1235
424.3856	0.1313
424.5899	0.1408
424.7942	0.1313
424.9985	0.1433
425.2028	0.1355
425.4071	0.1489
425.6113	0.1205
425.8156	0.1443
426.0198	0.1445
426.224	0.1255
426.4282	0.1325
426.6324	0.1144
426.8366	0.1091
427.0407	0.1208
427.2449	0.1244
427.449	0.1267
427.6531	0.1149
427.8572	0.1268
428.0613	0.1098
428.2654	0.1298
428.4694	0.1157
428.6735	0.1171
428.8775	0.1271
429.0815	0.1087
429.2855	0.1039
429.4895	0.1234
429.6935	0.109
429.8975	0.1211
430.1014	0.1022
430.3053	0.0967
430.5093	0.1113
430.7132	0.0989
430.9171	0.1141
431.1209	0.1181
431.3248	0.0954
431.5286	0.1041
431.7325	0.1181
431.9363	0.094
432.1401	0.1002
432.3439	0.0969
432.5477	0.0765
432.7514	0.089
432.9552	0.0987
433.1589	0.0775
433.3627	0.0709
433.5664	0.0769
433.7701	0.0947
433.9737	0.0655
434.1774	0.0867
434.3811	0.0827
434.5847	0.099
434.7883	0.0892
434.9919	0.078
435.1955	0.0865
435.3991	0.0737
435.6027	0.0831
435.8062	0.0696
436.0098	0.0742
436.2133	0.0772
436.4168	0.0614
436.6203	0.0686
436.8238	0.0846
437.0272	0.0639
437.2307	0.0957
437.4341	0.0832
437.6375	0.0727
437.841	0.0659
438.0443	0.0878
438.2477	0.0621
438.4511	0.0653
438.6545	0.073
438.8578	0.087
439.0611	0.0533
439.2644	0.0609
439.4677	0.0558
439.671	0.0496
439.8743	0.0532
440.0775	0.0645
440.2808	0.0618
440.484	0.0543
440.6872	0.0377
440.8904	0.0427
441.0936	0.0566
441.2967	0.0572
441.4999	0.0551
441.703	0.0251
441.9062	0.046
442.1093	0.0536
442.3124	0.0594
442.5155	0.0339
442.7185	0.0476
442.9216	0.0169
443.1246	0.0588
443.3276	0.0409
443.5307	0.0486
443.7337	0.044
443.9366	0.0364
444.1396	0.0465
444.3426	0.0487
444.5455	0.0505
444.7484	0.0409
444.9513	0.033
445.1542	0.0447
445.3571	0.0461
445.56	0.0422
445.7628	0.0205
445.9657	0.0317
446.1685	0.0476
446.3713	0.0218
446.5741	0.0354
446.7769	0.0221
446.9797	0.0213
447.1824	0.0286
447.3852	0.0096
447.5879	0.027
447.7906	0.0332
447.9933	0.0377
448.196	0.0202
448.3986	0.0199
448.6013	0.0161
448.8039	0.0085
449.0066	0.0187
449.2092	0.0239
449.4118	0.0217
449.6143	0.0217
449.8169	0.0279
450.0195	0.0068
450.222	0.007
450.4245	0.0148
450.627	0.0205
450.8295	0.0166
451.032	0.0224
451.2345	0.0162
451.4369	0.0189
451.6394	0.0168
451.8418	-0.0137
452.0442	0.0131
452.2466	0.0213
452.449	0.0028
452.6513	0.0148
452.8537	0.0246
453.056	-0.0004
453.2583	0.0189
453.4607	0.0035
453.663	0.0047
453.8652	0.0265
454.0675	0.0029
454.2697	0.015
454.472	0.0079
454.6742	0.023
454.8764	0.0085
455.0786	0.0104
455.2808	0.0064
455.4829	0.0011
455.6851	0.0284
455.8872	0.0132
456.0893	0.0043
456.2915	0.005
456.4935	0.0159
456.6956	0.0059
456.8977	0.015
457.0997	0.0161
457.3018	-0.0092
457.5038	0.011
457.7058	0.0024
457.9078	-0.0005
458.1098	0.0273
458.3117	0.0009
458.5137	0.0215
458.7156	0.0051
458.9175	-0.0103
459.1194	0.0027
459.3213	-0.0045
459.5232	-0.0083
459.725	-0.0104
459.9269	-0.0031
460.1287	-0.0183
460.3305	0.0021
460.5323	-0.0003
460.7341	0.0041
460.9359	0.006
461.1376	0.0102
461.3394	-0.0015
461.5411	-0.0032
461.7428	0.0122
461.9445	0.0017
462.1462	0.0156
462.3479	0.0019
462.5495	0.0003
462.7512	0.0045
462.9528	-0.0136
463.1544	-0.0075
463.356	-0.0002
463.5576	-0.0032
463.7592	-0.0098
463.9607	0.0009
464.1623	0.0226
464.3638	0.0203
464.5653	-0.0131
464.7668	-0.0018
464.9683	0.0064
465.1697	0.011
465.3712	-0.001
465.5726	-0.0105
465.7741	-0.005
465.9755	-0.0128
466.1769	-0.0069
466.3782	-0.0016
466.5796	-0.0105
466.7809	0.0057
466.9823	-0.0065
467.1836	-0.0064
467.3849	-0.0122
467.5862	-0.0008
467.7875	-0.0052
467.9887	0.0101
468.19	-0.0045
468.3912	-0.0177
468.5924	-0.0169
468.7936	-0.007
468.9948	0.0054
469.196	-0.0016
469.3972	-0.0124
469.5983	-0.0022
469.7994	-0.0223
470.0006	-0.0112
470.2017	-0.0188
470.4027	-0.0079
470.6038	0.002
470.8049	-0.0203
471.0059	-0.0086
471.2069	-0.035
471.408	0.0115
471.6089	-0.002
471.8099	-0.0022
472.0109	-0.0041
472.2119	-0.0168
472.4128	-0.0245
472.6137	-0.0164
472.8146	-0.0073
473.0155	-0.0149
473.2164	-0.0074
473.4173	-0.0046
473.6181	-0.0009
473.819	-0.0003
474.0198	0.0057
474.2206	-0.009
474.4214	-0.0139
474.6222	-0.013
474.8229	-0.0132
475.0237	-0.0234
475.2244	-0.0144
475.4251	-0.0062
475.6258	-0.001
475.8265	-0.0078
476.0272	0.0001
476.2278	0.0044
476.4285	-0.0189
476.6291	-0.0028
476.8297	-0.0098
477.0303	-0.0086
477.2309	-0.01
477.4315	-0.0156
477.632	-0.0149
477.8326	-0.0066
478.0331	-0.003
478.2336	0.0115
478.4341	-0.0107
478.6346	-0.0112
478.8351	-0.0133
479.0355	-0.0144
479.236	-0.0095
479.4364	0.0009
479.6368	-0.0049
479.8372	-0.0181
480.0376	-0.0083
480.2379	-0.0353
480.4383	-0.014
480.6386	-0.0047
480.8389	0.0027
481.0392	-0.0212
481.2395	-0.0177
481.4398	0.0084
481.6401	-0.0118
481.8403	-0.0086
482.0405	-0.0104
482.2408	-0.0067
482.441	0.0046
482.6411	-0.0133
482.8413	-0.0128
483.0415	-0.0141
483.2416	-0.0195
483.4417	-0.02
483.6419	-0.0113
483.8419	-0.0046
484.042	0.0043
484.2421	-0.0022
484.4422	-0.0036
484.6422	-0.0054
484.8422	-0.0041
485.0422	-0.0136
485.2422	-0.0058
485.4422	-0.0148
485.6422	-0.0158
485.8421	-0.0094
486.042	0.0008
486.242	-0.0042
486.4419	-0.0099
486.6417	-0.0133
486.8416	-0.0032
487.0415	-0.0102
487.2413	-0.0076
487.4411	-0.0084
487.641	-0.0079
487.8408	-0.0007
488.0405	-0.0126
488.2403	-0.0178
488.4401	-0.0072
488.6398	-0.0077
488.8395	-0.0133
489.0392	-0.0053
489.2389	-0.006
489.4386	-0.0172
489.6383	-0.0104
489.8379	-0.0021
490.0376	-0.0101
490.2372	-0.0146
490.4368	-0.0152
490.6364	-0.0128
490.836	-0.0083
491.0355	-0.0096
491.2351	-0.0205
491.4346	-0.0081
491.6341	-0.0184
491.8336	-0.0007
492.0331	-0.0248
492.2326	-0.025
492.432	-0.0116
492.6315	-0.0113
492.8309	-0.0214
493.0303	-0.0238
493.2297	-0.0182
493.4291	-0.0121
493.6284	-0.0102
493.8278	-0.0112
494.0271	-0.0087
494.2264	-0.0006
494.4257	-0.0137
494.625	-0.0078
494.8243	-0.0099
495.0236	-0.0176
495.2228	-0.0114
495.422	-0.0066
495.6213	-0.0149
495.8205	-0.0156
496.0196	-0.0198
496.2188	0.0048
496.418	-0.0206
496.6171	-0.0148
496.8162	-0.0146
497.0153	-0.008
497.2144	-0.0077
497.4135	-0.0093
497.6126	-0.0172
497.8116	-0.0149
498.0107	-0.0121
498.2097	-0.0199
498.4087	-0.0102
498.6077	-0.0039
498.8067	-0.0096
499.0056	-0.0045
499.2046	-0.0148
499.4035	-0.0231
499.6024	-0.0127
499.8013	-0.0064
500.0002	-0.0172
500.199	-0.0064
500.3979	-0.0125
500.5967	-0.0298
500.7956	-0.0041
500.9944	-0.0114
501.1932	-0.0158
501.3919	-0.0021
501.5907	-0.0116
501.7895	-0.0129
501.9882	-0.0201
502.1869	-0.0168
502.3856	-0.0155
502.5843	-0.0217
502.783	-0.0205
502.9816	-0.0119
503.1803	-0.0275
503.3789	-0.0088
503.5775	-0.0044
503.7761	-0.0112
503.9747	-0.0121
504.1732	-0.0106
504.3718	-0.0092
504.5703	-0.0123
504.7689	-0.0138
504.9674	-0.01
505.1658	-0.0115
505.3643	-0.0199
505.5628	-0.0076
505.7612	-0.0207
505.9597	0.0106
506.1581	-0.0123
506.3565	-0.0069
506.5549	-0.0109
506.7532	-0.015
506.9516	-0.0124
507.1499	-0.0101
507.3482	-0.0254
507.5465	-0.0185
507.7448	-0.0123
507.9431	-0.0167
508.1414	0.004
508.3396	-0.0096
508.5379	-0.015
508.7361	-0.021
508.9343	-0.0052
509.1325	0.0035
509.3306	-0.008
509.5288	-0.0095
509.7269	-0.0127
509.9251	-0.0149
510.1232	-0.0208
510.3213	-0.0066
510.5193	0.0084
510.7174	-0.0187
510.9154	-0.0119
511.1135	-0.0131
511.3115	-0.0081
511.5095	-0.0124
511.7075	-0.0041
511.9055	-0.0121
512.1034	-0.0147
512.3014	-0.0079
512.4993	-0.0066
512.6972	-0.0147
512.8951	-0.0183
513.093	-0.0068
513.2908	-0.0122
513.4887	-0.0105
513.6865	-0.0087
513.8844	-0.0147
514.0822	-0.0128
514.2799	-0.0206
514.4777	-0.0177
514.6755	-0.0126
514.8732	-0.0109
515.0709	-0.0125
515.2687	-0.0127
515.4664	-0.0033
515.664	-0.0018
515.8617	-0.0094
516.0594	-0.0133
516.257	-0.0165
516.4546	-0.029
516.6522	-0.0094
516.8498	-0.0103
517.0474	-0.0008
517.2449	-0.0038
517.4425	-0.0254
517.64	-0.0055
517.8375	-0.0042
518.035	-0.0125
518.2325	-0.0117
518.43	-0.0159
518.6274	-0.0138
518.8249	-0.023
519.0223	-0.0064
519.2197	-0.0052
519.4171	-0.0105
519.6145	-0.0122
519.8118	-0.0044
520.0092	-0.0127
520.2065	-0.0091
520.4038	-0.0176
520.6011	-0.0049
520.7984	-0.0078
520.9956	-0.0163
521.1929	-0.0178
521.3901	-0.0062
521.5874	-0.0046
521.7846	-0.0141
521.9818	-0.0214
522.1789	-0.0119
522.3761	-0.0193
522.5732	-0.011
522.7704	-0.0114
522.9675	-0.0036
523.1646	-0.0266
523.3617	-0.0173
523.5587	-0.0102
523.7558	-0.0183
523.9528	-0.0083
524.1498	-0.0106
524.3468	-0.0165
524.5438	-0.0156
524.7408	-0.0074
524.9378	-0.004
525.1347	-0.0131
525.3316	0.0013
525.5285	-0.0175
525.7254	-0.0111
525.9223	-0.0022
526.1192	-0.0115
526.316	-0.0149
526.5129	-0.0049
526.7097	-0.0038
526.9065	-0.019
527.1033	-0.0089
527.3	-0.0144
527.4968	-0.0156
527.6935	-0.0062
527.8903	-0.0166
528.087	-0.014
528.2837	-0
528.4804	-0.0089
528.677	-0.0128
528.8737	-0.0022
529.0703	-0.0036
529.2669	-0.0071
529.4635	-0.0121
529.6601	-0.0026
529.8567	-0.0165
530.0532	-0.0193
530.2498	-0.01
530.4463	-0.0057
530.6428	-0.0018
530.8393	0.0029
531.0358	-0.0067
531.2322	-0.0118
531.4287	-0.0028
531.6251	-0.0142
531.8215	-0.0009
532.0179	-0.0113
532.2143	0.0021
532.4107	-0.0027
532.607	-0.0142
532.8034	-0.0146
532.9997	-0.0077
533.196	-0.0107
533.3923	-0.0108
533.5886	-0.0067
533.7848	-0.0024
533.9811	-0.0096
534.1773	-0.0137
534.3735	0.0002
534.5697	-0.0013
534.7659	-0.0151
534.9621	-0.0015
535.1582	-0.0108
535.3544	-0.0049
535.5505	-0.0113
535.7466	-0.0078
535.9427	-0.0051
536.1387	-0.0084
536.3348	-0.0095
536.5308	0.0059
536.7269	-0.0124
536.9229	0.0011
537.1189	-0.0079
537.3148	-0.0048
537.5108	-0.0154
537.7068	-0.0095
537.9027	-0.007
538.0986	-0.0062
538.2945	-0.0175
538.4904	-0.0047
538.6863	-0.0111
538.8821	-0.0083
539.078	-0.012
539.2738	-0.0128
539.4696	-0.0085
539.6654	0.0001
539.8611	0.0023
540.0569	-0.0105
540.2526	-0.007
540.4484	-0.0042
540.6441	0.0057
540.8398	-0.0082
541.0355	-0.0089
541.2311	-0.0057
541.4268	-0.0169
541.6224	-0.0058
541.818	-0.0076
542.0136	-0.0172
542.2092	-0.0123
542.4048	0.0047
542.6003	-0.0057
542.7959	-0.0097
542.9914	-0.0174
543.1869	-0.0171
543.3824	-0.0114
543.5779	-0.0113
543.7734	-0.0056
543.9688	-0.0102
544.1642	0.004
544.3596	0.0006
544.555	-0.0095
544.7504	-0.0064
544.9458	-0.0149
545.1411	-0.0055
545.3365	-0.0046
545.5318	-0.0118
545.7271	-0.0101
545.9224	-0.0044
546.1177	0.0008
546.3129	0.0012
546.5081	-0.0084
546.7034	-0.005
546.8986	-0.0061
547.0938	-0.0104
547.289	-0.0017
547.4841	-0.0049
547.6793	0.0031
547.8744	-0.0175
548.0695	-0.0138
548.2646	-0.0156
548.4597	0.0006
548.6548	-0.002
548.8498	-0.0106
549.0448	0.003
549.2399	-0.0153
549.4349	0.0047
549.6298	-0.0086
549.8248	-0.0037
550.0198	-0.0025
550.2147	-0.0046
550.4096	-0.007
550.6045	-0.0111
550.7994	-0.0025
550.9943	-0.0012
551.1892	-0.0032
551.384	0.0064
551.5788	-0.007
551.7737	-0.0059
551.9685	0.0012
552.1632	0.0063
552.358	-0.0078
552.5528	0.0017
552.7475	-0.0012
552.9422	-0.0053
553.1369	-0.0017
553.3316	0.0066
553.5263	-0.0178
553.7209	0.0068
553.9156	-0.0045
554.1102	-0.0077
554.3048	-0.0019
554.4994	0.0028
554.694	-0.0072
554.8885	-0.0046
555.0831	-0.0081
555.2776	-0.0116
555.4721	-0.0045
555.6666	-0.0102
555.8611	0.0027
556.0555	-0.0024
556.25	-0.0012
556.4444	-0.0113
556.6388	-0.0106
556.8332	-0.0068
557.0276	-0.0082
557.222	0.0015
557.4163	-0.0032
557.6107	-0.0128
557.805	0.0068
557.9993	-0.0057
558.1936	-0.0038
558.3879	-0.0086
558.5821	-0.0002
558.7764	-0.0048
558.9706	0.0007
559.1648	-0.0064
559.359	-0.013
559.5532	-0.0097
559.7473	-0.0021
559.9415	-0.0091
560.1356	-0.0116
560.3297	-0.0119
560.5238	-0.0117
560.7179	-0.0048
560.9119	-0.0029
561.106	-0.0126
561.3	-0.0084
561.494	-0.0049
561.688	-0.0081
561.882	-0.0098
562.076	-0.0092
562.2699	-0.0056
562.4639	-0.0025
562.6578	-0.0063
562.8517	-0.0096
563.0456	0.0037
563.2395	-0.0029
563.4333	-0.0045
563.6272	0.0014
563.821	-0.0067
564.0148	-0.0052
564.2086	-0.005
564.4024	-0.0111
564.5961	-0.0063
564.7899	-0.0001
564.9836	-0.0084
565.1773	-0.0063
565.371	-0.0033
565.5647	-0.0001
565.7584	0.0011
565.952	-0.0021
566.1456	-0.0028
566.3393	-0.0053
566.5329	-0.0065
566.7264	-0.0118
566.92	-0.0167
567.1136	-0.0009
567.3071	-0.0085
567.5006	0.001
567.6941	0.0023
567.8876	-0.0081
568.0811	-0.0097
568.2745	-0.0012
568.468	-0
568.6614	-0.0016
568.8548	0.0033
569.0482	-0.0072
569.2416	0.0012
569.4349	-0.0064
569.6283	0.0048
569.8216	-0.0112
570.0149	-0.0063
570.2082	0.0102
570.4015	0.0015
570.5947	0.0029
570.788	-0.0003
570.9812	-0.002
571.1744	0.0027
571.3676	-0.0137
571.5608	-0.001
571.754	-0.0006
571.9471	0.0027
572.1402	-0.0042
572.3333	-0.004
572.5264	-0.0025
572.7195	-0.0038
572.9126	-0.0056
573.1057	-0.0058
573.2987	0.0002
573.4917	-0.0015
573.6847	-0.0119
573.8777	0.0029
574.0707	0.0056
574.2636	-0.0113
574.4566	-0.0057
574.6495	0.002
574.8424	-0.0012
575.0353	-0.0036
575.2281	0.0004
575.421	0.0012
575.6138	0.0008
575.8067	-0.0032
575.9995	-0.0061
576.1923	0.0029
576.385	0.0009
576.5778	-0.0034
576.7706	-0.0044
576.9633	0.0005
577.156	0.002
577.3487	-0.0015
577.5414	-0.0026
577.734	0.0005
577.9267	0.005
578.1193	-0.0094
578.3119	-0.0119
578.5045	-0.0064
578.6971	-0.0047
578.8897	0.0058
579.0822	-0.0023
579.2747	-0
579.4673	-0.0003
579.6598	-0.0036
579.8522	-0.0128
580.0447	-0.0119
580.2372	-0.0008
580.4296	-0.0008
580.622	-0.0028
580.8144	-0.0034
581.0068	-0.0034
581.1992	-0.0097
581.3915	-0.0059
581.5839	-0.0085
581.7762	-0.006
581.9685	-0.0079
582.1608	0.0056
582.353	-0.0088
582.5453	-0.0023
582.7375	-0.0024
582.9298	0.0024
583.122	-0.0056
583.3142	-0.0079
583.5063	-0.0078
583.6985	-0.005
583.8906	-0.0085
584.0827	-0.0064
584.2749	-0.0006
584.4669	-0.002
584.659	-0.0067
584.8511	-0.0066
585.0431	-0.0074
585.2352	-0.0022
585.4272	-0.0045
585.6192	0.002
585.8111	-0.0052
586.0031	-0.0065
586.195	-0.004
586.387	0.0035
586.5789	0.0005
586.7708	0.0004
586.9627	0.0023
587.1545	-0.0077
587.3464	0.001
587.5382	0.0022
587.73	0.0034
587.9218	0.0008
588.1136	-0.0063
588.3053	0.0024
588.4971	-0.0026
588.6888	-0.007
588.8805	-0.0037
589.0722	0.0041
589.2639	-0.0032
589.4556	-0.0009
589.6472	0.0004
589.8389	-0.0085
590.0305	-0.0158
590.2221	0.0041
590.4137	-0.0134
590.6052	0.0052
590.7968	-0.0007
590.9883	-0.0012
591.1798	-0.0025
591.3713	-0.0043
591.5628	-0.0057
591.7543	0.004
591.9458	-0.0032
592.1372	0.0049
592.3286	0.0052
592.52	0.0045
592.7114	-0.0022
592.9028	-0.0071
593.0941	0.0004
593.2855	-0.0026
593.4768	-0.0106
593.6681	-0.0101
593.8594	-0.0078
594.0506	-0.0073
594.2419	0.0095
594.4331	0.0024
594.6244	0.0001
594.8156	-0.0072
595.0067	-0.0002
595.1979	-0.0024
595.3891	-0.002
595.5802	-0.0052
595.7713	-0.0038
595.9624	-0.0049
596.1535	0
596.3446	0.0012
596.5357	-0.0093
596.7267	0.0014
596.9177	0.0025
597.1087	-0.0121
597.2997	-0.0087
597.4907	0.003
597.6817	0.0001
597.8726	0.0023
598.0635	-0.0022
598.2544	0.0024
598.4453	-0.0026
598.6362	-0.0058
598.827	0.0016
599.0179	-0
599.2087	0.001
599.3995	-0.0018
599.5903	-0.0026
599.7811	0.0022
599.9718	-0.0061
600.1626	-0.0039
600.3533	-0.0054
600.544	-0.0012
600.7347	-0.0077
600.9254	-0.0011
601.116	-0.0117
601.3067	-0.0052
601.4973	-0.0067
601.6879	0.0043
601.8785	-0.0043
602.0691	-0.0036
602.2596	-0.0019
602.4502	-0.004
602.6407	-0.001
602.8312	-0.0043
603.0217	-0.0093
603.2122	-0.001
603.4027	-0.0026
603.5931	0.0016
603.7835	-0.0016
603.9739	-0.0056
604.1643	-0.0009
604.3547	-0.0038
604.5451	-0.0001
604.7354	-0.005
604.9257	-0.0024
605.116	-0.0031
605.3063	0.0061
605.4966	-0.0007
605.6869	-0.0022
605.8771	0.001
606.0673	0.0017
606.2575	-0.0008
606.4477	0.0049
606.6379	-0.0001
606.8281	-0.0042
607.0182	-0.0061
607.2083	0.0082
607.3985	-0.0053
607.5885	-0.004
607.7786	0.0027
607.9687	-0.0111
608.1587	-0.0015
608.3488	0.0023
608.5388	-0.001
608.7288	0.0016
608.9187	-0.0071
609.1087	-0.0061
609.2986	-0.0035
609.4886	-0.0018
609.6785	0.0019
609.8684	0.001
610.0582	-0.0021
610.2481	-0.0023
610.4379	0.0035
610.6278	-0.0017
610.8176	-0.0062
611.0074	-0.0089
611.1971	-0.0076
611.3869	-0.0048
611.5766	-0.0053
611.7664	0.0005
611.9561	0.0045
612.1458	-0.0015
612.3354	-0.0124
612.5251	-0.0002
612.7147	0.0007
612.9044	0.0038
613.094	-0.0066
613.2836	-0.0016
613.4731	-0.0013
613.6627	-0.004
613.8522	0.0019
614.0417	0.0022
614.2313	-0.0039
614.4207	-0.0038
614.6102	0.0007
614.7997	-0.0029
614.9891	-0.0073
615.1785	-0.0007
615.3679	-0.0009
615.5573	0.0048
615.7467	-0.0015
615.9361	-0.0085
616.1254	0.001
616.3147	-0.0028
616.504	0.0083
616.6933	0.0096
616.8826	0.0073
617.0718	0.0078
617.2611	-0.0045
617.4503	-0.0047
617.6395	-0.0053
617.8287	-0.0026
618.0179	-0.0002
618.207	0.0017
618.3961	-0.0022
618.5853	0.0074
618.7744	0.0033
618.9634	0.0031
619.1525	-0.0017
619.3416	0.0032
619.5306	0.0014
619.7196	-0.0022
619.9086	-0.0049
620.0976	-0.0028
620.2866	-0.0045
620.4755	0.0014
620.6645	-0.0051
620.8534	-0.0026
621.0423	0.0059
621.2312	0.012
621.42	-0.0021
621.6089	0.0022
621.7977	0.0025
621.9865	-0.0077
622.1753	0.0037
622.3641	-0.0042
622.5529	-0
622.7416	-0.0013
622.9303	-0.0033
623.1191	-0.0023
623.3078	-0.0057
623.4964	-0.0022
623.6851	-0.0037
623.8737	-0.0021
624.0624	0.0073
624.251	-0.0118
624.4396	-0.0025
624.6282	-0.0058
624.8167	-0.0083
625.0053	0.0021
625.1938	-0.0021
625.3823	-0.0043
625.5708	-0.005
625.7593	-0.0123
625.9477	-0.009
626.1362	-0.0094
626.3246	-0.0023
626.513	0.0013
626.7014	0.0071
626.8898	0.0004
627.0781	-0.0072
627.2665	-0.0057
627.4548	0.0016
627.6431	-0.0023
627.8314	0.0032
628.0197	0.0052
628.2079	-0.0083
628.3962	-0.0014
628.5844	-0.0026
628.7726	0.0029
628.9608	0.0076
629.1489	-0.0033
629.3371	0.0078
629.5252	0.0013
629.7134	0.0018
629.9015	-0.0016
630.0895	-0.0017
630.2776	0.003
630.4657	-0.0042
630.6537	-0.0021
630.8417	-0.0041
631.0297	-0.0022
631.2177	-0.0086
631.4057	-0.0054
631.5936	0.0009
631.7815	0.0014
631.9695	0.0012
632.1574	0.0097
632.3452	0.0111
632.5331	-0.0023
632.7209	-0.0036
632.9088	0.0116
633.0966	0.0053
633.2844	-0.0116
633.4722	-0.0003
633.6599	0.0074
633.8477	0.0001
634.0354	0.0023
634.2231	-0.0012
634.4108	-0.0022
634.5985	-0.0011
634.7861	0.001
634.9738	-0.0037
635.1614	-0
635.349	-0.0013
635.5366	0.0019
635.7242	-0.0029
635.9117	-0.0041
636.0993	-0.0013
636.2868	-0.0008
636.4743	-0.0007
636.6618	0.0069
636.8492	0.0067
637.0367	0.0052
637.2241	-0.001
637.4115	-0.0062
637.5989	-0.0075
637.7863	-0.0012
637.9737	0.0038
638.161	0.0018
638.3484	-0.0004
638.5357	0.0038
638.723	0
638.9103	0.0025
639.0975	0.0062
639.2848	0.0014
639.472	0.0023
639.6592	0.0012
639.8464	0.0025
640.0336	0.0008
640.2208	0.0009
640.4079	-0.0057
640.595	0.0086
640.7821	0.0001
640.9692	-0.0024
641.1563	0.0095
641.3434	0.0024
641.5304	0.0001
641.7174	0.0025
641.9044	0.0025
642.0914	0.0066
642.2784	0.0102
642.4653	0.0088
642.6523	0.0087
642.8392	0.0009
643.0261	0.0085
643.213	0.0098
643.3999	-0.0017
643.5867	-0.0015
643.7735	0.004
643.9604	-0.0052
644.1472	0.0035
644.3339	0.0044
644.5207	0.0023
644.7075	-0.0027
644.8942	0.0064
645.0809	-0.0002
645.2676	0.0041
645.4543	-0.0005
645.6409	0.0032
645.8276	0.0001
646.0142	0.0072
646.2008	-0.0049
646.3874	-0.0076
646.574	0.0027
646.7605	-0.0028
646.9471	-0.0098
647.1336	-0.0002
647.3201	0.0033
647.5066	-0.0022
647.6931	-0.0029
647.8795	0.0019
648.0659	0.0063
648.2524	0.0078
648.4388	-0.0007
648.6252	0.0015
648.8115	0.0029
648.9979	0.0075
649.1842	0.0008
649.3705	-0.0035
649.5568	-0.0014
649.7431	0.0074
649.9294	-0.0043
650.1156	-0.0003
650.3018	-0.0078
650.488	0.0034
650.6742	0.0018
650.8604	0.006
651.0466	-0.0072
651.2327	0.002
651.4188	-0.0017
651.6049	-0.0067
651.791	-0.0019
651.9771	0.0023
652.1632	0.0034
652.3492	0.0007
652.5352	0.0017
652.7212	-0.004
652.9072	0.0051
653.0932	-0.0071
653.2791	-0.0077
653.465	-0.0044
653.651	-0.0027
653.8369	0.0034
654.0227	0.0005
654.2086	0.0047
654.3944	0.0034
654.5803	0.0036
654.7661	-0.0015
654.9519	0.0027
655.1377	-0.0064
655.3234	-0.0007
655.5092	-0.0079
655.6949	-0.0064
655.8806	-0.0035
656.0663	0.0001
656.2519	0.0016
656.4376	-0.001
656.6232	0.0023
656.8088	0.0032
656.9945	0.0012
657.18	0.0004
657.3656	-0.0047
657.5511	-0.0058
657.7367	-0.004
657.9222	0.0034
658.1077	-0.0003
658.2932	0.0032
658.4786	-0.0103
658.6641	-0.0059
658.8495	-0.0029
659.0349	-0.0027
659.2203	0.0023
659.4057	-0.0015
659.591	0.0059
659.7764	-0.0015
659.9617	0.0006
660.147	-0.0008
660.3323	0.0029
660.5176	0.0028
660.7028	0.003
660.888	0.0002
661.0733	0.0052
661.2585	-0.0049
661.4436	-0.0053
661.6288	-0.0057
661.8139	0.0001
661.9991	0.0072
662.1842	-0.0075
662.3693	-0.0012
662.5544	-0.01
662.7394	0.0011
662.9245	-0.0015
663.1095	0.0021
663.2945	-0.0049
663.4795	0.0034
663.6644	0.0055
663.8494	0.0019
664.0343	0.0035
664.2193	-0.0065
664.4042	-0.0057
664.589	-0.0101
664.7739	-0.0084
664.9587	-0.0086
665.1436	-0.0035
665.3284	-0.0004
665.5132	-0.0058
665.698	-0.0056
665.8827	0.0059
666.0675	-0.0082
666.2522	-0.0057
666.4369	-0.002
666.6216	-0.0005
666.8063	-0.001
666.9909	-0.0025
667.1756	-0.0007
667.3602	0.0007
667.5448	-0.0017
667.7294	0.0037
667.9139	0.0059
668.0985	0.0074
668.283	0.0026
668.4675	-0.0047
668.652	-0.0017
668.8365	0.0056
669.0209	-0.0033
669.2054	0.0069
669.3898	-0.0043
669.5742	-0.0005
669.7586	0.0022
669.943	0.0027
670.1273	0.0046
670.3117	-0.0049
670.496	0.0094
670.6803	0.0065
670.8646	0.0002
671.0488	-0.0015
671.2331	0.0028
671.4173	0.0032
671.6015	-0.0076
671.7857	0.0016
671.9699	-0.0002
672.1541	0.0072
672.3382	0.0016
672.5223	0.0089
672.7064	0.0006
672.8905	0.0015
673.0746	-0.0021
673.2587	0.0002
673.4427	0.0004
673.6267	0.0016
673.8107	0.0054
673.9947	0.0056
674.1787	-0.0015
674.3626	-0.0066
674.5465	0.0026
674.7304	0.0006
674.9143	0.0025
675.0982	0.0083
675.2821	-0.0041
675.4659	0.0074
675.6497	0.0025
675.8335	-0.0036
676.0173	0.0001
676.2011	-0.0048
676.3849	-0.0071
676.5686	-0.0106
676.7523	0.0011
676.936	-0.0032
677.1197	-0.0041
677.3034	-0.0046
677.487	0.007
677.6706	0.0049
677.8542	0.0014
678.0378	0.0001
678.2214	-0.0028
678.405	-0.0017
678.5885	-0.0041
678.772	-0.0027
678.9555	-0.0029
679.139	0.002
679.3225	0.0016
679.5059	-0.0011
679.6894	-0.0039
679.8728	-0.0063
680.0562	-0.0096
680.2395	-0.0032
680.4229	-0.0025
680.6062	0.0089
680.7896	-0.0078
680.9729	-0.0058
681.1562	0.0064
681.3394	0.0027
681.5227	-0.0033
681.7059	-0.0009
681.8891	-0.0006
682.0723	0.0113
682.2555	0.0009
682.4387	-0.0028
682.6218	-0.0051
682.805	0.0032
682.9881	0.0017
683.1712	0.0009
683.3542	-0.0021
683.5373	0.0016
683.7203	-0.0039
683.9034	-0.0047
684.0864	-0.0076
684.2694	-0.0088
684.4523	-0.0035
684.6353	-0.0041
684.8182	0.006
685.0011	-0.0073
685.184	-0.0007
685.3669	0.0017
685.5498	0.0017
685.7326	0.0016
685.9154	-0.0097
686.0982	-0.0006
686.281	0.0028
686.4638	-0.001
686.6465	-0.0016
686.8293	-0.0066
687.012	0.0004
687.1947	-0.0114
687.3774	-0.0027
687.56	-0.0011
687.7427	0.0102
687.9253	-0.0074
688.1079	-0.0061
688.2905	0.0061
688.4731	0.0041
688.6556	-0.0072
688.8382	-0.0062
689.0207	-0.0022
689.2032	-0.0135
689.3857	-0.0117
689.5681	-0.0077
689.7506	-0.0033
689.933	-0.0116
690.1154	-0.0008
690.2978	-0.0015
690.4802	-0.0039
690.6626	-0.0107
690.8449	-0.0068
691.0272	-0.0057
691.2095	-0.0089
691.3918	-0.0049
691.5741	0.001
691.7563	-0.0047
691.9386	-0.0022
692.1208	-0.0031
692.303	-0.0019
692.4852	-0.0043
692.6673	-0.0026
692.8495	-0.0107
693.0316	-0.0055
693.2137	-0.0087
693.3958	0.0012
693.5778	-0.002
693.7599	0.003
693.9419	-0.0011
694.1239	-0.0033
694.3059	-0.002
694.4879	0.0063
694.6699	0.0086
694.8518	-0.0002
695.0337	-0.0053
695.2157	0.0092
695.3975	0.0009
695.5794	0.0055
695.7613	-0.0001
695.9431	-0.0041
696.1249	0.0009
696.3067	-0.0048
696.4885	0.0085
696.6703	-0.013
696.852	-0.004
697.0337	-0.0021
697.2154	0.0034
697.3971	-0.0041
697.5788	-0.005
697.7605	-0.0011
697.9421	0
698.1237	0.0028
698.3053	0.0015
698.4869	-0.0001
698.6685	-0.0147
698.85	-0.0077
699.0315	0.0064
699.213	-0.0009
699.3945	0.0003
699.576	0.0026
699.7575	0.0003
699.9389	0.0055
700.1203	-0.0065
700.3017	-0.0062
700.4831	-0.0106
700.6645	-0.0024
700.8458	0.0015
701.0271	-0.0033
701.2084	0.0046
701.3897	-0.0038
701.571	-0.0009
701.7523	-0.0046
701.9335	0.0039
702.1147	-0.0091
702.2959	0.0074
702.4771	0.0059
702.6583	0.0013
702.8394	-0.0069
703.0205	0.0011
703.2016	-0.0045
703.3827	-0.004
703.5638	0.0083
703.7449	-0.0017
703.9259	0.0006
704.1069	-0.0028
704.2879	0.0057
704.4689	-0.0018
704.6499	-0.0038
704.8308	0.001
705.0117	-0.0036
705.1927	0.0034
705.3735	0.0016
705.5544	-0.0057
705.7353	-0.0045
705.9161	0.0006
706.0969	-0.0045
706.2777	0.0043
706.4585	-0.0025
706.6393	0.0015
706.82	-0.0023
707.0007	0.0007
707.1815	0.0046
707.3621	0.0112
707.5428	-0.0012
707.7235	0.0018
707.9041	-0.0083
708.0847	-0.0128
708.2653	-0.0111
708.4459	-0.0211
708.6265	0.0007
708.807	-0.0091
708.9875	-0.0063
709.168	0.0028
709.3485	-0.0086
709.529	-0.0103
709.7095	-0.0104
709.8899	-0.0049
710.0703	-0.0164
710.2507	0.0005
710.4311	-0.004
710.6115	-0.0115
710.7918	-0.0092
710.9721	-0.0056
711.1524	-0.0071
711.3327	0.0008
711.513	0.0032
711.6932	0.0075
711.8735	0.0065
712.0537	0.0047
712.2339	-0.0042
712.4141	-0.0134
712.5942	-0.0073
712.7744	-0.0042
712.9545	-0.0102
713.1346	-0.0091
713.3147	-0.0077
713.4947	-0.0047
713.6748	-0.0043
713.8548	-0.0044
714.0348	-0.0077
714.2148	-0.005
714.3948	0.0093
714.5748	-0.017
714.7547	-0.0036
714.9346	0.0074
715.1145	0.0003
715.2944	-0.0103
715.4743	-0.0122
715.6541	-0.0005
715.834	0.0009
716.0138	-0.0063
716.1936	-0.0179
716.3733	-0.0108
716.5531	0.0014
716.7328	-0.0096
716.9126	-0.0078
717.0923	0.0031
717.2719	0.0029
717.4516	0.0046
717.6312	-0.0001
717.8109	-0.0107
717.9905	-0.0018
718.1701	-0.009
718.3496	-0.012
718.5292	-0.0062
718.7087	-0.0049
718.8882	-0.0065
719.0677	-0.003
719.2472	-0.006
719.4267	-0.0007
719.6061	0.0001
719.7856	0.0004
719.965	0.0048
720.1443	-0.0021
720.3237	0.0096
720.5031	-0.0015
720.6824	0.0033
720.8617	-0.0055
721.041	-0.0072
721.2203	0.0037
721.3995	-0.0046
721.5788	-0.0021
721.758	0.0009
721.9372	-0.0019
722.1164	-0.0018
722.2956	0.0027
722.4747	-0.0051
722.6538	-0.0034
722.8329	0.0135
723.012	0.0028
723.1911	0.003
723.3702	0.0083
723.5492	0.0087
723.7282	-0.0035
723.9072	-0.0074
724.0862	-0.0075
724.2652	-0.0035
724.4441	0.0007
724.623	-0.0062
724.8019	-0.0014
724.9808	-0.003
725.1597	-0.0155
725.3385	-0.0034
725.5174	-0.0031
725.6962	0.0028
725.875	-0.002
726.0538	0.0005
726.2325	-0.0001
726.4112	-0
726.59	-0.0079
726.7687	-0.0114
726.9474	0.0005
727.126	0.0025
727.3047	-0.0001
727.4833	-0.0023
727.6619	0.0025
727.8405	-0.0055
728.0191	-0.0079
728.1976	-0.0025
728.3762	-0.0028
728.5547	-0.0068
728.7332	-0.0039
728.9116	0.0032
729.0901	0.0023
729.2686	-0.0114
729.447	-0.0026
729.6254	0.0055
729.8038	-0.0025
729.9821	-0.001
730.1605	0.0044
730.3388	-0.0037
730.5171	-0.0017
730.6954	-0.0061
730.8737	-0.0051
731.0519	-0.0035
731.2302	-0.0032
731.4084	0.0059
731.5866	-0.003
731.7648	0.0014
731.9429	-0.0052
732.1211	-0.0119
732.2992	-0.0122
732.4773	-0.0108
732.6554	-0.0044
732.8335	-0.0045
733.0115	-0.0071
733.1896	0.0068
733.3676	-0.0103
733.5456	0.0037
733.7235	-0.0017
733.9015	-0.0067
734.0794	-0.0016
734.2574	-0.0056
734.4353	-0.0073
734.6131	-0.0053
734.791	-0.0008
734.9689	0.0015
735.1467	-0.0091
735.3245	-0.0058
735.5023	-0.008
735.68	-0.0017
735.8578	0.0065
736.0355	-0.0157
736.2132	-0.0067
736.3909	-0.0094
736.5686	-0.0115
736.7463	0.0027
736.9239	-0.0132
737.1015	-0.0037
737.2791	0.0045
737.4567	0.0021
737.6343	-0.0086
737.8118	0.0042
737.9894	0.0066
738.1669	-0.0077
738.3444	0.0034
738.5218	0.0086
738.6993	0.0054
738.8767	-0.0013
739.0541	0.009
739.2315	-0.0033
739.4089	-0.0013
739.5863	0.0061
739.7636	-0.0026
739.9409	0.0003
740.1182	-0.0044
740.2955	0.0006
740.4728	0.0023
740.65	-0.006
740.8272	-0.0047
741.0044	-0.0126
741.1816	0.0033
741.3588	-0.002
741.5359	0.0045
741.7131	-0.0126
741.8902	-0.0104
742.0673	-0.0088
742.2444	-0.0101
742.4214	-0.0111
742.5985	-0.0089
742.7755	-0.0135
742.9525	-0.0194
743.1295	-0.0046
743.3064	0.0013
743.4834	-0.0003
743.6603	-0.0072
743.8372	-0.0196
744.0141	-0.0099
744.191	0.0025
744.3678	-0.0005
744.5446	-0.003
744.7215	-0.0026
744.8982	-0.0115
745.075	-0.018
745.2518	-0.0042
745.4285	-0.0014
745.6052	-0.0143
745.7819	-0.0058
745.9586	-0.015
746.1353	-0.0058
746.3119	-0.0096
746.4885	-0.0134
746.6651	-0.0012
746.8417	-0.0048
747.0183	-0.0002
747.1948	-0.0057
747.3714	0.0057
747.5479	0.0012
747.7244	-0.0056
747.9008	0.0025
748.0773	-0.0039
748.2537	0.0044
748.4301	-0.0081
748.6065	-0.0003
748.7829	0.0034
748.9593	-0.0092
749.1356	-0.0031
749.3119	0.0083
749.4882	-0.0076
749.6645	-0.004
749.8408	-0.013
750.017	-0.0117
750.1933	0.0008
750.3695	-0.0057
750.5457	-0.0019
750.7218	-0.0059
750.898	-0.0043
751.0741	-0.0048
751.2502	-0.0017
751.4263	-0.0084
751.6024	-0.0038
751.7784	-0.0049
751.9545	-0.0109
752.1305	-0.0136
752.3065	-0.0109
752.4825	0.0004
752.6584	-0.0123
752.8344	-0.0053
753.0103	-0.01
753.1862	-0.0028
753.3621	-0.0187
753.5379	-0.0113
753.7138	-0.0045
753.8896	-0.0027
754.0654	0.0023
754.2412	0.0048
754.417	0.0032
754.5927	-0.0032
754.7685	0.0007
754.9442	0.0034
755.1199	0.0133
755.2956	-0.0021
755.4712	0.0073
755.6469	0.0037
755.8225	0.0036
755.9981	-0.0036
756.1736	0.0014
756.3492	-0.0026
756.5248	-0.0023
756.7003	-0.0025
756.8758	0.0146
757.0513	-0.0069
757.2267	0.002
757.4022	0.0014
757.5776	-0.0103
757.753	0.0018
757.9284	-0.0048
758.1038	0.0081
758.2791	-0.0033
758.4545	-0.0167
758.6298	-0.0014
758.8051	-0.0052
758.9803	0.001
759.1556	-0.0085
759.3308	-0.012
759.506	0.0053
759.6812	0.0018
759.8564	0.0138
760.0316	-0.0002
760.2067	0.0068
760.3819	-0.0012
760.557	0.0083
760.732	0.0011
760.9071	-0.0124
761.0821	0.0046
761.2572	0.0076
761.4322	-0.0031
761.6072	0.0044
761.7821	0.0027
761.9571	0.0036
762.132	-0.0092
762.3069	-0.006
762.4818	-0.0074
762.6567	0.0018
762.8316	-0.0006
763.0064	-0.0011
763.1812	0.0002
763.356	-0.0146
763.5308	-0.0086
763.7055	-0.0073
763.8803	-0.0053
764.055	-0.0046
764.2297	-0.003
764.4044	-0.0063
764.579	0.0022
764.7537	-0.0121
764.9283	0.0024
765.1029	-0.0073
765.2775	-0.0035
765.4521	-0.0088
765.6266	-0.003
765.8011	-0.0113
765.9756	-0.0104
766.1501	0.0089
766.3246	-0.0082
766.4991	0.0061
766.6735	0.0063
766.8479	-0.0181
767.0223	0.0042
767.1967	0.0047
767.371	-0.005
767.5454	-0.0063
767.7197	-0.0013
767.894	-0.0028
768.0683	0.0008
768.2425	-0.0039
768.4168	0.0005
768.591	-0.0038
768.7652	-0.0095
768.9394	-0.016
769.1135	0.0077
769.2877	0.0135
769.4618	-0.0062
769.6359	-0.0077
769.81	0.0076
769.984	-0.0051
770.1581	0.0021
770.3321	0.0049
770.5061	0.003
770.6801	0.0012
770.8541	0.0105
771.028	0.0215
771.202	-0.0155
771.3759	0.0039
771.5498	-0.003
771.7236	0.0038
771.8975	-0.0034
772.0713	-0.0011
772.2451	0.0098
772.4189	0.0025
772.5927	0.009
772.7665	-0.0005
772.9402	-0.0021
773.1139	-0.0022
773.2876	0.0004
773.4613	0.0137
773.635	0.0065
773.8086	-0.0124
773.9822	0.0038
774.1558	0.0032
774.3294	-0.0158
774.503	-0
774.6765	-0.002
774.8501	0.0079
775.0236	0.0066
775.1971	-0.0045
775.3705	-0.0094
775.544	0.0032
775.7174	-0.0202
775.8908	-0.0133
776.0642	-0.0068
776.2376	-0.0004
776.4109	-0.0118
776.5843	-0.008
776.7576	-0.0028
776.9309	0.0171
777.1041	-0.0073
777.2774	-0.0026
777.4506	-0.0097
777.6238	-0.0187
777.797	-0.0036
777.9702	0.0085
778.1434	-0
778.3165	-0.0198
778.4896	-0.0047
778.6627	0.019
778.8358	-0.0018
779.0089	-0.0026
779.1819	-0.0069
779.3549	0.0167
779.5279	0.0027
779.7009	0.0051
779.8739	0.0113
780.0468	0.005
780.2197	0.0046
780.3926	0.0021
780.5655	-0.0003
780.7384	-0.0061
780.9112	-0.0111
781.0841	-0.0045
781.2569	0.0087
781.4297	-0.0065
781.6024	0.0075
781.7752	0.0049
781.9479	0.007
782.1206	0.0193
782.2933	-0.021
782.466	0.0027
782.6386	0.0098
782.8113	-0.0028
782.9839	-0.008
783.1565	0.0174
783.329	-0.0031
783.5016	0.0116
783.6741	0.0026
783.8466	-0.0015
784.0191	0.0072
784.1916	-0.0004
784.3641	-0.0077
784.5365	-0
784.7089	-0.0006
784.8813	-0.0118
785.0537	-0.0077
785.2261	-0.0077
785.3984	-0.0174
785.5707	-0.0196
785.743	-0.0049
785.9153	-0.0075
786.0876	-0.0023
786.2598	-0.0041
786.432	-0.0132
786.6042	0.0138
786.7764	-0.0089
786.9486	-0.0007
787.1207	-0.0224
787.2928	0.0011
787.4649	0.0069
787.637	0.0014
787.8091	-0.0038
787.9811	-0.0029
788.1532	-0.0118
788.3252	0.0102
788.4972	-0.0057
788.6691	0.0011
788.8411	0.0096
789.013	-0.0115
789.1849	0.0069
789.3568	-0.0003
789.5287	-0.0062
789.7005	-0.0048
789.8723	0.0037
790.0442	0.0196
790.2159	-0.0023
790.3877	-0.0002
790.5595	-0.0147
790.7312	0.0006
790.9029	-0.0186
791.0746	-0.0118
791.2463	-0.0067
791.4179	-0.0025
791.5896	-0.0206
791.7612	0.0062
791.9328	-0.0033
792.1044	-0.0197
792.2759	-0.0143
792.4474	-0.0106
792.619	-0.0029
792.7905	-0.0011
792.9619	-0.0032
793.1334	0.0006
793.3048	-0
793.4762	0.0142
793.6476	0.0009
793.819	-0.0115
793.9904	-0.0018
794.1617	-0.0144
794.333	-0.0005
794.5043	-0.0127
794.6756	-0.0089
794.8469	-0.0078
795.0181	-0.0075
795.1893	-0.0014
795.3605	0.0044
795.5317	-0.0044
795.7029	-0.0024
795.874	0.0029
796.0452	-0.0089
796.2163	-0.0013
796.3873	0.0117
796.5584	-0.0106
796.7294	0.0093
796.9005	0.0176
797.0715	0.0038
797.2425	-0.02
797.4134	-0.0046
797.5844	0.0003
797.7553	-0.019
797.9262	-0.0058
798.0971	-0.0216
798.2679	-0.0043
798.4388	-0.0154
798.6096	-0.0169
798.7804	-0.0099
798.9512	-0.0107
799.122	-0.0197
799.2927	-0.004
799.4635	0.0024
799.6342	-0.0123
799.8049	-0.0072
799.9755	-0.011
800.1462	-0.0083
800.3168	0.0027
800.4874	-0.0065
800.658	0.0091
800.8286	0.0134
800.9991	0.0213
801.1696	0.0271
801.3402	0.0079
801.5106	0.0051
801.6811	0.0116
801.8516	-0.0045
802.022	-0.0002
802.1924	0.0032
802.3628	-0.0029
802.5332	0.0143
802.7035	0.0242
802.8739	-0.0032
803.0442	-0.0221
803.2145	0.0041
803.3847	0.0079
803.555	0.0023
803.7252	0.0048
803.8954	-0.0244
804.0656	-0.008
804.2358	-0.0059
804.4059	0.0078
804.5761	-0.0092
804.7462	-0.0033
804.9163	-0.0046
805.0864	-0.0089
805.2564	-0.0237
805.4264	-0.0109
805.5965	-0.0248
805.7665	0.0019
805.9364	-0.0169
806.1064	0.0336
806.2763	-0.01
806.4462	0.0195
806.6161	0.0065
806.786	0.0244
806.9559	0.002
807.1257	-0.02
807.2955	-0.0021
807.4653	-0.0115
807.6351	-0.0131
807.8048	-0.0224
807.9746	0.0019
808.1443	-0.0053
808.314	-0.0062
808.4837	-0.0142
808.6533	0.0002
808.8229	0.0259
808.9926	0.0014
809.1622	0.0024
809.3317	-0.0186
809.5013	-0.0089
809.6708	0.0088
809.8403	-0.0045
810.0098	-0.0113
810.1793	0.0172
810.3488	0.0015
810.5182	-0.0178
810.6876	-0.0028
810.857	-0.0155
811.0264	0.0235
811.1958	0.0049
811.3651	-0.006
811.5344	-0.012
811.7037	-0.0089
811.873	-0.0102
812.0422	-0.0153
812.2115	-0.0022
812.3807	-0.0364
812.5499	-0.0203
812.7191	0.0005
812.8882	-0.0254
813.0574	-0.0142
813.2265	-0.0003
813.3956	-0.0141
813.5646	-0.0044
813.7337	-0.0232
813.9027	0.021
814.0718	0.0208
814.2407	0.0029
814.4097	-0.002
814.5787	-0.0172
814.7476	-0.0142
814.9165	-0.0053
815.0854	-0.0188
815.2543	-0.0097
815.4232	-0.0066
815.592	-0.0075
815.7608	0.0077
815.9296	0.0073
816.0984	0.0136
816.2671	-0.0068
816.4359	-0.0123
816.6046	-0.0099
816.7733	-0.0085
816.942	-0.0374
817.1106	-0.0137
817.2793	0.0091
817.4479	-0.0133
817.6165	-0.0043
817.785	-0.0001
817.9536	-0.0274
818.1221	-0.014
818.2906	-0.0176
818.4591	-0.0239
818.6276	-0.0202
818.7961	-0.0086
818.9645	-0.0014
819.1329	0.0046
819.3013	0.0279
819.4697	0.0205
819.638	-0.0028
819.8064	0.0099
819.9747	-0.0008
820.143	-0.0111
820.3113	-0.0048
820.4795	-0.0001
820.6477	-0.0048
820.816	-0.0046
820.9842	0.0131
821.1523	-0.0146
821.3205	-0.0053
821.4886	-0.0101
821.6567	0.0097
821.8248	-0.0079
821.9929	0.0129
822.1609	-0.0148
822.329	0.0235
822.497	0.0038
822.665	-0.0148
822.833	0.0023
823.0009	0.0125
823.1688	0.003
823.3367	0.0151
823.5046	0.0061
823.6725	0.0375
823.8404	-0.0063
824.0082	-0.0135
824.176	0.0156
824.3438	-0.0024
824.5116	-0.0296
824.6793	0.0283
824.847	-0.0139
825.0147	-0.0131
825.1824	0.0223
825.3501	0.0289
825.5177	-0.0145
825.6854	-0.0153
825.853	-0.0157
826.0206	-0.0298
826.1881	0.0004
826.3557	-0.0428
826.5232	0.0394
826.6907	-0.0632
826.8582	-0.0156
827.0257	-0.0406
827.1931	-0.0081
827.3605	-0.0112
827.528	-0.0138
827.6953	-0.0186
827.8627	-0.013
828.03	0.0233
828.1974	-0.0052
828.3647	-0.0246
828.532	-0.0189
828.6992	-0.0113
828.8665	-0.0165
829.0337	-0.0275
829.2009	-0.0134
829.3681	-0.0239
829.5352	0.0037
829.7024	-0.0391
829.8695	-0.0335
830.0366	0.0375
830.2037	-0.0239
830.3707	0.0217
830.5378	0.0015
830.7048	-0.0161
830.8718	-0.0223
831.0388	0.0028
831.2057	0.0047
831.3727	-0.0109
831.5396	-0.008
831.7065	-0.0225
831.8734	0.0359
832.0402	-0.0333
832.2071	0.0005
832.3739	0.0017
832.5407	-0.0019
832.7075	-0.0148
832.8742	-0.0222
833.041	-0.0285
833.2077	-0.0209
833.3744	0.0317
833.541	-0.0149
833.7077	-0.0094
833.8743	-0.0359
834.0409	-0.0145
834.2075	-0.0051
834.3741	-0.0593
834.5407	-0.0413
834.7072	-0.0095
834.8737	-0.0106
835.0402	-0.0496
835.2067	0.0164
835.3731	0.0286
835.5395	-0.0176
835.706	0.015
835.8723	-0.0101
836.0387	-0.0081
836.2051	0.0111
836.3714	0.0013
836.5377	0.0276
836.704	-0.0155
836.8703	-0.0123
837.0365	0.0163
837.2027	-0.0106
837.3689	0.0308
837.5351	-0.0319
837.7013	-0.0217
837.8674	-0.071
838.0335	-0.0322
838.1997	-0.02
838.3657	-0.0593
838.5318	-0.0159
838.6978	0.002
838.8639	0.0322
839.0299	0.0077
839.1958	0.0248
839.3618	0.0016
839.5277	-0.0495
839.6937	-0.0139
839.8596	-0.0672
840.0254	-0.0389
840.1913	-0.0115
840.3571	-0.0181
840.523	-0.1033
840.6888	-0.043
840.8545	-0.0467
841.0203	-0.0273
841.186	-0.0178
841.3517	0.0153
841.5174	0.0213
841.6831	-0.0345
841.8488	0.0277
842.0144	-0.0493
842.18	0.0106
842.3456	0.022
842.5112	-0.0399
842.6767	-0.0589
842.8422	-0.0341
843.0077	-0.0347
843.1732	-0.0912
843.3387	-0.0443
843.5042	-0.074
843.6696	-0.0293
843.835	-0.0511
844.0004	0.0384
844.1657	-0.0012
844.3311	-0.0457
844.4964	-0.0438
844.6617	-0.0068
844.827	0.0212
844.9923	-0.0321
845.1575	0.0155
845.3227	-0.027
845.4879	-0.0368
845.6531	-0.0108
845.8183	-0.1082
845.9834	-0.0101
846.1485	-0.0387
846.3136	-0.0714
846.4787	-0.0961
846.6438	-0.0131
846.8088	-0.0334
846.9738	-0.0242
847.1388	-0.0155
847.3038	-0.1057
847.4687	-0.1495
847.6337	-0.035
847.7986	-0.0562
847.9635	-0.0396
848.1284	-0.0057
848.2932	0.0522
848.458	-0.0576
848.6228	0.0481
848.7876	0.0503
848.9524	-0.0859
849.1172	-0.1026
849.2819	0.0111
849.4466	-0.1208
849.6113	-0.1805
849.7759	0.0642
849.9406	-0.0828
850.1052	0.0456
850.2698	0.025
850.4344	0.0116
850.599	-0.0881
850.7635	0.0504
850.928	-0.1037
851.0925	-0.0336
851.257	0.0033
851.4215	0.0013
851.5859	-0.0596
851.7503	0.0399
851.9147	-0.0586
852.0791	-0.0962
852.2434	-0.0734
852.4078	-0.0368
852.5721	0.0438
852.7364	-0.0466
852.9007	-0.276
853.0649	-0.059
853.2291	-0.0199
853.3934	-0.0821
853.5575	-0.0004
853.7217	-0.1408
853.8859	-0.179
854.05	-0.1278
854.2141	-0.0632
854.3782	-0.0989
854.5423	-0.1316
854.7063	0.1064
854.8703	-0.0854
855.0343	-0.1481
855.1983	-0.1971
855.3623	0.1478
855.5262	0.1486
855.6901	0.007
855.854	0.0296
856.0179	-0.0004
856.1818	-0.0063
856.3456	-0.0664
856.5094	-0.1274
856.6732	-0.0775
856.837	0.0577
857.0008	0.0439
857.1645	-0.0546
857.3282	-0.1746
857.4919	0.0124
857.6556	-0.0284
857.8192	-0.0103
857.9828	0.0288
858.1465	-0.0084
858.31	-0.1148
858.4736	-0.0103
858.6372	-0.4228
858.8007	-0.1961
858.9642	-0.0315
859.1277	-0.1524
859.2911	-0.0445
859.4546	-0.02
859.618	-0.3398
859.7814	0.0492
859.9448	-0.065
860.1081	-0.1868
860.2715	0.2583
860.4348	-0.0106
860.5981	-0.1048
860.7614	-0.0393
860.9246	-0.0522
861.0879	0.2077
861.2511	0.0766
861.4143	-0.2326
861.5774	0.04
861.7406	-0.0668
861.9037	-0.0702
862.0668	0.1298
862.2299	-0.275
862.393	-0.4436
862.556	0.0092
862.7191	0.2411
862.8821	-0.2184
863.0451	-0.1029
863.208	0.0765
863.371	-0.0139
863.5339	0.1612
863.6968	-0.0647
863.8597	-0.2335
864.0225	-0.0565
864.1854	-0.2221
864.3482	0.1378
864.511	0.2613
864.6737	-0.0011
864.8365	-0.282
864.9992	-0.4841
865.1619	-0.6648
865.3246	0.0933
865.4873	0.0683
865.65	-0.2607
865.8126	-0.2093
865.9752	0.3558
866.1378	-0.0684
866.3004	-0.1815
866.4629	0.2583
866.6254	0.7058
866.7879	0.4159
866.9504	-0
867.1129	-0
867.2753	0.5805
867.4377	-0.0377
867.6001	-0.4131
867.7625	-0.1059
867.9249	-0.5976
868.0872	-0.0655
868.2495	0.0999
868.4118	-0.301
868.5741	-0.5712
868.7363	-0.3568
868.8986	-0.3674
869.0608	-0.2844
869.223	-0.0203
869.3851	-0
869.5473	-0
869.7094	0.0642
869.8715	-0.4869
870.0336	-1.1778
870.1957	-0.7198
870.3577	-0
870.5197	-0.2307
870.6817	-0.3586
870.8437	-0.2943
871.0057	-0
871.1676	-0.4451
871.3295	-0.4758
871.4914	-0.6711
871.6533	-0.4585
871.8151	-0.6323
871.977	-0
872.1388	-0
872.3006	-0
872.4623	-0.0715
872.6241	0.2567
872.7858	0.3511
872.9475	1.3958
873.1092	-0.153
873.2709	0.0193
873.4325	-0.1381
873.5941	-0.5242
873.7557	-0
873.9173	-0
874.0789	-0
874.2404	-0.4529
874.4019	0.1245
874.5634	-0.2015
874.7249	-0.1797
874.8863	0.8659
875.0478	-0.0913
875.2092	-0.3827
875.3706	0.0615
875.5319	-1.1401
875.6933	-0
875.8546	-0.4682
876.0159	-0
876.1772	-0
876.3385	-0
876.4997	0.1771
876.6609	-0.4224
876.8221	-0
876.9833	-0
877.1445	-0
877.3056	-0.0867
877.4667	0.5979
877.6278	-0.0198
877.7889	-0.866
877.9499	-0
878.111	-0.0884
878.272	-0
878.433	-0
878.5939	0.82
878.7549	-0.2763
878.9158	-0.2076
879.0767	0.1389
879.2376	0.5844
879.3984	-0.2691
879.5593	-0
879.7201	-0.1259
879.8809	-0.84
880.0417	-0
880.2024	0.2598
880.3632	-0
880.5239	0.5767
880.6846	0.5194
880.8452	-2.6435
881.0059	-1.1072
881.1665	0.1123
881.3271	-0
881.4877	-0
881.6483	-0.5993
881.8088	-0.5455
881.9693	-0
882.1298	-0
882.2903	-0
