Data from MonoPyChalIsomerACN10uM380nmA_Absorbance_13-38-28-649.txt Node
Date: Fri Jul 05 13:38:28 BST 2024
User: LASERRRRR
Spectrometer: FLMT03099
Trigger mode: 0
Integration Time (sec): 1.000000E-1
Scans to average: 1
Electric dark correction enabled: true
Nonlinearity correction enabled: false
Boxcar width: 0
XAxis mode: Wavelengths
Number of Pixels in Spectrum: 3648
>>>>>Begin Spectral Data<<<<<
179.3399	0.3643
179.5586	0.3643
179.7771	0.3643
179.9957	-0.0955
180.2143	-0
180.4329	-0.3053
180.6514	-0
180.8699	-0
181.0885	0.0739
181.307	0.096
181.5255	-0.7743
181.744	-0
181.9625	-0
182.181	-0
182.3994	1.5109
182.6179	1.1326
182.8363	-0.0523
183.0547	0.0203
183.2732	0.16
183.4916	-0.0938
183.71	0.0645
183.9284	0.104
184.1467	-0.0953
184.3651	0.1757
184.5835	-0.0375
184.8018	-0.0619
185.0201	0.159
185.2385	-0.0134
185.4568	0.2177
185.6751	0.3217
185.8934	0.2247
186.1117	0.1264
186.3299	0.1227
186.5482	0.0439
186.7664	-0.0481
186.9847	0.0299
187.2029	0.0044
187.4211	0.0926
187.6393	0.3144
187.8575	0.0141
188.0757	0.4144
188.2939	0.2284
188.512	-0.0713
188.7302	0.002
188.9483	-0.0576
189.1665	0.1081
189.3846	0.2362
189.6027	0.1017
189.8208	0.0987
190.0389	0.0987
190.257	0.0863
190.475	0.3589
190.6931	0.3364
190.9111	0.7167
191.1292	0.2086
191.3472	0.5243
191.5652	0.3641
191.7832	0.2971
192.0012	0.5588
192.2192	0.4731
192.4371	0.4783
192.6551	0.4044
192.873	0.4254
193.091	0.3197
193.3089	0.6563
193.5268	0.6135
193.7447	0.5172
193.9626	0.4857
194.1805	0.9024
194.3984	0.6773
194.6162	0.5335
194.8341	0.5348
195.0519	0.5749
195.2697	2.6109
195.4875	0.9963
195.7054	0.6844
195.9231	0.4578
196.1409	0.8209
196.3587	0.5552
196.5765	0.6609
196.7942	0.6452
197.012	0.7332
197.2297	0.7109
197.4474	1.1365
197.6651	0.7157
197.8828	0.7431
198.1005	0.9659
198.3182	0.717
198.5358	0.8536
198.7535	0.783
198.9711	0.6411
199.1888	0.9168
199.4064	1.0881
199.624	0.9035
199.8416	0.7761
200.0592	0.8497
200.2767	1.0428
200.4943	0.8427
200.7119	1.0195
200.9294	0.7835
201.1469	0.8253
201.3645	0.7143
201.582	0.7982
201.7995	0.8118
202.017	0.7395
202.2344	0.7361
202.4519	1.028
202.6694	0.8721
202.8868	0.8865
203.1042	0.8532
203.3217	0.9172
203.5391	0.7755
203.7565	0.7874
203.9739	0.6869
204.1913	0.7523
204.4086	0.8168
204.626	0.8429
204.8433	0.9935
205.0607	0.9178
205.278	0.7857
205.4953	1.067
205.7126	0.8634
205.9299	0.9183
206.1472	0.936
206.3644	0.962
206.5817	0.8499
206.7989	0.9666
207.0162	0.8523
207.2334	0.9004
207.4506	0.876
207.6678	0.751
207.885	0.7512
208.1022	0.8798
208.3194	0.774
208.5365	0.8543
208.7537	0.8442
208.9708	0.7694
209.1879	0.9614
209.405	0.9822
209.6222	0.9078
209.8392	0.7765
210.0563	0.7018
210.2734	0.8269
210.4905	0.8958
210.7075	0.8823
210.9245	0.7608
211.1416	0.8529
211.3586	0.8081
211.5756	0.8533
211.7926	0.7532
212.0096	0.7487
212.2265	0.7668
212.4435	0.6993
212.6604	0.7646
212.8774	0.8443
213.0943	0.8028
213.3112	0.7507
213.5281	0.7686
213.745	0.6436
213.9619	0.7598
214.1788	0.7301
214.3956	0.6949
214.6125	0.6461
214.8293	0.7047
215.0461	0.7469
215.2629	0.6544
215.4798	0.7634
215.6965	0.6588
215.9133	0.6972
216.1301	0.6544
216.3469	0.7066
216.5636	0.6105
216.7803	0.6566
216.9971	0.614
217.2138	0.6134
217.4305	0.6025
217.6472	0.6171
217.8639	0.6641
218.0805	0.5777
218.2972	0.5459
218.5138	0.5316
218.7305	0.5896
218.9471	0.5607
219.1637	0.5734
219.3803	0.5404
219.5969	0.5114
219.8135	0.5309
220.0301	0.5493
220.2466	0.5238
220.4632	0.5473
220.6797	0.5142
220.8962	0.5016
221.1127	0.5364
221.3292	0.5734
221.5457	0.536
221.7622	0.5174
221.9787	0.5331
222.1951	0.5134
222.4116	0.553
222.628	0.5072
222.8444	0.5583
223.0608	0.5051
223.2772	0.5392
223.4936	0.5431
223.71	0.4951
223.9264	0.531
224.1427	0.5088
224.3591	0.5275
224.5754	0.4994
224.7917	0.549
225.008	0.5517
225.2243	0.4832
225.4406	0.5583
225.6569	0.5376
225.8732	0.531
226.0894	0.5268
226.3057	0.5426
226.5219	0.5613
226.7381	0.5127
226.9543	0.5454
227.1705	0.5632
227.3867	0.5551
227.6029	0.5661
227.8191	0.5509
228.0352	0.5503
228.2513	0.6039
228.4675	0.5743
228.6836	0.5775
228.8997	0.55
229.1158	0.5427
229.3319	0.5605
229.548	0.5745
229.764	0.5492
229.9801	0.5645
230.1961	0.5552
230.4121	0.5667
230.6282	0.547
230.8442	0.5612
231.0602	0.5668
231.2761	0.5716
231.4921	0.5549
231.7081	0.5676
231.924	0.5635
232.14	0.5837
232.3559	0.5158
232.5718	0.6202
232.7877	0.5531
233.0036	0.5412
233.2195	0.5742
233.4353	0.5784
233.6512	0.5484
233.867	0.5476
234.0829	0.5641
234.2987	0.5616
234.5145	0.5415
234.7303	0.5599
234.9461	0.5838
235.1619	0.5692
235.3776	0.5383
235.5934	0.5637
235.8091	0.5395
236.0249	0.5336
236.2406	0.5296
236.4563	0.54
236.672	0.5551
236.8877	0.5642
237.1034	0.5468
237.319	0.5235
237.5347	0.5635
237.7503	0.5379
237.966	0.5511
238.1816	0.5478
238.3972	0.5411
238.6128	0.545
238.8284	0.5479
239.0439	0.5235
239.2595	0.5378
239.475	0.5301
239.6906	0.5244
239.9061	0.5283
240.1216	0.5282
240.3371	0.5407
240.5526	0.51
240.7681	0.523
240.9836	0.4899
241.199	0.5185
241.4145	0.4874
241.6299	0.4745
241.8453	0.4752
242.0607	0.4997
242.2761	0.4503
242.4915	0.4387
242.7069	0.4568
242.9223	0.4248
243.1376	0.4309
243.353	0.439
243.5683	0.4303
243.7836	0.4046
243.9989	0.4154
244.2142	0.3907
244.4295	0.3951
244.6448	0.3879
244.86	0.3642
245.0753	0.3346
245.2905	0.3426
245.5057	0.3439
245.721	0.3453
245.9362	0.3287
246.1514	0.3392
246.3665	0.3141
246.5817	0.3034
246.7969	0.3188
247.012	0.3141
247.2271	0.2862
247.4423	0.3061
247.6574	0.29
247.8725	0.2872
248.0876	0.273
248.3026	0.2714
248.5177	0.2742
248.7328	0.2699
248.9478	0.2509
249.1628	0.2659
249.3779	0.2445
249.5929	0.2456
249.8079	0.2647
250.0228	0.2402
250.2378	0.2497
250.4528	0.2355
250.6677	0.2227
250.8827	0.2299
251.0976	0.2328
251.3125	0.2351
251.5274	0.2126
251.7423	0.2153
251.9572	0.2362
252.172	0.2148
252.3869	0.2119
252.6017	0.2067
252.8166	0.2015
253.0314	0.1859
253.2462	0.1865
253.461	0.2085
253.6758	0.1968
253.8906	0.2106
254.1053	0.2027
254.3201	0.1982
254.5348	0.2059
254.7496	0.2139
254.9643	0.1877
255.179	0.1992
255.3937	0.1943
255.6083	0.2069
255.823	0.1975
256.0377	0.1996
256.2523	0.1895
256.467	0.1866
256.6816	0.1905
256.8962	0.1929
257.1108	0.1962
257.3254	0.1878
257.54	0.1755
257.7545	0.191
257.9691	0.1967
258.1836	0.19
258.3981	0.1929
258.6127	0.2105
258.8272	0.1897
259.0417	0.1895
259.2561	0.1809
259.4706	0.1884
259.6851	0.1844
259.8995	0.1847
260.114	0.1876
260.3284	0.18
260.5428	0.1812
260.7572	0.1921
260.9716	0.19
261.186	0.1827
261.4003	0.1763
261.6147	0.1863
261.829	0.1786
262.0433	0.1827
262.2577	0.1826
262.472	0.186
262.6863	0.1826
262.9005	0.1839
263.1148	0.1736
263.3291	0.1672
263.5433	0.1744
263.7576	0.1872
263.9718	0.1815
264.186	0.1796
264.4002	0.1726
264.6144	0.1924
264.8286	0.1811
265.0427	0.1744
265.2569	0.1877
265.471	0.1738
265.6851	0.1688
265.8993	0.1754
266.1134	0.1771
266.3275	0.1747
266.5415	0.1769
266.7556	0.18
266.9697	0.1776
267.1837	0.1964
267.3978	0.1764
267.6118	0.1861
267.8258	0.1855
268.0398	0.1658
268.2538	0.1806
268.4677	0.1838
268.6817	0.1787
268.8957	0.1813
269.1096	0.1854
269.3235	0.1922
269.5374	0.1688
269.7514	0.1773
269.9652	0.1653
270.1791	0.1659
270.393	0.1576
270.6068	0.1742
270.8207	0.1675
271.0345	0.1573
271.2483	0.1715
271.4622	0.1713
271.676	0.1764
271.8897	0.1569
272.1035	0.1589
272.3173	0.1598
272.531	0.1547
272.7448	0.1693
272.9585	0.1573
273.1722	0.1511
273.3859	0.1646
273.5996	0.1605
273.8133	0.1567
274.0269	0.1538
274.2406	0.1561
274.4542	0.1633
274.6679	0.1541
274.8815	0.161
275.0951	0.1624
275.3087	0.1626
275.5223	0.1585
275.7358	0.1596
275.9494	0.1453
276.1629	0.1572
276.3765	0.1538
276.59	0.1515
276.8035	0.1584
277.017	0.1555
277.2305	0.1578
277.444	0.1678
277.6574	0.1594
277.8709	0.1624
278.0843	0.1513
278.2978	0.1568
278.5112	0.1586
278.7246	0.147
278.938	0.1682
279.1513	0.1649
279.3647	0.1749
279.5781	0.1611
279.7914	0.1632
280.0047	0.1659
280.2181	0.1687
280.4314	0.1694
280.6447	0.1664
280.8579	0.1636
281.0712	0.1699
281.2845	0.1648
281.4977	0.1745
281.711	0.1593
281.9242	0.1599
282.1374	0.1706
282.3506	0.1647
282.5638	0.1726
282.7769	0.1729
282.9901	0.1697
283.2033	0.1755
283.4164	0.1688
283.6295	0.1577
283.8426	0.1612
284.0557	0.1731
284.2688	0.168
284.4819	0.178
284.695	0.1692
284.908	0.1737
285.1211	0.1633
285.3341	0.1795
285.5471	0.1744
285.7601	0.1819
285.9731	0.1652
286.1861	0.1721
286.3991	0.1758
286.612	0.176
286.825	0.1766
287.0379	0.1826
287.2508	0.1782
287.4637	0.1853
287.6766	0.1733
287.8895	0.1838
288.1024	0.197
288.3152	0.1865
288.5281	0.1725
288.7409	0.1888
288.9538	0.1824
289.1666	0.1819
289.3794	0.1854
289.5922	0.1793
289.8049	0.1826
290.0177	0.1793
290.2304	0.179
290.4432	0.1909
290.6559	0.1888
290.8686	0.1822
291.0813	0.1879
291.294	0.179
291.5067	0.1795
291.7194	0.1808
291.932	0.1943
292.1447	0.187
292.3573	0.1792
292.5699	0.1831
292.7825	0.1957
292.9951	0.1797
293.2077	0.1882
293.4203	0.184
293.6328	0.1772
293.8454	0.1865
294.0579	0.1811
294.2704	0.1708
294.4829	0.1785
294.6954	0.1943
294.9079	0.1879
295.1204	0.1753
295.3328	0.1804
295.5453	0.1817
295.7577	0.1876
295.9701	0.1685
296.1825	0.1914
296.3949	0.1881
296.6073	0.185
296.8197	0.1769
297.0321	0.1939
297.2444	0.1761
297.4567	0.1847
297.6691	0.1785
297.8814	0.1794
298.0937	0.1904
298.306	0.1832
298.5182	0.1743
298.7305	0.1854
298.9428	0.1766
299.155	0.1893
299.3672	0.1807
299.5794	0.1789
299.7916	0.1832
300.0038	0.1775
300.216	0.1912
300.4282	0.1842
300.6403	0.175
300.8525	0.1835
301.0646	0.1679
301.2767	0.1808
301.4888	0.1653
301.7009	0.1837
301.913	0.168
302.125	0.1786
302.3371	0.1739
302.5491	0.1795
302.7612	0.1838
302.9732	0.1791
303.1852	0.1786
303.3972	0.1769
303.6092	0.1783
303.8211	0.167
304.0331	0.1677
304.245	0.1563
304.457	0.1702
304.6689	0.1681
304.8808	0.1759
305.0927	0.1611
305.3046	0.1592
305.5164	0.1743
305.7283	0.1573
305.9401	0.1672
306.152	0.1559
306.3638	0.1524
306.5756	0.1573
306.7874	0.1529
306.9992	0.1649
307.2109	0.1437
307.4227	0.1361
307.6344	0.1428
307.8462	0.1409
308.0579	0.1364
308.2696	0.151
308.4813	0.1409
308.693	0.1444
308.9046	0.1487
309.1163	0.1323
309.328	0.1389
309.5396	0.1224
309.7512	0.1196
309.9628	0.1291
310.1744	0.1276
310.386	0.1207
310.5976	0.1343
310.8091	0.1302
311.0207	0.1346
311.2322	0.126
311.4437	0.1094
311.6552	0.1125
311.8667	0.1157
312.0782	0.1066
312.2897	0.0995
312.5012	0.1097
312.7126	0.0991
312.924	0.1023
313.1355	0.1134
313.3469	0.118
313.5583	0.1096
313.7696	0.1108
313.981	0.1129
314.1924	0.1056
314.4037	0.1066
314.6151	0.1123
314.8264	0.1044
315.0377	0.1018
315.249	0.1122
315.4603	0.1109
315.6716	0.091
315.8828	0.0889
316.0941	0.0966
316.3053	0.0983
316.5165	0.0917
316.7277	0.0847
316.9389	0.106
317.1501	0.0889
317.3613	0.0949
317.5724	0.083
317.7836	0.0964
317.9947	0.0894
318.2058	0.0917
318.417	0.0908
318.6281	0.0847
318.8391	0.0826
319.0502	0.0937
319.2613	0.0946
319.4723	0.1076
319.6834	0.093
319.8944	0.091
320.1054	0.0949
320.3164	0.0906
320.5274	0.0969
320.7383	0.0961
320.9493	0.0974
321.1602	0.1128
321.3712	0.0843
321.5821	0.0945
321.793	0.0949
322.0039	0.0856
322.2148	0.0928
322.4257	0.1023
322.6365	0.1056
322.8474	0.0913
323.0582	0.087
323.269	0.088
323.4798	0.0998
323.6906	0.0936
323.9014	0.1014
324.1122	0.0915
324.3229	0.0879
324.5337	0.0912
324.7444	0.0854
324.9551	0.1149
325.1658	0.1043
325.3765	0.098
325.5872	0.0984
325.7979	0.0924
326.0085	0.1027
326.2192	0.1062
326.4298	0.0922
326.6404	0.0923
326.851	0.0921
327.0616	0.088
327.2722	0.0955
327.4828	0.1053
327.6933	0.0983
327.9039	0.0929
328.1144	0.0987
328.3249	0.1077
328.5354	0.0917
328.7459	0.0995
328.9564	0.0996
329.1669	0.1044
329.3773	0.1003
329.5878	0.0961
329.7982	0.0945
330.0086	0.0999
330.219	0.1068
330.4294	0.1107
330.6398	0.0929
330.8502	0.101
331.0605	0.0928
331.2708	0.1002
331.4812	0.1075
331.6915	0.0935
331.9018	0.1089
332.1121	0.103
332.3224	0.0994
332.5326	0.1098
332.7429	0.1069
332.9531	0.1015
333.1633	0.0928
333.3735	0.0998
333.5837	0.1066
333.7939	0.0976
334.0041	0.1107
334.2143	0.1076
334.4244	0.1026
334.6346	0.0917
334.8447	0.107
335.0548	0.0964
335.2649	0.103
335.475	0.1071
335.685	0.0983
335.8951	0.1089
336.1051	0.1114
336.3152	0.1027
336.5252	0.1048
336.7352	0.098
336.9452	0.1047
337.1552	0.1081
337.3652	0.1043
337.5751	0.1043
337.7851	0.0983
337.995	0.0852
338.2049	0.1077
338.4148	0.0949
338.6247	0.1083
338.8346	0.0953
339.0445	0.1021
339.2543	0.1075
339.4642	0.1091
339.674	0.0984
339.8838	0.11
340.0936	0.1006
340.3034	0.123
340.5132	0.1102
340.7229	0.0991
340.9327	0.1088
341.1424	0.1039
341.3522	0.1206
341.5619	0.1153
341.7716	0.1088
341.9813	0.114
342.1909	0.1176
342.4006	0.1234
342.6102	0.1279
342.8199	0.1214
343.0295	0.0996
343.2391	0.1095
343.4487	0.124
343.6583	0.104
343.8679	0.1087
344.0774	0.1247
344.287	0.1287
344.4965	0.116
344.706	0.1283
344.9155	0.1195
345.125	0.1323
345.3345	0.1158
345.544	0.1102
345.7534	0.1153
345.9629	0.113
346.1723	0.1173
346.3817	0.1127
346.5911	0.1151
346.8005	0.1342
347.0099	0.1211
347.2193	0.1275
347.4286	0.1248
347.638	0.1334
347.8473	0.1251
348.0566	0.137
348.2659	0.129
348.4752	0.1377
348.6845	0.1201
348.8937	0.123
349.103	0.1333
349.3122	0.1219
349.5214	0.1306
349.7306	0.1492
349.9398	0.133
350.149	0.1369
350.3582	0.1387
350.5674	0.147
350.7765	0.1331
350.9856	0.1476
351.1948	0.1365
351.4039	0.1123
351.613	0.1252
351.822	0.146
352.0311	0.1359
352.2402	0.1453
352.4492	0.1427
352.6582	0.1488
352.8672	0.134
353.0762	0.1585
353.2852	0.1365
353.4942	0.1404
353.7032	0.1556
353.9121	0.1482
354.1211	0.1621
354.33	0.1579
354.5389	0.1434
354.7478	0.1437
354.9567	0.1264
355.1655	0.1392
355.3744	0.1472
355.5833	0.1558
355.7921	0.1779
356.0009	0.1532
356.2097	0.1626
356.4185	0.1732
356.6273	0.1656
356.8361	0.1542
357.0448	0.1491
357.2536	0.1595
357.4623	0.1424
357.671	0.1625
357.8797	0.1463
358.0884	0.1585
358.2971	0.1675
358.5057	0.1601
358.7144	0.1747
358.923	0.1599
359.1316	0.1722
359.3402	0.1717
359.5488	0.1536
359.7574	0.1598
359.966	0.1835
360.1746	0.1697
360.3831	0.1686
360.5916	0.1677
360.8002	0.167
361.0087	0.1743
361.2172	0.1654
361.4256	0.1895
361.6341	0.2016
361.8426	0.1756
362.051	0.1852
362.2594	0.1839
362.4678	0.1821
362.6762	0.2025
362.8846	0.1974
363.093	0.1716
363.3014	0.1789
363.5097	0.1941
363.718	0.1773
363.9264	0.1843
364.1347	0.178
364.343	0.1908
364.5513	0.1919
364.7595	0.201
364.9678	0.1972
365.176	0.2112
365.3842	0.2089
365.5925	0.2046
365.8007	0.2036
366.0089	0.2074
366.217	0.1927
366.4252	0.2103
366.6333	0.2131
366.8415	0.2031
367.0496	0.2132
367.2577	0.2104
367.4658	0.2309
367.6739	0.2085
367.882	0.2245
368.09	0.206
368.2981	0.2213
368.5061	0.2255
368.7141	0.2252
368.9221	0.2303
369.1301	0.2231
369.3381	0.227
369.5461	0.2089
369.754	0.2201
369.962	0.2353
370.1699	0.2301
370.3778	0.2182
370.5857	0.2108
370.7936	0.2263
371.0015	0.219
371.2093	0.2241
371.4172	0.2364
371.625	0.2192
371.8328	0.2262
372.0406	0.2282
372.2484	0.2221
372.4562	0.2341
372.664	0.2407
372.8717	0.245
373.0795	0.2219
373.2872	0.2308
373.4949	0.2293
373.7026	0.2316
373.9103	0.2453
374.118	0.2436
374.3256	0.2378
374.5333	0.2406
374.7409	0.2399
374.9485	0.2714
375.1561	0.254
375.3637	0.2489
375.5713	0.2617
375.7789	0.2567
375.9864	0.2342
376.194	0.2434
376.4015	0.2744
376.609	0.2467
376.8165	0.2419
377.024	0.241
377.2315	0.2382
377.4389	0.2604
377.6464	0.2679
377.8538	0.2679
378.0612	0.2562
378.2686	0.2509
378.476	0.2692
378.6834	0.2706
378.8908	0.2671
379.0981	0.2453
379.3055	0.2558
379.5128	0.2457
379.7201	0.247
379.9274	0.2474
380.1347	0.2507
380.342	0.2827
380.5492	0.2714
380.7565	0.2721
380.9637	0.2772
381.1709	0.2663
381.3781	0.2699
381.5853	0.2707
381.7925	0.2751
381.9997	0.2623
382.2068	0.2638
382.4139	0.2586
382.6211	0.2668
382.8282	0.2787
383.0353	0.2688
383.2424	0.2622
383.4494	0.2736
383.6565	0.2719
383.8635	0.2667
384.0706	0.2644
384.2776	0.284
384.4846	0.2681
384.6916	0.2757
384.8986	0.2645
385.1055	0.2834
385.3125	0.2794
385.5194	0.2554
385.7263	0.2695
385.9333	0.2728
386.1402	0.26
386.347	0.2668
386.5539	0.2614
386.7608	0.2789
386.9676	0.2657
387.1744	0.2737
387.3813	0.2573
387.5881	0.2856
387.7948	0.2585
388.0016	0.2732
388.2084	0.2675
388.4151	0.2695
388.6219	0.2727
388.8286	0.2728
389.0353	0.2832
389.242	0.2677
389.4487	0.2792
389.6553	0.2719
389.862	0.2692
390.0686	0.2459
390.2753	0.273
390.4819	0.2536
390.6885	0.2485
390.8951	0.2561
391.1016	0.2738
391.3082	0.244
391.5147	0.2597
391.7213	0.2534
391.9278	0.2463
392.1343	0.2674
392.3408	0.2726
392.5473	0.2558
392.7537	0.2389
392.9602	0.2608
393.1666	0.2286
393.373	0.2514
393.5794	0.2522
393.7858	0.2454
393.9922	0.2459
394.1986	0.2472
394.4049	0.2436
394.6113	0.2436
394.8176	0.2277
395.0239	0.2395
395.2302	0.2218
395.4365	0.2234
395.6428	0.2313
395.8491	0.2316
396.0553	0.2338
396.2615	0.2444
396.4678	0.2339
396.674	0.2249
396.8802	0.2115
397.0863	0.2528
397.2925	0.238
397.4987	0.2328
397.7048	0.2248
397.9109	0.2225
398.117	0.2321
398.3231	0.2332
398.5292	0.2353
398.7353	0.2302
398.9413	0.2231
399.1474	0.2339
399.3534	0.2236
399.5594	0.2092
399.7654	0.2453
399.9714	0.2468
400.1774	0.2278
400.3833	0.2256
400.5893	0.2292
400.7952	0.2337
401.0011	0.2292
401.207	0.2484
401.4129	0.2407
401.6188	0.2439
401.8247	0.2275
402.0305	0.2387
402.2364	0.2256
402.4422	0.25
402.648	0.2486
402.8538	0.2624
403.0596	0.2144
403.2654	0.2496
403.4711	0.2294
403.6768	0.2303
403.8826	0.2328
404.0883	0.2389
404.294	0.2533
404.4997	0.2316
404.7054	0.2355
404.911	0.2186
405.1167	0.2211
405.3223	0.2435
405.5279	0.2399
405.7335	0.2476
405.9391	0.2576
406.1447	0.2176
406.3502	0.2513
406.5558	0.2245
406.7613	0.2355
406.9668	0.258
407.1724	0.2159
407.3778	0.21
407.5833	0.2238
407.7888	0.2292
407.9942	0.2504
408.1997	0.2437
408.4051	0.2351
408.6105	0.2482
408.8159	0.2385
409.0213	0.2186
409.2267	0.2419
409.432	0.2152
409.6374	0.2444
409.8427	0.211
410.048	0.2318
410.2533	0.2334
410.4586	0.2369
410.6639	0.2238
410.8691	0.2152
411.0744	0.2297
411.2796	0.2019
411.4848	0.2178
411.69	0.2205
411.8952	0.2385
412.1004	0.2259
412.3056	0.2379
412.5107	0.2219
412.7158	0.2573
412.921	0.2085
413.1261	0.2143
413.3312	0.2159
413.5362	0.231
413.7413	0.2281
413.9464	0.228
414.1514	0.2276
414.3564	0.2301
414.5614	0.2092
414.7664	0.2274
414.9714	0.2426
415.1764	0.2256
415.3813	0.2375
415.5863	0.2237
415.7912	0.235
415.9961	0.218
416.201	0.2293
416.4059	0.2259
416.6108	0.214
416.8156	0.2189
417.0205	0.2336
417.2253	0.2187
417.4301	0.2467
417.6349	0.2241
417.8397	0.2272
418.0445	0.2275
418.2492	0.2212
418.454	0.2298
418.6587	0.2084
418.8634	0.2333
419.0681	0.2266
419.2728	0.2227
419.4775	0.2182
419.6822	0.2263
419.8868	0.2123
420.0915	0.2002
420.2961	0.2036
420.5007	0.224
420.7053	0.2068
420.9099	0.2031
421.1144	0.2238
421.319	0.2024
421.5235	0.2085
421.728	0.2128
421.9325	0.2286
422.137	0.2055
422.3415	0.2184
422.546	0.2266
422.7504	0.1989
422.9549	0.2072
423.1593	0.2111
423.3637	0.2072
423.5681	0.1998
423.7725	0.202
423.9769	0.1855
424.1812	0.1928
424.3856	0.1943
424.5899	0.2108
424.7942	0.2036
424.9985	0.1974
425.2028	0.1763
425.4071	0.2148
425.6113	0.1878
425.8156	0.1973
426.0198	0.1909
426.224	0.1655
426.4282	0.1952
426.6324	0.1909
426.8366	0.1768
427.0407	0.161
427.2449	0.1838
427.449	0.2036
427.6531	0.1604
427.8572	0.1817
428.0613	0.2003
428.2654	0.1714
428.4694	0.165
428.6735	0.1864
428.8775	0.1788
429.0815	0.1729
429.2855	0.1782
429.4895	0.1852
429.6935	0.1724
429.8975	0.1754
430.1014	0.1568
430.3053	0.1516
430.5093	0.1632
430.7132	0.1379
430.9171	0.1486
431.1209	0.1641
431.3248	0.1678
431.5286	0.1509
431.7325	0.1523
431.9363	0.1443
432.1401	0.1502
432.3439	0.1518
432.5477	0.1345
432.7514	0.1277
432.9552	0.1363
433.1589	0.1269
433.3627	0.1212
433.5664	0.1379
433.7701	0.1436
433.9737	0.1218
434.1774	0.1177
434.3811	0.1191
434.5847	0.1298
434.7883	0.1272
434.9919	0.1161
435.1955	0.1184
435.3991	0.129
435.6027	0.1346
435.8062	0.1268
436.0098	0.1118
436.2133	0.1102
436.4168	0.1099
436.6203	0.0948
436.8238	0.1256
437.0272	0.1282
437.2307	0.1138
437.4341	0.1219
437.6375	0.1202
437.841	0.1152
438.0443	0.1046
438.2477	0.0944
438.4511	0.0866
438.6545	0.1
438.8578	0.1035
439.0611	0.0942
439.2644	0.0864
439.4677	0.0756
439.671	0.0823
439.8743	0.0883
440.0775	0.0875
440.2808	0.0902
440.484	0.0856
440.6872	0.0685
440.8904	0.081
441.0936	0.095
441.2967	0.0778
441.4999	0.09
441.703	0.0752
441.9062	0.0741
442.1093	0.0693
442.3124	0.0929
442.5155	0.0546
442.7185	0.0739
442.9216	0.0377
443.1246	0.0853
443.3276	0.0652
443.5307	0.0541
443.7337	0.0737
443.9366	0.0656
444.1396	0.0698
444.3426	0.0506
444.5455	0.0646
444.7484	0.0601
444.9513	0.0565
445.1542	0.0728
445.3571	0.0565
445.56	0.0546
445.7628	0.0482
445.9657	0.0423
446.1685	0.0488
446.3713	0.0607
446.5741	0.046
446.7769	0.0472
446.9797	0.0516
447.1824	0.042
447.3852	0.0336
447.5879	0.0439
447.7906	0.0453
447.9933	0.042
448.196	0.0413
448.3986	0.0415
448.6013	0.0297
448.8039	0.0231
449.0066	0.025
449.2092	0.0292
449.4118	0.0323
449.6143	0.0284
449.8169	0.0424
450.0195	0.0271
450.222	0.0151
450.4245	0.0205
450.627	0.0393
450.8295	0.0305
451.032	0.0325
451.2345	0.0348
451.4369	0.0176
451.6394	0.0394
451.8418	0.0124
452.0442	0.0215
452.2466	0.0329
452.449	0.0056
452.6513	0.0157
452.8537	0.0082
453.056	-0.0058
453.2583	0.0089
453.4607	0.011
453.663	0.0199
453.8652	0.0339
454.0675	0.0046
454.2697	0.0071
454.472	0.0022
454.6742	0.0059
454.8764	0.0206
455.0786	0.0269
455.2808	0.0209
455.4829	0.0287
455.6851	0.0182
455.8872	0.032
456.0893	0.0217
456.2915	0.0092
456.4935	0.0139
456.6956	-0.0055
456.8977	0.0236
457.0997	0.0151
457.3018	0.0103
457.5038	0.0157
457.7058	0.0142
457.9078	0.0059
458.1098	0.0157
458.3117	0.0214
458.5137	-0.001
458.7156	0.0157
458.9175	0.0012
459.1194	0.0089
459.3213	0.0146
459.5232	-0.0067
459.725	-0.0056
459.9269	-0.009
460.1287	0.0042
460.3305	0.0082
460.5323	0.0021
460.7341	-0.0056
460.9359	0.0104
461.1376	0.0106
461.3394	0.0029
461.5411	0.0079
461.7428	-0.0022
461.9445	0.0272
462.1462	0.0118
462.3479	-0.0175
462.5495	0.0092
462.7512	0.0088
462.9528	-0.0055
463.1544	-0.0104
463.356	-0.0017
463.5576	0.0203
463.7592	0.0038
463.9607	0.0114
464.1623	0.0028
464.3638	0.0231
464.5653	-0.0127
464.7668	-0.0012
464.9683	0.0107
465.1697	0.0144
465.3712	-0.0111
465.5726	-0.0072
465.7741	-0.013
465.9755	-0.0132
466.1769	-0.0019
466.3782	-0.0031
466.5796	-0.0156
466.7809	0.0136
466.9823	-0.0061
467.1836	-0.0066
467.3849	-0.007
467.5862	0.0007
467.7875	0.0043
467.9887	0.0216
468.19	0.0049
468.3912	-0.0113
468.5924	-0.003
468.7936	0.0047
468.9948	-0.004
469.196	-0.0038
469.3972	-0.0127
469.5983	-0.007
469.7994	-0.0166
470.0006	0.0007
470.2017	-0.0223
470.4027	-0.015
470.6038	0.0009
470.8049	-0.0185
471.0059	0.0009
471.2069	-0.0324
471.408	0.0168
471.6089	-0.0048
471.8099	-0.0063
472.0109	0.0009
472.2119	-0.0172
472.4128	-0.0187
472.6137	0.0037
472.8146	-0.017
473.0155	0.0019
473.2164	-0.0082
473.4173	0.0097
473.6181	0.004
473.819	0.0086
474.0198	-0.0067
474.2206	-0.0024
474.4214	-0.0158
474.6222	-0.0088
474.8229	-0.011
475.0237	-0.0209
475.2244	-0.0153
475.4251	-0.0093
475.6258	-0.0136
475.8265	-0.0117
476.0272	0.0032
476.2278	-0.0066
476.4285	-0.0045
476.6291	-0.0219
476.8297	-0.0048
477.0303	-0.0155
477.2309	-0.0032
477.4315	-0.0192
477.632	-0.0029
477.8326	-0.0054
478.0331	-0.0113
478.2336	0.0055
478.4341	-0.0109
478.6346	-0.0147
478.8351	-0.0111
479.0355	-0.0128
479.236	-0.0121
479.4364	-0.0042
479.6368	-0.011
479.8372	-0.0158
480.0376	-0.0177
480.2379	-0.0325
480.4383	-0.0186
480.6386	0.0034
480.8389	-0.0136
481.0392	-0.0101
481.2395	-0.0152
481.4398	-0.0001
481.6401	-0.0069
481.8403	-0.0026
482.0405	-0.0074
482.2408	-0.0048
482.441	0.0088
482.6411	-0.0145
482.8413	-0.0103
483.0415	-0.0189
483.2416	-0.0065
483.4417	-0.0064
483.6419	-0.0128
483.8419	-0.0094
484.042	0.005
484.2421	-0.0132
484.4422	0.0013
484.6422	-0.0065
484.8422	-0.0086
485.0422	-0.0118
485.2422	-0.0094
485.4422	-0.0103
485.6422	-0.016
485.8421	-0.0128
486.042	-0.006
486.242	-0.0141
486.4419	-0.0122
486.6417	-0.0047
486.8416	-0.0096
487.0415	-0.0152
487.2413	-0.0083
487.4411	-0.0029
487.641	-0.0177
487.8408	-0.0042
488.0405	-0.006
488.2403	-0.0157
488.4401	-0.0004
488.6398	-0.0089
488.8395	-0.0097
489.0392	-0.0059
489.2389	-0.01
489.4386	-0.005
489.6383	-0.0081
489.8379	-0.0021
490.0376	-0.0103
490.2372	-0.0137
490.4368	-0.0167
490.6364	-0.0154
490.836	-0.0045
491.0355	-0.0104
491.2351	-0.0136
491.4346	-0.0045
491.6341	-0.0208
491.8336	-0.0016
492.0331	-0.0153
492.2326	-0.0166
492.432	-0.0057
492.6315	-0.0103
492.8309	-0.0266
493.0303	-0.0045
493.2297	-0.0168
493.4291	-0.01
493.6284	-0.005
493.8278	-0.0085
494.0271	-0.0005
494.2264	0.0019
494.4257	-0.0046
494.625	-0.0087
494.8243	-0.022
495.0236	-0.0146
495.2228	-0.0175
495.422	-0.0103
495.6213	-0.0157
495.8205	-0.009
496.0196	-0.0056
496.2188	-0.0048
496.418	-0.02
496.6171	-0.0085
496.8162	-0.025
497.0153	-0.0165
497.2144	-0.0135
497.4135	-0.0061
497.6126	-0.0189
497.8116	-0.0048
498.0107	-0.0083
498.2097	-0.0153
498.4087	-0.0243
498.6077	-0.0122
498.8067	-0.0096
499.0056	-0.0055
499.2046	-0.0167
499.4035	-0.0195
499.6024	-0.0132
499.8013	-0.0048
500.0002	-0.02
500.199	-0.0121
500.3979	-0.0132
500.5967	-0.0266
500.7956	-0.0018
500.9944	-0.0103
501.1932	-0.017
501.3919	-0.0103
501.5907	-0.0152
501.7895	-0.0082
501.9882	-0.0131
502.1869	-0.0138
502.3856	-0.0086
502.5843	-0.0233
502.783	-0.01
502.9816	-0.0074
503.1803	-0.013
503.3789	-0.0199
503.5775	-0.0099
503.7761	-0.0168
503.9747	-0.0175
504.1732	-0.0185
504.3718	-0.0082
504.5703	-0.0108
504.7689	-0.0103
504.9674	-0.0066
505.1658	-0.0183
505.3643	-0.0077
505.5628	-0.0164
505.7612	-0.0086
505.9597	-0.0062
506.1581	-0.0098
506.3565	0.0007
506.5549	-0.0131
506.7532	-0.0213
506.9516	-0.0098
507.1499	-0.014
507.3482	-0.016
507.5465	-0.016
507.7448	-0.0123
507.9431	-0.0091
508.1414	0.0022
508.3396	-0.0099
508.5379	-0.0049
508.7361	-0.0179
508.9343	-0.0093
509.1325	-0.0014
509.3306	-0.0085
509.5288	-0.015
509.7269	-0.0183
509.9251	-0.0032
510.1232	-0.0079
510.3213	-0.0054
510.5193	-0.013
510.7174	-0.027
510.9154	-0.0196
511.1135	-0.0094
511.3115	-0.0124
511.5095	-0.0197
511.7075	-0.011
511.9055	-0.0111
512.1034	-0.0193
512.3014	-0.0087
512.4993	-0.0049
512.6972	-0.0139
512.8951	-0.0232
513.093	-0.007
513.2908	-0.0067
513.4887	-0.0119
513.6865	-0.014
513.8844	-0.0082
514.0822	-0.0187
514.2799	-0.0126
514.4777	-0.0173
514.6755	-0.015
514.8732	-0.019
515.0709	-0.0108
515.2687	-0.0133
515.4664	-0.012
515.664	-0.0152
515.8617	-0.0121
516.0594	-0.023
516.257	-0.0074
516.4546	-0.0276
516.6522	-0.0033
516.8498	-0.0128
517.0474	0.0004
517.2449	0.0015
517.4425	-0.0152
517.64	-0.0192
517.8375	-0.0021
518.035	-0.0078
518.2325	-0.0108
518.43	0.0025
518.6274	-0.0213
518.8249	-0.0153
519.0223	-0.0067
519.2197	-0.0097
519.4171	-0.018
519.6145	-0.0106
519.8118	-0.0029
520.0092	-0.0175
520.2065	-0.0125
520.4038	-0.0232
520.6011	-0.0074
520.7984	-0.0246
520.9956	-0.0129
521.1929	-0.0086
521.3901	-0.0065
521.5874	-0.0077
521.7846	-0.0086
521.9818	-0.0184
522.1789	-0.0151
522.3761	-0.0175
522.5732	-0.009
522.7704	-0.0134
522.9675	-0.0093
523.1646	-0.0242
523.3617	-0.0101
523.5587	-0.005
523.7558	-0.0115
523.9528	-0.0108
524.1498	-0.0094
524.3468	-0.0174
524.5438	-0.0151
524.7408	-0.0137
524.9378	-0.0091
525.1347	-0.0114
525.3316	-0.0066
525.5285	-0.0169
525.7254	-0.0187
525.9223	-0.0068
526.1192	-0.018
526.316	-0.0178
526.5129	-0.003
526.7097	-0.0053
526.9065	-0.0094
527.1033	-0.0107
527.3	-0.0093
527.4968	-0.0051
527.6935	-0.019
527.8903	-0.0161
528.087	-0.012
528.2837	-0.0112
528.4804	-0.0128
528.677	-0.0138
528.8737	0.0042
529.0703	-0.001
529.2669	-0.0112
529.4635	-0.0202
529.6601	-0.0111
529.8567	-0.0117
530.0532	-0.0117
530.2498	-0.0043
530.4463	-0.004
530.6428	-0.0051
530.8393	-0.0007
531.0358	-0.0086
531.2322	-0.0161
531.4287	-0.0082
531.6251	-0.0152
531.8215	-0.0039
532.0179	-0.0036
532.2143	-0.0035
532.4107	-0.008
532.607	-0.0148
532.8034	-0.0048
532.9997	-0.0069
533.196	-0.0073
533.3923	-0.0164
533.5886	-0.0044
533.7848	-0.0075
533.9811	-0.0126
534.1773	-0.0062
534.3735	-0.0115
534.5697	-0.0019
534.7659	-0.0077
534.9621	-0.0029
535.1582	-0.015
535.3544	-0.0073
535.5505	-0.0083
535.7466	-0.0133
535.9427	-0.0137
536.1387	-0.013
536.3348	-0.0042
536.5308	0.001
536.7269	-0.0103
536.9229	-0.0062
537.1189	-0.0029
537.3148	-0.013
537.5108	-0.0036
537.7068	0.0022
537.9027	0.001
538.0986	-0.0023
538.2945	-0.009
538.4904	-0.0055
538.6863	-0.0091
538.8821	-0.0077
539.078	-0.0076
539.2738	-0.0029
539.4696	-0.0062
539.6654	0.0007
539.8611	0.0062
540.0569	-0.0066
540.2526	-0.0139
540.4484	-0.0078
540.6441	-0.0024
540.8398	-0.0114
541.0355	-0.001
541.2311	-0.0087
541.4268	-0.0148
541.6224	-0.0008
541.818	-0.0023
542.0136	-0.017
542.2092	-0.0005
542.4048	-0.002
542.6003	-0.0021
542.7959	-0.0135
542.9914	-0.007
543.1869	-0.0055
543.3824	-0.0009
543.5779	-0.0109
543.7734	-0.0059
543.9688	-0.0104
544.1642	-0.0059
544.3596	-0.0119
544.555	-0.0123
544.7504	-0.0015
544.9458	-0.005
545.1411	-0.0076
545.3365	-0.0058
545.5318	-0.0016
545.7271	-0.0041
545.9224	-0.0028
546.1177	-0.0017
546.3129	0.0001
546.5081	-0.0128
546.7034	-0.0067
546.8986	-0.0064
547.0938	-0.0097
547.289	-0.0056
547.4841	0.001
547.6793	0.0045
547.8744	-0.0203
548.0695	-0.012
548.2646	-0.004
548.4597	-0.0023
548.6548	-0.0009
548.8498	-0.0027
549.0448	0.0067
549.2399	0.002
549.4349	0.0112
549.6298	-0.001
549.8248	0.001
550.0198	-0.0031
550.2147	-0.0085
550.4096	-0.0102
550.6045	-0.0062
550.7994	-0.0109
550.9943	-0.0041
551.1892	-0.0058
551.384	0.0002
551.5788	-0.0064
551.7737	0.003
551.9685	0.0006
552.1632	-0.0003
552.358	-0.0071
552.5528	-0.0043
552.7475	-0.0059
552.9422	-0.0018
553.1369	-0.0008
553.3316	-0.0021
553.5263	-0.0152
553.7209	0.004
553.9156	-0.0079
554.1102	-0.0046
554.3048	0.0012
554.4994	0.0024
554.694	-0.0007
554.8885	0.0037
555.0831	-0.0052
555.2776	-0.0047
555.4721	-0.0022
555.6666	-0.0024
555.8611	0.0005
556.0555	-0.0037
556.25	-0.0034
556.4444	-0.0065
556.6388	0.0065
556.8332	-0.0142
557.0276	-0.0056
557.222	-0.0063
557.4163	-0.009
557.6107	-0.0058
557.805	-0.006
557.9993	-0.0144
558.1936	-0.0006
558.3879	-0.0032
558.5821	-0.002
558.7764	-0.0042
558.9706	-0.0039
559.1648	0.0044
559.359	-0.0013
559.5532	-0.0078
559.7473	-0.0024
559.9415	-0.0048
560.1356	-0.0069
560.3297	-0.0032
560.5238	-0.0084
560.7179	-0.0075
560.9119	-0.0091
561.106	0.0033
561.3	-0.011
561.494	0.0009
561.688	-0.0028
561.882	-0.0106
562.076	-0.0034
562.2699	-0.0005
562.4639	-0.002
562.6578	-0.0017
562.8517	-0.0003
563.0456	0.0031
563.2395	-0.0032
563.4333	0.0046
563.6272	0.0044
563.821	-0.0072
564.0148	-0.0041
564.2086	-0.0082
564.4024	-0.0054
564.5961	-0.0005
564.7899	-0.0018
564.9836	-0.0041
565.1773	-0.007
565.371	0.0045
565.5647	0.0047
565.7584	-0.0035
565.952	0.0004
566.1456	-0.0024
566.3393	-0.0004
566.5329	-0.0043
566.7264	-0.0027
566.92	-0.009
567.1136	-0.001
567.3071	-0.0051
567.5006	-0.0013
567.6941	0.0055
567.8876	-0.0099
568.0811	0.0016
568.2745	-0.0055
568.468	-0.0023
568.6614	0.0053
568.8548	-0.0068
569.0482	-0.0028
569.2416	-0.0049
569.4349	0.0036
569.6283	-0.0004
569.8216	-0.0058
570.0149	-0.0047
570.2082	0.0057
570.4015	-0.0005
570.5947	0.0011
570.788	-0.0001
570.9812	0.0041
571.1744	-0.0063
571.3676	-0.0174
571.5608	-0.0067
571.754	0.0011
571.9471	-0.0028
572.1402	0.0048
572.3333	-0.0037
572.5264	0.0024
572.7195	-0.0068
572.9126	0.0014
573.1057	-0.005
573.2987	-0.0031
573.4917	0.0044
573.6847	-0.0076
573.8777	0.003
574.0707	0.0036
574.2636	-0.0044
574.4566	-0.0017
574.6495	0.0066
574.8424	-0.0035
575.0353	-0.0045
575.2281	0.0094
575.421	0.0083
575.6138	-0.0007
575.8067	0.0016
575.9995	0.0006
576.1923	0.0111
576.385	-0.0003
576.5778	-0.0005
576.7706	-0.0029
576.9633	0.0024
577.156	0.0036
577.3487	0.0003
577.5414	0.0035
577.734	-0.0051
577.9267	0.0043
578.1193	-0.008
578.3119	-0.0074
578.5045	-0.0033
578.6971	-0.0012
578.8897	0.0102
579.0822	0.0014
579.2747	-0.0033
579.4673	-0.0048
579.6598	-0.0051
579.8522	-0.0059
580.0447	-0.0063
580.2372	-0.0025
580.4296	0.0013
580.622	-0.0044
580.8144	-0.0009
581.0068	-0.0055
581.1992	-0.012
581.3915	-0.007
581.5839	-0.0099
581.7762	-0.0052
581.9685	-0.0028
582.1608	0.0051
582.353	0.0004
582.5453	0.0012
582.7375	-0.0061
582.9298	0.0028
583.122	0.0007
583.3142	0.0011
583.5063	0.0005
583.6985	-0.0005
583.8906	-0.0009
584.0827	-0.0033
584.2749	-0.0003
584.4669	-0.0017
584.659	-0.0034
584.8511	-0.0058
585.0431	-0.0009
585.2352	0.0024
585.4272	-0.0055
585.6192	0.0033
585.8111	0.0042
586.0031	0.0054
586.195	-0.0031
586.387	0.0023
586.5789	-0.0034
586.7708	0.0036
586.9627	-0.0027
587.1545	-0.0054
587.3464	0.0042
587.5382	0.0048
587.73	0.0027
587.9218	0.0114
588.1136	0.003
588.3053	0.0046
588.4971	0.0026
588.6888	-0.007
588.8805	-0.0015
589.0722	0.0025
589.2639	-0
589.4556	0.008
589.6472	-0.0085
589.8389	-0.0048
590.0305	-0.0077
590.2221	0.0034
590.4137	-0.012
590.6052	0.0059
590.7968	-0.0044
590.9883	0.0037
591.1798	0.0019
591.3713	-0.0042
591.5628	0.0079
591.7543	0.0011
591.9458	-0.0033
592.1372	0.0053
592.3286	0.0131
592.52	0.0091
592.7114	0.0008
592.9028	-0.0022
593.0941	-0.0069
593.2855	-0.0025
593.4768	-0.0057
593.6681	-0.0044
593.8594	-0.0068
594.0506	0.0071
594.2419	0.0107
594.4331	0.0132
594.6244	0.0059
594.8156	-0.0042
595.0067	-0.0007
595.1979	0.0004
595.3891	-0.0011
595.5802	0.0026
595.7713	-0.0001
595.9624	-0.005
596.1535	0.0069
596.3446	-0.0002
596.5357	0.0017
596.7267	0.0049
596.9177	-0.0017
597.1087	-0.0037
597.2997	-0.0015
597.4907	0.0017
597.6817	-0.0027
597.8726	-0.0003
598.0635	-0.0009
598.2544	0.0021
598.4453	-0.0038
598.6362	-0.0027
598.827	-0.0039
599.0179	0.002
599.2087	-0.0031
599.3995	0.0027
599.5903	-0.0044
599.7811	0.0007
599.9718	0.0021
600.1626	-0.0087
600.3533	-0.001
600.544	0.0016
600.7347	-0.0037
600.9254	-0.0016
601.116	-0.0102
601.3067	0.0005
601.4973	0.0004
601.6879	0.0085
601.8785	-0.002
602.0691	-0.0027
602.2596	0.0071
602.4502	0.0038
602.6407	0.0071
602.8312	-0.0025
603.0217	-0.0059
603.2122	0
603.4027	-0.0021
603.5931	0.0038
603.7835	-0.0034
603.9739	-0.0058
604.1643	-0.0042
604.3547	-0.0051
604.5451	0.0006
604.7354	0.0014
604.9257	-0.0074
605.116	-0.0042
605.3063	0.0087
605.4966	0.0051
605.6869	0.0062
605.8771	0.0085
606.0673	0.0058
606.2575	0.0015
606.4477	0.0061
606.6379	0.0046
606.8281	-0.0006
607.0182	0.0034
607.2083	0.0068
607.3985	-0.0011
607.5885	0.0048
607.7786	0.0068
607.9687	-0.0029
608.1587	0.0044
608.3488	0.0047
608.5388	-0.0016
608.7288	0.0009
608.9187	-0.0033
609.1087	-0.0076
609.2986	-0.003
609.4886	0.0001
609.6785	-0.0032
609.8684	0.0102
610.0582	0.0073
610.2481	0.0086
610.4379	-0.0005
610.6278	-0.0071
610.8176	0.0006
611.0074	-0.0016
611.1971	-0.0015
611.3869	-0.002
611.5766	-0.006
611.7664	0.0063
611.9561	0.011
612.1458	0.0021
612.3354	-0.0077
612.5251	0.0011
612.7147	0.008
612.9044	0.001
613.094	-0.0005
613.2836	0.0011
613.4731	-0.0054
613.6627	-0.0048
613.8522	0.0116
614.0417	0.0031
614.2313	-0.0102
614.4207	-0.0115
614.6102	-0.0003
614.7997	0
614.9891	-0.0045
615.1785	-0.0017
615.3679	-0.0068
615.5573	0.0118
615.7467	0.0054
615.9361	-0.005
616.1254	-0.0068
616.3147	0.0035
616.504	0.0034
616.6933	0.003
616.8826	0.0084
617.0718	-0.0037
617.2611	0.0038
617.4503	-0.0011
617.6395	0.0012
617.8287	0.0019
618.0179	-0.0014
618.207	0.0096
618.3961	0.0028
618.5853	-0.0031
618.7744	0.0119
618.9634	0.0041
619.1525	0.0083
619.3416	0.0051
619.5306	0.0052
619.7196	0.0009
619.9086	-0.0012
620.0976	0.0078
620.2866	0.0028
620.4755	0.0077
620.6645	0.0063
620.8534	0.0034
621.0423	0.0037
621.2312	0.0039
621.42	-0.0007
621.6089	0.0004
621.7977	0.0034
621.9865	-0.0051
622.1753	0.0073
622.3641	0.0035
622.5529	0.0122
622.7416	0.0049
622.9303	-0.0064
623.1191	0.0068
623.3078	-0.0065
623.4964	0.0032
623.6851	-0.0021
623.8737	0.004
624.0624	0.0057
624.251	-0.0017
624.4396	-0.0093
624.6282	-0.0053
624.8167	-0.0025
625.0053	0.0111
625.1938	0.0069
625.3823	0.0012
625.5708	0.0055
625.7593	-0.0027
625.9477	-0.0011
626.1362	-0.0095
626.3246	-0.002
626.513	0.003
626.7014	0.0069
626.8898	-0.0018
627.0781	-0.0037
627.2665	-0.0036
627.4548	0.0034
627.6431	0.0044
627.8314	0.0015
628.0197	0.0028
628.2079	-0.0045
628.3962	-0.0007
628.5844	0.0067
628.7726	0.0089
628.9608	0.003
629.1489	0.0071
629.3371	0.0063
629.5252	-0.0024
629.7134	0.0164
629.9015	0.0054
630.0895	0.0012
630.2776	0.004
630.4657	-0.0062
630.6537	-0.0032
630.8417	0.0022
631.0297	-0.0068
631.2177	-0.0005
631.4057	-0.006
631.5936	0.0049
631.7815	0.0008
631.9695	0.0045
632.1574	0.0072
632.3452	0.0121
632.5331	0.0027
632.7209	0.0019
632.9088	0.0077
633.0966	0.0102
633.2844	0.002
633.4722	0.004
633.6599	0.0063
633.8477	0.0079
634.0354	0.002
634.2231	0.0018
634.4108	-0.0027
634.5985	0.0038
634.7861	0.0017
634.9738	-0.005
635.1614	0.0037
635.349	0.001
635.5366	-0.0103
635.7242	-0.0003
635.9117	0.0072
636.0993	0.001
636.2868	0.002
636.4743	0.0027
636.6618	0.0149
636.8492	0.0036
637.0367	0.0012
637.2241	-0.0082
637.4115	-0.0032
637.5989	0.0012
637.7863	0.0035
637.9737	-0.0014
638.161	-0.0046
638.3484	-0.0028
638.5357	0.0077
638.723	-0.0021
638.9103	0.0058
639.0975	0.0037
639.2848	0.0027
639.472	-0.0054
639.6592	0.0046
639.8464	0.0039
640.0336	0.0111
640.2208	-0.0023
640.4079	-0.0024
640.595	0.0082
640.7821	-0.0013
640.9692	-0.0036
641.1563	-0.0055
641.3434	0.0008
641.5304	-0.0032
641.7174	-0.0073
641.9044	-0.0011
642.0914	-0.0053
642.2784	-0.0019
642.4653	0.0117
642.6523	0.0001
642.8392	-0.0035
643.0261	0.0034
643.213	0.0041
643.3999	-0.0036
643.5867	0.0001
643.7735	0.004
643.9604	-0.0003
644.1472	-0.0012
644.3339	0.0036
644.5207	-0.0005
644.7075	-0.0003
644.8942	-0.0034
645.0809	0.0037
645.2676	0.0069
645.4543	-0.0092
645.6409	0.0014
645.8276	-0.0001
646.0142	0.0019
646.2008	-0.0073
646.3874	-0.0029
646.574	-0.0047
646.7605	-0.0028
646.9471	-0.0096
647.1336	0
647.3201	0.0064
647.5066	-0.0046
647.6931	0.0038
647.8795	-0.0077
648.0659	0.0075
648.2524	0.0006
648.4388	-0.0047
648.6252	0.0071
648.8115	-0.0009
648.9979	-0.0065
649.1842	0.0002
649.3705	0.0033
649.5568	0.0063
649.7431	0.0017
649.9294	0.0012
650.1156	0.0062
650.3018	0.0011
650.488	0.0041
650.6742	0.0043
650.8604	-0.0008
651.0466	-0.0028
651.2327	-0.0001
651.4188	0.0018
651.6049	-0.0043
651.791	-0.0032
651.9771	0.0074
652.1632	0.0033
652.3492	0.0048
652.5352	-0.0012
652.7212	-0.0026
652.9072	0.0026
653.0932	0.0006
653.2791	-0.0084
653.465	0.0019
653.651	-0.0069
653.8369	-0.0074
654.0227	-0.0031
654.2086	0.0015
654.3944	0.0022
654.5803	0.0032
654.7661	-0.0069
654.9519	-0.0009
655.1377	-0.0028
655.3234	-0.0026
655.5092	-0.0036
655.6949	-0.006
655.8806	-0.0007
656.0663	-0.0003
656.2519	-0.0031
656.4376	-0.0084
656.6232	-0.0016
656.8088	-0.0065
656.9945	0.0015
657.18	0.0018
657.3656	0.0029
657.5511	-0.0003
657.7367	-0.0101
657.9222	0.0004
658.1077	-0.002
658.2932	0.004
658.4786	-0.0073
658.6641	-0.0014
658.8495	0.0017
659.0349	-0.0012
659.2203	0.0042
659.4057	0.001
659.591	-0.002
659.7764	-0.0107
659.9617	-0.0008
660.147	-0.0039
660.3323	-0.0051
660.5176	0.0041
660.7028	-0.0056
660.888	0.008
661.0733	-0.005
661.2585	-0.0055
661.4436	-0.0097
661.6288	-0.0094
661.8139	-0.0091
661.9991	0.0003
662.1842	-0.0055
662.3693	0.0023
662.5544	-0.0029
662.7394	-0.0004
662.9245	-0.0039
663.1095	-0.0048
663.2945	-0.004
663.4795	-0.0048
663.6644	0.0061
663.8494	-0.0005
664.0343	0.0039
664.2193	-0.0033
664.4042	-0.0048
664.589	-0.0051
664.7739	-0.0047
664.9587	0.0044
665.1436	-0.0011
665.3284	-0.0031
665.5132	-0.0045
665.698	0.0018
665.8827	0.0061
666.0675	-0.0003
666.2522	-0.0014
666.4369	0.0007
666.6216	0.0108
666.8063	0.0057
666.9909	0.0004
667.1756	0.0037
667.3602	0.0003
667.5448	-0.0017
667.7294	0.0088
667.9139	0.0022
668.0985	0.0109
668.283	-0.0036
668.4675	0.0016
668.652	-0.0001
668.8365	0.0033
669.0209	0.0072
669.2054	0.0106
669.3898	0.0054
669.5742	0.0075
669.7586	0.0081
669.943	0.008
670.1273	0.0067
670.3117	0.0008
670.496	0.0053
670.6803	0.0161
670.8646	0.0044
671.0488	0.0038
671.2331	0.012
671.4173	0.0066
671.6015	0.0088
671.7857	0.0073
671.9699	0.0039
672.1541	0.0052
672.3382	0.0011
672.5223	0.0092
672.7064	0.0117
672.8905	0.0076
673.0746	0.0036
673.2587	0.0035
673.4427	0.0025
673.6267	0.0075
673.8107	0.0054
673.9947	0.0013
674.1787	-0.0012
674.3626	-0.0062
674.5465	-0.0059
674.7304	0.0046
674.9143	0.0065
675.0982	-0.0007
675.2821	-0.0057
675.4659	0.0054
675.6497	0.001
675.8335	0.0046
676.0173	0.0017
676.2011	-0.0025
676.3849	-0.0028
676.5686	-0.0046
676.7523	0.0082
676.936	0.0014
677.1197	-0.0005
677.3034	-0.0043
677.487	0.012
677.6706	0.0027
677.8542	0.0056
678.0378	0.003
678.2214	0.0033
678.405	0.0062
678.5885	-0.0043
678.772	-0.002
678.9555	-0.0072
679.139	0.0007
679.3225	-0.0027
679.5059	0.0021
679.6894	0.0096
679.8728	-0.0031
680.0562	-0.0093
680.2395	-0.0006
680.4229	-0.0008
680.6062	-0.0001
680.7896	0.0019
680.9729	-0.0109
681.1562	0.0015
681.3394	0.0017
681.5227	-0.007
681.7059	-0.0003
681.8891	-0.0071
682.0723	0.0065
682.2555	-0.0008
682.4387	0.0007
682.6218	-0.0047
682.805	-0.0033
682.9881	0.0018
683.1712	-0.0102
683.3542	-0.0003
683.5373	0.0041
683.7203	-0.0063
683.9034	0.003
684.0864	-0.0083
684.2694	0.0012
684.4523	0.0045
684.6353	-0.0024
684.8182	0.0012
685.0011	-0.0105
685.184	-0.0026
685.3669	-0.0018
685.5498	0.0086
685.7326	0.001
685.9154	-0.0042
686.0982	0.0079
686.281	0.0126
686.4638	0.0062
686.6465	0.0061
686.8293	0.0009
687.012	0.0089
687.1947	-0.0035
687.3774	0.004
687.56	-0.0033
687.7427	0.0001
687.9253	0.0002
688.1079	-0.0106
688.2905	0.0074
688.4731	0.0012
688.6556	-0.0066
688.8382	-0.0035
689.0207	0.0028
689.2032	-0.0055
689.3857	-0.0024
689.5681	0.0052
689.7506	-0.005
689.933	-0.0054
690.1154	0.0042
690.2978	-0.0013
690.4802	-0.0009
690.6626	-0.0101
690.8449	0.0002
691.0272	0.0002
691.2095	-0.0037
691.3918	-0.0056
691.5741	-0.0028
691.7563	-0.0067
691.9386	0.0025
692.1208	-0.0038
692.303	0.0057
692.4852	-0.0033
692.6673	-0.0071
692.8495	-0.0072
693.0316	-0.0042
693.2137	0.0019
693.3958	0.004
693.5778	0.0035
693.7599	0.008
693.9419	0.006
694.1239	-0.0023
694.3059	-0.0044
694.4879	0.0114
694.6699	0.0025
694.8518	0.003
695.0337	0.002
695.2157	0.0057
695.3975	0.0032
695.5794	0.0102
695.7613	0.0059
695.9431	0.002
696.1249	0.0083
696.3067	0.004
696.4885	0.0051
696.6703	-0.0047
696.852	-0.0013
697.0337	0.0057
697.2154	0.0031
697.3971	-0.0002
697.5788	-0.0002
697.7605	-0.005
697.9421	-0.001
698.1237	-0.0013
698.3053	-0.0024
698.4869	-0.0045
698.6685	-0.0119
698.85	-0.0063
699.0315	0.0096
699.213	-0.0062
699.3945	0.0016
699.576	0.0046
699.7575	0.0079
699.9389	0.0024
700.1203	-0.001
700.3017	-0.0014
700.4831	-0.004
700.6645	-0.0014
700.8458	0.0129
701.0271	0.0018
701.2084	0.0065
701.3897	0.0024
701.571	0.0054
701.7523	-0.0058
701.9335	0.0033
702.1147	-0.0026
702.2959	-0.0002
702.4771	-0.0092
702.6583	-0.002
702.8394	-0.0001
703.0205	0.0043
703.2016	-0.0027
703.3827	-0.0044
703.5638	0.0057
703.7449	0.0053
703.9259	0.0108
704.1069	-0.0069
704.2879	0.0103
704.4689	0.0004
704.6499	-0.0013
704.8308	-0.0038
705.0117	0.0008
705.1927	0.0012
705.3735	-0.0003
705.5544	-0.0042
705.7353	-0.0031
705.9161	-0.0098
706.0969	-0.0056
706.2777	0.0011
706.4585	-0.0027
706.6393	0.0008
706.82	-0.0064
707.0007	0.0057
707.1815	0.0072
707.3621	0.0139
707.5428	-0.0025
707.7235	0.0062
707.9041	-0.002
708.0847	-0.015
708.2653	-0.0126
708.4459	-0.011
708.6265	0.0031
708.807	-0.0025
708.9875	-0.0024
709.168	0.0052
709.3485	0.0033
709.529	0.0019
709.7095	-0.0075
709.8899	0.0041
710.0703	-0.0146
710.2507	0.004
710.4311	-0.0011
710.6115	-0.0137
710.7918	-0.0042
710.9721	-0.0035
711.1524	-0.0131
711.3327	-0.0025
711.513	-0.0019
711.6932	-0.0024
711.8735	0.0003
712.0537	0.0049
712.2339	-0.0004
712.4141	-0.0064
712.5942	-0.0121
712.7744	0.0004
712.9545	-0.0122
713.1346	-0.0054
713.3147	-0.009
713.4947	-0.0069
713.6748	-0.0094
713.8548	-0.0094
714.0348	0.0001
714.2148	-0.0089
714.3948	0.0081
714.5748	0.0016
714.7547	-0.0009
714.9346	0.0017
715.1145	-0.0061
715.2944	-0.005
715.4743	-0.0036
715.6541	-0.001
715.834	0.0049
716.0138	-0.0055
716.1936	-0.0063
716.3733	-0.006
716.5531	0.0029
716.7328	-0.0026
716.9126	-0.0007
717.0923	-0.0037
717.2719	-0.0053
717.4516	0.0001
717.6312	0.0001
717.8109	-0.0009
717.9905	0.005
718.1701	-0.0019
718.3496	-0.0073
718.5292	-0.0039
718.7087	-0.0034
718.8882	0.0001
719.0677	0.0097
719.2472	-0.0005
719.4267	0.0067
719.6061	0.0064
719.7856	0.0036
719.965	-0.0005
720.1443	-0.0047
720.3237	0.0154
720.5031	0.01
720.6824	0.0017
720.8617	-0.0004
721.041	0.0071
721.2203	0.0126
721.3995	0.0114
721.5788	0.0121
721.758	0.0125
721.9372	0.0015
722.1164	0.0002
722.2956	0.0073
722.4747	0.0007
722.6538	0.0052
722.8329	0.0138
723.012	0.017
723.1911	0.0042
723.3702	0.006
723.5492	0.0097
723.7282	-0.0057
723.9072	0.002
724.0862	-0.002
724.2652	-0.0012
724.4441	-0.0026
724.623	0.0013
724.8019	-0.0088
724.9808	0.0022
725.1597	-0.0053
725.3385	0.0097
725.5174	-0.0023
725.6962	0.0031
725.875	0.0082
726.0538	0.0018
726.2325	0.0027
726.4112	0.0046
726.59	-0.0027
726.7687	-0.0107
726.9474	0.0042
727.126	-0.0011
727.3047	-0.0019
727.4833	0.0058
727.6619	-0.0048
727.8405	-0.0132
728.0191	-0.0102
728.1976	-0.0054
728.3762	0.0036
728.5547	-0.0006
728.7332	-0.0096
728.9116	0.0052
729.0901	0.0018
729.2686	-0.0064
729.447	0.0001
729.6254	0.0021
729.8038	-0.0014
729.9821	-0.0146
730.1605	-0.0058
730.3388	-0.0023
730.5171	0.0028
730.6954	-0.0069
730.8737	0.005
731.0519	0.0082
731.2302	0.0064
731.4084	0.0131
731.5866	0.0141
731.7648	0.0079
731.9429	0.0032
732.1211	-0.0032
732.2992	0.0039
732.4773	-0.0065
732.6554	0.0069
732.8335	-0.0007
733.0115	0.0031
733.1896	0.0134
733.3676	-0.007
733.5456	0.0025
733.7235	0.0117
733.9015	0.0049
734.0794	-0.0003
734.2574	-0.005
734.4353	-0.0029
734.6131	0.0044
734.791	0.004
734.9689	0.0037
735.1467	0.0019
735.3245	-0.0083
735.5023	-0.0171
735.68	-0.0044
735.8578	0.0035
736.0355	-0.0182
736.2132	-0.0114
736.3909	-0.0041
736.5686	-0.0081
736.7463	0.0074
736.9239	-0.0072
737.1015	-0.0039
737.2791	-0.0038
737.4567	-0.0045
737.6343	-0.006
737.8118	-0.0025
737.9894	-0.0004
738.1669	-0.0111
738.3444	-0.0125
738.5218	-0.0036
738.6993	-0.0056
738.8767	-0.0042
739.0541	0.0078
739.2315	0.002
739.4089	-0.0005
739.5863	0.0049
739.7636	-0.0096
739.9409	-0.0013
740.1182	0.0104
740.2955	0.0041
740.4728	0.0007
740.65	0.0002
740.8272	-0.0076
741.0044	-0.0082
741.1816	0.0004
741.3588	-0.0108
741.5359	-0.0105
741.7131	-0.0196
741.8902	-0.0003
742.0673	-0.0062
742.2444	-0.004
742.4214	-0.0089
742.5985	-0.008
742.7755	-0.0121
742.9525	-0.0144
743.1295	0.003
743.3064	-0.0023
743.4834	0.0112
743.6603	-0.0073
743.8372	-0.0045
744.0141	0.0002
744.191	-0.0061
744.3678	-0.005
744.5446	-0.0021
744.7215	0.003
744.8982	0.0019
745.075	-0.009
745.2518	0.0113
745.4285	0.0031
745.6052	0.0028
745.7819	0.0005
745.9586	-0.0032
746.1353	0.0065
746.3119	-0.005
746.4885	0.0031
746.6651	0.0018
746.8417	0.0068
747.0183	0.0084
747.1948	-0
747.3714	0.0051
747.5479	0.0011
747.7244	0.0014
747.9008	0.0075
748.0773	0.0036
748.2537	-0.0012
748.4301	0.0001
748.6065	0.0096
748.7829	0.0007
748.9593	-0.0048
749.1356	0.0027
749.3119	0.0103
749.4882	-0.0085
749.6645	0.0121
749.8408	-0.002
750.017	-0.0086
750.1933	0.0065
750.3695	-0.0082
750.5457	0.0016
750.7218	0.0036
750.898	0.0123
751.0741	0.0052
751.2502	0.008
751.4263	-0.0079
751.6024	0.0002
751.7784	-0.0024
751.9545	-0.0018
752.1305	-0
752.3065	-0.0013
752.4825	-0.001
752.6584	-0.0046
752.8344	-0.0058
753.0103	-0.0078
753.1862	-0.0056
753.3621	-0.007
753.5379	-0.013
753.7138	0.0064
753.8896	-0.0045
754.0654	0.0016
754.2412	0.0084
754.417	-0.0039
754.5927	-0.014
754.7685	0.002
754.9442	0.0064
755.1199	0.0111
755.2956	-0.0017
755.4712	0.0055
755.6469	0.0002
755.8225	-0.0028
755.9981	-0.0107
756.1736	0.0049
756.3492	-0.0064
756.5248	-0.0073
756.7003	0.0006
756.8758	0.0124
757.0513	-0.0149
757.2267	-0.0003
757.4022	-0.0053
757.5776	-0.0103
757.753	0.0094
757.9284	0.0018
758.1038	0.0088
758.2791	-0.002
758.4545	-0.0074
758.6298	-0.0011
758.8051	0.0095
758.9803	0.0026
759.1556	0.004
759.3308	0.0095
759.506	0.0076
759.6812	0.0172
759.8564	0.0112
760.0316	0.0071
760.2067	0.0074
760.3819	0.012
760.557	0.009
760.732	-0.0009
760.9071	-0.0052
761.0821	-0.0031
761.2572	0.0011
761.4322	0.0036
761.6072	-0.0007
761.7821	-0.0084
761.9571	-0.0048
762.132	-0.0023
762.3069	-0.0144
762.4818	-0.015
762.6567	0.0015
762.8316	-0.0028
763.0064	-0.0096
763.1812	0.0013
763.356	-0.0034
763.5308	-0.011
763.7055	-0.0018
763.8803	0.0028
764.055	-0.0035
764.2297	0.0083
764.4044	-0.0082
764.579	-0.008
764.7537	-0.0079
764.9283	0.0029
765.1029	-0.0098
765.2775	-0.0055
765.4521	-0.0052
765.6266	-0.0015
765.8011	-0.0027
765.9756	-0.0041
766.1501	0.0009
766.3246	0.0092
766.4991	0.0028
766.6735	0.0008
766.8479	-0.0023
767.0223	0.0114
767.1967	0.0079
767.371	-0.005
767.5454	0.0049
767.7197	-0.001
767.894	0.0023
768.0683	-0.0075
768.2425	-0.0013
768.4168	0.0024
768.591	0.0041
768.7652	0.0013
768.9394	-0.0117
769.1135	-0.0035
769.2877	0.0052
769.4618	-0.0005
769.6359	0.0142
769.81	0.0033
769.984	0.0013
770.1581	-0.0071
770.3321	0.0054
770.5061	-0.0016
770.6801	-0.0037
770.8541	0.0011
771.028	0.0137
771.202	-0.0037
771.3759	0.005
771.5498	-0.0004
771.7236	0.005
771.8975	-0.0008
772.0713	0.0058
772.2451	-0.0023
772.4189	0.0196
772.5927	0.0111
772.7665	0.008
772.9402	-0.0094
773.1139	0.0012
773.2876	-0.0131
773.4613	0.0035
773.635	0.0042
773.8086	-0.0087
773.9822	0.0176
774.1558	0.0117
774.3294	-0.0142
774.503	0.0036
774.6765	0.0055
774.8501	0.02
775.0236	0.0045
775.1971	0.0131
775.3705	-0.0079
775.544	0.0052
775.7174	-0.0053
775.8908	0.0008
776.0642	-0.0067
776.2376	-0.0019
776.4109	-0.0092
776.5843	0.0021
776.7576	-0.0026
776.9309	0.0118
777.1041	0.0091
777.2774	-0.001
777.4506	0.0024
777.6238	-0.0129
777.797	-0.0077
777.9702	-0.0072
778.1434	-0.01
778.3165	-0.0126
778.4896	-0.0007
778.6627	0.0163
778.8358	-0.0002
779.0089	0.0028
779.1819	-0.0059
779.3549	0.009
779.5279	0.0144
779.7009	-0.0051
779.8739	0.0009
780.0468	-0.0017
780.2197	0.0107
780.3926	0.0026
780.5655	-0.0024
780.7384	-0.0033
780.9112	0.0008
781.0841	0.0013
781.2569	-0.0062
781.4297	0.0014
781.6024	0.006
781.7752	0.0054
781.9479	0.0103
782.1206	0.0077
782.2933	-0.0148
782.466	0.0065
782.6386	0.0002
782.8113	0.0043
782.9839	0.0128
783.1565	-0.0005
783.329	0.0156
783.5016	0.0065
783.6741	0.0066
783.8466	-0.002
784.0191	0.0223
784.1916	-0.0029
784.3641	-0.0016
784.5365	0.0018
784.7089	0.0069
784.8813	-0.0137
785.0537	-0.0071
785.2261	-0.0004
785.3984	-0.0136
785.5707	0.0036
785.743	0.0029
785.9153	-0.0082
786.0876	-0.0021
786.2598	-0.006
786.432	-0.024
786.6042	-0.0001
786.7764	-0.0077
786.9486	0.0102
787.1207	0.0078
787.2928	0.019
787.4649	0.007
787.637	0.0132
787.8091	-0.0054
787.9811	0.0013
788.1532	0.0059
788.3252	0.0108
788.4972	-0.0021
788.6691	-0.0025
788.8411	0.0043
789.013	-0.0002
789.1849	0.0088
789.3568	0.0124
789.5287	0.0123
789.7005	-0.0066
789.8723	0.0091
790.0442	0.025
790.2159	0.0062
790.3877	0.0207
790.5595	-0.0151
790.7312	0.0171
790.9029	0.001
791.0746	0.0095
791.2463	0.0063
791.4179	0.001
791.5896	-0.0111
791.7612	0.0044
791.9328	0.0229
792.1044	-0.0078
792.2759	-0.0176
792.4474	0.0028
792.619	0.0082
792.7905	0.0183
792.9619	0.0148
793.1334	0.0138
793.3048	0.0064
793.4762	0.0114
793.6476	0.0025
793.819	-0.0025
793.9904	0.0091
794.1617	-0.0144
794.333	-0.0114
794.5043	-0.0071
794.6756	-0.0001
794.8469	0.0009
795.0181	-0.0095
795.1893	0.0044
795.3605	0.0178
795.5317	0.0017
795.7029	-0.002
795.874	-0.001
796.0452	-0.0037
796.2163	0.0009
796.3873	0.0295
796.5584	0.0113
796.7294	0.0083
796.9005	0.0022
797.0715	0.013
797.2425	-0.0076
797.4134	0.0024
797.5844	0.0092
797.7553	-0.0024
797.9262	-0.0023
798.0971	0.0001
798.2679	0.0031
798.4388	-0.0091
798.6096	-0.0058
798.7804	0.0057
798.9512	0.0131
799.122	0.0087
799.2927	0.0099
799.4635	0.028
799.6342	-0.0039
799.8049	0.0028
799.9755	0.0011
800.1462	0.0039
800.3168	0.0108
800.4874	-0.0055
800.658	0.0274
800.8286	0.0303
800.9991	0.0144
801.1696	0.0113
801.3402	0.0076
801.5106	0.0075
801.6811	-0.0003
801.8516	0.0242
802.022	0.0098
802.1924	0.0069
802.3628	0.0211
802.5332	0.0133
802.7035	0.0211
802.8739	0.02
803.0442	-0.0014
803.2145	0.0048
803.3847	-0.0027
803.555	-0.0115
803.7252	0.0078
803.8954	-0.0203
804.0656	-0.0041
804.2358	0.0001
804.4059	0.0225
804.5761	0.0224
804.7462	0.0134
804.9163	0.0118
805.0864	0.0076
805.2564	0.0215
805.4264	0.029
805.5965	0.0057
805.7665	0.0236
805.9364	0.0116
806.1064	0.0239
806.2763	0.0204
806.4462	0.023
806.6161	0.0161
806.786	0.006
806.9559	0.0023
807.1257	0.0064
807.2955	0.0106
807.4653	0.007
807.6351	-0.0132
807.8048	0.0096
807.9746	0.0137
808.1443	0.0075
808.314	0.0015
808.4837	0.0015
808.6533	0.0008
808.8229	0.0092
808.9926	0.0119
809.1622	0.0222
809.3317	0.0213
809.5013	0.019
809.6708	0.0165
809.8403	0.0136
810.0098	0.0257
810.1793	0.0013
810.3488	-0.0014
810.5182	0.0091
810.6876	0.0139
810.857	0.0087
811.0264	0.0231
811.1958	0.0079
811.3651	0.0271
811.5344	0.014
811.7037	0.0142
811.873	0.0169
812.0422	0.0216
812.2115	0.0146
812.3807	0.0015
812.5499	0.0401
812.7191	0.0287
812.8882	0.0261
813.0574	0.0216
813.2265	-0.0029
813.3956	0.0172
813.5646	0.0193
813.7337	-0.0074
813.9027	0.0203
814.0718	0.044
814.2407	0.0216
814.4097	0.01
814.5787	0.0303
814.7476	0.0142
814.9165	0.0074
815.0854	-0.0005
815.2543	0.0091
815.4232	0.0139
815.592	0.0266
815.7608	0.0188
815.9296	0.0211
816.0984	0.0186
816.2671	0.0207
816.4359	-0.0029
816.6046	0.0407
816.7733	0.0112
816.942	0.0007
817.1106	0.0401
817.2793	0.0135
817.4479	0.0348
817.6165	0.0122
817.785	0.0315
817.9536	0.0101
818.1221	0.0259
818.2906	0.0292
818.4591	0.0044
818.6276	0.0156
818.7961	0.0108
818.9645	0.0136
819.1329	0.0287
819.3013	0.0248
819.4697	0.0554
819.638	-0.005
819.8064	0.0271
819.9747	0.02
820.143	0.0037
820.3113	-0.0042
820.4795	0.0209
820.6477	0.0036
820.816	0.0212
820.9842	0.0284
821.1523	0.0144
821.3205	-0.0027
821.4886	0.0347
821.6567	0.0255
821.8248	0.0117
821.9929	0.0323
822.1609	0.0127
822.329	0.0263
822.497	0.0483
822.665	-0.0034
822.833	0.0079
823.0009	0.0349
823.1688	0.0237
823.3367	0.0197
823.5046	0.0149
823.6725	0.0381
823.8404	0.0207
824.0082	0.0364
824.176	0.0113
824.3438	0.0074
824.5116	-0.0183
824.6793	0.0397
824.847	-0.0197
825.0147	-0.002
825.1824	0.0281
825.3501	0.0304
825.5177	0.006
825.6854	0.0036
825.853	0.0313
826.0206	-0.0261
826.1881	0.0332
826.3557	-0.0396
826.5232	0.033
826.6907	-0.0145
826.8582	0.0093
827.0257	0.019
827.1931	0.0257
827.3605	0.0252
827.528	0.0044
827.6953	-0.0075
827.8627	-0.0003
828.03	0.0227
828.1974	0.0116
828.3647	-0.0364
828.532	0.0209
828.6992	0.0193
828.8665	-0.0055
829.0337	0.0322
829.2009	0.0238
829.3681	0.0126
829.5352	0.0373
829.7024	-0.0234
829.8695	-0.0384
830.0366	0.0127
830.2037	0.0058
830.3707	0.0096
830.5378	-0.0009
830.7048	0.0371
830.8718	0.0013
831.0388	-0.0244
831.2057	0.0317
831.3727	0.0497
831.5396	-0.0127
831.7065	-0.0233
831.8734	0.0298
832.0402	-0.0358
832.2071	0.0269
832.3739	-0.0117
832.5407	0.0148
832.7075	0.0116
832.8742	-0.0131
833.041	0.0124
833.2077	-0.0053
833.3744	0.0152
833.541	0.0263
833.7077	-0.0217
833.8743	-0.0165
834.0409	0.0234
834.2075	-0.016
834.3741	0.0127
834.5407	0.0285
834.7072	0.0131
834.8737	-0.0064
835.0402	0.0323
835.2067	-0.0041
835.3731	0.0116
835.5395	0.0411
835.706	0.0366
835.8723	0.0046
836.0387	0.0077
836.2051	0.0108
836.3714	-0.0039
836.5377	0.0199
836.704	0.0485
836.8703	0.0057
837.0365	-0.0092
837.2027	-0.0276
837.3689	0.0279
837.5351	-0.0138
837.7013	-0.0237
837.8674	-0.0398
838.0335	-0.023
838.1997	-0.0157
838.3657	0.0448
838.5318	0.0032
838.6978	0.0112
838.8639	0.0514
839.0299	0.0188
839.1958	0.0203
839.3618	-0.0023
839.5277	0.0151
839.6937	0.024
839.8596	-0.0113
840.0254	0.0329
840.1913	0.0197
840.3571	0.0416
840.523	-0.0201
840.6888	-0.0006
840.8545	0.0042
841.0203	0.0445
841.186	0.0531
841.3517	0.0233
841.5174	0.0227
841.6831	0.0387
841.8488	0.0196
842.0144	0.0133
842.18	0.0431
842.3456	0.0793
842.5112	0.033
842.6767	-0.0489
842.8422	-0.0246
843.0077	-0.0158
843.1732	-0.0156
843.3387	-0.0053
843.5042	-0.0503
843.6696	0.0265
843.835	-0.0359
844.0004	0.0766
844.1657	0.0413
844.3311	-0.0532
844.4964	-0.0883
844.6617	-0.051
844.827	0.0158
844.9923	-0.012
845.1575	-0.0032
845.3227	0.0254
845.4879	0.0095
845.6531	-0.0722
845.8183	-0.0952
845.9834	0.0209
846.1485	-0.0136
846.3136	-0.0396
846.4787	-0.0803
846.6438	0.0605
846.8088	-0.0254
846.9738	-0.063
847.1388	-0.0625
847.3038	0.0143
847.4687	-0.1391
847.6337	0.0109
847.7986	-0.0228
847.9635	-0.0211
848.1284	0.0511
848.2932	0.0531
848.458	0.0023
848.6228	0.125
848.7876	0.0772
848.9524	-0.0097
849.1172	-0.0506
849.2819	0.0415
849.4466	-0.0783
849.6113	-0.0367
849.7759	-0.1023
849.9406	-0.0691
850.1052	0.0535
850.2698	-0.1005
850.4344	-0.0033
850.599	-0.026
850.7635	0.1586
850.928	0.0446
851.0925	-0.0163
851.257	0.1088
851.4215	-0.007
851.5859	-0.0431
851.7503	0.0944
851.9147	0.0208
852.0791	-0.0655
852.2434	-0.0234
852.4078	0.0423
852.5721	0.0359
852.7364	-0.0289
852.9007	-0.1898
853.0649	-0.011
853.2291	-0.0258
853.3934	-0.0515
853.5575	-0.0647
853.7217	-0.0337
853.8859	-0.2524
854.05	-0.0585
854.2141	0.0035
854.3782	-0.0793
854.5423	-0.0665
854.7063	0.1054
854.8703	0.1251
855.0343	-0.0205
855.1983	-0.1482
855.3623	0.1798
855.5262	0.0758
855.6901	-0.0016
855.854	0.0442
856.0179	0.073
856.1818	0.0536
856.3456	0.067
856.5094	-0.0712
856.6732	-0.1378
856.837	-0.0202
857.0008	0.0813
857.1645	-0.1062
857.3282	0.0867
857.4919	-0.0177
857.6556	-0.0068
857.8192	-0.0367
857.9828	0.0718
858.1465	-0.0504
858.31	-0.1325
858.4736	-0.0354
858.6372	-0.3141
858.8007	-0.1322
858.9642	-0.0251
859.1277	0.1233
859.2911	0.2349
859.4546	0.0656
859.618	-0.3773
859.7814	-0.0186
859.9448	0.0192
860.1081	0.0833
860.2715	0.1116
860.4348	-0.1642
860.5981	0.0734
860.7614	0.2637
860.9246	-0.2229
861.0879	-0.1955
861.2511	0.0675
861.4143	-0.1084
861.5774	0.2854
861.7406	-0.2422
861.9037	0.3865
862.0668	-0.0882
862.2299	-0.0188
862.393	-0.7064
862.556	0.0221
862.7191	0.158
862.8821	-0.2486
863.0451	-0.0036
863.208	-0.099
863.371	-0.0118
863.5339	-0.2686
863.6968	0.2392
863.8597	-0.0601
864.0225	0.0525
864.1854	-0.0794
864.3482	-0.2667
864.511	0.134
864.6737	-0.1028
864.8365	0.1984
864.9992	0.2886
865.1619	0.9714
865.3246	0.4868
865.4873	-0.0626
865.65	0.2502
865.8126	0.4904
865.9752	0.1199
866.1378	-0.1807
866.3004	0.3854
866.4629	-0.0326
866.6254	-0.2472
866.7879	-0.1293
866.9504	-0
867.1129	-0.8302
867.2753	-0.0863
867.4377	-0.0435
867.6001	-0.371
867.7625	-0.0442
867.9249	-0
868.0872	0.0392
868.2495	0.0671
868.4118	-0.1046
868.5741	-0.3594
868.7363	-0.0645
868.8986	-0.591
869.0608	-0.1122
869.223	0.1491
869.3851	-0.0547
869.5473	-0
869.7094	0.0386
869.8715	-0.3747
870.0336	-0
870.1957	-0.6726
870.3577	-0.7439
870.5197	-0.1678
870.6817	0.1847
870.8437	-0.0936
871.0057	-0
871.1676	-0.4215
871.3295	0.575
871.4914	-0.6414
871.6533	-0.3705
871.8151	-0
871.977	-0
872.1388	-0
872.3006	-0
872.4623	-0
872.6241	1.7882
872.7858	0.3078
872.9475	-0.168
873.1092	-0.2038
873.2709	-0.1125
873.4325	-0
873.5941	-0.6496
873.7557	-0
873.9173	-0
874.0789	-0
874.2404	-0
874.4019	0.0139
874.5634	-0.3227
874.7249	-0.1766
874.8863	-0.0073
875.0478	0.6468
875.2092	-0
875.3706	-0.0524
875.5319	-0.7314
875.6933	-0
875.8546	0.0076
876.0159	-0
876.1772	0.412
876.3385	-0
876.4997	0.1725
876.6609	-0.3064
876.8221	-0
876.9833	0.2086
877.1445	-0
877.3056	-0.108
877.4667	0.242
877.6278	0.3959
877.7889	-0.627
877.9499	-0
878.111	-0
878.272	-0.7847
878.433	-0
878.5939	0.3695
878.7549	0.004
878.9158	-0
879.0767	-0
879.2376	-0
879.3984	-0
879.5593	-0
879.7201	0.2834
879.8809	0.1725
880.0417	-0.4406
880.2024	-0.0082
880.3632	-0
880.5239	0.1088
880.6846	0.699
880.8452	-2.6405
881.0059	-0.699
881.1665	0.3196
881.3271	-0
881.4877	0.7439
881.6483	-0.4584
881.8088	-0.3541
881.9693	-0
882.1298	-0
882.2903	-0
