Data from MonoPyChalIsomerACN10uM380nmA_Absorbance_13-38-29-149.txt Node
Date: Fri Jul 05 13:38:29 BST 2024
User: LASERRRRR
Spectrometer: FLMT03099
Trigger mode: 0
Integration Time (sec): 1.000000E-1
Scans to average: 1
Electric dark correction enabled: true
Nonlinearity correction enabled: false
Boxcar width: 0
XAxis mode: Wavelengths
Number of Pixels in Spectrum: 3648
>>>>>Begin Spectral Data<<<<<
179.3399	-0.1118
179.5586	-0.1118
179.7771	-0.1118
179.9957	0.6045
180.2143	-0
180.4329	-0.2674
180.6514	1.8379
180.8699	0.2744
181.0885	-0.3275
181.307	0.1643
181.5255	-0.7445
181.744	-0.6893
181.9625	-0
182.181	-0
182.3994	-0
182.6179	-0.2055
182.8363	-0
183.0547	-0
183.2732	0.2043
183.4916	0.2096
183.71	-0.0016
183.9284	0.1645
184.1467	0.0199
184.3651	0.1704
184.5835	-0.0195
184.8018	-0.0506
185.0201	0.0661
185.2385	-0.0171
185.4568	0.4013
185.6751	-0.0193
185.8934	0.0097
186.1117	0.0713
186.3299	0.1808
186.5482	0.3583
186.7664	-0.0799
186.9847	-0.0019
187.2029	0.0395
187.4211	0.1661
187.6393	0.4152
187.8575	-0.0781
188.0757	0.3598
188.2939	0.0016
188.512	-0.0961
188.7302	-0.0519
188.9483	0.2252
189.1665	0.3041
189.3846	-0
189.6027	0.2001
189.8208	0.4277
190.0389	0.1379
190.257	0.1845
190.475	0.2042
190.6931	0.1518
190.9111	0.2597
191.1292	0.2718
191.3472	0.4819
191.5652	0.187
191.7832	0.3255
192.0012	0.7082
192.2192	0.3822
192.4371	0.6224
192.6551	0.5855
192.873	0.3677
193.091	0.4044
193.3089	0.6038
193.5268	0.6508
193.7447	0.687
193.9626	0.4447
194.1805	0.6908
194.3984	0.9952
194.6162	0.4611
194.8341	0.5358
195.0519	0.7304
195.2697	0.8542
195.4875	0.766
195.7054	0.7831
195.9231	0.6337
196.1409	0.7025
196.3587	0.5636
196.5765	0.5428
196.7942	0.7689
197.012	0.5849
197.2297	0.6924
197.4474	1.1544
197.6651	0.806
197.8828	0.7115
198.1005	0.9278
198.3182	1.1036
198.5358	1.0062
198.7535	0.8344
198.9711	0.742
199.1888	0.6613
199.4064	1.1086
199.624	0.8501
199.8416	0.6455
200.0592	0.8941
200.2767	0.8479
200.4943	0.9503
200.7119	0.9197
200.9294	1.0458
201.1469	0.6857
201.3645	0.6407
201.582	0.7132
201.7995	0.8086
202.017	0.8693
202.2344	0.7369
202.4519	0.8526
202.6694	0.6127
202.8868	0.7499
203.1042	1.0173
203.3217	0.9231
203.5391	0.8178
203.7565	0.7386
203.9739	0.6827
204.1913	0.8394
204.4086	0.9643
204.626	0.7775
204.8433	0.7431
205.0607	0.718
205.278	0.9028
205.4953	0.7187
205.7126	0.8023
205.9299	1.2296
206.1472	0.9262
206.3644	0.69
206.5817	0.8691
206.7989	0.8689
207.0162	0.7983
207.2334	0.8822
207.4506	0.8436
207.6678	0.8336
207.885	0.7361
208.1022	0.8834
208.3194	0.8628
208.5365	0.7902
208.7537	0.7938
208.9708	0.7025
209.1879	0.873
209.405	1.067
209.6222	0.7729
209.8392	0.8118
210.0563	0.7658
210.2734	0.8229
210.4905	0.9016
210.7075	0.8216
210.9245	0.779
211.1416	0.9424
211.3586	0.8448
211.5756	0.7455
211.7926	0.8545
212.0096	0.797
212.2265	0.7904
212.4435	0.7596
212.6604	0.9482
212.8774	0.7847
213.0943	0.7778
213.3112	0.739
213.5281	0.7227
213.745	0.6876
213.9619	0.7554
214.1788	0.6996
214.3956	0.6667
214.6125	0.7158
214.8293	0.654
215.0461	0.73
215.2629	0.7003
215.4798	0.6923
215.6965	0.645
215.9133	0.6939
216.1301	0.6221
216.3469	0.6368
216.5636	0.6591
216.7803	0.6117
216.9971	0.7069
217.2138	0.5654
217.4305	0.6255
217.6472	0.6011
217.8639	0.6461
218.0805	0.631
218.2972	0.5609
218.5138	0.5757
218.7305	0.5832
218.9471	0.5478
219.1637	0.533
219.3803	0.5473
219.5969	0.5155
219.8135	0.5276
220.0301	0.56
220.2466	0.6047
220.4632	0.5419
220.6797	0.4897
220.8962	0.5161
221.1127	0.5346
221.3292	0.5454
221.5457	0.4977
221.7622	0.5251
221.9787	0.5592
222.1951	0.555
222.4116	0.5563
222.628	0.5002
222.8444	0.5662
223.0608	0.488
223.2772	0.5441
223.4936	0.5409
223.71	0.5642
223.9264	0.5603
224.1427	0.561
224.3591	0.5151
224.5754	0.5581
224.7917	0.5521
225.008	0.5816
225.2243	0.5285
225.4406	0.5415
225.6569	0.5193
225.8732	0.528
226.0894	0.5387
226.3057	0.5693
226.5219	0.5458
226.7381	0.533
226.9543	0.5414
227.1705	0.5361
227.3867	0.5494
227.6029	0.5615
227.8191	0.5735
228.0352	0.5435
228.2513	0.5548
228.4675	0.5634
228.6836	0.5569
228.8997	0.5576
229.1158	0.5409
229.3319	0.5435
229.548	0.5272
229.764	0.5653
229.9801	0.5506
230.1961	0.5568
230.4121	0.5658
230.6282	0.5804
230.8442	0.541
231.0602	0.5801
231.2761	0.5836
231.4921	0.5908
231.7081	0.5696
231.924	0.5314
232.14	0.5903
232.3559	0.5558
232.5718	0.5752
232.7877	0.5499
233.0036	0.5376
233.2195	0.5677
233.4353	0.5803
233.6512	0.5532
233.867	0.5399
234.0829	0.546
234.2987	0.5443
234.5145	0.5497
234.7303	0.5723
234.9461	0.5856
235.1619	0.5945
235.3776	0.5661
235.5934	0.5521
235.8091	0.5279
236.0249	0.549
236.2406	0.5701
236.4563	0.5371
236.672	0.5493
236.8877	0.5472
237.1034	0.5343
237.319	0.5364
237.5347	0.5602
237.7503	0.5204
237.966	0.5456
238.1816	0.5604
238.3972	0.5394
238.6128	0.5233
238.8284	0.5473
239.0439	0.5698
239.2595	0.5138
239.475	0.5531
239.6906	0.5444
239.9061	0.5227
240.1216	0.5211
240.3371	0.5447
240.5526	0.5058
240.7681	0.5167
240.9836	0.4871
241.199	0.4993
241.4145	0.4903
241.6299	0.488
241.8453	0.4824
242.0607	0.5001
242.2761	0.4509
242.4915	0.451
242.7069	0.4605
242.9223	0.4492
243.1376	0.4304
243.353	0.416
243.5683	0.4448
243.7836	0.4092
243.9989	0.4019
244.2142	0.3743
244.4295	0.3909
244.6448	0.3794
244.86	0.3828
245.0753	0.367
245.2905	0.3586
245.5057	0.351
245.721	0.3376
245.9362	0.3248
246.1514	0.3326
246.3665	0.3267
246.5817	0.3084
246.7969	0.3187
247.012	0.3063
247.2271	0.3025
247.4423	0.3007
247.6574	0.3034
247.8725	0.2835
248.0876	0.2922
248.3026	0.2866
248.5177	0.2662
248.7328	0.2643
248.9478	0.2599
249.1628	0.2556
249.3779	0.2713
249.5929	0.2294
249.8079	0.2628
250.0228	0.2386
250.2378	0.2422
250.4528	0.2373
250.6677	0.232
250.8827	0.239
251.0976	0.2427
251.3125	0.2313
251.5274	0.215
251.7423	0.2141
251.9572	0.2327
252.172	0.214
252.3869	0.2257
252.6017	0.2057
252.8166	0.205
253.0314	0.2033
253.2462	0.21
253.461	0.2125
253.6758	0.1907
253.8906	0.2022
254.1053	0.2001
254.3201	0.2029
254.5348	0.1921
254.7496	0.2064
254.9643	0.2031
255.179	0.2022
255.3937	0.2011
255.6083	0.2033
255.823	0.195
256.0377	0.1842
256.2523	0.1965
256.467	0.1846
256.6816	0.1898
256.8962	0.1974
257.1108	0.1852
257.3254	0.1981
257.54	0.1827
257.7545	0.1943
257.9691	0.1931
258.1836	0.1924
258.3981	0.1965
258.6127	0.1868
258.8272	0.1817
259.0417	0.1964
259.2561	0.1821
259.4706	0.1853
259.6851	0.1877
259.8995	0.1785
260.114	0.1783
260.3284	0.1879
260.5428	0.1736
260.7572	0.1842
260.9716	0.1994
261.186	0.181
261.4003	0.1848
261.6147	0.1854
261.829	0.1932
262.0433	0.1899
262.2577	0.1769
262.472	0.1894
262.6863	0.172
262.9005	0.1833
263.1148	0.1844
263.3291	0.1717
263.5433	0.1799
263.7576	0.1827
263.9718	0.1852
264.186	0.1906
264.4002	0.1849
264.6144	0.182
264.8286	0.1866
265.0427	0.1823
265.2569	0.1846
265.471	0.1867
265.6851	0.1702
265.8993	0.1726
266.1134	0.1771
266.3275	0.1814
266.5415	0.1619
266.7556	0.1895
266.9697	0.1889
267.1837	0.1841
267.3978	0.1729
267.6118	0.1869
267.8258	0.1767
268.0398	0.1656
268.2538	0.1866
268.4677	0.1747
268.6817	0.1662
268.8957	0.1744
269.1096	0.174
269.3235	0.1831
269.5374	0.1801
269.7514	0.1765
269.9652	0.1606
270.1791	0.1607
270.393	0.1684
270.6068	0.1673
270.8207	0.1565
271.0345	0.1573
271.2483	0.171
271.4622	0.1557
271.676	0.1792
271.8897	0.1732
272.1035	0.169
272.3173	0.1609
272.531	0.1661
272.7448	0.1597
272.9585	0.1554
273.1722	0.1517
273.3859	0.1692
273.5996	0.1544
273.8133	0.162
274.0269	0.1663
274.2406	0.1525
274.4542	0.1572
274.6679	0.1521
274.8815	0.164
275.0951	0.1682
275.3087	0.1752
275.5223	0.1652
275.7358	0.1714
275.9494	0.1632
276.1629	0.1625
276.3765	0.1569
276.59	0.1711
276.8035	0.1675
277.017	0.1732
277.2305	0.1703
277.444	0.1605
277.6574	0.16
277.8709	0.1715
278.0843	0.1586
278.2978	0.1605
278.5112	0.1623
278.7246	0.1753
278.938	0.1628
279.1513	0.1701
279.3647	0.1701
279.5781	0.1579
279.7914	0.1698
280.0047	0.1706
280.2181	0.1634
280.4314	0.1789
280.6447	0.1687
280.8579	0.1713
281.0712	0.1784
281.2845	0.1668
281.4977	0.1713
281.711	0.1592
281.9242	0.1682
282.1374	0.1787
282.3506	0.1727
282.5638	0.162
282.7769	0.1784
282.9901	0.16
283.2033	0.1736
283.4164	0.1697
283.6295	0.1606
283.8426	0.1592
284.0557	0.1692
284.2688	0.1833
284.4819	0.171
284.695	0.1701
284.908	0.1781
285.1211	0.1675
285.3341	0.1724
285.5471	0.1835
285.7601	0.1876
285.9731	0.1821
286.1861	0.1665
286.3991	0.1796
286.612	0.1858
286.825	0.1884
287.0379	0.1873
287.2508	0.1904
287.4637	0.1842
287.6766	0.1743
287.8895	0.192
288.1024	0.194
288.3152	0.1884
288.5281	0.1811
288.7409	0.1804
288.9538	0.1826
289.1666	0.1712
289.3794	0.1934
289.5922	0.1743
289.8049	0.1886
290.0177	0.1802
290.2304	0.1802
290.4432	0.1892
290.6559	0.1754
290.8686	0.1795
291.0813	0.1779
291.294	0.1859
291.5067	0.2016
291.7194	0.1862
291.932	0.1987
292.1447	0.1849
292.3573	0.1728
292.5699	0.1772
292.7825	0.1862
292.9951	0.1742
293.2077	0.1738
293.4203	0.1793
293.6328	0.1784
293.8454	0.1861
294.0579	0.1843
294.2704	0.1792
294.4829	0.1863
294.6954	0.182
294.9079	0.1808
295.1204	0.1745
295.3328	0.1768
295.5453	0.1765
295.7577	0.1886
295.9701	0.1799
296.1825	0.1854
296.3949	0.169
296.6073	0.1769
296.8197	0.1692
297.0321	0.1965
297.2444	0.1604
297.4567	0.1793
297.6691	0.1922
297.8814	0.1759
298.0937	0.1828
298.306	0.194
298.5182	0.1766
298.7305	0.185
298.9428	0.1652
299.155	0.1806
299.3672	0.1772
299.5794	0.1701
299.7916	0.1785
300.0038	0.1942
300.216	0.1862
300.4282	0.1838
300.6403	0.1726
300.8525	0.1787
301.0646	0.1752
301.2767	0.1801
301.4888	0.1691
301.7009	0.188
301.913	0.1751
302.125	0.1708
302.3371	0.1752
302.5491	0.1693
302.7612	0.1884
302.9732	0.1737
303.1852	0.179
303.3972	0.1754
303.6092	0.1737
303.8211	0.1668
304.0331	0.1695
304.245	0.1617
304.457	0.1661
304.6689	0.1691
304.8808	0.174
305.0927	0.1709
305.3046	0.1594
305.5164	0.1697
305.7283	0.1549
305.9401	0.1626
306.152	0.167
306.3638	0.1628
306.5756	0.1583
306.7874	0.1605
306.9992	0.1554
307.2109	0.157
307.4227	0.1413
307.6344	0.148
307.8462	0.1439
308.0579	0.1457
308.2696	0.1518
308.4813	0.1399
308.693	0.1368
308.9046	0.1446
309.1163	0.1359
309.328	0.1356
309.5396	0.1266
309.7512	0.1298
309.9628	0.1293
310.1744	0.1296
310.386	0.1257
310.5976	0.1299
310.8091	0.1156
311.0207	0.1186
311.2322	0.1207
311.4437	0.1035
311.6552	0.1106
311.8667	0.1312
312.0782	0.1107
312.2897	0.1073
312.5012	0.1146
312.7126	0.1093
312.924	0.1081
313.1355	0.1176
313.3469	0.1049
313.5583	0.1113
313.7696	0.0987
313.981	0.1106
314.1924	0.1009
314.4037	0.0994
314.6151	0.1092
314.8264	0.1045
315.0377	0.093
315.249	0.0995
315.4603	0.1137
315.6716	0.1138
315.8828	0.0908
316.0941	0.1013
316.3053	0.1068
316.5165	0.0979
316.7277	0.1001
316.9389	0.1096
317.1501	0.0965
317.3613	0.1041
317.5724	0.0864
317.7836	0.1045
317.9947	0.0955
318.2058	0.0914
318.417	0.0888
318.6281	0.0806
318.8391	0.0948
319.0502	0.0895
319.2613	0.0953
319.4723	0.0991
319.6834	0.1009
319.8944	0.087
320.1054	0.0972
320.3164	0.095
320.5274	0.0951
320.7383	0.0915
320.9493	0.0929
321.1602	0.1094
321.3712	0.0898
321.5821	0.1045
321.793	0.0952
322.0039	0.091
322.2148	0.0826
322.4257	0.0947
322.6365	0.0998
322.8474	0.1118
323.0582	0.0812
323.269	0.0966
323.4798	0.1006
323.6906	0.0934
323.9014	0.1066
324.1122	0.1055
324.3229	0.0948
324.5337	0.101
324.7444	0.0967
324.9551	0.1149
325.1658	0.1081
325.3765	0.0956
325.5872	0.1065
325.7979	0.1052
326.0085	0.0983
326.2192	0.1046
326.4298	0.0986
326.6404	0.0953
326.851	0.0889
327.0616	0.0966
327.2722	0.1049
327.4828	0.1067
327.6933	0.092
327.9039	0.1027
328.1144	0.1009
328.3249	0.1035
328.5354	0.1064
328.7459	0.0871
328.9564	0.0889
329.1669	0.0986
329.3773	0.0903
329.5878	0.1048
329.7982	0.1017
330.0086	0.1067
330.219	0.1058
330.4294	0.101
330.6398	0.1035
330.8502	0.0931
331.0605	0.1102
331.2708	0.097
331.4812	0.1037
331.6915	0.1135
331.9018	0.1091
332.1121	0.0931
332.3224	0.1107
332.5326	0.1065
332.7429	0.0983
332.9531	0.118
333.1633	0.1037
333.3735	0.101
333.5837	0.0978
333.7939	0.1057
334.0041	0.1015
334.2143	0.1063
334.4244	0.1139
334.6346	0.0884
334.8447	0.1138
335.0548	0.096
335.2649	0.0913
335.475	0.1119
335.685	0.0982
335.8951	0.1039
336.1051	0.1038
336.3152	0.1107
336.5252	0.0988
336.7352	0.0991
336.9452	0.1123
337.1552	0.1142
337.3652	0.1033
337.5751	0.1066
337.7851	0.1121
337.995	0.1053
338.2049	0.1299
338.4148	0.1093
338.6247	0.1161
338.8346	0.1092
339.0445	0.112
339.2543	0.1022
339.4642	0.1133
339.674	0.1063
339.8838	0.1164
340.0936	0.1104
340.3034	0.1248
340.5132	0.1117
340.7229	0.1126
340.9327	0.1075
341.1424	0.1125
341.3522	0.1305
341.5619	0.1134
341.7716	0.1235
341.9813	0.1175
342.1909	0.1027
342.4006	0.1147
342.6102	0.1191
342.8199	0.1235
343.0295	0.1195
343.2391	0.1252
343.4487	0.1208
343.6583	0.1209
343.8679	0.1262
344.0774	0.1266
344.287	0.1293
344.4965	0.1205
344.706	0.1257
344.9155	0.1244
345.125	0.1225
345.3345	0.1189
345.544	0.1224
345.7534	0.1237
345.9629	0.1137
346.1723	0.1247
346.3817	0.1175
346.5911	0.1241
346.8005	0.1219
347.0099	0.1303
347.2193	0.1307
347.4286	0.1236
347.638	0.1306
347.8473	0.1374
348.0566	0.1319
348.2659	0.1339
348.4752	0.1261
348.6845	0.1235
348.8937	0.1262
349.103	0.1259
349.3122	0.1285
349.5214	0.1346
349.7306	0.1315
349.9398	0.1297
350.149	0.1532
350.3582	0.1265
350.5674	0.1496
350.7765	0.1272
350.9856	0.1321
351.1948	0.1492
351.4039	0.1376
351.613	0.1332
351.822	0.1307
352.0311	0.1581
352.2402	0.1556
352.4492	0.1536
352.6582	0.1522
352.8672	0.1431
353.0762	0.1468
353.2852	0.1308
353.4942	0.1266
353.7032	0.1489
353.9121	0.1538
354.1211	0.1606
354.33	0.1581
354.5389	0.1534
354.7478	0.1577
354.9567	0.1432
355.1655	0.1349
355.3744	0.1476
355.5833	0.1553
355.7921	0.159
356.0009	0.1482
356.2097	0.1682
356.4185	0.164
356.6273	0.1744
356.8361	0.1711
357.0448	0.1621
357.2536	0.1572
357.4623	0.1692
357.671	0.1681
357.8797	0.1558
358.0884	0.1694
358.2971	0.1625
358.5057	0.177
358.7144	0.1623
358.923	0.1751
359.1316	0.1603
359.3402	0.1614
359.5488	0.1701
359.7574	0.1639
359.966	0.1664
360.1746	0.1752
360.3831	0.1784
360.5916	0.1487
360.8002	0.1689
361.0087	0.1769
361.2172	0.1825
361.4256	0.1708
361.6341	0.1995
361.8426	0.1836
362.051	0.1894
362.2594	0.1828
362.4678	0.1679
362.6762	0.2067
362.8846	0.1916
363.093	0.1805
363.3014	0.164
363.5097	0.1801
363.718	0.1875
363.9264	0.1882
364.1347	0.1774
364.343	0.1872
364.5513	0.2046
364.7595	0.2039
364.9678	0.1872
365.176	0.1908
365.3842	0.2074
365.5925	0.2033
365.8007	0.1966
366.0089	0.2059
366.217	0.1974
366.4252	0.207
366.6333	0.209
366.8415	0.2119
367.0496	0.1872
367.2577	0.2065
367.4658	0.2292
367.6739	0.2286
367.882	0.2264
368.09	0.2027
368.2981	0.2047
368.5061	0.2028
368.7141	0.2127
368.9221	0.2173
369.1301	0.2067
369.3381	0.215
369.5461	0.2142
369.754	0.2174
369.962	0.2237
370.1699	0.22
370.3778	0.2274
370.5857	0.1981
370.7936	0.2225
371.0015	0.2229
371.2093	0.2315
371.4172	0.2364
371.625	0.2172
371.8328	0.2163
372.0406	0.2271
372.2484	0.2186
372.4562	0.2455
372.664	0.2223
372.8717	0.2329
373.0795	0.2204
373.2872	0.2235
373.4949	0.2343
373.7026	0.2394
373.9103	0.2397
374.118	0.2518
374.3256	0.2444
374.5333	0.2391
374.7409	0.2176
374.9485	0.2425
375.1561	0.2362
375.3637	0.2546
375.5713	0.2396
375.7789	0.2265
375.9864	0.2345
376.194	0.2307
376.4015	0.2555
376.609	0.2623
376.8165	0.2459
377.024	0.2525
377.2315	0.2452
377.4389	0.2578
377.6464	0.2559
377.8538	0.2572
378.0612	0.2442
378.2686	0.2455
378.476	0.2689
378.6834	0.2536
378.8908	0.2453
379.0981	0.2416
379.3055	0.2535
379.5128	0.2493
379.7201	0.2411
379.9274	0.2431
380.1347	0.2479
380.342	0.271
380.5492	0.2684
380.7565	0.2497
380.9637	0.2705
381.1709	0.264
381.3781	0.2613
381.5853	0.2796
381.7925	0.2656
381.9997	0.2555
382.2068	0.2758
382.4139	0.2717
382.6211	0.255
382.8282	0.2738
383.0353	0.2646
383.2424	0.2611
383.4494	0.277
383.6565	0.2756
383.8635	0.2559
384.0706	0.2647
384.2776	0.2755
384.4846	0.2522
384.6916	0.2682
384.8986	0.2767
385.1055	0.2545
385.3125	0.2664
385.5194	0.2592
385.7263	0.2745
385.9333	0.267
386.1402	0.2717
386.347	0.2719
386.5539	0.2617
386.7608	0.2694
386.9676	0.2539
387.1744	0.2708
387.3813	0.2491
387.5881	0.2563
387.7948	0.2694
388.0016	0.2822
388.2084	0.256
388.4151	0.2569
388.6219	0.2713
388.8286	0.2569
389.0353	0.2642
389.242	0.2685
389.4487	0.2654
389.6553	0.2609
389.862	0.2383
390.0686	0.2658
390.2753	0.2728
390.4819	0.2571
390.6885	0.2663
390.8951	0.2566
391.1016	0.2512
391.3082	0.2468
391.5147	0.2583
391.7213	0.2578
391.9278	0.2421
392.1343	0.2559
392.3408	0.251
392.5473	0.2412
392.7537	0.2341
392.9602	0.2478
393.1666	0.2458
393.373	0.2407
393.5794	0.2551
393.7858	0.24
393.9922	0.2408
394.1986	0.2509
394.4049	0.2392
394.6113	0.2365
394.8176	0.2579
395.0239	0.2393
395.2302	0.2276
395.4365	0.2442
395.6428	0.2493
395.8491	0.2364
396.0553	0.2441
396.2615	0.2238
396.4678	0.2231
396.674	0.2076
396.8802	0.2296
397.0863	0.2471
397.2925	0.2046
397.4987	0.2237
397.7048	0.2194
397.9109	0.2175
398.117	0.2186
398.3231	0.2295
398.5292	0.2399
398.7353	0.2383
398.9413	0.2328
399.1474	0.2174
399.3534	0.2237
399.5594	0.2269
399.7654	0.2517
399.9714	0.2441
400.1774	0.2302
400.3833	0.2107
400.5893	0.2375
400.7952	0.2283
401.0011	0.2246
401.207	0.2465
401.4129	0.241
401.6188	0.2221
401.8247	0.2348
402.0305	0.2252
402.2364	0.2263
402.4422	0.238
402.648	0.2358
402.8538	0.2391
403.0596	0.207
403.2654	0.2323
403.4711	0.226
403.6768	0.2363
403.8826	0.2395
404.0883	0.2284
404.294	0.2432
404.4997	0.229
404.7054	0.2214
404.911	0.2055
405.1167	0.2387
405.3223	0.2347
405.5279	0.2418
405.7335	0.2246
405.9391	0.2485
406.1447	0.2231
406.3502	0.2526
406.5558	0.2268
406.7613	0.2317
406.9668	0.2233
407.1724	0.216
407.3778	0.207
407.5833	0.2109
407.7888	0.2064
407.9942	0.2366
408.1997	0.215
408.4051	0.2372
408.6105	0.248
408.8159	0.2116
409.0213	0.2119
409.2267	0.2354
409.432	0.2056
409.6374	0.2171
409.8427	0.212
410.048	0.2066
410.2533	0.2402
410.4586	0.2359
410.6639	0.2084
410.8691	0.2115
411.0744	0.2407
411.2796	0.2157
411.4848	0.2212
411.69	0.2237
411.8952	0.2469
412.1004	0.2238
412.3056	0.2233
412.5107	0.224
412.7158	0.2394
412.921	0.2159
413.1261	0.1994
413.3312	0.2101
413.5362	0.2217
413.7413	0.217
413.9464	0.2126
414.1514	0.2276
414.3564	0.2156
414.5614	0.2007
414.7664	0.2309
414.9714	0.2347
415.1764	0.2126
415.3813	0.2201
415.5863	0.2284
415.7912	0.2254
415.9961	0.2209
416.201	0.2158
416.4059	0.2246
416.6108	0.1988
416.8156	0.2309
417.0205	0.2269
417.2253	0.2022
417.4301	0.2142
417.6349	0.2164
417.8397	0.2077
418.0445	0.219
418.2492	0.2229
418.454	0.2299
418.6587	0.2138
418.8634	0.2275
419.0681	0.1953
419.2728	0.2046
419.4775	0.2077
419.6822	0.1994
419.8868	0.1983
420.0915	0.1979
420.2961	0.2013
420.5007	0.2028
420.7053	0.2057
420.9099	0.2151
421.1144	0.2013
421.319	0.2005
421.5235	0.2066
421.728	0.21
421.9325	0.2121
422.137	0.2016
422.3415	0.204
422.546	0.2009
422.7504	0.223
422.9549	0.2075
423.1593	0.2032
423.3637	0.2057
423.5681	0.1933
423.7725	0.1859
423.9769	0.1837
424.1812	0.1736
424.3856	0.1977
424.5899	0.1919
424.7942	0.1928
424.9985	0.2032
425.2028	0.1972
425.4071	0.2161
425.6113	0.1727
425.8156	0.1943
426.0198	0.1976
426.224	0.1632
426.4282	0.1722
426.6324	0.1804
426.8366	0.1834
427.0407	0.1696
427.2449	0.1834
427.449	0.1798
427.6531	0.155
427.8572	0.1829
428.0613	0.1703
428.2654	0.1719
428.4694	0.1668
428.6735	0.1768
428.8775	0.181
429.0815	0.1846
429.2855	0.168
429.4895	0.1676
429.6935	0.1607
429.8975	0.1743
430.1014	0.1576
430.3053	0.1407
430.5093	0.1539
430.7132	0.1492
430.9171	0.1568
431.1209	0.1647
431.3248	0.1404
431.5286	0.1495
431.7325	0.1401
431.9363	0.1273
432.1401	0.1596
432.3439	0.1255
432.5477	0.1191
432.7514	0.136
432.9552	0.1276
433.1589	0.1222
433.3627	0.1263
433.5664	0.1204
433.7701	0.1152
433.9737	0.1342
434.1774	0.1197
434.3811	0.1172
434.5847	0.1132
434.7883	0.1247
434.9919	0.1232
435.1955	0.1181
435.3991	0.1352
435.6027	0.109
435.8062	0.1245
436.0098	0.1119
436.2133	0.1183
436.4168	0.0964
436.6203	0.0991
436.8238	0.103
437.0272	0.0949
437.2307	0.1186
437.4341	0.0995
437.6375	0.0994
437.841	0.0935
438.0443	0.1029
438.2477	0.1089
438.4511	0.0819
438.6545	0.0953
438.8578	0.1006
439.0611	0.0982
439.2644	0.0831
439.4677	0.0896
439.671	0.0778
439.8743	0.0716
440.0775	0.0842
440.2808	0.0812
440.484	0.0677
440.6872	0.0674
440.8904	0.0806
441.0936	0.0874
441.2967	0.0695
441.4999	0.0781
441.703	0.0668
441.9062	0.0723
442.1093	0.0681
442.3124	0.0806
442.5155	0.0602
442.7185	0.0626
442.9216	0.0389
443.1246	0.0686
443.3276	0.0685
443.5307	0.0704
443.7337	0.0678
443.9366	0.0594
444.1396	0.0496
444.3426	0.0613
444.5455	0.0532
444.7484	0.0479
444.9513	0.0578
445.1542	0.057
445.3571	0.0699
445.56	0.0524
445.7628	0.0378
445.9657	0.0374
446.1685	0.0582
446.3713	0.0502
446.5741	0.0468
446.7769	0.0351
446.9797	0.0377
447.1824	0.0544
447.3852	0.0355
447.5879	0.0514
447.7906	0.0493
447.9933	0.0364
448.196	0.0245
448.3986	0.0414
448.6013	0.0355
448.8039	0.0278
449.0066	0.0289
449.2092	0.0265
449.4118	0.0514
449.6143	0.0477
449.8169	0.045
450.0195	0.02
450.222	0.0083
450.4245	0.0131
450.627	0.0428
450.8295	0.0213
451.032	0.0291
451.2345	0.0318
451.4369	0.0307
451.6394	0.0313
451.8418	0.0201
452.0442	0.0159
452.2466	0.0284
452.449	-0.0005
452.6513	0.0139
452.8537	0.0151
453.056	-0.0018
453.2583	0.0222
453.4607	0.0228
453.663	0.0163
453.8652	0.0258
454.0675	0.0048
454.2697	0.0241
454.472	0.0006
454.6742	0.0204
454.8764	0.0104
455.0786	0.0308
455.2808	0.0248
455.4829	0.0216
455.6851	0.0303
455.8872	0.0158
456.0893	0.0345
456.2915	0.0058
456.4935	0.0313
456.6956	0.0105
456.8977	0.0071
457.0997	0.0087
457.3018	0.0035
457.5038	0.0211
457.7058	0.0015
457.9078	0.0112
458.1098	0.0186
458.3117	0.0117
458.5137	0.0125
458.7156	0.0078
458.9175	-0.0025
459.1194	0.0089
459.3213	0.006
459.5232	0.0027
459.725	-0.0026
459.9269	-0.0061
460.1287	0.0023
460.3305	0.0063
460.5323	0.0118
460.7341	0.0042
460.9359	0.0004
461.1376	0.0057
461.3394	0.0036
461.5411	0.0124
461.7428	0.0033
461.9445	0.0087
462.1462	0.0057
462.3479	-0.0029
462.5495	0.0054
462.7512	0.0173
462.9528	-0.0161
463.1544	-0.0126
463.356	0.0095
463.5576	-0.0009
463.7592	-0.0017
463.9607	-0.0023
464.1623	-0.0004
464.3638	0.0118
464.5653	-0.0032
464.7668	0.0072
464.9683	0.0058
465.1697	0.0091
465.3712	-0.0054
465.5726	0.0024
465.7741	-0.0054
465.9755	-0.0068
466.1769	-0.0065
466.3782	-0.0155
466.5796	-0.0033
466.7809	0.0146
466.9823	0.0017
467.1836	-0.0087
467.3849	-0.0012
467.5862	0.0074
467.7875	0.0007
467.9887	0.0112
468.19	-0.0055
468.3912	-0.0085
468.5924	-0.0038
468.7936	-0.008
468.9948	-0.002
469.196	-0.0091
469.3972	-0.0143
469.5983	-0.004
469.7994	-0.0036
470.0006	-0.013
470.2017	-0.028
470.4027	-0.0054
470.6038	-0.0034
470.8049	-0.0087
471.0059	-0.02
471.2069	-0.038
471.408	-0.0124
471.6089	0.0084
471.8099	-0.005
472.0109	-0.0001
472.2119	-0.0021
472.4128	-0.0139
472.6137	0.0019
472.8146	-0.0029
473.0155	-0.0054
473.2164	-0.0047
473.4173	-0.0011
473.6181	0.0045
473.819	0.0064
474.0198	-0.0108
474.2206	-0.0055
474.4214	-0.0026
474.6222	-0.0039
474.8229	-0.0209
475.0237	-0.01
475.2244	-0.0063
475.4251	-0.0209
475.6258	-0.0028
475.8265	-0.016
476.0272	0.002
476.2278	-0.0161
476.4285	-0.005
476.6291	-0.0128
476.8297	-0.0237
477.0303	-0.0195
477.2309	0.0015
477.4315	-0.0182
477.632	-0.0011
477.8326	-0.0076
478.0331	-0.0017
478.2336	0.004
478.4341	0.0028
478.6346	-0.0045
478.8351	-0.0158
479.0355	-0.003
479.236	-0.0029
479.4364	-0.0015
479.6368	-0.0048
479.8372	-0.0142
480.0376	-0.0054
480.2379	-0.0345
480.4383	-0.0169
480.6386	-0.0052
480.8389	0.0017
481.0392	-0.0148
481.2395	-0.0027
481.4398	-0.0098
481.6401	-0.0027
481.8403	-0.0082
482.0405	-0.007
482.2408	-0.0064
482.441	0.0053
482.6411	-0.0131
482.8413	-0.0032
483.0415	-0.0175
483.2416	-0.0117
483.4417	-0.0088
483.6419	-0.021
483.8419	-0.0187
484.042	0.0004
484.2421	-0.0054
484.4422	-0.0009
484.6422	-0.0134
484.8422	-0.0097
485.0422	-0.0142
485.2422	-0.0134
485.4422	-0.0119
485.6422	-0.0067
485.8421	-0.0121
486.042	-0.0146
486.242	-0.019
486.4419	-0.0122
486.6417	-0.0098
486.8416	-0.0059
487.0415	-0.0104
487.2413	-0.0151
487.4411	-0.0068
487.641	-0.0222
487.8408	0.0056
488.0405	-0.0198
488.2403	-0.0126
488.4401	-0.0061
488.6398	-0.0089
488.8395	-0.0059
489.0392	-0.0105
489.2389	-0.012
489.4386	-0.0024
489.6383	-0.0151
489.8379	0.0002
490.0376	-0.0173
490.2372	-0.0137
490.4368	-0.0168
490.6364	-0.0135
490.836	-0.0146
491.0355	-0.0008
491.2351	-0.0154
491.4346	-0.0169
491.6341	-0.0161
491.8336	-0.0141
492.0331	-0.03
492.2326	-0.0161
492.432	-0.0113
492.6315	-0.0093
492.8309	-0.0191
493.0303	-0.014
493.2297	-0.0104
493.4291	-0.0072
493.6284	-0.0014
493.8278	-0.0086
494.0271	-0.0068
494.2264	0.0062
494.4257	-0.0267
494.625	-0.0118
494.8243	-0.0247
495.0236	-0.0209
495.2228	-0.0224
495.422	-0.0091
495.6213	-0.0113
495.8205	-0.0091
496.0196	-0.0085
496.2188	-0.0023
496.418	-0.0166
496.6171	-0.0143
496.8162	-0.0167
497.0153	-0.0091
497.2144	-0.0161
497.4135	-0.0105
497.6126	-0.019
497.8116	-0.0209
498.0107	-0.003
498.2097	-0.0116
498.4087	-0.0138
498.6077	-0.0066
498.8067	-0.0145
499.0056	-0.0028
499.2046	-0.0166
499.4035	-0.0193
499.6024	-0.0121
499.8013	-0.0063
500.0002	-0.0247
500.199	-0.0115
500.3979	-0.0134
500.5967	-0.025
500.7956	-0.0173
500.9944	-0.0137
501.1932	-0.0209
501.3919	-0.0218
501.5907	-0.0137
501.7895	-0.0078
501.9882	-0.0215
502.1869	-0.0062
502.3856	-0.0145
502.5843	-0.0243
502.783	-0.0152
502.9816	-0.0089
503.1803	-0.0236
503.3789	-0.0085
503.5775	0.0039
503.7761	-0.0113
503.9747	-0.003
504.1732	-0.018
504.3718	-0.0051
504.5703	-0.0204
504.7689	-0.0145
504.9674	-0.0133
505.1658	-0.0075
505.3643	-0.0077
505.5628	-0.0055
505.7612	-0.0152
505.9597	-0.0039
506.1581	-0.0173
506.3565	-0.0025
506.5549	-0.0059
506.7532	-0.0191
506.9516	-0.0142
507.1499	-0.0081
507.3482	-0.0231
507.5465	-0.0216
507.7448	-0.0111
507.9431	-0.0094
508.1414	-0.0005
508.3396	-0.0122
508.5379	-0.0154
508.7361	-0.0151
508.9343	-0.0067
509.1325	-0.0146
509.3306	-0.0107
509.5288	-0.0144
509.7269	-0.0138
509.9251	-0.0103
510.1232	-0.0121
510.3213	-0.0153
510.5193	-0.0117
510.7174	-0.0221
510.9154	-0.0111
511.1135	-0.0206
511.3115	-0.0139
511.5095	-0.0168
511.7075	-0.0109
511.9055	-0.019
512.1034	-0.0114
512.3014	-0.0023
512.4993	-0.0021
512.6972	-0.0132
512.8951	-0.0151
513.093	-0.006
513.2908	-0.0028
513.4887	-0.0112
513.6865	-0.0163
513.8844	-0.0094
514.0822	-0.0227
514.2799	-0.0166
514.4777	-0.0202
514.6755	-0.0154
514.8732	-0.0192
515.0709	-0.0137
515.2687	-0.0129
515.4664	-0.0032
515.664	-0.0029
515.8617	-0.0163
516.0594	-0.0217
516.257	-0.0088
516.4546	-0.0156
516.6522	-0.001
516.8498	-0.0102
517.0474	-0.0068
517.2449	-0.0059
517.4425	-0.0214
517.64	-0.0131
517.8375	-0.0013
518.035	-0.0097
518.2325	-0.013
518.43	-0.0093
518.6274	-0.0082
518.8249	-0.0284
519.0223	-0.0047
519.2197	-0.0119
519.4171	-0.0166
519.6145	-0.012
519.8118	-0.0004
520.0092	-0.0217
520.2065	-0.0136
520.4038	-0.015
520.6011	-0.0074
520.7984	-0.0113
520.9956	-0.0136
521.1929	-0.0147
521.3901	-0.0043
521.5874	-0.0097
521.7846	-0.0089
521.9818	-0.0129
522.1789	-0.0211
522.3761	-0.017
522.5732	-0.0182
522.7704	-0.0152
522.9675	-0.0113
523.1646	-0.019
523.3617	-0.0037
523.5587	-0.0142
523.7558	-0.0009
523.9528	-0.0145
524.1498	-0.0077
524.3468	-0.0067
524.5438	-0.0174
524.7408	-0.0091
524.9378	0.0028
525.1347	-0.0091
525.3316	-0.0077
525.5285	-0.0214
525.7254	-0.0139
525.9223	-0.0072
526.1192	-0.0082
526.316	-0.0171
526.5129	0.0012
526.7097	-0.0002
526.9065	-0.0108
527.1033	-0.0125
527.3	-0.0058
527.4968	-0.0131
527.6935	-0.0114
527.8903	-0.0137
528.087	-0.011
528.2837	-0.0177
528.4804	-0.0078
528.677	-0.0117
528.8737	-0.0018
529.0703	0.0016
529.2669	-0.0058
529.4635	-0.0171
529.6601	-0.0054
529.8567	-0.0086
530.0532	-0.0136
530.2498	-0.0041
530.4463	-0.0009
530.6428	-0.0079
530.8393	-0.0072
531.0358	-0.0147
531.2322	-0.0104
531.4287	-0.0151
531.6251	-0.0148
531.8215	-0.0063
532.0179	-0.0114
532.2143	0.0103
532.4107	-0.0047
532.607	-0.0067
532.8034	-0.0087
532.9997	-0.0099
533.196	-0.0052
533.3923	-0.0158
533.5886	-0.0153
533.7848	-0.0133
533.9811	-0.013
534.1773	-0.0049
534.3735	0.008
534.5697	-0.0164
534.7659	-0.0164
534.9621	0.0026
535.1582	-0.0136
535.3544	-0.0143
535.5505	-0.0116
535.7466	-0.0095
535.9427	-0.0132
536.1387	-0.016
536.3348	-0.0202
536.5308	-0.0079
536.7269	-0.0246
536.9229	-0.0094
537.1189	-0.0107
537.3148	-0.0139
537.5108	-0.0115
537.7068	-0.0065
537.9027	-0.0028
538.0986	0.0006
538.2945	-0.0175
538.4904	-0.0107
538.6863	-0.0086
538.8821	-0.0109
539.078	-0.0052
539.2738	-0.0096
539.4696	-0.01
539.6654	0.002
539.8611	0.0113
540.0569	-0.0069
540.2526	-0.0104
540.4484	-0.0128
540.6441	0.0035
540.8398	-0.0049
541.0355	-0.0003
541.2311	-0.0089
541.4268	-0.0146
541.6224	-0.0054
541.818	-0.0037
542.0136	-0.0007
542.2092	-0.0014
542.4048	0.0034
542.6003	-0.0033
542.7959	-0.0179
542.9914	-0.0102
543.1869	-0.0011
543.3824	-0.001
543.5779	-0.0111
543.7734	-0.0107
543.9688	-0.0032
544.1642	0.0015
544.3596	-0.0018
544.555	-0.0067
544.7504	-0.005
544.9458	-0.0091
545.1411	0.0008
545.3365	0.0047
545.5318	-0.0003
545.7271	-0.0054
545.9224	-0.0041
546.1177	-0.0103
546.3129	-0.0023
546.5081	-0.0082
546.7034	-0.0045
546.8986	-0.0128
547.0938	-0.0062
547.289	-0.0116
547.4841	-0.0059
547.6793	0.0009
547.8744	-0.0132
548.0695	-0
548.2646	-0.0133
548.4597	0.0056
548.6548	-0.0033
548.8498	0.0062
549.0448	0.0051
549.2399	-0.0036
549.4349	0.004
549.6298	0.0031
549.8248	0.001
550.0198	-0.0032
550.2147	0.0012
550.4096	-0.0136
550.6045	-0.0045
550.7994	0.0063
550.9943	-0.0008
551.1892	-0.0042
551.384	0.0018
551.5788	-0.0067
551.7737	-0.0002
551.9685	-0.0051
552.1632	0.0026
552.358	-0.0053
552.5528	-0.0016
552.7475	-0.0035
552.9422	-0.0051
553.1369	0.0006
553.3316	0.0033
553.5263	-0.0082
553.7209	0.0149
553.9156	-0.0059
554.1102	-0.0052
554.3048	-0.0117
554.4994	-0.0011
554.694	-0.0122
554.8885	0.0016
555.0831	-0.0034
555.2776	-0.0131
555.4721	-0.0035
555.6666	-0.0083
555.8611	0.0064
556.0555	-0.0022
556.25	-0.0063
556.4444	-0.0068
556.6388	0.0043
556.8332	0.0013
557.0276	-0.001
557.222	-0.0078
557.4163	-0.0023
557.6107	-0.0042
557.805	-0.0038
557.9993	-0.006
558.1936	-0.0055
558.3879	-0.003
558.5821	-0.0011
558.7764	-0.0025
558.9706	-0.0048
559.1648	0.0056
559.359	0.0008
559.5532	-0.0033
559.7473	-0.0042
559.9415	-0.0014
560.1356	-0.0115
560.3297	-0.0112
560.5238	-0.0101
560.7179	-0.0115
560.9119	-0.0082
561.106	-0.0013
561.3	-0.0019
561.494	0.0042
561.688	-0.0076
561.882	-0.0079
562.076	-0.0031
562.2699	0.0019
562.4639	-0.0069
562.6578	-0.0087
562.8517	0.0016
563.0456	0.001
563.2395	-0.0001
563.4333	0.0027
563.6272	0.0031
563.821	-0.0048
564.0148	-0.0009
564.2086	-0.0065
564.4024	-0.0051
564.5961	-0.0067
564.7899	0.0018
564.9836	-0.0037
565.1773	-0.006
565.371	0.0021
565.5647	-0.0002
565.7584	-0.0006
565.952	0.0025
566.1456	0.0018
566.3393	-0.0022
566.5329	-0
566.7264	-0.004
566.92	-0.0111
567.1136	-0.0034
567.3071	-0.0035
567.5006	-0.0015
567.6941	0.005
567.8876	-0.0021
568.0811	-0.0031
568.2745	-0.003
568.468	-0.0005
568.6614	0.0055
568.8548	0.0094
569.0482	-0.0002
569.2416	-0.0058
569.4349	-0.0012
569.6283	0.0036
569.8216	0.0021
570.0149	-0.0059
570.2082	0.0013
570.4015	0.0091
570.5947	0.0005
570.788	-0.0027
570.9812	-0.0027
571.1744	0.0034
571.3676	-0.0094
571.5608	0.0028
571.754	-0.0003
571.9471	-0.0018
572.1402	0.0003
572.3333	-0.0022
572.5264	-0.0013
572.7195	-0.0005
572.9126	-0.0059
573.1057	0.002
573.2987	-0.0025
573.4917	0.0054
573.6847	-0.0017
573.8777	0.0026
574.0707	0.0061
574.2636	0.0004
574.4566	0.0016
574.6495	0.0035
574.8424	-0.0036
575.0353	-0.0073
575.2281	0.0011
575.421	-0.0021
575.6138	0.0068
575.8067	0.0068
575.9995	0.0012
576.1923	0.0061
576.385	0.0071
576.5778	0.005
576.7706	-0.002
576.9633	0.0057
577.156	0.0026
577.3487	0.0017
577.5414	-0.0002
577.734	-0.003
577.9267	0.0019
578.1193	-0.0078
578.3119	-0.0046
578.5045	-0.004
578.6971	0.0035
578.8897	0.0059
579.0822	0.0028
579.2747	-0.0026
579.4673	-0.0008
579.6598	0.0012
579.8522	0.0015
580.0447	-0.0039
580.2372	-0.0013
580.4296	0.0059
580.622	-0.0005
580.8144	0.0013
581.0068	0.0016
581.1992	-0.0133
581.3915	-0.0021
581.5839	-0.0089
581.7762	-0.0064
581.9685	-0.0022
582.1608	0.0055
582.353	0.001
582.5453	0.0023
582.7375	0.0017
582.9298	0.006
583.122	0.0036
583.3142	-0.0024
583.5063	0.0035
583.6985	0.0037
583.8906	0.0013
584.0827	-0.0058
584.2749	0.006
584.4669	-0.002
584.659	-0.0016
584.8511	-0.0056
585.0431	0.0012
585.2352	0.0041
585.4272	0.0076
585.6192	0.0031
585.8111	0.0032
586.0031	0.0037
586.195	0.0043
586.387	0.0032
586.5789	0.0012
586.7708	-0.0013
586.9627	0.0026
587.1545	-0.0055
587.3464	0.0061
587.5382	-0.0004
587.73	0.0002
587.9218	-0.0018
588.1136	-0.0075
588.3053	0.0048
588.4971	-0.0038
588.6888	-0.006
588.8805	0.0017
589.0722	0.0063
589.2639	0.0037
589.4556	0.0019
589.6472	-0.0041
589.8389	-0.0079
590.0305	-0.0108
590.2221	0.0004
590.4137	-0.0025
590.6052	-0.0013
590.7968	-0.0004
590.9883	0.0057
591.1798	-0.0014
591.3713	0.0016
591.5628	0.0052
591.7543	0.0015
591.9458	0.0036
592.1372	0.0059
592.3286	0.0045
592.52	0.0101
592.7114	0.0054
592.9028	-0.0023
593.0941	-0.0006
593.2855	0.0049
593.4768	-0.0054
593.6681	-0.0039
593.8594	-0.0036
594.0506	-0.0017
594.2419	0.0053
594.4331	0.0022
594.6244	0.0117
594.8156	-0.0051
595.0067	0.0009
595.1979	0.0043
595.3891	0.0048
595.5802	-0.0026
595.7713	-0.0002
595.9624	0.0013
596.1535	0.0028
596.3446	-0.0006
596.5357	0.0006
596.7267	0.0084
596.9177	0.0012
597.1087	-0.0028
597.2997	0.0004
597.4907	0.0024
597.6817	-0.0056
597.8726	0.0048
598.0635	-0.0061
598.2544	-0.0019
598.4453	0.002
598.6362	-0.0051
598.827	-0.0056
599.0179	0.0062
599.2087	0.0004
599.3995	0.0007
599.5903	0.0091
599.7811	0.0024
599.9718	0
600.1626	-0.0018
600.3533	-0.0021
600.544	0.0029
600.7347	0.0027
600.9254	0.0104
601.116	-0.0089
601.3067	-0.0002
601.4973	0.0002
601.6879	0.0073
601.8785	-0.0017
602.0691	0.0042
602.2596	0.0031
602.4502	0.0044
602.6407	0.0015
602.8312	0.004
603.0217	-0.0069
603.2122	0.0013
603.4027	-0.0057
603.5931	-0.0031
603.7835	-0.0026
603.9739	0.0015
604.1643	0.003
604.3547	-0.0069
604.5451	0.0054
604.7354	-0.0029
604.9257	0.0022
605.116	-0.0065
605.3063	-0.0034
605.4966	0.0076
605.6869	-0.0031
605.8771	0.0058
606.0673	0.0036
606.2575	0.0045
606.4477	0.008
606.6379	-0.0025
606.8281	-0.0004
607.0182	-0.0057
607.2083	0.0078
607.3985	-0.0046
607.5885	-0.0006
607.7786	0.0001
607.9687	0.0006
608.1587	0.004
608.3488	0.0053
608.5388	0.0036
608.7288	-0
608.9187	-0.0058
609.1087	-0.0031
609.2986	-0.0008
609.4886	0.0023
609.6785	0.0008
609.8684	0.0019
610.0582	0.005
610.2481	0.0039
610.4379	-0.0003
610.6278	-0.0018
610.8176	-0.0045
611.0074	-0.0034
611.1971	-0.0074
611.3869	0.0025
611.5766	-0.0049
611.7664	0.0034
611.9561	0.0069
612.1458	0.0029
612.3354	-0.0011
612.5251	0.0021
612.7147	0.0088
612.9044	0.0057
613.094	-0.0069
613.2836	0.0029
613.4731	-0.0066
613.6627	-0.0066
613.8522	0.0017
614.0417	0.0042
614.2313	-0.0024
614.4207	-0.0129
614.6102	0.0007
614.7997	-0.0065
614.9891	-0.0069
615.1785	0.0032
615.3679	-0.0022
615.5573	0.0137
615.7467	-0.0005
615.9361	-0.0059
616.1254	0.0009
616.3147	-0.0059
616.504	0.0002
616.6933	0.0026
616.8826	0.0058
617.0718	0.0121
617.2611	-0.0018
617.4503	0.0003
617.6395	-0.0022
617.8287	0.0002
618.0179	0.005
618.207	0.0108
618.3961	0.0019
618.5853	0.005
618.7744	-0.0003
618.9634	0.0095
619.1525	0.0048
619.3416	0.0046
619.5306	0.007
619.7196	-0.0007
619.9086	0
620.0976	0.0061
620.2866	-0.0046
620.4755	0.0101
620.6645	-0.0013
620.8534	0.0059
621.0423	0.0028
621.2312	0.0065
621.42	0.0025
621.6089	0.0013
621.7977	0.0008
621.9865	-0.0054
622.1753	-0.0002
622.3641	0.0017
622.5529	0.0066
622.7416	0.0059
622.9303	0.0014
623.1191	0.0027
623.3078	0.0049
623.4964	0.0022
623.6851	-0.003
623.8737	0.0021
624.0624	0.0049
624.251	-0.0012
624.4396	0.0017
624.6282	0.0016
624.8167	0.0032
625.0053	0.0102
625.1938	-0.0001
625.3823	0.0056
625.5708	0.0042
625.7593	-0.0007
625.9477	-0.0061
626.1362	-0.0032
626.3246	0.004
626.513	0.0082
626.7014	0.0041
626.8898	-0.0055
627.0781	0.0008
627.2665	0.0065
627.4548	0.0099
627.6431	0.0058
627.8314	0.0063
628.0197	0.0089
628.2079	-0.0006
628.3962	-0.001
628.5844	0.0046
628.7726	0.0065
628.9608	0.005
629.1489	0.0006
629.3371	0.0034
629.5252	0.0018
629.7134	0.0087
629.9015	-0.0036
630.0895	-0.0005
630.2776	0.0007
630.4657	0.0029
630.6537	0.0037
630.8417	-0.006
631.0297	-0.0023
631.2177	0.0059
631.4057	-0.0048
631.5936	0.0045
631.7815	0.0003
631.9695	0.0053
632.1574	0.0084
632.3452	0.0108
632.5331	0.0037
632.7209	0.0018
632.9088	0.017
633.0966	0.0147
633.2844	0.0051
633.4722	0.0056
633.6599	0.0135
633.8477	0.0015
634.0354	-0.0007
634.2231	0.0003
634.4108	-0.0052
634.5985	0.0013
634.7861	0.0022
634.9738	0.008
635.1614	-0.0063
635.349	-0.0034
635.5366	-0.0049
635.7242	-0.0022
635.9117	0.0095
636.0993	0.0029
636.2868	0.0099
636.4743	-0.006
636.6618	0.0117
636.8492	0.0043
637.0367	0.0024
637.2241	0.0016
637.4115	-0.0025
637.5989	0.0038
637.7863	0.0041
637.9737	-0.0029
638.161	0.0034
638.3484	-0.0088
638.5357	0.0052
638.723	-0.0025
638.9103	0.002
639.0975	0.004
639.2848	0.0068
639.472	0.0037
639.6592	0.0006
639.8464	0.0109
640.0336	0.0062
640.2208	0.0042
640.4079	-0.0019
640.595	-0.0017
640.7821	0.0015
640.9692	-0.0076
641.1563	-0.0068
641.3434	-0.0017
641.5304	-0.0043
641.7174	-0.0036
641.9044	0.0001
642.0914	-0.0001
642.2784	0.0072
642.4653	0.0061
642.6523	0.001
642.8392	-0.004
643.0261	0.0055
643.213	0.0025
643.3999	-0.0027
643.5867	-0.0097
643.7735	0.0046
643.9604	-0.0113
644.1472	-0.0012
644.3339	0.0059
644.5207	-0.0067
644.7075	0.0032
644.8942	0.0015
645.0809	0.0147
645.2676	0.0041
645.4543	-0.0006
645.6409	0.0017
645.8276	-0.0017
646.0142	0.0006
646.2008	-0.0079
646.3874	-0.0047
646.574	-0.0027
646.7605	0.0023
646.9471	-0.0056
647.1336	0.0009
647.3201	0.0067
647.5066	0.0001
647.6931	0.011
647.8795	0.0013
648.0659	0.0064
648.2524	0.0091
648.4388	-0.0053
648.6252	0
648.8115	-0.0018
648.9979	-0.0034
649.1842	-0.0024
649.3705	0.0023
649.5568	0.0053
649.7431	0.0042
649.9294	-0.005
650.1156	0.0035
650.3018	-0.0034
650.488	0.0017
650.6742	0.0017
650.8604	-0.0034
651.0466	-0.004
651.2327	-0.0025
651.4188	0.0064
651.6049	0.0003
651.791	-0.0012
651.9771	0.0084
652.1632	-0.0018
652.3492	-0.0037
652.5352	-0.0022
652.7212	-0.0065
652.9072	0.0038
653.0932	-0.0062
653.2791	-0.0001
653.465	-0.0038
653.651	-0.0061
653.8369	-0.0048
654.0227	-0.0075
654.2086	-0.0007
654.3944	0.0003
654.5803	0.0002
654.7661	-0.0053
654.9519	0.0003
655.1377	-0.0045
655.3234	-0.0066
655.5092	-0.0076
655.6949	-0.0091
655.8806	-0.0068
656.0663	-0.0017
656.2519	-0.0076
656.4376	-0.003
656.6232	0.0041
656.8088	0
656.9945	-0.0005
657.18	0.0016
657.3656	-0.0034
657.5511	-0.0011
657.7367	-0.003
657.9222	0.0075
658.1077	-0.0033
658.2932	0.0029
658.4786	-0.0082
658.6641	-0.0032
658.8495	0.0043
659.0349	-0.0028
659.2203	0.0041
659.4057	0.0032
659.591	-0.0003
659.7764	-0.0069
659.9617	0.0005
660.147	0.0004
660.3323	0.0039
660.5176	0.0134
660.7028	0.0025
660.888	0.0034
661.0733	-0.0017
661.2585	-0.0038
661.4436	-0.0049
661.6288	-0.0014
661.8139	0.0007
661.9991	0.0028
662.1842	-0.003
662.3693	0.0038
662.5544	-0.0055
662.7394	-0.002
662.9245	0.0015
663.1095	-0.0006
663.2945	-0.0006
663.4795	-0.0032
663.6644	0.0019
663.8494	-0.0007
664.0343	0.0086
664.2193	-0.0059
664.4042	-0.005
664.589	0.0021
664.7739	0.0012
664.9587	-0.0002
665.1436	-0.0004
665.3284	0.0011
665.5132	-0.0055
665.698	0.002
665.8827	0.0037
666.0675	-0.0068
666.2522	-0.0052
666.4369	0.004
666.6216	0.0025
666.8063	0.0034
666.9909	-0.001
667.1756	-0.0023
667.3602	-0.0017
667.5448	-0.0037
667.7294	0.0042
667.9139	0.0047
668.0985	0.0099
668.283	0.0027
668.4675	-0.0044
668.652	0.0042
668.8365	0.0016
669.0209	0.0042
669.2054	0.0049
669.3898	0.0061
669.5742	0.0041
669.7586	0.0046
669.943	0.0045
670.1273	0.0066
670.3117	0.0062
670.496	0.0066
670.6803	0.0132
670.8646	0.0069
671.0488	-0.0012
671.2331	0.0022
671.4173	0.0026
671.6015	0.0063
671.7857	0.0049
671.9699	0.0082
672.1541	0.0027
672.3382	0.0053
672.5223	0.0065
672.7064	0.0065
672.8905	0.0064
673.0746	0.0013
673.2587	0.0043
673.4427	0.0053
673.6267	0.0044
673.8107	0.0105
673.9947	-0.0004
674.1787	0.0035
674.3626	-0.0048
674.5465	0.0003
674.7304	-0.0035
674.9143	0.0005
675.0982	0.003
675.2821	0.0008
675.4659	0.0034
675.6497	-0.0036
675.8335	-0.0041
676.0173	-0.0001
676.2011	-0.0014
676.3849	0.0012
676.5686	-0.0017
676.7523	0.0024
676.936	-0.0015
677.1197	0.0007
677.3034	-0.0048
677.487	0.0072
677.6706	0.0029
677.8542	0.0087
678.0378	0.0033
678.2214	0.0009
678.405	0.0066
678.5885	-0.0091
678.772	0.0005
678.9555	0.0026
679.139	-0.003
679.3225	-0.0039
679.5059	0.0026
679.6894	0.0014
679.8728	0.0028
680.0562	-0.0071
680.2395	-0.0005
680.4229	-0.0023
680.6062	0.0028
680.7896	-0.0016
680.9729	-0.0114
681.1562	0.0067
681.3394	0.0033
681.5227	-0.0097
681.7059	-0.0096
681.8891	-0.0007
682.0723	0.0074
682.2555	0.0082
682.4387	-0.0016
682.6218	-0.0005
682.805	0.0045
682.9881	0.0054
683.1712	-0.0006
683.3542	0.0013
683.5373	0.0053
683.7203	-0.0045
683.9034	0.0069
684.0864	-0.012
684.2694	-0.0051
684.4523	0.0064
684.6353	-0.0131
684.8182	0.0009
685.0011	-0.0104
685.184	-0.0017
685.3669	-0.0027
685.5498	0.0055
685.7326	0.0037
685.9154	0.0025
686.0982	0.0035
686.281	0.0078
686.4638	0.0078
686.6465	0.0075
686.8293	-0.0019
687.012	0.0086
687.1947	-0.0019
687.3774	0.0011
687.56	-0.0025
687.7427	0.0056
687.9253	-0.0074
688.1079	-0.0011
688.2905	0.0017
688.4731	-0.0002
688.6556	-0.0023
688.8382	-0.0028
689.0207	0.0062
689.2032	-0.0117
689.3857	-0.0061
689.5681	0.0025
689.7506	0.0014
689.933	-0.0051
690.1154	-0.0019
690.2978	-0.0017
690.4802	0.0011
690.6626	-0.0111
690.8449	-0.004
691.0272	0.0045
691.2095	0.0018
691.3918	-0.0039
691.5741	0.0061
691.7563	0.0017
691.9386	0.0011
692.1208	-0.0001
692.303	-0.0051
692.4852	-0.007
692.6673	0.0073
692.8495	-0.0027
693.0316	0.0035
693.2137	-0.0007
693.3958	0.005
693.5778	-0.0009
693.7599	-0.002
693.9419	-0.0018
694.1239	0.0023
694.3059	0.0005
694.4879	0.0051
694.6699	0.0067
694.8518	-0.0025
695.0337	-0.0024
695.2157	0.004
695.3975	0.0105
695.5794	0.0016
695.7613	0.0011
695.9431	0.0031
696.1249	0.008
696.3067	0.0086
696.4885	0.0057
696.6703	-0.0054
696.852	0.0004
697.0337	0.0009
697.2154	0.0027
697.3971	-0.0059
697.5788	0.0014
697.7605	-0.0082
697.9421	0.0059
698.1237	-0.0036
698.3053	0.0011
698.4869	-0.0081
698.6685	-0.0093
698.85	-0.0098
699.0315	0.0037
699.213	-0.0092
699.3945	0.0019
699.576	0.0118
699.7575	0.0014
699.9389	0.0071
700.1203	0.0006
700.3017	-0.0021
700.4831	-0.0037
700.6645	0.0047
700.8458	0.0046
701.0271	0.0052
701.2084	0.0053
701.3897	-0.0027
701.571	0.0138
701.7523	0.0024
701.9335	-0.002
702.1147	-0.0058
702.2959	-0.0009
702.4771	-0.0064
702.6583	0.0061
702.8394	-0.004
703.0205	0.004
703.2016	-0.0067
703.3827	0.0028
703.5638	0.0169
703.7449	-0.0023
703.9259	0.0119
704.1069	0.0001
704.2879	0.0104
704.4689	0.0104
704.6499	0.0114
704.8308	-0.0002
705.0117	-0
705.1927	0.0063
705.3735	0.0002
705.5544	0.0021
705.7353	0.006
705.9161	0
706.0969	-0.0095
706.2777	0.0018
706.4585	-0.0035
706.6393	0.0033
706.82	-0.0018
707.0007	-0.0028
707.1815	0.0066
707.3621	0.0052
707.5428	-0.0006
707.7235	0.0077
707.9041	0.0085
708.0847	-0.0062
708.2653	-0.0023
708.4459	-0.0095
708.6265	0.0021
708.807	0.0052
708.9875	0.0042
709.168	0.0016
709.3485	-0.0047
709.529	-0.0001
709.7095	-0.0059
709.8899	0.0023
710.0703	-0.0163
710.2507	0.0022
710.4311	0.0029
710.6115	-0.0061
710.7918	-0.0064
710.9721	-0.0036
711.1524	-0.0126
711.3327	-0.0042
711.513	0.0017
711.6932	-0.0042
711.8735	0.0033
712.0537	0.0029
712.2339	0.0009
712.4141	-0.0145
712.5942	-0.0048
712.7744	-0.0116
712.9545	-0.0098
713.1346	-0.0057
713.3147	-0.0035
713.4947	-0.0104
713.6748	-0.0007
713.8548	-0.0057
714.0348	0
714.2148	0.0035
714.3948	0.0073
714.5748	-0.0085
714.7547	0.0022
714.9346	0.0047
715.1145	-0.0071
715.2944	-0.0112
715.4743	0.0031
715.6541	-0.0078
715.834	0.0018
716.0138	-0.0036
716.1936	-0.0094
716.3733	-0.0112
716.5531	0.0063
716.7328	-0.0041
716.9126	-0.0015
717.0923	-0.0034
717.2719	-0.0001
717.4516	0.0019
717.6312	0.0032
717.8109	-0.0027
717.9905	-0.0005
718.1701	-0.0052
718.3496	-0.0097
718.5292	0.0056
718.7087	0.0073
718.8882	-0.0012
719.0677	0.007
719.2472	0.0011
719.4267	-0
719.6061	0.0019
719.7856	-0.0013
719.965	-0
720.1443	-0.0056
720.3237	0.0086
720.5031	0.0002
720.6824	0.0135
720.8617	0.0034
721.041	0.0096
721.2203	0.0112
721.3995	0.0016
721.5788	0.0046
721.758	0.0092
721.9372	0.005
722.1164	0.0004
722.2956	0.0092
722.4747	0.0074
722.6538	0.0028
722.8329	0.0075
723.012	0.0076
723.1911	0.0043
723.3702	0.0043
723.5492	0.0049
723.7282	-0.0008
723.9072	0.0025
724.0862	-0.0045
724.2652	-0.001
724.4441	-0.0076
724.623	0.0048
724.8019	-0.0028
724.9808	0.0078
725.1597	-0.0048
725.3385	0.0028
725.5174	0.004
725.6962	0.007
725.875	0.0014
726.0538	0.0018
726.2325	-0.0035
726.4112	0.0072
726.59	-0.0087
726.7687	0.0013
726.9474	0.0115
727.126	-0.0085
727.3047	-0.0008
727.4833	-0.0007
727.6619	-0.0078
727.8405	-0.0132
728.0191	-0.0128
728.1976	0.0076
728.3762	0.0009
728.5547	0.0025
728.7332	-0.0052
728.9116	0.0002
729.0901	0.0033
729.2686	0.0032
729.447	-0.0031
729.6254	-0.003
729.8038	-0.0011
729.9821	-0.0112
730.1605	-0.0066
730.3388	-0.0006
730.5171	-0.0029
730.6954	-0.0097
730.8737	0.0017
731.0519	-0.004
731.2302	0.0033
731.4084	0.0165
731.5866	0.0023
731.7648	-0.0018
731.9429	-0.0112
732.1211	-0.0105
732.2992	0.0025
732.4773	-0.0042
732.6554	-0.0008
732.8335	0.0006
733.0115	0.0085
733.1896	0.0119
733.3676	-0.0053
733.5456	0.0039
733.7235	0.0118
733.9015	-0.001
734.0794	-0.0002
734.2574	0.0026
734.4353	0.0053
734.6131	0.0111
734.791	0.0041
734.9689	0
735.1467	-0.0036
735.3245	-0.0023
735.5023	-0.0114
735.68	-0.0046
735.8578	-0.0009
736.0355	-0.02
736.2132	-0.0029
736.3909	-0.0026
736.5686	-0.0079
736.7463	-0.0014
736.9239	0.0034
737.1015	-0.0011
737.2791	0.0012
737.4567	0.0042
737.6343	-0.0073
737.8118	0.0009
737.9894	0.0043
738.1669	-0.0092
738.3444	-0.0002
738.5218	0.0068
738.6993	-0.0054
738.8767	-0.0112
739.0541	0.0096
739.2315	-0.0069
739.4089	0.0024
739.5863	0.0083
739.7636	-0.0051
739.9409	0.0028
740.1182	0.0005
740.2955	-0.0005
740.4728	-0.0047
740.65	-0.0044
740.8272	0.0029
741.0044	-0.0109
741.1816	0.0048
741.3588	-0.0097
741.5359	0.0005
741.7131	-0.0157
741.8902	0.0006
742.0673	-0.0112
742.2444	-0.0153
742.4214	-0.013
742.5985	-0.0023
742.7755	-0.0097
742.9525	-0.0243
743.1295	-0.0044
743.3064	-0.0021
743.4834	0.0029
743.6603	-0.007
743.8372	-0.0003
744.0141	-0.001
744.191	0.0026
744.3678	-0.0008
744.5446	0.0019
744.7215	0.0038
744.8982	-0.0089
745.075	-0.0104
745.2518	0.0045
745.4285	-0.0011
745.6052	-0.0029
745.7819	-0.0047
745.9586	-0.0072
746.1353	0.0006
746.3119	0.0009
746.4885	0.003
746.6651	-0.0023
746.8417	0.0024
747.0183	-0.0057
747.1948	0.0027
747.3714	0.0126
747.5479	0.0056
747.7244	-0.0061
747.9008	0.0166
748.0773	-0.0022
748.2537	0.0008
748.4301	-0.0036
748.6065	0.0077
748.7829	-0.0015
748.9593	0.0013
749.1356	0.007
749.3119	0.013
749.4882	-0.0074
749.6645	0.007
749.8408	-0.0028
750.017	0.002
750.1933	0.0042
750.3695	-0.0043
750.5457	0.0072
750.7218	0.0094
750.898	0.0049
751.0741	-0.0015
751.2502	0.0047
751.4263	-0.0039
751.6024	0.0017
751.7784	0.0046
751.9545	-0.0022
752.1305	0.0027
752.3065	-0.0098
752.4825	0.001
752.6584	-0.0091
752.8344	-0.0083
753.0103	-0.0155
753.1862	-0.008
753.3621	-0.0132
753.5379	-0.0045
753.7138	-0.0028
753.8896	-0.0057
754.0654	0.0062
754.2412	0.0074
754.417	0.0038
754.5927	-0.0077
754.7685	-0.0053
754.9442	0.0029
755.1199	0.0158
755.2956	-0.0089
755.4712	0.0121
755.6469	0.009
755.8225	-0.0101
755.9981	-0.0101
756.1736	0.0048
756.3492	-0.0017
756.5248	-0.0052
756.7003	-0.0009
756.8758	0.0083
757.0513	-0.0186
757.2267	-0.0012
757.4022	0.0001
757.5776	-0.0054
757.753	0.0133
757.9284	0.0016
758.1038	0.0115
758.2791	0.01
758.4545	-0.0083
758.6298	0.0065
758.8051	0.0057
758.9803	0.0054
759.1556	0.0068
759.3308	0.0047
759.506	0.0113
759.6812	0.0077
759.8564	0.012
760.0316	-0.0007
760.2067	0.0099
760.3819	0.003
760.557	0.0089
760.732	0.0078
760.9071	-0.0071
761.0821	0.0017
761.2572	0.0089
761.4322	-0.0037
761.6072	-0.0048
761.7821	-0.002
761.9571	0.0051
762.132	-0.0099
762.3069	-0.0074
762.4818	-0.0115
762.6567	-0.0014
762.8316	-0.004
763.0064	-0.0019
763.1812	0.0002
763.356	-0.0145
763.5308	0.0002
763.7055	0.002
763.8803	-0.0042
764.055	0.0017
764.2297	0.0023
764.4044	0.0069
764.579	-0.0042
764.7537	-0.0074
764.9283	-0.0058
765.1029	-0.0077
765.2775	-0.0062
765.4521	-0.0084
765.6266	-0.006
765.8011	-0.0038
765.9756	-0.0021
766.1501	-0
766.3246	0.0109
766.4991	-0.0049
766.6735	0.0004
766.8479	-0.0087
767.0223	0.0056
767.1967	-0.0029
767.371	0.0048
767.5454	-0.0037
767.7197	-0.0006
767.894	0.0047
768.0683	-0.0092
768.2425	0.002
768.4168	0.0065
768.591	0.0067
768.7652	-0
768.9394	0.0079
769.1135	0.01
769.2877	0.0104
769.4618	0.0003
769.6359	-0.0034
769.81	0.0013
769.984	0.0062
770.1581	-0.0077
770.3321	0.0055
770.5061	0.0024
770.6801	0.0018
770.8541	0.0074
771.028	0.0082
771.202	-0.0055
771.3759	0.0042
771.5498	0.006
771.7236	-0.0012
771.8975	-0.0065
772.0713	0.0071
772.2451	0.016
772.4189	0.0086
772.5927	0.016
772.7665	0.006
772.9402	0.0021
773.1139	0.0074
773.2876	-0.0071
773.4613	0.0086
773.635	0.005
773.8086	-0.0108
773.9822	-0.0016
774.1558	0.0047
774.3294	-0.0114
774.503	0.0087
774.6765	0.014
774.8501	-0
775.0236	0.0083
775.1971	0.0001
775.3705	-0.0034
775.544	0.002
775.7174	-0.0139
775.8908	0.0025
776.0642	-0.0032
776.2376	-0.0004
776.4109	-0.0116
776.5843	0.003
776.7576	0.0082
776.9309	0.0073
777.1041	0.0033
777.2774	0.0107
777.4506	-0.001
777.6238	-0.0062
777.797	-0.01
777.9702	0.0002
778.1434	-0.0041
778.3165	-0.0019
778.4896	-0.0045
778.6627	0.0072
778.8358	0.0042
779.0089	-0.0109
779.1819	0.0073
779.3549	0.0163
779.5279	-0.0066
779.7009	0.0015
779.8739	0.0122
780.0468	-0.0068
780.2197	0.0053
780.3926	0.0006
780.5655	-0.0019
780.7384	-0.0051
780.9112	0.0069
781.0841	-0.0097
781.2569	0.0045
781.4297	0.0088
781.6024	0.0092
781.7752	0.0073
781.9479	0.0122
782.1206	0.0067
782.2933	-0.0063
782.466	0.0161
782.6386	0.0143
782.8113	0.006
782.9839	0.013
783.1565	0.0196
783.329	0.0075
783.5016	0.0151
783.6741	0.008
783.8466	-0.0051
784.0191	0.0098
784.1916	0.0029
784.3641	0.0093
784.5365	0.0103
784.7089	0.0002
784.8813	-0.0027
785.0537	0.0078
785.2261	-0.0044
785.3984	-0.0105
785.5707	0.0038
785.743	-0.0023
785.9153	-0.0067
786.0876	-0.0098
786.2598	-0.0039
786.432	-0.0109
786.6042	0.014
786.7764	-0.0059
786.9486	0.0051
787.1207	-0.0155
787.2928	0.0028
787.4649	0.0037
787.637	0.0098
787.8091	-0.0064
787.9811	-0.0089
788.1532	0.0098
788.3252	0.0184
788.4972	0.0059
788.6691	-0.0111
788.8411	0.0106
789.013	-0.0077
789.1849	0.0016
789.3568	-0.01
789.5287	0.001
789.7005	-0.0097
789.8723	0.0046
790.0442	0.0179
790.2159	0.0077
790.3877	0.004
790.5595	-0.0019
790.7312	0.0151
790.9029	0.0048
791.0746	0.0041
791.2463	-0.0052
791.4179	0.0097
791.5896	-0.0097
791.7612	-0.0015
791.9328	0.0101
792.1044	-0.0106
792.2759	-0.0148
792.4474	-0.0083
792.619	0.0088
792.7905	0.0049
792.9619	0.0168
793.1334	0.0021
793.3048	0.0099
793.4762	0.0151
793.6476	0.0208
793.819	-0.0037
793.9904	0.0066
794.1617	0.0028
794.333	-0.006
794.5043	-0.013
794.6756	-0.0043
794.8469	-0.0038
795.0181	-0.0033
795.1893	-0.0021
795.3605	0.0137
795.5317	-0.0021
795.7029	-0.0018
795.874	0.0182
796.0452	0.0008
796.2163	0.0151
796.3873	0.0135
796.5584	0.015
796.7294	0.0017
796.9005	0.0064
797.0715	0.0085
797.2425	-0.0148
797.4134	0.0082
797.5844	0.0061
797.7553	-0.0083
797.9262	-0.0003
798.0971	-0.008
798.2679	-0.0031
798.4388	-0.0157
798.6096	0.0009
798.7804	0.006
798.9512	0.0143
799.122	-0.0044
799.2927	0.0049
799.4635	0.014
799.6342	-0.0334
799.8049	0.0072
799.9755	0.015
800.1462	0.0003
800.3168	0.0126
800.4874	0.0044
800.658	0.0321
800.8286	0.008
800.9991	0.0189
801.1696	0.0162
801.3402	0.0162
801.5106	0.0102
801.6811	0.0019
801.8516	0.0205
802.022	0.0213
802.1924	0.0206
802.3628	0.0135
802.5332	0.0213
802.7035	0.017
802.8739	0.0216
803.0442	0.0034
803.2145	0.0285
803.3847	-0.0275
803.555	0.0027
803.7252	-0.0051
803.8954	-0.0265
804.0656	-0.0111
804.2358	0.0154
804.4059	0.0192
804.5761	0.0372
804.7462	0.0094
804.9163	0.0109
805.0864	-0.0072
805.2564	0.0081
805.4264	0.0129
805.5965	-0.001
805.7665	0.0161
805.9364	0.0231
806.1064	0.0464
806.2763	0.0107
806.4462	0.0195
806.6161	0.0051
806.786	0.015
806.9559	-0.0019
807.1257	-0.012
807.2955	0.0167
807.4653	0.007
807.6351	-0.0074
807.8048	0.0193
807.9746	0.0175
808.1443	0.0151
808.314	0.014
808.4837	-0.0059
808.6533	0.0023
808.8229	0.0304
808.9926	0.033
809.1622	0.018
809.3317	0.0165
809.5013	0.0256
809.6708	0.0145
809.8403	0.0188
810.0098	0.018
810.1793	0.0153
810.3488	0.033
810.5182	-0.0053
810.6876	0.0219
810.857	0.0036
811.0264	0.0415
811.1958	0.018
811.3651	0.0305
811.5344	0.0084
811.7037	0.01
811.873	0.0181
812.0422	0.013
812.2115	0.0158
812.3807	0.0106
812.5499	0.0358
812.7191	0.0086
812.8882	0.0027
813.0574	0.0099
813.2265	0.0168
813.3956	0.0304
813.5646	0.0159
813.7337	0.0129
813.9027	0.0304
814.0718	0.0381
814.2407	0.0334
814.4097	0.0075
814.5787	-0.005
814.7476	0.0175
814.9165	0.0263
815.0854	-0.001
815.2543	0.0263
815.4232	0.0168
815.592	0.0239
815.7608	0.022
815.9296	0.0284
816.0984	0.0381
816.2671	0.0277
816.4359	0.0209
816.6046	0.0293
816.7733	0.0179
816.942	-0.0079
817.1106	0.023
817.2793	0.0168
817.4479	-0.0004
817.6165	0.041
817.785	0.0222
817.9536	0.0058
818.1221	0.0203
818.2906	0.0047
818.4591	0.0074
818.6276	-0.0058
818.7961	0.0313
818.9645	0.0195
819.1329	0.0103
819.3013	0.0493
819.4697	0.0378
819.638	0.0163
819.8064	0.0323
819.9747	0.0338
820.143	0.0311
820.3113	0.0184
820.4795	0.0002
820.6477	0.025
820.816	-0.0015
820.9842	0.0038
821.1523	0.0289
821.3205	0.0154
821.4886	0.0267
821.6567	-0.0076
821.8248	0.0096
821.9929	0.0456
822.1609	0.0179
822.329	0.0253
822.497	0.0248
822.665	-0.0099
822.833	0.0037
823.0009	0.0342
823.1688	0.0318
823.3367	0.0251
823.5046	0.0399
823.6725	0.0248
823.8404	-0.0084
824.0082	0.0077
824.176	0.0424
824.3438	0.0091
824.5116	0.0015
824.6793	0.0502
824.847	0.0214
825.0147	-0.0107
825.1824	0.0318
825.3501	0.0221
825.5177	-0.0015
825.6854	0.0103
825.853	0.0151
826.0206	0.0126
826.1881	0.0169
826.3557	-0.0338
826.5232	0.0346
826.6907	-0.0182
826.8582	0.0048
827.0257	0.0017
827.1931	0.0099
827.3605	0.0135
827.528	0.0145
827.6953	-0.0239
827.8627	0.0116
828.03	0.0184
828.1974	-0.0086
828.3647	-0.0296
828.532	0.0098
828.6992	-0.0075
828.8665	-0.0129
829.0337	-0.0062
829.2009	-0.0052
829.3681	-0.0235
829.5352	0.0488
829.7024	-0.0373
829.8695	-0.0403
830.0366	0.0457
830.2037	0.0122
830.3707	0.0347
830.5378	-0.0113
830.7048	0.0158
830.8718	-0.0146
831.0388	-0.0199
831.2057	0.0233
831.3727	0.0401
831.5396	-0.0293
831.7065	-0.0144
831.8734	-0.0013
832.0402	-0.005
832.2071	0.0032
832.3739	-0.0068
832.5407	0.0009
832.7075	-0.0138
832.8742	0.0065
833.041	-0.0016
833.2077	0.0191
833.3744	0.0315
833.541	0.0145
833.7077	0.0549
833.8743	0.009
834.0409	0.0028
834.2075	0.0119
834.3741	-0.0106
834.5407	0.0081
834.7072	0.0245
834.8737	-0.0334
835.0402	-0.0102
835.2067	0.0149
835.3731	0.0284
835.5395	0.001
835.706	-0.0186
835.8723	-0.0151
836.0387	0.0127
836.2051	-0.035
836.3714	0.0179
836.5377	0.0446
836.704	-0.0475
836.8703	-0.0308
837.0365	-0.0068
837.2027	-0.0063
837.3689	0.0233
837.5351	-0.0321
837.7013	0.0214
837.8674	-0.0124
838.0335	-0.0212
838.1997	0.0112
838.3657	-0.0168
838.5318	-0.0167
838.6978	0.0484
838.8639	0.0336
839.0299	0.0066
839.1958	0.002
839.3618	0.0475
839.5277	-0.0046
839.6937	0.0278
839.8596	0.006
840.0254	0.0403
840.1913	0.0208
840.3571	0.0323
840.523	-0.0093
840.6888	0.0005
840.8545	0.0113
841.0203	0.0166
841.186	0.0234
841.3517	0.0302
841.5174	-0.0056
841.6831	-0.0051
841.8488	0.0303
842.0144	0.0005
842.18	0.0068
842.3456	0.0864
842.5112	-0.0231
842.6767	0.0311
842.8422	-0.0574
843.0077	-0.035
843.1732	-0.0561
843.3387	-0.0027
843.5042	-0.021
843.6696	0.0533
843.835	-0.0026
844.0004	0.0025
844.1657	0.0201
844.3311	-0.0494
844.4964	-0.0706
844.6617	-0.0071
844.827	0.0042
844.9923	-0.0173
845.1575	0.0538
845.3227	-0.0073
845.4879	-0.0049
845.6531	-0.045
845.8183	-0.0396
845.9834	-0.0375
846.1485	-0.0175
846.3136	-0.0043
846.4787	-0.0914
846.6438	0.0805
846.8088	-0.048
846.9738	-0.0327
847.1388	-0.0185
847.3038	0.0009
847.4687	-0.1653
847.6337	0.0444
847.7986	-0.0162
847.9635	-0.0345
848.1284	-0.0019
848.2932	0.0659
848.458	-0.0366
848.6228	0.0603
848.7876	0.0912
848.9524	-0.0525
849.1172	-0.0932
849.2819	0.0496
849.4466	-0.0993
849.6113	-0.0853
849.7759	-0.0068
849.9406	-0.0337
850.1052	0.0425
850.2698	-0.0008
850.4344	-0.0329
850.599	-0.0272
850.7635	0.0379
850.928	-0.0271
851.0925	-0.0665
851.257	0.064
851.4215	0.0387
851.5859	-0.0096
851.7503	0.0278
851.9147	0.0093
852.0791	-0.0104
852.2434	-0.0229
852.4078	-0.0153
852.5721	0.0542
852.7364	-0.1084
852.9007	-0.1794
853.0649	0.0556
853.2291	-0.001
853.3934	-0.0299
853.5575	-0.0085
853.7217	-0.0253
853.8859	-0.0589
854.05	-0.1143
854.2141	-0.0547
854.3782	-0.0568
854.5423	-0.0726
854.7063	0.035
854.8703	0.1151
855.0343	-0.0653
855.1983	-0.1424
855.3623	0.1472
855.5262	-0.0199
855.6901	0.0138
855.854	0.0075
856.0179	0.1937
856.1818	0.1108
856.3456	-0.0814
856.5094	-0.0575
856.6732	-0.1
856.837	-0.1102
857.0008	-0.0123
857.1645	0.0301
857.3282	-0.068
857.4919	0.0983
857.6556	-0.0406
857.8192	-0.0174
857.9828	0.0045
858.1465	0.1187
858.31	-0.0371
858.4736	-0.1473
858.6372	-0.0727
858.8007	-0.1161
858.9642	0.0214
859.1277	0.1577
859.2911	0.1314
859.4546	-0.0012
859.618	-0.3764
859.7814	-0.0695
859.9448	-0.0187
860.1081	0.0479
860.2715	0.1191
860.4348	-0.1432
860.5981	0.0692
860.7614	0.1497
860.9246	0.0204
861.0879	-0.1779
861.2511	0.0578
861.4143	0.3694
861.5774	0.0587
861.7406	-0.265
861.9037	-0.0017
862.0668	-0.0976
862.2299	-0.1215
862.393	-0.7236
862.556	-0.007
862.7191	-0.1825
862.8821	-0.2473
863.0451	-0.0389
863.208	0.3784
863.371	0.0922
863.5339	-0.1392
863.6968	0.5373
863.8597	0.2898
864.0225	-0.0025
864.1854	-0.0298
864.3482	-0.1788
864.511	0.41
864.6737	-0.1267
864.8365	-0.1677
864.9992	-0.5331
865.1619	-0.4606
865.3246	-0
865.4873	0.0727
865.65	0.1806
865.8126	0.1667
865.9752	0.329
866.1378	-0.3533
866.3004	-0
866.4629	0.0937
866.6254	-0
866.7879	-0.1203
866.9504	-0
867.1129	-0
867.2753	0.6297
867.4377	0.1383
867.6001	0.2414
867.7625	0.0112
867.9249	-0.221
868.0872	0.1743
868.2495	-0.1035
868.4118	0.2571
868.5741	-0.6675
868.7363	0.1308
868.8986	-0.37
869.0608	-0.2938
869.223	0.2629
869.3851	-0
869.5473	-0
869.7094	0.1055
869.8715	-0.0146
870.0336	-0.6753
870.1957	-0.7823
870.3577	-0.7107
870.5197	0.1371
870.6817	0.392
870.8437	-0.0976
871.0057	-0.5648
871.1676	0.0257
871.3295	0.0954
871.4914	-0.3733
871.6533	-0.3519
871.8151	-0.1255
871.977	-0
872.1388	-0
872.3006	-0
872.4623	0.1056
872.6241	0.1457
872.7858	-0
872.9475	0.1301
873.1092	0.1596
873.2709	0.6214
873.4325	0.277
873.5941	-0.0851
873.7557	-0.3768
873.9173	-0
874.0789	-0.2212
874.2404	-0
874.4019	0.3723
874.5634	-0.0528
874.7249	-0.2048
874.8863	0.0668
875.0478	0.1074
875.2092	-0
875.3706	0.0701
875.5319	-0.5065
875.6933	-0.1522
875.8546	-0
876.0159	-0
876.1772	-0
876.3385	-0
876.4997	-0
876.6609	-0.607
876.8221	0.8835
876.9833	0.2235
877.1445	1.0483
877.3056	0.1435
877.4667	-0.156
877.6278	-0
877.7889	-0.3719
877.9499	-0
878.111	-0.3866
878.272	-0
878.433	-0
878.5939	-0
878.7549	-0.0281
878.9158	-0.2204
879.0767	-0
879.2376	-0
879.3984	-0
879.5593	-0
879.7201	-0
879.8809	-0.4923
880.0417	0.5197
880.2024	-0
880.3632	-0.0764
880.5239	0.0231
880.6846	0.5521
880.8452	-2.4822
881.0059	-0
881.1665	-0.0933
881.3271	-0.1944
881.4877	-0
881.6483	-0.4066
881.8088	0.3441
881.9693	-0
882.1298	-0
882.2903	-0
