Data from MonoPyChalIsomerACN10uM380nmA_Absorbance_13-38-32-549.txt Node
Date: Fri Jul 05 13:38:32 BST 2024
User: LASERRRRR
Spectrometer: FLMT03099
Trigger mode: 0
Integration Time (sec): 1.000000E-1
Scans to average: 1
Electric dark correction enabled: true
Nonlinearity correction enabled: false
Boxcar width: 0
XAxis mode: Wavelengths
Number of Pixels in Spectrum: 3648
>>>>>Begin Spectral Data<<<<<
179.3399	-0.5473
179.5586	-0.5473
179.7771	-0.5473
179.9957	-0.0316
180.2143	2.1875
180.4329	-0.3767
180.6514	-0
180.8699	2.2788
181.0885	-0.2663
181.307	0.0867
181.5255	-0
181.744	-0
181.9625	-0
182.181	-0
182.3994	-0
182.6179	2.2788
182.8363	0.2721
183.0547	-0.3269
183.2732	0.0803
183.4916	-0.0163
183.71	0.3063
183.9284	0.132
184.1467	0.1887
184.3651	0.0911
184.5835	0.2848
184.8018	0.9832
185.0201	0.0934
185.2385	0.0919
185.4568	0.0619
185.6751	0.2141
185.8934	0.4164
186.1117	-0.0245
186.3299	0.0809
186.5482	0.1752
186.7664	0.0572
186.9847	-0.0819
187.2029	0.0716
187.4211	0.0923
187.6393	0.183
187.8575	-0.0217
188.0757	0.2132
188.2939	0.1384
188.512	0.3037
188.7302	0.2478
188.9483	0.056
189.1665	0.2668
189.3846	0.0032
189.6027	0.1471
189.8208	0.2641
190.0389	0.0436
190.257	0.1566
190.475	0.2185
190.6931	0.3648
190.9111	0.5864
191.1292	0.2038
191.3472	0.4189
191.5652	0.3149
191.7832	0.2519
192.0012	0.6437
192.2192	0.4153
192.4371	0.4261
192.6551	0.6606
192.873	0.531
193.091	0.4444
193.3089	0.9671
193.5268	0.4745
193.7447	0.7942
193.9626	0.5241
194.1805	0.5669
194.3984	0.9661
194.6162	0.5559
194.8341	0.5025
195.0519	0.8284
195.2697	2.2491
195.4875	0.7637
195.7054	0.6739
195.9231	0.5451
196.1409	0.6345
196.3587	0.6924
196.5765	0.704
196.7942	0.993
197.012	0.7428
197.2297	0.8599
197.4474	1.0951
197.6651	0.7059
197.8828	0.8472
198.1005	0.7889
198.3182	0.6911
198.5358	1.3878
198.7535	0.7377
198.9711	0.6717
199.1888	0.8058
199.4064	1.7387
199.624	0.8657
199.8416	1.2287
200.0592	0.8811
200.2767	1.0131
200.4943	0.978
200.7119	1.0611
200.9294	1.0579
201.1469	0.8087
201.3645	0.7355
201.582	1.0471
201.7995	0.7196
202.017	0.8539
202.2344	0.976
202.4519	0.8761
202.6694	0.8339
202.8868	0.8069
203.1042	0.9713
203.3217	1.178
203.5391	0.7954
203.7565	0.8609
203.9739	0.7112
204.1913	0.6778
204.4086	0.9815
204.626	0.9876
204.8433	0.7448
205.0607	0.6638
205.278	0.9015
205.4953	0.8379
205.7126	0.8835
205.9299	0.9663
206.1472	0.8781
206.3644	0.8437
206.5817	0.9504
206.7989	1.0383
207.0162	0.8331
207.2334	1.0929
207.4506	0.7975
207.6678	0.8773
207.885	0.9948
208.1022	0.9061
208.3194	0.7676
208.5365	0.8818
208.7537	0.7436
208.9708	0.7418
209.1879	0.7849
209.405	0.9339
209.6222	1.0396
209.8392	0.9739
210.0563	0.7351
210.2734	0.8502
210.4905	0.7553
210.7075	0.7794
210.9245	0.7353
211.1416	0.8575
211.3586	0.7998
211.5756	0.8053
211.7926	0.7902
212.0096	0.7763
212.2265	0.6874
212.4435	0.7998
212.6604	0.772
212.8774	0.7824
213.0943	0.8409
213.3112	0.8132
213.5281	0.8486
213.745	0.7059
213.9619	0.7192
214.1788	0.7388
214.3956	0.6515
214.6125	0.6918
214.8293	0.6765
215.0461	0.7616
215.2629	0.6794
215.4798	0.7576
215.6965	0.6041
215.9133	0.7173
216.1301	0.679
216.3469	0.6213
216.5636	0.7119
216.7803	0.6328
216.9971	0.6188
217.2138	0.6273
217.4305	0.6194
217.6472	0.5947
217.8639	0.6399
218.0805	0.6104
218.2972	0.603
218.5138	0.5861
218.7305	0.5622
218.9471	0.599
219.1637	0.538
219.3803	0.5837
219.5969	0.5568
219.8135	0.5351
220.0301	0.5779
220.2466	0.6101
220.4632	0.5246
220.6797	0.509
220.8962	0.514
221.1127	0.5305
221.3292	0.5555
221.5457	0.5268
221.7622	0.4866
221.9787	0.5349
222.1951	0.5075
222.4116	0.516
222.628	0.5071
222.8444	0.5124
223.0608	0.5259
223.2772	0.5251
223.4936	0.5383
223.71	0.5198
223.9264	0.5631
224.1427	0.5404
224.3591	0.5665
224.5754	0.5365
224.7917	0.5479
225.008	0.5143
225.2243	0.5012
225.4406	0.5942
225.6569	0.5344
225.8732	0.5177
226.0894	0.5294
226.3057	0.5212
226.5219	0.5732
226.7381	0.5349
226.9543	0.5382
227.1705	0.5691
227.3867	0.5588
227.6029	0.5682
227.8191	0.5444
228.0352	0.5738
228.2513	0.5678
228.4675	0.592
228.6836	0.5667
228.8997	0.5201
229.1158	0.5515
229.3319	0.599
229.548	0.5361
229.764	0.5721
229.9801	0.5519
230.1961	0.5737
230.4121	0.5861
230.6282	0.5549
230.8442	0.5324
231.0602	0.5795
231.2761	0.5744
231.4921	0.5741
231.7081	0.5921
231.924	0.5495
232.14	0.5618
232.3559	0.5379
232.5718	0.5619
232.7877	0.5647
233.0036	0.5346
233.2195	0.5791
233.4353	0.5445
233.6512	0.556
233.867	0.5602
234.0829	0.5593
234.2987	0.5548
234.5145	0.5508
234.7303	0.5379
234.9461	0.5838
235.1619	0.579
235.3776	0.531
235.5934	0.554
235.8091	0.5097
236.0249	0.5488
236.2406	0.5252
236.4563	0.5332
236.672	0.5516
236.8877	0.5547
237.1034	0.5491
237.319	0.566
237.5347	0.5409
237.7503	0.5312
237.966	0.5448
238.1816	0.5433
238.3972	0.5227
238.6128	0.5108
238.8284	0.5501
239.0439	0.5503
239.2595	0.5221
239.475	0.5157
239.6906	0.5371
239.9061	0.5323
240.1216	0.5117
240.3371	0.5278
240.5526	0.4965
240.7681	0.529
240.9836	0.5134
241.199	0.5112
241.4145	0.4818
241.6299	0.4901
241.8453	0.4925
242.0607	0.5054
242.2761	0.4541
242.4915	0.4605
242.7069	0.4685
242.9223	0.4427
243.1376	0.446
243.353	0.4395
243.5683	0.4507
243.7836	0.4122
243.9989	0.4236
244.2142	0.396
244.4295	0.4152
244.6448	0.4012
244.86	0.3876
245.0753	0.3786
245.2905	0.362
245.5057	0.3552
245.721	0.3601
245.9362	0.3386
246.1514	0.3478
246.3665	0.3315
246.5817	0.3307
246.7969	0.3113
247.012	0.2944
247.2271	0.3073
247.4423	0.3133
247.6574	0.3007
247.8725	0.2988
248.0876	0.2818
248.3026	0.2879
248.5177	0.2853
248.7328	0.2756
248.9478	0.2714
249.1628	0.2652
249.3779	0.2692
249.5929	0.2602
249.8079	0.2616
250.0228	0.2409
250.2378	0.2498
250.4528	0.2498
250.6677	0.2311
250.8827	0.2516
251.0976	0.2442
251.3125	0.2422
251.5274	0.2179
251.7423	0.2219
251.9572	0.2246
252.172	0.2283
252.3869	0.2171
252.6017	0.2201
252.8166	0.2036
253.0314	0.2116
253.2462	0.1998
253.461	0.2109
253.6758	0.1969
253.8906	0.2097
254.1053	0.2049
254.3201	0.1974
254.5348	0.2153
254.7496	0.2114
254.9643	0.2024
255.179	0.1998
255.3937	0.1876
255.6083	0.1981
255.823	0.1907
256.0377	0.1835
256.2523	0.1978
256.467	0.1748
256.6816	0.1867
256.8962	0.1903
257.1108	0.187
257.3254	0.1923
257.54	0.1774
257.7545	0.1882
257.9691	0.1903
258.1836	0.186
258.3981	0.1908
258.6127	0.1889
258.8272	0.1825
259.0417	0.1796
259.2561	0.1965
259.4706	0.1881
259.6851	0.1939
259.8995	0.1755
260.114	0.1959
260.3284	0.1836
260.5428	0.1863
260.7572	0.1892
260.9716	0.2017
261.186	0.1698
261.4003	0.1904
261.6147	0.1837
261.829	0.1801
262.0433	0.175
262.2577	0.1722
262.472	0.1892
262.6863	0.1767
262.9005	0.1827
263.1148	0.1828
263.3291	0.1752
263.5433	0.1912
263.7576	0.1934
263.9718	0.183
264.186	0.1945
264.4002	0.1666
264.6144	0.19
264.8286	0.1877
265.0427	0.184
265.2569	0.1896
265.471	0.1871
265.6851	0.1838
265.8993	0.1859
266.1134	0.1794
266.3275	0.1769
266.5415	0.1768
266.7556	0.1946
266.9697	0.1774
267.1837	0.1792
267.3978	0.1807
267.6118	0.1933
267.8258	0.2008
268.0398	0.1792
268.2538	0.1892
268.4677	0.1908
268.6817	0.1878
268.8957	0.1746
269.1096	0.1847
269.3235	0.1966
269.5374	0.1827
269.7514	0.1819
269.9652	0.1753
270.1791	0.1815
270.393	0.1719
270.6068	0.1793
270.8207	0.173
271.0345	0.1757
271.2483	0.1756
271.4622	0.1705
271.676	0.1773
271.8897	0.1696
272.1035	0.1757
272.3173	0.168
272.531	0.1788
272.7448	0.1646
272.9585	0.1651
273.1722	0.1724
273.3859	0.1817
273.5996	0.1715
273.8133	0.1825
274.0269	0.1614
274.2406	0.1659
274.4542	0.1748
274.6679	0.1554
274.8815	0.1662
275.0951	0.1835
275.3087	0.1842
275.5223	0.179
275.7358	0.1756
275.9494	0.1722
276.1629	0.1706
276.3765	0.172
276.59	0.175
276.8035	0.1709
277.017	0.1692
277.2305	0.1644
277.444	0.1831
277.6574	0.1694
277.8709	0.1788
278.0843	0.1622
278.2978	0.184
278.5112	0.1678
278.7246	0.179
278.938	0.1732
279.1513	0.1763
279.3647	0.1878
279.5781	0.1718
279.7914	0.1884
280.0047	0.1868
280.2181	0.1747
280.4314	0.1824
280.6447	0.1754
280.8579	0.1837
281.0712	0.1821
281.2845	0.1882
281.4977	0.1762
281.711	0.1729
281.9242	0.1747
282.1374	0.1897
282.3506	0.177
282.5638	0.1906
282.7769	0.1735
282.9901	0.1851
283.2033	0.1889
283.4164	0.1832
283.6295	0.1705
283.8426	0.167
284.0557	0.1863
284.2688	0.194
284.4819	0.1848
284.695	0.1775
284.908	0.1831
285.1211	0.179
285.3341	0.1895
285.5471	0.194
285.7601	0.1847
285.9731	0.1718
286.1861	0.1676
286.3991	0.1799
286.612	0.1874
286.825	0.1863
287.0379	0.1878
287.2508	0.1708
287.4637	0.1823
287.6766	0.177
287.8895	0.1808
288.1024	0.1946
288.3152	0.1842
288.5281	0.1707
288.7409	0.1775
288.9538	0.178
289.1666	0.1764
289.3794	0.1853
289.5922	0.1741
289.8049	0.1715
290.0177	0.181
290.2304	0.179
290.4432	0.1731
290.6559	0.1915
290.8686	0.181
291.0813	0.177
291.294	0.1749
291.5067	0.1757
291.7194	0.1781
291.932	0.1881
292.1447	0.1846
292.3573	0.1566
292.5699	0.1762
292.7825	0.1787
292.9951	0.1698
293.2077	0.1811
293.4203	0.183
293.6328	0.1608
293.8454	0.1943
294.0579	0.1752
294.2704	0.1686
294.4829	0.1717
294.6954	0.1765
294.9079	0.1671
295.1204	0.1687
295.3328	0.1655
295.5453	0.1826
295.7577	0.1772
295.9701	0.1758
296.1825	0.1762
296.3949	0.1636
296.6073	0.1666
296.8197	0.1594
297.0321	0.1827
297.2444	0.1632
297.4567	0.1784
297.6691	0.178
297.8814	0.1637
298.0937	0.1642
298.306	0.1793
298.5182	0.1706
298.7305	0.1733
298.9428	0.1592
299.155	0.1732
299.3672	0.167
299.5794	0.1682
299.7916	0.1719
300.0038	0.1669
300.216	0.1786
300.4282	0.1747
300.6403	0.1653
300.8525	0.168
301.0646	0.1519
301.2767	0.1705
301.4888	0.1657
301.7009	0.169
301.913	0.1659
302.125	0.1688
302.3371	0.1624
302.5491	0.1538
302.7612	0.1599
302.9732	0.1687
303.1852	0.1692
303.3972	0.1685
303.6092	0.1534
303.8211	0.146
304.0331	0.1577
304.245	0.1518
304.457	0.1633
304.6689	0.1588
304.8808	0.1698
305.0927	0.1581
305.3046	0.1492
305.5164	0.1634
305.7283	0.1508
305.9401	0.1574
306.152	0.1644
306.3638	0.1583
306.5756	0.1425
306.7874	0.1579
306.9992	0.1526
307.2109	0.1417
307.4227	0.1307
307.6344	0.144
307.8462	0.1343
308.0579	0.1377
308.2696	0.1435
308.4813	0.1421
308.693	0.1356
308.9046	0.1396
309.1163	0.1344
309.328	0.1274
309.5396	0.131
309.7512	0.1321
309.9628	0.1248
310.1744	0.1262
310.386	0.1198
310.5976	0.1308
310.8091	0.1294
311.0207	0.1128
311.2322	0.1153
311.4437	0.1185
311.6552	0.1146
311.8667	0.1214
312.0782	0.1004
312.2897	0.1077
312.5012	0.1239
312.7126	0.1085
312.924	0.1028
313.1355	0.1172
313.3469	0.1121
313.5583	0.1113
313.7696	0.116
313.981	0.107
314.1924	0.1077
314.4037	0.1132
314.6151	0.1164
314.8264	0.1103
315.0377	0.0983
315.249	0.1014
315.4603	0.1104
315.6716	0.1116
315.8828	0.0992
316.0941	0.117
316.3053	0.1151
316.5165	0.1039
316.7277	0.101
316.9389	0.1108
317.1501	0.0941
317.3613	0.1102
317.5724	0.0803
317.7836	0.1203
317.9947	0.0988
318.2058	0.106
318.417	0.0928
318.6281	0.1006
318.8391	0.1054
319.0502	0.0837
319.2613	0.103
319.4723	0.1038
319.6834	0.1073
319.8944	0.101
320.1054	0.1067
320.3164	0.1111
320.5274	0.0997
320.7383	0.1012
320.9493	0.1119
321.1602	0.1241
321.3712	0.094
321.5821	0.1043
321.793	0.1121
322.0039	0.1021
322.2148	0.102
322.4257	0.1133
322.6365	0.1169
322.8474	0.1076
323.0582	0.1084
323.269	0.1045
323.4798	0.1215
323.6906	0.1075
323.9014	0.1076
324.1122	0.111
324.3229	0.1018
324.5337	0.1069
324.7444	0.0972
324.9551	0.1163
325.1658	0.1174
325.3765	0.1128
325.5872	0.1157
325.7979	0.1134
326.0085	0.1058
326.2192	0.1144
326.4298	0.1204
326.6404	0.1078
326.851	0.1045
327.0616	0.1027
327.2722	0.1038
327.4828	0.1099
327.6933	0.1014
327.9039	0.1176
328.1144	0.1163
328.3249	0.112
328.5354	0.108
328.7459	0.1111
328.9564	0.1093
329.1669	0.1095
329.3773	0.1124
329.5878	0.1117
329.7982	0.1142
330.0086	0.102
330.219	0.1073
330.4294	0.1025
330.6398	0.107
330.8502	0.1084
331.0605	0.1129
331.2708	0.1093
331.4812	0.1068
331.6915	0.111
331.9018	0.1154
332.1121	0.1048
332.3224	0.1126
332.5326	0.1168
332.7429	0.1147
332.9531	0.1262
333.1633	0.1205
333.3735	0.1113
333.5837	0.1082
333.7939	0.1142
334.0041	0.1276
334.2143	0.1197
334.4244	0.1116
334.6346	0.1081
334.8447	0.1337
335.0548	0.1148
335.2649	0.1209
335.475	0.1289
335.685	0.1106
335.8951	0.1207
336.1051	0.1233
336.3152	0.1285
336.5252	0.1067
336.7352	0.1213
336.9452	0.1197
337.1552	0.1271
337.3652	0.1152
337.5751	0.1142
337.7851	0.1238
337.995	0.1008
338.2049	0.1221
338.4148	0.1135
338.6247	0.1236
338.8346	0.1163
339.0445	0.1127
339.2543	0.1196
339.4642	0.1247
339.674	0.106
339.8838	0.119
340.0936	0.1288
340.3034	0.1429
340.5132	0.1225
340.7229	0.1236
340.9327	0.1258
341.1424	0.1252
341.3522	0.1218
341.5619	0.1291
341.7716	0.1294
341.9813	0.1275
342.1909	0.1162
342.4006	0.1398
342.6102	0.1397
342.8199	0.1411
343.0295	0.1276
343.2391	0.1344
343.4487	0.14
343.6583	0.128
343.8679	0.1266
344.0774	0.138
344.287	0.1333
344.4965	0.1296
344.706	0.128
344.9155	0.1275
345.125	0.1238
345.3345	0.1292
345.544	0.1304
345.7534	0.1358
345.9629	0.1289
346.1723	0.1307
346.3817	0.1231
346.5911	0.1266
346.8005	0.1439
347.0099	0.1322
347.2193	0.1352
347.4286	0.1347
347.638	0.1433
347.8473	0.1505
348.0566	0.1513
348.2659	0.1372
348.4752	0.1417
348.6845	0.1324
348.8937	0.1411
349.103	0.1449
349.3122	0.1341
349.5214	0.133
349.7306	0.1528
349.9398	0.1482
350.149	0.1445
350.3582	0.147
350.5674	0.1445
350.7765	0.1432
350.9856	0.1445
351.1948	0.1501
351.4039	0.1316
351.613	0.135
351.822	0.133
352.0311	0.1574
352.2402	0.137
352.4492	0.149
352.6582	0.1574
352.8672	0.1482
353.0762	0.1479
353.2852	0.1395
353.4942	0.1501
353.7032	0.1601
353.9121	0.1444
354.1211	0.1574
354.33	0.1571
354.5389	0.1552
354.7478	0.1489
354.9567	0.1497
355.1655	0.1587
355.3744	0.1607
355.5833	0.1491
355.7921	0.1805
356.0009	0.1538
356.2097	0.1659
356.4185	0.1607
356.6273	0.1659
356.8361	0.1585
357.0448	0.1525
357.2536	0.1576
357.4623	0.1615
357.671	0.1744
357.8797	0.1701
358.0884	0.1549
358.2971	0.1636
358.5057	0.1611
358.7144	0.1786
358.923	0.1706
359.1316	0.1726
359.3402	0.1681
359.5488	0.1714
359.7574	0.1551
359.966	0.1749
360.1746	0.1802
360.3831	0.1775
360.5916	0.1692
360.8002	0.1707
361.0087	0.1794
361.2172	0.1613
361.4256	0.1706
361.6341	0.1767
361.8426	0.1807
362.051	0.1765
362.2594	0.1833
362.4678	0.1746
362.6762	0.2044
362.8846	0.1756
363.093	0.1727
363.3014	0.1863
363.5097	0.1817
363.718	0.1887
363.9264	0.1823
364.1347	0.1802
364.343	0.1829
364.5513	0.1924
364.7595	0.1875
364.9678	0.2045
365.176	0.195
365.3842	0.1772
365.5925	0.1896
365.8007	0.1857
366.0089	0.2002
366.217	0.1889
366.4252	0.2104
366.6333	0.2171
366.8415	0.2001
367.0496	0.181
367.2577	0.2068
367.4658	0.2068
367.6739	0.1851
367.882	0.221
368.09	0.1902
368.2981	0.2063
368.5061	0.1803
368.7141	0.2005
368.9221	0.2176
369.1301	0.1968
369.3381	0.196
369.5461	0.2011
369.754	0.2022
369.962	0.2098
370.1699	0.2212
370.3778	0.2265
370.5857	0.1929
370.7936	0.215
371.0015	0.2049
371.2093	0.2139
371.4172	0.2151
371.625	0.2015
371.8328	0.2195
372.0406	0.2119
372.2484	0.2085
372.4562	0.2147
372.664	0.1967
372.8717	0.2266
373.0795	0.2127
373.2872	0.2326
373.4949	0.2267
373.7026	0.2206
373.9103	0.2095
374.118	0.2238
374.3256	0.2068
374.5333	0.2221
374.7409	0.2036
374.9485	0.237
375.1561	0.2116
375.3637	0.2416
375.5713	0.2169
375.7789	0.2216
375.9864	0.2207
376.194	0.221
376.4015	0.221
376.609	0.228
376.8165	0.2218
377.024	0.2223
377.2315	0.2131
377.4389	0.2133
377.6464	0.226
377.8538	0.2364
378.0612	0.2208
378.2686	0.2117
378.476	0.2409
378.6834	0.2424
378.8908	0.2369
379.0981	0.2466
379.3055	0.2265
379.5128	0.2196
379.7201	0.2254
379.9274	0.2212
380.1347	0.2345
380.342	0.2453
380.5492	0.2316
380.7565	0.2451
380.9637	0.2197
381.1709	0.2282
381.3781	0.2371
381.5853	0.2391
381.7925	0.2412
381.9997	0.2438
382.2068	0.2409
382.4139	0.2446
382.6211	0.2319
382.8282	0.2207
383.0353	0.2416
383.2424	0.2331
383.4494	0.2463
383.6565	0.2273
383.8635	0.2302
384.0706	0.2223
384.2776	0.2403
384.4846	0.2239
384.6916	0.2543
384.8986	0.2427
385.1055	0.2442
385.3125	0.2601
385.5194	0.2369
385.7263	0.2532
385.9333	0.225
386.1402	0.2348
386.347	0.2414
386.5539	0.2212
386.7608	0.2588
386.9676	0.2192
387.1744	0.2376
387.3813	0.2295
387.5881	0.2567
387.7948	0.2237
388.0016	0.2276
388.2084	0.2425
388.4151	0.2316
388.6219	0.2384
388.8286	0.2299
389.0353	0.2433
389.242	0.2292
389.4487	0.2371
389.6553	0.2302
389.862	0.2181
390.0686	0.2257
390.2753	0.2277
390.4819	0.23
390.6885	0.2234
390.8951	0.2161
391.1016	0.2208
391.3082	0.2279
391.5147	0.243
391.7213	0.2357
391.9278	0.2107
392.1343	0.2157
392.3408	0.2178
392.5473	0.2337
392.7537	0.2126
392.9602	0.2045
393.1666	0.2088
393.373	0.2177
393.5794	0.2269
393.7858	0.2078
393.9922	0.2014
394.1986	0.2119
394.4049	0.2229
394.6113	0.2077
394.8176	0.1937
395.0239	0.1987
395.2302	0.1928
395.4365	0.2107
395.6428	0.1963
395.8491	0.1965
396.0553	0.2035
396.2615	0.2029
396.4678	0.1937
396.674	0.1885
396.8802	0.2042
397.0863	0.2068
397.2925	0.1894
397.4987	0.1971
397.7048	0.1988
397.9109	0.2009
398.117	0.194
398.3231	0.1956
398.5292	0.1983
398.7353	0.209
398.9413	0.2023
399.1474	0.1945
399.3534	0.195
399.5594	0.1909
399.7654	0.1934
399.9714	0.2072
400.1774	0.1925
400.3833	0.1877
400.5893	0.1979
400.7952	0.2057
401.0011	0.2032
401.207	0.2086
401.4129	0.1947
401.6188	0.2136
401.8247	0.1975
402.0305	0.1905
402.2364	0.1965
402.4422	0.1971
402.648	0.2085
402.8538	0.2224
403.0596	0.2034
403.2654	0.2009
403.4711	0.1892
403.6768	0.2078
403.8826	0.2218
404.0883	0.2107
404.294	0.2054
404.4997	0.1942
404.7054	0.2059
404.911	0.1758
405.1167	0.2089
405.3223	0.2019
405.5279	0.2124
405.7335	0.1952
405.9391	0.1917
406.1447	0.1942
406.3502	0.2173
406.5558	0.1908
406.7613	0.1987
406.9668	0.2001
407.1724	0.2018
407.3778	0.1908
407.5833	0.1826
407.7888	0.1814
407.9942	0.1957
408.1997	0.1946
408.4051	0.2084
408.6105	0.1905
408.8159	0.1993
409.0213	0.1813
409.2267	0.1993
409.432	0.1839
409.6374	0.1961
409.8427	0.1943
410.048	0.1957
410.2533	0.1961
410.4586	0.2019
410.6639	0.1753
410.8691	0.1736
411.0744	0.1963
411.2796	0.1768
411.4848	0.1886
411.69	0.1762
411.8952	0.2094
412.1004	0.1897
412.3056	0.2014
412.5107	0.178
412.7158	0.199
412.921	0.1885
413.1261	0.1958
413.3312	0.189
413.5362	0.1871
413.7413	0.1872
413.9464	0.1838
414.1514	0.1904
414.3564	0.1791
414.5614	0.1754
414.7664	0.1881
414.9714	0.197
415.1764	0.2063
415.3813	0.1992
415.5863	0.1928
415.7912	0.1924
415.9961	0.1976
416.201	0.1922
416.4059	0.1848
416.6108	0.1787
416.8156	0.2016
417.0205	0.1859
417.2253	0.1558
417.4301	0.2039
417.6349	0.1946
417.8397	0.1763
418.0445	0.1914
418.2492	0.1859
418.454	0.1858
418.6587	0.1914
418.8634	0.1836
419.0681	0.1674
419.2728	0.189
419.4775	0.1784
419.6822	0.1688
419.8868	0.1623
420.0915	0.1887
420.2961	0.1682
420.5007	0.18
420.7053	0.1841
420.9099	0.1686
421.1144	0.183
421.319	0.1717
421.5235	0.1707
421.728	0.1843
421.9325	0.179
422.137	0.1779
422.3415	0.1831
422.546	0.1657
422.7504	0.1648
422.9549	0.1833
423.1593	0.1753
423.3637	0.1722
423.5681	0.1687
423.7725	0.1714
423.9769	0.1508
424.1812	0.1652
424.3856	0.1685
424.5899	0.1666
424.7942	0.1635
424.9985	0.1858
425.2028	0.1599
425.4071	0.1765
425.6113	0.1431
425.8156	0.1605
426.0198	0.1621
426.224	0.1321
426.4282	0.1431
426.6324	0.1477
426.8366	0.1601
427.0407	0.1595
427.2449	0.1532
427.449	0.1485
427.6531	0.1321
427.8572	0.1521
428.0613	0.1435
428.2654	0.1425
428.4694	0.136
428.6735	0.1424
428.8775	0.1721
429.0815	0.1547
429.2855	0.1345
429.4895	0.1459
429.6935	0.1509
429.8975	0.1625
430.1014	0.1342
430.3053	0.1367
430.5093	0.1276
430.7132	0.1088
430.9171	0.1207
431.1209	0.139
431.3248	0.128
431.5286	0.1419
431.7325	0.1311
431.9363	0.1194
432.1401	0.1249
432.3439	0.1009
432.5477	0.1133
432.7514	0.1032
432.9552	0.1222
433.1589	0.1006
433.3627	0.1095
433.5664	0.1012
433.7701	0.1038
433.9737	0.0985
434.1774	0.11
434.3811	0.0988
434.5847	0.1119
434.7883	0.111
434.9919	0.118
435.1955	0.0903
435.3991	0.0859
435.6027	0.0993
435.8062	0.0998
436.0098	0.076
436.2133	0.086
436.4168	0.0835
436.6203	0.0845
436.8238	0.1036
437.0272	0.0856
437.2307	0.0885
437.4341	0.102
437.6375	0.0782
437.841	0.0852
438.0443	0.0868
438.2477	0.0868
438.4511	0.0813
438.6545	0.0932
438.8578	0.0823
439.0611	0.0771
439.2644	0.0862
439.4677	0.0713
439.671	0.0725
439.8743	0.0823
440.0775	0.0713
440.2808	0.068
440.484	0.0628
440.6872	0.0459
440.8904	0.0589
441.0936	0.0879
441.2967	0.0648
441.4999	0.0628
441.703	0.0583
441.9062	0.0647
442.1093	0.0633
442.3124	0.0784
442.5155	0.0365
442.7185	0.0342
442.9216	0.0342
443.1246	0.0695
443.3276	0.0548
443.5307	0.0626
443.7337	0.0541
443.9366	0.0482
444.1396	0.041
444.3426	0.0443
444.5455	0.0521
444.7484	0.0473
444.9513	0.037
445.1542	0.0619
445.3571	0.0464
445.56	0.0401
445.7628	0.039
445.9657	0.0305
446.1685	0.0498
446.3713	0.049
446.5741	0.0456
446.7769	0.0436
446.9797	0.0305
447.1824	0.0423
447.3852	0.0291
447.5879	0.0376
447.7906	0.0509
447.9933	0.0275
448.196	0.033
448.3986	0.0201
448.6013	0.0345
448.8039	0.0087
449.0066	0.024
449.2092	0.049
449.4118	0.0288
449.6143	0.0324
449.8169	0.0275
450.0195	0.0132
450.222	0.0069
450.4245	0.0197
450.627	0.0262
450.8295	0.0326
451.032	0.0223
451.2345	0.0237
451.4369	0.0198
451.6394	0.0267
451.8418	0.021
452.0442	0.0189
452.2466	0.0245
452.449	0.0034
452.6513	-0.0004
452.8537	0.015
453.056	0.0068
453.2583	0.0292
453.4607	0.0151
453.663	0.0302
453.8652	0.0298
454.0675	0.0046
454.2697	0.0153
454.472	0.0035
454.6742	0.017
454.8764	0.0099
455.0786	0.0151
455.2808	0.0152
455.4829	0.0056
455.6851	0.016
455.8872	0.0117
456.0893	0.0201
456.2915	-0.0087
456.4935	0.0139
456.6956	0.0146
456.8977	0.0304
457.0997	0.0158
457.3018	-0.0033
457.5038	0.0117
457.7058	0.0135
457.9078	-0.009
458.1098	0.0121
458.3117	0.0086
458.5137	0.0055
458.7156	0.0108
458.9175	-0.0004
459.1194	0.011
459.3213	-0.0008
459.5232	0.0103
459.725	-0.0071
459.9269	-0.0039
460.1287	-0.0084
460.3305	0.0033
460.5323	0.004
460.7341	0.0041
460.9359	0.008
461.1376	0.0002
461.3394	-0.0054
461.5411	0
461.7428	0.0055
461.9445	0.008
462.1462	0.0101
462.3479	0.0034
462.5495	0.0064
462.7512	0.0097
462.9528	0.0067
463.1544	-0.0095
463.356	0.0037
463.5576	0.0047
463.7592	-0.0013
463.9607	-0.0001
464.1623	0.0215
464.3638	0.0195
464.5653	-0.0019
464.7668	-0.011
464.9683	0.0194
465.1697	0.0191
465.3712	-0.008
465.5726	-0.0137
465.7741	0.0064
465.9755	-0.013
466.1769	-0.0133
466.3782	0.0035
466.5796	-0.0064
466.7809	0.0094
466.9823	-0.0136
467.1836	0.0012
467.3849	-0.0018
467.5862	0.0045
467.7875	-0.0022
467.9887	0.0106
468.19	0.0039
468.3912	-0.0083
468.5924	-0.0102
468.7936	-0.0014
468.9948	-0.0008
469.196	0.0004
469.3972	-0.0248
469.5983	0.0065
469.7994	-0.0244
470.0006	-0.0008
470.2017	-0.0115
470.4027	-0.0077
470.6038	0.0085
470.8049	-0.01
471.0059	-0.0192
471.2069	-0.0266
471.408	0.0041
471.6089	0.0166
471.8099	-0.0115
472.0109	0.0045
472.2119	-0.011
472.4128	-0.0229
472.6137	-0.009
472.8146	-0.0114
473.0155	-0.0045
473.2164	0.008
473.4173	0.0039
473.6181	0.005
473.819	-0.0025
474.0198	0.002
474.2206	-0.0021
474.4214	-0.016
474.6222	-0.0074
474.8229	-0.0064
475.0237	-0.0119
475.2244	-0.0019
475.4251	-0.0017
475.6258	-0.0091
475.8265	-0.0159
476.0272	0.0122
476.2278	0.0055
476.4285	-0.0013
476.6291	-0.0096
476.8297	0.0031
477.0303	-0.0081
477.2309	-0.0061
477.4315	-0.0123
477.632	-0.0096
477.8326	0.0018
478.0331	0.0094
478.2336	0.0108
478.4341	-0.0074
478.6346	-0.0151
478.8351	-0.0132
479.0355	0.0135
479.236	-0.013
479.4364	0.0031
479.6368	-0.0067
479.8372	-0.0067
480.0376	0.0022
480.2379	-0.0298
480.4383	-0.0155
480.6386	0.0102
480.8389	-0.005
481.0392	-0.0139
481.2395	-0.004
481.4398	0.0024
481.6401	0.0018
481.8403	-0.0063
482.0405	-0.0031
482.2408	-0.006
482.441	0.0121
482.6411	-0.0135
482.8413	-0.0177
483.0415	-0.0121
483.2416	-0.0148
483.4417	-0.0052
483.6419	-0.0029
483.8419	-0.0093
484.042	0.0071
484.2421	0.0017
484.4422	-0.0024
484.6422	-0.0069
484.8422	-0.0032
485.0422	-0.0139
485.2422	0.0084
485.4422	-0.0002
485.6422	-0.0069
485.8421	-0.0063
486.042	0.0013
486.242	-0.0023
486.4419	-0.0103
486.6417	-0.0207
486.8416	-0.0077
487.0415	-0.0024
487.2413	-0.0108
487.4411	-0.0176
487.641	-0.0194
487.8408	0.0019
488.0405	-0.0087
488.2403	-0.0083
488.4401	-0.0043
488.6398	-0.0051
488.8395	-0.0019
489.0392	0.0041
489.2389	-0.0066
489.4386	-0.0166
489.6383	-0.0125
489.8379	-0.002
490.0376	-0.0019
490.2372	-0.0147
490.4368	-0.0179
490.6364	-0.0037
490.836	-0.0126
491.0355	-0.0132
491.2351	-0.0136
491.4346	-0.0036
491.6341	-0.0166
491.8336	-0.0012
492.0331	-0.02
492.2326	-0.009
492.432	-0.0036
492.6315	-0.0123
492.8309	-0.0111
493.0303	-0.0178
493.2297	-0.0177
493.4291	-0.0137
493.6284	-0.0083
493.8278	-0.0026
494.0271	-0.0009
494.2264	-0.0044
494.4257	-0.0176
494.625	-0.0091
494.8243	-0.0183
495.0236	-0.0066
495.2228	-0.0096
495.422	-0.006
495.6213	-0.0063
495.8205	-0.0113
496.0196	-0.0049
496.2188	0.0004
496.418	-0.0141
496.6171	-0.0179
496.8162	-0.0109
497.0153	-0.005
497.2144	-0.0079
497.4135	-0.0061
497.6126	-0.0075
497.8116	-0.0112
498.0107	-0.0063
498.2097	-0.0072
498.4087	-0.0114
498.6077	-0.0002
498.8067	-0.0142
499.0056	-0.0079
499.2046	-0.0136
499.4035	-0.0325
499.6024	-0.0148
499.8013	-0.003
500.0002	-0.009
500.199	0.0003
500.3979	-0.0158
500.5967	-0.0228
500.7956	-0.008
500.9944	-0.0099
501.1932	-0.0158
501.3919	-0.0095
501.5907	-0.0125
501.7895	-0.0141
501.9882	-0.0166
502.1869	-0.0021
502.3856	-0.0153
502.5843	-0.0153
502.783	-0.0183
502.9816	-0.0145
503.1803	-0.0182
503.3789	-0.0153
503.5775	-0.0104
503.7761	-0.022
503.9747	-0.0096
504.1732	-0.0098
504.3718	-0.0102
504.5703	-0.0027
504.7689	-0.0082
504.9674	-0.0113
505.1658	-0.0208
505.3643	-0.0117
505.5628	-0.0122
505.7612	-0.0162
505.9597	0.0107
506.1581	-0.0091
506.3565	0.0025
506.5549	-0.0084
506.7532	-0.0299
506.9516	-0.006
507.1499	-0.0052
507.3482	-0.0197
507.5465	-0.017
507.7448	-0.0049
507.9431	-0.0189
508.1414	-0.0024
508.3396	-0.0093
508.5379	-0.0057
508.7361	-0.0088
508.9343	-0.0137
509.1325	-0.0086
509.3306	-0.0074
509.5288	-0.0014
509.7269	-0.0149
509.9251	-0.009
510.1232	-0.014
510.3213	-0.0129
510.5193	-0.0058
510.7174	-0.0201
510.9154	-0.0159
511.1135	-0.0146
511.3115	-0.0084
511.5095	-0.0173
511.7075	-0.0137
511.9055	-0.0029
512.1034	-0.0101
512.3014	0.0009
512.4993	-0.0008
512.6972	-0.013
512.8951	-0.0074
513.093	-0.0104
513.2908	-0.0106
513.4887	0.0013
513.6865	-0.0154
513.8844	-0.0196
514.0822	-0.0076
514.2799	-0.0162
514.4777	-0.0097
514.6755	-0.0153
514.8732	-0.0125
515.0709	-0.0191
515.2687	-0.0168
515.4664	-0.0055
515.664	-0.0114
515.8617	-0.0097
516.0594	-0.0154
516.257	-0.012
516.4546	-0.0109
516.6522	-0.001
516.8498	-0.0101
517.0474	-0.0023
517.2449	-0.0012
517.4425	-0.0125
517.64	-0.0068
517.8375	-0.0021
518.035	0.0036
518.2325	-0.01
518.43	-0.0118
518.6274	-0.0055
518.8249	-0.017
519.0223	-0.0003
519.2197	-0.0105
519.4171	-0.0108
519.6145	-0.0169
519.8118	-0.0018
520.0092	-0.0183
520.2065	-0.0135
520.4038	-0.0156
520.6011	0.0008
520.7984	-0.0061
520.9956	-0.0077
521.1929	-0.0123
521.3901	-0.0094
521.5874	-0.0049
521.7846	-0.003
521.9818	-0.0153
522.1789	-0.0178
522.3761	-0.0014
522.5732	-0.009
522.7704	-0.0089
522.9675	-0.0087
523.1646	-0.0251
523.3617	-0.0093
523.5587	-0.0099
523.7558	-0.0199
523.9528	-0.007
524.1498	-0.0077
524.3468	-0.0152
524.5438	-0.0163
524.7408	-0.0111
524.9378	0.0017
525.1347	-0.0053
525.3316	-0.0042
525.5285	-0.0207
525.7254	-0.0122
525.9223	-0.0037
526.1192	-0.0104
526.316	-0.0141
526.5129	-0.0029
526.7097	-0.0067
526.9065	-0.0087
527.1033	-0.0154
527.3	-0.0067
527.4968	-0.0087
527.6935	-0.0054
527.8903	-0.0131
528.087	-0.0163
528.2837	-0.0047
528.4804	-0.0056
528.677	-0.0106
528.8737	-0.0023
529.0703	-0.0039
529.2669	-0.0021
529.4635	-0.0148
529.6601	-0.0074
529.8567	-0.0173
530.0532	-0.0168
530.2498	-0.0046
530.4463	-0.0031
530.6428	-0.0152
530.8393	-0.0008
531.0358	-0.0069
531.2322	-0.0107
531.4287	-0.0201
531.6251	-0.0117
531.8215	-0.0097
532.0179	-0.0141
532.2143	0.0015
532.4107	-0.0039
532.607	-0.0103
532.8034	0.0015
532.9997	0.0009
533.196	-0.0168
533.3923	-0.008
533.5886	0.0009
533.7848	-0.0022
533.9811	-0.0055
534.1773	-0.01
534.3735	0.003
534.5697	-0.0094
534.7659	-0.0045
534.9621	-0.0061
535.1582	-0.016
535.3544	-0.0104
535.5505	-0.0165
535.7466	-0.0121
535.9427	-0.0099
536.1387	-0.0154
536.3348	-0.0171
536.5308	-0.0035
536.7269	-0.0174
536.9229	-0.0034
537.1189	-0.0054
537.3148	-0.0073
537.5108	-0.0095
537.7068	-0.0098
537.9027	0.0003
538.0986	-0.0012
538.2945	-0.0159
538.4904	-0.0101
538.6863	-0.0049
538.8821	-0.0044
539.078	-0.0013
539.2738	-0.0015
539.4696	-0.0051
539.6654	-0.0037
539.8611	0.0021
540.0569	-0.0028
540.2526	-0.0146
540.4484	-0.0037
540.6441	0.0024
540.8398	-0.0053
541.0355	-0.0042
541.2311	-0.0094
541.4268	-0.0169
541.6224	-0.0005
541.818	-0.0058
542.0136	-0.0066
542.2092	-0.0033
542.4048	-0.0064
542.6003	0.0008
542.7959	-0.01
542.9914	-0.0102
543.1869	0.0012
543.3824	-0.0035
543.5779	-0.0052
543.7734	-0.0043
543.9688	-0.0105
544.1642	-0.0022
544.3596	-0.0121
544.555	-0.0154
544.7504	-0.0008
544.9458	-0.0102
545.1411	-0.0102
545.3365	-0.0007
545.5318	-0.0027
545.7271	-0.0008
545.9224	0.0028
546.1177	-0.0032
546.3129	0.0012
546.5081	-0.0057
546.7034	-0.0012
546.8986	-0.0117
547.0938	-0.0108
547.289	-0.0041
547.4841	-0.0066
547.6793	-0.0006
547.8744	-0.0091
548.0695	-0.0032
548.2646	-0.0021
548.4597	-0.0009
548.6548	0.0048
548.8498	0.001
549.0448	0.011
549.2399	-0.0014
549.4349	0.0098
549.6298	-0.0006
549.8248	0.0028
550.0198	-0.0093
550.2147	-0.0084
550.4096	-0.0031
550.6045	-0.0036
550.7994	-0.0003
550.9943	0.0008
551.1892	-0.0031
551.384	-0.0035
551.5788	-0.0064
551.7737	0.0065
551.9685	-0.0075
552.1632	0.002
552.358	-0.0131
552.5528	-0.0029
552.7475	0.0005
552.9422	-0.0034
553.1369	0.0057
553.3316	0.0004
553.5263	-0.0123
553.7209	0.0108
553.9156	-0.0101
554.1102	-0.0057
554.3048	-0.0106
554.4994	0.0077
554.694	-0.0028
554.8885	0.003
555.0831	-0.0052
555.2776	-0.0046
555.4721	0.0031
555.6666	-0.0025
555.8611	0.0058
556.0555	-0.0013
556.25	-0.0006
556.4444	-0.0054
556.6388	-0.009
556.8332	0.0014
557.0276	0.0045
557.222	-0.0075
557.4163	-0.0088
557.6107	-0.0108
557.805	0.0021
557.9993	-0.0051
558.1936	-0.0003
558.3879	-0.0051
558.5821	-0.0053
558.7764	-0.0131
558.9706	-0.0025
559.1648	-0.001
559.359	-0.0046
559.5532	-0.0151
559.7473	-0.001
559.9415	-0.0006
560.1356	-0.0125
560.3297	-0.0112
560.5238	-0.0115
560.7179	-0.0089
560.9119	-0.0057
561.106	-0.0102
561.3	-0.0075
561.494	-0.001
561.688	-0.0023
561.882	-0.0049
562.076	-0.0085
562.2699	-0.0023
562.4639	-0.0018
562.6578	0.0021
562.8517	-0.0063
563.0456	-0.0028
563.2395	0.0034
563.4333	-0.0094
563.6272	-0.002
563.821	-0.0054
564.0148	0.0005
564.2086	-0.0075
564.4024	-0.009
564.5961	-0.0063
564.7899	0.0039
564.9836	-0.0052
565.1773	-0.0029
565.371	0.0031
565.5647	0.0015
565.7584	-0.0007
565.952	-0.0012
566.1456	-0.0032
566.3393	-0.0027
566.5329	-0.0059
566.7264	-0.0003
566.92	-0.0101
567.1136	0.0015
567.3071	-0.0074
567.5006	0.0048
567.6941	-0.0034
567.8876	-0.0038
568.0811	0.0014
568.2745	0.0018
568.468	-0.0068
568.6614	0.0012
568.8548	-0.0002
569.0482	-0.0027
569.2416	-0.0058
569.4349	0.0024
569.6283	0.0034
569.8216	-0.0076
570.0149	-0.0059
570.2082	0.0043
570.4015	0.0038
570.5947	0.0013
570.788	0.0011
570.9812	0.0032
571.1744	-0.0027
571.3676	-0.0174
571.5608	-0.0099
571.754	0.0018
571.9471	0.0036
572.1402	-0.0036
572.3333	0.0002
572.5264	-0.002
572.7195	-0.0027
572.9126	-0.0025
573.1057	-0.0021
573.2987	-0.0014
573.4917	0.0008
573.6847	-0.0051
573.8777	0.0042
574.0707	0.0032
574.2636	-0.0035
574.4566	0.0047
574.6495	0.0025
574.8424	-0.001
575.0353	0.0021
575.2281	0.0128
575.421	0.0038
575.6138	0.004
575.8067	0.0002
575.9995	-0.0045
576.1923	0.0037
576.385	0.0054
576.5778	-0.0053
576.7706	-0.0003
576.9633	-0.0009
577.156	0.0043
577.3487	0.0014
577.5414	-0.0034
577.734	-0.0043
577.9267	-0.0008
578.1193	-0.0062
578.3119	-0.0049
578.5045	0.0018
578.6971	0.0034
578.8897	0.0034
579.0822	-0.0005
579.2747	0.0017
579.4673	-0.0071
579.6598	-0.0024
579.8522	-0.0004
580.0447	-0.0022
580.2372	0.0031
580.4296	0.0048
580.622	-0.0057
580.8144	-0.0015
581.0068	0.0003
581.1992	-0.0084
581.3915	-0.0065
581.5839	-0.003
581.7762	-0.0061
581.9685	0.0022
582.1608	0.0026
582.353	0.0001
582.5453	0.0004
582.7375	-0
582.9298	0
583.122	0.0028
583.3142	-0.0011
583.5063	0.0037
583.6985	-0.0001
583.8906	-0.0015
584.0827	0.001
584.2749	0.0029
584.4669	-0.0039
584.659	-0.0064
584.8511	-0.0004
585.0431	-0.0033
585.2352	0.0058
585.4272	0.0002
585.6192	0.0027
585.8111	-0.001
586.0031	-0.0022
586.195	0.0026
586.387	0.0015
586.5789	0.0005
586.7708	-0.001
586.9627	0.0001
587.1545	-0.0047
587.3464	0.0067
587.5382	0.002
587.73	0.0024
587.9218	0.0072
588.1136	-0.0019
588.3053	0.0032
588.4971	-0.0097
588.6888	-0.0032
588.8805	-0.0042
589.0722	0.0037
589.2639	0.0038
589.4556	0.001
589.6472	-0.0054
589.8389	-0.0092
590.0305	-0.009
590.2221	0.0017
590.4137	-0.0109
590.6052	0.0066
590.7968	0.0035
590.9883	0.0015
591.1798	-0.0064
591.3713	-0.0022
591.5628	0.0005
591.7543	0.0062
591.9458	0.0021
592.1372	0.0087
592.3286	0.0059
592.52	0.0127
592.7114	0.001
592.9028	-0.0017
593.0941	0.0035
593.2855	0.0028
593.4768	-0.0037
593.6681	-0.0102
593.8594	0.0041
594.0506	0.0033
594.2419	0.0102
594.4331	0.0059
594.6244	0.0088
594.8156	-0.012
595.0067	0.0089
595.1979	0.0011
595.3891	0.0054
595.5802	-0.0001
595.7713	-0.0045
595.9624	-0.0021
596.1535	0.0058
596.3446	0.0008
596.5357	0.0003
596.7267	-0.0006
596.9177	0.0001
597.1087	-0.0036
597.2997	-0.0088
597.4907	0.0006
597.6817	0.0005
597.8726	0.0073
598.0635	-0.0062
598.2544	-0.0017
598.4453	-0.0037
598.6362	-0.0058
598.827	-0.0067
599.0179	0.0038
599.2087	0.0011
599.3995	-0.0022
599.5903	-0.0023
599.7811	0.0021
599.9718	0.0012
600.1626	0.0004
600.3533	-0.008
600.544	-0.0018
600.7347	-0.003
600.9254	0.0011
601.116	-0.0104
601.3067	0.0024
601.4973	-0.0009
601.6879	0.0087
601.8785	-0.0039
602.0691	0.0039
602.2596	-0.0044
602.4502	-0.0022
602.6407	0.0004
602.8312	0.0017
603.0217	-0.0046
603.2122	-0.0008
603.4027	-0.0006
603.5931	-0.0031
603.7835	-0.0054
603.9739	-0.0041
604.1643	0.0022
604.3547	-0.0016
604.5451	0.0019
604.7354	-0.0028
604.9257	0.0065
605.116	-0.0033
605.3063	0.0019
605.4966	0.0072
605.6869	0.003
605.8771	0.0069
606.0673	0.0017
606.2575	0.0091
606.4477	0.0035
606.6379	0.0039
606.8281	-0.0043
607.0182	-0.0039
607.2083	0.0107
607.3985	0.0011
607.5885	0.0007
607.7786	0.007
607.9687	-0.0012
608.1587	0.0018
608.3488	0.0022
608.5388	0.0012
608.7288	0.002
608.9187	-0.005
609.1087	-0.0024
609.2986	-0.0055
609.4886	-0.0039
609.6785	0.0003
609.8684	0.0044
610.0582	0.0045
610.2481	-0.0017
610.4379	0.0016
610.6278	-0.0028
610.8176	0.0013
611.0074	-0.0024
611.1971	0.0007
611.3869	-0.0016
611.5766	0.0006
611.7664	-0.0003
611.9561	0.0009
612.1458	-0.005
612.3354	0.0001
612.5251	0.0017
612.7147	0.0101
612.9044	0.0069
613.094	-0.007
613.2836	0.0018
613.4731	-0.0011
613.6627	-0.0047
613.8522	-0.0067
614.0417	0.0061
614.2313	-0.0028
614.4207	-0.0081
614.6102	-0.0041
614.7997	-0.0049
614.9891	-0.0061
615.1785	0.0024
615.3679	-0.0105
615.5573	0.0079
615.7467	-0.0093
615.9361	-0.0033
616.1254	-0.0055
616.3147	0.0035
616.504	0.0063
616.6933	-0.0019
616.8826	0.0045
617.0718	0.0061
617.2611	0.0057
617.4503	-0.002
617.6395	-0.0017
617.8287	0.001
618.0179	-0.0025
618.207	0.0049
618.3961	0.0031
618.5853	0.0001
618.7744	0.0076
618.9634	0.0077
619.1525	0.0027
619.3416	0.0083
619.5306	-0
619.7196	0.0011
619.9086	-0.0056
620.0976	0.0022
620.2866	0.0075
620.4755	0.0008
620.6645	-0.0032
620.8534	0.0033
621.0423	0.0018
621.2312	0.0046
621.42	-0.0039
621.6089	-0.0016
621.7977	0.0082
621.9865	-0.0065
622.1753	0.0063
622.3641	0.0008
622.5529	0.0052
622.7416	0.0012
622.9303	0.0017
623.1191	0.0086
623.3078	-0.0024
623.4964	0.0045
623.6851	-0.0098
623.8737	-0.003
624.0624	0.0043
624.251	0.0032
624.4396	0.003
624.6282	-0.0051
624.8167	0.0049
625.0053	0.0015
625.1938	0.0084
625.3823	0
625.5708	-0.0056
625.7593	-0.0028
625.9477	-0.0013
626.1362	-0.0005
626.3246	-0.0027
626.513	0.0033
626.7014	0.0082
626.8898	-0.0013
627.0781	-0.0042
627.2665	-0.001
627.4548	0.0077
627.6431	-0.0014
627.8314	0.0015
628.0197	0.0092
628.2079	-0.0053
628.3962	-0.0034
628.5844	0.0047
628.7726	0.0048
628.9608	0.0086
629.1489	0.0078
629.3371	0.0068
629.5252	0.0044
629.7134	0.0128
629.9015	0.0027
630.0895	0.0034
630.2776	0.0061
630.4657	0.0041
630.6537	-0.0012
630.8417	-0.0011
631.0297	-0.0054
631.2177	0.0009
631.4057	-0.0038
631.5936	0.0003
631.7815	0.0067
631.9695	0.002
632.1574	0.007
632.3452	0.01
632.5331	0.0046
632.7209	-0.004
632.9088	0.0156
633.0966	0.0133
633.2844	-0.001
633.4722	0.0053
633.6599	0.0054
633.8477	0.0014
634.0354	0.0045
634.2231	-0.0034
634.4108	0.0039
634.5985	-0.0015
634.7861	-0.0027
634.9738	-0.0006
635.1614	-0.0028
635.349	0.0055
635.5366	-0.0009
635.7242	-0.0009
635.9117	0.0009
636.0993	0.0071
636.2868	0.0081
636.4743	0.0021
636.6618	0.0092
636.8492	0.0074
637.0367	-0.0027
637.2241	0.0025
637.4115	-0.0033
637.5989	-0.0023
637.7863	0.0009
637.9737	-0.0044
638.161	0.0059
638.3484	-0.0001
638.5357	0.005
638.723	-0.0012
638.9103	-0.0015
639.0975	0.0025
639.2848	0.0079
639.472	0.0072
639.6592	0.0017
639.8464	0.012
640.0336	0.01
640.2208	-0.0024
640.4079	-0.0051
640.595	0.0018
640.7821	0.0014
640.9692	-0.0021
641.1563	0.0051
641.3434	-0.0037
641.5304	-0.001
641.7174	-0.0071
641.9044	-0.0087
642.0914	0.002
642.2784	-0.003
642.4653	0.0012
642.6523	-0.0022
642.8392	-0.0036
643.0261	-0.0008
643.213	0.0042
643.3999	-0.0073
643.5867	-0.0034
643.7735	0.0007
643.9604	-0.0122
644.1472	0.0008
644.3339	-0.0006
644.5207	-0.0052
644.7075	-0.0028
644.8942	-0.002
645.0809	0.0069
645.2676	0.0053
645.4543	0.003
645.6409	0.002
645.8276	0.0031
646.0142	0.0019
646.2008	0.0004
646.3874	-0.0079
646.574	0.0018
646.7605	-0.0019
646.9471	-0.0156
647.1336	-0.0004
647.3201	0.0063
647.5066	-0.0037
647.6931	-0.0007
647.8795	-0.0022
648.0659	0.0084
648.2524	0.0062
648.4388	-0.0057
648.6252	0.0014
648.8115	-0.0011
648.9979	-0.0085
649.1842	-0.0013
649.3705	0.0096
649.5568	0.008
649.7431	0.0118
649.9294	-0.0038
650.1156	0.0028
650.3018	-0.0009
650.488	0.0008
650.6742	0.0005
650.8604	0.0035
651.0466	-0.0095
651.2327	0.0039
651.4188	0.0023
651.6049	-0.0015
651.791	-0.0053
651.9771	0.0059
652.1632	0.0034
652.3492	-0.0025
652.5352	0.001
652.7212	-0.0024
652.9072	-0.0026
653.0932	0.0012
653.2791	-0.0103
653.465	0.0003
653.651	-0.0108
653.8369	-0.0066
654.0227	-0.0037
654.2086	-0.0031
654.3944	0.0011
654.5803	-0.0053
654.7661	-0.0024
654.9519	0.0031
655.1377	-0.008
655.3234	-0.003
655.5092	-0.0048
655.6949	-0.0086
655.8806	-0.005
656.0663	0.0009
656.2519	-0.0068
656.4376	-0.002
656.6232	-0.0027
656.8088	-0.0055
656.9945	-0.0009
657.18	-0.002
657.3656	0.0036
657.5511	-0.0064
657.7367	-0.0065
657.9222	0.0078
658.1077	-0.0027
658.2932	-0.0016
658.4786	-0.02
658.6641	-0.0025
658.8495	0.0038
659.0349	-0.0025
659.2203	0.008
659.4057	0.0027
659.591	-0.0017
659.7764	-0.0082
659.9617	-0.0074
660.147	-0.0021
660.3323	-0.0009
660.5176	0.0111
660.7028	-0.0001
660.888	0.0023
661.0733	0.0033
661.2585	-0.007
661.4436	0.0026
661.6288	-0.0037
661.8139	-0.0039
661.9991	0.0004
662.1842	-0.0068
662.3693	-0.0001
662.5544	-0.0066
662.7394	0.0034
662.9245	-0.0063
663.1095	0
663.2945	0.0036
663.4795	-0.0031
663.6644	-0.0016
663.8494	0.0017
664.0343	-0.0012
664.2193	-0.0141
664.4042	0.0045
664.589	-0.005
664.7739	0.0017
664.9587	-0.0075
665.1436	0.0027
665.3284	0.0031
665.5132	0.0029
665.698	0.0053
665.8827	0.0031
666.0675	0.0006
666.2522	0.0034
666.4369	0.0018
666.6216	0.004
666.8063	-0.004
666.9909	0.0058
667.1756	-0.0009
667.3602	-0.0028
667.5448	-0.0053
667.7294	0.0039
667.9139	0.0047
668.0985	0.0113
668.283	0.0019
668.4675	-0.0034
668.652	0.0025
668.8365	-0.0056
669.0209	0.0097
669.2054	0.0092
669.3898	-0.0053
669.5742	0.0057
669.7586	0.0045
669.943	0.0041
670.1273	0.0067
670.3117	0.011
670.496	0.0137
670.6803	0.0105
670.8646	0.002
671.0488	0.0027
671.2331	0.012
671.4173	0.0066
671.6015	0.0046
671.7857	0.0029
671.9699	0.0117
672.1541	0.0061
672.3382	0.0073
672.5223	0.0104
672.7064	0.0033
672.8905	0.0099
673.0746	0.0021
673.2587	-0.0022
673.4427	0.0048
673.6267	0.0087
673.8107	0.0075
673.9947	0.0023
674.1787	0.0046
674.3626	-0.0065
674.5465	-0.0017
674.7304	0.0042
674.9143	0.0043
675.0982	0.0059
675.2821	-0.0143
675.4659	0.0082
675.6497	-0.0059
675.8335	-0.0043
676.0173	0.0011
676.2011	0.0073
676.3849	-0.0034
676.5686	-0.002
676.7523	-0.0004
676.936	-0.0006
677.1197	0.003
677.3034	-0.006
677.487	0.0021
677.6706	0.0017
677.8542	0.0024
678.0378	-0.0019
678.2214	-0.0037
678.405	0.0031
678.5885	-0.0076
678.772	-0.0031
678.9555	-0.008
679.139	-0.0019
679.3225	-0.0002
679.5059	-0.0066
679.6894	-0.0008
679.8728	-0.0005
680.0562	-0.0071
680.2395	-0.0062
680.4229	-0.0026
680.6062	0.0028
680.7896	0.0059
680.9729	-0.0097
681.1562	-0.0013
681.3394	-0.0004
681.5227	-0.0127
681.7059	-0.0028
681.8891	-0.0046
682.0723	0.0037
682.2555	0.0026
682.4387	-0.0016
682.6218	-0.0056
682.805	-0.0034
682.9881	-0.0009
683.1712	0.0033
683.3542	-0.0015
683.5373	0.0072
683.7203	-0.0029
683.9034	0.001
684.0864	-0.01
684.2694	-0.0052
684.4523	0.0051
684.6353	-0.009
684.8182	0.0001
685.0011	-0.0125
685.184	0.0036
685.3669	0
685.5498	-0.0033
685.7326	-0.0004
685.9154	-0.0035
686.0982	0.0061
686.281	0.0107
686.4638	0.0065
686.6465	0.0016
686.8293	-0.0004
687.012	0.005
687.1947	0.0017
687.3774	0.0049
687.56	-0.0055
687.7427	0.0024
687.9253	-0.0013
688.1079	-0.0027
688.2905	0.0073
688.4731	-0.0025
688.6556	-0.0055
688.8382	-0.0006
689.0207	-0.0031
689.2032	-0.0067
689.3857	-0.0063
689.5681	0.0046
689.7506	-0.0031
689.933	-0.0053
690.1154	-0.0034
690.2978	-0.0015
690.4802	-0.0008
690.6626	-0.0042
690.8449	-0.0039
691.0272	0.0024
691.2095	-0.0065
691.3918	-0.0022
691.5741	-0.0004
691.7563	-0.0064
691.9386	0.0069
692.1208	-0.0004
692.303	0.0027
692.4852	-0.0078
692.6673	0.0042
692.8495	0.0017
693.0316	0.0003
693.2137	-0.0037
693.3958	0.0071
693.5778	0.0003
693.7599	0.0017
693.9419	-0.0049
694.1239	0.0029
694.3059	0.0001
694.4879	0.0073
694.6699	0.0076
694.8518	0.0003
695.0337	0.0015
695.2157	0.0064
695.3975	0.0032
695.5794	0.0076
695.7613	0.0005
695.9431	0.0022
696.1249	0.0048
696.3067	0.0051
696.4885	0.0023
696.6703	-0.0042
696.852	-0.0035
697.0337	-0.0035
697.2154	0.0002
697.3971	-0
697.5788	0.0076
697.7605	-0.0024
697.9421	0.003
698.1237	-0.0018
698.3053	-0.0067
698.4869	-0.0034
698.6685	-0.007
698.85	0.0008
699.0315	0.0143
699.213	-0.0058
699.3945	0.0108
699.576	0.0071
699.7575	0.0118
699.9389	0.0093
700.1203	-0.0029
700.3017	-0.0039
700.4831	-0.0051
700.6645	0.0056
700.8458	0.013
701.0271	-0.0029
701.2084	0.0051
701.3897	0.0038
701.571	0.0009
701.7523	-0.0025
701.9335	0.0067
702.1147	-0.0029
702.2959	0.0046
702.4771	-0.0025
702.6583	-0.0077
702.8394	-0.0123
703.0205	0.001
703.2016	-0.0091
703.3827	-0.0013
703.5638	0.0121
703.7449	0.0037
703.9259	0.011
704.1069	-0.0053
704.2879	0.0033
704.4689	0.0001
704.6499	-0.0004
704.8308	0.0022
705.0117	0.001
705.1927	0.0114
705.3735	-0.0068
705.5544	0.0021
705.7353	0.0031
705.9161	-0.0037
706.0969	-0.0067
706.2777	0.0007
706.4585	-0.0114
706.6393	-0.005
706.82	-0.004
707.0007	0.0001
707.1815	0.0021
707.3621	0.0047
707.5428	-0
707.7235	-0.0004
707.9041	0.0089
708.0847	-0.003
708.2653	-0.0033
708.4459	-0.0081
708.6265	0.003
708.807	0.0052
708.9875	-0.0017
709.168	-0
709.3485	-0.0089
709.529	0.0014
709.7095	-0.0092
709.8899	0.0035
710.0703	-0.0037
710.2507	0.0033
710.4311	0.0014
710.6115	-0.0018
710.7918	-0.0069
710.9721	0.0044
711.1524	-0.0068
711.3327	-0.0031
711.513	0.0027
711.6932	-0.0006
711.8735	0.0045
712.0537	-0.0043
712.2339	-0.0053
712.4141	-0.0127
712.5942	-0.0042
712.7744	-0.0025
712.9545	-0.0099
713.1346	-0.006
713.3147	-0.0124
713.4947	-0.0067
713.6748	-0.0016
713.8548	-0.0045
714.0348	0.0039
714.2148	-0.0006
714.3948	0.0014
714.5748	-0.0077
714.7547	-0.0029
714.9346	0.0039
715.1145	-0.0064
715.2944	-0.0103
715.4743	0.0014
715.6541	-0.0141
715.834	0.0056
716.0138	-0.0084
716.1936	-0.0139
716.3733	-0.0032
716.5531	0.0088
716.7328	-0.0057
716.9126	-0.0054
717.0923	-0.0059
717.2719	0.0016
717.4516	0.001
717.6312	-0.01
717.8109	-0.007
717.9905	0.007
718.1701	-0.0084
718.3496	-0.0052
718.5292	0.0048
718.7087	0.0009
718.8882	-0.007
719.0677	0.0041
719.2472	-0.0091
719.4267	-0.003
719.6061	0.0016
719.7856	0.004
719.965	0.0006
720.1443	-0.0079
720.3237	0.0139
720.5031	-0.0003
720.6824	0.0076
720.8617	0.0055
721.041	0.0042
721.2203	0.0097
721.3995	0.0023
721.5788	0.0053
721.758	0.0104
721.9372	0.0043
722.1164	0.0126
722.2956	0.006
722.4747	0.0068
722.6538	0.006
722.8329	0.0153
723.012	0.0048
723.1911	0.0046
723.3702	-0.0029
723.5492	0.0074
723.7282	0.0002
723.9072	0.0002
724.0862	-0.0027
724.2652	0.001
724.4441	-0.0028
724.623	0.0009
724.8019	0.0032
724.9808	0.0096
725.1597	-0.0091
725.3385	0.006
725.5174	0.0017
725.6962	0.0048
725.875	0.0091
726.0538	0.0042
726.2325	-0.0012
726.4112	-0.0019
726.59	-0.0019
726.7687	-0.004
726.9474	0.0083
727.126	0.0029
727.3047	-0.0114
727.4833	-0.0025
727.6619	-0.0033
727.8405	-0.0098
728.0191	-0.0117
728.1976	-0.0013
728.3762	-0.0021
728.5547	0.0006
728.7332	-0.0083
728.9116	-0.0021
729.0901	0.0049
729.2686	-0.0137
729.447	-0.0054
729.6254	-0.0077
729.8038	-0.0023
729.9821	-0.0118
730.1605	-0.0035
730.3388	0.0012
730.5171	0.0005
730.6954	-0.0078
730.8737	0.0021
731.0519	0.0091
731.2302	0.0004
731.4084	0.008
731.5866	0.0016
731.7648	0.0026
731.9429	0.0086
732.1211	-0.0098
732.2992	-0.0016
732.4773	0.0043
732.6554	-0.0063
732.8335	-0.0013
733.0115	0.0064
733.1896	0.0127
733.3676	-0.007
733.5456	0.008
733.7235	0.0103
733.9015	-0.0016
734.0794	0.0014
734.2574	-0.0058
734.4353	-0.0007
734.6131	0.0108
734.791	0.0068
734.9689	0.0055
735.1467	0.0045
735.3245	-0.0094
735.5023	-0.0091
735.68	-0.0107
735.8578	0.0011
736.0355	-0.0221
736.2132	-0.0099
736.3909	-0.0063
736.5686	-0.0155
736.7463	0.001
736.9239	-0.0005
737.1015	-0.0018
737.2791	-0.001
737.4567	-0.0046
737.6343	-0.0155
737.8118	-0.0028
737.9894	0.0024
738.1669	-0.0135
738.3444	0.0021
738.5218	0.0013
738.6993	0.0004
738.8767	-0.0065
739.0541	0.007
739.2315	-0.014
739.4089	-0.0023
739.5863	0.0012
739.7636	-0.0108
739.9409	-0.0003
740.1182	-0.0049
740.2955	-0.0038
740.4728	-0.0046
740.65	-0.0057
740.8272	-0.0083
741.0044	-0.0104
741.1816	0.0063
741.3588	-0.0057
741.5359	0.0016
741.7131	-0.0125
741.8902	0.0008
742.0673	-0.0056
742.2444	-0.0142
742.4214	-0.0111
742.5985	-0.0181
742.7755	-0.0065
742.9525	-0.0185
743.1295	-0.0024
743.3064	-0.0055
743.4834	-0.007
743.6603	-0.0087
743.8372	-0.0048
744.0141	-0.0002
744.191	0.0036
744.3678	0.0032
744.5446	-0.0048
744.7215	0.0059
744.8982	-0.0033
745.075	-0.0009
745.2518	-0.0084
745.4285	0.0034
745.6052	0.0072
745.7819	0.0007
745.9586	-0.0062
746.1353	0.0009
746.3119	0.0025
746.4885	0.0014
746.6651	-0.0047
746.8417	0.0072
747.0183	0.0043
747.1948	0.0076
747.3714	-0.0003
747.5479	0.0041
747.7244	0.0028
747.9008	0.0098
748.0773	-0.0044
748.2537	0.0055
748.4301	-0.006
748.6065	0.0081
748.7829	-0.0012
748.9593	0.0007
749.1356	0.0028
749.3119	0.0086
749.4882	-0.0083
749.6645	-0.0023
749.8408	0.0029
750.017	0.0005
750.1933	0.0027
750.3695	-0.0079
750.5457	0.0068
750.7218	0.0011
750.898	0.0023
751.0741	-0.0034
751.2502	0.0007
751.4263	-0.0001
751.6024	-0.0013
751.7784	0.0025
751.9545	-0.0068
752.1305	0.0016
752.3065	-0.0058
752.4825	0.0066
752.6584	-0.0009
752.8344	-0.0071
753.0103	-0.0087
753.1862	0
753.3621	-0.0057
753.5379	-0.0159
753.7138	0.0006
753.8896	-0.005
754.0654	0.0008
754.2412	0.007
754.417	-0.0041
754.5927	0.0006
754.7685	-0.004
754.9442	-0.0011
755.1199	0.0086
755.2956	-0.0066
755.4712	0.0079
755.6469	0
755.8225	-0.0115
755.9981	-0.0033
756.1736	0.0049
756.3492	0.0022
756.5248	0.0041
756.7003	-0.0053
756.8758	0.0053
757.0513	-0.0071
757.2267	-0.0014
757.4022	0.0015
757.5776	0.0087
757.753	0.0072
757.9284	0.0034
758.1038	0.0058
758.2791	0.0041
758.4545	-0.0062
758.6298	0.0035
758.8051	0.0025
758.9803	0.0037
759.1556	0.0089
759.3308	0.0047
759.506	0.007
759.6812	0.0071
759.8564	0.0152
760.0316	0.0011
760.2067	0.0062
760.3819	0.0094
760.557	0.0027
760.732	0.0007
760.9071	-0.0048
761.0821	0.0035
761.2572	0.0082
761.4322	-0.0089
761.6072	0.0016
761.7821	-0.0096
761.9571	0
762.132	-0.0093
762.3069	-0.0156
762.4818	-0.0079
762.6567	-0.0161
762.8316	-0.0047
763.0064	-0.0017
763.1812	-0.0096
763.356	-0.0089
763.5308	-0.0001
763.7055	0.0077
763.8803	-0.001
764.055	-0.0018
764.2297	-0.0062
764.4044	-0.0085
764.579	-0.0062
764.7537	-0.0002
764.9283	0.0072
765.1029	-0.0142
765.2775	-0.0028
765.4521	-0.0129
765.6266	0.001
765.8011	-0.0066
765.9756	-0.0032
766.1501	0.0071
766.3246	-0.0056
766.4991	-0.0086
766.6735	-0.0035
766.8479	-0.0077
767.0223	0.0055
767.1967	-0.0071
767.371	-0.0013
767.5454	-0.0033
767.7197	0.0078
767.894	-0.0107
768.0683	-0.0024
768.2425	0.0077
768.4168	-0.0041
768.591	0.0047
768.7652	0.0071
768.9394	0.0108
769.1135	0.0026
769.2877	0.006
769.4618	-0.0063
769.6359	-0.0049
769.81	0.0056
769.984	0.0007
770.1581	-0.0076
770.3321	0.0003
770.5061	0.0028
770.6801	0.0004
770.8541	-0.0055
771.028	0.001
771.202	-0.0067
771.3759	0.0059
771.5498	-0.0004
771.7236	0.0089
771.8975	0.0104
772.0713	0.0143
772.2451	0.0097
772.4189	0.0184
772.5927	0.0049
772.7665	0.0113
772.9402	-0.0112
773.1139	-0.0042
773.2876	-0.0015
773.4613	0.0076
773.635	0.0087
773.8086	-0.0052
773.9822	0.0066
774.1558	0.008
774.3294	-0.0247
774.503	0.003
774.6765	0.0036
774.8501	0.0101
775.0236	0.0092
775.1971	-0.0045
775.3705	-0.0039
775.544	0.0109
775.7174	-0.012
775.8908	0.0013
776.0642	0.0001
776.2376	-0.0003
776.4109	-0.0058
776.5843	0.0001
776.7576	0.0019
776.9309	0.0029
777.1041	0.0058
777.2774	0.0033
777.4506	0.0079
777.6238	-0.0002
777.797	-0.0003
777.9702	-0.0066
778.1434	-0.0013
778.3165	-0.0071
778.4896	-0.0034
778.6627	0.0004
778.8358	0.0049
779.0089	-0.0027
779.1819	0.002
779.3549	0.0184
779.5279	0.0116
779.7009	0.0053
779.8739	-0.0001
780.0468	0.0027
780.2197	0.0048
780.3926	0.0017
780.5655	0.0055
780.7384	-0.0103
780.9112	-0.0008
781.0841	-0.014
781.2569	0.0035
781.4297	0.0049
781.6024	0.0029
781.7752	-0.002
781.9479	0.006
782.1206	0.0013
782.2933	-0.0063
782.466	0.0003
782.6386	0.0084
782.8113	0.0024
782.9839	0.0109
783.1565	0.0186
783.329	0.0051
783.5016	0.0186
783.6741	0.0061
783.8466	0.0068
784.0191	0.0063
784.1916	0.0004
784.3641	0.0105
784.5365	-0.0008
784.7089	-0.0041
784.8813	-0.0124
785.0537	0.0006
785.2261	-0.0106
785.3984	-0.0155
785.5707	0.0111
785.743	0.0088
785.9153	-0.0129
786.0876	-0.0017
786.2598	-0.004
786.432	-0.0073
786.6042	0.0135
786.7764	-0.0035
786.9486	0.0175
787.1207	-0.0174
787.2928	0.0077
787.4649	0.0125
787.637	0.0097
787.8091	0.0019
787.9811	-0.0028
788.1532	-0.0041
788.3252	0.0134
788.4972	-0.0112
788.6691	0.0019
788.8411	0.005
789.013	-0.0154
789.1849	-0.0022
789.3568	0.006
789.5287	0.0028
789.7005	-0.0064
789.8723	0.0074
790.0442	0.0128
790.2159	0.0139
790.3877	0.0088
790.5595	-0.0025
790.7312	0.0156
790.9029	0.0124
791.0746	0.0005
791.2463	0.008
791.4179	0.0025
791.5896	-0.0036
791.7612	0.0095
791.9328	0.0145
792.1044	-0.0154
792.2759	0.0061
792.4474	0.0104
792.619	0.0077
792.7905	0.0195
792.9619	0.011
793.1334	0.013
793.3048	0.0128
793.4762	0.0086
793.6476	0.0164
793.819	-0.0031
793.9904	0.0081
794.1617	-0.0095
794.333	0.0125
794.5043	-0.0043
794.6756	-0.0093
794.8469	0.0071
795.0181	0.0053
795.1893	0.0072
795.3605	0.0145
795.5317	0.0077
795.7029	-0.0013
795.874	0.0007
796.0452	0.0021
796.2163	-0.0014
796.3873	0.0034
796.5584	0.0082
796.7294	0.016
796.9005	0.0233
797.0715	0.0204
797.2425	-0.0111
797.4134	0.0042
797.5844	0.011
797.7553	-0.005
797.9262	-0.0009
798.0971	-0.0142
798.2679	-0.0099
798.4388	0.0043
798.6096	0.0095
798.7804	0.0151
798.9512	0.0185
799.122	0.0018
799.2927	0.0234
799.4635	0.0181
799.6342	-0.014
799.8049	0.0065
799.9755	0.0113
800.1462	0.0065
800.3168	0.009
800.4874	-0.0038
800.658	0.03
800.8286	0.0167
800.9991	0.0222
801.1696	0.0061
801.3402	0.0153
801.5106	-0.007
801.6811	0.0085
801.8516	0.0264
802.022	0.0094
802.1924	0.0246
802.3628	0.0126
802.5332	0.0268
802.7035	0.033
802.8739	-0.0004
803.0442	0.0031
803.2145	0.0096
803.3847	-0.016
803.555	0.0018
803.7252	-0.0019
803.8954	-0.0188
804.0656	-0.0059
804.2358	0.0124
804.4059	0.0309
804.5761	0.0208
804.7462	0.0089
804.9163	0.0178
805.0864	0.005
805.2564	0.0239
805.4264	0.0187
805.5965	0.0046
805.7665	0.0298
805.9364	0.0075
806.1064	0.0373
806.2763	0.0118
806.4462	0.0243
806.6161	0.002
806.786	0.0158
806.9559	0.0062
807.1257	0.0135
807.2955	0.0133
807.4653	-0.0011
807.6351	-0.0075
807.8048	0.0055
807.9746	0.0241
808.1443	0.0082
808.314	-0.0011
808.4837	0.0019
808.6533	0.0281
808.8229	0.0377
808.9926	0.0058
809.1622	0.0214
809.3317	0.0045
809.5013	0.0308
809.6708	0.0144
809.8403	0.0278
810.0098	0.0072
810.1793	0.009
810.3488	0.0061
810.5182	-0.0172
810.6876	0.0157
810.857	0.0164
811.0264	0.0257
811.1958	0.0342
811.3651	0.0274
811.5344	0.0276
811.7037	0.0199
811.873	0.0152
812.0422	0.0255
812.2115	0.0242
812.3807	0.0015
812.5499	0.0129
812.7191	0.0344
812.8882	0.0095
813.0574	0.0051
813.2265	0.0017
813.3956	-0.0061
813.5646	0.0104
813.7337	0.0039
813.9027	0.018
814.0718	0.0431
814.2407	0.0522
814.4097	0.0023
814.5787	-0.0034
814.7476	0.0058
814.9165	0.0151
815.0854	0.0185
815.2543	0.0106
815.4232	0.018
815.592	0.0177
815.7608	0.0173
815.9296	0.0214
816.0984	0.0138
816.2671	0.0057
816.4359	0.0068
816.6046	0.0147
816.7733	0.0072
816.942	-0.0065
817.1106	0.0147
817.2793	0.017
817.4479	0.0154
817.6165	0.0352
817.785	0.0241
817.9536	0.0182
818.1221	-0.0079
818.2906	0.0214
818.4591	0.0077
818.6276	-0.0056
818.7961	0.02
818.9645	0.0108
819.1329	0.0209
819.3013	0.0394
819.4697	0.0532
819.638	0.0039
819.8064	0.0275
819.9747	0.0128
820.143	0.0041
820.3113	0.0045
820.4795	0.0186
820.6477	0.0356
820.816	0.0022
820.9842	0.0125
821.1523	0.0052
821.3205	0.0153
821.4886	0.0012
821.6567	0.0084
821.8248	0.0167
821.9929	0.0282
822.1609	-0.001
822.329	0.011
822.497	0.0291
822.665	0.0093
822.833	-0.0038
823.0009	0.02
823.1688	0.0316
823.3367	0.0125
823.5046	0.0106
823.6725	0.0544
823.8404	-0.0077
824.0082	0.0334
824.176	0.0065
824.3438	0.0171
824.5116	0.006
824.6793	0.0298
824.847	-0.0157
825.0147	0.0001
825.1824	0.0242
825.3501	0.0266
825.5177	-0.0039
825.6854	0.0323
825.853	0.0102
826.0206	0.0148
826.1881	0.0421
826.3557	-0.0138
826.5232	0.0001
826.6907	0.0055
826.8582	0.0252
827.0257	-0.0189
827.1931	0.0181
827.3605	0.0111
827.528	-0.0054
827.6953	-0.0084
827.8627	0.0081
828.03	0.0319
828.1974	-0.0092
828.3647	-0.0346
828.532	0.0208
828.6992	0.0051
828.8665	0.0113
829.0337	-0.0187
829.2009	0.0549
829.3681	0.0131
829.5352	0.0409
829.7024	-0.0105
829.8695	-0.0254
830.0366	0.0326
830.2037	0.028
830.3707	0.041
830.5378	-0.0062
830.7048	0.0497
830.8718	0.0185
831.0388	0.0106
831.2057	-0.0031
831.3727	0.0473
831.5396	0.0088
831.7065	-0.0123
831.8734	0.0206
832.0402	-0.0314
832.2071	0.0263
832.3739	0.0136
832.5407	0.0474
832.7075	0.0239
832.8742	0.0107
833.041	-0.0064
833.2077	0.0272
833.3744	0.0188
833.541	0.0366
833.7077	-0.0152
833.8743	0.0035
834.0409	0.0176
834.2075	0.004
834.3741	0.0095
834.5407	0.0264
834.7072	0.0066
834.8737	-0.0025
835.0402	-0.0032
835.2067	0.0386
835.3731	0.0476
835.5395	0.0205
835.706	0.0451
835.8723	0.0082
836.0387	0.0361
836.2051	0.0319
836.3714	0.0373
836.5377	-0.0193
836.704	0.0397
836.8703	0.0224
837.0365	-0.0128
837.2027	-0.0234
837.3689	0.0488
837.5351	0.0378
837.7013	-0.0148
837.8674	0.0172
838.0335	0.0159
838.1997	0.0101
838.3657	0.0073
838.5318	-0.0395
838.6978	0.0216
838.8639	0.053
839.0299	0.0037
839.1958	-0.0106
839.3618	0.0368
839.5277	0.0133
839.6937	0.0418
839.8596	0.0245
840.0254	0.0557
840.1913	0.0566
840.3571	0.0592
840.523	0.0291
840.6888	0.0573
840.8545	0.0031
841.0203	0.0406
841.186	0.0054
841.3517	0.0129
841.5174	0.0028
841.6831	0.0136
841.8488	0.0599
842.0144	0.0374
842.18	0.0305
842.3456	0.0573
842.5112	-0.0127
842.6767	0.0318
842.8422	0.0188
843.0077	0.0003
843.1732	-0.0322
843.3387	-0.0197
843.5042	0.0015
843.6696	-0.0139
843.835	0.0555
844.0004	0.0191
844.1657	0.0479
844.3311	-0.0333
844.4964	0.0003
844.6617	-0.0085
844.827	0.0015
844.9923	0.0323
845.1575	-0.0351
845.3227	-0.0089
845.4879	-0.0217
845.6531	-0.0155
845.8183	0.0124
845.9834	0.0408
846.1485	-0.0312
846.3136	-0.022
846.4787	-0.0765
846.6438	0.0416
846.8088	-0.0582
846.9738	-0.0153
847.1388	-0.0283
847.3038	-0.0011
847.4687	-0.1327
847.6337	0.0439
847.7986	0.0349
847.9635	-0.0098
848.1284	0.1172
848.2932	0.1939
848.458	-0.0716
848.6228	0.0843
848.7876	0.037
848.9524	-0.0561
849.1172	-0.0808
849.2819	0.1166
849.4466	-0.0608
849.6113	-0.0769
849.7759	0.0381
849.9406	-0.0081
850.1052	0.0711
850.2698	-0.0271
850.4344	0.0549
850.599	0.0454
850.7635	0.0946
850.928	0.0514
851.0925	-0.0274
851.257	0.0472
851.4215	0.1019
851.5859	-0.0393
851.7503	0.0019
851.9147	0.0346
852.0791	0.003
852.2434	0.0005
852.4078	0.1221
852.5721	0.1206
852.7364	-0.0155
852.9007	-0.2358
853.0649	0.0639
853.2291	0.0056
853.3934	-0.0577
853.5575	0.0375
853.7217	0.0176
853.8859	-0.0111
854.05	-0.0175
854.2141	0.062
854.3782	-0.0133
854.5423	-0.0462
854.7063	0.1949
854.8703	0.0205
855.0343	0.0438
855.1983	0.0009
855.3623	0.238
855.5262	0.0233
855.6901	-0.0629
855.854	0.011
856.0179	0.1468
856.1818	0.1784
856.3456	-0.0381
856.5094	-0.0662
856.6732	-0.1183
856.837	-0.085
857.0008	0.0644
857.1645	0.0955
857.3282	-0.1139
857.4919	0.3865
857.6556	-0.0344
857.8192	0.1577
857.9828	0.0749
858.1465	-0.0068
858.31	-0.0664
858.4736	0.0012
858.6372	-0.2202
858.8007	-0.2405
858.9642	0.1217
859.1277	-0.0884
859.2911	0.3515
859.4546	-0.0893
859.618	-0.2991
859.7814	0.0508
859.9448	0.0143
860.1081	0.1229
860.2715	0.1794
860.4348	0.7234
860.5981	-0.0479
860.7614	0.3379
860.9246	-0.1846
861.0879	-0.0223
861.2511	0.0165
861.4143	-0.3535
861.5774	0.3203
861.7406	-0.1476
861.9037	0.4055
862.0668	0.0588
862.2299	0.1367
862.393	-0.3587
862.556	-0.1385
862.7191	-0.2217
862.8821	-0.0985
863.0451	0.1433
863.208	0.0786
863.371	-0.0078
863.5339	0.0513
863.6968	-0.0181
863.8597	-0
864.0225	0.1661
864.1854	0.0501
864.3482	0.2175
864.511	0.1708
864.6737	0.0889
864.8365	0.6211
864.9992	-0.1255
865.1619	-0.0186
865.3246	0.1803
865.4873	0.1263
865.65	-0.1929
865.8126	-0.1387
865.9752	0.0984
866.1378	-0.2119
866.3004	-0
866.4629	0.4788
866.6254	-0.2628
866.7879	-0.0165
866.9504	-0
867.1129	-0
867.2753	0.1222
867.4377	0.1024
867.6001	-0.4347
867.7625	0.0867
867.9249	0.2204
868.0872	-0.2182
868.2495	0.1186
868.4118	-0.1291
868.5741	-0.3284
868.7363	0.2116
868.8986	-0.2447
869.0608	-0.2608
869.223	0.3851
869.3851	0.051
869.5473	-0
869.7094	0.2829
869.8715	-0
870.0336	-1.1169
870.1957	0.1086
870.3577	-1.0174
870.5197	0.3596
870.6817	-0
870.8437	0.0987
871.0057	-0.5147
871.1676	-0
871.3295	-0.5727
871.4914	-0
871.6533	-0.2029
871.8151	-0.0906
871.977	-0
872.1388	-0
872.3006	0.4022
872.4623	-0
872.6241	1.0173
872.7858	-0
872.9475	0.4445
873.1092	-0.1182
873.2709	-0
873.4325	-0.1521
873.5941	-0
873.7557	-0.44
873.9173	-0
874.0789	1.0857
874.2404	-0
874.4019	0.4423
874.5634	-0.1733
874.7249	0.3531
874.8863	0.117
875.0478	-0
875.2092	-0.3979
875.3706	0.1692
875.5319	-0.586
875.6933	-0.487
875.8546	0.1089
876.0159	0.2527
876.1772	-0
876.3385	-0
876.4997	0.1206
876.6609	-0.2965
876.8221	-0.0099
876.9833	0.1726
877.1445	-0.2788
877.3056	0.4507
877.4667	-0
877.6278	-0
877.7889	-0.7272
877.9499	-0
878.111	-0
878.272	-0
878.433	0.7622
878.5939	-0
878.7549	-0.28
878.9158	-0.8172
879.0767	0.0583
879.2376	-0
879.3984	-0
879.5593	-0
879.7201	0.0824
879.8809	-0.3336
880.0417	-0
880.2024	-0
880.3632	0.0532
880.5239	0.4612
880.6846	0.4574
880.8452	-2.2683
881.0059	-1.6712
881.1665	-0.2788
881.3271	-0.2418
881.4877	-0.2211
881.6483	-0
881.8088	-0
881.9693	-0
882.1298	-0
882.2903	-0
