Data from MonoPyChalIsomerACN10uM380nmA_Absorbance_13-38-30-349.txt Node
Date: Fri Jul 05 13:38:30 BST 2024
User: LASERRRRR
Spectrometer: FLMT03099
Trigger mode: 0
Integration Time (sec): 1.000000E-1
Scans to average: 1
Electric dark correction enabled: true
Nonlinearity correction enabled: false
Boxcar width: 0
XAxis mode: Wavelengths
Number of Pixels in Spectrum: 3648
>>>>>Begin Spectral Data<<<<<
179.3399	-0.1019
179.5586	-0.1019
179.7771	-0.1019
179.9957	-0.1753
180.2143	-0.1388
180.4329	0.0519
180.6514	-0
180.8699	0.2617
181.0885	-0
181.307	0.0917
181.5255	0.9777
181.744	0.6128
181.9625	-0
182.181	-0
182.3994	0.2225
182.6179	1.3757
182.8363	0.4267
183.0547	0.0787
183.2732	0.0831
183.4916	0.1702
183.71	0.1465
183.9284	0.1991
184.1467	-0.0519
184.3651	0.0549
184.5835	0.0519
184.8018	0.7568
185.0201	0.1625
185.2385	0.0363
185.4568	0.1769
185.6751	0.1572
185.8934	0.113
186.1117	0.1824
186.3299	0.0334
186.5482	0.2216
186.7664	0.1005
186.9847	-0.0563
187.2029	0.106
187.4211	-0.0369
187.6393	0.2395
187.8575	0.0172
188.0757	0.2882
188.2939	0.1752
188.512	-0.0013
188.7302	0.1771
188.9483	-0.0975
189.1665	-0.0005
189.3846	0.0107
189.6027	0.0134
189.8208	0.1613
190.0389	0.1155
190.257	0.1678
190.475	0.4944
190.6931	0.5795
190.9111	0.2506
191.1292	0.2109
191.3472	0.4116
191.5652	0.2363
191.7832	0.201
192.0012	0.902
192.2192	0.3286
192.4371	0.5803
192.6551	0.4573
192.873	0.4908
193.091	0.4827
193.3089	0.5809
193.5268	0.7082
193.7447	0.5957
193.9626	0.5117
194.1805	0.652
194.3984	0.8555
194.6162	0.8308
194.8341	0.6191
195.0519	0.6973
195.2697	0.6433
195.4875	0.7153
195.7054	0.7081
195.9231	0.6814
196.1409	0.7095
196.3587	0.7672
196.5765	0.8404
196.7942	0.6945
197.012	0.6187
197.2297	0.6262
197.4474	0.8522
197.6651	0.8193
197.8828	0.8141
198.1005	0.8272
198.3182	0.835
198.5358	0.8782
198.7535	0.7317
198.9711	0.6866
199.1888	0.7824
199.4064	1.1821
199.624	0.6554
199.8416	0.7297
200.0592	0.6469
200.2767	0.8539
200.4943	0.8495
200.7119	0.7367
200.9294	0.8015
201.1469	0.7547
201.3645	0.7948
201.582	0.7272
201.7995	0.8988
202.017	0.801
202.2344	0.832
202.4519	0.8224
202.6694	0.8486
202.8868	0.6731
203.1042	1.0952
203.3217	0.9965
203.5391	0.8336
203.7565	0.7023
203.9739	0.924
204.1913	0.7248
204.4086	0.8819
204.626	0.8317
204.8433	0.7312
205.0607	0.774
205.278	0.7388
205.4953	1.0533
205.7126	0.7697
205.9299	0.8562
206.1472	0.8233
206.3644	0.7427
206.5817	0.8667
206.7989	0.799
207.0162	0.7106
207.2334	0.883
207.4506	0.7894
207.6678	0.891
207.885	0.7478
208.1022	0.8958
208.3194	0.8359
208.5365	0.7364
208.7537	0.8009
208.9708	0.7372
209.1879	0.7711
209.405	0.9424
209.6222	0.9637
209.8392	0.8357
210.0563	0.7876
210.2734	0.7865
210.4905	0.7795
210.7075	0.8409
210.9245	0.8075
211.1416	1.0124
211.3586	0.7156
211.5756	0.8287
211.7926	0.795
212.0096	0.7412
212.2265	0.7782
212.4435	0.7258
212.6604	0.8756
212.8774	0.8013
213.0943	0.8125
213.3112	0.7624
213.5281	0.7115
213.745	0.6814
213.9619	0.7808
214.1788	0.6648
214.3956	0.6746
214.6125	0.6456
214.8293	0.686
215.0461	0.7084
215.2629	0.6572
215.4798	0.6658
215.6965	0.6337
215.9133	0.6785
216.1301	0.6728
216.3469	0.656
216.5636	0.6647
216.7803	0.6484
216.9971	0.6659
217.2138	0.6238
217.4305	0.6406
217.6472	0.5883
217.8639	0.6503
218.0805	0.6536
218.2972	0.6097
218.5138	0.5924
218.7305	0.5908
218.9471	0.5729
219.1637	0.5788
219.3803	0.5535
219.5969	0.5305
219.8135	0.5484
220.0301	0.6018
220.2466	0.5674
220.4632	0.5562
220.6797	0.503
220.8962	0.5131
221.1127	0.5206
221.3292	0.5615
221.5457	0.5107
221.7622	0.517
221.9787	0.5182
222.1951	0.5213
222.4116	0.538
222.628	0.5164
222.8444	0.5782
223.0608	0.5446
223.2772	0.5237
223.4936	0.5603
223.71	0.5241
223.9264	0.5587
224.1427	0.5004
224.3591	0.4972
224.5754	0.5112
224.7917	0.526
225.008	0.5654
225.2243	0.5213
225.4406	0.5704
225.6569	0.5395
225.8732	0.5185
226.0894	0.507
226.3057	0.5246
226.5219	0.5337
226.7381	0.5159
226.9543	0.5608
227.1705	0.5528
227.3867	0.5495
227.6029	0.5691
227.8191	0.5576
228.0352	0.5704
228.2513	0.5741
228.4675	0.587
228.6836	0.5819
228.8997	0.5404
229.1158	0.5643
229.3319	0.5603
229.548	0.5561
229.764	0.5533
229.9801	0.5776
230.1961	0.5846
230.4121	0.5584
230.6282	0.5648
230.8442	0.5653
231.0602	0.5693
231.2761	0.577
231.4921	0.5725
231.7081	0.5919
231.924	0.5646
232.14	0.5735
232.3559	0.5407
232.5718	0.5971
232.7877	0.5542
233.0036	0.5668
233.2195	0.5505
233.4353	0.5406
233.6512	0.5598
233.867	0.5729
234.0829	0.5528
234.2987	0.5851
234.5145	0.574
234.7303	0.5605
234.9461	0.5659
235.1619	0.5603
235.3776	0.5572
235.5934	0.5215
235.8091	0.5529
236.0249	0.5408
236.2406	0.542
236.4563	0.5441
236.672	0.5581
236.8877	0.5503
237.1034	0.5374
237.319	0.5328
237.5347	0.5557
237.7503	0.5608
237.966	0.5694
238.1816	0.5566
238.3972	0.5381
238.6128	0.5272
238.8284	0.5488
239.0439	0.5653
239.2595	0.5509
239.475	0.5484
239.6906	0.5302
239.9061	0.5432
240.1216	0.4935
240.3371	0.5488
240.5526	0.4967
240.7681	0.5261
240.9836	0.4964
241.199	0.4849
241.4145	0.4599
241.6299	0.4787
241.8453	0.4722
242.0607	0.4837
242.2761	0.4468
242.4915	0.4471
242.7069	0.4583
242.9223	0.4457
243.1376	0.4462
243.353	0.4364
243.5683	0.4087
243.7836	0.4302
243.9989	0.405
244.2142	0.385
244.4295	0.3954
244.6448	0.3769
244.86	0.3731
245.0753	0.3653
245.2905	0.3654
245.5057	0.3514
245.721	0.3508
245.9362	0.3466
246.1514	0.3512
246.3665	0.3283
246.5817	0.3408
246.7969	0.3187
247.012	0.3193
247.2271	0.3018
247.4423	0.2992
247.6574	0.2943
247.8725	0.2763
248.0876	0.2828
248.3026	0.2747
248.5177	0.2866
248.7328	0.2672
248.9478	0.2659
249.1628	0.2629
249.3779	0.2614
249.5929	0.2498
249.8079	0.2725
250.0228	0.26
250.2378	0.2551
250.4528	0.2537
250.6677	0.2315
250.8827	0.2432
251.0976	0.2297
251.3125	0.2421
251.5274	0.2194
251.7423	0.2279
251.9572	0.2279
252.172	0.2233
252.3869	0.2079
252.6017	0.2099
252.8166	0.1972
253.0314	0.1939
253.2462	0.2067
253.461	0.2185
253.6758	0.2051
253.8906	0.2102
254.1053	0.1938
254.3201	0.2048
254.5348	0.1984
254.7496	0.2064
254.9643	0.1976
255.179	0.2006
255.3937	0.1893
255.6083	0.2003
255.823	0.2026
256.0377	0.1854
256.2523	0.1998
256.467	0.1878
256.6816	0.1999
256.8962	0.1992
257.1108	0.189
257.3254	0.208
257.54	0.1962
257.7545	0.1947
257.9691	0.1959
258.1836	0.1885
258.3981	0.2034
258.6127	0.1989
258.8272	0.1878
259.0417	0.1845
259.2561	0.1822
259.4706	0.1899
259.6851	0.1809
259.8995	0.1778
260.114	0.1844
260.3284	0.1892
260.5428	0.1757
260.7572	0.1826
260.9716	0.1881
261.186	0.1854
261.4003	0.1856
261.6147	0.1885
261.829	0.1835
262.0433	0.1929
262.2577	0.1775
262.472	0.1845
262.6863	0.1807
262.9005	0.1892
263.1148	0.1911
263.3291	0.1849
263.5433	0.1787
263.7576	0.1829
263.9718	0.1842
264.186	0.1798
264.4002	0.1793
264.6144	0.1738
264.8286	0.1854
265.0427	0.1851
265.2569	0.1784
265.471	0.1917
265.6851	0.1655
265.8993	0.1667
266.1134	0.178
266.3275	0.1671
266.5415	0.1748
266.7556	0.1784
266.9697	0.1837
267.1837	0.1911
267.3978	0.1848
267.6118	0.1864
267.8258	0.1907
268.0398	0.1748
268.2538	0.1894
268.4677	0.183
268.6817	0.1644
268.8957	0.1859
269.1096	0.1821
269.3235	0.1922
269.5374	0.1762
269.7514	0.1626
269.9652	0.173
270.1791	0.1759
270.393	0.1705
270.6068	0.188
270.8207	0.1668
271.0345	0.1684
271.2483	0.1838
271.4622	0.1616
271.676	0.1792
271.8897	0.1643
272.1035	0.1604
272.3173	0.158
272.531	0.1691
272.7448	0.173
272.9585	0.1536
273.1722	0.1688
273.3859	0.1745
273.5996	0.1587
273.8133	0.1687
274.0269	0.1644
274.2406	0.1594
274.4542	0.1634
274.6679	0.1608
274.8815	0.1697
275.0951	0.1604
275.3087	0.1723
275.5223	0.1709
275.7358	0.173
275.9494	0.167
276.1629	0.1629
276.3765	0.1609
276.59	0.1711
276.8035	0.162
277.017	0.1689
277.2305	0.1563
277.444	0.1757
277.6574	0.1519
277.8709	0.1618
278.0843	0.1534
278.2978	0.1714
278.5112	0.1576
278.7246	0.1669
278.938	0.1588
279.1513	0.1814
279.3647	0.1795
279.5781	0.1744
279.7914	0.1785
280.0047	0.1817
280.2181	0.1709
280.4314	0.1806
280.6447	0.1735
280.8579	0.1821
281.0712	0.1818
281.2845	0.193
281.4977	0.1762
281.711	0.1714
281.9242	0.1648
282.1374	0.1747
282.3506	0.1741
282.5638	0.1822
282.7769	0.1775
282.9901	0.1738
283.2033	0.1682
283.4164	0.186
283.6295	0.1705
283.8426	0.1596
284.0557	0.1762
284.2688	0.1878
284.4819	0.1768
284.695	0.1732
284.908	0.1802
285.1211	0.1878
285.3341	0.179
285.5471	0.1846
285.7601	0.1774
285.9731	0.1724
286.1861	0.1723
286.3991	0.1954
286.612	0.1866
286.825	0.1871
287.0379	0.1937
287.2508	0.1868
287.4637	0.1788
287.6766	0.1689
287.8895	0.1954
288.1024	0.1984
288.3152	0.1706
288.5281	0.173
288.7409	0.1792
288.9538	0.1824
289.1666	0.1863
289.3794	0.1719
289.5922	0.1759
289.8049	0.1817
290.0177	0.1799
290.2304	0.1837
290.4432	0.1869
290.6559	0.181
290.8686	0.1896
291.0813	0.1834
291.294	0.1808
291.5067	0.1881
291.7194	0.1731
291.932	0.1942
292.1447	0.1758
292.3573	0.1724
292.5699	0.1781
292.7825	0.1774
292.9951	0.1779
293.2077	0.1736
293.4203	0.1865
293.6328	0.1698
293.8454	0.1808
294.0579	0.1763
294.2704	0.1803
294.4829	0.1694
294.6954	0.177
294.9079	0.17
295.1204	0.1787
295.3328	0.1828
295.5453	0.1822
295.7577	0.1753
295.9701	0.1565
296.1825	0.1834
296.3949	0.1713
296.6073	0.1823
296.8197	0.1623
297.0321	0.1821
297.2444	0.1566
297.4567	0.1913
297.6691	0.1709
297.8814	0.1724
298.0937	0.1719
298.306	0.1852
298.5182	0.169
298.7305	0.1843
298.9428	0.1629
299.155	0.1819
299.3672	0.1685
299.5794	0.1677
299.7916	0.1706
300.0038	0.1753
300.216	0.1737
300.4282	0.1756
300.6403	0.1736
300.8525	0.1724
301.0646	0.1683
301.2767	0.1763
301.4888	0.1771
301.7009	0.1736
301.913	0.1714
302.125	0.1781
302.3371	0.1601
302.5491	0.1737
302.7612	0.1844
302.9732	0.1791
303.1852	0.1604
303.3972	0.166
303.6092	0.1686
303.8211	0.1656
304.0331	0.1677
304.245	0.1584
304.457	0.1604
304.6689	0.1643
304.8808	0.1737
305.0927	0.1483
305.3046	0.1565
305.5164	0.162
305.7283	0.1532
305.9401	0.1543
306.152	0.1494
306.3638	0.1624
306.5756	0.1557
306.7874	0.1525
306.9992	0.1495
307.2109	0.1474
307.4227	0.1355
307.6344	0.1436
307.8462	0.1468
308.0579	0.148
308.2696	0.1393
308.4813	0.1445
308.693	0.1439
308.9046	0.145
309.1163	0.1308
309.328	0.1324
309.5396	0.1294
309.7512	0.1313
309.9628	0.1246
310.1744	0.134
310.386	0.1232
310.5976	0.1234
310.8091	0.1233
311.0207	0.1239
311.2322	0.135
311.4437	0.1202
311.6552	0.123
311.8667	0.1167
312.0782	0.1027
312.2897	0.1048
312.5012	0.119
312.7126	0.1086
312.924	0.0933
313.1355	0.116
313.3469	0.1127
313.5583	0.1191
313.7696	0.1116
313.981	0.112
314.1924	0.1085
314.4037	0.1083
314.6151	0.1173
314.8264	0.101
315.0377	0.0958
315.249	0.1037
315.4603	0.1105
315.6716	0.1055
315.8828	0.0907
316.0941	0.1049
316.3053	0.0991
316.5165	0.0903
316.7277	0.099
316.9389	0.1143
317.1501	0.0902
317.3613	0.1141
317.5724	0.0877
317.7836	0.1081
317.9947	0.1016
318.2058	0.0883
318.417	0.088
318.6281	0.0926
318.8391	0.087
319.0502	0.0891
319.2613	0.0856
319.4723	0.1036
319.6834	0.1076
319.8944	0.093
320.1054	0.1063
320.3164	0.1103
320.5274	0.1001
320.7383	0.103
320.9493	0.1013
321.1602	0.1057
321.3712	0.0874
321.5821	0.1125
321.793	0.1054
322.0039	0.1042
322.2148	0.0951
322.4257	0.1019
322.6365	0.1209
322.8474	0.1065
323.0582	0.0936
323.269	0.1089
323.4798	0.1122
323.6906	0.0996
323.9014	0.1057
324.1122	0.1116
324.3229	0.0994
324.5337	0.1007
324.7444	0.0989
324.9551	0.0991
325.1658	0.0998
325.3765	0.1028
325.5872	0.1097
325.7979	0.1075
326.0085	0.1146
326.2192	0.0969
326.4298	0.1026
326.6404	0.0906
326.851	0.1008
327.0616	0.0942
327.2722	0.1054
327.4828	0.1138
327.6933	0.0979
327.9039	0.1182
328.1144	0.1174
328.3249	0.1157
328.5354	0.1008
328.7459	0.1014
328.9564	0.0928
329.1669	0.1027
329.3773	0.1124
329.5878	0.1009
329.7982	0.1011
330.0086	0.0998
330.219	0.1073
330.4294	0.102
330.6398	0.1089
330.8502	0.0976
331.0605	0.1066
331.2708	0.0955
331.4812	0.1103
331.6915	0.1132
331.9018	0.1154
332.1121	0.1093
332.3224	0.1084
332.5326	0.1096
332.7429	0.1034
332.9531	0.1102
333.1633	0.1113
333.3735	0.1096
333.5837	0.0987
333.7939	0.1103
334.0041	0.123
334.2143	0.1184
334.4244	0.1021
334.6346	0.1023
334.8447	0.1135
335.0548	0.1012
335.2649	0.0886
335.475	0.106
335.685	0.1096
335.8951	0.1155
336.1051	0.1232
336.3152	0.1114
336.5252	0.1086
336.7352	0.1013
336.9452	0.1128
337.1552	0.1132
337.3652	0.108
337.5751	0.1036
337.7851	0.1188
337.995	0.0946
338.2049	0.1234
338.4148	0.1149
338.6247	0.1124
338.8346	0.1152
339.0445	0.0947
339.2543	0.1182
339.4642	0.1126
339.674	0.0968
339.8838	0.1073
340.0936	0.1145
340.3034	0.1204
340.5132	0.124
340.7229	0.1238
340.9327	0.1077
341.1424	0.1136
341.3522	0.1334
341.5619	0.118
341.7716	0.1203
341.9813	0.1198
342.1909	0.1195
342.4006	0.1304
342.6102	0.1292
342.8199	0.1138
343.0295	0.1162
343.2391	0.1163
343.4487	0.1306
343.6583	0.1134
343.8679	0.124
344.0774	0.1286
344.287	0.1205
344.4965	0.1279
344.706	0.1258
344.9155	0.1269
345.125	0.1313
345.3345	0.1245
345.544	0.1256
345.7534	0.128
345.9629	0.1275
346.1723	0.1273
346.3817	0.1166
346.5911	0.1315
346.8005	0.1391
347.0099	0.125
347.2193	0.1406
347.4286	0.1252
347.638	0.1308
347.8473	0.1383
348.0566	0.1418
348.2659	0.1298
348.4752	0.1234
348.6845	0.1277
348.8937	0.1348
349.103	0.1474
349.3122	0.1299
349.5214	0.1332
349.7306	0.1337
349.9398	0.1357
350.149	0.149
350.3582	0.1387
350.5674	0.1431
350.7765	0.1371
350.9856	0.1332
351.1948	0.1406
351.4039	0.1169
351.613	0.13
351.822	0.1441
352.0311	0.1446
352.2402	0.1461
352.4492	0.1506
352.6582	0.1462
352.8672	0.1452
353.0762	0.1512
353.2852	0.1414
353.4942	0.1377
353.7032	0.1457
353.9121	0.1496
354.1211	0.1473
354.33	0.1439
354.5389	0.1677
354.7478	0.1425
354.9567	0.1586
355.1655	0.1422
355.3744	0.1579
355.5833	0.1647
355.7921	0.1783
356.0009	0.153
356.2097	0.1797
356.4185	0.1636
356.6273	0.166
356.8361	0.152
357.0448	0.1561
357.2536	0.1571
357.4623	0.163
357.671	0.1705
357.8797	0.1557
358.0884	0.1684
358.2971	0.1686
358.5057	0.16
358.7144	0.1663
358.923	0.1718
359.1316	0.1612
359.3402	0.1606
359.5488	0.1805
359.7574	0.167
359.966	0.1824
360.1746	0.172
360.3831	0.1764
360.5916	0.1569
360.8002	0.1634
361.0087	0.191
361.2172	0.1781
361.4256	0.1753
361.6341	0.1695
361.8426	0.1755
362.051	0.185
362.2594	0.1932
362.4678	0.1813
362.6762	0.1847
362.8846	0.1869
363.093	0.1842
363.3014	0.1827
363.5097	0.1788
363.718	0.1787
363.9264	0.1885
364.1347	0.1897
364.343	0.188
364.5513	0.193
364.7595	0.2099
364.9678	0.2025
365.176	0.1894
365.3842	0.1834
365.5925	0.1917
365.8007	0.1963
366.0089	0.2111
366.217	0.1944
366.4252	0.2067
366.6333	0.2163
366.8415	0.1986
367.0496	0.196
367.2577	0.2156
367.4658	0.2005
367.6739	0.2166
367.882	0.2106
368.09	0.2092
368.2981	0.2152
368.5061	0.2055
368.7141	0.2135
368.9221	0.2055
369.1301	0.2176
369.3381	0.2139
369.5461	0.2179
369.754	0.2031
369.962	0.2304
370.1699	0.2161
370.3778	0.2264
370.5857	0.1973
370.7936	0.2141
371.0015	0.2249
371.2093	0.2198
371.4172	0.2259
371.625	0.208
371.8328	0.2186
372.0406	0.2211
372.2484	0.2169
372.4562	0.2277
372.664	0.2206
372.8717	0.2377
373.0795	0.2157
373.2872	0.2248
373.4949	0.2248
373.7026	0.2265
373.9103	0.2378
374.118	0.2542
374.3256	0.2379
374.5333	0.2304
374.7409	0.2106
374.9485	0.2417
375.1561	0.233
375.3637	0.2324
375.5713	0.2292
375.7789	0.2352
375.9864	0.2247
376.194	0.2228
376.4015	0.2401
376.609	0.2468
376.8165	0.2233
377.024	0.2363
377.2315	0.2263
377.4389	0.2471
377.6464	0.2539
377.8538	0.2397
378.0612	0.2464
378.2686	0.2462
378.476	0.2442
378.6834	0.2432
378.8908	0.2614
379.0981	0.2568
379.3055	0.2544
379.5128	0.2124
379.7201	0.2534
379.9274	0.243
380.1347	0.2426
380.342	0.2443
380.5492	0.238
380.7565	0.2337
380.9637	0.2523
381.1709	0.2417
381.3781	0.2564
381.5853	0.2647
381.7925	0.253
381.9997	0.2783
382.2068	0.2576
382.4139	0.2563
382.6211	0.2557
382.8282	0.2474
383.0353	0.2576
383.2424	0.2594
383.4494	0.2656
383.6565	0.251
383.8635	0.2543
384.0706	0.2631
384.2776	0.2565
384.4846	0.2482
384.6916	0.276
384.8986	0.258
385.1055	0.2611
385.3125	0.2522
385.5194	0.2375
385.7263	0.2716
385.9333	0.2579
386.1402	0.2532
386.347	0.2445
386.5539	0.2534
386.7608	0.2705
386.9676	0.2477
387.1744	0.2654
387.3813	0.2564
387.5881	0.2664
387.7948	0.2579
388.0016	0.2466
388.2084	0.2604
388.4151	0.2359
388.6219	0.2561
388.8286	0.2438
389.0353	0.2586
389.242	0.2601
389.4487	0.2438
389.6553	0.2366
389.862	0.2228
390.0686	0.238
390.2753	0.2572
390.4819	0.2495
390.6885	0.23
390.8951	0.2458
391.1016	0.2446
391.3082	0.2378
391.5147	0.2523
391.7213	0.2329
391.9278	0.2344
392.1343	0.2178
392.3408	0.2287
392.5473	0.2535
392.7537	0.2407
392.9602	0.2291
393.1666	0.2226
393.373	0.2311
393.5794	0.2429
393.7858	0.2302
393.9922	0.2196
394.1986	0.2326
394.4049	0.2339
394.6113	0.2144
394.8176	0.2095
395.0239	0.2294
395.2302	0.2277
395.4365	0.2281
395.6428	0.2097
395.8491	0.2173
396.0553	0.2224
396.2615	0.2146
396.4678	0.2049
396.674	0.2138
396.8802	0.2178
397.0863	0.2367
397.2925	0.2099
397.4987	0.2026
397.7048	0.2126
397.9109	0.2184
398.117	0.2084
398.3231	0.2181
398.5292	0.2204
398.7353	0.2127
398.9413	0.204
399.1474	0.2148
399.3534	0.208
399.5594	0.2099
399.7654	0.224
399.9714	0.2181
400.1774	0.2115
400.3833	0.2031
400.5893	0.2139
400.7952	0.2359
401.0011	0.2167
401.207	0.2203
401.4129	0.2214
401.6188	0.2188
401.8247	0.2076
402.0305	0.2085
402.2364	0.1992
402.4422	0.2165
402.648	0.2291
402.8538	0.2135
403.0596	0.2133
403.2654	0.2194
403.4711	0.228
403.6768	0.2243
403.8826	0.2254
404.0883	0.2156
404.294	0.224
404.4997	0.2344
404.7054	0.2233
404.911	0.2098
405.1167	0.223
405.3223	0.2327
405.5279	0.2242
405.7335	0.2189
405.9391	0.2211
406.1447	0.2163
406.3502	0.237
406.5558	0.214
406.7613	0.2209
406.9668	0.2231
407.1724	0.1918
407.3778	0.2089
407.5833	0.2134
407.7888	0.2127
407.9942	0.2202
408.1997	0.227
408.4051	0.2095
408.6105	0.2258
408.8159	0.2105
409.0213	0.2113
409.2267	0.237
409.432	0.2267
409.6374	0.2225
409.8427	0.2087
410.048	0.2133
410.2533	0.2224
410.4586	0.2021
410.6639	0.1895
410.8691	0.2096
411.0744	0.2125
411.2796	0.2068
411.4848	0.204
411.69	0.2117
411.8952	0.232
412.1004	0.2061
412.3056	0.2143
412.5107	0.2175
412.7158	0.2046
412.921	0.2079
413.1261	0.2154
413.3312	0.1995
413.5362	0.2061
413.7413	0.1904
413.9464	0.1965
414.1514	0.2172
414.3564	0.2164
414.5614	0.1878
414.7664	0.2012
414.9714	0.2079
415.1764	0.2134
415.3813	0.2165
415.5863	0.2063
415.7912	0.2111
415.9961	0.2141
416.201	0.2143
416.4059	0.2045
416.6108	0.2038
416.8156	0.1906
417.0205	0.1906
417.2253	0.1916
417.4301	0.2174
417.6349	0.2042
417.8397	0.1886
418.0445	0.2101
418.2492	0.2222
418.454	0.2106
418.6587	0.1967
418.8634	0.192
419.0681	0.1906
419.2728	0.1935
419.4775	0.2096
419.6822	0.18
419.8868	0.1882
420.0915	0.2029
420.2961	0.1858
420.5007	0.1797
420.7053	0.2067
420.9099	0.1988
421.1144	0.2087
421.319	0.1908
421.5235	0.1993
421.728	0.1921
421.9325	0.2001
422.137	0.2016
422.3415	0.1914
422.546	0.2014
422.7504	0.192
422.9549	0.201
423.1593	0.1761
423.3637	0.1916
423.5681	0.1917
423.7725	0.184
423.9769	0.1702
424.1812	0.1634
424.3856	0.173
424.5899	0.1803
424.7942	0.1842
424.9985	0.1833
425.2028	0.1675
425.4071	0.197
425.6113	0.1576
425.8156	0.1821
426.0198	0.1801
426.224	0.1577
426.4282	0.1559
426.6324	0.1511
426.8366	0.1681
427.0407	0.1771
427.2449	0.1629
427.449	0.1738
427.6531	0.155
427.8572	0.1598
428.0613	0.1593
428.2654	0.1704
428.4694	0.1502
428.6735	0.156
428.8775	0.171
429.0815	0.17
429.2855	0.137
429.4895	0.1566
429.6935	0.1473
429.8975	0.1604
430.1014	0.1481
430.3053	0.1437
430.5093	0.1586
430.7132	0.1456
430.9171	0.1275
431.1209	0.141
431.3248	0.1332
431.5286	0.1333
431.7325	0.1306
431.9363	0.1237
432.1401	0.1353
432.3439	0.1285
432.5477	0.1008
432.7514	0.1205
432.9552	0.1187
433.1589	0.1114
433.3627	0.1092
433.5664	0.1154
433.7701	0.1161
433.9737	0.1095
434.1774	0.1158
434.3811	0.1001
434.5847	0.1345
434.7883	0.1021
434.9919	0.0897
435.1955	0.1083
435.3991	0.1267
435.6027	0.1277
435.8062	0.1073
436.0098	0.0962
436.2133	0.1301
436.4168	0.0982
436.6203	0.1028
436.8238	0.1162
437.0272	0.1028
437.2307	0.0984
437.4341	0.1193
437.6375	0.0955
437.841	0.0764
438.0443	0.0898
438.2477	0.095
438.4511	0.0858
438.6545	0.0777
438.8578	0.1069
439.0611	0.0969
439.2644	0.0835
439.4677	0.0816
439.671	0.0832
439.8743	0.0762
440.0775	0.0751
440.2808	0.075
440.484	0.067
440.6872	0.0629
440.8904	0.0657
441.0936	0.0717
441.2967	0.0604
441.4999	0.0601
441.703	0.0744
441.9062	0.0535
442.1093	0.0592
442.3124	0.067
442.5155	0.0478
442.7185	0.0596
442.9216	0.0365
443.1246	0.0684
443.3276	0.0493
443.5307	0.0517
443.7337	0.0697
443.9366	0.0583
444.1396	0.0568
444.3426	0.052
444.5455	0.0509
444.7484	0.0353
444.9513	0.0502
445.1542	0.0543
445.3571	0.0533
445.56	0.0684
445.7628	0.0317
445.9657	0.0459
446.1685	0.0601
446.3713	0.0529
446.5741	0.033
446.7769	0.0318
446.9797	0.0388
447.1824	0.0418
447.3852	0.0396
447.5879	0.0423
447.7906	0.0338
447.9933	0.0477
448.196	0.0426
448.3986	0.0416
448.6013	0.0325
448.8039	0.015
449.0066	0.0257
449.2092	0.0388
449.4118	0.0358
449.6143	0.0323
449.8169	0.0256
450.0195	0.0077
450.222	0.0238
450.4245	0.0158
450.627	0.0195
450.8295	0.0206
451.032	0.0225
451.2345	0.0306
451.4369	0.0362
451.6394	0.0366
451.8418	0.0086
452.0442	0.0163
452.2466	0.026
452.449	0.0109
452.6513	0.0183
452.8537	0.0221
453.056	0.0068
453.2583	0.0242
453.4607	0.0166
453.663	0.014
453.8652	0.0243
454.0675	0.0052
454.2697	0.0202
454.472	0.0215
454.6742	0.023
454.8764	0.0146
455.0786	0.0194
455.2808	0.0282
455.4829	0.0228
455.6851	0.0245
455.8872	0.0276
456.0893	0.0197
456.2915	0.0011
456.4935	0.0106
456.6956	0.002
456.8977	0.0142
457.0997	-0.0038
457.3018	0.0032
457.5038	0.0148
457.7058	0.0146
457.9078	0.017
458.1098	0.0139
458.3117	0.0132
458.5137	0.0108
458.7156	0.0213
458.9175	-0.0097
459.1194	-0.0026
459.3213	0.0031
459.5232	0.0039
459.725	-0.002
459.9269	-0.0041
460.1287	-0.0044
460.3305	-0.0076
460.5323	0.0052
460.7341	0.0014
460.9359	0.0062
461.1376	0.0088
461.3394	0.0041
461.5411	0.0103
461.7428	0.0038
461.9445	0.0089
462.1462	0.018
462.3479	-0.0018
462.5495	-0.0014
462.7512	0.0126
462.9528	0.0014
463.1544	0.0046
463.356	0.0031
463.5576	0.0047
463.7592	0.0006
463.9607	0.0158
464.1623	0.021
464.3638	0.0097
464.5653	-0.0114
464.7668	0.0033
464.9683	0.0139
465.1697	0.0103
465.3712	-0.0024
465.5726	-0.0094
465.7741	-0.0013
465.9755	-0.0138
466.1769	-0.0057
466.3782	-0.0039
466.5796	-0.0158
466.7809	0.013
466.9823	-0.0057
467.1836	0.0032
467.3849	0.0094
467.5862	0.0019
467.7875	0.0093
467.9887	0.0186
468.19	-0.0045
468.3912	-0.0068
468.5924	-0.0013
468.7936	-0.003
468.9948	0.011
469.196	0.0036
469.3972	-0.0119
469.5983	0.0086
469.7994	-0.0161
470.0006	-0.0055
470.2017	-0.0228
470.4027	-0.0045
470.6038	-0.008
470.8049	-0.023
471.0059	-0.021
471.2069	-0.0226
471.408	0.0162
471.6089	0.0082
471.8099	-0.0038
472.0109	0.0035
472.2119	-0.0102
472.4128	-0.012
472.6137	-0.0038
472.8146	-0.025
473.0155	-0.0133
473.2164	-0.0166
473.4173	-0.0077
473.6181	-0.0025
473.819	-0.0012
474.0198	-0.0148
474.2206	-0.0079
474.4214	-0.0133
474.6222	-0.0036
474.8229	-0.0117
475.0237	-0.0186
475.2244	-0.0159
475.4251	0.0115
475.6258	-0.0093
475.8265	0.0019
476.0272	0.0151
476.2278	-0.0061
476.4285	-0.0186
476.6291	-0.0101
476.8297	-0.0133
477.0303	-0.0122
477.2309	-0.0015
477.4315	-0.0158
477.632	-0.004
477.8326	-0.0041
478.0331	0.0063
478.2336	0.0018
478.4341	-0.0141
478.6346	-0.0115
478.8351	-0.0058
479.0355	-0.0106
479.236	-0.0152
479.4364	0.006
479.6368	-0.0044
479.8372	-0.0123
480.0376	-0.006
480.2379	-0.0261
480.4383	-0.0067
480.6386	0.0064
480.8389	-0.0135
481.0392	-0.0201
481.2395	-0.0088
481.4398	0.0002
481.6401	-0.0017
481.8403	-0.0062
482.0405	-0.0027
482.2408	-0.0138
482.441	-0.0041
482.6411	-0.0028
482.8413	0.0003
483.0415	-0.0143
483.2416	-0.0145
483.4417	-0
483.6419	-0.0047
483.8419	-0.0062
484.042	0.0024
484.2421	-0.0005
484.4422	-0.0018
484.6422	0.0004
484.8422	-0.0043
485.0422	-0.0185
485.2422	0.0037
485.4422	-0.0212
485.6422	-0.0126
485.8421	-0.0026
486.042	-0.0081
486.242	-0.0016
486.4419	-0.0157
486.6417	-0.0137
486.8416	-0.0056
487.0415	-0.0136
487.2413	-0.0121
487.4411	-0.0157
487.641	-0.0162
487.8408	0.0032
488.0405	-0.0137
488.2403	-0.0062
488.4401	-0.005
488.6398	0.0058
488.8395	-0.0152
489.0392	-0.0051
489.2389	-0.0132
489.4386	-0.0094
489.6383	-0.0138
489.8379	-0.0095
490.0376	-0.0049
490.2372	-0.0126
490.4368	-0.0093
490.6364	-0.0084
490.836	-0.0136
491.0355	-0.0134
491.2351	-0.0156
491.4346	-0.0083
491.6341	-0.018
491.8336	-0.0083
492.0331	-0.0218
492.2326	-0.0137
492.432	-0.0121
492.6315	-0.0121
492.8309	-0.0125
493.0303	-0.0193
493.2297	-0.0161
493.4291	-0.0109
493.6284	-0.006
493.8278	-0.013
494.0271	0.0011
494.2264	0.0005
494.4257	-0.0199
494.625	-0.013
494.8243	-0.0176
495.0236	-0.0147
495.2228	-0.0216
495.422	-0.005
495.6213	-0.0089
495.8205	-0.0114
496.0196	-0.0029
496.2188	0.0007
496.418	-0.0185
496.6171	-0.0058
496.8162	-0.0131
497.0153	0.0059
497.2144	-0.0105
497.4135	-0.0085
497.6126	-0.0127
497.8116	-0.0099
498.0107	-0.0097
498.2097	-0.0144
498.4087	-0.0227
498.6077	-0.0002
498.8067	-0.018
499.0056	-0.0048
499.2046	-0.0194
499.4035	-0.0227
499.6024	-0.008
499.8013	-0.0043
500.0002	-0.0136
500.199	-0.0106
500.3979	-0.0167
500.5967	-0.0241
500.7956	-0.0073
500.9944	-0.009
501.1932	-0.0182
501.3919	-0.02
501.5907	-0.0148
501.7895	-0.0067
501.9882	-0.0154
502.1869	-0.0048
502.3856	-0.0124
502.5843	-0.0024
502.783	-0.0122
502.9816	-0.0136
503.1803	-0.0245
503.3789	-0.0183
503.5775	-0.0071
503.7761	-0.0165
503.9747	-0.0101
504.1732	-0.0074
504.3718	-0.0078
504.5703	-0.0076
504.7689	-0.0144
504.9674	-0.014
505.1658	-0.0159
505.3643	-0.0092
505.5628	-0.0146
505.7612	-0.0127
505.9597	0.0022
506.1581	-0.0132
506.3565	-0.0054
506.5549	-0.0165
506.7532	-0.0206
506.9516	0.0009
507.1499	-0.015
507.3482	-0.0108
507.5465	-0.0159
507.7448	-0.004
507.9431	-0.0146
508.1414	-0.003
508.3396	-0.0075
508.5379	-0.0144
508.7361	-0.0181
508.9343	-0.0125
509.1325	-0.0094
509.3306	-0.0118
509.5288	-0.0234
509.7269	-0.001
509.9251	-0.0136
510.1232	-0.0168
510.3213	-0.0042
510.5193	-0.0036
510.7174	-0.0134
510.9154	-0.0098
511.1135	-0.0155
511.3115	-0.0117
511.5095	-0.0033
511.7075	-0.0168
511.9055	-0.0096
512.1034	-0.0124
512.3014	-0.0127
512.4993	-0.0071
512.6972	-0.0115
512.8951	-0.0154
513.093	-0.0018
513.2908	-0.0116
513.4887	-0.0091
513.6865	-0.0146
513.8844	-0.0076
514.0822	-0.0189
514.2799	-0.0079
514.4777	-0.0153
514.6755	-0.0078
514.8732	-0.0084
515.0709	-0.0086
515.2687	-0.0024
515.4664	-0.0154
515.664	-0.0077
515.8617	-0.0126
516.0594	-0.0225
516.257	-0.0155
516.4546	-0.0249
516.6522	-0.0088
516.8498	-0.0087
517.0474	-0.0009
517.2449	-0.0025
517.4425	-0.022
517.64	-0.0147
517.8375	-0.0024
518.035	-0.0098
518.2325	-0.0118
518.43	-0.0074
518.6274	-0.0111
518.8249	-0.0203
519.0223	-0.0029
519.2197	-0.0138
519.4171	-0.0136
519.6145	-0.0083
519.8118	-0.008
520.0092	-0.0016
520.2065	-0.0067
520.4038	-0.0176
520.6011	-0.0018
520.7984	-0.0154
520.9956	-0.0103
521.1929	-0.0106
521.3901	-0.0002
521.5874	-0.0105
521.7846	-0.0041
521.9818	-0.01
522.1789	-0.0203
522.3761	-0.0207
522.5732	-0.0148
522.7704	-0.0105
522.9675	-0.0018
523.1646	-0.0187
523.3617	-0.0058
523.5587	-0.005
523.7558	-0.0154
523.9528	-0.0128
524.1498	0.0001
524.3468	-0.0158
524.5438	-0.0141
524.7408	-0.0111
524.9378	0.003
525.1347	-0.0118
525.3316	-0.0056
525.5285	-0.0153
525.7254	-0.0042
525.9223	-0.0026
526.1192	-0.0063
526.316	-0.0147
526.5129	-0.0069
526.7097	-0.0063
526.9065	-0.0025
527.1033	-0.0185
527.3	-0.0014
527.4968	-0.009
527.6935	-0.0073
527.8903	-0.0114
528.087	-0.007
528.2837	-0.0086
528.4804	0.0003
528.677	-0.0131
528.8737	-0.0048
529.0703	0.0024
529.2669	-0.0144
529.4635	-0.0053
529.6601	-0.0082
529.8567	-0.0124
530.0532	-0.0178
530.2498	-0.0008
530.4463	0.0009
530.6428	-0.0129
530.8393	-0.0057
531.0358	-0.0164
531.2322	-0.007
531.4287	-0.0159
531.6251	-0.0184
531.8215	0.0049
532.0179	-0.0022
532.2143	-0.0024
532.4107	-0.0053
532.607	-0.0115
532.8034	0.0044
532.9997	0.0021
533.196	-0.0125
533.3923	-0.013
533.5886	-0.005
533.7848	-0.0071
533.9811	-0.006
534.1773	-0.0149
534.3735	0.0098
534.5697	-0.0027
534.7659	-0.0098
534.9621	-0.0031
535.1582	-0.0123
535.3544	-0.0202
535.5505	-0.0195
535.7466	-0.0112
535.9427	0.0018
536.1387	-0.0131
536.3348	-0.008
536.5308	-0.0094
536.7269	-0.0238
536.9229	-0.0061
537.1189	0.0026
537.3148	-0.0095
537.5108	-0.0117
537.7068	-0.0176
537.9027	-0.0091
538.0986	-0.0145
538.2945	-0.0054
538.4904	-0.005
538.6863	0.0009
538.8821	-0.0055
539.078	-0.0072
539.2738	-0.0091
539.4696	-0.0124
539.6654	-0.0032
539.8611	0.0088
540.0569	-0.0025
540.2526	-0.0085
540.4484	-0.0139
540.6441	0.0027
540.8398	-0.0119
541.0355	-0.0078
541.2311	-0.0034
541.4268	-0.014
541.6224	-0.0033
541.818	-0.0033
542.0136	-0.0065
542.2092	-0.0074
542.4048	0.0012
542.6003	0.0032
542.7959	-0.0034
542.9914	-0.0126
543.1869	0.0001
543.3824	-0.0054
543.5779	-0.0016
543.7734	-0.01
543.9688	-0.0127
544.1642	0.0029
544.3596	-0.0101
544.555	-0.0167
544.7504	-0.0003
544.9458	-0.0058
545.1411	-0.004
545.3365	0.0007
545.5318	-0.0025
545.7271	-0.001
545.9224	0.0033
546.1177	-0.0026
546.3129	-0.0027
546.5081	-0.0055
546.7034	-0.0073
546.8986	-0.013
547.0938	-0.0166
547.289	-0.0156
547.4841	-0.0016
547.6793	0.0021
547.8744	-0.0045
548.0695	-0.0012
548.2646	-0.0113
548.4597	0.0061
548.6548	-0.0009
548.8498	0.001
549.0448	0.0028
549.2399	-0.0036
549.4349	0.0016
549.6298	-0.0074
549.8248	0.008
550.0198	-0.0047
550.2147	-0.0091
550.4096	-0.0017
550.6045	-0.0032
550.7994	0.0061
550.9943	-0.0126
551.1892	-0.0019
551.384	0.0011
551.5788	-0.0069
551.7737	-0.0021
551.9685	-0.0012
552.1632	-0.0001
552.358	0.002
552.5528	-0.0027
552.7475	0.0019
552.9422	0.0042
553.1369	-0.0041
553.3316	-0.0033
553.5263	-0.003
553.7209	0.0019
553.9156	-0.0034
554.1102	-0.0029
554.3048	-0.0084
554.4994	0.0048
554.694	0.0034
554.8885	0.0035
555.0831	-0.0134
555.2776	-0.005
555.4721	-0.0079
555.6666	-0.0015
555.8611	0.0054
556.0555	0.0022
556.25	-0.0023
556.4444	-0.0039
556.6388	-0.0024
556.8332	-0.0104
557.0276	-0.0001
557.222	0.0004
557.4163	0.0005
557.6107	-0.0128
557.805	0.003
557.9993	-0.01
558.1936	-0.0002
558.3879	-0.0023
558.5821	-0.0012
558.7764	-0.0083
558.9706	-0.0029
559.1648	-0.0011
559.359	-0.013
559.5532	-0.0088
559.7473	-0.0051
559.9415	-0.006
560.1356	-0.0075
560.3297	0.0025
560.5238	-0.0149
560.7179	0.0003
560.9119	0.0079
561.106	-0.002
561.3	-0.0068
561.494	0.0116
561.688	-0.0056
561.882	-0.003
562.076	-0.0075
562.2699	-0.0006
562.4639	0.0023
562.6578	-0.0014
562.8517	0.0012
563.0456	0.0006
563.2395	0.0055
563.4333	0.0023
563.6272	0.009
563.821	0.001
564.0148	0.0036
564.2086	-0.0108
564.4024	-0.008
564.5961	-0.0109
564.7899	0.0032
564.9836	-0.0153
565.1773	-0.002
565.371	-0.0045
565.5647	-0.0019
565.7584	0.0028
565.952	0.0023
566.1456	-0.0032
566.3393	-0.0101
566.5329	-0.0124
566.7264	-0.0028
566.92	-0.0041
567.1136	0.0001
567.3071	-0.0069
567.5006	0.0038
567.6941	-0.0002
567.8876	-0.0024
568.0811	-0.0039
568.2745	-0.0044
568.468	0.0052
568.6614	0.0033
568.8548	0.0018
569.0482	-0.0051
569.2416	-0.0051
569.4349	-0.0074
569.6283	0.0056
569.8216	-0.0054
570.0149	0.0003
570.2082	0.0078
570.4015	0.0121
570.5947	0.0132
570.788	0.0061
570.9812	0.0083
571.1744	0.006
571.3676	-0.0089
571.5608	-0.0025
571.754	0.0057
571.9471	0.0072
572.1402	0.0036
572.3333	-0.0043
572.5264	-0.0019
572.7195	0.0052
572.9126	0.0015
573.1057	-0.0018
573.2987	-0.0044
573.4917	0.0045
573.6847	-0.0063
573.8777	0.0048
574.0707	0.0054
574.2636	-0.0038
574.4566	-0.0066
574.6495	0.0033
574.8424	-0.0035
575.0353	-0.0006
575.2281	0.0085
575.421	0.0044
575.6138	0.005
575.8067	0.001
575.9995	0.005
576.1923	0.001
576.385	-0.0053
576.5778	-0.0014
576.7706	-0.0033
576.9633	-0.0001
577.156	-0.0012
577.3487	0.0024
577.5414	0.0029
577.734	-0.0046
577.9267	0.0034
578.1193	-0.0124
578.3119	-0.0034
578.5045	-0.0026
578.6971	-0.0037
578.8897	0.0025
579.0822	0.0038
579.2747	0.0043
579.4673	-0.0027
579.6598	0.0001
579.8522	-0.0067
580.0447	0.0022
580.2372	-0.0038
580.4296	0.006
580.622	-0.0038
580.8144	0.0007
581.0068	-0.0078
581.1992	-0.0135
581.3915	-0.0058
581.5839	-0.0062
581.7762	-0.0126
581.9685	0.0002
582.1608	0.0037
582.353	-0.0012
582.5453	0.0025
582.7375	-0.0037
582.9298	-0.0052
583.122	0.0075
583.3142	0.0039
583.5063	-0.0003
583.6985	0.0008
583.8906	0.0014
584.0827	-0.0051
584.2749	-0.0013
584.4669	0.0054
584.659	0.0007
584.8511	0.0003
585.0431	-0.0057
585.2352	0.0043
585.4272	0.0058
585.6192	0.0037
585.8111	0.0021
586.0031	0.0024
586.195	-0.0074
586.387	0.0067
586.5789	0.0014
586.7708	-0.0005
586.9627	0.0021
587.1545	-0.0054
587.3464	-0.0011
587.5382	0.0006
587.73	0.0031
587.9218	0.0044
588.1136	0.001
588.3053	0.0053
588.4971	-0.0011
588.6888	-0.0139
588.8805	0.0053
589.0722	0.0013
589.2639	0.0004
589.4556	-0.0012
589.6472	-0.0021
589.8389	-0.0082
590.0305	-0.0088
590.2221	0.0026
590.4137	-0.0099
590.6052	0.0038
590.7968	-0.0016
590.9883	0.0006
591.1798	0.0004
591.3713	-0.0015
591.5628	-0.0039
591.7543	0.0102
591.9458	0.0091
592.1372	0.0093
592.3286	0.003
592.52	0.0036
592.7114	0.0078
592.9028	-0.0014
593.0941	-0.002
593.2855	0.0052
593.4768	-0.0098
593.6681	-0.0046
593.8594	-0.0006
594.0506	0.0009
594.2419	0.0087
594.4331	0.0073
594.6244	0.0033
594.8156	-0.0088
595.0067	0.0087
595.1979	0.0023
595.3891	0.0012
595.5802	-0.0003
595.7713	0.0061
595.9624	0.0037
596.1535	0.0077
596.3446	-0.003
596.5357	-0.0009
596.7267	0.0011
596.9177	0.0022
597.1087	-0.0045
597.2997	0.0029
597.4907	0.0093
597.6817	-0.0061
597.8726	0.0035
598.0635	-0.0037
598.2544	-0.002
598.4453	-0.002
598.6362	-0.0053
598.827	0.0009
599.0179	0.0084
599.2087	0.0029
599.3995	-0.0057
599.5903	0.0034
599.7811	0.0031
599.9718	0.0052
600.1626	-0.0035
600.3533	-0.0034
600.544	0.0006
600.7347	-0.0065
600.9254	0.0008
601.116	-0.0108
601.3067	-0.0041
601.4973	0.0032
601.6879	0.009
601.8785	-0.0056
602.0691	0.0047
602.2596	0.0016
602.4502	0.0002
602.6407	-0.0032
602.8312	0.0027
603.0217	-0.0071
603.2122	0.0028
603.4027	-0.0038
603.5931	-0.0052
603.7835	-0.0067
603.9739	-0.0058
604.1643	0.0054
604.3547	-0.0112
604.5451	0.0035
604.7354	-0.0014
604.9257	-0.0031
605.116	-0.0013
605.3063	0.0053
605.4966	0.0053
605.6869	0.0018
605.8771	0.007
606.0673	0.0011
606.2575	0.0099
606.4477	0.0105
606.6379	0.0032
606.8281	-0.0032
607.0182	-0.0026
607.2083	0.0115
607.3985	0.0004
607.5885	0.0039
607.7786	0.0044
607.9687	0.0012
608.1587	0.0062
608.3488	0.001
608.5388	0.0016
608.7288	-0.001
608.9187	0.0037
609.1087	-0.0032
609.2986	-0.0011
609.4886	0.0037
609.6785	0.0029
609.8684	0.0053
610.0582	0.0077
610.2481	0.0068
610.4379	0.0043
610.6278	0.0004
610.8176	-0.0044
611.0074	-0.0043
611.1971	-0.0128
611.3869	-0.0037
611.5766	-0.0005
611.7664	0.0084
611.9561	0.0057
612.1458	0.004
612.3354	-0.0066
612.5251	0.0072
612.7147	0.0065
612.9044	0.0066
613.094	-0.0096
613.2836	0.0045
613.4731	0.0006
613.6627	-0.0109
613.8522	0.0011
614.0417	-0.0033
614.2313	-0.0101
614.4207	-0.0113
614.6102	0.0013
614.7997	-0.0021
614.9891	-0.0053
615.1785	-0.0017
615.3679	-0.0036
615.5573	0.0096
615.7467	0.0014
615.9361	-0.0074
616.1254	-0.0053
616.3147	-0.0025
616.504	-0.0036
616.6933	0.0037
616.8826	0.0011
617.0718	0.0074
617.2611	0.0032
617.4503	-0.0014
617.6395	0.0015
617.8287	0.0063
618.0179	-0.0001
618.207	0.0099
618.3961	0.0035
618.5853	0.0009
618.7744	0.0053
618.9634	0.0119
619.1525	0.0029
619.3416	0.0057
619.5306	0.0065
619.7196	-0.0004
619.9086	0.0095
620.0976	0.0027
620.2866	0.0044
620.4755	0.0104
620.6645	0.0071
620.8534	0.008
621.0423	0.0042
621.2312	0.005
621.42	0.0003
621.6089	0.0057
621.7977	0.0052
621.9865	-0.0032
622.1753	0.0125
622.3641	-0.0007
622.5529	0.015
622.7416	0.0069
622.9303	-0.003
623.1191	0.0068
623.3078	-0.0027
623.4964	0.0058
623.6851	0.006
623.8737	0.0026
624.0624	0.0059
624.251	-0.0043
624.4396	0.0051
624.6282	-0.003
624.8167	0.0071
625.0053	0.0046
625.1938	0.0013
625.3823	-0.0005
625.5708	-0.0023
625.7593	-0.0009
625.9477	0.0046
626.1362	0.0051
626.3246	-0.0004
626.513	0.011
626.7014	0.0036
626.8898	-0.0052
627.0781	-0.0013
627.2665	-0.0028
627.4548	0.0042
627.6431	0.0045
627.8314	0.0035
628.0197	0.0091
628.2079	-0.0011
628.3962	-0.0045
628.5844	0.0069
628.7726	0.0054
628.9608	0.0062
629.1489	0.0038
629.3371	0.008
629.5252	-0.0038
629.7134	0.0109
629.9015	0.0049
630.0895	-0.0016
630.2776	0.0084
630.4657	0.0013
630.6537	0.0022
630.8417	-0.0005
631.0297	-0.0091
631.2177	0.0029
631.4057	0.0041
631.5936	-0.0016
631.7815	-0.0032
631.9695	0.0056
632.1574	0.0081
632.3452	0.0105
632.5331	0.0014
632.7209	0.0067
632.9088	0.0115
633.0966	0.0104
633.2844	-0.001
633.4722	0.0023
633.6599	0.0136
633.8477	0.0022
634.0354	-0.0095
634.2231	0.0027
634.4108	0.0038
634.5985	0.0065
634.7861	-0.0011
634.9738	-0.0065
635.1614	0.0068
635.349	0.0041
635.5366	-0.0015
635.7242	0.0072
635.9117	0.0103
636.0993	0.0002
636.2868	0.0105
636.4743	0.0004
636.6618	0.0057
636.8492	0.0067
637.0367	-0.0006
637.2241	-0.0045
637.4115	-0.0075
637.5989	-0.0033
637.7863	-0.0043
637.9737	-0.0046
638.161	0.0003
638.3484	-0.0001
638.5357	0.0061
638.723	-0.0079
638.9103	0.0032
639.0975	0.0064
639.2848	0.0028
639.472	-0.0011
639.6592	0.0076
639.8464	0.0055
640.0336	0.0107
640.2208	-0.0032
640.4079	-0.0051
640.595	-0.0014
640.7821	0.0002
640.9692	-0.0066
641.1563	-0.0029
641.3434	0.0047
641.5304	-0.003
641.7174	-0.0049
641.9044	-0.0032
642.0914	0.0002
642.2784	0.0011
642.4653	0.003
642.6523	0.0071
642.8392	0.0016
643.0261	0.0033
643.213	0.0023
643.3999	-0.0058
643.5867	-0.001
643.7735	0.0054
643.9604	-0.0118
644.1472	-0.0028
644.3339	0.0053
644.5207	-0.006
644.7075	-0.0033
644.8942	0.0027
645.0809	0.0072
645.2676	-0.0013
645.4543	0.0016
645.6409	0.0023
645.8276	0.0085
646.0142	-0.0021
646.2008	-0.0042
646.3874	-0.0073
646.574	-0.0015
646.7605	-0.0023
646.9471	-0.0057
647.1336	0.0071
647.3201	0.003
647.5066	-0.0011
647.6931	0.0056
647.8795	-0.0057
648.0659	0.0058
648.2524	0.0033
648.4388	-0.0059
648.6252	-0.0027
648.8115	0.0049
648.9979	-0.0041
649.1842	-0.0062
649.3705	0.0068
649.5568	-0.0056
649.7431	0.0036
649.9294	-0.0041
650.1156	0.0053
650.3018	-0.0019
650.488	-0.0016
650.6742	0.0022
650.8604	-0.0009
651.0466	-0.0051
651.2327	-0.0026
651.4188	0.0008
651.6049	0.002
651.791	-0.0026
651.9771	0.0093
652.1632	0.0023
652.3492	0.0026
652.5352	0.0048
652.7212	-0.0052
652.9072	0.0009
653.0932	0.0009
653.2791	-0.0077
653.465	-0.0002
653.651	-0.0076
653.8369	-0.0034
654.0227	-0.0001
654.2086	-0.0048
654.3944	-0.0028
654.5803	-0.003
654.7661	-0.0006
654.9519	-0.0005
655.1377	-0.0063
655.3234	-0.003
655.5092	-0.0044
655.6949	-0.0056
655.8806	-0.0002
656.0663	-0.0008
656.2519	-0.0029
656.4376	-0.0015
656.6232	0.0032
656.8088	-0.0083
656.9945	0.0007
657.18	-0.003
657.3656	-0.0034
657.5511	-0.005
657.7367	-0.0023
657.9222	-0
658.1077	-0.0031
658.2932	0.0031
658.4786	-0.0103
658.6641	-0.0014
658.8495	-0.0028
659.0349	-0.0063
659.2203	0.002
659.4057	-0.0011
659.591	-0.0025
659.7764	0.0002
659.9617	0.0005
660.147	-0.0035
660.3323	-0.0018
660.5176	0.0043
660.7028	-0.0026
660.888	0.0038
661.0733	0.0001
661.2585	-0.0105
661.4436	-0.0023
661.6288	-0.0102
661.8139	-0.0115
661.9991	-0.0013
662.1842	0.0036
662.3693	-0.0032
662.5544	-0.0031
662.7394	-0.0032
662.9245	-0.0024
663.1095	0.0029
663.2945	-0.0002
663.4795	-0.0011
663.6644	0.0051
663.8494	0.0004
664.0343	0.002
664.2193	-0.0127
664.4042	-0.0038
664.589	-0.0142
664.7739	0.0056
664.9587	-0.0031
665.1436	0.005
665.3284	0.0064
665.5132	-0.0012
665.698	0.0019
665.8827	0.0044
666.0675	-0.0012
666.2522	-0.0017
666.4369	-0.0008
666.6216	0.0079
666.8063	0.0055
666.9909	0.0049
667.1756	0.0052
667.3602	-0.0005
667.5448	0.0053
667.7294	0.0037
667.9139	0.0068
668.0985	0.0091
668.283	0.0008
668.4675	0.0048
668.652	0.0031
668.8365	-0.003
669.0209	0.0067
669.2054	0.0074
669.3898	0.0001
669.5742	0.0051
669.7586	0.0044
669.943	0.0063
670.1273	0.0106
670.3117	0.002
670.496	0.0055
670.6803	0.0112
670.8646	0.0075
671.0488	-0.0012
671.2331	0.013
671.4173	0.0099
671.6015	-0.0015
671.7857	0.0087
671.9699	-0.0013
672.1541	0.0043
672.3382	0.0038
672.5223	0.007
672.7064	0.0041
672.8905	0.0116
673.0746	0.0045
673.2587	0.0021
673.4427	0.0033
673.6267	0.0035
673.8107	0.0021
673.9947	-0.0007
674.1787	0.0001
674.3626	-0.0013
674.5465	0.0087
674.7304	-0.0004
674.9143	0.0083
675.0982	0.0077
675.2821	-0.0073
675.4659	0.001
675.6497	0.0021
675.8335	0.0036
676.0173	-0.0034
676.2011	0.0052
676.3849	0.0019
676.5686	0.0048
676.7523	0.0101
676.936	-0.0004
677.1197	0.0024
677.3034	0.0021
677.487	0.0018
677.6706	0.0058
677.8542	0.0051
678.0378	0.0092
678.2214	0.0043
678.405	-0.0039
678.5885	-0.0061
678.772	-0.0022
678.9555	-0.009
679.139	-0.002
679.3225	0.0006
679.5059	-0.0031
679.6894	0.0083
679.8728	-0.007
680.0562	-0.0028
680.2395	-0.003
680.4229	0.0008
680.6062	-0.0003
680.7896	-0.0039
680.9729	-0.012
681.1562	-0.0003
681.3394	0.0005
681.5227	-0.0019
681.7059	0.0014
681.8891	-0.0032
682.0723	0.0043
682.2555	-0.0016
682.4387	-0.0041
682.6218	-0.0066
682.805	0.0008
682.9881	-0.0003
683.1712	-0.0005
683.3542	-0.0031
683.5373	0.0039
683.7203	-0.0079
683.9034	0.0012
684.0864	-0.0117
684.2694	-0.007
684.4523	-0.0023
684.6353	-0.0053
684.8182	0.0016
685.0011	-0.0104
685.184	0.0043
685.3669	0.0016
685.5498	-0.0001
685.7326	0.0018
685.9154	0.0009
686.0982	0.0055
686.281	0.001
686.4638	0.0036
686.6465	0.0024
686.8293	-0.0027
687.012	0.0006
687.1947	-0.0022
687.3774	0.011
687.56	-0.0008
687.7427	0.0044
687.9253	-0.0079
688.1079	-0.0031
688.2905	0.0064
688.4731	-0.0026
688.6556	-0.0011
688.8382	-0.0054
689.0207	-0.0011
689.2032	-0.0088
689.3857	-0.0098
689.5681	0.0021
689.7506	-0.0044
689.933	-0.0022
690.1154	-0.0032
690.2978	-0.0034
690.4802	-0.0003
690.6626	-0.0061
690.8449	-0.0053
691.0272	-0.0008
691.2095	-0.0075
691.3918	-0.0009
691.5741	0.0005
691.7563	-0.0041
691.9386	0.0014
692.1208	0.0051
692.303	-0.0012
692.4852	-0.0035
692.6673	0.0013
692.8495	-0.0051
693.0316	0.0073
693.2137	0.0016
693.3958	0.007
693.5778	-0.0026
693.7599	-0.0041
693.9419	-0.0025
694.1239	0.0035
694.3059	-0.0045
694.4879	0.0053
694.6699	0.0078
694.8518	0.0095
695.0337	0.0016
695.2157	0.0117
695.3975	0.0016
695.5794	0.0043
695.7613	0.0026
695.9431	-0.0043
696.1249	0.0042
696.3067	0.0099
696.4885	-0.0044
696.6703	-0.0126
696.852	0.0003
697.0337	0.0017
697.2154	-0.0005
697.3971	-0
697.5788	-0.0009
697.7605	-0.0068
697.9421	0.0076
698.1237	-0.0041
698.3053	-0.0054
698.4869	-0.0025
698.6685	-0.0118
698.85	-0.0001
699.0315	0.0029
699.213	-0.0105
699.3945	-0.0006
699.576	0.0079
699.7575	0.0026
699.9389	0.0081
700.1203	0.0019
700.3017	-0.0051
700.4831	-0.002
700.6645	0.0015
700.8458	0.008
701.0271	0.005
701.2084	0.0117
701.3897	0.0003
701.571	0.0139
701.7523	-0.0005
701.9335	0.003
702.1147	0.0074
702.2959	-0.006
702.4771	0.0033
702.6583	-0.0019
702.8394	-0.0061
703.0205	0.001
703.2016	-0.0035
703.3827	0.0024
703.5638	0.0058
703.7449	0.0055
703.9259	0.0127
704.1069	-0.0022
704.2879	0.0107
704.4689	0.0074
704.6499	0
704.8308	0.0062
705.0117	0.0036
705.1927	0.0145
705.3735	0.0009
705.5544	0.0021
705.7353	-0.0026
705.9161	-0.0017
706.0969	-0.0026
706.2777	-0.0001
706.4585	-0.0026
706.6393	0.0015
706.82	-0.0026
707.0007	0.0012
707.1815	0.0026
707.3621	0.0064
707.5428	0.0034
707.7235	0.0086
707.9041	0.0044
708.0847	-0.0076
708.2653	-0.0034
708.4459	-0.0057
708.6265	0.001
708.807	0.0114
708.9875	0.0046
709.168	0.0041
709.3485	0.003
709.529	0.0036
709.7095	-0.0072
709.8899	-0.0028
710.0703	-0.0056
710.2507	0.002
710.4311	-0.0002
710.6115	-0.0085
710.7918	-0.0028
710.9721	-0.0031
711.1524	-0.0054
711.3327	-0.0065
711.513	0.0054
711.6932	-0.0047
711.8735	0.0068
712.0537	0.0079
712.2339	-0.0056
712.4141	-0.0047
712.5942	-0.0075
712.7744	-0.002
712.9545	-0.007
713.1346	-0.0062
713.3147	-0.0019
713.4947	-0.0144
713.6748	-0.0081
713.8548	-0.0022
714.0348	-0.006
714.2148	-0.0017
714.3948	0.0046
714.5748	0.0005
714.7547	0.0037
714.9346	0.005
715.1145	-0.0072
715.2944	-0.0026
715.4743	0.0044
715.6541	-0.0061
715.834	0.0012
716.0138	-0.0084
716.1936	-0.0114
716.3733	-0.0049
716.5531	0.0107
716.7328	-0.0017
716.9126	-0.005
717.0923	0.0011
717.2719	-0.0046
717.4516	0.0096
717.6312	-0.0003
717.8109	0.0001
717.9905	-0.0052
718.1701	-0.0028
718.3496	-0.0131
718.5292	0.0076
718.7087	0.003
718.8882	0.0028
719.0677	-0.0004
719.2472	0.0004
719.4267	-0.0055
719.6061	-0.0003
719.7856	0.0091
719.965	0.0023
720.1443	0.0022
720.3237	0.0098
720.5031	0.008
720.6824	0.0088
720.8617	0.0047
721.041	0.0037
721.2203	0.0089
721.3995	0.0105
721.5788	0.0117
721.758	0.0191
721.9372	0.0118
722.1164	0.0054
722.2956	0.0054
722.4747	0.0126
722.6538	0.0091
722.8329	0.0163
723.012	0.0087
723.1911	0.0018
723.3702	0.0022
723.5492	0.0048
723.7282	0.0029
723.9072	0.0041
724.0862	0.0007
724.2652	-0.0028
724.4441	-0.004
724.623	0.0014
724.8019	-0.0009
724.9808	0.0128
725.1597	-0.003
725.3385	0.0017
725.5174	0.0045
725.6962	0.0026
725.875	0.0062
726.0538	0.0031
726.2325	-0.0081
726.4112	0.0048
726.59	0.0026
726.7687	-0
726.9474	-0.0034
727.126	-0.0022
727.3047	0.0016
727.4833	-0.0035
727.6619	-0.0101
727.8405	-0.0083
728.0191	-0.0073
728.1976	0.0093
728.3762	-0.0044
728.5547	-0.0051
728.7332	-0.0111
728.9116	0.0063
729.0901	0.0086
729.2686	-0.0092
729.447	-0.0006
729.6254	-0.0057
729.8038	0.0011
729.9821	-0.006
730.1605	-0.0027
730.3388	0.0006
730.5171	-0.0006
730.6954	-0.0015
730.8737	-0.0013
731.0519	0.0037
731.2302	-0.0045
731.4084	0.0108
731.5866	0.0031
731.7648	-0.0084
731.9429	0.0006
732.1211	-0.0095
732.2992	0.0065
732.4773	0.0033
732.6554	-0.0014
732.8335	0.0073
733.0115	0.0133
733.1896	0.0141
733.3676	-0.0019
733.5456	0.0024
733.7235	0.0009
733.9015	0.0113
734.0794	-0.0004
734.2574	-0.0013
734.4353	-0.0014
734.6131	0.0054
734.791	0.0024
734.9689	0.001
735.1467	0.0018
735.3245	-0.0065
735.5023	-0.0116
735.68	-0.0046
735.8578	0.0091
736.0355	-0.0148
736.2132	-0.0013
736.3909	-0.0057
736.5686	-0.0092
736.7463	0.004
736.9239	-0.0135
737.1015	-0.0042
737.2791	-0.003
737.4567	-0.0009
737.6343	-0.0069
737.8118	0.0003
737.9894	0.0003
738.1669	-0.0059
738.3444	-0.0077
738.5218	0.004
738.6993	-0.0054
738.8767	-0
739.0541	0.0098
739.2315	-0.0057
739.4089	-0.0027
739.5863	0.0021
739.7636	-0.0106
739.9409	0.0014
740.1182	0.0047
740.2955	0.0018
740.4728	-0.0018
740.65	-0.0022
740.8272	-0.0037
741.0044	-0.009
741.1816	-0.0016
741.3588	-0.0028
741.5359	-0.0055
741.7131	-0.0114
741.8902	-0.0052
742.0673	-0.0025
742.2444	-0.0049
742.4214	-0.0109
742.5985	-0.0071
742.7755	-0.0084
742.9525	-0.0122
743.1295	-0.0056
743.3064	-0.0053
743.4834	-0.0044
743.6603	-0.0162
743.8372	-0.0052
744.0141	0.0025
744.191	0.0051
744.3678	0.004
744.5446	0.0018
744.7215	0.0066
744.8982	-0.0016
745.075	-0.0032
745.2518	0.0036
745.4285	0.0036
745.6052	0.0061
745.7819	-0.0014
745.9586	-0.0035
746.1353	-0.0033
746.3119	0.0002
746.4885	-0.0018
746.6651	-0.0026
746.8417	0.0041
747.0183	0.0062
747.1948	0.0023
747.3714	0.0097
747.5479	0.0088
747.7244	0.0072
747.9008	0.0088
748.0773	0.0002
748.2537	0.0095
748.4301	-0.0102
748.6065	0.0011
748.7829	0.0058
748.9593	-0.0067
749.1356	0.0033
749.3119	0.0119
749.4882	-0.0057
749.6645	0.0067
749.8408	-0.0014
750.017	-0.0013
750.1933	-0.0011
750.3695	0.001
750.5457	0.0048
750.7218	0.0036
750.898	0.0036
751.0741	-0.0049
751.2502	0.0015
751.4263	0.0051
751.6024	0.0078
751.7784	-0.0073
751.9545	-0.0016
752.1305	-0
752.3065	0.0001
752.4825	0.0067
752.6584	-0.0041
752.8344	-0.005
753.0103	-0.0081
753.1862	-0.0091
753.3621	-0.0083
753.5379	-0.0105
753.7138	-0.0032
753.8896	-0.0074
754.0654	-0.001
754.2412	0.0094
754.417	0.0009
754.5927	-0.0009
754.7685	-0.004
754.9442	-0.0022
755.1199	0.0109
755.2956	-0.004
755.4712	0.0051
755.6469	-0.0026
755.8225	-0.0005
755.9981	-0.0055
756.1736	0.0023
756.3492	0.0019
756.5248	-0.0052
756.7003	0.0088
756.8758	0.0107
757.0513	-0.007
757.2267	-0.0068
757.4022	-0.001
757.5776	-0.0116
757.753	0.0041
757.9284	0.0046
758.1038	0.0076
758.2791	0.0054
758.4545	-0.0089
758.6298	0.0008
758.8051	0.0091
758.9803	0.0005
759.1556	0.0108
759.3308	0.0032
759.506	0.0141
759.6812	0.0079
759.8564	0.0166
760.0316	-0.0018
760.2067	0.0096
760.3819	0.0121
760.557	0.015
760.732	-0.002
760.9071	-0.0126
761.0821	0.0082
761.2572	0.0033
761.4322	-0.0025
761.6072	0.0066
761.7821	-0.0054
761.9571	0.0026
762.132	-0.0123
762.3069	-0.0102
762.4818	-0.0169
762.6567	-0.0026
762.8316	-0.0061
763.0064	-0.0061
763.1812	0.0015
763.356	-0.0161
763.5308	0.0008
763.7055	-0.0039
763.8803	-0.0049
764.055	-0.0032
764.2297	-0.0008
764.4044	-0.008
764.579	-0.0046
764.7537	-0.0114
764.9283	0.0013
765.1029	-0.0017
765.2775	-0.0071
765.4521	-0.0054
765.6266	-0.0039
765.8011	0.0003
765.9756	-0.0039
766.1501	-0.0048
766.3246	-0.0013
766.4991	-0.0006
766.6735	-0.0007
766.8479	-0.0079
767.0223	0.0145
767.1967	-0.003
767.371	-0.0025
767.5454	-0.0055
767.7197	-0.0008
767.894	-0.0029
768.0683	-0.001
768.2425	0.0089
768.4168	0.0031
768.591	0.005
768.7652	0.0057
768.9394	-0.0055
769.1135	-0.0054
769.2877	0.0156
769.4618	-0.0064
769.6359	0.0007
769.81	0.011
769.984	0.0005
770.1581	-0.0096
770.3321	0.0072
770.5061	0.0025
770.6801	0.0007
770.8541	-0.0008
771.028	-0.0022
771.202	-0.015
771.3759	0.0081
771.5498	-0.0038
771.7236	0.0052
771.8975	0.0089
772.0713	0.0015
772.2451	0.0082
772.4189	0.0104
772.5927	0.0114
772.7665	0.0035
772.9402	-0.0039
773.1139	0.0014
773.2876	-0.0078
773.4613	0.0072
773.635	0.0006
773.8086	-0.0012
773.9822	0.0069
774.1558	0.0057
774.3294	-0.0105
774.503	0.0026
774.6765	0.0089
774.8501	-0.0094
775.0236	0.0004
775.1971	0.0147
775.3705	-0.0039
775.544	0.0097
775.7174	-0.0037
775.8908	-0.0078
776.0642	-0.0052
776.2376	0.004
776.4109	-0.0124
776.5843	0.0011
776.7576	0.0114
776.9309	0.0175
777.1041	0.0071
777.2774	0.0085
777.4506	-0.0054
777.6238	-0.0024
777.797	-0.0027
777.9702	-0.001
778.1434	0.0011
778.3165	-0.0084
778.4896	-0.0036
778.6627	0.0123
778.8358	-0.0027
779.0089	0.0067
779.1819	0.003
779.3549	0.0093
779.5279	0.0091
779.7009	-0.002
779.8739	0.017
780.0468	-0.001
780.2197	0.0025
780.3926	-0.001
780.5655	-0.0023
780.7384	-0.0023
780.9112	0.0041
781.0841	-0.0025
781.2569	-0
781.4297	-0
781.6024	0.0012
781.7752	0.0062
781.9479	0.0014
782.1206	0.0056
782.2933	-0.0012
782.466	0.0252
782.6386	-0.0014
782.8113	0.0001
782.9839	0.0112
783.1565	0.0154
783.329	0.0056
783.5016	0.0152
783.6741	0.0127
783.8466	-0.0071
784.0191	0.0124
784.1916	-0.0004
784.3641	0.004
784.5365	0.0047
784.7089	-0.0079
784.8813	-0.0125
785.0537	0.0035
785.2261	-0.0002
785.3984	-0.0018
785.5707	-0.0126
785.743	0.0036
785.9153	-0.0047
786.0876	0.0064
786.2598	-0.0108
786.432	-0.0114
786.6042	0.0029
786.7764	-0.0019
786.9486	0.0055
787.1207	-0.0119
787.2928	-0.0004
787.4649	0.0102
787.637	0.0186
787.8091	0.0027
787.9811	0.0003
788.1532	-0.0014
788.3252	0.0156
788.4972	-0.0019
788.6691	0.0044
788.8411	-0.0044
789.013	-0.0139
789.1849	0.0071
789.3568	0.0049
789.5287	0.0041
789.7005	0.0109
789.8723	0.0033
790.0442	0.0141
790.2159	0.0107
790.3877	0.0112
790.5595	-0.0126
790.7312	0.0041
790.9029	0.0054
791.0746	-0.0078
791.2463	0.0047
791.4179	0.0075
791.5896	-0.0018
791.7612	0.0055
791.9328	0.0046
792.1044	-0.0178
792.2759	0.0013
792.4474	-0.0215
792.619	-0.0002
792.7905	0.0173
792.9619	0.0188
793.1334	0.0059
793.3048	0.0027
793.4762	0.0172
793.6476	0.0091
793.819	-0.0065
793.9904	0.0146
794.1617	-0.0099
794.333	0.0004
794.5043	-0.017
794.6756	-0.0018
794.8469	-0.0044
795.0181	0.0006
795.1893	-0.0058
795.3605	0.0109
795.5317	-0.0159
795.7029	-0.0007
795.874	0.0135
796.0452	0.0094
796.2163	0.0097
796.3873	0.0286
796.5584	0.0146
796.7294	-0.0094
796.9005	0.0138
797.0715	0.0125
797.2425	-0.0082
797.4134	-0.0013
797.5844	0.006
797.7553	-0.0106
797.9262	-0.0075
798.0971	-0.0032
798.2679	-0.0041
798.4388	-0.0107
798.6096	0.0079
798.7804	0.0085
798.9512	0.0043
799.122	0.0086
799.2927	-0.001
799.4635	0.0217
799.6342	-0.0125
799.8049	0.0052
799.9755	-0.0016
800.1462	0.004
800.3168	0.0159
800.4874	-0.0002
800.658	0.0303
800.8286	0.009
800.9991	0.0161
801.1696	0.0027
801.3402	0.019
801.5106	0.0094
801.6811	-0.0022
801.8516	0.0184
802.022	0.0049
802.1924	0.0124
802.3628	0.0109
802.5332	0.0086
802.7035	0.0405
802.8739	0.0066
803.0442	0.0019
803.2145	0.0181
803.3847	-0.0283
803.555	0.0023
803.7252	-0.0145
803.8954	-0.0092
804.0656	-0.0007
804.2358	0.0137
804.4059	0.0257
804.5761	0.0056
804.7462	0.0133
804.9163	0.0297
805.0864	0.004
805.2564	0.0116
805.4264	0.0193
805.5965	0.0115
805.7665	0.0235
805.9364	0.0201
806.1064	0.0345
806.2763	0.0194
806.4462	0.0366
806.6161	0.016
806.786	0.0173
806.9559	0.007
807.1257	-0.001
807.2955	0.0177
807.4653	-0.0005
807.6351	0.0074
807.8048	0.0021
807.9746	0.0168
808.1443	0.0041
808.314	0.0146
808.4837	0.0136
808.6533	0.0019
808.8229	0.0395
808.9926	0.0009
809.1622	0.0173
809.3317	-0.004
809.5013	0.017
809.6708	0.0181
809.8403	0.0137
810.0098	0.0084
810.1793	0.0233
810.3488	0.0369
810.5182	0.0095
810.6876	0.0257
810.857	0.0097
811.0264	0.0348
811.1958	0.0204
811.3651	0.0192
811.5344	0.0292
811.7037	0.0108
811.873	0.0104
812.0422	0.0063
812.2115	0.0076
812.3807	0.0048
812.5499	0.0489
812.7191	0.0259
812.8882	0.0097
813.0574	0.0111
813.2265	0.0038
813.3956	0.019
813.5646	0.0038
813.7337	-0.0055
813.9027	0.0165
814.0718	0.0447
814.2407	0.03
814.4097	0.0147
814.5787	-0.0012
814.7476	0.0077
814.9165	0.0135
815.0854	0.0159
815.2543	0.0017
815.4232	0.0091
815.592	0.0209
815.7608	0.0162
815.9296	0.0278
816.0984	0.0253
816.2671	0.005
816.4359	0.0009
816.6046	0.0191
816.7733	0.0076
816.942	-0.0085
817.1106	0.024
817.2793	0.0281
817.4479	0.02
817.6165	0.0304
817.785	0.0128
817.9536	0.0194
818.1221	0.0054
818.2906	0.0044
818.4591	0.0283
818.6276	0.0161
818.7961	0.023
818.9645	0.028
819.1329	0.0264
819.3013	0.0254
819.4697	0.0313
819.638	0.025
819.8064	0.0331
819.9747	0.0384
820.143	0.0021
820.3113	-0.0012
820.4795	0.024
820.6477	0.0031
820.816	0.0225
820.9842	0.0426
821.1523	0.0101
821.3205	0.0067
821.4886	0.0275
821.6567	0.0126
821.8248	0.0497
821.9929	0.0355
822.1609	0.011
822.329	0.0134
822.497	0.0501
822.665	0.0003
822.833	0.0019
823.0009	0.0207
823.1688	0.0098
823.3367	0.0354
823.5046	0.0203
823.6725	0.0456
823.8404	0.0015
824.0082	0.015
824.176	0.0135
824.3438	0.0381
824.5116	-0.0209
824.6793	0.0205
824.847	-0.0009
825.0147	0.0151
825.1824	0.0323
825.3501	0.0218
825.5177	0.0208
825.6854	0.0034
825.853	-0.0144
826.0206	-0.0129
826.1881	0.0064
826.3557	-0.0154
826.5232	0.0281
826.6907	0.0336
826.8582	-0.0108
827.0257	-0.0168
827.1931	0.0313
827.3605	0.0245
827.528	0.0189
827.6953	-0.0199
827.8627	0.0013
828.03	0.0385
828.1974	-0.0038
828.3647	-0.0042
828.532	-0.0199
828.6992	-0.0113
828.8665	0.0185
829.0337	0.0127
829.2009	0.0131
829.3681	-0.0057
829.5352	0.0443
829.7024	-0.0081
829.8695	-0.009
830.0366	0.038
830.2037	0.0009
830.3707	0.014
830.5378	-0.0064
830.7048	0.0081
830.8718	-0.0223
831.0388	0.0022
831.2057	0.0118
831.3727	0.0099
831.5396	0.012
831.7065	0.0163
831.8734	0.0418
832.0402	-0.0072
832.2071	0.0005
832.3739	-0.0108
832.5407	0.0126
832.7075	0.003
832.8742	0.0098
833.041	-0.0014
833.2077	0.0186
833.3744	0.0317
833.541	-0.0001
833.7077	-0.0279
833.8743	0.0325
834.0409	-0.0092
834.2075	0.005
834.3741	0.0266
834.5407	-0.0007
834.7072	0.0161
834.8737	-0.0296
835.0402	0.0122
835.2067	0.0203
835.3731	0.0032
835.5395	0.0037
835.706	0.0491
835.8723	-0.0016
836.0387	0.0199
836.2051	-0.0178
836.3714	0.0187
836.5377	0.0305
836.704	-0.0169
836.8703	0.0557
837.0365	0.014
837.2027	-0.0215
837.3689	0.0053
837.5351	0.0036
837.7013	0.0207
837.8674	-0.0097
838.0335	-0.0291
838.1997	0.0173
838.3657	-0.0274
838.5318	0.008
838.6978	0.0175
838.8639	0.037
839.0299	0.0174
839.1958	-0.0086
839.3618	-0.0044
839.5277	-0.0103
839.6937	0.0116
839.8596	0.0137
840.0254	-0.0051
840.1913	0.0387
840.3571	-0.001
840.523	0.0161
840.6888	0.0547
840.8545	-0.0423
841.0203	0.0889
841.186	0.0516
841.3517	0.0889
841.5174	0.0297
841.6831	-0.0266
841.8488	0.0315
842.0144	0.0243
842.18	0.0226
842.3456	0.0093
842.5112	-0.0072
842.6767	-0.0002
842.8422	0.0085
843.0077	-0.0395
843.1732	0.0274
843.3387	-0.0158
843.5042	-0.0151
843.6696	0.0208
843.835	-0.0294
844.0004	0.0147
844.1657	0.0235
844.3311	-0.0338
844.4964	-0.0257
844.6617	-0.0436
844.827	0.02
844.9923	0.0571
845.1575	0.0022
845.3227	0.0103
845.4879	-0.0124
845.6531	-0.0459
845.8183	-0.0718
845.9834	0.0163
846.1485	-0.0109
846.3136	0.0023
846.4787	-0.0432
846.6438	0.078
846.8088	0.0601
846.9738	-0.0759
847.1388	-0.0195
847.3038	0.0666
847.4687	-0.0831
847.6337	-0.0167
847.7986	0.0174
847.9635	-0.0656
848.1284	-0.0002
848.2932	0.1098
848.458	-0.0153
848.6228	0.0655
848.7876	0.0831
848.9524	-0.0537
849.1172	0.0381
849.2819	0.0271
849.4466	-0.0899
849.6113	-0.0884
849.7759	0.0394
849.9406	0.0101
850.1052	0.0858
850.2698	-0.0717
850.4344	-0.0967
850.599	-0.071
850.7635	0.1736
850.928	0.0038
851.0925	-0.0246
851.257	0.0141
851.4215	0.0491
851.5859	-0.0047
851.7503	0.0028
851.9147	-0.0242
852.0791	-0.1275
852.2434	0.0628
852.4078	0.0716
852.5721	0.0989
852.7364	-0.0393
852.9007	-0.1399
853.0649	-0.0251
853.2291	0.0226
853.3934	-0.0207
853.5575	-0.0297
853.7217	-0.0692
853.8859	-0.1304
854.05	0.0212
854.2141	-0.0564
854.3782	-0.041
854.5423	-0.0401
854.7063	0.1085
854.8703	-0.0763
855.0343	0.0673
855.1983	-0.1288
855.3623	0.1783
855.5262	0.1151
855.6901	-0.0218
855.854	-0.0205
856.0179	0.1273
856.1818	0.2036
856.3456	-0.0139
856.5094	-0.1184
856.6732	-0.0991
856.837	0.0791
857.0008	-0.0005
857.1645	-0.0183
857.3282	-0.0064
857.4919	0.0091
857.6556	-0.0434
857.8192	0.1329
857.9828	0.0024
858.1465	0.036
858.31	-0.1067
858.4736	0.0957
858.6372	-0.2613
858.8007	-0.173
858.9642	-0.1126
859.1277	-0.1398
859.2911	-0.0099
859.4546	0.0607
859.618	-0.4582
859.7814	-0.0857
859.9448	0.0401
860.1081	0.4624
860.2715	0.1302
860.4348	-0.0614
860.5981	-0.0369
860.7614	0.1925
860.9246	-0.0977
861.0879	-0.091
861.2511	0.1705
861.4143	0.031
861.5774	0.1543
861.7406	-0.2235
861.9037	0.0033
862.0668	0.0124
862.2299	-0.1907
862.393	-0.5763
862.556	0.1598
862.7191	-0.3182
862.8821	-0.0787
863.0451	0.2929
863.208	0.0866
863.371	0.0317
863.5339	-0.2529
863.6968	-0.0153
863.8597	0.0857
864.0225	-0.0915
864.1854	-0.0602
864.3482	-0.1847
864.511	0.0081
864.6737	-0.14
864.8365	-0.0763
864.9992	-0.5237
865.1619	-0.2882
865.3246	0.0933
865.4873	0.1171
865.65	-0.1338
865.8126	0.0949
865.9752	0.1381
866.1378	-0.2763
866.3004	0.6284
866.4629	0.169
866.6254	-0
866.7879	0.018
866.9504	-0.2472
867.1129	0.6284
867.2753	-0.0717
867.4377	0.1833
867.6001	0.1477
867.7625	-0.0347
867.9249	-0.9162
868.0872	0.0345
868.2495	0.0567
868.4118	0.3248
868.5741	-0.8143
868.7363	0.3399
868.8986	0.0462
869.0608	-0.2626
869.223	0.1057
869.3851	-0
869.5473	-0
869.7094	0.1476
869.8715	-0.6336
870.0336	-0
870.1957	-0.2059
870.3577	-1.424
870.5197	0.2481
870.6817	-0
870.8437	-0.0962
871.0057	-0
871.1676	-0
871.3295	-0.0698
871.4914	-0
871.6533	-0.4631
871.8151	-0.5018
871.977	-0
872.1388	-0
872.3006	-0.247
872.4623	-0
872.6241	1.584
872.7858	-0
872.9475	0.0111
873.1092	0.0118
873.2709	-0.4193
873.4325	-0.0142
873.5941	-0.1377
873.7557	-0.4167
873.9173	-0
874.0789	-0
874.2404	-0
874.4019	-0.0455
874.5634	-0.0721
874.7249	-0.0848
874.8863	-0.1175
875.0478	0.7913
875.2092	-0
875.3706	0.1777
875.5319	-0.7687
875.6933	0.4207
875.8546	-0.1848
876.0159	0.2304
876.1772	-0.0407
876.3385	-0
876.4997	0.2575
876.6609	-0.53
876.8221	0.0969
876.9833	-0.0957
877.1445	-0
877.3056	0.397
877.4667	-0.3374
877.6278	-0
877.7889	-0.7808
877.9499	-0
878.111	-0.2076
878.272	-0.4901
878.433	-0.1747
878.5939	-0.0251
878.7549	-0.1259
878.9158	-0.6158
879.0767	-0.2937
879.2376	0.0635
879.3984	-0.0423
879.5593	-0
879.7201	0.402
879.8809	-0.5025
880.0417	-0
880.2024	0.0501
880.3632	-0
880.5239	1.317
880.6846	0.4087
880.8452	-2.3945
881.0059	-0
881.1665	0.1449
881.3271	0.1411
881.4877	-0.0071
881.6483	-0.3902
881.8088	-0.2347
881.9693	0.1815
882.1298	0.1815
882.2903	0.1815
