Data from MonoPyChalIsomerACN10uM380nmA_Absorbance_13-38-33-448.txt Node
Date: Fri Jul 05 13:38:33 BST 2024
User: LASERRRRR
Spectrometer: FLMT03099
Trigger mode: 0
Integration Time (sec): 1.000000E-1
Scans to average: 1
Electric dark correction enabled: true
Nonlinearity correction enabled: false
Boxcar width: 0
XAxis mode: Wavelengths
Number of Pixels in Spectrum: 3648
>>>>>Begin Spectral Data<<<<<
179.3399	-0.0589
179.5586	-0.0589
179.7771	-0.0589
179.9957	0.4501
180.2143	-0
180.4329	0.1599
180.6514	0.3629
180.8699	-0
181.0885	0.1406
181.307	0.34
181.5255	-0.1445
181.744	-0
181.9625	-0
182.181	-0
182.3994	-0
182.6179	-0
182.8363	0.1952
183.0547	-0.0323
183.2732	0.059
183.4916	0.1262
183.71	-0.0163
183.9284	0.0954
184.1467	0.0625
184.3651	-0.0243
184.5835	0.0268
184.8018	0.3578
185.0201	0.0238
185.2385	0.0359
185.4568	0.6764
185.6751	0.0537
185.8934	0.0418
186.1117	0.072
186.3299	0.092
186.5482	0.1461
186.7664	-0.0631
186.9847	-0.0485
187.2029	0.1183
187.4211	0.1442
187.6393	0.0093
187.8575	-0.0074
188.0757	0.3543
188.2939	-0.006
188.512	-0.0099
188.7302	0.068
188.9483	0.1576
189.1665	0.065
189.3846	-0.3439
189.6027	0.1594
189.8208	0.2176
190.0389	0.1267
190.257	0.1944
190.475	0.0368
190.6931	0.3254
190.9111	0.723
191.1292	0.16
191.3472	0.4829
191.5652	0.5325
191.7832	0.2543
192.0012	0.4519
192.2192	0.4359
192.4371	0.5594
192.6551	0.4627
192.873	0.4814
193.091	0.3672
193.3089	0.6603
193.5268	0.5587
193.7447	0.4988
193.9626	0.4126
194.1805	0.559
194.3984	0.6926
194.6162	0.7574
194.8341	0.6778
195.0519	0.5683
195.2697	0.5171
195.4875	0.7886
195.7054	0.7413
195.9231	0.5223
196.1409	0.463
196.3587	0.7607
196.5765	0.6423
196.7942	0.555
197.012	0.6299
197.2297	0.7788
197.4474	0.6991
197.6651	0.6945
197.8828	0.7006
198.1005	0.7489
198.3182	0.8768
198.5358	0.8721
198.7535	0.6546
198.9711	0.6219
199.1888	0.716
199.4064	0.8661
199.624	0.731
199.8416	0.6997
200.0592	0.8951
200.2767	0.905
200.4943	0.9234
200.7119	0.9775
200.9294	0.8816
201.1469	0.7174
201.3645	0.6672
201.582	0.7767
201.7995	0.8492
202.017	0.7735
202.2344	0.7042
202.4519	0.7894
202.6694	0.7899
202.8868	0.9228
203.1042	0.8925
203.3217	0.9585
203.5391	0.7575
203.7565	0.6679
203.9739	0.8149
204.1913	0.8206
204.4086	0.8667
204.626	0.7642
204.8433	0.9166
205.0607	0.7939
205.278	0.7751
205.4953	0.8848
205.7126	0.7694
205.9299	1.033
206.1472	0.8766
206.3644	0.7236
206.5817	0.9523
206.7989	0.8874
207.0162	0.7612
207.2334	0.9762
207.4506	0.8336
207.6678	0.8008
207.885	0.8159
208.1022	0.7381
208.3194	0.7624
208.5365	0.9514
208.7537	0.812
208.9708	0.7682
209.1879	0.9278
209.405	0.9323
209.6222	0.8743
209.8392	0.7549
210.0563	0.762
210.2734	0.8763
210.4905	0.7894
210.7075	0.9221
210.9245	0.7632
211.1416	0.8635
211.3586	0.7699
211.5756	0.7492
211.7926	0.8422
212.0096	0.7032
212.2265	0.7029
212.4435	0.7273
212.6604	0.7278
212.8774	0.7763
213.0943	0.8419
213.3112	0.7483
213.5281	0.7424
213.745	0.6429
213.9619	0.7155
214.1788	0.6499
214.3956	0.6915
214.6125	0.6712
214.8293	0.653
215.0461	0.7359
215.2629	0.6895
215.4798	0.6557
215.6965	0.6085
215.9133	0.6679
216.1301	0.6152
216.3469	0.7231
216.5636	0.6157
216.7803	0.6158
216.9971	0.6658
217.2138	0.6148
217.4305	0.6415
217.6472	0.5814
217.8639	0.6278
218.0805	0.5842
218.2972	0.5698
218.5138	0.5898
218.7305	0.5633
218.9471	0.5673
219.1637	0.6169
219.3803	0.5705
219.5969	0.5507
219.8135	0.5073
220.0301	0.5333
220.2466	0.5999
220.4632	0.5526
220.6797	0.5164
220.8962	0.515
221.1127	0.5074
221.3292	0.5414
221.5457	0.5317
221.7622	0.5133
221.9787	0.499
222.1951	0.4981
222.4116	0.5332
222.628	0.4943
222.8444	0.5121
223.0608	0.4961
223.2772	0.5214
223.4936	0.5375
223.71	0.5275
223.9264	0.5158
224.1427	0.5068
224.3591	0.5214
224.5754	0.5448
224.7917	0.5353
225.008	0.5199
225.2243	0.515
225.4406	0.5761
225.6569	0.54
225.8732	0.5423
226.0894	0.5383
226.3057	0.5152
226.5219	0.5589
226.7381	0.507
226.9543	0.557
227.1705	0.5666
227.3867	0.5437
227.6029	0.5548
227.8191	0.5632
228.0352	0.5324
228.2513	0.593
228.4675	0.56
228.6836	0.5329
228.8997	0.5452
229.1158	0.5493
229.3319	0.5869
229.548	0.5489
229.764	0.5624
229.9801	0.5593
230.1961	0.5912
230.4121	0.5659
230.6282	0.5394
230.8442	0.5438
231.0602	0.5494
231.2761	0.5625
231.4921	0.5621
231.7081	0.5455
231.924	0.5659
232.14	0.5581
232.3559	0.5505
232.5718	0.5748
232.7877	0.5537
233.0036	0.552
233.2195	0.5412
233.4353	0.5589
233.6512	0.5619
233.867	0.547
234.0829	0.5481
234.2987	0.5546
234.5145	0.5401
234.7303	0.5389
234.9461	0.5922
235.1619	0.5557
235.3776	0.5608
235.5934	0.5664
235.8091	0.5436
236.0249	0.522
236.2406	0.5316
236.4563	0.541
236.672	0.5759
236.8877	0.5592
237.1034	0.5431
237.319	0.5499
237.5347	0.5504
237.7503	0.5187
237.966	0.5243
238.1816	0.5387
238.3972	0.5119
238.6128	0.513
238.8284	0.5473
239.0439	0.539
239.2595	0.5247
239.475	0.5267
239.6906	0.5226
239.9061	0.5248
240.1216	0.5095
240.3371	0.5513
240.5526	0.5078
240.7681	0.5188
240.9836	0.4835
241.199	0.5107
241.4145	0.5234
241.6299	0.4896
241.8453	0.4627
242.0607	0.4831
242.2761	0.4559
242.4915	0.4615
242.7069	0.467
242.9223	0.4692
243.1376	0.4442
243.353	0.4479
243.5683	0.443
243.7836	0.4067
243.9989	0.424
244.2142	0.3859
244.4295	0.4119
244.6448	0.4008
244.86	0.3638
245.0753	0.3694
245.2905	0.3871
245.5057	0.354
245.721	0.3589
245.9362	0.3512
246.1514	0.3611
246.3665	0.3344
246.5817	0.3271
246.7969	0.3269
247.012	0.3205
247.2271	0.3112
247.4423	0.3065
247.6574	0.3076
247.8725	0.2993
248.0876	0.278
248.3026	0.2819
248.5177	0.2894
248.7328	0.2845
248.9478	0.2508
249.1628	0.2697
249.3779	0.2753
249.5929	0.2618
249.8079	0.265
250.0228	0.2464
250.2378	0.2502
250.4528	0.2454
250.6677	0.2393
250.8827	0.2463
251.0976	0.2446
251.3125	0.2373
251.5274	0.2089
251.7423	0.2235
251.9572	0.2258
252.172	0.217
252.3869	0.2184
252.6017	0.2075
252.8166	0.2037
253.0314	0.1943
253.2462	0.2146
253.461	0.22
253.6758	0.2066
253.8906	0.2177
254.1053	0.2162
254.3201	0.1868
254.5348	0.2064
254.7496	0.2141
254.9643	0.1946
255.179	0.1967
255.3937	0.1828
255.6083	0.2083
255.823	0.1978
256.0377	0.1994
256.2523	0.1953
256.467	0.1774
256.6816	0.2
256.8962	0.1825
257.1108	0.1871
257.3254	0.1984
257.54	0.188
257.7545	0.1929
257.9691	0.1861
258.1836	0.1911
258.3981	0.2018
258.6127	0.1983
258.8272	0.181
259.0417	0.1828
259.2561	0.1958
259.4706	0.1857
259.6851	0.1834
259.8995	0.1838
260.114	0.174
260.3284	0.1862
260.5428	0.1717
260.7572	0.1869
260.9716	0.1981
261.186	0.1877
261.4003	0.1946
261.6147	0.1942
261.829	0.1923
262.0433	0.1954
262.2577	0.1848
262.472	0.1841
262.6863	0.1832
262.9005	0.1872
263.1148	0.1736
263.3291	0.1855
263.5433	0.1773
263.7576	0.1852
263.9718	0.1906
264.186	0.1867
264.4002	0.1812
264.6144	0.1894
264.8286	0.2013
265.0427	0.1909
265.2569	0.173
265.471	0.1822
265.6851	0.1761
265.8993	0.1925
266.1134	0.1741
266.3275	0.1949
266.5415	0.1771
266.7556	0.1931
266.9697	0.1783
267.1837	0.1865
267.3978	0.1866
267.6118	0.1973
267.8258	0.1842
268.0398	0.179
268.2538	0.1865
268.4677	0.1898
268.6817	0.1733
268.8957	0.1807
269.1096	0.1836
269.3235	0.191
269.5374	0.1799
269.7514	0.1744
269.9652	0.1752
270.1791	0.1825
270.393	0.1798
270.6068	0.1731
270.8207	0.178
271.0345	0.172
271.2483	0.1748
271.4622	0.1727
271.676	0.1876
271.8897	0.1676
272.1035	0.1643
272.3173	0.1703
272.531	0.1673
272.7448	0.168
272.9585	0.1721
273.1722	0.1789
273.3859	0.1773
273.5996	0.1586
273.8133	0.1699
274.0269	0.1675
274.2406	0.1718
274.4542	0.1647
274.6679	0.1566
274.8815	0.1712
275.0951	0.1824
275.3087	0.1886
275.5223	0.179
275.7358	0.1765
275.9494	0.1816
276.1629	0.1715
276.3765	0.1783
276.59	0.18
276.8035	0.1755
277.017	0.1748
277.2305	0.1924
277.444	0.1822
277.6574	0.1764
277.8709	0.1839
278.0843	0.1779
278.2978	0.172
278.5112	0.1687
278.7246	0.1723
278.938	0.1719
279.1513	0.1789
279.3647	0.1878
279.5781	0.1621
279.7914	0.1768
280.0047	0.191
280.2181	0.1736
280.4314	0.1935
280.6447	0.178
280.8579	0.1743
281.0712	0.1866
281.2845	0.1887
281.4977	0.1806
281.711	0.1675
281.9242	0.1769
282.1374	0.1794
282.3506	0.1777
282.5638	0.1839
282.7769	0.1821
282.9901	0.1715
283.2033	0.1893
283.4164	0.1911
283.6295	0.1648
283.8426	0.1833
284.0557	0.1773
284.2688	0.1988
284.4819	0.1836
284.695	0.1693
284.908	0.1724
285.1211	0.179
285.3341	0.1827
285.5471	0.1842
285.7601	0.1723
285.9731	0.1701
286.1861	0.1756
286.3991	0.1802
286.612	0.191
286.825	0.1701
287.0379	0.1859
287.2508	0.1737
287.4637	0.1914
287.6766	0.1681
287.8895	0.1834
288.1024	0.1801
288.3152	0.1834
288.5281	0.1777
288.7409	0.1833
288.9538	0.1767
289.1666	0.1659
289.3794	0.1788
289.5922	0.1684
289.8049	0.1838
290.0177	0.1702
290.2304	0.1666
290.4432	0.1743
290.6559	0.1783
290.8686	0.1777
291.0813	0.1709
291.294	0.1787
291.5067	0.173
291.7194	0.1806
291.932	0.1883
292.1447	0.1736
292.3573	0.1664
292.5699	0.1747
292.7825	0.1761
292.9951	0.1718
293.2077	0.165
293.4203	0.1731
293.6328	0.1508
293.8454	0.173
294.0579	0.1691
294.2704	0.1783
294.4829	0.1612
294.6954	0.1725
294.9079	0.1645
295.1204	0.1779
295.3328	0.1608
295.5453	0.1743
295.7577	0.1723
295.9701	0.1512
296.1825	0.1617
296.3949	0.1715
296.6073	0.1661
296.8197	0.1514
297.0321	0.1842
297.2444	0.1505
297.4567	0.1648
297.6691	0.1687
297.8814	0.1574
298.0937	0.1647
298.306	0.1659
298.5182	0.1736
298.7305	0.166
298.9428	0.1567
299.155	0.1734
299.3672	0.1672
299.5794	0.1592
299.7916	0.1618
300.0038	0.1653
300.216	0.1735
300.4282	0.1599
300.6403	0.1659
300.8525	0.1744
301.0646	0.1563
301.2767	0.1595
301.4888	0.1612
301.7009	0.1595
301.913	0.1629
302.125	0.1665
302.3371	0.1664
302.5491	0.1583
302.7612	0.177
302.9732	0.1647
303.1852	0.1615
303.3972	0.1539
303.6092	0.1579
303.8211	0.1492
304.0331	0.1578
304.245	0.1555
304.457	0.1438
304.6689	0.1418
304.8808	0.1556
305.0927	0.1504
305.3046	0.1612
305.5164	0.152
305.7283	0.1426
305.9401	0.1556
306.152	0.1605
306.3638	0.1526
306.5756	0.1468
306.7874	0.1487
306.9992	0.1549
307.2109	0.1444
307.4227	0.1317
307.6344	0.1439
307.8462	0.1408
308.0579	0.1282
308.2696	0.1358
308.4813	0.1318
308.693	0.137
308.9046	0.1403
309.1163	0.127
309.328	0.1274
309.5396	0.1215
309.7512	0.1262
309.9628	0.1261
310.1744	0.1197
310.386	0.1244
310.5976	0.1262
310.8091	0.1213
311.0207	0.1265
311.2322	0.1272
311.4437	0.1209
311.6552	0.1293
311.8667	0.1261
312.0782	0.1052
312.2897	0.11
312.5012	0.1279
312.7126	0.1073
312.924	0.1088
313.1355	0.1203
313.3469	0.1081
313.5583	0.1143
313.7696	0.1143
313.981	0.1096
314.1924	0.1127
314.4037	0.1099
314.6151	0.1038
314.8264	0.1043
315.0377	0.1106
315.249	0.1067
315.4603	0.116
315.6716	0.1068
315.8828	0.1105
316.0941	0.1066
316.3053	0.1002
316.5165	0.0974
316.7277	0.0992
316.9389	0.1102
317.1501	0.1072
317.3613	0.1176
317.5724	0.0877
317.7836	0.1016
317.9947	0.0938
318.2058	0.1
318.417	0.0988
318.6281	0.0997
318.8391	0.0939
319.0502	0.0982
319.2613	0.1091
319.4723	0.1093
319.6834	0.1158
319.8944	0.0925
320.1054	0.1055
320.3164	0.1049
320.5274	0.0968
320.7383	0.1044
320.9493	0.1087
321.1602	0.1115
321.3712	0.1005
321.5821	0.1092
321.793	0.1073
322.0039	0.1031
322.2148	0.0881
322.4257	0.1095
322.6365	0.1274
322.8474	0.104
323.0582	0.0972
323.269	0.1159
323.4798	0.125
323.6906	0.117
323.9014	0.11
324.1122	0.1096
324.3229	0.0981
324.5337	0.1138
324.7444	0.1014
324.9551	0.121
325.1658	0.1202
325.3765	0.1173
325.5872	0.1075
325.7979	0.1069
326.0085	0.1115
326.2192	0.1035
326.4298	0.1098
326.6404	0.1042
326.851	0.0976
327.0616	0.1027
327.2722	0.118
327.4828	0.1193
327.6933	0.1105
327.9039	0.1166
328.1144	0.1293
328.3249	0.1191
328.5354	0.1062
328.7459	0.1117
328.9564	0.1053
329.1669	0.1141
329.3773	0.117
329.5878	0.1154
329.7982	0.1159
330.0086	0.1223
330.219	0.115
330.4294	0.1071
330.6398	0.1202
330.8502	0.1031
331.0605	0.1189
331.2708	0.1195
331.4812	0.1222
331.6915	0.1152
331.9018	0.1116
332.1121	0.1117
332.3224	0.1183
332.5326	0.1234
332.7429	0.1186
332.9531	0.1232
333.1633	0.1105
333.3735	0.1127
333.5837	0.1179
333.7939	0.1144
334.0041	0.1295
334.2143	0.124
334.4244	0.1163
334.6346	0.1021
334.8447	0.1207
335.0548	0.1118
335.2649	0.1037
335.475	0.1148
335.685	0.1122
335.8951	0.1224
336.1051	0.1297
336.3152	0.1377
336.5252	0.1121
336.7352	0.1163
336.9452	0.1115
337.1552	0.113
337.3652	0.1246
337.5751	0.1234
337.7851	0.1235
337.995	0.1043
338.2049	0.1226
338.4148	0.1198
338.6247	0.1202
338.8346	0.119
339.0445	0.1165
339.2543	0.1101
339.4642	0.1334
339.674	0.1081
339.8838	0.1205
340.0936	0.1357
340.3034	0.1241
340.5132	0.1369
340.7229	0.1302
340.9327	0.1262
341.1424	0.1212
341.3522	0.134
341.5619	0.1306
341.7716	0.1327
341.9813	0.1279
342.1909	0.1304
342.4006	0.1377
342.6102	0.1382
342.8199	0.122
343.0295	0.1346
343.2391	0.1255
343.4487	0.1297
343.6583	0.1213
343.8679	0.1272
344.0774	0.1249
344.287	0.1336
344.4965	0.1237
344.706	0.1334
344.9155	0.137
345.125	0.1281
345.3345	0.1301
345.544	0.133
345.7534	0.1425
345.9629	0.1326
346.1723	0.1299
346.3817	0.1237
346.5911	0.1292
346.8005	0.142
347.0099	0.1371
347.2193	0.1512
347.4286	0.1303
347.638	0.1353
347.8473	0.157
348.0566	0.1378
348.2659	0.138
348.4752	0.1362
348.6845	0.1344
348.8937	0.1378
349.103	0.1465
349.3122	0.1329
349.5214	0.1309
349.7306	0.1446
349.9398	0.1523
350.149	0.1435
350.3582	0.1382
350.5674	0.1568
350.7765	0.1371
350.9856	0.1386
351.1948	0.1388
351.4039	0.1395
351.613	0.1467
351.822	0.1529
352.0311	0.1482
352.2402	0.1452
352.4492	0.15
352.6582	0.1503
352.8672	0.1435
353.0762	0.1443
353.2852	0.1458
353.4942	0.1349
353.7032	0.1442
353.9121	0.1535
354.1211	0.1543
354.33	0.1404
354.5389	0.1556
354.7478	0.1392
354.9567	0.1498
355.1655	0.1459
355.3744	0.1467
355.5833	0.1529
355.7921	0.1736
356.0009	0.149
356.2097	0.1645
356.4185	0.1758
356.6273	0.1595
356.8361	0.1719
357.0448	0.1513
357.2536	0.1504
357.4623	0.1538
357.671	0.1607
357.8797	0.1639
358.0884	0.1623
358.2971	0.1672
358.5057	0.1558
358.7144	0.1723
358.923	0.1694
359.1316	0.1813
359.3402	0.1593
359.5488	0.1642
359.7574	0.1514
359.966	0.1714
360.1746	0.1698
360.3831	0.1675
360.5916	0.1622
360.8002	0.1745
361.0087	0.1795
361.2172	0.1682
361.4256	0.1756
361.6341	0.1792
361.8426	0.1678
362.051	0.1668
362.2594	0.1749
362.4678	0.1669
362.6762	0.1931
362.8846	0.1936
363.093	0.1718
363.3014	0.1894
363.5097	0.1558
363.718	0.1736
363.9264	0.1763
364.1347	0.1846
364.343	0.1921
364.5513	0.203
364.7595	0.1873
364.9678	0.205
365.176	0.1808
365.3842	0.1901
365.5925	0.1958
365.8007	0.1858
366.0089	0.1877
366.217	0.184
366.4252	0.2059
366.6333	0.1996
366.8415	0.2022
367.0496	0.1834
367.2577	0.1987
367.4658	0.2008
367.6739	0.2095
367.882	0.2001
368.09	0.1969
368.2981	0.2076
368.5061	0.193
368.7141	0.1985
368.9221	0.1867
369.1301	0.1855
369.3381	0.2006
369.5461	0.1933
369.754	0.197
369.962	0.1968
370.1699	0.1897
370.3778	0.2019
370.5857	0.1955
370.7936	0.1953
371.0015	0.1867
371.2093	0.2132
371.4172	0.2049
371.625	0.211
371.8328	0.2091
372.0406	0.2091
372.2484	0.2072
372.4562	0.2041
372.664	0.2078
372.8717	0.2276
373.0795	0.1934
373.2872	0.2025
373.4949	0.213
373.7026	0.2195
373.9103	0.2146
374.118	0.2131
374.3256	0.2236
374.5333	0.207
374.7409	0.2116
374.9485	0.2106
375.1561	0.215
375.3637	0.2391
375.5713	0.2151
375.7789	0.2124
375.9864	0.2115
376.194	0.2027
376.4015	0.2335
376.609	0.2123
376.8165	0.2239
377.024	0.209
377.2315	0.2239
377.4389	0.2282
377.6464	0.2219
377.8538	0.2279
378.0612	0.2213
378.2686	0.2142
378.476	0.2337
378.6834	0.2225
378.8908	0.2202
379.0981	0.2145
379.3055	0.2256
379.5128	0.2192
379.7201	0.2382
379.9274	0.2233
380.1347	0.229
380.342	0.2348
380.5492	0.1975
380.7565	0.2308
380.9637	0.2354
381.1709	0.2255
381.3781	0.2357
381.5853	0.2517
381.7925	0.2336
381.9997	0.2272
382.2068	0.2301
382.4139	0.2404
382.6211	0.2261
382.8282	0.2246
383.0353	0.2174
383.2424	0.2349
383.4494	0.2268
383.6565	0.228
383.8635	0.25
384.0706	0.2204
384.2776	0.2424
384.4846	0.2255
384.6916	0.2371
384.8986	0.2383
385.1055	0.2239
385.3125	0.2295
385.5194	0.2033
385.7263	0.232
385.9333	0.2172
386.1402	0.2234
386.347	0.2406
386.5539	0.2258
386.7608	0.2476
386.9676	0.2209
387.1744	0.2336
387.3813	0.2154
387.5881	0.2452
387.7948	0.2174
388.0016	0.2314
388.2084	0.2142
388.4151	0.2178
388.6219	0.2394
388.8286	0.223
389.0353	0.2232
389.242	0.2177
389.4487	0.2125
389.6553	0.2282
389.862	0.2128
390.0686	0.2085
390.2753	0.2285
390.4819	0.2299
390.6885	0.2089
390.8951	0.2138
391.1016	0.2202
391.3082	0.2088
391.5147	0.2196
391.7213	0.2162
391.9278	0.2117
392.1343	0.1984
392.3408	0.2231
392.5473	0.2111
392.7537	0.2218
392.9602	0.199
393.1666	0.2127
393.373	0.2045
393.5794	0.2122
393.7858	0.2068
393.9922	0.2053
394.1986	0.2141
394.4049	0.2139
394.6113	0.2065
394.8176	0.1987
395.0239	0.1899
395.2302	0.1929
395.4365	0.1975
395.6428	0.2031
395.8491	0.1953
396.0553	0.1937
396.2615	0.1961
396.4678	0.1923
396.674	0.179
396.8802	0.1815
397.0863	0.1994
397.2925	0.1889
397.4987	0.1775
397.7048	0.1978
397.9109	0.1988
398.117	0.1741
398.3231	0.1869
398.5292	0.2079
398.7353	0.2046
398.9413	0.1722
399.1474	0.1783
399.3534	0.1947
399.5594	0.1906
399.7654	0.2049
399.9714	0.1998
400.1774	0.1835
400.3833	0.1793
400.5893	0.1848
400.7952	0.1994
401.0011	0.1851
401.207	0.1918
401.4129	0.1891
401.6188	0.1871
401.8247	0.174
402.0305	0.187
402.2364	0.1783
402.4422	0.1985
402.648	0.1913
402.8538	0.1943
403.0596	0.1696
403.2654	0.1977
403.4711	0.1791
403.6768	0.1896
403.8826	0.1845
404.0883	0.1995
404.294	0.184
404.4997	0.1847
404.7054	0.1903
404.911	0.1772
405.1167	0.1856
405.3223	0.1952
405.5279	0.2026
405.7335	0.19
405.9391	0.2009
406.1447	0.1843
406.3502	0.2064
406.5558	0.185
406.7613	0.2044
406.9668	0.1617
407.1724	0.1699
407.3778	0.173
407.5833	0.1859
407.7888	0.1739
407.9942	0.2006
408.1997	0.1823
408.4051	0.1777
408.6105	0.1902
408.8159	0.1773
409.0213	0.1823
409.2267	0.1965
409.432	0.1791
409.6374	0.1898
409.8427	0.1928
410.048	0.1797
410.2533	0.1853
410.4586	0.1784
410.6639	0.1671
410.8691	0.1769
411.0744	0.1892
411.2796	0.1793
411.4848	0.1766
411.69	0.186
411.8952	0.211
412.1004	0.1695
412.3056	0.1923
412.5107	0.1775
412.7158	0.1973
412.921	0.1873
413.1261	0.1644
413.3312	0.1636
413.5362	0.1865
413.7413	0.1904
413.9464	0.1683
414.1514	0.1757
414.3564	0.1611
414.5614	0.1843
414.7664	0.1757
414.9714	0.1756
415.1764	0.1861
415.3813	0.1686
415.5863	0.1759
415.7912	0.1918
415.9961	0.1777
416.201	0.1888
416.4059	0.1864
416.6108	0.181
416.8156	0.1749
417.0205	0.18
417.2253	0.1716
417.4301	0.1713
417.6349	0.1831
417.8397	0.1767
418.0445	0.177
418.2492	0.1831
418.454	0.1762
418.6587	0.1878
418.8634	0.1913
419.0681	0.1543
419.2728	0.172
419.4775	0.1656
419.6822	0.1561
419.8868	0.1532
420.0915	0.1709
420.2961	0.1556
420.5007	0.1552
420.7053	0.1762
420.9099	0.1726
421.1144	0.1691
421.319	0.1663
421.5235	0.1718
421.728	0.165
421.9325	0.163
422.137	0.1823
422.3415	0.1604
422.546	0.1607
422.7504	0.1603
422.9549	0.1619
423.1593	0.1759
423.3637	0.1811
423.5681	0.1538
423.7725	0.1496
423.9769	0.1711
424.1812	0.1425
424.3856	0.1458
424.5899	0.1714
424.7942	0.1535
424.9985	0.1604
425.2028	0.1626
425.4071	0.1634
425.6113	0.1316
425.8156	0.1398
426.0198	0.1601
426.224	0.152
426.4282	0.146
426.6324	0.14
426.8366	0.1404
427.0407	0.1486
427.2449	0.1402
427.449	0.1423
427.6531	0.1341
427.8572	0.1376
428.0613	0.1417
428.2654	0.1426
428.4694	0.1434
428.6735	0.115
428.8775	0.144
429.0815	0.1397
429.2855	0.1142
429.4895	0.136
429.6935	0.1393
429.8975	0.151
430.1014	0.1325
430.3053	0.1087
430.5093	0.1343
430.7132	0.1176
430.9171	0.1317
431.1209	0.1256
431.3248	0.1291
431.5286	0.1285
431.7325	0.1399
431.9363	0.1202
432.1401	0.131
432.3439	0.1115
432.5477	0.1
432.7514	0.0987
432.9552	0.106
433.1589	0.1176
433.3627	0.1051
433.5664	0.1
433.7701	0.1023
433.9737	0.1063
434.1774	0.0915
434.3811	0.1005
434.5847	0.1056
434.7883	0.1033
434.9919	0.0843
435.1955	0.0906
435.3991	0.1007
435.6027	0.0952
435.8062	0.0896
436.0098	0.0937
436.2133	0.093
436.4168	0.0947
436.6203	0.0749
436.8238	0.0869
437.0272	0.092
437.2307	0.071
437.4341	0.0991
437.6375	0.0775
437.841	0.0736
438.0443	0.0852
438.2477	0.0812
438.4511	0.0704
438.6545	0.0798
438.8578	0.0887
439.0611	0.0748
439.2644	0.0723
439.4677	0.0609
439.671	0.0659
439.8743	0.0906
440.0775	0.0668
440.2808	0.0749
440.484	0.0593
440.6872	0.051
440.8904	0.0536
441.0936	0.0783
441.2967	0.0589
441.4999	0.0568
441.703	0.0629
441.9062	0.0522
442.1093	0.066
442.3124	0.0609
442.5155	0.0388
442.7185	0.0495
442.9216	0.036
443.1246	0.0518
443.3276	0.0418
443.5307	0.0491
443.7337	0.0548
443.9366	0.0459
444.1396	0.0499
444.3426	0.0442
444.5455	0.0529
444.7484	0.0386
444.9513	0.0316
445.1542	0.0613
445.3571	0.0405
445.56	0.04
445.7628	0.0444
445.9657	0.028
446.1685	0.0558
446.3713	0.0425
446.5741	0.0276
446.7769	0.0254
446.9797	0.0325
447.1824	0.0362
447.3852	0.0307
447.5879	0.0503
447.7906	0.0367
447.9933	0.0398
448.196	0.0262
448.3986	0.0329
448.6013	0.0315
448.8039	0.0074
449.0066	0.0171
449.2092	0.0312
449.4118	0.0234
449.6143	0.0209
449.8169	0.031
450.0195	0.0131
450.222	0.0059
450.4245	0.0078
450.627	0.0302
450.8295	0.0314
451.032	0.0219
451.2345	0.0243
451.4369	0.0172
451.6394	0.0115
451.8418	0.0168
452.0442	0.0224
452.2466	0.0225
452.449	0.0019
452.6513	0.0163
452.8537	0.0226
453.056	0.0022
453.2583	0.0238
453.4607	0.0239
453.663	0.009
453.8652	0.0234
454.0675	0.0013
454.2697	0.014
454.472	0.0087
454.6742	0.0144
454.8764	0.0171
455.0786	0.0294
455.2808	0.0041
455.4829	0.0122
455.6851	0.0365
455.8872	0.0256
456.0893	0.0157
456.2915	-0.0168
456.4935	0.0164
456.6956	0.0047
456.8977	0.0096
457.0997	0.0117
457.3018	0.0042
457.5038	0.0137
457.7058	-0.0039
457.9078	0.0015
458.1098	0.0107
458.3117	0.0082
458.5137	0.0083
458.7156	0.008
458.9175	-0.0125
459.1194	0.0029
459.3213	0.02
459.5232	-0.0033
459.725	-0.0174
459.9269	-0
460.1287	-0.0011
460.3305	0.0034
460.5323	-0.0055
460.7341	0.0044
460.9359	0.0031
461.1376	0.0128
461.3394	-0.0074
461.5411	0.0021
461.7428	0.0113
461.9445	0.0134
462.1462	-0.0028
462.3479	-0.0087
462.5495	0.0063
462.7512	0.0085
462.9528	-0.0085
463.1544	-0.0023
463.356	-0.0036
463.5576	0.0023
463.7592	-0.0123
463.9607	0.0116
464.1623	0.0152
464.3638	0.0121
464.5653	-0.0079
464.7668	0.0099
464.9683	0.0019
465.1697	0.0088
465.3712	-0.0131
465.5726	-0.0157
465.7741	0.0005
465.9755	-0.0022
466.1769	-0.002
466.3782	-0.004
466.5796	0.0014
466.7809	0.0119
466.9823	-0.0111
467.1836	0.0027
467.3849	0.0024
467.5862	0.0076
467.7875	-0.0101
467.9887	0.0118
468.19	-0.0061
468.3912	-0.0256
468.5924	-0.0124
468.7936	-0.0014
468.9948	0.0039
469.196	-0.0079
469.3972	-0.0125
469.5983	0.0044
469.7994	-0.0221
470.0006	-0.0025
470.2017	-0.0136
470.4027	-0.008
470.6038	-0.0142
470.8049	-0.0239
471.0059	-0.0112
471.2069	-0.0243
471.408	0.0045
471.6089	0.0084
471.8099	-0.0007
472.0109	-0.0081
472.2119	-0.021
472.4128	-0.0243
472.6137	-0.0119
472.8146	-0.0281
473.0155	-0.0167
473.2164	-0.0097
473.4173	-0.0031
473.6181	0.0079
473.819	-0.0059
474.0198	-0.0096
474.2206	-0.0096
474.4214	-0.0116
474.6222	-0.0047
474.8229	-0.0136
475.0237	-0.011
475.2244	-0.0215
475.4251	-0.0146
475.6258	-0.0135
475.8265	-0.0018
476.0272	-0.0025
476.2278	-0.017
476.4285	-0.0051
476.6291	-0.0176
476.8297	-0.0136
477.0303	-0.0101
477.2309	-0.0142
477.4315	-0.018
477.632	-0.0107
477.8326	-0.0103
478.0331	-0.0025
478.2336	-0.0035
478.4341	-0.0205
478.6346	-0.0048
478.8351	-0.0032
479.0355	0.0018
479.236	-0.0104
479.4364	-0.0071
479.6368	0.0007
479.8372	-0.0173
480.0376	-0.0162
480.2379	-0.0196
480.4383	-0.0165
480.6386	0.0027
480.8389	-0.0076
481.0392	-0.0112
481.2395	-0.0137
481.4398	0.0048
481.6401	-0.0038
481.8403	-0.006
482.0405	-0.0156
482.2408	-0.0099
482.441	0.0052
482.6411	-0.0103
482.8413	-0.0102
483.0415	-0.0168
483.2416	-0.0225
483.4417	-0.0092
483.6419	-0.0055
483.8419	-0.0029
484.042	-0.0008
484.2421	-0.0067
484.4422	-0.0137
484.6422	-0.0084
484.8422	-0.006
485.0422	-0.0159
485.2422	-0.0054
485.4422	-0.014
485.6422	-0.0083
485.8421	-0.0097
486.042	-0.0138
486.242	-0.0082
486.4419	-0.0083
486.6417	-0.0122
486.8416	-0.0082
487.0415	0.0021
487.2413	-0.0099
487.4411	-0.0054
487.641	-0.0156
487.8408	0.0071
488.0405	-0.0119
488.2403	-0.013
488.4401	0.0026
488.6398	-0.0001
488.8395	-0.0156
489.0392	-0.0084
489.2389	-0.0142
489.4386	0.0013
489.6383	-0.0153
489.8379	-0.0089
490.0376	-0.0052
490.2372	0.0058
490.4368	-0.0162
490.6364	-0.019
490.836	-0.0085
491.0355	-0.0037
491.2351	-0.0169
491.4346	-0.0038
491.6341	-0.0183
491.8336	-0.0149
492.0331	-0.0213
492.2326	-0.0204
492.432	-0.0127
492.6315	-0.0046
492.8309	-0.0238
493.0303	-0.0093
493.2297	-0.0161
493.4291	-0.0122
493.6284	-0.0001
493.8278	-0.0071
494.0271	0.0067
494.2264	0.0049
494.4257	-0.01
494.625	-0.0051
494.8243	-0.0281
495.0236	-0.0159
495.2228	-0.0162
495.422	0.004
495.6213	-0.0045
495.8205	-0.0046
496.0196	-0.0056
496.2188	0.0065
496.418	-0.015
496.6171	-0.0174
496.8162	-0.0182
497.0153	-0.014
497.2144	-0.0117
497.4135	-0.0102
497.6126	-0.0183
497.8116	-0.0054
498.0107	-0.0009
498.2097	-0.0137
498.4087	-0.0215
498.6077	-0.0049
498.8067	-0.0149
499.0056	-0.0111
499.2046	-0.0176
499.4035	-0.0287
499.6024	-0.01
499.8013	-0.0105
500.0002	-0.0199
500.199	-0.0012
500.3979	-0.0158
500.5967	-0.0237
500.7956	-0.0029
500.9944	-0.0077
501.1932	-0.0146
501.3919	-0.0137
501.5907	-0.0214
501.7895	-0.015
501.9882	-0.0116
502.1869	-0.0124
502.3856	-0.0147
502.5843	-0.0135
502.783	-0.0051
502.9816	-0.0014
503.1803	-0.0218
503.3789	-0.0218
503.5775	-0.0072
503.7761	-0.0116
503.9747	-0.0112
504.1732	-0.0068
504.3718	-0.0106
504.5703	-0.0086
504.7689	-0.0174
504.9674	-0.0133
505.1658	-0.0191
505.3643	-0.0117
505.5628	-0.0102
505.7612	-0.0203
505.9597	-0.0019
506.1581	-0.0148
506.3565	-0.0013
506.5549	-0.0098
506.7532	-0.0228
506.9516	-0.0074
507.1499	-0.0117
507.3482	-0.0175
507.5465	-0.0068
507.7448	-0.0063
507.9431	-0.0085
508.1414	-0.0042
508.3396	-0.0074
508.5379	-0.0063
508.7361	-0.0159
508.9343	-0.015
509.1325	-0.0056
509.3306	-0.0099
509.5288	-0.0124
509.7269	-0.0165
509.9251	-0.0147
510.1232	-0.0224
510.3213	-0.0032
510.5193	-0.0002
510.7174	-0.0245
510.9154	-0.0123
511.1135	-0.0125
511.3115	-0.0149
511.5095	0.0007
511.7075	-0.0119
511.9055	-0.0161
512.1034	-0.0186
512.3014	-0.0078
512.4993	-0.0044
512.6972	-0.0106
512.8951	-0.0154
513.093	-0.004
513.2908	0.0009
513.4887	-0.0072
513.6865	-0.0033
513.8844	-0.0058
514.0822	-0.0149
514.2799	-0.0193
514.4777	-0.0193
514.6755	-0.0228
514.8732	-0.0173
515.0709	-0.0053
515.2687	-0.0132
515.4664	-0.0038
515.664	-0.0129
515.8617	-0.0131
516.0594	-0.0212
516.257	-0.0077
516.4546	-0.0173
516.6522	-0.001
516.8498	-0.0118
517.0474	-0.0086
517.2449	-0.0026
517.4425	-0.0203
517.64	-0.0061
517.8375	0.0021
518.035	-0.0073
518.2325	-0.008
518.43	-0.0082
518.6274	-0.0052
518.8249	-0.0108
519.0223	-0.0044
519.2197	-0.0101
519.4171	-0.008
519.6145	-0.024
519.8118	-0.0172
520.0092	-0.0111
520.2065	-0.0062
520.4038	-0.017
520.6011	-0.0125
520.7984	-0.0095
520.9956	-0.0089
521.1929	-0.0217
521.3901	-0.0032
521.5874	-0.0121
521.7846	-0.0126
521.9818	-0.018
522.1789	-0.0192
522.3761	-0.0158
522.5732	-0.0033
522.7704	-0.0097
522.9675	-0.0056
523.1646	-0.0122
523.3617	-0.0083
523.5587	-0.0063
523.7558	-0.0113
523.9528	-0.0149
524.1498	-0.0004
524.3468	-0.0088
524.5438	-0.0161
524.7408	-0.0103
524.9378	-0.0116
525.1347	-0.0083
525.3316	-0.0013
525.5285	-0.0158
525.7254	-0.0105
525.9223	-0.0111
526.1192	-0.0073
526.316	-0.012
526.5129	-0.0072
526.7097	0.0047
526.9065	-0.0017
527.1033	-0.02
527.3	-0.0137
527.4968	-0.0116
527.6935	-0.0085
527.8903	-0.0223
528.087	-0.0166
528.2837	-0.0107
528.4804	-0.0103
528.677	-0.0113
528.8737	0.0002
529.0703	-0.0036
529.2669	-0.0148
529.4635	-0.0114
529.6601	-0.0156
529.8567	-0.0066
530.0532	-0.0227
530.2498	0.0015
530.4463	-0.0064
530.6428	-0.01
530.8393	-0.0042
531.0358	-0.0123
531.2322	-0.0133
531.4287	-0.0185
531.6251	-0.0141
531.8215	-0.0022
532.0179	-0.0023
532.2143	0.0021
532.4107	-0.005
532.607	-0.0068
532.8034	0.004
532.9997	-0.0015
533.196	-0.0133
533.3923	-0.0142
533.5886	-0.0111
533.7848	-0.0071
533.9811	0.0029
534.1773	-0.0104
534.3735	-0.0017
534.5697	-0.013
534.7659	-0.0006
534.9621	-0.0004
535.1582	-0.0167
535.3544	-0.0112
535.5505	-0.0057
535.7466	-0.01
535.9427	-0.0168
536.1387	-0.0147
536.3348	-0.0127
536.5308	-0.0034
536.7269	-0.0197
536.9229	0.0048
537.1189	-0.0043
537.3148	-0.0092
537.5108	-0.0069
537.7068	-0.0001
537.9027	-0.0082
538.0986	-0.0097
538.2945	-0.0131
538.4904	-0.0068
538.6863	-0.0074
538.8821	-0.0022
539.078	-0.0061
539.2738	-0.0051
539.4696	-0.0041
539.6654	-0.0076
539.8611	0.0005
540.0569	-0.0065
540.2526	-0.0135
540.4484	-0.0076
540.6441	0.0054
540.8398	-0.0035
541.0355	-0.0061
541.2311	-0.0147
541.4268	-0.0149
541.6224	0.0031
541.818	-0.0067
542.0136	-0.0098
542.2092	0.0021
542.4048	-0.0077
542.6003	-0.0036
542.7959	-0.0116
542.9914	-0.0155
543.1869	-0.004
543.3824	-0.0053
543.5779	-0.0116
543.7734	-0.01
543.9688	-0.0155
544.1642	0.0049
544.3596	0.009
544.555	0.0027
544.7504	-0.0037
544.9458	-0.0071
545.1411	-0.0016
545.3365	-0
545.5318	-0.0048
545.7271	-0.0025
545.9224	-0.0099
546.1177	-0.009
546.3129	-0.0011
546.5081	-0.0119
546.7034	-0.0053
546.8986	-0.0037
547.0938	-0.0065
547.289	-0.0028
547.4841	-0.0045
547.6793	-0.0022
547.8744	-0.0093
548.0695	-0
548.2646	-0.0095
548.4597	0.0009
548.6548	-0.0069
548.8498	-0.0066
549.0448	0.0029
549.2399	0.0004
549.4349	0.0129
549.6298	-0.0077
549.8248	-0.0068
550.0198	-0.0038
550.2147	-0.0027
550.4096	-0.0064
550.6045	-0.0062
550.7994	0.0075
550.9943	0.0048
551.1892	-0.0076
551.384	0.0075
551.5788	-0.0169
551.7737	-0.005
551.9685	0.0036
552.1632	0.0003
552.358	-0.0035
552.5528	0.0025
552.7475	0.0005
552.9422	-0.0048
553.1369	0.0029
553.3316	-0.0014
553.5263	-0.0073
553.7209	0.0011
553.9156	0.002
554.1102	-0.0081
554.3048	-0.0041
554.4994	0.0018
554.694	-0.0154
554.8885	0.0009
555.0831	-0.0097
555.2776	-0.0005
555.4721	-0.0064
555.6666	0.001
555.8611	0.008
556.0555	-0.0027
556.25	-0.0029
556.4444	-0.0132
556.6388	0.0003
556.8332	-0.0064
557.0276	-0.0106
557.222	-0.0046
557.4163	-0.0045
557.6107	-0.0045
557.805	-0.002
557.9993	-0.0096
558.1936	-0.0161
558.3879	-0.0016
558.5821	-0.0045
558.7764	-0.0149
558.9706	-0.0031
559.1648	0.001
559.359	-0.0111
559.5532	-0.0137
559.7473	0.0028
559.9415	-0.0085
560.1356	-0.0086
560.3297	-0.0121
560.5238	-0.0009
560.7179	-0.001
560.9119	-0.0053
561.106	-0.0047
561.3	-0.0026
561.494	-0.0041
561.688	-0.0104
561.882	-0.0108
562.076	-0.0059
562.2699	-0.002
562.4639	-0.0025
562.6578	-0.0024
562.8517	0.0006
563.0456	-0.0037
563.2395	0.0072
563.4333	0.0011
563.6272	0.0042
563.821	-0.0027
564.0148	-0.0075
564.2086	-0.0116
564.4024	-0.0046
564.5961	-0.0017
564.7899	0.0052
564.9836	-0.0057
565.1773	-0.0034
565.371	0.0043
565.5647	-0.0104
565.7584	0.0067
565.952	-0.0026
566.1456	-0.0024
566.3393	-0.0017
566.5329	-0.0119
566.7264	0.0012
566.92	-0.005
567.1136	0.0006
567.3071	-0.0092
567.5006	0.0052
567.6941	0.0027
567.8876	-0.0054
568.0811	-0.0057
568.2745	-0.0009
568.468	0.007
568.6614	-0.0044
568.8548	-0.0025
569.0482	-0.0033
569.2416	-0.0009
569.4349	0.0028
569.6283	0.001
569.8216	-0.0036
570.0149	-0.0025
570.2082	0.0002
570.4015	0.0029
570.5947	0.0036
570.788	-0.0014
570.9812	0.0013
571.1744	-0.004
571.3676	-0.0032
571.5608	-0.0076
571.754	0.011
571.9471	-0.0009
572.1402	-0.0008
572.3333	-0.0045
572.5264	0.0027
572.7195	-0.0018
572.9126	-0.0017
573.1057	-0.0039
573.2987	0.0022
573.4917	0
573.6847	-0.0079
573.8777	0.0072
574.0707	0.0016
574.2636	-0.0018
574.4566	-0.0107
574.6495	0.0034
574.8424	0.0018
575.0353	-0.0032
575.2281	0.0031
575.421	0.0014
575.6138	-0.001
575.8067	-0.0032
575.9995	0.0075
576.1923	0.0042
576.385	0.003
576.5778	-0.0028
576.7706	-0.0047
576.9633	-0.0045
577.156	0.002
577.3487	0.0029
577.5414	0.0027
577.734	-0.0019
577.9267	0.0036
578.1193	-0.0116
578.3119	-0.0025
578.5045	-0.0007
578.6971	0.0017
578.8897	0.0075
579.0822	-0.0028
579.2747	0.0003
579.4673	-0.0021
579.6598	-0.0033
579.8522	-0.0032
580.0447	-0.0031
580.2372	-0.0041
580.4296	0.0011
580.622	-0.0047
580.8144	-0.0002
581.0068	-0.0031
581.1992	-0.0087
581.3915	-0.009
581.5839	-0.0025
581.7762	-0.0067
581.9685	-0.0036
582.1608	0.0017
582.353	-0.0005
582.5453	-0.0008
582.7375	0.0012
582.9298	0.0041
583.122	-0.0012
583.3142	-0.0034
583.5063	-0.0013
583.6985	-0.0014
583.8906	-0.0031
584.0827	-0.0075
584.2749	0.0026
584.4669	-0.0024
584.659	0.0028
584.8511	-0.001
585.0431	-0.0062
585.2352	0.0048
585.4272	-0.0043
585.6192	0.0029
585.8111	-0.0029
586.0031	-0.0027
586.195	-0.0004
586.387	-0.0007
586.5789	-0.0038
586.7708	-0
586.9627	-0.0038
587.1545	-0.0057
587.3464	0.0008
587.5382	-0.003
587.73	0.003
587.9218	0.0027
588.1136	-0.0036
588.3053	0.0037
588.4971	-0.0088
588.6888	-0.0102
588.8805	0.0063
589.0722	0.0063
589.2639	-0.002
589.4556	0.0007
589.6472	-0.0006
589.8389	-0.0056
590.0305	-0.0068
590.2221	0.0029
590.4137	-0.0051
590.6052	-0.0013
590.7968	0.0013
590.9883	0.0005
591.1798	-0.0018
591.3713	0.0026
591.5628	0.008
591.7543	0.0046
591.9458	0.0069
592.1372	0.0021
592.3286	0.0096
592.52	0.0029
592.7114	-0.0045
592.9028	-0.0024
593.0941	0.0011
593.2855	0.0069
593.4768	-0.0043
593.6681	-0.0086
593.8594	-0.0044
594.0506	-0.0003
594.2419	0.0093
594.4331	-0.0012
594.6244	-0.001
594.8156	-0.0028
595.0067	0.0025
595.1979	-0.0028
595.3891	0.0013
595.5802	-0.0074
595.7713	-0.0045
595.9624	-0.0054
596.1535	-0.0011
596.3446	0.0002
596.5357	0.001
596.7267	0.0031
596.9177	-0.0036
597.1087	-0.0026
597.2997	-0.0033
597.4907	0.0015
597.6817	-0.0072
597.8726	-0.0041
598.0635	-0.0008
598.2544	-0.0008
598.4453	-0.0041
598.6362	-0.0059
598.827	-0.0052
599.0179	0.0108
599.2087	0.0072
599.3995	0.0019
599.5903	-0.0002
599.7811	0.0076
599.9718	0.0007
600.1626	-0.006
600.3533	-0.0079
600.544	0.0018
600.7347	-0.0012
600.9254	-0.0014
601.116	-0.0133
601.3067	-0.0021
601.4973	-0.0011
601.6879	0.0009
601.8785	-0.0039
602.0691	0.0048
602.2596	0.0022
602.4502	-0.001
602.6407	0.0007
602.8312	-0.0014
603.0217	-0.0055
603.2122	-0.0007
603.4027	-0.0034
603.5931	0.0021
603.7835	-0.0047
603.9739	-0.0016
604.1643	-0.001
604.3547	-0.0037
604.5451	-0.0006
604.7354	-0.0069
604.9257	0.0016
605.116	-0.0074
605.3063	0.006
605.4966	0.0051
605.6869	0.0041
605.8771	0.0065
606.0673	0.0049
606.2575	0.0024
606.4477	0.0047
606.6379	-0.0022
606.8281	0.0018
607.0182	-0.0019
607.2083	0.0195
607.3985	-0.0001
607.5885	-0.0049
607.7786	0.0035
607.9687	-0.0035
608.1587	0.0027
608.3488	0.0004
608.5388	-0.0013
608.7288	-0
608.9187	0.0005
609.1087	-0.0007
609.2986	-0.0022
609.4886	0.0023
609.6785	0.0007
609.8684	0.0031
610.0582	0.0051
610.2481	0.0025
610.4379	-0.0019
610.6278	0.006
610.8176	0.0022
611.0074	-0.0031
611.1971	-0.0041
611.3869	-0.0044
611.5766	-0.005
611.7664	0.0087
611.9561	-0.001
612.1458	0.0001
612.3354	-0.0102
612.5251	-0.0041
612.7147	0.005
612.9044	0.0029
613.094	-0.0057
613.2836	-0.0059
613.4731	0.0012
613.6627	-0.0035
613.8522	-0.0018
614.0417	0.0056
614.2313	-0.0057
614.4207	-0.0075
614.6102	0.0016
614.7997	-0.0021
614.9891	-0.0044
615.1785	0.0026
615.3679	-0.0024
615.5573	0.0055
615.7467	-0.0079
615.9361	-0.0051
616.1254	-0.003
616.3147	-0.0018
616.504	0.0001
616.6933	0.0007
616.8826	0.0064
617.0718	-0.003
617.2611	0.0044
617.4503	-0.0005
617.6395	-0.0034
617.8287	-0.0035
618.0179	0.0025
618.207	0.0112
618.3961	0.006
618.5853	-0.0015
618.7744	0.0083
618.9634	0.004
619.1525	-0.0006
619.3416	0.0064
619.5306	0.0006
619.7196	0.0044
619.9086	-0.0025
620.0976	0.0052
620.2866	0.0021
620.4755	0.0007
620.6645	0.0006
620.8534	0.0109
621.0423	0.0088
621.2312	0.0085
621.42	-0.0035
621.6089	-0.0021
621.7977	0.0104
621.9865	-0.0017
622.1753	0.0082
622.3641	0.0012
622.5529	0.0022
622.7416	-0.0007
622.9303	0.0024
623.1191	0.0071
623.3078	0.0013
623.4964	-0.0015
623.6851	0.0047
623.8737	0.0038
624.0624	0.0047
624.251	-0.0022
624.4396	0.0036
624.6282	-0.004
624.8167	0.0003
625.0053	0.0012
625.1938	0.006
625.3823	0.0068
625.5708	0.0036
625.7593	-0.003
625.9477	-0.0084
626.1362	-0.0007
626.3246	0.0009
626.513	-0.0041
626.7014	0.0077
626.8898	-0.0008
627.0781	0.0056
627.2665	-0.0005
627.4548	0.0128
627.6431	0.0074
627.8314	-0.0037
628.0197	0.003
628.2079	-0.0065
628.3962	-0.0016
628.5844	0.0116
628.7726	0.0096
628.9608	0.006
629.1489	-0.0002
629.3371	0.0013
629.5252	-0.0008
629.7134	0.0079
629.9015	-0.0032
630.0895	0.0018
630.2776	0.0053
630.4657	0.0024
630.6537	0.0039
630.8417	-0.0046
631.0297	-0.0054
631.2177	0.0021
631.4057	-0.0012
631.5936	0.0011
631.7815	0.005
631.9695	0.0008
632.1574	0.0098
632.3452	0.0136
632.5331	0.0006
632.7209	0.0001
632.9088	0.0064
633.0966	0.0052
633.2844	-0.0059
633.4722	-0.0012
633.6599	0.0076
633.8477	0.0036
634.0354	-0.0004
634.2231	-0.0023
634.4108	-0.0064
634.5985	0.0024
634.7861	0.001
634.9738	-0.0035
635.1614	-0.0029
635.349	-0.0003
635.5366	0.0001
635.7242	-0.0025
635.9117	0.0068
636.0993	-0.0031
636.2868	0.0122
636.4743	0.0008
636.6618	0.0174
636.8492	0.005
637.0367	-0.001
637.2241	-0.0002
637.4115	0.0015
637.5989	-0.0057
637.7863	-0.0048
637.9737	0.0053
638.161	-0.0055
638.3484	-0.0037
638.5357	0.0007
638.723	-0.0034
638.9103	-0.0034
639.0975	0.0047
639.2848	0.0029
639.472	-0.0009
639.6592	0.0017
639.8464	0.0074
640.0336	0.0089
640.2208	-0.001
640.4079	-0.0023
640.595	0.0047
640.7821	0.0023
640.9692	0.001
641.1563	-0.0035
641.3434	0.002
641.5304	0.0018
641.7174	-0.0016
641.9044	0.0027
642.0914	0.0047
642.2784	0.0038
642.4653	0.0007
642.6523	0.0036
642.8392	-0.0032
643.0261	0.0021
643.213	0.0051
643.3999	-0.0052
643.5867	0.0004
643.7735	0.0005
643.9604	-0.0082
644.1472	0.0017
644.3339	0.0026
644.5207	-0.0036
644.7075	-0.0053
644.8942	0.0027
645.0809	0.0033
645.2676	0.0031
645.4543	0.0009
645.6409	0.005
645.8276	0.0032
646.0142	0.0081
646.2008	-0.0047
646.3874	-0.0072
646.574	0.0032
646.7605	-0.0043
646.9471	-0.0106
647.1336	0.0058
647.3201	0.0045
647.5066	0.0002
647.6931	0.0058
647.8795	-0.0047
648.0659	0.0053
648.2524	0.0027
648.4388	-0.0068
648.6252	-0.0049
648.8115	0.0041
648.9979	0.0045
649.1842	0.0035
649.3705	0.009
649.5568	0.0033
649.7431	-0.0028
649.9294	-0.0022
650.1156	0.0006
650.3018	-0.0064
650.488	-0.0046
650.6742	0.0003
650.8604	0.0023
651.0466	-0.0006
651.2327	0.0047
651.4188	-0.0022
651.6049	-0.0019
651.791	-0.0035
651.9771	0.0047
652.1632	-0.0039
652.3492	-0.0012
652.5352	-0.002
652.7212	-0.0023
652.9072	0.007
653.0932	-0.0057
653.2791	-0.001
653.465	-0.0038
653.651	-0.0122
653.8369	-0.0081
654.0227	-0.0044
654.2086	-0.0004
654.3944	0.0019
654.5803	-0.0011
654.7661	-0.0041
654.9519	-0.0026
655.1377	-0.0071
655.3234	-0.0036
655.5092	-0.0081
655.6949	-0.0042
655.8806	-0.0054
656.0663	-0.0002
656.2519	-0.0045
656.4376	-0.0059
656.6232	-0.0006
656.8088	-0.0043
656.9945	-0.0084
657.18	0.0014
657.3656	-0.0014
657.5511	-0.0023
657.7367	-0.0017
657.9222	0.002
658.1077	0.0033
658.2932	0.0024
658.4786	-0.0125
658.6641	-0.0005
658.8495	0.0026
659.0349	-0.0051
659.2203	0.0039
659.4057	0.0022
659.591	0.0006
659.7764	0.0029
659.9617	-0.0048
660.147	-0.0023
660.3323	-0.004
660.5176	0.0119
660.7028	0.0019
660.888	0.0004
661.0733	-0.0034
661.2585	-0.0065
661.4436	-0.0067
661.6288	0.002
661.8139	-0.0042
661.9991	0.0037
662.1842	-0.0065
662.3693	-0.0024
662.5544	-0.0136
662.7394	-0.0024
662.9245	-0.007
663.1095	-0.0078
663.2945	-0.0046
663.4795	-0.0027
663.6644	-0.001
663.8494	-0.0042
664.0343	0.0079
664.2193	-0.0046
664.4042	0.0001
664.589	-0.0055
664.7739	0.0057
664.9587	-0.0015
665.1436	0.0024
665.3284	0.0059
665.5132	0.0032
665.698	0.0008
665.8827	0.0045
666.0675	0.0016
666.2522	-0.0044
666.4369	0.0023
666.6216	0.0041
666.8063	0.0091
666.9909	0.0001
667.1756	-0.0017
667.3602	0.001
667.5448	-0.0039
667.7294	0.0053
667.9139	-0.0003
668.0985	0.0117
668.283	-0.0038
668.4675	0.0008
668.652	-0.0012
668.8365	-0.0011
669.0209	0.0107
669.2054	0.007
669.3898	0.0017
669.5742	0.0023
669.7586	0.0073
669.943	0.0031
670.1273	0.0076
670.3117	0.0043
670.496	0.0007
670.6803	0.0144
670.8646	0.0061
671.0488	0.001
671.2331	0.0071
671.4173	-0.0017
671.6015	0.0008
671.7857	0.0026
671.9699	0.0078
672.1541	0.0075
672.3382	0.004
672.5223	0.0106
672.7064	0.0045
672.8905	0.0032
673.0746	-0.0006
673.2587	0.0018
673.4427	0.0115
673.6267	0.0151
673.8107	0.0051
673.9947	0.0054
674.1787	0.0014
674.3626	-0.0079
674.5465	0.0042
674.7304	0.0015
674.9143	0.0012
675.0982	0.012
675.2821	-0.0112
675.4659	0.0015
675.6497	0.0005
675.8335	0.0053
676.0173	0.0073
676.2011	0.0015
676.3849	0.004
676.5686	-0.0102
676.7523	0.007
676.936	-0.0009
677.1197	0.0003
677.3034	0.0001
677.487	0.005
677.6706	0.0081
677.8542	-0.0006
678.0378	-0.0036
678.2214	-0.0017
678.405	-0.0005
678.5885	-0.0032
678.772	0.0027
678.9555	-0.0088
679.139	-0.0029
679.3225	0.0064
679.5059	-0.004
679.6894	-0.0022
679.8728	-0.0046
680.0562	0.0009
680.2395	-0.0091
680.4229	-0.0073
680.6062	0.0077
680.7896	-0.0024
680.9729	-0.0085
681.1562	0.0036
681.3394	-0.0019
681.5227	-0.0033
681.7059	0.0023
681.8891	0.0013
682.0723	0.0044
682.2555	-0.006
682.4387	0.0016
682.6218	-0.0034
682.805	0.0002
682.9881	-0.0004
683.1712	0.0013
683.3542	-0.003
683.5373	0.0021
683.7203	-0.0016
683.9034	0.0076
684.0864	-0.0085
684.2694	-0.0021
684.4523	0.0021
684.6353	-0.0071
684.8182	-0.0023
685.0011	-0.0085
685.184	0.0042
685.3669	-0.0067
685.5498	0.003
685.7326	-0.0031
685.9154	0.0019
686.0982	0.0086
686.281	0.0008
686.4638	0.0077
686.6465	-0.0032
686.8293	0.0081
687.012	0.0044
687.1947	-0.0072
687.3774	0.0014
687.56	0.0029
687.7427	0.0029
687.9253	-0.008
688.1079	-0.0018
688.2905	0.0028
688.4731	-0.0005
688.6556	-0.0033
688.8382	-0.0022
689.0207	-0.0045
689.2032	-0.0052
689.3857	-0.004
689.5681	0.0043
689.7506	-0.0068
689.933	-0.0082
690.1154	-0.0034
690.2978	-0.001
690.4802	0.0024
690.6626	-0.014
690.8449	-0.0123
691.0272	-0.0001
691.2095	-0.0091
691.3918	-0.0048
691.5741	-0.0032
691.7563	0.0006
691.9386	0.0016
692.1208	0.0014
692.303	0.0019
692.4852	-0.0073
692.6673	-0.002
692.8495	-0.0044
693.0316	0.0006
693.2137	0.0038
693.3958	0.0024
693.5778	0.0047
693.7599	0.0088
693.9419	-0.0028
694.1239	0.0027
694.3059	0.0013
694.4879	0.0034
694.6699	0.0066
694.8518	0.0012
695.0337	-0
695.2157	0.0047
695.3975	0.0027
695.5794	0.0037
695.7613	0.001
695.9431	-0.0042
696.1249	0.0051
696.3067	-0.0029
696.4885	0.0042
696.6703	-0.0034
696.852	-0.0032
697.0337	-0.0009
697.2154	-0.003
697.3971	-0.0018
697.5788	0.0022
697.7605	-0.0064
697.9421	-0.002
698.1237	-0.0016
698.3053	-0.0005
698.4869	-0.0086
698.6685	-0.0089
698.85	-0.0039
699.0315	0.0033
699.213	-0.0006
699.3945	-0.0044
699.576	0.0088
699.7575	0.0074
699.9389	0.0127
700.1203	-0.0025
700.3017	-0.0064
700.4831	0.002
700.6645	0.0011
700.8458	0.0046
701.0271	0.0027
701.2084	0.0045
701.3897	0.0027
701.571	0.0075
701.7523	-0.0056
701.9335	-0.0036
702.1147	-0.0048
702.2959	-0.0013
702.4771	-0.0031
702.6583	-0.0007
702.8394	-0.0089
703.0205	-0.0009
703.2016	-0.0054
703.3827	-0.0036
703.5638	0.0068
703.7449	-0.0032
703.9259	0.0094
704.1069	-0.0021
704.2879	0.0016
704.4689	0.0079
704.6499	0.0065
704.8308	0.0013
705.0117	-0.0019
705.1927	0.0018
705.3735	0.0032
705.5544	0.0015
705.7353	0.0017
705.9161	-0.0015
706.0969	0.0004
706.2777	0.0013
706.4585	0.001
706.6393	-0.0018
706.82	-0.0002
707.0007	0.0023
707.1815	0.0013
707.3621	0.0055
707.5428	0.0031
707.7235	0.0012
707.9041	0.0009
708.0847	-0.0089
708.2653	-0.0019
708.4459	-0.0064
708.6265	0.0026
708.807	0.0014
708.9875	0.0041
709.168	-0.004
709.3485	0.0014
709.529	-0.0014
709.7095	-0.0142
709.8899	-0.0023
710.0703	-0.0002
710.2507	-0.0023
710.4311	-0.0063
710.6115	-0.0061
710.7918	-0.0132
710.9721	-0.0091
711.1524	-0.0089
711.3327	-0.0112
711.513	-0.0062
711.6932	-0.0005
711.8735	-0.0003
712.0537	0.0015
712.2339	-0.0098
712.4141	-0.0075
712.5942	-0.0131
712.7744	-0.0014
712.9545	-0.0161
713.1346	-0.0061
713.3147	-0.006
713.4947	-0.0083
713.6748	-0.0006
713.8548	-0.0039
714.0348	-0.016
714.2148	-0.0058
714.3948	0.003
714.5748	-0.0035
714.7547	0.0011
714.9346	0.0018
715.1145	-0.0074
715.2944	-0.0076
715.4743	-0.0073
715.6541	-0.0086
715.834	0.0072
716.0138	-0.0013
716.1936	-0.0106
716.3733	-0.0017
716.5531	0.0072
716.7328	-0.0013
716.9126	-0.0013
717.0923	0.0017
717.2719	-0.0026
717.4516	-0.0006
717.6312	0.0021
717.8109	-0.0098
717.9905	0.0026
718.1701	-0.0036
718.3496	-0.0063
718.5292	-0.0009
718.7087	0.0046
718.8882	-0.0052
719.0677	0.0027
719.2472	-0.0005
719.4267	0.0038
719.6061	0.0004
719.7856	0.0008
719.965	0.0014
720.1443	-0.0045
720.3237	0.013
720.5031	0.0047
720.6824	0.0146
720.8617	-0.004
721.041	0.0028
721.2203	0.0176
721.3995	0.01
721.5788	0.0075
721.758	0.0093
721.9372	0.0057
722.1164	0.0047
722.2956	0.0083
722.4747	0.0058
722.6538	0.0065
722.8329	0.0156
723.012	0.0101
723.1911	0.0048
723.3702	0.007
723.5492	0.0038
723.7282	0.0045
723.9072	-0.0019
724.0862	-0.0061
724.2652	-0.0036
724.4441	0.0031
724.623	-0.0044
724.8019	-0.0037
724.9808	0.0008
725.1597	-0.0087
725.3385	0.0034
725.5174	0.0051
725.6962	0.0039
725.875	0.0031
726.0538	0.0086
726.2325	-0.0032
726.4112	0.0011
726.59	-0.0062
726.7687	-0.0079
726.9474	0.001
727.126	-0.004
727.3047	-0.0132
727.4833	-0.005
727.6619	-0.008
727.8405	-0.0022
728.0191	-0.0061
728.1976	-0.0014
728.3762	-0.007
728.5547	-0.001
728.7332	-0.0068
728.9116	0.0025
729.0901	-0.0009
729.2686	-0.0027
729.447	-0.002
729.6254	-0.007
729.8038	-0.0077
729.9821	-0.0155
730.1605	-0.0071
730.3388	-0.0049
730.5171	0.0001
730.6954	-0.0041
730.8737	0.0057
731.0519	0.0034
731.2302	0.0003
731.4084	0.0069
731.5866	-0.0045
731.7648	0.0128
731.9429	0.0009
732.1211	-0.0112
732.2992	0.0002
732.4773	0.003
732.6554	-0.0036
732.8335	0.0034
733.0115	0.0087
733.1896	0.0125
733.3676	-0.0127
733.5456	0.0062
733.7235	0.0061
733.9015	-0.0002
734.0794	-0.0071
734.2574	-0.0047
734.4353	0.0015
734.6131	0.0021
734.791	-0.0047
734.9689	0.0017
735.1467	0.0043
735.3245	-0.0114
735.5023	0.0001
735.68	0.0004
735.8578	-0.0054
736.0355	-0.0213
736.2132	-0.0048
736.3909	-0.0139
736.5686	-0.0149
736.7463	0.0041
736.9239	-0.0055
737.1015	-0.01
737.2791	0.0027
737.4567	-0.006
737.6343	-0.0109
737.8118	-0.006
737.9894	0.0039
738.1669	-0.0054
738.3444	-0.0061
738.5218	-0.0068
738.6993	-0.0016
738.8767	-0.0077
739.0541	0.0083
739.2315	-0.0132
739.4089	-0.0012
739.5863	0.0028
739.7636	-0.007
739.9409	0.0012
740.1182	-0.0006
740.2955	0.0033
740.4728	-0.0057
740.65	-0.0015
740.8272	-0.0007
741.0044	-0.0084
741.1816	-0.0084
741.3588	-0.0026
741.5359	0.0005
741.7131	-0.0135
741.8902	-0.0001
742.0673	-0.0097
742.2444	-0.0134
742.4214	-0.0121
742.5985	0.0032
742.7755	-0.02
742.9525	-0.0183
743.1295	-0.0106
743.3064	-0.0075
743.4834	0.0013
743.6603	-0.0104
743.8372	-0.0176
744.0141	0.0022
744.191	0.0039
744.3678	0.0025
744.5446	0.0068
744.7215	0.0076
744.8982	-0.002
745.075	-0.0144
745.2518	0.0082
745.4285	0.0007
745.6052	-0.0026
745.7819	0.0014
745.9586	0.0035
746.1353	-0.0039
746.3119	0.0033
746.4885	-0.0019
746.6651	0.0063
746.8417	0.0007
747.0183	0.0083
747.1948	0.0003
747.3714	0.0047
747.5479	-0.0005
747.7244	0.0004
747.9008	0.0106
748.0773	0.0035
748.2537	0.0047
748.4301	-0.0061
748.6065	0.0016
748.7829	0.0068
748.9593	0.002
749.1356	-0.0029
749.3119	0.007
749.4882	-0.0089
749.6645	0.0067
749.8408	0.0003
750.017	-0.0057
750.1933	-0.0026
750.3695	0.0019
750.5457	0.0087
750.7218	0.0036
750.898	0.0059
751.0741	0.0032
751.2502	0.0043
751.4263	-0.0025
751.6024	0.0006
751.7784	-0.0002
751.9545	-0.0011
752.1305	-0.002
752.3065	-0.0101
752.4825	0.0077
752.6584	-0.0086
752.8344	-0.008
753.0103	-0.0147
753.1862	-0.0085
753.3621	-0.0033
753.5379	-0.004
753.7138	-0.0021
753.8896	-0.0029
754.0654	0.0004
754.2412	0.0067
754.417	0.004
754.5927	-0.0113
754.7685	-0.0046
754.9442	0.0059
755.1199	0.0059
755.2956	-0.0103
755.4712	0.0088
755.6469	0.0032
755.8225	-0.0027
755.9981	-0.0046
756.1736	-0.0053
756.3492	-0.001
756.5248	-0.0055
756.7003	-0.0074
756.8758	0.0019
757.0513	-0.0167
757.2267	-0.0091
757.4022	0.0021
757.5776	-0.0053
757.753	0.0035
757.9284	-0.0018
758.1038	0.0047
758.2791	0.004
758.4545	-0.0135
758.6298	0.0021
758.8051	0.0119
758.9803	0.0047
759.1556	0.0015
759.3308	-0.0018
759.506	0.0099
759.6812	0.009
759.8564	0.0104
760.0316	0.01
760.2067	0.0114
760.3819	0.0022
760.557	0.0083
760.732	-0.0052
760.9071	-0.0096
761.0821	-0.0081
761.2572	0.0111
761.4322	-0.0028
761.6072	-0.0001
761.7821	-0.0131
761.9571	-0.0013
762.132	-0.0036
762.3069	-0.0136
762.4818	-0.0063
762.6567	-0.0048
762.8316	-0.005
763.0064	0.0002
763.1812	0.0013
763.356	-0.0107
763.5308	-0.0048
763.7055	0.0053
763.8803	-0.0041
764.055	0.0016
764.2297	-0.0041
764.4044	-0.0076
764.579	-0.0095
764.7537	-0.008
764.9283	0.0061
765.1029	-0.0119
765.2775	0.0039
765.4521	-0.0046
765.6266	-0.0018
765.8011	-0.0012
765.9756	0.0056
766.1501	0.0005
766.3246	0.0007
766.4991	-0.0025
766.6735	0.0069
766.8479	-0.0059
767.0223	0.0028
767.1967	-0.0063
767.371	-0.0083
767.5454	-0.0004
767.7197	-0.002
767.894	0.0018
768.0683	-0.0028
768.2425	0.0103
768.4168	0.005
768.591	-0.0071
768.7652	0.0046
768.9394	0.0015
769.1135	-0.0018
769.2877	0.0102
769.4618	0.0026
769.6359	-0.0087
769.81	0.0043
769.984	0.0013
770.1581	0.0014
770.3321	-0.0005
770.5061	-0.0071
770.6801	-0.006
770.8541	-0.0012
771.028	0.0142
771.202	-0.0087
771.3759	0.0083
771.5498	-0.0065
771.7236	0.0123
771.8975	0.0045
772.0713	0.0099
772.2451	-0.0025
772.4189	0.0124
772.5927	0.0049
772.7665	0.0097
772.9402	0.0029
773.1139	-0.0056
773.2876	-0.0026
773.4613	-0.0047
773.635	0.0124
773.8086	-0.0063
773.9822	0.0053
774.1558	-0.0007
774.3294	-0.0011
774.503	0.0003
774.6765	0.0024
774.8501	0.0095
775.0236	0.0157
775.1971	0.0131
775.3705	-0.0045
775.544	0.003
775.7174	-0.0095
775.8908	0.0035
776.0642	-0.0021
776.2376	-0.0075
776.4109	-0.0055
776.5843	-0.004
776.7576	0.0083
776.9309	0.0161
777.1041	0.0114
777.2774	0.0032
777.4506	-0.0082
777.6238	0.0008
777.797	-0.0042
777.9702	0.0053
778.1434	-0.0029
778.3165	-0.0134
778.4896	-0.007
778.6627	0.009
778.8358	0.005
779.0089	0.0053
779.1819	-0.0111
779.3549	0.0082
779.5279	0.0069
779.7009	0.004
779.8739	0.0059
780.0468	-0.0002
780.2197	0.0114
780.3926	-0.0072
780.5655	-0.0041
780.7384	0.0001
780.9112	-0.0062
781.0841	-0.0074
781.2569	-0.0081
781.4297	0.0043
781.6024	0.0067
781.7752	0.0123
781.9479	0.012
782.1206	0.0088
782.2933	-0.0137
782.466	0.0151
782.6386	0.002
782.8113	0.0109
782.9839	0.0077
783.1565	0.023
783.329	0.0122
783.5016	0.0083
783.6741	0.0092
783.8466	0.0016
784.0191	0.0035
784.1916	-0.0038
784.3641	-0.0011
784.5365	0.0124
784.7089	-0.0028
784.8813	0.0041
785.0537	0.0062
785.2261	-0.0108
785.3984	-0.0171
785.5707	0.0039
785.743	-0.0036
785.9153	-0.0075
786.0876	0.0073
786.2598	0.0008
786.432	-0.0054
786.6042	-0.0096
786.7764	-0.0022
786.9486	0.0017
787.1207	-0.0061
787.2928	0.0019
787.4649	-0.0002
787.637	0.0042
787.8091	0.0028
787.9811	-0.0009
788.1532	-0.0027
788.3252	0.0106
788.4972	-0.0085
788.6691	0.0071
788.8411	-0.0003
789.013	-0.0077
789.1849	-0.0051
789.3568	0.0081
789.5287	-0.0033
789.7005	-0.0057
789.8723	0.0027
790.0442	0.0136
790.2159	0.0075
790.3877	0.0081
790.5595	-0.0063
790.7312	0.0077
790.9029	0.0127
791.0746	0.0012
791.2463	0.0187
791.4179	-0.0008
791.5896	-0.0005
791.7612	0.0119
791.9328	0.0135
792.1044	-0.0026
792.2759	-0.0055
792.4474	0.0003
792.619	0.0028
792.7905	0.0118
792.9619	-0.0101
793.1334	0.0064
793.3048	0.0109
793.4762	0.0249
793.6476	0.0067
793.819	-0.0034
793.9904	0.0021
794.1617	-0.001
794.333	-0.0046
794.5043	-0.0125
794.6756	-0.0034
794.8469	0.0134
795.0181	0.0079
795.1893	-0.0019
795.3605	0.0121
795.5317	0.0087
795.7029	-0.0065
795.874	0.0079
796.0452	0.0066
796.2163	0.0005
796.3873	0.0139
796.5584	0.0062
796.7294	-0.0016
796.9005	0.021
797.0715	0.0114
797.2425	-0.004
797.4134	-0.0013
797.5844	0.0111
797.7553	0.0005
797.9262	0.0033
798.0971	-0.0017
798.2679	-0.0089
798.4388	-0.0201
798.6096	-0.0134
798.7804	0.0235
798.9512	0.0024
799.122	0.0103
799.2927	0.0199
799.4635	0.016
799.6342	-0.0018
799.8049	0.0078
799.9755	0.0003
800.1462	0.0093
800.3168	0.0117
800.4874	0.0068
800.658	0.0148
800.8286	-0.003
800.9991	0.0099
801.1696	0.0154
801.3402	0.017
801.5106	-0.0051
801.6811	0.0116
801.8516	0.0142
802.022	0.0128
802.1924	0.0181
802.3628	0.0117
802.5332	0.0076
802.7035	0.025
802.8739	0.0055
803.0442	0.0062
803.2145	0.0224
803.3847	-0.0192
803.555	0.0118
803.7252	-0.0085
803.8954	0.0035
804.0656	-0.0065
804.2358	0.0026
804.4059	0.0292
804.5761	0.0139
804.7462	0.0015
804.9163	0.0081
805.0864	0.0011
805.2564	0.0106
805.4264	0.0331
805.5965	0.0002
805.7665	0.0139
805.9364	0.0049
806.1064	0.0255
806.2763	0.0246
806.4462	0.0246
806.6161	0.014
806.786	0.0085
806.9559	0.0024
807.1257	0.003
807.2955	0.0084
807.4653	-0.0014
807.6351	-0.022
807.8048	-0.0003
807.9746	0.0085
808.1443	0.0055
808.314	0.0096
808.4837	0.0056
808.6533	0.0069
808.8229	0.0259
808.9926	0.0251
809.1622	0.0104
809.3317	-0.0013
809.5013	0.006
809.6708	0.0093
809.8403	0.0102
810.0098	0.0084
810.1793	0.0151
810.3488	0.0153
810.5182	-0.014
810.6876	0.0275
810.857	-0.0096
811.0264	0.0308
811.1958	0.013
811.3651	0.006
811.5344	0.0013
811.7037	0.0124
811.873	-0.0049
812.0422	0.0144
812.2115	0.0056
812.3807	-0.0141
812.5499	0.0089
812.7191	-0.0033
812.8882	-0.0054
813.0574	0.0203
813.2265	0.0177
813.3956	0.001
813.5646	0.016
813.7337	0.0153
813.9027	0.0227
814.0718	0.0444
814.2407	0.0446
814.4097	0.013
814.5787	0.0049
814.7476	0.0167
814.9165	0.0172
815.0854	-0.0123
815.2543	0.0233
815.4232	-0.0001
815.592	0.0322
815.7608	0.0186
815.9296	0.0219
816.0984	0.0188
816.2671	-0.0013
816.4359	0.0023
816.6046	0.0031
816.7733	0.0104
816.942	0.0002
817.1106	0.0442
817.2793	0.0081
817.4479	0.0268
817.6165	0.0314
817.785	0.0266
817.9536	0.0002
818.1221	0.0227
818.2906	0.0209
818.4591	-0.003
818.6276	-0.0075
818.7961	0.014
818.9645	0.0113
819.1329	0.0066
819.3013	0.0168
819.4697	0.0392
819.638	0.0217
819.8064	0.0095
819.9747	0.001
820.143	0.0243
820.3113	-0.0109
820.4795	0.0413
820.6477	0.0358
820.816	0.0066
820.9842	0.0187
821.1523	-0.0076
821.3205	0.0092
821.4886	0.0046
821.6567	-0.0131
821.8248	0.0129
821.9929	0.0236
822.1609	0.0094
822.329	0.0287
822.497	0.0392
822.665	-0.0087
822.833	-0.0164
823.0009	0.0044
823.1688	0.0226
823.3367	0.0296
823.5046	0.0069
823.6725	0.0351
823.8404	-0.0144
824.0082	0.0311
824.176	0.0297
824.3438	0.0011
824.5116	-0.0182
824.6793	0.0257
824.847	0.0116
825.0147	-0.0135
825.1824	0.0508
825.3501	0.0461
825.5177	-0.0124
825.6854	0.0055
825.853	0.0315
826.0206	-0.002
826.1881	0.0064
826.3557	-0.0001
826.5232	0.0398
826.6907	-0.0203
826.8582	0.0118
827.0257	-0.0282
827.1931	0.0104
827.3605	0.0072
827.528	-0.017
827.6953	-0.023
827.8627	0.0112
828.03	0.0146
828.1974	0.0027
828.3647	-0.0168
828.532	0.0149
828.6992	-0.0065
828.8665	-0.0006
829.0337	-0.0071
829.2009	0.0357
829.3681	0.0139
829.5352	0.0235
829.7024	0.0102
829.8695	-0.0236
830.0366	0.0522
830.2037	0.0097
830.3707	0.0129
830.5378	-0.0225
830.7048	0.002
830.8718	-0.0087
831.0388	-0.0684
831.2057	0.0291
831.3727	0.0051
831.5396	-0.0018
831.7065	-0.0143
831.8734	0.026
832.0402	-0.0244
832.2071	0.0113
832.3739	-0.0269
832.5407	0.0213
832.7075	-0.0131
832.8742	0.0129
833.041	0.0045
833.2077	-0.0002
833.3744	0.0426
833.541	0.0304
833.7077	-0.0113
833.8743	-0.0112
834.0409	-0.0098
834.2075	-0.0089
834.3741	-0.0075
834.5407	0.0227
834.7072	-0.0046
834.8737	0.0286
835.0402	-0.0101
835.2067	-0.007
835.3731	0.0005
835.5395	-0.0152
835.706	-0.0015
835.8723	0.0027
836.0387	0.0248
836.2051	0.0483
836.3714	-0.0189
836.5377	0.004
836.704	-0.0258
836.8703	0.006
837.0365	-0.0067
837.2027	-0.0343
837.3689	0.0258
837.5351	0.0036
837.7013	-0.0234
837.8674	-0.008
838.0335	-0.0267
838.1997	-0.0051
838.3657	-0.0259
838.5318	-0.0138
838.6978	0.0863
838.8639	0.0875
839.0299	-0.0237
839.1958	-0.0348
839.3618	0.0703
839.5277	-0.0219
839.6937	0.0404
839.8596	-0.0136
840.0254	-0.0043
840.1913	0.035
840.3571	0.0158
840.523	0.0007
840.6888	-0.0095
840.8545	-0.0362
841.0203	0.0269
841.186	0.0076
841.3517	0.0866
841.5174	0.0259
841.6831	-0.0077
841.8488	0.0502
842.0144	0.009
842.18	0.0348
842.3456	0.0369
842.5112	-0.0201
842.6767	-0.0022
842.8422	-0.0024
843.0077	0.0018
843.1732	0.0009
843.3387	-0.0535
843.5042	0.0044
843.6696	0.0646
843.835	-0.0244
844.0004	0.083
844.1657	0.0213
844.3311	-0.0106
844.4964	-0.0879
844.6617	-0.0241
844.827	0.0067
844.9923	-0.0093
845.1575	0.0343
845.3227	0.009
845.4879	0.03
845.6531	-0.0556
845.8183	-0.0418
845.9834	-0.0292
846.1485	-0.0266
846.3136	-0.0403
846.4787	-0.1037
846.6438	0.0515
846.8088	-0.0589
846.9738	-0.0881
847.1388	0.0184
847.3038	-0.0777
847.4687	-0.1368
847.6337	0.025
847.7986	0.0023
847.9635	-0.0205
848.1284	0.0264
848.2932	0.1321
848.458	0.0116
848.6228	0.0605
848.7876	0.0455
848.9524	-0.0628
849.1172	-0.0607
849.2819	-0.0045
849.4466	0.0266
849.6113	-0.099
849.7759	-0.0045
849.9406	0.0803
850.1052	0.078
850.2698	0.0091
850.4344	-0.0005
850.599	0.0188
850.7635	0.0755
850.928	-0.0189
851.0925	0.0073
851.257	0.0307
851.4215	0.0558
851.5859	0.0105
851.7503	0.0168
851.9147	0.032
852.0791	-0.1241
852.2434	0.0091
852.4078	0.0486
852.5721	0.0419
852.7364	-0.0594
852.9007	-0.1984
853.0649	-0.0234
853.2291	0.0666
853.3934	-0.023
853.5575	0.1851
853.7217	-0.1528
853.8859	-0.157
854.05	-0.1319
854.2141	-0.0209
854.3782	-0.0711
854.5423	-0.126
854.7063	0.0478
854.8703	0.0367
855.0343	-0.0834
855.1983	-0.0961
855.3623	0.1781
855.5262	-0.0142
855.6901	0.0043
855.854	-0.0529
856.0179	0.1452
856.1818	0.0485
856.3456	-0.0303
856.5094	-0.0184
856.6732	-0.1098
856.837	-0.1398
857.0008	-0.0007
857.1645	-0.0215
857.3282	-0.033
857.4919	0.1112
857.6556	-0.0792
857.8192	-0.0232
857.9828	-0.0386
858.1465	0.0109
858.31	-0.1461
858.4736	-0.0595
858.6372	-0.2574
858.8007	-0.163
858.9642	0.1186
859.1277	-0.0073
859.2911	0.0129
859.4546	0.0197
859.618	-0.3443
859.7814	-0.0775
859.9448	0.1233
860.1081	0.2208
860.2715	0.0687
860.4348	0.1629
860.5981	-0.1125
860.7614	0.2223
860.9246	-0.0728
861.0879	-0.2668
861.2511	0.0837
861.4143	-0.3559
861.5774	0.0062
861.7406	-0.1501
861.9037	-0.0705
862.0668	-0.0147
862.2299	-0.2224
862.393	-0.5914
862.556	-0.0615
862.7191	-0.1735
862.8821	-0.124
863.0451	0.1791
863.208	0.4332
863.371	0.0931
863.5339	-0.234
863.6968	0.1939
863.8597	-0.146
864.0225	-0.0189
864.1854	-0.3059
864.3482	-0.0483
864.511	0.2853
864.6737	0.2593
864.8365	0.0133
864.9992	-0.4503
865.1619	-0.3498
865.3246	0.2386
865.4873	-0.0478
865.65	-0.0742
865.8126	0.2445
865.9752	-0.0664
866.1378	-0.1931
866.3004	0.5686
866.4629	0.1406
866.6254	-0.1498
866.7879	-0.0809
866.9504	0.0194
867.1129	-0
867.2753	0.8197
867.4377	0.0585
867.6001	-0.375
867.7625	0.3104
867.9249	-0.3532
868.0872	0.0337
868.2495	-0.0133
868.4118	-0.3093
868.5741	-0
868.7363	-0.1523
868.8986	0.8761
869.0608	-0.1158
869.223	0.1889
869.3851	-0.309
869.5473	-0
869.7094	-0.0209
869.8715	-0
870.0336	-0
870.1957	-0.3028
870.3577	-0
870.5197	-0.0879
870.6817	0.0157
870.8437	-0.1701
871.0057	-0
871.1676	0.2734
871.3295	-0.1943
871.4914	-0
871.6533	-0.4108
871.8151	-0.0323
871.977	-0
872.1388	-0
872.3006	-0
872.4623	-0
872.6241	0.615
872.7858	0.4897
872.9475	0.0376
873.1092	-0.0431
873.2709	-0.2414
873.4325	-0.0814
873.5941	-0
873.7557	-0
873.9173	-0
874.0789	-0.6188
874.2404	-0.5142
874.4019	0.1968
874.5634	-0.3322
874.7249	0.0261
874.8863	0.0958
875.0478	-0.0243
875.2092	-0
875.3706	0.3351
875.5319	0.0681
875.6933	-0
875.8546	-0.2788
876.0159	-0
876.1772	-0.0914
876.3385	-0
876.4997	0.3551
876.6609	-0.3713
876.8221	-0.2571
876.9833	1.7884
877.1445	-0
877.3056	0.2471
877.4667	-0.2893
877.6278	-0
877.7889	0.4286
877.9499	-0
878.111	-0.7087
878.272	-0
878.433	0.5043
878.5939	-0
878.7549	-0.2082
878.9158	-0.7976
879.0767	-0
879.2376	0.5795
879.3984	-0.2474
879.5593	0.1549
879.7201	0.2077
879.8809	-0.5773
880.0417	-0.3922
880.2024	1.1629
880.3632	-0
880.5239	-0.0376
880.6846	0.183
880.8452	-2.2317
881.0059	-1.3483
881.1665	-0.1497
881.3271	1
881.4877	-0.4308
881.6483	-0.5182
881.8088	-0.522
881.9693	-0
882.1298	-0
882.2903	-0
