Data from MonoPyChalIsomerACN10uM380nmA_Absorbance_13-38-29-249.txt Node
Date: Fri Jul 05 13:38:29 BST 2024
User: LASERRRRR
Spectrometer: FLMT03099
Trigger mode: 0
Integration Time (sec): 1.000000E-1
Scans to average: 1
Electric dark correction enabled: true
Nonlinearity correction enabled: false
Boxcar width: 0
XAxis mode: Wavelengths
Number of Pixels in Spectrum: 3648
>>>>>Begin Spectral Data<<<<<
179.3399	-0.1235
179.5586	-0.1235
179.7771	-0.1235
179.9957	-0
180.2143	-0
180.4329	0.5769
180.6514	-0
180.8699	-0
181.0885	-0.0213
181.307	0.0639
181.5255	-0
181.744	-0.5691
181.9625	-0
182.181	-0.7312
182.3994	-0
182.6179	0.1853
182.8363	-0
183.0547	-0.414
183.2732	-0.006
183.4916	0.1188
183.71	0.1183
183.9284	0.0887
184.1467	-0.1516
184.3651	-0.1253
184.5835	-0.0913
184.8018	0.0264
185.0201	0.0225
185.2385	-0.1477
185.4568	0.1342
185.6751	-0.168
185.8934	0.2321
186.1117	0.0094
186.3299	0.0321
186.5482	0.1262
186.7664	-0.0763
186.9847	-0.0536
187.2029	-0.0761
187.4211	-0.0231
187.6393	0.1691
187.8575	-0.2418
188.0757	0.1405
188.2939	-0.0657
188.512	0.2331
188.7302	-0.0144
188.9483	-0.138
189.1665	0.0676
189.3846	-0.2968
189.6027	0.1732
189.8208	0.2452
190.0389	-0.0241
190.257	0.227
190.475	0.0693
190.6931	0.382
190.9111	0.2808
191.1292	0.0211
191.3472	0.3147
191.5652	0.2616
191.7832	0.3364
192.0012	0.378
192.2192	0.2855
192.4371	0.3156
192.6551	0.5468
192.873	0.3957
193.091	0.2531
193.3089	0.5863
193.5268	0.6809
193.7447	0.344
193.9626	0.3635
194.1805	0.6499
194.3984	0.5988
194.6162	0.6066
194.8341	0.4133
195.0519	0.5243
195.2697	0.9119
195.4875	0.6348
195.7054	0.5103
195.9231	0.5606
196.1409	0.7549
196.3587	0.6549
196.5765	0.6034
196.7942	0.5687
197.012	0.5195
197.2297	0.7893
197.4474	0.7352
197.6651	0.7408
197.8828	0.692
198.1005	0.5882
198.3182	0.6376
198.5358	0.8388
198.7535	0.6365
198.9711	0.6598
199.1888	0.7373
199.4064	1.0721
199.624	0.7046
199.8416	0.7439
200.0592	0.8354
200.2767	0.8197
200.4943	0.809
200.7119	0.7391
200.9294	0.796
201.1469	0.7536
201.3645	0.6665
201.582	0.815
201.7995	0.7309
202.017	0.5647
202.2344	0.7398
202.4519	0.8287
202.6694	0.7575
202.8868	0.7526
203.1042	0.7356
203.3217	0.8142
203.5391	0.8103
203.7565	0.575
203.9739	0.7628
204.1913	0.7316
204.4086	0.7507
204.626	0.8244
204.8433	0.7611
205.0607	0.7873
205.278	0.8337
205.4953	0.81
205.7126	0.7992
205.9299	0.976
206.1472	0.9188
206.3644	0.692
206.5817	0.8131
206.7989	0.8513
207.0162	0.7813
207.2334	0.8348
207.4506	0.6548
207.6678	0.7648
207.885	0.8453
208.1022	0.8019
208.3194	0.8549
208.5365	0.7419
208.7537	0.674
208.9708	0.6739
209.1879	0.8892
209.405	0.8799
209.6222	0.8935
209.8392	0.7293
210.0563	0.7434
210.2734	0.8913
210.4905	0.7929
210.7075	0.8473
210.9245	0.701
211.1416	0.8486
211.3586	0.8003
211.5756	0.7557
211.7926	0.7725
212.0096	0.7104
212.2265	0.6907
212.4435	0.768
212.6604	0.7999
212.8774	0.7811
213.0943	0.7793
213.3112	0.6935
213.5281	0.697
213.745	0.6546
213.9619	0.7785
214.1788	0.7104
214.3956	0.6653
214.6125	0.6629
214.8293	0.6731
215.0461	0.6845
215.2629	0.6658
215.4798	0.6898
215.6965	0.6034
215.9133	0.6596
216.1301	0.6736
216.3469	0.6337
216.5636	0.6262
216.7803	0.6341
216.9971	0.6516
217.2138	0.6029
217.4305	0.6284
217.6472	0.5778
217.8639	0.599
218.0805	0.6231
218.2972	0.5468
218.5138	0.5347
218.7305	0.5702
218.9471	0.5477
219.1637	0.5367
219.3803	0.5211
219.5969	0.5195
219.8135	0.5282
220.0301	0.5162
220.2466	0.5583
220.4632	0.5129
220.6797	0.4787
220.8962	0.5161
221.1127	0.5042
221.3292	0.5169
221.5457	0.5225
221.7622	0.4956
221.9787	0.4977
222.1951	0.4935
222.4116	0.5213
222.628	0.5117
222.8444	0.5331
223.0608	0.5272
223.2772	0.5022
223.4936	0.535
223.71	0.5011
223.9264	0.5357
224.1427	0.5244
224.3591	0.5404
224.5754	0.5142
224.7917	0.528
225.008	0.5306
225.2243	0.5088
225.4406	0.5628
225.6569	0.5547
225.8732	0.5093
226.0894	0.5201
226.3057	0.5054
226.5219	0.5427
226.7381	0.533
226.9543	0.5094
227.1705	0.5321
227.3867	0.5206
227.6029	0.5449
227.8191	0.5615
228.0352	0.5564
228.2513	0.5247
228.4675	0.5415
228.6836	0.5534
228.8997	0.5349
229.1158	0.5457
229.3319	0.5601
229.548	0.5285
229.764	0.5394
229.9801	0.5496
230.1961	0.5606
230.4121	0.5601
230.6282	0.5661
230.8442	0.551
231.0602	0.5664
231.2761	0.5623
231.4921	0.5652
231.7081	0.5821
231.924	0.5576
232.14	0.5537
232.3559	0.5526
232.5718	0.5793
232.7877	0.5253
233.0036	0.5265
233.2195	0.547
233.4353	0.5413
233.6512	0.5418
233.867	0.5452
234.0829	0.5625
234.2987	0.5496
234.5145	0.5691
234.7303	0.5529
234.9461	0.5792
235.1619	0.5752
235.3776	0.5462
235.5934	0.5554
235.8091	0.5515
236.0249	0.545
236.2406	0.5486
236.4563	0.521
236.672	0.5321
236.8877	0.5702
237.1034	0.5559
237.319	0.5442
237.5347	0.5556
237.7503	0.5448
237.966	0.5616
238.1816	0.5288
238.3972	0.557
238.6128	0.5243
238.8284	0.5236
239.0439	0.5461
239.2595	0.5432
239.475	0.5316
239.6906	0.5242
239.9061	0.5174
240.1216	0.5201
240.3371	0.5241
240.5526	0.5024
240.7681	0.5099
240.9836	0.5079
241.199	0.5126
241.4145	0.48
241.6299	0.4811
241.8453	0.4785
242.0607	0.4701
242.2761	0.4517
242.4915	0.4589
242.7069	0.4468
242.9223	0.4313
243.1376	0.4209
243.353	0.4217
243.5683	0.4254
243.7836	0.4158
243.9989	0.398
244.2142	0.3832
244.4295	0.3951
244.6448	0.3863
244.86	0.3587
245.0753	0.3636
245.2905	0.3483
245.5057	0.3354
245.721	0.3352
245.9362	0.308
246.1514	0.3349
246.3665	0.3075
246.5817	0.3167
246.7969	0.3071
247.012	0.3011
247.2271	0.2844
247.4423	0.2899
247.6574	0.2918
247.8725	0.286
248.0876	0.2781
248.3026	0.2728
248.5177	0.2764
248.7328	0.2595
248.9478	0.2457
249.1628	0.2593
249.3779	0.2475
249.5929	0.2428
249.8079	0.2656
250.0228	0.2408
250.2378	0.2396
250.4528	0.2294
250.6677	0.2289
250.8827	0.2276
251.0976	0.2204
251.3125	0.2203
251.5274	0.2139
251.7423	0.2274
251.9572	0.2345
252.172	0.2074
252.3869	0.2171
252.6017	0.2134
252.8166	0.1905
253.0314	0.1902
253.2462	0.1967
253.461	0.1999
253.6758	0.2068
253.8906	0.2034
254.1053	0.2092
254.3201	0.1981
254.5348	0.2061
254.7496	0.2026
254.9643	0.1876
255.179	0.189
255.3937	0.19
255.6083	0.2006
255.823	0.1929
256.0377	0.187
256.2523	0.1992
256.467	0.1767
256.6816	0.1978
256.8962	0.1904
257.1108	0.185
257.3254	0.2035
257.54	0.1741
257.7545	0.1922
257.9691	0.1898
258.1836	0.181
258.3981	0.2062
258.6127	0.203
258.8272	0.1863
259.0417	0.1826
259.2561	0.1799
259.4706	0.1895
259.6851	0.1818
259.8995	0.1754
260.114	0.1799
260.3284	0.169
260.5428	0.1781
260.7572	0.1806
260.9716	0.1878
261.186	0.1774
261.4003	0.188
261.6147	0.1847
261.829	0.1902
262.0433	0.178
262.2577	0.1863
262.472	0.1883
262.6863	0.176
262.9005	0.1818
263.1148	0.1809
263.3291	0.1624
263.5433	0.1754
263.7576	0.182
263.9718	0.1822
264.186	0.1803
264.4002	0.1794
264.6144	0.1693
264.8286	0.1901
265.0427	0.1743
265.2569	0.176
265.471	0.1696
265.6851	0.1716
265.8993	0.1749
266.1134	0.1658
266.3275	0.1746
266.5415	0.1691
266.7556	0.1799
266.9697	0.1819
267.1837	0.1832
267.3978	0.1648
267.6118	0.1753
267.8258	0.1979
268.0398	0.1604
268.2538	0.1941
268.4677	0.1786
268.6817	0.175
268.8957	0.1653
269.1096	0.1829
269.3235	0.1863
269.5374	0.1778
269.7514	0.1583
269.9652	0.1757
270.1791	0.1614
270.393	0.1618
270.6068	0.1729
270.8207	0.1591
271.0345	0.1573
271.2483	0.1675
271.4622	0.1681
271.676	0.1654
271.8897	0.1652
272.1035	0.1544
272.3173	0.1511
272.531	0.1605
272.7448	0.148
272.9585	0.1518
273.1722	0.164
273.3859	0.1668
273.5996	0.1398
273.8133	0.1534
274.0269	0.1468
274.2406	0.1614
274.4542	0.1598
274.6679	0.1521
274.8815	0.1632
275.0951	0.1574
275.3087	0.1681
275.5223	0.1628
275.7358	0.1655
275.9494	0.1614
276.1629	0.1561
276.3765	0.1572
276.59	0.1552
276.8035	0.1682
277.017	0.1489
277.2305	0.1573
277.444	0.1676
277.6574	0.1553
277.8709	0.1574
278.0843	0.1492
278.2978	0.1543
278.5112	0.1519
278.7246	0.159
278.938	0.171
279.1513	0.1675
279.3647	0.1633
279.5781	0.1584
279.7914	0.1599
280.0047	0.1752
280.2181	0.1592
280.4314	0.1727
280.6447	0.167
280.8579	0.1666
281.0712	0.1722
281.2845	0.1701
281.4977	0.1844
281.711	0.1662
281.9242	0.1769
282.1374	0.1626
282.3506	0.1463
282.5638	0.1712
282.7769	0.16
282.9901	0.1738
283.2033	0.1705
283.4164	0.1765
283.6295	0.1669
283.8426	0.1612
284.0557	0.1758
284.2688	0.1787
284.4819	0.1665
284.695	0.1603
284.908	0.1795
285.1211	0.1684
285.3341	0.1694
285.5471	0.1608
285.7601	0.1797
285.9731	0.1636
286.1861	0.166
286.3991	0.1792
286.612	0.1751
286.825	0.1734
287.0379	0.1873
287.2508	0.1762
287.4637	0.1875
287.6766	0.1681
287.8895	0.1823
288.1024	0.1897
288.3152	0.1781
288.5281	0.1793
288.7409	0.1792
288.9538	0.1645
289.1666	0.1788
289.3794	0.1761
289.5922	0.1776
289.8049	0.1788
290.0177	0.1746
290.2304	0.1868
290.4432	0.1914
290.6559	0.1826
290.8686	0.1957
291.0813	0.1772
291.294	0.183
291.5067	0.1807
291.7194	0.1807
291.932	0.1833
292.1447	0.1716
292.3573	0.1703
292.5699	0.1849
292.7825	0.1753
292.9951	0.1822
293.2077	0.1887
293.4203	0.1768
293.6328	0.1668
293.8454	0.1857
294.0579	0.1743
294.2704	0.1769
294.4829	0.1687
294.6954	0.1789
294.9079	0.1868
295.1204	0.1821
295.3328	0.1768
295.5453	0.1727
295.7577	0.1888
295.9701	0.1733
296.1825	0.178
296.3949	0.1757
296.6073	0.1793
296.8197	0.1652
297.0321	0.1944
297.2444	0.1569
297.4567	0.177
297.6691	0.1775
297.8814	0.1772
298.0937	0.1755
298.306	0.1816
298.5182	0.1763
298.7305	0.178
298.9428	0.1732
299.155	0.1764
299.3672	0.165
299.5794	0.1676
299.7916	0.1709
300.0038	0.1792
300.216	0.1788
300.4282	0.1818
300.6403	0.173
300.8525	0.1752
301.0646	0.1704
301.2767	0.1753
301.4888	0.1756
301.7009	0.1728
301.913	0.1755
302.125	0.177
302.3371	0.1694
302.5491	0.1649
302.7612	0.1789
302.9732	0.1818
303.1852	0.1687
303.3972	0.1744
303.6092	0.17
303.8211	0.1554
304.0331	0.1635
304.245	0.1666
304.457	0.1639
304.6689	0.1562
304.8808	0.1852
305.0927	0.1615
305.3046	0.1588
305.5164	0.1705
305.7283	0.1581
305.9401	0.1545
306.152	0.1611
306.3638	0.1608
306.5756	0.1488
306.7874	0.1592
306.9992	0.1666
307.2109	0.1455
307.4227	0.135
307.6344	0.1516
307.8462	0.1428
308.0579	0.1436
308.2696	0.1416
308.4813	0.1478
308.693	0.1412
308.9046	0.1439
309.1163	0.1369
309.328	0.1372
309.5396	0.1228
309.7512	0.1218
309.9628	0.1189
310.1744	0.1223
310.386	0.1213
310.5976	0.1294
310.8091	0.123
311.0207	0.1157
311.2322	0.1246
311.4437	0.1159
311.6552	0.1104
311.8667	0.1221
312.0782	0.0918
312.2897	0.1067
312.5012	0.1139
312.7126	0.1024
312.924	0.0974
313.1355	0.1173
313.3469	0.1122
313.5583	0.1097
313.7696	0.0949
313.981	0.106
314.1924	0.0917
314.4037	0.1009
314.6151	0.112
314.8264	0.1037
315.0377	0.1023
315.249	0.1039
315.4603	0.1084
315.6716	0.1032
315.8828	0.0958
316.0941	0.1009
316.3053	0.1001
316.5165	0.0819
316.7277	0.0927
316.9389	0.0961
317.1501	0.0926
317.3613	0.1018
317.5724	0.0827
317.7836	0.0955
317.9947	0.0903
318.2058	0.0851
318.417	0.0918
318.6281	0.0865
318.8391	0.0959
319.0502	0.0882
319.2613	0.0982
319.4723	0.1016
319.6834	0.0988
319.8944	0.0908
320.1054	0.097
320.3164	0.0955
320.5274	0.0946
320.7383	0.0905
320.9493	0.1056
321.1602	0.1027
321.3712	0.0815
321.5821	0.0971
321.793	0.0937
322.0039	0.0873
322.2148	0.0907
322.4257	0.0951
322.6365	0.0977
322.8474	0.0955
323.0582	0.0892
323.269	0.0842
323.4798	0.1093
323.6906	0.0927
323.9014	0.109
324.1122	0.1024
324.3229	0.0876
324.5337	0.0899
324.7444	0.0836
324.9551	0.1006
325.1658	0.1116
325.3765	0.0995
325.5872	0.1074
325.7979	0.0925
326.0085	0.1017
326.2192	0.0973
326.4298	0.0916
326.6404	0.0922
326.851	0.0895
327.0616	0.0864
327.2722	0.1011
327.4828	0.1116
327.6933	0.0948
327.9039	0.105
328.1144	0.096
328.3249	0.1028
328.5354	0.0905
328.7459	0.1006
328.9564	0.0937
329.1669	0.1084
329.3773	0.1018
329.5878	0.1031
329.7982	0.1052
330.0086	0.0985
330.219	0.1117
330.4294	0.0898
330.6398	0.0919
330.8502	0.0947
331.0605	0.1046
331.2708	0.0867
331.4812	0.1073
331.6915	0.105
331.9018	0.1019
332.1121	0.0978
332.3224	0.0956
332.5326	0.1057
332.7429	0.1047
332.9531	0.1067
333.1633	0.1018
333.3735	0.1029
333.5837	0.1031
333.7939	0.0862
334.0041	0.1085
334.2143	0.0986
334.4244	0.0909
334.6346	0.0871
334.8447	0.1122
335.0548	0.0965
335.2649	0.1008
335.475	0.1083
335.685	0.1014
335.8951	0.1103
336.1051	0.1126
336.3152	0.1125
336.5252	0.0982
336.7352	0.1127
336.9452	0.1164
337.1552	0.1097
337.3652	0.1018
337.5751	0.1055
337.7851	0.1192
337.995	0.0931
338.2049	0.1128
338.4148	0.1107
338.6247	0.1084
338.8346	0.1099
339.0445	0.1023
339.2543	0.1026
339.4642	0.1061
339.674	0.0915
339.8838	0.1151
340.0936	0.1133
340.3034	0.1174
340.5132	0.1097
340.7229	0.1159
340.9327	0.1083
341.1424	0.1165
341.3522	0.1239
341.5619	0.1108
341.7716	0.1219
341.9813	0.1108
342.1909	0.1081
342.4006	0.109
342.6102	0.1243
342.8199	0.1184
343.0295	0.1128
343.2391	0.107
343.4487	0.1143
343.6583	0.1164
343.8679	0.1133
344.0774	0.1141
344.287	0.1207
344.4965	0.1144
344.706	0.115
344.9155	0.1289
345.125	0.1118
345.3345	0.1181
345.544	0.1229
345.7534	0.1143
345.9629	0.1205
346.1723	0.1209
346.3817	0.118
346.5911	0.1248
346.8005	0.1293
347.0099	0.1233
347.2193	0.1167
347.4286	0.1226
347.638	0.1357
347.8473	0.1325
348.0566	0.1308
348.2659	0.1264
348.4752	0.1336
348.6845	0.1277
348.8937	0.122
349.103	0.1281
349.3122	0.1191
349.5214	0.1182
349.7306	0.1249
349.9398	0.128
350.149	0.1285
350.3582	0.1296
350.5674	0.1354
350.7765	0.1241
350.9856	0.1419
351.1948	0.1313
351.4039	0.1215
351.613	0.1255
351.822	0.1336
352.0311	0.1437
352.2402	0.1373
352.4492	0.138
352.6582	0.1487
352.8672	0.1396
353.0762	0.1511
353.2852	0.1449
353.4942	0.1312
353.7032	0.1557
353.9121	0.1474
354.1211	0.1444
354.33	0.1479
354.5389	0.1343
354.7478	0.1403
354.9567	0.1379
355.1655	0.1399
355.3744	0.1418
355.5833	0.1477
355.7921	0.1693
356.0009	0.1466
356.2097	0.1764
356.4185	0.1572
356.6273	0.1555
356.8361	0.1629
357.0448	0.154
357.2536	0.1491
357.4623	0.1549
357.671	0.1438
357.8797	0.1768
358.0884	0.1707
358.2971	0.1733
358.5057	0.1603
358.7144	0.1666
358.923	0.1734
359.1316	0.1621
359.3402	0.1754
359.5488	0.1699
359.7574	0.1688
359.966	0.1684
360.1746	0.1709
360.3831	0.1716
360.5916	0.1739
360.8002	0.1557
361.0087	0.1878
361.2172	0.1607
361.4256	0.1659
361.6341	0.1836
361.8426	0.1662
362.051	0.17
362.2594	0.183
362.4678	0.1703
362.6762	0.1982
362.8846	0.1833
363.093	0.1768
363.3014	0.172
363.5097	0.1749
363.718	0.1921
363.9264	0.1934
364.1347	0.1862
364.343	0.1952
364.5513	0.199
364.7595	0.2088
364.9678	0.202
365.176	0.198
365.3842	0.1967
365.5925	0.2027
365.8007	0.1921
366.0089	0.2001
366.217	0.1936
366.4252	0.2128
366.6333	0.2094
366.8415	0.2009
367.0496	0.2009
367.2577	0.2117
367.4658	0.22
367.6739	0.207
367.882	0.2018
368.09	0.2017
368.2981	0.206
368.5061	0.1959
368.7141	0.2101
368.9221	0.2132
369.1301	0.2007
369.3381	0.2042
369.5461	0.22
369.754	0.2053
369.962	0.2248
370.1699	0.2256
370.3778	0.2214
370.5857	0.2126
370.7936	0.2136
371.0015	0.2155
371.2093	0.2313
371.4172	0.2343
371.625	0.2108
371.8328	0.2154
372.0406	0.2198
372.2484	0.2275
372.4562	0.2306
372.664	0.207
372.8717	0.2395
373.0795	0.2136
373.2872	0.2412
373.4949	0.2224
373.7026	0.2194
373.9103	0.2354
374.118	0.2217
374.3256	0.2424
374.5333	0.231
374.7409	0.2431
374.9485	0.2541
375.1561	0.2252
375.3637	0.2537
375.5713	0.2271
375.7789	0.2622
375.9864	0.2393
376.194	0.2392
376.4015	0.2337
376.609	0.2465
376.8165	0.2407
377.024	0.2223
377.2315	0.2327
377.4389	0.2335
377.6464	0.2503
377.8538	0.2552
378.0612	0.2554
378.2686	0.2479
378.476	0.2502
378.6834	0.2553
378.8908	0.2546
379.0981	0.2437
379.3055	0.2545
379.5128	0.2286
379.7201	0.2551
379.9274	0.248
380.1347	0.2479
380.342	0.2609
380.5492	0.251
380.7565	0.2628
380.9637	0.2559
381.1709	0.2481
381.3781	0.255
381.5853	0.2741
381.7925	0.2584
381.9997	0.2708
382.2068	0.2682
382.4139	0.2664
382.6211	0.2355
382.8282	0.2489
383.0353	0.2526
383.2424	0.2623
383.4494	0.2699
383.6565	0.2655
383.8635	0.2614
384.0706	0.2713
384.2776	0.2629
384.4846	0.2545
384.6916	0.2644
384.8986	0.2538
385.1055	0.2668
385.3125	0.2668
385.5194	0.2543
385.7263	0.2722
385.9333	0.2638
386.1402	0.2613
386.347	0.2594
386.5539	0.2535
386.7608	0.2679
386.9676	0.2514
387.1744	0.2582
387.3813	0.2776
387.5881	0.27
387.7948	0.2572
388.0016	0.2674
388.2084	0.2636
388.4151	0.2564
388.6219	0.2537
388.8286	0.2547
389.0353	0.2731
389.242	0.2461
389.4487	0.2468
389.6553	0.249
389.862	0.2383
390.0686	0.2484
390.2753	0.2496
390.4819	0.2468
390.6885	0.2493
390.8951	0.2448
391.1016	0.2459
391.3082	0.248
391.5147	0.2421
391.7213	0.2568
391.9278	0.2361
392.1343	0.2377
392.3408	0.2525
392.5473	0.2423
392.7537	0.2251
392.9602	0.2342
393.1666	0.2464
393.373	0.2276
393.5794	0.2448
393.7858	0.2436
393.9922	0.2474
394.1986	0.2368
394.4049	0.2185
394.6113	0.2202
394.8176	0.2292
395.0239	0.2425
395.2302	0.2242
395.4365	0.2377
395.6428	0.2257
395.8491	0.2156
396.0553	0.2251
396.2615	0.2228
396.4678	0.2122
396.674	0.208
396.8802	0.2372
397.0863	0.2398
397.2925	0.2209
397.4987	0.2149
397.7048	0.2159
397.9109	0.2181
398.117	0.2045
398.3231	0.2186
398.5292	0.2435
398.7353	0.22
398.9413	0.2219
399.1474	0.2236
399.3534	0.2101
399.5594	0.2028
399.7654	0.23
399.9714	0.218
400.1774	0.211
400.3833	0.2226
400.5893	0.227
400.7952	0.2132
401.0011	0.2168
401.207	0.2329
401.4129	0.2287
401.6188	0.2141
401.8247	0.2424
402.0305	0.2037
402.2364	0.2092
402.4422	0.254
402.648	0.2317
402.8538	0.225
403.0596	0.2051
403.2654	0.221
403.4711	0.2299
403.6768	0.2208
403.8826	0.2272
404.0883	0.2305
404.294	0.2271
404.4997	0.2274
404.7054	0.2142
404.911	0.2161
405.1167	0.2173
405.3223	0.2298
405.5279	0.216
405.7335	0.2188
405.9391	0.2256
406.1447	0.2032
406.3502	0.2374
406.5558	0.2012
406.7613	0.2262
406.9668	0.2405
407.1724	0.2062
407.3778	0.2169
407.5833	0.2059
407.7888	0.2282
407.9942	0.2363
408.1997	0.2291
408.4051	0.2203
408.6105	0.222
408.8159	0.2116
409.0213	0.2184
409.2267	0.2367
409.432	0.2066
409.6374	0.2257
409.8427	0.205
410.048	0.236
410.2533	0.212
410.4586	0.2201
410.6639	0.2146
410.8691	0.2127
411.0744	0.2057
411.2796	0.2039
411.4848	0.2219
411.69	0.2091
411.8952	0.2419
412.1004	0.2262
412.3056	0.2332
412.5107	0.2081
412.7158	0.2284
412.921	0.2164
413.1261	0.2219
413.3312	0.2074
413.5362	0.223
413.7413	0.2328
413.9464	0.2181
414.1514	0.2265
414.3564	0.2242
414.5614	0.2082
414.7664	0.2147
414.9714	0.2173
415.1764	0.2083
415.3813	0.219
415.5863	0.2186
415.7912	0.2191
415.9961	0.2208
416.201	0.2153
416.4059	0.2134
416.6108	0.2066
416.8156	0.228
417.0205	0.224
417.2253	0.1968
417.4301	0.211
417.6349	0.2133
417.8397	0.2041
418.0445	0.2177
418.2492	0.2409
418.454	0.217
418.6587	0.1992
418.8634	0.2227
419.0681	0.196
419.2728	0.2056
419.4775	0.2042
419.6822	0.1833
419.8868	0.1854
420.0915	0.2127
420.2961	0.189
420.5007	0.1931
420.7053	0.1917
420.9099	0.2149
421.1144	0.2013
421.319	0.1852
421.5235	0.2057
421.728	0.2104
421.9325	0.2037
422.137	0.2088
422.3415	0.1975
422.546	0.1882
422.7504	0.1951
422.9549	0.2029
423.1593	0.2032
423.3637	0.2043
423.5681	0.1801
423.7725	0.1992
423.9769	0.186
424.1812	0.2002
424.3856	0.1848
424.5899	0.1994
424.7942	0.1812
424.9985	0.1753
425.2028	0.1938
425.4071	0.2117
425.6113	0.1859
425.8156	0.1848
426.0198	0.1777
426.224	0.1689
426.4282	0.1704
426.6324	0.1844
426.8366	0.1583
427.0407	0.1831
427.2449	0.1606
427.449	0.1805
427.6531	0.1533
427.8572	0.1633
428.0613	0.1743
428.2654	0.1676
428.4694	0.1593
428.6735	0.1675
428.8775	0.1817
429.0815	0.1832
429.2855	0.1539
429.4895	0.1683
429.6935	0.1498
429.8975	0.1599
430.1014	0.1445
430.3053	0.1553
430.5093	0.1404
430.7132	0.1472
430.9171	0.1356
431.1209	0.152
431.3248	0.1452
431.5286	0.1558
431.7325	0.1517
431.9363	0.1452
432.1401	0.1524
432.3439	0.1389
432.5477	0.1144
432.7514	0.1118
432.9552	0.139
433.1589	0.1244
433.3627	0.1166
433.5664	0.1333
433.7701	0.1158
433.9737	0.1162
434.1774	0.1237
434.3811	0.1208
434.5847	0.1215
434.7883	0.117
434.9919	0.113
435.1955	0.1151
435.3991	0.1109
435.6027	0.1127
435.8062	0.1006
436.0098	0.0946
436.2133	0.113
436.4168	0.0978
436.6203	0.1112
436.8238	0.1258
437.0272	0.1031
437.2307	0.1086
437.4341	0.1153
437.6375	0.1013
437.841	0.09
438.0443	0.1021
438.2477	0.0959
438.4511	0.0897
438.6545	0.0971
438.8578	0.0959
439.0611	0.0729
439.2644	0.0951
439.4677	0.0832
439.671	0.0801
439.8743	0.0767
440.0775	0.0866
440.2808	0.0781
440.484	0.0634
440.6872	0.0597
440.8904	0.0681
441.0936	0.0874
441.2967	0.0776
441.4999	0.0781
441.703	0.0661
441.9062	0.0648
442.1093	0.0765
442.3124	0.0627
442.5155	0.0582
442.7185	0.054
442.9216	0.04
443.1246	0.0672
443.3276	0.0672
443.5307	0.0566
443.7337	0.0645
443.9366	0.0535
444.1396	0.0572
444.3426	0.0472
444.5455	0.065
444.7484	0.0587
444.9513	0.0521
445.1542	0.0621
445.3571	0.0556
445.56	0.0496
445.7628	0.0455
445.9657	0.0392
446.1685	0.054
446.3713	0.046
446.5741	0.0417
446.7769	0.0288
446.9797	0.0461
447.1824	0.0382
447.3852	0.0266
447.5879	0.0557
447.7906	0.048
447.9933	0.0331
448.196	0.0332
448.3986	0.0275
448.6013	0.0188
448.8039	0.0266
449.0066	0.0203
449.2092	0.0348
449.4118	0.0359
449.6143	0.0388
449.8169	0.0353
450.0195	0.0284
450.222	0.0089
450.4245	0.0268
450.627	0.0368
450.8295	0.0345
451.032	0.021
451.2345	0.0323
451.4369	0.0313
451.6394	0.0189
451.8418	0.0004
452.0442	0.0233
452.2466	0.0214
452.449	-0.0023
452.6513	0.0375
452.8537	0.0172
453.056	0.0098
453.2583	0.0398
453.4607	0.0109
453.663	0.0152
453.8652	0.0114
454.0675	0.0138
454.2697	0.0277
454.472	0.0077
454.6742	0.0244
454.8764	0.0116
455.0786	0.0126
455.2808	0.0022
455.4829	0.0239
455.6851	0.0036
455.8872	0.0187
456.0893	0.0156
456.2915	0.0068
456.4935	0.0215
456.6956	0.0093
456.8977	0.0172
457.0997	0.009
457.3018	-0.0053
457.5038	0.0086
457.7058	0.0044
457.9078	0.0104
458.1098	0.0058
458.3117	0.0032
458.5137	0.0049
458.7156	0.0145
458.9175	-0.0083
459.1194	-0.0056
459.3213	0.0098
459.5232	-0.0046
459.725	0.0036
459.9269	0.0012
460.1287	-0.0024
460.3305	0.013
460.5323	0.0062
460.7341	0.0157
460.9359	0.0053
461.1376	-0.001
461.3394	0.0029
461.5411	0.0041
461.7428	-0.006
461.9445	0.0092
462.1462	0.0155
462.3479	0.0015
462.5495	0.0069
462.7512	0.0092
462.9528	-0.0039
463.1544	-0.0156
463.356	-0.0059
463.5576	0.0104
463.7592	-0.0053
463.9607	0.0071
464.1623	0.0074
464.3638	0.0206
464.5653	-0.0012
464.7668	0.0061
464.9683	-0.0042
465.1697	0.0131
465.3712	-0.009
465.5726	-0.0041
465.7741	-0.0017
465.9755	-0.0057
466.1769	0.0109
466.3782	-0.0018
466.5796	-0.0104
466.7809	-0.0002
466.9823	-0.0211
467.1836	0.0073
467.3849	-0.0022
467.5862	0.0025
467.7875	-0.0057
467.9887	0.024
468.19	-0.0031
468.3912	-0.0287
468.5924	-0.0062
468.7936	-0.0104
468.9948	-0.0091
469.196	-0.0048
469.3972	-0.003
469.5983	-0.0101
469.7994	-0.0257
470.0006	-0.0109
470.2017	-0.0181
470.4027	-0.0087
470.6038	-0.0061
470.8049	-0.0182
471.0059	-0.0255
471.2069	-0.0218
471.408	-0.0043
471.6089	0.0009
471.8099	0.0019
472.0109	-0.0088
472.2119	-0.0085
472.4128	-0.0291
472.6137	0.0084
472.8146	-0.0247
473.0155	-0.0095
473.2164	-0.0106
473.4173	0.0069
473.6181	-0.0072
473.819	0.0022
474.0198	-0.0167
474.2206	0.0056
474.4214	-0.0013
474.6222	-0.0082
474.8229	-0.0134
475.0237	-0.0198
475.2244	-0.0121
475.4251	-0.0177
475.6258	-0.0117
475.8265	-0.0062
476.0272	0.0096
476.2278	0.0015
476.4285	-0.0113
476.6291	-0.0126
476.8297	-0.0013
477.0303	-0.0173
477.2309	-0.0026
477.4315	-0.0108
477.632	-0.0028
477.8326	-0.011
478.0331	-0.0018
478.2336	-0.0014
478.4341	-0.013
478.6346	-0.0041
478.8351	-0.0097
479.0355	0.0029
479.236	-0.0077
479.4364	0.0042
479.6368	-0.0017
479.8372	-0.0076
480.0376	-0.0091
480.2379	-0.0293
480.4383	-0.0097
480.6386	0.0004
480.8389	-0.0026
481.0392	-0.0185
481.2395	-0.0134
481.4398	0.0105
481.6401	-0.0051
481.8403	-0.0108
482.0405	0.005
482.2408	-0.0092
482.441	0.0039
482.6411	-0.0036
482.8413	-0.0172
483.0415	-0.0084
483.2416	-0.0082
483.4417	-0.004
483.6419	-0.0071
483.8419	-0.0048
484.042	0.0048
484.2421	-0.0025
484.4422	0.0054
484.6422	-0.0123
484.8422	-0.0019
485.0422	-0.0066
485.2422	-0.0066
485.4422	-0.0083
485.6422	-0.0081
485.8421	-0.0024
486.042	-0.0029
486.242	0.0045
486.4419	-0.0098
486.6417	-0.0107
486.8416	-0.0018
487.0415	-0.0091
487.2413	-0.0099
487.4411	-0.0029
487.641	-0.0095
487.8408	0.0013
488.0405	-0.0086
488.2403	-0.0079
488.4401	0.0009
488.6398	0.0023
488.8395	-0.0088
489.0392	0.003
489.2389	-0.0044
489.4386	0.0019
489.6383	0.0029
489.8379	0.0055
490.0376	-0.0027
490.2372	-0.0165
490.4368	-0.0062
490.6364	-0.013
490.836	-0.0155
491.0355	-0.0099
491.2351	-0.0142
491.4346	-0.0069
491.6341	-0.0136
491.8336	-0.0055
492.0331	-0.0159
492.2326	-0.0137
492.432	-0.0033
492.6315	-0.0106
492.8309	-0.0072
493.0303	-0.014
493.2297	-0.0121
493.4291	-0.0131
493.6284	-0.0072
493.8278	-0.0125
494.0271	-0.0054
494.2264	-0.0006
494.4257	-0.0146
494.625	-0.0116
494.8243	-0.0196
495.0236	-0.0182
495.2228	-0.0056
495.422	0.0059
495.6213	-0.0049
495.8205	-0.0073
496.0196	-0.0054
496.2188	0.0013
496.418	-0.006
496.6171	-0.0043
496.8162	-0.0114
497.0153	0.0109
497.2144	-0.0175
497.4135	-0.0045
497.6126	-0.0186
497.8116	-0.0167
498.0107	0.002
498.2097	-0.0136
498.4087	-0.015
498.6077	-0.0071
498.8067	-0.0199
499.0056	-0.0062
499.2046	0.0008
499.4035	-0.0208
499.6024	-0.0109
499.8013	-0.0013
500.0002	-0.0142
500.199	-0.0068
500.3979	0.0016
500.5967	-0.0239
500.7956	-0.0118
500.9944	-0.0028
501.1932	-0.007
501.3919	-0.0098
501.5907	-0.0111
501.7895	-0.0146
501.9882	-0.0073
502.1869	-0.0111
502.3856	-0.0076
502.5843	-0.0022
502.783	-0.0123
502.9816	-0.0118
503.1803	-0.0099
503.3789	-0.0217
503.5775	0.0009
503.7761	-0.0079
503.9747	-0.006
504.1732	-0.0156
504.3718	-0.0081
504.5703	-0.01
504.7689	-0.0053
504.9674	-0.0046
505.1658	-0.0156
505.3643	-0.0074
505.5628	-0.0143
505.7612	-0.0119
505.9597	-0.003
506.1581	-0.0078
506.3565	0.0039
506.5549	-0.0014
506.7532	-0.0271
506.9516	-0.0129
507.1499	-0.0068
507.3482	-0.0163
507.5465	-0.0113
507.7448	-0.0064
507.9431	-0.001
508.1414	-0.0036
508.3396	-0.0075
508.5379	-0.0018
508.7361	-0.0156
508.9343	0.0025
509.1325	-0.0058
509.3306	-0.015
509.5288	-0.005
509.7269	-0.0124
509.9251	-0.0097
510.1232	-0.0163
510.3213	0.0077
510.5193	-0.0041
510.7174	-0.0154
510.9154	-0.0195
511.1135	-0.005
511.3115	-0.0071
511.5095	-0.0122
511.7075	-0.0055
511.9055	-0.0146
512.1034	-0.0063
512.3014	-0.0057
512.4993	-0.0021
512.6972	-0.0065
512.8951	-0.0238
513.093	-0.008
513.2908	-0.0082
513.4887	0.0019
513.6865	-0.0107
513.8844	-0.0017
514.0822	-0.0171
514.2799	-0.0142
514.4777	-0.0088
514.6755	-0.0007
514.8732	-0.013
515.0709	-0.0098
515.2687	-0.0117
515.4664	0.0056
515.664	-0.0056
515.8617	-0.008
516.0594	-0.022
516.257	-0.0092
516.4546	-0.0113
516.6522	-0.0057
516.8498	-0.0019
517.0474	-0.0013
517.2449	0.0052
517.4425	-0.0133
517.64	-0.0007
517.8375	-0.0012
518.035	-0.0044
518.2325	-0.011
518.43	-0.0058
518.6274	-0.0051
518.8249	-0.0186
519.0223	-0.0025
519.2197	-0.0146
519.4171	-0.0097
519.6145	-0.0076
519.8118	0.0003
520.0092	-0.0131
520.2065	-0.0109
520.4038	-0.0094
520.6011	0.0008
520.7984	-0.0103
520.9956	-0.0082
521.1929	-0.014
521.3901	-0.0037
521.5874	0.0028
521.7846	-0.008
521.9818	-0.005
522.1789	-0.0206
522.3761	-0.0072
522.5732	-0.0064
522.7704	-0.0147
522.9675	-0
523.1646	-0.0167
523.3617	-0.0138
523.5587	-0.0076
523.7558	-0.01
523.9528	-0.0013
524.1498	-0.0029
524.3468	-0.0076
524.5438	-0.0087
524.7408	-0.0103
524.9378	0.0017
525.1347	-0.0017
525.3316	-0.0078
525.5285	-0.011
525.7254	-0.0078
525.9223	-0.015
526.1192	-0.0119
526.316	-0.0204
526.5129	-0.0023
526.7097	-0.0057
526.9065	-0.0115
527.1033	-0.008
527.3	0.0028
527.4968	-0.0085
527.6935	-0.0047
527.8903	-0.0185
528.087	-0.0121
528.2837	-0.009
528.4804	-0.0044
528.677	-0.0101
528.8737	0.0063
529.0703	0.0018
529.2669	-0.0061
529.4635	-0.0088
529.6601	0.0031
529.8567	-0.0007
530.0532	-0.0156
530.2498	-0.004
530.4463	-0.0008
530.6428	-0.0131
530.8393	-0.0031
531.0358	-0.0034
531.2322	-0.0062
531.4287	-0.0053
531.6251	-0.0114
531.8215	0.0058
532.0179	0.0038
532.2143	0.0088
532.4107	-0.0074
532.607	0.0083
532.8034	0.0011
532.9997	-0.004
533.196	-0.0169
533.3923	-0.0087
533.5886	-0.0004
533.7848	-0.0007
533.9811	0.0007
534.1773	-0.0006
534.3735	0.0004
534.5697	-0.0066
534.7659	-0.0115
534.9621	0.0009
535.1582	-0.0197
535.3544	-0.0168
535.5505	-0.0124
535.7466	-0.0027
535.9427	-0.012
536.1387	-0.0065
536.3348	0.0043
536.5308	-0.0015
536.7269	-0.0095
536.9229	0.0028
537.1189	-0.0032
537.3148	-0.0105
537.5108	-0.0077
537.7068	-0.0057
537.9027	-0.0106
538.0986	-0.0128
538.2945	-0.0078
538.4904	-0.0053
538.6863	-0.0027
538.8821	-0.0084
539.078	-0.0096
539.2738	-0.0012
539.4696	-0.0022
539.6654	0.0045
539.8611	0.0021
540.0569	-0.0007
540.2526	-0.0102
540.4484	0.0001
540.6441	-0.0024
540.8398	0.002
541.0355	-0.0033
541.2311	-0.0057
541.4268	-0.0112
541.6224	0.0032
541.818	-0.001
542.0136	-0.0132
542.2092	-0.0045
542.4048	0.0004
542.6003	-0.0002
542.7959	-0.0133
542.9914	-0.0045
543.1869	-0.0019
543.3824	-0.0041
543.5779	-0.0041
543.7734	-0.0024
543.9688	-0.003
544.1642	-0.0061
544.3596	-0.0056
544.555	-0.0116
544.7504	-0.0001
544.9458	0.0072
545.1411	0.0009
545.3365	0.0015
545.5318	0.0049
545.7271	-0.0008
545.9224	-0.0058
546.1177	-0.0037
546.3129	0.0018
546.5081	0.0002
546.7034	-0.0064
546.8986	-0.0034
547.0938	-0.0097
547.289	-0.0061
547.4841	-0.0045
547.6793	-0.002
547.8744	-0.0047
548.0695	-0.0028
548.2646	-0.0077
548.4597	0.0022
548.6548	-0.0047
548.8498	-0.0032
549.0448	0.0052
549.2399	-0.0007
549.4349	0.0092
549.6298	0.0025
549.8248	-0.0024
550.0198	-0.0005
550.2147	0.0092
550.4096	-0.0033
550.6045	-0.0024
550.7994	0.0066
550.9943	0.0023
551.1892	0.0011
551.384	-0.0023
551.5788	-0.0056
551.7737	-0.001
551.9685	0.0079
552.1632	-0.0063
552.358	-0.0064
552.5528	-0.004
552.7475	-0.0011
552.9422	0.0029
553.1369	0.0003
553.3316	-0.0003
553.5263	-0.0025
553.7209	0.0094
553.9156	0.0033
554.1102	-0.0076
554.3048	-0.0031
554.4994	0.0107
554.694	-0.0048
554.8885	0.009
555.0831	-0.0022
555.2776	-0.0071
555.4721	-0.0047
555.6666	-0.0028
555.8611	0.0106
556.0555	0.0033
556.25	-0.0051
556.4444	-0.014
556.6388	-0.0034
556.8332	-0.0051
557.0276	-0.0014
557.222	0.0017
557.4163	-0.0117
557.6107	-0.0097
557.805	0.0062
557.9993	0.0032
558.1936	-0.0056
558.3879	-0.0009
558.5821	-0.0048
558.7764	-0.01
558.9706	0.0022
559.1648	-0.0048
559.359	-0.0034
559.5532	-0.0092
559.7473	0
559.9415	0.0049
560.1356	-0.009
560.3297	-0.0116
560.5238	-0.0088
560.7179	0.0007
560.9119	-0.0011
561.106	-0.002
561.3	-0.0003
561.494	-0.0002
561.688	-0.0019
561.882	0.0002
562.076	-0.003
562.2699	-0.003
562.4639	0
562.6578	0.0012
562.8517	0.0009
563.0456	0.0012
563.2395	0.0012
563.4333	-0.0026
563.6272	0.0079
563.821	-0.0075
564.0148	-0.0073
564.2086	-0.0054
564.4024	-0.0045
564.5961	-0.0092
564.7899	0.0048
564.9836	-0.0005
565.1773	0.0089
565.371	0.0062
565.5647	0.0035
565.7584	-0.0049
565.952	0.0048
566.1456	0.0055
566.3393	0.0007
566.5329	-0.0098
566.7264	0.0026
566.92	-0.005
567.1136	0.0035
567.3071	-0.008
567.5006	0.0073
567.6941	0.0056
567.8876	-0.0009
568.0811	-0.0004
568.2745	-0.0032
568.468	-0.0025
568.6614	0.0028
568.8548	0.0014
569.0482	-0.0059
569.2416	-0.0004
569.4349	-0.0055
569.6283	0.0006
569.8216	-0.0027
570.0149	-0.006
570.2082	0.0077
570.4015	0.0005
570.5947	0.0057
570.788	0.0037
570.9812	-0.0035
571.1744	-0.0028
571.3676	-0.0078
571.5608	-0.004
571.754	0.0059
571.9471	-0.0023
572.1402	0.0066
572.3333	0
572.5264	0.0016
572.7195	0.0003
572.9126	0.0026
573.1057	0.0012
573.2987	-0.0022
573.4917	0.0044
573.6847	-0.0074
573.8777	-0.001
574.0707	0.0084
574.2636	0.0002
574.4566	0.0034
574.6495	0.0021
574.8424	-0.0007
575.0353	0.0004
575.2281	0.0088
575.421	-0.0027
575.6138	0.0012
575.8067	0.003
575.9995	0.0031
576.1923	0.0067
576.385	0.0034
576.5778	-0.0002
576.7706	0.0023
576.9633	0.0032
577.156	0.0021
577.3487	-0.0029
577.5414	-0.0011
577.734	-0.0037
577.9267	0
578.1193	-0.0066
578.3119	-0.0019
578.5045	-0.0015
578.6971	0.0005
578.8897	0.0091
579.0822	-0.0092
579.2747	0.0015
579.4673	-0.0018
579.6598	-0.0005
579.8522	-0.0038
580.0447	0
580.2372	-0.0008
580.4296	0.0025
580.622	0.0022
580.8144	0.0021
581.0068	-0.0034
581.1992	-0.0097
581.3915	-0.0039
581.5839	-0.0065
581.7762	-0.0041
581.9685	-0.001
582.1608	0.0044
582.353	-0.0024
582.5453	0.0071
582.7375	0.0043
582.9298	0.0016
583.122	0.0056
583.3142	-0.0028
583.5063	0.0063
583.6985	0.0017
583.8906	0.0014
584.0827	-0.0065
584.2749	0.0037
584.4669	-0.0014
584.659	0.0007
584.8511	0.0017
585.0431	-0.0001
585.2352	0.0035
585.4272	-0.0026
585.6192	0.002
585.8111	0.0028
586.0031	-0.0036
586.195	-0.0012
586.387	0.0038
586.5789	0.007
586.7708	0.0062
586.9627	0.0013
587.1545	-0.0002
587.3464	-0.0055
587.5382	0.0039
587.73	0.008
587.9218	0.0039
588.1136	-0.0005
588.3053	-0.0001
588.4971	-0.0017
588.6888	-0.0101
588.8805	0.0037
589.0722	0.0079
589.2639	-0.0014
589.4556	0.0034
589.6472	-0.0013
589.8389	-0.004
590.0305	-0.0114
590.2221	-0.0004
590.4137	-0.0066
590.6052	0.0004
590.7968	0.0038
590.9883	0.0009
591.1798	0.0005
591.3713	-0.0008
591.5628	0.0078
591.7543	0.0075
591.9458	0.002
592.1372	0.0064
592.3286	0.0131
592.52	0.0035
592.7114	-0.0009
592.9028	0.0024
593.0941	0.0045
593.2855	-0.0011
593.4768	-0.0098
593.6681	-0.0086
593.8594	-0.0046
594.0506	-0
594.2419	0.0097
594.4331	0.0023
594.6244	0.0076
594.8156	-0.0025
595.0067	0.0049
595.1979	0.0103
595.3891	0.0041
595.5802	0.0009
595.7713	-0.0014
595.9624	0.0027
596.1535	0.0021
596.3446	-0.0016
596.5357	0.0022
596.7267	0.0088
596.9177	-0.0037
597.1087	-0.004
597.2997	0.0021
597.4907	0.0066
597.6817	-0.0029
597.8726	0.0031
598.0635	-0.0024
598.2544	-0.0026
598.4453	-0.0021
598.6362	-0.006
598.827	-0.0001
599.0179	0.0041
599.2087	0.0052
599.3995	-0.0012
599.5903	-0.0026
599.7811	0.0019
599.9718	-0.0044
600.1626	-0.0041
600.3533	-0.0032
600.544	-0.0016
600.7347	-0.0048
600.9254	0.0028
601.116	-0.0053
601.3067	-0.0012
601.4973	-0.0016
601.6879	0
601.8785	-0.0056
602.0691	0.002
602.2596	-0.001
602.4502	0.0072
602.6407	0.0001
602.8312	-0.0024
603.0217	-0.0117
603.2122	0.0017
603.4027	-0.0031
603.5931	-0.002
603.7835	-0.001
603.9739	-0.0074
604.1643	-0.0031
604.3547	0.0004
604.5451	0.0055
604.7354	-0.005
604.9257	-0.0055
605.116	-0.0003
605.3063	0.0039
605.4966	0.0033
605.6869	0.0033
605.8771	0.001
606.0673	0.0026
606.2575	0.0078
606.4477	0.0052
606.6379	0.0025
606.8281	-0.0079
607.0182	-0.0033
607.2083	0.0171
607.3985	-0.0075
607.5885	-0.0029
607.7786	0.0074
607.9687	-0.0036
608.1587	0.0066
608.3488	0.0004
608.5388	0.004
608.7288	0.0035
608.9187	-0.0098
609.1087	-0.0028
609.2986	-0.0054
609.4886	0.0045
609.6785	-0
609.8684	0.0066
610.0582	0.0042
610.2481	0.003
610.4379	0.0006
610.6278	0.0008
610.8176	-0.0005
611.0074	-0.001
611.1971	0.0015
611.3869	-0.0038
611.5766	0.0018
611.7664	0.0053
611.9561	0.0048
612.1458	-0.0021
612.3354	-0.0106
612.5251	-0.0023
612.7147	0.0017
612.9044	0.0045
613.094	-0.0016
613.2836	0.002
613.4731	0.0002
613.6627	-0.0011
613.8522	0.0036
614.0417	0.0042
614.2313	-0.0042
614.4207	-0.0078
614.6102	0.0027
614.7997	-0.0034
614.9891	-0.0076
615.1785	-0.0021
615.3679	-0.0046
615.5573	0.0106
615.7467	-0.0031
615.9361	0.0005
616.1254	0.0016
616.3147	0.003
616.504	0.0021
616.6933	0.0044
616.8826	-0.0022
617.0718	0.0103
617.2611	0.0002
617.4503	0.0002
617.6395	0.0016
617.8287	-0.0009
618.0179	0.0026
618.207	0.0049
618.3961	0.0001
618.5853	0.0049
618.7744	0.0033
618.9634	0.0045
619.1525	-0.0003
619.3416	0.0023
619.5306	0.0086
619.7196	-0.0012
619.9086	-0.002
620.0976	0.0061
620.2866	0.0033
620.4755	0.0037
620.6645	-0.0023
620.8534	0.0105
621.0423	0.004
621.2312	0.0019
621.42	0.0042
621.6089	0.0018
621.7977	0.0053
621.9865	-0.0074
622.1753	0.0053
622.3641	-0.0029
622.5529	0.0091
622.7416	0.0023
622.9303	-0.0048
623.1191	0.0039
623.3078	-0.0014
623.4964	-0.0007
623.6851	-0.0066
623.8737	0.0041
624.0624	0.0061
624.251	0.0022
624.4396	0.0081
624.6282	-0.008
624.8167	-0
625.0053	0.0119
625.1938	0.0072
625.3823	-0.0022
625.5708	-0.0026
625.7593	-0.0055
625.9477	-0.0015
626.1362	-0.0059
626.3246	-0.0021
626.513	0.0047
626.7014	0.0078
626.8898	-0.0027
627.0781	-0.0029
627.2665	-0.0055
627.4548	0.0093
627.6431	0.0004
627.8314	0.0053
628.0197	0.0045
628.2079	0.0012
628.3962	0.0006
628.5844	0.0048
628.7726	0.0102
628.9608	0.003
629.1489	0.0097
629.3371	0.0117
629.5252	0.0014
629.7134	0.0181
629.9015	-0.0035
630.0895	-0.0001
630.2776	0.004
630.4657	0.0005
630.6537	0.0061
630.8417	-0.0053
631.0297	-0.0012
631.2177	-0.0063
631.4057	-0.0066
631.5936	0.0013
631.7815	-0.0035
631.9695	0.0078
632.1574	0.0078
632.3452	0.0103
632.5331	0.0014
632.7209	-0.0023
632.9088	0.0074
633.0966	0.0089
633.2844	-0.0058
633.4722	0.0066
633.6599	0.0022
633.8477	0.0062
634.0354	-0.005
634.2231	0.0002
634.4108	-0.0017
634.5985	0.0046
634.7861	0.0026
634.9738	-0.0009
635.1614	-0.005
635.349	0.0031
635.5366	-0.0025
635.7242	0.0051
635.9117	0.0104
636.0993	-0.004
636.2868	0.0041
636.4743	-0.0019
636.6618	0.0095
636.8492	0.0008
637.0367	0.0023
637.2241	-0.0082
637.4115	-0.0009
637.5989	-0.0002
637.7863	-0.0018
637.9737	-0.0039
638.161	-0.0003
638.3484	-0.0017
638.5357	0.0009
638.723	-0.0019
638.9103	0.0085
639.0975	0.0035
639.2848	0.0001
639.472	-0.0022
639.6592	0.0034
639.8464	0.0081
640.0336	0.0097
640.2208	-0.0026
640.4079	-0.0049
640.595	0.0037
640.7821	-0.0009
640.9692	-0.0077
641.1563	0.0015
641.3434	-0.0012
641.5304	-0.0021
641.7174	-0.0042
641.9044	-0.0058
642.0914	0.0002
642.2784	0.0011
642.4653	0.003
642.6523	0.0027
642.8392	-0.0018
643.0261	-0.0035
643.213	0.0057
643.3999	-0.0027
643.5867	0.0017
643.7735	-0.0025
643.9604	-0.0111
644.1472	-0.0034
644.3339	-0.0023
644.5207	0.0023
644.7075	-0.005
644.8942	-0.0001
645.0809	0.0069
645.2676	0.0056
645.4543	0.0015
645.6409	0.0035
645.8276	-0.0022
646.0142	0.0016
646.2008	-0.0051
646.3874	-0.0091
646.574	-0.0016
646.7605	-0.0101
646.9471	-0.0148
647.1336	-0.003
647.3201	-0.0011
647.5066	-0.0038
647.6931	0.0048
647.8795	0.0002
648.0659	0.01
648.2524	0.011
648.4388	-0.0061
648.6252	0.004
648.8115	-0.0025
648.9979	-0.0081
649.1842	0.0068
649.3705	0.0086
649.5568	-0.0007
649.7431	0.0018
649.9294	-0.0016
650.1156	0.005
650.3018	-0.0102
650.488	0.002
650.6742	0.0037
650.8604	-0.0044
651.0466	-0.0071
651.2327	-0.001
651.4188	0.0018
651.6049	0.0064
651.791	-0.0035
651.9771	0.0002
652.1632	0.0078
652.3492	-0.0028
652.5352	-0.0034
652.7212	-0.0057
652.9072	0.0003
653.0932	-0.0008
653.2791	-0.0071
653.465	-0.0083
653.651	-0.004
653.8369	-0.0089
654.0227	-0.0096
654.2086	-0.0005
654.3944	-0.001
654.5803	-0.0081
654.7661	-0.0058
654.9519	0.0018
655.1377	-0.0074
655.3234	-0.0046
655.5092	-0.0027
655.6949	-0.0045
655.8806	-0.0017
656.0663	-0.0051
656.2519	-0.0026
656.4376	-0.0062
656.6232	0.0038
656.8088	0.0018
656.9945	-0.0007
657.18	0.0036
657.3656	-0.0004
657.5511	-0.0056
657.7367	-0.0126
657.9222	0.0063
658.1077	0.001
658.2932	0.0018
658.4786	-0.0038
658.6641	-0.0057
658.8495	0.0003
659.0349	-0.0046
659.2203	0.0034
659.4057	0.0003
659.591	0.0029
659.7764	-0.0015
659.9617	-0.0036
660.147	-0.0017
660.3323	-0.0066
660.5176	0.0074
660.7028	-0.0007
660.888	-0.0052
661.0733	-0.0036
661.2585	-0.0056
661.4436	-0.008
661.6288	-0.0071
661.8139	-0.0084
661.9991	0.0033
662.1842	0.0006
662.3693	-0.0046
662.5544	-0.003
662.7394	-0.0052
662.9245	-0.0117
663.1095	-0.011
663.2945	-0.002
663.4795	-0.0029
663.6644	0.0034
663.8494	0.0068
664.0343	0.002
664.2193	-0.0117
664.4042	-0.0066
664.589	-0.0058
664.7739	-0.0009
664.9587	0.0009
665.1436	-0.0006
665.3284	0.0043
665.5132	0.0016
665.698	-0.0061
665.8827	0.0061
666.0675	-0.0014
666.2522	-0.0031
666.4369	0.0021
666.6216	0.0051
666.8063	0.0032
666.9909	0.0048
667.1756	-0.0043
667.3602	0.0009
667.5448	-0.0044
667.7294	0.0084
667.9139	-0.0027
668.0985	0.0177
668.283	-0.0007
668.4675	-0.0022
668.652	0.0034
668.8365	0.0006
669.0209	0.0066
669.2054	0.006
669.3898	-0.0038
669.5742	-0.0013
669.7586	0.0057
669.943	0.0104
670.1273	0.0085
670.3117	0.0016
670.496	0.0048
670.6803	0.0085
670.8646	0.0077
671.0488	-0.0024
671.2331	0.0119
671.4173	0.0048
671.6015	-0.0008
671.7857	0.0028
671.9699	0.0024
672.1541	0.0096
672.3382	0.0077
672.5223	0.0081
672.7064	0.0008
672.8905	0.0098
673.0746	0.0024
673.2587	0.0049
673.4427	0.0075
673.6267	0.0081
673.8107	0.0023
673.9947	0.0041
674.1787	-0.0025
674.3626	-0.0021
674.5465	0.0026
674.7304	0.0002
674.9143	-0.0028
675.0982	0.0089
675.2821	-0.0026
675.4659	0.0049
675.6497	0.0019
675.8335	0.0013
676.0173	0.0009
676.2011	-0.0015
676.3849	0.0038
676.5686	-0.0052
676.7523	0.003
676.936	-0.0003
677.1197	0.0029
677.3034	-0.0008
677.487	-0
677.6706	0.0005
677.8542	0.0019
678.0378	0.0036
678.2214	-0.001
678.405	-0.0026
678.5885	-0.0108
678.772	0.0041
678.9555	-0.004
679.139	-0.0044
679.3225	0.0033
679.5059	-0.0035
679.6894	0.0036
679.8728	-0.0092
680.0562	-0.0084
680.2395	-0.0037
680.4229	-0.0004
680.6062	0.0056
680.7896	-0.0012
680.9729	-0.0139
681.1562	0.0038
681.3394	-0.0032
681.5227	-0.0141
681.7059	-0.0052
681.8891	-0.0051
682.0723	0.0029
682.2555	-0.0032
682.4387	-0.0087
682.6218	-0.0087
682.805	0.0048
682.9881	0.0025
683.1712	-0.0042
683.3542	-0.007
683.5373	0.0026
683.7203	-0.0029
683.9034	0.0036
684.0864	-0.0124
684.2694	-0.0081
684.4523	0.0044
684.6353	-0.0071
684.8182	0.0048
685.0011	-0.0146
685.184	-0.0012
685.3669	0.0085
685.5498	0.0058
685.7326	0.0009
685.9154	-0.0011
686.0982	0.0068
686.281	0.0023
686.4638	0.0023
686.6465	0.0011
686.8293	0.0018
687.012	0.0081
687.1947	-0.007
687.3774	0.0034
687.56	0.0014
687.7427	-0.0004
687.9253	-0.0035
688.1079	-0.0035
688.2905	0.0106
688.4731	0.0007
688.6556	-0.0046
688.8382	0.0006
689.0207	0.0035
689.2032	-0.0073
689.3857	-0.0083
689.5681	-0.0008
689.7506	0.0007
689.933	-0.0075
690.1154	0.0008
690.2978	0.0009
690.4802	0.0043
690.6626	-0.006
690.8449	-0.0044
691.0272	0.0025
691.2095	-0.0049
691.3918	-0.0011
691.5741	0.0027
691.7563	0.0029
691.9386	0.0052
692.1208	-0.0024
692.303	0.0072
692.4852	-0.004
692.6673	-0.0011
692.8495	-0.0005
693.0316	0.0072
693.2137	0.002
693.3958	0.0066
693.5778	0.0018
693.7599	0.0047
693.9419	0.0018
694.1239	0.0002
694.3059	-0.0053
694.4879	0.0042
694.6699	0.008
694.8518	0.0027
695.0337	-0.0071
695.2157	0.009
695.3975	0.0027
695.5794	0.0107
695.7613	0.0027
695.9431	-0.0069
696.1249	0.0044
696.3067	0.0033
696.4885	0.0027
696.6703	-0.0106
696.852	0.0003
697.0337	0.001
697.2154	0.0009
697.3971	0.0023
697.5788	0.0006
697.7605	-0.0052
697.9421	-0.0023
698.1237	-0.0029
698.3053	-0.0039
698.4869	-0.0077
698.6685	-0.0078
698.85	-0.004
699.0315	0.0079
699.213	-0.003
699.3945	0.0022
699.576	0.007
699.7575	0.0053
699.9389	0.0027
700.1203	-0.0024
700.3017	-0.0068
700.4831	0.0003
700.6645	0.0002
700.8458	0.0112
701.0271	-0.0016
701.2084	0.0123
701.3897	-0.0059
701.571	-0.0007
701.7523	-0.0116
701.9335	-0.0035
702.1147	0.0004
702.2959	-0.0006
702.4771	0.0013
702.6583	-0.0008
702.8394	-0.0075
703.0205	-0.0024
703.2016	-0.0042
703.3827	-0.0043
703.5638	0.007
703.7449	-0.0038
703.9259	0.0142
704.1069	-0.0045
704.2879	-0.0019
704.4689	0.0033
704.6499	-0.0026
704.8308	0.001
705.0117	0.0006
705.1927	0.008
705.3735	0.0007
705.5544	-0.0042
705.7353	0.0046
705.9161	-0.0041
706.0969	-0.0076
706.2777	-0.0018
706.4585	-0.0076
706.6393	-0.0009
706.82	0.0007
707.0007	-0.0023
707.1815	0.0066
707.3621	0.0053
707.5428	0.0028
707.7235	0.0017
707.9041	0.0076
708.0847	-0.0033
708.2653	-0.006
708.4459	-0.009
708.6265	-0.0001
708.807	-0.0014
708.9875	0.0026
709.168	-0.0003
709.3485	-0.0042
709.529	-0.0059
709.7095	-0.0106
709.8899	0.0001
710.0703	-0.0122
710.2507	-0.003
710.4311	-0.0035
710.6115	-0.0032
710.7918	-0.009
710.9721	-0.0029
711.1524	-0.0049
711.3327	-0.0045
711.513	-0.0009
711.6932	-0.003
711.8735	0.0053
712.0537	0.0006
712.2339	-0.0064
712.4141	-0.0183
712.5942	-0.0087
712.7744	-0.0005
712.9545	-0.0147
713.1346	-0.0095
713.3147	-0.0073
713.4947	-0.0087
713.6748	-0.0069
713.8548	-0.0006
714.0348	-0.0061
714.2148	-0.0082
714.3948	0.0075
714.5748	-0.0026
714.7547	-0.0018
714.9346	0.0047
715.1145	-0.0044
715.2944	-0.0117
715.4743	-0.0006
715.6541	-0.009
715.834	-0.0008
716.0138	-0.0072
716.1936	-0.0034
716.3733	-0.0049
716.5531	-0.0014
716.7328	-0.01
716.9126	-0.005
717.0923	0.0006
717.2719	-0.004
717.4516	-0.0001
717.6312	0.0031
717.8109	-0.0031
717.9905	0.005
718.1701	-0.0017
718.3496	-0.0098
718.5292	-0.0026
718.7087	-0.0074
718.8882	0.0027
719.0677	0.013
719.2472	-0.0049
719.4267	-0.0005
719.6061	-0.0034
719.7856	0.0038
719.965	0.0031
720.1443	-0.0101
720.3237	0.0089
720.5031	0.0014
720.6824	0.0041
720.8617	0.008
721.041	0.0051
721.2203	0.014
721.3995	0.0017
721.5788	0.0037
721.758	0.0095
721.9372	0.0019
722.1164	0.0009
722.2956	0.0156
722.4747	0.009
722.6538	0.0047
722.8329	0.0196
723.012	0.0043
723.1911	-0.0073
723.3702	0.0008
723.5492	0.0107
723.7282	-0.0068
723.9072	0.0002
724.0862	-0.0018
724.2652	-0.0032
724.4441	0.0033
724.623	-0.0018
724.8019	-0.0042
724.9808	0.0036
725.1597	-0.0104
725.3385	0.0019
725.5174	0.0096
725.6962	0.0017
725.875	0.005
726.0538	-0.0004
726.2325	-0.0006
726.4112	0.0011
726.59	-0.0037
726.7687	-0.0047
726.9474	0
727.126	0.0005
727.3047	-0.0061
727.4833	-0.0008
727.6619	-0.012
727.8405	-0.0036
728.0191	-0.0071
728.1976	-0.0015
728.3762	0.0065
728.5547	-0.0016
728.7332	-0.0039
728.9116	0.002
729.0901	0.0043
729.2686	-0.0045
729.447	-0.0113
729.6254	-0.0046
729.8038	-0.0006
729.9821	-0.0098
730.1605	-0.0071
730.3388	-0.0026
730.5171	-0.0046
730.6954	-0.0037
730.8737	0.0047
731.0519	0.0032
731.2302	-0.0019
731.4084	0.0085
731.5866	0.005
731.7648	-0.0014
731.9429	0.0027
732.1211	-0.0055
732.2992	0.0011
732.4773	-0.0045
732.6554	-0.0069
732.8335	0.0109
733.0115	0.0056
733.1896	0.0053
733.3676	-0.008
733.5456	0.0027
733.7235	0.0037
733.9015	-0.0011
734.0794	-0.0012
734.2574	0.0003
734.4353	0.007
734.6131	0.0038
734.791	0.0058
734.9689	-0.0069
735.1467	-0.0044
735.3245	-0.0089
735.5023	-0.0089
735.68	-0.0053
735.8578	-0.002
736.0355	-0.0159
736.2132	-0.0125
736.3909	-0.0059
736.5686	-0.0134
736.7463	0.0037
736.9239	-0.0078
737.1015	-0.0087
737.2791	0.0057
737.4567	-0.0042
737.6343	-0.0129
737.8118	0.0034
737.9894	-0
738.1669	-0.0094
738.3444	-0.0085
738.5218	0.0046
738.6993	0.0045
738.8767	-0.0107
739.0541	0.003
739.2315	-0.0156
739.4089	-0.0023
739.5863	0.0055
739.7636	-0.0103
739.9409	-0.007
740.1182	-0.0026
740.2955	0.0017
740.4728	0.0037
740.65	-0.0071
740.8272	-0.0081
741.0044	-0.0085
741.1816	-0.0019
741.3588	-0.0095
741.5359	-0.001
741.7131	-0.0128
741.8902	-0.0049
742.0673	-0.0052
742.2444	-0.0107
742.4214	-0.0144
742.5985	-0.0097
742.7755	-0.0082
742.9525	-0.0074
743.1295	-0.0039
743.3064	-0.0084
743.4834	-0.0035
743.6603	-0.0094
743.8372	-0.0108
744.0141	-0.0045
744.191	0.0046
744.3678	-0.0056
744.5446	-0.006
744.7215	0.0095
744.8982	-0.0083
745.075	-0.0126
745.2518	0.0042
745.4285	-0.0011
745.6052	-0.0012
745.7819	0.0074
745.9586	-0.0046
746.1353	0.0122
746.3119	0.0009
746.4885	0.0014
746.6651	-0.0054
746.8417	-0.0076
747.0183	0.0123
747.1948	0.0003
747.3714	0.0093
747.5479	0.0061
747.7244	-0.0057
747.9008	0.0147
748.0773	-0.0041
748.2537	-0
748.4301	-0.0095
748.6065	0.0026
748.7829	0.0071
748.9593	-0.0045
749.1356	-0.0026
749.3119	0.0041
749.4882	-0.0149
749.6645	0.0091
749.8408	-0.0061
750.017	-0.0045
750.1933	0.0055
750.3695	0.0013
750.5457	0.0113
750.7218	0.0067
750.898	0.0062
751.0741	-0.0012
751.2502	0.0012
751.4263	0.0003
751.6024	0.0052
751.7784	-0.0014
751.9545	-0.0091
752.1305	0.009
752.3065	-0.0019
752.4825	0.0036
752.6584	-0.0058
752.8344	-0.0037
753.0103	-0.0051
753.1862	-0.0071
753.3621	-0.005
753.5379	-0.0078
753.7138	-0.0006
753.8896	0.0035
754.0654	-0.0034
754.2412	0.0069
754.417	0.0008
754.5927	-0.0074
754.7685	0.0011
754.9442	0.0006
755.1199	0.0095
755.2956	-0.0021
755.4712	0.0086
755.6469	-0.0029
755.8225	-0.0017
755.9981	-0.0066
756.1736	-0.0008
756.3492	-0.0033
756.5248	-0.0123
756.7003	-0.0074
756.8758	0.0086
757.0513	-0.013
757.2267	-0.0016
757.4022	0.0016
757.5776	-0.0079
757.753	0.0062
757.9284	-0.0022
758.1038	0.0099
758.2791	-0.0024
758.4545	-0.0101
758.6298	-0.0034
758.8051	0.0048
758.9803	0.0013
759.1556	0.0001
759.3308	-0.0022
759.506	-0.002
759.6812	0.01
759.8564	0.0131
760.0316	0.0043
760.2067	0.0124
760.3819	0.002
760.557	0.0125
760.732	-0.0105
760.9071	-0.0133
761.0821	-0.0027
761.2572	0.0041
761.4322	-0.0124
761.6072	-0.0042
761.7821	-0.008
761.9571	0.0067
762.132	-0.0074
762.3069	-0.0096
762.4818	-0.0043
762.6567	-0.0055
762.8316	-0.0011
763.0064	-0.0016
763.1812	-0.0039
763.356	-0.0151
763.5308	-0.0081
763.7055	-0.0019
763.8803	-0.0073
764.055	-0.0076
764.2297	-0.0066
764.4044	-0.0034
764.579	-0.0051
764.7537	-0.0108
764.9283	0.0096
765.1029	-0.0083
765.2775	-0.0032
765.4521	-0.0068
765.6266	-0.0086
765.8011	0.0001
765.9756	-0.0016
766.1501	-0.0015
766.3246	-0.0147
766.4991	-0.0041
766.6735	-0.0024
766.8479	-0.0114
767.0223	-0.0017
767.1967	-0.0009
767.371	-0.0053
767.5454	-0.0097
767.7197	0.0029
767.894	-0.0087
768.0683	-0.0062
768.2425	0.0012
768.4168	0.0092
768.591	0.0065
768.7652	0.0019
768.9394	-0.0003
769.1135	-0.0045
769.2877	0.0089
769.4618	0.0036
769.6359	0.0057
769.81	0
769.984	0.0042
770.1581	-0.0112
770.3321	-0.0016
770.5061	-0.0059
770.6801	-0.0045
770.8541	-0.0032
771.028	0.0017
771.202	-0.0108
771.3759	0.0073
771.5498	-0.0057
771.7236	0.0067
771.8975	0.0078
772.0713	-0.0022
772.2451	0.0016
772.4189	0.0145
772.5927	0.0097
772.7665	0.001
772.9402	-0.0038
773.1139	-0.0043
773.2876	-0.0028
773.4613	0.0123
773.635	0.0062
773.8086	-0.009
773.9822	0.0076
774.1558	-0.0015
774.3294	-0.0104
774.503	-0.0008
774.6765	-0.0015
774.8501	-0.0021
775.0236	0.0103
775.1971	-0.0105
775.3705	-0.0127
775.544	0.004
775.7174	-0.006
775.8908	-0.0143
776.0642	0.0006
776.2376	0.0023
776.4109	-0.0093
776.5843	0.0039
776.7576	0.0046
776.9309	0.0044
777.1041	0.0046
777.2774	0.0133
777.4506	-0.0069
777.6238	-0.0177
777.797	0.004
777.9702	-0.0029
778.1434	0.0035
778.3165	-0.0048
778.4896	-0.0177
778.6627	0.0041
778.8358	0.0093
779.0089	0.0085
779.1819	-0.0027
779.3549	0.0079
779.5279	0.0119
779.7009	-0.0021
779.8739	0.0007
780.0468	-0.006
780.2197	-0.0005
780.3926	-0.0035
780.5655	-0.0062
780.7384	-0.0085
780.9112	-0.0022
781.0841	-0.0025
781.2569	0.004
781.4297	0.0053
781.6024	0.0129
781.7752	0.0084
781.9479	0.0007
782.1206	-0.0102
782.2933	-0.0144
782.466	-0.0057
782.6386	0.0001
782.8113	0.0045
782.9839	0.0028
783.1565	0.012
783.329	0.0006
783.5016	0.0123
783.6741	0.0032
783.8466	-0.0042
784.0191	0.0146
784.1916	-0.0041
784.3641	-0.0049
784.5365	0.0049
784.7089	-0.003
784.8813	-0.0045
785.0537	-0.0039
785.2261	0.0024
785.3984	-0.0144
785.5707	-0.0013
785.743	0.0105
785.9153	-0.0024
786.0876	-0.0048
786.2598	0.0029
786.432	-0.0052
786.6042	0.0031
786.7764	-0.0196
786.9486	0.0056
787.1207	0.0008
787.2928	0.007
787.4649	0.009
787.637	-0.0121
787.8091	-0.0048
787.9811	-0.0005
788.1532	-0.0114
788.3252	0.0087
788.4972	-0.0096
788.6691	0.0086
788.8411	-0.0096
789.013	-0.017
789.1849	0.0039
789.3568	-0.0045
789.5287	0.006
789.7005	-0.0103
789.8723	0.0005
790.0442	0.0195
790.2159	0.0114
790.3877	0.0104
790.5595	-0.0024
790.7312	0.0048
790.9029	0.0107
791.0746	-0.0047
791.2463	0.0144
791.4179	-0.0046
791.5896	-0.0095
791.7612	-0.0076
791.9328	-0.0015
792.1044	-0.0103
792.2759	-0.0029
792.4474	-0.0001
792.619	0.0037
792.7905	0.0249
792.9619	0.0086
793.1334	0.0062
793.3048	0.0199
793.4762	0.0011
793.6476	0.0027
793.819	-0.0124
793.9904	0.0063
794.1617	-0.0134
794.333	-0.0073
794.5043	-0.005
794.6756	-0.0105
794.8469	-0.0064
795.0181	-0.0001
795.1893	-0.0049
795.3605	0.0167
795.5317	-0.0029
795.7029	-0.0114
795.874	0.0096
796.0452	0.002
796.2163	0.005
796.3873	0.0162
796.5584	-0.0052
796.7294	-0.0082
796.9005	0.0041
797.0715	0.0098
797.2425	-0.0159
797.4134	-0.0098
797.5844	-0.0035
797.7553	-0.002
797.9262	-0.0063
798.0971	-0.0069
798.2679	-0.0088
798.4388	-0.02
798.6096	-0.0056
798.7804	0.0096
798.9512	-0.0034
799.122	0.0031
799.2927	0.0047
799.4635	0.0099
799.6342	-0.0106
799.8049	-0.0049
799.9755	-0.0083
800.1462	0.0132
800.3168	0.0051
800.4874	-0.0151
800.658	0.0325
800.8286	0.0052
800.9991	0.0101
801.1696	0.0011
801.3402	0.0238
801.5106	-0.0017
801.6811	0.0055
801.8516	0.0279
802.022	-0.0007
802.1924	0.0034
802.3628	0.0023
802.5332	0.0212
802.7035	0.0176
802.8739	0.005
803.0442	-0.0137
803.2145	-0.0042
803.3847	-0.0115
803.555	0.0146
803.7252	-0.019
803.8954	-0.0014
804.0656	-0.0072
804.2358	-0.0025
804.4059	0.0249
804.5761	0.0077
804.7462	0.0121
804.9163	0.0082
805.0864	0.0049
805.2564	0.0081
805.4264	0.0065
805.5965	-0.0161
805.7665	0.0014
805.9364	0.006
806.1064	0.0262
806.2763	0.0136
806.4462	0.0277
806.6161	0.0077
806.786	0.0236
806.9559	-0.0017
807.1257	-0.0082
807.2955	0.0035
807.4653	0.0026
807.6351	0.0058
807.8048	0.0027
807.9746	0.015
808.1443	0.0106
808.314	-0.002
808.4837	0.0041
808.6533	0.0032
808.8229	0.0168
808.9926	-0.0053
809.1622	0.0185
809.3317	0.0101
809.5013	0.0169
809.6708	0.0226
809.8403	0.0234
810.0098	0.0159
810.1793	0.0219
810.3488	0.0044
810.5182	-0.0097
810.6876	0.0161
810.857	-0.0151
811.0264	0.0268
811.1958	0.0233
811.3651	0.0089
811.5344	0.0193
811.7037	-0.0066
811.873	-0.0015
812.0422	-0.0043
812.2115	-0.002
812.3807	-0.0202
812.5499	0.0091
812.7191	-0.002
812.8882	0.005
813.0574	0.004
813.2265	0.0059
813.3956	-0.0052
813.5646	0.0296
813.7337	-0.0186
813.9027	0.0272
814.0718	0.0503
814.2407	0.025
814.4097	-0.0035
814.5787	-0.022
814.7476	0.003
814.9165	0.0123
815.0854	0.014
815.2543	-0.0143
815.4232	-0.0002
815.592	0.022
815.7608	-0.0049
815.9296	0.0052
816.0984	0.0187
816.2671	0.0004
816.4359	-0.0008
816.6046	0.0343
816.7733	-0.0011
816.942	-0.0011
817.1106	0.0062
817.2793	0.0058
817.4479	0.0057
817.6165	0.0353
817.785	0.0169
817.9536	-0.0015
818.1221	0.0162
818.2906	0.0037
818.4591	0.0091
818.6276	-0.0251
818.7961	0.0146
818.9645	0.0261
819.1329	0.0161
819.3013	0.022
819.4697	0.0281
819.638	0.0102
819.8064	0.0214
819.9747	0.0234
820.143	0.0056
820.3113	-0.0034
820.4795	0.003
820.6477	0.0228
820.816	0.0276
820.9842	0.002
821.1523	0.0005
821.3205	0.0055
821.4886	0.0056
821.6567	0.0096
821.8248	0.0149
821.9929	0.0353
822.1609	0.0182
822.329	0.0302
822.497	0.0379
822.665	0.0179
822.833	-0.0063
823.0009	-0.0047
823.1688	0.0132
823.3367	0.0162
823.5046	-0.001
823.6725	0.0398
823.8404	0.0233
824.0082	0.0025
824.176	-0.0045
824.3438	0.0074
824.5116	-0.0207
824.6793	-0.0151
824.847	0.001
825.0147	-0.0206
825.1824	0.0331
825.3501	0.0229
825.5177	-0.0103
825.6854	-0.0015
825.853	0.0287
826.0206	-0.0099
826.1881	0.0072
826.3557	-0.0395
826.5232	0.0007
826.6907	-0.0281
826.8582	0.008
827.0257	0.0025
827.1931	0.008
827.3605	-0.0157
827.528	-0.0021
827.6953	-0.0235
827.8627	-0.0136
828.03	0.0438
828.1974	0.0375
828.3647	-0.0263
828.532	-0.0071
828.6992	-0.0114
828.8665	-0.0026
829.0337	-0.0161
829.2009	0.0244
829.3681	-0.0038
829.5352	0.0318
829.7024	-0.0422
829.8695	-0.0047
830.0366	0.0312
830.2037	-0.0264
830.3707	-0.0105
830.5378	-0.0072
830.7048	-0.0024
830.8718	-0.0014
831.0388	-0.0339
831.2057	0.0457
831.3727	0.014
831.5396	-0.0093
831.7065	0.0037
831.8734	0.0174
832.0402	0.0003
832.2071	0.0117
832.3739	-0.0074
832.5407	-0.023
832.7075	-0.0162
832.8742	-0.0247
833.041	-0.0324
833.2077	0.0083
833.3744	0.0227
833.541	0.0175
833.7077	-0.0465
833.8743	-0.0226
834.0409	0.0089
834.2075	-0.0195
834.3741	0.0115
834.5407	0.0159
834.7072	-0.0116
834.8737	-0.0322
835.0402	-0.0155
835.2067	0.0079
835.3731	-0.0075
835.5395	-0.0221
835.706	-0.0112
835.8723	-0.0159
836.0387	0.0304
836.2051	-0.0072
836.3714	-0.0064
836.5377	-0.0251
836.704	-0.0151
836.8703	-0.0214
837.0365	-0.0238
837.2027	-0.0218
837.3689	0.0314
837.5351	0.0251
837.7013	-0.022
837.8674	-0.0365
838.0335	-0.038
838.1997	-0.0179
838.3657	-0.0526
838.5318	-0.0492
838.6978	0.004
838.8639	0.0094
839.0299	-0.0148
839.1958	-0.0051
839.3618	-0.0381
839.5277	-0.0147
839.6937	-0.033
839.8596	-0.0225
840.0254	-0.0062
840.1913	0.0457
840.3571	-0.0251
840.523	-0.0413
840.6888	-0.0242
840.8545	0.0092
841.0203	-0.0341
841.186	0.003
841.3517	0.0578
841.5174	-0.0133
841.6831	-0.0374
841.8488	0.0068
842.0144	0.0069
842.18	0.0394
842.3456	0.0226
842.5112	-0.0261
842.6767	-0.0216
842.8422	-0.0173
843.0077	-0.0216
843.1732	-0.0098
843.3387	-0.0685
843.5042	-0.0522
843.6696	0.0018
843.835	-0.0112
844.0004	0.0153
844.1657	0.0138
844.3311	-0.0342
844.4964	-0.1161
844.6617	-0.0358
844.827	-0.0467
844.9923	-0.0217
845.1575	0.0176
845.3227	-0.0131
845.4879	0.0051
845.6531	-0.0866
845.8183	-0.1013
845.9834	0.0044
846.1485	-0.036
846.3136	-0.0241
846.4787	-0.1196
846.6438	-0.0065
846.8088	-0.0832
846.9738	-0.1
847.1388	0.0021
847.3038	-0.0704
847.4687	-0.065
847.6337	0.0165
847.7986	-0.0163
847.9635	-0.0966
848.1284	0.0203
848.2932	0.0039
848.458	-0.0351
848.6228	0.0491
848.7876	0.0136
848.9524	-0.0778
849.1172	-0.1194
849.2819	0.0281
849.4466	-0.0812
849.6113	-0.1483
849.7759	0.0343
849.9406	-0.0747
850.1052	0.0045
850.2698	-0.0176
850.4344	0.0554
850.599	-0.0126
850.7635	0.0591
850.928	-0.1172
851.0925	-0.0341
851.257	-0.0026
851.4215	0.0146
851.5859	-0.0622
851.7503	0.0054
851.9147	-0.0185
852.0791	-0.11
852.2434	-0.0066
852.4078	0.0042
852.5721	-0.004
852.7364	-0.0324
852.9007	-0.233
853.0649	-0.0595
853.2291	-0.0416
853.3934	-0.1014
853.5575	-0.0665
853.7217	-0.0358
853.8859	-0.1097
854.05	-0.1514
854.2141	-0.0479
854.3782	-0.0341
854.5423	-0.1126
854.7063	0.0995
854.8703	-0.0724
855.0343	-0.02
855.1983	-0.1243
855.3623	0.0165
855.5262	0.0478
855.6901	-0.1233
855.854	-0.0112
856.0179	0.0605
856.1818	-0.061
856.3456	-0.0435
856.5094	-0.1414
856.6732	-0.0441
856.837	-0.0902
857.0008	-0.0713
857.1645	-0.1779
857.3282	-0.2143
857.4919	0.0146
857.6556	0.0881
857.8192	-0.0209
857.9828	-0.0288
858.1465	-0.132
858.31	-0.2313
858.4736	-0.2771
858.6372	-0.2003
858.8007	-0.0967
858.9642	0.1171
859.1277	-0.1854
859.2911	0.2206
859.4546	0.022
859.618	-0.3729
859.7814	-0.1286
859.9448	0.073
860.1081	-0.2178
860.2715	0.1023
860.4348	0.1214
860.5981	-0.0383
860.7614	-0.0077
860.9246	-0.1731
861.0879	-0.3344
861.2511	0.0237
861.4143	-0.2527
861.5774	-0.1208
861.7406	-0.1093
861.9037	0.126
862.0668	-0.2181
862.2299	-0.2487
862.393	-0.5309
862.556	-0.1266
862.7191	-0.3627
862.8821	-0.2477
863.0451	-0.0589
863.208	0.1331
863.371	-0.1186
863.5339	-0.3562
863.6968	-0.0489
863.8597	-0.123
864.0225	-0.1254
864.1854	-0.047
864.3482	0.392
864.511	0.0294
864.6737	-0.3457
864.8365	-0.2022
864.9992	-0.6611
865.1619	-0.7322
865.3246	-0.2337
865.4873	-0.0216
865.65	-0.3806
865.8126	-0.2345
865.9752	0.2258
866.1378	-0.2317
866.3004	-0.0823
866.4629	-0.032
866.6254	0.05
866.7879	-0.0048
866.9504	-0.6021
867.1129	-0
867.2753	0.1843
867.4377	0.1261
867.6001	-0.3116
867.7625	0.1534
867.9249	0.4861
868.0872	-0.2712
868.2495	0.041
868.4118	-0.0644
868.5741	-0.6364
868.7363	-0.4197
868.8986	-0.5446
869.0608	-0.2221
869.223	0.0283
869.3851	0.0461
869.5473	-0
869.7094	0.1247
869.8715	-0.1098
870.0336	-0
870.1957	0.0219
870.3577	-0
870.5197	-0.4384
870.6817	-0.2386
870.8437	-0.1845
871.0057	-0.583
871.1676	-0.706
871.3295	-0.4368
871.4914	-0
871.6533	-0.4271
871.8151	-0.6645
871.977	-0
872.1388	-0
872.3006	-0
872.4623	-0
872.6241	0.0043
872.7858	0.6228
872.9475	0.0633
873.1092	-0.2672
873.2709	0.2156
873.4325	-0.3152
873.5941	0.1633
873.7557	-0
873.9173	1.3711
874.0789	-0
874.2404	-0.617
874.4019	0.2133
874.5634	0.8646
874.7249	-0.2053
874.8863	0.2776
875.0478	0.2008
875.2092	-0
875.3706	0.5781
875.5319	-1.0907
875.6933	-0
875.8546	-0.4135
876.0159	-0
876.1772	-0
876.3385	-0
876.4997	0.1562
876.6609	-0.5384
876.8221	-0
876.9833	-0
877.1445	-0
877.3056	0.1771
877.4667	-0.3851
877.6278	-0
877.7889	-0.8348
877.9499	-0
878.111	-0.6962
878.272	-0
878.433	-0
878.5939	-0
878.7549	-0.2387
878.9158	-0.6226
879.0767	-0
879.2376	-0
879.3984	0.0546
879.5593	-0
879.7201	-0.1632
879.8809	-0.8358
880.0417	0.7549
880.2024	-0.2072
880.3632	-1.0196
880.5239	0.1438
880.6846	-0
880.8452	-2.2355
881.0059	-0
881.1665	-0
881.3271	-0
881.4877	-0.7829
881.6483	-0.5207
881.8088	-0.1885
881.9693	-0
882.1298	-0
882.2903	-0
