Data from MonoPyChalIsomerACN10uM380nmA_Absorbance_13-38-34-548.txt Node
Date: Fri Jul 05 13:38:34 BST 2024
User: LASERRRRR
Spectrometer: FLMT03099
Trigger mode: 0
Integration Time (sec): 1.000000E-1
Scans to average: 1
Electric dark correction enabled: true
Nonlinearity correction enabled: false
Boxcar width: 0
XAxis mode: Wavelengths
Number of Pixels in Spectrum: 3648
>>>>>Begin Spectral Data<<<<<
179.3399	-0.2683
179.5586	-0.2683
179.7771	-0.2683
179.9957	0.4366
180.2143	-0
180.4329	0.0191
180.6514	0.7536
180.8699	-0
181.0885	0.096
181.307	0.301
181.5255	-0.4576
181.744	-0.3937
181.9625	-0.5441
182.181	-0
182.3994	0.4667
182.6179	-0
182.8363	0.0119
183.0547	-0.2518
183.2732	-0.07
183.4916	0.1281
183.71	0.0818
183.9284	0.3098
184.1467	-0.1298
184.3651	-0.1012
184.5835	-0.0426
184.8018	0.1735
185.0201	-0.0754
185.2385	-0.0744
185.4568	0.3509
185.6751	0.2519
185.8934	0.2294
186.1117	-0.1141
186.3299	-0.0176
186.5482	0.0426
186.7664	-0.151
186.9847	0.2788
187.2029	-0.0189
187.4211	0.1637
187.6393	0.0817
187.8575	-0.1852
188.0757	0.185
188.2939	0.0483
188.512	0.0797
188.7302	0.1453
188.9483	0.2095
189.1665	0.0127
189.3846	-0.1484
189.6027	0.0753
189.8208	0.0416
190.0389	0.073
190.257	0.0964
190.475	0.2945
190.6931	0.1877
190.9111	0.2896
191.1292	0.1944
191.3472	0.1722
191.5652	0.1827
191.7832	0.2372
192.0012	0.4022
192.2192	0.4375
192.4371	0.3373
192.6551	0.3052
192.873	0.387
193.091	0.434
193.3089	0.3437
193.5268	0.4096
193.7447	0.3892
193.9626	0.509
194.1805	0.7015
194.3984	0.5342
194.6162	0.6259
194.8341	0.6154
195.0519	0.4704
195.2697	0.607
195.4875	0.7695
195.7054	0.5519
195.9231	0.559
196.1409	0.5805
196.3587	0.6866
196.5765	0.7125
196.7942	0.5248
197.012	0.6679
197.2297	0.5761
197.4474	0.706
197.6651	0.5712
197.8828	0.698
198.1005	0.5696
198.3182	0.777
198.5358	1.1974
198.7535	0.7413
198.9711	0.6433
199.1888	0.696
199.4064	1.0948
199.624	0.7369
199.8416	0.6765
200.0592	0.7526
200.2767	0.7554
200.4943	0.7281
200.7119	1.0384
200.9294	0.9086
201.1469	0.6442
201.3645	0.6846
201.582	0.7181
201.7995	0.661
202.017	0.6925
202.2344	0.7416
202.4519	0.9062
202.6694	0.9321
202.8868	0.7828
203.1042	0.9211
203.3217	0.7774
203.5391	0.8197
203.7565	0.754
203.9739	0.839
204.1913	0.6797
204.4086	0.9759
204.626	1.0396
204.8433	0.7172
205.0607	0.6767
205.278	0.8931
205.4953	0.6462
205.7126	0.7198
205.9299	1.0397
206.1472	0.7311
206.3644	0.789
206.5817	0.7853
206.7989	0.8255
207.0162	0.7827
207.2334	0.8067
207.4506	0.7518
207.6678	0.8457
207.885	0.7199
208.1022	0.8595
208.3194	0.8414
208.5365	0.7494
208.7537	0.7168
208.9708	0.7211
209.1879	0.7029
209.405	0.9334
209.6222	0.7943
209.8392	0.7801
210.0563	0.7969
210.2734	0.8426
210.4905	0.7055
210.7075	0.8739
210.9245	0.7367
211.1416	0.8594
211.3586	0.7916
211.5756	0.7446
211.7926	0.8166
212.0096	0.7979
212.2265	0.6989
212.4435	0.7033
212.6604	0.8437
212.8774	0.7502
213.0943	0.7561
213.3112	0.7338
213.5281	0.6671
213.745	0.683
213.9619	0.716
214.1788	0.6976
214.3956	0.6381
214.6125	0.6309
214.8293	0.635
215.0461	0.7007
215.2629	0.6465
215.4798	0.6495
215.6965	0.6268
215.9133	0.6729
216.1301	0.6086
216.3469	0.6682
216.5636	0.6151
216.7803	0.6379
216.9971	0.6265
217.2138	0.6102
217.4305	0.6041
217.6472	0.5515
217.8639	0.6659
218.0805	0.6207
218.2972	0.5849
218.5138	0.5351
218.7305	0.5812
218.9471	0.5862
219.1637	0.5635
219.3803	0.5454
219.5969	0.5132
219.8135	0.5149
220.0301	0.5661
220.2466	0.5736
220.4632	0.5644
220.6797	0.5102
220.8962	0.507
221.1127	0.5208
221.3292	0.5021
221.5457	0.5078
221.7622	0.4807
221.9787	0.5119
222.1951	0.4961
222.4116	0.5281
222.628	0.4994
222.8444	0.5251
223.0608	0.5001
223.2772	0.4971
223.4936	0.5513
223.71	0.4896
223.9264	0.5332
224.1427	0.5333
224.3591	0.5227
224.5754	0.5193
224.7917	0.517
225.008	0.526
225.2243	0.5096
225.4406	0.5466
225.6569	0.5014
225.8732	0.5211
226.0894	0.5466
226.3057	0.5128
226.5219	0.511
226.7381	0.5226
226.9543	0.5256
227.1705	0.5364
227.3867	0.5528
227.6029	0.556
227.8191	0.5375
228.0352	0.5467
228.2513	0.5461
228.4675	0.5533
228.6836	0.5576
228.8997	0.5159
229.1158	0.546
229.3319	0.5549
229.548	0.5356
229.764	0.5402
229.9801	0.5609
230.1961	0.557
230.4121	0.5585
230.6282	0.5611
230.8442	0.5422
231.0602	0.531
231.2761	0.5868
231.4921	0.5422
231.7081	0.5702
231.924	0.5249
232.14	0.5635
232.3559	0.556
232.5718	0.5834
232.7877	0.5446
233.0036	0.5284
233.2195	0.5506
233.4353	0.5304
233.6512	0.5487
233.867	0.5542
234.0829	0.5627
234.2987	0.5445
234.5145	0.5833
234.7303	0.5343
234.9461	0.5562
235.1619	0.5426
235.3776	0.5222
235.5934	0.5381
235.8091	0.5159
236.0249	0.5568
236.2406	0.5361
236.4563	0.5264
236.672	0.5507
236.8877	0.5485
237.1034	0.5096
237.319	0.5351
237.5347	0.5336
237.7503	0.5308
237.966	0.5244
238.1816	0.5499
238.3972	0.5067
238.6128	0.5134
238.8284	0.5141
239.0439	0.5342
239.2595	0.5037
239.475	0.5332
239.6906	0.5211
239.9061	0.5326
240.1216	0.4876
240.3371	0.5175
240.5526	0.5226
240.7681	0.5097
240.9836	0.4796
241.199	0.5059
241.4145	0.482
241.6299	0.4961
241.8453	0.4662
242.0607	0.4908
242.2761	0.4737
242.4915	0.4559
242.7069	0.4648
242.9223	0.4463
243.1376	0.4354
243.353	0.45
243.5683	0.4496
243.7836	0.4083
243.9989	0.4159
244.2142	0.404
244.4295	0.3969
244.6448	0.3836
244.86	0.3788
245.0753	0.3778
245.2905	0.365
245.5057	0.3796
245.721	0.3586
245.9362	0.3513
246.1514	0.3603
246.3665	0.3322
246.5817	0.3381
246.7969	0.3215
247.012	0.3202
247.2271	0.3003
247.4423	0.2981
247.6574	0.3073
247.8725	0.2868
248.0876	0.279
248.3026	0.2897
248.5177	0.2651
248.7328	0.28
248.9478	0.2611
249.1628	0.2812
249.3779	0.2623
249.5929	0.2548
249.8079	0.2659
250.0228	0.2455
250.2378	0.2353
250.4528	0.2477
250.6677	0.241
250.8827	0.2482
251.0976	0.2274
251.3125	0.2366
251.5274	0.206
251.7423	0.2148
251.9572	0.2204
252.172	0.2109
252.3869	0.2291
252.6017	0.2134
252.8166	0.2044
253.0314	0.2037
253.2462	0.195
253.461	0.2158
253.6758	0.2013
253.8906	0.2192
254.1053	0.2079
254.3201	0.2232
254.5348	0.2015
254.7496	0.2011
254.9643	0.2005
255.179	0.1963
255.3937	0.1823
255.6083	0.2006
255.823	0.1939
256.0377	0.1955
256.2523	0.1994
256.467	0.1735
256.6816	0.1926
256.8962	0.1858
257.1108	0.1798
257.3254	0.1978
257.54	0.1875
257.7545	0.1893
257.9691	0.1781
258.1836	0.1906
258.3981	0.201
258.6127	0.2053
258.8272	0.1832
259.0417	0.1768
259.2561	0.1838
259.4706	0.1826
259.6851	0.187
259.8995	0.1818
260.114	0.1886
260.3284	0.1882
260.5428	0.1799
260.7572	0.1972
260.9716	0.1897
261.186	0.1806
261.4003	0.1815
261.6147	0.191
261.829	0.1858
262.0433	0.1885
262.2577	0.187
262.472	0.1821
262.6863	0.1874
262.9005	0.1867
263.1148	0.1887
263.3291	0.1649
263.5433	0.1761
263.7576	0.1868
263.9718	0.1822
264.186	0.1836
264.4002	0.1892
264.6144	0.1841
264.8286	0.1894
265.0427	0.1945
265.2569	0.1861
265.471	0.1747
265.6851	0.1713
265.8993	0.1784
266.1134	0.1774
266.3275	0.1813
266.5415	0.1814
266.7556	0.1856
266.9697	0.1918
267.1837	0.1914
267.3978	0.1834
267.6118	0.1927
267.8258	0.192
268.0398	0.164
268.2538	0.2037
268.4677	0.1843
268.6817	0.1804
268.8957	0.1781
269.1096	0.1853
269.3235	0.1961
269.5374	0.1744
269.7514	0.1869
269.9652	0.1845
270.1791	0.1806
270.393	0.1748
270.6068	0.1764
270.8207	0.1746
271.0345	0.1672
271.2483	0.1753
271.4622	0.1734
271.676	0.1874
271.8897	0.1731
272.1035	0.1719
272.3173	0.1737
272.531	0.1754
272.7448	0.1814
272.9585	0.1694
273.1722	0.1719
273.3859	0.177
273.5996	0.1757
273.8133	0.1793
274.0269	0.158
274.2406	0.1586
274.4542	0.175
274.6679	0.1707
274.8815	0.166
275.0951	0.1776
275.3087	0.1889
275.5223	0.1773
275.7358	0.1752
275.9494	0.1706
276.1629	0.1681
276.3765	0.1537
276.59	0.1961
276.8035	0.1669
277.017	0.1822
277.2305	0.1946
277.444	0.1821
277.6574	0.1744
277.8709	0.1754
278.0843	0.1674
278.2978	0.1718
278.5112	0.1798
278.7246	0.1865
278.938	0.1717
279.1513	0.18
279.3647	0.183
279.5781	0.1762
279.7914	0.1845
280.0047	0.1855
280.2181	0.1705
280.4314	0.1874
280.6447	0.1851
280.8579	0.1761
281.0712	0.1822
281.2845	0.1759
281.4977	0.1782
281.711	0.177
281.9242	0.1886
282.1374	0.182
282.3506	0.186
282.5638	0.1881
282.7769	0.1857
282.9901	0.1674
283.2033	0.1829
283.4164	0.1864
283.6295	0.1761
283.8426	0.1699
284.0557	0.1895
284.2688	0.1811
284.4819	0.1711
284.695	0.1776
284.908	0.192
285.1211	0.1734
285.3341	0.1815
285.5471	0.1904
285.7601	0.1794
285.9731	0.1822
286.1861	0.1665
286.3991	0.1839
286.612	0.1823
286.825	0.1742
287.0379	0.1859
287.2508	0.169
287.4637	0.1833
287.6766	0.1654
287.8895	0.1851
288.1024	0.1797
288.3152	0.1816
288.5281	0.1689
288.7409	0.1873
288.9538	0.1651
289.1666	0.1807
289.3794	0.1784
289.5922	0.159
289.8049	0.1631
290.0177	0.165
290.2304	0.1693
290.4432	0.1761
290.6559	0.1647
290.8686	0.183
291.0813	0.1747
291.294	0.1702
291.5067	0.1774
291.7194	0.1718
291.932	0.1823
292.1447	0.173
292.3573	0.1668
292.5699	0.1711
292.7825	0.1801
292.9951	0.1596
293.2077	0.1755
293.4203	0.1679
293.6328	0.1563
293.8454	0.1766
294.0579	0.1634
294.2704	0.1707
294.4829	0.1602
294.6954	0.1763
294.9079	0.1641
295.1204	0.1563
295.3328	0.155
295.5453	0.174
295.7577	0.1631
295.9701	0.1542
296.1825	0.163
296.3949	0.1638
296.6073	0.1525
296.8197	0.1565
297.0321	0.1621
297.2444	0.164
297.4567	0.1585
297.6691	0.1633
297.8814	0.1619
298.0937	0.1568
298.306	0.167
298.5182	0.1629
298.7305	0.1735
298.9428	0.1564
299.155	0.1555
299.3672	0.156
299.5794	0.1495
299.7916	0.1629
300.0038	0.1709
300.216	0.1701
300.4282	0.1556
300.6403	0.1446
300.8525	0.1639
301.0646	0.159
301.2767	0.1584
301.4888	0.1624
301.7009	0.1577
301.913	0.1591
302.125	0.1748
302.3371	0.161
302.5491	0.1604
302.7612	0.163
302.9732	0.1675
303.1852	0.1625
303.3972	0.1573
303.6092	0.1477
303.8211	0.1487
304.0331	0.149
304.245	0.1479
304.457	0.1398
304.6689	0.1459
304.8808	0.1569
305.0927	0.1461
305.3046	0.1447
305.5164	0.1603
305.7283	0.1497
305.9401	0.1439
306.152	0.1404
306.3638	0.1451
306.5756	0.1295
306.7874	0.1536
306.9992	0.1461
307.2109	0.1444
307.4227	0.1227
307.6344	0.1312
307.8462	0.1343
308.0579	0.1355
308.2696	0.1331
308.4813	0.1357
308.693	0.138
308.9046	0.1474
309.1163	0.1258
309.328	0.1233
309.5396	0.1248
309.7512	0.1315
309.9628	0.1238
310.1744	0.1271
310.386	0.1195
310.5976	0.1149
310.8091	0.1326
311.0207	0.1264
311.2322	0.1268
311.4437	0.1056
311.6552	0.1198
311.8667	0.1245
312.0782	0.1065
312.2897	0.1101
312.5012	0.1095
312.7126	0.0999
312.924	0.0993
313.1355	0.1205
313.3469	0.1271
313.5583	0.1105
313.7696	0.1217
313.981	0.1158
314.1924	0.1034
314.4037	0.1068
314.6151	0.124
314.8264	0.0991
315.0377	0.1087
315.249	0.1123
315.4603	0.1194
315.6716	0.1113
315.8828	0.0975
316.0941	0.1076
316.3053	0.1099
316.5165	0.0953
316.7277	0.1036
316.9389	0.1188
317.1501	0.0992
317.3613	0.118
317.5724	0.0999
317.7836	0.1142
317.9947	0.1009
318.2058	0.1012
318.417	0.1008
318.6281	0.1012
318.8391	0.1022
319.0502	0.1066
319.2613	0.1054
319.4723	0.1054
319.6834	0.1012
319.8944	0.1009
320.1054	0.1138
320.3164	0.1053
320.5274	0.1047
320.7383	0.0967
320.9493	0.1138
321.1602	0.1119
321.3712	0.0948
321.5821	0.1116
321.793	0.1062
322.0039	0.1052
322.2148	0.1151
322.4257	0.1167
322.6365	0.1168
322.8474	0.1162
323.0582	0.1105
323.269	0.1118
323.4798	0.1178
323.6906	0.1148
323.9014	0.1002
324.1122	0.1103
324.3229	0.0946
324.5337	0.1156
324.7444	0.1039
324.9551	0.1182
325.1658	0.1225
325.3765	0.126
325.5872	0.111
325.7979	0.1095
326.0085	0.1108
326.2192	0.1251
326.4298	0.1171
326.6404	0.1013
326.851	0.0952
327.0616	0.1033
327.2722	0.1063
327.4828	0.1042
327.6933	0.1096
327.9039	0.1225
328.1144	0.1213
328.3249	0.1178
328.5354	0.1051
328.7459	0.1195
328.9564	0.1127
329.1669	0.1091
329.3773	0.1159
329.5878	0.1146
329.7982	0.1098
330.0086	0.116
330.219	0.1156
330.4294	0.1048
330.6398	0.1011
330.8502	0.1143
331.0605	0.1151
331.2708	0.1201
331.4812	0.1127
331.6915	0.127
331.9018	0.1215
332.1121	0.1248
332.3224	0.1121
332.5326	0.1267
332.7429	0.1064
332.9531	0.1254
333.1633	0.1148
333.3735	0.1152
333.5837	0.1087
333.7939	0.1137
334.0041	0.1182
334.2143	0.124
334.4244	0.1166
334.6346	0.0967
334.8447	0.124
335.0548	0.1094
335.2649	0.1018
335.475	0.1245
335.685	0.1082
335.8951	0.1194
336.1051	0.1205
336.3152	0.1222
336.5252	0.1262
336.7352	0.1277
336.9452	0.1311
337.1552	0.1269
337.3652	0.0916
337.5751	0.115
337.7851	0.1139
337.995	0.1155
338.2049	0.1301
338.4148	0.1242
338.6247	0.1277
338.8346	0.1032
339.0445	0.1192
339.2543	0.1094
339.4642	0.1185
339.674	0.1288
339.8838	0.1134
340.0936	0.1329
340.3034	0.1248
340.5132	0.1343
340.7229	0.1312
340.9327	0.1178
341.1424	0.1243
341.3522	0.1224
341.5619	0.1312
341.7716	0.1329
341.9813	0.1261
342.1909	0.1154
342.4006	0.1475
342.6102	0.1292
342.8199	0.1248
343.0295	0.1243
343.2391	0.1393
343.4487	0.1435
343.6583	0.1218
343.8679	0.1347
344.0774	0.1425
344.287	0.1418
344.4965	0.1332
344.706	0.1447
344.9155	0.1224
345.125	0.1234
345.3345	0.1426
345.544	0.1311
345.7534	0.1406
345.9629	0.118
346.1723	0.1295
346.3817	0.1265
346.5911	0.1415
346.8005	0.1381
347.0099	0.1295
347.2193	0.1348
347.4286	0.1316
347.638	0.1528
347.8473	0.1317
348.0566	0.1436
348.2659	0.1315
348.4752	0.1484
348.6845	0.1286
348.8937	0.1331
349.103	0.1434
349.3122	0.1254
349.5214	0.1354
349.7306	0.142
349.9398	0.1354
350.149	0.1523
350.3582	0.128
350.5674	0.1516
350.7765	0.1468
350.9856	0.1298
351.1948	0.1405
351.4039	0.1192
351.613	0.1158
351.822	0.147
352.0311	0.1434
352.2402	0.1533
352.4492	0.1481
352.6582	0.1612
352.8672	0.1466
353.0762	0.1473
353.2852	0.1498
353.4942	0.1394
353.7032	0.1518
353.9121	0.1461
354.1211	0.154
354.33	0.1454
354.5389	0.1579
354.7478	0.1507
354.9567	0.147
355.1655	0.1507
355.3744	0.1562
355.5833	0.1556
355.7921	0.1654
356.0009	0.1652
356.2097	0.1541
356.4185	0.1689
356.6273	0.152
356.8361	0.1541
357.0448	0.1453
357.2536	0.1374
357.4623	0.1569
357.671	0.155
357.8797	0.1684
358.0884	0.1625
358.2971	0.1722
358.5057	0.1649
358.7144	0.1588
358.923	0.1557
359.1316	0.1693
359.3402	0.1797
359.5488	0.1764
359.7574	0.1616
359.966	0.1674
360.1746	0.1591
360.3831	0.1711
360.5916	0.1736
360.8002	0.1544
361.0087	0.1765
361.2172	0.1575
361.4256	0.1644
361.6341	0.1825
361.8426	0.1841
362.051	0.178
362.2594	0.1769
362.4678	0.1699
362.6762	0.187
362.8846	0.1792
363.093	0.1795
363.3014	0.1813
363.5097	0.1739
363.718	0.1764
363.9264	0.1874
364.1347	0.1685
364.343	0.1866
364.5513	0.1767
364.7595	0.2032
364.9678	0.1839
365.176	0.194
365.3842	0.1779
365.5925	0.18
365.8007	0.184
366.0089	0.1874
366.217	0.1806
366.4252	0.185
366.6333	0.2015
366.8415	0.1854
367.0496	0.1699
367.2577	0.1904
367.4658	0.2095
367.6739	0.2008
367.882	0.192
368.09	0.1786
368.2981	0.1926
368.5061	0.1896
368.7141	0.1931
368.9221	0.2104
369.1301	0.2145
369.3381	0.1957
369.5461	0.1861
369.754	0.1887
369.962	0.2037
370.1699	0.2006
370.3778	0.1931
370.5857	0.1917
370.7936	0.2169
371.0015	0.1892
371.2093	0.21
371.4172	0.2137
371.625	0.1892
371.8328	0.2084
372.0406	0.2003
372.2484	0.2029
372.4562	0.2099
372.664	0.2024
372.8717	0.2049
373.0795	0.176
373.2872	0.2148
373.4949	0.2007
373.7026	0.2005
373.9103	0.2072
374.118	0.208
374.3256	0.2088
374.5333	0.2019
374.7409	0.2022
374.9485	0.2083
375.1561	0.203
375.3637	0.2
375.5713	0.198
375.7789	0.2076
375.9864	0.2078
376.194	0.1917
376.4015	0.2302
376.609	0.2265
376.8165	0.1984
377.024	0.215
377.2315	0.2098
377.4389	0.2108
377.6464	0.2222
377.8538	0.2163
378.0612	0.2304
378.2686	0.2237
378.476	0.2268
378.6834	0.2179
378.8908	0.2164
379.0981	0.2282
379.3055	0.2191
379.5128	0.1971
379.7201	0.2164
379.9274	0.2218
380.1347	0.2248
380.342	0.2338
380.5492	0.2084
380.7565	0.222
380.9637	0.2157
381.1709	0.2266
381.3781	0.2243
381.5853	0.2131
381.7925	0.2071
381.9997	0.2264
382.2068	0.2306
382.4139	0.2279
382.6211	0.2286
382.8282	0.2321
383.0353	0.2348
383.2424	0.2306
383.4494	0.2384
383.6565	0.2281
383.8635	0.2178
384.0706	0.2214
384.2776	0.2298
384.4846	0.2185
384.6916	0.2227
384.8986	0.2179
385.1055	0.2307
385.3125	0.2409
385.5194	0.2098
385.7263	0.2178
385.9333	0.2342
386.1402	0.2251
386.347	0.2174
386.5539	0.2171
386.7608	0.2249
386.9676	0.2109
387.1744	0.2275
387.3813	0.2153
387.5881	0.2339
387.7948	0.2183
388.0016	0.2295
388.2084	0.2261
388.4151	0.2115
388.6219	0.2124
388.8286	0.2236
389.0353	0.2276
389.242	0.22
389.4487	0.2115
389.6553	0.2182
389.862	0.1917
390.0686	0.2019
390.2753	0.2077
390.4819	0.2097
390.6885	0.209
390.8951	0.2243
391.1016	0.2135
391.3082	0.2364
391.5147	0.2136
391.7213	0.2106
391.9278	0.2134
392.1343	0.1973
392.3408	0.2034
392.5473	0.2079
392.7537	0.204
392.9602	0.1995
393.1666	0.1904
393.373	0.1977
393.5794	0.1995
393.7858	0.1889
393.9922	0.186
394.1986	0.1907
394.4049	0.2005
394.6113	0.193
394.8176	0.1908
395.0239	0.1935
395.2302	0.1855
395.4365	0.1901
395.6428	0.189
395.8491	0.1827
396.0553	0.1937
396.2615	0.1938
396.4678	0.1809
396.674	0.1682
396.8802	0.1922
397.0863	0.2011
397.2925	0.1829
397.4987	0.1785
397.7048	0.1859
397.9109	0.1807
398.117	0.1742
398.3231	0.1868
398.5292	0.1746
398.7353	0.1889
398.9413	0.1847
399.1474	0.1807
399.3534	0.1715
399.5594	0.1543
399.7654	0.1858
399.9714	0.184
400.1774	0.1819
400.3833	0.1931
400.5893	0.1859
400.7952	0.1824
401.0011	0.1843
401.207	0.1897
401.4129	0.1706
401.6188	0.192
401.8247	0.1815
402.0305	0.1845
402.2364	0.1723
402.4422	0.2082
402.648	0.1981
402.8538	0.1926
403.0596	0.1697
403.2654	0.1962
403.4711	0.1704
403.6768	0.204
403.8826	0.1901
404.0883	0.2077
404.294	0.1918
404.4997	0.1998
404.7054	0.186
404.911	0.1788
405.1167	0.189
405.3223	0.2185
405.5279	0.1916
405.7335	0.1903
405.9391	0.1903
406.1447	0.1687
406.3502	0.189
406.5558	0.1942
406.7613	0.1944
406.9668	0.1643
407.1724	0.1733
407.3778	0.1789
407.5833	0.1898
407.7888	0.1631
407.9942	0.1961
408.1997	0.1778
408.4051	0.165
408.6105	0.1811
408.8159	0.1722
409.0213	0.1784
409.2267	0.1784
409.432	0.1648
409.6374	0.1791
409.8427	0.1838
410.048	0.1728
410.2533	0.1705
410.4586	0.1794
410.6639	0.1676
410.8691	0.1582
411.0744	0.1786
411.2796	0.1641
411.4848	0.1707
411.69	0.169
411.8952	0.1982
412.1004	0.1751
412.3056	0.1742
412.5107	0.16
412.7158	0.1936
412.921	0.1889
413.1261	0.174
413.3312	0.1639
413.5362	0.1727
413.7413	0.1649
413.9464	0.1775
414.1514	0.1772
414.3564	0.1885
414.5614	0.1517
414.7664	0.1821
414.9714	0.1776
415.1764	0.1651
415.3813	0.175
415.5863	0.1842
415.7912	0.165
415.9961	0.1792
416.201	0.1617
416.4059	0.1654
416.6108	0.1662
416.8156	0.1577
417.0205	0.1635
417.2253	0.1703
417.4301	0.1776
417.6349	0.1597
417.8397	0.1552
418.0445	0.1775
418.2492	0.1667
418.454	0.1716
418.6587	0.1616
418.8634	0.1731
419.0681	0.157
419.2728	0.157
419.4775	0.1673
419.6822	0.1513
419.8868	0.1443
420.0915	0.1672
420.2961	0.1419
420.5007	0.1538
420.7053	0.1527
420.9099	0.1686
421.1144	0.1609
421.319	0.1539
421.5235	0.1695
421.728	0.1704
421.9325	0.1549
422.137	0.1712
422.3415	0.1507
422.546	0.1674
422.7504	0.1688
422.9549	0.1657
423.1593	0.1492
423.3637	0.1712
423.5681	0.1539
423.7725	0.1497
423.9769	0.1542
424.1812	0.1452
424.3856	0.1392
424.5899	0.1557
424.7942	0.1391
424.9985	0.1491
425.2028	0.1413
425.4071	0.1661
425.6113	0.1377
425.8156	0.1496
426.0198	0.1395
426.224	0.1395
426.4282	0.1388
426.6324	0.1345
426.8366	0.1166
427.0407	0.1356
427.2449	0.139
427.449	0.1469
427.6531	0.1208
427.8572	0.1302
428.0613	0.1437
428.2654	0.132
428.4694	0.1287
428.6735	0.1334
428.8775	0.1364
429.0815	0.1376
429.2855	0.1258
429.4895	0.1367
429.6935	0.1379
429.8975	0.1276
430.1014	0.1192
430.3053	0.1099
430.5093	0.1343
430.7132	0.1162
430.9171	0.1229
431.1209	0.1231
431.3248	0.1152
431.5286	0.1222
431.7325	0.1143
431.9363	0.1232
432.1401	0.1239
432.3439	0.1073
432.5477	0.1005
432.7514	0.102
432.9552	0.1196
433.1589	0.0982
433.3627	0.0898
433.5664	0.0902
433.7701	0.088
433.9737	0.0881
434.1774	0.0835
434.3811	0.1029
434.5847	0.1059
434.7883	0.0945
434.9919	0.0847
435.1955	0.0977
435.3991	0.1052
435.6027	0.0837
435.8062	0.0748
436.0098	0.0833
436.2133	0.0906
436.4168	0.0892
436.6203	0.0675
436.8238	0.0744
437.0272	0.092
437.2307	0.0727
437.4341	0.0841
437.6375	0.0895
437.841	0.074
438.0443	0.0853
438.2477	0.0734
438.4511	0.0684
438.6545	0.0757
438.8578	0.0852
439.0611	0.0605
439.2644	0.0615
439.4677	0.0568
439.671	0.0645
439.8743	0.0835
440.0775	0.0749
440.2808	0.0463
440.484	0.0485
440.6872	0.0309
440.8904	0.0587
441.0936	0.0714
441.2967	0.0691
441.4999	0.0539
441.703	0.056
441.9062	0.0499
442.1093	0.0569
442.3124	0.0537
442.5155	0.0264
442.7185	0.0583
442.9216	0.0286
443.1246	0.0584
443.3276	0.0479
443.5307	0.046
443.7337	0.0437
443.9366	0.0407
444.1396	0.0442
444.3426	0.0412
444.5455	0.0359
444.7484	0.0418
444.9513	0.0382
445.1542	0.0379
445.3571	0.0342
445.56	0.0409
445.7628	0.0211
445.9657	0.0338
446.1685	0.0443
446.3713	0.032
446.5741	0.0361
446.7769	0.0157
446.9797	0.0327
447.1824	0.0319
447.3852	0.0181
447.5879	0.0293
447.7906	0.043
447.9933	0.0256
448.196	0.0321
448.3986	0.0278
448.6013	0.0175
448.8039	0.0085
449.0066	0.0225
449.2092	0.0297
449.4118	0.0263
449.6143	0.028
449.8169	0.0216
450.0195	0.0209
450.222	0.0061
450.4245	0.0251
450.627	0.0314
450.8295	0.0174
451.032	0.0035
451.2345	0.0144
451.4369	0.0341
451.6394	0.011
451.8418	-0.0016
452.0442	0.0184
452.2466	0.0351
452.449	0
452.6513	0.0133
452.8537	0.0185
453.056	0.0007
453.2583	0.0156
453.4607	0.0088
453.663	0.02
453.8652	0.0184
454.0675	-0.0082
454.2697	0.0262
454.472	-0.0046
454.6742	0.0102
454.8764	0.0124
455.0786	0.0055
455.2808	0.0028
455.4829	0.0092
455.6851	0.0129
455.8872	0.0162
456.0893	0.0125
456.2915	-0.0093
456.4935	0.008
456.6956	-0.005
456.8977	0.0139
457.0997	-0.0029
457.3018	-0.0136
457.5038	0.0186
457.7058	-0.0156
457.9078	-0.0038
458.1098	0.0035
458.3117	0.003
458.5137	0.002
458.7156	0.0146
458.9175	-0.0074
459.1194	0.0029
459.3213	-0.0077
459.5232	0.0092
459.725	-0.0128
459.9269	-0.0013
460.1287	-0.0064
460.3305	-0.0049
460.5323	0.0013
460.7341	-0.0102
460.9359	0.0019
461.1376	0.0134
461.3394	-0.0133
461.5411	0.0061
461.7428	-0.0085
461.9445	0.0046
462.1462	0.0212
462.3479	-0.0102
462.5495	-0.0012
462.7512	0.0023
462.9528	-0.0009
463.1544	-0.0259
463.356	-0.002
463.5576	0.0098
463.7592	-0.0003
463.9607	-0.0073
464.1623	0.012
464.3638	0.019
464.5653	-0.0088
464.7668	-0.0061
464.9683	0.0118
465.1697	0.0147
465.3712	-0.015
465.5726	-0.0192
465.7741	-0.0091
465.9755	-0.0081
466.1769	0.0029
466.3782	-0.0056
466.5796	-0.0087
466.7809	0.0078
466.9823	-0.0186
467.1836	0.0043
467.3849	-0.0164
467.5862	0.0051
467.7875	-0.0026
467.9887	0.0022
468.19	-0.0091
468.3912	-0.0035
468.5924	-0.0061
468.7936	-0.0002
468.9948	0.0082
469.196	-0.0101
469.3972	-0.0153
469.5983	0.0056
469.7994	-0.0173
470.0006	-0.0079
470.2017	-0.01
470.4027	-0.0155
470.6038	0.0145
470.8049	-0.0295
471.0059	-0.0089
471.2069	-0.0385
471.408	-0.0042
471.6089	-0.0006
471.8099	-0.0119
472.0109	-0.0062
472.2119	-0.0166
472.4128	-0.0186
472.6137	-0.0051
472.8146	-0.0125
473.0155	-0.0179
473.2164	-0.0031
473.4173	0.0083
473.6181	0.0012
473.819	-0.0007
474.0198	-0.0095
474.2206	-0.0053
474.4214	-0.0041
474.6222	-0.0051
474.8229	-0.0129
475.0237	-0.0189
475.2244	-0.0015
475.4251	-0.005
475.6258	-0.0008
475.8265	-0.0034
476.0272	0.0181
476.2278	0.0008
476.4285	-0.0054
476.6291	0.0041
476.8297	-0.0095
477.0303	-0.0137
477.2309	-0.016
477.4315	-0.025
477.632	-0.0043
477.8326	-0.0062
478.0331	0.0006
478.2336	0.002
478.4341	-0.0152
478.6346	-0.0059
478.8351	-0.0104
479.0355	-0.0099
479.236	-0.0135
479.4364	-0.0055
479.6368	-0.0056
479.8372	-0.0093
480.0376	0.0009
480.2379	-0.0333
480.4383	-0.0104
480.6386	-0.006
480.8389	-0.0086
481.0392	-0.0099
481.2395	-0.0145
481.4398	0.0038
481.6401	-0.0075
481.8403	-0.0059
482.0405	-0.0173
482.2408	-0.003
482.441	-0.006
482.6411	-0.0156
482.8413	-0.0128
483.0415	-0.0148
483.2416	-0.0113
483.4417	-0.0116
483.6419	-0.0148
483.8419	-0.0102
484.042	0.0146
484.2421	-0.0035
484.4422	-0.0093
484.6422	-0.0133
484.8422	-0.0111
485.0422	-0.0152
485.2422	0.0025
485.4422	-0.0223
485.6422	-0.0193
485.8421	-0.0073
486.042	-0.003
486.242	0.0002
486.4419	-0.0106
486.6417	-0.0135
486.8416	-0.0135
487.0415	-0.0043
487.2413	-0.0099
487.4411	-0.009
487.641	-0.0137
487.8408	-0.0046
488.0405	-0.0076
488.2403	-0.0175
488.4401	0.0032
488.6398	-0.0064
488.8395	-0.0096
489.0392	-0.0032
489.2389	-0.0081
489.4386	-0.0055
489.6383	-0.0126
489.8379	-0.0074
490.0376	-0.0075
490.2372	-0.0129
490.4368	-0.0084
490.6364	-0.01
490.836	-0.0137
491.0355	-0.0076
491.2351	-0.0149
491.4346	-0.0038
491.6341	-0.0185
491.8336	-0.0059
492.0331	-0.0213
492.2326	-0.0217
492.432	-0.012
492.6315	-0.0105
492.8309	-0.0191
493.0303	-0.0215
493.2297	-0.0121
493.4291	-0.0039
493.6284	-0.0164
493.8278	-0.0107
494.0271	-0.0163
494.2264	-0.0015
494.4257	-0.016
494.625	-0.0092
494.8243	-0.0208
495.0236	-0.0183
495.2228	-0.0206
495.422	-0.0083
495.6213	-0.009
495.8205	-0.0091
496.0196	-0.0077
496.2188	0.0053
496.418	-0.0152
496.6171	-0.0088
496.8162	-0.0073
497.0153	-0.0073
497.2144	-0.0142
497.4135	-0.0008
497.6126	-0.0108
497.8116	-0.0144
498.0107	-0.0108
498.2097	-0.0148
498.4087	-0.011
498.6077	-0.0008
498.8067	-0.0136
499.0056	-0.0137
499.2046	-0.0046
499.4035	-0.0159
499.6024	-0.0098
499.8013	-0.0026
500.0002	-0.0181
500.199	-0.0098
500.3979	-0.0164
500.5967	-0.0285
500.7956	-0.0138
500.9944	-0.0133
501.1932	-0.0126
501.3919	-0.0098
501.5907	-0.0263
501.7895	-0.0021
501.9882	-0.0161
502.1869	-0.0093
502.3856	-0.0076
502.5843	-0.0137
502.783	-0.0132
502.9816	-0.0106
503.1803	-0.0218
503.3789	-0.0223
503.5775	-0.0104
503.7761	-0.014
503.9747	-0.0049
504.1732	-0.0129
504.3718	-0.0074
504.5703	-0.0069
504.7689	-0.0074
504.9674	-0.0034
505.1658	-0.0246
505.3643	-0.0105
505.5628	-0.014
505.7612	-0.0198
505.9597	-0.0071
506.1581	-0.0125
506.3565	0.0057
506.5549	-0.016
506.7532	-0.0219
506.9516	-0.0114
507.1499	-0.0114
507.3482	-0.0162
507.5465	-0.0186
507.7448	-0.0101
507.9431	-0.0066
508.1414	-0.009
508.3396	-0.0155
508.5379	-0.0128
508.7361	-0.014
508.9343	-0.0106
509.1325	-0.0039
509.3306	-0.0072
509.5288	-0.0098
509.7269	-0.0105
509.9251	-0.0082
510.1232	-0.0138
510.3213	-0.0112
510.5193	-0.0002
510.7174	-0.0221
510.9154	-0.0147
511.1135	-0.0261
511.3115	-0.0169
511.5095	-0.003
511.7075	-0.0092
511.9055	-0.0095
512.1034	-0.0065
512.3014	-0.0061
512.4993	0.0009
512.6972	-0.0101
512.8951	-0.0193
513.093	-0.0005
513.2908	0.0005
513.4887	-0.0076
513.6865	-0.0097
513.8844	-0.0095
514.0822	-0.0116
514.2799	-0.013
514.4777	-0.0166
514.6755	-0.0219
514.8732	-0.0055
515.0709	-0.014
515.2687	-0.0132
515.4664	-0.0054
515.664	-0.0109
515.8617	-0.0092
516.0594	-0.0272
516.257	-0.0089
516.4546	-0.0212
516.6522	-0.0072
516.8498	-0.0075
517.0474	-0.0053
517.2449	0.0002
517.4425	-0.0184
517.64	-0.0144
517.8375	-0.004
518.035	-0.008
518.2325	-0.0117
518.43	-0.0127
518.6274	-0.0103
518.8249	-0.0172
519.0223	-0.0043
519.2197	-0.0148
519.4171	-0.019
519.6145	-0.0179
519.8118	-0.006
520.0092	-0.0131
520.2065	-0.0184
520.4038	-0.0159
520.6011	-0.0106
520.7984	-0.0126
520.9956	-0.0113
521.1929	-0.0232
521.3901	-0.0038
521.5874	-0.0029
521.7846	-0.0101
521.9818	-0.0163
522.1789	-0.013
522.3761	-0.018
522.5732	-0.0092
522.7704	-0.013
522.9675	-0.012
523.1646	-0.0206
523.3617	-0.0132
523.5587	-0.0176
523.7558	-0.0072
523.9528	-0.0144
524.1498	-0.0076
524.3468	-0.0144
524.5438	-0.0234
524.7408	-0.0179
524.9378	0.0028
525.1347	-0.0004
525.3316	-0.0097
525.5285	-0.0254
525.7254	-0.0135
525.9223	-0.0066
526.1192	-0.002
526.316	-0.0217
526.5129	-0.0054
526.7097	-0.0042
526.9065	-0.0087
527.1033	-0.0209
527.3	-0.0037
527.4968	-0.0041
527.6935	-0.0126
527.8903	-0.0107
528.087	-0.0176
528.2837	-0.0143
528.4804	-0.0011
528.677	-0.0094
528.8737	-0.0052
529.0703	-0.0101
529.2669	-0.0129
529.4635	-0.0123
529.6601	-0.012
529.8567	-0.0112
530.0532	-0.0085
530.2498	0.0004
530.4463	-0.006
530.6428	-0.0193
530.8393	0.0011
531.0358	-0.0105
531.2322	-0.0049
531.4287	-0.0059
531.6251	-0.0146
531.8215	-0.001
532.0179	0.001
532.2143	-0.0094
532.4107	-0.0051
532.607	-0.0031
532.8034	-0.0007
532.9997	-0.0098
533.196	-0.0066
533.3923	-0.011
533.5886	-0.0066
533.7848	-0.0057
533.9811	-0.0099
534.1773	-0.0067
534.3735	0.001
534.5697	-0.0064
534.7659	-0.0097
534.9621	-0.0071
535.1582	-0.0105
535.3544	-0.0017
535.5505	-0.0154
535.7466	-0.0099
535.9427	-0.0083
536.1387	-0.0075
536.3348	-0.0155
536.5308	-0.0053
536.7269	-0.0171
536.9229	-0.0063
537.1189	-0.0135
537.3148	-0.0117
537.5108	-0.018
537.7068	-0.0029
537.9027	-0.0103
538.0986	-0.0166
538.2945	-0.0113
538.4904	-0.0046
538.6863	-0.0071
538.8821	0.0045
539.078	-0.0137
539.2738	-0.0062
539.4696	-0.0043
539.6654	-0.0053
539.8611	-0.0035
540.0569	-0.0089
540.2526	-0.0047
540.4484	-0.005
540.6441	-0.0022
540.8398	-0.0104
541.0355	-0.0043
541.2311	-0.0043
541.4268	-0.0068
541.6224	-0.0052
541.818	-0.0093
542.0136	-0.0107
542.2092	-0.0078
542.4048	-0.0002
542.6003	0.0017
542.7959	-0.0117
542.9914	-0.0066
543.1869	-0.0017
543.3824	-0.0054
543.5779	-0.0046
543.7734	-0.0039
543.9688	-0.0155
544.1642	-0.0024
544.3596	-0.0057
544.555	-0.0097
544.7504	-0.0012
544.9458	-0.0056
545.1411	-0.0061
545.3365	-0.0062
545.5318	-0.0171
545.7271	-0.0107
545.9224	-0.014
546.1177	-0.0095
546.3129	0.0073
546.5081	-0.0031
546.7034	-0.0088
546.8986	-0.0045
547.0938	-0.0041
547.289	-0.0056
547.4841	0.0004
547.6793	0.006
547.8744	-0.0117
548.0695	-0.004
548.2646	-0.0099
548.4597	-0.0001
548.6548	-0.0045
548.8498	-0.0119
549.0448	0.0021
549.2399	-0.0018
549.4349	0.0019
549.6298	-0.0051
549.8248	-0.0074
550.0198	-0.0028
550.2147	-0.0029
550.4096	-0.015
550.6045	-0.0042
550.7994	-0.0025
550.9943	-0.0014
551.1892	0.0022
551.384	-0.0063
551.5788	-0.0098
551.7737	-0.0044
551.9685	-0.0033
552.1632	-0.0026
552.358	-0.0064
552.5528	0.0014
552.7475	-0.0101
552.9422	-0.0007
553.1369	-0.0026
553.3316	0.0001
553.5263	-0.016
553.7209	0.0053
553.9156	-0.0117
554.1102	-0.0058
554.3048	-0.0109
554.4994	-0.0051
554.694	-0.009
554.8885	-0.001
555.0831	-0.01
555.2776	-0.0065
555.4721	-0.0066
555.6666	-0.0065
555.8611	0.0037
556.0555	0.0117
556.25	-0.0032
556.4444	-0.0141
556.6388	0.0073
556.8332	-0.0088
557.0276	-0.0052
557.222	-0.0115
557.4163	-0.0047
557.6107	-0.0091
557.805	0.0048
557.9993	-0.0107
558.1936	-0.0041
558.3879	0.0005
558.5821	-0.0039
558.7764	-0.004
558.9706	-0.0114
559.1648	-0.0041
559.359	-0.011
559.5532	-0.0088
559.7473	0.0006
559.9415	0.0001
560.1356	-0.0073
560.3297	-0.009
560.5238	-0.0134
560.7179	-0.0035
560.9119	-0.0003
561.106	-0.0018
561.3	-0.003
561.494	-0.0036
561.688	-0.0132
561.882	-0.0053
562.076	-0.0074
562.2699	0.0012
562.4639	-0.0051
562.6578	-0.0027
562.8517	-0.0052
563.0456	0.002
563.2395	0.0019
563.4333	-0.0011
563.6272	0.0023
563.821	-0.0071
564.0148	-0.0072
564.2086	-0.0142
564.4024	-0.0058
564.5961	-0.0075
564.7899	-0.0062
564.9836	-0.0142
565.1773	-0.0114
565.371	0.0063
565.5647	-0.0013
565.7584	-0.0003
565.952	-0.002
566.1456	-0.0031
566.3393	-0.0066
566.5329	-0.0018
566.7264	-0.012
566.92	0.0009
567.1136	-0.0056
567.3071	-0.0134
567.5006	0.0066
567.6941	0.0023
567.8876	-0.0095
568.0811	-0.0085
568.2745	-0.0094
568.468	0.004
568.6614	-0.0045
568.8548	-0.0021
569.0482	0.001
569.2416	0.0012
569.4349	0.0016
569.6283	-0.0026
569.8216	-0.0061
570.0149	-0.0015
570.2082	0.0002
570.4015	0.0012
570.5947	0.0054
570.788	0.0019
570.9812	0.0028
571.1744	-0.0008
571.3676	-0.0084
571.5608	-0.0055
571.754	-0.0029
571.9471	0.0005
572.1402	-0.0017
572.3333	-0.0007
572.5264	0.0002
572.7195	-0.0016
572.9126	0.0004
573.1057	0.0026
573.2987	-0.0067
573.4917	0.0051
573.6847	-0.0123
573.8777	0.009
574.0707	0.007
574.2636	-0.0041
574.4566	-0.0005
574.6495	0.0012
574.8424	-0.0026
575.0353	-0.0061
575.2281	0.0116
575.421	0.0004
575.6138	0.0046
575.8067	-0.0009
575.9995	0.0004
576.1923	0.002
576.385	0.0014
576.5778	-0.0075
576.7706	-0.0061
576.9633	0.0014
577.156	0.0008
577.3487	-0.0002
577.5414	0.0032
577.734	-0.0038
577.9267	0.0033
578.1193	-0.0078
578.3119	-0.0074
578.5045	-0.0027
578.6971	-0.0002
578.8897	0.0059
579.0822	0.0009
579.2747	-0.0066
579.4673	0.0059
579.6598	-0.0056
579.8522	-0.0004
580.0447	0.0007
580.2372	-0.0088
580.4296	0.0027
580.622	-0.0051
580.8144	-0.0049
581.0068	-0.0056
581.1992	-0.0164
581.3915	-0.0145
581.5839	-0.0079
581.7762	-0.009
581.9685	0.0031
582.1608	0.0051
582.353	0.0006
582.5453	-0.0012
582.7375	0.0042
582.9298	0.0017
583.122	-0.0031
583.3142	0.0021
583.5063	0.0015
583.6985	0.002
583.8906	-0.005
584.0827	-0.0017
584.2749	0.0011
584.4669	0.0018
584.659	-0.0021
584.8511	-0.0046
585.0431	-0.0076
585.2352	-0.001
585.4272	-0.003
585.6192	-0.0014
585.8111	0.0019
586.0031	0.0011
586.195	-0.0039
586.387	0.0108
586.5789	0.0003
586.7708	-0.0098
586.9627	0.0011
587.1545	-0.0034
587.3464	0.0037
587.5382	-0.0012
587.73	0.0009
587.9218	0.0059
588.1136	-0.0024
588.3053	-0.0008
588.4971	-0.0057
588.6888	-0.0149
588.8805	-0.004
589.0722	0.0053
589.2639	-0.0054
589.4556	0.0068
589.6472	0.0012
589.8389	-0.0097
590.0305	-0.0053
590.2221	0.0008
590.4137	-0.0074
590.6052	0.0026
590.7968	-0.0024
590.9883	0.0003
591.1798	-0.009
591.3713	0.0012
591.5628	0.0026
591.7543	-0.001
591.9458	0.0024
592.1372	0.0029
592.3286	0.0047
592.52	0.0069
592.7114	-0.0035
592.9028	0
593.0941	-0.0034
593.2855	-0.0038
593.4768	-0.0089
593.6681	-0.0028
593.8594	-0.0047
594.0506	0.0014
594.2419	0.0054
594.4331	0.0055
594.6244	0.0088
594.8156	-0.0046
595.0067	0.0011
595.1979	0.0006
595.3891	0.0076
595.5802	0.0003
595.7713	0.0039
595.9624	0.0018
596.1535	0.0006
596.3446	0.0022
596.5357	0.0038
596.7267	0.0084
596.9177	0.0012
597.1087	-0.0107
597.2997	-0.0075
597.4907	0.0063
597.6817	-0.003
597.8726	-0.0034
598.0635	0.0006
598.2544	-0.0024
598.4453	-0.0021
598.6362	-0.0064
598.827	-0.0039
599.0179	0.0018
599.2087	0.0025
599.3995	-0.0022
599.5903	0.0012
599.7811	0.0008
599.9718	-0.0009
600.1626	-0.0006
600.3533	-0.0066
600.544	0.0036
600.7347	-0.0047
600.9254	0.0022
601.116	-0.0052
601.3067	-0.0088
601.4973	0.0012
601.6879	0.0042
601.8785	-0.0026
602.0691	0.0059
602.2596	-0.0051
602.4502	0.0013
602.6407	0.0033
602.8312	-0.0013
603.0217	-0.015
603.2122	-0.0027
603.4027	-0.0004
603.5931	-0.0028
603.7835	-0.0003
603.9739	-0.0044
604.1643	0.0011
604.3547	-0.0051
604.5451	-0.0017
604.7354	-0.0041
604.9257	0.0009
605.116	-0.0056
605.3063	0.0049
605.4966	0.0017
605.6869	-0.0015
605.8771	0.0011
606.0673	0.0027
606.2575	0.0053
606.4477	0.0045
606.6379	-0.0002
606.8281	-0.0022
607.0182	0.0019
607.2083	0.0077
607.3985	-0.0011
607.5885	0.0042
607.7786	-0.0005
607.9687	-0.0065
608.1587	0.0058
608.3488	-0.0042
608.5388	0.0039
608.7288	0.001
608.9187	-0
609.1087	-0.002
609.2986	-0.0039
609.4886	-0.0055
609.6785	-0.0001
609.8684	0.0013
610.0582	0.0035
610.2481	-0.0012
610.4379	0.0005
610.6278	-0.0022
610.8176	-0.0033
611.0074	0.0028
611.1971	-0.0021
611.3869	-0.0002
611.5766	-0.0031
611.7664	0.004
611.9561	0.0075
612.1458	-0.0002
612.3354	0.0012
612.5251	0.0041
612.7147	0.0029
612.9044	0.0003
613.094	-0.0087
613.2836	0.0005
613.4731	-0.0065
613.6627	-0.0055
613.8522	-0.0024
614.0417	0.0011
614.2313	-0.0063
614.4207	-0.0084
614.6102	0.0011
614.7997	-0.0009
614.9891	-0.0015
615.1785	-0.0028
615.3679	-0.0133
615.5573	0.0117
615.7467	-0.001
615.9361	-0.0037
616.1254	-0.0038
616.3147	0.0032
616.504	-0.0058
616.6933	0.0031
616.8826	0.0011
617.0718	0.0041
617.2611	-0.0036
617.4503	0.0018
617.6395	-0.0087
617.8287	-0.006
618.0179	-0.0087
618.207	0.006
618.3961	0.0008
618.5853	0.0053
618.7744	0.0024
618.9634	0.0052
619.1525	0.002
619.3416	0.0058
619.5306	0.0069
619.7196	0.0034
619.9086	-0.0064
620.0976	0.0011
620.2866	0.0041
620.4755	0.0079
620.6645	0.0069
620.8534	0.0054
621.0423	-0.0019
621.2312	0.0018
621.42	-0.0009
621.6089	0.0015
621.7977	0.0106
621.9865	-0.0011
622.1753	-0.0023
622.3641	-0.0034
622.5529	0.001
622.7416	0.0054
622.9303	-0.003
623.1191	0.0057
623.3078	-0.0027
623.4964	0.0019
623.6851	0.0005
623.8737	0.0006
624.0624	0.0027
624.251	0.0027
624.4396	-0.0013
624.6282	-0.0065
624.8167	-0.0064
625.0053	0.0027
625.1938	0.0027
625.3823	0.0076
625.5708	-0.0039
625.7593	-0.0052
625.9477	-0.001
626.1362	-0.001
626.3246	0.0029
626.513	0.0038
626.7014	0.0037
626.8898	-0.005
627.0781	-0.0022
627.2665	-0.0009
627.4548	0.0051
627.6431	0.0007
627.8314	0.0031
628.0197	0.0078
628.2079	-0.0025
628.3962	0.0017
628.5844	0.009
628.7726	0.0041
628.9608	0.013
629.1489	0.0035
629.3371	0.0044
629.5252	-0.0028
629.7134	0.0083
629.9015	0.006
630.0895	-0.0005
630.2776	0.0075
630.4657	-0.0047
630.6537	0.0034
630.8417	0.0006
631.0297	-0.0038
631.2177	0.0002
631.4057	-0.0047
631.5936	0.0027
631.7815	0.0006
631.9695	0.0043
632.1574	0.0054
632.3452	0.0032
632.5331	-0.0004
632.7209	0.0025
632.9088	0.0098
633.0966	0.0065
633.2844	-0.0018
633.4722	0.0015
633.6599	0.0105
633.8477	0.0103
634.0354	0.0003
634.2231	-0.002
634.4108	0.0029
634.5985	0.002
634.7861	0.0003
634.9738	-0.0022
635.1614	0.002
635.349	0.0027
635.5366	-0.0017
635.7242	0.0029
635.9117	0.0113
636.0993	0.0034
636.2868	0.0068
636.4743	0.0016
636.6618	0.0162
636.8492	0.0043
637.0367	0.0071
637.2241	0.0002
637.4115	-0.0032
637.5989	-0.0072
637.7863	-0.003
637.9737	-0.0071
638.161	0.0036
638.3484	0.005
638.5357	0.0071
638.723	-0.0011
638.9103	-0.0002
639.0975	0.0081
639.2848	-0.0025
639.472	-0.0004
639.6592	0.0009
639.8464	0.0111
640.0336	0.0069
640.2208	0.0005
640.4079	0.0069
640.595	0.0015
640.7821	-0.0012
640.9692	-0.0028
641.1563	-0
641.3434	-0.0048
641.5304	-0.0019
641.7174	-0.0016
641.9044	0.0005
642.0914	-0.0002
642.2784	0.0002
642.4653	0.0053
642.6523	0.0016
642.8392	-0.006
643.0261	0.0023
643.213	0.0079
643.3999	-0.002
643.5867	-0.0056
643.7735	-0.0057
643.9604	-0.0089
644.1472	-0.0077
644.3339	0.0001
644.5207	-0.0018
644.7075	-0.0049
644.8942	0.0031
645.0809	0.0047
645.2676	0.0029
645.4543	-0.0017
645.6409	0.0016
645.8276	0.0002
646.0142	0.0003
646.2008	-0.0075
646.3874	-0.0068
646.574	0.0002
646.7605	-0.0045
646.9471	-0.0189
647.1336	0.0036
647.3201	0.0031
647.5066	-0.0028
647.6931	0.0035
647.8795	0.0002
648.0659	0.004
648.2524	0.0074
648.4388	-0.0089
648.6252	0.002
648.8115	-0.0009
648.9979	-0.0108
649.1842	-0.0012
649.3705	0.0059
649.5568	0.0123
649.7431	0.0057
649.9294	0.0011
650.1156	0.0027
650.3018	-0.0042
650.488	0.002
650.6742	0.0019
650.8604	-0.0022
651.0466	0.003
651.2327	-0.0022
651.4188	0.002
651.6049	0.0007
651.791	-0.0032
651.9771	0.0009
652.1632	0.0003
652.3492	-0.0013
652.5352	-0.0069
652.7212	-0.0111
652.9072	0.001
653.0932	-0.0008
653.2791	-0.0081
653.465	-0.0049
653.651	-0.0042
653.8369	-0.0087
654.0227	-0.0045
654.2086	-0.0035
654.3944	-0.0064
654.5803	-0.0015
654.7661	-0.007
654.9519	0.003
655.1377	-0.0034
655.3234	-0.0038
655.5092	-0.0087
655.6949	-0.0013
655.8806	-0.0026
656.0663	0.002
656.2519	-0.0028
656.4376	-0.0043
656.6232	-0.004
656.8088	-0.0021
656.9945	-0.0027
657.18	-0.0033
657.3656	0.0046
657.5511	-0.0124
657.7367	-0.0057
657.9222	0.0004
658.1077	-0.0067
658.2932	-0.0007
658.4786	-0.0089
658.6641	0.0007
658.8495	-0.0039
659.0349	-0.0088
659.2203	-0.0026
659.4057	0.0029
659.591	-0.0014
659.7764	-0.0025
659.9617	-0.0034
660.147	-0.0077
660.3323	-0.0021
660.5176	0.0087
660.7028	0.0023
660.888	0.003
661.0733	-0.0014
661.2585	0.0006
661.4436	-0.0029
661.6288	-0.0066
661.8139	-0.004
661.9991	0.0023
662.1842	-0.0027
662.3693	-0.0034
662.5544	-0.0033
662.7394	0.0038
662.9245	-0.0059
663.1095	-0.0039
663.2945	-0.0051
663.4795	-0.0027
663.6644	0.0057
663.8494	-0.0045
664.0343	0.0041
664.2193	-0.0119
664.4042	-0.0044
664.589	-0.0036
664.7739	-0.0001
664.9587	-0.0103
665.1436	-0.0035
665.3284	0.006
665.5132	-0.0061
665.698	0.0008
665.8827	0.002
666.0675	0.0001
666.2522	-0.0048
666.4369	0.0017
666.6216	0.0053
666.8063	-0.0017
666.9909	-0.0049
667.1756	-0.0064
667.3602	-0.001
667.5448	-0.0018
667.7294	0.0076
667.9139	0.0053
668.0985	0.0057
668.283	0.0013
668.4675	-0.0017
668.652	0.0025
668.8365	-0.0014
669.0209	0.0099
669.2054	0.0058
669.3898	-0.0009
669.5742	-0.0007
669.7586	0.0054
669.943	0.0049
670.1273	0.0055
670.3117	-0.0012
670.496	0.0084
670.6803	0.0131
670.8646	0.003
671.0488	-0.0021
671.2331	0.0129
671.4173	0.0067
671.6015	0.0034
671.7857	0.0091
671.9699	0.0032
672.1541	0.0067
672.3382	0.0003
672.5223	0.0103
672.7064	0.0053
672.8905	0.0097
673.0746	0.0005
673.2587	-0.0069
673.4427	0.0009
673.6267	0.0082
673.8107	0.0029
673.9947	0.0004
674.1787	0.0045
674.3626	-0.0049
674.5465	0.0084
674.7304	-0.0038
674.9143	-0.0023
675.0982	0.001
675.2821	-0.0137
675.4659	0.0087
675.6497	-0.0039
675.8335	-0.0014
676.0173	-0.0009
676.2011	-0.0029
676.3849	0.0001
676.5686	-0.0085
676.7523	-0.0027
676.936	-0.0011
677.1197	0
677.3034	-0.0035
677.487	0.0037
677.6706	-0.0002
677.8542	0.002
678.0378	0.0006
678.2214	0.0037
678.405	0.0033
678.5885	-0.0054
678.772	-0.0011
678.9555	-0.007
679.139	-0.0051
679.3225	0.0025
679.5059	-0.0076
679.6894	0.0079
679.8728	0.005
680.0562	-0.0065
680.2395	-0.0051
680.4229	-0.0036
680.6062	-0.0039
680.7896	0.0033
680.9729	-0.0051
681.1562	0.004
681.3394	0.0007
681.5227	-0.0102
681.7059	-0.0078
681.8891	-0.0046
682.0723	0.0056
682.2555	0.005
682.4387	-0.0056
682.6218	-0.0046
682.805	-0.0011
682.9881	0.0026
683.1712	-0.0055
683.3542	-0.0017
683.5373	0.0038
683.7203	-0.0046
683.9034	0.0051
684.0864	-0.0115
684.2694	-0.004
684.4523	0.0006
684.6353	-0.0043
684.8182	-0.0048
685.0011	-0.0073
685.184	0.001
685.3669	0.0018
685.5498	-0.0013
685.7326	0.0026
685.9154	-0.0089
686.0982	0.005
686.281	0.0064
686.4638	0.0035
686.6465	0.0106
686.8293	0.0002
687.012	0.0086
687.1947	-0.0104
687.3774	0.0067
687.56	-0.0009
687.7427	-0.0006
687.9253	-0.0031
688.1079	0.0026
688.2905	0.0039
688.4731	-0.0026
688.6556	-0.002
688.8382	-0.0066
689.0207	0.0038
689.2032	-0.007
689.3857	-0.0062
689.5681	-0.0013
689.7506	-0.0101
689.933	-0.0054
690.1154	0.0036
690.2978	-0.0032
690.4802	0.0004
690.6626	-0.0048
690.8449	-0.0028
691.0272	0.0021
691.2095	-0.0032
691.3918	-0.0104
691.5741	-0.002
691.7563	0.0017
691.9386	-0.0017
692.1208	-0.0027
692.303	0.0044
692.4852	0.0029
692.6673	-0.0014
692.8495	-0.0072
693.0316	0.0015
693.2137	0.01
693.3958	-0.0015
693.5778	0.0057
693.7599	0.0037
693.9419	-0.0036
694.1239	0.0004
694.3059	-0.0011
694.4879	0.0108
694.6699	0.0032
694.8518	0.0021
695.0337	-0.0023
695.2157	0.0019
695.3975	-0.0121
695.5794	-0.0014
695.7613	0.0036
695.9431	-0.0011
696.1249	-0
696.3067	0.0007
696.4885	0.0004
696.6703	-0.0067
696.852	0.0003
697.0337	0.0007
697.2154	-0.0038
697.3971	-0.005
697.5788	-0.0042
697.7605	0.0006
697.9421	0.0047
698.1237	-0.0038
698.3053	-0.007
698.4869	-0.0067
698.6685	-0.0136
698.85	-0.0051
699.0315	0.0086
699.213	-0.0016
699.3945	0.0006
699.576	0.0039
699.7575	-0.0056
699.9389	0.0123
700.1203	-0.0049
700.3017	-0.0003
700.4831	-0.0008
700.6645	-0.0008
700.8458	0.0124
701.0271	0.0028
701.2084	0.0053
701.3897	0.0003
701.571	0.0015
701.7523	-0.0061
701.9335	-0.0023
702.1147	-0.0042
702.2959	0.0024
702.4771	0.0001
702.6583	-0.0007
702.8394	-0.0044
703.0205	-0.0045
703.2016	-0.0053
703.3827	0.0038
703.5638	0.0131
703.7449	0.0045
703.9259	0.0031
704.1069	0.0001
704.2879	-0.0017
704.4689	0.01
704.6499	0.0006
704.8308	-0.0029
705.0117	0.0008
705.1927	0.0072
705.3735	-0.0031
705.5544	-0.0062
705.7353	0.0015
705.9161	-0.0052
706.0969	-0.0082
706.2777	0.0023
706.4585	-0.0037
706.6393	0.0017
706.82	-0.0049
707.0007	0.0073
707.1815	0.0079
707.3621	0.005
707.5428	0.0072
707.7235	0.0042
707.9041	0.008
708.0847	-0.0093
708.2653	-0.0017
708.4459	-0.0126
708.6265	0.0082
708.807	0.0004
708.9875	-0.006
709.168	-0.0004
709.3485	-0.0024
709.529	-0.0055
709.7095	-0.0156
709.8899	-0.0048
710.0703	-0.0134
710.2507	-0.0049
710.4311	-0.0054
710.6115	-0.0096
710.7918	-0.0087
710.9721	-0.0009
711.1524	-0.0149
711.3327	-0.0005
711.513	-0.0009
711.6932	-0.004
711.8735	0.0031
712.0537	-0.0094
712.2339	-0.0072
712.4141	-0.0037
712.5942	-0.0059
712.7744	-0.0062
712.9545	-0.011
713.1346	-0.0098
713.3147	-0.0047
713.4947	-0.0044
713.6748	-0.0054
713.8548	-0.0055
714.0348	0.0034
714.2148	-0.0047
714.3948	0.0026
714.5748	-0.0048
714.7547	0.0011
714.9346	-0.0012
715.1145	-0.0076
715.2944	-0.0063
715.4743	-0.0015
715.6541	-0.0009
715.834	-0.0001
716.0138	-0.0074
716.1936	-0.0122
716.3733	-0.0073
716.5531	0.0034
716.7328	-0.008
716.9126	-0.002
717.0923	0.0054
717.2719	-0.0048
717.4516	-0.0024
717.6312	0.0054
717.8109	-0.0021
717.9905	0.0003
718.1701	-0.0048
718.3496	-0.0037
718.5292	0.0006
718.7087	-0.0015
718.8882	0.0041
719.0677	0.0042
719.2472	-0.0042
719.4267	-0.0053
719.6061	0.0014
719.7856	-0.0034
719.965	-0.0001
720.1443	-0.0125
720.3237	0.0044
720.5031	0.0012
720.6824	0.0083
720.8617	-0.0044
721.041	-0.0017
721.2203	0.0078
721.3995	0.0075
721.5788	0.0081
721.758	0.0084
721.9372	-0.0027
722.1164	0.0075
722.2956	-0.0012
722.4747	0
722.6538	0.0023
722.8329	0.0165
723.012	0.008
723.1911	0.0078
723.3702	0.0059
723.5492	0.0011
723.7282	-0.0077
723.9072	-0.0006
724.0862	-0.0018
724.2652	-0.0001
724.4441	0.0025
724.623	-0.0076
724.8019	-0.0002
724.9808	-0.0004
725.1597	-0.0102
725.3385	0.0005
725.5174	0.0007
725.6962	-0.0009
725.875	-0.0052
726.0538	0.0076
726.2325	-0.0087
726.4112	0.001
726.59	-0.0049
726.7687	-0.0075
726.9474	0.0017
727.126	-0.0031
727.3047	-0.0175
727.4833	-0.0039
727.6619	-0.0105
727.8405	-0.0069
728.0191	-0.0139
728.1976	0.0003
728.3762	-0.0024
728.5547	0.0061
728.7332	-0.008
728.9116	-0.0044
729.0901	-0.0024
729.2686	-0.0101
729.447	-0.0011
729.6254	0.0018
729.8038	-0.0054
729.9821	-0.0113
730.1605	-0.006
730.3388	-0.0062
730.5171	0.0075
730.6954	-0.0109
730.8737	-0.0054
731.0519	0.0022
731.2302	0.0008
731.4084	-0.0009
731.5866	0.001
731.7648	0.0056
731.9429	0.0052
732.1211	-0.0102
732.2992	0.0008
732.4773	-0.0035
732.6554	0.0051
732.8335	0.0086
733.0115	0.0073
733.1896	0.0092
733.3676	-0.0006
733.5456	0.0026
733.7235	0.0098
733.9015	0.0002
734.0794	0.0029
734.2574	-0.0029
734.4353	0.0063
734.6131	0.0023
734.791	0.0048
734.9689	-0.0022
735.1467	-0.0001
735.3245	-0.0077
735.5023	-0.0082
735.68	-0.0103
735.8578	0.003
736.0355	-0.0112
736.2132	-0.0108
736.3909	-0.0045
736.5686	-0.0095
736.7463	0.0057
736.9239	-0.0022
737.1015	-0.0076
737.2791	-0.0001
737.4567	-0.0073
737.6343	-0.0072
737.8118	-0.0003
737.9894	-0.0053
738.1669	-0.0008
738.3444	-0.0069
738.5218	0.0038
738.6993	-0.002
738.8767	-0.0086
739.0541	0.0049
739.2315	-0.0124
739.4089	-0.0062
739.5863	0.0044
739.7636	-0.0039
739.9409	-0.0075
740.1182	0.0049
740.2955	0.0039
740.4728	-0.0059
740.65	-0.0049
740.8272	-0.006
741.0044	-0.0041
741.1816	0.0035
741.3588	-0.0097
741.5359	0.0002
741.7131	-0.0064
741.8902	-0.0022
742.0673	-0.0042
742.2444	-0.0082
742.4214	-0.009
742.5985	-0.0114
742.7755	-0.0055
742.9525	-0.026
743.1295	-0.0063
743.3064	-0.0113
743.4834	-0.0027
743.6603	-0.0085
743.8372	-0.0065
744.0141	-0.005
744.191	-0.0059
744.3678	0.0015
744.5446	-0.0035
744.7215	-0.0019
744.8982	-0.0015
745.075	-0.0053
745.2518	0.0053
745.4285	0.0007
745.6052	-0.0098
745.7819	0.0025
745.9586	0.0031
746.1353	0.0026
746.3119	-0.0024
746.4885	-0.0005
746.6651	-0.0063
746.8417	-0.0001
747.0183	-0.0025
747.1948	0.0067
747.3714	0.0034
747.5479	0.0006
747.7244	0.0002
747.9008	0.0026
748.0773	-0.0024
748.2537	-0.0075
748.4301	-0.0019
748.6065	0.002
748.7829	-0.0026
748.9593	-0.007
749.1356	0.0026
749.3119	0.0079
749.4882	-0.0028
749.6645	0.0022
749.8408	-0.005
750.017	-0.0068
750.1933	0.0112
750.3695	-0.0013
750.5457	0.0132
750.7218	0.0076
750.898	0.0108
751.0741	0.0004
751.2502	0.0007
751.4263	0.0066
751.6024	0.0029
751.7784	-0.0025
751.9545	-0.0001
752.1305	-0.0043
752.3065	0.0011
752.4825	-0.0036
752.6584	-0.0061
752.8344	-0.0101
753.0103	-0.0224
753.1862	-0.011
753.3621	-0.0123
753.5379	-0.0033
753.7138	-0.0077
753.8896	-0.0047
754.0654	0.0048
754.2412	-0.0016
754.417	-0.0079
754.5927	-0.0054
754.7685	-0.0099
754.9442	0.0027
755.1199	0.0045
755.2956	-0.0021
755.4712	-0.0035
755.6469	0.0021
755.8225	-0.0113
755.9981	-0.005
756.1736	-0.0027
756.3492	-0.0003
756.5248	-0.0121
756.7003	0.0012
756.8758	0.0062
757.0513	-0.0071
757.2267	-0.0039
757.4022	-0.0001
757.5776	-0.0104
757.753	0.0005
757.9284	-0.0011
758.1038	0.0097
758.2791	0.004
758.4545	-0.0029
758.6298	-0.0004
758.8051	0.0111
758.9803	0.0098
759.1556	0.0017
759.3308	-0.0002
759.506	0.0071
759.6812	-0.0014
759.8564	0.0068
760.0316	-0.0025
760.2067	0.0107
760.3819	0.0019
760.557	0.0043
760.732	0.0015
760.9071	-0.0053
761.0821	-0.0028
761.2572	0.0037
761.4322	-0.006
761.6072	-0.0071
761.7821	-0.0029
761.9571	-0.002
762.132	-0.0092
762.3069	-0.0124
762.4818	-0.0031
762.6567	-0.0081
762.8316	-0.0042
763.0064	-0.0143
763.1812	-0.0046
763.356	-0.0137
763.5308	-0.0017
763.7055	0.0097
763.8803	0.002
764.055	0.0024
764.2297	-0.0042
764.4044	-0.0017
764.579	-0.0041
764.7537	-0.0149
764.9283	0.0071
765.1029	-0.0067
765.2775	-0.0099
765.4521	-0.0132
765.6266	-0.0042
765.8011	-0.0107
765.9756	-0.0013
766.1501	-0.0105
766.3246	-0.0109
766.4991	-0.0018
766.6735	-0.0055
766.8479	-0.0236
767.0223	0.0068
767.1967	-0.0072
767.371	-0.0006
767.5454	0.0004
767.7197	-0.0013
767.894	-0.0067
768.0683	-0.0046
768.2425	0.0011
768.4168	0
768.591	-0.0019
768.7652	-0.0077
768.9394	-0.0079
769.1135	-0.0018
769.2877	0.0073
769.4618	0.0017
769.6359	0.0016
769.81	0.002
769.984	0.0008
770.1581	-0.0026
770.3321	-0.0065
770.5061	-0.007
770.6801	-0.0022
770.8541	-0.0029
771.028	0.0005
771.202	-0.0139
771.3759	0.0069
771.5498	-0.0062
771.7236	-0.005
771.8975	0.0092
772.0713	0.011
772.2451	0.0141
772.4189	0.0098
772.5927	0.0064
772.7665	0.0012
772.9402	-0.0016
773.1139	0.0054
773.2876	-0.0077
773.4613	0.0002
773.635	0.0012
773.8086	-0.0046
773.9822	-0.0057
774.1558	0.0045
774.3294	-0.0117
774.503	-0.0055
774.6765	0.002
774.8501	0.003
775.0236	0.0114
775.1971	0.004
775.3705	-0.0123
775.544	0.0058
775.7174	-0.0134
775.8908	0.0053
776.0642	-0.012
776.2376	-0.0011
776.4109	-0.0119
776.5843	-0.0078
776.7576	0.0167
776.9309	0.0112
777.1041	0.0081
777.2774	0.0044
777.4506	-0.0052
777.6238	-0.0126
777.797	0.0053
777.9702	0.0082
778.1434	0.0061
778.3165	-0.0091
778.4896	0.0015
778.6627	0.008
778.8358	-0.0045
779.0089	0.0023
779.1819	-0.0014
779.3549	0.0052
779.5279	0.014
779.7009	0.0065
779.8739	0.0068
780.0468	0.0142
780.2197	0.0115
780.3926	-0.0046
780.5655	-0.0077
780.7384	-0.0001
780.9112	0.0112
781.0841	-0.0108
781.2569	0.0069
781.4297	-0.0042
781.6024	0.0045
781.7752	0.0001
781.9479	0.0056
782.1206	-0.0022
782.2933	-0.0128
782.466	0.0068
782.6386	0.004
782.8113	0.0076
782.9839	0.0111
783.1565	0.0265
783.329	0.0161
783.5016	0.0028
783.6741	0.0109
783.8466	-0.0062
784.0191	0.0127
784.1916	-0.0061
784.3641	0.0124
784.5365	0.0117
784.7089	-0.0163
784.8813	-0.0167
785.0537	-0.002
785.2261	-0.0128
785.3984	-0.0106
785.5707	-0.0082
785.743	0.0027
785.9153	-0.0072
786.0876	-0.0008
786.2598	-0.0007
786.432	-0.0105
786.6042	0.0063
786.7764	-0.0127
786.9486	0.0043
787.1207	-0.0138
787.2928	0.0026
787.4649	0.0139
787.637	-0.0055
787.8091	0.005
787.9811	-0.0061
788.1532	0.0122
788.3252	0.0013
788.4972	0.0021
788.6691	0.0081
788.8411	0.0012
789.013	-0.0088
789.1849	0.0068
789.3568	-0.0075
789.5287	0.0024
789.7005	-0.0128
789.8723	0.0018
790.0442	0.0071
790.2159	0.012
790.3877	0.012
790.5595	-0.0151
790.7312	0.0073
790.9029	0.0115
791.0746	-0.0047
791.2463	0.0049
791.4179	0.0099
791.5896	-0.0119
791.7612	-0.0025
791.9328	0.0203
792.1044	-0.0088
792.2759	-0.0104
792.4474	0.0115
792.619	-0.0009
792.7905	0.006
792.9619	0.0039
793.1334	0.0114
793.3048	0.01
793.4762	0.0105
793.6476	0.0075
793.819	-0.0049
793.9904	0.0092
794.1617	-0.0056
794.333	0.004
794.5043	-0.0106
794.6756	-0.0061
794.8469	0.0076
795.0181	0.0007
795.1893	-0.0137
795.3605	0.0013
795.5317	-0.008
795.7029	-0.0053
795.874	0.0021
796.0452	-0.0007
796.2163	0.0011
796.3873	0.0138
796.5584	0.0111
796.7294	-0.0088
796.9005	0.0162
797.0715	0.0004
797.2425	-0.0149
797.4134	0.0075
797.5844	0.0097
797.7553	0.0025
797.9262	-0.0004
798.0971	0.0058
798.2679	-0.0048
798.4388	-0.0234
798.6096	0
798.7804	0.0087
798.9512	-0.0031
799.122	0.0125
799.2927	0.0091
799.4635	0.0233
799.6342	-0.0041
799.8049	0.0018
799.9755	-0.0043
800.1462	0.0002
800.3168	0.0084
800.4874	-0.0006
800.658	0.0196
800.8286	0.0073
800.9991	0.0098
801.1696	0.0169
801.3402	0.0097
801.5106	0.0202
801.6811	0.0174
801.8516	0.0126
802.022	0.0079
802.1924	0.011
802.3628	0.0153
802.5332	0.0173
802.7035	0.0276
802.8739	0.0013
803.0442	0.0039
803.2145	0.0096
803.3847	-0.0235
803.555	0.0097
803.7252	-0.0217
803.8954	-0.0006
804.0656	-0.0215
804.2358	0.0013
804.4059	0.0176
804.5761	0.0169
804.7462	0.0102
804.9163	0.0013
805.0864	-0.0049
805.2564	0.0123
805.4264	0.0189
805.5965	0.0118
805.7665	0.0261
805.9364	0.0045
806.1064	0.0393
806.2763	0.0039
806.4462	0.0189
806.6161	0.0125
806.786	0.0201
806.9559	0.0099
807.1257	0.0066
807.2955	-0.0058
807.4653	-0.0009
807.6351	-0.0124
807.8048	0.0083
807.9746	0.0253
808.1443	0.0065
808.314	0.0085
808.4837	0.0074
808.6533	0.0104
808.8229	0.0305
808.9926	0.0179
809.1622	0.0274
809.3317	-0.0071
809.5013	0.0003
809.6708	0.0126
809.8403	0.0257
810.0098	-0.0215
810.1793	0.0038
810.3488	0.0061
810.5182	0.0109
810.6876	0.0239
810.857	-0.0147
811.0264	0.0225
811.1958	0.0331
811.3651	0.0064
811.5344	0.0307
811.7037	0.0024
811.873	-0.0054
812.0422	0.0191
812.2115	0.0132
812.3807	0
812.5499	0.043
812.7191	0.0008
812.8882	0.0043
813.0574	-0.0016
813.2265	0.0014
813.3956	0.0163
813.5646	0.0036
813.7337	-0.0049
813.9027	0.0186
814.0718	0.0211
814.2407	0.0184
814.4097	0.0125
814.5787	-0.0323
814.7476	0.0124
814.9165	0.0197
815.0854	0.0063
815.2543	0.0165
815.4232	0.0249
815.592	0.0132
815.7608	0.0066
815.9296	0.0131
816.0984	0.0338
816.2671	0.0006
816.4359	-0.0072
816.6046	0.0095
816.7733	-0.0135
816.942	0.0016
817.1106	0.0046
817.2793	0.0153
817.4479	0.009
817.6165	0.0134
817.785	0.0417
817.9536	-0.0081
818.1221	0.0013
818.2906	0.0197
818.4591	0.005
818.6276	0.0055
818.7961	0.0172
818.9645	0.026
819.1329	0.0247
819.3013	0.0276
819.4697	0.0335
819.638	-0.0131
819.8064	0.0314
819.9747	0.0074
820.143	0.0106
820.3113	-0.015
820.4795	0.0274
820.6477	0.0098
820.816	-0.0198
820.9842	0.008
821.1523	0.0084
821.3205	0.0141
821.4886	0.0129
821.6567	-0.0095
821.8248	0.0368
821.9929	0.0137
822.1609	0.0057
822.329	0.0316
822.497	0.0291
822.665	-0.0185
822.833	0.0043
823.0009	0.0196
823.1688	0.0224
823.3367	0.0302
823.5046	-0.0011
823.6725	0.051
823.8404	0.0012
824.0082	0.0266
824.176	0.0328
824.3438	-0.0016
824.5116	-0.0087
824.6793	0.0382
824.847	0.005
825.0147	-0.0134
825.1824	0.0237
825.3501	0.0116
825.5177	-0.0035
825.6854	0.0013
825.853	0.021
826.0206	-0.0297
826.1881	0.0331
826.3557	-0.0167
826.5232	-0.0098
826.6907	-0.0525
826.8582	-0.012
827.0257	0.0132
827.1931	0.0059
827.3605	-0.0036
827.528	0.0152
827.6953	-0.0203
827.8627	0.0047
828.03	0.0221
828.1974	-0.0102
828.3647	-0.0171
828.532	0.0126
828.6992	-0.0058
828.8665	0.0266
829.0337	-0.002
829.2009	0.0148
829.3681	0.0021
829.5352	0.0449
829.7024	-0.054
829.8695	-0.0354
830.0366	0.0194
830.2037	-0.007
830.3707	-0.0083
830.5378	-0.0358
830.7048	0
830.8718	-0.0273
831.0388	0.0082
831.2057	0.0281
831.3727	0.0203
831.5396	0.0228
831.7065	0.0111
831.8734	0.0028
832.0402	-0.0403
832.2071	-0.0089
832.3739	-0.0159
832.5407	-0.0192
832.7075	0.0051
832.8742	-0.0284
833.041	-0.0098
833.2077	-0.0143
833.3744	0.0042
833.541	0.0166
833.7077	0.0026
833.8743	0.0355
834.0409	-0.0024
834.2075	0.0123
834.3741	0.0031
834.5407	0.0143
834.7072	0.0032
834.8737	0.0001
835.0402	0.0007
835.2067	0.0026
835.3731	0.0266
835.5395	-0.0163
835.706	0.0274
835.8723	-0.0251
836.0387	-0.0086
836.2051	-0.0075
836.3714	0.0021
836.5377	0.0212
836.704	-0.0349
836.8703	0.0102
837.0365	-0.0269
837.2027	0.0008
837.3689	0.0212
837.5351	-0.0044
837.7013	-0.0466
837.8674	-0.032
838.0335	-0.0281
838.1997	-0.0151
838.3657	-0.0583
838.5318	-0.0376
838.6978	0.0268
838.8639	0.0214
839.0299	0.0035
839.1958	-0.0061
839.3618	0.0087
839.5277	-0.0134
839.6937	-0.0065
839.8596	-0.0389
840.0254	0.0603
840.1913	0.0203
840.3571	0.0433
840.523	-0.0297
840.6888	-0.0487
840.8545	-0.0412
841.0203	0.0189
841.186	0.0256
841.3517	0.0055
841.5174	0.0308
841.6831	-0.0211
841.8488	0.011
842.0144	-0.0178
842.18	0.0172
842.3456	-0.0376
842.5112	-0.0139
842.6767	-0.0366
842.8422	-0.0177
843.0077	0.0332
843.1732	-0.0281
843.3387	-0.0542
843.5042	-0.0526
843.6696	0.0288
843.835	-0.0687
844.0004	0.0355
844.1657	-0.0079
844.3311	-0.0347
844.4964	-0.0777
844.6617	-0.0311
844.827	-0.0011
844.9923	-0.0134
845.1575	0.0867
845.3227	-0.0191
845.4879	0.0126
845.6531	-0.077
845.8183	-0.11
845.9834	-0.0483
846.1485	-0.0138
846.3136	-0.0513
846.4787	-0.087
846.6438	0.0001
846.8088	-0.0888
846.9738	-0.0781
847.1388	-0.0138
847.3038	0.0108
847.4687	-0.128
847.6337	0.0673
847.7986	-0.0306
847.9635	-0.0228
848.1284	-0.0378
848.2932	0.0668
848.458	-0.0804
848.6228	0.0469
848.7876	0.0144
848.9524	-0.1103
849.1172	-0.1132
849.2819	0.0001
849.4466	-0.1104
849.6113	-0.1349
849.7759	-0.0648
849.9406	-0.0591
850.1052	-0.0391
850.2698	-0.0465
850.4344	-0.0018
850.599	-0.0892
850.7635	0.1427
850.928	-0.0454
851.0925	-0.0523
851.257	0.0352
851.4215	0.0124
851.5859	-0.0085
851.7503	-0.012
851.9147	-0.0144
852.0791	-0.1596
852.2434	0.0398
852.4078	-0.0303
852.5721	0.0777
852.7364	-0.0694
852.9007	-0.2251
853.0649	0.0349
853.2291	-0.1247
853.3934	-0.052
853.5575	0.0684
853.7217	-0.107
853.8859	-0.1204
854.05	-0.1293
854.2141	-0.0176
854.3782	0.0002
854.5423	-0.0992
854.7063	0.0448
854.8703	-0.0591
855.0343	-0.0417
855.1983	-0.1119
855.3623	0.0442
855.5262	-0.0977
855.6901	-0.0632
855.854	-0.0374
856.0179	0.0114
856.1818	0.169
856.3456	-0.1525
856.5094	-0.216
856.6732	-0.2488
856.837	-0.1255
857.0008	0.0671
857.1645	-0.0147
857.3282	-0.2353
857.4919	0.1381
857.6556	-0.0712
857.8192	-0.1486
857.9828	-0.0026
858.1465	0.0043
858.31	-0.1976
858.4736	-0.1723
858.6372	-0.1927
858.8007	-0.1888
858.9642	-0.09
859.1277	-0.227
859.2911	0.301
859.4546	0.0817
859.618	-0.3088
859.7814	-0.1144
859.9448	0.131
860.1081	0.0058
860.2715	0.2109
860.4348	-0.1331
860.5981	-0.1221
860.7614	0.1747
860.9246	-0.3779
861.0879	-0.2468
861.2511	0.0033
861.4143	-0.1104
861.5774	0.0648
861.7406	-0.2051
861.9037	0.1803
862.0668	-0.1454
862.2299	-0.2854
862.393	-0.565
862.556	-0.0045
862.7191	-0.443
862.8821	-0.2446
863.0451	-0.0262
863.208	0.0351
863.371	0.2088
863.5339	-0.3272
863.6968	0.064
863.8597	-0.1266
864.0225	-0.0446
864.1854	-0.1985
864.3482	0.4096
864.511	-0.0493
864.6737	-0.1092
864.8365	-0.19
864.9992	-0.4096
865.1619	-0.2849
865.3246	0.0801
865.4873	0.3212
865.65	0.1057
865.8126	-0.1339
865.9752	0.071
866.1378	-0.2484
866.3004	-0.0636
866.4629	0.2194
866.6254	-0.2785
866.7879	-0.1782
866.9504	-0.346
867.1129	-0
867.2753	0.0525
867.4377	-0.0287
867.6001	-0.5254
867.7625	0.3299
867.9249	-0.5663
868.0872	-0.0245
868.2495	-0.1506
868.4118	-0.2043
868.5741	-0.7604
868.7363	-0.1694
868.8986	-0.1892
869.0608	-0.2432
869.223	0.1073
869.3851	-0
869.5473	-0
869.7094	0.2104
869.8715	-0.2589
870.0336	-0
870.1957	-0.5501
870.3577	-0
870.5197	-0.1063
870.6817	-0.5556
870.8437	0.0073
871.0057	-0
871.1676	-0.7858
871.3295	-0.6497
871.4914	-0
871.6533	-0.4482
871.8151	-0.6611
871.977	-0
872.1388	-0
872.3006	-0
872.4623	-0
872.6241	0.0647
872.7858	0.059
872.9475	0.0144
873.1092	-0.511
873.2709	-0
873.4325	-0.4795
873.5941	-0.555
873.7557	-0
873.9173	-0
874.0789	-0.276
874.2404	-0
874.4019	0.4237
874.5634	-0.1995
874.7249	-0.2952
874.8863	0.3865
875.0478	0.4144
875.2092	-0
875.3706	0.1668
875.5319	-1.1681
875.6933	-0
875.8546	-0.474
876.0159	-0
876.1772	0.5097
876.3385	-0
876.4997	0.1794
876.6609	-0.4442
876.8221	-0
876.9833	1.0894
877.1445	-0
877.3056	0.0005
877.4667	-0.198
877.6278	-0
877.7889	-0.7013
877.9499	-0
878.111	-0.4932
878.272	-0
878.433	-0
878.5939	0.7169
878.7549	-0.1414
878.9158	-0.9777
879.0767	-0
879.2376	0.0864
879.3984	-0.4074
879.5593	-0
879.7201	-0.1414
879.8809	-0.7927
880.0417	-0.5274
880.2024	0.2889
880.3632	-0.7089
880.5239	0.0834
880.6846	0.0411
880.8452	-2.7181
881.0059	-0.9191
881.1665	0.326
881.3271	-0
881.4877	-0
881.6483	-0.84
881.8088	-0.4232
881.9693	-0
882.1298	-0
882.2903	-0
