Data from MonoPyChalIsomerACN10uM380nmA_Absorbance_13-38-33-149.txt Node
Date: Fri Jul 05 13:38:33 BST 2024
User: LASERRRRR
Spectrometer: FLMT03099
Trigger mode: 0
Integration Time (sec): 1.000000E-1
Scans to average: 1
Electric dark correction enabled: true
Nonlinearity correction enabled: false
Boxcar width: 0
XAxis mode: Wavelengths
Number of Pixels in Spectrum: 3648
>>>>>Begin Spectral Data<<<<<
179.3399	-0.2622
179.5586	-0.2622
179.7771	-0.2622
179.9957	-0
180.2143	-0
180.4329	-0.3607
180.6514	-0
180.8699	-0
181.0885	-0
181.307	0.1146
181.5255	-0.8751
181.744	-0.9077
181.9625	-0
182.181	-0
182.3994	0.782
182.6179	0.2334
182.8363	0.4412
183.0547	-0.112
183.2732	-0.0619
183.4916	-0.0026
183.71	0.1178
183.9284	-0.0812
184.1467	-0.1481
184.3651	-0.0391
184.5835	-0.1776
184.8018	0.1202
185.0201	0.0944
185.2385	-0.013
185.4568	0.0067
185.6751	0.0202
185.8934	0.1894
186.1117	-0.0413
186.3299	0.1183
186.5482	0.3566
186.7664	-0.0644
186.9847	-0.1245
187.2029	0.0761
187.4211	0.1516
187.6393	0.065
187.8575	-0.0535
188.0757	0.0805
188.2939	0.1317
188.512	0.2602
188.7302	0.2393
188.9483	-0.0946
189.1665	0.2298
189.3846	-0.4047
189.6027	0.1108
189.8208	0.0395
190.0389	0.0673
190.257	0.1324
190.475	0.1093
190.6931	0.4222
190.9111	0.1865
191.1292	0.1356
191.3472	0.2364
191.5652	0.1952
191.7832	0.0988
192.0012	0.4748
192.2192	0.3091
192.4371	0.7441
192.6551	0.36
192.873	0.4103
193.091	0.3128
193.3089	0.2224
193.5268	0.4704
193.7447	0.4783
193.9626	0.4174
194.1805	0.4857
194.3984	0.7598
194.6162	0.508
194.8341	0.4698
195.0519	0.6631
195.2697	0.9216
195.4875	0.6192
195.7054	0.5532
195.9231	0.535
196.1409	0.6961
196.3587	0.6639
196.5765	0.5819
196.7942	0.6875
197.012	0.6059
197.2297	0.6868
197.4474	0.8279
197.6651	0.5932
197.8828	0.5684
198.1005	0.7842
198.3182	0.576
198.5358	1.0443
198.7535	0.8027
198.9711	0.5777
199.1888	0.8388
199.4064	0.9333
199.624	0.6881
199.8416	0.6643
200.0592	0.6719
200.2767	0.7766
200.4943	0.9437
200.7119	0.8881
200.9294	0.776
201.1469	0.5769
201.3645	0.6428
201.582	0.6465
201.7995	0.7306
202.017	0.8034
202.2344	0.6412
202.4519	0.8811
202.6694	0.7342
202.8868	0.7404
203.1042	1.0222
203.3217	0.6707
203.5391	0.7824
203.7565	0.714
203.9739	0.7404
204.1913	0.7525
204.4086	0.6854
204.626	0.9975
204.8433	0.8266
205.0607	0.7813
205.278	0.9141
205.4953	0.8909
205.7126	0.7042
205.9299	0.9036
206.1472	0.8166
206.3644	0.7953
206.5817	0.7966
206.7989	0.829
207.0162	0.7835
207.2334	0.843
207.4506	0.7461
207.6678	0.7623
207.885	0.8339
208.1022	0.8041
208.3194	0.7805
208.5365	0.7543
208.7537	0.6908
208.9708	0.7839
209.1879	0.7942
209.405	0.811
209.6222	0.8363
209.8392	0.7055
210.0563	0.7593
210.2734	0.8832
210.4905	0.7519
210.7075	0.7438
210.9245	0.7972
211.1416	0.8125
211.3586	0.8249
211.5756	0.6831
211.7926	0.7285
212.0096	0.7372
212.2265	0.7399
212.4435	0.7644
212.6604	0.7171
212.8774	0.7459
213.0943	0.8012
213.3112	0.7602
213.5281	0.701
213.745	0.7007
213.9619	0.727
214.1788	0.668
214.3956	0.6541
214.6125	0.6708
214.8293	0.5865
215.0461	0.7326
215.2629	0.6612
215.4798	0.6665
215.6965	0.6091
215.9133	0.6279
216.1301	0.6689
216.3469	0.6809
216.5636	0.6568
216.7803	0.6065
216.9971	0.6359
217.2138	0.6264
217.4305	0.5714
217.6472	0.5463
217.8639	0.6275
218.0805	0.5623
218.2972	0.5421
218.5138	0.5675
218.7305	0.5686
218.9471	0.5439
219.1637	0.5465
219.3803	0.5449
219.5969	0.5658
219.8135	0.5373
220.0301	0.5232
220.2466	0.5568
220.4632	0.5439
220.6797	0.5027
220.8962	0.4889
221.1127	0.5078
221.3292	0.5358
221.5457	0.5192
221.7622	0.532
221.9787	0.5294
222.1951	0.4885
222.4116	0.5318
222.628	0.4872
222.8444	0.5348
223.0608	0.5096
223.2772	0.4904
223.4936	0.5286
223.71	0.4983
223.9264	0.5222
224.1427	0.5182
224.3591	0.5112
224.5754	0.5338
224.7917	0.5236
225.008	0.5529
225.2243	0.4847
225.4406	0.5528
225.6569	0.5172
225.8732	0.4995
226.0894	0.5068
226.3057	0.534
226.5219	0.5232
226.7381	0.5514
226.9543	0.5122
227.1705	0.5158
227.3867	0.521
227.6029	0.5489
227.8191	0.5539
228.0352	0.5361
228.2513	0.5392
228.4675	0.5598
228.6836	0.5524
228.8997	0.5436
229.1158	0.5575
229.3319	0.5275
229.548	0.5521
229.764	0.5697
229.9801	0.5567
230.1961	0.5557
230.4121	0.5463
230.6282	0.5617
230.8442	0.519
231.0602	0.5365
231.2761	0.5518
231.4921	0.5713
231.7081	0.5704
231.924	0.5522
232.14	0.5649
232.3559	0.5589
232.5718	0.5719
232.7877	0.5549
233.0036	0.5346
233.2195	0.5567
233.4353	0.5252
233.6512	0.5493
233.867	0.5362
234.0829	0.553
234.2987	0.5346
234.5145	0.5643
234.7303	0.5452
234.9461	0.5563
235.1619	0.5507
235.3776	0.5186
235.5934	0.5414
235.8091	0.497
236.0249	0.5122
236.2406	0.5467
236.4563	0.5094
236.672	0.5676
236.8877	0.5373
237.1034	0.5461
237.319	0.5293
237.5347	0.5428
237.7503	0.5218
237.966	0.5515
238.1816	0.5313
238.3972	0.5401
238.6128	0.5021
238.8284	0.5528
239.0439	0.528
239.2595	0.5104
239.475	0.5333
239.6906	0.5308
239.9061	0.4962
240.1216	0.5204
240.3371	0.5136
240.5526	0.5091
240.7681	0.547
240.9836	0.4998
241.199	0.5077
241.4145	0.5005
241.6299	0.4905
241.8453	0.4889
242.0607	0.483
242.2761	0.4581
242.4915	0.4557
242.7069	0.4635
242.9223	0.4442
243.1376	0.4466
243.353	0.4426
243.5683	0.4494
243.7836	0.4181
243.9989	0.4165
244.2142	0.388
244.4295	0.3967
244.6448	0.4069
244.86	0.3851
245.0753	0.3772
245.2905	0.3686
245.5057	0.3376
245.721	0.3376
245.9362	0.3394
246.1514	0.3347
246.3665	0.3344
246.5817	0.3143
246.7969	0.3106
247.012	0.3141
247.2271	0.287
247.4423	0.2954
247.6574	0.3136
247.8725	0.2937
248.0876	0.2909
248.3026	0.2826
248.5177	0.2832
248.7328	0.2594
248.9478	0.2616
249.1628	0.2671
249.3779	0.2566
249.5929	0.2458
249.8079	0.2662
250.0228	0.2422
250.2378	0.2582
250.4528	0.2457
250.6677	0.2277
250.8827	0.2307
251.0976	0.229
251.3125	0.2368
251.5274	0.2298
251.7423	0.2239
251.9572	0.2236
252.172	0.2105
252.3869	0.2301
252.6017	0.2098
252.8166	0.1965
253.0314	0.1974
253.2462	0.1967
253.461	0.2087
253.6758	0.2031
253.8906	0.2131
254.1053	0.1942
254.3201	0.2056
254.5348	0.1994
254.7496	0.2089
254.9643	0.1915
255.179	0.2017
255.3937	0.1897
255.6083	0.1941
255.823	0.1921
256.0377	0.1845
256.2523	0.1863
256.467	0.1802
256.6816	0.1936
256.8962	0.1787
257.1108	0.178
257.3254	0.1933
257.54	0.1901
257.7545	0.1799
257.9691	0.1905
258.1836	0.1955
258.3981	0.1962
258.6127	0.1917
258.8272	0.1843
259.0417	0.1805
259.2561	0.1775
259.4706	0.1852
259.6851	0.1765
259.8995	0.1813
260.114	0.1891
260.3284	0.178
260.5428	0.1885
260.7572	0.2025
260.9716	0.1861
261.186	0.1651
261.4003	0.1794
261.6147	0.1869
261.829	0.1756
262.0433	0.1768
262.2577	0.1728
262.472	0.185
262.6863	0.1859
262.9005	0.1766
263.1148	0.1806
263.3291	0.1641
263.5433	0.1781
263.7576	0.1846
263.9718	0.1819
264.186	0.1748
264.4002	0.1754
264.6144	0.1869
264.8286	0.1928
265.0427	0.1806
265.2569	0.1827
265.471	0.1742
265.6851	0.1837
265.8993	0.1899
266.1134	0.1657
266.3275	0.1825
266.5415	0.1739
266.7556	0.1865
266.9697	0.1914
267.1837	0.1814
267.3978	0.1789
267.6118	0.1926
267.8258	0.194
268.0398	0.1694
268.2538	0.1823
268.4677	0.1921
268.6817	0.1827
268.8957	0.1907
269.1096	0.1788
269.3235	0.1911
269.5374	0.1762
269.7514	0.1714
269.9652	0.1796
270.1791	0.1736
270.393	0.1763
270.6068	0.1805
270.8207	0.1738
271.0345	0.1591
271.2483	0.1851
271.4622	0.1766
271.676	0.1738
271.8897	0.1641
272.1035	0.1706
272.3173	0.1836
272.531	0.1672
272.7448	0.167
272.9585	0.1786
273.1722	0.1878
273.3859	0.1684
273.5996	0.1737
273.8133	0.1771
274.0269	0.1608
274.2406	0.1573
274.4542	0.1693
274.6679	0.1519
274.8815	0.1726
275.0951	0.1867
275.3087	0.1681
275.5223	0.1808
275.7358	0.1807
275.9494	0.181
276.1629	0.1621
276.3765	0.173
276.59	0.1742
276.8035	0.1752
277.017	0.1857
277.2305	0.1645
277.444	0.1789
277.6574	0.1639
277.8709	0.1723
278.0843	0.1613
278.2978	0.169
278.5112	0.1652
278.7246	0.1764
278.938	0.1673
279.1513	0.175
279.3647	0.1733
279.5781	0.1678
279.7914	0.1856
280.0047	0.1836
280.2181	0.1793
280.4314	0.1795
280.6447	0.185
280.8579	0.1761
281.0712	0.1825
281.2845	0.1832
281.4977	0.1854
281.711	0.1571
281.9242	0.1729
282.1374	0.1883
282.3506	0.1734
282.5638	0.1816
282.7769	0.1774
282.9901	0.1734
283.2033	0.19
283.4164	0.187
283.6295	0.1642
283.8426	0.1695
284.0557	0.178
284.2688	0.189
284.4819	0.1798
284.695	0.1797
284.908	0.1878
285.1211	0.167
285.3341	0.1892
285.5471	0.1761
285.7601	0.1733
285.9731	0.1873
286.1861	0.1671
286.3991	0.1899
286.612	0.1813
286.825	0.1671
287.0379	0.1852
287.2508	0.1878
287.4637	0.1757
287.6766	0.1741
287.8895	0.1678
288.1024	0.1851
288.3152	0.1766
288.5281	0.1773
288.7409	0.1769
288.9538	0.1724
289.1666	0.1634
289.3794	0.1764
289.5922	0.1736
289.8049	0.1652
290.0177	0.1732
290.2304	0.1638
290.4432	0.1792
290.6559	0.1694
290.8686	0.1831
291.0813	0.1741
291.294	0.1708
291.5067	0.1809
291.7194	0.1673
291.932	0.1789
292.1447	0.1694
292.3573	0.1629
292.5699	0.174
292.7825	0.1703
292.9951	0.1698
293.2077	0.1629
293.4203	0.1642
293.6328	0.1619
293.8454	0.1793
294.0579	0.1625
294.2704	0.1692
294.4829	0.1633
294.6954	0.1681
294.9079	0.1702
295.1204	0.1639
295.3328	0.1555
295.5453	0.1587
295.7577	0.169
295.9701	0.1627
296.1825	0.1592
296.3949	0.1733
296.6073	0.163
296.8197	0.1641
297.0321	0.177
297.2444	0.155
297.4567	0.1757
297.6691	0.1718
297.8814	0.1521
298.0937	0.16
298.306	0.1664
298.5182	0.158
298.7305	0.1704
298.9428	0.1653
299.155	0.1645
299.3672	0.162
299.5794	0.1612
299.7916	0.1642
300.0038	0.1691
300.216	0.1709
300.4282	0.1688
300.6403	0.1517
300.8525	0.1701
301.0646	0.1466
301.2767	0.1561
301.4888	0.1574
301.7009	0.1666
301.913	0.1622
302.125	0.1633
302.3371	0.1552
302.5491	0.1573
302.7612	0.1697
302.9732	0.1629
303.1852	0.1535
303.3972	0.1515
303.6092	0.1502
303.8211	0.1553
304.0331	0.1535
304.245	0.1479
304.457	0.1461
304.6689	0.1477
304.8808	0.1581
305.0927	0.1427
305.3046	0.1542
305.5164	0.1584
305.7283	0.1445
305.9401	0.1469
306.152	0.1415
306.3638	0.1455
306.5756	0.1429
306.7874	0.1406
306.9992	0.1521
307.2109	0.1321
307.4227	0.1359
307.6344	0.143
307.8462	0.1404
308.0579	0.1387
308.2696	0.1367
308.4813	0.1402
308.693	0.1279
308.9046	0.1375
309.1163	0.1307
309.328	0.1298
309.5396	0.1192
309.7512	0.1199
309.9628	0.1114
310.1744	0.1252
310.386	0.1273
310.5976	0.1236
310.8091	0.1229
311.0207	0.1215
311.2322	0.1317
311.4437	0.1028
311.6552	0.1126
311.8667	0.1235
312.0782	0.0984
312.2897	0.103
312.5012	0.1133
312.7126	0.1115
312.924	0.1068
313.1355	0.1125
313.3469	0.1087
313.5583	0.1141
313.7696	0.1183
313.981	0.1112
314.1924	0.1103
314.4037	0.1046
314.6151	0.1186
314.8264	0.1008
315.0377	0.111
315.249	0.1041
315.4603	0.1168
315.6716	0.1059
315.8828	0.0941
316.0941	0.1025
316.3053	0.0963
316.5165	0.1062
316.7277	0.0986
316.9389	0.1013
317.1501	0.1015
317.3613	0.1138
317.5724	0.0972
317.7836	0.1076
317.9947	0.1017
318.2058	0.097
318.417	0.0949
318.6281	0.1003
318.8391	0.1034
319.0502	0.0945
319.2613	0.0996
319.4723	0.1125
319.6834	0.1078
319.8944	0.0993
320.1054	0.109
320.3164	0.1011
320.5274	0.1055
320.7383	0.107
320.9493	0.1102
321.1602	0.1107
321.3712	0.0964
321.5821	0.0989
321.793	0.0977
322.0039	0.1088
322.2148	0.1066
322.4257	0.0965
322.6365	0.109
322.8474	0.1023
323.0582	0.1016
323.269	0.1023
323.4798	0.1194
323.6906	0.1075
323.9014	0.105
324.1122	0.1114
324.3229	0.1037
324.5337	0.1189
324.7444	0.0961
324.9551	0.1173
325.1658	0.105
325.3765	0.1098
325.5872	0.1048
325.7979	0.1104
326.0085	0.1141
326.2192	0.1042
326.4298	0.1038
326.6404	0.1038
326.851	0.095
327.0616	0.0997
327.2722	0.1027
327.4828	0.1104
327.6933	0.0945
327.9039	0.1151
328.1144	0.1217
328.3249	0.112
328.5354	0.096
328.7459	0.1093
328.9564	0.1015
329.1669	0.1181
329.3773	0.109
329.5878	0.1042
329.7982	0.1128
330.0086	0.1141
330.219	0.1125
330.4294	0.104
330.6398	0.1059
330.8502	0.1012
331.0605	0.1212
331.2708	0.1081
331.4812	0.1161
331.6915	0.1115
331.9018	0.1076
332.1121	0.1044
332.3224	0.1174
332.5326	0.1128
332.7429	0.1155
332.9531	0.1301
333.1633	0.1178
333.3735	0.1184
333.5837	0.1169
333.7939	0.0998
334.0041	0.1183
334.2143	0.1211
334.4244	0.1085
334.6346	0.1059
334.8447	0.1368
335.0548	0.1171
335.2649	0.1085
335.475	0.1185
335.685	0.1091
335.8951	0.1214
336.1051	0.1027
336.3152	0.1263
336.5252	0.1166
336.7352	0.1119
336.9452	0.1223
337.1552	0.1182
337.3652	0.1112
337.5751	0.1007
337.7851	0.1188
337.995	0.1103
338.2049	0.1176
338.4148	0.1188
338.6247	0.1248
338.8346	0.1051
339.0445	0.1001
339.2543	0.1072
339.4642	0.1166
339.674	0.111
339.8838	0.112
340.0936	0.114
340.3034	0.1274
340.5132	0.1306
340.7229	0.1263
340.9327	0.1251
341.1424	0.1176
341.3522	0.1314
341.5619	0.1194
341.7716	0.1246
341.9813	0.1265
342.1909	0.1204
342.4006	0.123
342.6102	0.1229
342.8199	0.1326
343.0295	0.1183
343.2391	0.1224
343.4487	0.1236
343.6583	0.1173
343.8679	0.125
344.0774	0.1273
344.287	0.1338
344.4965	0.1219
344.706	0.1287
344.9155	0.1186
345.125	0.1279
345.3345	0.1286
345.544	0.1227
345.7534	0.128
345.9629	0.1262
346.1723	0.1268
346.3817	0.1337
346.5911	0.1343
346.8005	0.1305
347.0099	0.1244
347.2193	0.1373
347.4286	0.1325
347.638	0.1439
347.8473	0.1446
348.0566	0.1371
348.2659	0.1243
348.4752	0.1285
348.6845	0.1287
348.8937	0.1236
349.103	0.1513
349.3122	0.1359
349.5214	0.1251
349.7306	0.1406
349.9398	0.1305
350.149	0.1358
350.3582	0.1386
350.5674	0.1553
350.7765	0.1416
350.9856	0.1488
351.1948	0.148
351.4039	0.1308
351.613	0.1399
351.822	0.1458
352.0311	0.143
352.2402	0.1354
352.4492	0.1405
352.6582	0.1539
352.8672	0.14
353.0762	0.1465
353.2852	0.15
353.4942	0.1418
353.7032	0.1561
353.9121	0.1561
354.1211	0.1447
354.33	0.1468
354.5389	0.1602
354.7478	0.1412
354.9567	0.1376
355.1655	0.1346
355.3744	0.1418
355.5833	0.1524
355.7921	0.1552
356.0009	0.1534
356.2097	0.1615
356.4185	0.1554
356.6273	0.1537
356.8361	0.1605
357.0448	0.1471
357.2536	0.1502
357.4623	0.1553
357.671	0.1612
357.8797	0.1622
358.0884	0.1631
358.2971	0.1513
358.5057	0.1674
358.7144	0.1685
358.923	0.1636
359.1316	0.1731
359.3402	0.1589
359.5488	0.1607
359.7574	0.1563
359.966	0.1776
360.1746	0.1722
360.3831	0.1756
360.5916	0.1665
360.8002	0.1614
361.0087	0.1786
361.2172	0.1678
361.4256	0.1727
361.6341	0.1695
361.8426	0.1925
362.051	0.1722
362.2594	0.1731
362.4678	0.1744
362.6762	0.2018
362.8846	0.1725
363.093	0.1874
363.3014	0.1756
363.5097	0.1727
363.718	0.1792
363.9264	0.1865
364.1347	0.1791
364.343	0.1813
364.5513	0.1859
364.7595	0.1935
364.9678	0.18
365.176	0.1879
365.3842	0.1878
365.5925	0.1884
365.8007	0.1765
366.0089	0.1815
366.217	0.1925
366.4252	0.1942
366.6333	0.201
366.8415	0.1968
367.0496	0.1805
367.2577	0.199
367.4658	0.1999
367.6739	0.197
367.882	0.1917
368.09	0.1787
368.2981	0.203
368.5061	0.186
368.7141	0.1821
368.9221	0.1929
369.1301	0.1951
369.3381	0.1913
369.5461	0.2021
369.754	0.2032
369.962	0.2186
370.1699	0.2037
370.3778	0.2042
370.5857	0.1886
370.7936	0.2019
371.0015	0.2089
371.2093	0.2081
371.4172	0.2036
371.625	0.2112
371.8328	0.1898
372.0406	0.206
372.2484	0.1942
372.4562	0.2154
372.664	0.1894
372.8717	0.2113
373.0795	0.2036
373.2872	0.2022
373.4949	0.1997
373.7026	0.2116
373.9103	0.2135
374.118	0.2141
374.3256	0.2144
374.5333	0.208
374.7409	0.2054
374.9485	0.2245
375.1561	0.2248
375.3637	0.2157
375.5713	0.2149
375.7789	0.2065
375.9864	0.2194
376.194	0.2059
376.4015	0.2218
376.609	0.2313
376.8165	0.2181
377.024	0.2169
377.2315	0.1997
377.4389	0.2225
377.6464	0.2279
377.8538	0.2276
378.0612	0.2051
378.2686	0.216
378.476	0.2178
378.6834	0.211
378.8908	0.2206
379.0981	0.2159
379.3055	0.2345
379.5128	0.2077
379.7201	0.2329
379.9274	0.2237
380.1347	0.2184
380.342	0.2515
380.5492	0.2323
380.7565	0.2208
380.9637	0.2273
381.1709	0.2214
381.3781	0.2456
381.5853	0.2389
381.7925	0.2305
381.9997	0.2346
382.2068	0.2358
382.4139	0.2257
382.6211	0.2286
382.8282	0.2264
383.0353	0.2154
383.2424	0.219
383.4494	0.2417
383.6565	0.2277
383.8635	0.2247
384.0706	0.2314
384.2776	0.2417
384.4846	0.2147
384.6916	0.2304
384.8986	0.2165
385.1055	0.2287
385.3125	0.2469
385.5194	0.2217
385.7263	0.2467
385.9333	0.2388
386.1402	0.2337
386.347	0.2136
386.5539	0.2323
386.7608	0.2256
386.9676	0.2145
387.1744	0.2264
387.3813	0.2142
387.5881	0.2342
387.7948	0.2133
388.0016	0.2363
388.2084	0.2262
388.4151	0.2256
388.6219	0.2264
388.8286	0.2172
389.0353	0.2214
389.242	0.221
389.4487	0.1975
389.6553	0.2293
389.862	0.2096
390.0686	0.2105
390.2753	0.2147
390.4819	0.2159
390.6885	0.2069
390.8951	0.2299
391.1016	0.2146
391.3082	0.2163
391.5147	0.2149
391.7213	0.2057
391.9278	0.2164
392.1343	0.1931
392.3408	0.2216
392.5473	0.2034
392.7537	0.2146
392.9602	0.1963
393.1666	0.217
393.373	0.2133
393.5794	0.2032
393.7858	0.2074
393.9922	0.1958
394.1986	0.1884
394.4049	0.1985
394.6113	0.2028
394.8176	0.1858
395.0239	0.1983
395.2302	0.1989
395.4365	0.1994
395.6428	0.1988
395.8491	0.1802
396.0553	0.2146
396.2615	0.1939
396.4678	0.2006
396.674	0.1834
396.8802	0.2004
397.0863	0.2022
397.2925	0.1813
397.4987	0.1853
397.7048	0.1862
397.9109	0.1883
398.117	0.1919
398.3231	0.1798
398.5292	0.2069
398.7353	0.2013
398.9413	0.1919
399.1474	0.1918
399.3534	0.182
399.5594	0.1869
399.7654	0.2051
399.9714	0.1824
400.1774	0.1784
400.3833	0.1695
400.5893	0.188
400.7952	0.19
401.0011	0.1954
401.207	0.1995
401.4129	0.1915
401.6188	0.1857
401.8247	0.1919
402.0305	0.1984
402.2364	0.1786
402.4422	0.1988
402.648	0.1833
402.8538	0.2053
403.0596	0.1821
403.2654	0.1925
403.4711	0.1841
403.6768	0.1933
403.8826	0.19
404.0883	0.1739
404.294	0.1837
404.4997	0.1786
404.7054	0.1969
404.911	0.1897
405.1167	0.2013
405.3223	0.1913
405.5279	0.2045
405.7335	0.1925
405.9391	0.2014
406.1447	0.1883
406.3502	0.2056
406.5558	0.1892
406.7613	0.1897
406.9668	0.1909
407.1724	0.2014
407.3778	0.1849
407.5833	0.191
407.7888	0.1796
407.9942	0.1964
408.1997	0.1886
408.4051	0.1981
408.6105	0.1955
408.8159	0.1676
409.0213	0.1762
409.2267	0.1826
409.432	0.1743
409.6374	0.2166
409.8427	0.1774
410.048	0.1717
410.2533	0.1819
410.4586	0.1876
410.6639	0.1651
410.8691	0.1713
411.0744	0.1724
411.2796	0.1845
411.4848	0.1808
411.69	0.1781
411.8952	0.2049
412.1004	0.1826
412.3056	0.1879
412.5107	0.1662
412.7158	0.2013
412.921	0.1854
413.1261	0.1998
413.3312	0.1713
413.5362	0.1768
413.7413	0.1802
413.9464	0.1712
414.1514	0.1775
414.3564	0.1787
414.5614	0.1738
414.7664	0.1768
414.9714	0.1711
415.1764	0.1865
415.3813	0.2033
415.5863	0.1649
415.7912	0.1999
415.9961	0.1829
416.201	0.1702
416.4059	0.1937
416.6108	0.1677
416.8156	0.1877
417.0205	0.1756
417.2253	0.1558
417.4301	0.1848
417.6349	0.1729
417.8397	0.1629
418.0445	0.1818
418.2492	0.1724
418.454	0.169
418.6587	0.16
418.8634	0.1853
419.0681	0.1568
419.2728	0.1623
419.4775	0.1763
419.6822	0.1763
419.8868	0.1648
420.0915	0.1664
420.2961	0.1662
420.5007	0.1741
420.7053	0.1706
420.9099	0.1676
421.1144	0.1629
421.319	0.157
421.5235	0.1796
421.728	0.1577
421.9325	0.1681
422.137	0.1861
422.3415	0.1725
422.546	0.1643
422.7504	0.1703
422.9549	0.1575
423.1593	0.1713
423.3637	0.1774
423.5681	0.1659
423.7725	0.1608
423.9769	0.1507
424.1812	0.1551
424.3856	0.1453
424.5899	0.1529
424.7942	0.1457
424.9985	0.1584
425.2028	0.165
425.4071	0.1545
425.6113	0.124
425.8156	0.1595
426.0198	0.1436
426.224	0.1323
426.4282	0.1253
426.6324	0.1552
426.8366	0.1322
427.0407	0.1641
427.2449	0.1426
427.449	0.1324
427.6531	0.1134
427.8572	0.1461
428.0613	0.139
428.2654	0.1542
428.4694	0.139
428.6735	0.1406
428.8775	0.1466
429.0815	0.1467
429.2855	0.1123
429.4895	0.1542
429.6935	0.1301
429.8975	0.1454
430.1014	0.1165
430.3053	0.1199
430.5093	0.1306
430.7132	0.1318
430.9171	0.1286
431.1209	0.1145
431.3248	0.0999
431.5286	0.1328
431.7325	0.1297
431.9363	0.1147
432.1401	0.1143
432.3439	0.1151
432.5477	0.0903
432.7514	0.106
432.9552	0.1113
433.1589	0.1038
433.3627	0.1055
433.5664	0.1016
433.7701	0.1149
433.9737	0.0911
434.1774	0.0987
434.3811	0.0902
434.5847	0.1046
434.7883	0.1048
434.9919	0.1003
435.1955	0.0941
435.3991	0.0943
435.6027	0.0873
435.8062	0.0787
436.0098	0.0889
436.2133	0.0962
436.4168	0.0887
436.6203	0.0978
436.8238	0.0858
437.0272	0.0769
437.2307	0.0735
437.4341	0.097
437.6375	0.0979
437.841	0.0687
438.0443	0.0829
438.2477	0.094
438.4511	0.0639
438.6545	0.081
438.8578	0.0782
439.0611	0.0751
439.2644	0.0693
439.4677	0.0669
439.671	0.0747
439.8743	0.0682
440.0775	0.0666
440.2808	0.0702
440.484	0.0562
440.6872	0.0471
440.8904	0.0607
441.0936	0.0814
441.2967	0.0533
441.4999	0.0536
441.703	0.05
441.9062	0.0556
442.1093	0.0489
442.3124	0.0613
442.5155	0.0519
442.7185	0.05
442.9216	0.0379
443.1246	0.0685
443.3276	0.046
443.5307	0.0426
443.7337	0.0478
443.9366	0.0468
444.1396	0.0455
444.3426	0.0449
444.5455	0.0443
444.7484	0.0322
444.9513	0.0448
445.1542	0.0478
445.3571	0.0482
445.56	0.0446
445.7628	0.0373
445.9657	0.0358
446.1685	0.0421
446.3713	0.0408
446.5741	0.036
446.7769	0.0295
446.9797	0.0412
447.1824	0.0429
447.3852	0.0228
447.5879	0.0359
447.7906	0.0376
447.9933	0.0338
448.196	0.0358
448.3986	0.0395
448.6013	0.0356
448.8039	0.0131
449.0066	0.0297
449.2092	0.0351
449.4118	0.0384
449.6143	0.0332
449.8169	0.0256
450.0195	0.0103
450.222	0.0106
450.4245	0.0102
450.627	0.0223
450.8295	0.0322
451.032	0.0242
451.2345	0.0122
451.4369	0.03
451.6394	0.0186
451.8418	0.0099
452.0442	0.0058
452.2466	0.0109
452.449	-0.0045
452.6513	0.0231
452.8537	0.0002
453.056	-0.0076
453.2583	0.0264
453.4607	0.0056
453.663	0.0123
453.8652	0.024
454.0675	0.0034
454.2697	0.0157
454.472	0.0106
454.6742	0.0172
454.8764	0.0082
455.0786	0.0083
455.2808	0.0034
455.4829	0.0186
455.6851	0.0327
455.8872	0.006
456.0893	0.0187
456.2915	-0.0038
456.4935	0.0116
456.6956	0.0091
456.8977	0.0119
457.0997	0.0092
457.3018	-0.0016
457.5038	0.01
457.7058	-0.011
457.9078	0.0012
458.1098	0.0093
458.3117	0.0123
458.5137	0.0084
458.7156	0.002
458.9175	0.0055
459.1194	0.0023
459.3213	-0.0019
459.5232	0.0053
459.725	-0.0163
459.9269	-0.0074
460.1287	-0.0178
460.3305	-0.0044
460.5323	-0.0013
460.7341	0.0034
460.9359	0.0092
461.1376	-0.0078
461.3394	-0.0004
461.5411	0.0033
461.7428	0.0032
461.9445	0.0079
462.1462	0.0121
462.3479	-0.0132
462.5495	0.0023
462.7512	0.0053
462.9528	0.008
463.1544	-0.0076
463.356	-0.0163
463.5576	0.0024
463.7592	-0.0018
463.9607	0.0067
464.1623	0.0074
464.3638	0.0141
464.5653	0.0004
464.7668	-0.005
464.9683	0.0017
465.1697	0.0056
465.3712	-0.0155
465.5726	-0.008
465.7741	-0.0012
465.9755	-0.0089
466.1769	-0.0131
466.3782	-0.0068
466.5796	-0.0121
466.7809	0.0027
466.9823	-0.0072
467.1836	0.0076
467.3849	-0.0081
467.5862	-0.0085
467.7875	-0.0045
467.9887	0.0071
468.19	-0.0112
468.3912	-0.0038
468.5924	-0.0133
468.7936	-0.0121
468.9948	-0.0097
469.196	0.0046
469.3972	-0.0174
469.5983	0.0167
469.7994	-0.0164
470.0006	0.0016
470.2017	-0.0192
470.4027	-0.0234
470.6038	-0.0013
470.8049	-0.0108
471.0059	-0.0179
471.2069	-0.0399
471.408	-0.0091
471.6089	0.0043
471.8099	-0.0078
472.0109	0.0037
472.2119	-0.0095
472.4128	-0.0298
472.6137	-0.0031
472.8146	-0.0224
473.0155	0.0002
473.2164	-0.0019
473.4173	-0.0054
473.6181	-0.0113
473.819	-0.0137
474.0198	-0.0047
474.2206	-0.0123
474.4214	-0.015
474.6222	-0.0022
474.8229	-0.0032
475.0237	-0.01
475.2244	-0.0068
475.4251	-0.0105
475.6258	-0.0051
475.8265	-0.0032
476.0272	-0.0014
476.2278	-0.0008
476.4285	-0.009
476.6291	-0.0067
476.8297	-0.0123
477.0303	-0.0156
477.2309	-0.0111
477.4315	-0.022
477.632	-0.0077
477.8326	-0.0099
478.0331	-0.0129
478.2336	0.005
478.4341	-0.0027
478.6346	-0.0038
478.8351	-0.0192
479.0355	-0.0011
479.236	-0.0171
479.4364	-0.0105
479.6368	-0.0015
479.8372	-0.0223
480.0376	-0.007
480.2379	-0.0213
480.4383	-0.0147
480.6386	0.0006
480.8389	-0.0125
481.0392	-0.015
481.2395	-0.0111
481.4398	0.005
481.6401	-0.0066
481.8403	-0.0146
482.0405	-0.0056
482.2408	-0.0167
482.441	-0.0065
482.6411	-0.0124
482.8413	-0.0103
483.0415	-0.011
483.2416	-0.0126
483.4417	-0.0099
483.6419	-0.011
483.8419	-0.0171
484.042	0.0037
484.2421	-0.014
484.4422	-0.0141
484.6422	-0.0123
484.8422	-0.0011
485.0422	-0.0174
485.2422	0.0029
485.4422	-0.0167
485.6422	-0.0115
485.8421	-0.0077
486.042	-0.0117
486.242	-0.0143
486.4419	-0.0183
486.6417	-0.0206
486.8416	-0.0062
487.0415	-0.0097
487.2413	-0.0114
487.4411	-0.0063
487.641	-0.0109
487.8408	-0.0039
488.0405	-0.0183
488.2403	-0.0219
488.4401	0.0016
488.6398	-0.007
488.8395	-0.0075
489.0392	-0.0045
489.2389	-0.0129
489.4386	-0.0128
489.6383	-0.0101
489.8379	-0.004
490.0376	-0.0096
490.2372	-0.0197
490.4368	-0.0075
490.6364	-0.0086
490.836	-0.0213
491.0355	-0.0017
491.2351	-0.0161
491.4346	-0.018
491.6341	-0.0284
491.8336	-0.0136
492.0331	-0.0184
492.2326	-0.0123
492.432	-0.0153
492.6315	-0.011
492.8309	-0.0174
493.0303	-0.0152
493.2297	-0.0116
493.4291	-0.0117
493.6284	-0.0084
493.8278	-0.0108
494.0271	-0.0093
494.2264	-0.005
494.4257	-0.0178
494.625	-0.0059
494.8243	-0.0223
495.0236	-0.0169
495.2228	-0.0087
495.422	-0.0066
495.6213	-0.0149
495.8205	-0.0076
496.0196	-0.0156
496.2188	-0.0007
496.418	-0.0147
496.6171	-0.0154
496.8162	-0.0164
497.0153	-0.0038
497.2144	-0.0114
497.4135	-0.0047
497.6126	-0.0202
497.8116	-0.0213
498.0107	-0.0061
498.2097	-0.0147
498.4087	-0.013
498.6077	-0.0064
498.8067	-0.0212
499.0056	0.0026
499.2046	-0.0163
499.4035	-0.0294
499.6024	-0.016
499.8013	-0.0057
500.0002	-0.0192
500.199	-0.015
500.3979	-0.0225
500.5967	-0.02
500.7956	-0.0085
500.9944	-0.0157
501.1932	-0.0182
501.3919	-0.0084
501.5907	-0.0243
501.7895	-0.0114
501.9882	-0.0175
502.1869	-0.0124
502.3856	-0.0181
502.5843	-0.0179
502.783	-0.013
502.9816	-0.0129
503.1803	-0.0127
503.3789	-0.013
503.5775	-0.0001
503.7761	-0.0202
503.9747	-0.012
504.1732	-0.0156
504.3718	-0.01
504.5703	-0.0126
504.7689	-0.0111
504.9674	-0.0121
505.1658	-0.0099
505.3643	-0.0163
505.5628	-0.0144
505.7612	-0.0068
505.9597	-0.0082
506.1581	-0.0153
506.3565	0.0002
506.5549	-0.0116
506.7532	-0.0214
506.9516	-0.0154
507.1499	-0.0066
507.3482	-0.0209
507.5465	-0.0136
507.7448	-0.0134
507.9431	-0.008
508.1414	-0.0152
508.3396	-0.008
508.5379	-0.0034
508.7361	-0.0084
508.9343	-0.0142
509.1325	-0.0051
509.3306	-0.0071
509.5288	-0.0063
509.7269	-0.0169
509.9251	-0.0084
510.1232	-0.0142
510.3213	-0.0131
510.5193	0.0007
510.7174	-0.0215
510.9154	-0.0136
511.1135	-0.0099
511.3115	-0.0105
511.5095	-0.0154
511.7075	-0.0022
511.9055	-0.0043
512.1034	-0.0151
512.3014	-0.0003
512.4993	-0.0112
512.6972	-0.018
512.8951	-0.0112
513.093	-0.0123
513.2908	-0.0139
513.4887	-0.0116
513.6865	-0.0093
513.8844	-0.0028
514.0822	-0.0133
514.2799	-0.0163
514.4777	-0.0128
514.6755	-0.0165
514.8732	-0.0089
515.0709	-0.008
515.2687	-0.0063
515.4664	-0.0084
515.664	-0.0075
515.8617	-0.0191
516.0594	-0.0179
516.257	-0.0025
516.4546	-0.0142
516.6522	-0.0045
516.8498	-0.0142
517.0474	0.0005
517.2449	0.0001
517.4425	-0.0192
517.64	-0.0162
517.8375	-0.0003
518.035	-0.0091
518.2325	-0.0198
518.43	-0.0092
518.6274	-0.01
518.8249	-0.0224
519.0223	-0.0086
519.2197	-0.0043
519.4171	-0.0165
519.6145	-0.0249
519.8118	-0.017
520.0092	-0.0103
520.2065	-0.0025
520.4038	-0.0118
520.6011	-0.0067
520.7984	-0.017
520.9956	-0.017
521.1929	-0.0114
521.3901	-0.0069
521.5874	-0.0126
521.7846	-0.0186
521.9818	-0.011
522.1789	-0.0174
522.3761	-0.0195
522.5732	-0.0124
522.7704	-0.0159
522.9675	-0.0102
523.1646	-0.0193
523.3617	-0.0119
523.5587	-0.0148
523.7558	-0.0153
523.9528	-0.0088
524.1498	-0.0065
524.3468	-0.0133
524.5438	-0.0174
524.7408	-0.0105
524.9378	-0.0072
525.1347	-0.0116
525.3316	-0.0105
525.5285	-0.017
525.7254	-0.0169
525.9223	-0.0103
526.1192	-0.0069
526.316	-0.0123
526.5129	-0.0068
526.7097	-0.0077
526.9065	-0.0108
527.1033	-0.0073
527.3	-0.0038
527.4968	-0.0037
527.6935	-0.0089
527.8903	-0.0208
528.087	-0.0126
528.2837	-0.0174
528.4804	-0.0074
528.677	-0.0112
528.8737	-0.0072
529.0703	-0.0083
529.2669	-0.0105
529.4635	-0.0221
529.6601	-0.0105
529.8567	-0.003
530.0532	-0.0152
530.2498	-0.0067
530.4463	0.0008
530.6428	-0.0159
530.8393	-0.0051
531.0358	-0.0079
531.2322	-0.016
531.4287	-0.0172
531.6251	-0.0213
531.8215	0.0006
532.0179	-0.003
532.2143	0.0023
532.4107	-0.0061
532.607	-0.0157
532.8034	-0.0018
532.9997	-0.0095
533.196	-0.0053
533.3923	-0.0191
533.5886	-0.0086
533.7848	-0.0115
533.9811	-0.0153
534.1773	-0.0084
534.3735	0.0056
534.5697	-0.0026
534.7659	-0.0091
534.9621	0.0028
535.1582	-0.0126
535.3544	-0.0127
535.5505	-0.0151
535.7466	-0.0166
535.9427	-0.0107
536.1387	-0.0104
536.3348	-0.0105
536.5308	-0.0051
536.7269	-0.0223
536.9229	-0.0035
537.1189	-0.0103
537.3148	-0.0108
537.5108	-0.0125
537.7068	-0.0074
537.9027	0.001
538.0986	-0.0096
538.2945	-0.0112
538.4904	-0.0101
538.6863	-0.0119
538.8821	-0.0035
539.078	-0.0064
539.2738	0.0006
539.4696	-0.0174
539.6654	-0.0003
539.8611	0.0048
540.0569	-0.0127
540.2526	-0.0143
540.4484	-0.0042
540.6441	0.0003
540.8398	-0.0075
541.0355	-0.0036
541.2311	-0.0057
541.4268	-0.017
541.6224	-0.001
541.818	-0.0116
542.0136	-0.0076
542.2092	-0.005
542.4048	-0.0073
542.6003	0.0026
542.7959	-0.0128
542.9914	-0.0069
543.1869	-0.0022
543.3824	-0.0082
543.5779	-0.0153
543.7734	-0.0054
543.9688	-0.0158
544.1642	-0.0044
544.3596	0.0073
544.555	-0.0089
544.7504	0
544.9458	-0.0056
545.1411	-0.0026
545.3365	-0.0094
545.5318	-0.0069
545.7271	-0.0062
545.9224	-0.008
546.1177	-0.0062
546.3129	-0.0025
546.5081	-0.0189
546.7034	-0.0068
546.8986	-0.0044
547.0938	-0.015
547.289	-0.0082
547.4841	-0.006
547.6793	-0.0025
547.8744	-0.013
548.0695	-0.0056
548.2646	-0.0096
548.4597	-0.0088
548.6548	-0.0117
548.8498	-0.0011
549.0448	0.0009
549.2399	-0.0057
549.4349	0.0048
549.6298	0.0012
549.8248	-0.0026
550.0198	-0.0014
550.2147	-0.0109
550.4096	-0.0177
550.6045	-0.0037
550.7994	-0.0041
550.9943	-0.0026
551.1892	-0.0032
551.384	0.0031
551.5788	-0.009
551.7737	-0.006
551.9685	-0.0091
552.1632	0.0053
552.358	-0.0004
552.5528	-0.0024
552.7475	-0.0162
552.9422	-0.0075
553.1369	-0.0013
553.3316	0.0011
553.5263	-0.0095
553.7209	0.0067
553.9156	-0.0106
554.1102	-0.0158
554.3048	-0.0042
554.4994	0.0059
554.694	-0.0014
554.8885	0.0014
555.0831	-0.0109
555.2776	-0.0101
555.4721	-0.0059
555.6666	-0.0045
555.8611	0.0047
556.0555	-0.0116
556.25	-0.0126
556.4444	-0.0154
556.6388	-0.0046
556.8332	-0.0087
557.0276	-0.0027
557.222	-0.0081
557.4163	-0.0065
557.6107	-0.0222
557.805	0.0029
557.9993	-0.0067
558.1936	-0.0134
558.3879	-0.0035
558.5821	-0.0033
558.7764	-0.0104
558.9706	-0.0034
559.1648	0.001
559.359	-0.0067
559.5532	-0.0079
559.7473	-0.0034
559.9415	-0.0041
560.1356	-0.0159
560.3297	-0.0171
560.5238	-0.0091
560.7179	-0.0059
560.9119	-0.0042
561.106	-0.0099
561.3	-0.009
561.494	-0.002
561.688	-0.0014
561.882	-0.0121
562.076	-0.0029
562.2699	-0.0013
562.4639	-0.0038
562.6578	-0.0034
562.8517	-0.0024
563.0456	-0.0029
563.2395	-0.0058
563.4333	-0.0004
563.6272	0.0101
563.821	-0.0076
564.0148	-0.0037
564.2086	-0.0064
564.4024	-0.0032
564.5961	-0.0047
564.7899	0.0054
564.9836	-0.0009
565.1773	-0.0119
565.371	-0.0015
565.5647	0.0004
565.7584	0.0065
565.952	0.0021
566.1456	-0.0016
566.3393	-0.006
566.5329	-0.0088
566.7264	-0.0148
566.92	-0.0099
567.1136	0.0015
567.3071	-0.01
567.5006	-0.0041
567.6941	-0.0002
567.8876	-0.0036
568.0811	-0.0114
568.2745	-0.0045
568.468	-0.0001
568.6614	-0.0051
568.8548	-0.0038
569.0482	-0.0028
569.2416	-0.0002
569.4349	-0.0141
569.6283	0.003
569.8216	-0.0067
570.0149	-0.0064
570.2082	0.0037
570.4015	0.0088
570.5947	0.0018
570.788	0.0023
570.9812	0.0063
571.1744	-0.0038
571.3676	0.001
571.5608	-0.0021
571.754	-0.003
571.9471	-0.0005
572.1402	-0.0021
572.3333	-0.002
572.5264	-0.001
572.7195	-0.0051
572.9126	-0.0008
573.1057	-0.0021
573.2987	-0.0062
573.4917	0.004
573.6847	-0.01
573.8777	0.0011
574.0707	0.0066
574.2636	-0.0048
574.4566	-0.0036
574.6495	0.0059
574.8424	-0.0066
575.0353	-0.0031
575.2281	0.0025
575.421	-0.0015
575.6138	0.0036
575.8067	-0.0054
575.9995	0.0008
576.1923	0.0016
576.385	-0.0029
576.5778	-0.0041
576.7706	-0.0035
576.9633	0.0059
577.156	0.0019
577.3487	-0.0055
577.5414	-0.0006
577.734	-0.0045
577.9267	-0.0018
578.1193	-0.009
578.3119	-0.0063
578.5045	0.0026
578.6971	-0.0022
578.8897	0.0054
579.0822	-0.0005
579.2747	0.0013
579.4673	-0.0029
579.6598	-0.0076
579.8522	0.0032
580.0447	-0.0052
580.2372	-0.0029
580.4296	0.0043
580.622	-0.0034
580.8144	-0.0035
581.0068	-0.0074
581.1992	-0.0099
581.3915	-0.0075
581.5839	-0.0027
581.7762	-0.0072
581.9685	-0.0004
582.1608	0.0013
582.353	-0.003
582.5453	-0.0021
582.7375	0.0041
582.9298	-0.0011
583.122	-0.0011
583.3142	-0.0008
583.5063	-0.0016
583.6985	-0.0016
583.8906	-0.0035
584.0827	-0.0036
584.2749	0.0009
584.4669	-0.0038
584.659	0.0003
584.8511	-0.006
585.0431	-0.0016
585.2352	0.0044
585.4272	-0.0039
585.6192	0.0018
585.8111	-0.0009
586.0031	-0.0072
586.195	0.0026
586.387	0.006
586.5789	-0.0041
586.7708	-0.0013
586.9627	-0.0038
587.1545	-0.0043
587.3464	0.0021
587.5382	0.0038
587.73	0.0028
587.9218	0.0085
588.1136	-0.0075
588.3053	0.005
588.4971	-0.0047
588.6888	-0.0078
588.8805	-0.0063
589.0722	0.0019
589.2639	-0.0038
589.4556	-0.0031
589.6472	-0.0021
589.8389	-0.0097
590.0305	-0.0097
590.2221	-0.0015
590.4137	-0.01
590.6052	-0.0001
590.7968	-0.0075
590.9883	0.0022
591.1798	-0.0006
591.3713	-0.0017
591.5628	0.0054
591.7543	-0.0003
591.9458	-0.0074
592.1372	0.0081
592.3286	0.0041
592.52	-0.001
592.7114	-0.004
592.9028	-0.0051
593.0941	0.0016
593.2855	0.003
593.4768	-0.0059
593.6681	-0.0112
593.8594	0.002
594.0506	-0.0027
594.2419	0.0038
594.4331	0.0008
594.6244	0.0045
594.8156	-0.003
595.0067	0.0024
595.1979	0.003
595.3891	0.0016
595.5802	-0.0034
595.7713	-0.0034
595.9624	-0.0035
596.1535	0.0012
596.3446	0.0032
596.5357	-0.0058
596.7267	-0.0009
596.9177	-0.0004
597.1087	-0.0039
597.2997	-0.0061
597.4907	0.0017
597.6817	-0.01
597.8726	-0.0006
598.0635	-0.0054
598.2544	-0.0039
598.4453	-0.0021
598.6362	-0.0022
598.827	-0.0026
599.0179	-0.0004
599.2087	-0.0043
599.3995	0.0036
599.5903	-0.002
599.7811	0.0005
599.9718	0.0011
600.1626	-0.0056
600.3533	-0.0051
600.544	-0.0033
600.7347	0.0026
600.9254	-0.0003
601.116	-0.0089
601.3067	-0.0065
601.4973	-0.0028
601.6879	0.0051
601.8785	-0.0066
602.0691	-0.0022
602.2596	0.0059
602.4502	-0.0023
602.6407	0.004
602.8312	0.0009
603.0217	-0.0083
603.2122	0.0008
603.4027	-0.0017
603.5931	-0.003
603.7835	-0.0036
603.9739	-0.0008
604.1643	-0.0054
604.3547	-0.0093
604.5451	-0.0023
604.7354	-0.0062
604.9257	-0.0016
605.116	-0.0066
605.3063	-0.0021
605.4966	0.0038
605.6869	0.0046
605.8771	0.0041
606.0673	0.0062
606.2575	-0.0006
606.4477	0.0065
606.6379	0.0029
606.8281	-0.0023
607.0182	-0.0033
607.2083	0.0154
607.3985	-0.0036
607.5885	-0.003
607.7786	0.0012
607.9687	-0.0035
608.1587	0.0025
608.3488	0.001
608.5388	-0.0028
608.7288	-0.0003
608.9187	-0.0024
609.1087	-0.0019
609.2986	-0.0057
609.4886	0.0026
609.6785	-0.0017
609.8684	0.0071
610.0582	0.0012
610.2481	0.0069
610.4379	-0.001
610.6278	0.0015
610.8176	-0.0031
611.0074	-0.0056
611.1971	-0.0008
611.3869	-0.0019
611.5766	-0.006
611.7664	0.0035
611.9561	-0.0004
612.1458	0.0065
612.3354	-0.0088
612.5251	-0.0015
612.7147	0.003
612.9044	0.0048
613.094	-0.0077
613.2836	0.0028
613.4731	0.0005
613.6627	-0.0004
613.8522	0.0014
614.0417	0.0016
614.2313	-0.0014
614.4207	-0.0088
614.6102	-0.0024
614.7997	-0.0036
614.9891	-0.0066
615.1785	0.0022
615.3679	-0.0026
615.5573	0.0017
615.7467	0.0018
615.9361	-0.0081
616.1254	-0.0005
616.3147	-0.0027
616.504	-0.0067
616.6933	-0.0026
616.8826	0.0008
617.0718	0.002
617.2611	0.0005
617.4503	-0.0081
617.6395	-0.0062
617.8287	-0.0033
618.0179	0.0076
618.207	0.0087
618.3961	0.0038
618.5853	-0.0017
618.7744	0.004
618.9634	0.0028
619.1525	0.0016
619.3416	0.0032
619.5306	-0.0038
619.7196	-0.0001
619.9086	-0.0062
620.0976	-0.0022
620.2866	0.0055
620.4755	0.0057
620.6645	0.0023
620.8534	0.0054
621.0423	0.0074
621.2312	0.0089
621.42	0.0031
621.6089	0.0023
621.7977	0.0054
621.9865	-0.0064
622.1753	-0
622.3641	0.0024
622.5529	0.0024
622.7416	0.0081
622.9303	-0.0032
623.1191	-0.0016
623.3078	-0.0078
623.4964	0.0055
623.6851	-0.0067
623.8737	0.0044
624.0624	0.0064
624.251	0.0029
624.4396	0.0029
624.6282	0.0007
624.8167	-0.0002
625.0053	0.0017
625.1938	0.003
625.3823	-0.0022
625.5708	0.0015
625.7593	-0.0033
625.9477	-0.0067
626.1362	-0.0094
626.3246	0.0096
626.513	0.004
626.7014	0.0026
626.8898	-0.0062
627.0781	-0.0042
627.2665	-0.0033
627.4548	0.0079
627.6431	0.0046
627.8314	0.0085
628.0197	0.0116
628.2079	-0.0056
628.3962	-0.0009
628.5844	0.0048
628.7726	0.0012
628.9608	0.0042
629.1489	-0.0031
629.3371	0.0007
629.5252	0.0001
629.7134	0.0075
629.9015	0.0027
630.0895	-0.0039
630.2776	0.0056
630.4657	0.0014
630.6537	0.0028
630.8417	-0.0021
631.0297	-0.0017
631.2177	-0.0041
631.4057	-0.0147
631.5936	-0.0025
631.7815	-0.0009
631.9695	-0
632.1574	0.0061
632.3452	0.0028
632.5331	0.0021
632.7209	0.0005
632.9088	0.0129
633.0966	0.0119
633.2844	-0.005
633.4722	0.0075
633.6599	0.0139
633.8477	0.0018
634.0354	-0.002
634.2231	-0.0015
634.4108	-0.0043
634.5985	0.0064
634.7861	0.0047
634.9738	-0.0095
635.1614	-0.0034
635.349	-0.0023
635.5366	-0.0052
635.7242	-0.0012
635.9117	0.0029
636.0993	0.0001
636.2868	0.0114
636.4743	-0.0032
636.6618	0.0108
636.8492	0.0032
637.0367	0.0018
637.2241	-0.0092
637.4115	-0.0012
637.5989	-0.0055
637.7863	-0.0029
637.9737	-0.0025
638.161	-0.0046
638.3484	0.0047
638.5357	0.0069
638.723	-0.0025
638.9103	0.0015
639.0975	-0.0005
639.2848	-0.0028
639.472	-0.0023
639.6592	-0.0018
639.8464	0.0045
640.0336	0.0042
640.2208	0
640.4079	0
640.595	0.0002
640.7821	-0.0074
640.9692	-0.0038
641.1563	-0.0041
641.3434	-0.0015
641.5304	-0.0085
641.7174	-0.0011
641.9044	0.0005
642.0914	-0.0013
642.2784	0.0015
642.4653	0.0038
642.6523	-0.0023
642.8392	-0
643.0261	0.0056
643.213	-0.001
643.3999	-0.0081
643.5867	-0.0067
643.7735	-0.0065
643.9604	-0.01
644.1472	-0.0077
644.3339	-0.0009
644.5207	-0.0016
644.7075	-0.0041
644.8942	-0.0008
645.0809	0.0048
645.2676	0.0053
645.4543	0.0043
645.6409	0.0031
645.8276	-0.0003
646.0142	0.0023
646.2008	-0.0101
646.3874	-0.0024
646.574	-0.0058
646.7605	-0.0079
646.9471	-0.0102
647.1336	0.0036
647.3201	0.0043
647.5066	-0.0035
647.6931	0.0096
647.8795	0.0009
648.0659	-0.002
648.2524	0.0047
648.4388	-0.0063
648.6252	-0.0063
648.8115	-0.0003
648.9979	-0.0044
649.1842	-0.0042
649.3705	0.0047
649.5568	-0.0019
649.7431	0.0038
649.9294	-0.0069
650.1156	0.0003
650.3018	-0.0067
650.488	0.0025
650.6742	-0.0033
650.8604	-0.0063
651.0466	-0.0066
651.2327	-0.0033
651.4188	-0.0031
651.6049	-0.0071
651.791	-0.0077
651.9771	0.0044
652.1632	0.0048
652.3492	-0.0036
652.5352	0.0016
652.7212	-0.0039
652.9072	0.0015
653.0932	0.0015
653.2791	0
653.465	-0.0086
653.651	-0.0115
653.8369	-0.006
654.0227	-0.0052
654.2086	0.0019
654.3944	0.0011
654.5803	-0.0044
654.7661	-0.0056
654.9519	0.0031
655.1377	-0.0043
655.3234	-0.0014
655.5092	-0.0035
655.6949	-0.0064
655.8806	-0.0051
656.0663	-0.0047
656.2519	-0.0022
656.4376	-0.0094
656.6232	-0.0026
656.8088	-0.0009
656.9945	-0.004
657.18	-0.0065
657.3656	-0.0029
657.5511	-0.0068
657.7367	-0.0031
657.9222	0.0052
658.1077	-0.0033
658.2932	-0.0027
658.4786	-0.0077
658.6641	-0.0065
658.8495	0.0002
659.0349	-0.0113
659.2203	0.0006
659.4057	-0.0048
659.591	0.0018
659.7764	-0.0059
659.9617	-0.0047
660.147	-0.0026
660.3323	-0.0045
660.5176	0.0056
660.7028	0.0018
660.888	0.0014
661.0733	-0.0053
661.2585	-0.0077
661.4436	-0.0121
661.6288	-0.0038
661.8139	-0.0018
661.9991	-0.001
662.1842	-0.0052
662.3693	0.0004
662.5544	-0.0076
662.7394	-0.0059
662.9245	-0.009
663.1095	-0.0035
663.2945	-0.0069
663.4795	-0.0058
663.6644	0.0007
663.8494	-0.0058
664.0343	0.0011
664.2193	-0.0076
664.4042	0.0018
664.589	-0.0051
664.7739	-0.0055
664.9587	-0.0069
665.1436	-0.0008
665.3284	-0.0008
665.5132	-0.0067
665.698	0
665.8827	0.0064
666.0675	0.0044
666.2522	-0.0047
666.4369	0.0079
666.6216	0.0022
666.8063	0.0039
666.9909	0.0011
667.1756	0.0038
667.3602	0.0002
667.5448	-0.0005
667.7294	0.0023
667.9139	0.0033
668.0985	0.0063
668.283	0.0022
668.4675	-0.0005
668.652	0.0019
668.8365	0.0004
669.0209	0.0018
669.2054	0.0112
669.3898	0.0042
669.5742	0
669.7586	0.0068
669.943	0.0076
670.1273	0.0014
670.3117	-0.0026
670.496	0.0036
670.6803	0.0102
670.8646	0.0048
671.0488	0.0007
671.2331	0.0027
671.4173	0.0052
671.6015	-0.0033
671.7857	0.0007
671.9699	0.0038
672.1541	0.0036
672.3382	0.0029
672.5223	0.0037
672.7064	0.0034
672.8905	0.0093
673.0746	-0.0005
673.2587	0.0025
673.4427	0.0001
673.6267	0.001
673.8107	0.0115
673.9947	0.0012
674.1787	-0.0005
674.3626	-0.0059
674.5465	0.0082
674.7304	-0.0041
674.9143	0.0022
675.0982	0.0058
675.2821	-0.006
675.4659	0.005
675.6497	-0.003
675.8335	-0.0054
676.0173	-0.0004
676.2011	0.0062
676.3849	0.0016
676.5686	-0.0054
676.7523	0.0047
676.936	0.0038
677.1197	-0.0014
677.3034	0.0016
677.487	0.0039
677.6706	0.0025
677.8542	0.0034
678.0378	-0.0012
678.2214	0.0036
678.405	-0.0049
678.5885	-0.0024
678.772	0.0049
678.9555	-0.005
679.139	-0.002
679.3225	-0.0082
679.5059	0.0031
679.6894	0.0005
679.8728	0
680.0562	-0.0135
680.2395	-0.0092
680.4229	-0.005
680.6062	0.0016
680.7896	0.0009
680.9729	-0.0092
681.1562	-0.0044
681.3394	-0.0037
681.5227	-0.0107
681.7059	-0.0103
681.8891	-0.0017
682.0723	0.01
682.2555	0.0022
682.4387	-0.0083
682.6218	-0.0074
682.805	0.0068
682.9881	-0.0048
683.1712	-0.0062
683.3542	-0.0047
683.5373	0.0014
683.7203	-0.0076
683.9034	0.0004
684.0864	-0.0101
684.2694	-0.0033
684.4523	0.0039
684.6353	-0.0073
684.8182	-0.0032
685.0011	-0.0137
685.184	0.0028
685.3669	-0.004
685.5498	-0.0025
685.7326	0.0041
685.9154	-0.0064
686.0982	0.0084
686.281	0.0089
686.4638	0.0041
686.6465	0.0032
686.8293	0.0017
687.012	-0.0037
687.1947	-0.0083
687.3774	-0.0009
687.56	-0.0051
687.7427	0.0041
687.9253	-0.0071
688.1079	0.0023
688.2905	0.0068
688.4731	0.0004
688.6556	-0.0107
688.8382	-0.0072
689.0207	-0.0049
689.2032	-0.003
689.3857	-0.0068
689.5681	0.0045
689.7506	-0.0041
689.933	-0.0053
690.1154	-0.002
690.2978	-0.0081
690.4802	0.0004
690.6626	-0.0149
690.8449	-0.0103
691.0272	0.007
691.2095	-0.0026
691.3918	-0.0068
691.5741	-0.0034
691.7563	-0.0027
691.9386	0.0012
692.1208	-0.005
692.303	0.0005
692.4852	-0.0068
692.6673	-0.0021
692.8495	-0.0032
693.0316	-0.005
693.2137	0.0002
693.3958	0.0052
693.5778	0.0039
693.7599	0.0008
693.9419	0.0031
694.1239	0.0045
694.3059	-0.0022
694.4879	0.0095
694.6699	0.0118
694.8518	0.0038
695.0337	-0.0058
695.2157	0.0051
695.3975	0.0048
695.5794	0.0074
695.7613	0.005
695.9431	-0.0032
696.1249	0.0051
696.3067	0.0069
696.4885	0.005
696.6703	-0.0058
696.852	0.0038
697.0337	0.0038
697.2154	-0.0023
697.3971	-0.0022
697.5788	0.0008
697.7605	-0.0003
697.9421	-0.0001
698.1237	-0.0085
698.3053	-0.0067
698.4869	-0.0069
698.6685	-0.0095
698.85	-0.0073
699.0315	0.0004
699.213	-0.0112
699.3945	0.0015
699.576	0.0063
699.7575	0.0023
699.9389	0.0055
700.1203	-0.0016
700.3017	-0.0012
700.4831	-0.0067
700.6645	-0.0046
700.8458	0.0094
701.0271	0.0038
701.2084	0.0052
701.3897	0.0021
701.571	0.0062
701.7523	-0.0044
701.9335	-0.0035
702.1147	-0.0075
702.2959	-0.0036
702.4771	0.0026
702.6583	-0.0011
702.8394	-0.002
703.0205	-0.0041
703.2016	-0.0087
703.3827	-0.004
703.5638	0.0102
703.7449	-0.005
703.9259	0.0075
704.1069	-0.0051
704.2879	0.0077
704.4689	0.0019
704.6499	0.0006
704.8308	0.0069
705.0117	0.0034
705.1927	0.0066
705.3735	-0.0019
705.5544	-0.002
705.7353	0.0022
705.9161	-0.0055
706.0969	-0.0043
706.2777	-0.0018
706.4585	-0.0014
706.6393	0.0022
706.82	-0.0115
707.0007	0.0019
707.1815	0.0032
707.3621	0.0043
707.5428	0.0004
707.7235	0.0001
707.9041	0.0109
708.0847	-0.0023
708.2653	-0.0016
708.4459	-0.0124
708.6265	0.0032
708.807	0.0035
708.9875	-0
709.168	-0.0061
709.3485	-0.0009
709.529	-0.0034
709.7095	-0.0112
709.8899	-0.0019
710.0703	-0.0119
710.2507	-0.0036
710.4311	-0.003
710.6115	-0.0098
710.7918	-0.0074
710.9721	-0.0049
711.1524	-0.0106
711.3327	-0.0017
711.513	0.0039
711.6932	-0.0066
711.8735	0.0033
712.0537	-0.0036
712.2339	0.0003
712.4141	-0.0111
712.5942	-0.0105
712.7744	-0.0107
712.9545	-0.0142
713.1346	-0.0049
713.3147	-0.0091
713.4947	-0.0061
713.6748	-0.0063
713.8548	-0.0013
714.0348	-0.0025
714.2148	-0.0013
714.3948	0.0026
714.5748	-0.0012
714.7547	0.0012
714.9346	0.0041
715.1145	-0.0078
715.2944	-0.012
715.4743	-0.0008
715.6541	-0.0071
715.834	0.0038
716.0138	-0.0009
716.1936	-0.0142
716.3733	-0.0103
716.5531	-0.0011
716.7328	-0.0059
716.9126	-0.0087
717.0923	-0.0003
717.2719	-0.0111
717.4516	-0.0092
717.6312	-0.0048
717.8109	-0.0135
717.9905	-0.0045
718.1701	-0.0045
718.3496	-0.0084
718.5292	0.0003
718.7087	-0.0025
718.8882	0.0045
719.0677	-0.0002
719.2472	-0.0048
719.4267	-0.0064
719.6061	-0.0043
719.7856	-0.0036
719.965	0.008
720.1443	-0.0084
720.3237	0.008
720.5031	-0.01
720.6824	0.0082
720.8617	0.0026
721.041	-0.0054
721.2203	0.0195
721.3995	0.007
721.5788	0.0034
721.758	0.0119
721.9372	0.002
722.1164	0.0041
722.2956	0.0039
722.4747	0.0099
722.6538	-0.0028
722.8329	0.0125
723.012	0.005
723.1911	0.0011
723.3702	-0.0026
723.5492	0.0104
723.7282	-0.0044
723.9072	-0.0022
724.0862	-0.0039
724.2652	-0.0022
724.4441	0.002
724.623	0
724.8019	-0.0086
724.9808	0.0017
725.1597	-0.0097
725.3385	0.0076
725.5174	0.0089
725.6962	-0.0038
725.875	-0.0022
726.0538	0.0036
726.2325	-0.0031
726.4112	-0.0078
726.59	-0.0107
726.7687	-0.0096
726.9474	0.0074
727.126	-0.0006
727.3047	-0.0067
727.4833	-0.0068
727.6619	-0.0118
727.8405	-0.0155
728.0191	-0.0098
728.1976	0.0014
728.3762	-0.004
728.5547	-0.0088
728.7332	-0.0088
728.9116	-0.0081
729.0901	0.0081
729.2686	-0.0128
729.447	-0.0056
729.6254	-0.0014
729.8038	-0.0124
729.9821	-0.0155
730.1605	-0.0037
730.3388	-0.0051
730.5171	-0.0037
730.6954	-0.0041
730.8737	-0.0011
731.0519	-0.0014
731.2302	-0.0018
731.4084	0.0034
731.5866	-0.0013
731.7648	-0.0037
731.9429	-0.0038
732.1211	-0.0077
732.2992	0.0067
732.4773	-0.0035
732.6554	0.0026
732.8335	0.0012
733.0115	0.0068
733.1896	0.004
733.3676	-0.0075
733.5456	-0.0021
733.7235	0.0116
733.9015	-0.0041
734.0794	0.0079
734.2574	-0.0025
734.4353	-0.0019
734.6131	0.0075
734.791	-0.001
734.9689	-0.0061
735.1467	0.0054
735.3245	-0.0144
735.5023	-0.0119
735.68	-0.006
735.8578	-0.0016
736.0355	-0.0156
736.2132	-0.0075
736.3909	-0.0106
736.5686	-0.0108
736.7463	-0.0067
736.9239	-0.0108
737.1015	-0.0184
737.2791	-0.0039
737.4567	-0.003
737.6343	-0.008
737.8118	-0.0033
737.9894	-0.0006
738.1669	-0.0136
738.3444	-0.0069
738.5218	-0.0053
738.6993	-0.0046
738.8767	-0.0006
739.0541	0.0083
739.2315	-0.0119
739.4089	-0.0042
739.5863	-0.0041
739.7636	-0.0081
739.9409	-0.0106
740.1182	0.0025
740.2955	0.0089
740.4728	0.0073
740.65	-0.009
740.8272	0.0014
741.0044	-0.0087
741.1816	-0.0063
741.3588	-0.0016
741.5359	-0.0102
741.7131	-0.0196
741.8902	-0.0039
742.0673	-0.003
742.2444	-0.0124
742.4214	-0.0059
742.5985	-0.0081
742.7755	-0.0099
742.9525	-0.0161
743.1295	-0.0068
743.3064	-0.001
743.4834	-0.0016
743.6603	-0.0125
743.8372	-0.0139
744.0141	0.0048
744.191	-0.0046
744.3678	-0.0118
744.5446	-0.0029
744.7215	0.0059
744.8982	-0.0064
745.075	-0.0105
745.2518	0.0013
745.4285	-0.0013
745.6052	-0.0004
745.7819	0.0038
745.9586	-0.0038
746.1353	-0.0028
746.3119	-0.0079
746.4885	-0.0014
746.6651	0.0022
746.8417	0.0085
747.0183	0.0018
747.1948	0.0019
747.3714	-0.0013
747.5479	0.0087
747.7244	-0.0024
747.9008	0.0081
748.0773	0.0003
748.2537	-0.0031
748.4301	-0.0056
748.6065	-0.0016
748.7829	-0.0032
748.9593	-0.0066
749.1356	0.0023
749.3119	0.003
749.4882	-0.0113
749.6645	0.0041
749.8408	-0.0069
750.017	-0.0091
750.1933	0.004
750.3695	-0.0024
750.5457	0.0051
750.7218	-0.0073
750.898	0.0014
751.0741	-0.0037
751.2502	-0.0024
751.4263	-0.0075
751.6024	-0.0023
751.7784	-0.0012
751.9545	-0.0073
752.1305	-0.0052
752.3065	-0.0016
752.4825	-0.0039
752.6584	-0.0066
752.8344	-0.0084
753.0103	-0.0159
753.1862	-0.0174
753.3621	-0.0069
753.5379	-0.0106
753.7138	-0.0096
753.8896	-0.0081
754.0654	0.0091
754.2412	0.0028
754.417	0.0009
754.5927	-0.0072
754.7685	-0.0143
754.9442	-0.0003
755.1199	0.0078
755.2956	-0.0032
755.4712	0.0003
755.6469	0.0006
755.8225	-0.0043
755.9981	-0.0072
756.1736	0.0021
756.3492	0
756.5248	-0.0087
756.7003	0.0043
756.8758	0.0057
757.0513	-0.0146
757.2267	-0.0014
757.4022	0.0011
757.5776	-0.0076
757.753	0.0054
757.9284	-0.0003
758.1038	0.0071
758.2791	0.0087
758.4545	-0.0135
758.6298	-0.0011
758.8051	0.0049
758.9803	-0.0012
759.1556	0.0007
759.3308	-0.0057
759.506	0.0174
759.6812	0.0014
759.8564	0.0088
760.0316	0.0029
760.2067	0.001
760.3819	-0
760.557	0.0049
760.732	0.008
760.9071	-0.0129
761.0821	-0.0038
761.2572	0.008
761.4322	-0.0094
761.6072	-0.0051
761.7821	-0.012
761.9571	-0.0053
762.132	-0.0134
762.3069	-0.0116
762.4818	-0.0076
762.6567	-0.0057
762.8316	0.002
763.0064	-0.0068
763.1812	-0.0166
763.356	-0.0043
763.5308	-0.0014
763.7055	0.0006
763.8803	-0.0074
764.055	0.0052
764.2297	-0.0048
764.4044	-0.0113
764.579	-0.0058
764.7537	-0.0157
764.9283	0.0055
765.1029	-0.0129
765.2775	-0.0059
765.4521	-0.0069
765.6266	-0.008
765.8011	-0.0164
765.9756	-0.004
766.1501	0.0088
766.3246	-0.0116
766.4991	-0.0105
766.6735	-0.0013
766.8479	-0.0142
767.0223	0.0082
767.1967	-0.0006
767.371	-0.0034
767.5454	-0.003
767.7197	-0.0006
767.894	-0.0005
768.0683	-0.0001
768.2425	0.0018
768.4168	-0.0001
768.591	0.0079
768.7652	-0.008
768.9394	0.0085
769.1135	0.0041
769.2877	0.0026
769.4618	0.005
769.6359	-0.0004
769.81	-0.0002
769.984	0.0053
770.1581	-0.0153
770.3321	-0.0006
770.5061	-0.0079
770.6801	-0.0052
770.8541	0.0023
771.028	-0.0005
771.202	-0.0158
771.3759	0.0024
771.5498	-0.0042
771.7236	0.0031
771.8975	-0.0005
772.0713	-0.0015
772.2451	-0.0017
772.4189	0.0162
772.5927	0.0177
772.7665	-0.0023
772.9402	-0.0065
773.1139	-0.0018
773.2876	-0.0051
773.4613	0.0108
773.635	0.0111
773.8086	-0.0139
773.9822	0.0006
774.1558	0.0069
774.3294	-0.0036
774.503	0.0054
774.6765	-0.0029
774.8501	-0.0004
775.0236	-0.0031
775.1971	0.0083
775.3705	-0.008
775.544	0.0066
775.7174	-0.01
775.8908	-0.0039
776.0642	-0.0029
776.2376	-0.0135
776.4109	-0.015
776.5843	-0.0072
776.7576	0.0075
776.9309	0.0063
777.1041	0.0099
777.2774	0.006
777.4506	0.0026
777.6238	-0.0076
777.797	0.0038
777.9702	-0.0032
778.1434	-0.0004
778.3165	-0.0054
778.4896	-0.006
778.6627	0.0063
778.8358	0.004
779.0089	-0.0101
779.1819	-0.0058
779.3549	0.0107
779.5279	0.0179
779.7009	0.0092
779.8739	-0.0083
780.0468	-0.0044
780.2197	0.0078
780.3926	-0.0077
780.5655	-0.0053
780.7384	-0.007
780.9112	-0.002
781.0841	-0.0067
781.2569	-0.0085
781.4297	0.007
781.6024	0.0076
781.7752	0.0073
781.9479	0.0121
782.1206	-0.002
782.2933	-0.0105
782.466	0.0081
782.6386	0.0022
782.8113	-0.0038
782.9839	0.0032
783.1565	0.0188
783.329	-0.0055
783.5016	0.0126
783.6741	-0.0053
783.8466	0.0014
784.0191	0.0244
784.1916	-0.0021
784.3641	0.0035
784.5365	0.0045
784.7089	-0.0113
784.8813	-0.0163
785.0537	-0.0171
785.2261	-0.009
785.3984	-0.0158
785.5707	-0.0008
785.743	-0.0073
785.9153	-0.0126
786.0876	-0.0013
786.2598	-0.006
786.432	-0.0257
786.6042	0.001
786.7764	-0.0025
786.9486	0.0038
787.1207	-0.0125
787.2928	0.0083
787.4649	-0.0009
787.637	0.0023
787.8091	-0.0068
787.9811	-0.0066
788.1532	-0.0104
788.3252	0.0023
788.4972	-0.0135
788.6691	-0.0065
788.8411	-0.0092
789.013	-0.0014
789.1849	0.0145
789.3568	-0.0115
789.5287	0.0049
789.7005	0.002
789.8723	0.0008
790.0442	-0.0031
790.2159	0.0139
790.3877	-0.0024
790.5595	-0.0093
790.7312	0.0037
790.9029	0.0047
791.0746	-0.0047
791.2463	0.0029
791.4179	0.0067
791.5896	-0.0131
791.7612	-0.002
791.9328	0.0088
792.1044	-0.0067
792.2759	-0.0018
792.4474	-0.0089
792.619	-0.0033
792.7905	0.0013
792.9619	0.0063
793.1334	0.0127
793.3048	0.0123
793.4762	0.0042
793.6476	0.0024
793.819	0.0037
793.9904	0.0117
794.1617	-0.0044
794.333	0.0027
794.5043	-0.0155
794.6756	0.0015
794.8469	-0.0025
795.0181	0.0038
795.1893	0.0017
795.3605	0.0125
795.5317	-0.0106
795.7029	0.0014
795.874	0.0166
796.0452	-0.008
796.2163	0.019
796.3873	0.0117
796.5584	0.0093
796.7294	0.0129
796.9005	0.0114
797.0715	0.0089
797.2425	-0.0263
797.4134	-0.0079
797.5844	-0.0026
797.7553	-0.0154
797.9262	-0.0028
798.0971	-0.0049
798.2679	-0.0164
798.4388	-0.0087
798.6096	-0.0109
798.7804	-0.0152
798.9512	0.0023
799.122	0.006
799.2927	0.0121
799.4635	0.0032
799.6342	-0.0196
799.8049	-0.0034
799.9755	-0.0103
800.1462	-0.0083
800.3168	0.0067
800.4874	-0.0015
800.658	0.0119
800.8286	0.0149
800.9991	0.0045
801.1696	-0.0009
801.3402	0.0225
801.5106	0.0034
801.6811	0.0027
801.8516	-0.0001
802.022	0.0036
802.1924	-0.0046
802.3628	0.0087
802.5332	-0.002
802.7035	0.0279
802.8739	-0.0054
803.0442	-0.0046
803.2145	0.0234
803.3847	-0.0174
803.555	0.002
803.7252	-0.022
803.8954	-0.028
804.0656	-0.0063
804.2358	-0.0098
804.4059	0.0142
804.5761	0.0132
804.7462	0.0112
804.9163	-0.0006
805.0864	0.001
805.2564	0.0078
805.4264	0.0174
805.5965	0.0005
805.7665	0.0101
805.9364	0.0144
806.1064	0.0176
806.2763	0.0096
806.4462	0.0131
806.6161	0.0216
806.786	0.0065
806.9559	-0.0071
807.1257	-0.0161
807.2955	0.006
807.4653	0.007
807.6351	-0.0008
807.8048	0.0069
807.9746	0.0034
808.1443	0.0047
808.314	0.0128
808.4837	-0.0048
808.6533	0.0266
808.8229	0.0233
808.9926	-0.009
809.1622	0.0095
809.3317	0.0139
809.5013	0.0034
809.6708	0.0296
809.8403	0.0073
810.0098	0.006
810.1793	-0.0017
810.3488	0.0129
810.5182	0.0001
810.6876	0.0176
810.857	0.0139
811.0264	0.0116
811.1958	0.0118
811.3651	0.0033
811.5344	0.0157
811.7037	0.0067
811.873	0.002
812.0422	0.0086
812.2115	0.0028
812.3807	-0.0024
812.5499	0.0034
812.7191	0.0096
812.8882	0.0041
813.0574	0.0202
813.2265	0.017
813.3956	0.0226
813.5646	0.0116
813.7337	-0.0156
813.9027	0.0313
814.0718	0.0228
814.2407	0.0216
814.4097	0.0086
814.5787	-0.0074
814.7476	-0.0108
814.9165	0.0271
815.0854	0.0073
815.2543	0.0127
815.4232	0.0084
815.592	0.0154
815.7608	-0.0043
815.9296	0.0413
816.0984	0.0178
816.2671	-0.0055
816.4359	-0.0017
816.6046	0.002
816.7733	-0.0041
816.942	-0.0083
817.1106	0.0319
817.2793	0.0144
817.4479	0.0135
817.6165	0.0054
817.785	0.0142
817.9536	0.0001
818.1221	0.0112
818.2906	0.0174
818.4591	0.0028
818.6276	-0.0029
818.7961	0.0018
818.9645	0.0209
819.1329	0.0015
819.3013	0.0409
819.4697	0.0281
819.638	0.027
819.8064	0.0015
819.9747	0.0256
820.143	0.0196
820.3113	-0.0006
820.4795	-0.0019
820.6477	0.0092
820.816	0.022
820.9842	0.017
821.1523	-0.0052
821.3205	-0.0076
821.4886	-0.0056
821.6567	0.0023
821.8248	0.0121
821.9929	0.0272
822.1609	0.0135
822.329	0.0321
822.497	0.0535
822.665	0.0338
822.833	-0.015
823.0009	-0.0069
823.1688	0.0058
823.3367	0.0424
823.5046	-0.0044
823.6725	0.0406
823.8404	0.0081
824.0082	0.0006
824.176	0.0179
824.3438	-0.0006
824.5116	-0.0187
824.6793	0.0251
824.847	-0.0177
825.0147	-0.0024
825.1824	-0.0019
825.3501	0.0049
825.5177	-0.0168
825.6854	-0.0071
825.853	0.0044
826.0206	-0.0012
826.1881	0.008
826.3557	-0.0473
826.5232	-0.0088
826.6907	-0.0273
826.8582	-0.027
827.0257	-0.0214
827.1931	0.0121
827.3605	-0.0012
827.528	-0.0286
827.6953	-0.0218
827.8627	-0.0339
828.03	0.0306
828.1974	-0.0035
828.3647	-0.0373
828.532	0.0057
828.6992	-0.012
828.8665	-0.0041
829.0337	-0.0073
829.2009	-0.0145
829.3681	0.0059
829.5352	0.0298
829.7024	-0.0294
829.8695	-0.0332
830.0366	0.0322
830.2037	0.0174
830.3707	0.0132
830.5378	0.004
830.7048	0.0146
830.8718	-0.0179
831.0388	-0.034
831.2057	-0.0067
831.3727	0.0188
831.5396	-0.0262
831.7065	-0.0211
831.8734	-0.0025
832.0402	-0.0269
832.2071	-0.0093
832.3739	-0.0069
832.5407	0.0014
832.7075	-0.0211
832.8742	-0.0201
833.041	-0.0482
833.2077	-0.0171
833.3744	0.0463
833.541	0.0003
833.7077	-0.0199
833.8743	-0.0171
834.0409	-0.004
834.2075	-0.0214
834.3741	-0.0397
834.5407	0.0035
834.7072	-0.0304
834.8737	-0.0366
835.0402	-0.0246
835.2067	0.0059
835.3731	0.0151
835.5395	-0.0029
835.706	-0.0199
835.8723	-0.0068
836.0387	-0.0247
836.2051	-0.0408
836.3714	-0.0256
836.5377	-0.0004
836.704	-0.034
836.8703	-0.005
837.0365	-0.0062
837.2027	-0.0261
837.3689	-0.0125
837.5351	-0.0371
837.7013	-0.026
837.8674	-0.0639
838.0335	-0.031
838.1997	-0.0348
838.3657	-0.0635
838.5318	-0.0245
838.6978	0.0135
838.8639	0.0343
839.0299	-0.0584
839.1958	0.0035
839.3618	0.0232
839.5277	0.0241
839.6937	0.0104
839.8596	-0.0419
840.0254	0.0003
840.1913	-0.0062
840.3571	0.0083
840.523	-0.0459
840.6888	0.0108
840.8545	-0.0444
841.0203	0.0192
841.186	-0.0064
841.3517	-0.0198
841.5174	0.0155
841.6831	-0.0153
841.8488	-0.0032
842.0144	-0.0245
842.18	-0.0238
842.3456	0.0061
842.5112	-0.0242
842.6767	-0.0103
842.8422	-0.007
843.0077	-0.0399
843.1732	-0.0693
843.3387	-0.0206
843.5042	-0.0354
843.6696	0.0005
843.835	-0.0049
844.0004	0.0597
844.1657	0.0492
844.3311	-0.0689
844.4964	-0.0663
844.6617	0.0016
844.827	-0.0416
844.9923	-0.0163
845.1575	-0.0193
845.3227	0.0218
845.4879	-0.0505
845.6531	-0.033
845.8183	-0.0655
845.9834	-0.0822
846.1485	-0.0547
846.3136	-0.0676
846.4787	-0.0736
846.6438	0.0188
846.8088	-0.0675
846.9738	-0.1036
847.1388	-0.0346
847.3038	0.0067
847.4687	-0.1469
847.6337	0.0031
847.7986	-0.0265
847.9635	-0.0624
848.1284	-0.0521
848.2932	0.0196
848.458	0.0689
848.6228	-0.0063
848.7876	0.0625
848.9524	-0.0341
849.1172	-0.1181
849.2819	-0.0265
849.4466	-0.1157
849.6113	-0.1896
849.7759	0.011
849.9406	-0.1328
850.1052	0.0189
850.2698	-0.003
850.4344	-0.0222
850.599	-0.0354
850.7635	0.0033
850.928	-0.0577
851.0925	-0.0749
851.257	-0.0317
851.4215	-0.0142
851.5859	-0.0604
851.7503	-0.0085
851.9147	-0.0341
852.0791	-0.0815
852.2434	-0.0897
852.4078	0.0211
852.5721	-0.0105
852.7364	-0.0908
852.9007	-0.1991
853.0649	-0.0894
853.2291	-0.0161
853.3934	-0.0752
853.5575	-0.0753
853.7217	-0.1085
853.8859	-0.1316
854.05	-0.1266
854.2141	-0.1493
854.3782	-0.029
854.5423	-0.0641
854.7063	0.0564
854.8703	0.0541
855.0343	-0.0764
855.1983	-0.0646
855.3623	0.1494
855.5262	0.0039
855.6901	-0.011
855.854	-0.0114
856.0179	0.126
856.1818	-0.0976
856.3456	-0.0902
856.5094	-0.1438
856.6732	-0.1245
856.837	-0.0963
857.0008	-0.1015
857.1645	-0.1223
857.3282	-0.0545
857.4919	-0.0082
857.6556	-0.0735
857.8192	0.0114
857.9828	0.0186
858.1465	-0.0061
858.31	-0.1244
858.4736	-0.0609
858.6372	-0.3424
858.8007	-0.2429
858.9642	-0.0458
859.1277	-0.1416
859.2911	-0.1256
859.4546	-0.0397
859.618	-0.5445
859.7814	-0.0785
859.9448	-0.0194
860.1081	-0.2805
860.2715	0.0737
860.4348	-0.1941
860.5981	-0.1027
860.7614	-0.0201
860.9246	-0.1183
861.0879	-0.1323
861.2511	-0.0877
861.4143	-0.0644
861.5774	-0.039
861.7406	-0.3332
861.9037	-0.1571
862.0668	-0.0418
862.2299	-0.0516
862.393	-0.6297
862.556	-0.1557
862.7191	-0.3205
862.8821	-0.36
863.0451	0.0676
863.208	0.0321
863.371	0.075
863.5339	-0.3856
863.6968	-0.1437
863.8597	-0.1567
864.0225	-0.1517
864.1854	0.013
864.3482	-0.3324
864.511	0.0482
864.6737	-0.1995
864.8365	0.0679
864.9992	-0.5629
865.1619	-0.4351
865.3246	0.5902
865.4873	0.1144
865.65	-0.3812
865.8126	-0.0419
865.9752	0.5104
866.1378	-0.1721
866.3004	-0.0215
866.4629	0.2997
866.6254	-0.0695
866.7879	-0.3695
866.9504	-0.4708
867.1129	-0
867.2753	-0.2097
867.4377	0.0925
867.6001	-0.2449
867.7625	0.1626
867.9249	-0.5614
868.0872	-0.1305
868.2495	-0.0035
868.4118	-0.3875
868.5741	-0.1388
868.7363	-0.3464
868.8986	-0.5097
869.0608	-0.3739
869.223	0.061
869.3851	-0
869.5473	-0
869.7094	0.6183
869.8715	-0.5846
870.0336	-0
870.1957	-0.7764
870.3577	-0.6532
870.5197	0.0214
870.6817	-0.2153
870.8437	-0.2342
871.0057	-0.03
871.1676	-0.6029
871.3295	-0.1343
871.4914	-0
871.6533	-0.2177
871.8151	-0.7946
871.977	-0
872.1388	-0
872.3006	-0
872.4623	-0
872.6241	0.4134
872.7858	0.0966
872.9475	0.3824
873.1092	-0.1571
873.2709	-0.2944
873.4325	0.0179
873.5941	-0.2251
873.7557	-0
873.9173	-0
874.0789	-0.1761
874.2404	-0.5383
874.4019	1.626
874.5634	-0.0973
874.7249	-0.1099
874.8863	0.2973
875.0478	-0.0277
875.2092	-0
875.3706	-0.1794
875.5319	-0.9472
875.6933	0.0112
875.8546	-0.111
876.0159	-0
876.1772	-0
876.3385	-0
876.4997	0.1384
876.6609	-0.4717
876.8221	-0.202
876.9833	-0
877.1445	-0
877.3056	-0.0983
877.4667	-0.1926
877.6278	-0
877.7889	-0.8213
877.9499	-0
878.111	-0.3923
878.272	-0
878.433	-0
878.5939	-0
878.7549	-0.2107
878.9158	-0.9278
879.0767	-0
879.2376	0.2005
879.3984	0.649
879.5593	-0
879.7201	-0.2975
879.8809	-0.8364
880.0417	-0.1361
880.2024	-0.1143
880.3632	-0
880.5239	0.4642
880.6846	0.238
880.8452	-2.4921
881.0059	-0
881.1665	0.0882
881.3271	0.7838
881.4877	-0.5211
881.6483	-0.6495
881.8088	-0.6025
881.9693	-0
882.1298	-0
882.2903	-0
