Data from MonoPyChalIsomerACN10uM380nmA_Absorbance_13-38-32-049.txt Node
Date: Fri Jul 05 13:38:32 BST 2024
User: LASERRRRR
Spectrometer: FLMT03099
Trigger mode: 0
Integration Time (sec): 1.000000E-1
Scans to average: 1
Electric dark correction enabled: true
Nonlinearity correction enabled: false
Boxcar width: 0
XAxis mode: Wavelengths
Number of Pixels in Spectrum: 3648
>>>>>Begin Spectral Data<<<<<
179.3399	-0.0896
179.5586	-0.0896
179.7771	-0.0896
179.9957	0.4433
180.2143	-0.2852
180.4329	-0.193
180.6514	-0
180.8699	-0
181.0885	0.0474
181.307	0.0924
181.5255	-0
181.744	0.5916
181.9625	-0
182.181	-0
182.3994	-0
182.6179	-0.096
182.8363	0.0861
183.0547	-0.2275
183.2732	0.0244
183.4916	0.0716
183.71	-0.0377
183.9284	0.055
184.1467	0.0763
184.3651	-0.2141
184.5835	-0.0266
184.8018	0.0413
185.0201	-0.01
185.2385	-0.1042
185.4568	0.4697
185.6751	-0.0936
185.8934	0.0225
186.1117	-0.0563
186.3299	0.0751
186.5482	-0.0048
186.7664	-0.131
186.9847	0.085
187.2029	0.0479
187.4211	0.0988
187.6393	0.904
187.8575	-0.0814
188.0757	0.2887
188.2939	-0.0002
188.512	-0.197
188.7302	0.0831
188.9483	0.7114
189.1665	0.2022
189.3846	0.2062
189.6027	0.1221
189.8208	0.2278
190.0389	0.0425
190.257	0.151
190.475	0.0748
190.6931	0.4096
190.9111	0.4585
191.1292	0.0911
191.3472	0.2555
191.5652	0.2949
191.7832	0.1612
192.0012	0.4978
192.2192	0.297
192.4371	0.5879
192.6551	0.5284
192.873	0.5195
193.091	0.5578
193.3089	0.3336
193.5268	0.468
193.7447	0.5961
193.9626	0.4218
194.1805	0.6657
194.3984	0.779
194.6162	0.625
194.8341	0.5586
195.0519	0.5859
195.2697	0.8054
195.4875	0.8281
195.7054	0.5402
195.9231	0.6918
196.1409	1.0761
196.3587	0.5725
196.5765	0.8347
196.7942	0.6478
197.012	0.5555
197.2297	0.6392
197.4474	1.0783
197.6651	0.8259
197.8828	0.733
198.1005	0.7397
198.3182	0.8471
198.5358	0.8208
198.7535	0.6517
198.9711	0.6674
199.1888	0.7465
199.4064	1.0345
199.624	0.6822
199.8416	0.8636
200.0592	1.1423
200.2767	0.9114
200.4943	0.9581
200.7119	0.9269
200.9294	0.7627
201.1469	0.7956
201.3645	0.7571
201.582	0.6424
201.7995	0.8839
202.017	0.7415
202.2344	0.7475
202.4519	0.79
202.6694	0.8129
202.8868	0.8529
203.1042	0.8596
203.3217	1.0026
203.5391	0.7875
203.7565	0.6875
203.9739	0.7129
204.1913	0.7175
204.4086	0.8354
204.626	0.9861
204.8433	0.8375
205.0607	0.8218
205.278	0.8059
205.4953	0.9485
205.7126	0.8004
205.9299	1.024
206.1472	0.7886
206.3644	0.7833
206.5817	0.913
206.7989	0.9298
207.0162	0.868
207.2334	0.836
207.4506	0.7346
207.6678	0.8345
207.885	0.7526
208.1022	0.851
208.3194	0.8012
208.5365	0.8724
208.7537	0.8762
208.9708	0.7263
209.1879	0.9503
209.405	0.8146
209.6222	1.0423
209.8392	0.8149
210.0563	0.7965
210.2734	0.8845
210.4905	0.7857
210.7075	0.7978
210.9245	0.7481
211.1416	0.9522
211.3586	0.8072
211.5756	0.7292
211.7926	0.8957
212.0096	0.7348
212.2265	0.7061
212.4435	0.7653
212.6604	0.7967
212.8774	0.9202
213.0943	0.8558
213.3112	0.7902
213.5281	0.6695
213.745	0.6802
213.9619	0.7543
214.1788	0.7324
214.3956	0.6438
214.6125	0.6371
214.8293	0.6627
215.0461	0.6737
215.2629	0.6441
215.4798	0.7224
215.6965	0.6086
215.9133	0.6906
216.1301	0.6432
216.3469	0.6572
216.5636	0.6246
216.7803	0.5877
216.9971	0.6088
217.2138	0.6101
217.4305	0.5858
217.6472	0.591
217.8639	0.6575
218.0805	0.6323
218.2972	0.5548
218.5138	0.6027
218.7305	0.5754
218.9471	0.5427
219.1637	0.5392
219.3803	0.549
219.5969	0.5451
219.8135	0.4772
220.0301	0.5341
220.2466	0.5705
220.4632	0.5563
220.6797	0.5212
220.8962	0.5032
221.1127	0.5169
221.3292	0.5553
221.5457	0.5292
221.7622	0.4795
221.9787	0.551
222.1951	0.496
222.4116	0.5164
222.628	0.5296
222.8444	0.5262
223.0608	0.5369
223.2772	0.5074
223.4936	0.5446
223.71	0.5134
223.9264	0.5399
224.1427	0.5173
224.3591	0.5005
224.5754	0.5715
224.7917	0.554
225.008	0.5697
225.2243	0.5151
225.4406	0.5636
225.6569	0.5175
225.8732	0.5267
226.0894	0.524
226.3057	0.5457
226.5219	0.5373
226.7381	0.519
226.9543	0.5177
227.1705	0.5507
227.3867	0.5158
227.6029	0.5416
227.8191	0.5517
228.0352	0.5643
228.2513	0.5657
228.4675	0.5431
228.6836	0.5571
228.8997	0.5275
229.1158	0.5489
229.3319	0.5447
229.548	0.5278
229.764	0.5471
229.9801	0.5638
230.1961	0.5419
230.4121	0.558
230.6282	0.5677
230.8442	0.5526
231.0602	0.5873
231.2761	0.569
231.4921	0.5797
231.7081	0.561
231.924	0.5489
232.14	0.5603
232.3559	0.5461
232.5718	0.5754
232.7877	0.5475
233.0036	0.5411
233.2195	0.5413
233.4353	0.5521
233.6512	0.5487
233.867	0.5487
234.0829	0.5549
234.2987	0.5518
234.5145	0.5586
234.7303	0.545
234.9461	0.5789
235.1619	0.5562
235.3776	0.5605
235.5934	0.5506
235.8091	0.52
236.0249	0.5296
236.2406	0.5244
236.4563	0.5453
236.672	0.5448
236.8877	0.5364
237.1034	0.5545
237.319	0.5195
237.5347	0.5379
237.7503	0.5385
237.966	0.5506
238.1816	0.5586
238.3972	0.5367
238.6128	0.5029
238.8284	0.5452
239.0439	0.5572
239.2595	0.5369
239.475	0.5132
239.6906	0.5293
239.9061	0.5295
240.1216	0.5129
240.3371	0.5048
240.5526	0.5126
240.7681	0.4954
240.9836	0.4872
241.199	0.501
241.4145	0.4895
241.6299	0.489
241.8453	0.4861
242.0607	0.4638
242.2761	0.4439
242.4915	0.4712
242.7069	0.4559
242.9223	0.459
243.1376	0.4237
243.353	0.4367
243.5683	0.4384
243.7836	0.4208
243.9989	0.412
244.2142	0.3828
244.4295	0.4023
244.6448	0.4016
244.86	0.3588
245.0753	0.3642
245.2905	0.3554
245.5057	0.3625
245.721	0.3418
245.9362	0.3464
246.1514	0.3495
246.3665	0.3128
246.5817	0.3329
246.7969	0.3247
247.012	0.3246
247.2271	0.3016
247.4423	0.2951
247.6574	0.2943
247.8725	0.3012
248.0876	0.2916
248.3026	0.2809
248.5177	0.2683
248.7328	0.2646
248.9478	0.2576
249.1628	0.2607
249.3779	0.264
249.5929	0.2364
249.8079	0.2685
250.0228	0.2459
250.2378	0.2519
250.4528	0.2439
250.6677	0.2239
250.8827	0.2335
251.0976	0.232
251.3125	0.2321
251.5274	0.2194
251.7423	0.2232
251.9572	0.2309
252.172	0.2236
252.3869	0.2121
252.6017	0.218
252.8166	0.1884
253.0314	0.2026
253.2462	0.195
253.461	0.2239
253.6758	0.2024
253.8906	0.2089
254.1053	0.1953
254.3201	0.1914
254.5348	0.2109
254.7496	0.2018
254.9643	0.1932
255.179	0.2147
255.3937	0.1916
255.6083	0.2007
255.823	0.184
256.0377	0.1982
256.2523	0.1922
256.467	0.1909
256.6816	0.1809
256.8962	0.1877
257.1108	0.1884
257.3254	0.199
257.54	0.1903
257.7545	0.1924
257.9691	0.2064
258.1836	0.1805
258.3981	0.1952
258.6127	0.195
258.8272	0.1914
259.0417	0.1906
259.2561	0.1733
259.4706	0.1829
259.6851	0.184
259.8995	0.1741
260.114	0.1853
260.3284	0.1779
260.5428	0.1821
260.7572	0.191
260.9716	0.1783
261.186	0.1702
261.4003	0.1936
261.6147	0.1847
261.829	0.1912
262.0433	0.1751
262.2577	0.1772
262.472	0.1865
262.6863	0.178
262.9005	0.1865
263.1148	0.1821
263.3291	0.1747
263.5433	0.1738
263.7576	0.2003
263.9718	0.1926
264.186	0.1833
264.4002	0.1818
264.6144	0.1839
264.8286	0.1876
265.0427	0.1872
265.2569	0.1933
265.471	0.1727
265.6851	0.1675
265.8993	0.1866
266.1134	0.1752
266.3275	0.1824
266.5415	0.1828
266.7556	0.198
266.9697	0.1878
267.1837	0.1912
267.3978	0.1933
267.6118	0.1938
267.8258	0.1816
268.0398	0.1797
268.2538	0.1932
268.4677	0.1768
268.6817	0.1875
268.8957	0.1852
269.1096	0.1813
269.3235	0.1835
269.5374	0.175
269.7514	0.1811
269.9652	0.1852
270.1791	0.1675
270.393	0.1681
270.6068	0.1787
270.8207	0.173
271.0345	0.1679
271.2483	0.1776
271.4622	0.17
271.676	0.1838
271.8897	0.1651
272.1035	0.1711
272.3173	0.1615
272.531	0.1717
272.7448	0.1657
272.9585	0.1768
273.1722	0.1718
273.3859	0.1682
273.5996	0.1625
273.8133	0.1829
274.0269	0.1705
274.2406	0.1682
274.4542	0.1769
274.6679	0.1607
274.8815	0.1761
275.0951	0.1676
275.3087	0.1804
275.5223	0.1802
275.7358	0.1751
275.9494	0.1692
276.1629	0.1666
276.3765	0.1568
276.59	0.1693
276.8035	0.1697
277.017	0.1739
277.2305	0.1745
277.444	0.1797
277.6574	0.1747
277.8709	0.1778
278.0843	0.1808
278.2978	0.1833
278.5112	0.1607
278.7246	0.1772
278.938	0.1787
279.1513	0.1823
279.3647	0.1775
279.5781	0.1662
279.7914	0.1706
280.0047	0.1824
280.2181	0.1718
280.4314	0.173
280.6447	0.1829
280.8579	0.1738
281.0712	0.1851
281.2845	0.1874
281.4977	0.1822
281.711	0.173
281.9242	0.1717
282.1374	0.1731
282.3506	0.1674
282.5638	0.1673
282.7769	0.1808
282.9901	0.18
283.2033	0.1634
283.4164	0.1757
283.6295	0.1644
283.8426	0.1709
284.0557	0.1743
284.2688	0.188
284.4819	0.1855
284.695	0.1796
284.908	0.1851
285.1211	0.1669
285.3341	0.1777
285.5471	0.1762
285.7601	0.1731
285.9731	0.1832
286.1861	0.175
286.3991	0.1853
286.612	0.1829
286.825	0.1644
287.0379	0.1802
287.2508	0.1752
287.4637	0.1755
287.6766	0.1682
287.8895	0.1808
288.1024	0.1938
288.3152	0.177
288.5281	0.1676
288.7409	0.174
288.9538	0.1648
289.1666	0.1839
289.3794	0.1745
289.5922	0.1703
289.8049	0.1735
290.0177	0.1707
290.2304	0.1807
290.4432	0.1862
290.6559	0.1746
290.8686	0.1839
291.0813	0.1741
291.294	0.1717
291.5067	0.186
291.7194	0.1717
291.932	0.1814
292.1447	0.1646
292.3573	0.1609
292.5699	0.1777
292.7825	0.1591
292.9951	0.1655
293.2077	0.1747
293.4203	0.1742
293.6328	0.1657
293.8454	0.1867
294.0579	0.1674
294.2704	0.1737
294.4829	0.1707
294.6954	0.1765
294.9079	0.1654
295.1204	0.1671
295.3328	0.1792
295.5453	0.1774
295.7577	0.181
295.9701	0.1511
296.1825	0.1771
296.3949	0.171
296.6073	0.1598
296.8197	0.1676
297.0321	0.178
297.2444	0.1581
297.4567	0.1622
297.6691	0.1784
297.8814	0.1569
298.0937	0.1633
298.306	0.1695
298.5182	0.1682
298.7305	0.1752
298.9428	0.1665
299.155	0.1792
299.3672	0.1629
299.5794	0.1632
299.7916	0.1645
300.0038	0.1746
300.216	0.1661
300.4282	0.174
300.6403	0.1627
300.8525	0.1641
301.0646	0.1517
301.2767	0.166
301.4888	0.1617
301.7009	0.1723
301.913	0.1562
302.125	0.1673
302.3371	0.1681
302.5491	0.16
302.7612	0.1656
302.9732	0.1682
303.1852	0.1669
303.3972	0.1605
303.6092	0.162
303.8211	0.1465
304.0331	0.1566
304.245	0.1581
304.457	0.1473
304.6689	0.1532
304.8808	0.1622
305.0927	0.1634
305.3046	0.15
305.5164	0.162
305.7283	0.1372
305.9401	0.1543
306.152	0.1493
306.3638	0.1595
306.5756	0.1519
306.7874	0.1483
306.9992	0.1524
307.2109	0.1487
307.4227	0.1332
307.6344	0.1408
307.8462	0.1416
308.0579	0.1426
308.2696	0.1301
308.4813	0.141
308.693	0.1326
308.9046	0.1412
309.1163	0.1235
309.328	0.1271
309.5396	0.1224
309.7512	0.1223
309.9628	0.1244
310.1744	0.1189
310.386	0.119
310.5976	0.1243
310.8091	0.1301
311.0207	0.1221
311.2322	0.1206
311.4437	0.1151
311.6552	0.1175
311.8667	0.124
312.0782	0.1056
312.2897	0.1089
312.5012	0.1192
312.7126	0.1092
312.924	0.1118
313.1355	0.1175
313.3469	0.1099
313.5583	0.121
313.7696	0.1096
313.981	0.1111
314.1924	0.1072
314.4037	0.1024
314.6151	0.1167
314.8264	0.1029
315.0377	0.0996
315.249	0.1067
315.4603	0.112
315.6716	0.118
315.8828	0.0962
316.0941	0.1048
316.3053	0.0976
316.5165	0.0951
316.7277	0.1007
316.9389	0.1097
317.1501	0.0992
317.3613	0.1073
317.5724	0.0914
317.7836	0.1033
317.9947	0.0993
318.2058	0.0992
318.417	0.0981
318.6281	0.0834
318.8391	0.0925
319.0502	0.108
319.2613	0.1029
319.4723	0.113
319.6834	0.116
319.8944	0.0906
320.1054	0.1074
320.3164	0.0959
320.5274	0.1047
320.7383	0.1007
320.9493	0.1139
321.1602	0.1089
321.3712	0.091
321.5821	0.1138
321.793	0.1133
322.0039	0.0982
322.2148	0.106
322.4257	0.1146
322.6365	0.1108
322.8474	0.1114
323.0582	0.1128
323.269	0.1007
323.4798	0.1151
323.6906	0.1106
323.9014	0.104
324.1122	0.1127
324.3229	0.109
324.5337	0.1047
324.7444	0.1016
324.9551	0.1051
325.1658	0.1233
325.3765	0.1108
325.5872	0.1086
325.7979	0.0914
326.0085	0.1071
326.2192	0.1084
326.4298	0.1126
326.6404	0.0964
326.851	0.1074
327.0616	0.1051
327.2722	0.103
327.4828	0.1128
327.6933	0.1053
327.9039	0.1198
328.1144	0.1185
328.3249	0.1135
328.5354	0.1009
328.7459	0.1136
328.9564	0.112
329.1669	0.0954
329.3773	0.1092
329.5878	0.1045
329.7982	0.0968
330.0086	0.1187
330.219	0.1062
330.4294	0.0914
330.6398	0.1077
330.8502	0.108
331.0605	0.1032
331.2708	0.1086
331.4812	0.112
331.6915	0.1105
331.9018	0.1117
332.1121	0.1096
332.3224	0.1108
332.5326	0.1176
332.7429	0.1044
332.9531	0.1268
333.1633	0.1205
333.3735	0.1035
333.5837	0.1017
333.7939	0.1119
334.0041	0.1188
334.2143	0.1164
334.4244	0.1103
334.6346	0.0994
334.8447	0.1145
335.0548	0.1139
335.2649	0.1025
335.475	0.1192
335.685	0.0995
335.8951	0.1214
336.1051	0.1218
336.3152	0.13
336.5252	0.1098
336.7352	0.1245
336.9452	0.1183
337.1552	0.1198
337.3652	0.1104
337.5751	0.1153
337.7851	0.1105
337.995	0.0979
338.2049	0.1138
338.4148	0.1172
338.6247	0.1176
338.8346	0.1243
339.0445	0.1021
339.2543	0.107
339.4642	0.123
339.674	0.1088
339.8838	0.1188
340.0936	0.1212
340.3034	0.1337
340.5132	0.1182
340.7229	0.1283
340.9327	0.1144
341.1424	0.129
341.3522	0.1309
341.5619	0.1281
341.7716	0.1353
341.9813	0.1256
342.1909	0.1254
342.4006	0.1291
342.6102	0.1312
342.8199	0.1223
343.0295	0.1231
343.2391	0.127
343.4487	0.129
343.6583	0.1235
343.8679	0.1226
344.0774	0.1344
344.287	0.1274
344.4965	0.12
344.706	0.136
344.9155	0.1305
345.125	0.1277
345.3345	0.1376
345.544	0.1199
345.7534	0.1109
345.9629	0.1225
346.1723	0.1242
346.3817	0.1335
346.5911	0.122
346.8005	0.1348
347.0099	0.1288
347.2193	0.1325
347.4286	0.129
347.638	0.1432
347.8473	0.1369
348.0566	0.1406
348.2659	0.1361
348.4752	0.1406
348.6845	0.1328
348.8937	0.1415
349.103	0.145
349.3122	0.1159
349.5214	0.1317
349.7306	0.1356
349.9398	0.141
350.149	0.1411
350.3582	0.1424
350.5674	0.1613
350.7765	0.1368
350.9856	0.1406
351.1948	0.1343
351.4039	0.1479
351.613	0.12
351.822	0.1435
352.0311	0.1508
352.2402	0.1432
352.4492	0.1407
352.6582	0.1574
352.8672	0.1384
353.0762	0.1504
353.2852	0.1622
353.4942	0.1386
353.7032	0.1403
353.9121	0.1388
354.1211	0.1451
354.33	0.1529
354.5389	0.1467
354.7478	0.1493
354.9567	0.1411
355.1655	0.1372
355.3744	0.1538
355.5833	0.1483
355.7921	0.1695
356.0009	0.1616
356.2097	0.1549
356.4185	0.1636
356.6273	0.1648
356.8361	0.1651
357.0448	0.1587
357.2536	0.1467
357.4623	0.1588
357.671	0.1731
357.8797	0.1767
358.0884	0.1736
358.2971	0.1525
358.5057	0.1666
358.7144	0.1672
358.923	0.1686
359.1316	0.1681
359.3402	0.161
359.5488	0.1598
359.7574	0.1587
359.966	0.1605
360.1746	0.1761
360.3831	0.1854
360.5916	0.168
360.8002	0.1585
361.0087	0.1866
361.2172	0.185
361.4256	0.1789
361.6341	0.1803
361.8426	0.1708
362.051	0.1651
362.2594	0.1787
362.4678	0.1877
362.6762	0.1847
362.8846	0.173
363.093	0.1719
363.3014	0.1824
363.5097	0.1709
363.718	0.1959
363.9264	0.1724
364.1347	0.1823
364.343	0.1971
364.5513	0.1996
364.7595	0.1986
364.9678	0.1806
365.176	0.181
365.3842	0.1958
365.5925	0.1968
365.8007	0.198
366.0089	0.1984
366.217	0.1917
366.4252	0.1947
366.6333	0.2031
366.8415	0.2073
367.0496	0.1867
367.2577	0.2142
367.4658	0.1985
367.6739	0.1916
367.882	0.2106
368.09	0.1916
368.2981	0.2131
368.5061	0.1879
368.7141	0.2053
368.9221	0.2123
369.1301	0.2054
369.3381	0.2033
369.5461	0.2
369.754	0.1907
369.962	0.2143
370.1699	0.2185
370.3778	0.2088
370.5857	0.1835
370.7936	0.1985
371.0015	0.2076
371.2093	0.2184
371.4172	0.1974
371.625	0.1904
371.8328	0.2041
372.0406	0.212
372.2484	0.2114
372.4562	0.2226
372.664	0.2189
372.8717	0.2301
373.0795	0.1869
373.2872	0.2164
373.4949	0.2027
373.7026	0.2157
373.9103	0.2231
374.118	0.221
374.3256	0.2281
374.5333	0.2188
374.7409	0.2172
374.9485	0.2344
375.1561	0.2198
375.3637	0.221
375.5713	0.2299
375.7789	0.2164
375.9864	0.2243
376.194	0.2327
376.4015	0.2259
376.609	0.2202
376.8165	0.2359
377.024	0.2228
377.2315	0.2173
377.4389	0.2197
377.6464	0.2265
377.8538	0.2208
378.0612	0.2257
378.2686	0.2377
378.476	0.2481
378.6834	0.2317
378.8908	0.2409
379.0981	0.2273
379.3055	0.2334
379.5128	0.2186
379.7201	0.2303
379.9274	0.2211
380.1347	0.2157
380.342	0.2465
380.5492	0.2307
380.7565	0.2213
380.9637	0.2304
381.1709	0.2351
381.3781	0.2375
381.5853	0.2395
381.7925	0.2427
381.9997	0.2429
382.2068	0.2523
382.4139	0.2338
382.6211	0.2257
382.8282	0.2316
383.0353	0.242
383.2424	0.2292
383.4494	0.2522
383.6565	0.2529
383.8635	0.2337
384.0706	0.2295
384.2776	0.2416
384.4846	0.2325
384.6916	0.2416
384.8986	0.2292
385.1055	0.2642
385.3125	0.232
385.5194	0.2268
385.7263	0.2372
385.9333	0.2562
386.1402	0.2552
386.347	0.2543
386.5539	0.2213
386.7608	0.2401
386.9676	0.2398
387.1744	0.2322
387.3813	0.2204
387.5881	0.2316
387.7948	0.2288
388.0016	0.2218
388.2084	0.2472
388.4151	0.2279
388.6219	0.2363
388.8286	0.2249
389.0353	0.2481
389.242	0.2464
389.4487	0.237
389.6553	0.2378
389.862	0.206
390.0686	0.2161
390.2753	0.222
390.4819	0.2366
390.6885	0.2199
390.8951	0.2318
391.1016	0.2167
391.3082	0.2264
391.5147	0.2275
391.7213	0.2277
391.9278	0.2142
392.1343	0.2204
392.3408	0.2092
392.5473	0.2258
392.7537	0.2103
392.9602	0.2035
393.1666	0.2167
393.373	0.2208
393.5794	0.2107
393.7858	0.2168
393.9922	0.2023
394.1986	0.2126
394.4049	0.2156
394.6113	0.1987
394.8176	0.2081
395.0239	0.2004
395.2302	0.1997
395.4365	0.2044
395.6428	0.2114
395.8491	0.2031
396.0553	0.1909
396.2615	0.21
396.4678	0.1988
396.674	0.1976
396.8802	0.1951
397.0863	0.2227
397.2925	0.194
397.4987	0.2095
397.7048	0.1925
397.9109	0.2203
398.117	0.194
398.3231	0.2021
398.5292	0.1975
398.7353	0.208
398.9413	0.199
399.1474	0.2025
399.3534	0.2072
399.5594	0.1853
399.7654	0.2148
399.9714	0.1999
400.1774	0.1927
400.3833	0.1998
400.5893	0.2165
400.7952	0.1824
401.0011	0.1964
401.207	0.2175
401.4129	0.2093
401.6188	0.1972
401.8247	0.1958
402.0305	0.1928
402.2364	0.2021
402.4422	0.2088
402.648	0.2025
402.8538	0.216
403.0596	0.1858
403.2654	0.2071
403.4711	0.1876
403.6768	0.2026
403.8826	0.2111
404.0883	0.2029
404.294	0.2309
404.4997	0.18
404.7054	0.2026
404.911	0.1777
405.1167	0.1816
405.3223	0.2063
405.5279	0.2048
405.7335	0.2086
405.9391	0.2179
406.1447	0.1956
406.3502	0.1984
406.5558	0.19
406.7613	0.2078
406.9668	0.2039
407.1724	0.2176
407.3778	0.1902
407.5833	0.1888
407.7888	0.1822
407.9942	0.2143
408.1997	0.1863
408.4051	0.1921
408.6105	0.2075
408.8159	0.1833
409.0213	0.1792
409.2267	0.2143
409.432	0.2013
409.6374	0.2123
409.8427	0.1817
410.048	0.2096
410.2533	0.1988
410.4586	0.193
410.6639	0.1697
410.8691	0.1994
411.0744	0.1911
411.2796	0.1795
411.4848	0.1914
411.69	0.1906
411.8952	0.1998
412.1004	0.1774
412.3056	0.1862
412.5107	0.1899
412.7158	0.1789
412.921	0.2067
413.1261	0.1925
413.3312	0.175
413.5362	0.1926
413.7413	0.1781
413.9464	0.1955
414.1514	0.196
414.3564	0.1842
414.5614	0.1801
414.7664	0.1869
414.9714	0.1947
415.1764	0.1761
415.3813	0.1994
415.5863	0.1882
415.7912	0.1983
415.9961	0.1927
416.201	0.1995
416.4059	0.1913
416.6108	0.1779
416.8156	0.1967
417.0205	0.1855
417.2253	0.1873
417.4301	0.2023
417.6349	0.1846
417.8397	0.175
418.0445	0.1874
418.2492	0.1815
418.454	0.1757
418.6587	0.2001
418.8634	0.1802
419.0681	0.1843
419.2728	0.1772
419.4775	0.1913
419.6822	0.1711
419.8868	0.1592
420.0915	0.1711
420.2961	0.1733
420.5007	0.169
420.7053	0.1812
420.9099	0.1843
421.1144	0.1794
421.319	0.1797
421.5235	0.1789
421.728	0.1786
421.9325	0.1715
422.137	0.1739
422.3415	0.1765
422.546	0.1855
422.7504	0.1775
422.9549	0.1746
423.1593	0.1843
423.3637	0.1758
423.5681	0.1665
423.7725	0.1619
423.9769	0.1565
424.1812	0.1544
424.3856	0.161
424.5899	0.1522
424.7942	0.1713
424.9985	0.1573
425.2028	0.1583
425.4071	0.1952
425.6113	0.162
425.8156	0.1605
426.0198	0.1847
426.224	0.1568
426.4282	0.1452
426.6324	0.1721
426.8366	0.171
427.0407	0.1527
427.2449	0.1581
427.449	0.1566
427.6531	0.1288
427.8572	0.1441
428.0613	0.1408
428.2654	0.1498
428.4694	0.1449
428.6735	0.1438
428.8775	0.1529
429.0815	0.1634
429.2855	0.1321
429.4895	0.1645
429.6935	0.1416
429.8975	0.1516
430.1014	0.1178
430.3053	0.1214
430.5093	0.1303
430.7132	0.1221
430.9171	0.1245
431.1209	0.1533
431.3248	0.1243
431.5286	0.1431
431.7325	0.1228
431.9363	0.115
432.1401	0.1271
432.3439	0.1239
432.5477	0.1069
432.7514	0.1131
432.9552	0.1299
433.1589	0.1043
433.3627	0.1143
433.5664	0.1015
433.7701	0.1026
433.9737	0.1038
434.1774	0.0927
434.3811	0.1016
434.5847	0.1042
434.7883	0.0983
434.9919	0.0937
435.1955	0.0938
435.3991	0.0956
435.6027	0.0992
435.8062	0.0959
436.0098	0.0971
436.2133	0.0979
436.4168	0.1066
436.6203	0.0762
436.8238	0.0922
437.0272	0.0784
437.2307	0.0857
437.4341	0.1016
437.6375	0.1067
437.841	0.0753
438.0443	0.0965
438.2477	0.0826
438.4511	0.0604
438.6545	0.0841
438.8578	0.0926
439.0611	0.0805
439.2644	0.0784
439.4677	0.0569
439.671	0.0676
439.8743	0.0724
440.0775	0.059
440.2808	0.0602
440.484	0.0626
440.6872	0.0426
440.8904	0.0503
441.0936	0.0716
441.2967	0.0605
441.4999	0.0684
441.703	0.0577
441.9062	0.0593
442.1093	0.071
442.3124	0.0667
442.5155	0.0433
442.7185	0.0469
442.9216	0.0345
443.1246	0.0728
443.3276	0.0493
443.5307	0.0573
443.7337	0.0553
443.9366	0.0618
444.1396	0.049
444.3426	0.0486
444.5455	0.0484
444.7484	0.046
444.9513	0.047
445.1542	0.0314
445.3571	0.0454
445.56	0.0337
445.7628	0.0322
445.9657	0.0373
446.1685	0.0528
446.3713	0.0264
446.5741	0.0366
446.7769	0.0245
446.9797	0.0323
447.1824	0.0436
447.3852	0.0311
447.5879	0.0488
447.7906	0.0464
447.9933	0.0434
448.196	0.0308
448.3986	0.0397
448.6013	0.0293
448.8039	0.0097
449.0066	0.0252
449.2092	0.0386
449.4118	0.025
449.6143	0.0252
449.8169	0.0297
450.0195	0.0128
450.222	0.0083
450.4245	0.0347
450.627	0.0169
450.8295	0.0257
451.032	0.0178
451.2345	0.0061
451.4369	0.0258
451.6394	0.0325
451.8418	0.0199
452.0442	0.0176
452.2466	0.0352
452.449	0.0086
452.6513	0.0263
452.8537	0.0098
453.056	0.0046
453.2583	0.0194
453.4607	0.0163
453.663	0.0171
453.8652	0.0133
454.0675	-0.0004
454.2697	0.0053
454.472	0.0133
454.6742	0.0316
454.8764	0.012
455.0786	0.0151
455.2808	0.0055
455.4829	0.0109
455.6851	0.0161
455.8872	0.0106
456.0893	0.0234
456.2915	-0.0038
456.4935	0.0111
456.6956	0.0051
456.8977	0.006
457.0997	0.0081
457.3018	-0.0046
457.5038	0.0028
457.7058	0.0071
457.9078	0.0048
458.1098	0.0106
458.3117	0.0161
458.5137	-0.0023
458.7156	0.0126
458.9175	0.0015
459.1194	-0.0008
459.3213	-0.0035
459.5232	0.0074
459.725	0.0012
459.9269	-0.0038
460.1287	-0.0094
460.3305	-0.0155
460.5323	-0.0098
460.7341	0.0016
460.9359	-0.008
461.1376	0.0083
461.3394	-0.001
461.5411	0.0002
461.7428	-0.0097
461.9445	-0.0039
462.1462	0.0206
462.3479	-0.0076
462.5495	0.0201
462.7512	0.0152
462.9528	-0.0082
463.1544	-0.0133
463.356	0.0036
463.5576	0.0012
463.7592	-0.0123
463.9607	0.0097
464.1623	0.0114
464.3638	0.0066
464.5653	-0.0113
464.7668	-0.006
464.9683	0.0079
465.1697	0.0133
465.3712	-0.0193
465.5726	0.0038
465.7741	-0.0048
465.9755	-0.0035
466.1769	0.0001
466.3782	-0.0087
466.5796	-0.0144
466.7809	0.0075
466.9823	-0.0161
467.1836	-0.0014
467.3849	0.0002
467.5862	0.0014
467.7875	-0.0026
467.9887	0.0049
468.19	-0.0092
468.3912	-0.0132
468.5924	-0.0085
468.7936	-0.0016
468.9948	-0.002
469.196	-0.008
469.3972	-0.024
469.5983	0.0003
469.7994	-0.0278
470.0006	-0.0023
470.2017	-0.0139
470.4027	-0.005
470.6038	-0.0116
470.8049	-0.0195
471.0059	-0.0218
471.2069	-0.0175
471.408	-0.0058
471.6089	0.0062
471.8099	-0.0092
472.0109	-0.0064
472.2119	-0.0164
472.4128	-0.0104
472.6137	0.0006
472.8146	-0.0169
473.0155	0.0008
473.2164	-0.0143
473.4173	0.0084
473.6181	-0.0055
473.819	-0.0111
474.0198	-0.0181
474.2206	-0.0069
474.4214	-0.0025
474.6222	-0.0051
474.8229	-0.0117
475.0237	-0.0116
475.2244	-0.0202
475.4251	-0.0091
475.6258	-0.0026
475.8265	-0.0034
476.0272	-0.0001
476.2278	0.0046
476.4285	-0.0191
476.6291	-0.0149
476.8297	-0.0091
477.0303	-0.0152
477.2309	-0.0085
477.4315	-0.0173
477.632	-0.0022
477.8326	0.0049
478.0331	0.0005
478.2336	-0.007
478.4341	-0.0152
478.6346	-0.0157
478.8351	-0.0106
479.0355	0.0008
479.236	-0.0069
479.4364	0.0034
479.6368	-0.0116
479.8372	-0.0171
480.0376	-0.0068
480.2379	-0.0245
480.4383	-0.0078
480.6386	0.0058
480.8389	-0.0045
481.0392	-0.0151
481.2395	-0.0168
481.4398	-0.0029
481.6401	-0.0026
481.8403	-0.0049
482.0405	-0.0053
482.2408	-0.0066
482.441	0.0014
482.6411	-0.0151
482.8413	-0.013
483.0415	-0.0111
483.2416	-0.0093
483.4417	-0.0095
483.6419	-0.0077
483.8419	-0.0183
484.042	0.0004
484.2421	0.0004
484.4422	-0.0107
484.6422	0.0004
484.8422	-0.0008
485.0422	-0.012
485.2422	0.0008
485.4422	-0.0176
485.6422	-0.0138
485.8421	-0.0029
486.042	-0.0056
486.242	-0.0041
486.4419	-0.0073
486.6417	-0.0138
486.8416	-0.0104
487.0415	-0.0085
487.2413	-0.0107
487.4411	-0.0118
487.641	-0.0203
487.8408	-0.0057
488.0405	-0.0094
488.2403	-0.0136
488.4401	-0.0098
488.6398	-0.0027
488.8395	-0.0083
489.0392	-0.009
489.2389	-0.015
489.4386	-0.0033
489.6383	-0.0062
489.8379	0.0048
490.0376	-0.0103
490.2372	-0.0102
490.4368	-0.0092
490.6364	-0.0042
490.836	-0.0172
491.0355	-0.012
491.2351	-0.0139
491.4346	-0.0068
491.6341	-0.0238
491.8336	0.0001
492.0331	-0.0276
492.2326	-0.0185
492.432	-0.0035
492.6315	-0.0111
492.8309	-0.0121
493.0303	-0.0182
493.2297	-0.0177
493.4291	0.003
493.6284	-0.0156
493.8278	-0.0038
494.0271	-0.0016
494.2264	-0.0026
494.4257	-0.0145
494.625	-0.0077
494.8243	-0.0152
495.0236	-0.018
495.2228	-0.0165
495.422	-0.0061
495.6213	-0.0171
495.8205	-0.0031
496.0196	-0.0069
496.2188	-0.0109
496.418	-0.019
496.6171	-0.0052
496.8162	-0.0119
497.0153	-0.0031
497.2144	-0.0142
497.4135	0.0019
497.6126	-0.0127
497.8116	-0.0002
498.0107	-0.005
498.2097	-0.018
498.4087	-0.0161
498.6077	-0.015
498.8067	-0.0061
499.0056	-0.0002
499.2046	-0.0082
499.4035	-0.0259
499.6024	-0.0114
499.8013	-0.0136
500.0002	-0.0177
500.199	-0.0075
500.3979	-0.0093
500.5967	-0.0206
500.7956	-0.0018
500.9944	-0.009
501.1932	-0.0204
501.3919	-0.0152
501.5907	-0.0145
501.7895	-0.0072
501.9882	-0.0167
502.1869	-0.0098
502.3856	-0.0184
502.5843	-0.0226
502.783	-0.0195
502.9816	-0.0036
503.1803	-0.0175
503.3789	-0.0103
503.5775	-0.0012
503.7761	-0.0092
503.9747	-0.0077
504.1732	-0.0087
504.3718	-0.0072
504.5703	-0.0106
504.7689	-0.0149
504.9674	-0.0119
505.1658	-0.0199
505.3643	-0.0067
505.5628	-0.0139
505.7612	-0.008
505.9597	-0.0018
506.1581	-0.0139
506.3565	-0.0012
506.5549	-0.0124
506.7532	-0.0132
506.9516	-0.0064
507.1499	-0.0122
507.3482	-0.0174
507.5465	-0.014
507.7448	-0.0126
507.9431	-0.015
508.1414	-0.0109
508.3396	-0.0042
508.5379	-0.0069
508.7361	-0.0092
508.9343	-0.0058
509.1325	-0.0089
509.3306	-0.021
509.5288	-0.0182
509.7269	-0.008
509.9251	-0.0139
510.1232	-0.0093
510.3213	-0.0087
510.5193	-0.0095
510.7174	-0.0229
510.9154	-0.0191
511.1135	-0.0163
511.3115	-0.0095
511.5095	-0.0104
511.7075	-0.0073
511.9055	-0.0191
512.1034	-0.0177
512.3014	-0.0107
512.4993	-0.004
512.6972	-0.0168
512.8951	-0.0195
513.093	-0.0058
513.2908	-0.0074
513.4887	-0.0088
513.6865	-0.0138
513.8844	-0.0169
514.0822	-0.0164
514.2799	-0.0174
514.4777	-0.0163
514.6755	-0.0136
514.8732	-0.0123
515.0709	-0.0054
515.2687	-0.006
515.4664	-0.0037
515.664	-0.0081
515.8617	-0.007
516.0594	-0.0177
516.257	-0.0094
516.4546	-0.0167
516.6522	-0.0087
516.8498	-0.0106
517.0474	-0.0014
517.2449	-0.0048
517.4425	-0.0198
517.64	-0.0108
517.8375	0.0012
518.035	0.001
518.2325	-0.0233
518.43	-0.0193
518.6274	-0.0032
518.8249	-0.0175
519.0223	-0.0029
519.2197	-0.0147
519.4171	-0.0201
519.6145	-0.0132
519.8118	-0.0083
520.0092	-0.011
520.2065	-0.0129
520.4038	-0.0233
520.6011	-0.0045
520.7984	-0.0088
520.9956	-0.0132
521.1929	-0.0164
521.3901	-0.0036
521.5874	-0.0057
521.7846	-0.0146
521.9818	-0.0194
522.1789	-0.0166
522.3761	-0.0061
522.5732	-0.0075
522.7704	-0.0086
522.9675	-0.0108
523.1646	-0.008
523.3617	-0.003
523.5587	-0.0043
523.7558	-0.0144
523.9528	-0.0178
524.1498	-0.0168
524.3468	-0.0101
524.5438	-0.0175
524.7408	-0.0113
524.9378	-0.0033
525.1347	-0.0134
525.3316	-0.004
525.5285	-0.0174
525.7254	-0.0222
525.9223	-0.0087
526.1192	-0.001
526.316	-0.0138
526.5129	-0.0085
526.7097	-0.0122
526.9065	-0.0113
527.1033	-0.0166
527.3	-0.0028
527.4968	-0.0045
527.6935	-0.0092
527.8903	-0.0148
528.087	-0.0115
528.2837	-0.0079
528.4804	-0.0074
528.677	-0.0163
528.8737	-0
529.0703	-0.0111
529.2669	-0.0067
529.4635	-0.0145
529.6601	-0.0053
529.8567	-0.0079
530.0532	-0.0147
530.2498	-0.0018
530.4463	0.001
530.6428	-0.0077
530.8393	0.0086
531.0358	-0.0062
531.2322	-0.0076
531.4287	-0.0157
531.6251	-0.0151
531.8215	0.0024
532.0179	-0.0019
532.2143	-0.0042
532.4107	-0.0009
532.607	-0.0028
532.8034	-0.0046
532.9997	-0.011
533.196	-0.001
533.3923	-0.0109
533.5886	-0.0015
533.7848	-0.0071
533.9811	-0.0077
534.1773	-0.0116
534.3735	0.0054
534.5697	-0.0084
534.7659	-0.0089
534.9621	-0.002
535.1582	-0.0102
535.3544	-0.0095
535.5505	-0.0152
535.7466	-0.0111
535.9427	-0.0096
536.1387	-0.012
536.3348	-0.0093
536.5308	0.0086
536.7269	-0.0128
536.9229	-0.0026
537.1189	-0.0081
537.3148	-0.0059
537.5108	-0.0148
537.7068	-0.0043
537.9027	0.0025
538.0986	-0.0092
538.2945	-0.0119
538.4904	-0.0104
538.6863	-0.0121
538.8821	-0.0053
539.078	0.0008
539.2738	-0.0046
539.4696	-0.0073
539.6654	-0.0017
539.8611	0.0061
540.0569	-0.0103
540.2526	-0.013
540.4484	-0.0095
540.6441	0.0112
540.8398	-0.0028
541.0355	-0.0041
541.2311	-0.0095
541.4268	-0.0185
541.6224	-0.0029
541.818	-0.0081
542.0136	-0.0089
542.2092	0.0013
542.4048	-0
542.6003	-0.0086
542.7959	-0.0178
542.9914	-0.0121
543.1869	-0.013
543.3824	-0.0128
543.5779	-0.0097
543.7734	-0.0056
543.9688	-0.0099
544.1642	-0.0024
544.3596	-0.0082
544.555	-0.0159
544.7504	-0.002
544.9458	-0.0016
545.1411	-0.0027
545.3365	-0.006
545.5318	-0.001
545.7271	0.0041
545.9224	-0.0073
546.1177	0.0008
546.3129	0.0033
546.5081	-0.0102
546.7034	-0.0041
546.8986	-0.01
547.0938	-0.0106
547.289	-0.0022
547.4841	0.0022
547.6793	-0.0024
547.8744	-0.0163
548.0695	0.0028
548.2646	-0.0167
548.4597	0.0046
548.6548	-0.0014
548.8498	-0.0085
549.0448	0.0067
549.2399	-0.0028
549.4349	0.0063
549.6298	-0.0022
549.8248	0.0004
550.0198	-0.0009
550.2147	-0.0095
550.4096	-0.0116
550.6045	-0.0027
550.7994	-0.0068
550.9943	-0.0064
551.1892	-0.0035
551.384	0.0008
551.5788	-0.0129
551.7737	-0.0034
551.9685	-0.0107
552.1632	0.0001
552.358	-0.007
552.5528	-0.0086
552.7475	-0.0083
552.9422	-0.0035
553.1369	0.0034
553.3316	0.0073
553.5263	-0.0098
553.7209	0.0001
553.9156	-0.007
554.1102	-0.0071
554.3048	-0.0041
554.4994	0.005
554.694	-0.0048
554.8885	-0.0006
555.0831	-0.0095
555.2776	-0.0141
555.4721	0.0011
555.6666	-0.0011
555.8611	0.0026
556.0555	-0.0074
556.25	-0.0077
556.4444	-0.0163
556.6388	-0.0057
556.8332	-0.0056
557.0276	-0.0089
557.222	-0.0035
557.4163	0.002
557.6107	-0.0044
557.805	-0.0019
557.9993	-0.004
558.1936	-0.0049
558.3879	-0.002
558.5821	-0.0034
558.7764	-0.0101
558.9706	-0.0036
559.1648	-0.0049
559.359	-0.004
559.5532	-0.0164
559.7473	-0.0004
559.9415	-0.0076
560.1356	-0.0002
560.3297	-0.0192
560.5238	-0.0075
560.7179	-0.0078
560.9119	-0.0018
561.106	-0.0124
561.3	-0.0093
561.494	-0.0032
561.688	-0.0029
561.882	-0.0114
562.076	-0.0089
562.2699	0.0028
562.4639	-0.004
562.6578	-0.0065
562.8517	0.0006
563.0456	-0.0001
563.2395	0.0009
563.4333	0.0037
563.6272	0.0011
563.821	-0.006
564.0148	-0.0034
564.2086	-0.0084
564.4024	-0.0085
564.5961	-0.0026
564.7899	0.0087
564.9836	0.0007
565.1773	0.0001
565.371	0.0024
565.5647	0.0014
565.7584	-0.0014
565.952	-0.0015
566.1456	-0.0005
566.3393	-0.0011
566.5329	-0.0065
566.7264	0.0006
566.92	-0.0097
567.1136	0.0051
567.3071	-0.0085
567.5006	-0.0058
567.6941	0.0004
567.8876	0.0012
568.0811	-0.0026
568.2745	0.0015
568.468	0.0023
568.6614	-0.0005
568.8548	-0.0016
569.0482	-0.0094
569.2416	-0.0034
569.4349	-0.001
569.6283	0.005
569.8216	-0.0056
570.0149	-0.0148
570.2082	0.0021
570.4015	-0.0001
570.5947	0.0035
570.788	0.0044
570.9812	0.0036
571.1744	0.001
571.3676	-0.0074
571.5608	-0.0001
571.754	0.0017
571.9471	-0.0034
572.1402	0.0013
572.3333	-0.0025
572.5264	-0.0008
572.7195	0.0037
572.9126	-0.0001
573.1057	-0.0036
573.2987	-0.0038
573.4917	0.001
573.6847	-0.0095
573.8777	-0.0011
574.0707	0.0006
574.2636	-0.0019
574.4566	-0.0009
574.6495	0.0037
574.8424	0.0023
575.0353	0.0044
575.2281	0.0034
575.421	-0.0016
575.6138	0.0059
575.8067	-0.0012
575.9995	0.0027
576.1923	0.0011
576.385	-0.0029
576.5778	-0.0019
576.7706	-0.0057
576.9633	-0.0011
577.156	0.0029
577.3487	-0.0039
577.5414	0.0054
577.734	-0.0057
577.9267	0.0047
578.1193	-0.0103
578.3119	-0.0097
578.5045	0.0004
578.6971	-0.0017
578.8897	0.0052
579.0822	-0.0013
579.2747	0.0023
579.4673	-0.0029
579.6598	-0.0082
579.8522	-0.0067
580.0447	-0.0098
580.2372	-0.0037
580.4296	0.0023
580.622	-0.001
580.8144	-0.0022
581.0068	-0.0034
581.1992	-0.0103
581.3915	-0.0088
581.5839	-0.0078
581.7762	-0.0032
581.9685	-0.0012
582.1608	0.0015
582.353	-0.0028
582.5453	-0.0002
582.7375	0.0026
582.9298	0.0028
583.122	-0.0018
583.3142	0.0021
583.5063	0.0041
583.6985	-0.0029
583.8906	0.0014
584.0827	-0.0049
584.2749	0.0054
584.4669	-0.0024
584.659	-0.0015
584.8511	0
585.0431	-0.0027
585.2352	0.0027
585.4272	-0.002
585.6192	0.0133
585.8111	0.0002
586.0031	0.0043
586.195	-0.0006
586.387	0.0036
586.5789	0.0059
586.7708	0.0012
586.9627	-0.0011
587.1545	-0.0035
587.3464	0.0026
587.5382	0.0068
587.73	0.0016
587.9218	0.0068
588.1136	0.0069
588.3053	-0.0026
588.4971	0.0013
588.6888	-0.0068
588.8805	0.003
589.0722	0.0065
589.2639	0.0038
589.4556	0.0002
589.6472	-0.0033
589.8389	-0.0121
590.0305	-0.0099
590.2221	0.0049
590.4137	-0.0132
590.6052	0.0081
590.7968	-0.0021
590.9883	-0.0016
591.1798	-0.0024
591.3713	0.0051
591.5628	0.0042
591.7543	0.0101
591.9458	0.0063
592.1372	0.0028
592.3286	0.0111
592.52	0.0085
592.7114	-0.001
592.9028	0.0007
593.0941	0.0039
593.2855	0.0048
593.4768	-0.003
593.6681	-0.0108
593.8594	-0.0031
594.0506	-0.0054
594.2419	0.0063
594.4331	-0.001
594.6244	0.0032
594.8156	-0.0095
595.0067	0.0038
595.1979	0.0029
595.3891	0.0059
595.5802	-0.0037
595.7713	-0.0046
595.9624	-0.0024
596.1535	0.0119
596.3446	-0.0051
596.5357	0.0044
596.7267	0.0043
596.9177	-0.0021
597.1087	0.0013
597.2997	-0.0093
597.4907	0.004
597.6817	-0.0079
597.8726	-0.003
598.0635	-0.006
598.2544	-0.0064
598.4453	-0.0044
598.6362	-0.0036
598.827	-0.0018
599.0179	0.0068
599.2087	0.0005
599.3995	0.0019
599.5903	-0.0028
599.7811	0.0023
599.9718	0.0028
600.1626	-0.0035
600.3533	-0.0057
600.544	0.0009
600.7347	0.0037
600.9254	-0.0031
601.116	-0.0092
601.3067	-0.0075
601.4973	0.0014
601.6879	0.0047
601.8785	-0.0095
602.0691	0.0043
602.2596	0.0012
602.4502	-0.003
602.6407	-0.0006
602.8312	-0.0043
603.0217	-0.0081
603.2122	-0.0046
603.4027	-0.0016
603.5931	-0.0096
603.7835	-0.0082
603.9739	-0.0073
604.1643	-0.0052
604.3547	-0.0036
604.5451	0.0031
604.7354	-0.0004
604.9257	0.0029
605.116	-0.0054
605.3063	0.0031
605.4966	0.0005
605.6869	0.006
605.8771	0.0083
606.0673	0.0015
606.2575	0.0048
606.4477	0.0024
606.6379	0.0052
606.8281	0.0016
607.0182	0.001
607.2083	0.0093
607.3985	-0.0022
607.5885	-0.0019
607.7786	-0.0017
607.9687	-0.0016
608.1587	0.006
608.3488	-0.0012
608.5388	0.0025
608.7288	-0.0037
608.9187	-0.0015
609.1087	-0.0003
609.2986	-0.0073
609.4886	-0.0001
609.6785	0.0064
609.8684	0.0056
610.0582	0.0043
610.2481	0.0107
610.4379	0.0017
610.6278	-0.0036
610.8176	-0.0002
611.0074	0.0011
611.1971	-0.0064
611.3869	-0.0001
611.5766	-0.0049
611.7664	0.0034
611.9561	0.0072
612.1458	0.0008
612.3354	-0.0033
612.5251	0.0021
612.7147	0.0028
612.9044	0.0018
613.094	-0.008
613.2836	0.0012
613.4731	-0.0073
613.6627	0.0025
613.8522	0.0033
614.0417	-0.0013
614.2313	-0.0064
614.4207	-0.0111
614.6102	-0.0071
614.7997	-0.0045
614.9891	-0.0043
615.1785	-0.0014
615.3679	-0.0038
615.5573	0.0021
615.7467	-0.0008
615.9361	0.0038
616.1254	-0.0033
616.3147	-0.0018
616.504	0.0017
616.6933	0.003
616.8826	0.0028
617.0718	0.0044
617.2611	0.003
617.4503	-0.0039
617.6395	-0.0035
617.8287	0.001
618.0179	0.0056
618.207	0.0045
618.3961	0.0008
618.5853	-0.0026
618.7744	0.0078
618.9634	0.0038
619.1525	0.002
619.3416	0.0001
619.5306	0.0032
619.7196	-0.001
619.9086	0.0009
620.0976	0.0058
620.2866	0.0047
620.4755	0.0115
620.6645	0.0035
620.8534	0.0083
621.0423	-0.0004
621.2312	0.0071
621.42	-0.0003
621.6089	-0.0045
621.7977	0.0132
621.9865	-0.0067
622.1753	-0.0039
622.3641	-0.0031
622.5529	0.007
622.7416	0.0028
622.9303	-0.0073
623.1191	0.0048
623.3078	-0.0027
623.4964	0.0009
623.6851	-0.0019
623.8737	0.0006
624.0624	0.0084
624.251	-0.0018
624.4396	-0.0025
624.6282	0.0005
624.8167	0.0058
625.0053	0.0099
625.1938	0.0026
625.3823	-0.0025
625.5708	-0.0002
625.7593	-0.0027
625.9477	-0.0026
626.1362	0.0003
626.3246	0.0033
626.513	0.0095
626.7014	-0.0001
626.8898	-0.0036
627.0781	-0.0002
627.2665	-0.0005
627.4548	0.0106
627.6431	0.0064
627.8314	0.0083
628.0197	0.0028
628.2079	-0.0018
628.3962	-0.0049
628.5844	0.0062
628.7726	0.0036
628.9608	0.0065
629.1489	0
629.3371	0.0053
629.5252	0.003
629.7134	0.016
629.9015	0.0042
630.0895	0.0021
630.2776	0.0065
630.4657	0.0047
630.6537	0.004
630.8417	0.0005
631.0297	-0.0069
631.2177	0.0008
631.4057	-0.0047
631.5936	0.0041
631.7815	-0.0047
631.9695	0.0016
632.1574	0.0093
632.3452	0.0058
632.5331	0.0052
632.7209	0.0029
632.9088	0.014
633.0966	0.0099
633.2844	-0.0019
633.4722	-0
633.6599	0.0053
633.8477	0.0008
634.0354	0.0066
634.2231	-0.002
634.4108	0.0007
634.5985	0.006
634.7861	-0.0039
634.9738	-0.0049
635.1614	-0.0025
635.349	0.0031
635.5366	0.0009
635.7242	0.0009
635.9117	0.0106
636.0993	-0.001
636.2868	0.0014
636.4743	0.0003
636.6618	0.0098
636.8492	0.0036
637.0367	0.0036
637.2241	-0.0005
637.4115	-0.0028
637.5989	-0.0014
637.7863	-0.0056
637.9737	-0.0034
638.161	0.0033
638.3484	-0.0043
638.5357	-0.003
638.723	-0.0007
638.9103	0.0029
639.0975	0.0074
639.2848	0.0053
639.472	0.0016
639.6592	-0.0001
639.8464	0.0031
640.0336	0.007
640.2208	0.0011
640.4079	-0.0019
640.595	-0.0045
640.7821	-0.0026
640.9692	-0.0025
641.1563	-0.0043
641.3434	0.0009
641.5304	-0.004
641.7174	0.0025
641.9044	0.0021
642.0914	-0.0035
642.2784	0.003
642.4653	0.0049
642.6523	-0.0022
642.8392	-0.0049
643.0261	0.0024
643.213	0.0063
643.3999	-0.0078
643.5867	0.0013
643.7735	0.0057
643.9604	-0.0074
644.1472	-0.0004
644.3339	0.0034
644.5207	0.0014
644.7075	-0.0106
644.8942	0.0072
645.0809	0.0021
645.2676	0.0101
645.4543	0.0025
645.6409	0.0004
645.8276	-0.0044
646.0142	0.0034
646.2008	-0.007
646.3874	-0.0057
646.574	-0.0044
646.7605	0.0006
646.9471	-0.0121
647.1336	0.0044
647.3201	-0.0041
647.5066	-0.0084
647.6931	-0.0012
647.8795	0.0018
648.0659	0.0072
648.2524	-0.0006
648.4388	-0.0059
648.6252	-0.0014
648.8115	0.0018
648.9979	-0.0039
649.1842	-0.0008
649.3705	0.0028
649.5568	0.0031
649.7431	0.0013
649.9294	0.0005
650.1156	0.0038
650.3018	-0.0072
650.488	-0.0024
650.6742	-0.0012
650.8604	0.0142
651.0466	-0.0022
651.2327	-0.0003
651.4188	-0.003
651.6049	-0.0015
651.791	-0.0086
651.9771	0.0054
652.1632	0.0057
652.3492	0.0024
652.5352	-0.0005
652.7212	-0.0079
652.9072	-0.0024
653.0932	-0.0069
653.2791	-0.0014
653.465	-0.0037
653.651	-0.0174
653.8369	-0.0075
654.0227	-0.0023
654.2086	-0.0032
654.3944	0.0101
654.5803	-0.0033
654.7661	-0.0082
654.9519	0.0013
655.1377	-0.0079
655.3234	-0.002
655.5092	-0.0062
655.6949	-0.0023
655.8806	-0.0043
656.0663	-0.0003
656.2519	-0.001
656.4376	-0.0028
656.6232	-0.0019
656.8088	-0.0026
656.9945	-0.005
657.18	-0.0005
657.3656	0.0001
657.5511	-0.0074
657.7367	0.0013
657.9222	0.0064
658.1077	0.0027
658.2932	0.0068
658.4786	-0.0082
658.6641	-0.0062
658.8495	0.0016
659.0349	-0.0036
659.2203	0.0074
659.4057	-0.0007
659.591	-0.004
659.7764	-0.0022
659.9617	-0.0018
660.147	-0.0051
660.3323	-0.0006
660.5176	0.004
660.7028	0.0038
660.888	0.0024
661.0733	-0.0003
661.2585	-0.0092
661.4436	-0.0109
661.6288	-0.0101
661.8139	-0.0108
661.9991	0.0014
662.1842	0.0002
662.3693	-0.0019
662.5544	-0.0088
662.7394	-0.005
662.9245	-0.0066
663.1095	0.0004
663.2945	-0.0029
663.4795	-0.0078
663.6644	0.002
663.8494	-0.0039
664.0343	-0.0014
664.2193	-0.0058
664.4042	0.0023
664.589	-0.0028
664.7739	-0.0054
664.9587	-0.0071
665.1436	-0.0036
665.3284	-0.0046
665.5132	0.0005
665.698	-0.0009
665.8827	0.0047
666.0675	0.0078
666.2522	-0.0094
666.4369	0.0023
666.6216	0.0083
666.8063	0.002
666.9909	0.0016
667.1756	-0.0029
667.3602	-0.0013
667.5448	0.001
667.7294	0.0026
667.9139	0.0047
668.0985	0.0083
668.283	0.0046
668.4675	0.0033
668.652	0.0006
668.8365	-0.0004
669.0209	0.0062
669.2054	0.0072
669.3898	-0.005
669.5742	0.0035
669.7586	0.0036
669.943	0.0033
670.1273	0.0012
670.3117	0.0083
670.496	0.0051
670.6803	0.0138
670.8646	0.0001
671.0488	0.0026
671.2331	0.0076
671.4173	0.0068
671.6015	-0.0003
671.7857	0.0084
671.9699	0.0036
672.1541	0.0044
672.3382	0.0005
672.5223	0.0102
672.7064	0.0035
672.8905	0.0072
673.0746	0.0025
673.2587	0.0011
673.4427	0.0029
673.6267	0.0106
673.8107	0.0067
673.9947	-0.0022
674.1787	0.0039
674.3626	-0.0035
674.5465	0.0019
674.7304	0.005
674.9143	0.0066
675.0982	0.0041
675.2821	-0.0038
675.4659	0.0032
675.6497	0.0016
675.8335	-0.0074
676.0173	0.002
676.2011	0.0056
676.3849	-0.0033
676.5686	-0.0022
676.7523	0.0018
676.936	-0.004
677.1197	-0.004
677.3034	-0.004
677.487	0.0142
677.6706	0.0061
677.8542	0.0007
678.0378	0.0015
678.2214	0.0087
678.405	-0.0025
678.5885	-0.0042
678.772	-0.0046
678.9555	-0.0008
679.139	-0.0067
679.3225	0.0024
679.5059	-0.0031
679.6894	0.0011
679.8728	0.0035
680.0562	-0.0109
680.2395	-0.0126
680.4229	-0.0006
680.6062	-0.0014
680.7896	-0.0027
680.9729	-0.0113
681.1562	-0.0035
681.3394	0.0019
681.5227	-0.015
681.7059	-0.006
681.8891	-0.0055
682.0723	0.0025
682.2555	0.002
682.4387	-0.0035
682.6218	-0.0093
682.805	0.0075
682.9881	0.0008
683.1712	-0.0058
683.3542	0.0031
683.5373	0.0061
683.7203	-0.0018
683.9034	0.0009
684.0864	-0.0098
684.2694	0.0014
684.4523	0.0033
684.6353	-0.0055
684.8182	-0.0012
685.0011	-0.0063
685.184	0.0065
685.3669	-0.0051
685.5498	0.0016
685.7326	-0.0029
685.9154	-0.0032
686.0982	0.0068
686.281	0.0082
686.4638	0.012
686.6465	0.0011
686.8293	0
687.012	0.0034
687.1947	0.0003
687.3774	0.0015
687.56	0.0003
687.7427	0.0053
687.9253	-0.0018
688.1079	-0.0044
688.2905	0.0056
688.4731	0.0003
688.6556	-0.0043
688.8382	-0.0054
689.0207	0.0019
689.2032	-0.0069
689.3857	-0.0028
689.5681	-0.0014
689.7506	0.0016
689.933	-0.0056
690.1154	0.002
690.2978	-0.0026
690.4802	0.0005
690.6626	-0.0086
690.8449	-0.0076
691.0272	0.0081
691.2095	-0.0036
691.3918	-0.0027
691.5741	0.0032
691.7563	-0.0072
691.9386	0.0036
692.1208	0.0034
692.303	0.0013
692.4852	-0.002
692.6673	0.0033
692.8495	0.0012
693.0316	0.0067
693.2137	-0.0027
693.3958	0.0044
693.5778	0.0027
693.7599	-0.0077
693.9419	0.0034
694.1239	0.0045
694.3059	-0.0015
694.4879	0.0086
694.6699	0.0071
694.8518	0.0021
695.0337	0.0002
695.2157	0.0055
695.3975	-0.0031
695.5794	0.0029
695.7613	0.0031
695.9431	-0
696.1249	0.003
696.3067	0.0083
696.4885	0.0031
696.6703	-0.0166
696.852	0.0008
697.0337	0.0011
697.2154	-0.0061
697.3971	-0.0035
697.5788	-0.0058
697.7605	-0.0009
697.9421	0.0044
698.1237	-0.0073
698.3053	-0.0047
698.4869	-0.0072
698.6685	-0.0098
698.85	-0.0021
699.0315	0.0012
699.213	-0.005
699.3945	0.0002
699.576	0.0032
699.7575	0.0018
699.9389	-0.0001
700.1203	-0.0041
700.3017	-0.0038
700.4831	-0.0034
700.6645	0.0023
700.8458	0.0075
701.0271	-0.0028
701.2084	0.0102
701.3897	-0.004
701.571	0.01
701.7523	0.0019
701.9335	-0.0038
702.1147	-0.0042
702.2959	0.0003
702.4771	-0.0014
702.6583	0.0045
702.8394	-0.0081
703.0205	0.0038
703.2016	-0.0075
703.3827	-0.0018
703.5638	0.0053
703.7449	0.003
703.9259	0.0014
704.1069	-0.0025
704.2879	0.0039
704.4689	0.011
704.6499	0.0016
704.8308	0.006
705.0117	-0.003
705.1927	-0.0006
705.3735	0.0044
705.5544	0.0005
705.7353	-0.001
705.9161	-0.0138
706.0969	-0.0057
706.2777	0.0001
706.4585	-0.008
706.6393	0.0076
706.82	-0.0049
707.0007	0.0025
707.1815	0.007
707.3621	0.0043
707.5428	-0.002
707.7235	0.0087
707.9041	0.0054
708.0847	-0.0071
708.2653	-0.0073
708.4459	-0.011
708.6265	0.0059
708.807	0.0038
708.9875	-0.0036
709.168	-0.001
709.3485	-0.0029
709.529	-0.0034
709.7095	-0.013
709.8899	0.0032
710.0703	-0.005
710.2507	0.0015
710.4311	0.0002
710.6115	-0.0079
710.7918	-0.0139
710.9721	0.001
711.1524	-0.0089
711.3327	-0.0043
711.513	0.0019
711.6932	-0.0014
711.8735	0.0016
712.0537	-0.0015
712.2339	-0.001
712.4141	-0.0068
712.5942	-0.0072
712.7744	-0.0079
712.9545	-0.0069
713.1346	-0.0096
713.3147	-0.0069
713.4947	-0.0093
713.6748	-0.0075
713.8548	-0.0038
714.0348	0.0003
714.2148	-0.0016
714.3948	0.0136
714.5748	-0.0072
714.7547	-0.0109
714.9346	-0.0087
715.1145	-0.001
715.2944	-0.0055
715.4743	-0.0009
715.6541	-0.0083
715.834	0.0061
716.0138	-0.0025
716.1936	-0.0073
716.3733	-0.0121
716.5531	0.0054
716.7328	-0.0026
716.9126	0.0025
717.0923	0.0016
717.2719	-0.0054
717.4516	-0.0036
717.6312	-0.0026
717.8109	-0.0034
717.9905	0.0002
718.1701	-0.0091
718.3496	-0.0034
718.5292	-0.0005
718.7087	0.0077
718.8882	-0.0004
719.0677	-0.0017
719.2472	-0.0003
719.4267	-0.0052
719.6061	-0.0043
719.7856	-0.0014
719.965	0.0027
720.1443	-0.0101
720.3237	0.003
720.5031	0.0088
720.6824	0.0024
720.8617	-0.0006
721.041	0.0096
721.2203	0.0064
721.3995	0.0082
721.5788	0.0051
721.758	0.0082
721.9372	0.0088
722.1164	0.0087
722.2956	0.0025
722.4747	0.0033
722.6538	0.0057
722.8329	0.0084
723.012	0.012
723.1911	0.0017
723.3702	0.0003
723.5492	0.0055
723.7282	-0.0093
723.9072	0.0037
724.0862	-0.0032
724.2652	-0.0039
724.4441	-0.009
724.623	-0.0053
724.8019	-0.0112
724.9808	-0.0011
725.1597	-0.0094
725.3385	0.0054
725.5174	0.0055
725.6962	-0.0037
725.875	0.0047
726.0538	0.0042
726.2325	-0.0023
726.4112	0.0131
726.59	0.005
726.7687	-0.0059
726.9474	0.0023
727.126	-0.0039
727.3047	-0.0054
727.4833	-0.0037
727.6619	-0.0047
727.8405	-0.0123
728.0191	0.0016
728.1976	-0.0047
728.3762	-0.0126
728.5547	0.0001
728.7332	-0.0037
728.9116	0.0042
729.0901	0.004
729.2686	-0.0073
729.447	0.0007
729.6254	-0.001
729.8038	-0.0122
729.9821	-0.0125
730.1605	-0.004
730.3388	-0.0056
730.5171	0.005
730.6954	-0.012
730.8737	0.0054
731.0519	0.0099
731.2302	-0.0007
731.4084	0.0137
731.5866	-0.0016
731.7648	-0.0058
731.9429	0.0033
732.1211	-0.0108
732.2992	-0.0054
732.4773	-0.0048
732.6554	-0.0042
732.8335	0.0056
733.0115	0.0107
733.1896	0.0096
733.3676	-0.0081
733.5456	0.0004
733.7235	0.0101
733.9015	-0.0035
734.0794	0.0061
734.2574	-0.0004
734.4353	0.0035
734.6131	-0.0004
734.791	-0.0082
734.9689	0.0005
735.1467	0.0053
735.3245	-0.0047
735.5023	-0.0171
735.68	-0.0082
735.8578	0.0082
736.0355	-0.019
736.2132	-0.0058
736.3909	-0.0015
736.5686	-0.0175
736.7463	-0.0002
736.9239	-0.0056
737.1015	-0.007
737.2791	0.003
737.4567	-0.0066
737.6343	-0.0115
737.8118	-0.0029
737.9894	0.0026
738.1669	-0.0057
738.3444	-0.0059
738.5218	0.0024
738.6993	-0.0031
738.8767	-0.0032
739.0541	0.0092
739.2315	-0.0154
739.4089	-0.0089
739.5863	0.0028
739.7636	-0.0046
739.9409	-0.0005
740.1182	0.0026
740.2955	0.0054
740.4728	-0.0074
740.65	-0.0093
740.8272	0.0043
741.0044	-0.0089
741.1816	-0.0006
741.3588	0.0052
741.5359	-0.0022
741.7131	-0.0131
741.8902	-0.0018
742.0673	-0.0015
742.2444	-0.0111
742.4214	-0.0156
742.5985	-0.0091
742.7755	-0.0092
742.9525	-0.0203
743.1295	0.0025
743.3064	-0.0051
743.4834	0.0012
743.6603	0.0001
743.8372	-0.0079
744.0141	-0.0041
744.191	-0.0016
744.3678	-0.0031
744.5446	-0.0032
744.7215	0.0065
744.8982	0.0039
745.075	-0.0105
745.2518	0.0043
745.4285	0.0044
745.6052	-0.0018
745.7819	0.0004
745.9586	-0.0004
746.1353	0.0014
746.3119	-0.004
746.4885	-0.0016
746.6651	-0.0024
746.8417	0.0063
747.0183	0.009
747.1948	0.0062
747.3714	0.0036
747.5479	0.0074
747.7244	0.0019
747.9008	0.0109
748.0773	-0.001
748.2537	-0.001
748.4301	-0.007
748.6065	0.0047
748.7829	-0.0031
748.9593	-0.0039
749.1356	0.0009
749.3119	-0.0005
749.4882	-0.0078
749.6645	0.0166
749.8408	-0.0079
750.017	-0.0014
750.1933	0.0095
750.3695	-0.0022
750.5457	0.0079
750.7218	-0.0012
750.898	0.0113
751.0741	-0.0001
751.2502	0.0044
751.4263	-0.0042
751.6024	-0.0049
751.7784	-0.0001
751.9545	-0
752.1305	0.0048
752.3065	-0.0081
752.4825	-0.0018
752.6584	-0.0034
752.8344	-0.0115
753.0103	-0.0135
753.1862	-0.0116
753.3621	-0.0082
753.5379	-0.0161
753.7138	-0.0052
753.8896	-0.0117
754.0654	-0.0005
754.2412	-0.0045
754.417	0.0022
754.5927	-0.0098
754.7685	-0.0023
754.9442	0.0082
755.1199	0.0036
755.2956	-0.0058
755.4712	0.006
755.6469	0.0031
755.8225	-0.0023
755.9981	-0.0124
756.1736	-0.0009
756.3492	-0.0021
756.5248	-0.012
756.7003	0.0032
756.8758	-0
757.0513	-0.0063
757.2267	-0.0102
757.4022	0.0047
757.5776	-0.0054
757.753	0.0021
757.9284	-0.0024
758.1038	0.0059
758.2791	0.0033
758.4545	-0.0092
758.6298	0.0078
758.8051	0.0058
758.9803	0.0063
759.1556	0.0085
759.3308	0.0046
759.506	0.0091
759.6812	0.0123
759.8564	0.0154
760.0316	-0.0016
760.2067	0.0137
760.3819	0.0085
760.557	0.0133
760.732	0.0028
760.9071	-0.0097
761.0821	0.0093
761.2572	0.008
761.4322	-0.0108
761.6072	-0.008
761.7821	-0.0136
761.9571	0.0083
762.132	0.0019
762.3069	-0.0101
762.4818	-0.001
762.6567	-0.0059
762.8316	0.0014
763.0064	-0.0002
763.1812	-0.0015
763.356	-0.001
763.5308	-0.0037
763.7055	0.0012
763.8803	-0.0003
764.055	0.0005
764.2297	-0.0034
764.4044	-0.0062
764.579	-0.0052
764.7537	-0.0135
764.9283	0.0053
765.1029	-0.0088
765.2775	0.0056
765.4521	-0.0075
765.6266	-0.0026
765.8011	-0.0019
765.9756	-0.0029
766.1501	0.0088
766.3246	0.0039
766.4991	0.0055
766.6735	-0.0008
766.8479	-0.0086
767.0223	0.0014
767.1967	-0.0031
767.371	-0.0054
767.5454	-0.014
767.7197	-0.004
767.894	-0.0102
768.0683	-0.0123
768.2425	0.0012
768.4168	-0.0033
768.591	0.0059
768.7652	0.0028
768.9394	0.0033
769.1135	-0.0055
769.2877	0.0009
769.4618	-0.0027
769.6359	-0.0077
769.81	0.0028
769.984	0.0059
770.1581	-0.0005
770.3321	0.001
770.5061	-0.0052
770.6801	-0.0009
770.8541	-0.0062
771.028	0.0059
771.202	-0.0209
771.3759	-0.001
771.5498	0.0041
771.7236	0.0036
771.8975	0.0149
772.0713	0.0165
772.2451	0.0019
772.4189	0.0188
772.5927	0.0254
772.7665	0.0065
772.9402	-0.0062
773.1139	-0.0025
773.2876	-0.0063
773.4613	0.0067
773.635	0.0036
773.8086	-0.009
773.9822	0.0012
774.1558	0.0055
774.3294	-0.0152
774.503	-0.0073
774.6765	0.0175
774.8501	0.0066
775.0236	0.0042
775.1971	0.0163
775.3705	-0.0065
775.544	0.0095
775.7174	-0.01
775.8908	-0.006
776.0642	-0.0099
776.2376	-0.0016
776.4109	-0.0036
776.5843	-0.0004
776.7576	0.0101
776.9309	0.0126
777.1041	0.0036
777.2774	0.0194
777.4506	-0.005
777.6238	-0.0088
777.797	-0.0027
777.9702	0.0038
778.1434	0.0033
778.3165	-0.0136
778.4896	-0.0112
778.6627	0.0041
778.8358	-0.0213
779.0089	-0.0049
779.1819	-0.0024
779.3549	0.0086
779.5279	0.0081
779.7009	-0.0047
779.8739	0.0097
780.0468	0.005
780.2197	-0.0016
780.3926	-0.0043
780.5655	0.0035
780.7384	-0.0013
780.9112	0.0018
781.0841	-0.0153
781.2569	0.0054
781.4297	-0.0054
781.6024	0.0096
781.7752	0.0115
781.9479	0.0155
782.1206	-0.0001
782.2933	-0.0099
782.466	0.0194
782.6386	0.0114
782.8113	-0.0048
782.9839	0.0061
783.1565	0.0166
783.329	0.0137
783.5016	0.0041
783.6741	0.0036
783.8466	-0.0013
784.0191	0.0051
784.1916	-0.0069
784.3641	-0.0084
784.5365	0.0151
784.7089	-0.0086
784.8813	0.0003
785.0537	-0.0052
785.2261	-0.0053
785.3984	-0.013
785.5707	0.0041
785.743	0.0021
785.9153	-0.0216
786.0876	-0.0031
786.2598	-0.0096
786.432	-0.0071
786.6042	0.0072
786.7764	-0.0128
786.9486	0.0027
787.1207	-0.0128
787.2928	0.0049
787.4649	0.0086
787.637	0.0049
787.8091	-0.007
787.9811	-0.0067
788.1532	-0.004
788.3252	0.0172
788.4972	-0.0037
788.6691	-0.0011
788.8411	-0.0037
789.013	-0.0031
789.1849	0.0058
789.3568	-0.0068
789.5287	-0.0051
789.7005	0.0075
789.8723	-0.0021
790.0442	0.0128
790.2159	0.0055
790.3877	0.0205
790.5595	-0.0095
790.7312	0.0107
790.9029	0.0051
791.0746	-0.002
791.2463	0.0105
791.4179	0.0031
791.5896	-0.0016
791.7612	0.007
791.9328	0.0084
792.1044	-0.008
792.2759	-0.0161
792.4474	-0.004
792.619	0.0095
792.7905	0.0034
792.9619	0.0087
793.1334	0.0031
793.3048	0.0111
793.4762	0.0043
793.6476	0.0033
793.819	0.0024
793.9904	0.0199
794.1617	-0.0047
794.333	0.007
794.5043	-0.0065
794.6756	-0.0016
794.8469	0.0087
795.0181	0.0033
795.1893	-0.001
795.3605	0.0154
795.5317	-0.0042
795.7029	0.0008
795.874	0.0039
796.0452	0.0049
796.2163	0.0024
796.3873	0.025
796.5584	0.0148
796.7294	0.009
796.9005	0.0045
797.0715	0.0201
797.2425	-0.0017
797.4134	0.0029
797.5844	0.0098
797.7553	-0.0123
797.9262	0.0087
798.0971	-0.0088
798.2679	-0.0098
798.4388	-0.0031
798.6096	0.0011
798.7804	0.0049
798.9512	0.0165
799.122	0.0084
799.2927	0.0116
799.4635	0.0186
799.6342	-0.0265
799.8049	-0.01
799.9755	-0.0148
800.1462	-0.0031
800.3168	0.0101
800.4874	0.0187
800.658	0.0259
800.8286	0.014
800.9991	0.0078
801.1696	0.0222
801.3402	0.0089
801.5106	0.009
801.6811	0.0028
801.8516	0.0188
802.022	0.0163
802.1924	0.0112
802.3628	0.0172
802.5332	0.0282
802.7035	0.0229
802.8739	-0.0032
803.0442	0.0011
803.2145	0.0041
803.3847	-0.0198
803.555	0.0127
803.7252	0.0042
803.8954	-0.0064
804.0656	-0.0147
804.2358	0.0106
804.4059	0.0106
804.5761	0.0175
804.7462	0.0337
804.9163	-0.0015
805.0864	0.0095
805.2564	0.0102
805.4264	0.0179
805.5965	0.0045
805.7665	0.0115
805.9364	0.018
806.1064	0.0251
806.2763	0.0115
806.4462	0.0289
806.6161	0.005
806.786	0.0106
806.9559	0.0066
807.1257	0.0016
807.2955	-0.002
807.4653	-0.0179
807.6351	-0.0026
807.8048	-0.0003
807.9746	0.0193
808.1443	0.0027
808.314	0.0136
808.4837	0.004
808.6533	-0.0014
808.8229	0.0152
808.9926	0.0141
809.1622	0.0186
809.3317	0.0052
809.5013	-0.0008
809.6708	0.0282
809.8403	0.0233
810.0098	0.0242
810.1793	0.0018
810.3488	0.0288
810.5182	-0.0134
810.6876	0.0136
810.857	0.0067
811.0264	0.0429
811.1958	0.0041
811.3651	0.0135
811.5344	0.0164
811.7037	0.0082
811.873	-0.0033
812.0422	0.0282
812.2115	0.0011
812.3807	0.0195
812.5499	0.0114
812.7191	0.0142
812.8882	0.0284
813.0574	0.0064
813.2265	0.0217
813.3956	0.014
813.5646	0.0039
813.7337	0.0085
813.9027	0.0194
814.0718	0.0365
814.2407	0.0434
814.4097	-0.0025
814.5787	0.0175
814.7476	0.0123
814.9165	0.0118
815.0854	0.0009
815.2543	0.0236
815.4232	0.0085
815.592	0.0286
815.7608	0.0053
815.9296	0.0143
816.0984	0.0234
816.2671	0.0184
816.4359	0.0144
816.6046	0.0175
816.7733	0.0232
816.942	-0.0035
817.1106	0.0386
817.2793	0.0056
817.4479	0.0207
817.6165	0.0233
817.785	0.0406
817.9536	-0.0199
818.1221	0.0299
818.2906	0.0116
818.4591	0.0052
818.6276	0.0102
818.7961	0.0178
818.9645	0.0266
819.1329	0.0037
819.3013	0.025
819.4697	0.0286
819.638	0.0294
819.8064	0.0086
819.9747	0.0042
820.143	0.0072
820.3113	0.0022
820.4795	0.0127
820.6477	0.0399
820.816	0.0337
820.9842	0.012
821.1523	0.0029
821.3205	0.0115
821.4886	-0.0072
821.6567	-0.0047
821.8248	0.0304
821.9929	0.0427
822.1609	0.0072
822.329	0.0464
822.497	0.0216
822.665	-0.0004
822.833	-0.0062
823.0009	0.0091
823.1688	0.0091
823.3367	0.0289
823.5046	0.0085
823.6725	0.0265
823.8404	0.0015
824.0082	0.0159
824.176	0.0043
824.3438	0.0304
824.5116	-0.0181
824.6793	0.0253
824.847	-0.0074
825.0147	-0.0126
825.1824	0.0066
825.3501	0.0177
825.5177	-0.0123
825.6854	-0.0056
825.853	0.0105
826.0206	-0.0241
826.1881	-0.0073
826.3557	-0.0145
826.5232	0.0324
826.6907	-0.0334
826.8582	0.0045
827.0257	-0.0172
827.1931	-0.0103
827.3605	0.0059
827.528	0.0046
827.6953	-0.0014
827.8627	0.0047
828.03	0.026
828.1974	0.0042
828.3647	-0.0062
828.532	-0.0025
828.6992	-0.0025
828.8665	0.021
829.0337	-0.0232
829.2009	0.0065
829.3681	-0.0111
829.5352	0.024
829.7024	0.0197
829.8695	-0.0127
830.0366	0.0571
830.2037	0.0166
830.3707	0.0311
830.5378	-0.0032
830.7048	0.0038
830.8718	-0.0259
831.0388	-0.0353
831.2057	0.0048
831.3727	0.0351
831.5396	0.0115
831.7065	-0.0202
831.8734	0.0366
832.0402	-0.0112
832.2071	0.0178
832.3739	0.024
832.5407	0.0195
832.7075	0.0146
832.8742	0.022
833.041	-0.0321
833.2077	0.0225
833.3744	0.0011
833.541	0.0109
833.7077	-0.0124
833.8743	0.0032
834.0409	-0.0067
834.2075	0.0342
834.3741	0.0112
834.5407	0.0364
834.7072	0.0135
834.8737	0.0073
835.0402	0.0074
835.2067	0.0236
835.3731	-0.0053
835.5395	0.011
835.706	0.0038
835.8723	-0.0156
836.0387	0.03
836.2051	-0.0335
836.3714	0.0117
836.5377	-0.0048
836.704	-0.0257
836.8703	0.0336
837.0365	-0.0044
837.2027	-0.0493
837.3689	0.0598
837.5351	0.023
837.7013	-0.0359
837.8674	-0.0732
838.0335	-0.0052
838.1997	-0.0411
838.3657	-0.0388
838.5318	0.0058
838.6978	0.0527
838.8639	0.0251
839.0299	-0.0052
839.1958	0.0118
839.3618	0.0228
839.5277	-0.0555
839.6937	-0.0074
839.8596	-0.0046
840.0254	-0.0147
840.1913	0.0824
840.3571	0.0326
840.523	-0.006
840.6888	-0.0256
840.8545	-0.0396
841.0203	0.016
841.186	0.0422
841.3517	0.0572
841.5174	-0.0061
841.6831	-0.001
841.8488	0.0239
842.0144	-0.0055
842.18	0.0171
842.3456	-0.0157
842.5112	-0.0238
842.6767	-0.0313
842.8422	0.0437
843.0077	-0.0123
843.1732	0.0141
843.3387	-0.008
843.5042	-0.025
843.6696	0.0298
843.835	-0.0118
844.0004	-0.0001
844.1657	-0.0129
844.3311	-0.0605
844.4964	-0.1003
844.6617	-0.0291
844.827	0.0238
844.9923	-0.0773
845.1575	-0.0072
845.3227	0.0298
845.4879	-0.0252
845.6531	-0.0624
845.8183	-0.0581
845.9834	0.0074
846.1485	-0.0076
846.3136	-0.082
846.4787	-0.0514
846.6438	0.103
846.8088	-0.0215
846.9738	-0.066
847.1388	-0.0181
847.3038	-0.0501
847.4687	-0.19
847.6337	-0.024
847.7986	-0.0054
847.9635	-0.0681
848.1284	0.0266
848.2932	0.0944
848.458	0.0298
848.6228	0.1608
848.7876	0.038
848.9524	-0.0396
849.1172	-0.0273
849.2819	0.0645
849.4466	-0.0805
849.6113	-0.0793
849.7759	0.0245
849.9406	-0.0053
850.1052	0.0209
850.2698	-0.0132
850.4344	-0.0822
850.599	-0.0531
850.7635	0.0693
850.928	-0.0362
851.0925	-0.0171
851.257	0.0585
851.4215	0.0376
851.5859	-0.0419
851.7503	-0.0369
851.9147	-0.0439
852.0791	-0.0279
852.2434	0.0133
852.4078	-0.0034
852.5721	0.0163
852.7364	-0.0949
852.9007	-0.1117
853.0649	0.0118
853.2291	-0.1078
853.3934	-0.0183
853.5575	0.0679
853.7217	-0.0498
853.8859	-0.2487
854.05	-0.0107
854.2141	-0.0254
854.3782	-0.056
854.5423	0.013
854.7063	0.0725
854.8703	0.0495
855.0343	0.0157
855.1983	-0.1969
855.3623	0.1786
855.5262	-0.1003
855.6901	-0.0861
855.854	-0.0599
856.0179	0.054
856.1818	0.1235
856.3456	-0.0453
856.5094	-0.0748
856.6732	-0.0917
856.837	0.1996
857.0008	0.0442
857.1645	-0.0828
857.3282	-0.1516
857.4919	0.1462
857.6556	-0.0752
857.8192	-0.0557
857.9828	-0.0485
858.1465	0.2183
858.31	-0.23
858.4736	-0.0588
858.6372	-0.1684
858.8007	-0.1861
858.9642	0.1843
859.1277	0.323
859.2911	-0.0095
859.4546	0.0915
859.618	-0.3789
859.7814	-0.0936
859.9448	0.1666
860.1081	-0.1761
860.2715	0.2272
860.4348	0.091
860.5981	-0.1045
860.7614	0.0599
860.9246	-0.155
861.0879	-0.203
861.2511	-0.0271
861.4143	-0.0951
861.5774	0.3178
861.7406	-0.1179
861.9037	0.1559
862.0668	-0.0958
862.2299	-0.1564
862.393	-0.4818
862.556	-0.0777
862.7191	-0.2765
862.8821	0.0087
863.0451	0.0519
863.208	0.26
863.371	0.0996
863.5339	-0.1684
863.6968	0.0805
863.8597	-0.1107
864.0225	-0.3154
864.1854	-0.0899
864.3482	-0.2216
864.511	0.0267
864.6737	-0.1201
864.8365	0.0303
864.9992	-0.4997
865.1619	0.2685
865.3246	-0.5668
865.4873	0.0746
865.65	0.0833
865.8126	-0.2462
865.9752	-0.0562
866.1378	0.1736
866.3004	-0
866.4629	0.1102
866.6254	-0.3574
866.7879	-0.0633
866.9504	-0
867.1129	-0
867.2753	0.1012
867.4377	0.0544
867.6001	0.1728
867.7625	0.1997
867.9249	-0
868.0872	0.5171
868.2495	-0.0923
868.4118	0.2129
868.5741	-0.4741
868.7363	0.1805
868.8986	-0.4588
869.0608	-0.1842
869.223	-0.1059
869.3851	-0
869.5473	0.1418
869.7094	0.0646
869.8715	-0.5303
870.0336	-0
870.1957	-0
870.3577	-0
870.5197	-0.0937
870.6817	-0.3487
870.8437	-0.0904
871.0057	-0.6614
871.1676	-0
871.3295	-0.2356
871.4914	-0.3858
871.6533	-0.3944
871.8151	-0.6679
871.977	-0
872.1388	-0
872.3006	0.1663
872.4623	-0
872.6241	0.4026
872.7858	1.4105
872.9475	-0.1252
873.1092	-0.4108
873.2709	1.8846
873.4325	-0.0899
873.5941	-0
873.7557	-0
873.9173	0.6509
874.0789	-0.3185
874.2404	-0
874.4019	0.6915
874.5634	-0.3371
874.7249	-0.1605
874.8863	-0.053
875.0478	0.1419
875.2092	-0
875.3706	0.5229
875.5319	-0.9792
875.6933	-0
875.8546	-0.0448
876.0159	-0
876.1772	0.0013
876.3385	-0
876.4997	0.1779
876.6609	-0.4051
876.8221	-0
876.9833	-0
877.1445	-0
877.3056	0.1808
877.4667	0.0238
877.6278	-0
877.7889	-0.9932
877.9499	-0
878.111	1.3153
878.272	-1.1303
878.433	-0
878.5939	1.0497
878.7549	-0.2358
878.9158	-0
879.0767	-0
879.2376	0.4836
879.3984	0.3595
879.5593	-0
879.7201	0.2739
879.8809	-0.9132
880.0417	-0.3902
880.2024	-0.1802
880.3632	-0.0164
880.5239	0.0058
880.6846	-0.0712
880.8452	-2.5792
881.0059	-1.8014
881.1665	-0.0226
881.3271	-0
881.4877	-0.2773
881.6483	-0.6149
881.8088	-0.2337
881.9693	-0
882.1298	-0
882.2903	-0
