Data from MonoPyChalIsomerACN10uM380nmA_Absorbance_13-38-34-349.txt Node
Date: Fri Jul 05 13:38:34 BST 2024
User: LASERRRRR
Spectrometer: FLMT03099
Trigger mode: 0
Integration Time (sec): 1.000000E-1
Scans to average: 1
Electric dark correction enabled: true
Nonlinearity correction enabled: false
Boxcar width: 0
XAxis mode: Wavelengths
Number of Pixels in Spectrum: 3648
>>>>>Begin Spectral Data<<<<<
179.3399	0.4345
179.5586	0.4345
179.7771	0.4345
179.9957	-0
180.2143	-0
180.4329	-0
180.6514	-0
180.8699	-0
181.0885	-0.1638
181.307	0.1169
181.5255	-0.4288
181.744	-0.3829
181.9625	-0
182.181	-1.1035
182.3994	-0
182.6179	0.4592
182.8363	0.09
183.0547	-0.1206
183.2732	0.1176
183.4916	0.1563
183.71	0.0893
183.9284	0.0949
184.1467	-0.0714
184.3651	0.008
184.5835	-0.0943
184.8018	0.2637
185.0201	-0.0971
185.2385	-0.1684
185.4568	0.2879
185.6751	0.2686
185.8934	0.3921
186.1117	0.1486
186.3299	0.1147
186.5482	0.3591
186.7664	-0.0952
186.9847	-0.1502
187.2029	0.1399
187.4211	0.1018
187.6393	0.0425
187.8575	-0.025
188.0757	0.2346
188.2939	0.0531
188.512	0.2354
188.7302	0.1419
188.9483	0.0173
189.1665	0.247
189.3846	-0.3267
189.6027	0.3808
189.8208	0.2266
190.0389	0.1758
190.257	-0.0039
190.475	0.2047
190.6931	0.3531
190.9111	0.2817
191.1292	0.2621
191.3472	0.4057
191.5652	0.2656
191.7832	0.5669
192.0012	0.3637
192.2192	0.6199
192.4371	0.757
192.6551	0.513
192.873	0.3749
193.091	0.3245
193.3089	0.5333
193.5268	0.5182
193.7447	0.373
193.9626	0.5603
194.1805	0.5854
194.3984	0.8539
194.6162	0.577
194.8341	0.5799
195.0519	0.5175
195.2697	0.9939
195.4875	1.0374
195.7054	0.6861
195.9231	0.5725
196.1409	0.6921
196.3587	0.7048
196.5765	0.5827
196.7942	0.7753
197.012	0.6968
197.2297	0.6601
197.4474	0.7773
197.6651	0.6987
197.8828	0.5894
198.1005	0.7143
198.3182	0.6846
198.5358	0.9308
198.7535	0.6948
198.9711	0.6698
199.1888	0.7776
199.4064	0.9348
199.624	0.8281
199.8416	0.804
200.0592	0.8566
200.2767	0.7616
200.4943	0.8398
200.7119	1.0949
200.9294	0.8812
201.1469	0.7236
201.3645	0.7005
201.582	0.7544
201.7995	0.7964
202.017	0.7202
202.2344	0.8722
202.4519	0.9524
202.6694	0.878
202.8868	0.7947
203.1042	0.8792
203.3217	1.0069
203.5391	0.8181
203.7565	0.7615
203.9739	0.7438
204.1913	0.7119
204.4086	0.8889
204.626	0.9504
204.8433	0.8182
205.0607	0.7966
205.278	0.9151
205.4953	0.7983
205.7126	0.726
205.9299	0.9639
206.1472	0.8669
206.3644	0.8899
206.5817	0.9371
206.7989	0.9028
207.0162	0.8731
207.2334	0.7778
207.4506	0.8009
207.6678	0.8501
207.885	0.872
208.1022	0.8584
208.3194	0.8979
208.5365	0.6681
208.7537	0.8626
208.9708	0.679
209.1879	0.8396
209.405	0.9131
209.6222	0.8911
209.8392	0.8549
210.0563	0.7321
210.2734	0.7988
210.4905	0.8185
210.7075	0.815
210.9245	0.7376
211.1416	0.9065
211.3586	0.8585
211.5756	0.6849
211.7926	0.8061
212.0096	0.756
212.2265	0.7274
212.4435	0.8477
212.6604	0.8296
212.8774	0.7244
213.0943	0.7281
213.3112	0.7005
213.5281	0.7362
213.745	0.5978
213.9619	0.767
214.1788	0.6559
214.3956	0.6283
214.6125	0.6454
214.8293	0.6636
215.0461	0.6222
215.2629	0.6385
215.4798	0.7183
215.6965	0.6558
215.9133	0.7051
216.1301	0.6303
216.3469	0.659
216.5636	0.6678
216.7803	0.5884
216.9971	0.6507
217.2138	0.6002
217.4305	0.6394
217.6472	0.5763
217.8639	0.6644
218.0805	0.5771
218.2972	0.5982
218.5138	0.5848
218.7305	0.5744
218.9471	0.5892
219.1637	0.5812
219.3803	0.5519
219.5969	0.5521
219.8135	0.4928
220.0301	0.5359
220.2466	0.5764
220.4632	0.5406
220.6797	0.4935
220.8962	0.4963
221.1127	0.5426
221.3292	0.5267
221.5457	0.4899
221.7622	0.4793
221.9787	0.5308
222.1951	0.4677
222.4116	0.5272
222.628	0.5029
222.8444	0.563
223.0608	0.4865
223.2772	0.5478
223.4936	0.5493
223.71	0.5122
223.9264	0.5398
224.1427	0.5245
224.3591	0.5208
224.5754	0.5196
224.7917	0.5084
225.008	0.5339
225.2243	0.5104
225.4406	0.5772
225.6569	0.5057
225.8732	0.5317
226.0894	0.5212
226.3057	0.5188
226.5219	0.562
226.7381	0.5239
226.9543	0.5379
227.1705	0.5511
227.3867	0.5212
227.6029	0.5475
227.8191	0.5441
228.0352	0.5347
228.2513	0.5482
228.4675	0.543
228.6836	0.5599
228.8997	0.4942
229.1158	0.5562
229.3319	0.5194
229.548	0.5782
229.764	0.5678
229.9801	0.5497
230.1961	0.568
230.4121	0.5374
230.6282	0.5691
230.8442	0.526
231.0602	0.5585
231.2761	0.5755
231.4921	0.581
231.7081	0.578
231.924	0.551
232.14	0.5478
232.3559	0.5341
232.5718	0.578
232.7877	0.5601
233.0036	0.5393
233.2195	0.5433
233.4353	0.5414
233.6512	0.5662
233.867	0.5599
234.0829	0.5382
234.2987	0.5529
234.5145	0.5518
234.7303	0.5501
234.9461	0.565
235.1619	0.5416
235.3776	0.5381
235.5934	0.5242
235.8091	0.5337
236.0249	0.5415
236.2406	0.5294
236.4563	0.5569
236.672	0.5314
236.8877	0.5311
237.1034	0.5427
237.319	0.5386
237.5347	0.5352
237.7503	0.5233
237.966	0.5435
238.1816	0.5453
238.3972	0.5099
238.6128	0.5247
238.8284	0.5275
239.0439	0.5319
239.2595	0.5393
239.475	0.5388
239.6906	0.5285
239.9061	0.5335
240.1216	0.5171
240.3371	0.513
240.5526	0.5018
240.7681	0.5168
240.9836	0.4834
241.199	0.5213
241.4145	0.4989
241.6299	0.4716
241.8453	0.4777
242.0607	0.4938
242.2761	0.478
242.4915	0.4604
242.7069	0.4531
242.9223	0.4437
243.1376	0.4528
243.353	0.4257
243.5683	0.4357
243.7836	0.4118
243.9989	0.4112
244.2142	0.3996
244.4295	0.39
244.6448	0.3811
244.86	0.3874
245.0753	0.381
245.2905	0.3658
245.5057	0.3572
245.721	0.3504
245.9362	0.3654
246.1514	0.3431
246.3665	0.3385
246.5817	0.3155
246.7969	0.3219
247.012	0.3092
247.2271	0.3092
247.4423	0.3113
247.6574	0.3187
247.8725	0.3032
248.0876	0.2819
248.3026	0.2921
248.5177	0.2773
248.7328	0.2827
248.9478	0.2669
249.1628	0.2722
249.3779	0.2871
249.5929	0.258
249.8079	0.2656
250.0228	0.2596
250.2378	0.2454
250.4528	0.2569
250.6677	0.2406
250.8827	0.2442
251.0976	0.2232
251.3125	0.2231
251.5274	0.2281
251.7423	0.2411
251.9572	0.2279
252.172	0.2255
252.3869	0.2185
252.6017	0.2137
252.8166	0.2023
253.0314	0.1917
253.2462	0.1961
253.461	0.2081
253.6758	0.1998
253.8906	0.2187
254.1053	0.1967
254.3201	0.1956
254.5348	0.1977
254.7496	0.2091
254.9643	0.1943
255.179	0.1873
255.3937	0.1908
255.6083	0.1956
255.823	0.1996
256.0377	0.202
256.2523	0.1942
256.467	0.1796
256.6816	0.1994
256.8962	0.19
257.1108	0.1813
257.3254	0.1894
257.54	0.1928
257.7545	0.1959
257.9691	0.1837
258.1836	0.1861
258.3981	0.1865
258.6127	0.1996
258.8272	0.1846
259.0417	0.1894
259.2561	0.1882
259.4706	0.1947
259.6851	0.1971
259.8995	0.1883
260.114	0.19
260.3284	0.1802
260.5428	0.1812
260.7572	0.1869
260.9716	0.1959
261.186	0.18
261.4003	0.197
261.6147	0.1755
261.829	0.1872
262.0433	0.1795
262.2577	0.1788
262.472	0.1867
262.6863	0.1767
262.9005	0.1801
263.1148	0.1848
263.3291	0.1787
263.5433	0.1926
263.7576	0.1716
263.9718	0.1765
264.186	0.1945
264.4002	0.1827
264.6144	0.1817
264.8286	0.1909
265.0427	0.1791
265.2569	0.1727
265.471	0.1737
265.6851	0.1761
265.8993	0.1745
266.1134	0.1918
266.3275	0.1937
266.5415	0.1836
266.7556	0.1935
266.9697	0.193
267.1837	0.1969
267.3978	0.1905
267.6118	0.1942
267.8258	0.195
268.0398	0.1821
268.2538	0.1867
268.4677	0.1952
268.6817	0.171
268.8957	0.195
269.1096	0.1935
269.3235	0.1946
269.5374	0.1892
269.7514	0.1852
269.9652	0.1717
270.1791	0.1978
270.393	0.1794
270.6068	0.1872
270.8207	0.1755
271.0345	0.164
271.2483	0.1777
271.4622	0.1814
271.676	0.1748
271.8897	0.1714
272.1035	0.173
272.3173	0.1776
272.531	0.1728
272.7448	0.1838
272.9585	0.1727
273.1722	0.1917
273.3859	0.1757
273.5996	0.1642
273.8133	0.176
274.0269	0.1639
274.2406	0.1741
274.4542	0.1793
274.6679	0.1598
274.8815	0.1715
275.0951	0.1835
275.3087	0.1908
275.5223	0.1816
275.7358	0.1771
275.9494	0.1728
276.1629	0.1661
276.3765	0.1752
276.59	0.1759
276.8035	0.1767
277.017	0.1829
277.2305	0.1744
277.444	0.1727
277.6574	0.1572
277.8709	0.178
278.0843	0.1709
278.2978	0.179
278.5112	0.1703
278.7246	0.1808
278.938	0.1624
279.1513	0.1904
279.3647	0.1888
279.5781	0.1895
279.7914	0.1821
280.0047	0.2008
280.2181	0.1757
280.4314	0.1947
280.6447	0.1838
280.8579	0.1791
281.0712	0.1926
281.2845	0.1834
281.4977	0.1836
281.711	0.1696
281.9242	0.1837
282.1374	0.1789
282.3506	0.1812
282.5638	0.1781
282.7769	0.1912
282.9901	0.1809
283.2033	0.1894
283.4164	0.1921
283.6295	0.1792
283.8426	0.1776
284.0557	0.1822
284.2688	0.1927
284.4819	0.1822
284.695	0.1851
284.908	0.1859
285.1211	0.1631
285.3341	0.1777
285.5471	0.186
285.7601	0.1823
285.9731	0.1737
286.1861	0.1734
286.3991	0.1858
286.612	0.1895
286.825	0.1792
287.0379	0.1894
287.2508	0.1702
287.4637	0.1668
287.6766	0.176
287.8895	0.1797
288.1024	0.1877
288.3152	0.1855
288.5281	0.1717
288.7409	0.1929
288.9538	0.1797
289.1666	0.1752
289.3794	0.1763
289.5922	0.1629
289.8049	0.1666
290.0177	0.1723
290.2304	0.1747
290.4432	0.1783
290.6559	0.176
290.8686	0.1812
291.0813	0.1679
291.294	0.1837
291.5067	0.1794
291.7194	0.1774
291.932	0.182
292.1447	0.1755
292.3573	0.1661
292.5699	0.1733
292.7825	0.1772
292.9951	0.1718
293.2077	0.1739
293.4203	0.1612
293.6328	0.1618
293.8454	0.1649
294.0579	0.1681
294.2704	0.1758
294.4829	0.1678
294.6954	0.1665
294.9079	0.1688
295.1204	0.1647
295.3328	0.1705
295.5453	0.1634
295.7577	0.1679
295.9701	0.1654
296.1825	0.1664
296.3949	0.169
296.6073	0.1594
296.8197	0.161
297.0321	0.1737
297.2444	0.154
297.4567	0.1696
297.6691	0.1607
297.8814	0.1557
298.0937	0.1581
298.306	0.1755
298.5182	0.1627
298.7305	0.177
298.9428	0.1539
299.155	0.1589
299.3672	0.1603
299.5794	0.1563
299.7916	0.1652
300.0038	0.1627
300.216	0.1694
300.4282	0.1673
300.6403	0.157
300.8525	0.1636
301.0646	0.1499
301.2767	0.1657
301.4888	0.1651
301.7009	0.158
301.913	0.1539
302.125	0.162
302.3371	0.1536
302.5491	0.1546
302.7612	0.1611
302.9732	0.1675
303.1852	0.1651
303.3972	0.1578
303.6092	0.1608
303.8211	0.1563
304.0331	0.1448
304.245	0.1527
304.457	0.1532
304.6689	0.1503
304.8808	0.164
305.0927	0.1502
305.3046	0.1586
305.5164	0.1569
305.7283	0.1465
305.9401	0.1485
306.152	0.1452
306.3638	0.1562
306.5756	0.1498
306.7874	0.1446
306.9992	0.1454
307.2109	0.1407
307.4227	0.1271
307.6344	0.139
307.8462	0.1513
308.0579	0.1342
308.2696	0.1284
308.4813	0.1351
308.693	0.1365
308.9046	0.1452
309.1163	0.1302
309.328	0.132
309.5396	0.132
309.7512	0.1199
309.9628	0.1206
310.1744	0.1224
310.386	0.1198
310.5976	0.1286
310.8091	0.1314
311.0207	0.1225
311.2322	0.1198
311.4437	0.1138
311.6552	0.1117
311.8667	0.1233
312.0782	0.1013
312.2897	0.0978
312.5012	0.1184
312.7126	0.1042
312.924	0.1063
313.1355	0.1221
313.3469	0.1124
313.5583	0.1222
313.7696	0.1136
313.981	0.1197
314.1924	0.11
314.4037	0.1032
314.6151	0.119
314.8264	0.1086
315.0377	0.1056
315.249	0.1069
315.4603	0.1198
315.6716	0.1083
315.8828	0.0977
316.0941	0.1118
316.3053	0.0959
316.5165	0.0996
316.7277	0.1047
316.9389	0.1096
317.1501	0.1084
317.3613	0.1226
317.5724	0.0975
317.7836	0.1042
317.9947	0.11
318.2058	0.0986
318.417	0.1028
318.6281	0.0926
318.8391	0.1027
319.0502	0.1027
319.2613	0.1084
319.4723	0.1044
319.6834	0.1053
319.8944	0.105
320.1054	0.1046
320.3164	0.1184
320.5274	0.106
320.7383	0.0947
320.9493	0.098
321.1602	0.1192
321.3712	0.104
321.5821	0.1143
321.793	0.1088
322.0039	0.1103
322.2148	0.1139
322.4257	0.1086
322.6365	0.1258
322.8474	0.11
323.0582	0.1033
323.269	0.111
323.4798	0.1121
323.6906	0.1116
323.9014	0.1097
324.1122	0.1146
324.3229	0.1063
324.5337	0.1038
324.7444	0.1047
324.9551	0.1187
325.1658	0.131
325.3765	0.1215
325.5872	0.1142
325.7979	0.1147
326.0085	0.1299
326.2192	0.1126
326.4298	0.1165
326.6404	0.1087
326.851	0.1049
327.0616	0.0887
327.2722	0.1166
327.4828	0.1106
327.6933	0.1092
327.9039	0.1149
328.1144	0.113
328.3249	0.1067
328.5354	0.1206
328.7459	0.1016
328.9564	0.1135
329.1669	0.1157
329.3773	0.1141
329.5878	0.1097
329.7982	0.1046
330.0086	0.1156
330.219	0.1189
330.4294	0.1079
330.6398	0.121
330.8502	0.1035
331.0605	0.1134
331.2708	0.1122
331.4812	0.12
331.6915	0.1185
331.9018	0.1117
332.1121	0.1114
332.3224	0.1122
332.5326	0.1097
332.7429	0.1163
332.9531	0.1232
333.1633	0.1205
333.3735	0.1155
333.5837	0.1173
333.7939	0.1187
334.0041	0.1227
334.2143	0.1317
334.4244	0.112
334.6346	0.0918
334.8447	0.1293
335.0548	0.1026
335.2649	0.1077
335.475	0.1166
335.685	0.1121
335.8951	0.1211
336.1051	0.1129
336.3152	0.1138
336.5252	0.1168
336.7352	0.127
336.9452	0.1257
337.1552	0.1246
337.3652	0.1224
337.5751	0.1126
337.7851	0.1189
337.995	0.1221
338.2049	0.1192
338.4148	0.1075
338.6247	0.1223
338.8346	0.1225
339.0445	0.1183
339.2543	0.12
339.4642	0.1245
339.674	0.1245
339.8838	0.1277
340.0936	0.125
340.3034	0.1434
340.5132	0.1208
340.7229	0.1281
340.9327	0.117
341.1424	0.1201
341.3522	0.135
341.5619	0.1302
341.7716	0.1309
341.9813	0.1292
342.1909	0.1212
342.4006	0.1311
342.6102	0.1317
342.8199	0.1259
343.0295	0.1285
343.2391	0.126
343.4487	0.1357
343.6583	0.1194
343.8679	0.1284
344.0774	0.1393
344.287	0.1377
344.4965	0.1246
344.706	0.1364
344.9155	0.1422
345.125	0.1353
345.3345	0.1392
345.544	0.1296
345.7534	0.1417
345.9629	0.1289
346.1723	0.1337
346.3817	0.1415
346.5911	0.1368
346.8005	0.1455
347.0099	0.1289
347.2193	0.1423
347.4286	0.133
347.638	0.1415
347.8473	0.1461
348.0566	0.1329
348.2659	0.1374
348.4752	0.1307
348.6845	0.1366
348.8937	0.1339
349.103	0.1476
349.3122	0.138
349.5214	0.1352
349.7306	0.1401
349.9398	0.1481
350.149	0.1508
350.3582	0.1382
350.5674	0.1496
350.7765	0.147
350.9856	0.1461
351.1948	0.1411
351.4039	0.1369
351.613	0.1346
351.822	0.1568
352.0311	0.1561
352.2402	0.1564
352.4492	0.1519
352.6582	0.1522
352.8672	0.1464
353.0762	0.1569
353.2852	0.146
353.4942	0.1314
353.7032	0.156
353.9121	0.1535
354.1211	0.1427
354.33	0.1526
354.5389	0.1577
354.7478	0.1463
354.9567	0.1363
355.1655	0.1358
355.3744	0.1571
355.5833	0.1577
355.7921	0.1768
356.0009	0.1481
356.2097	0.1675
356.4185	0.1698
356.6273	0.1594
356.8361	0.1586
357.0448	0.1427
357.2536	0.1446
357.4623	0.1434
357.671	0.1759
357.8797	0.1642
358.0884	0.159
358.2971	0.167
358.5057	0.1638
358.7144	0.1682
358.923	0.1654
359.1316	0.1616
359.3402	0.1751
359.5488	0.1792
359.7574	0.1639
359.966	0.1829
360.1746	0.1769
360.3831	0.1786
360.5916	0.1552
360.8002	0.1609
361.0087	0.1831
361.2172	0.1731
361.4256	0.1767
361.6341	0.1754
361.8426	0.1815
362.051	0.1647
362.2594	0.1687
362.4678	0.1779
362.6762	0.1795
362.8846	0.1833
363.093	0.1799
363.3014	0.1785
363.5097	0.1656
363.718	0.1747
363.9264	0.1773
364.1347	0.1781
364.343	0.1736
364.5513	0.1985
364.7595	0.195
364.9678	0.1824
365.176	0.191
365.3842	0.1967
365.5925	0.1969
365.8007	0.191
366.0089	0.1813
366.217	0.1867
366.4252	0.2052
366.6333	0.2115
366.8415	0.194
367.0496	0.1827
367.2577	0.2097
367.4658	0.1992
367.6739	0.2003
367.882	0.1951
368.09	0.1956
368.2981	0.2032
368.5061	0.1933
368.7141	0.2014
368.9221	0.2061
369.1301	0.2065
369.3381	0.1893
369.5461	0.1847
369.754	0.1895
369.962	0.2067
370.1699	0.2003
370.3778	0.1962
370.5857	0.1889
370.7936	0.2031
371.0015	0.2033
371.2093	0.2192
371.4172	0.215
371.625	0.1993
371.8328	0.1999
372.0406	0.2062
372.2484	0.2094
372.4562	0.201
372.664	0.2037
372.8717	0.2085
373.0795	0.1791
373.2872	0.1977
373.4949	0.2043
373.7026	0.2116
373.9103	0.2095
374.118	0.2363
374.3256	0.2163
374.5333	0.1976
374.7409	0.2045
374.9485	0.2044
375.1561	0.2244
375.3637	0.2281
375.5713	0.2117
375.7789	0.218
375.9864	0.2013
376.194	0.208
376.4015	0.2153
376.609	0.2227
376.8165	0.2143
377.024	0.2106
377.2315	0.2179
377.4389	0.22
377.6464	0.2136
377.8538	0.2174
378.0612	0.2029
378.2686	0.2279
378.476	0.2269
378.6834	0.2141
378.8908	0.2296
379.0981	0.2141
379.3055	0.2332
379.5128	0.208
379.7201	0.2088
379.9274	0.2207
380.1347	0.2158
380.342	0.2434
380.5492	0.2186
380.7565	0.2328
380.9637	0.2101
381.1709	0.2218
381.3781	0.2199
381.5853	0.2214
381.7925	0.225
381.9997	0.2415
382.2068	0.2407
382.4139	0.2361
382.6211	0.2209
382.8282	0.2222
383.0353	0.2376
383.2424	0.2335
383.4494	0.2265
383.6565	0.2416
383.8635	0.2256
384.0706	0.2266
384.2776	0.231
384.4846	0.2201
384.6916	0.2327
384.8986	0.23
385.1055	0.2358
385.3125	0.2329
385.5194	0.2059
385.7263	0.2413
385.9333	0.2168
386.1402	0.2277
386.347	0.2178
386.5539	0.2265
386.7608	0.238
386.9676	0.2115
387.1744	0.216
387.3813	0.2287
387.5881	0.2293
387.7948	0.232
388.0016	0.2301
388.2084	0.2351
388.4151	0.2036
388.6219	0.2218
388.8286	0.2137
389.0353	0.2515
389.242	0.2338
389.4487	0.1995
389.6553	0.2096
389.862	0.1903
390.0686	0.2131
390.2753	0.22
390.4819	0.2247
390.6885	0.214
390.8951	0.2092
391.1016	0.2091
391.3082	0.2147
391.5147	0.2216
391.7213	0.2168
391.9278	0.2001
392.1343	0.2148
392.3408	0.2262
392.5473	0.1986
392.7537	0.2055
392.9602	0.2085
393.1666	0.2042
393.373	0.201
393.5794	0.2094
393.7858	0.2189
393.9922	0.1889
394.1986	0.1965
394.4049	0.202
394.6113	0.2103
394.8176	0.182
395.0239	0.1951
395.2302	0.1803
395.4365	0.2076
395.6428	0.1894
395.8491	0.1889
396.0553	0.1846
396.2615	0.1743
396.4678	0.1755
396.674	0.1742
396.8802	0.193
397.0863	0.2045
397.2925	0.191
397.4987	0.1792
397.7048	0.1714
397.9109	0.2056
398.117	0.1733
398.3231	0.166
398.5292	0.1978
398.7353	0.2044
398.9413	0.181
399.1474	0.1834
399.3534	0.1775
399.5594	0.1822
399.7654	0.2026
399.9714	0.1941
400.1774	0.1886
400.3833	0.1827
400.5893	0.1777
400.7952	0.1834
401.0011	0.1985
401.207	0.1855
401.4129	0.1994
401.6188	0.1952
401.8247	0.1865
402.0305	0.1689
402.2364	0.1844
402.4422	0.1877
402.648	0.1749
402.8538	0.1943
403.0596	0.1819
403.2654	0.1746
403.4711	0.1884
403.6768	0.1961
403.8826	0.1881
404.0883	0.1807
404.294	0.1945
404.4997	0.1787
404.7054	0.1834
404.911	0.188
405.1167	0.1904
405.3223	0.1901
405.5279	0.1981
405.7335	0.1912
405.9391	0.1902
406.1447	0.1726
406.3502	0.192
406.5558	0.1795
406.7613	0.1918
406.9668	0.19
407.1724	0.1846
407.3778	0.1769
407.5833	0.1859
407.7888	0.1739
407.9942	0.1898
408.1997	0.1751
408.4051	0.1768
408.6105	0.1835
408.8159	0.1771
409.0213	0.1719
409.2267	0.1865
409.432	0.1817
409.6374	0.2063
409.8427	0.1697
410.048	0.1857
410.2533	0.1741
410.4586	0.1984
410.6639	0.1787
410.8691	0.1712
411.0744	0.1627
411.2796	0.1736
411.4848	0.1718
411.69	0.1565
411.8952	0.2007
412.1004	0.1742
412.3056	0.1929
412.5107	0.1727
412.7158	0.2011
412.921	0.1886
413.1261	0.1715
413.3312	0.1689
413.5362	0.1758
413.7413	0.172
413.9464	0.1825
414.1514	0.1891
414.3564	0.1846
414.5614	0.1582
414.7664	0.1776
414.9714	0.1799
415.1764	0.1793
415.3813	0.1926
415.5863	0.1679
415.7912	0.1752
415.9961	0.1837
416.201	0.1916
416.4059	0.1804
416.6108	0.1739
416.8156	0.1769
417.0205	0.1847
417.2253	0.1682
417.4301	0.1706
417.6349	0.1681
417.8397	0.1553
418.0445	0.192
418.2492	0.1682
418.454	0.1713
418.6587	0.1677
418.8634	0.1735
419.0681	0.1668
419.2728	0.1628
419.4775	0.1526
419.6822	0.1708
419.8868	0.1464
420.0915	0.1774
420.2961	0.141
420.5007	0.1757
420.7053	0.1692
420.9099	0.1714
421.1144	0.1681
421.319	0.1621
421.5235	0.1744
421.728	0.1545
421.9325	0.1576
422.137	0.1655
422.3415	0.1584
422.546	0.1541
422.7504	0.1586
422.9549	0.1652
423.1593	0.1513
423.3637	0.1764
423.5681	0.1659
423.7725	0.1527
423.9769	0.1432
424.1812	0.1595
424.3856	0.1453
424.5899	0.1646
424.7942	0.1317
424.9985	0.1612
425.2028	0.1338
425.4071	0.1677
425.6113	0.1318
425.8156	0.1718
426.0198	0.1498
426.224	0.1432
426.4282	0.1449
426.6324	0.1292
426.8366	0.1381
427.0407	0.1454
427.2449	0.1455
427.449	0.1215
427.6531	0.1192
427.8572	0.1316
428.0613	0.1408
428.2654	0.1373
428.4694	0.1423
428.6735	0.1525
428.8775	0.1391
429.0815	0.1476
429.2855	0.1048
429.4895	0.1468
429.6935	0.1261
429.8975	0.1403
430.1014	0.1181
430.3053	0.1235
430.5093	0.1345
430.7132	0.1168
430.9171	0.1107
431.1209	0.1208
431.3248	0.1189
431.5286	0.1137
431.7325	0.1246
431.9363	0.1125
432.1401	0.1216
432.3439	0.107
432.5477	0.0888
432.7514	0.1157
432.9552	0.1124
433.1589	0.0901
433.3627	0.0869
433.5664	0.0945
433.7701	0.085
433.9737	0.1014
434.1774	0.0863
434.3811	0.1045
434.5847	0.0978
434.7883	0.1097
434.9919	0.0912
435.1955	0.0944
435.3991	0.0899
435.6027	0.0939
435.8062	0.0786
436.0098	0.0695
436.2133	0.0829
436.4168	0.0779
436.6203	0.0766
436.8238	0.084
437.0272	0.0777
437.2307	0.0719
437.4341	0.0788
437.6375	0.0892
437.841	0.076
438.0443	0.0879
438.2477	0.0756
438.4511	0.0757
438.6545	0.0719
438.8578	0.0753
439.0611	0.0694
439.2644	0.0674
439.4677	0.0616
439.671	0.0722
439.8743	0.0705
440.0775	0.0603
440.2808	0.0613
440.484	0.052
440.6872	0.0469
440.8904	0.0582
441.0936	0.0739
441.2967	0.0607
441.4999	0.0662
441.703	0.05
441.9062	0.0702
442.1093	0.0495
442.3124	0.0595
442.5155	0.0334
442.7185	0.0498
442.9216	0.0287
443.1246	0.0495
443.3276	0.0401
443.5307	0.0565
443.7337	0.0518
443.9366	0.0488
444.1396	0.0444
444.3426	0.0456
444.5455	0.0499
444.7484	0.0451
444.9513	0.0371
445.1542	0.0531
445.3571	0.052
445.56	0.0361
445.7628	0.0203
445.9657	0.0349
446.1685	0.0473
446.3713	0.0516
446.5741	0.0243
446.7769	0.0192
446.9797	0.0377
447.1824	0.0386
447.3852	0.019
447.5879	0.0544
447.7906	0.0122
447.9933	0.0387
448.196	0.0337
448.3986	0.0392
448.6013	0.0187
448.8039	0.0161
449.0066	0.0239
449.2092	0.0454
449.4118	0.0179
449.6143	0.0348
449.8169	0.0349
450.0195	0.0222
450.222	-0.0004
450.4245	0.0258
450.627	0.0196
450.8295	0.0182
451.032	0.0146
451.2345	0.0176
451.4369	0.0223
451.6394	0.0161
451.8418	-0.0035
452.0442	0.0156
452.2466	0.0376
452.449	-0.0012
452.6513	0.0129
452.8537	0.0202
453.056	-0.0016
453.2583	0.0077
453.4607	0.0174
453.663	0.0073
453.8652	0.0241
454.0675	0.0069
454.2697	0.0072
454.472	0.0025
454.6742	0.0233
454.8764	0.012
455.0786	0.0036
455.2808	0.0176
455.4829	0.0112
455.6851	0.02
455.8872	0.0109
456.0893	0.0092
456.2915	-0.0006
456.4935	0.0274
456.6956	-0.0044
456.8977	0.0118
457.0997	0.0027
457.3018	-0.0096
457.5038	-0.0051
457.7058	0.0028
457.9078	0.003
458.1098	0.0115
458.3117	0.0072
458.5137	0.0018
458.7156	0.0103
458.9175	-0.0017
459.1194	0.0003
459.3213	0.0046
459.5232	0.0067
459.725	-0.0103
459.9269	-0.0028
460.1287	0.0044
460.3305	0.0087
460.5323	0.0201
460.7341	-0.004
460.9359	0.0028
461.1376	0.0022
461.3394	0.0104
461.5411	0.0162
461.7428	-0.0094
461.9445	0.0137
462.1462	0.0064
462.3479	-0.0088
462.5495	0.0063
462.7512	-0.0071
462.9528	-0.0106
463.1544	-0.0126
463.356	0.013
463.5576	0.0085
463.7592	-0.0061
463.9607	0.0072
464.1623	0.0079
464.3638	0.0148
464.5653	0.0096
464.7668	0.0031
464.9683	0.011
465.1697	0.0155
465.3712	-0.0033
465.5726	-0.0127
465.7741	0.0036
465.9755	-0.0031
466.1769	-0.0071
466.3782	-0.0008
466.5796	-0.0108
466.7809	0.0127
466.9823	-0.0054
467.1836	-0.0094
467.3849	-0.002
467.5862	-0.0203
467.7875	0.004
467.9887	0.0033
468.19	0.0008
468.3912	-0.0212
468.5924	-0.0151
468.7936	-0.0179
468.9948	0.0004
469.196	0.0163
469.3972	-0.0128
469.5983	-0.0156
469.7994	-0.0153
470.0006	-0.0057
470.2017	-0.0053
470.4027	-0.009
470.6038	0.002
470.8049	-0.0217
471.0059	-0.0113
471.2069	-0.0322
471.408	-0.0036
471.6089	0.01
471.8099	-0.0092
472.0109	0.0113
472.2119	0.0001
472.4128	-0.0265
472.6137	0.0044
472.8146	-0.0133
473.0155	-0.006
473.2164	-0.0035
473.4173	0.0087
473.6181	-0.0031
473.819	-0.001
474.0198	-0.0065
474.2206	-0.0132
474.4214	-0.0021
474.6222	-0.0093
474.8229	-0.003
475.0237	-0.0114
475.2244	-0.0104
475.4251	0.0142
475.6258	-0.0049
475.8265	-0.0044
476.0272	-0.0009
476.2278	-0.0126
476.4285	-0.0144
476.6291	-0.0043
476.8297	-0.0163
477.0303	-0.0054
477.2309	-0.0011
477.4315	-0.0255
477.632	0.0034
477.8326	0.0004
478.0331	-0.0002
478.2336	0.0068
478.4341	-0.0098
478.6346	-0.0031
478.8351	0.0045
479.0355	-0.0057
479.236	-0.0099
479.4364	-0.0063
479.6368	-0.013
479.8372	-0.0228
480.0376	-0.0028
480.2379	-0.0185
480.4383	-0.0244
480.6386	0.0051
480.8389	-0.0027
481.0392	-0.0206
481.2395	-0.0129
481.4398	0.008
481.6401	0.0009
481.8403	-0.0095
482.0405	-0.0026
482.2408	-0.0149
482.441	0.0074
482.6411	-0.0118
482.8413	-0.0073
483.0415	-0.0124
483.2416	-0.0112
483.4417	-0.0047
483.6419	-0.0047
483.8419	-0.0122
484.042	0.0035
484.2421	-0.0075
484.4422	-0.0042
484.6422	-0.0075
484.8422	-0.009
485.0422	-0.023
485.2422	-0.0067
485.4422	-0.0144
485.6422	-0.0138
485.8421	-0.0101
486.042	-0.0073
486.242	-0.0065
486.4419	-0.0067
486.6417	-0.0097
486.8416	-0.0012
487.0415	-0.0085
487.2413	-0.0117
487.4411	-0.0129
487.641	-0.0144
487.8408	-0.0042
488.0405	-0.0128
488.2403	-0.0119
488.4401	-0.0045
488.6398	-0.0083
488.8395	-0.0182
489.0392	0.0008
489.2389	-0.0097
489.4386	-0.0078
489.6383	0.0008
489.8379	-0.0032
490.0376	-0.0107
490.2372	-0.0114
490.4368	-0.0143
490.6364	-0.0122
490.836	-0.0078
491.0355	-0.0035
491.2351	-0.0141
491.4346	-0.0108
491.6341	-0.0212
491.8336	0.001
492.0331	-0.017
492.2326	-0.0117
492.432	-0.0147
492.6315	-0.0092
492.8309	-0.0212
493.0303	-0.0184
493.2297	-0.0202
493.4291	-0.0096
493.6284	-0.0038
493.8278	-0.0067
494.0271	-0.0107
494.2264	0.0019
494.4257	-0.0149
494.625	-0.0089
494.8243	-0.0157
495.0236	0.0057
495.2228	-0.0137
495.422	-0.0058
495.6213	-0.0047
495.8205	-0.0066
496.0196	-0.0091
496.2188	-0.0066
496.418	-0.0124
496.6171	0.0045
496.8162	-0.0069
497.0153	-0.0089
497.2144	-0.014
497.4135	-0.0132
497.6126	-0.0183
497.8116	-0.017
498.0107	-0.0132
498.2097	-0.0264
498.4087	-0.0133
498.6077	-0.0107
498.8067	-0.012
499.0056	0.0027
499.2046	-0.0162
499.4035	-0.022
499.6024	-0.0193
499.8013	0.0026
500.0002	-0.009
500.199	-0.0139
500.3979	-0.0092
500.5967	-0.0273
500.7956	-0.0064
500.9944	-0.0004
501.1932	-0.013
501.3919	-0.0194
501.5907	-0.0264
501.7895	-0.008
501.9882	-0.0103
502.1869	-0.0093
502.3856	-0.0105
502.5843	-0.0158
502.783	-0.023
502.9816	-0.0094
503.1803	-0.0151
503.3789	-0.0122
503.5775	-0.0014
503.7761	-0.0138
503.9747	-0.0052
504.1732	-0.0085
504.3718	0.0005
504.5703	-0.0017
504.7689	-0.0114
504.9674	0.005
505.1658	-0.012
505.3643	-0.006
505.5628	-0.009
505.7612	-0.0188
505.9597	0.0045
506.1581	-0.0084
506.3565	-0.0048
506.5549	-0.0135
506.7532	-0.0199
506.9516	-0.0094
507.1499	-0.0083
507.3482	-0.0187
507.5465	-0.0216
507.7448	-0.0032
507.9431	-0.009
508.1414	-0.0101
508.3396	-0.0067
508.5379	-0.0021
508.7361	-0.0145
508.9343	-0.0125
509.1325	0.0006
509.3306	-0.0086
509.5288	-0.0168
509.7269	-0.0098
509.9251	-0.0025
510.1232	-0.0167
510.3213	-0.0057
510.5193	-0.0049
510.7174	-0.0261
510.9154	-0.0166
511.1135	-0.0108
511.3115	-0.0141
511.5095	-0.0005
511.7075	-0.0195
511.9055	-0.0097
512.1034	-0.021
512.3014	-0.0036
512.4993	-0.0075
512.6972	-0.0107
512.8951	-0.0172
513.093	-0.0027
513.2908	-0.0136
513.4887	-0.0006
513.6865	-0.0048
513.8844	-0.0168
514.0822	-0.0073
514.2799	-0.0209
514.4777	-0.0066
514.6755	-0.0145
514.8732	-0.0152
515.0709	-0.0118
515.2687	-0.0116
515.4664	-0.005
515.664	-0.011
515.8617	-0.0142
516.0594	-0.0159
516.257	-0.0115
516.4546	-0.0217
516.6522	-0.0129
516.8498	-0.0097
517.0474	-0.0046
517.2449	-0.005
517.4425	-0.0129
517.64	-0.0138
517.8375	-0.001
518.035	-0.0088
518.2325	-0.0104
518.43	-0.0082
518.6274	-0.0158
518.8249	-0.0208
519.0223	-0.0027
519.2197	-0.013
519.4171	-0.0043
519.6145	-0.0154
519.8118	0.0002
520.0092	-0.0151
520.2065	-0.0142
520.4038	-0.0168
520.6011	-0.0071
520.7984	-0.0157
520.9956	-0.0206
521.1929	-0.0227
521.3901	-0.0052
521.5874	-0.0087
521.7846	-0.0049
521.9818	-0.0222
522.1789	-0.0105
522.3761	-0.0089
522.5732	-0.0135
522.7704	-0.0182
522.9675	-0.0089
523.1646	-0.0212
523.3617	-0.0149
523.5587	-0.0042
523.7558	-0.0108
523.9528	-0.0132
524.1498	-0.0089
524.3468	-0.0238
524.5438	-0.0158
524.7408	-0.0148
524.9378	-0.0066
525.1347	-0.0084
525.3316	-0.0044
525.5285	-0.008
525.7254	-0.0074
525.9223	-0.0034
526.1192	-0.0072
526.316	-0.0197
526.5129	-0.0102
526.7097	-0.0081
526.9065	-0.0119
527.1033	-0.0175
527.3	-0.01
527.4968	-0.0145
527.6935	-0.0052
527.8903	-0.017
528.087	-0.01
528.2837	-0.0203
528.4804	-0.0072
528.677	-0.0177
528.8737	-0.0035
529.0703	-0.0054
529.2669	-0.0092
529.4635	-0.0139
529.6601	-0.0104
529.8567	-0.0122
530.0532	-0.0097
530.2498	-0.0076
530.4463	0.0058
530.6428	-0.0154
530.8393	-0.0006
531.0358	-0.0101
531.2322	-0.0105
531.4287	-0.0093
531.6251	-0.0233
531.8215	0.0022
532.0179	-0.0056
532.2143	0.0076
532.4107	-0.0083
532.607	-0.0099
532.8034	-0.0023
532.9997	-0.0054
533.196	-0.0089
533.3923	-0.0136
533.5886	0.0047
533.7848	-0.0064
533.9811	-0.0113
534.1773	-0.009
534.3735	0.0041
534.5697	-0.0074
534.7659	-0.0111
534.9621	-0.0038
535.1582	-0.0104
535.3544	-0.0087
535.5505	-0.0077
535.7466	-0.0164
535.9427	-0.0102
536.1387	-0.0094
536.3348	-0.008
536.5308	0.0022
536.7269	-0.0203
536.9229	-0.0052
537.1189	-0.008
537.3148	0.0029
537.5108	-0.0007
537.7068	-0.0008
537.9027	-0.0025
538.0986	-0.0078
538.2945	-0.0043
538.4904	-0.011
538.6863	-0.0062
538.8821	-0.004
539.078	-0.0017
539.2738	-0.0045
539.4696	-0.0091
539.6654	-0.0016
539.8611	-0.0014
540.0569	-0.0044
540.2526	-0.0085
540.4484	-0.0059
540.6441	0.0003
540.8398	0.0091
541.0355	0.0024
541.2311	-0.0045
541.4268	-0.0151
541.6224	0.0023
541.818	-0.0028
542.0136	-0.0083
542.2092	-0.0073
542.4048	-0.0121
542.6003	-0.0011
542.7959	-0.0001
542.9914	-0.0061
543.1869	-0.0081
543.3824	-0.0067
543.5779	-0.0123
543.7734	-0.0023
543.9688	-0.0099
544.1642	0.0016
544.3596	-0.0061
544.555	-0.0104
544.7504	-0.0044
544.9458	-0.0065
545.1411	-0.004
545.3365	-0.0041
545.5318	-0.0047
545.7271	0.0004
545.9224	0.0022
546.1177	-0.0113
546.3129	-0.0032
546.5081	-0.0201
546.7034	-0.0079
546.8986	-0.0119
547.0938	-0.0145
547.289	-0.0118
547.4841	-0.0049
547.6793	0.0017
547.8744	-0.0152
548.0695	-0.0053
548.2646	-0.0079
548.4597	-0.0035
548.6548	-0.0056
548.8498	0.0021
549.0448	0.0026
549.2399	-0
549.4349	0.0039
549.6298	-0.0046
549.8248	0.0009
550.0198	-0.0023
550.2147	0.0006
550.4096	-0.0057
550.6045	-0.0053
550.7994	0.0045
550.9943	-0.0009
551.1892	-0.0016
551.384	-0.0073
551.5788	-0.0075
551.7737	-0.0022
551.9685	-0.0082
552.1632	0.0011
552.358	0.001
552.5528	0.0059
552.7475	-0.0044
552.9422	-0.0084
553.1369	0.0049
553.3316	0.0024
553.5263	-0.0123
553.7209	0.0039
553.9156	-0.0031
554.1102	-0.0094
554.3048	-0.0032
554.4994	0.0022
554.694	-0.0028
554.8885	0.0066
555.0831	-0.0115
555.2776	-0.0054
555.4721	-0.0065
555.6666	-0.0117
555.8611	0.0076
556.0555	-0.0007
556.25	-0.0016
556.4444	-0.0116
556.6388	-0.0024
556.8332	-0.008
557.0276	-0.0025
557.222	-0.0019
557.4163	-0.0111
557.6107	-0.0131
557.805	0.0022
557.9993	-0.0057
558.1936	-0.0035
558.3879	-0.0044
558.5821	0.0035
558.7764	-0.0073
558.9706	-0.002
559.1648	0.0046
559.359	-0.0005
559.5532	-0.0118
559.7473	-0.0105
559.9415	-0.0018
560.1356	0.0003
560.3297	-0.014
560.5238	-0.0041
560.7179	-0.01
560.9119	-0.0064
561.106	-0.0062
561.3	-0.0104
561.494	-0.0059
561.688	-0.0099
561.882	-0.0022
562.076	-0.0096
562.2699	0.0029
562.4639	0.0009
562.6578	-0.0008
562.8517	-0.0049
563.0456	0.0018
563.2395	-0.0045
563.4333	-0.0095
563.6272	0.0049
563.821	-0.0089
564.0148	-0.0024
564.2086	-0.0093
564.4024	-0.0096
564.5961	-0.0123
564.7899	0.0035
564.9836	0.0019
565.1773	0.0014
565.371	0.0011
565.5647	-0.0051
565.7584	-0.0042
565.952	-0.0024
566.1456	-0.0068
566.3393	-0.0087
566.5329	-0.0079
566.7264	-0.0032
566.92	-0.0064
567.1136	0.0022
567.3071	-0.0035
567.5006	0.0025
567.6941	-0.0052
567.8876	-0.0021
568.0811	-0.0048
568.2745	0.0017
568.468	0.0025
568.6614	-0.0093
568.8548	-0.0008
569.0482	-0.0065
569.2416	-0.0016
569.4349	-0.0015
569.6283	0.0027
569.8216	-0.0088
570.0149	0.0023
570.2082	0.0055
570.4015	0.005
570.5947	0.001
570.788	0.0048
570.9812	0.0004
571.1744	0.0011
571.3676	-0.0061
571.5608	-0.0042
571.754	0.0025
571.9471	0.0027
572.1402	0.0039
572.3333	0.0025
572.5264	-0.0011
572.7195	-0.0049
572.9126	0.0023
573.1057	-0.0009
573.2987	0.0014
573.4917	-0.0005
573.6847	-0.012
573.8777	0.0067
574.0707	0.0064
574.2636	-0.007
574.4566	0.0051
574.6495	0.0068
574.8424	-0.0049
575.0353	-0.0021
575.2281	0.0112
575.421	0.0004
575.6138	-0.001
575.8067	0.0011
575.9995	0.0032
576.1923	0.0051
576.385	0.003
576.5778	0.0052
576.7706	0.0006
576.9633	-0.0052
577.156	0.0068
577.3487	-0.0002
577.5414	-0.0009
577.734	-0.0003
577.9267	-0.0015
578.1193	-0.0128
578.3119	-0.0061
578.5045	-0.0051
578.6971	-0.0045
578.8897	-0.0007
579.0822	0.0025
579.2747	0.0022
579.4673	-0.0013
579.6598	-0.0007
579.8522	-0.0012
580.0447	-0.0038
580.2372	-0.001
580.4296	0
580.622	-0.0039
580.8144	-0.0009
581.0068	-0.0039
581.1992	-0.0153
581.3915	-0.0026
581.5839	-0.0049
581.7762	-0.0069
581.9685	-0.0033
582.1608	0.0044
582.353	-0.0043
582.5453	0.0009
582.7375	0.0038
582.9298	0.0006
583.122	-0.0013
583.3142	0.0003
583.5063	-0.0041
583.6985	-0.0016
583.8906	-0.0044
584.0827	-0.0078
584.2749	0.0062
584.4669	-0.0006
584.659	-0.0017
584.8511	-0.0018
585.0431	-0.0028
585.2352	0.0011
585.4272	-0.0032
585.6192	0.0014
585.8111	-0.0015
586.0031	0.0078
586.195	-0.0034
586.387	0.0014
586.5789	-0.0003
586.7708	0.0014
586.9627	0.0052
587.1545	-0.0039
587.3464	-0.0009
587.5382	0.0057
587.73	0.003
587.9218	0.0049
588.1136	-0.0046
588.3053	0.0007
588.4971	-0.0044
588.6888	-0.0149
588.8805	-0.0031
589.0722	0.0056
589.2639	-0.0036
589.4556	0.0023
589.6472	-0.0074
589.8389	-0.0082
590.0305	-0.0085
590.2221	-0.0049
590.4137	-0.0058
590.6052	-0.0035
590.7968	0.0024
590.9883	-0.0013
591.1798	-0.0007
591.3713	-0.0024
591.5628	0.0021
591.7543	0.0014
591.9458	0.0036
592.1372	0.0073
592.3286	0.0113
592.52	0.0112
592.7114	-0.0006
592.9028	0.0026
593.0941	-0.0027
593.2855	0.0021
593.4768	-0.0086
593.6681	-0.0063
593.8594	-0.0019
594.0506	0.0049
594.2419	0.0083
594.4331	-0.0004
594.6244	0.0071
594.8156	-0.0044
595.0067	-0.0007
595.1979	-0.0004
595.3891	-0
595.5802	0.0009
595.7713	-0.0013
595.9624	0.0001
596.1535	0.0069
596.3446	0.0011
596.5357	-0.0043
596.7267	0.006
596.9177	-0.0021
597.1087	-0.0061
597.2997	-0.0042
597.4907	0.0004
597.6817	-0.0028
597.8726	0.003
598.0635	-0.0053
598.2544	0.0026
598.4453	-0.003
598.6362	-0.0006
598.827	-0.0063
599.0179	0.0028
599.2087	0.0062
599.3995	-0.0029
599.5903	0.0022
599.7811	0.0026
599.9718	0.0004
600.1626	-0.0047
600.3533	-0.0057
600.544	0.0011
600.7347	-0.0049
600.9254	0.0032
601.116	-0.0116
601.3067	-0.0007
601.4973	0.0004
601.6879	0.0087
601.8785	-0.008
602.0691	-0.0049
602.2596	0.0035
602.4502	0.0035
602.6407	-0.002
602.8312	-0.0022
603.0217	-0.0046
603.2122	0.0035
603.4027	0.0032
603.5931	-0.0011
603.7835	-0.0064
603.9739	-0.0017
604.1643	0.0041
604.3547	-0.0092
604.5451	0.0012
604.7354	-0.0005
604.9257	-0.0012
605.116	-0.0016
605.3063	0.0018
605.4966	0.0044
605.6869	-0.0017
605.8771	0.0081
606.0673	-0.0007
606.2575	0.0069
606.4477	0.0033
606.6379	0.0024
606.8281	0.002
607.0182	0.0015
607.2083	0.0073
607.3985	-0.005
607.5885	0.0034
607.7786	0.003
607.9687	-0.0063
608.1587	-0.0017
608.3488	0.0028
608.5388	0.0011
608.7288	0.0013
608.9187	-0.0022
609.1087	-0.0003
609.2986	-0.0052
609.4886	0.0031
609.6785	-0.0004
609.8684	-0.0025
610.0582	0.0062
610.2481	-0.0053
610.4379	0.0001
610.6278	-0.0041
610.8176	-0.0004
611.0074	-0.0016
611.1971	-0.0005
611.3869	-0.0003
611.5766	-0.0047
611.7664	0.0049
611.9561	0.008
612.1458	0.0011
612.3354	-0.0121
612.5251	-0.0005
612.7147	0.0034
612.9044	0.0075
613.094	-0.0107
613.2836	0.0058
613.4731	-0.004
613.6627	-0.0096
613.8522	-0.0001
614.0417	-0.0006
614.2313	-0.0006
614.4207	-0.0106
614.6102	-0.0058
614.7997	-0.0032
614.9891	-0.0058
615.1785	0.0074
615.3679	-0.0044
615.5573	0.006
615.7467	0.0009
615.9361	-0.0063
616.1254	-0.0047
616.3147	-0.0012
616.504	0.0028
616.6933	0.0031
616.8826	0.0092
617.0718	0.0058
617.2611	0.0025
617.4503	0.0009
617.6395	-0.0015
617.8287	-0.0008
618.0179	-0.0026
618.207	0.0106
618.3961	0.0001
618.5853	0.0014
618.7744	0.0014
618.9634	0.0064
619.1525	0.0025
619.3416	0.0002
619.5306	0.0079
619.7196	0.0037
619.9086	0.003
620.0976	0.0037
620.2866	0.0015
620.4755	0.0051
620.6645	0.0065
620.8534	0.0142
621.0423	-0.0025
621.2312	0.0047
621.42	-0.0032
621.6089	-0.0025
621.7977	0.0016
621.9865	-0.0071
622.1753	0.0043
622.3641	0
622.5529	0.0043
622.7416	0.005
622.9303	0.0004
623.1191	-0.0022
623.3078	-0.0095
623.4964	0.0055
623.6851	-0.0001
623.8737	0.0076
624.0624	0.0045
624.251	-0.0033
624.4396	0.0006
624.6282	0.0025
624.8167	0.0009
625.0053	0.0099
625.1938	0.0089
625.3823	0.0021
625.5708	0.0024
625.7593	0.0004
625.9477	0.0022
626.1362	-0.0058
626.3246	-0.0043
626.513	0.0104
626.7014	0.0033
626.8898	0.0003
627.0781	0.0008
627.2665	-0.0078
627.4548	0.0059
627.6431	0.0002
627.8314	0.0037
628.0197	0.0031
628.2079	-0.0058
628.3962	0.0011
628.5844	-0.0047
628.7726	0.0007
628.9608	0.0084
629.1489	0.0077
629.3371	0.0088
629.5252	-0.0001
629.7134	0.0103
629.9015	-0.0009
630.0895	-0.0067
630.2776	0.0075
630.4657	-0.0045
630.6537	-0.0014
630.8417	-0.0091
631.0297	-0.0075
631.2177	0.0024
631.4057	-0.005
631.5936	-0.0031
631.7815	0.0012
631.9695	0.004
632.1574	0.0055
632.3452	0.005
632.5331	-0.0062
632.7209	0.0003
632.9088	0.0115
633.0966	0.0092
633.2844	-0.0033
633.4722	0.0064
633.6599	0.0041
633.8477	0.0028
634.0354	0.0041
634.2231	-0.0035
634.4108	0.0014
634.5985	0.0065
634.7861	-0.0032
634.9738	-0.0022
635.1614	-0.0003
635.349	-0.0025
635.5366	-0
635.7242	0.0009
635.9117	0.0012
636.0993	0.0043
636.2868	-0.0028
636.4743	-0.001
636.6618	0.0069
636.8492	0.0044
637.0367	0.0023
637.2241	-0.0016
637.4115	-0.0022
637.5989	-0.0007
637.7863	0.0017
637.9737	-0.0055
638.161	-0.0008
638.3484	-0.0025
638.5357	0.0046
638.723	0.0038
638.9103	0.0052
639.0975	0.0044
639.2848	0.0026
639.472	-0.0059
639.6592	0.0038
639.8464	0.0084
640.0336	-0.0008
640.2208	0.0052
640.4079	-0.0057
640.595	0.0011
640.7821	-0.0063
640.9692	-0.0041
641.1563	0.0039
641.3434	-0.0071
641.5304	-0.0078
641.7174	-0.0014
641.9044	-0.0026
642.0914	0.0028
642.2784	-0.0016
642.4653	0.0019
642.6523	0.0008
642.8392	-0.0027
643.0261	0.0067
643.213	0.0001
643.3999	-0.0033
643.5867	-0.0021
643.7735	-0.0026
643.9604	-0.002
644.1472	-0.001
644.3339	-0.0008
644.5207	0.0021
644.7075	-0.0021
644.8942	0.0038
645.0809	-0.0001
645.2676	-0.0001
645.4543	0.0047
645.6409	-0.0059
645.8276	0.005
646.0142	0.0059
646.2008	-0.0031
646.3874	-0.0058
646.574	-0.0013
646.7605	0.0005
646.9471	-0.0083
647.1336	0.0062
647.3201	0.0029
647.5066	-0.0044
647.6931	0.0046
647.8795	0.0044
648.0659	0.005
648.2524	0.0024
648.4388	-0.0063
648.6252	-0.0071
648.8115	-0.0037
648.9979	-0.0032
649.1842	-0.0043
649.3705	0
649.5568	0.0035
649.7431	0.0082
649.9294	0.0014
650.1156	0.0001
650.3018	-0.002
650.488	0.0012
650.6742	0.0067
650.8604	-0.0047
651.0466	-0.0036
651.2327	-0.0024
651.4188	0.0079
651.6049	-0.0109
651.791	-0.0025
651.9771	0.0053
652.1632	0.0075
652.3492	0.0016
652.5352	-0.005
652.7212	-0.0067
652.9072	0.0049
653.0932	-0.0034
653.2791	-0.0133
653.465	0.0026
653.651	-0.0088
653.8369	-0.002
654.0227	-0.0059
654.2086	0.0006
654.3944	0.0005
654.5803	-0.0003
654.7661	-0.0011
654.9519	-0.0003
655.1377	-0.0006
655.3234	-0.0025
655.5092	-0.0071
655.6949	-0.0045
655.8806	-0.0041
656.0663	0.0014
656.2519	-0.0014
656.4376	-0.0003
656.6232	-0.0005
656.8088	-0.005
656.9945	-0.003
657.18	-0.0006
657.3656	0.0016
657.5511	-0.0072
657.7367	-0.0064
657.9222	0.0016
658.1077	-0.0048
658.2932	0.0061
658.4786	-0.0092
658.6641	-0.0066
658.8495	0.0043
659.0349	-0.0084
659.2203	0.0011
659.4057	-0.004
659.591	-0.0032
659.7764	-0.0005
659.9617	-0.0012
660.147	-0.0027
660.3323	-0.0019
660.5176	0.0089
660.7028	0.0089
660.888	-0
661.0733	-0.0032
661.2585	-0.0096
661.4436	-0.0016
661.6288	-0.0076
661.8139	-0.0057
661.9991	0.0062
662.1842	-0.0021
662.3693	0.0021
662.5544	-0.0055
662.7394	0.0022
662.9245	-0.0036
663.1095	-0.0073
663.2945	-0.009
663.4795	-0.0056
663.6644	0.0031
663.8494	-0.0047
664.0343	-0.0031
664.2193	-0.0071
664.4042	-0.0016
664.589	-0.0035
664.7739	-0.0005
664.9587	-0.0035
665.1436	0.001
665.3284	0.0034
665.5132	-0.0004
665.698	0.0022
665.8827	0.0067
666.0675	0.0018
666.2522	-0.0086
666.4369	0.0052
666.6216	0.0083
666.8063	0.0021
666.9909	0.0008
667.1756	-0.0022
667.3602	-0.0011
667.5448	-0.0013
667.7294	0.0013
667.9139	0.003
668.0985	0.0145
668.283	0.001
668.4675	0.0007
668.652	0.0017
668.8365	0.0006
669.0209	0.0084
669.2054	0.0018
669.3898	-0.0019
669.5742	0.0044
669.7586	-0.0008
669.943	0.0077
670.1273	0.0066
670.3117	0.0082
670.496	0.0057
670.6803	0.012
670.8646	0.0029
671.0488	-0.0026
671.2331	0.0061
671.4173	0.0048
671.6015	0.0009
671.7857	0.0045
671.9699	0.0004
672.1541	0.0012
672.3382	0.0016
672.5223	0.0045
672.7064	0.0001
672.8905	0.0079
673.0746	0.0076
673.2587	0.002
673.4427	0.0037
673.6267	0.0048
673.8107	0.0056
673.9947	0.0004
674.1787	0.0013
674.3626	-0.009
674.5465	0.0072
674.7304	0.0039
674.9143	0.0014
675.0982	0.0039
675.2821	-0.0156
675.4659	0.0064
675.6497	0.0036
675.8335	-0.0022
676.0173	0.0062
676.2011	0.0011
676.3849	0.0044
676.5686	0.0008
676.7523	0.0043
676.936	0.0025
677.1197	-0.0044
677.3034	-0.0006
677.487	0.0071
677.6706	0.0049
677.8542	0.0027
678.0378	-0.0087
678.2214	-0.0022
678.405	0.0038
678.5885	-0.0102
678.772	-0.0054
678.9555	-0.0061
679.139	-0.0108
679.3225	0.0026
679.5059	-0.0053
679.6894	0.0046
679.8728	0.0077
680.0562	0.0009
680.2395	0.0015
680.4229	-0.001
680.6062	0.0014
680.7896	0.004
680.9729	-0.0146
681.1562	0.0032
681.3394	-0.0003
681.5227	-0.0119
681.7059	-0.0033
681.8891	-0.0016
682.0723	0.0038
682.2555	0.0017
682.4387	-0.0058
682.6218	-0.009
682.805	-0.0033
682.9881	0.007
683.1712	-0.0063
683.3542	-0.0012
683.5373	0.0027
683.7203	-0.0066
683.9034	0.0035
684.0864	-0.0036
684.2694	-0.0003
684.4523	0.0078
684.6353	-0.0029
684.8182	0.0002
685.0011	-0.0125
685.184	-0.001
685.3669	-0.001
685.5498	0.0059
685.7326	0.0031
685.9154	-0.0034
686.0982	0.006
686.281	0.0086
686.4638	0.0039
686.6465	-0.0005
686.8293	0.0025
687.012	0.0039
687.1947	-0.0079
687.3774	0.0005
687.56	-0.0017
687.7427	-0.0031
687.9253	-0.0056
688.1079	-0.0015
688.2905	0.0057
688.4731	-0.0053
688.6556	-0.0017
688.8382	-0.003
689.0207	0.002
689.2032	-0.0026
689.3857	-0.005
689.5681	0.0039
689.7506	-0.0095
689.933	-0.0042
690.1154	0.0033
690.2978	0.0007
690.4802	0.0042
690.6626	-0.0113
690.8449	-0.005
691.0272	-0.0024
691.2095	-0.0046
691.3918	-0.003
691.5741	-0.0019
691.7563	-0.0015
691.9386	0.0034
692.1208	-0.0007
692.303	-0.003
692.4852	-0.0038
692.6673	0.0013
692.8495	-0.004
693.0316	0.0044
693.2137	-0.0086
693.3958	0.0007
693.5778	-0.0007
693.7599	0.0054
693.9419	0.0001
694.1239	0.0069
694.3059	-0.0017
694.4879	0.005
694.6699	0.0091
694.8518	0.0101
695.0337	-0.0056
695.2157	0.0082
695.3975	-0.0014
695.5794	0.0047
695.7613	0.0044
695.9431	0.001
696.1249	0.0008
696.3067	0.0052
696.4885	0.0068
696.6703	-0.0119
696.852	0.001
697.0337	-0.0007
697.2154	-0.0011
697.3971	0
697.5788	-0.0023
697.7605	-0.003
697.9421	0.0008
698.1237	-0.0052
698.3053	-0.0104
698.4869	-0.0041
698.6685	-0.006
698.85	-0.0032
699.0315	0.0033
699.213	-0.0001
699.3945	0.0047
699.576	0.0049
699.7575	0.0119
699.9389	0.0111
700.1203	-0.0056
700.3017	-0.0067
700.4831	-0.0008
700.6645	0.0102
700.8458	0.0072
701.0271	0.0039
701.2084	0.0089
701.3897	-0.001
701.571	0.0062
701.7523	-0.0084
701.9335	0.0022
702.1147	-0.0035
702.2959	-0.0027
702.4771	-0.0055
702.6583	-0.0037
702.8394	-0.0026
703.0205	0.002
703.2016	-0.0107
703.3827	0.0023
703.5638	0.0062
703.7449	-0.0009
703.9259	0.0132
704.1069	-0.0082
704.2879	-0.0001
704.4689	0.0028
704.6499	0.003
704.8308	-0.0005
705.0117	0.0036
705.1927	0.0021
705.3735	0.0041
705.5544	-0.0073
705.7353	0.0004
705.9161	-0.0004
706.0969	-0.0014
706.2777	-0.0026
706.4585	-0.0055
706.6393	0.006
706.82	-0.002
707.0007	0.0042
707.1815	0.0039
707.3621	0.004
707.5428	0.0011
707.7235	0.001
707.9041	-0.0013
708.0847	-0.0095
708.2653	0.0012
708.4459	-0.008
708.6265	0.0064
708.807	-0.0033
708.9875	-0.0051
709.168	0.0047
709.3485	-0.0047
709.529	0.0024
709.7095	-0.0039
709.8899	-0.0046
710.0703	-0.0062
710.2507	0.0004
710.4311	0.002
710.6115	-0.0104
710.7918	-0.005
710.9721	-0.0105
711.1524	-0.0017
711.3327	-0.0016
711.513	0.006
711.6932	-0.0016
711.8735	0.0077
712.0537	0.0073
712.2339	-0.0025
712.4141	-0.015
712.5942	-0.0072
712.7744	-0.0017
712.9545	-0.0111
713.1346	-0.0088
713.3147	-0.0141
713.4947	-0.0031
713.6748	-0.0001
713.8548	0.0007
714.0348	-0.005
714.2148	0.003
714.3948	0.0058
714.5748	-0.0084
714.7547	-0.0039
714.9346	0.0156
715.1145	-0.0091
715.2944	-0.0156
715.4743	-0.0043
715.6541	-0.0034
715.834	0.0023
716.0138	0.0003
716.1936	-0.0105
716.3733	-0.0082
716.5531	0.0048
716.7328	-0.0087
716.9126	-0.007
717.0923	-0.0035
717.2719	0.0008
717.4516	-0.0004
717.6312	0.0021
717.8109	-0.0064
717.9905	-0.0021
718.1701	-0.0022
718.3496	-0.0068
718.5292	-0.0005
718.7087	-0.0006
718.8882	-0.0002
719.0677	0.0034
719.2472	-0.0008
719.4267	0.0004
719.6061	0.0055
719.7856	0.0018
719.965	0.0034
720.1443	-0.0062
720.3237	0.0066
720.5031	0.0024
720.6824	0.0088
720.8617	0.0003
721.041	0.0079
721.2203	0.0088
721.3995	0.0054
721.5788	0.0155
721.758	0.0104
721.9372	0.0044
722.1164	0.0002
722.2956	0.0146
722.4747	0.0081
722.6538	0.0009
722.8329	0.0164
723.012	0.0044
723.1911	0.0061
723.3702	0.0039
723.5492	0.0142
723.7282	0.0014
723.9072	-0.0014
724.0862	-0.0061
724.2652	-0.0061
724.4441	0.0076
724.623	0.0013
724.8019	-0.0035
724.9808	0.0063
725.1597	-0.0148
725.3385	0.0042
725.5174	0.0006
725.6962	-0.0048
725.875	-0.0065
726.0538	0.0093
726.2325	-0.0033
726.4112	-0.0039
726.59	-0.0036
726.7687	-0.0031
726.9474	0.0095
727.126	0.0008
727.3047	-0.001
727.4833	-0.0016
727.6619	-0.007
727.8405	-0.0097
728.0191	-0.0105
728.1976	-0.0078
728.3762	0.0021
728.5547	0.0063
728.7332	-0.0057
728.9116	-0.0038
729.0901	-0.0014
729.2686	-0.0049
729.447	-0.0104
729.6254	-0.0078
729.8038	0.0002
729.9821	-0.0181
730.1605	-0.0023
730.3388	-0.0037
730.5171	-0.0035
730.6954	-0.014
730.8737	0.0032
731.0519	-0.0011
731.2302	0.0066
731.4084	0.0075
731.5866	-0.0027
731.7648	0.0064
731.9429	-0.0033
732.1211	-0.0059
732.2992	-0.0003
732.4773	-0.0018
732.6554	-0.0015
732.8335	-0.0027
733.0115	0.0011
733.1896	0.0139
733.3676	-0.0099
733.5456	0.0105
733.7235	0.0071
733.9015	0.0003
734.0794	0.0028
734.2574	-0.0014
734.4353	0.0058
734.6131	0.0056
734.791	0.0027
734.9689	-0.0021
735.1467	-0.0007
735.3245	-0.0127
735.5023	-0.011
735.68	0.0011
735.8578	-0.0024
736.0355	-0.0247
736.2132	-0.0101
736.3909	-0.0049
736.5686	-0.0089
736.7463	0.0024
736.9239	-0.0131
737.1015	-0.0055
737.2791	0.0079
737.4567	-0.0043
737.6343	-0.01
737.8118	-0.0105
737.9894	-0.0009
738.1669	-0.0051
738.3444	-0.0004
738.5218	0.0042
738.6993	0.0011
738.8767	0.0035
739.0541	0.0028
739.2315	-0.0156
739.4089	-0.0123
739.5863	0.0096
739.7636	-0.0091
739.9409	0.0025
740.1182	0.0015
740.2955	0.0055
740.4728	-0.0064
740.65	-0.0062
740.8272	-0.012
741.0044	-0.0049
741.1816	0.0018
741.3588	-0.0093
741.5359	-0.0054
741.7131	-0.0132
741.8902	-0.0053
742.0673	-0.0116
742.2444	-0.0039
742.4214	-0.0139
742.5985	-0.0044
742.7755	-0.0026
742.9525	-0.0254
743.1295	0.0027
743.3064	0.0044
743.4834	-0.0037
743.6603	-0.0024
743.8372	-0.0016
744.0141	0.0018
744.191	-0.0053
744.3678	0.0014
744.5446	0.0038
744.7215	0.0011
744.8982	-0.0027
745.075	-0.0083
745.2518	0.0098
745.4285	0.0043
745.6052	-0.0028
745.7819	-0.0019
745.9586	-0.0035
746.1353	-0.0026
746.3119	-0.0006
746.4885	-0.0055
746.6651	0.0022
746.8417	0.0084
747.0183	-0.0004
747.1948	-0.0063
747.3714	0.0035
747.5479	0.0193
747.7244	-0.0009
747.9008	0.0122
748.0773	0.0057
748.2537	0.0015
748.4301	-0.0053
748.6065	0.0015
748.7829	-0.0015
748.9593	-0.0011
749.1356	-0.0021
749.3119	0.0105
749.4882	-0.0091
749.6645	0.0008
749.8408	0.0002
750.017	-0.0003
750.1933	0.0072
750.3695	-0.0052
750.5457	0.0084
750.7218	0.0063
750.898	0.0087
751.0741	0.0021
751.2502	0.0089
751.4263	0.0003
751.6024	0.0064
751.7784	0.0022
751.9545	-0.0069
752.1305	0.0067
752.3065	-0.0088
752.4825	0.0054
752.6584	-0.009
752.8344	0.0018
753.0103	-0.0162
753.1862	-0.006
753.3621	-0.0124
753.5379	-0.0123
753.7138	-0.0049
753.8896	-0.0011
754.0654	0.0053
754.2412	-0.004
754.417	0.0058
754.5927	-0.0037
754.7685	-0.0119
754.9442	0.0022
755.1199	-0.0002
755.2956	-0.0004
755.4712	-0.0035
755.6469	-0.0049
755.8225	-0.0022
755.9981	-0.0068
756.1736	0.0028
756.3492	-0.0091
756.5248	0.0005
756.7003	0.0034
756.8758	0.0048
757.0513	-0.0061
757.2267	-0.0143
757.4022	0.0003
757.5776	-0.0058
757.753	-0.0042
757.9284	-0.0018
758.1038	0.0119
758.2791	0.0026
758.4545	-0.0025
758.6298	-0.0055
758.8051	0.005
758.9803	0.0093
759.1556	0.0045
759.3308	0.0049
759.506	0.0178
759.6812	0.0117
759.8564	0.0094
760.0316	-0.0009
760.2067	0.0109
760.3819	0.0105
760.557	0.0119
760.732	-0.0006
760.9071	-0.0063
761.0821	0.0005
761.2572	0.0088
761.4322	-0.003
761.6072	-0.0078
761.7821	-0.0138
761.9571	-0.0025
762.132	-0.009
762.3069	-0.0016
762.4818	-0.0163
762.6567	0.0011
762.8316	-0.0034
763.0064	0.0024
763.1812	-0.0017
763.356	-0.0088
763.5308	0.0042
763.7055	-0.004
763.8803	-0.0023
764.055	0.0051
764.2297	0.0066
764.4044	-0.0041
764.579	-0.002
764.7537	-0.0027
764.9283	-0.0034
765.1029	-0.0018
765.2775	-0.0086
765.4521	-0.0115
765.6266	0.001
765.8011	-0.0079
765.9756	0.0023
766.1501	0.006
766.3246	-0.0059
766.4991	-0.0056
766.6735	-0.0026
766.8479	-0.0174
767.0223	0.0026
767.1967	-0.0011
767.371	0.0012
767.5454	-0.0149
767.7197	-0.0025
767.894	-0.004
768.0683	-0.0061
768.2425	0.0063
768.4168	-0.0022
768.591	0.0123
768.7652	-0.0024
768.9394	-0.0046
769.1135	0.0039
769.2877	0.0026
769.4618	-0.0024
769.6359	-0.0035
769.81	-0.0083
769.984	-0.0022
770.1581	-0.0048
770.3321	0.0116
770.5061	-0.0038
770.6801	-0.0081
770.8541	0.0057
771.028	0.0116
771.202	-0.0141
771.3759	0.0128
771.5498	0.0026
771.7236	0.0021
771.8975	-0.0043
772.0713	0.0019
772.2451	0.01
772.4189	0.0046
772.5927	0.0144
772.7665	0.0035
772.9402	-0.0051
773.1139	-0.0025
773.2876	-0.004
773.4613	0.0039
773.635	0.0018
773.8086	-0.0075
773.9822	0.0055
774.1558	0.0021
774.3294	-0.014
774.503	0.0098
774.6765	0.0158
774.8501	0.008
775.0236	0.0123
775.1971	0.01
775.3705	-0.0127
775.544	0.0064
775.7174	-0.0039
775.8908	0.0003
776.0642	-0.0077
776.2376	-0.0011
776.4109	-0.0002
776.5843	0.0011
776.7576	0.0011
776.9309	0.0139
777.1041	0.0016
777.2774	0.0059
777.4506	0.0101
777.6238	-0.006
777.797	-0.0039
777.9702	-0.0014
778.1434	-0.0084
778.3165	-0.0141
778.4896	-0.0021
778.6627	0.0089
778.8358	-0
779.0089	0.002
779.1819	0.0016
779.3549	0.0075
779.5279	0.0094
779.7009	-0.004
779.8739	-0.0028
780.0468	-0.0064
780.2197	0.0099
780.3926	-0.0034
780.5655	-0.0092
780.7384	-0.0035
780.9112	0.0003
781.0841	-0.0097
781.2569	-0.0104
781.4297	0.0087
781.6024	0.0102
781.7752	0.008
781.9479	0.0035
782.1206	0.0006
782.2933	-0.0066
782.466	0.0134
782.6386	0.0052
782.8113	0.0014
782.9839	-0.0027
783.1565	0.0212
783.329	-0.0033
783.5016	0.0051
783.6741	0.001
783.8466	-0.0016
784.0191	0.0103
784.1916	0.0065
784.3641	-0.0097
784.5365	0.0025
784.7089	0.0059
784.8813	-0.014
785.0537	-0.0007
785.2261	-0.0033
785.3984	-0.0036
785.5707	0.0002
785.743	-0
785.9153	-0.0091
786.0876	-0.0002
786.2598	-0.0159
786.432	-0.0118
786.6042	0.0063
786.7764	-0.0029
786.9486	0.0117
787.1207	-0.0028
787.2928	0.0076
787.4649	0.0039
787.637	0.0081
787.8091	-0.0003
787.9811	-0.0056
788.1532	0.0005
788.3252	0.0131
788.4972	-0.0013
788.6691	-0.0048
788.8411	0.0102
789.013	-0.0084
789.1849	-0.0011
789.3568	-0
789.5287	0.0053
789.7005	-0.0023
789.8723	0.0011
790.0442	0.0165
790.2159	0.0019
790.3877	0.0067
790.5595	0.0055
790.7312	0.0025
790.9029	0.0154
791.0746	-0.0054
791.2463	0.0098
791.4179	0.0009
791.5896	-0.01
791.7612	0.005
791.9328	0.0095
792.1044	-0.0055
792.2759	-0.0075
792.4474	0.0046
792.619	0.013
792.7905	-0.0005
792.9619	0.0112
793.1334	0.0158
793.3048	0.0064
793.4762	0.0112
793.6476	0.0076
793.819	-0.0012
793.9904	0.0044
794.1617	-0.0088
794.333	0.0052
794.5043	-0.005
794.6756	-0.0098
794.8469	0.007
795.0181	0.0004
795.1893	0.0099
795.3605	0.0166
795.5317	0.0044
795.7029	-0.0021
795.874	0.0044
796.0452	-0.0007
796.2163	0.0086
796.3873	0.0224
796.5584	-0.0009
796.7294	0.01
796.9005	0.0098
797.0715	0.0093
797.2425	-0.0071
797.4134	-0.0051
797.5844	0.0118
797.7553	-0.019
797.9262	0.0031
798.0971	0.0009
798.2679	0.0061
798.4388	-0.0064
798.6096	-0.0056
798.7804	0.0205
798.9512	-0.0028
799.122	0.0013
799.2927	0.0143
799.4635	0.011
799.6342	-0.0087
799.8049	0.0009
799.9755	0.0031
800.1462	0.0207
800.3168	0.0156
800.4874	-0.01
800.658	0.0193
800.8286	0.0116
800.9991	0.0119
801.1696	-0.0038
801.3402	0.0071
801.5106	0.0106
801.6811	0.0128
801.8516	0.0092
802.022	0.0018
802.1924	0.0038
802.3628	0.018
802.5332	-0.0003
802.7035	0.0135
802.8739	-0.0074
803.0442	0.0056
803.2145	0.007
803.3847	-0.0159
803.555	0.0008
803.7252	-0.0133
803.8954	-0.0114
804.0656	0.0022
804.2358	0.0045
804.4059	0.0247
804.5761	0.013
804.7462	0.011
804.9163	-0.002
805.0864	-0.0092
805.2564	0.0076
805.4264	0.017
805.5965	0.0028
805.7665	0.0264
805.9364	0.0205
806.1064	0.0418
806.2763	-0.002
806.4462	0.0244
806.6161	0.0111
806.786	0.025
806.9559	-0.0041
807.1257	0.0027
807.2955	0.0144
807.4653	-0.006
807.6351	-0.0003
807.8048	0.0039
807.9746	0.016
808.1443	0.0153
808.314	0.0035
808.4837	-0.0052
808.6533	0.0069
808.8229	0.0238
808.9926	0.0071
809.1622	0.0111
809.3317	0.0036
809.5013	0.0002
809.6708	0.031
809.8403	0.0219
810.0098	0.0055
810.1793	0.0143
810.3488	0.0052
810.5182	-0.0089
810.6876	0.0302
810.857	-0.0022
811.0264	0.0517
811.1958	0.0191
811.3651	0.0165
811.5344	0.0103
811.7037	0.0089
811.873	0.0131
812.0422	0.0039
812.2115	0.0192
812.3807	0.0074
812.5499	0.0393
812.7191	0.0225
812.8882	0.0016
813.0574	0.0162
813.2265	-0.002
813.3956	0.0176
813.5646	0.0137
813.7337	0.0081
813.9027	0.0216
814.0718	0.0395
814.2407	0.0188
814.4097	0.0098
814.5787	-0.0088
814.7476	0.0047
814.9165	0.0158
815.0854	0.0014
815.2543	0.0063
815.4232	0.014
815.592	0.0191
815.7608	0.0171
815.9296	0.0306
816.0984	0.0115
816.2671	-0.0048
816.4359	0.0118
816.6046	0.0135
816.7733	-0.001
816.942	-0.021
817.1106	0.0398
817.2793	0.021
817.4479	0.0142
817.6165	0.0346
817.785	0.0202
817.9536	-0.013
818.1221	0.0216
818.2906	0.0168
818.4591	-0.0114
818.6276	0.0108
818.7961	0.0174
818.9645	0.021
819.1329	-0.0004
819.3013	0.0444
819.4697	0.0364
819.638	0.0075
819.8064	0.0291
819.9747	0.014
820.143	0.0112
820.3113	-0.0169
820.4795	0.0206
820.6477	0.0153
820.816	0.0247
820.9842	-0.0016
821.1523	0.0186
821.3205	-0.0033
821.4886	0.0146
821.6567	-0.0012
821.8248	0.0255
821.9929	0.0189
822.1609	-0.0001
822.329	0.0223
822.497	0.0376
822.665	-0.0118
822.833	-0.0176
823.0009	0.0277
823.1688	0.0171
823.3367	0.045
823.5046	0.0215
823.6725	0.0468
823.8404	0.0086
824.0082	-0.0021
824.176	0.0313
824.3438	0.0144
824.5116	0.007
824.6793	-0.0103
824.847	0.0334
825.0147	-0.009
825.1824	0.0462
825.3501	0.0172
825.5177	0.018
825.6854	0.0046
825.853	0.0074
826.0206	0.0045
826.1881	0.0292
826.3557	-0.0316
826.5232	0.0398
826.6907	-0.0195
826.8582	-0.017
827.0257	-0.0402
827.1931	-0.0055
827.3605	-0.0139
827.528	0.0078
827.6953	-0.0086
827.8627	-0.0233
828.03	0.0366
828.1974	-0.0099
828.3647	-0.0169
828.532	0.0247
828.6992	0.0013
828.8665	0.0042
829.0337	-0.0209
829.2009	0.0255
829.3681	-0.0117
829.5352	0.0463
829.7024	-0.0217
829.8695	-0.0529
830.0366	0.0354
830.2037	-0.0087
830.3707	0.0103
830.5378	-0.0086
830.7048	0.012
830.8718	0.0114
831.0388	-0.0182
831.2057	0.0133
831.3727	0.0424
831.5396	0.0004
831.7065	0.0004
831.8734	0.0237
832.0402	0.0064
832.2071	0.0072
832.3739	0.0028
832.5407	-0.0055
832.7075	-0.0052
832.8742	-0.0123
833.041	-0.0304
833.2077	-0.0057
833.3744	0.0367
833.541	0.0233
833.7077	-0.0021
833.8743	-0.015
834.0409	0.0314
834.2075	-0.0034
834.3741	-0.0242
834.5407	0.0055
834.7072	-0.0109
834.8737	0.0011
835.0402	0.0232
835.2067	0.0111
835.3731	0.0166
835.5395	-0.0287
835.706	-0.0136
835.8723	-0.0247
836.0387	-0.0009
836.2051	-0.0023
836.3714	0.0025
836.5377	-0.0111
836.704	-0.0122
836.8703	-0.0184
837.0365	0.0184
837.2027	0.0013
837.3689	0.0543
837.5351	-0.032
837.7013	-0.029
837.8674	-0.0315
838.0335	-0.0667
838.1997	-0.0131
838.3657	-0.0525
838.5318	-0.0345
838.6978	0.0421
838.8639	0.0551
839.0299	0.0263
839.1958	-0.0224
839.3618	-0.0003
839.5277	-0.0062
839.6937	0.0431
839.8596	-0.0224
840.0254	0.027
840.1913	0.0449
840.3571	0.0468
840.523	-0.0501
840.6888	-0.0151
840.8545	-0.0442
841.0203	0.0015
841.186	0.0866
841.3517	0.039
841.5174	0.0076
841.6831	0.0339
841.8488	0.0033
842.0144	0.029
842.18	-0.0327
842.3456	0.0063
842.5112	-0.0104
842.6767	-0.0158
842.8422	-0.0046
843.0077	0.0132
843.1732	-0.0425
843.3387	0.0065
843.5042	-0.0142
843.6696	0.0044
843.835	-0.0014
844.0004	0.0588
844.1657	0.016
844.3311	-0.0169
844.4964	-0.0405
844.6617	-0.007
844.827	-0.0039
844.9923	0.0031
845.1575	0.0919
845.3227	0.0185
845.4879	0.0384
845.6531	-0.0473
845.8183	-0.0572
845.9834	0.0253
846.1485	-0.0257
846.3136	0.019
846.4787	-0.042
846.6438	-0.0191
846.8088	-0.0817
846.9738	-0.1201
847.1388	-0.0657
847.3038	-0.0139
847.4687	-0.186
847.6337	0.0547
847.7986	0.0312
847.9635	-0.0746
848.1284	0.0106
848.2932	0.0751
848.458	-0.0533
848.6228	-0.0501
848.7876	0.0845
848.9524	-0.0524
849.1172	-0.0845
849.2819	0.0592
849.4466	-0.0485
849.6113	-0.03
849.7759	-0.0425
849.9406	-0.0522
850.1052	0.0328
850.2698	0.0989
850.4344	-0.0291
850.599	-0.061
850.7635	0.1307
850.928	0.0273
851.0925	0.0271
851.257	-0.0059
851.4215	0.0803
851.5859	-0.0464
851.7503	0.0362
851.9147	0.0179
852.0791	-0.1401
852.2434	-0.0655
852.4078	0.0851
852.5721	0.0617
852.7364	0.0202
852.9007	-0.1615
853.0649	0.0536
853.2291	-0.1179
853.3934	-0.1011
853.5575	0.1072
853.7217	-0.1371
853.8859	-0.1217
854.05	-0.1281
854.2141	-0.0161
854.3782	-0.0414
854.5423	-0.0475
854.7063	0.1296
854.8703	-0.0835
855.0343	0.0281
855.1983	-0.0877
855.3623	0.1291
855.5262	0.0545
855.6901	-0.0724
855.854	0.0542
856.0179	-0.0408
856.1818	0.0049
856.3456	-0.129
856.5094	-0.1389
856.6732	-0.1135
856.837	0.0173
857.0008	0.0281
857.1645	-0.0159
857.3282	0.0149
857.4919	0.1495
857.6556	0.0195
857.8192	-0.0477
857.9828	0.0105
858.1465	0.0482
858.31	-0.012
858.4736	-0.1639
858.6372	-0.0785
858.8007	-0.1901
858.9642	0.0218
859.1277	0.0159
859.2911	-0.0015
859.4546	-0.0469
859.618	-0.3873
859.7814	-0.1453
859.9448	0.0441
860.1081	-0.0698
860.2715	0.1733
860.4348	0.4833
860.5981	-0.2489
860.7614	0.1002
860.9246	0.1314
861.0879	0.3109
861.2511	0.1224
861.4143	0.0291
861.5774	0.2809
861.7406	-0.0428
861.9037	0.0961
862.0668	0.0395
862.2299	-0.0928
862.393	-0.7052
862.556	-0.0788
862.7191	-0.3463
862.8821	-0.363
863.0451	0.1168
863.208	0.0199
863.371	-0.118
863.5339	-0.0667
863.6968	-0.082
863.8597	-0
864.0225	-0.0826
864.1854	-0.1401
864.3482	0.074
864.511	0.0544
864.6737	0.0179
864.8365	0.2144
864.9992	-0.0771
865.1619	-0.5471
865.3246	0.4583
865.4873	0.1494
865.65	-0.0881
865.8126	-0.0542
865.9752	0.2273
866.1378	-0.2088
866.3004	1.3176
866.4629	0.4385
866.6254	0.6323
866.7879	-0.2616
866.9504	-0.1545
867.1129	-0
867.2753	0.0264
867.4377	0.2379
867.6001	-0.2045
867.7625	0.2952
867.9249	-0.378
868.0872	0.093
868.2495	0.2509
868.4118	0.0265
868.5741	-0.5632
868.7363	-0.4516
868.8986	-0.0929
869.0608	-0.1287
869.223	0.3438
869.3851	-0
869.5473	0.4641
869.7094	0.1757
869.8715	-0.5003
870.0336	-0
870.1957	-0.345
870.3577	-0.8671
870.5197	-0.2
870.6817	-0.2709
870.8437	-0.1474
871.0057	-0.1635
871.1676	-0
871.3295	-0.3262
871.4914	0.1402
871.6533	-0.4062
871.8151	-0.4397
871.977	0.0609
872.1388	-0
872.3006	-0
872.4623	-0
872.6241	1.311
872.7858	-0
872.9475	0.0975
873.1092	-0.0441
873.2709	0.2218
873.4325	-0.2767
873.5941	-0.4504
873.7557	0.8166
873.9173	-0
874.0789	-0.1134
874.2404	-0.5679
874.4019	0.3164
874.5634	-0.1244
874.7249	0.0156
874.8863	0.4315
875.0478	0.1086
875.2092	-0
875.3706	1.101
875.5319	-0
875.6933	-0.0125
875.8546	0.1212
876.0159	0.7533
876.1772	-0.0651
876.3385	-0
876.4997	0.1848
876.6609	-0.4981
876.8221	-0
876.9833	-0
877.1445	-0
877.3056	0.302
877.4667	-0.4328
877.6278	-0
877.7889	-0.5361
877.9499	-0.2881
878.111	-0.7416
878.272	-0
878.433	0.4383
878.5939	-0
878.7549	-0.1274
878.9158	-0.3837
879.0767	0.497
879.2376	-0
879.3984	-0
879.5593	-0
879.7201	0.1872
879.8809	-0.4911
880.0417	-0.4771
880.2024	0.3848
880.3632	-0
880.5239	0.0727
880.6846	0.6042
880.8452	-2.5065
881.0059	-1.0569
881.1665	-0.008
881.3271	0.0411
881.4877	-0.1232
881.6483	-0.3788
881.8088	-0.4107
881.9693	-0
882.1298	-0
882.2903	-0
