Data from MonoPyChalIsomerACN10uM380nmA_Absorbance_13-38-34-148.txt Node
Date: Fri Jul 05 13:38:34 BST 2024
User: LASERRRRR
Spectrometer: FLMT03099
Trigger mode: 0
Integration Time (sec): 1.000000E-1
Scans to average: 1
Electric dark correction enabled: true
Nonlinearity correction enabled: false
Boxcar width: 0
XAxis mode: Wavelengths
Number of Pixels in Spectrum: 3648
>>>>>Begin Spectral Data<<<<<
179.3399	-0.2006
179.5586	-0.2006
179.7771	-0.2006
179.9957	-0
180.2143	-0
180.4329	1.4008
180.6514	-0
180.8699	-0
181.0885	0.1737
181.307	0.1403
181.5255	-0
181.744	0.1357
181.9625	-0
182.181	-0
182.3994	-0
182.6179	-0
182.8363	1.5293
183.0547	-0.3612
183.2732	0.0473
183.4916	-0.0292
183.71	0.0046
183.9284	-0.0246
184.1467	-0.1716
184.3651	-0.0358
184.5835	0.1379
184.8018	0.3255
185.0201	0.0157
185.2385	-0.061
185.4568	0.1321
185.6751	-0.0585
185.8934	0.0911
186.1117	0.0006
186.3299	0.2069
186.5482	-0.0168
186.7664	-0.004
186.9847	0.1093
187.2029	0.0005
187.4211	0.2564
187.6393	0.0339
187.8575	0.0514
188.0757	0.2958
188.2939	-0.0101
188.512	-0.1528
188.7302	0.0573
188.9483	0.2103
189.1665	0.2443
189.3846	-0.1988
189.6027	0.0556
189.8208	0.2485
190.0389	0.2816
190.257	0.0126
190.475	0.2073
190.6931	0.1065
190.9111	0.4442
191.1292	0.1128
191.3472	0.6438
191.5652	0.3591
191.7832	0.1584
192.0012	0.3515
192.2192	0.3448
192.4371	0.3416
192.6551	0.4533
192.873	0.2714
193.091	0.5174
193.3089	0.4753
193.5268	0.4318
193.7447	0.4849
193.9626	0.3916
194.1805	0.4674
194.3984	0.6349
194.6162	0.5508
194.8341	0.5641
195.0519	0.5619
195.2697	0.6804
195.4875	0.5582
195.7054	0.6587
195.9231	0.5272
196.1409	0.6788
196.3587	0.6534
196.5765	0.7676
196.7942	0.5787
197.012	0.4567
197.2297	0.6623
197.4474	1.2105
197.6651	0.5783
197.8828	0.7138
198.1005	1.4764
198.3182	0.7529
198.5358	0.9884
198.7535	0.8768
198.9711	0.7715
199.1888	0.7436
199.4064	1.0286
199.624	0.5438
199.8416	0.6837
200.0592	0.6544
200.2767	0.7294
200.4943	0.7606
200.7119	0.802
200.9294	0.8195
201.1469	0.6697
201.3645	0.7229
201.582	0.7562
201.7995	0.7333
202.017	0.7023
202.2344	0.7143
202.4519	0.859
202.6694	0.7598
202.8868	0.7734
203.1042	0.9406
203.3217	0.8204
203.5391	0.7137
203.7565	0.6784
203.9739	0.7238
204.1913	0.8251
204.4086	0.8363
204.626	0.7681
204.8433	0.8077
205.0607	0.7371
205.278	0.8858
205.4953	0.7176
205.7126	0.7954
205.9299	0.8132
206.1472	0.8779
206.3644	0.7459
206.5817	0.8013
206.7989	0.9445
207.0162	0.7949
207.2334	0.7669
207.4506	0.8372
207.6678	0.8118
207.885	0.8305
208.1022	0.7645
208.3194	0.8592
208.5365	0.721
208.7537	0.717
208.9708	0.6512
209.1879	0.687
209.405	0.8355
209.6222	0.8839
209.8392	0.7343
210.0563	0.7818
210.2734	0.7851
210.4905	0.7646
210.7075	0.8116
210.9245	0.7451
211.1416	0.7951
211.3586	0.8202
211.5756	0.7329
211.7926	0.8148
212.0096	0.7434
212.2265	0.705
212.4435	0.7797
212.6604	0.8157
212.8774	0.7668
213.0943	0.7216
213.3112	0.7151
213.5281	0.675
213.745	0.634
213.9619	0.7281
214.1788	0.6936
214.3956	0.6649
214.6125	0.674
214.8293	0.6852
215.0461	0.7142
215.2629	0.6433
215.4798	0.7279
215.6965	0.6208
215.9133	0.6448
216.1301	0.6424
216.3469	0.6436
216.5636	0.62
216.7803	0.6053
216.9971	0.6388
217.2138	0.5997
217.4305	0.6145
217.6472	0.5668
217.8639	0.6408
218.0805	0.5811
218.2972	0.5613
218.5138	0.5264
218.7305	0.559
218.9471	0.5543
219.1637	0.5676
219.3803	0.5209
219.5969	0.4953
219.8135	0.5252
220.0301	0.5458
220.2466	0.5395
220.4632	0.5437
220.6797	0.4944
220.8962	0.477
221.1127	0.512
221.3292	0.5192
221.5457	0.5078
221.7622	0.4785
221.9787	0.5268
222.1951	0.5263
222.4116	0.5108
222.628	0.4903
222.8444	0.5513
223.0608	0.4963
223.2772	0.5182
223.4936	0.5066
223.71	0.5203
223.9264	0.5343
224.1427	0.5006
224.3591	0.5033
224.5754	0.5433
224.7917	0.5399
225.008	0.5304
225.2243	0.5081
225.4406	0.5322
225.6569	0.5462
225.8732	0.5263
226.0894	0.4952
226.3057	0.4894
226.5219	0.5481
226.7381	0.5344
226.9543	0.5193
227.1705	0.54
227.3867	0.5566
227.6029	0.5427
227.8191	0.5434
228.0352	0.5408
228.2513	0.5499
228.4675	0.5562
228.6836	0.5322
228.8997	0.5271
229.1158	0.5402
229.3319	0.5339
229.548	0.5194
229.764	0.5534
229.9801	0.5585
230.1961	0.5677
230.4121	0.5215
230.6282	0.5621
230.8442	0.5555
231.0602	0.5762
231.2761	0.5753
231.4921	0.5655
231.7081	0.5625
231.924	0.5442
232.14	0.5674
232.3559	0.5356
232.5718	0.5606
232.7877	0.5497
233.0036	0.5479
233.2195	0.5511
233.4353	0.5403
233.6512	0.55
233.867	0.5349
234.0829	0.5216
234.2987	0.5345
234.5145	0.5342
234.7303	0.532
234.9461	0.5648
235.1619	0.5418
235.3776	0.5253
235.5934	0.5619
235.8091	0.5304
236.0249	0.5059
236.2406	0.5198
236.4563	0.5611
236.672	0.5476
236.8877	0.5244
237.1034	0.5315
237.319	0.5285
237.5347	0.53
237.7503	0.5107
237.966	0.5731
238.1816	0.5255
238.3972	0.5124
238.6128	0.5179
238.8284	0.5305
239.0439	0.536
239.2595	0.506
239.475	0.535
239.6906	0.5367
239.9061	0.4942
240.1216	0.523
240.3371	0.5216
240.5526	0.5134
240.7681	0.5317
240.9836	0.492
241.199	0.5018
241.4145	0.4877
241.6299	0.48
241.8453	0.4705
242.0607	0.4808
242.2761	0.4628
242.4915	0.4585
242.7069	0.4422
242.9223	0.4594
243.1376	0.4402
243.353	0.4568
243.5683	0.43
243.7836	0.4282
243.9989	0.4036
244.2142	0.3997
244.4295	0.3986
244.6448	0.3808
244.86	0.3764
245.0753	0.369
245.2905	0.3559
245.5057	0.3573
245.721	0.3653
245.9362	0.3381
246.1514	0.3349
246.3665	0.3182
246.5817	0.3317
246.7969	0.3082
247.012	0.325
247.2271	0.3118
247.4423	0.3017
247.6574	0.3056
247.8725	0.2836
248.0876	0.2901
248.3026	0.2893
248.5177	0.276
248.7328	0.2676
248.9478	0.2551
249.1628	0.2623
249.3779	0.2613
249.5929	0.2505
249.8079	0.2712
250.0228	0.2588
250.2378	0.2584
250.4528	0.2564
250.6677	0.2367
250.8827	0.2391
251.0976	0.2332
251.3125	0.2351
251.5274	0.2227
251.7423	0.2233
251.9572	0.2265
252.172	0.2183
252.3869	0.221
252.6017	0.2196
252.8166	0.2029
253.0314	0.2088
253.2462	0.206
253.461	0.2113
253.6758	0.1989
253.8906	0.2094
254.1053	0.1881
254.3201	0.1914
254.5348	0.1992
254.7496	0.196
254.9643	0.1896
255.179	0.204
255.3937	0.1967
255.6083	0.1938
255.823	0.197
256.0377	0.1955
256.2523	0.1975
256.467	0.1662
256.6816	0.1962
256.8962	0.1851
257.1108	0.1934
257.3254	0.1882
257.54	0.1885
257.7545	0.1878
257.9691	0.1863
258.1836	0.1756
258.3981	0.1908
258.6127	0.1773
258.8272	0.1813
259.0417	0.1882
259.2561	0.1987
259.4706	0.1815
259.6851	0.1802
259.8995	0.176
260.114	0.1802
260.3284	0.1829
260.5428	0.1892
260.7572	0.194
260.9716	0.1896
261.186	0.1749
261.4003	0.1836
261.6147	0.198
261.829	0.1845
262.0433	0.1786
262.2577	0.1781
262.472	0.1777
262.6863	0.1844
262.9005	0.1805
263.1148	0.1829
263.3291	0.1679
263.5433	0.1825
263.7576	0.1782
263.9718	0.1824
264.186	0.1719
264.4002	0.179
264.6144	0.1878
264.8286	0.1962
265.0427	0.1806
265.2569	0.1833
265.471	0.1965
265.6851	0.1688
265.8993	0.1853
266.1134	0.185
266.3275	0.1716
266.5415	0.1744
266.7556	0.1997
266.9697	0.1913
267.1837	0.1809
267.3978	0.1811
267.6118	0.198
267.8258	0.1869
268.0398	0.1811
268.2538	0.1946
268.4677	0.1897
268.6817	0.1789
268.8957	0.1987
269.1096	0.1882
269.3235	0.1852
269.5374	0.1741
269.7514	0.1652
269.9652	0.1688
270.1791	0.1628
270.393	0.1723
270.6068	0.1787
270.8207	0.1749
271.0345	0.1848
271.2483	0.1725
271.4622	0.1678
271.676	0.1775
271.8897	0.1719
272.1035	0.1714
272.3173	0.1816
272.531	0.1772
272.7448	0.169
272.9585	0.1624
273.1722	0.1709
273.3859	0.1759
273.5996	0.1666
273.8133	0.1875
274.0269	0.1651
274.2406	0.1683
274.4542	0.1699
274.6679	0.1681
274.8815	0.178
275.0951	0.1713
275.3087	0.1814
275.5223	0.1812
275.7358	0.1801
275.9494	0.1849
276.1629	0.18
276.3765	0.1708
276.59	0.1692
276.8035	0.1793
277.017	0.1723
277.2305	0.1732
277.444	0.1802
277.6574	0.1665
277.8709	0.1751
278.0843	0.1652
278.2978	0.1734
278.5112	0.1743
278.7246	0.1797
278.938	0.1907
279.1513	0.1773
279.3647	0.183
279.5781	0.1676
279.7914	0.1953
280.0047	0.1942
280.2181	0.1823
280.4314	0.1895
280.6447	0.1762
280.8579	0.1798
281.0712	0.1812
281.2845	0.1855
281.4977	0.1773
281.711	0.1664
281.9242	0.1776
282.1374	0.1864
282.3506	0.1634
282.5638	0.1817
282.7769	0.1758
282.9901	0.1755
283.2033	0.1722
283.4164	0.1929
283.6295	0.1754
283.8426	0.1806
284.0557	0.1935
284.2688	0.1842
284.4819	0.1748
284.695	0.1644
284.908	0.1797
285.1211	0.1747
285.3341	0.1789
285.5471	0.1838
285.7601	0.184
285.9731	0.1629
286.1861	0.1707
286.3991	0.1906
286.612	0.1864
286.825	0.1685
287.0379	0.1796
287.2508	0.1766
287.4637	0.1872
287.6766	0.1634
287.8895	0.1774
288.1024	0.1884
288.3152	0.1822
288.5281	0.1737
288.7409	0.1672
288.9538	0.1746
289.1666	0.1672
289.3794	0.1768
289.5922	0.1633
289.8049	0.1778
290.0177	0.1783
290.2304	0.1851
290.4432	0.1841
290.6559	0.1728
290.8686	0.1797
291.0813	0.1707
291.294	0.1734
291.5067	0.1751
291.7194	0.163
291.932	0.1871
292.1447	0.1738
292.3573	0.1613
292.5699	0.1749
292.7825	0.1851
292.9951	0.1666
293.2077	0.1744
293.4203	0.1566
293.6328	0.1557
293.8454	0.1737
294.0579	0.1745
294.2704	0.1654
294.4829	0.1554
294.6954	0.1686
294.9079	0.1603
295.1204	0.1708
295.3328	0.1686
295.5453	0.1709
295.7577	0.1655
295.9701	0.1581
296.1825	0.1726
296.3949	0.1603
296.6073	0.1598
296.8197	0.156
297.0321	0.1687
297.2444	0.1587
297.4567	0.1672
297.6691	0.1671
297.8814	0.1523
298.0937	0.1639
298.306	0.1667
298.5182	0.1636
298.7305	0.1699
298.9428	0.1609
299.155	0.1622
299.3672	0.169
299.5794	0.163
299.7916	0.1543
300.0038	0.1634
300.216	0.1764
300.4282	0.1613
300.6403	0.1602
300.8525	0.1646
301.0646	0.1569
301.2767	0.1654
301.4888	0.1605
301.7009	0.1538
301.913	0.1603
302.125	0.1765
302.3371	0.1605
302.5491	0.153
302.7612	0.1691
302.9732	0.1646
303.1852	0.1625
303.3972	0.1531
303.6092	0.1483
303.8211	0.1585
304.0331	0.1535
304.245	0.1486
304.457	0.1434
304.6689	0.1439
304.8808	0.1508
305.0927	0.1457
305.3046	0.1512
305.5164	0.1531
305.7283	0.1487
305.9401	0.1428
306.152	0.1442
306.3638	0.1503
306.5756	0.1386
306.7874	0.1497
306.9992	0.1587
307.2109	0.1355
307.4227	0.1278
307.6344	0.1442
307.8462	0.1287
308.0579	0.1413
308.2696	0.1365
308.4813	0.1284
308.693	0.139
308.9046	0.1385
309.1163	0.1283
309.328	0.1239
309.5396	0.123
309.7512	0.1269
309.9628	0.1266
310.1744	0.1172
310.386	0.1226
310.5976	0.1221
310.8091	0.115
311.0207	0.1234
311.2322	0.1289
311.4437	0.1137
311.6552	0.1159
311.8667	0.1219
312.0782	0.0996
312.2897	0.102
312.5012	0.1168
312.7126	0.1107
312.924	0.1057
313.1355	0.117
313.3469	0.1038
313.5583	0.1149
313.7696	0.1082
313.981	0.116
314.1924	0.0972
314.4037	0.101
314.6151	0.112
314.8264	0.1083
315.0377	0.1114
315.249	0.1126
315.4603	0.1074
315.6716	0.0973
315.8828	0.095
316.0941	0.0994
316.3053	0.1094
316.5165	0.1013
316.7277	0.0966
316.9389	0.1045
317.1501	0.0985
317.3613	0.1067
317.5724	0.0928
317.7836	0.1146
317.9947	0.1052
318.2058	0.1022
318.417	0.1001
318.6281	0.1011
318.8391	0.1033
319.0502	0.1137
319.2613	0.1036
319.4723	0.1082
319.6834	0.112
319.8944	0.0991
320.1054	0.0999
320.3164	0.1198
320.5274	0.1066
320.7383	0.1054
320.9493	0.0938
321.1602	0.117
321.3712	0.1019
321.5821	0.1071
321.793	0.1174
322.0039	0.1054
322.2148	0.0952
322.4257	0.1026
322.6365	0.1215
322.8474	0.12
323.0582	0.1106
323.269	0.1126
323.4798	0.1115
323.6906	0.1088
323.9014	0.1138
324.1122	0.1129
324.3229	0.1015
324.5337	0.1093
324.7444	0.1094
324.9551	0.1282
325.1658	0.1102
325.3765	0.1148
325.5872	0.1176
325.7979	0.1038
326.0085	0.1083
326.2192	0.12
326.4298	0.1064
326.6404	0.1022
326.851	0.1131
327.0616	0.1136
327.2722	0.1125
327.4828	0.1184
327.6933	0.1157
327.9039	0.1127
328.1144	0.1189
328.3249	0.1157
328.5354	0.104
328.7459	0.1101
328.9564	0.0998
329.1669	0.1008
329.3773	0.1176
329.5878	0.1115
329.7982	0.1106
330.0086	0.1166
330.219	0.1317
330.4294	0.1101
330.6398	0.1113
330.8502	0.0955
331.0605	0.111
331.2708	0.1114
331.4812	0.1179
331.6915	0.1145
331.9018	0.1106
332.1121	0.1189
332.3224	0.117
332.5326	0.1142
332.7429	0.1201
332.9531	0.1293
333.1633	0.1168
333.3735	0.1056
333.5837	0.1126
333.7939	0.1161
334.0041	0.1147
334.2143	0.1206
334.4244	0.118
334.6346	0.1029
334.8447	0.123
335.0548	0.1178
335.2649	0.11
335.475	0.1177
335.685	0.1089
335.8951	0.1216
336.1051	0.1238
336.3152	0.1205
336.5252	0.119
336.7352	0.1204
336.9452	0.1241
337.1552	0.1202
337.3652	0.1232
337.5751	0.1293
337.7851	0.1177
337.995	0.109
338.2049	0.1285
338.4148	0.1129
338.6247	0.1238
338.8346	0.116
339.0445	0.1151
339.2543	0.1139
339.4642	0.1346
339.674	0.1116
339.8838	0.1086
340.0936	0.1192
340.3034	0.1328
340.5132	0.1243
340.7229	0.1182
340.9327	0.1253
341.1424	0.1141
341.3522	0.1251
341.5619	0.125
341.7716	0.1392
341.9813	0.1273
342.1909	0.1272
342.4006	0.1434
342.6102	0.1368
342.8199	0.1322
343.0295	0.1255
343.2391	0.1326
343.4487	0.1214
343.6583	0.1229
343.8679	0.1336
344.0774	0.126
344.287	0.1342
344.4965	0.1199
344.706	0.1299
344.9155	0.1271
345.125	0.1323
345.3345	0.1362
345.544	0.1263
345.7534	0.1368
345.9629	0.1204
346.1723	0.1301
346.3817	0.1286
346.5911	0.1309
346.8005	0.1345
347.0099	0.1433
347.2193	0.1369
347.4286	0.1308
347.638	0.1283
347.8473	0.1482
348.0566	0.1484
348.2659	0.1459
348.4752	0.1309
348.6845	0.1263
348.8937	0.1517
349.103	0.1391
349.3122	0.147
349.5214	0.1307
349.7306	0.1434
349.9398	0.1422
350.149	0.1415
350.3582	0.1383
350.5674	0.1525
350.7765	0.1372
350.9856	0.1368
351.1948	0.1473
351.4039	0.1207
351.613	0.1394
351.822	0.1507
352.0311	0.1416
352.2402	0.153
352.4492	0.1594
352.6582	0.1577
352.8672	0.1514
353.0762	0.1539
353.2852	0.1461
353.4942	0.1361
353.7032	0.1383
353.9121	0.1508
354.1211	0.148
354.33	0.1619
354.5389	0.1516
354.7478	0.1426
354.9567	0.1451
355.1655	0.1416
355.3744	0.1551
355.5833	0.1663
355.7921	0.1758
356.0009	0.1499
356.2097	0.1608
356.4185	0.1675
356.6273	0.166
356.8361	0.166
357.0448	0.1464
357.2536	0.1487
357.4623	0.147
357.671	0.1601
357.8797	0.168
358.0884	0.1599
358.2971	0.1503
358.5057	0.1555
358.7144	0.1575
358.923	0.1642
359.1316	0.1661
359.3402	0.1578
359.5488	0.1605
359.7574	0.155
359.966	0.1629
360.1746	0.1709
360.3831	0.169
360.5916	0.1651
360.8002	0.1497
361.0087	0.1877
361.2172	0.1647
361.4256	0.1687
361.6341	0.1862
361.8426	0.1854
362.051	0.1672
362.2594	0.1721
362.4678	0.178
362.6762	0.2006
362.8846	0.1727
363.093	0.1721
363.3014	0.1833
363.5097	0.163
363.718	0.1741
363.9264	0.1915
364.1347	0.1643
364.343	0.1728
364.5513	0.179
364.7595	0.1964
364.9678	0.1741
365.176	0.1926
365.3842	0.1868
365.5925	0.1834
365.8007	0.1798
366.0089	0.1839
366.217	0.1773
366.4252	0.1912
366.6333	0.203
366.8415	0.2023
367.0496	0.1807
367.2577	0.2081
367.4658	0.1827
367.6739	0.1936
367.882	0.1911
368.09	0.1888
368.2981	0.187
368.5061	0.1819
368.7141	0.209
368.9221	0.2031
369.1301	0.1909
369.3381	0.1978
369.5461	0.1965
369.754	0.1829
369.962	0.2043
370.1699	0.1941
370.3778	0.1924
370.5857	0.1929
370.7936	0.2018
371.0015	0.1989
371.2093	0.2162
371.4172	0.1916
371.625	0.1888
371.8328	0.1984
372.0406	0.1924
372.2484	0.2103
372.4562	0.205
372.664	0.1983
372.8717	0.2075
373.0795	0.1985
373.2872	0.2232
373.4949	0.2036
373.7026	0.2218
373.9103	0.2123
374.118	0.2134
374.3256	0.2218
374.5333	0.1938
374.7409	0.205
374.9485	0.2266
375.1561	0.2141
375.3637	0.2013
375.5713	0.2179
375.7789	0.2083
375.9864	0.2068
376.194	0.1935
376.4015	0.2356
376.609	0.2159
376.8165	0.2187
377.024	0.2134
377.2315	0.2138
377.4389	0.2006
377.6464	0.2306
377.8538	0.2192
378.0612	0.1975
378.2686	0.2241
378.476	0.2247
378.6834	0.2272
378.8908	0.2197
379.0981	0.2133
379.3055	0.226
379.5128	0.2042
379.7201	0.2349
379.9274	0.2068
380.1347	0.2349
380.342	0.2385
380.5492	0.2258
380.7565	0.2376
380.9637	0.2205
381.1709	0.2284
381.3781	0.2162
381.5853	0.2326
381.7925	0.2234
381.9997	0.2293
382.2068	0.2338
382.4139	0.2143
382.6211	0.2152
382.8282	0.2349
383.0353	0.2261
383.2424	0.2159
383.4494	0.2436
383.6565	0.2223
383.8635	0.2242
384.0706	0.2273
384.2776	0.2099
384.4846	0.2339
384.6916	0.2325
384.8986	0.2331
385.1055	0.2131
385.3125	0.2328
385.5194	0.2049
385.7263	0.2509
385.9333	0.2305
386.1402	0.2344
386.347	0.2185
386.5539	0.2209
386.7608	0.2395
386.9676	0.2315
387.1744	0.2201
387.3813	0.2054
387.5881	0.2337
387.7948	0.2089
388.0016	0.2135
388.2084	0.2198
388.4151	0.2145
388.6219	0.2191
388.8286	0.219
389.0353	0.2283
389.242	0.2038
389.4487	0.2111
389.6553	0.1921
389.862	0.2023
390.0686	0.1962
390.2753	0.2138
390.4819	0.2248
390.6885	0.1928
390.8951	0.2189
391.1016	0.2153
391.3082	0.2016
391.5147	0.2125
391.7213	0.2113
391.9278	0.2105
392.1343	0.2049
392.3408	0.1968
392.5473	0.1969
392.7537	0.1832
392.9602	0.203
393.1666	0.2088
393.373	0.1971
393.5794	0.2007
393.7858	0.1994
393.9922	0.1918
394.1986	0.208
394.4049	0.2102
394.6113	0.2032
394.8176	0.184
395.0239	0.2013
395.2302	0.1917
395.4365	0.1983
395.6428	0.195
395.8491	0.1744
396.0553	0.1991
396.2615	0.1956
396.4678	0.1772
396.674	0.168
396.8802	0.1836
397.0863	0.2046
397.2925	0.1909
397.4987	0.1719
397.7048	0.1928
397.9109	0.192
398.117	0.1811
398.3231	0.1812
398.5292	0.1862
398.7353	0.1982
398.9413	0.1879
399.1474	0.1782
399.3534	0.1707
399.5594	0.1667
399.7654	0.1938
399.9714	0.186
400.1774	0.1878
400.3833	0.1706
400.5893	0.1979
400.7952	0.1782
401.0011	0.1752
401.207	0.1757
401.4129	0.1929
401.6188	0.1902
401.8247	0.1846
402.0305	0.1731
402.2364	0.1815
402.4422	0.1876
402.648	0.1884
402.8538	0.2003
403.0596	0.1719
403.2654	0.1881
403.4711	0.1821
403.6768	0.2006
403.8826	0.2054
404.0883	0.1859
404.294	0.2034
404.4997	0.1816
404.7054	0.1824
404.911	0.179
405.1167	0.1826
405.3223	0.194
405.5279	0.2012
405.7335	0.1831
405.9391	0.191
406.1447	0.1787
406.3502	0.2105
406.5558	0.1699
406.7613	0.1743
406.9668	0.1702
407.1724	0.1961
407.3778	0.177
407.5833	0.196
407.7888	0.1595
407.9942	0.2172
408.1997	0.1709
408.4051	0.1803
408.6105	0.1841
408.8159	0.1792
409.0213	0.1758
409.2267	0.1888
409.432	0.1811
409.6374	0.1901
409.8427	0.1858
410.048	0.1877
410.2533	0.17
410.4586	0.1862
410.6639	0.1698
410.8691	0.1786
411.0744	0.1835
411.2796	0.1732
411.4848	0.1779
411.69	0.1776
411.8952	0.1982
412.1004	0.1649
412.3056	0.1958
412.5107	0.1883
412.7158	0.1885
412.921	0.1837
413.1261	0.1642
413.3312	0.1803
413.5362	0.1797
413.7413	0.1692
413.9464	0.1632
414.1514	0.1683
414.3564	0.1598
414.5614	0.1492
414.7664	0.1947
414.9714	0.1836
415.1764	0.1708
415.3813	0.191
415.5863	0.1615
415.7912	0.1798
415.9961	0.1776
416.201	0.179
416.4059	0.1863
416.6108	0.1826
416.8156	0.1763
417.0205	0.1582
417.2253	0.1697
417.4301	0.1796
417.6349	0.1797
417.8397	0.1582
418.0445	0.1792
418.2492	0.1688
418.454	0.1593
418.6587	0.1583
418.8634	0.1906
419.0681	0.1487
419.2728	0.1517
419.4775	0.157
419.6822	0.1491
419.8868	0.1459
420.0915	0.1648
420.2961	0.1443
420.5007	0.1518
420.7053	0.162
420.9099	0.1847
421.1144	0.1676
421.319	0.1543
421.5235	0.1604
421.728	0.1766
421.9325	0.1575
422.137	0.1608
422.3415	0.1698
422.546	0.1567
422.7504	0.1629
422.9549	0.1457
423.1593	0.1654
423.3637	0.1622
423.5681	0.1396
423.7725	0.1522
423.9769	0.1464
424.1812	0.1373
424.3856	0.1528
424.5899	0.1514
424.7942	0.1503
424.9985	0.1346
425.2028	0.1508
425.4071	0.1763
425.6113	0.1433
425.8156	0.1471
426.0198	0.1564
426.224	0.1181
426.4282	0.138
426.6324	0.1494
426.8366	0.1404
427.0407	0.1282
427.2449	0.1392
427.449	0.1251
427.6531	0.1181
427.8572	0.1277
428.0613	0.1286
428.2654	0.1293
428.4694	0.1475
428.6735	0.1426
428.8775	0.1341
429.0815	0.1145
429.2855	0.125
429.4895	0.1389
429.6935	0.1222
429.8975	0.1374
430.1014	0.1159
430.3053	0.1037
430.5093	0.126
430.7132	0.1071
430.9171	0.1095
431.1209	0.1244
431.3248	0.1181
431.5286	0.1228
431.7325	0.1268
431.9363	0.0953
432.1401	0.1255
432.3439	0.122
432.5477	0.0915
432.7514	0.0912
432.9552	0.1209
433.1589	0.09
433.3627	0.1181
433.5664	0.1016
433.7701	0.0995
433.9737	0.0996
434.1774	0.0882
434.3811	0.1037
434.5847	0.0888
434.7883	0.0972
434.9919	0.0742
435.1955	0.0901
435.3991	0.0848
435.6027	0.0808
435.8062	0.0965
436.0098	0.0796
436.2133	0.0799
436.4168	0.0818
436.6203	0.0724
436.8238	0.1045
437.0272	0.0806
437.2307	0.0727
437.4341	0.0876
437.6375	0.0895
437.841	0.067
438.0443	0.0794
438.2477	0.069
438.4511	0.0673
438.6545	0.0801
438.8578	0.0947
439.0611	0.0694
439.2644	0.0828
439.4677	0.0631
439.671	0.0636
439.8743	0.0704
440.0775	0.066
440.2808	0.0497
440.484	0.0531
440.6872	0.0316
440.8904	0.0574
441.0936	0.0897
441.2967	0.0588
441.4999	0.0595
441.703	0.0558
441.9062	0.0485
442.1093	0.052
442.3124	0.0609
442.5155	0.0261
442.7185	0.0447
442.9216	0.0361
443.1246	0.067
443.3276	0.0551
443.5307	0.0423
443.7337	0.0476
443.9366	0.0453
444.1396	0.0549
444.3426	0.0325
444.5455	0.0475
444.7484	0.044
444.9513	0.0403
445.1542	0.0576
445.3571	0.0371
445.56	0.0368
445.7628	0.0207
445.9657	0.0339
446.1685	0.0446
446.3713	0.0481
446.5741	0.0329
446.7769	0.034
446.9797	0.029
447.1824	0.0417
447.3852	0.0306
447.5879	0.0384
447.7906	0.0335
447.9933	0.0336
448.196	0.0177
448.3986	0.0168
448.6013	0.0247
448.8039	0.0152
449.0066	0.0258
449.2092	0.0415
449.4118	0.0202
449.6143	0.0357
449.8169	0.0295
450.0195	0.0193
450.222	0.0024
450.4245	0.0083
450.627	0.0165
450.8295	0.0285
451.032	0.0191
451.2345	0.0359
451.4369	0.0244
451.6394	0.0124
451.8418	-0.0034
452.0442	0.0119
452.2466	0.027
452.449	0.0043
452.6513	0.0333
452.8537	0.0187
453.056	0.0031
453.2583	-0.0027
453.4607	0.0034
453.663	0.0122
453.8652	0.0098
454.0675	-0.0039
454.2697	0.009
454.472	0.0069
454.6742	0.0069
454.8764	0.0077
455.0786	0.0007
455.2808	0.0227
455.4829	0.0139
455.6851	0.0141
455.8872	0.0171
456.0893	0.0128
456.2915	-0.017
456.4935	0.0263
456.6956	-0.004
456.8977	0.007
457.0997	-0.0003
457.3018	-0.0033
457.5038	-0.0026
457.7058	0.0042
457.9078	-0.0067
458.1098	0.021
458.3117	0.0108
458.5137	0.017
458.7156	0.0012
458.9175	-0.0169
459.1194	0.0051
459.3213	0.0122
459.5232	-0.0106
459.725	0.0027
459.9269	-0.0096
460.1287	-0.0094
460.3305	0.0019
460.5323	0.0014
460.7341	0.0032
460.9359	0.0043
461.1376	0.009
461.3394	0.0023
461.5411	-0.0025
461.7428	-0.0117
461.9445	0.0163
462.1462	0.0329
462.3479	-0.0124
462.5495	0.0014
462.7512	0.0067
462.9528	-0.009
463.1544	-0.0044
463.356	-0.0058
463.5576	0.0014
463.7592	0.0046
463.9607	-0.0062
464.1623	0.003
464.3638	0.015
464.5653	-0.006
464.7668	0.0043
464.9683	0.0078
465.1697	0.0097
465.3712	-0.0021
465.5726	-0.0107
465.7741	-0.0146
465.9755	-0.0136
466.1769	-0.0234
466.3782	-0.003
466.5796	-0.0189
466.7809	-0.0011
466.9823	-0.0068
467.1836	-0.0035
467.3849	-0.0057
467.5862	-0.0028
467.7875	-0.0096
467.9887	0.0019
468.19	0.0002
468.3912	-0.0155
468.5924	-0.0078
468.7936	0.0076
468.9948	0.0004
469.196	0.0021
469.3972	-0.0108
469.5983	-0.0053
469.7994	-0.0162
470.0006	-0.0018
470.2017	-0.0188
470.4027	-0.0028
470.6038	0.0009
470.8049	-0.0054
471.0059	-0.0235
471.2069	-0.0308
471.408	0.0017
471.6089	-0.0031
471.8099	-0.0123
472.0109	-0.0044
472.2119	-0.023
472.4128	-0.0232
472.6137	-0.0022
472.8146	-0.0114
473.0155	-0.0044
473.2164	-0.0108
473.4173	-0.0043
473.6181	0.0047
473.819	-0.0013
474.0198	-0.0036
474.2206	-0.0161
474.4214	0.0023
474.6222	-0.0011
474.8229	-0.0008
475.0237	-0.0167
475.2244	-0.0094
475.4251	-0.0118
475.6258	-0.0141
475.8265	-0.002
476.0272	-0.008
476.2278	-0.0086
476.4285	-0.0068
476.6291	-0.0108
476.8297	-0.0183
477.0303	-0.0151
477.2309	-0.0031
477.4315	-0.0225
477.632	-0.0113
477.8326	-0.0123
478.0331	-0.0052
478.2336	0.0047
478.4341	-0.0063
478.6346	-0.0019
478.8351	-0.0167
479.0355	-0.0148
479.236	-0.0278
479.4364	-0.0025
479.6368	-0.012
479.8372	-0.0265
480.0376	0.0028
480.2379	-0.0296
480.4383	-0.0189
480.6386	-0.012
480.8389	-0.0012
481.0392	-0.0092
481.2395	-0.0074
481.4398	-0.0012
481.6401	-0.009
481.8403	-0.0116
482.0405	-0.0129
482.2408	-0.0011
482.441	0.0041
482.6411	-0.0106
482.8413	-0.0115
483.0415	-0.0165
483.2416	-0.0123
483.4417	-0.0031
483.6419	-0.0212
483.8419	-0.0122
484.042	0.0005
484.2421	0
484.4422	-0.0043
484.6422	-0.0156
484.8422	-0.0119
485.0422	-0.0199
485.2422	-0.0012
485.4422	-0.015
485.6422	-0.0168
485.8421	-0.008
486.042	0.0007
486.242	-0.0105
486.4419	-0.0125
486.6417	-0.0124
486.8416	-0.0018
487.0415	-0.0107
487.2413	-0.0086
487.4411	-0.0107
487.641	-0.0119
487.8408	0.0006
488.0405	-0.0111
488.2403	-0.0093
488.4401	0.0013
488.6398	-0.0043
488.8395	-0.0107
489.0392	0.0004
489.2389	-0.02
489.4386	-0.0146
489.6383	-0.0149
489.8379	0.0053
490.0376	-0.0122
490.2372	-0.0133
490.4368	-0.009
490.6364	-0.0121
490.836	-0.0139
491.0355	-0.0069
491.2351	-0.0221
491.4346	-0.0026
491.6341	-0.0169
491.8336	-0.0043
492.0331	-0.0067
492.2326	-0.0115
492.432	-0.0159
492.6315	-0.015
492.8309	-0.0133
493.0303	-0.0226
493.2297	-0.0145
493.4291	-0.0117
493.6284	-0.008
493.8278	-0.0103
494.0271	-0.0083
494.2264	-0.006
494.4257	-0.0141
494.625	-0.0078
494.8243	-0.024
495.0236	-0.0143
495.2228	-0.0249
495.422	-0.0189
495.6213	-0.0172
495.8205	-0.0068
496.0196	0.0026
496.2188	-0.0127
496.418	-0.0209
496.6171	-0.0174
496.8162	-0.0232
497.0153	-0.0085
497.2144	-0.0121
497.4135	-0.0133
497.6126	-0.0065
497.8116	-0.0138
498.0107	-0.0066
498.2097	-0.0101
498.4087	-0.0118
498.6077	-0.0088
498.8067	-0.0079
499.0056	0.002
499.2046	-0.0191
499.4035	-0.0244
499.6024	-0.0056
499.8013	0.0002
500.0002	-0.0196
500.199	-0.0159
500.3979	-0.0104
500.5967	-0.0299
500.7956	-0.0101
500.9944	-0.0068
501.1932	-0.0212
501.3919	-0.0148
501.5907	-0.0187
501.7895	-0.0176
501.9882	-0.0143
502.1869	-0.0091
502.3856	-0.0111
502.5843	-0.0245
502.783	-0.01
502.9816	-0.0138
503.1803	-0.0193
503.3789	-0.0196
503.5775	-0.0047
503.7761	-0.0118
503.9747	-0.0108
504.1732	-0.014
504.3718	-0.0058
504.5703	-0.0166
504.7689	-0.0167
504.9674	-0.0116
505.1658	-0.0165
505.3643	-0.006
505.5628	-0.0166
505.7612	-0.0088
505.9597	0.0025
506.1581	-0.0023
506.3565	-0.0097
506.5549	-0.0142
506.7532	-0.0131
506.9516	-0.0074
507.1499	-0.0091
507.3482	-0.0173
507.5465	-0.0156
507.7448	-0.0133
507.9431	-0.0104
508.1414	-0.006
508.3396	-0.0148
508.5379	-0.0103
508.7361	-0.0167
508.9343	-0.0025
509.1325	0.0007
509.3306	-0.0112
509.5288	-0.0118
509.7269	-0.015
509.9251	-0.0036
510.1232	-0.0093
510.3213	-0.0045
510.5193	-0.0089
510.7174	-0.029
510.9154	-0.0225
511.1135	-0.0241
511.3115	-0.0126
511.5095	-0.0108
511.7075	-0.007
511.9055	-0.02
512.1034	-0.0147
512.3014	-0.0093
512.4993	-0.0034
512.6972	-0.0137
512.8951	-0.0184
513.093	-0.0098
513.2908	-0.0022
513.4887	-0.0052
513.6865	-0.0096
513.8844	-0.01
514.0822	-0.0113
514.2799	-0.0153
514.4777	-0.0172
514.6755	-0.0162
514.8732	-0.0176
515.0709	-0.0112
515.2687	-0.0207
515.4664	-0.0026
515.664	-0.0121
515.8617	-0.013
516.0594	-0.0144
516.257	-0.0122
516.4546	-0.018
516.6522	-0.0063
516.8498	-0.0151
517.0474	-0.0083
517.2449	-0.0087
517.4425	-0.0209
517.64	-0.0055
517.8375	-0.003
518.035	-0.0109
518.2325	-0.0082
518.43	-0.014
518.6274	-0.0159
518.8249	-0.0204
519.0223	-0.0051
519.2197	-0.0091
519.4171	-0.014
519.6145	-0.0141
519.8118	-0.0107
520.0092	-0.0142
520.2065	-0.0144
520.4038	-0.0219
520.6011	-0.0116
520.7984	-0.0225
520.9956	-0.0208
521.1929	-0.0163
521.3901	0.0011
521.5874	-0.014
521.7846	-0.0105
521.9818	-0.0106
522.1789	-0.0183
522.3761	-0.015
522.5732	-0.0154
522.7704	-0.0108
522.9675	-0.0037
523.1646	-0.0168
523.3617	-0.0089
523.5587	-0.0012
523.7558	-0.0091
523.9528	-0.0142
524.1498	-0.0059
524.3468	-0.0129
524.5438	-0.0155
524.7408	-0.0115
524.9378	0.0022
525.1347	-0.0177
525.3316	-0.0104
525.5285	-0.0262
525.7254	-0.0138
525.9223	-0.0042
526.1192	0.0011
526.316	-0.0228
526.5129	-0.0069
526.7097	-0.0097
526.9065	-0.016
527.1033	-0.0186
527.3	0.0009
527.4968	-0.007
527.6935	-0.0102
527.8903	-0.024
528.087	-0.0093
528.2837	-0.01
528.4804	-0.0123
528.677	-0.0122
528.8737	0.0013
529.0703	-0.0126
529.2669	-0.006
529.4635	-0.0109
529.6601	-0.0035
529.8567	-0.0087
530.0532	-0.0178
530.2498	-0.0023
530.4463	-0.0011
530.6428	-0.011
530.8393	0.0005
531.0358	-0.012
531.2322	-0.0152
531.4287	-0.0103
531.6251	-0.0127
531.8215	-0.0059
532.0179	-0.0039
532.2143	-0.0008
532.4107	-0.0114
532.607	-0.008
532.8034	-0.0081
532.9997	-0.0037
533.196	-0.0128
533.3923	-0.0174
533.5886	-0.0067
533.7848	-0.0017
533.9811	-0.0121
534.1773	-0.0025
534.3735	0.0003
534.5697	-0.0051
534.7659	-0.0127
534.9621	-0.0129
535.1582	-0.0039
535.3544	-0.0153
535.5505	-0.0134
535.7466	-0.0098
535.9427	-0.0128
536.1387	-0.0028
536.3348	-0.0096
536.5308	-0.0009
536.7269	-0.013
536.9229	-0.0083
537.1189	-0.0106
537.3148	-0.0027
537.5108	-0.013
537.7068	-0.0097
537.9027	-0.001
538.0986	-0.015
538.2945	-0.0208
538.4904	-0.0108
538.6863	-0.0078
538.8821	0.0011
539.078	-0.0167
539.2738	-0.0046
539.4696	-0.0116
539.6654	-0.0007
539.8611	0.0075
540.0569	-0.0032
540.2526	-0.013
540.4484	-0.0065
540.6441	-0.0018
540.8398	-0.0109
541.0355	0.0035
541.2311	-0.0105
541.4268	-0.0152
541.6224	-0.0062
541.818	-0.0011
542.0136	-0.0101
542.2092	0.0049
542.4048	0.0004
542.6003	0.0048
542.7959	-0.0086
542.9914	-0.0042
543.1869	-0.0074
543.3824	-0.0111
543.5779	-0.0025
543.7734	-0.0004
543.9688	-0.0047
544.1642	0.0025
544.3596	-0.0082
544.555	-0.0059
544.7504	-0.0061
544.9458	-0.0021
545.1411	-0.0077
545.3365	-0.0046
545.5318	-0.0037
545.7271	-0.0013
545.9224	0.0013
546.1177	0.0006
546.3129	-0.0024
546.5081	-0.0114
546.7034	-0.002
546.8986	-0.0115
547.0938	-0.0068
547.289	-0.0115
547.4841	-0.0083
547.6793	0.0027
547.8744	-0.0102
548.0695	-0.0004
548.2646	-0.0078
548.4597	-0.0139
548.6548	-0.0023
548.8498	0.0008
549.0448	-0.001
549.2399	-0.0037
549.4349	0.002
549.6298	-0.005
549.8248	-0.0019
550.0198	0.0012
550.2147	-0.0025
550.4096	-0.0092
550.6045	-0.0076
550.7994	-0.0024
550.9943	-0.0137
551.1892	-0.0141
551.384	-0.0018
551.5788	-0.0136
551.7737	-0.0012
551.9685	-0.005
552.1632	0.0053
552.358	-0.0063
552.5528	-0.0033
552.7475	-0.0037
552.9422	-0.0009
553.1369	-0.0047
553.3316	-0.0002
553.5263	-0.0191
553.7209	0.0023
553.9156	-0.01
554.1102	-0.0063
554.3048	-0.0051
554.4994	0.0046
554.694	-0.0051
554.8885	0.0076
555.0831	-0.0096
555.2776	-0.0142
555.4721	-0.0029
555.6666	-0.007
555.8611	-0.0006
556.0555	-0.0072
556.25	-0.0037
556.4444	-0.0147
556.6388	-0.0014
556.8332	-0.0006
557.0276	0.0029
557.222	-0.0004
557.4163	-0.0076
557.6107	-0.0106
557.805	-0.0013
557.9993	-0.01
558.1936	-0.0025
558.3879	-0.0098
558.5821	-0.0068
558.7764	-0.0014
558.9706	-0.0066
559.1648	0.003
559.359	-0.0083
559.5532	-0.0034
559.7473	-0.0074
559.9415	0.0018
560.1356	-0.0049
560.3297	-0.0206
560.5238	-0.0003
560.7179	-0.0052
560.9119	-0.0024
561.106	0
561.3	-0.0058
561.494	0.001
561.688	0.001
561.882	-0.0132
562.076	-0.0058
562.2699	0.0018
562.4639	-0.0123
562.6578	0.0081
562.8517	-0.0013
563.0456	-0.0019
563.2395	-0.0003
563.4333	-0.009
563.6272	-0.0006
563.821	-0.0049
564.0148	-0.0053
564.2086	-0.0142
564.4024	-0.0057
564.5961	-0.0072
564.7899	0.0021
564.9836	-0.0059
565.1773	-0.0016
565.371	0.0008
565.5647	0.0028
565.7584	-0.0035
565.952	-0.0036
566.1456	0.0039
566.3393	0.0013
566.5329	-0.0088
566.7264	-0.0002
566.92	-0.0099
567.1136	-0.0026
567.3071	-0.0036
567.5006	0.0002
567.6941	-0.0012
567.8876	-0.0003
568.0811	-0.0035
568.2745	0.0028
568.468	0.0059
568.6614	-0.0025
568.8548	-0.0065
569.0482	-0.0069
569.2416	-0.0031
569.4349	-0.0051
569.6283	0.0003
569.8216	-0.0065
570.0149	-0.0071
570.2082	0.0052
570.4015	0.0044
570.5947	0.0016
570.788	0.0046
570.9812	-0.0025
571.1744	0.0002
571.3676	-0.0146
571.5608	0.0009
571.754	-0.0027
571.9471	-0.0047
572.1402	0.0016
572.3333	-0.0026
572.5264	-0.0025
572.7195	-0.0025
572.9126	0.0042
573.1057	-0.005
573.2987	-0.0002
573.4917	0.0067
573.6847	-0.0078
573.8777	0.0093
574.0707	0.0023
574.2636	-0.0068
574.4566	-0.0005
574.6495	0.0058
574.8424	-0.0032
575.0353	-0.0012
575.2281	0.012
575.421	0.003
575.6138	0.0012
575.8067	-0.0018
575.9995	0.0011
576.1923	0.0056
576.385	-0.0021
576.5778	-0.0034
576.7706	0.0013
576.9633	-0.0037
577.156	-0.0004
577.3487	0.0009
577.5414	-0.0071
577.734	-0.0043
577.9267	-0.0027
578.1193	-0.0127
578.3119	-0.0051
578.5045	0.0013
578.6971	-0.0007
578.8897	0.0005
579.0822	0.0009
579.2747	0.0044
579.4673	-0.0039
579.6598	-0.002
579.8522	0.0024
580.0447	-0.0003
580.2372	0.001
580.4296	0.0009
580.622	-0.0036
580.8144	-0.0038
581.0068	-0.0016
581.1992	-0.0143
581.3915	-0.0041
581.5839	-0.009
581.7762	-0.0086
581.9685	-0.0029
582.1608	0.0014
582.353	-0.0032
582.5453	-0.0042
582.7375	-0.0014
582.9298	0.0036
583.122	-0.0034
583.3142	-0.0003
583.5063	0.0029
583.6985	0.0032
583.8906	-0.005
584.0827	-0.0082
584.2749	0.0075
584.4669	-0.0005
584.659	-0.0015
584.8511	-0.0008
585.0431	-0.0068
585.2352	0.0004
585.4272	-0.0024
585.6192	0.0044
585.8111	-0.0008
586.0031	-0.0001
586.195	0.0022
586.387	0.0067
586.5789	-0.0081
586.7708	-0.0032
586.9627	-0.0017
587.1545	-0.0063
587.3464	0.0026
587.5382	0.0026
587.73	-0.003
587.9218	0.0018
588.1136	-0.0055
588.3053	0.0056
588.4971	-0.0045
588.6888	-0.0084
588.8805	-0.0031
589.0722	-0.0004
589.2639	-0.0014
589.4556	-0.0009
589.6472	-0.0026
589.8389	-0.0062
590.0305	-0.0125
590.2221	-0.0053
590.4137	-0.0075
590.6052	0.0048
590.7968	0.0021
590.9883	0.0001
591.1798	-0.004
591.3713	-0.002
591.5628	0.0042
591.7543	0.0025
591.9458	0.0012
592.1372	0.0064
592.3286	0.0128
592.52	0.0043
592.7114	-0.0022
592.9028	-0.002
593.0941	-0.0014
593.2855	-0.0021
593.4768	-0.0078
593.6681	0.0007
593.8594	-0.0026
594.0506	0.0046
594.2419	0.0057
594.4331	0.001
594.6244	0.0065
594.8156	-0.0024
595.0067	0.0055
595.1979	0.0044
595.3891	0.0031
595.5802	-0.0034
595.7713	-0.0088
595.9624	0.0026
596.1535	0.0044
596.3446	-0.0022
596.5357	-0.0002
596.7267	0.0035
596.9177	-0.0002
597.1087	-0.0087
597.2997	-0.0015
597.4907	0.003
597.6817	-0.0012
597.8726	-0.0021
598.0635	-0.0035
598.2544	-0.0014
598.4453	-0.0002
598.6362	-0.0038
598.827	0.0011
599.0179	0.0006
599.2087	-0.0006
599.3995	-0.0009
599.5903	0.0012
599.7811	0.0019
599.9718	-0.0086
600.1626	-0.0072
600.3533	-0.0092
600.544	0.0038
600.7347	0.001
600.9254	0.0049
601.116	-0.0063
601.3067	-0.0025
601.4973	0.0014
601.6879	0.0023
601.8785	-0.0061
602.0691	0.0024
602.2596	-0.0002
602.4502	-0.0017
602.6407	-0.0026
602.8312	-0.0028
603.0217	-0.0041
603.2122	-0.0025
603.4027	-0.0052
603.5931	0.0023
603.7835	-0.0018
603.9739	-0.0036
604.1643	-0.002
604.3547	-0.005
604.5451	0.0004
604.7354	-0.0067
604.9257	-0.0019
605.116	-0.0114
605.3063	-0.0009
605.4966	-0.0017
605.6869	0.0036
605.8771	0.0034
606.0673	0.0017
606.2575	0.003
606.4477	0.0012
606.6379	0.0056
606.8281	-0.0065
607.0182	0.0048
607.2083	0.0091
607.3985	-0.0042
607.5885	0.0001
607.7786	0.0009
607.9687	-0.0061
608.1587	0.0018
608.3488	0.0013
608.5388	0.0024
608.7288	0.0013
608.9187	-0.0045
609.1087	-0.007
609.2986	-0.0037
609.4886	-0.0004
609.6785	-0.0022
609.8684	0.006
610.0582	0.0032
610.2481	-0.0014
610.4379	-0.0001
610.6278	-0.007
610.8176	-0.0065
611.0074	-0.001
611.1971	-0.0074
611.3869	-0.0024
611.5766	-0.0057
611.7664	0.0057
611.9561	0.007
612.1458	0
612.3354	-0.0058
612.5251	-0.0007
612.7147	0.0032
612.9044	0.0042
613.094	-0.0079
613.2836	0.0006
613.4731	-0.0069
613.6627	-0.0069
613.8522	0.0011
614.0417	0.0061
614.2313	-0.0044
614.4207	-0.0091
614.6102	-0.0041
614.7997	-0.0052
614.9891	-0.0051
615.1785	-0.0023
615.3679	-0.0019
615.5573	0.0112
615.7467	0.0002
615.9361	-0.0039
616.1254	-0.0098
616.3147	0.0065
616.504	-0.0014
616.6933	-0.0018
616.8826	0.0087
617.0718	-0.0001
617.2611	-0.0035
617.4503	0.0019
617.6395	-0.0009
617.8287	-0.0017
618.0179	0.0031
618.207	0.0047
618.3961	0.0026
618.5853	0.0009
618.7744	0.0057
618.9634	0.0009
619.1525	0.0051
619.3416	0.0019
619.5306	0.01
619.7196	-0.0047
619.9086	0.0051
620.0976	0.0084
620.2866	0.0006
620.4755	0.0076
620.6645	0.0023
620.8534	0.003
621.0423	0.0039
621.2312	0.0028
621.42	0.0005
621.6089	-0.0046
621.7977	0.0013
621.9865	-0.0034
622.1753	0.0034
622.3641	-0.0023
622.5529	0.0014
622.7416	0.0104
622.9303	0.0008
623.1191	0.005
623.3078	-0.0063
623.4964	0.008
623.6851	-0.0035
623.8737	-0.0025
624.0624	0.0046
624.251	0.0053
624.4396	0.0021
624.6282	-0.0051
624.8167	0.0038
625.0053	0.0038
625.1938	0.002
625.3823	-0.0005
625.5708	-0.0023
625.7593	-0.0033
625.9477	-0.0049
626.1362	-0.0054
626.3246	0.0089
626.513	0.0055
626.7014	0.0033
626.8898	0.0031
627.0781	-0.0005
627.2665	-0.0051
627.4548	0.0046
627.6431	0.0056
627.8314	-0.0015
628.0197	0.0124
628.2079	-0.0053
628.3962	0.0002
628.5844	0.0059
628.7726	-0.0023
628.9608	0.0099
629.1489	-0.0012
629.3371	0.0035
629.5252	-0.0047
629.7134	0.0025
629.9015	-0.0005
630.0895	0.0002
630.2776	0.001
630.4657	0.0044
630.6537	-0.0061
630.8417	-0.0064
631.0297	-0.0023
631.2177	-0.0018
631.4057	-0.0081
631.5936	0.0008
631.7815	0.0022
631.9695	0.0018
632.1574	0.0042
632.3452	0.008
632.5331	-0.001
632.7209	-0.0074
632.9088	0.0046
633.0966	0.0048
633.2844	-0.0053
633.4722	0.0034
633.6599	0.0026
633.8477	0.0017
634.0354	0.0035
634.2231	0.0007
634.4108	-0.0058
634.5985	0.0046
634.7861	-0.0017
634.9738	-0.0058
635.1614	-0.0043
635.349	0.0033
635.5366	0.0033
635.7242	0.004
635.9117	0.0023
636.0993	-0.0034
636.2868	0.0083
636.4743	-0.0024
636.6618	0.009
636.8492	0.0054
637.0367	0.0018
637.2241	-0.0002
637.4115	-0.002
637.5989	-0.0017
637.7863	0.005
637.9737	-0.0057
638.161	0.0019
638.3484	-0.0045
638.5357	0.0083
638.723	-0.0045
638.9103	-0.0035
639.0975	0.0004
639.2848	0.0008
639.472	-0.0026
639.6592	0.0076
639.8464	0.0028
640.0336	0.0052
640.2208	-0.0071
640.4079	-0.0037
640.595	0.002
640.7821	0.0021
640.9692	0.0013
641.1563	0.0004
641.3434	-0.0001
641.5304	-0.0041
641.7174	-0.002
641.9044	0.003
642.0914	0.0029
642.2784	-0.003
642.4653	0.0094
642.6523	0.0018
642.8392	-0.0032
643.0261	0.0032
643.213	0.0064
643.3999	-0.009
643.5867	-0.0101
643.7735	0.0009
643.9604	-0.0083
644.1472	0.0009
644.3339	-0.0037
644.5207	-0.0015
644.7075	-0.0046
644.8942	-0.0026
645.0809	-0.0024
645.2676	-0.0008
645.4543	-0.002
645.6409	0.0027
645.8276	-0.0002
646.0142	0.0043
646.2008	-0.0066
646.3874	-0.0079
646.574	-0.0071
646.7605	-0.0039
646.9471	-0.0067
647.1336	-0.002
647.3201	0.0067
647.5066	-0.0002
647.6931	0.0009
647.8795	-0.0011
648.0659	0.0053
648.2524	-0.0002
648.4388	-0.0024
648.6252	0.0002
648.8115	-0.0037
648.9979	-0.0059
649.1842	-0.0038
649.3705	0.0013
649.5568	-0.0002
649.7431	0.0012
649.9294	-0.0046
650.1156	0.0008
650.3018	-0.0043
650.488	0.0002
650.6742	-0.0012
650.8604	0.0046
651.0466	-0.0039
651.2327	0.0083
651.4188	-0.0052
651.6049	-0.0058
651.791	-0.0042
651.9771	0.0023
652.1632	0.0003
652.3492	0.0003
652.5352	-0.0058
652.7212	-0.0034
652.9072	0.0011
653.0932	-0.0064
653.2791	-0.0028
653.465	-0.0073
653.651	-0.009
653.8369	-0.0104
654.0227	-0.0052
654.2086	0.0043
654.3944	-0.0009
654.5803	-0.0055
654.7661	-0.0005
654.9519	-0.0022
655.1377	-0.0047
655.3234	-0.0057
655.5092	-0.0093
655.6949	-0.0058
655.8806	-0.0049
656.0663	0.0028
656.2519	-0.0006
656.4376	-0.0085
656.6232	-0.0035
656.8088	-0.0039
656.9945	-0.0035
657.18	-0.0047
657.3656	-0.002
657.5511	-0.0046
657.7367	-0.0044
657.9222	0.0016
658.1077	-0.0025
658.2932	0.0044
658.4786	-0.0031
658.6641	-0.0092
658.8495	-0.0052
659.0349	-0.0078
659.2203	-0.0001
659.4057	0.001
659.591	-0.0005
659.7764	-0.0109
659.9617	-0.003
660.147	-0.003
660.3323	0.0023
660.5176	0.0064
660.7028	0.0041
660.888	0.0078
661.0733	-0.0048
661.2585	-0.0061
661.4436	-0.0089
661.6288	-0.0067
661.8139	-0.0021
661.9991	0.0054
662.1842	-0.0073
662.3693	-0.0058
662.5544	-0.0116
662.7394	-0.0046
662.9245	0.0006
663.1095	-0.0028
663.2945	-0.0043
663.4795	-0.0007
663.6644	0.0033
663.8494	-0.0068
664.0343	0.0021
664.2193	-0.0035
664.4042	-0.0013
664.589	-0.003
664.7739	0.0006
664.9587	-0.0083
665.1436	0.0009
665.3284	-0.0016
665.5132	0.0013
665.698	0.0007
665.8827	0.0086
666.0675	0.0049
666.2522	-0.0061
666.4369	0.0044
666.6216	0.001
666.8063	-0.0066
666.9909	-0.0075
667.1756	-0.0044
667.3602	-0.0005
667.5448	-0.0044
667.7294	0.0031
667.9139	0.0014
668.0985	0.0084
668.283	-0.0033
668.4675	0.0052
668.652	-0.0052
668.8365	-0.0062
669.0209	0.0092
669.2054	0.0034
669.3898	-0.0026
669.5742	0.0013
669.7586	0.0055
669.943	0.0073
670.1273	0.0036
670.3117	-0.0009
670.496	0.0076
670.6803	0.0084
670.8646	0.0039
671.0488	-0.0042
671.2331	0.0147
671.4173	0.005
671.6015	0.0031
671.7857	0.0071
671.9699	0.0042
672.1541	0.01
672.3382	0.0022
672.5223	0.0066
672.7064	-0.0015
672.8905	0.004
673.0746	-0.0048
673.2587	-0.0014
673.4427	0.0029
673.6267	0.0043
673.8107	0.0074
673.9947	-0.0035
674.1787	0.0036
674.3626	-0.0135
674.5465	0.001
674.7304	0.001
674.9143	0.0095
675.0982	0.005
675.2821	-0.0017
675.4659	0.0056
675.6497	-0.0001
675.8335	0.0044
676.0173	0.0005
676.2011	-0.0012
676.3849	-0.0002
676.5686	-0.004
676.7523	0.0012
676.936	-0.0071
677.1197	-0.0049
677.3034	-0.0022
677.487	0.0046
677.6706	-0.0004
677.8542	0.0023
678.0378	-0.0011
678.2214	0.0002
678.405	0.0033
678.5885	-0.0057
678.772	0.0007
678.9555	-0.0047
679.139	0.001
679.3225	-0.0078
679.5059	-0.0043
679.6894	0.0059
679.8728	-0.0016
680.0562	-0.0147
680.2395	-0.003
680.4229	-0.0035
680.6062	0.0025
680.7896	-0.0079
680.9729	-0.0075
681.1562	-0.0012
681.3394	-0.0037
681.5227	-0.0115
681.7059	-0.0104
681.8891	-0.0016
682.0723	0.0038
682.2555	-0.0017
682.4387	-0.006
682.6218	-0.0107
682.805	0.0026
682.9881	-0.0018
683.1712	0
683.3542	0.0005
683.5373	0.0032
683.7203	-0.0049
683.9034	-0.0028
684.0864	-0.0107
684.2694	-0.0006
684.4523	0.0023
684.6353	-0.0027
684.8182	-0.0003
685.0011	-0.002
685.184	-0.0015
685.3669	-0.0059
685.5498	0.0029
685.7326	0.0042
685.9154	-0.0104
686.0982	0.0063
686.281	0.0061
686.4638	0.0012
686.6465	0.0043
686.8293	-0.0027
687.012	0.0046
687.1947	-0.0037
687.3774	0.0006
687.56	0.0007
687.7427	0.0065
687.9253	-0.0075
688.1079	-0.0002
688.2905	0.0099
688.4731	-0.0029
688.6556	-0.0101
688.8382	-0.0037
689.0207	-0.0055
689.2032	-0.0052
689.3857	-0.0057
689.5681	0.0046
689.7506	-0.0022
689.933	-0.0058
690.1154	0.0029
690.2978	-0.0074
690.4802	0.0024
690.6626	-0.0064
690.8449	-0.0088
691.0272	0.0013
691.2095	-0.0059
691.3918	-0.0039
691.5741	-0.0053
691.7563	-0.0061
691.9386	0.0044
692.1208	-0.003
692.303	0.0004
692.4852	0.0016
692.6673	-0.0029
692.8495	-0.0015
693.0316	-0.0029
693.2137	-0.0041
693.3958	0.0029
693.5778	0.002
693.7599	-0.0008
693.9419	0.0057
694.1239	0.004
694.3059	0.0032
694.4879	0.008
694.6699	0.0084
694.8518	-0.0042
695.0337	-0.0053
695.2157	0.0071
695.3975	-0.0004
695.5794	-0.0045
695.7613	-0.0002
695.9431	-0.0072
696.1249	0.0084
696.3067	0.0029
696.4885	0.0041
696.6703	-0.0083
696.852	0.003
697.0337	-0.0017
697.2154	-0.0097
697.3971	-0.0009
697.5788	-0.0045
697.7605	-0.0001
697.9421	-0.0033
698.1237	-0.0019
698.3053	0.0001
698.4869	-0.0101
698.6685	-0.0161
698.85	-0.0065
699.0315	0.0035
699.213	-0.0067
699.3945	-0.0008
699.576	0.0057
699.7575	0.0066
699.9389	0.0124
700.1203	-0.0042
700.3017	-0.0013
700.4831	-0.0033
700.6645	0.0039
700.8458	0.0024
701.0271	0.0003
701.2084	0.0113
701.3897	-0.0021
701.571	-0.0009
701.7523	-0.0025
701.9335	0.0006
702.1147	-0.0041
702.2959	-0.0051
702.4771	-0.0039
702.6583	0.0074
702.8394	-0.0047
703.0205	-0.0007
703.2016	-0.0083
703.3827	-0.0003
703.5638	0.004
703.7449	0.0016
703.9259	0.0105
704.1069	-0.0049
704.2879	0.0043
704.4689	0.003
704.6499	0.0027
704.8308	0.0038
705.0117	0.0002
705.1927	0.0112
705.3735	-0.0043
705.5544	-0.0097
705.7353	-0.0034
705.9161	-0.0035
706.0969	0.0012
706.2777	-0.0012
706.4585	-0.0037
706.6393	0.002
706.82	-0.0042
707.0007	-0.001
707.1815	0.0012
707.3621	0.0066
707.5428	0.0001
707.7235	0.0104
707.9041	-0.0019
708.0847	-0.0107
708.2653	-0.0036
708.4459	-0.0077
708.6265	0.0035
708.807	0.0001
708.9875	-0.0058
709.168	-0.0043
709.3485	-0.0038
709.529	0.0014
709.7095	-0.0069
709.8899	-0.0046
710.0703	-0.0169
710.2507	0.0018
710.4311	-0.003
710.6115	-0.0067
710.7918	-0.0069
710.9721	-0.0055
711.1524	-0.0096
711.3327	-0.0047
711.513	-0.0028
711.6932	-0.0042
711.8735	-0.0029
712.0537	-0.0015
712.2339	-0.0054
712.4141	-0.0114
712.5942	-0.0088
712.7744	-0.0099
712.9545	-0.0166
713.1346	-0.0051
713.3147	-0.0097
713.4947	-0.0101
713.6748	-0.001
713.8548	-0.0012
714.0348	-0.0046
714.2148	-0.0032
714.3948	0.0064
714.5748	-0.0082
714.7547	-0.0032
714.9346	-0.0006
715.1145	-0.0092
715.2944	-0.0107
715.4743	-0.0004
715.6541	-0.0049
715.834	-0.0051
716.0138	-0.0074
716.1936	-0.011
716.3733	0.0027
716.5531	-0.0041
716.7328	-0.0026
716.9126	-0.0079
717.0923	-0.002
717.2719	0.0019
717.4516	0.0006
717.6312	0.0047
717.8109	-0.0108
717.9905	-0.0038
718.1701	-0.0022
718.3496	-0.0107
718.5292	0.0018
718.7087	0.0005
718.8882	-0.003
719.0677	0.005
719.2472	-0.0014
719.4267	-0.0061
719.6061	0.0005
719.7856	0.0002
719.965	-0.0005
720.1443	-0.0103
720.3237	0.0057
720.5031	0.0025
720.6824	0.0051
720.8617	0.0042
721.041	0.01
721.2203	0.0095
721.3995	-0.001
721.5788	0.0105
721.758	0.0135
721.9372	0.0019
722.1164	0.0012
722.2956	0.005
722.4747	-0.0002
722.6538	-0.008
722.8329	0.0166
723.012	0.0052
723.1911	0.0062
723.3702	-0.0003
723.5492	0.0013
723.7282	0.0038
723.9072	-0.0012
724.0862	-0.003
724.2652	-0.0009
724.4441	-0.0003
724.623	-0.0033
724.8019	-0.0055
724.9808	-0.0019
725.1597	-0.0043
725.3385	-0.0028
725.5174	0.007
725.6962	-0.0031
725.875	-0.0014
726.0538	0.0041
726.2325	0.0001
726.4112	0.003
726.59	-0.0091
726.7687	-0.0098
726.9474	0.0034
727.126	-0.0158
727.3047	-0.006
727.4833	-0.0033
727.6619	-0.0096
727.8405	-0.0108
728.0191	-0.0023
728.1976	0.0001
728.3762	-0.0023
728.5547	-0.0013
728.7332	-0.0209
728.9116	0.0026
729.0901	0.0059
729.2686	-0.0099
729.447	-0.0094
729.6254	-0.0009
729.8038	-0.0023
729.9821	-0.0132
730.1605	0.0072
730.3388	-0.0005
730.5171	0.0022
730.6954	-0.0088
730.8737	0.0017
731.0519	0.0016
731.2302	0.0014
731.4084	0.0113
731.5866	0.0067
731.7648	-0.0082
731.9429	-0.0047
732.1211	-0.0008
732.2992	0.0025
732.4773	-0.0024
732.6554	0.0014
732.8335	-0.0019
733.0115	-0.0011
733.1896	0.0092
733.3676	-0.0085
733.5456	0.0034
733.7235	0.0033
733.9015	-0.0005
734.0794	0.003
734.2574	0.0016
734.4353	0.0033
734.6131	0.0092
734.791	0.0001
734.9689	-0.0005
735.1467	-0.0003
735.3245	-0.0166
735.5023	-0.0132
735.68	-0.0061
735.8578	-0.0027
736.0355	-0.0186
736.2132	-0.0108
736.3909	-0.003
736.5686	-0.0162
736.7463	0.0057
736.9239	0.0015
737.1015	-0.0063
737.2791	0.0067
737.4567	-0.0001
737.6343	-0.0049
737.8118	-0.001
737.9894	-0.0119
738.1669	-0.0057
738.3444	-0.0042
738.5218	0.0057
738.6993	-0.0011
738.8767	-0.0068
739.0541	0.0092
739.2315	-0.0079
739.4089	-0.0081
739.5863	0.0062
739.7636	-0.0109
739.9409	-0.0048
740.1182	-0.0048
740.2955	-0.0016
740.4728	-0.0007
740.65	-0.004
740.8272	0.0035
741.0044	-0.0059
741.1816	-0.0038
741.3588	-0.0034
741.5359	-0.0034
741.7131	-0.0126
741.8902	-0.0001
742.0673	-0.0103
742.2444	-0.0121
742.4214	-0.0168
742.5985	-0.0115
742.7755	-0.0083
742.9525	-0.0228
743.1295	0.0012
743.3064	-0.0051
743.4834	0.0033
743.6603	-0.0093
743.8372	-0.0048
744.0141	0.0012
744.191	-0.0078
744.3678	-0.0082
744.5446	-0.0104
744.7215	-0.0031
744.8982	-0.0052
745.075	-0.0085
745.2518	0.0018
745.4285	0.0019
745.6052	-0.0036
745.7819	-0.0035
745.9586	-0.0047
746.1353	0.0068
746.3119	-0.0047
746.4885	0.0024
746.6651	0.0002
746.8417	0.0061
747.0183	0.0077
747.1948	-0.0039
747.3714	0.0056
747.5479	0.0086
747.7244	-0.0056
747.9008	0.0263
748.0773	0.0026
748.2537	-0.0111
748.4301	-0.0056
748.6065	0.0004
748.7829	-0.0021
748.9593	-0.0076
749.1356	0.0112
749.3119	0.0048
749.4882	-0.0047
749.6645	0.008
749.8408	-0.003
750.017	-0.0064
750.1933	0.0107
750.3695	-0.004
750.5457	0.0046
750.7218	-0.0006
750.898	0.0088
751.0741	0.0066
751.2502	-0.0029
751.4263	0.0009
751.6024	0.0122
751.7784	-0.0061
751.9545	-0.0028
752.1305	-0.0005
752.3065	-0.0018
752.4825	-0.0017
752.6584	-0.013
752.8344	-0.0096
753.0103	-0.0077
753.1862	-0.0078
753.3621	-0.0032
753.5379	-0.0097
753.7138	-0.01
753.8896	-0.0057
754.0654	0.0023
754.2412	0.0037
754.417	-0.0012
754.5927	-0.0012
754.7685	-0.0078
754.9442	-0.0038
755.1199	0.0128
755.2956	-0.0021
755.4712	0.0026
755.6469	-0.0058
755.8225	-0.0017
755.9981	-0.0089
756.1736	-0.0001
756.3492	-0.0053
756.5248	-0.0039
756.7003	-0.0078
756.8758	-0.0006
757.0513	-0.0041
757.2267	-0.0087
757.4022	0.0015
757.5776	-0.007
757.753	-0.0026
757.9284	-0.0114
758.1038	0.0076
758.2791	0.0034
758.4545	-0.0124
758.6298	0.0078
758.8051	0.0029
758.9803	-0.0039
759.1556	0.0097
759.3308	0.0043
759.506	0.0106
759.6812	0.0118
759.8564	0.0122
760.0316	0.0018
760.2067	0.0106
760.3819	0.0036
760.557	0.0059
760.732	0.0011
760.9071	-0.0137
761.0821	-0.0026
761.2572	0.0082
761.4322	-0.0057
761.6072	-0.0052
761.7821	-0.0055
761.9571	-0.0025
762.132	-0.0116
762.3069	-0.017
762.4818	-0.011
762.6567	-0.0105
762.8316	-0.0091
763.0064	-0.0063
763.1812	0.0065
763.356	-0.0093
763.5308	-0.0003
763.7055	-0.0052
763.8803	0.0024
764.055	-0.0037
764.2297	-0.0013
764.4044	-0.0071
764.579	-0.0087
764.7537	-0.0163
764.9283	0.0005
765.1029	-0.0063
765.2775	-0.018
765.4521	-0.0032
765.6266	-0.0054
765.8011	-0.0028
765.9756	-0.0029
766.1501	0.0023
766.3246	0.0094
766.4991	-0.008
766.6735	-0.0029
766.8479	-0.006
767.0223	0.0197
767.1967	-0.0023
767.371	0.002
767.5454	-0.0109
767.7197	0.0104
767.894	-0.0008
768.0683	-0.0062
768.2425	0.0074
768.4168	0.0022
768.591	0.0068
768.7652	0.0108
768.9394	0.0007
769.1135	0.0003
769.2877	0.0079
769.4618	-0.0062
769.6359	0.0004
769.81	0.0075
769.984	-0.0047
770.1581	-0.0116
770.3321	0.0042
770.5061	-0.0045
770.6801	-0.0051
770.8541	0.0001
771.028	0.0004
771.202	-0.015
771.3759	0.0088
771.5498	0.0084
771.7236	0.0062
771.8975	0.0073
772.0713	0.0054
772.2451	0.0014
772.4189	0.0106
772.5927	0.0095
772.7665	-0.0019
772.9402	0.0082
773.1139	-0.0094
773.2876	-0.0022
773.4613	0.005
773.635	0.0109
773.8086	-0.0207
773.9822	-0.0078
774.1558	0.0015
774.3294	-0.0078
774.503	0.0034
774.6765	-0.0091
774.8501	-0.0085
775.0236	0.0043
775.1971	0.0056
775.3705	-0.0096
775.544	-0.0057
775.7174	-0.0145
775.8908	-0.0012
776.0642	-0.0019
776.2376	-0.0009
776.4109	-0.0043
776.5843	-0.0106
776.7576	0.011
776.9309	-0.0027
777.1041	-0.0032
777.2774	0.0101
777.4506	-0.0037
777.6238	-0.0045
777.797	-0.0064
777.9702	-0.006
778.1434	0.0036
778.3165	-0.0149
778.4896	-0.0128
778.6627	0.0053
778.8358	0.0036
779.0089	-0.0001
779.1819	-0.0002
779.3549	0.0148
779.5279	0.0117
779.7009	0.0023
779.8739	-0.0036
780.0468	-0.0059
780.2197	-0.0012
780.3926	-0.003
780.5655	-0.0113
780.7384	-0.0061
780.9112	0.0074
781.0841	-0.0089
781.2569	-0.0052
781.4297	0.0012
781.6024	0.0032
781.7752	-0.0062
781.9479	0.002
782.1206	0.0013
782.2933	-0.0072
782.466	0.0037
782.6386	0.0043
782.8113	-0.0015
782.9839	0.0042
783.1565	0.0125
783.329	-0.0002
783.5016	0.0082
783.6741	-0.0038
783.8466	-0.0171
784.0191	0.0155
784.1916	-0.0115
784.3641	0.0027
784.5365	0.0124
784.7089	-0.0156
784.8813	0.0027
785.0537	-0.0078
785.2261	-0.01
785.3984	-0.0155
785.5707	0.0055
785.743	-0.005
785.9153	-0.0121
786.0876	0.01
786.2598	-0.0038
786.432	-0.0172
786.6042	-0.0012
786.7764	-0.0118
786.9486	-0.0045
787.1207	-0.0184
787.2928	0.0023
787.4649	0.0068
787.637	-0.0088
787.8091	0.004
787.9811	-0.0061
788.1532	0.0014
788.3252	0.0042
788.4972	0.0037
788.6691	0.0017
788.8411	-0.002
789.013	-0.0098
789.1849	0.0076
789.3568	-0.0089
789.5287	-0.0036
789.7005	-0.0172
789.8723	0.0144
790.0442	0.0135
790.2159	0.0067
790.3877	0.0025
790.5595	-0.0147
790.7312	0.0055
790.9029	0.0077
791.0746	-0.0103
791.2463	-0.0012
791.4179	0.0071
791.5896	-0.0144
791.7612	0.0106
791.9328	0.0123
792.1044	-0.0067
792.2759	-0.0071
792.4474	-0.011
792.619	-0.0031
792.7905	0.0002
792.9619	0.0135
793.1334	0.0077
793.3048	0.0094
793.4762	-0.0042
793.6476	0.0082
793.819	0.0002
793.9904	-0.001
794.1617	0.0041
794.333	-0.0109
794.5043	-0.0025
794.6756	0.0051
794.8469	-0.0001
795.0181	0.0013
795.1893	-0.0113
795.3605	0.0192
795.5317	-0.0028
795.7029	-0.0095
795.874	-0.0104
796.0452	-0.0003
796.2163	0.0092
796.3873	0.0102
796.5584	0.0111
796.7294	-0.0023
796.9005	0.0275
797.0715	0.0153
797.2425	-0.0156
797.4134	-0.0091
797.5844	0.0102
797.7553	-0.0232
797.9262	-0.0078
798.0971	-0.0075
798.2679	-0.0116
798.4388	-0.0252
798.6096	-0.0036
798.7804	0.0263
798.9512	0.0026
799.122	-0.0066
799.2927	0.0079
799.4635	0.0313
799.6342	-0.0227
799.8049	0.0033
799.9755	-0.0132
800.1462	0.0008
800.3168	-0.0007
800.4874	-0.0055
800.658	0.0158
800.8286	-0.0015
800.9991	0.0082
801.1696	0.0159
801.3402	0.0153
801.5106	0.0025
801.6811	0.0084
801.8516	0.0227
802.022	0.0025
802.1924	0.0123
802.3628	0.012
802.5332	0.0131
802.7035	0.0188
802.8739	-0.0004
803.0442	-0.0028
803.2145	0.0111
803.3847	0.0007
803.555	0.0056
803.7252	-0.0037
803.8954	-0.0057
804.0656	-0.0107
804.2358	0.0126
804.4059	0.0226
804.5761	0.0167
804.7462	0.0007
804.9163	0.0046
805.0864	-0.0093
805.2564	0.0014
805.4264	0.0157
805.5965	0.0066
805.7665	0.0175
805.9364	0.0007
806.1064	0.041
806.2763	0.0111
806.4462	0.0113
806.6161	0.0088
806.786	0.0201
806.9559	0.0062
807.1257	0.013
807.2955	0.0145
807.4653	0.0069
807.6351	0.006
807.8048	-0.0002
807.9746	0.0086
808.1443	0.0157
808.314	0.0105
808.4837	-0.0116
808.6533	0.0068
808.8229	0.027
808.9926	0.0003
809.1622	0.0003
809.3317	-0.0022
809.5013	0.0295
809.6708	0.0127
809.8403	0.0265
810.0098	0.0116
810.1793	0.0129
810.3488	-0.0037
810.5182	-0.0044
810.6876	0.0123
810.857	0.0089
811.0264	0.0294
811.1958	0.0117
811.3651	0.0215
811.5344	0.02
811.7037	0.0006
811.873	0.0017
812.0422	-0.0057
812.2115	-0.0026
812.3807	-0.0002
812.5499	0.0327
812.7191	0.0084
812.8882	0.0084
813.0574	0.0195
813.2265	0.0069
813.3956	0.0011
813.5646	0.0037
813.7337	0.0133
813.9027	0.0306
814.0718	0.0177
814.2407	0.0353
814.4097	0.0085
814.5787	-0.0109
814.7476	0.0023
814.9165	0.0088
815.0854	0.0154
815.2543	-0.0116
815.4232	0.0126
815.592	0.0231
815.7608	0.0096
815.9296	0.0144
816.0984	0.0282
816.2671	-0.0032
816.4359	-0.0015
816.6046	0.0115
816.7733	-0.0006
816.942	0.0001
817.1106	0.0107
817.2793	0.0173
817.4479	0.0285
817.6165	0.0047
817.785	-0.0068
817.9536	0.009
818.1221	0.0069
818.2906	0.0288
818.4591	0.0047
818.6276	0.0205
818.7961	0.0104
818.9645	0.0146
819.1329	0.0184
819.3013	0.0262
819.4697	0.0206
819.638	0.0229
819.8064	0.0227
819.9747	0.0131
820.143	0.0084
820.3113	0.0041
820.4795	0.0204
820.6477	0.0216
820.816	0.0308
820.9842	0.0177
821.1523	-0.0007
821.3205	0.0138
821.4886	0.0044
821.6567	0.0293
821.8248	0.0063
821.9929	0.0334
822.1609	0.0189
822.329	0.0281
822.497	0.0151
822.665	-0.0166
822.833	-0.0087
823.0009	0.0076
823.1688	0.0185
823.3367	0.02
823.5046	0.0269
823.6725	0.015
823.8404	-0.0085
824.0082	0.0267
824.176	0.004
824.3438	0.0213
824.5116	0.0009
824.6793	0.0155
824.847	-0.015
825.0147	-0.0163
825.1824	0.0237
825.3501	0.0282
825.5177	-0.019
825.6854	-0.0205
825.853	-0.0016
826.0206	-0.0191
826.1881	0.0075
826.3557	-0.0549
826.5232	0.0191
826.6907	-0.0167
826.8582	-0.0102
827.0257	0.0019
827.1931	-0.0106
827.3605	-0.0141
827.528	0.0274
827.6953	-0.0168
827.8627	-0.0027
828.03	0.0266
828.1974	-0.0201
828.3647	-0.0116
828.532	-0.0073
828.6992	-0.0253
828.8665	-0.0023
829.0337	0.0187
829.2009	0.0097
829.3681	-0.0014
829.5352	0.0072
829.7024	-0.0591
829.8695	-0.0142
830.0366	0.0136
830.2037	0.0162
830.3707	0.0126
830.5378	-0.0099
830.7048	0.0139
830.8718	0.0012
831.0388	0.0041
831.2057	-0.013
831.3727	-0.0112
831.5396	-0.0144
831.7065	0.0147
831.8734	0.0234
832.0402	-0.0259
832.2071	0.0168
832.3739	-0.0147
832.5407	-0.0011
832.7075	0.007
832.8742	-0.0249
833.041	-0.0607
833.2077	-0.009
833.3744	0.02
833.541	0.0092
833.7077	0.0058
833.8743	-0.0172
834.0409	-0.0029
834.2075	-0.0081
834.3741	-0.0204
834.5407	0.0124
834.7072	0.0052
834.8737	-0.0294
835.0402	-0.0157
835.2067	0.0045
835.3731	0.0068
835.5395	-0.0075
835.706	-0.0447
835.8723	-0.0084
836.0387	0.0076
836.2051	-0.0183
836.3714	0.0098
836.5377	-0.0114
836.704	-0.0659
836.8703	0.0158
837.0365	-0.0329
837.2027	0.0009
837.3689	-0.009
837.5351	0.0016
837.7013	-0.023
837.8674	-0.051
838.0335	-0.0207
838.1997	-0.0095
838.3657	-0.023
838.5318	0.003
838.6978	-0.0063
838.8639	0.0099
839.0299	0.0071
839.1958	-0.0272
839.3618	-0.01
839.5277	-0.0083
839.6937	0.039
839.8596	-0.0106
840.0254	0.0187
840.1913	-0.0064
840.3571	0.0189
840.523	-0.0097
840.6888	-0.0528
840.8545	-0.0214
841.0203	0.0254
841.186	0.0079
841.3517	0.0544
841.5174	0.0126
841.6831	-0.0437
841.8488	0.0338
842.0144	0.0217
842.18	-0.0315
842.3456	0.0725
842.5112	-0.055
842.6767	0.0081
842.8422	-0.0397
843.0077	-0.0306
843.1732	-0.0706
843.3387	0.0128
843.5042	-0.0045
843.6696	-0.0233
843.835	0.0327
844.0004	0.0031
844.1657	-0.0194
844.3311	0.0107
844.4964	-0.005
844.6617	-0.0151
844.827	-0.0146
844.9923	-0.0089
845.1575	-0.0115
845.3227	0.0167
845.4879	-0.0164
845.6531	-0.0724
845.8183	-0.0703
845.9834	-0.0391
846.1485	0.026
846.3136	-0.0351
846.4787	-0.114
846.6438	0.0856
846.8088	-0.0718
846.9738	-0.1027
847.1388	0.0279
847.3038	-0.0204
847.4687	-0.1023
847.6337	-0.0088
847.7986	0.0002
847.9635	-0.0458
848.1284	0.0328
848.2932	0.0225
848.458	-0.0181
848.6228	0.0289
848.7876	0.0059
848.9524	-0.0911
849.1172	-0.0924
849.2819	0.0073
849.4466	-0.1117
849.6113	-0.1102
849.7759	-0.0594
849.9406	-0.059
850.1052	0.0621
850.2698	-0.0072
850.4344	-0.0898
850.599	-0.1027
850.7635	0.0255
850.928	-0.016
851.0925	-0.0365
851.257	0.0074
851.4215	-0.0693
851.5859	-0.1061
851.7503	-0.0294
851.9147	0.0755
852.0791	-0.1545
852.2434	-0.0237
852.4078	0.0036
852.5721	-0.0029
852.7364	-0.0795
852.9007	-0.2551
853.0649	-0.0462
853.2291	-0.0309
853.3934	0.0571
853.5575	-0.0071
853.7217	-0.0637
853.8859	-0.2146
854.05	-0.1502
854.2141	-0.0822
854.3782	-0.0052
854.5423	-0.0464
854.7063	0.0486
854.8703	-0.0565
855.0343	-0.0744
855.1983	-0.2414
855.3623	0.0572
855.5262	-0.021
855.6901	-0.0392
855.854	-0.0058
856.0179	0.1224
856.1818	-0.011
856.3456	-0.0506
856.5094	-0.1571
856.6732	-0.2202
856.837	-0.0731
857.0008	0.0119
857.1645	-0.116
857.3282	-0.1389
857.4919	0.1129
857.6556	0.0132
857.8192	-0.055
857.9828	-0.0959
858.1465	0.0126
858.31	-0.0887
858.4736	-0.0536
858.6372	-0.2921
858.8007	-0.1753
858.9642	-0.0083
859.1277	0.3139
859.2911	-0.0431
859.4546	0.0033
859.618	-0.3964
859.7814	-0.0472
859.9448	-0.0524
860.1081	-0.1384
860.2715	0.0352
860.4348	-0.2129
860.5981	-0.1784
860.7614	0.0717
860.9246	-0.083
861.0879	-0.1459
861.2511	0.1005
861.4143	-0.3149
861.5774	0.0113
861.7406	-0.2509
861.9037	0.0128
862.0668	-0.012
862.2299	-0.1551
862.393	-0.5542
862.556	-0.1127
862.7191	-0.4712
862.8821	-0.0432
863.0451	0.079
863.208	0.0446
863.371	0.0333
863.5339	-0.3104
863.6968	-0.1078
863.8597	0.1667
864.0225	-0.0899
864.1854	-0.0654
864.3482	-0.0438
864.511	0.0669
864.6737	0.0725
864.8365	-0.0135
864.9992	-0.6518
865.1619	-0.5914
865.3246	-0.3058
865.4873	0.094
865.65	-0.0688
865.8126	-0.2077
865.9752	-0.0045
866.1378	-0.3448
866.3004	0.1513
866.4629	-0.0332
866.6254	-0.233
866.7879	-0.1376
866.9504	-0.2567
867.1129	-0
867.2753	0.2025
867.4377	0.1599
867.6001	-0.4352
867.7625	0.3622
867.9249	-0.7314
868.0872	-0.229
868.2495	-0.0762
868.4118	-0.3137
868.5741	-0.6783
868.7363	-0.5394
868.8986	-0.5261
869.0608	-0.0805
869.223	0.083
869.3851	-0
869.5473	-0
869.7094	0.1093
869.8715	-0.1453
870.0336	-0
870.1957	-0.5113
870.3577	-0
870.5197	-0.0399
870.6817	-0.4452
870.8437	-0.2542
871.0057	-0
871.1676	-0.5726
871.3295	0.3562
871.4914	-0
871.6533	-0.4188
871.8151	-0.1531
871.977	-0
872.1388	-0
872.3006	-0
872.4623	-0
872.6241	-0.0692
872.7858	0.2287
872.9475	-0.2646
873.1092	0.1135
873.2709	-0
873.4325	0.1482
873.5941	-0.7229
873.7557	-0
873.9173	-0
874.0789	-0.4572
874.2404	-0.2239
874.4019	-0
874.5634	0.3295
874.7249	-0.2758
874.8863	-0.1314
875.0478	-0.1314
875.2092	-0
875.3706	-0.181
875.5319	-1.0792
875.6933	-0
875.8546	-0.4498
876.0159	0.1835
876.1772	0.5057
876.3385	-0
876.4997	0.0461
876.6609	-0.4878
876.8221	-0
876.9833	0.4082
877.1445	-0
877.3056	-0.0947
877.4667	-0.1455
877.6278	-0
877.7889	-0.719
877.9499	-0
878.111	0.4122
878.272	-0
878.433	-0
878.5939	-0
878.7549	-0.1229
878.9158	-0.4909
879.0767	-0
879.2376	-0
879.3984	-0.3645
879.5593	-0
879.7201	0.3279
879.8809	-0.6363
880.0417	-0.5434
880.2024	0.8472
880.3632	-0.4424
880.5239	0.3927
880.6846	0.1357
880.8452	-2.5024
881.0059	-0
881.1665	0.0228
881.3271	-0
881.4877	-0.5491
881.6483	-0.6209
881.8088	-0.3819
881.9693	-0
882.1298	-0
882.2903	-0
