Data from MonoPyChalIsomerACN10uM380nmA_Absorbance_13-38-32-849.txt Node
Date: Fri Jul 05 13:38:32 BST 2024
User: LASERRRRR
Spectrometer: FLMT03099
Trigger mode: 0
Integration Time (sec): 1.000000E-1
Scans to average: 1
Electric dark correction enabled: true
Nonlinearity correction enabled: false
Boxcar width: 0
XAxis mode: Wavelengths
Number of Pixels in Spectrum: 3648
>>>>>Begin Spectral Data<<<<<
179.3399	0.9728
179.5586	0.9728
179.7771	0.9728
179.9957	0.1577
180.2143	-0
180.4329	-0
180.6514	-0
180.8699	-0
181.0885	-0.0663
181.307	-0.1853
181.5255	-0
181.744	-0
181.9625	-0.4059
182.181	-0
182.3994	-0
182.6179	-0
182.8363	-0.131
183.0547	0.1375
183.2732	0.1034
183.4916	0.0768
183.71	0.0156
183.9284	0.4296
184.1467	-0.1797
184.3651	-0.0236
184.5835	-0.1284
184.8018	-0.0061
185.0201	0.2079
185.2385	0.0151
185.4568	-0.1008
185.6751	0.2934
185.8934	0.2476
186.1117	0.0727
186.3299	0.1354
186.5482	0.094
186.7664	-0.1093
186.9847	-0.1262
187.2029	0.0063
187.4211	0.1192
187.6393	0.0499
187.8575	-0.0664
188.0757	0.4669
188.2939	0.0274
188.512	0.4273
188.7302	0.2051
188.9483	0.0912
189.1665	0.1306
189.3846	-0.0922
189.6027	0.2668
189.8208	0.1658
190.0389	0.1858
190.257	0.2046
190.475	0.1705
190.6931	0.1266
190.9111	0.2831
191.1292	0.2485
191.3472	0.6593
191.5652	0.263
191.7832	0.3446
192.0012	0.5794
192.2192	0.3633
192.4371	0.7924
192.6551	0.4291
192.873	0.3263
193.091	0.3218
193.3089	0.3875
193.5268	0.6459
193.7447	0.5196
193.9626	0.5192
194.1805	0.5345
194.3984	0.8117
194.6162	0.6305
194.8341	0.7407
195.0519	0.545
195.2697	0.685
195.4875	0.9069
195.7054	0.7365
195.9231	0.5931
196.1409	0.739
196.3587	0.6857
196.5765	0.7507
196.7942	0.7591
197.012	0.6505
197.2297	0.5944
197.4474	0.9158
197.6651	0.733
197.8828	0.7498
198.1005	1.1094
198.3182	0.7565
198.5358	1.1407
198.7535	0.7449
198.9711	0.6029
199.1888	0.8133
199.4064	0.9758
199.624	0.7779
199.8416	0.7917
200.0592	0.9442
200.2767	0.7626
200.4943	0.714
200.7119	0.9847
200.9294	0.8874
201.1469	0.641
201.3645	0.6786
201.582	0.6768
201.7995	0.695
202.017	0.7593
202.2344	0.738
202.4519	1.0136
202.6694	0.6649
202.8868	0.6915
203.1042	0.8976
203.3217	0.9859
203.5391	0.7977
203.7565	0.7451
203.9739	0.8318
204.1913	0.8025
204.4086	0.8458
204.626	0.8822
204.8433	0.7314
205.0607	0.777
205.278	0.8522
205.4953	0.7814
205.7126	0.7364
205.9299	1.0595
206.1472	0.9032
206.3644	0.9045
206.5817	0.8733
206.7989	0.9298
207.0162	0.7707
207.2334	0.9292
207.4506	0.9701
207.6678	0.7329
207.885	0.8381
208.1022	0.8301
208.3194	0.8875
208.5365	0.8148
208.7537	0.8193
208.9708	0.6928
209.1879	0.8739
209.405	0.8453
209.6222	0.9743
209.8392	0.7948
210.0563	0.6888
210.2734	0.7887
210.4905	0.86
210.7075	0.8582
210.9245	0.7219
211.1416	0.9319
211.3586	0.7758
211.5756	0.7099
211.7926	0.8705
212.0096	0.8071
212.2265	0.72
212.4435	0.7291
212.6604	0.7528
212.8774	0.7435
213.0943	0.8235
213.3112	0.7205
213.5281	0.7366
213.745	0.7456
213.9619	0.7157
214.1788	0.6624
214.3956	0.6998
214.6125	0.6634
214.8293	0.6532
215.0461	0.664
215.2629	0.6897
215.4798	0.7462
215.6965	0.6106
215.9133	0.6739
216.1301	0.655
216.3469	0.6849
216.5636	0.6296
216.7803	0.5934
216.9971	0.6489
217.2138	0.5728
217.4305	0.6086
217.6472	0.5988
217.8639	0.6318
218.0805	0.6393
218.2972	0.5548
218.5138	0.5671
218.7305	0.5421
218.9471	0.5682
219.1637	0.5822
219.3803	0.5802
219.5969	0.5487
219.8135	0.5021
220.0301	0.547
220.2466	0.5435
220.4632	0.5442
220.6797	0.4778
220.8962	0.5157
221.1127	0.5468
221.3292	0.5178
221.5457	0.5451
221.7622	0.4934
221.9787	0.5322
222.1951	0.4938
222.4116	0.5141
222.628	0.5086
222.8444	0.5071
223.0608	0.5275
223.2772	0.5096
223.4936	0.544
223.71	0.5202
223.9264	0.5422
224.1427	0.5085
224.3591	0.5255
224.5754	0.542
224.7917	0.5315
225.008	0.5259
225.2243	0.5115
225.4406	0.5597
225.6569	0.5639
225.8732	0.4931
226.0894	0.5357
226.3057	0.5257
226.5219	0.5408
226.7381	0.5076
226.9543	0.531
227.1705	0.5533
227.3867	0.5422
227.6029	0.5528
227.8191	0.4952
228.0352	0.5591
228.2513	0.5545
228.4675	0.5398
228.6836	0.5676
228.8997	0.5409
229.1158	0.5528
229.3319	0.548
229.548	0.5571
229.764	0.5699
229.9801	0.5541
230.1961	0.556
230.4121	0.5732
230.6282	0.5477
230.8442	0.5309
231.0602	0.5486
231.2761	0.5516
231.4921	0.5856
231.7081	0.5561
231.924	0.5244
232.14	0.5863
232.3559	0.5278
232.5718	0.5694
232.7877	0.5747
233.0036	0.5529
233.2195	0.5476
233.4353	0.5461
233.6512	0.5445
233.867	0.534
234.0829	0.5596
234.2987	0.5755
234.5145	0.5446
234.7303	0.5606
234.9461	0.5849
235.1619	0.5521
235.3776	0.5456
235.5934	0.5755
235.8091	0.5311
236.0249	0.5463
236.2406	0.5394
236.4563	0.5492
236.672	0.5558
236.8877	0.5458
237.1034	0.5474
237.319	0.5284
237.5347	0.5423
237.7503	0.5322
237.966	0.548
238.1816	0.5376
238.3972	0.5181
238.6128	0.5206
238.8284	0.5423
239.0439	0.531
239.2595	0.5241
239.475	0.5342
239.6906	0.5283
239.9061	0.5245
240.1216	0.5236
240.3371	0.5222
240.5526	0.5208
240.7681	0.5097
240.9836	0.492
241.199	0.5221
241.4145	0.5048
241.6299	0.4894
241.8453	0.5035
242.0607	0.481
242.2761	0.4633
242.4915	0.4784
242.7069	0.4707
242.9223	0.4396
243.1376	0.426
243.353	0.4335
243.5683	0.4463
243.7836	0.4231
243.9989	0.4451
244.2142	0.3954
244.4295	0.4069
244.6448	0.3897
244.86	0.3768
245.0753	0.3757
245.2905	0.3784
245.5057	0.3568
245.721	0.3506
245.9362	0.3532
246.1514	0.3525
246.3665	0.3384
246.5817	0.3412
246.7969	0.3174
247.012	0.2919
247.2271	0.3078
247.4423	0.3164
247.6574	0.3074
247.8725	0.2953
248.0876	0.2656
248.3026	0.2905
248.5177	0.2732
248.7328	0.2686
248.9478	0.2664
249.1628	0.2592
249.3779	0.2701
249.5929	0.2476
249.8079	0.2662
250.0228	0.253
250.2378	0.2515
250.4528	0.2558
250.6677	0.2291
250.8827	0.2394
251.0976	0.2391
251.3125	0.238
251.5274	0.2244
251.7423	0.2214
251.9572	0.2209
252.172	0.2115
252.3869	0.2225
252.6017	0.2054
252.8166	0.2015
253.0314	0.2053
253.2462	0.2058
253.461	0.2141
253.6758	0.2026
253.8906	0.2139
254.1053	0.2074
254.3201	0.2082
254.5348	0.2202
254.7496	0.2127
254.9643	0.197
255.179	0.198
255.3937	0.19
255.6083	0.1998
255.823	0.2012
256.0377	0.1838
256.2523	0.1872
256.467	0.1826
256.6816	0.1944
256.8962	0.1858
257.1108	0.1772
257.3254	0.1925
257.54	0.195
257.7545	0.2015
257.9691	0.197
258.1836	0.1847
258.3981	0.1833
258.6127	0.1911
258.8272	0.1944
259.0417	0.1896
259.2561	0.1791
259.4706	0.191
259.6851	0.1876
259.8995	0.1954
260.114	0.1902
260.3284	0.1923
260.5428	0.1769
260.7572	0.1942
260.9716	0.1843
261.186	0.1857
261.4003	0.1708
261.6147	0.1906
261.829	0.1894
262.0433	0.1903
262.2577	0.1808
262.472	0.1819
262.6863	0.182
262.9005	0.1924
263.1148	0.1819
263.3291	0.1598
263.5433	0.1865
263.7576	0.1829
263.9718	0.1907
264.186	0.2021
264.4002	0.1816
264.6144	0.1842
264.8286	0.1939
265.0427	0.1812
265.2569	0.1783
265.471	0.168
265.6851	0.1862
265.8993	0.1849
266.1134	0.1811
266.3275	0.1859
266.5415	0.1742
266.7556	0.1924
266.9697	0.1804
267.1837	0.1796
267.3978	0.1749
267.6118	0.1927
267.8258	0.2084
268.0398	0.1713
268.2538	0.197
268.4677	0.1847
268.6817	0.196
268.8957	0.189
269.1096	0.1767
269.3235	0.1846
269.5374	0.177
269.7514	0.1688
269.9652	0.1776
270.1791	0.1738
270.393	0.1818
270.6068	0.1743
270.8207	0.174
271.0345	0.1737
271.2483	0.1765
271.4622	0.165
271.676	0.1822
271.8897	0.1681
272.1035	0.1731
272.3173	0.1599
272.531	0.1682
272.7448	0.1805
272.9585	0.1577
273.1722	0.1643
273.3859	0.1813
273.5996	0.1646
273.8133	0.1736
274.0269	0.168
274.2406	0.1541
274.4542	0.1803
274.6679	0.1614
274.8815	0.159
275.0951	0.176
275.3087	0.1848
275.5223	0.1814
275.7358	0.1831
275.9494	0.1784
276.1629	0.1678
276.3765	0.176
276.59	0.1835
276.8035	0.1888
277.017	0.1651
277.2305	0.1706
277.444	0.1813
277.6574	0.1722
277.8709	0.1908
278.0843	0.1691
278.2978	0.1647
278.5112	0.1727
278.7246	0.1611
278.938	0.1776
279.1513	0.177
279.3647	0.179
279.5781	0.1606
279.7914	0.1803
280.0047	0.1877
280.2181	0.168
280.4314	0.18
280.6447	0.1767
280.8579	0.1802
281.0712	0.1745
281.2845	0.1909
281.4977	0.1807
281.711	0.1683
281.9242	0.1764
282.1374	0.1846
282.3506	0.177
282.5638	0.1749
282.7769	0.1749
282.9901	0.1737
283.2033	0.1845
283.4164	0.1798
283.6295	0.1694
283.8426	0.1775
284.0557	0.1825
284.2688	0.1824
284.4819	0.1818
284.695	0.1884
284.908	0.1867
285.1211	0.1778
285.3341	0.1819
285.5471	0.1859
285.7601	0.1847
285.9731	0.1638
286.1861	0.1674
286.3991	0.1897
286.612	0.1838
286.825	0.1797
287.0379	0.187
287.2508	0.1881
287.4637	0.1775
287.6766	0.1816
287.8895	0.1954
288.1024	0.1885
288.3152	0.1738
288.5281	0.1791
288.7409	0.1802
288.9538	0.1758
289.1666	0.1771
289.3794	0.1725
289.5922	0.1646
289.8049	0.175
290.0177	0.1788
290.2304	0.1664
290.4432	0.1817
290.6559	0.1716
290.8686	0.1765
291.0813	0.1704
291.294	0.1746
291.5067	0.1727
291.7194	0.1782
291.932	0.1744
292.1447	0.1785
292.3573	0.1709
292.5699	0.1699
292.7825	0.1749
292.9951	0.1708
293.2077	0.1675
293.4203	0.1808
293.6328	0.1532
293.8454	0.1753
294.0579	0.1538
294.2704	0.1708
294.4829	0.166
294.6954	0.1772
294.9079	0.1718
295.1204	0.1727
295.3328	0.1704
295.5453	0.164
295.7577	0.177
295.9701	0.1606
296.1825	0.1642
296.3949	0.1603
296.6073	0.1563
296.8197	0.16
297.0321	0.1701
297.2444	0.1621
297.4567	0.1721
297.6691	0.1652
297.8814	0.1628
298.0937	0.1606
298.306	0.169
298.5182	0.1539
298.7305	0.1796
298.9428	0.1666
299.155	0.174
299.3672	0.1598
299.5794	0.1652
299.7916	0.1605
300.0038	0.176
300.216	0.1679
300.4282	0.1707
300.6403	0.17
300.8525	0.1635
301.0646	0.1539
301.2767	0.167
301.4888	0.159
301.7009	0.1593
301.913	0.1688
302.125	0.18
302.3371	0.1587
302.5491	0.1619
302.7612	0.1666
302.9732	0.1627
303.1852	0.1677
303.3972	0.1607
303.6092	0.1647
303.8211	0.1583
304.0331	0.1583
304.245	0.1609
304.457	0.1478
304.6689	0.154
304.8808	0.1659
305.0927	0.1443
305.3046	0.1479
305.5164	0.1587
305.7283	0.1494
305.9401	0.146
306.152	0.1508
306.3638	0.1542
306.5756	0.1412
306.7874	0.1448
306.9992	0.1541
307.2109	0.1425
307.4227	0.1316
307.6344	0.1355
307.8462	0.1412
308.0579	0.1327
308.2696	0.1398
308.4813	0.1301
308.693	0.1394
308.9046	0.1402
309.1163	0.1322
309.328	0.1273
309.5396	0.1241
309.7512	0.1241
309.9628	0.1217
310.1744	0.1232
310.386	0.1237
310.5976	0.126
310.8091	0.1163
311.0207	0.1118
311.2322	0.1347
311.4437	0.113
311.6552	0.1154
311.8667	0.1204
312.0782	0.1006
312.2897	0.1068
312.5012	0.1221
312.7126	0.0992
312.924	0.1008
313.1355	0.1173
313.3469	0.1132
313.5583	0.1197
313.7696	0.0994
313.981	0.1095
314.1924	0.1062
314.4037	0.1128
314.6151	0.1206
314.8264	0.1
315.0377	0.1032
315.249	0.1065
315.4603	0.11
315.6716	0.0997
315.8828	0.0985
316.0941	0.1048
316.3053	0.0996
316.5165	0.1045
316.7277	0.0994
316.9389	0.1017
317.1501	0.1031
317.3613	0.112
317.5724	0.0983
317.7836	0.1128
317.9947	0.1134
318.2058	0.1084
318.417	0.0949
318.6281	0.0973
318.8391	0.0944
319.0502	0.1029
319.2613	0.1067
319.4723	0.1136
319.6834	0.1075
319.8944	0.1053
320.1054	0.1001
320.3164	0.1049
320.5274	0.1033
320.7383	0.0916
320.9493	0.0968
321.1602	0.1185
321.3712	0.0942
321.5821	0.1117
321.793	0.1115
322.0039	0.1025
322.2148	0.0973
322.4257	0.109
322.6365	0.1238
322.8474	0.1095
323.0582	0.1038
323.269	0.1194
323.4798	0.1137
323.6906	0.1116
323.9014	0.1035
324.1122	0.1132
324.3229	0.0977
324.5337	0.1131
324.7444	0.1082
324.9551	0.1201
325.1658	0.1039
325.3765	0.1142
325.5872	0.1026
325.7979	0.097
326.0085	0.1067
326.2192	0.1119
326.4298	0.1153
326.6404	0.0967
326.851	0.1116
327.0616	0.102
327.2722	0.1071
327.4828	0.1255
327.6933	0.1099
327.9039	0.1123
328.1144	0.1267
328.3249	0.1153
328.5354	0.1019
328.7459	0.112
328.9564	0.103
329.1669	0.1119
329.3773	0.1089
329.5878	0.1163
329.7982	0.1071
330.0086	0.1098
330.219	0.1163
330.4294	0.1084
330.6398	0.1128
330.8502	0.0973
331.0605	0.1111
331.2708	0.1128
331.4812	0.1143
331.6915	0.1112
331.9018	0.1193
332.1121	0.1166
332.3224	0.107
332.5326	0.1196
332.7429	0.1068
332.9531	0.1323
333.1633	0.116
333.3735	0.1068
333.5837	0.1099
333.7939	0.0999
334.0041	0.1176
334.2143	0.1091
334.4244	0.11
334.6346	0.0982
334.8447	0.1271
335.0548	0.1092
335.2649	0.1164
335.475	0.1124
335.685	0.1046
335.8951	0.1174
336.1051	0.1138
336.3152	0.1189
336.5252	0.1094
336.7352	0.1257
336.9452	0.1249
337.1552	0.1164
337.3652	0.1132
337.5751	0.1129
337.7851	0.1174
337.995	0.0976
338.2049	0.1206
338.4148	0.1184
338.6247	0.1249
338.8346	0.1137
339.0445	0.1093
339.2543	0.1115
339.4642	0.1189
339.674	0.1168
339.8838	0.1154
340.0936	0.1191
340.3034	0.1317
340.5132	0.1255
340.7229	0.1255
340.9327	0.1252
341.1424	0.1103
341.3522	0.1444
341.5619	0.1255
341.7716	0.1293
341.9813	0.1265
342.1909	0.1167
342.4006	0.135
342.6102	0.1413
342.8199	0.1222
343.0295	0.1257
343.2391	0.127
343.4487	0.137
343.6583	0.1256
343.8679	0.1248
344.0774	0.1271
344.287	0.1346
344.4965	0.1139
344.706	0.1308
344.9155	0.1305
345.125	0.121
345.3345	0.1319
345.544	0.1275
345.7534	0.1296
345.9629	0.1299
346.1723	0.133
346.3817	0.1271
346.5911	0.1153
346.8005	0.1393
347.0099	0.1326
347.2193	0.1372
347.4286	0.1322
347.638	0.1389
347.8473	0.1363
348.0566	0.1314
348.2659	0.1435
348.4752	0.1373
348.6845	0.1339
348.8937	0.1406
349.103	0.1433
349.3122	0.1263
349.5214	0.1315
349.7306	0.1576
349.9398	0.1298
350.149	0.148
350.3582	0.1351
350.5674	0.1483
350.7765	0.1386
350.9856	0.144
351.1948	0.1437
351.4039	0.1337
351.613	0.1422
351.822	0.1488
352.0311	0.1487
352.2402	0.1429
352.4492	0.1393
352.6582	0.1554
352.8672	0.1393
353.0762	0.1456
353.2852	0.148
353.4942	0.128
353.7032	0.1577
353.9121	0.1509
354.1211	0.1553
354.33	0.141
354.5389	0.1466
354.7478	0.1521
354.9567	0.1555
355.1655	0.1354
355.3744	0.1557
355.5833	0.1601
355.7921	0.1753
356.0009	0.1622
356.2097	0.1704
356.4185	0.1724
356.6273	0.1559
356.8361	0.17
357.0448	0.1518
357.2536	0.1493
357.4623	0.1443
357.671	0.1613
357.8797	0.1774
358.0884	0.1651
358.2971	0.1589
358.5057	0.167
358.7144	0.167
358.923	0.1627
359.1316	0.1751
359.3402	0.1661
359.5488	0.1649
359.7574	0.1594
359.966	0.1585
360.1746	0.1655
360.3831	0.1833
360.5916	0.1726
360.8002	0.1692
361.0087	0.2008
361.2172	0.1679
361.4256	0.1764
361.6341	0.1824
361.8426	0.1855
362.051	0.1628
362.2594	0.174
362.4678	0.1525
362.6762	0.1887
362.8846	0.174
363.093	0.1881
363.3014	0.1656
363.5097	0.1601
363.718	0.1735
363.9264	0.1756
364.1347	0.1799
364.343	0.1956
364.5513	0.1877
364.7595	0.1838
364.9678	0.1772
365.176	0.1925
365.3842	0.187
365.5925	0.1996
365.8007	0.1825
366.0089	0.1919
366.217	0.1705
366.4252	0.2009
366.6333	0.2178
366.8415	0.1993
367.0496	0.1854
367.2577	0.2177
367.4658	0.213
367.6739	0.2024
367.882	0.2015
368.09	0.1975
368.2981	0.1951
368.5061	0.1753
368.7141	0.1874
368.9221	0.2136
369.1301	0.2054
369.3381	0.1886
369.5461	0.2016
369.754	0.2031
369.962	0.208
370.1699	0.2042
370.3778	0.2124
370.5857	0.1922
370.7936	0.2069
371.0015	0.1913
371.2093	0.211
371.4172	0.2173
371.625	0.2048
371.8328	0.2031
372.0406	0.1965
372.2484	0.2193
372.4562	0.2181
372.664	0.2001
372.8717	0.2073
373.0795	0.1963
373.2872	0.2099
373.4949	0.2065
373.7026	0.2155
373.9103	0.2216
374.118	0.2205
374.3256	0.2174
374.5333	0.2151
374.7409	0.2093
374.9485	0.2329
375.1561	0.2161
375.3637	0.2158
375.5713	0.2316
375.7789	0.2184
375.9864	0.213
376.194	0.2269
376.4015	0.2285
376.609	0.2239
376.8165	0.2273
377.024	0.2199
377.2315	0.2265
377.4389	0.2176
377.6464	0.2217
377.8538	0.2322
378.0612	0.2218
378.2686	0.2251
378.476	0.2369
378.6834	0.2259
378.8908	0.2318
379.0981	0.2247
379.3055	0.232
379.5128	0.2214
379.7201	0.2386
379.9274	0.2139
380.1347	0.2312
380.342	0.2338
380.5492	0.2157
380.7565	0.2389
380.9637	0.2354
381.1709	0.2357
381.3781	0.2417
381.5853	0.2238
381.7925	0.2345
381.9997	0.2352
382.2068	0.2475
382.4139	0.2351
382.6211	0.2305
382.8282	0.2456
383.0353	0.2495
383.2424	0.2262
383.4494	0.2442
383.6565	0.2194
383.8635	0.252
384.0706	0.2196
384.2776	0.2429
384.4846	0.209
384.6916	0.227
384.8986	0.2206
385.1055	0.2402
385.3125	0.2277
385.5194	0.2086
385.7263	0.2462
385.9333	0.2441
386.1402	0.2419
386.347	0.2352
386.5539	0.2291
386.7608	0.2346
386.9676	0.2254
387.1744	0.2394
387.3813	0.2152
387.5881	0.2408
387.7948	0.2301
388.0016	0.2173
388.2084	0.2304
388.4151	0.2185
388.6219	0.2263
388.8286	0.2368
389.0353	0.2426
389.242	0.2359
389.4487	0.2331
389.6553	0.2275
389.862	0.1891
390.0686	0.2344
390.2753	0.2269
390.4819	0.2306
390.6885	0.2125
390.8951	0.2193
391.1016	0.2117
391.3082	0.2153
391.5147	0.2284
391.7213	0.2295
391.9278	0.2022
392.1343	0.2159
392.3408	0.2185
392.5473	0.215
392.7537	0.2089
392.9602	0.2058
393.1666	0.1982
393.373	0.205
393.5794	0.2187
393.7858	0.2123
393.9922	0.1903
394.1986	0.2051
394.4049	0.2188
394.6113	0.2097
394.8176	0.1994
395.0239	0.2028
395.2302	0.189
395.4365	0.2079
395.6428	0.2
395.8491	0.2018
396.0553	0.2043
396.2615	0.1957
396.4678	0.1836
396.674	0.1853
396.8802	0.1915
397.0863	0.2219
397.2925	0.1921
397.4987	0.196
397.7048	0.1885
397.9109	0.2055
398.117	0.1777
398.3231	0.1974
398.5292	0.1979
398.7353	0.1992
398.9413	0.1904
399.1474	0.1919
399.3534	0.1734
399.5594	0.1847
399.7654	0.2083
399.9714	0.2013
400.1774	0.1838
400.3833	0.1961
400.5893	0.1949
400.7952	0.1933
401.0011	0.1929
401.207	0.2039
401.4129	0.2018
401.6188	0.1959
401.8247	0.1994
402.0305	0.1974
402.2364	0.1764
402.4422	0.2066
402.648	0.1953
402.8538	0.2045
403.0596	0.1933
403.2654	0.1918
403.4711	0.1876
403.6768	0.2126
403.8826	0.2016
404.0883	0.2058
404.294	0.2009
404.4997	0.1841
404.7054	0.1931
404.911	0.1907
405.1167	0.1959
405.3223	0.2072
405.5279	0.2088
405.7335	0.1995
405.9391	0.2013
406.1447	0.1986
406.3502	0.1966
406.5558	0.1964
406.7613	0.1988
406.9668	0.2017
407.1724	0.1956
407.3778	0.1829
407.5833	0.186
407.7888	0.1792
407.9942	0.2031
408.1997	0.1905
408.4051	0.1899
408.6105	0.1985
408.8159	0.1855
409.0213	0.1817
409.2267	0.2034
409.432	0.1946
409.6374	0.1961
409.8427	0.2007
410.048	0.1876
410.2533	0.1868
410.4586	0.1927
410.6639	0.1707
410.8691	0.1838
411.0744	0.1795
411.2796	0.1882
411.4848	0.1748
411.69	0.1815
411.8952	0.1928
412.1004	0.176
412.3056	0.2044
412.5107	0.1707
412.7158	0.2078
412.921	0.175
413.1261	0.1983
413.3312	0.1741
413.5362	0.1754
413.7413	0.1746
413.9464	0.1825
414.1514	0.1788
414.3564	0.1942
414.5614	0.1649
414.7664	0.1767
414.9714	0.19
415.1764	0.1996
415.3813	0.1855
415.5863	0.1903
415.7912	0.1824
415.9961	0.1689
416.201	0.1882
416.4059	0.1995
416.6108	0.1727
416.8156	0.1981
417.0205	0.181
417.2253	0.1885
417.4301	0.1939
417.6349	0.1718
417.8397	0.1835
418.0445	0.1994
418.2492	0.1836
418.454	0.1882
418.6587	0.1702
418.8634	0.1913
419.0681	0.1671
419.2728	0.1755
419.4775	0.1546
419.6822	0.1746
419.8868	0.1596
420.0915	0.1749
420.2961	0.1636
420.5007	0.1639
420.7053	0.1667
420.9099	0.1799
421.1144	0.1776
421.319	0.1687
421.5235	0.1742
421.728	0.1687
421.9325	0.1707
422.137	0.1747
422.3415	0.1804
422.546	0.1682
422.7504	0.1792
422.9549	0.1713
423.1593	0.1801
423.3637	0.1558
423.5681	0.1665
423.7725	0.1505
423.9769	0.1584
424.1812	0.1567
424.3856	0.1565
424.5899	0.1624
424.7942	0.1598
424.9985	0.1609
425.2028	0.1631
425.4071	0.1731
425.6113	0.1459
425.8156	0.154
426.0198	0.1592
426.224	0.1381
426.4282	0.1579
426.6324	0.1496
426.8366	0.1393
427.0407	0.141
427.2449	0.1538
427.449	0.1508
427.6531	0.1303
427.8572	0.1235
428.0613	0.163
428.2654	0.1465
428.4694	0.1387
428.6735	0.145
428.8775	0.1525
429.0815	0.1592
429.2855	0.1178
429.4895	0.1338
429.6935	0.1314
429.8975	0.132
430.1014	0.1338
430.3053	0.1266
430.5093	0.1254
430.7132	0.1121
430.9171	0.1185
431.1209	0.1182
431.3248	0.1199
431.5286	0.1119
431.7325	0.1131
431.9363	0.1183
432.1401	0.1259
432.3439	0.1145
432.5477	0.0868
432.7514	0.1033
432.9552	0.1175
433.1589	0.1091
433.3627	0.1113
433.5664	0.1112
433.7701	0.0916
433.9737	0.0964
434.1774	0.1097
434.3811	0.1043
434.5847	0.1114
434.7883	0.1029
434.9919	0.1037
435.1955	0.1054
435.3991	0.1098
435.6027	0.1065
435.8062	0.1067
436.0098	0.0826
436.2133	0.0807
436.4168	0.0859
436.6203	0.0887
436.8238	0.0899
437.0272	0.0918
437.2307	0.079
437.4341	0.0923
437.6375	0.0904
437.841	0.0859
438.0443	0.0981
438.2477	0.0941
438.4511	0.0762
438.6545	0.0753
438.8578	0.0987
439.0611	0.0893
439.2644	0.0747
439.4677	0.0593
439.671	0.0711
439.8743	0.0848
440.0775	0.072
440.2808	0.0639
440.484	0.0574
440.6872	0.0492
440.8904	0.0592
441.0936	0.0802
441.2967	0.0498
441.4999	0.0663
441.703	0.0649
441.9062	0.061
442.1093	0.0599
442.3124	0.0624
442.5155	0.037
442.7185	0.0537
442.9216	0.0369
443.1246	0.0603
443.3276	0.0556
443.5307	0.0637
443.7337	0.0545
443.9366	0.0508
444.1396	0.0517
444.3426	0.0407
444.5455	0.0423
444.7484	0.0409
444.9513	0.0461
445.1542	0.0463
445.3571	0.0332
445.56	0.0481
445.7628	0.0324
445.9657	0.0231
446.1685	0.0544
446.3713	0.0297
446.5741	0.0362
446.7769	0.0256
446.9797	0.0446
447.1824	0.0367
447.3852	0.0359
447.5879	0.0412
447.7906	0.0354
447.9933	0.0486
448.196	0.0267
448.3986	0.0248
448.6013	0.0274
448.8039	0.0226
449.0066	0.0218
449.2092	0.0347
449.4118	0.0366
449.6143	0.0402
449.8169	0.032
450.0195	0.0101
450.222	0.0146
450.4245	0.0196
450.627	0.0377
450.8295	0.028
451.032	0.016
451.2345	0.0122
451.4369	0.0344
451.6394	0.0315
451.8418	-0.0016
452.0442	0.0133
452.2466	0.0292
452.449	0.0135
452.6513	0.0183
452.8537	0.0119
453.056	0.0078
453.2583	0.0169
453.4607	0.0151
453.663	0.0169
453.8652	0.0222
454.0675	0.0041
454.2697	0.0211
454.472	-0.0032
454.6742	0.0086
454.8764	0.0108
455.0786	0.0227
455.2808	0.0048
455.4829	0.0076
455.6851	0.0161
455.8872	0.0195
456.0893	0.0089
456.2915	-0.0098
456.4935	0.0118
456.6956	0.0104
456.8977	0.004
457.0997	0.0117
457.3018	-0.0007
457.5038	0.0291
457.7058	0.0094
457.9078	0.0035
458.1098	0.0216
458.3117	0.0145
458.5137	0.0144
458.7156	0.0029
458.9175	-0.0042
459.1194	-0.0103
459.3213	0.0079
459.5232	-0.0005
459.725	-0.0151
459.9269	-0.0136
460.1287	0.0049
460.3305	-0.0128
460.5323	0.0004
460.7341	0.0081
460.9359	0.0049
461.1376	0.0112
461.3394	-0.0083
461.5411	0.0187
461.7428	0.0094
461.9445	0.0084
462.1462	0.0114
462.3479	-0.0076
462.5495	0.0005
462.7512	-0.0002
462.9528	-0.009
463.1544	-0.0009
463.356	-0.0016
463.5576	0.0168
463.7592	-0.0039
463.9607	0.0001
464.1623	0.0134
464.3638	0.0261
464.5653	-0.0186
464.7668	0.0039
464.9683	0.0077
465.1697	0.0149
465.3712	-0.0147
465.5726	-0.0065
465.7741	0.002
465.9755	0.0006
466.1769	0.0032
466.3782	-0.0089
466.5796	-0.0092
466.7809	0.0065
466.9823	-0.018
467.1836	-0.0161
467.3849	-0.0112
467.5862	0.0038
467.7875	-0.001
467.9887	0.0072
468.19	0.0048
468.3912	-0.0137
468.5924	-0.0056
468.7936	-0.0167
468.9948	-0.0047
469.196	0.0069
469.3972	-0.0104
469.5983	-0.0004
469.7994	-0.0207
470.0006	-0.0033
470.2017	-0.0131
470.4027	-0.0149
470.6038	0.0003
470.8049	-0.032
471.0059	-0.0162
471.2069	-0.0282
471.408	0.0042
471.6089	0.015
471.8099	0.0085
472.0109	0.0055
472.2119	-0.0058
472.4128	-0.0109
472.6137	0.0049
472.8146	-0.0217
473.0155	-0.0085
473.2164	-0.0054
473.4173	-0.0017
473.6181	0.0013
473.819	0.0009
474.0198	-0.0046
474.2206	-0.005
474.4214	0.0042
474.6222	-0.0145
474.8229	-0.0123
475.0237	-0.0112
475.2244	-0.0153
475.4251	-0.0032
475.6258	-0.0001
475.8265	-0.0007
476.0272	-0.0018
476.2278	-0.0153
476.4285	0.0004
476.6291	-0.0181
476.8297	-0.0114
477.0303	-0.0007
477.2309	-0.0075
477.4315	-0.0201
477.632	-0.0062
477.8326	-0.0137
478.0331	-0.0047
478.2336	-0.0078
478.4341	-0.0139
478.6346	-0.0085
478.8351	-0.0138
479.0355	-0.0014
479.236	-0.0112
479.4364	-0.0051
479.6368	-0.0099
479.8372	-0.0159
480.0376	-0.0093
480.2379	-0.0286
480.4383	-0.0046
480.6386	0.0049
480.8389	-0.0043
481.0392	-0.0129
481.2395	-0.0202
481.4398	-0
481.6401	0.0039
481.8403	0.0013
482.0405	-0.0135
482.2408	-0.0103
482.441	-0.002
482.6411	-0.0074
482.8413	0.0012
483.0415	-0.0076
483.2416	-0.0122
483.4417	-0.0111
483.6419	-0.0079
483.8419	-0.0087
484.042	0.0019
484.2421	0.0009
484.4422	0.0003
484.6422	-0.0104
484.8422	-0.0005
485.0422	-0.0126
485.2422	-0.0016
485.4422	-0.0165
485.6422	-0.0124
485.8421	-0.0056
486.042	-0.0011
486.242	-0.0007
486.4419	-0.0205
486.6417	-0.0104
486.8416	-0.0123
487.0415	-0.001
487.2413	-0.0084
487.4411	-0.0125
487.641	-0.0158
487.8408	-0.0083
488.0405	-0.0174
488.2403	-0.0055
488.4401	-0.0017
488.6398	0.0012
488.8395	-0.0079
489.0392	0.0046
489.2389	-0.0236
489.4386	-0.0169
489.6383	-0.0038
489.8379	0.0054
490.0376	-0.0081
490.2372	-0.011
490.4368	-0.0161
490.6364	-0.0119
490.836	-0.0134
491.0355	-0.0066
491.2351	-0.0216
491.4346	-0.0135
491.6341	-0.0153
491.8336	0.0012
492.0331	-0.008
492.2326	-0.0149
492.432	-0.0101
492.6315	-0.0064
492.8309	-0.0139
493.0303	-0.0175
493.2297	-0.0138
493.4291	-0
493.6284	-0.0056
493.8278	-0.0103
494.0271	0.003
494.2264	-0.0047
494.4257	-0.0141
494.625	-0.0151
494.8243	-0.0267
495.0236	-0.0155
495.2228	-0.0234
495.422	-0.0031
495.6213	-0.0065
495.8205	-0.0053
496.0196	-0.0048
496.2188	-0.0027
496.418	-0.0187
496.6171	-0.0118
496.8162	-0.0158
497.0153	-0.0014
497.2144	-0.0149
497.4135	-0.0086
497.6126	-0.0138
497.8116	-0.0167
498.0107	-0.016
498.2097	-0.0177
498.4087	-0.0124
498.6077	-0.0014
498.8067	-0.0127
499.0056	0.0008
499.2046	-0.0042
499.4035	-0.0161
499.6024	-0.0168
499.8013	-0.0207
500.0002	-0.0152
500.199	-0.0165
500.3979	-0.0271
500.5967	-0.0275
500.7956	-0.0043
500.9944	-0.004
501.1932	-0.0143
501.3919	-0.0152
501.5907	-0.0202
501.7895	-0.0108
501.9882	-0.0185
502.1869	-0.0187
502.3856	-0.0134
502.5843	-0.0106
502.783	-0.008
502.9816	-0.0082
503.1803	-0.007
503.3789	-0.0106
503.5775	-0.0048
503.7761	-0.0085
503.9747	-0.0015
504.1732	-0.0088
504.3718	-0.0064
504.5703	-0.0034
504.7689	-0.0121
504.9674	-0.0047
505.1658	-0.0127
505.3643	-0.004
505.5628	-0.0092
505.7612	-0.0188
505.9597	0.0046
506.1581	-0.0221
506.3565	0.0052
506.5549	-0.0128
506.7532	-0.0176
506.9516	-0.0115
507.1499	-0.0206
507.3482	-0.0212
507.5465	-0.0166
507.7448	-0.0062
507.9431	-0.0042
508.1414	-0.0066
508.3396	-0.0129
508.5379	-0.0095
508.7361	-0.0133
508.9343	-0.0178
509.1325	-0.0033
509.3306	-0.0147
509.5288	-0.0179
509.7269	-0.0114
509.9251	0.0024
510.1232	-0.0165
510.3213	-0.0091
510.5193	-0.0007
510.7174	-0.0175
510.9154	-0.0184
511.1135	-0.0136
511.3115	-0.0127
511.5095	-0.0043
511.7075	-0.0153
511.9055	-0.0104
512.1034	-0.0194
512.3014	-0.0114
512.4993	-0.0069
512.6972	-0.0104
512.8951	-0.0153
513.093	-0.0003
513.2908	-0.0012
513.4887	-0.0102
513.6865	-0.0149
513.8844	-0.0114
514.0822	-0.0172
514.2799	-0.0193
514.4777	-0.0185
514.6755	-0.0055
514.8732	-0.0228
515.0709	-0.0155
515.2687	-0.0079
515.4664	-0.0023
515.664	-0.0087
515.8617	-0.0114
516.0594	-0.0219
516.257	-0.0122
516.4546	-0.0169
516.6522	-0.0121
516.8498	-0.0119
517.0474	-0.003
517.2449	-0.0113
517.4425	-0.0186
517.64	-0.0124
517.8375	0.0015
518.035	-0.0052
518.2325	-0.0115
518.43	-0.012
518.6274	-0.0147
518.8249	-0.0173
519.0223	-0.0023
519.2197	-0.0195
519.4171	-0.0143
519.6145	-0.0224
519.8118	-0.0046
520.0092	-0.0112
520.2065	-0.0253
520.4038	-0.0122
520.6011	-0.0019
520.7984	-0.0133
520.9956	-0.0151
521.1929	-0.017
521.3901	-0.0073
521.5874	-0.005
521.7846	-0.0136
521.9818	-0.0186
522.1789	-0.0178
522.3761	-0.0062
522.5732	-0.0169
522.7704	-0.013
522.9675	-0.0134
523.1646	-0.0189
523.3617	-0.0087
523.5587	-0.0097
523.7558	-0.0073
523.9528	-0.0197
524.1498	-0.0077
524.3468	-0.006
524.5438	-0.0123
524.7408	-0.0093
524.9378	0.0013
525.1347	-0.0074
525.3316	-0.0028
525.5285	-0.0165
525.7254	-0.0194
525.9223	-0.0024
526.1192	-0.0076
526.316	-0.0169
526.5129	-0.003
526.7097	-0.003
526.9065	-0.0173
527.1033	-0.0148
527.3	-0.0078
527.4968	-0.0066
527.6935	-0.0047
527.8903	-0.0167
528.087	-0.0136
528.2837	-0.0105
528.4804	-0.0193
528.677	-0.0107
528.8737	0.0009
529.0703	-0.0108
529.2669	-0.0039
529.4635	-0.0211
529.6601	-0.0096
529.8567	-0.0109
530.0532	-0.0135
530.2498	0.0091
530.4463	-0.005
530.6428	-0.0109
530.8393	0.0045
531.0358	-0.0062
531.2322	-0.0145
531.4287	-0.009
531.6251	-0.0103
531.8215	-0.0077
532.0179	-0.0014
532.2143	-0.0029
532.4107	-0.0072
532.607	-0.0211
532.8034	-0.0047
532.9997	-0.0056
533.196	-0.0079
533.3923	-0.0107
533.5886	-0.0082
533.7848	-0.0091
533.9811	-0.0115
534.1773	-0.0096
534.3735	-0.0009
534.5697	-0.0121
534.7659	-0.007
534.9621	0.0009
535.1582	-0.0239
535.3544	-0.0046
535.5505	-0.0156
535.7466	-0.0137
535.9427	-0.0144
536.1387	-0.0145
536.3348	-0.0102
536.5308	-0.0024
536.7269	-0.0219
536.9229	-0.0016
537.1189	-0.0099
537.3148	-0.0099
537.5108	-0.0144
537.7068	0.0007
537.9027	-0.0086
538.0986	-0.011
538.2945	-0.0094
538.4904	-0.0093
538.6863	-0.0002
538.8821	-0.0103
539.078	-0.0091
539.2738	-0.0085
539.4696	-0.0035
539.6654	-0.0025
539.8611	0.0014
540.0569	-0.0126
540.2526	-0.0194
540.4484	-0.0068
540.6441	-0.0021
540.8398	-0.0074
541.0355	-0.0129
541.2311	-0.0114
541.4268	-0.0137
541.6224	0.0045
541.818	-0.0044
542.0136	-0.0121
542.2092	-0.0147
542.4048	-0.0005
542.6003	-0.0053
542.7959	-0.0133
542.9914	-0.015
543.1869	-0.0008
543.3824	-0
543.5779	-0.0154
543.7734	-0.0086
543.9688	-0.0144
544.1642	0.002
544.3596	-0.001
544.555	-0.0041
544.7504	-0.003
544.9458	-0.0095
545.1411	-0.0056
545.3365	-0.0002
545.5318	-0.0086
545.7271	-0.0055
545.9224	0.0013
546.1177	-0.0109
546.3129	0.004
546.5081	-0.0052
546.7034	0.0033
546.8986	-0.0073
547.0938	-0.0127
547.289	-0.0108
547.4841	-0.0102
547.6793	0.0034
547.8744	-0.0145
548.0695	-0.002
548.2646	-0.0175
548.4597	-0.004
548.6548	-0.0094
548.8498	0.0011
549.0448	0.0027
549.2399	0.0021
549.4349	0.0021
549.6298	-0.0029
549.8248	0.0009
550.0198	-0.0079
550.2147	-0.0123
550.4096	-0.007
550.6045	-0.014
550.7994	-0.0021
550.9943	-0.0037
551.1892	0.0004
551.384	-0.0029
551.5788	-0.0122
551.7737	0.0038
551.9685	-0.0083
552.1632	0.0016
552.358	-0.0062
552.5528	0.0019
552.7475	0.0004
552.9422	0.0008
553.1369	-0.0105
553.3316	0.0047
553.5263	-0.0057
553.7209	0.0038
553.9156	-0.0054
554.1102	-0.0096
554.3048	-0.0102
554.4994	0.0158
554.694	-0.0055
554.8885	-0.0037
555.0831	-0.0127
555.2776	-0.0112
555.4721	-0.0012
555.6666	-0.004
555.8611	0.004
556.0555	-0.0066
556.25	-0.0041
556.4444	-0.0144
556.6388	-0.0028
556.8332	-0.0086
557.0276	-0.0057
557.222	-0.0103
557.4163	-0.0084
557.6107	-0.0087
557.805	0.0065
557.9993	-0.0107
558.1936	-0.0025
558.3879	-0.0061
558.5821	-0.0077
558.7764	-0.0128
558.9706	0.0022
559.1648	0.0025
559.359	0.0012
559.5532	-0.0127
559.7473	-0.006
559.9415	0.0024
560.1356	-0.0034
560.3297	-0.014
560.5238	-0.0041
560.7179	-0.0017
560.9119	-0.0006
561.106	-0.0147
561.3	-0.0022
561.494	-0.0026
561.688	-0.007
561.882	-0.0146
562.076	-0.0044
562.2699	0.0055
562.4639	-0.0127
562.6578	-0.0063
562.8517	-0.0029
563.0456	0.0044
563.2395	-0.001
563.4333	0.0006
563.6272	0.0024
563.821	-0.006
564.0148	-0.0038
564.2086	-0.0033
564.4024	-0.0087
564.5961	-0.0061
564.7899	-0.0046
564.9836	-0.0027
565.1773	-0.0008
565.371	0.0026
565.5647	0.0045
565.7584	0.0033
565.952	-0.0042
566.1456	-0.0031
566.3393	-0.0014
566.5329	-0.0063
566.7264	-0.0079
566.92	-0.003
567.1136	-0.0031
567.3071	-0.0059
567.5006	0.002
567.6941	-0.0022
567.8876	-0.0024
568.0811	-0.0061
568.2745	-0.0019
568.468	0.004
568.6614	-0.0057
568.8548	-0.0026
569.0482	-0.0064
569.2416	-0.004
569.4349	-0.0046
569.6283	0.0002
569.8216	-0.0014
570.0149	-0.0034
570.2082	0.0093
570.4015	-0.0015
570.5947	0.0067
570.788	-0.0007
570.9812	0.0059
571.1744	0.0032
571.3676	-0.008
571.5608	0.0023
571.754	-0.0017
571.9471	0.0067
572.1402	-0.0031
572.3333	-0.0054
572.5264	-0.0054
572.7195	-0.0008
572.9126	0.0022
573.1057	-0.0029
573.2987	0.0039
573.4917	0.0047
573.6847	-0.0093
573.8777	0.0045
574.0707	0.0031
574.2636	-0.0022
574.4566	0.0034
574.6495	0.0075
574.8424	0.0007
575.0353	-0.0015
575.2281	0.0106
575.421	0.006
575.6138	0.0021
575.8067	0.002
575.9995	-0.0001
576.1923	0.0006
576.385	0.0044
576.5778	0.0031
576.7706	0.0013
576.9633	-0.0106
577.156	0.0008
577.3487	-0.004
577.5414	0.0008
577.734	-0.002
577.9267	0.0037
578.1193	-0.0108
578.3119	-0.0047
578.5045	0.0002
578.6971	-0.0059
578.8897	0.007
579.0822	0.0008
579.2747	-0.0053
579.4673	-0.0051
579.6598	0.0041
579.8522	-0.0078
580.0447	-0.0045
580.2372	-0.0016
580.4296	0.0026
580.622	0.0004
580.8144	0.0001
581.0068	-0.0107
581.1992	-0.0126
581.3915	-0.0076
581.5839	-0.0091
581.7762	-0.0076
581.9685	0.0009
582.1608	0.0024
582.353	-0.0009
582.5453	0.0002
582.7375	-0.001
582.9298	0.0045
583.122	0.0006
583.3142	0.0009
583.5063	0.0041
583.6985	-0.0022
583.8906	-0.0003
584.0827	-0.0032
584.2749	0.0049
584.4669	-0.0033
584.659	-0.0014
584.8511	-0.0007
585.0431	-0.001
585.2352	0.0075
585.4272	0.0021
585.6192	0.0062
585.8111	-0.0002
586.0031	-0.004
586.195	-0.0037
586.387	0.0024
586.5789	-0.0013
586.7708	0.0035
586.9627	0.0037
587.1545	-0.0037
587.3464	0.001
587.5382	0.0025
587.73	-0.0044
587.9218	0.0083
588.1136	-0.0024
588.3053	0.0074
588.4971	-0.002
588.6888	-0.0069
588.8805	0.0037
589.0722	0.0041
589.2639	-0.0034
589.4556	-0.0016
589.6472	0.0017
589.8389	-0.0066
590.0305	-0.0134
590.2221	0.0075
590.4137	-0.0104
590.6052	0.0104
590.7968	0
590.9883	0.0005
591.1798	-0.0015
591.3713	-0.0046
591.5628	0.0046
591.7543	0.0047
591.9458	-0.0071
592.1372	0.0087
592.3286	0.0034
592.52	0.0039
592.7114	0.0004
592.9028	-0.0016
593.0941	-0.0024
593.2855	-0.0014
593.4768	-0.0014
593.6681	-0.0107
593.8594	-0.0064
594.0506	-0.0054
594.2419	0.0045
594.4331	-0.002
594.6244	0.0003
594.8156	-0.0069
595.0067	-0.0019
595.1979	-0.0043
595.3891	0.002
595.5802	-0.0095
595.7713	-0.01
595.9624	-0.0087
596.1535	0.0065
596.3446	0.0007
596.5357	0.0009
596.7267	0.007
596.9177	0.0028
597.1087	-0.0099
597.2997	-0.0038
597.4907	0.0025
597.6817	-0.0016
597.8726	-0.0041
598.0635	-0.006
598.2544	0.0037
598.4453	-0.0061
598.6362	-0.0044
598.827	-0.0092
599.0179	-0.0004
599.2087	0.0019
599.3995	-0.0032
599.5903	-0.0005
599.7811	0
599.9718	-0.0029
600.1626	-0.0079
600.3533	-0.0054
600.544	-0.0008
600.7347	0.0024
600.9254	0.0022
601.116	-0.0057
601.3067	-0.004
601.4973	-0.0071
601.6879	0.0023
601.8785	-0.001
602.0691	0.0006
602.2596	0.0044
602.4502	0.0032
602.6407	0.0053
602.8312	-0.0008
603.0217	-0.0058
603.2122	-0.0026
603.4027	-0.0007
603.5931	-0.0012
603.7835	-0.0089
603.9739	-0.0028
604.1643	-0.0083
604.3547	-0
604.5451	0.0005
604.7354	0.0006
604.9257	0.0009
605.116	-0.0015
605.3063	0.0049
605.4966	-0.0005
605.6869	0.007
605.8771	-0.0004
606.0673	-0.002
606.2575	0.0042
606.4477	0.0083
606.6379	0.0034
606.8281	-0
607.0182	-0.0032
607.2083	0.0124
607.3985	0.0007
607.5885	0.0005
607.7786	-0.0031
607.9687	0.0004
608.1587	0.0037
608.3488	0.0047
608.5388	0.0053
608.7288	-0.0005
608.9187	-0.0003
609.1087	-0.0068
609.2986	0.0006
609.4886	-0.0055
609.6785	-0.0025
609.8684	0.0085
610.0582	0.0019
610.2481	-0.0011
610.4379	0.0062
610.6278	-0.0036
610.8176	0.0035
611.0074	0.0059
611.1971	0.0022
611.3869	-0.0026
611.5766	-0.0048
611.7664	0.0116
611.9561	0.0058
612.1458	0.003
612.3354	-0.0047
612.5251	-0.0024
612.7147	0.0036
612.9044	0.0038
613.094	-0.0057
613.2836	-0.003
613.4731	-0.005
613.6627	-0.0063
613.8522	0.0039
614.0417	0.0036
614.2313	-0.0022
614.4207	-0.0047
614.6102	-0.0006
614.7997	-0.0042
614.9891	-0.0082
615.1785	0.0005
615.3679	-0.0071
615.5573	0.0037
615.7467	-0.0021
615.9361	-0.0064
616.1254	0.0036
616.3147	-0.0047
616.504	-0.0027
616.6933	0.0041
616.8826	0.0012
617.0718	0.0044
617.2611	-0.0016
617.4503	-0.0057
617.6395	0.0018
617.8287	0.0014
618.0179	-0.001
618.207	0.0111
618.3961	0.0037
618.5853	0.0042
618.7744	0.007
618.9634	0.006
619.1525	-0.0039
619.3416	0.0036
619.5306	0.0061
619.7196	-0.0013
619.9086	-0.0009
620.0976	0.0093
620.2866	-0.0029
620.4755	0.0037
620.6645	0.0083
620.8534	0.0016
621.0423	0.0043
621.2312	0.0086
621.42	-0.0027
621.6089	-0.0004
621.7977	0.0053
621.9865	-0.0013
622.1753	0.0012
622.3641	-0.01
622.5529	0.008
622.7416	0.0099
622.9303	-0.0008
623.1191	0
623.3078	0.0003
623.4964	-0.004
623.6851	-0.0048
623.8737	0.0035
624.0624	0.0062
624.251	0.0045
624.4396	0.0015
624.6282	0.0008
624.8167	0.0013
625.0053	0.0036
625.1938	0.0061
625.3823	-0.0025
625.5708	-0.0071
625.7593	-0.0056
625.9477	-0.0033
626.1362	-0.0043
626.3246	-0.0036
626.513	0.004
626.7014	0.0064
626.8898	-0.0054
627.0781	0.0028
627.2665	-0.0016
627.4548	0.008
627.6431	0.0073
627.8314	0.0013
628.0197	0.0072
628.2079	-0.0074
628.3962	-0.0062
628.5844	0.0034
628.7726	0.0056
628.9608	0.0066
629.1489	0.0056
629.3371	0.0021
629.5252	-0.0051
629.7134	0.0117
629.9015	0.0006
630.0895	0.0061
630.2776	0.0021
630.4657	0.002
630.6537	-0.0007
630.8417	0.0004
631.0297	0.0022
631.2177	-0.0013
631.4057	-0.0077
631.5936	0.0035
631.7815	0.0027
631.9695	0.0007
632.1574	0.0021
632.3452	0.0089
632.5331	0.0044
632.7209	-0.0001
632.9088	0.0084
633.0966	0.0121
633.2844	0.0051
633.4722	0.0046
633.6599	0.0112
633.8477	0.004
634.0354	0.0045
634.2231	-0.0029
634.4108	-0.0017
634.5985	0.0021
634.7861	-0.0014
634.9738	-0.002
635.1614	-0.0015
635.349	0.0015
635.5366	0.0029
635.7242	0.003
635.9117	-0.0003
636.0993	0.0031
636.2868	0.0021
636.4743	0.0011
636.6618	0.0119
636.8492	0.003
637.0367	-0.006
637.2241	0.0014
637.4115	-0.009
637.5989	0.0041
637.7863	-0.0017
637.9737	0.0011
638.161	0.0029
638.3484	-0.0017
638.5357	0.0058
638.723	-0.0026
638.9103	0.0031
639.0975	0.0028
639.2848	-0.0024
639.472	-0.005
639.6592	0.0054
639.8464	0.0126
640.0336	0.0018
640.2208	0.0009
640.4079	0.0024
640.595	-0.0025
640.7821	0.0104
640.9692	0.0012
641.1563	-0.0062
641.3434	0.002
641.5304	-0.0001
641.7174	0.0007
641.9044	-0.0054
642.0914	-0.0043
642.2784	0.0007
642.4653	0.0049
642.6523	-0.0009
642.8392	-0.0058
643.0261	0.0072
643.213	0.0016
643.3999	-0.0025
643.5867	-0.0024
643.7735	-0.0004
643.9604	-0.003
644.1472	-0.0034
644.3339	-0.002
644.5207	-0.0035
644.7075	-0.0054
644.8942	-0.0013
645.0809	0.0024
645.2676	0.0051
645.4543	0.0012
645.6409	0.0062
645.8276	-0.0026
646.0142	-0.002
646.2008	-0.0066
646.3874	-0.0018
646.574	-0.0065
646.7605	-0.0012
646.9471	-0.0151
647.1336	-0.0009
647.3201	0.003
647.5066	0.0014
647.6931	0.0076
647.8795	0.0013
648.0659	0.0064
648.2524	0.0064
648.4388	-0.0016
648.6252	-0.0039
648.8115	0.0035
648.9979	-0.003
649.1842	-0.0025
649.3705	0.0029
649.5568	0.0007
649.7431	0.0024
649.9294	0.0048
650.1156	0.0079
650.3018	-0.0131
650.488	-0.0007
650.6742	0.0058
650.8604	0.0025
651.0466	-0.0095
651.2327	-0.0034
651.4188	-0.0022
651.6049	-0.0027
651.791	0.0014
651.9771	0.0027
652.1632	-0.0001
652.3492	0.005
652.5352	-0.0085
652.7212	-0.0119
652.9072	-0.0002
653.0932	-0.0072
653.2791	-0.0104
653.465	0.0001
653.651	-0.0046
653.8369	-0.0097
654.0227	-0.0091
654.2086	0.0043
654.3944	0.0019
654.5803	-0.0071
654.7661	-0.006
654.9519	0.0012
655.1377	-0.0078
655.3234	-0.0022
655.5092	-0.0035
655.6949	-0.0076
655.8806	-0.0021
656.0663	0.0006
656.2519	0.0003
656.4376	-0.0015
656.6232	-0.0041
656.8088	-0.0015
656.9945	-0.0051
657.18	-0.0038
657.3656	-0.0065
657.5511	-0.0055
657.7367	-0.0031
657.9222	0.0026
658.1077	-0.0038
658.2932	0.0063
658.4786	-0.0127
658.6641	-0.0065
658.8495	-0.0045
659.0349	-0.0068
659.2203	-0.0033
659.4057	-0.0072
659.591	0.0035
659.7764	-0.0066
659.9617	-0.0017
660.147	-0.0011
660.3323	0.001
660.5176	0.0014
660.7028	0.0081
660.888	-0.0017
661.0733	-0.0032
661.2585	-0.0103
661.4436	-0.0061
661.6288	-0.004
661.8139	0.002
661.9991	-0.0024
662.1842	-0.0065
662.3693	0.0031
662.5544	-0.0064
662.7394	-0.0033
662.9245	-0.0001
663.1095	-0.0043
663.2945	-0.0062
663.4795	-0.0066
663.6644	0.0004
663.8494	0.0018
664.0343	-0.003
664.2193	-0.0004
664.4042	-0.0011
664.589	-0.0032
664.7739	-0.0097
664.9587	-0.0036
665.1436	0.0006
665.3284	0.0026
665.5132	-0.0064
665.698	0.0018
665.8827	0.0053
666.0675	-0.0013
666.2522	-0.0068
666.4369	0.0069
666.6216	0.0066
666.8063	-0.0016
666.9909	0.0016
667.1756	0
667.3602	-0.0051
667.5448	-0.0029
667.7294	0.007
667.9139	0.0042
668.0985	0.0106
668.283	-0.003
668.4675	-0.0045
668.652	-0.0084
668.8365	-0.0018
669.0209	0.0035
669.2054	0.0091
669.3898	-0.003
669.5742	0.0015
669.7586	0.0058
669.943	0.0049
670.1273	0.0073
670.3117	0.0008
670.496	0.005
670.6803	0.0117
670.8646	0.0137
671.0488	0.0007
671.2331	0.0063
671.4173	0.003
671.6015	-0.0001
671.7857	-0.0019
671.9699	0.0054
672.1541	0.0074
672.3382	0.0084
672.5223	0.0033
672.7064	0.0038
672.8905	0.0106
673.0746	0.0045
673.2587	0.002
673.4427	0.0044
673.6267	0.0101
673.8107	0.0063
673.9947	0.0046
674.1787	0.0004
674.3626	-0.0034
674.5465	0.0019
674.7304	0.0031
674.9143	0.0052
675.0982	0.0016
675.2821	-0.0056
675.4659	0.0012
675.6497	-0.0003
675.8335	0.0006
676.0173	-0.0023
676.2011	0.0021
676.3849	0.0006
676.5686	-0.0028
676.7523	-0.0002
676.936	-0.0041
677.1197	-0.0089
677.3034	-0.0047
677.487	-0.002
677.6706	0.0054
677.8542	0.0027
678.0378	-0.0004
678.2214	0.0035
678.405	0.0023
678.5885	-0.0103
678.772	0.0023
678.9555	-0.007
679.139	-0.0045
679.3225	0.0055
679.5059	-0.002
679.6894	0.0044
679.8728	0.0013
680.0562	-0.0139
680.2395	-0.0009
680.4229	-0.0032
680.6062	-0.0001
680.7896	-0.001
680.9729	-0.007
681.1562	-0.0008
681.3394	0.0007
681.5227	-0.0104
681.7059	-0.0085
681.8891	-0.0053
682.0723	0.0015
682.2555	-0.003
682.4387	-0.0029
682.6218	-0.0049
682.805	0.0025
682.9881	0.0038
683.1712	-0.0023
683.3542	-0.004
683.5373	0.0018
683.7203	-0.0051
683.9034	-0.0029
684.0864	-0.0051
684.2694	-0.0015
684.4523	0.0008
684.6353	-0.007
684.8182	-0.0026
685.0011	-0.009
685.184	-0.0059
685.3669	-0.0036
685.5498	0.0055
685.7326	-0.001
685.9154	-0.0049
686.0982	0.008
686.281	0.0015
686.4638	0.0021
686.6465	0.0056
686.8293	0.0098
687.012	0.0064
687.1947	-0.0068
687.3774	0.0048
687.56	0.0007
687.7427	0.01
687.9253	-0.0054
688.1079	-0.0044
688.2905	0.0075
688.4731	0.0039
688.6556	0.0004
688.8382	-0.0011
689.0207	-0.0031
689.2032	-0.0061
689.3857	-0.005
689.5681	-0.0007
689.7506	-0.0061
689.933	-0.0074
690.1154	0.0008
690.2978	-0.0049
690.4802	0.0011
690.6626	-0.0133
690.8449	-0.0089
691.0272	0.0062
691.2095	-0.0074
691.3918	-0.0013
691.5741	0.0012
691.7563	-0.0031
691.9386	0.0032
692.1208	-0.0063
692.303	-0.0059
692.4852	0.0026
692.6673	-0.0012
692.8495	-0.008
693.0316	0.0053
693.2137	0.0011
693.3958	0.0023
693.5778	0.0057
693.7599	0.0079
693.9419	-0.0021
694.1239	-0.0004
694.3059	-0.0017
694.4879	0.0091
694.6699	0.0102
694.8518	0.006
695.0337	-0.0006
695.2157	-0.0006
695.3975	0.0008
695.5794	0.0042
695.7613	0.002
695.9431	-0.0012
696.1249	0.0048
696.3067	0.0102
696.4885	0.0087
696.6703	-0.0054
696.852	-0.0032
697.0337	-0.001
697.2154	-0.0071
697.3971	-0.005
697.5788	-0.0069
697.7605	-0.0037
697.9421	-0.0025
698.1237	-0.004
698.3053	-0.0025
698.4869	-0.0034
698.6685	-0.0114
698.85	-0.0002
699.0315	-0.0008
699.213	-0.0043
699.3945	-0.001
699.576	0.0106
699.7575	0.0069
699.9389	0.0063
700.1203	-0.0047
700.3017	-0.0001
700.4831	0.0009
700.6645	0.0002
700.8458	0.005
701.0271	0.0056
701.2084	0.0024
701.3897	0.0042
701.571	0.0056
701.7523	-0.0002
701.9335	0.0024
702.1147	-0.0013
702.2959	-0.0008
702.4771	0.0004
702.6583	0.0045
702.8394	-0.0084
703.0205	-0.0001
703.2016	-0.0079
703.3827	-0.006
703.5638	0.0029
703.7449	-0.0039
703.9259	0.0141
704.1069	-0.0002
704.2879	0.0026
704.4689	0.0013
704.6499	-0.0012
704.8308	0.0023
705.0117	-0.0005
705.1927	0.0147
705.3735	0.0072
705.5544	-0.004
705.7353	0.0003
705.9161	0.0006
706.0969	-0.008
706.2777	0.0007
706.4585	-0.0063
706.6393	-0.003
706.82	-0.0038
707.0007	-0.0006
707.1815	0.0004
707.3621	0.0096
707.5428	0.0046
707.7235	-0.0013
707.9041	-0.0006
708.0847	-0.0024
708.2653	-0.0084
708.4459	-0.005
708.6265	0.0013
708.807	-0.0007
708.9875	-0.0014
709.168	-0.002
709.3485	0.0018
709.529	-0.006
709.7095	-0.0084
709.8899	-0.0051
710.0703	-0.0044
710.2507	-0.0076
710.4311	-0.0054
710.6115	-0.0119
710.7918	-0.0049
710.9721	-0.0002
711.1524	-0.0082
711.3327	-0.0027
711.513	-0.0011
711.6932	-0.0021
711.8735	0.0047
712.0537	-0.0045
712.2339	0.0025
712.4141	-0.0089
712.5942	-0.0109
712.7744	-0.0101
712.9545	-0.0106
713.1346	-0.0097
713.3147	-0.0059
713.4947	-0.0137
713.6748	-0.0063
713.8548	-0.0132
714.0348	-0.0035
714.2148	0.0062
714.3948	0.01
714.5748	-0.0061
714.7547	-0.0054
714.9346	0.0068
715.1145	-0.0051
715.2944	-0.0039
715.4743	-0.0051
715.6541	-0.0082
715.834	0.0035
716.0138	0.0001
716.1936	-0.0103
716.3733	-0.0062
716.5531	0.0055
716.7328	-0.0058
716.9126	-0.002
717.0923	-0.0033
717.2719	-0.0028
717.4516	-0.004
717.6312	0.0008
717.8109	-0.0046
717.9905	-0.0007
718.1701	-0.0024
718.3496	-0.0067
718.5292	0.0014
718.7087	0.0028
718.8882	0.0049
719.0677	0.0065
719.2472	-0.0036
719.4267	-0.0065
719.6061	-0.0022
719.7856	-0.0061
719.965	0.0037
720.1443	-0.0076
720.3237	0.0064
720.5031	0.0083
720.6824	0.0103
720.8617	0.0019
721.041	0.0024
721.2203	0.0163
721.3995	0.0057
721.5788	0.0102
721.758	0.0041
721.9372	0.001
722.1164	0.004
722.2956	0.0109
722.4747	0.0026
722.6538	0.0014
722.8329	0.0088
723.012	0.0036
723.1911	0.0017
723.3702	-0.0022
723.5492	-0.0018
723.7282	0.0019
723.9072	-0.0046
724.0862	0.0016
724.2652	0.0003
724.4441	0.0061
724.623	0.0007
724.8019	-0.0014
724.9808	0.0006
725.1597	-0.0063
725.3385	0.0023
725.5174	-0.0037
725.6962	0.0028
725.875	-0.0019
726.0538	0.0089
726.2325	0.0048
726.4112	0.0043
726.59	-0.0036
726.7687	-0.0053
726.9474	-0.0028
727.126	-0.0009
727.3047	-0.0068
727.4833	-0.0004
727.6619	-0.0016
727.8405	-0.0162
728.0191	-0.0045
728.1976	0.0015
728.3762	-0.0065
728.5547	0.0027
728.7332	-0.0061
728.9116	0.0041
729.0901	0.0028
729.2686	-0.0031
729.447	-0.0056
729.6254	-0.0033
729.8038	-0.0078
729.9821	-0.01
730.1605	0.0024
730.3388	-0.004
730.5171	-0.004
730.6954	-0.0081
730.8737	0.007
731.0519	0.0077
731.2302	-0.002
731.4084	0.0015
731.5866	0.0061
731.7648	-0.0028
731.9429	0.001
732.1211	-0.0049
732.2992	0.0034
732.4773	0.0009
732.6554	-0.0012
732.8335	0.001
733.0115	0.0082
733.1896	0.0219
733.3676	-0.0084
733.5456	0.0084
733.7235	0.0088
733.9015	-0.001
734.0794	0.0016
734.2574	0.002
734.4353	0.0058
734.6131	0.007
734.791	0.0014
734.9689	0.001
735.1467	0.001
735.3245	-0.0081
735.5023	-0.0107
735.68	-0.0011
735.8578	0.0007
736.0355	-0.0216
736.2132	-0.0119
736.3909	-0.0044
736.5686	-0.0109
736.7463	0.0072
736.9239	-0.0072
737.1015	-0.0043
737.2791	-0.0053
737.4567	-0.0046
737.6343	-0.0036
737.8118	0.0004
737.9894	0.0061
738.1669	-0.0166
738.3444	-0.0016
738.5218	-0.0038
738.6993	-0.0016
738.8767	-0.0058
739.0541	0.0045
739.2315	-0.0136
739.4089	-0.005
739.5863	-0.0049
739.7636	-0.0049
739.9409	-0.0089
740.1182	0.001
740.2955	0.0029
740.4728	0.001
740.65	-0.0012
740.8272	-0.0005
741.0044	-0.0081
741.1816	-0.0012
741.3588	-0.0052
741.5359	0.0008
741.7131	-0.005
741.8902	0.0005
742.0673	-0.0089
742.2444	-0.0116
742.4214	-0.009
742.5985	-0.0119
742.7755	-0.0149
742.9525	-0.0178
743.1295	-0.0092
743.3064	-0.0051
743.4834	-0.0091
743.6603	0.0004
743.8372	-0.0118
744.0141	0.0011
744.191	-0.0014
744.3678	-0.0053
744.5446	-0.0026
744.7215	0.0001
744.8982	-0.0015
745.075	-0.0096
745.2518	0.0081
745.4285	0.0059
745.6052	-0.0077
745.7819	-0.003
745.9586	-0.0051
746.1353	-0.0018
746.3119	0.0028
746.4885	-0.0024
746.6651	-0.0029
746.8417	-0.0019
747.0183	0.002
747.1948	0.0071
747.3714	-0.0041
747.5479	0.0023
747.7244	0.0019
747.9008	0.0038
748.0773	-0.0001
748.2537	-0.0071
748.4301	-0.0118
748.6065	0.0044
748.7829	0.0077
748.9593	-0.0066
749.1356	-0.0025
749.3119	0.0093
749.4882	-0.0097
749.6645	0.0072
749.8408	-0.0096
750.017	0.0023
750.1933	0.005
750.3695	-0.0038
750.5457	0.0053
750.7218	0.0081
750.898	0.0099
751.0741	-0.0061
751.2502	0.0029
751.4263	-0.004
751.6024	0.0045
751.7784	0.0019
751.9545	-0.0034
752.1305	-0.0002
752.3065	-0.0074
752.4825	-0.0049
752.6584	-0.0062
752.8344	-0.0075
753.0103	-0.0031
753.1862	-0.0078
753.3621	-0.0089
753.5379	0.0008
753.7138	-0.0033
753.8896	-0.0071
754.0654	0.0063
754.2412	0.0092
754.417	0.0049
754.5927	-0.0032
754.7685	0.0022
754.9442	-0.0086
755.1199	0.0024
755.2956	-0.004
755.4712	0.0038
755.6469	0.0001
755.8225	-0.0011
755.9981	-0.0119
756.1736	-0.0033
756.3492	-0.0002
756.5248	-0.0106
756.7003	-0.0081
756.8758	0.0095
757.0513	-0.0104
757.2267	-0
757.4022	0.0024
757.5776	-0.0025
757.753	0.0025
757.9284	-0.0027
758.1038	0.0093
758.2791	0.0014
758.4545	-0.0041
758.6298	0.0064
758.8051	0.0095
758.9803	0.0081
759.1556	0.006
759.3308	0.0041
759.506	0.0086
759.6812	0.0081
759.8564	0.0084
760.0316	-0.0002
760.2067	0.0041
760.3819	0.0095
760.557	0.0162
760.732	0.0044
760.9071	-0.0059
761.0821	0.0067
761.2572	0.0064
761.4322	0.0018
761.6072	-0.0031
761.7821	-0.0103
761.9571	-0.0007
762.132	-0.0168
762.3069	-0.007
762.4818	-0.0124
762.6567	-0.0079
762.8316	-0.0075
763.0064	-0.0078
763.1812	0.0009
763.356	-0.0165
763.5308	0.0132
763.7055	0.0078
763.8803	-0.0046
764.055	0.0018
764.2297	0.0033
764.4044	-0.0125
764.579	-0.0044
764.7537	-0.0159
764.9283	0.0003
765.1029	-0.0087
765.2775	0.0011
765.4521	-0.0078
765.6266	-0.0013
765.8011	-0.005
765.9756	0.0004
766.1501	0.0055
766.3246	-0.001
766.4991	-0.0093
766.6735	0.0064
766.8479	-0.0072
767.0223	0.0134
767.1967	-0.0023
767.371	0.0063
767.5454	-0.0037
767.7197	-0.0056
767.894	-0.0035
768.0683	-0.0137
768.2425	-0.0028
768.4168	0.0101
768.591	0.0127
768.7652	0.0041
768.9394	0.0057
769.1135	0.001
769.2877	-0.0001
769.4618	0.0118
769.6359	0.0057
769.81	-0.0005
769.984	-0.0085
770.1581	-0.0114
770.3321	-0.0061
770.5061	-0.0123
770.6801	0.0025
770.8541	-0.0128
771.028	0.0061
771.202	-0.0102
771.3759	-0.0024
771.5498	-0.003
771.7236	-0.0004
771.8975	0.0029
772.0713	0.0056
772.2451	0.0069
772.4189	0.0089
772.5927	0.0066
772.7665	0.0049
772.9402	-0.0122
773.1139	-0.0076
773.2876	-0.008
773.4613	-0.0023
773.635	0.0053
773.8086	-0.0129
773.9822	0.0031
774.1558	0.0057
774.3294	-0.0161
774.503	-0.0018
774.6765	0.0068
774.8501	0.0096
775.0236	0.017
775.1971	0.0045
775.3705	-0.0113
775.544	0.007
775.7174	-0.0111
775.8908	-0.0072
776.0642	-0.0006
776.2376	0.0046
776.4109	-0.0097
776.5843	-0.0016
776.7576	0.0048
776.9309	0.0156
777.1041	0.0064
777.2774	0.0114
777.4506	0.009
777.6238	-0.0102
777.797	-0.007
777.9702	-0.0041
778.1434	0.0097
778.3165	-0.0223
778.4896	0.0014
778.6627	0.0056
778.8358	-0.0173
779.0089	-0.0005
779.1819	0.0049
779.3549	0.0134
779.5279	0.0124
779.7009	-0.011
779.8739	0.012
780.0468	0.001
780.2197	0.0056
780.3926	0.0028
780.5655	-0.0006
780.7384	-0.0058
780.9112	-0.0045
781.0841	-0.0158
781.2569	0.0091
781.4297	-0.0048
781.6024	0.0102
781.7752	0.0035
781.9479	0.011
782.1206	-0.0049
782.2933	-0.0075
782.466	0.0133
782.6386	0.0002
782.8113	0.006
782.9839	-0.0049
783.1565	0.0158
783.329	0.0136
783.5016	0.0073
783.6741	0.0057
783.8466	0.0004
784.0191	0.0198
784.1916	-0.0072
784.3641	-0.0065
784.5365	0.0025
784.7089	-0.0098
784.8813	-0.0063
785.0537	-0.0046
785.2261	-0.0048
785.3984	-0.0124
785.5707	0.0024
785.743	-0.0032
785.9153	-0.0042
786.0876	0.0101
786.2598	-0.0072
786.432	-0.0178
786.6042	0.0051
786.7764	-0.0054
786.9486	0.0045
787.1207	-0.0099
787.2928	0.0139
787.4649	0.011
787.637	-0.0025
787.8091	0.0007
787.9811	0.0017
788.1532	-0.004
788.3252	0.0062
788.4972	-0.0076
788.6691	0.0115
788.8411	0.0057
789.013	0.0079
789.1849	0.0013
789.3568	0.0045
789.5287	0.009
789.7005	0.0012
789.8723	-0.0062
790.0442	0.0087
790.2159	0.0061
790.3877	0.0038
790.5595	-0.0213
790.7312	0.0051
790.9029	0.0065
791.0746	0.0038
791.2463	0.005
791.4179	-0.011
791.5896	-0.0073
791.7612	0.0044
791.9328	-0.0104
792.1044	-0.0148
792.2759	0.0094
792.4474	-0.0016
792.619	0.0183
792.7905	0.0086
792.9619	0.0069
793.1334	0.0077
793.3048	0.0089
793.4762	0.0097
793.6476	0.0085
793.819	-0.0013
793.9904	0.007
794.1617	-0.0122
794.333	0.0012
794.5043	-0.0083
794.6756	0.0077
794.8469	0.0033
795.0181	0.0039
795.1893	-0.0045
795.3605	0.0086
795.5317	-0.005
795.7029	-0.0077
795.874	0.0067
796.0452	0.0031
796.2163	0.0021
796.3873	0.0166
796.5584	-0.0023
796.7294	-0.002
796.9005	0.0141
797.0715	0.026
797.2425	-0.018
797.4134	0.0053
797.5844	0.0061
797.7553	-0.0028
797.9262	-0.0038
798.0971	0.0033
798.2679	-0.0015
798.4388	-0.0081
798.6096	0.0011
798.7804	0.0049
798.9512	-0.0041
799.122	-0.0013
799.2927	0.0031
799.4635	0.0126
799.6342	0.0016
799.8049	-0.0058
799.9755	0.013
800.1462	-0.006
800.3168	0.0236
800.4874	-0.0033
800.658	0.022
800.8286	0.0171
800.9991	0.0216
801.1696	0.0105
801.3402	0.0083
801.5106	0.0185
801.6811	0.0108
801.8516	0.0061
802.022	0.0143
802.1924	0.0181
802.3628	0.0186
802.5332	0.0024
802.7035	0.0267
802.8739	0.0057
803.0442	-0.0043
803.2145	0.0134
803.3847	-0.0173
803.555	0.0043
803.7252	-0.0055
803.8954	0.016
804.0656	0.0002
804.2358	0.0061
804.4059	0.0302
804.5761	0.0196
804.7462	0.0225
804.9163	0.0068
805.0864	0.0056
805.2564	0.0004
805.4264	0.0205
805.5965	-0.0117
805.7665	0.0292
805.9364	0.0056
806.1064	0.037
806.2763	0.0199
806.4462	0.0325
806.6161	0.0219
806.786	0.0292
806.9559	0.0091
807.1257	0.0065
807.2955	0.0096
807.4653	0.0212
807.6351	0.0024
807.8048	0.0049
807.9746	0.0205
808.1443	0.0116
808.314	0.0053
808.4837	-0.008
808.6533	0.0229
808.8229	0.0444
808.9926	0.0192
809.1622	0.0097
809.3317	0.0156
809.5013	-0.004
809.6708	0.0261
809.8403	0.0117
810.0098	0.0205
810.1793	0.0118
810.3488	0.0192
810.5182	-0.005
810.6876	0.0068
810.857	0.0051
811.0264	0.0386
811.1958	0.0344
811.3651	0.0303
811.5344	0.0066
811.7037	0.0122
811.873	0.0005
812.0422	0.0087
812.2115	0.0281
812.3807	0.0005
812.5499	0.0238
812.7191	0.0231
812.8882	0.0138
813.0574	0.0151
813.2265	0.006
813.3956	0.0148
813.5646	0.0149
813.7337	0.0055
813.9027	0.0165
814.0718	0.026
814.2407	0.0209
814.4097	0.0133
814.5787	-0.0172
814.7476	0.017
814.9165	0.0153
815.0854	0.0165
815.2543	0.0149
815.4232	0.0119
815.592	0.0273
815.7608	0.0029
815.9296	0.03
816.0984	0.0197
816.2671	0.0038
816.4359	0.0107
816.6046	-0.005
816.7733	-0.0043
816.942	-0.01
817.1106	0.0311
817.2793	0.0162
817.4479	0.0203
817.6165	0.0226
817.785	0.025
817.9536	0.0096
818.1221	0.0337
818.2906	0.0486
818.4591	-0.001
818.6276	0.0127
818.7961	0.0103
818.9645	0.0295
819.1329	0.0222
819.3013	0.0452
819.4697	0.0467
819.638	0.0312
819.8064	0.018
819.9747	0.0088
820.143	0.0087
820.3113	0.0088
820.4795	0.0067
820.6477	0.0165
820.816	-0.0049
820.9842	0.0195
821.1523	0.0195
821.3205	-0.0147
821.4886	0.0109
821.6567	0.0057
821.8248	0.0201
821.9929	0.0378
822.1609	0.0271
822.329	0.0389
822.497	0.0212
822.665	0.0083
822.833	0.0023
823.0009	0.0129
823.1688	0.0211
823.3367	0.0455
823.5046	0.0346
823.6725	0.0187
823.8404	0.0152
824.0082	0.0007
824.176	0.0234
824.3438	0.0076
824.5116	-0.0132
824.6793	0.0218
824.847	0.0134
825.0147	0.0383
825.1824	0.0319
825.3501	0.0148
825.5177	-0.0263
825.6854	0.0082
825.853	0.0033
826.0206	-0.0302
826.1881	0.0069
826.3557	-0.0253
826.5232	0.007
826.6907	-0.0164
826.8582	0.0091
827.0257	-0.0105
827.1931	-0.0041
827.3605	-0.0138
827.528	-0.0014
827.6953	-0.0059
827.8627	0.0123
828.03	0.043
828.1974	-0.0056
828.3647	-0.0202
828.532	-0.0151
828.6992	-0.0193
828.8665	0.0024
829.0337	-0.0105
829.2009	0.0241
829.3681	0.0103
829.5352	0.0255
829.7024	-0.0231
829.8695	-0.004
830.0366	0.034
830.2037	-0.0195
830.3707	-0.0015
830.5378	-0.0048
830.7048	0.0206
830.8718	-0.0033
831.0388	0.0253
831.2057	0.0343
831.3727	0.0268
831.5396	0.0005
831.7065	0.0309
831.8734	0.025
832.0402	-0.0365
832.2071	0.0114
832.3739	-0.0131
832.5407	0.0078
832.7075	-0.0124
832.8742	-0.0092
833.041	-0.0151
833.2077	-0.0037
833.3744	0.0174
833.541	-0.0019
833.7077	-0.0172
833.8743	0.0153
834.0409	-0.0001
834.2075	-0.0138
834.3741	0.0037
834.5407	0.049
834.7072	-0.015
834.8737	-0.0047
835.0402	-0.012
835.2067	0.0256
835.3731	0.0106
835.5395	0.0162
835.706	0.0006
835.8723	-0.0072
836.0387	-0.0074
836.2051	0.0206
836.3714	0.0267
836.5377	-0.0312
836.704	-0.0209
836.8703	0.0489
837.0365	0.0194
837.2027	0.003
837.3689	0.0252
837.5351	-0.0104
837.7013	-0.0093
837.8674	-0.0402
838.0335	-0.0144
838.1997	0.0073
838.3657	-0.0372
838.5318	0.0007
838.6978	0.0527
838.8639	0.0197
839.0299	-0.0111
839.1958	0.0134
839.3618	0.006
839.5277	-0.0234
839.6937	0.0325
839.8596	-0.0415
840.0254	0.062
840.1913	0.0289
840.3571	0.0151
840.523	0.0688
840.6888	-0.0029
840.8545	-0.037
841.0203	-0.0155
841.186	-0.0119
841.3517	0.0624
841.5174	0.0159
841.6831	-0.0103
841.8488	0.0127
842.0144	-0.0055
842.18	0.0369
842.3456	0.031
842.5112	-0.0238
842.6767	-0.0588
842.8422	0.0196
843.0077	-0.0032
843.1732	-0.0217
843.3387	-0.0544
843.5042	-0.0239
843.6696	-0.0415
843.835	-0.0022
844.0004	0.082
844.1657	0.0647
844.3311	-0.0432
844.4964	0.0065
844.6617	-0.026
844.827	-0.041
844.9923	0.0246
845.1575	0.0584
845.3227	0.0224
845.4879	0.0148
845.6531	-0.0185
845.8183	-0.0695
845.9834	0.01
846.1485	-0.0416
846.3136	-0.0366
846.4787	-0.0528
846.6438	0.0626
846.8088	-0.0376
846.9738	-0.0584
847.1388	-0.0001
847.3038	0.0232
847.4687	-0.0866
847.6337	0.0951
847.7986	-0.0284
847.9635	-0.0488
848.1284	-0.0082
848.2932	0.1002
848.458	0.0779
848.6228	0.0498
848.7876	0.0798
848.9524	-0.017
849.1172	-0.0942
849.2819	0.0083
849.4466	-0.0292
849.6113	-0.0847
849.7759	0.0598
849.9406	-0.1101
850.1052	0.0401
850.2698	-0.0347
850.4344	-0.0395
850.599	-0.0738
850.7635	0.0757
850.928	-0.1003
851.0925	0.1183
851.257	0.1312
851.4215	-0.0278
851.5859	0.0223
851.7503	-0.0269
851.9147	-0.0034
852.0791	-0.0389
852.2434	-0.0259
852.4078	0.0958
852.5721	0.0812
852.7364	-0.0082
852.9007	-0.1609
853.0649	0.0324
853.2291	0.0671
853.3934	-0.0002
853.5575	-0.0502
853.7217	-0.1138
853.8859	0.0206
854.05	-0.1354
854.2141	-0.018
854.3782	-0.1396
854.5423	-0.1353
854.7063	0.1214
854.8703	-0.0138
855.0343	0.029
855.1983	-0.139
855.3623	0.1121
855.5262	0.0877
855.6901	-0.1561
855.854	0.0124
856.0179	0.1457
856.1818	0.0936
856.3456	-0.097
856.5094	-0.0922
856.6732	-0.0659
856.837	-0.0251
857.0008	0.1079
857.1645	-0.049
857.3282	-0.1631
857.4919	0.0504
857.6556	0.0293
857.8192	-0.044
857.9828	0.0704
858.1465	0.081
858.31	-0.2047
858.4736	-0.0503
858.6372	-0.0705
858.8007	-0.1893
858.9642	0.085
859.1277	-0.0755
859.2911	0.2012
859.4546	0.1812
859.618	-0.3864
859.7814	-0.0326
859.9448	-0.0794
860.1081	-0.095
860.2715	0.2729
860.4348	-0
860.5981	-0.0618
860.7614	0.1172
860.9246	-0.2473
861.0879	-0.2133
861.2511	0.0451
861.4143	-0.2503
861.5774	0.0289
861.7406	0.0442
861.9037	-0.093
862.0668	-0.0137
862.2299	-0.141
862.393	-0.4004
862.556	-0.0735
862.7191	-0.1722
862.8821	-0.2508
863.0451	-0.0166
863.208	0.1298
863.371	0.4282
863.5339	0.0224
863.6968	-0.0336
863.8597	0.0106
864.0225	-0.0064
864.1854	-0.0353
864.3482	0.0498
864.511	0.1085
864.6737	0.4542
864.8365	-0.0224
864.9992	-0.3246
865.1619	-0.0266
865.3246	0.0948
865.4873	0.0631
865.65	-0.155
865.8126	0.3225
865.9752	-0.0562
866.1378	-0.2496
866.3004	0.4056
866.4629	0.1871
866.6254	-0.3203
866.7879	-0.2496
866.9504	-0.0266
867.1129	-0
867.2753	0.0924
867.4377	-0.0641
867.6001	0.1728
867.7625	0.0512
867.9249	-0
868.0872	0.0644
868.2495	0.4919
868.4118	-0.4601
868.5741	-0.7676
868.7363	0.4987
868.8986	-0.4985
869.0608	-0.1566
869.223	-0.0339
869.3851	-0
869.5473	-0
869.7094	0.376
869.8715	0.0744
870.0336	-0.7165
870.1957	-0.6672
870.3577	-0.934
870.5197	-0.1208
870.6817	-0.1405
870.8437	-0.2284
871.0057	-0
871.1676	0.0907
871.3295	0.0225
871.4914	-0.2051
871.6533	-0.3558
871.8151	-0.2721
871.977	-0
872.1388	-0
872.3006	-0.1409
872.4623	-0
872.6241	0.5257
872.7858	-0.2023
872.9475	-0.0947
873.1092	0.5275
873.2709	-0
873.4325	-0.1374
873.5941	-0
873.7557	-0.3243
873.9173	-0.0951
874.0789	0.3278
874.2404	-0
874.4019	0.5846
874.5634	-0.1761
874.7249	-0.0687
874.8863	-0.1334
875.0478	1.081
875.2092	-0
875.3706	0.1233
875.5319	-0
875.6933	-0
875.8546	-0
876.0159	-0
876.1772	0.1429
876.3385	0.0053
876.4997	-0.1174
876.6609	-0.2039
876.8221	0.0034
876.9833	-0
877.1445	-0
877.3056	-0.0236
877.4667	-0.0266
877.6278	-0
877.7889	-0.8524
877.9499	-0
878.111	-0.4976
878.272	-0
878.433	-0
878.5939	-0
878.7549	-0.1252
878.9158	-0
879.0767	1.5996
879.2376	0.2959
879.3984	-0.0408
879.5593	-0.0353
879.7201	0.4702
879.8809	-0.8456
880.0417	0.2147
880.2024	0.08
880.3632	-1.269
880.5239	0.5335
880.6846	0.4825
880.8452	-2.5434
881.0059	-1.5378
881.1665	-0
881.3271	-0.4436
881.4877	-0.5275
881.6483	-0.4277
881.8088	-0.1551
881.9693	-0
882.1298	-0
882.2903	-0
