Data from MonoPyChalIsomerACN10uM400nmA_Absorbance_12-08-45-628.txt Node
Date: Fri Jul 05 12:08:45 BST 2024
User: LASERRRRR
Spectrometer: FLMT03099
Trigger mode: 0
Integration Time (sec): 1.000000E-1
Scans to average: 1
Electric dark correction enabled: true
Nonlinearity correction enabled: false
Boxcar width: 0
XAxis mode: Wavelengths
Number of Pixels in Spectrum: 3648
>>>>>Begin Spectral Data<<<<<
179.3399	0.3212
179.5586	0.3212
179.7771	0.3212
179.9957	0.4977
180.2143	-0.4611
180.4329	-0
180.6514	-0.5208
180.8699	-0.3175
181.0885	0.1093
181.307	0.2437
181.5255	-0.6424
181.744	-0.3676
181.9625	-0
182.181	-0
182.3994	-0.4503
182.6179	0.1025
182.8363	-0.5182
183.0547	0.1309
183.2732	0.2238
183.4916	0.029
183.71	0.3548
183.9284	0.3476
184.1467	-0.0766
184.3651	-0.0449
184.5835	0.1368
184.8018	-0.0382
185.0201	0.1719
185.2385	0.1285
185.4568	0.1671
185.6751	0.0168
185.8934	0.019
186.1117	0.0442
186.3299	0.0353
186.5482	0.007
186.7664	0.4719
186.9847	0.0261
187.2029	0.4435
187.4211	-0.2238
187.6393	-0.0235
187.8575	0.1716
188.0757	-0.0045
188.2939	0.1396
188.512	0.0536
188.7302	0.2502
188.9483	0.0875
189.1665	0.2168
189.3846	0.0997
189.6027	0.0128
189.8208	0.1672
190.0389	0.2324
190.257	0.0621
190.475	0.2298
190.6931	0.1943
190.9111	0.2512
191.1292	0.2223
191.3472	0.5091
191.5652	0.311
191.7832	0.4463
192.0012	0.3588
192.2192	0.4198
192.4371	0.2483
192.6551	0.2515
192.873	0.6544
193.091	0.3978
193.3089	0.3578
193.5268	0.4557
193.7447	0.3205
193.9626	0.7775
194.1805	0.3468
194.3984	0.271
194.6162	0.4222
194.8341	0.5814
195.0519	0.614
195.2697	0.5169
195.4875	0.6293
195.7054	0.5694
195.9231	0.439
196.1409	0.7004
196.3587	0.5553
196.5765	0.5194
196.7942	0.7876
197.012	0.64
197.2297	0.8091
197.4474	0.6856
197.6651	0.7393
197.8828	0.7148
198.1005	0.8546
198.3182	1.3832
198.5358	0.7289
198.7535	0.6699
198.9711	0.6783
199.1888	0.7006
199.4064	0.7311
199.624	0.6737
199.8416	0.6906
200.0592	0.724
200.2767	0.6544
200.4943	0.5237
200.7119	0.6991
200.9294	0.6822
201.1469	0.7982
201.3645	0.745
201.582	0.6566
201.7995	0.8788
202.017	0.7146
202.2344	0.5288
202.4519	0.8739
202.6694	1.1351
202.8868	0.8037
203.1042	0.7225
203.3217	0.689
203.5391	0.7424
203.7565	0.9222
203.9739	0.7302
204.1913	0.8565
204.4086	0.6522
204.626	0.7406
204.8433	0.796
205.0607	0.7729
205.278	0.9694
205.4953	0.7548
205.7126	0.7444
205.9299	0.9883
206.1472	0.7648
206.3644	0.5782
206.5817	0.6725
206.7989	0.6774
207.0162	0.7684
207.2334	0.7045
207.4506	0.861
207.6678	0.7481
207.885	0.7328
208.1022	0.7501
208.3194	0.8494
208.5365	0.6858
208.7537	0.7082
208.9708	0.8002
209.1879	0.6606
209.405	0.7026
209.6222	0.829
209.8392	0.7373
210.0563	0.7805
210.2734	0.7447
210.4905	0.7878
210.7075	0.8355
210.9245	0.7823
211.1416	0.7361
211.3586	0.8203
211.5756	0.6994
211.7926	0.7907
212.0096	0.6758
212.2265	0.6745
212.4435	0.6675
212.6604	0.7375
212.8774	0.661
213.0943	0.7673
213.3112	0.7334
213.5281	0.649
213.745	0.7644
213.9619	0.6493
214.1788	0.681
214.3956	0.7185
214.6125	0.6152
214.8293	0.699
215.0461	0.6963
215.2629	0.5861
215.4798	0.5994
215.6965	0.622
215.9133	0.6477
216.1301	0.6517
216.3469	0.6454
216.5636	0.597
216.7803	0.639
216.9971	0.6088
217.2138	0.6388
217.4305	0.6429
217.6472	0.5992
217.8639	0.5927
218.0805	0.6472
218.2972	0.6005
218.5138	0.5938
218.7305	0.5724
218.9471	0.5532
219.1637	0.579
219.3803	0.4859
219.5969	0.5483
219.8135	0.6014
220.0301	0.5719
220.2466	0.5357
220.4632	0.5515
220.6797	0.5408
220.8962	0.5222
221.1127	0.503
221.3292	0.5088
221.5457	0.5885
221.7622	0.5508
221.9787	0.5344
222.1951	0.5645
222.4116	0.5674
222.628	0.5689
222.8444	0.5257
223.0608	0.5677
223.2772	0.565
223.4936	0.5595
223.71	0.5807
223.9264	0.5374
224.1427	0.5377
224.3591	0.5614
224.5754	0.5637
224.7917	0.5172
225.008	0.5723
225.2243	0.5522
225.4406	0.5465
225.6569	0.5683
225.8732	0.5882
226.0894	0.5237
226.3057	0.5733
226.5219	0.5501
226.7381	0.5807
226.9543	0.5767
227.1705	0.5548
227.3867	0.5594
227.6029	0.5364
227.8191	0.5667
228.0352	0.5948
228.2513	0.5506
228.4675	0.5678
228.6836	0.5875
228.8997	0.5398
229.1158	0.5532
229.3319	0.5683
229.548	0.6011
229.764	0.5777
229.9801	0.5977
230.1961	0.5746
230.4121	0.5682
230.6282	0.5899
230.8442	0.5628
231.0602	0.5503
231.2761	0.5686
231.4921	0.5555
231.7081	0.5468
231.924	0.5987
232.14	0.5654
232.3559	0.5664
232.5718	0.6249
232.7877	0.5441
233.0036	0.5809
233.2195	0.5502
233.4353	0.6173
233.6512	0.5875
233.867	0.5703
234.0829	0.5766
234.2987	0.5733
234.5145	0.5724
234.7303	0.5809
234.9461	0.556
235.1619	0.5823
235.3776	0.5748
235.5934	0.5409
235.8091	0.5512
236.0249	0.5556
236.2406	0.5458
236.4563	0.5476
236.672	0.5613
236.8877	0.5409
237.1034	0.5504
237.319	0.521
237.5347	0.5454
237.7503	0.5473
237.966	0.5345
238.1816	0.5647
238.3972	0.561
238.6128	0.5275
238.8284	0.5501
239.0439	0.5421
239.2595	0.5382
239.475	0.5428
239.6906	0.5504
239.9061	0.5091
240.1216	0.5179
240.3371	0.5341
240.5526	0.518
240.7681	0.5166
240.9836	0.5464
241.199	0.5033
241.4145	0.5022
241.6299	0.4934
241.8453	0.4891
242.0607	0.4995
242.2761	0.4971
242.4915	0.4581
242.7069	0.4666
242.9223	0.4788
243.1376	0.4499
243.353	0.4478
243.5683	0.4247
243.7836	0.4271
243.9989	0.4226
244.2142	0.4117
244.4295	0.4043
244.6448	0.3969
244.86	0.3795
245.0753	0.384
245.2905	0.3821
245.5057	0.3723
245.721	0.3702
245.9362	0.357
246.1514	0.3534
246.3665	0.3271
246.5817	0.3357
246.7969	0.34
247.012	0.3427
247.2271	0.3498
247.4423	0.3032
247.6574	0.3031
247.8725	0.3087
248.0876	0.2903
248.3026	0.2944
248.5177	0.2982
248.7328	0.2858
248.9478	0.2844
249.1628	0.2676
249.3779	0.2682
249.5929	0.2686
249.8079	0.2542
250.0228	0.2612
250.2378	0.2653
250.4528	0.2484
250.6677	0.2412
250.8827	0.2368
251.0976	0.2371
251.3125	0.2399
251.5274	0.2266
251.7423	0.2436
251.9572	0.24
252.172	0.2143
252.3869	0.2402
252.6017	0.2104
252.8166	0.2238
253.0314	0.2103
253.2462	0.2102
253.461	0.2091
253.6758	0.2043
253.8906	0.2114
254.1053	0.2016
254.3201	0.1997
254.5348	0.2099
254.7496	0.1967
254.9643	0.1912
255.179	0.1898
255.3937	0.2021
255.6083	0.1944
255.823	0.186
256.0377	0.1942
256.2523	0.2008
256.467	0.2018
256.6816	0.196
256.8962	0.187
257.1108	0.2062
257.3254	0.1938
257.54	0.1928
257.7545	0.1862
257.9691	0.1974
258.1836	0.188
258.3981	0.1911
258.6127	0.1992
258.8272	0.2006
259.0417	0.1843
259.2561	0.1817
259.4706	0.1903
259.6851	0.1905
259.8995	0.1899
260.114	0.175
260.3284	0.1887
260.5428	0.1918
260.7572	0.2058
260.9716	0.1894
261.186	0.1913
261.4003	0.1914
261.6147	0.1979
261.829	0.1967
262.0433	0.1811
262.2577	0.1827
262.472	0.1973
262.6863	0.1897
262.9005	0.1834
263.1148	0.1856
263.3291	0.1867
263.5433	0.1698
263.7576	0.1952
263.9718	0.1837
264.186	0.1966
264.4002	0.1985
264.6144	0.1835
264.8286	0.1888
265.0427	0.1925
265.2569	0.2064
265.471	0.1811
265.6851	0.1889
265.8993	0.1856
266.1134	0.1942
266.3275	0.1826
266.5415	0.1821
266.7556	0.1997
266.9697	0.1869
267.1837	0.203
267.3978	0.1841
267.6118	0.1884
267.8258	0.1941
268.0398	0.2077
268.2538	0.2004
268.4677	0.1881
268.6817	0.208
268.8957	0.1928
269.1096	0.181
269.3235	0.1863
269.5374	0.1857
269.7514	0.1729
269.9652	0.1776
270.1791	0.1969
270.393	0.1817
270.6068	0.1863
270.8207	0.184
271.0345	0.1756
271.2483	0.1822
271.4622	0.1852
271.676	0.1758
271.8897	0.1865
272.1035	0.1777
272.3173	0.1974
272.531	0.1731
272.7448	0.1798
272.9585	0.1715
273.1722	0.1793
273.3859	0.1841
273.5996	0.1817
273.8133	0.1686
274.0269	0.1845
274.2406	0.1874
274.4542	0.1837
274.6679	0.1853
274.8815	0.1765
275.0951	0.1964
275.3087	0.1817
275.5223	0.1816
275.7358	0.195
275.9494	0.1745
276.1629	0.1781
276.3765	0.1745
276.59	0.1813
276.8035	0.1765
277.017	0.1726
277.2305	0.1913
277.444	0.1962
277.6574	0.1932
277.8709	0.1771
278.0843	0.1826
278.2978	0.1819
278.5112	0.1783
278.7246	0.1988
278.938	0.1926
279.1513	0.2012
279.3647	0.1842
279.5781	0.1888
279.7914	0.1887
280.0047	0.1915
280.2181	0.1881
280.4314	0.1894
280.6447	0.1925
280.8579	0.1983
281.0712	0.1977
281.2845	0.2019
281.4977	0.1894
281.711	0.1992
281.9242	0.1896
282.1374	0.1893
282.3506	0.1912
282.5638	0.203
282.7769	0.1812
282.9901	0.2051
283.2033	0.1873
283.4164	0.1829
283.6295	0.1869
283.8426	0.2041
284.0557	0.1757
284.2688	0.1825
284.4819	0.1798
284.695	0.1865
284.908	0.1772
285.1211	0.1901
285.3341	0.1837
285.5471	0.1843
285.7601	0.1817
285.9731	0.1981
286.1861	0.1859
286.3991	0.1851
286.612	0.1921
286.825	0.1752
287.0379	0.1841
287.2508	0.1782
287.4637	0.1855
287.6766	0.1705
287.8895	0.1838
288.1024	0.1787
288.3152	0.1867
288.5281	0.1716
288.7409	0.1732
288.9538	0.1728
289.1666	0.1755
289.3794	0.1672
289.5922	0.171
289.8049	0.1731
290.0177	0.1767
290.2304	0.1716
290.4432	0.1708
290.6559	0.1773
290.8686	0.1776
291.0813	0.1802
291.294	0.1809
291.5067	0.1932
291.7194	0.1712
291.932	0.1826
292.1447	0.1781
292.3573	0.1829
292.5699	0.1814
292.7825	0.1757
292.9951	0.1811
293.2077	0.1807
293.4203	0.1796
293.6328	0.1789
293.8454	0.1666
294.0579	0.1775
294.2704	0.174
294.4829	0.1862
294.6954	0.1722
294.9079	0.1824
295.1204	0.1769
295.3328	0.1624
295.5453	0.156
295.7577	0.1612
295.9701	0.1675
296.1825	0.1665
296.3949	0.1627
296.6073	0.1691
296.8197	0.1662
297.0321	0.1664
297.2444	0.1682
297.4567	0.1733
297.6691	0.162
297.8814	0.1802
298.0937	0.1695
298.306	0.1764
298.5182	0.1697
298.7305	0.1788
298.9428	0.1618
299.155	0.1705
299.3672	0.1554
299.5794	0.1768
299.7916	0.1662
300.0038	0.1636
300.216	0.1671
300.4282	0.1647
300.6403	0.1792
300.8525	0.1658
301.0646	0.1771
301.2767	0.1793
301.4888	0.1707
301.7009	0.1641
301.913	0.1767
302.125	0.1609
302.3371	0.1755
302.5491	0.1539
302.7612	0.1629
302.9732	0.1581
303.1852	0.1721
303.3972	0.1727
303.6092	0.1632
303.8211	0.1612
304.0331	0.1554
304.245	0.1605
304.457	0.1581
304.6689	0.1565
304.8808	0.1542
305.0927	0.1614
305.3046	0.1655
305.5164	0.1576
305.7283	0.1524
305.9401	0.1514
306.152	0.1372
306.3638	0.1476
306.5756	0.1432
306.7874	0.1429
306.9992	0.1501
307.2109	0.1425
307.4227	0.152
307.6344	0.1474
307.8462	0.1339
308.0579	0.1459
308.2696	0.1477
308.4813	0.1352
308.693	0.1403
308.9046	0.1333
309.1163	0.1388
309.328	0.1267
309.5396	0.1308
309.7512	0.1309
309.9628	0.13
310.1744	0.1307
310.386	0.1196
310.5976	0.1311
310.8091	0.1186
311.0207	0.1185
311.2322	0.1158
311.4437	0.1187
311.6552	0.1209
311.8667	0.1261
312.0782	0.1206
312.2897	0.0944
312.5012	0.1154
312.7126	0.1146
312.924	0.1135
313.1355	0.1269
313.3469	0.1333
313.5583	0.1081
313.7696	0.106
313.981	0.1134
314.1924	0.1109
314.4037	0.1051
314.6151	0.1155
314.8264	0.1054
315.0377	0.1158
315.249	0.1023
315.4603	0.1044
315.6716	0.1182
315.8828	0.1075
316.0941	0.1048
316.3053	0.1058
316.5165	0.1167
316.7277	0.0978
316.9389	0.1104
317.1501	0.1114
317.3613	0.0896
317.5724	0.1213
317.7836	0.1108
317.9947	0.1239
318.2058	0.106
318.417	0.1151
318.6281	0.1104
318.8391	0.1099
319.0502	0.114
319.2613	0.1099
319.4723	0.11
319.6834	0.1142
319.8944	0.1129
320.1054	0.1154
320.3164	0.1078
320.5274	0.0911
320.7383	0.1042
320.9493	0.1164
321.1602	0.1156
321.3712	0.1043
321.5821	0.1042
321.793	0.1124
322.0039	0.1137
322.2148	0.1109
322.4257	0.1006
322.6365	0.1149
322.8474	0.1056
323.0582	0.1274
323.269	0.1153
323.4798	0.1186
323.6906	0.1162
323.9014	0.1129
324.1122	0.1136
324.3229	0.1179
324.5337	0.1141
324.7444	0.1085
324.9551	0.1265
325.1658	0.1276
325.3765	0.1168
325.5872	0.1182
325.7979	0.1127
326.0085	0.1004
326.2192	0.0964
326.4298	0.1235
326.6404	0.1204
326.851	0.1179
327.0616	0.1241
327.2722	0.12
327.4828	0.124
327.6933	0.1216
327.9039	0.1124
328.1144	0.1134
328.3249	0.1108
328.5354	0.1198
328.7459	0.1196
328.9564	0.1206
329.1669	0.1198
329.3773	0.1072
329.5878	0.123
329.7982	0.1241
330.0086	0.1172
330.219	0.106
330.4294	0.1045
330.6398	0.1115
330.8502	0.1216
331.0605	0.1204
331.2708	0.1066
331.4812	0.1144
331.6915	0.1145
331.9018	0.1219
332.1121	0.1211
332.3224	0.1138
332.5326	0.1225
332.7429	0.1129
332.9531	0.1179
333.1633	0.1232
333.3735	0.105
333.5837	0.1244
333.7939	0.1154
334.0041	0.128
334.2143	0.1133
334.4244	0.1261
334.6346	0.1039
334.8447	0.1278
335.0548	0.1145
335.2649	0.1202
335.475	0.1153
335.685	0.1075
335.8951	0.1272
336.1051	0.1247
336.3152	0.1295
336.5252	0.1165
336.7352	0.1181
336.9452	0.1153
337.1552	0.1379
337.3652	0.1352
337.5751	0.1288
337.7851	0.116
337.995	0.1256
338.2049	0.1202
338.4148	0.1308
338.6247	0.1146
338.8346	0.1222
339.0445	0.1172
339.2543	0.1232
339.4642	0.126
339.674	0.1294
339.8838	0.1217
340.0936	0.1351
340.3034	0.1334
340.5132	0.1405
340.7229	0.1239
340.9327	0.1278
341.1424	0.1261
341.3522	0.1193
341.5619	0.1133
341.7716	0.1278
341.9813	0.1327
342.1909	0.1229
342.4006	0.1367
342.6102	0.1247
342.8199	0.1166
343.0295	0.1382
343.2391	0.1225
343.4487	0.1129
343.6583	0.1268
343.8679	0.1336
344.0774	0.1323
344.287	0.1302
344.4965	0.1457
344.706	0.1437
344.9155	0.1347
345.125	0.132
345.3345	0.1381
345.544	0.1427
345.7534	0.1448
345.9629	0.1376
346.1723	0.1357
346.3817	0.1367
346.5911	0.1454
346.8005	0.1361
347.0099	0.1401
347.2193	0.144
347.4286	0.133
347.638	0.1298
347.8473	0.139
348.0566	0.1449
348.2659	0.1396
348.4752	0.1503
348.6845	0.1371
348.8937	0.1425
349.103	0.1402
349.3122	0.1248
349.5214	0.1433
349.7306	0.1423
349.9398	0.1437
350.149	0.1429
350.3582	0.1407
350.5674	0.1577
350.7765	0.1296
350.9856	0.1376
351.1948	0.1432
351.4039	0.1666
351.613	0.1504
351.822	0.1439
352.0311	0.1467
352.2402	0.1348
352.4492	0.1522
352.6582	0.1319
352.8672	0.1363
353.0762	0.1494
353.2852	0.1506
353.4942	0.1431
353.7032	0.1653
353.9121	0.1393
354.1211	0.1392
354.33	0.1623
354.5389	0.1454
354.7478	0.168
354.9567	0.1588
355.1655	0.1617
355.3744	0.1597
355.5833	0.1735
355.7921	0.1475
356.0009	0.1608
356.2097	0.1478
356.4185	0.1468
356.6273	0.1549
356.8361	0.1572
357.0448	0.1519
357.2536	0.1468
357.4623	0.1635
357.671	0.1626
357.8797	0.1664
358.0884	0.1677
358.2971	0.154
358.5057	0.1713
358.7144	0.1757
358.923	0.1637
359.1316	0.1696
359.3402	0.1821
359.5488	0.1679
359.7574	0.1705
359.966	0.1609
360.1746	0.1611
360.3831	0.1514
360.5916	0.1834
360.8002	0.1703
361.0087	0.1723
361.2172	0.1632
361.4256	0.1858
361.6341	0.1783
361.8426	0.1798
362.051	0.1736
362.2594	0.1831
362.4678	0.175
362.6762	0.1799
362.8846	0.1794
363.093	0.1791
363.3014	0.183
363.5097	0.1785
363.718	0.1771
363.9264	0.1862
364.1347	0.1665
364.343	0.1795
364.5513	0.1741
364.7595	0.1795
364.9678	0.1751
365.176	0.2016
365.3842	0.185
365.5925	0.1801
365.8007	0.1961
366.0089	0.1924
366.217	0.1781
366.4252	0.189
366.6333	0.1916
366.8415	0.1926
367.0496	0.1919
367.2577	0.1786
367.4658	0.2053
367.6739	0.1952
367.882	0.2001
368.09	0.1933
368.2981	0.1871
368.5061	0.1859
368.7141	0.1965
368.9221	0.182
369.1301	0.1793
369.3381	0.2074
369.5461	0.1879
369.754	0.1894
369.962	0.1973
370.1699	0.1988
370.3778	0.2125
370.5857	0.2047
370.7936	0.1998
371.0015	0.192
371.2093	0.2075
371.4172	0.2033
371.625	0.1922
371.8328	0.207
372.0406	0.1977
372.2484	0.1941
372.4562	0.2181
372.664	0.2086
372.8717	0.1812
373.0795	0.1966
373.2872	0.2036
373.4949	0.2067
373.7026	0.2001
373.9103	0.2073
374.118	0.1974
374.3256	0.2051
374.5333	0.2124
374.7409	0.2033
374.9485	0.2029
375.1561	0.2032
375.3637	0.2026
375.5713	0.213
375.7789	0.2146
375.9864	0.2172
376.194	0.1991
376.4015	0.2297
376.609	0.2125
376.8165	0.2214
377.024	0.2066
377.2315	0.1934
377.4389	0.2187
377.6464	0.2114
377.8538	0.1947
378.0612	0.2136
378.2686	0.2263
378.476	0.2095
378.6834	0.2101
378.8908	0.2126
379.0981	0.2042
379.3055	0.2232
379.5128	0.2312
379.7201	0.2197
379.9274	0.2146
380.1347	0.2191
380.342	0.2285
380.5492	0.2186
380.7565	0.2204
380.9637	0.2373
381.1709	0.2241
381.3781	0.2241
381.5853	0.2276
381.7925	0.2184
381.9997	0.2214
382.2068	0.2302
382.4139	0.2225
382.6211	0.2377
382.8282	0.2239
383.0353	0.2126
383.2424	0.2225
383.4494	0.208
383.6565	0.2293
383.8635	0.214
384.0706	0.2424
384.2776	0.2275
384.4846	0.2164
384.6916	0.2387
384.8986	0.2317
385.1055	0.2127
385.3125	0.2209
385.5194	0.2113
385.7263	0.2376
385.9333	0.2176
386.1402	0.2133
386.347	0.2461
386.5539	0.2071
386.7608	0.2062
386.9676	0.2168
387.1744	0.2245
387.3813	0.228
387.5881	0.2262
387.7948	0.2106
388.0016	0.2196
388.2084	0.2223
388.4151	0.2143
388.6219	0.2272
388.8286	0.2211
389.0353	0.2154
389.242	0.2236
389.4487	0.2267
389.6553	0.1893
389.862	0.2387
390.0686	0.2029
390.2753	0.2296
390.4819	0.222
390.6885	0.2178
390.8951	0.1913
391.1016	0.2062
391.3082	0.2197
391.5147	0.2168
391.7213	0.2063
391.9278	0.215
392.1343	0.1845
392.3408	0.1958
392.5473	0.193
392.7537	0.1964
392.9602	0.2152
393.1666	0.2078
393.373	0.1959
393.5794	0.193
393.7858	0.194
393.9922	0.1974
394.1986	0.1929
394.4049	0.1911
394.6113	0.1783
394.8176	0.2005
395.0239	0.2143
395.2302	0.186
395.4365	0.1821
395.6428	0.2013
395.8491	0.1846
396.0553	0.1993
396.2615	0.1862
396.4678	0.195
396.674	0.1926
396.8802	0.1957
397.0863	0.1773
397.2925	0.1812
397.4987	0.1919
397.7048	0.1713
397.9109	0.1997
398.117	0.1839
398.3231	0.19
398.5292	0.1869
398.7353	0.1856
398.9413	0.1851
399.1474	0.1864
399.3534	0.1825
399.5594	0.2027
399.7654	0.1763
399.9714	0.1889
400.1774	0.1779
400.3833	0.1828
400.5893	0.1719
400.7952	0.1919
401.0011	0.1815
401.207	0.1828
401.4129	0.1866
401.6188	0.1792
401.8247	0.1987
402.0305	0.1718
402.2364	0.1886
402.4422	0.1856
402.648	0.1772
402.8538	0.1828
403.0596	0.1884
403.2654	0.187
403.4711	0.1641
403.6768	0.184
403.8826	0.1987
404.0883	0.1683
404.294	0.1792
404.4997	0.1516
404.7054	0.1664
404.911	0.1752
405.1167	0.1663
405.3223	0.1672
405.5279	0.1859
405.7335	0.2061
405.9391	0.1895
406.1447	0.1893
406.3502	0.1722
406.5558	0.18
406.7613	0.1995
406.9668	0.1829
407.1724	0.178
407.3778	0.1871
407.5833	0.1784
407.7888	0.1803
407.9942	0.1803
408.1997	0.1775
408.4051	0.1583
408.6105	0.1535
408.8159	0.1798
409.0213	0.1832
409.2267	0.1764
409.432	0.1919
409.6374	0.1726
409.8427	0.1568
410.048	0.1762
410.2533	0.1804
410.4586	0.1638
410.6639	0.1837
410.8691	0.1864
411.0744	0.1776
411.2796	0.1659
411.4848	0.1809
411.69	0.1771
411.8952	0.1896
412.1004	0.1796
412.3056	0.1583
412.5107	0.167
412.7158	0.1648
412.921	0.1642
413.1261	0.1835
413.3312	0.1466
413.5362	0.1752
413.7413	0.1559
413.9464	0.1722
414.1514	0.1753
414.3564	0.1689
414.5614	0.1583
414.7664	0.1884
414.9714	0.1599
415.1764	0.1603
415.3813	0.1665
415.5863	0.1732
415.7912	0.1586
415.9961	0.1716
416.201	0.1662
416.4059	0.1672
416.6108	0.1401
416.8156	0.1654
417.0205	0.1737
417.2253	0.1759
417.4301	0.1664
417.6349	0.1769
417.8397	0.1586
418.0445	0.1538
418.2492	0.149
418.454	0.1493
418.6587	0.1817
418.8634	0.173
419.0681	0.1822
419.2728	0.1629
419.4775	0.1771
419.6822	0.1771
419.8868	0.1587
420.0915	0.1537
420.2961	0.1637
420.5007	0.1508
420.7053	0.164
420.9099	0.1552
421.1144	0.1788
421.319	0.1563
421.5235	0.1685
421.728	0.1548
421.9325	0.1532
422.137	0.1443
422.3415	0.1609
422.546	0.1698
422.7504	0.1599
422.9549	0.1699
423.1593	0.1451
423.3637	0.1646
423.5681	0.1473
423.7725	0.1484
423.9769	0.1499
424.1812	0.1517
424.3856	0.1438
424.5899	0.1521
424.7942	0.1535
424.9985	0.1544
425.2028	0.1215
425.4071	0.1438
425.6113	0.1534
425.8156	0.1445
426.0198	0.1402
426.224	0.1601
426.4282	0.1548
426.6324	0.1448
426.8366	0.1379
427.0407	0.1358
427.2449	0.146
427.449	0.1391
427.6531	0.1346
427.8572	0.1446
428.0613	0.135
428.2654	0.1279
428.4694	0.1498
428.6735	0.1299
428.8775	0.1374
429.0815	0.1268
429.2855	0.1357
429.4895	0.1162
429.6935	0.1186
429.8975	0.111
430.1014	0.1202
430.3053	0.1239
430.5093	0.1332
430.7132	0.1047
430.9171	0.1138
431.1209	0.1139
431.3248	0.1078
431.5286	0.1151
431.7325	0.118
431.9363	0.1116
432.1401	0.1245
432.3439	0.1134
432.5477	0.1283
432.7514	0.0998
432.9552	0.0956
433.1589	0.1024
433.3627	0.0838
433.5664	0.1064
433.7701	0.101
433.9737	0.0779
434.1774	0.1051
434.3811	0.0946
434.5847	0.1025
434.7883	0.088
434.9919	0.0954
435.1955	0.0946
435.3991	0.0975
435.6027	0.0917
435.8062	0.0993
436.0098	0.083
436.2133	0.0961
436.4168	0.0875
436.6203	0.0599
436.8238	0.0736
437.0272	0.0835
437.2307	0.1004
437.4341	0.0712
437.6375	0.0883
437.841	0.0807
438.0443	0.0744
438.2477	0.0842
438.4511	0.0724
438.6545	0.0684
438.8578	0.0739
439.0611	0.0722
439.2644	0.0708
439.4677	0.0685
439.671	0.0685
439.8743	0.0536
440.0775	0.0521
440.2808	0.0517
440.484	0.063
440.6872	0.0626
440.8904	0.0505
441.0936	0.0577
441.2967	0.0521
441.4999	0.0537
441.703	0.0627
441.9062	0.0458
442.1093	0.0372
442.3124	0.0554
442.5155	0.0512
442.7185	0.046
442.9216	0.0382
443.1246	0.0632
443.3276	0.0636
443.5307	0.0445
443.7337	0.0245
443.9366	0.0409
444.1396	0.0459
444.3426	0.027
444.5455	0.0436
444.7484	0.0485
444.9513	0.0426
445.1542	0.0372
445.3571	0.0412
445.56	0.0423
445.7628	0.0412
445.9657	0.0282
446.1685	0.0487
446.3713	0.0286
446.5741	0.035
446.7769	0.0418
446.9797	0.0341
447.1824	0.0164
447.3852	0.0518
447.5879	0.032
447.7906	0.0357
447.9933	0.0368
448.196	0.0445
448.3986	0.0419
448.6013	0.0113
448.8039	0.0287
449.0066	0.0269
449.2092	0.0324
449.4118	0.0187
449.6143	0.018
449.8169	0.0249
450.0195	0.008
450.222	0.0131
450.4245	0.0115
450.627	0.0241
450.8295	0.0347
451.032	0.0076
451.2345	0.0182
451.4369	0.0099
451.6394	0.0287
451.8418	-0.0043
452.0442	-0.0021
452.2466	0.0071
452.449	0.0117
452.6513	0.0352
452.8537	0.0326
453.056	0.0037
453.2583	0.0033
453.4607	0.0147
453.663	0.0126
453.8652	0.02
454.0675	0.0122
454.2697	0.0134
454.472	0.0293
454.6742	0.0221
454.8764	-0.0023
455.0786	0.0065
455.2808	-0.0075
455.4829	0.0239
455.6851	0.0227
455.8872	0.0171
456.0893	0.0081
456.2915	0.0015
456.4935	-0.0084
456.6956	-0.0151
456.8977	0.0052
457.0997	0.0187
457.3018	0.011
457.5038	0.0138
457.7058	0.0145
457.9078	0.0069
458.1098	0.0018
458.3117	0.0135
458.5137	0.008
458.7156	0.0104
458.9175	0.0027
459.1194	0.0039
459.3213	0.0246
459.5232	0.0018
459.725	0.01
459.9269	-0.004
460.1287	0.0009
460.3305	-0.0051
460.5323	0.013
460.7341	-0
460.9359	0.0096
461.1376	0.0223
461.3394	-0.0052
461.5411	-0.002
461.7428	0.0117
461.9445	-0.0088
462.1462	-0.0025
462.3479	-0.016
462.5495	0.0077
462.7512	-0.0035
462.9528	0.009
463.1544	0.0139
463.356	-0.0041
463.5576	0.0003
463.7592	-0.0077
463.9607	-0.0006
464.1623	-0.012
464.3638	0.0197
464.5653	-0.0097
464.7668	-0.0002
464.9683	-0.0039
465.1697	0.0094
465.3712	0.0041
465.5726	0.0113
465.7741	0.0208
465.9755	-0.0116
466.1769	0.0076
466.3782	0.0074
466.5796	-0.0021
466.7809	0.0038
466.9823	-0.0069
467.1836	0.0172
467.3849	-0
467.5862	-0.0076
467.7875	0.0093
467.9887	-0.0105
468.19	0.0009
468.3912	-0.0037
468.5924	-0.0049
468.7936	0.0051
468.9948	-0.0178
469.196	-0.0028
469.3972	-0.0004
469.5983	-0.0005
469.7994	-0.0021
470.0006	-0.0251
470.2017	-0.0017
470.4027	-0.0025
470.6038	-0.0079
470.8049	-0.0041
471.0059	-0.0008
471.2069	0.0064
471.408	-0.0151
471.6089	-0.0138
471.8099	-0.0045
472.0109	-0.0013
472.2119	0.0089
472.4128	-0.019
472.6137	0.01
472.8146	0.0012
473.0155	-0.0178
473.2164	-0.0056
473.4173	0.0064
473.6181	-0.0145
473.819	-0.0069
474.0198	-0.0127
474.2206	-0.009
474.4214	0.0143
474.6222	-0.0111
474.8229	0.0009
475.0237	0.0049
475.2244	-0.0003
475.4251	-0.0069
475.6258	-0.004
475.8265	-0.0071
476.0272	-0.0067
476.2278	-0.0049
476.4285	-0.008
476.6291	-0.0092
476.8297	0.0045
477.0303	-0.0018
477.2309	0.0017
477.4315	-0.0079
477.632	-0.0108
477.8326	-0.002
478.0331	-0.0193
478.2336	-0.0121
478.4341	-0.0106
478.6346	-0.004
478.8351	-0.0127
479.0355	-0.0221
479.236	-0.0215
479.4364	-0.0109
479.6368	0.0006
479.8372	-0.0037
480.0376	-0.0132
480.2379	-0.0098
480.4383	-0.0106
480.6386	0.0025
480.8389	-0.0115
481.0392	-0.0057
481.2395	-0.007
481.4398	-0.02
481.6401	-0.0095
481.8403	-0.0037
482.0405	-0.012
482.2408	-0.0114
482.441	-0.009
482.6411	-0.0136
482.8413	-0.0153
483.0415	-0.0006
483.2416	-0.0061
483.4417	0.008
483.6419	-0.0131
483.8419	-0.0081
484.042	0.0029
484.2421	-0.0157
484.4422	-0.0113
484.6422	0.0095
484.8422	-0.0074
485.0422	0.0032
485.2422	-0.0119
485.4422	-0.0014
485.6422	-0.0126
485.8421	-0.0079
486.042	0.0107
486.242	-0.0129
486.4419	-0.0043
486.6417	0.0045
486.8416	-0.0148
487.0415	-0.0081
487.2413	-0.0098
487.4411	-0.0046
487.641	-0.0098
487.8408	-0.0082
488.0405	0.0046
488.2403	0.0011
488.4401	0.0008
488.6398	-0.0143
488.8395	-0.0094
489.0392	-0.0022
489.2389	-0.0252
489.4386	-0.0044
489.6383	-0.0099
489.8379	0.0015
490.0376	0.0016
490.2372	-0.0049
490.4368	-0.0032
490.6364	-0.0029
490.836	-0.0111
491.0355	-0.0083
491.2351	-0.0074
491.4346	-0.0106
491.6341	0.0082
491.8336	-0.0041
492.0331	-0.0017
492.2326	-0.013
492.432	0.0106
492.6315	-0.0126
492.8309	-0.0111
493.0303	-0.0094
493.2297	-0.004
493.4291	-0.0019
493.6284	-0.0236
493.8278	-0.0029
494.0271	-0.0136
494.2264	-0.0136
494.4257	-0.007
494.625	0.0015
494.8243	-0.0037
495.0236	-0.0148
495.2228	-0.0092
495.422	-0.008
495.6213	-0.0057
495.8205	-0.0072
496.0196	-0.0117
496.2188	0.0015
496.418	-0.0056
496.6171	-0.0187
496.8162	-0.0047
497.0153	-0.0086
497.2144	0.0029
497.4135	-0.0056
497.6126	-0.0142
497.8116	-0.0129
498.0107	-0.0041
498.2097	-0.0096
498.4087	-0.0164
498.6077	-0.0132
498.8067	0.0061
499.0056	-0.01
499.2046	0.0026
499.4035	-0.0123
499.6024	-0.02
499.8013	-0.0111
500.0002	-0.0047
500.199	-0.0132
500.3979	-0.005
500.5967	-0.0171
500.7956	-0.0039
500.9944	-0.0139
501.1932	-0.0047
501.3919	-0.0111
501.5907	-0.0096
501.7895	-0.0174
501.9882	-0.0119
502.1869	-0.0091
502.3856	-0.0225
502.5843	-0.0123
502.783	-0.0066
502.9816	0.0042
503.1803	-0.0066
503.3789	-0.0044
503.5775	-0.0169
503.7761	-0.0132
503.9747	-0.0057
504.1732	-0.0135
504.3718	0.0008
504.5703	-0.0081
504.7689	-0.0013
504.9674	-0.0054
505.1658	-0.0004
505.3643	-0.0068
505.5628	-0.0037
505.7612	-0.0097
505.9597	-0.0062
506.1581	0.0038
506.3565	-0.0093
506.5549	-0.0132
506.7532	-0.004
506.9516	-0.0172
507.1499	-0.015
507.3482	-0.0059
507.5465	-0.0023
507.7448	-0.0002
507.9431	-0.0075
508.1414	-0.0137
508.3396	-0.0032
508.5379	-0.0071
508.7361	-0.0114
508.9343	-0.0065
509.1325	0.0016
509.3306	-0.0211
509.5288	-0.0132
509.7269	-0.0033
509.9251	-0.0049
510.1232	0.0091
510.3213	0.0069
510.5193	-0.0073
510.7174	-0.0145
510.9154	-0.0076
511.1135	-0.0072
511.3115	-0.0032
511.5095	-0.003
511.7075	0.0045
511.9055	-0.0087
512.1034	-0.0069
512.3014	-0.0041
512.4993	0.0021
512.6972	-0.0091
512.8951	-0.0026
513.093	-0.0066
513.2908	-0.0047
513.4887	-0.0066
513.6865	0.0051
513.8844	0.0041
514.0822	-0.0016
514.2799	-0.017
514.4777	0.0066
514.6755	0.0047
514.8732	-0.0106
515.0709	-0.0013
515.2687	0.0002
515.4664	0.0012
515.664	-0.0146
515.8617	-0.0088
516.0594	0.0018
516.257	-0.0093
516.4546	-0.0095
516.6522	-0.0068
516.8498	-0.0183
517.0474	-0.0063
517.2449	-0.0088
517.4425	0.0038
517.64	-0.0159
517.8375	-0.0051
518.035	-0.0012
518.2325	-0.01
518.43	0.0005
518.6274	0.0036
518.8249	-0.0009
519.0223	0.0043
519.2197	-0.0066
519.4171	0.0012
519.6145	-0.0033
519.8118	-0.016
520.0092	-0.0065
520.2065	-0.0073
520.4038	-0.017
520.6011	-0.0026
520.7984	-0.0075
520.9956	-0.006
521.1929	-0.012
521.3901	-0.0015
521.5874	-0.0015
521.7846	-0.0032
521.9818	0.0058
522.1789	0.008
522.3761	0.004
522.5732	-0.0071
522.7704	-0.001
522.9675	-0.012
523.1646	-0.0154
523.3617	-0.0057
523.5587	0.0045
523.7558	-0.0091
523.9528	-0.0078
524.1498	0.0003
524.3468	-0.0078
524.5438	0.001
524.7408	-0.0033
524.9378	0.0048
525.1347	0.0032
525.3316	0.0076
525.5285	-0.0102
525.7254	-0.003
525.9223	-0.006
526.1192	-0.0116
526.316	0.0071
526.5129	0.0031
526.7097	0.0003
526.9065	0.0045
527.1033	0.0011
527.3	-0.0151
527.4968	-0.0115
527.6935	0.0033
527.8903	0.0013
528.087	0.0119
528.2837	0.0083
528.4804	0.0087
528.677	-0.0025
528.8737	-0.0015
529.0703	0.0009
529.2669	-0.0077
529.4635	-0.0002
529.6601	-0.0021
529.8567	0.0075
530.0532	0.0061
530.2498	0.0011
530.4463	-0.0027
530.6428	-0.0057
530.8393	-0.0037
531.0358	-0.0018
531.2322	0.0041
531.4287	-0.0125
531.6251	0.0083
531.8215	0.0044
532.0179	0.0022
532.2143	-0.0005
532.4107	-0.0109
532.607	0.0063
532.8034	-0.005
532.9997	0.004
533.196	-0.0028
533.3923	-0.0037
533.5886	0.0069
533.7848	-0.0024
533.9811	0.0005
534.1773	-0.0086
534.3735	-0.0047
534.5697	-0.0069
534.7659	-0.0054
534.9621	0.0011
535.1582	-0.0028
535.3544	-0.0003
535.5505	-0.0007
535.7466	-0.0011
535.9427	-0.0062
536.1387	-0.0008
536.3348	0.0005
536.5308	-0.0051
536.7269	0.0075
536.9229	-0.0094
537.1189	-0.0059
537.3148	-0.0074
537.5108	0.0091
537.7068	0.0004
537.9027	0.0056
538.0986	0.0044
538.2945	-0.0062
538.4904	0.0018
538.6863	-0.0071
538.8821	-0.0036
539.078	-0.0115
539.2738	0.0087
539.4696	0.0005
539.6654	0.0036
539.8611	0.0041
540.0569	0.0037
540.2526	-0.0032
540.4484	-0.001
540.6441	0.0001
540.8398	-0.0082
541.0355	0.008
541.2311	-0.0003
541.4268	-0.0013
541.6224	0.001
541.818	-0.0046
542.0136	-0.006
542.2092	0.0033
542.4048	0.0086
542.6003	0.0035
542.7959	0.001
542.9914	-0.0003
543.1869	0.0009
543.3824	-0.0025
543.5779	0.0035
543.7734	0.0024
543.9688	-0.0018
544.1642	0.0045
544.3596	-0.0036
544.555	-0.0013
544.7504	0.0041
544.9458	-0.0012
545.1411	0.0043
545.3365	-0.0011
545.5318	-0.001
545.7271	0.0039
545.9224	-0.0029
546.1177	-0.0064
546.3129	-0.0011
546.5081	-0.0057
546.7034	-0.0037
546.8986	-0.0039
547.0938	0.0013
547.289	-0.0007
547.4841	0.0031
547.6793	-0.0048
547.8744	0.0041
548.0695	-0.0024
548.2646	-0.0004
548.4597	-0.0066
548.6548	-0.0032
548.8498	-0.0092
549.0448	0.0028
549.2399	-0.0037
549.4349	-0.0011
549.6298	0.0033
549.8248	0.0001
550.0198	0.0028
550.2147	-0.0043
550.4096	-0.0037
550.6045	-0.0068
550.7994	-0.0016
550.9943	0.0032
551.1892	-0.0136
551.384	0.0002
551.5788	0.0108
551.7737	-0.0051
551.9685	0.0005
552.1632	0.0032
552.358	-0.0043
552.5528	-0
552.7475	0.0005
552.9422	-0.0013
553.1369	0.0017
553.3316	-0.0003
553.5263	0.0094
553.7209	-0.0049
553.9156	0.0087
554.1102	-0.0087
554.3048	-0.0045
554.4994	0.0133
554.694	0.0042
554.8885	0.0055
555.0831	-0.0024
555.2776	0.0082
555.4721	0.0016
555.6666	-0.0036
555.8611	0.005
556.0555	0.0086
556.25	0.0006
556.4444	0.0233
556.6388	0.0077
556.8332	0.0167
557.0276	0.0011
557.222	0.0016
557.4163	0.0049
557.6107	0.0135
557.805	0.0013
557.9993	0.0018
558.1936	0.011
558.3879	0.004
558.5821	0.0123
558.7764	0.004
558.9706	-0.0002
559.1648	-0.0024
559.359	0.0049
559.5532	-0.0061
559.7473	0.0135
559.9415	0.0078
560.1356	0.0038
560.3297	0.0009
560.5238	0.0027
560.7179	0.0097
560.9119	-0.0032
561.106	0.0091
561.3	0.0048
561.494	0.007
561.688	0.0093
561.882	0.0091
562.076	0.008
562.2699	0.0024
562.4639	0.0053
562.6578	-0.0056
562.8517	0.0062
563.0456	0.0064
563.2395	-0.0037
563.4333	-0.0108
563.6272	-0.0015
563.821	-0.0072
564.0148	0.006
564.2086	-0.0164
564.4024	-0.0061
564.5961	0.007
564.7899	0.0036
564.9836	0.0058
565.1773	0.0028
565.371	0.0158
565.5647	-0.0041
565.7584	0.0061
565.952	0.0113
566.1456	0.0003
566.3393	0.0011
566.5329	0.0041
566.7264	0.0023
566.92	-0.0021
567.1136	0.0092
567.3071	0.0171
567.5006	0.0049
567.6941	0.0042
567.8876	-0.0012
568.0811	-0.002
568.2745	0.0016
568.468	-0.0026
568.6614	-0.0043
568.8548	-0.0002
569.0482	0.0129
569.2416	0.0019
569.4349	0.0008
569.6283	0.0053
569.8216	0.0024
570.0149	0.0037
570.2082	0.0079
570.4015	-0.0041
570.5947	0.0024
570.788	0.007
570.9812	0.0046
571.1744	0.0004
571.3676	0.0038
571.5608	-0.0065
571.754	0.0035
571.9471	-0.0029
572.1402	0.0042
572.3333	0.0026
572.5264	0.0041
572.7195	-0.0059
572.9126	0.0114
573.1057	0.0015
573.2987	0.0003
573.4917	-0.0027
573.6847	0.0016
573.8777	-0.0027
574.0707	0.0041
574.2636	0.005
574.4566	0.001
574.6495	0.0026
574.8424	0.001
575.0353	-0.0023
575.2281	-0.0019
575.421	0.0041
575.6138	-0.0051
575.8067	-0.0015
575.9995	0.0078
576.1923	0.002
576.385	-0.0019
576.5778	-0.0032
576.7706	0.0099
576.9633	-0.0045
577.156	0.003
577.3487	-0.0045
577.5414	0.0019
577.734	-0.0092
577.9267	-0.0044
578.1193	0.0071
578.3119	0.0002
578.5045	0.0051
578.6971	-0.0015
578.8897	-0.001
579.0822	0.0017
579.2747	0.0024
579.4673	0.0009
579.6598	0.0082
579.8522	0.0084
580.0447	0.0009
580.2372	0.0102
580.4296	0.0057
580.622	0.0009
580.8144	0.0082
581.0068	0.006
581.1992	0.0048
581.3915	0.0046
581.5839	0.0022
581.7762	0.0011
581.9685	-0.0011
582.1608	-0.0043
582.353	-0.0057
582.5453	-0.0036
582.7375	-0.0003
582.9298	0.0001
583.122	0.0102
583.3142	-0.0005
583.5063	0.0047
583.6985	-0.0051
583.8906	-0.0012
584.0827	-0.0027
584.2749	-0.0036
584.4669	-0.0058
584.659	0.0014
584.8511	-0.0022
585.0431	0.0017
585.2352	-0.0034
585.4272	-0.0012
585.6192	-0.001
585.8111	-0.0065
586.0031	0.0058
586.195	0.0009
586.387	-0.0012
586.5789	-0.001
586.7708	-0.0041
586.9627	-0.0021
587.1545	0.0035
587.3464	0.0119
587.5382	-0.0057
587.73	0.0038
587.9218	0.0031
588.1136	0.0005
588.3053	-0.0086
588.4971	0.0023
588.6888	0.0091
588.8805	-0.0042
589.0722	0.0041
589.2639	0.0032
589.4556	-0.001
589.6472	-0.0046
589.8389	0.0061
590.0305	0.0087
590.2221	0.0066
590.4137	-0.0018
590.6052	-0.0019
590.7968	0.0053
590.9883	-0.0007
591.1798	-0.0115
591.3713	0.0002
591.5628	-0.0028
591.7543	0.0134
591.9458	0.0002
592.1372	0.0024
592.3286	0.0025
592.52	0.0061
592.7114	0.003
592.9028	-0.0042
593.0941	0.0049
593.2855	-0.0021
593.4768	-0.0018
593.6681	-0.0035
593.8594	0.0028
594.0506	-0.0053
594.2419	0.0058
594.4331	0.0064
594.6244	0.006
594.8156	0.0006
595.0067	-0.0016
595.1979	-0.0019
595.3891	0.0019
595.5802	-0.0006
595.7713	-0.0115
595.9624	0.0053
596.1535	0.0032
596.3446	0.002
596.5357	0.0004
596.7267	0.0062
596.9177	0.0039
597.1087	0.0078
597.2997	0.0052
597.4907	0.0009
597.6817	-0.0011
597.8726	0.0058
598.0635	0.0074
598.2544	0.0038
598.4453	0.0075
598.6362	0.005
598.827	0.0084
599.0179	0.0035
599.2087	-0.0055
599.3995	0.0024
599.5903	0.0042
599.7811	0.0041
599.9718	0.0001
600.1626	-0.0004
600.3533	0.0038
600.544	0.0086
600.7347	0.005
600.9254	-0.002
601.116	0.0044
601.3067	-0.0064
601.4973	0.0084
601.6879	0.0034
601.8785	0.0063
602.0691	-0.0003
602.2596	0.0031
602.4502	-0.0025
602.6407	-0.0015
602.8312	-0.0088
603.0217	0.0048
603.2122	-0.0028
603.4027	0.0008
603.5931	-0.0013
603.7835	0.0044
603.9739	0.0089
604.1643	0.0077
604.3547	0.0097
604.5451	0.002
604.7354	0.0064
604.9257	-0.0014
605.116	-0.0034
605.3063	0.0087
605.4966	-0.0045
605.6869	0.004
605.8771	-0.0014
606.0673	-0.0021
606.2575	-0.0018
606.4477	-0.0031
606.6379	0.006
606.8281	0.0007
607.0182	-0.0031
607.2083	0.002
607.3985	0.0026
607.5885	-0.0029
607.7786	0.0041
607.9687	-0.0016
608.1587	0.0058
608.3488	0.0092
608.5388	0.0126
608.7288	0.0065
608.9187	0.0021
609.1087	-0.0056
609.2986	0.0064
609.4886	0.0038
609.6785	-0.0044
609.8684	0.0064
610.0582	0.011
610.2481	-0.0007
610.4379	-0.0027
610.6278	0.0015
610.8176	0.0046
611.0074	-0.0051
611.1971	0.0067
611.3869	-0.0079
611.5766	0.0007
611.7664	0.0068
611.9561	0.0056
612.1458	0.0068
612.3354	0.0086
612.5251	-0.0008
612.7147	0.0006
612.9044	0.0049
613.094	-0.0043
613.2836	0.013
613.4731	0.0033
613.6627	0.0012
613.8522	0.0114
614.0417	0.0067
614.2313	0.0044
614.4207	0.0062
614.6102	0.0048
614.7997	0.0039
614.9891	0.0061
615.1785	0.0012
615.3679	0.0099
615.5573	0.0011
615.7467	0.0034
615.9361	0.0018
616.1254	-0.0024
616.3147	0.0013
616.504	0.0076
616.6933	0.0088
616.8826	0.0041
617.0718	0.003
617.2611	0.0076
617.4503	0.0108
617.6395	0.012
617.8287	0.0117
618.0179	0.003
618.207	0.0092
618.3961	0.0055
618.5853	0.0078
618.7744	0.0016
618.9634	-0.0002
619.1525	0.0069
619.3416	0.0065
619.5306	0.0057
619.7196	-0.0079
619.9086	0.0153
620.0976	-0.0018
620.2866	0.0036
620.4755	0.0063
620.6645	0.0113
620.8534	0.0025
621.0423	0.0019
621.2312	0.0083
621.42	0.012
621.6089	0.0047
621.7977	0.0083
621.9865	0.0111
622.1753	0.0118
622.3641	0.0065
622.5529	0.0083
622.7416	0.0082
622.9303	0.0108
623.1191	0.0073
623.3078	0.0024
623.4964	0.0056
623.6851	0.0125
623.8737	0.0069
624.0624	0.0034
624.251	0.0077
624.4396	0.0067
624.6282	0.0074
624.8167	0.0145
625.0053	-0.0015
625.1938	0.0041
625.3823	0.0087
625.5708	0.0043
625.7593	0.0021
625.9477	0.0064
626.1362	0.01
626.3246	0.0084
626.513	0.003
626.7014	0.0103
626.8898	0.008
627.0781	0.0031
627.2665	0.0082
627.4548	0.0041
627.6431	0.0117
627.8314	0.0104
628.0197	0.0065
628.2079	0.0086
628.3962	0.0045
628.5844	0.0095
628.7726	0.0079
628.9608	0.0085
629.1489	0.0055
629.3371	0.0089
629.5252	0.0035
629.7134	0.0047
629.9015	0.0054
630.0895	0.0061
630.2776	0.0039
630.4657	0.006
630.6537	0.0052
630.8417	0.0081
631.0297	0.0101
631.2177	0.005
631.4057	-0.0007
631.5936	-0.0054
631.7815	0.0175
631.9695	0.0064
632.1574	0.0078
632.3452	0.0155
632.5331	0.001
632.7209	0
632.9088	-0.0027
633.0966	0.0009
633.2844	0.0059
633.4722	-0.0025
633.6599	0.0114
633.8477	-0.0003
634.0354	-0.0006
634.2231	0.0075
634.4108	0.0033
634.5985	0.0046
634.7861	0.0092
634.9738	0.0106
635.1614	0.001
635.349	0.0109
635.5366	0.0034
635.7242	0.0068
635.9117	0.0033
636.0993	0.0031
636.2868	0.0053
636.4743	-0.0042
636.6618	0.007
636.8492	0.011
637.0367	0.0079
637.2241	0.0099
637.4115	0.0026
637.5989	0.0135
637.7863	0.0118
637.9737	0.0047
638.161	0.0147
638.3484	0.003
638.5357	0.006
638.723	0.0059
638.9103	0.0058
639.0975	0.0013
639.2848	0.0034
639.472	0.0004
639.6592	0.0105
639.8464	0.0043
640.0336	0.0046
640.2208	0.0023
640.4079	0.0035
640.595	0.0067
640.7821	0.0031
640.9692	0.0034
641.1563	0.006
641.3434	0.0149
641.5304	0.0084
641.7174	0.0137
641.9044	0.0034
642.0914	0.0058
642.2784	-0.0011
642.4653	0.0053
642.6523	-0.0043
642.8392	-0.0011
643.0261	0.0044
643.213	-0.0041
643.3999	0.0057
643.5867	0.0107
643.7735	-0.0001
643.9604	0.0029
644.1472	0.0069
644.3339	0.0012
644.5207	0.0076
644.7075	-0.0012
644.8942	0.0047
645.0809	0.0047
645.2676	0.0056
645.4543	0.0135
645.6409	0.01
645.8276	0.0074
646.0142	0.0067
646.2008	0.0111
646.3874	0.0042
646.574	0.0064
646.7605	0.0056
646.9471	0.0003
647.1336	0.01
647.3201	0.0078
647.5066	-0.0016
647.6931	0.0026
647.8795	-0.0021
648.0659	0.0095
648.2524	0.0066
648.4388	0.0086
648.6252	-0.0035
648.8115	-0.002
648.9979	0.0048
649.1842	0.0025
649.3705	-0.0007
649.5568	-0.0037
649.7431	0.0098
649.9294	0.0035
650.1156	0.0048
650.3018	0.0079
650.488	0.0049
650.6742	0.0028
650.8604	0.0031
651.0466	0.0111
651.2327	0.0069
651.4188	0.0032
651.6049	0.0101
651.791	0.0013
651.9771	0.0016
652.1632	0.0021
652.3492	0.0041
652.5352	0.0076
652.7212	0.002
652.9072	0.0003
653.0932	0.007
653.2791	-0.0026
653.465	0.0059
653.651	0.0117
653.8369	0.0077
654.0227	0.0059
654.2086	0.0089
654.3944	0.009
654.5803	0.0057
654.7661	0.0081
654.9519	-0.0032
655.1377	0.0022
655.3234	-0.0005
655.5092	-0.0033
655.6949	-0.0096
655.8806	-0.0065
656.0663	0.0039
656.2519	-0.0004
656.4376	-0.0015
656.6232	-0.0023
656.8088	0.0069
656.9945	0.0028
657.18	-0.004
657.3656	0.0067
657.5511	0.0008
657.7367	0.0015
657.9222	0.0039
658.1077	0.0041
658.2932	0.0007
658.4786	-0.0019
658.6641	0.0016
658.8495	0.002
659.0349	0.0102
659.2203	0.0042
659.4057	-0.004
659.591	0.0051
659.7764	0.0016
659.9617	0.0028
660.147	-0.0005
660.3323	0.0001
660.5176	-0.0092
660.7028	-0.0012
660.888	0.0028
661.0733	0.0133
661.2585	0.014
661.4436	-0.0016
661.6288	0.009
661.8139	0.0077
661.9991	-0.0057
662.1842	0.0077
662.3693	0.001
662.5544	0.0074
662.7394	0.0086
662.9245	0.0119
663.1095	0.0045
663.2945	0.0067
663.4795	0.0062
663.6644	0.0085
663.8494	0.0065
664.0343	0.0065
664.2193	0.0032
664.4042	0.0116
664.589	0.004
664.7739	-0.003
664.9587	0.0062
665.1436	0.0004
665.3284	0.0006
665.5132	0.0005
665.698	-0.0001
665.8827	0.0033
666.0675	0.0043
666.2522	0.0026
666.4369	0.0073
666.6216	0.011
666.8063	0.0069
666.9909	0.0015
667.1756	0.01
667.3602	0.0059
667.5448	0.0119
667.7294	0.0073
667.9139	0.0013
668.0985	0.0083
668.283	0.002
668.4675	0.0034
668.652	0.0079
668.8365	-0.0041
669.0209	0.0028
669.2054	0.0011
669.3898	0.0028
669.5742	0.0015
669.7586	0.0036
669.943	0.0072
670.1273	0.0056
670.3117	0.003
670.496	0.0024
670.6803	0.0068
670.8646	0.0079
671.0488	0.0109
671.2331	0.0037
671.4173	0.006
671.6015	0.0011
671.7857	0.0082
671.9699	0.0051
672.1541	0.0022
672.3382	0.0136
672.5223	0.0073
672.7064	0.0114
672.8905	0.0158
673.0746	0.0062
673.2587	0.0055
673.4427	0.0045
673.6267	0.0005
673.8107	0.01
673.9947	0.0116
674.1787	0.0075
674.3626	0.0164
674.5465	0.009
674.7304	0.0073
674.9143	0.0047
675.0982	0.008
675.2821	0.0007
675.4659	0.0171
675.6497	0.0036
675.8335	0.0174
676.0173	0.0057
676.2011	0.0042
676.3849	0.0077
676.5686	0.0183
676.7523	0.0052
676.936	-0.0069
677.1197	0.0071
677.3034	0.0115
677.487	0.0029
677.6706	0.0149
677.8542	0.0098
678.0378	0.0054
678.2214	0.0029
678.405	0.0148
678.5885	0.0105
678.772	0.0122
678.9555	0.0069
679.139	0.0113
679.3225	0.0087
679.5059	0.0087
679.6894	0.0058
679.8728	0.0019
680.0562	0.0102
680.2395	0.0081
680.4229	-0.0013
680.6062	0.0044
680.7896	0.0026
680.9729	0.0053
681.1562	0.0085
681.3394	0.0122
681.5227	0.0094
681.7059	-0.0029
681.8891	0.0031
682.0723	0.0079
682.2555	0.0036
682.4387	-0.0031
682.6218	0.0092
682.805	0.006
682.9881	0.0103
683.1712	0.0097
683.3542	0.0048
683.5373	-0.0034
683.7203	0.0165
683.9034	0.0088
684.0864	0.0042
684.2694	0.0082
684.4523	0.0098
684.6353	0.0005
684.8182	0.0047
685.0011	0.0071
685.184	0.0054
685.3669	0.002
685.5498	-0.002
685.7326	0.0028
685.9154	0.0138
686.0982	0.0153
686.281	0.0021
686.4638	0.0036
686.6465	0.0084
686.8293	0.0082
687.012	0.0104
687.1947	0.0057
687.3774	0.0082
687.56	0.0081
687.7427	0.0139
687.9253	0.0085
688.1079	0.0024
688.2905	-0.0005
688.4731	0.0067
688.6556	0.0105
688.8382	0.006
689.0207	0.0033
689.2032	0.0041
689.3857	0.0139
689.5681	-0.0008
689.7506	-0.0036
689.933	0.0049
690.1154	0.0015
690.2978	0.0022
690.4802	0.0065
690.6626	0.0083
690.8449	0.0066
691.0272	0.0054
691.2095	0.015
691.3918	-0.0035
691.5741	0.0139
691.7563	0.0087
691.9386	0.0074
692.1208	-0.0021
692.303	0.0067
692.4852	0.0137
692.6673	0.0008
692.8495	0.0135
693.0316	0.0137
693.2137	0.0012
693.3958	0.0057
693.5778	0.0088
693.7599	0.0161
693.9419	0.0125
694.1239	0.011
694.3059	0.0137
694.4879	0.0089
694.6699	0.0057
694.8518	0.0072
695.0337	0.0106
695.2157	0.0084
695.3975	0.0062
695.5794	0.0129
695.7613	0.0033
695.9431	0.0081
696.1249	0.007
696.3067	-0.0008
696.4885	0.0063
696.6703	0.008
696.852	0.0052
697.0337	0.0135
697.2154	0.0112
697.3971	0.0024
697.5788	0.0049
697.7605	0.0031
697.9421	-0.0031
698.1237	0.0168
698.3053	0.0089
698.4869	0.008
698.6685	0.007
698.85	0.0116
699.0315	0.011
699.213	0.0068
699.3945	0.0048
699.576	0.019
699.7575	0.0152
699.9389	0.0163
700.1203	0.0182
700.3017	0.0116
700.4831	0.0093
700.6645	0.0045
700.8458	0.0044
701.0271	0.0124
701.2084	0.0015
701.3897	-0.0056
701.571	0.0028
701.7523	-0.0051
701.9335	0.0053
702.1147	0.0034
702.2959	0.0029
702.4771	0.0004
702.6583	0.0034
702.8394	0.0067
703.0205	0.0014
703.2016	0.0043
703.3827	-0.003
703.5638	0.0099
703.7449	0.0077
703.9259	-0.0007
704.1069	0.0078
704.2879	0.0025
704.4689	0.0088
704.6499	-0.0025
704.8308	0.0124
705.0117	0.0089
705.1927	0.0084
705.3735	0.0003
705.5544	-0.0053
705.7353	0.0105
705.9161	0.0036
706.0969	0.0029
706.2777	0.0051
706.4585	-0.0008
706.6393	0.0079
706.82	0.0064
707.0007	-0.0076
707.1815	0.0077
707.3621	-0.0014
707.5428	0.0102
707.7235	0.0016
707.9041	0.0014
708.0847	0.0159
708.2653	0.0078
708.4459	0.0118
708.6265	0.0157
708.807	0.0116
708.9875	0.0077
709.168	0.0203
709.3485	0.0024
709.529	0.0027
709.7095	0.0164
709.8899	0.0053
710.0703	0.0101
710.2507	0.0032
710.4311	0.0051
710.6115	0.0085
710.7918	0.0142
710.9721	0.01
711.1524	0.0019
711.3327	0.002
711.513	-0.0004
711.6932	0.0005
711.8735	0.0033
712.0537	-0.0084
712.2339	-0.0081
712.4141	-0.0065
712.5942	-0.0047
712.7744	0.0105
712.9545	0.0066
713.1346	0.0034
713.3147	-0.0038
713.4947	-0.0062
713.6748	-0.0002
713.8548	0.0101
714.0348	0.0028
714.2148	0.0027
714.3948	-0.0004
714.5748	0.0047
714.7547	0.0023
714.9346	-0.0079
715.1145	0.0024
715.2944	0.0008
715.4743	0.0084
715.6541	0.0089
715.834	0.0026
716.0138	0.0073
716.1936	-0.0001
716.3733	0.0136
716.5531	0.0085
716.7328	0.0117
716.9126	0.0025
717.0923	0.008
717.2719	0.0052
717.4516	0.0005
717.6312	0.0092
717.8109	-0.0015
717.9905	0.0015
718.1701	-0.0024
718.3496	0.0025
718.5292	0.0044
718.7087	-0.0078
718.8882	-0.0027
719.0677	0.0037
719.2472	0.006
719.4267	0.0077
719.6061	0.0016
719.7856	0.0042
719.965	0.0104
720.1443	0.0024
720.3237	0.0084
720.5031	0.0103
720.6824	0.0033
720.8617	0.002
721.041	0.0035
721.2203	0.0039
721.3995	0.0118
721.5788	0.0155
721.758	0.0011
721.9372	0.01
722.1164	0.0171
722.2956	0.0068
722.4747	0.0075
722.6538	-0.0005
722.8329	0.0061
723.012	0.0028
723.1911	0.0017
723.3702	0.0049
723.5492	0.0099
723.7282	0.011
723.9072	0.0079
724.0862	0.0144
724.2652	0.0065
724.4441	0.001
724.623	0.0139
724.8019	-0.0061
724.9808	0.0027
725.1597	-0.0059
725.3385	0.0063
725.5174	0.0001
725.6962	-0.0036
725.875	0.0022
726.0538	0.0042
726.2325	0.001
726.4112	0.0058
726.59	-0.0007
726.7687	-0.0015
726.9474	0.0018
727.126	-0.0052
727.3047	-0.0153
727.4833	0.0047
727.6619	-0.0058
727.8405	0.001
728.0191	-0.0007
728.1976	-0.0027
728.3762	0.0002
728.5547	0.0046
728.7332	0.0023
728.9116	-0.0039
729.0901	-0.0001
729.2686	-0.0003
729.447	-0.004
729.6254	0.0043
729.8038	0.0082
729.9821	-0.0007
730.1605	0.0058
730.3388	-0.0021
730.5171	0.0025
730.6954	0.003
730.8737	0.0099
731.0519	0.0027
731.2302	0.0046
731.4084	0.0081
731.5866	-0.0065
731.7648	-0.0009
731.9429	-0.0025
732.1211	0.0004
732.2992	0.0051
732.4773	-0.0007
732.6554	-0.0032
732.8335	-0.009
733.0115	-0.0025
733.1896	0.0072
733.3676	0.0035
733.5456	-0.0059
733.7235	-0.0044
733.9015	0.0031
734.0794	-0.0003
734.2574	0.0029
734.4353	-0.0006
734.6131	0.0065
734.791	0.0013
734.9689	0.0061
735.1467	0.0024
735.3245	0.0007
735.5023	0.0146
735.68	0.0075
735.8578	0.0115
736.0355	0.0054
736.2132	0.0117
736.3909	0.0077
736.5686	0.0183
736.7463	0.0034
736.9239	0.0164
737.1015	0.0186
737.2791	0.0146
737.4567	0.0006
737.6343	0.0033
737.8118	0.0076
737.9894	0.002
738.1669	0.0063
738.3444	0.0004
738.5218	0.0084
738.6993	0.0008
738.8767	-0.0003
739.0541	-0.0026
739.2315	0.0083
739.4089	0.0034
739.5863	0.0015
739.7636	-0.0021
739.9409	0.0015
740.1182	0.0031
740.2955	0.0087
740.4728	0.0129
740.65	0.0002
740.8272	0.0009
741.0044	-0.0041
741.1816	0.0084
741.3588	0.0067
741.5359	0.0094
741.7131	0.0098
741.8902	0.0032
742.0673	0.0116
742.2444	0.001
742.4214	-0.0034
742.5985	0.002
742.7755	0.0041
742.9525	0.0013
743.1295	0.0104
743.3064	0.0034
743.4834	0.0089
743.6603	-0.0054
743.8372	0.0009
744.0141	0.0069
744.191	-0.0001
744.3678	-0.0003
744.5446	-0.0018
744.7215	0.0206
744.8982	0.0054
745.075	0.0062
745.2518	-0.0073
745.4285	-0.0039
745.6052	0.0061
745.7819	-0.0118
745.9586	0.0038
746.1353	-0.0153
746.3119	0.0057
746.4885	0.004
746.6651	0.0023
746.8417	0.0022
747.0183	0.0022
747.1948	0.0057
747.3714	0.0033
747.5479	-0.0016
747.7244	0.0017
747.9008	0.0001
748.0773	-0.0039
748.2537	0.0046
748.4301	-0.007
748.6065	-0.0033
748.7829	-0.0025
748.9593	-0.0009
749.1356	-0.0001
749.3119	0.0089
749.4882	0.0043
749.6645	0.0021
749.8408	0.0083
750.017	0.01
750.1933	0.0123
750.3695	0.0157
750.5457	0.0132
750.7218	0.0051
750.898	0.0127
751.0741	0.0165
751.2502	0.0151
751.4263	0.0084
751.6024	0.0081
751.7784	0.0047
751.9545	0.0072
752.1305	0.0042
752.3065	0.0105
752.4825	0.0111
752.6584	0.0126
752.8344	0.0064
753.0103	0.0041
753.1862	0.0063
753.3621	0.0039
753.5379	-0.0007
753.7138	0.0057
753.8896	0.0051
754.0654	-0.0109
754.2412	0.0019
754.417	-0.0045
754.5927	0.0021
754.7685	-0.0019
754.9442	-0.0039
755.1199	0.0158
755.2956	0.0015
755.4712	-0.0054
755.6469	0.0015
755.8225	0.0071
755.9981	0.0053
756.1736	-0.0023
756.3492	0.0061
756.5248	0.0039
756.7003	0.0052
756.8758	0.0129
757.0513	0.0063
757.2267	0.0027
757.4022	0.006
757.5776	0.0088
757.753	0.0008
757.9284	0.0036
758.1038	0.0005
758.2791	0.0059
758.4545	0.0082
758.6298	0.0081
758.8051	0.0022
758.9803	0.0064
759.1556	-0.0001
759.3308	0.0097
759.506	0.0074
759.6812	0.0071
759.8564	-0.0042
760.0316	0.0172
760.2067	0.0078
760.3819	0.0011
760.557	-0.0056
760.732	0.0013
760.9071	0.0079
761.0821	0.0117
761.2572	0.0106
761.4322	0.0043
761.6072	0.0001
761.7821	0.0003
761.9571	0.0034
762.132	0.0081
762.3069	0.0168
762.4818	0.0053
762.6567	0.0008
762.8316	-0.0083
763.0064	-0.007
763.1812	0.0118
763.356	0.0035
763.5308	-0.0044
763.7055	-0.0069
763.8803	0.0076
764.055	-0.0048
764.2297	0.009
764.4044	0.0103
764.579	0.0096
764.7537	-0.0041
764.9283	0.0084
765.1029	0.0014
765.2775	-0.0016
765.4521	-0.0109
765.6266	-0.0068
765.8011	0.0061
765.9756	-0.0043
766.1501	0.0073
766.3246	-0.0065
766.4991	0.0058
766.6735	0.002
766.8479	-0.0004
767.0223	-0.0107
767.1967	0.0046
767.371	-0.0023
767.5454	-0.0043
767.7197	0.0029
767.894	0.0097
768.0683	0.0105
768.2425	0.0092
768.4168	0.0008
768.591	0.0038
768.7652	-0.0012
768.9394	0.0026
769.1135	0.0081
769.2877	-0.0037
769.4618	0.0103
769.6359	0.0091
769.81	0.0086
769.984	0.002
770.1581	0.0035
770.3321	0.0063
770.5061	0.0035
770.6801	-0.0095
770.8541	0.0076
771.028	0.0054
771.202	0.0007
771.3759	-0.0014
771.5498	0.0143
771.7236	0.0021
771.8975	0.0054
772.0713	0.0044
772.2451	-0.0021
772.4189	0.005
772.5927	-0.0009
772.7665	-0.0001
772.9402	0.0057
773.1139	0.0138
773.2876	-0.0098
773.4613	0.0044
773.635	-0.0018
773.8086	-0.0036
773.9822	0.0163
774.1558	0.0176
774.3294	0.0096
774.503	-0.0083
774.6765	0.0153
774.8501	0.0105
775.0236	0.0152
775.1971	0.0099
775.3705	0.0076
775.544	0.0179
775.7174	0.0143
775.8908	0.0112
776.0642	0.0102
776.2376	0.0014
776.4109	0.012
776.5843	0.008
776.7576	-0.0028
776.9309	0.0046
777.1041	0.0072
777.2774	0.0039
777.4506	0.0056
777.6238	-0.0079
777.797	0.0114
777.9702	0.0117
778.1434	0.0128
778.3165	0.001
778.4896	0.0083
778.6627	0.0101
778.8358	0.0017
779.0089	-0.0001
779.1819	-0.0035
779.3549	0.0054
779.5279	0.0028
779.7009	0.0038
779.8739	-0.0087
780.0468	0.0135
780.2197	0.0042
780.3926	-0.0033
780.5655	0.0069
780.7384	-0.0126
780.9112	-0.0002
781.0841	-0.0098
781.2569	-0.0156
781.4297	-0.0248
781.6024	-0.0028
781.7752	0.0028
781.9479	-0.0064
782.1206	0.0032
782.2933	0.0022
782.466	0.0101
782.6386	0.0124
782.8113	-0.0078
782.9839	-0.0071
783.1565	0.0054
783.329	0.0016
783.5016	-0.0038
783.6741	0.0073
783.8466	0.0124
784.0191	-0.0077
784.1916	0.0042
784.3641	-0.0105
784.5365	0.0107
784.7089	0.0013
784.8813	0.0049
785.0537	-0.0151
785.2261	-0.0106
785.3984	0.0096
785.5707	0.0165
785.743	0.0043
785.9153	-0.0015
786.0876	0.0107
786.2598	0.0016
786.432	0.0049
786.6042	0.0167
786.7764	0.0106
786.9486	0.0126
787.1207	-0.0011
787.2928	0.0018
787.4649	0.0049
787.637	0.0067
787.8091	0.0004
787.9811	-0.0026
788.1532	0.003
788.3252	-0.0039
788.4972	0.003
788.6691	0.0055
788.8411	-0.007
789.013	-0.0076
789.1849	0.0151
789.3568	0.0117
789.5287	0.004
789.7005	0.0125
789.8723	-0
790.0442	0.0104
790.2159	-0.0012
790.3877	0.0198
790.5595	0.0182
790.7312	0.0018
790.9029	0.0121
791.0746	0.0079
791.2463	0.0217
791.4179	0.0049
791.5896	0.0097
791.7612	0.0085
791.9328	0.0127
792.1044	0.0187
792.2759	0.0012
792.4474	0.0108
792.619	0.0036
792.7905	0.0215
792.9619	0.0059
793.1334	0.0141
793.3048	0.0191
793.4762	-0.0054
793.6476	0.0023
793.819	0.0189
793.9904	0.022
794.1617	-0.0049
794.333	0.0045
794.5043	-0.0031
794.6756	-0.0088
794.8469	0.0052
795.0181	0.0136
795.1893	0.0058
795.3605	-0.0076
795.5317	0.0051
795.7029	-0.0049
795.874	-0.0019
796.0452	0.01
796.2163	0.0141
796.3873	-0.0007
796.5584	0.0171
796.7294	-0.007
796.9005	0.0093
797.0715	0.0038
797.2425	0.001
797.4134	0.0182
797.5844	0.0074
797.7553	0.0137
797.9262	0.0016
798.0971	0.0103
798.2679	0.0082
798.4388	-0.0112
798.6096	-0.0059
798.7804	0.0025
798.9512	0.0117
799.122	0.0181
799.2927	0.0204
799.4635	0.0075
799.6342	0.0135
799.8049	0.0176
799.9755	0.0192
800.1462	0.0245
800.3168	0.0106
800.4874	-0.0015
800.658	0.0009
800.8286	-0.0036
800.9991	0.0184
801.1696	0.0061
801.3402	0.0256
801.5106	0.0146
801.6811	-0.0056
801.8516	0.0061
802.022	0.0079
802.1924	0.0094
802.3628	0.0028
802.5332	0.0147
802.7035	-0.0006
802.8739	-0.0028
803.0442	0.0038
803.2145	0.0018
803.3847	0.0082
803.555	0.0125
803.7252	0.013
803.8954	-0.0131
804.0656	0.0063
804.2358	0.007
804.4059	0.0287
804.5761	0.0161
804.7462	0.0116
804.9163	-0.0105
805.0864	-0.007
805.2564	-0.0013
805.4264	-0.0034
805.5965	0.0148
805.7665	0.0057
805.9364	-0.0181
806.1064	0.0095
806.2763	0.0268
806.4462	0.0164
806.6161	0.0155
806.786	0.0078
806.9559	0.0169
807.1257	0.0175
807.2955	0.0165
807.4653	0.0218
807.6351	0.0123
807.8048	0.0046
807.9746	0.0115
808.1443	-0.0045
808.314	0.0054
808.4837	0.0231
808.6533	0.0129
808.8229	0.0215
808.9926	0.0119
809.1622	-0.0043
809.3317	0.0194
809.5013	0.0388
809.6708	0.0099
809.8403	0.0092
810.0098	0.0161
810.1793	0.0133
810.3488	0.0072
810.5182	0.0261
810.6876	0.0314
810.857	0.0065
811.0264	0.0057
811.1958	-0.0058
811.3651	0.0127
811.5344	0.0198
811.7037	0.0069
811.873	-0.0052
812.0422	0.0031
812.2115	0.0294
812.3807	-0.0033
812.5499	0.0317
812.7191	0.0211
812.8882	-0.0052
813.0574	0.0135
813.2265	0.023
813.3956	0.024
813.5646	0.0243
813.7337	0.0101
813.9027	0.0065
814.0718	0.0295
814.2407	0.0366
814.4097	0.0212
814.5787	-0.0069
814.7476	0.0259
814.9165	0.0184
815.0854	-0.0221
815.2543	-0.0061
815.4232	0.0114
815.592	-0.0097
815.7608	0.0274
815.9296	0.0084
816.0984	-0.0072
816.2671	-0.0203
816.4359	-0.0063
816.6046	-0.0062
816.7733	0.0008
816.942	0.0051
817.1106	0.012
817.2793	0.0161
817.4479	-0.015
817.6165	-0.0055
817.785	0.0009
817.9536	0.0215
818.1221	-0.001
818.2906	0.0024
818.4591	0.0034
818.6276	0.0219
818.7961	0.0065
818.9645	-0.0119
819.1329	0.0039
819.3013	0.0045
819.4697	0.0285
819.638	-0.0081
819.8064	0.0158
819.9747	-0.0056
820.143	0.0126
820.3113	-0.0079
820.4795	-0.0085
820.6477	0.0071
820.816	-0.0358
820.9842	-0.0075
821.1523	0.0158
821.3205	-0.0131
821.4886	-0.001
821.6567	-0.0031
821.8248	0.0068
821.9929	-0.0089
822.1609	-0.0147
822.329	0.0112
822.497	-0.013
822.665	-0.0225
822.833	-0.0115
823.0009	-0.0149
823.1688	0.0054
823.3367	0.0137
823.5046	-0.0231
823.6725	-0.0696
823.8404	-0.0083
824.0082	-0.0225
824.176	0.0327
824.3438	0.0239
824.5116	-0.0099
824.6793	0.0239
824.847	0.0033
825.0147	0.0077
825.1824	-0.0025
825.3501	-0.0154
825.5177	-0.0136
825.6854	-0.0073
825.853	0.0175
826.0206	0.0211
826.1881	-0
826.3557	0.0037
826.5232	-0.0069
826.6907	0.022
826.8582	0.0262
827.0257	0.0141
827.1931	0.0098
827.3605	0.0351
827.528	0.018
827.6953	0.0174
827.8627	-0.0086
828.03	0.0309
828.1974	0.042
828.3647	-0.0049
828.532	-0.0191
828.6992	0.0263
828.8665	0.0365
829.0337	-0.0018
829.2009	0.0452
829.3681	-0.0332
829.5352	0.0169
829.7024	0.0143
829.8695	0.0048
830.0366	0.0055
830.2037	0.0059
830.3707	0.0105
830.5378	-0.0377
830.7048	0.0226
830.8718	0.0031
831.0388	-0.0114
831.2057	-0.0186
831.3727	0.0068
831.5396	-0.0349
831.7065	-0.0195
831.8734	-0.0232
832.0402	-0.0174
832.2071	-0.0091
832.3739	-0.0224
832.5407	0.0146
832.7075	-0.0363
832.8742	0.0232
833.041	-0.0017
833.2077	0.0113
833.3744	0.003
833.541	0.0398
833.7077	0.0045
833.8743	0.0284
834.0409	0.0169
834.2075	0.0238
834.3741	0.0378
834.5407	0.0125
834.7072	0.0006
834.8737	0.0012
835.0402	0.0072
835.2067	-0.0318
835.3731	-0.0025
835.5395	-0.0007
835.706	0.045
835.8723	-0.0415
836.0387	0.0117
836.2051	0.0151
836.3714	-0.0417
836.5377	-0.0313
836.704	-0.0547
836.8703	-0.0551
837.0365	-0.0281
837.2027	-0.0195
837.3689	-0.0082
837.5351	-0.0115
837.7013	-0.0189
837.8674	0.0468
838.0335	-0.0419
838.1997	-0.0433
838.3657	-0.0127
838.5318	0.0051
838.6978	-0.0001
838.8639	-0.0461
839.0299	0.0193
839.1958	-0.0208
839.3618	-0.044
839.5277	-0.0147
839.6937	-0.0207
839.8596	-0.0139
840.0254	0.0471
840.1913	0.0439
840.3571	-0.0393
840.523	0.0534
840.6888	-0.0331
840.8545	-0.0048
841.0203	0.0482
841.186	0.0461
841.3517	-0.0314
841.5174	-0.0342
841.6831	-0.0263
841.8488	-0.0341
842.0144	0.1033
842.18	-0.0333
842.3456	0.0033
842.5112	0.0451
842.6767	0.0117
842.8422	0.0166
843.0077	0.0057
843.1732	-0.0263
843.3387	-0.0576
843.5042	0.0193
843.6696	0.0224
843.835	-0.0115
844.0004	-0.0548
844.1657	-0.0305
844.3311	-0.0152
844.4964	0.001
844.6617	-0.035
844.827	0.0554
844.9923	0.0521
845.1575	0.0605
845.3227	-0.0355
845.4879	-0.0212
845.6531	0.0275
845.8183	-0.039
845.9834	0.0969
846.1485	-0.0567
846.3136	-0.0325
846.4787	0.0384
846.6438	0.0615
846.8088	0.0264
846.9738	-0.0029
847.1388	-0.0036
847.3038	-0.0408
847.4687	-0.057
847.6337	-0.0729
847.7986	0.0295
847.9635	-0.0217
848.1284	-0.0097
848.2932	0.0149
848.458	0.1052
848.6228	0.0359
848.7876	0.0357
848.9524	0.0043
849.1172	0.0172
849.2819	-0.0138
849.4466	-0.0231
849.6113	0.0553
849.7759	-0.0541
849.9406	0.0878
850.1052	-0.0497
850.2698	0.0349
850.4344	0.0091
850.599	0.0047
850.7635	0.0177
850.928	-0.009
851.0925	0.0995
851.257	0.0235
851.4215	-0.0241
851.5859	-0.0088
851.7503	-0.0412
851.9147	0.0125
852.0791	-0.0895
852.2434	0.0249
852.4078	-0.0784
852.5721	0.068
852.7364	-0.0838
852.9007	-0.2044
853.0649	0.0467
853.2291	0.0727
853.3934	0.0313
853.5575	-0.0093
853.7217	-0.0064
853.8859	-0.004
854.05	-0.0285
854.2141	-0.0621
854.3782	-0.0084
854.5423	-0.0218
854.7063	-0.0149
854.8703	0.0329
855.0343	0.0963
855.1983	-0.0602
855.3623	-0.0858
855.5262	0.0336
855.6901	-0.1005
855.854	-0.0979
856.0179	0.0734
856.1818	0.1652
856.3456	0.0023
856.5094	0.0313
856.6732	0.0641
856.837	0.0984
857.0008	-0.271
857.1645	0.1118
857.3282	0.1905
857.4919	-0.1236
857.6556	0.0219
857.8192	0.1034
857.9828	0.1846
858.1465	-0.0633
858.31	0.027
858.4736	0.0366
858.6372	-0.1711
858.8007	-0.4402
858.9642	-0.0034
859.1277	-0.1237
859.2911	-0.1604
859.4546	-0.0055
859.618	-0.6255
859.7814	-0.0521
859.9448	0.051
860.1081	0.051
860.2715	0.0567
860.4348	0.0382
860.5981	-0.0091
860.7614	-0.0517
860.9246	-0.0004
861.0879	0.0077
861.2511	0.1592
861.4143	-0.0587
861.5774	-0.0781
861.7406	0.0343
861.9037	-0.5243
862.0668	-0.0675
862.2299	0.0366
862.393	0.6812
862.556	0.1229
862.7191	0.0969
862.8821	-0.0342
863.0451	-0.0898
863.208	0.0167
863.371	-0.6293
863.5339	-0.0324
863.6968	0.1556
863.8597	-0.0632
864.0225	0.0957
864.1854	-0.0409
864.3482	-0.0712
864.511	-0.0462
864.6737	-0.1782
864.8365	0.004
864.9992	0.0523
865.1619	-0.2529
865.3246	-0.1067
865.4873	-0.0966
865.65	-0.4532
865.8126	0.506
865.9752	0.0936
866.1378	0.0697
866.3004	-0
866.4629	0.0036
866.6254	-0.3279
866.7879	0.3973
866.9504	0.548
867.1129	0.0959
867.2753	0.2588
867.4377	-0.3891
867.6001	0.0234
867.7625	0.0417
867.9249	-0.6102
868.0872	-0
868.2495	0.1899
868.4118	-0.007
868.5741	-0.1893
868.7363	0.9487
868.8986	-0.3829
869.0608	-0.1198
869.223	-0.1079
869.3851	-0.2361
869.5473	-0.1026
869.7094	0.1608
869.8715	0.2472
870.0336	-0
870.1957	-0
870.3577	-0.1585
870.5197	-0.1673
870.6817	0.1295
870.8437	0.1161
871.0057	-0
871.1676	-0.3601
871.3295	0.3757
871.4914	-0
871.6533	0.2289
871.8151	-0.1082
871.977	-0.6047
872.1388	1.0221
872.3006	0.4189
872.4623	-0.3586
872.6241	-0.0047
872.7858	-0.0991
872.9475	-0
873.1092	-0.0621
873.2709	-0
873.4325	-0.0031
873.5941	0.1286
873.7557	-0.7962
873.9173	-0.1572
874.0789	0.4329
874.2404	0.2095
874.4019	-0.3084
874.5634	-0.4115
874.7249	0.2056
874.8863	-0.2192
875.0478	-0.1537
875.2092	-0.2291
875.3706	-0.3453
875.5319	-1.3989
875.6933	-0
875.8546	0.2263
876.0159	-0.0473
876.1772	-0
876.3385	-0.1853
876.4997	-0
876.6609	-0
876.8221	-0.9241
876.9833	-0.6631
877.1445	0.1715
877.3056	-0.1601
877.4667	-0.2219
877.6278	0.7919
877.7889	0.3172
877.9499	0.6014
878.111	-0
878.272	0.0945
878.433	0.1182
878.5939	0.0317
878.7549	0.1018
878.9158	-0.1422
879.0767	-0.1788
879.2376	0.3095
879.3984	-0
879.5593	-0.4935
879.7201	0.0301
879.8809	-0
880.0417	0.0883
880.2024	-0.283
880.3632	-0.1794
880.5239	-0.2142
880.6846	-0.5121
880.8452	-0.1312
881.0059	-0
881.1665	-0
881.3271	-0
881.4877	-0
881.6483	-0.4313
881.8088	-0.2031
881.9693	-0.2781
882.1298	-0.2781
882.2903	-0.2781
