Data from MonoPyChalIsomerACN10uM400nmA_Absorbance_12-08-44-428.txt Node
Date: Fri Jul 05 12:08:44 BST 2024
User: LASERRRRR
Spectrometer: FLMT03099
Trigger mode: 0
Integration Time (sec): 1.000000E-1
Scans to average: 1
Electric dark correction enabled: true
Nonlinearity correction enabled: false
Boxcar width: 0
XAxis mode: Wavelengths
Number of Pixels in Spectrum: 3648
>>>>>Begin Spectral Data<<<<<
179.3399	-0.0234
179.5586	-0.0234
179.7771	-0.0234
179.9957	1.1628
180.2143	-0
180.4329	-0
180.6514	-0
180.8699	-0.239
181.0885	-0
181.307	0.1351
181.5255	-0.248
181.744	-0.0801
181.9625	-0.8013
182.181	-0
182.3994	-0.4458
182.6179	0.1855
182.8363	0.623
183.0547	-0.0325
183.2732	0.0439
183.4916	0.0713
183.71	-0.0175
183.9284	0.1126
184.1467	0.0062
184.3651	-0.0878
184.5835	0.2945
184.8018	-0.0202
185.0201	0.0105
185.2385	0.0013
185.4568	0.0614
185.6751	0.1379
185.8934	0.0012
186.1117	-0.0197
186.3299	-0.1184
186.5482	-0.0304
186.7664	0.1242
186.9847	0.0011
187.2029	0.0224
187.4211	-0.2434
187.6393	-0.1356
187.8575	-0.0453
188.0757	0.1601
188.2939	0.0891
188.512	0.041
188.7302	-0.0463
188.9483	0.1152
189.1665	-0.0981
189.3846	0.0047
189.6027	0.2697
189.8208	0.0898
190.0389	0.0662
190.257	0.0699
190.475	0.2219
190.6931	0.1363
190.9111	0.025
191.1292	0.2048
191.3472	0.4027
191.5652	0.1079
191.7832	0.3851
192.0012	0.3398
192.2192	0.5258
192.4371	0.2129
192.6551	0.3183
192.873	0.3669
193.091	0.5081
193.3089	0.3443
193.5268	0.5439
193.7447	0.5962
193.9626	0.5425
194.1805	0.6271
194.3984	0.3773
194.6162	0.6131
194.8341	0.4488
195.0519	0.5053
195.2697	0.5491
195.4875	0.5478
195.7054	0.4904
195.9231	0.3619
196.1409	0.4744
196.3587	0.4518
196.5765	0.6013
196.7942	0.6518
197.012	0.6999
197.2297	0.59
197.4474	0.6355
197.6651	0.7255
197.8828	0.6519
198.1005	0.6098
198.3182	0.8034
198.5358	0.7005
198.7535	0.6864
198.9711	0.6617
199.1888	0.6676
199.4064	0.7835
199.624	0.566
199.8416	0.642
200.0592	0.8529
200.2767	0.5588
200.4943	0.7437
200.7119	0.7075
200.9294	0.5658
201.1469	0.7997
201.3645	0.6392
201.582	0.64
201.7995	0.8466
202.017	0.8627
202.2344	0.6726
202.4519	0.5775
202.6694	0.7631
202.8868	0.7642
203.1042	0.693
203.3217	0.5904
203.5391	0.7743
203.7565	0.7283
203.9739	0.6669
204.1913	0.9214
204.4086	0.7679
204.626	0.8069
204.8433	0.8265
205.0607	0.7861
205.278	0.8285
205.4953	0.7716
205.7126	0.6548
205.9299	0.8914
206.1472	0.6985
206.3644	0.6526
206.5817	0.7869
206.7989	0.6704
207.0162	0.7591
207.2334	0.9169
207.4506	0.7653
207.6678	0.7909
207.885	0.7955
208.1022	0.8354
208.3194	0.7186
208.5365	0.6606
208.7537	0.7757
208.9708	0.6726
209.1879	0.7932
209.405	0.7159
209.6222	0.7252
209.8392	0.7282
210.0563	0.693
210.2734	0.691
210.4905	0.7698
210.7075	0.7899
210.9245	0.7221
211.1416	0.7541
211.3586	0.719
211.5756	0.7051
211.7926	0.6764
212.0096	0.6215
212.2265	0.7063
212.4435	0.7339
212.6604	0.6983
212.8774	0.7576
213.0943	0.7116
213.3112	0.7339
213.5281	0.6168
213.745	0.687
213.9619	0.6498
214.1788	0.6359
214.3956	0.6641
214.6125	0.6202
214.8293	0.6544
215.0461	0.6558
215.2629	0.6227
215.4798	0.6656
215.6965	0.7039
215.9133	0.6391
216.1301	0.555
216.3469	0.6677
216.5636	0.6406
216.7803	0.6053
216.9971	0.6335
217.2138	0.6414
217.4305	0.5925
217.6472	0.5628
217.8639	0.601
218.0805	0.5871
218.2972	0.5624
218.5138	0.5707
218.7305	0.556
218.9471	0.5899
219.1637	0.5637
219.3803	0.4868
219.5969	0.5588
219.8135	0.5774
220.0301	0.5479
220.2466	0.5515
220.4632	0.5619
220.6797	0.5507
220.8962	0.5512
221.1127	0.5311
221.3292	0.521
221.5457	0.5709
221.7622	0.5517
221.9787	0.5143
222.1951	0.5434
222.4116	0.5373
222.628	0.5816
222.8444	0.531
223.0608	0.513
223.2772	0.5309
223.4936	0.5212
223.71	0.5789
223.9264	0.5418
224.1427	0.5158
224.3591	0.5561
224.5754	0.5608
224.7917	0.5565
225.008	0.5793
225.2243	0.5061
225.4406	0.5519
225.6569	0.5362
225.8732	0.57
226.0894	0.5541
226.3057	0.5307
226.5219	0.53
226.7381	0.5885
226.9543	0.5701
227.1705	0.5767
227.3867	0.5368
227.6029	0.511
227.8191	0.5477
228.0352	0.5612
228.2513	0.5627
228.4675	0.5628
228.6836	0.5936
228.8997	0.5648
229.1158	0.5402
229.3319	0.6003
229.548	0.6068
229.764	0.5816
229.9801	0.5858
230.1961	0.5504
230.4121	0.5991
230.6282	0.5454
230.8442	0.5834
231.0602	0.5706
231.2761	0.5638
231.4921	0.5847
231.7081	0.5846
231.924	0.6009
232.14	0.5837
232.3559	0.567
232.5718	0.5814
232.7877	0.5451
233.0036	0.5504
233.2195	0.5788
233.4353	0.5692
233.6512	0.5896
233.867	0.5659
234.0829	0.554
234.2987	0.5765
234.5145	0.5372
234.7303	0.5644
234.9461	0.5659
235.1619	0.5803
235.3776	0.5586
235.5934	0.5469
235.8091	0.5358
236.0249	0.5204
236.2406	0.552
236.4563	0.569
236.672	0.5585
236.8877	0.5559
237.1034	0.5258
237.319	0.5148
237.5347	0.5573
237.7503	0.557
237.966	0.5243
238.1816	0.5467
238.3972	0.5567
238.6128	0.5205
238.8284	0.5655
239.0439	0.5613
239.2595	0.5177
239.475	0.5393
239.6906	0.5272
239.9061	0.5192
240.1216	0.5236
240.3371	0.5144
240.5526	0.5108
240.7681	0.5357
240.9836	0.525
241.199	0.4932
241.4145	0.4916
241.6299	0.4977
241.8453	0.4701
242.0607	0.4696
242.2761	0.469
242.4915	0.4832
242.7069	0.4467
242.9223	0.4514
243.1376	0.45
243.353	0.4448
243.5683	0.4339
243.7836	0.4322
243.9989	0.4369
244.2142	0.4031
244.4295	0.3943
244.6448	0.3766
244.86	0.3855
245.0753	0.3642
245.2905	0.3713
245.5057	0.3687
245.721	0.3628
245.9362	0.3491
246.1514	0.3558
246.3665	0.3322
246.5817	0.3509
246.7969	0.322
247.012	0.3207
247.2271	0.3321
247.4423	0.3013
247.6574	0.3037
247.8725	0.306
248.0876	0.2967
248.3026	0.2902
248.5177	0.2974
248.7328	0.2835
248.9478	0.2807
249.1628	0.26
249.3779	0.2625
249.5929	0.2547
249.8079	0.2655
250.0228	0.2523
250.2378	0.2554
250.4528	0.2588
250.6677	0.2321
250.8827	0.2388
251.0976	0.2375
251.3125	0.2441
251.5274	0.23
251.7423	0.2296
251.9572	0.2105
252.172	0.2197
252.3869	0.2227
252.6017	0.2234
252.8166	0.2218
253.0314	0.2111
253.2462	0.2054
253.461	0.2147
253.6758	0.2103
253.8906	0.2133
254.1053	0.1989
254.3201	0.2092
254.5348	0.2073
254.7496	0.2122
254.9643	0.1909
255.179	0.1924
255.3937	0.1982
255.6083	0.1857
255.823	0.1964
256.0377	0.1775
256.2523	0.1991
256.467	0.1951
256.6816	0.1849
256.8962	0.1966
257.1108	0.2032
257.3254	0.194
257.54	0.1955
257.7545	0.1917
257.9691	0.1967
258.1836	0.1975
258.3981	0.1808
258.6127	0.1899
258.8272	0.1863
259.0417	0.187
259.2561	0.179
259.4706	0.1924
259.6851	0.1799
259.8995	0.1889
260.114	0.1803
260.3284	0.1911
260.5428	0.1904
260.7572	0.2023
260.9716	0.1868
261.186	0.1987
261.4003	0.1908
261.6147	0.1916
261.829	0.1966
262.0433	0.1814
262.2577	0.1847
262.472	0.1783
262.6863	0.1922
262.9005	0.1842
263.1148	0.2024
263.3291	0.1852
263.5433	0.1856
263.7576	0.1979
263.9718	0.1818
264.186	0.1949
264.4002	0.2034
264.6144	0.1932
264.8286	0.1975
265.0427	0.1888
265.2569	0.1878
265.471	0.1877
265.6851	0.1844
265.8993	0.1867
266.1134	0.1773
266.3275	0.1862
266.5415	0.1821
266.7556	0.187
266.9697	0.1893
267.1837	0.1961
267.3978	0.1949
267.6118	0.1929
267.8258	0.2017
268.0398	0.1921
268.2538	0.1904
268.4677	0.1893
268.6817	0.1903
268.8957	0.1912
269.1096	0.1813
269.3235	0.1802
269.5374	0.189
269.7514	0.1783
269.9652	0.1845
270.1791	0.1685
270.393	0.1829
270.6068	0.1842
270.8207	0.1841
271.0345	0.1572
271.2483	0.1751
271.4622	0.1758
271.676	0.1789
271.8897	0.1767
272.1035	0.1784
272.3173	0.1695
272.531	0.1749
272.7448	0.1604
272.9585	0.1779
273.1722	0.1822
273.3859	0.1783
273.5996	0.1775
273.8133	0.1852
274.0269	0.1822
274.2406	0.1732
274.4542	0.1791
274.6679	0.1677
274.8815	0.1778
275.0951	0.1808
275.3087	0.1864
275.5223	0.1739
275.7358	0.1695
275.9494	0.1596
276.1629	0.1844
276.3765	0.1761
276.59	0.1755
276.8035	0.1708
277.017	0.1713
277.2305	0.1859
277.444	0.177
277.6574	0.1786
277.8709	0.1702
278.0843	0.1893
278.2978	0.1944
278.5112	0.1904
278.7246	0.1806
278.938	0.1883
279.1513	0.1939
279.3647	0.1837
279.5781	0.1752
279.7914	0.1822
280.0047	0.1807
280.2181	0.1829
280.4314	0.1726
280.6447	0.1776
280.8579	0.1877
281.0712	0.1927
281.2845	0.1915
281.4977	0.1924
281.711	0.1862
281.9242	0.1907
282.1374	0.1788
282.3506	0.1768
282.5638	0.1978
282.7769	0.1812
282.9901	0.196
283.2033	0.1728
283.4164	0.1781
283.6295	0.1779
283.8426	0.1977
284.0557	0.1797
284.2688	0.188
284.4819	0.1762
284.695	0.1853
284.908	0.1856
285.1211	0.191
285.3341	0.1782
285.5471	0.1956
285.7601	0.1851
285.9731	0.1948
286.1861	0.1881
286.3991	0.1851
286.612	0.1877
286.825	0.1827
287.0379	0.1854
287.2508	0.191
287.4637	0.1767
287.6766	0.1688
287.8895	0.1736
288.1024	0.1863
288.3152	0.1974
288.5281	0.1853
288.7409	0.1782
288.9538	0.1696
289.1666	0.1843
289.3794	0.1784
289.5922	0.179
289.8049	0.1755
290.0177	0.1856
290.2304	0.1717
290.4432	0.1635
290.6559	0.1788
290.8686	0.1697
291.0813	0.1722
291.294	0.1795
291.5067	0.1849
291.7194	0.1644
291.932	0.1753
292.1447	0.2034
292.3573	0.1816
292.5699	0.1854
292.7825	0.1742
292.9951	0.1839
293.2077	0.1885
293.4203	0.1828
293.6328	0.1816
293.8454	0.1719
294.0579	0.1797
294.2704	0.1695
294.4829	0.1796
294.6954	0.1719
294.9079	0.1702
295.1204	0.1786
295.3328	0.1617
295.5453	0.168
295.7577	0.1766
295.9701	0.1626
296.1825	0.1742
296.3949	0.1696
296.6073	0.1719
296.8197	0.1742
297.0321	0.1738
297.2444	0.1593
297.4567	0.1738
297.6691	0.1629
297.8814	0.1818
298.0937	0.1757
298.306	0.1649
298.5182	0.1771
298.7305	0.1784
298.9428	0.1698
299.155	0.1622
299.3672	0.1556
299.5794	0.1718
299.7916	0.1649
300.0038	0.1666
300.216	0.1633
300.4282	0.1608
300.6403	0.1736
300.8525	0.1885
301.0646	0.173
301.2767	0.1759
301.4888	0.1721
301.7009	0.1674
301.913	0.1635
302.125	0.1704
302.3371	0.1621
302.5491	0.1602
302.7612	0.165
302.9732	0.1635
303.1852	0.1627
303.3972	0.1691
303.6092	0.1599
303.8211	0.1667
304.0331	0.16
304.245	0.1564
304.457	0.154
304.6689	0.162
304.8808	0.1518
305.0927	0.1624
305.3046	0.1573
305.5164	0.163
305.7283	0.1562
305.9401	0.1509
306.152	0.1484
306.3638	0.1608
306.5756	0.1485
306.7874	0.1547
306.9992	0.1398
307.2109	0.1516
307.4227	0.1543
307.6344	0.1441
307.8462	0.1402
308.0579	0.1447
308.2696	0.1473
308.4813	0.1196
308.693	0.1474
308.9046	0.1379
309.1163	0.1332
309.328	0.1337
309.5396	0.1299
309.7512	0.1221
309.9628	0.1311
310.1744	0.1298
310.386	0.1248
310.5976	0.1251
310.8091	0.1325
311.0207	0.1199
311.2322	0.1197
311.4437	0.126
311.6552	0.1263
311.8667	0.1171
312.0782	0.1127
312.2897	0.1165
312.5012	0.1182
312.7126	0.1172
312.924	0.1117
313.1355	0.1304
313.3469	0.1069
313.5583	0.1078
313.7696	0.1131
313.981	0.1111
314.1924	0.1136
314.4037	0.1137
314.6151	0.1106
314.8264	0.1049
315.0377	0.1098
315.249	0.104
315.4603	0.1001
315.6716	0.1174
315.8828	0.1024
316.0941	0.0981
316.3053	0.1039
316.5165	0.1089
316.7277	0.1027
316.9389	0.1049
317.1501	0.1192
317.3613	0.091
317.5724	0.1184
317.7836	0.1128
317.9947	0.1152
318.2058	0.1061
318.417	0.1169
318.6281	0.104
318.8391	0.0989
319.0502	0.1152
319.2613	0.1048
319.4723	0.1023
319.6834	0.1063
319.8944	0.105
320.1054	0.1087
320.3164	0.1144
320.5274	0.0976
320.7383	0.1061
320.9493	0.0995
321.1602	0.1155
321.3712	0.0926
321.5821	0.1097
321.793	0.1052
322.0039	0.1089
322.2148	0.1062
322.4257	0.1093
322.6365	0.1084
322.8474	0.0969
323.0582	0.1257
323.269	0.1152
323.4798	0.1133
323.6906	0.1057
323.9014	0.1149
324.1122	0.1056
324.3229	0.1218
324.5337	0.1194
324.7444	0.1178
324.9551	0.1156
325.1658	0.1163
325.3765	0.1088
325.5872	0.108
325.7979	0.1092
326.0085	0.103
326.2192	0.0965
326.4298	0.134
326.6404	0.1064
326.851	0.1161
327.0616	0.1227
327.2722	0.1215
327.4828	0.1148
327.6933	0.1105
327.9039	0.1063
328.1144	0.1107
328.3249	0.0991
328.5354	0.1144
328.7459	0.1175
328.9564	0.104
329.1669	0.1158
329.3773	0.1194
329.5878	0.1245
329.7982	0.1046
330.0086	0.1066
330.219	0.1166
330.4294	0.1049
330.6398	0.1125
330.8502	0.1151
331.0605	0.1225
331.2708	0.1001
331.4812	0.1015
331.6915	0.1108
331.9018	0.1076
332.1121	0.1063
332.3224	0.1041
332.5326	0.1124
332.7429	0.102
332.9531	0.1068
333.1633	0.1223
333.3735	0.1082
333.5837	0.1062
333.7939	0.1128
334.0041	0.1192
334.2143	0.1215
334.4244	0.1233
334.6346	0.0901
334.8447	0.1147
335.0548	0.0956
335.2649	0.113
335.475	0.1091
335.685	0.1097
335.8951	0.1207
336.1051	0.1174
336.3152	0.1192
336.5252	0.1146
336.7352	0.1079
336.9452	0.1097
337.1552	0.139
337.3652	0.1298
337.5751	0.1184
337.7851	0.1193
337.995	0.1225
338.2049	0.1077
338.4148	0.1133
338.6247	0.0967
338.8346	0.1197
339.0445	0.1117
339.2543	0.1209
339.4642	0.1225
339.674	0.1275
339.8838	0.1239
340.0936	0.1235
340.3034	0.1251
340.5132	0.1232
340.7229	0.1349
340.9327	0.1299
341.1424	0.1194
341.3522	0.1194
341.5619	0.1226
341.7716	0.1397
341.9813	0.127
342.1909	0.1198
342.4006	0.1191
342.6102	0.1171
342.8199	0.1153
343.0295	0.1192
343.2391	0.1165
343.4487	0.1247
343.6583	0.1241
343.8679	0.1382
344.0774	0.1279
344.287	0.1462
344.4965	0.1324
344.706	0.1335
344.9155	0.1243
345.125	0.1205
345.3345	0.1277
345.544	0.137
345.7534	0.1287
345.9629	0.1324
346.1723	0.1238
346.3817	0.1324
346.5911	0.1279
346.8005	0.1429
347.0099	0.128
347.2193	0.1311
347.4286	0.1384
347.638	0.1439
347.8473	0.1302
348.0566	0.1296
348.2659	0.1504
348.4752	0.1364
348.6845	0.1271
348.8937	0.1385
349.103	0.1349
349.3122	0.14
349.5214	0.1454
349.7306	0.1342
349.9398	0.1275
350.149	0.1424
350.3582	0.1407
350.5674	0.1512
350.7765	0.1363
350.9856	0.1279
351.1948	0.1494
351.4039	0.1461
351.613	0.1397
351.822	0.1444
352.0311	0.1479
352.2402	0.1399
352.4492	0.1525
352.6582	0.1426
352.8672	0.1496
353.0762	0.1511
353.2852	0.1494
353.4942	0.1488
353.7032	0.1528
353.9121	0.1514
354.1211	0.136
354.33	0.1474
354.5389	0.1473
354.7478	0.1415
354.9567	0.164
355.1655	0.1472
355.3744	0.1455
355.5833	0.1722
355.7921	0.1531
356.0009	0.1512
356.2097	0.1441
356.4185	0.139
356.6273	0.1525
356.8361	0.1463
357.0448	0.1586
357.2536	0.159
357.4623	0.1635
357.671	0.16
357.8797	0.1666
358.0884	0.1554
358.2971	0.1626
358.5057	0.1574
358.7144	0.1759
358.923	0.1661
359.1316	0.1668
359.3402	0.1722
359.5488	0.1572
359.7574	0.1682
359.966	0.1588
360.1746	0.1645
360.3831	0.1656
360.5916	0.1777
360.8002	0.1832
361.0087	0.1726
361.2172	0.1714
361.4256	0.1804
361.6341	0.166
361.8426	0.1791
362.051	0.1743
362.2594	0.1946
362.4678	0.1794
362.6762	0.1818
362.8846	0.1667
363.093	0.1839
363.3014	0.1814
363.5097	0.1667
363.718	0.183
363.9264	0.1861
364.1347	0.2026
364.343	0.198
364.5513	0.1906
364.7595	0.1759
364.9678	0.1858
365.176	0.1848
365.3842	0.192
365.5925	0.1817
365.8007	0.1847
366.0089	0.1982
366.217	0.1869
366.4252	0.1892
366.6333	0.1949
366.8415	0.1951
367.0496	0.1839
367.2577	0.1987
367.4658	0.2076
367.6739	0.1987
367.882	0.1968
368.09	0.2098
368.2981	0.1868
368.5061	0.1924
368.7141	0.2105
368.9221	0.2006
369.1301	0.1959
369.3381	0.2155
369.5461	0.1958
369.754	0.2075
369.962	0.2036
370.1699	0.1955
370.3778	0.2206
370.5857	0.2093
370.7936	0.2131
371.0015	0.2108
371.2093	0.1999
371.4172	0.2127
371.625	0.1964
371.8328	0.2213
372.0406	0.2178
372.2484	0.2038
372.4562	0.2094
372.664	0.2058
372.8717	0.1862
373.0795	0.2086
373.2872	0.2139
373.4949	0.2068
373.7026	0.2143
373.9103	0.2331
374.118	0.2027
374.3256	0.2124
374.5333	0.2219
374.7409	0.1989
374.9485	0.2128
375.1561	0.2173
375.3637	0.1949
375.5713	0.222
375.7789	0.2145
375.9864	0.2271
376.194	0.229
376.4015	0.2154
376.609	0.2258
376.8165	0.2093
377.024	0.2156
377.2315	0.222
377.4389	0.2175
377.6464	0.2245
377.8538	0.1948
378.0612	0.2126
378.2686	0.2158
378.476	0.2074
378.6834	0.2306
378.8908	0.2174
379.0981	0.2277
379.3055	0.2321
379.5128	0.2305
379.7201	0.2334
379.9274	0.2224
380.1347	0.2128
380.342	0.207
380.5492	0.2225
380.7565	0.2316
380.9637	0.2314
381.1709	0.2154
381.3781	0.2261
381.5853	0.2314
381.7925	0.2223
381.9997	0.2124
382.2068	0.2341
382.4139	0.2302
382.6211	0.2328
382.8282	0.2292
383.0353	0.2127
383.2424	0.2493
383.4494	0.2175
383.6565	0.2398
383.8635	0.2312
384.0706	0.2449
384.2776	0.2306
384.4846	0.2263
384.6916	0.2329
384.8986	0.2204
385.1055	0.2369
385.3125	0.2286
385.5194	0.2145
385.7263	0.2428
385.9333	0.2306
386.1402	0.224
386.347	0.232
386.5539	0.2437
386.7608	0.2311
386.9676	0.2135
387.1744	0.2213
387.3813	0.2263
387.5881	0.2316
387.7948	0.242
388.0016	0.2197
388.2084	0.2366
388.4151	0.2255
388.6219	0.2288
388.8286	0.2111
389.0353	0.2105
389.242	0.2303
389.4487	0.2236
389.6553	0.2133
389.862	0.2295
390.0686	0.2107
390.2753	0.2413
390.4819	0.2221
390.6885	0.2129
390.8951	0.2113
391.1016	0.2173
391.3082	0.2318
391.5147	0.1982
391.7213	0.1983
391.9278	0.2215
392.1343	0.1994
392.3408	0.2064
392.5473	0.2082
392.7537	0.203
392.9602	0.2145
393.1666	0.2071
393.373	0.1966
393.5794	0.2071
393.7858	0.2118
393.9922	0.221
394.1986	0.2198
394.4049	0.2024
394.6113	0.2043
394.8176	0.2006
395.0239	0.2144
395.2302	0.1936
395.4365	0.2017
395.6428	0.2129
395.8491	0.182
396.0553	0.1985
396.2615	0.2044
396.4678	0.1951
396.674	0.203
396.8802	0.1953
397.0863	0.2066
397.2925	0.1949
397.4987	0.203
397.7048	0.1888
397.9109	0.2021
398.117	0.1883
398.3231	0.1886
398.5292	0.1963
398.7353	0.1987
398.9413	0.1779
399.1474	0.1831
399.3534	0.1821
399.5594	0.1954
399.7654	0.2026
399.9714	0.1938
400.1774	0.1871
400.3833	0.2034
400.5893	0.1982
400.7952	0.1942
401.0011	0.1764
401.207	0.1853
401.4129	0.1821
401.6188	0.1821
401.8247	0.185
402.0305	0.1779
402.2364	0.2106
402.4422	0.1955
402.648	0.1808
402.8538	0.188
403.0596	0.1692
403.2654	0.1963
403.4711	0.194
403.6768	0.1898
403.8826	0.207
404.0883	0.1883
404.294	0.1932
404.4997	0.1651
404.7054	0.1926
404.911	0.1761
405.1167	0.1727
405.3223	0.1868
405.5279	0.1885
405.7335	0.2015
405.9391	0.1877
406.1447	0.2071
406.3502	0.1829
406.5558	0.1983
406.7613	0.1894
406.9668	0.1804
407.1724	0.1906
407.3778	0.1874
407.5833	0.1866
407.7888	0.182
407.9942	0.1831
408.1997	0.1937
408.4051	0.1678
408.6105	0.1804
408.8159	0.1901
409.0213	0.1789
409.2267	0.178
409.432	0.1832
409.6374	0.1884
409.8427	0.1956
410.048	0.192
410.2533	0.1765
410.4586	0.1742
410.6639	0.1787
410.8691	0.1796
411.0744	0.1797
411.2796	0.1754
411.4848	0.1956
411.69	0.1968
411.8952	0.1918
412.1004	0.1679
412.3056	0.1811
412.5107	0.1524
412.7158	0.1797
412.921	0.1917
413.1261	0.1992
413.3312	0.1751
413.5362	0.1827
413.7413	0.1802
413.9464	0.1899
414.1514	0.1906
414.3564	0.1607
414.5614	0.1732
414.7664	0.1743
414.9714	0.1917
415.1764	0.1769
415.3813	0.1769
415.5863	0.1781
415.7912	0.1725
415.9961	0.1802
416.201	0.172
416.4059	0.1747
416.6108	0.1888
416.8156	0.1807
417.0205	0.1785
417.2253	0.192
417.4301	0.172
417.6349	0.1683
417.8397	0.1727
418.0445	0.1703
418.2492	0.1685
418.454	0.1786
418.6587	0.1699
418.8634	0.168
419.0681	0.173
419.2728	0.1716
419.4775	0.177
419.6822	0.1692
419.8868	0.1836
420.0915	0.1533
420.2961	0.1604
420.5007	0.1678
420.7053	0.1688
420.9099	0.1683
421.1144	0.1808
421.319	0.1759
421.5235	0.1779
421.728	0.1613
421.9325	0.158
422.137	0.1613
422.3415	0.1655
422.546	0.1505
422.7504	0.1674
422.9549	0.1756
423.1593	0.1376
423.3637	0.174
423.5681	0.1557
423.7725	0.163
423.9769	0.1687
424.1812	0.1564
424.3856	0.1501
424.5899	0.1671
424.7942	0.1706
424.9985	0.1541
425.2028	0.1574
425.4071	0.1452
425.6113	0.1606
425.8156	0.1604
426.0198	0.1568
426.224	0.149
426.4282	0.1424
426.6324	0.1664
426.8366	0.1731
427.0407	0.1466
427.2449	0.1522
427.449	0.1452
427.6531	0.137
427.8572	0.1361
428.0613	0.1403
428.2654	0.1252
428.4694	0.1456
428.6735	0.1364
428.8775	0.1395
429.0815	0.1424
429.2855	0.1526
429.4895	0.1277
429.6935	0.1316
429.8975	0.1312
430.1014	0.1288
430.3053	0.1459
430.5093	0.1387
430.7132	0.1164
430.9171	0.1145
431.1209	0.112
431.3248	0.1352
431.5286	0.1102
431.7325	0.1298
431.9363	0.1125
432.1401	0.1175
432.3439	0.1214
432.5477	0.1236
432.7514	0.1077
432.9552	0.1139
433.1589	0.1008
433.3627	0.1024
433.5664	0.1064
433.7701	0.1053
433.9737	0.098
434.1774	0.1136
434.3811	0.0887
434.5847	0.0962
434.7883	0.1131
434.9919	0.102
435.1955	0.0977
435.3991	0.0971
435.6027	0.0917
435.8062	0.0876
436.0098	0.0884
436.2133	0.0809
436.4168	0.0909
436.6203	0.085
436.8238	0.0854
437.0272	0.0873
437.2307	0.0971
437.4341	0.0972
437.6375	0.081
437.841	0.0623
438.0443	0.0889
438.2477	0.0782
438.4511	0.0638
438.6545	0.0679
438.8578	0.0739
439.0611	0.0694
439.2644	0.0689
439.4677	0.0548
439.671	0.0807
439.8743	0.0508
440.0775	0.0697
440.2808	0.0591
440.484	0.0481
440.6872	0.0645
440.8904	0.0529
441.0936	0.0508
441.2967	0.0481
441.4999	0.0364
441.703	0.0654
441.9062	0.0512
442.1093	0.0478
442.3124	0.0661
442.5155	0.063
442.7185	0.0552
442.9216	0.0356
443.1246	0.0592
443.3276	0.0668
443.5307	0.0581
443.7337	0.0402
443.9366	0.0521
444.1396	0.0335
444.3426	0.0281
444.5455	0.0517
444.7484	0.0437
444.9513	0.041
445.1542	0.0425
445.3571	0.0389
445.56	0.0445
445.7628	0.0574
445.9657	0.0344
446.1685	0.039
446.3713	0.0344
446.5741	0.0386
446.7769	0.0476
446.9797	0.0308
447.1824	0.0286
447.3852	0.049
447.5879	0.0279
447.7906	0.0368
447.9933	0.0304
448.196	0.0396
448.3986	0.0391
448.6013	0.0283
448.8039	0.0262
449.0066	0.0236
449.2092	0.0246
449.4118	0.0441
449.6143	0.0186
449.8169	0.0258
450.0195	-0.0031
450.222	0.0087
450.4245	0.0231
450.627	0.0123
450.8295	0.0036
451.032	0.0268
451.2345	0.0214
451.4369	0.0225
451.6394	0.0312
451.8418	0.0009
452.0442	0.0114
452.2466	0
452.449	0.0225
452.6513	0.0143
452.8537	0.0202
453.056	-0.0031
453.2583	0.0118
453.4607	0.0146
453.663	0.0021
453.8652	0.0036
454.0675	-0.0144
454.2697	0.0179
454.472	0.0051
454.6742	0.0049
454.8764	0.0082
455.0786	0
455.2808	0.0058
455.4829	0.0181
455.6851	0.0168
455.8872	0.0288
456.0893	0.0168
456.2915	0.004
456.4935	0.005
456.6956	-0.0067
456.8977	0.0112
457.0997	0.0229
457.3018	0.0065
457.5038	0.02
457.7058	0.0202
457.9078	0.0028
458.1098	0.005
458.3117	0.0161
458.5137	-0.011
458.7156	0.0053
458.9175	-0.0059
459.1194	-0.0128
459.3213	-0.0016
459.5232	-0.0066
459.725	0.0007
459.9269	0.0037
460.1287	0.0196
460.3305	0.0049
460.5323	0.0049
460.7341	0.0008
460.9359	0.0128
461.1376	0.0124
461.3394	-0.0079
461.5411	-0.0056
461.7428	0.0086
461.9445	-0.0035
462.1462	-0.0164
462.3479	-0.0205
462.5495	0.0068
462.7512	0.002
462.9528	0.0019
463.1544	-0.0017
463.356	-0.0078
463.5576	-0.0018
463.7592	-0.0184
463.9607	0.0118
464.1623	0.0143
464.3638	0.0175
464.5653	-0.0043
464.7668	0.004
464.9683	0.003
465.1697	0.0152
465.3712	0.0021
465.5726	0.0104
465.7741	0.0245
465.9755	-0.0139
466.1769	0.0057
466.3782	0.0098
466.5796	-0.0159
466.7809	0
466.9823	-0.0014
467.1836	0.0108
467.3849	0.0071
467.5862	-0.0143
467.7875	0.0106
467.9887	-0.0075
468.19	0.0018
468.3912	0.0013
468.5924	-0.0143
468.7936	-0.0022
468.9948	-0.0036
469.196	-0.0103
469.3972	-0.0273
469.5983	0.0028
469.7994	-0.0167
470.0006	-0.0133
470.2017	0.0052
470.4027	-0.0149
470.6038	-0.0123
470.8049	0.0016
471.0059	0.003
471.2069	0.0019
471.408	0.0012
471.6089	-0.0131
471.8099	0.0072
472.0109	0.0015
472.2119	0.0115
472.4128	-0.0126
472.6137	0.0062
472.8146	-0.0161
473.0155	-0.0134
473.2164	0.0094
473.4173	-0.0114
473.6181	0
473.819	-0.0007
474.0198	-0.0087
474.2206	-0.012
474.4214	-0.0043
474.6222	-0.0087
474.8229	-0.007
475.0237	-0.0022
475.2244	-0.002
475.4251	-0.0049
475.6258	-0.0048
475.8265	-0.0172
476.0272	-0.0061
476.2278	-0.0103
476.4285	-0.0121
476.6291	-0.009
476.8297	0.0027
477.0303	0.0083
477.2309	-0.0056
477.4315	-0.0002
477.632	-0.0152
477.8326	-0.0019
478.0331	-0.0179
478.2336	-0.0139
478.4341	-0.0054
478.6346	-0.0062
478.8351	0.0075
479.0355	-0.0101
479.236	-0.0222
479.4364	-0.0073
479.6368	0.0155
479.8372	0.0028
480.0376	-0.0163
480.2379	-0.0232
480.4383	-0.0079
480.6386	-0.0099
480.8389	-0.0121
481.0392	-0.0047
481.2395	-0.0083
481.4398	-0.0174
481.6401	-0.0027
481.8403	0.0036
482.0405	-0.0217
482.2408	-0.017
482.441	-0.0112
482.6411	-0.0153
482.8413	-0.0081
483.0415	-0.0211
483.2416	-0.0163
483.4417	-0.0022
483.6419	-0.0122
483.8419	-0.0043
484.042	0.0096
484.2421	-0.0129
484.4422	-0.0003
484.6422	-0.0044
484.8422	-0.0059
485.0422	-0.0062
485.2422	-0.0063
485.4422	-0.0115
485.6422	-0.0115
485.8421	-0.0063
486.042	-0.0062
486.242	-0.0123
486.4419	-0.0076
486.6417	-0.0014
486.8416	-0.0186
487.0415	-0.0193
487.2413	-0.0095
487.4411	0.0025
487.641	-0.0032
487.8408	-0.0145
488.0405	-0.0016
488.2403	0.0034
488.4401	-0.0018
488.6398	-0.0155
488.8395	-0.0111
489.0392	-0.012
489.2389	-0.0192
489.4386	-0.0098
489.6383	-0.009
489.8379	0.0025
490.0376	0.0054
490.2372	-0.0085
490.4368	-0.0082
490.6364	0.0022
490.836	-0.0142
491.0355	-0.0103
491.2351	-0.0121
491.4346	-0.013
491.6341	-0.0031
491.8336	-0.0148
492.0331	-0.0062
492.2326	-0.0098
492.432	-0.0017
492.6315	-0.0088
492.8309	-0.0136
493.0303	-0.0166
493.2297	-0.0021
493.4291	-0.0101
493.6284	-0.0114
493.8278	-0.0078
494.0271	-0.0131
494.2264	-0.0047
494.4257	-0.0085
494.625	-0.0161
494.8243	-0.0064
495.0236	-0.0128
495.2228	-0.0088
495.422	-0.0119
495.6213	-0.0135
495.8205	-0.0125
496.0196	-0.02
496.2188	-0.0045
496.418	-0.0107
496.6171	-0.0167
496.8162	-0.0117
497.0153	-0.0039
497.2144	-0.0151
497.4135	-0.0126
497.6126	-0.019
497.8116	-0.0136
498.0107	-0.0155
498.2097	-0.0127
498.4087	-0.0185
498.6077	-0.0073
498.8067	0.0078
499.0056	-0.0184
499.2046	-0.0001
499.4035	-0.0048
499.6024	-0.011
499.8013	-0.0162
500.0002	-0.0102
500.199	-0.0194
500.3979	-0.0074
500.5967	-0.0159
500.7956	-0.0084
500.9944	-0.0098
501.1932	-0.0098
501.3919	-0.0094
501.5907	-0.002
501.7895	-0.0261
501.9882	-0.0085
502.1869	-0.0167
502.3856	-0.021
502.5843	-0.0075
502.783	-0.0048
502.9816	0.0133
503.1803	-0.0079
503.3789	-0.0082
503.5775	-0.0176
503.7761	-0.0132
503.9747	-0.0075
504.1732	-0.0131
504.3718	0.0012
504.5703	-0.0178
504.7689	-0.0103
504.9674	-0.0157
505.1658	-0.0064
505.3643	-0.0037
505.5628	-0.0126
505.7612	-0.0083
505.9597	-0.0139
506.1581	0.0048
506.3565	-0.0091
506.5549	-0.0045
506.7532	0.0038
506.9516	-0.0081
507.1499	-0.0146
507.3482	0.0014
507.5465	0.0023
507.7448	-0.0057
507.9431	-0.0126
508.1414	-0.009
508.3396	-0.0123
508.5379	-0.0033
508.7361	-0.0134
508.9343	-0.0086
509.1325	-0.0112
509.3306	-0.0151
509.5288	-0.0135
509.7269	-0.0056
509.9251	-0.0095
510.1232	-0.0148
510.3213	0.0068
510.5193	-0.0103
510.7174	-0.0145
510.9154	-0.01
511.1135	-0.007
511.3115	-0.0042
511.5095	-0.0077
511.7075	-0.0028
511.9055	-0.0175
512.1034	0.0005
512.3014	-0.0092
512.4993	-0.0009
512.6972	-0.0167
512.8951	0.004
513.093	-0.0125
513.2908	-0.0167
513.4887	0.0079
513.6865	0.0085
513.8844	-0.0035
514.0822	-0.0004
514.2799	-0.0171
514.4777	-0.0032
514.6755	-0.0022
514.8732	-0.0027
515.0709	-0.0028
515.2687	-0.0117
515.4664	0.0011
515.664	-0.0148
515.8617	-0.0071
516.0594	0.0068
516.257	-0.0024
516.4546	-0.0231
516.6522	-0.0107
516.8498	-0.0138
517.0474	0
517.2449	-0.0088
517.4425	-0.0017
517.64	-0.0192
517.8375	-0.0049
518.035	-0.0065
518.2325	-0.0179
518.43	-0.0086
518.6274	-0.006
518.8249	-0.0055
519.0223	0.0011
519.2197	0.0009
519.4171	-0.0031
519.6145	-0.0062
519.8118	-0.0092
520.0092	-0.0027
520.2065	-0.0057
520.4038	-0.0127
520.6011	-0.0032
520.7984	0.0028
520.9956	0.0045
521.1929	-0.0069
521.3901	-0.0069
521.5874	-0.011
521.7846	-0.0065
521.9818	0.0021
522.1789	-0.0046
522.3761	-0.0142
522.5732	-0.0126
522.7704	-0.0083
522.9675	-0.0088
523.1646	-0.0069
523.3617	-0.0065
523.5587	0.0066
523.7558	-0.0135
523.9528	0.0061
524.1498	-0.0118
524.3468	-0.0165
524.5438	-0.004
524.7408	-0.0009
524.9378	0.0127
525.1347	-0.0031
525.3316	-0.0007
525.5285	-0.0132
525.7254	0.0051
525.9223	-0.0058
526.1192	-0.0084
526.316	-0.0057
526.5129	0.006
526.7097	0.0002
526.9065	-0.0016
527.1033	-0.0071
527.3	-0.0019
527.4968	-0.012
527.6935	0.0015
527.8903	0.0055
528.087	0.0004
528.2837	-0.0006
528.4804	0.0038
528.677	-0.0077
528.8737	0.0004
529.0703	0.0121
529.2669	-0.0106
529.4635	0.001
529.6601	0.0013
529.8567	0.0046
530.0532	0.0049
530.2498	0.0031
530.4463	-0.0067
530.6428	0.0001
530.8393	-0.0066
531.0358	-0.0023
531.2322	0.0083
531.4287	0.0001
531.6251	0.0055
531.8215	-0.0106
532.0179	-0.0033
532.2143	-0.0061
532.4107	-0.0095
532.607	-0.0054
532.8034	-0.007
532.9997	-0.0003
533.196	-0.0017
533.3923	-0.0014
533.5886	-0.0027
533.7848	-0.0005
533.9811	-0.0001
534.1773	-0.007
534.3735	-0.0097
534.5697	-0.0046
534.7659	-0.0083
534.9621	0.0019
535.1582	-0.0064
535.3544	-0.0023
535.5505	-0.0071
535.7466	-0.0011
535.9427	0.0016
536.1387	-0.0021
536.3348	-0.0017
536.5308	-0.0013
536.7269	-0.002
536.9229	0.0063
537.1189	0.0022
537.3148	-0.0049
537.5108	0.0125
537.7068	-0.0038
537.9027	0.0012
538.0986	-0.0018
538.2945	-0.0054
538.4904	-0.007
538.6863	-0.0048
538.8821	-0.0016
539.078	-0.0085
539.2738	-0.0011
539.4696	-0.0008
539.6654	-0.0023
539.8611	-0.0024
540.0569	0.0001
540.2526	-0.0034
540.4484	0.0069
540.6441	-0.0044
540.8398	-0.0057
541.0355	-0.0006
541.2311	-0.0017
541.4268	-0.002
541.6224	0.0046
541.818	-0.0007
542.0136	-0.0083
542.2092	0.0113
542.4048	0.0035
542.6003	-0.0005
542.7959	-0.0031
542.9914	0.001
543.1869	0.0015
543.3824	0.0008
543.5779	0.0015
543.7734	0.0042
543.9688	-0.0019
544.1642	-0.0004
544.3596	-0.0108
544.555	-0.0017
544.7504	0.0076
544.9458	0.0064
545.1411	0.0062
545.3365	0.0001
545.5318	0.0071
545.7271	0.003
545.9224	0.0049
546.1177	-0.0109
546.3129	-0.0041
546.5081	-0.0121
546.7034	0.0087
546.8986	0.0011
547.0938	-0.0022
547.289	-0.0035
547.4841	-0.003
547.6793	-0.0024
547.8744	-0.0037
548.0695	-0.0038
548.2646	-0.004
548.4597	-0.0004
548.6548	0.0007
548.8498	-0.0002
549.0448	-0.0032
549.2399	-0.0054
549.4349	0.0018
549.6298	0.0021
549.8248	0.0006
550.0198	-0.0026
550.2147	-0.0042
550.4096	0.0002
550.6045	-0.0114
550.7994	-0.0014
550.9943	0.0003
551.1892	-0.0159
551.384	0.0025
551.5788	0.001
551.7737	-0.0078
551.9685	-0.0017
552.1632	-0.0007
552.358	-0.0023
552.5528	0.003
552.7475	-0.0059
552.9422	0.0112
553.1369	0.0032
553.3316	-0.004
553.5263	0.0004
553.7209	-0.0086
553.9156	0.0033
554.1102	-0.0145
554.3048	0.0065
554.4994	-0.0032
554.694	0.004
554.8885	-0.0029
555.0831	0.0012
555.2776	0.0108
555.4721	0.0087
555.6666	-0.0029
555.8611	-0.0019
556.0555	0.0042
556.25	0.0017
556.4444	0.0139
556.6388	0.0069
556.8332	0.0043
557.0276	-0.0002
557.222	-0.0009
557.4163	0.0073
557.6107	0.0202
557.805	0.0049
557.9993	-0.0033
558.1936	0.0076
558.3879	0.0131
558.5821	0.0139
558.7764	0.0108
558.9706	0.003
559.1648	0.0051
559.359	0.0126
559.5532	0.0031
559.7473	0.0059
559.9415	0.0017
560.1356	0.0086
560.3297	0.0027
560.5238	0.0009
560.7179	0.0071
560.9119	0.0001
561.106	0.0098
561.3	0.0068
561.494	0.0095
561.688	0.0036
561.882	0.0047
562.076	0.0038
562.2699	0.0053
562.4639	-0.0038
562.6578	0.0027
562.8517	0.0019
563.0456	-0.0006
563.2395	0.008
563.4333	-0.0041
563.6272	0.0021
563.821	-0.0027
564.0148	-0.0007
564.2086	-0.005
564.4024	-0.0034
564.5961	0.0099
564.7899	0.0015
564.9836	0.0063
565.1773	0.0099
565.371	0.0058
565.5647	0.0019
565.7584	-0.0005
565.952	-0.0002
566.1456	-0.0009
566.3393	0.004
566.5329	0.0037
566.7264	0.0018
566.92	-0.002
567.1136	0.016
567.3071	-0.0005
567.5006	0.0106
567.6941	0.0069
567.8876	-0.0018
568.0811	0.0024
568.2745	0.0085
568.468	0.0038
568.6614	-0.0016
568.8548	-0.0011
569.0482	0.0073
569.2416	-0.0021
569.4349	-0.0068
569.6283	-0.0018
569.8216	0.0015
570.0149	0.0057
570.2082	0.0125
570.4015	-0.0035
570.5947	-0.0021
570.788	0.001
570.9812	0.0072
571.1744	-0.0009
571.3676	0.0004
571.5608	0.0003
571.754	0.0025
571.9471	-0.0035
572.1402	-0.004
572.3333	0.0028
572.5264	0.0048
572.7195	-0.0033
572.9126	0.0057
573.1057	0.0036
573.2987	0.0017
573.4917	-0.0062
573.6847	-0.0037
573.8777	-0.0006
574.0707	0.0008
574.2636	0.0049
574.4566	0.008
574.6495	0.0036
574.8424	0.0018
575.0353	-0.0016
575.2281	-0.0006
575.421	-0.0004
575.6138	-0.0011
575.8067	0.0009
575.9995	0.0011
576.1923	0.0004
576.385	0.0013
576.5778	-0.0051
576.7706	0.0045
576.9633	0.006
577.156	0.0042
577.3487	-0.0024
577.5414	0.0016
577.734	-0.0111
577.9267	-0.0083
578.1193	0.0024
578.3119	-0.0045
578.5045	0.0045
578.6971	0.0036
578.8897	0.0023
579.0822	-0.0011
579.2747	0.0011
579.4673	0.001
579.6598	0.0152
579.8522	0.0067
580.0447	0.0042
580.2372	0.0005
580.4296	0.0102
580.622	0.0039
580.8144	0.0057
581.0068	0.0024
581.1992	0.0102
581.3915	0.004
581.5839	0.0049
581.7762	0.0046
581.9685	0.0013
582.1608	0.0028
582.353	-0.0037
582.5453	-0.0061
582.7375	-0.0084
582.9298	-0.0071
583.122	0.0075
583.3142	0.0041
583.5063	0.0029
583.6985	-0.0025
583.8906	0.0004
584.0827	-0.002
584.2749	0.0009
584.4669	-0.0043
584.659	0.0004
584.8511	-0.0059
585.0431	-0.0051
585.2352	-0.0029
585.4272	-0.0002
585.6192	-0.0007
585.8111	-0.0009
586.0031	-0.0041
586.195	0
586.387	-0.0008
586.5789	0.0011
586.7708	-0.0031
586.9627	-0.0012
587.1545	0.0008
587.3464	0.0125
587.5382	-0.0014
587.73	-0.0041
587.9218	0.0047
588.1136	0.0009
588.3053	-0.0106
588.4971	0.0011
588.6888	-0.0024
588.8805	-0.0044
589.0722	0.0001
589.2639	0.0045
589.4556	-0.0064
589.6472	0.0004
589.8389	0.0051
590.0305	-0.0016
590.2221	0.0103
590.4137	0.0002
590.6052	-0.0066
590.7968	0.0039
590.9883	0.002
591.1798	-0.007
591.3713	-0.0007
591.5628	-0.0011
591.7543	0.0065
591.9458	0.0029
592.1372	0.0007
592.3286	0.0076
592.52	0.0045
592.7114	0.0029
592.9028	-0.0005
593.0941	0.002
593.2855	0.0041
593.4768	-0.0049
593.6681	-0.0043
593.8594	0.0008
594.0506	-0.0067
594.2419	-0.0009
594.4331	0.0032
594.6244	0.001
594.8156	-0.0011
595.0067	-0.0036
595.1979	-0.0038
595.3891	-0.0005
595.5802	-0.0036
595.7713	-0.0092
595.9624	0.0112
596.1535	-0.0023
596.3446	0.0055
596.5357	-0.0005
596.7267	-0.001
596.9177	0.007
597.1087	0.0095
597.2997	0.0067
597.4907	0.0017
597.6817	0.0005
597.8726	0.0097
598.0635	0.0051
598.2544	0.0048
598.4453	0.0048
598.6362	-0.0001
598.827	0.0082
599.0179	0.0067
599.2087	0.0007
599.3995	0.0095
599.5903	0.0084
599.7811	0.0007
599.9718	0.0024
600.1626	-0.0025
600.3533	0.0025
600.544	-0.0014
600.7347	0.0062
600.9254	-0.0062
601.116	-0.0027
601.3067	-0.004
601.4973	0.0017
601.6879	0.002
601.8785	-0.0001
602.0691	-0.0001
602.2596	0.0057
602.4502	0.0009
602.6407	-0.0035
602.8312	0.0001
603.0217	0.0031
603.2122	-0.0023
603.4027	0.0055
603.5931	-0.0054
603.7835	0.0038
603.9739	0.0074
604.1643	0.0097
604.3547	0.0076
604.5451	-0.0037
604.7354	0.0048
604.9257	0.0023
605.116	-0.0017
605.3063	0.0004
605.4966	0.002
605.6869	0.0124
605.8771	0.001
606.0673	0.0022
606.2575	0.0014
606.4477	-0.0038
606.6379	0.0074
606.8281	-0.0021
607.0182	-0.0017
607.2083	0.0027
607.3985	0.0059
607.5885	0.0003
607.7786	-0.0001
607.9687	0.0024
608.1587	-0.0006
608.3488	0.0087
608.5388	0.0083
608.7288	0.0003
608.9187	-0.002
609.1087	-0.0033
609.2986	0.0077
609.4886	-0.0022
609.6785	0.0035
609.8684	0.0012
610.0582	0.0142
610.2481	0.0065
610.4379	0.0048
610.6278	-0.0042
610.8176	0.0053
611.0074	-0.0022
611.1971	0.0033
611.3869	-0.0015
611.5766	0.005
611.7664	0.004
611.9561	0.0091
612.1458	0.0111
612.3354	0.0061
612.5251	0.003
612.7147	0.0019
612.9044	0.0042
613.094	0.0012
613.2836	0.0075
613.4731	0.0018
613.6627	0.0039
613.8522	0.0062
614.0417	0.0082
614.2313	0.0046
614.4207	0.0023
614.6102	0.0058
614.7997	-0.0032
614.9891	0.0024
615.1785	0.0034
615.3679	0.0124
615.5573	0.0119
615.7467	0.0048
615.9361	-0.0016
616.1254	0.0003
616.3147	0.0021
616.504	0.0042
616.6933	0.0035
616.8826	0.0074
617.0718	0.0003
617.2611	0.0053
617.4503	0.0104
617.6395	0.0037
617.8287	0.015
618.0179	0.0014
618.207	0.0132
618.3961	0.0067
618.5853	0.0045
618.7744	0.0013
618.9634	0.0044
619.1525	0.0075
619.3416	0.013
619.5306	0.0095
619.7196	-0.0082
619.9086	0.0073
620.0976	0.0075
620.2866	0.0054
620.4755	0.0069
620.6645	0.0095
620.8534	0.01
621.0423	0.0057
621.2312	0.0084
621.42	0.0014
621.6089	0.0113
621.7977	0.0102
621.9865	0.0175
622.1753	0.0119
622.3641	0.0069
622.5529	0.0084
622.7416	0.0138
622.9303	0.0051
623.1191	0.0092
623.3078	-0.0007
623.4964	0.0066
623.6851	0.0157
623.8737	0.0155
624.0624	0.0057
624.251	0.0094
624.4396	0.0133
624.6282	0.0068
624.8167	0.0074
625.0053	0.0011
625.1938	0.007
625.3823	0.0064
625.5708	0.0084
625.7593	0.0026
625.9477	0.0165
626.1362	0.0082
626.3246	0.0105
626.513	0.0062
626.7014	0.0054
626.8898	0.0063
627.0781	0.0067
627.2665	0.0041
627.4548	0.005
627.6431	0.0043
627.8314	0.0048
628.0197	-0.0044
628.2079	0.0054
628.3962	0.0069
628.5844	0.0096
628.7726	0.0023
628.9608	0.0078
629.1489	0.0042
629.3371	0.0119
629.5252	0.0066
629.7134	0.0088
629.9015	0.005
630.0895	0.0111
630.2776	0.005
630.4657	0.0048
630.6537	0.0148
630.8417	0.0096
631.0297	0.0145
631.2177	0.0055
631.4057	0.0031
631.5936	0.0049
631.7815	0.0142
631.9695	0.0104
632.1574	0.0078
632.3452	0.0096
632.5331	0.003
632.7209	0.0092
632.9088	-0.001
633.0966	-0.0039
633.2844	-0.0056
633.4722	-0.0027
633.6599	0.0043
633.8477	0.0074
634.0354	0.0018
634.2231	0.0062
634.4108	0.0056
634.5985	-0.0058
634.7861	0.0047
634.9738	0.0108
635.1614	0.0024
635.349	0.0063
635.5366	0.0035
635.7242	0.0108
635.9117	0.0018
636.0993	0.0111
636.2868	0.0063
636.4743	0.0034
636.6618	0.0124
636.8492	0.0126
637.0367	-0.0015
637.2241	0.015
637.4115	0.0081
637.5989	0.0155
637.7863	0.0069
637.9737	-0.0045
638.161	0.0105
638.3484	0.0035
638.5357	0.0047
638.723	-0.0012
638.9103	0.0058
639.0975	0.0018
639.2848	0.0101
639.472	0.0019
639.6592	0.0045
639.8464	0.0099
640.0336	0.0073
640.2208	0.0037
640.4079	0.0053
640.595	-0
640.7821	0.0059
640.9692	0.0023
641.1563	0.0013
641.3434	0.0079
641.5304	0.0085
641.7174	0.01
641.9044	0.0003
642.0914	0.0021
642.2784	-0.0056
642.4653	0.0042
642.6523	-0.0049
642.8392	0.0009
643.0261	0.0053
643.213	0.0003
643.3999	0.0024
643.5867	0.0045
643.7735	0.0104
643.9604	-0.0051
644.1472	-0.0076
644.3339	-0.0021
644.5207	0.0102
644.7075	-0.0094
644.8942	-0.0022
645.0809	-0.0004
645.2676	0.0064
645.4543	0.0043
645.6409	0.0082
645.8276	0.0085
646.0142	0.0002
646.2008	0.0136
646.3874	0.0104
646.574	0.0051
646.7605	0.0128
646.9471	0.0025
647.1336	0.0025
647.3201	0.0112
647.5066	0.0054
647.6931	-0.0032
647.8795	-0.0009
648.0659	0.0106
648.2524	0.0115
648.4388	0.0041
648.6252	-0.0001
648.8115	0.0044
648.9979	-0.0025
649.1842	0.0012
649.3705	-0.0092
649.5568	0.0056
649.7431	0.0116
649.9294	0.0038
650.1156	0.0109
650.3018	0.0076
650.488	-0.0003
650.6742	0.0057
650.8604	0.0057
651.0466	0.0077
651.2327	0.011
651.4188	0.01
651.6049	0.017
651.791	0.0184
651.9771	0.0047
652.1632	0.0042
652.3492	0.012
652.5352	0.0016
652.7212	0.0051
652.9072	0.0017
653.0932	0.0052
653.2791	-0.0005
653.465	0.0062
653.651	0.0083
653.8369	0.0015
654.0227	0.0075
654.2086	0.0069
654.3944	0.0089
654.5803	-0.0014
654.7661	0.0128
654.9519	-0.0017
655.1377	-0.0016
655.3234	-0.0023
655.5092	-0.0024
655.6949	-0.0107
655.8806	-0.005
656.0663	-0.0005
656.2519	-0.0014
656.4376	-0.0011
656.6232	-0.0017
656.8088	0.0015
656.9945	0.0024
657.18	-0.0028
657.3656	0.0017
657.5511	0.0008
657.7367	0.0055
657.9222	0.008
658.1077	0.0053
658.2932	0.0055
658.4786	-0.0023
658.6641	-0.006
658.8495	0.0008
659.0349	0.0084
659.2203	0.0042
659.4057	-0.0061
659.591	0.0042
659.7764	-0.0021
659.9617	-0.0021
660.147	0.008
660.3323	-0.0002
660.5176	-0.0036
660.7028	-0.0043
660.888	0.0131
661.0733	0.0113
661.2585	0.0071
661.4436	0.0015
661.6288	0.0085
661.8139	0.007
661.9991	-0.0083
662.1842	0.0084
662.3693	-0.0032
662.5544	0.0006
662.7394	0.0066
662.9245	0.0084
663.1095	0.016
663.2945	0.0077
663.4795	0.0051
663.6644	0.0074
663.8494	0.0087
664.0343	0.0034
664.2193	0.0134
664.4042	0.0127
664.589	0.0051
664.7739	-0.0013
664.9587	0.0018
665.1436	-0.0018
665.3284	0.0012
665.5132	-0.002
665.698	0.0045
665.8827	0.0083
666.0675	0.0029
666.2522	0.0118
666.4369	0.0079
666.6216	0.0087
666.8063	0.0097
666.9909	-0.0017
667.1756	0.013
667.3602	0.0015
667.5448	0.0164
667.7294	0.0108
667.9139	0.0026
668.0985	0.0069
668.283	0.0012
668.4675	-0.0045
668.652	0.0159
668.8365	-0.005
669.0209	0.0084
669.2054	0.0009
669.3898	0.0058
669.5742	0.0029
669.7586	0.0039
669.943	0.0034
670.1273	0.0054
670.3117	0.0058
670.496	0.0003
670.6803	0.0079
670.8646	0.0059
671.0488	0.0075
671.2331	0.0127
671.4173	0.0102
671.6015	0.0083
671.7857	0.001
671.9699	0.0141
672.1541	0.0098
672.3382	0.0141
672.5223	0.0076
672.7064	0.0061
672.8905	0.0029
673.0746	0.01
673.2587	0.0049
673.4427	0.002
673.6267	-0.0004
673.8107	0.0085
673.9947	0.0068
674.1787	0.0134
674.3626	0.0115
674.5465	0.0064
674.7304	0.0104
674.9143	0.0119
675.0982	0.0052
675.2821	0.0026
675.4659	0.0136
675.6497	-0.0045
675.8335	0.0123
676.0173	0.0084
676.2011	0.004
676.3849	0.0027
676.5686	0.0099
676.7523	0.0098
676.936	-0.0077
677.1197	0.0096
677.3034	0.002
677.487	0.0075
677.6706	0.0128
677.8542	0.0098
678.0378	0.0052
678.2214	-0.0001
678.405	0.016
678.5885	0.0076
678.772	0.0078
678.9555	-0.0013
679.139	0.0088
679.3225	0.0057
679.5059	0.0082
679.6894	-0.0024
679.8728	0.0001
680.0562	0.0138
680.2395	0.0091
680.4229	0.0041
680.6062	0.0021
680.7896	0.0005
680.9729	0.0024
681.1562	0.0054
681.3394	0.0091
681.5227	0.0093
681.7059	0.0058
681.8891	0.0028
682.0723	0.0037
682.2555	0.0033
682.4387	0.0063
682.6218	0.0108
682.805	0.0014
682.9881	0.0088
683.1712	0.0141
683.3542	0.0014
683.5373	0.0104
683.7203	0.0181
683.9034	0.0094
684.0864	-0.0001
684.2694	0.0057
684.4523	0.0089
684.6353	-0.0039
684.8182	0.0034
685.0011	0.0104
685.184	0.0108
685.3669	0.0014
685.5498	0.0062
685.7326	0.0004
685.9154	0.0142
686.0982	0.0091
686.281	-0.0011
686.4638	0.0004
686.6465	0.0058
686.8293	0.0013
687.012	0.0119
687.1947	0.0083
687.3774	0.0133
687.56	0.005
687.7427	0.0177
687.9253	0.0093
688.1079	0.0082
688.2905	-0.0003
688.4731	0.0036
688.6556	0.0019
688.8382	0.006
689.0207	0.0064
689.2032	0.0008
689.3857	0.0052
689.5681	0.0037
689.7506	-0.005
689.933	0.0009
690.1154	0.005
690.2978	-0.0031
690.4802	0.0025
690.6626	0.005
690.8449	0.0066
691.0272	0.0066
691.2095	0.0118
691.3918	0.01
691.5741	0.0168
691.7563	0.0081
691.9386	0.0045
692.1208	0.0039
692.303	0.0019
692.4852	0.0126
692.6673	0.0055
692.8495	0.004
693.0316	0.0017
693.2137	0.0138
693.3958	0.0067
693.5778	0.0035
693.7599	0.0148
693.9419	0.0092
694.1239	0.01
694.3059	0.0075
694.4879	0.0069
694.6699	0.0022
694.8518	0.0075
695.0337	0.0064
695.2157	0.0118
695.3975	0.0031
695.5794	0.0069
695.7613	0.0074
695.9431	0.0063
696.1249	0.0127
696.3067	-0.0029
696.4885	0.0097
696.6703	0.01
696.852	0.0032
697.0337	0.0125
697.2154	0.0117
697.3971	-0.0009
697.5788	0.0058
697.7605	0.0025
697.9421	-0.0016
698.1237	0.0123
698.3053	0.0048
698.4869	0.0109
698.6685	0.0088
698.85	0.0091
699.0315	0.0139
699.213	0.0107
699.3945	0.0047
699.576	0.0163
699.7575	0.0166
699.9389	0.0165
700.1203	0.014
700.3017	0.009
700.4831	-0.0021
700.6645	-0.0023
700.8458	0.0121
701.0271	0.0036
701.2084	0.0058
701.3897	-0.0049
701.571	0.0041
701.7523	-0.0062
701.9335	-0.0011
702.1147	0.0018
702.2959	-0.0015
702.4771	0.0039
702.6583	-0.0052
702.8394	-0.0004
703.0205	0.0004
703.2016	0.0058
703.3827	0.005
703.5638	0.011
703.7449	0.0089
703.9259	0.0012
704.1069	0.0057
704.2879	0.0052
704.4689	0.0017
704.6499	-0.0014
704.8308	0.0067
705.0117	0.0018
705.1927	0.0091
705.3735	-0.0061
705.5544	-0.0075
705.7353	0.0061
705.9161	-0.0024
706.0969	0.0055
706.2777	0.0098
706.4585	0.0095
706.6393	0.0037
706.82	-0.0006
707.0007	0.0058
707.1815	0.0022
707.3621	0.0045
707.5428	0.0138
707.7235	0.0018
707.9041	0.0053
708.0847	0.0181
708.2653	0.0011
708.4459	0.0097
708.6265	0.0074
708.807	0.0156
708.9875	0.0094
709.168	0.0173
709.3485	0.0083
709.529	0.0033
709.7095	0.0133
709.8899	0.0106
710.0703	0.0046
710.2507	-0.0004
710.4311	0.0089
710.6115	0.0072
710.7918	0.0078
710.9721	0.0116
711.1524	0.0025
711.3327	-0.0027
711.513	-0.0006
711.6932	0.003
711.8735	-0.011
712.0537	0.0028
712.2339	-0.0054
712.4141	-0.0044
712.5942	-0.003
712.7744	0.0078
712.9545	0.0073
713.1346	-0.0026
713.3147	-0.0021
713.4947	0.0022
713.6748	0.0023
713.8548	0.0093
714.0348	0.0048
714.2148	-0.0005
714.3948	0.0091
714.5748	0.0103
714.7547	-0.0075
714.9346	0.0001
715.1145	0.0047
715.2944	0.0012
715.4743	0.0074
715.6541	0.0146
715.834	0.0042
716.0138	0.002
716.1936	0.003
716.3733	0.0038
716.5531	0.0037
716.7328	0.007
716.9126	-0.0005
717.0923	0.0115
717.2719	0.0076
717.4516	-0.0047
717.6312	0.0032
717.8109	0.0017
717.9905	0.0105
718.1701	-0.0056
718.3496	0.009
718.5292	0.0037
718.7087	-0.0105
718.8882	-0.0013
719.0677	0.0076
719.2472	0.0077
719.4267	0.0045
719.6061	-0.0024
719.7856	-0.0018
719.965	0.0042
720.1443	0.0046
720.3237	0.0093
720.5031	0.007
720.6824	0.006
720.8617	0.008
721.041	-0.0077
721.2203	0.0023
721.3995	0.0083
721.5788	0.0139
721.758	0.0032
721.9372	0.0191
722.1164	0.0004
722.2956	0.0042
722.4747	0.0095
722.6538	0.0032
722.8329	0.0054
723.012	0.002
723.1911	0.0052
723.3702	0.0054
723.5492	0.0024
723.7282	0.0029
723.9072	-0.001
724.0862	0.0115
724.2652	0.0063
724.4441	-0.0048
724.623	0.0075
724.8019	-0.0016
724.9808	0.0065
725.1597	0.0025
725.3385	0.0139
725.5174	0.0091
725.6962	-0.0059
725.875	0.0016
726.0538	0.0012
726.2325	0.0023
726.4112	0.0005
726.59	0.0017
726.7687	-0.0051
726.9474	-0.0077
727.126	0.0035
727.3047	-0.0122
727.4833	-0.0044
727.6619	0.0011
727.8405	-0.0133
728.0191	-0.0042
728.1976	0.0018
728.3762	0.0086
728.5547	-0.0019
728.7332	0.0012
728.9116	-0.0111
729.0901	-0.0075
729.2686	0.0014
729.447	-0.0034
729.6254	0.0163
729.8038	0.0084
729.9821	0.0092
730.1605	0.0083
730.3388	-0.0048
730.5171	0.0031
730.6954	0
730.8737	-0.0049
731.0519	0.0034
731.2302	0.0004
731.4084	-0.003
731.5866	-0.0013
731.7648	0.0004
731.9429	0.0024
732.1211	0.0012
732.2992	0.0005
732.4773	-0.0063
732.6554	-0.0033
732.8335	0.0012
733.0115	-0.003
733.1896	0.0029
733.3676	-0.0013
733.5456	-0.0067
733.7235	-0.0035
733.9015	0.0091
734.0794	-0.0047
734.2574	0.0061
734.4353	0.0016
734.6131	0.0009
734.791	0.0054
734.9689	0.0189
735.1467	0.0018
735.3245	-0.0127
735.5023	0.0026
735.68	0.0125
735.8578	0.01
736.0355	-0.0063
736.2132	0.0045
736.3909	-0.0039
736.5686	0.014
736.7463	0.0083
736.9239	0.0024
737.1015	0.0117
737.2791	0.009
737.4567	0.0014
737.6343	0.0033
737.8118	0.0026
737.9894	0.0094
738.1669	-0.0023
738.3444	0.0031
738.5218	0.0131
738.6993	-0.0013
738.8767	-0.0051
739.0541	0.0039
739.2315	-0.0018
739.4089	0.0078
739.5863	0.0038
739.7636	-0.0053
739.9409	-0.0005
740.1182	0.0009
740.2955	0.0138
740.4728	0.0061
740.65	-0.0016
740.8272	-0.0105
741.0044	-0.0124
741.1816	0.0076
741.3588	0.0013
741.5359	0.0132
741.7131	0.0069
741.8902	-0.0012
742.0673	0.0095
742.2444	-0.0033
742.4214	0.0029
742.5985	0.0152
742.7755	0.0044
742.9525	0.0088
743.1295	0.0096
743.3064	0.003
743.4834	-0.0014
743.6603	-0.0026
743.8372	-0.0025
744.0141	0.0075
744.191	0.0004
744.3678	-0.0058
744.5446	-0.0026
744.7215	0.0171
744.8982	0.0104
745.075	0.0005
745.2518	-0.0036
745.4285	-0.008
745.6052	0.0082
745.7819	-0.0072
745.9586	-0.0042
746.1353	-0.0084
746.3119	-0.0005
746.4885	0.0026
746.6651	-0.004
746.8417	-0.0005
747.0183	0.0067
747.1948	0.0033
747.3714	0.0096
747.5479	-0.0039
747.7244	0.0068
747.9008	0.0109
748.0773	0.0036
748.2537	0.0003
748.4301	-0.0066
748.6065	0.0119
748.7829	-0.0049
748.9593	0.0061
749.1356	0.0033
749.3119	0.0075
749.4882	0.0074
749.6645	-0.0029
749.8408	0.0066
750.017	0.0017
750.1933	0.0152
750.3695	0.0174
750.5457	0.0101
750.7218	0.008
750.898	0.0136
751.0741	0.0061
751.2502	0.0108
751.4263	0.0044
751.6024	0.0069
751.7784	0.0057
751.9545	0.0182
752.1305	-0.0001
752.3065	0.0107
752.4825	0.0017
752.6584	0.0049
752.8344	0.0056
753.0103	-0.0034
753.1862	0.0042
753.3621	-0.0085
753.5379	-0.0021
753.7138	-0.0006
753.8896	0.0038
754.0654	0.0022
754.2412	-0.0113
754.417	-0.0032
754.5927	0.0104
754.7685	0.0011
754.9442	0.0085
755.1199	0.0109
755.2956	0.0045
755.4712	-0.0061
755.6469	0.014
755.8225	0.009
755.9981	0.0078
756.1736	-0.0092
756.3492	0.0049
756.5248	0.0039
756.7003	0.0092
756.8758	0.0109
757.0513	0.0133
757.2267	0.0037
757.4022	0.0056
757.5776	0.0029
757.753	0.0011
757.9284	0.0026
758.1038	-0.0095
758.2791	0.0032
758.4545	0.0073
758.6298	0.0112
758.8051	0.002
758.9803	0.0083
759.1556	0.0038
759.3308	0.0061
759.506	0.0132
759.6812	0.0033
759.8564	0.0098
760.0316	0.0106
760.2067	-0.0014
760.3819	-0.0021
760.557	-0.0009
760.732	-0.0012
760.9071	0.0231
761.0821	0.0103
761.2572	0.0087
761.4322	-0.0001
761.6072	0.0109
761.7821	0.0055
761.9571	0.0025
762.132	-0.0056
762.3069	0.0145
762.4818	0.0098
762.6567	0.003
762.8316	-0.001
763.0064	0.0018
763.1812	0.0084
763.356	0.0018
763.5308	-0.0001
763.7055	0.0056
763.8803	-0.0026
764.055	0.0011
764.2297	0.0003
764.4044	0.0051
764.579	0.0008
764.7537	0.0002
764.9283	0.0048
765.1029	0.0048
765.2775	0.0001
765.4521	-0.0056
765.6266	0.0009
765.8011	0.0059
765.9756	0.0027
766.1501	0.0044
766.3246	-0.0127
766.4991	0.0118
766.6735	-0.0048
766.8479	0.0017
767.0223	-0.0082
767.1967	0.0004
767.371	0.0001
767.5454	-0.0063
767.7197	0.0047
767.894	0.0074
768.0683	0.0117
768.2425	0.0064
768.4168	0.0032
768.591	0.0032
768.7652	-0.0025
768.9394	0.0051
769.1135	0.0103
769.2877	-0.0055
769.4618	0.0052
769.6359	0.0138
769.81	0.0051
769.984	0.0111
770.1581	-0.0015
770.3321	0.0146
770.5061	-0.0072
770.6801	-0.0054
770.8541	0.0054
771.028	0.0059
771.202	0.0014
771.3759	-0.0018
771.5498	0.0163
771.7236	-0.0009
771.8975	0.0077
772.0713	0.0074
772.2451	0.0017
772.4189	0.0041
772.5927	-0.0029
772.7665	0.0013
772.9402	0.0047
773.1139	0.0089
773.2876	-0.0118
773.4613	0.0016
773.635	0.0041
773.8086	-0.0065
773.9822	0.0101
774.1558	0.0144
774.3294	0.0101
774.503	0.0035
774.6765	0.0131
774.8501	0.0025
775.0236	0.0129
775.1971	0.0163
775.3705	0.0181
775.544	0.0128
775.7174	0.014
775.8908	0.0043
776.0642	0.0046
776.2376	0.0004
776.4109	-0.003
776.5843	0.0023
776.7576	0.0163
776.9309	0.0095
777.1041	0.0266
777.2774	-0.0038
777.4506	0.0104
777.6238	-0.0048
777.797	0.0111
777.9702	0.011
778.1434	0.0156
778.3165	-0.0029
778.4896	0.0085
778.6627	0.0057
778.8358	0.0004
779.0089	0.0019
779.1819	-0.0057
779.3549	0.0096
779.5279	0.0173
779.7009	0.0076
779.8739	-0.0079
780.0468	0.0145
780.2197	0.0142
780.3926	0.0041
780.5655	0.0049
780.7384	-0.0065
780.9112	0.0118
781.0841	-0.0024
781.2569	-0.0053
781.4297	-0.0163
781.6024	-0.0058
781.7752	-0.0099
781.9479	-0.0116
782.1206	-0.0006
782.2933	0.0059
782.466	0.0033
782.6386	0.0172
782.8113	-0.0114
782.9839	0.0002
783.1565	0.0153
783.329	-0.0011
783.5016	-0.0051
783.6741	-0.0003
783.8466	0.0076
784.0191	0.0007
784.1916	0.0028
784.3641	-0.0001
784.5365	0.0008
784.7089	0.0071
784.8813	-0.0106
785.0537	-0.0067
785.2261	-0.0025
785.3984	-0.0091
785.5707	0.008
785.743	0.0049
785.9153	-0.0013
786.0876	-0.001
786.2598	-0.0062
786.432	0.0177
786.6042	0
786.7764	0.0029
786.9486	0.0025
787.1207	0.0014
787.2928	0.0002
787.4649	0.0102
787.637	-0.0041
787.8091	0.0002
787.9811	-0.0057
788.1532	0.0086
788.3252	-0.0107
788.4972	-0.0023
788.6691	0.0069
788.8411	-0.0152
789.013	0.0117
789.1849	0.0074
789.3568	0.0083
789.5287	0.0005
789.7005	0.0176
789.8723	0.0146
790.0442	0.0003
790.2159	0.0006
790.3877	0.0094
790.5595	0.0132
790.7312	-0.0085
790.9029	0.0038
791.0746	-0.0007
791.2463	0.0253
791.4179	-0.0086
791.5896	0.0035
791.7612	0.0263
791.9328	0.0048
792.1044	0.016
792.2759	0.0011
792.4474	0.0135
792.619	0.0091
792.7905	0.0144
792.9619	0.0154
793.1334	0.0159
793.3048	0.0148
793.4762	0.0091
793.6476	-0.0069
793.819	0.0141
793.9904	0.0219
794.1617	-0.0095
794.333	0.0147
794.5043	-0.0032
794.6756	0.0008
794.8469	0.0096
795.0181	0.0092
795.1893	-0.0108
795.3605	0.0173
795.5317	0.007
795.7029	0.0084
795.874	-0.0026
796.0452	-0.0057
796.2163	0.0065
796.3873	-0.0022
796.5584	0.0108
796.7294	0.0059
796.9005	0.0007
797.0715	0.0067
797.2425	-0.0096
797.4134	0.0109
797.5844	0.0139
797.7553	0.003
797.9262	-0.0019
798.0971	0.0138
798.2679	-0.0033
798.4388	0.0006
798.6096	-0.0218
798.7804	0.0048
798.9512	0.0087
799.122	0.012
799.2927	0.0121
799.4635	0.015
799.6342	0.0142
799.8049	0.0024
799.9755	0.008
800.1462	0.0087
800.3168	0.0004
800.4874	0.0018
800.658	0.0177
800.8286	-0.0054
800.9991	0.0202
801.1696	0.0148
801.3402	0.0057
801.5106	0.0129
801.6811	-0.007
801.8516	-0.0009
802.022	-0.0102
802.1924	0.0117
802.3628	0.0094
802.5332	0.0144
802.7035	-0.0009
802.8739	-0.0017
803.0442	-0.0138
803.2145	0.016
803.3847	-0.0113
803.555	-0.0042
803.7252	0.0101
803.8954	-0.0132
804.0656	-0.002
804.2358	0.0152
804.4059	0.0319
804.5761	0.0164
804.7462	0.0071
804.9163	0.0142
805.0864	-0.0063
805.2564	0.0093
805.4264	-0.0062
805.5965	0.0056
805.7665	0.0106
805.9364	-0.0145
806.1064	0.0126
806.2763	0.0062
806.4462	0.0045
806.6161	0.0041
806.786	-0.0068
806.9559	-0.0006
807.1257	0.0124
807.2955	0.0259
807.4653	0.0328
807.6351	0.0221
807.8048	0.0258
807.9746	0.0164
808.1443	0.0109
808.314	0.0152
808.4837	0.0193
808.6533	0.0007
808.8229	0.0163
808.9926	0.0076
809.1622	0.018
809.3317	0.0139
809.5013	0.0341
809.6708	0.027
809.8403	0.0211
810.0098	0.032
810.1793	-0.0046
810.3488	-0.008
810.5182	0.028
810.6876	0.0156
810.857	0.0078
811.0264	-0.0004
811.1958	0.0023
811.3651	0.0182
811.5344	0.023
811.7037	0.0018
811.873	0.0019
812.0422	0.0102
812.2115	0.0141
812.3807	0.0227
812.5499	0.0166
812.7191	0.0024
812.8882	0.0027
813.0574	-0.006
813.2265	0.0335
813.3956	0.0148
813.5646	0.0184
813.7337	0.015
813.9027	0.0149
814.0718	0.0202
814.2407	0.0059
814.4097	0.0087
814.5787	0.0053
814.7476	0.0097
814.9165	0.0079
815.0854	0.0055
815.2543	-0.0016
815.4232	-0.0062
815.592	0.0044
815.7608	0.0126
815.9296	-0.0209
816.0984	0.0056
816.2671	-0.0077
816.4359	-0.002
816.6046	-0.0011
816.7733	0.0015
816.942	0.0159
817.1106	-0.0057
817.2793	0.0078
817.4479	-0.0023
817.6165	-0.0018
817.785	0.0034
817.9536	0.0031
818.1221	-0.0115
818.2906	0.0019
818.4591	-0.0171
818.6276	0.017
818.7961	0.0047
818.9645	0.011
819.1329	0.0265
819.3013	0.0141
819.4697	0.0107
819.638	-0.0188
819.8064	0.0078
819.9747	0.0068
820.143	-0.0089
820.3113	-0.0006
820.4795	-0.0058
820.6477	-0.0194
820.816	-0.0149
820.9842	-0.0135
821.1523	0.0089
821.3205	-0.013
821.4886	-0.0099
821.6567	-0.0169
821.8248	0.0043
821.9929	0.0061
822.1609	-0.0313
822.329	0.0332
822.497	-0.0275
822.665	-0.03
822.833	-0.0092
823.0009	-0.0134
823.1688	-0.0106
823.3367	0.0049
823.5046	-0.0194
823.6725	-0.0288
823.8404	-0.0078
824.0082	-0.0066
824.176	0.0209
824.3438	-0.0075
824.5116	0.007
824.6793	-0.0302
824.847	0.045
825.0147	0.0086
825.1824	-0.0107
825.3501	-0.0108
825.5177	-0.0225
825.6854	-0.0265
825.853	0.0213
826.0206	-0.0181
826.1881	0.0079
826.3557	0.0271
826.5232	-0.0206
826.6907	-0.0059
826.8582	0.0069
827.0257	0.0088
827.1931	-0.0051
827.3605	0.0169
827.528	0.0419
827.6953	0.0314
827.8627	0.0109
828.03	0.0298
828.1974	0.0337
828.3647	0.0283
828.532	0.0186
828.6992	0.0055
828.8665	0.0348
829.0337	0.0014
829.2009	0.0279
829.3681	-0.0079
829.5352	0.0043
829.7024	-0.0053
829.8695	0.0162
830.0366	-0.0044
830.2037	-0.0014
830.3707	0.0194
830.5378	-0.0337
830.7048	0.0022
830.8718	-0.008
831.0388	-0.002
831.2057	-0.0145
831.3727	-0.0018
831.5396	0.0148
831.7065	-0.0342
831.8734	-0.0009
832.0402	-0.0294
832.2071	-0.0084
832.3739	-0.0067
832.5407	0.0468
832.7075	0.0117
832.8742	-0.011
833.041	0.0007
833.2077	0.012
833.3744	0.0365
833.541	0.0394
833.7077	0.034
833.8743	0.042
834.0409	0.044
834.2075	0.0024
834.3741	0.025
834.5407	-0.0126
834.7072	0.0039
834.8737	-0.0225
835.0402	0.0178
835.2067	-0.0193
835.3731	-0.0138
835.5395	-0.0266
835.706	-0.0028
835.8723	-0.034
836.0387	0.0258
836.2051	0.0014
836.3714	-0.0434
836.5377	-0.0279
836.704	-0.0464
836.8703	-0.0344
837.0365	-0.0494
837.2027	-0.0296
837.3689	-0.0415
837.5351	-0.0192
837.7013	-0.0395
837.8674	0.0212
838.0335	-0.0261
838.1997	-0.0498
838.3657	-0.0172
838.5318	-0.0329
838.6978	-0.0229
838.8639	-0.0756
839.0299	0.0105
839.1958	0.0073
839.3618	-0.0276
839.5277	-0.0039
839.6937	0.0076
839.8596	0.0052
840.0254	0.0655
840.1913	0.0144
840.3571	-0.0079
840.523	0.0182
840.6888	0.011
840.8545	0.0195
841.0203	0.0116
841.186	0.0413
841.3517	-0.0113
841.5174	-0.0364
841.6831	0.0264
841.8488	-0.0188
842.0144	0.0697
842.18	-0.0056
842.3456	0.0088
842.5112	0.0204
842.6767	-0.0359
842.8422	0.0315
843.0077	-0.0129
843.1732	-0.0394
843.3387	-0.0008
843.5042	0.0036
843.6696	0.0175
843.835	-0.0502
844.0004	-0.0544
844.1657	-0.0358
844.3311	-0.0381
844.4964	-0.0339
844.6617	-0.0478
844.827	0.0641
844.9923	0.0373
845.1575	0.0059
845.3227	-0.0613
845.4879	0.0044
845.6531	-0.0409
845.8183	-0.0374
845.9834	0.0474
846.1485	0.031
846.3136	-0.0734
846.4787	0.0139
846.6438	0.0686
846.8088	-0.0532
846.9738	-0.0277
847.1388	-0.0044
847.3038	-0.0393
847.4687	-0.0191
847.6337	-0.0833
847.7986	0.0435
847.9635	0.0101
848.1284	-0.0581
848.2932	0.0112
848.458	0.0182
848.6228	0.0445
848.7876	-0.0062
848.9524	-0.0379
849.1172	0.0089
849.2819	-0.0279
849.4466	-0.0573
849.6113	0.0153
849.7759	-0.0672
849.9406	0.062
850.1052	-0.131
850.2698	0.0214
850.4344	-0.0157
850.599	0.0135
850.7635	0.0052
850.928	0.0076
851.0925	0.0177
851.257	0.074
851.4215	-0.041
851.5859	0.0323
851.7503	-0.1199
851.9147	0.026
852.0791	0.0554
852.2434	0.0485
852.4078	-0.0333
852.5721	0.0358
852.7364	0.0022
852.9007	-0.1982
853.0649	-0.0084
853.2291	0.0878
853.3934	0.0576
853.5575	-0.1155
853.7217	0.0282
853.8859	-0.0128
854.05	0.044
854.2141	-0.1371
854.3782	-0.0684
854.5423	-0.0351
854.7063	0.0457
854.8703	0.0621
855.0343	0.0052
855.1983	0.0081
855.3623	-0.0777
855.5262	0.0049
855.6901	-0.1785
855.854	-0.0876
856.0179	-0.1099
856.1818	-0.0535
856.3456	-0.0551
856.5094	0.0944
856.6732	0.0178
856.837	-0.0721
857.0008	-0.3823
857.1645	0.0564
857.3282	0.2341
857.4919	-0.2379
857.6556	-0.032
857.8192	-0.0107
857.9828	0.0008
858.1465	-0.0097
858.31	-0.1747
858.4736	-0.0819
858.6372	-0.1571
858.8007	-0.3091
858.9642	-0.0353
859.1277	-0.2393
859.2911	-0.1569
859.4546	-0.0188
859.618	-0.4378
859.7814	0.0699
859.9448	-0.062
860.1081	-0.1123
860.2715	-0.0031
860.4348	0.0164
860.5981	-0.0973
860.7614	-0.0154
860.9246	0.0371
861.0879	-0.1196
861.2511	0.0246
861.4143	-0.047
861.5774	-0.0765
861.7406	-0.2889
861.9037	-0.127
862.0668	-0.0437
862.2299	-0.0235
862.393	0.0166
862.556	0.051
862.7191	0.0312
862.8821	-0.4308
863.0451	-0.2849
863.208	0.0502
863.371	-0.6836
863.5339	0.0256
863.6968	-0.0492
863.8597	-0.1924
864.0225	-0.0357
864.1854	-0.2076
864.3482	-0.2127
864.511	0.0571
864.6737	0.177
864.8365	-0.1092
864.9992	-0.223
865.1619	-0.3195
865.3246	-0.1553
865.4873	-0.1826
865.65	-0.1473
865.8126	0.0616
865.9752	-0.1578
866.1378	0.1492
866.3004	-0
866.4629	0.0544
866.6254	-0
866.7879	-0.2127
866.9504	-0.0289
867.1129	-0.0269
867.2753	0.0392
867.4377	0.0218
867.6001	-0.0702
867.7625	-0.1913
867.9249	-0.6082
868.0872	-0.04
868.2495	0.0773
868.4118	-0.1128
868.5741	-0.0554
868.7363	0.017
868.8986	-0.198
869.0608	-0.3785
869.223	-0.0829
869.3851	-0.3717
869.5473	-0.0915
869.7094	-0.2283
869.8715	0.1297
870.0336	-0
870.1957	-0
870.3577	-0.1821
870.5197	0.1337
870.6817	1.4139
870.8437	-0.1016
871.0057	-0.5655
871.1676	-0.2058
871.3295	-1.4061
871.4914	-0
871.6533	-0.0283
871.8151	-0.2191
871.977	-0.7142
872.1388	0.0261
872.3006	0.2141
872.4623	-0.0481
872.6241	-0.1745
872.7858	-0.1396
872.9475	-0.0769
873.1092	-0.0809
873.2709	-0
873.4325	-0.4035
873.5941	0.9924
873.7557	-0.3089
873.9173	-0.4712
874.0789	-0
874.2404	0.27
874.4019	-0.1851
874.5634	-0.2495
874.7249	0.1072
874.8863	-0.1308
875.0478	-0.0639
875.2092	-0.215
875.3706	-0.281
875.5319	-0
875.6933	-0.3946
875.8546	0.0415
876.0159	-0.0053
876.1772	-0.4047
876.3385	-0.584
876.4997	-0
876.6609	-0
876.8221	-1.0029
876.9833	-0
877.1445	-0.1455
877.3056	-0.2953
877.4667	-0.1347
877.6278	0.3861
877.7889	-0.0053
877.9499	0.2196
878.111	0.1012
878.272	-0.3204
878.433	-0.0975
878.5939	-0.021
878.7549	0.0964
878.9158	-0.1611
879.0767	-0.2435
879.2376	0.117
879.3984	-0
879.5593	-0.3406
879.7201	-0.1623
879.8809	-0
880.0417	-0.3612
880.2024	-0
880.3632	0.04
880.5239	-0
880.6846	-0.1935
880.8452	-0.2191
881.0059	-0.8474
881.1665	-0.1149
881.3271	-0.1003
881.4877	-0
881.6483	-0.235
881.8088	-0.4497
881.9693	-0.5712
882.1298	-0.5712
882.2903	-0.5712
