Data from MonoPyChalIsomerACN10uM400nmA_Absorbance_12-08-43-228.txt Node
Date: Fri Jul 05 12:08:43 BST 2024
User: LASERRRRR
Spectrometer: FLMT03099
Trigger mode: 0
Integration Time (sec): 1.000000E-1
Scans to average: 1
Electric dark correction enabled: true
Nonlinearity correction enabled: false
Boxcar width: 0
XAxis mode: Wavelengths
Number of Pixels in Spectrum: 3648
>>>>>Begin Spectral Data<<<<<
179.3399	0.0429
179.5586	0.0429
179.7771	0.0429
179.9957	0.0842
180.2143	-0
180.4329	-0.2699
180.6514	-0
180.8699	-0.2314
181.0885	-0
181.307	0.8035
181.5255	-0.7592
181.744	-0
181.9625	-0.5523
182.181	-0.4085
182.3994	-0.4666
182.6179	-0.3038
182.8363	-0.218
183.0547	0.0443
183.2732	0.5518
183.4916	0.0343
183.71	0.077
183.9284	-0.0529
184.1467	0.0287
184.3651	-0.046
184.5835	0.1535
184.8018	-0.029
185.0201	0.0367
185.2385	-0.0215
185.4568	0.2711
185.6751	0.056
185.8934	-0.0753
186.1117	0.5975
186.3299	0.0905
186.5482	0.0442
186.7664	0.1623
186.9847	0.2366
187.2029	0.2347
187.4211	0.0348
187.6393	-0.0112
187.8575	0.3147
188.0757	0.0112
188.2939	-0.0391
188.512	0.0114
188.7302	-0.0066
188.9483	-0.0012
189.1665	0.0116
189.3846	0.0417
189.6027	0.2544
189.8208	0.1271
190.0389	0.3395
190.257	0.0888
190.475	0.1837
190.6931	0.474
190.9111	0.7161
191.1292	0.5847
191.3472	0.2027
191.5652	0.3816
191.7832	0.2594
192.0012	0.3419
192.2192	0.3656
192.4371	0.3266
192.6551	0.3933
192.873	0.7515
193.091	0.6
193.3089	0.3938
193.5268	0.6159
193.7447	0.5604
193.9626	0.5295
194.1805	0.4582
194.3984	0.2838
194.6162	0.4889
194.8341	0.3189
195.0519	0.4904
195.2697	0.4907
195.4875	0.6334
195.7054	0.5767
195.9231	0.4128
196.1409	0.4525
196.3587	0.6351
196.5765	0.4937
196.7942	0.6625
197.012	0.9494
197.2297	0.5299
197.4474	0.626
197.6651	0.7028
197.8828	0.6049
198.1005	0.5988
198.3182	0.7065
198.5358	0.789
198.7535	0.6544
198.9711	0.5892
199.1888	0.8603
199.4064	0.7047
199.624	0.7048
199.8416	0.6464
200.0592	0.5661
200.2767	0.616
200.4943	0.6797
200.7119	0.6578
200.9294	0.718
201.1469	0.7045
201.3645	0.6541
201.582	0.6106
201.7995	0.817
202.017	0.6472
202.2344	0.5508
202.4519	0.8124
202.6694	0.983
202.8868	0.7108
203.1042	0.7276
203.3217	0.6309
203.5391	0.7977
203.7565	0.6676
203.9739	0.8013
204.1913	0.9363
204.4086	0.7429
204.626	0.8704
204.8433	0.9139
205.0607	0.6929
205.278	0.8898
205.4953	0.7363
205.7126	0.6837
205.9299	0.952
206.1472	0.7936
206.3644	0.5828
206.5817	0.7566
206.7989	0.6945
207.0162	0.6652
207.2334	0.7644
207.4506	0.7439
207.6678	0.8468
207.885	0.7801
208.1022	0.7109
208.3194	0.7892
208.5365	0.7541
208.7537	0.7697
208.9708	0.7142
209.1879	0.7785
209.405	0.6779
209.6222	0.7222
209.8392	0.7589
210.0563	0.7928
210.2734	0.793
210.4905	0.7508
210.7075	0.7409
210.9245	0.7404
211.1416	0.7976
211.3586	0.7215
211.5756	0.7416
211.7926	0.7713
212.0096	0.6569
212.2265	0.7459
212.4435	0.7054
212.6604	0.7321
212.8774	0.699
213.0943	0.7302
213.3112	0.752
213.5281	0.6487
213.745	0.7211
213.9619	0.6981
214.1788	0.7006
214.3956	0.6559
214.6125	0.6207
214.8293	0.7344
215.0461	0.7114
215.2629	0.6798
215.4798	0.6303
215.6965	0.6605
215.9133	0.6407
216.1301	0.5655
216.3469	0.6232
216.5636	0.6143
216.7803	0.6008
216.9971	0.6162
217.2138	0.6374
217.4305	0.603
217.6472	0.5825
217.8639	0.6104
218.0805	0.5787
218.2972	0.554
218.5138	0.5865
218.7305	0.5517
218.9471	0.5583
219.1637	0.5788
219.3803	0.5155
219.5969	0.582
219.8135	0.5584
220.0301	0.5732
220.2466	0.5693
220.4632	0.538
220.6797	0.5496
220.8962	0.5174
221.1127	0.5307
221.3292	0.5152
221.5457	0.5756
221.7622	0.552
221.9787	0.5644
222.1951	0.5578
222.4116	0.5413
222.628	0.5763
222.8444	0.5396
223.0608	0.535
223.2772	0.5274
223.4936	0.5326
223.71	0.5716
223.9264	0.5482
224.1427	0.5535
224.3591	0.5165
224.5754	0.55
224.7917	0.5211
225.008	0.5771
225.2243	0.5561
225.4406	0.5632
225.6569	0.5342
225.8732	0.5481
226.0894	0.5338
226.3057	0.5935
226.5219	0.5598
226.7381	0.5847
226.9543	0.5737
227.1705	0.5612
227.3867	0.5702
227.6029	0.5539
227.8191	0.559
228.0352	0.5655
228.2513	0.5687
228.4675	0.6089
228.6836	0.5841
228.8997	0.5581
229.1158	0.5717
229.3319	0.5692
229.548	0.6088
229.764	0.6026
229.9801	0.6004
230.1961	0.5626
230.4121	0.6026
230.6282	0.573
230.8442	0.596
231.0602	0.5502
231.2761	0.5541
231.4921	0.5849
231.7081	0.5546
231.924	0.5965
232.14	0.5844
232.3559	0.587
232.5718	0.586
232.7877	0.5702
233.0036	0.5841
233.2195	0.53
233.4353	0.5604
233.6512	0.5623
233.867	0.5568
234.0829	0.5669
234.2987	0.5749
234.5145	0.5553
234.7303	0.5724
234.9461	0.5836
235.1619	0.5745
235.3776	0.5926
235.5934	0.5561
235.8091	0.5563
236.0249	0.5257
236.2406	0.5481
236.4563	0.5527
236.672	0.5624
236.8877	0.5508
237.1034	0.5463
237.319	0.5277
237.5347	0.5437
237.7503	0.5472
237.966	0.5356
238.1816	0.5725
238.3972	0.5545
238.6128	0.5555
238.8284	0.5284
239.0439	0.563
239.2595	0.5334
239.475	0.5343
239.6906	0.5466
239.9061	0.5079
240.1216	0.529
240.3371	0.5291
240.5526	0.5207
240.7681	0.5289
240.9836	0.5507
241.199	0.5008
241.4145	0.4962
241.6299	0.4764
241.8453	0.5052
242.0607	0.5091
242.2761	0.483
242.4915	0.4592
242.7069	0.4463
242.9223	0.4495
243.1376	0.4378
243.353	0.4523
243.5683	0.4233
243.7836	0.4268
243.9989	0.4294
244.2142	0.4022
244.4295	0.3944
244.6448	0.3863
244.86	0.3854
245.0753	0.36
245.2905	0.3804
245.5057	0.3654
245.721	0.3766
245.9362	0.3554
246.1514	0.3357
246.3665	0.3281
246.5817	0.3508
246.7969	0.336
247.012	0.3143
247.2271	0.3316
247.4423	0.3126
247.6574	0.299
247.8725	0.2884
248.0876	0.3063
248.3026	0.2876
248.5177	0.2995
248.7328	0.2748
248.9478	0.2761
249.1628	0.2749
249.3779	0.255
249.5929	0.2701
249.8079	0.2516
250.0228	0.2652
250.2378	0.2541
250.4528	0.2497
250.6677	0.2452
250.8827	0.2283
251.0976	0.2372
251.3125	0.2449
251.5274	0.2419
251.7423	0.235
251.9572	0.2327
252.172	0.205
252.3869	0.2149
252.6017	0.2158
252.8166	0.2258
253.0314	0.2086
253.2462	0.2134
253.461	0.2068
253.6758	0.2031
253.8906	0.222
254.1053	0.214
254.3201	0.2162
254.5348	0.214
254.7496	0.1933
254.9643	0.202
255.179	0.2039
255.3937	0.2133
255.6083	0.183
255.823	0.1939
256.0377	0.1863
256.2523	0.1913
256.467	0.2111
256.6816	0.1854
256.8962	0.1983
257.1108	0.1841
257.3254	0.1917
257.54	0.1937
257.7545	0.2011
257.9691	0.1994
258.1836	0.1971
258.3981	0.2048
258.6127	0.1878
258.8272	0.194
259.0417	0.1915
259.2561	0.1951
259.4706	0.1924
259.6851	0.1856
259.8995	0.1817
260.114	0.1739
260.3284	0.1906
260.5428	0.1882
260.7572	0.195
260.9716	0.1775
261.186	0.1973
261.4003	0.1954
261.6147	0.1907
261.829	0.21
262.0433	0.1952
262.2577	0.1807
262.472	0.1868
262.6863	0.1923
262.9005	0.1814
263.1148	0.1883
263.3291	0.1893
263.5433	0.181
263.7576	0.1888
263.9718	0.1895
264.186	0.1858
264.4002	0.186
264.6144	0.1899
264.8286	0.1878
265.0427	0.2021
265.2569	0.1916
265.471	0.1816
265.6851	0.1785
265.8993	0.1857
266.1134	0.1859
266.3275	0.1933
266.5415	0.1789
266.7556	0.1868
266.9697	0.1924
267.1837	0.1778
267.3978	0.1881
267.6118	0.1921
267.8258	0.1895
268.0398	0.1961
268.2538	0.2008
268.4677	0.2006
268.6817	0.1817
268.8957	0.1863
269.1096	0.1879
269.3235	0.1786
269.5374	0.1753
269.7514	0.1671
269.9652	0.183
270.1791	0.1714
270.393	0.1751
270.6068	0.1743
270.8207	0.1835
271.0345	0.1624
271.2483	0.1799
271.4622	0.1863
271.676	0.1788
271.8897	0.1745
272.1035	0.169
272.3173	0.1782
272.531	0.1688
272.7448	0.1694
272.9585	0.17
273.1722	0.1741
273.3859	0.1801
273.5996	0.1703
273.8133	0.1731
274.0269	0.1684
274.2406	0.1829
274.4542	0.1897
274.6679	0.1772
274.8815	0.176
275.0951	0.1856
275.3087	0.1633
275.5223	0.1786
275.7358	0.181
275.9494	0.1594
276.1629	0.1706
276.3765	0.1761
276.59	0.1744
276.8035	0.175
277.017	0.1551
277.2305	0.1794
277.444	0.1707
277.6574	0.184
277.8709	0.1573
278.0843	0.1844
278.2978	0.1906
278.5112	0.1844
278.7246	0.1826
278.938	0.1839
279.1513	0.1839
279.3647	0.1754
279.5781	0.1809
279.7914	0.1839
280.0047	0.1788
280.2181	0.1748
280.4314	0.1816
280.6447	0.1952
280.8579	0.1815
281.0712	0.1979
281.2845	0.1899
281.4977	0.1919
281.711	0.1929
281.9242	0.1831
282.1374	0.1701
282.3506	0.1741
282.5638	0.1943
282.7769	0.1946
282.9901	0.1871
283.2033	0.1765
283.4164	0.1795
283.6295	0.183
283.8426	0.1958
284.0557	0.1706
284.2688	0.1665
284.4819	0.1834
284.695	0.1696
284.908	0.1865
285.1211	0.1984
285.3341	0.1833
285.5471	0.1914
285.7601	0.1797
285.9731	0.1898
286.1861	0.1867
286.3991	0.1855
286.612	0.1934
286.825	0.1915
287.0379	0.1841
287.2508	0.1734
287.4637	0.1838
287.6766	0.1847
287.8895	0.1832
288.1024	0.1764
288.3152	0.1896
288.5281	0.1797
288.7409	0.1885
288.9538	0.1821
289.1666	0.1917
289.3794	0.1891
289.5922	0.1776
289.8049	0.1737
290.0177	0.1878
290.2304	0.1847
290.4432	0.1762
290.6559	0.1977
290.8686	0.1793
291.0813	0.1671
291.294	0.1831
291.5067	0.1882
291.7194	0.1762
291.932	0.1856
292.1447	0.1903
292.3573	0.1828
292.5699	0.1952
292.7825	0.1698
292.9951	0.1885
293.2077	0.1757
293.4203	0.1865
293.6328	0.1802
293.8454	0.1764
294.0579	0.1868
294.2704	0.1809
294.4829	0.1833
294.6954	0.1914
294.9079	0.177
295.1204	0.1772
295.3328	0.1638
295.5453	0.1852
295.7577	0.1641
295.9701	0.1829
296.1825	0.1721
296.3949	0.1745
296.6073	0.1685
296.8197	0.1807
297.0321	0.1793
297.2444	0.1672
297.4567	0.1804
297.6691	0.178
297.8814	0.1768
298.0937	0.1777
298.306	0.1807
298.5182	0.172
298.7305	0.1831
298.9428	0.1805
299.155	0.1732
299.3672	0.1585
299.5794	0.1718
299.7916	0.1714
300.0038	0.172
300.216	0.1687
300.4282	0.1742
300.6403	0.1793
300.8525	0.1805
301.0646	0.1721
301.2767	0.1802
301.4888	0.1699
301.7009	0.1759
301.913	0.1832
302.125	0.1884
302.3371	0.1761
302.5491	0.1654
302.7612	0.1613
302.9732	0.1663
303.1852	0.178
303.3972	0.1755
303.6092	0.1723
303.8211	0.1738
304.0331	0.1624
304.245	0.1656
304.457	0.1712
304.6689	0.1577
304.8808	0.1577
305.0927	0.1595
305.3046	0.1536
305.5164	0.1772
305.7283	0.157
305.9401	0.157
306.152	0.144
306.3638	0.1529
306.5756	0.1468
306.7874	0.1474
306.9992	0.1513
307.2109	0.1506
307.4227	0.1574
307.6344	0.1556
307.8462	0.1321
308.0579	0.1379
308.2696	0.1452
308.4813	0.1362
308.693	0.137
308.9046	0.1365
309.1163	0.1372
309.328	0.1365
309.5396	0.1291
309.7512	0.1317
309.9628	0.1311
310.1744	0.124
310.386	0.1334
310.5976	0.131
310.8091	0.1252
311.0207	0.1211
311.2322	0.1108
311.4437	0.1268
311.6552	0.1207
311.8667	0.1179
312.0782	0.1224
312.2897	0.1031
312.5012	0.1121
312.7126	0.1174
312.924	0.1075
313.1355	0.1268
313.3469	0.1179
313.5583	0.104
313.7696	0.112
313.981	0.1097
314.1924	0.12
314.4037	0.1082
314.6151	0.1093
314.8264	0.1158
315.0377	0.1142
315.249	0.1151
315.4603	0.1005
315.6716	0.1081
315.8828	0.0987
316.0941	0.0955
316.3053	0.1057
316.5165	0.1192
316.7277	0.0941
316.9389	0.1167
317.1501	0.1018
317.3613	0.0925
317.5724	0.105
317.7836	0.1014
317.9947	0.1075
318.2058	0.0999
318.417	0.1107
318.6281	0.0977
318.8391	0.1101
319.0502	0.1052
319.2613	0.109
319.4723	0.1066
319.6834	0.1111
319.8944	0.1042
320.1054	0.105
320.3164	0.1059
320.5274	0.0926
320.7383	0.096
320.9493	0.0943
321.1602	0.1163
321.3712	0.0996
321.5821	0.1112
321.793	0.1144
322.0039	0.1112
322.2148	0.1018
322.4257	0.1001
322.6365	0.1037
322.8474	0.0967
323.0582	0.1251
323.269	0.1116
323.4798	0.115
323.6906	0.099
323.9014	0.1086
324.1122	0.114
324.3229	0.1056
324.5337	0.1158
324.7444	0.1149
324.9551	0.1144
325.1658	0.109
325.3765	0.1117
325.5872	0.1075
325.7979	0.1139
326.0085	0.1045
326.2192	0.1018
326.4298	0.1175
326.6404	0.1158
326.851	0.115
327.0616	0.1206
327.2722	0.1162
327.4828	0.1349
327.6933	0.117
327.9039	0.1059
328.1144	0.1022
328.3249	0.1057
328.5354	0.1072
328.7459	0.1122
328.9564	0.1139
329.1669	0.1203
329.3773	0.1136
329.5878	0.1143
329.7982	0.1029
330.0086	0.1194
330.219	0.1083
330.4294	0.1059
330.6398	0.1038
330.8502	0.1007
331.0605	0.1159
331.2708	0.1114
331.4812	0.1054
331.6915	0.1104
331.9018	0.1121
332.1121	0.1106
332.3224	0.1067
332.5326	0.119
332.7429	0.098
332.9531	0.1056
333.1633	0.1188
333.3735	0.0972
333.5837	0.1046
333.7939	0.1003
334.0041	0.1195
334.2143	0.1099
334.4244	0.1082
334.6346	0.0944
334.8447	0.1136
335.0548	0.1172
335.2649	0.1059
335.475	0.1266
335.685	0.106
335.8951	0.116
336.1051	0.1228
336.3152	0.1232
336.5252	0.1099
336.7352	0.1207
336.9452	0.1211
337.1552	0.1187
337.3652	0.1223
337.5751	0.1208
337.7851	0.1099
337.995	0.1149
338.2049	0.1027
338.4148	0.1225
338.6247	0.1126
338.8346	0.1151
339.0445	0.1098
339.2543	0.1102
339.4642	0.1306
339.674	0.1247
339.8838	0.1251
340.0936	0.1288
340.3034	0.1317
340.5132	0.1324
340.7229	0.1356
340.9327	0.115
341.1424	0.11
341.3522	0.1185
341.5619	0.1163
341.7716	0.1252
341.9813	0.1249
342.1909	0.1204
342.4006	0.1145
342.6102	0.1168
342.8199	0.1102
343.0295	0.1315
343.2391	0.1228
343.4487	0.1209
343.6583	0.1205
343.8679	0.136
344.0774	0.1338
344.287	0.1235
344.4965	0.134
344.706	0.1295
344.9155	0.1284
345.125	0.1218
345.3345	0.1219
345.544	0.1415
345.7534	0.1192
345.9629	0.1331
346.1723	0.1289
346.3817	0.1322
346.5911	0.1343
346.8005	0.1421
347.0099	0.1273
347.2193	0.1462
347.4286	0.1408
347.638	0.1422
347.8473	0.1377
348.0566	0.1297
348.2659	0.1417
348.4752	0.1437
348.6845	0.1361
348.8937	0.1406
349.103	0.1242
349.3122	0.1378
349.5214	0.1407
349.7306	0.1393
349.9398	0.1401
350.149	0.1287
350.3582	0.1415
350.5674	0.1525
350.7765	0.1432
350.9856	0.1398
351.1948	0.1417
351.4039	0.1402
351.613	0.1363
351.822	0.1469
352.0311	0.1565
352.2402	0.1422
352.4492	0.1571
352.6582	0.1326
352.8672	0.1269
353.0762	0.1474
353.2852	0.1571
353.4942	0.1493
353.7032	0.1581
353.9121	0.1489
354.1211	0.1337
354.33	0.1547
354.5389	0.151
354.7478	0.1509
354.9567	0.1718
355.1655	0.1541
355.3744	0.1431
355.5833	0.1626
355.7921	0.1576
356.0009	0.1629
356.2097	0.1513
356.4185	0.1442
356.6273	0.1615
356.8361	0.1591
357.0448	0.1463
357.2536	0.1401
357.4623	0.1623
357.671	0.1617
357.8797	0.1642
358.0884	0.1679
358.2971	0.1534
358.5057	0.1682
358.7144	0.1622
358.923	0.1782
359.1316	0.166
359.3402	0.1788
359.5488	0.1703
359.7574	0.1695
359.966	0.1768
360.1746	0.1656
360.3831	0.1675
360.5916	0.1756
360.8002	0.1829
361.0087	0.1793
361.2172	0.163
361.4256	0.182
361.6341	0.1811
361.8426	0.1891
362.051	0.1783
362.2594	0.1815
362.4678	0.1743
362.6762	0.1779
362.8846	0.1852
363.093	0.1695
363.3014	0.1904
363.5097	0.1861
363.718	0.1958
363.9264	0.1892
364.1347	0.1811
364.343	0.1724
364.5513	0.1892
364.7595	0.1899
364.9678	0.1815
365.176	0.1989
365.3842	0.1873
365.5925	0.1767
365.8007	0.1977
366.0089	0.2053
366.217	0.1757
366.4252	0.1918
366.6333	0.2026
366.8415	0.2077
367.0496	0.1827
367.2577	0.1912
367.4658	0.2084
367.6739	0.1994
367.882	0.2086
368.09	0.2121
368.2981	0.2035
368.5061	0.1934
368.7141	0.2146
368.9221	0.1853
369.1301	0.1805
369.3381	0.2238
369.5461	0.2052
369.754	0.1991
369.962	0.2078
370.1699	0.2089
370.3778	0.2033
370.5857	0.2179
370.7936	0.2049
371.0015	0.2152
371.2093	0.2202
371.4172	0.2155
371.625	0.2114
371.8328	0.2182
372.0406	0.2202
372.2484	0.2027
372.4562	0.2179
372.664	0.2274
372.8717	0.1923
373.0795	0.2065
373.2872	0.2174
373.4949	0.2271
373.7026	0.2178
373.9103	0.2128
374.118	0.2183
374.3256	0.2209
374.5333	0.2256
374.7409	0.1841
374.9485	0.2115
375.1561	0.2202
375.3637	0.2026
375.5713	0.2478
375.7789	0.2224
375.9864	0.2281
376.194	0.2101
376.4015	0.2199
376.609	0.2199
376.8165	0.2292
377.024	0.2285
377.2315	0.2195
377.4389	0.2241
377.6464	0.231
377.8538	0.2196
378.0612	0.2277
378.2686	0.2391
378.476	0.2158
378.6834	0.2428
378.8908	0.2333
379.0981	0.2255
379.3055	0.2328
379.5128	0.2464
379.7201	0.238
379.9274	0.2256
380.1347	0.2195
380.342	0.2295
380.5492	0.2514
380.7565	0.233
380.9637	0.2381
381.1709	0.2386
381.3781	0.25
381.5853	0.2654
381.7925	0.2413
381.9997	0.2434
382.2068	0.2253
382.4139	0.24
382.6211	0.2374
382.8282	0.2346
383.0353	0.2474
383.2424	0.222
383.4494	0.2288
383.6565	0.2415
383.8635	0.2645
384.0706	0.2739
384.2776	0.246
384.4846	0.2615
384.6916	0.2498
384.8986	0.2285
385.1055	0.2258
385.3125	0.2511
385.5194	0.2517
385.7263	0.2452
385.9333	0.2352
386.1402	0.2415
386.347	0.2417
386.5539	0.2494
386.7608	0.2405
386.9676	0.2241
387.1744	0.2541
387.3813	0.2368
387.5881	0.2439
387.7948	0.237
388.0016	0.2267
388.2084	0.2354
388.4151	0.2326
388.6219	0.2495
388.8286	0.2254
389.0353	0.2239
389.242	0.235
389.4487	0.2471
389.6553	0.2373
389.862	0.2522
390.0686	0.2504
390.2753	0.2402
390.4819	0.2204
390.6885	0.2311
390.8951	0.2298
391.1016	0.2317
391.3082	0.2086
391.5147	0.2136
391.7213	0.2257
391.9278	0.2267
392.1343	0.2253
392.3408	0.2213
392.5473	0.2237
392.7537	0.2197
392.9602	0.2207
393.1666	0.2212
393.373	0.1946
393.5794	0.2302
393.7858	0.2053
393.9922	0.2418
394.1986	0.2301
394.4049	0.2017
394.6113	0.1936
394.8176	0.2098
395.0239	0.2048
395.2302	0.1919
395.4365	0.202
395.6428	0.2222
395.8491	0.1948
396.0553	0.2188
396.2615	0.1977
396.4678	0.2034
396.674	0.1905
396.8802	0.2069
397.0863	0.2012
397.2925	0.2025
397.4987	0.2237
397.7048	0.1955
397.9109	0.2188
398.117	0.209
398.3231	0.2012
398.5292	0.2277
398.7353	0.2014
398.9413	0.1925
399.1474	0.1898
399.3534	0.2081
399.5594	0.1935
399.7654	0.2079
399.9714	0.1992
400.1774	0.1889
400.3833	0.2137
400.5893	0.1902
400.7952	0.2139
401.0011	0.2158
401.207	0.2081
401.4129	0.1953
401.6188	0.1914
401.8247	0.1993
402.0305	0.2055
402.2364	0.2184
402.4422	0.206
402.648	0.1986
402.8538	0.215
403.0596	0.2043
403.2654	0.2011
403.4711	0.2054
403.6768	0.1924
403.8826	0.2024
404.0883	0.198
404.294	0.2051
404.4997	0.1797
404.7054	0.1918
404.911	0.1994
405.1167	0.2059
405.3223	0.1986
405.5279	0.2163
405.7335	0.2036
405.9391	0.2146
406.1447	0.2086
406.3502	0.1974
406.5558	0.2023
406.7613	0.2281
406.9668	0.203
407.1724	0.2066
407.3778	0.1993
407.5833	0.1993
407.7888	0.2008
407.9942	0.1986
408.1997	0.2037
408.4051	0.185
408.6105	0.1902
408.8159	0.2128
409.0213	0.1961
409.2267	0.2034
409.432	0.2001
409.6374	0.1995
409.8427	0.1904
410.048	0.2015
410.2533	0.1784
410.4586	0.1989
410.6639	0.188
410.8691	0.2013
411.0744	0.2061
411.2796	0.1804
411.4848	0.1952
411.69	0.1977
411.8952	0.1883
412.1004	0.1952
412.3056	0.1933
412.5107	0.1744
412.7158	0.1953
412.921	0.1897
413.1261	0.2111
413.3312	0.1931
413.5362	0.193
413.7413	0.171
413.9464	0.2221
414.1514	0.2003
414.3564	0.1948
414.5614	0.1777
414.7664	0.1848
414.9714	0.1968
415.1764	0.2014
415.3813	0.1936
415.5863	0.19
415.7912	0.1852
415.9961	0.1955
416.201	0.1835
416.4059	0.1811
416.6108	0.1974
416.8156	0.1831
417.0205	0.1788
417.2253	0.1989
417.4301	0.1874
417.6349	0.1868
417.8397	0.1932
418.0445	0.1822
418.2492	0.1679
418.454	0.1842
418.6587	0.192
418.8634	0.1857
419.0681	0.2016
419.2728	0.1712
419.4775	0.1985
419.6822	0.195
419.8868	0.1915
420.0915	0.1714
420.2961	0.1772
420.5007	0.18
420.7053	0.1798
420.9099	0.1686
421.1144	0.1961
421.319	0.2036
421.5235	0.2049
421.728	0.1775
421.9325	0.1838
422.137	0.1767
422.3415	0.1758
422.546	0.174
422.7504	0.1858
422.9549	0.1724
423.1593	0.1519
423.3637	0.1838
423.5681	0.1633
423.7725	0.1644
423.9769	0.1886
424.1812	0.1709
424.3856	0.166
424.5899	0.1791
424.7942	0.1755
424.9985	0.1721
425.2028	0.1424
425.4071	0.1491
425.6113	0.1805
425.8156	0.1785
426.0198	0.1604
426.224	0.1791
426.4282	0.1764
426.6324	0.1687
426.8366	0.1628
427.0407	0.1533
427.2449	0.1605
427.449	0.1445
427.6531	0.1517
427.8572	0.1467
428.0613	0.1642
428.2654	0.1412
428.4694	0.1601
428.6735	0.1409
428.8775	0.1419
429.0815	0.1406
429.2855	0.1585
429.4895	0.1385
429.6935	0.1491
429.8975	0.1405
430.1014	0.1198
430.3053	0.1249
430.5093	0.136
430.7132	0.1262
430.9171	0.1215
431.1209	0.1289
431.3248	0.1251
431.5286	0.1204
431.7325	0.1339
431.9363	0.1329
432.1401	0.1199
432.3439	0.1276
432.5477	0.1356
432.7514	0.1112
432.9552	0.1124
433.1589	0.1288
433.3627	0.1062
433.5664	0.1164
433.7701	0.1142
433.9737	0.097
434.1774	0.1242
434.3811	0.1061
434.5847	0.1231
434.7883	0.1181
434.9919	0.1069
435.1955	0.0957
435.3991	0.098
435.6027	0.0992
435.8062	0.0967
436.0098	0.1043
436.2133	0.0894
436.4168	0.0896
436.6203	0.0902
436.8238	0.0664
437.0272	0.0827
437.2307	0.099
437.4341	0.0789
437.6375	0.0855
437.841	0.0833
438.0443	0.0897
438.2477	0.0875
438.4511	0.0849
438.6545	0.0788
438.8578	0.0853
439.0611	0.0784
439.2644	0.0633
439.4677	0.0672
439.671	0.0716
439.8743	0.0505
440.0775	0.07
440.2808	0.0792
440.484	0.0642
440.6872	0.0718
440.8904	0.0588
441.0936	0.0658
441.2967	0.0582
441.4999	0.0601
441.703	0.0631
441.9062	0.0616
442.1093	0.0554
442.3124	0.0599
442.5155	0.059
442.7185	0.0604
442.9216	0.0545
443.1246	0.0693
443.3276	0.0588
443.5307	0.0547
443.7337	0.0435
443.9366	0.0497
444.1396	0.047
444.3426	0.0386
444.5455	0.0493
444.7484	0.0371
444.9513	0.0416
445.1542	0.0332
445.3571	0.0506
445.56	0.0458
445.7628	0.0455
445.9657	0.0466
446.1685	0.045
446.3713	0.0624
446.5741	0.0304
446.7769	0.0445
446.9797	0.0414
447.1824	0.0187
447.3852	0.0486
447.5879	0.039
447.7906	0.0409
447.9933	0.039
448.196	0.05
448.3986	0.0422
448.6013	0.0241
448.8039	0.0316
449.0066	0.0302
449.2092	0.0174
449.4118	0.0239
449.6143	0.0244
449.8169	0.043
450.0195	0.0201
450.222	0.0234
450.4245	0.0078
450.627	0.0277
450.8295	0.035
451.032	0.0159
451.2345	0.0093
451.4369	0.0271
451.6394	0.0244
451.8418	-0.0089
452.0442	0.0042
452.2466	0.0057
452.449	0.0125
452.6513	0.0258
452.8537	0.0147
453.056	0.0052
453.2583	0.0143
453.4607	0.0287
453.663	0.0099
453.8652	0.0326
454.0675	0.0035
454.2697	0.0323
454.472	0.0131
454.6742	0.0115
454.8764	0.0049
455.0786	0.0043
455.2808	-0.0002
455.4829	0.0259
455.6851	0.0383
455.8872	0.018
456.0893	0.0062
456.2915	0.0162
456.4935	0.008
456.6956	-0.0067
456.8977	0.008
457.0997	0.0192
457.3018	0.0071
457.5038	0.005
457.7058	0.008
457.9078	0.0063
458.1098	0.0067
458.3117	0.0199
458.5137	0.0004
458.7156	0.0126
458.9175	0.0081
459.1194	0.0111
459.3213	0.0096
459.5232	-0.0073
459.725	0.0088
459.9269	0.0111
460.1287	0.014
460.3305	-0.0019
460.5323	0.0219
460.7341	0.0077
460.9359	0.0083
461.1376	0.0209
461.3394	-0.0057
461.5411	0.0146
461.7428	0.003
461.9445	0.0168
462.1462	0.002
462.3479	-0.0039
462.5495	-0.0069
462.7512	-0.0018
462.9528	0.0083
463.1544	0.0001
463.356	0.0104
463.5576	-0.0066
463.7592	-0.0147
463.9607	0.0082
464.1623	-0.0028
464.3638	0.0116
464.5653	-0.0051
464.7668	-0.0149
464.9683	0.0042
465.1697	0.0109
465.3712	0.0053
465.5726	0.0267
465.7741	0.0205
465.9755	-0.0031
466.1769	0.0022
466.3782	0.0058
466.5796	-0.009
466.7809	0.0085
466.9823	-0.0037
467.1836	0.0218
467.3849	0.0145
467.5862	-0.0081
467.7875	0.0188
467.9887	0.0053
468.19	0.0118
468.3912	0.0097
468.5924	-0.0033
468.7936	-0.0037
468.9948	-0.0103
469.196	0.0009
469.3972	-0.0106
469.5983	0.0018
469.7994	-0.0109
470.0006	-0.0316
470.2017	-0.004
470.4027	-0.0112
470.6038	-0.0023
470.8049	-0.0071
471.0059	-0.0056
471.2069	0.0056
471.408	-0.0012
471.6089	-0.0017
471.8099	0.0006
472.0109	-0.002
472.2119	0.0239
472.4128	-0.0179
472.6137	0.0081
472.8146	0.0004
473.0155	-0.0128
473.2164	-0.01
473.4173	0.0013
473.6181	-0
473.819	-0.0031
474.0198	-0.014
474.2206	-0.0002
474.4214	-0.0002
474.6222	-0.0053
474.8229	-0.0092
475.0237	0.0082
475.2244	0.0075
475.4251	-0
475.6258	-0.0088
475.8265	-0.007
476.0272	-0.0143
476.2278	-0.0151
476.4285	-0.0106
476.6291	0.0019
476.8297	-0.0018
477.0303	0.0137
477.2309	-0.0143
477.4315	-0.0164
477.632	-0.0049
477.8326	0.0036
478.0331	-0.0283
478.2336	-0.016
478.4341	-0.0245
478.6346	-0.0002
478.8351	-0.0098
479.0355	-0.0169
479.236	-0.0104
479.4364	-0.0126
479.6368	0.0052
479.8372	-0.0011
480.0376	-0.0085
480.2379	-0.0074
480.4383	-0.0069
480.6386	-0.0095
480.8389	-0.0115
481.0392	-0.0003
481.2395	-0.0028
481.4398	-0.0149
481.6401	-0.0052
481.8403	-0.009
482.0405	-0.0046
482.2408	-0.0196
482.441	-0.0153
482.6411	-0.0141
482.8413	-0.0051
483.0415	-0.0014
483.2416	-0.0155
483.4417	0.0044
483.6419	-0.0051
483.8419	-0.0077
484.042	0.0043
484.2421	-0.0039
484.4422	-0.0062
484.6422	0.0004
484.8422	-0.0054
485.0422	-0.0011
485.2422	-0.0079
485.4422	0.003
485.6422	-0.0173
485.8421	-0.0055
486.042	0.0015
486.242	-0.0199
486.4419	-0.0056
486.6417	-0.0031
486.8416	-0.014
487.0415	-0.0058
487.2413	-0.0101
487.4411	-0.0015
487.641	0.004
487.8408	-0.0075
488.0405	-0.0129
488.2403	-0.001
488.4401	-0.0033
488.6398	-0.0075
488.8395	-0.0155
489.0392	-0.0127
489.2389	-0.0185
489.4386	-0.0041
489.6383	-0.0091
489.8379	-0.0088
490.0376	-0.0068
490.2372	-0.0042
490.4368	-0.0065
490.6364	0.0024
490.836	-0.0126
491.0355	-0.0047
491.2351	-0.0106
491.4346	-0.0147
491.6341	-0.0061
491.8336	-0.0111
492.0331	-0.015
492.2326	-0.0147
492.432	-0.0036
492.6315	-0.0032
492.8309	-0.0058
493.0303	-0.0156
493.2297	-0.0157
493.4291	0.0002
493.6284	-0.0184
493.8278	-0.0047
494.0271	-0.0008
494.2264	-0.0074
494.4257	-0.011
494.625	-0.0082
494.8243	-0.0061
495.0236	-0.0099
495.2228	-0.0061
495.422	-0.0067
495.6213	-0.0085
495.8205	-0.0068
496.0196	-0.0038
496.2188	-0.0126
496.418	-0.0221
496.6171	-0.0136
496.8162	-0.011
497.0153	-0.0054
497.2144	-0.014
497.4135	0.0055
497.6126	-0.0226
497.8116	-0.0139
498.0107	-0.0088
498.2097	-0.0184
498.4087	-0.0135
498.6077	-0.0175
498.8067	0.005
499.0056	-0.0102
499.2046	-0.0101
499.4035	-0.0093
499.6024	-0.0132
499.8013	-0.0101
500.0002	-0.0034
500.199	-0.0133
500.3979	-0.0119
500.5967	-0.0163
500.7956	-0.0055
500.9944	-0.0132
501.1932	-0.0038
501.3919	-0.0042
501.5907	-0.0173
501.7895	-0.0208
501.9882	-0.007
502.1869	-0.015
502.3856	-0.0232
502.5843	-0.0107
502.783	0.0013
502.9816	0.0051
503.1803	-0.0096
503.3789	-0.0111
503.5775	-0.0066
503.7761	-0.0172
503.9747	-0.0156
504.1732	-0.0046
504.3718	0.0042
504.5703	-0.0023
504.7689	-0.0026
504.9674	-0.0079
505.1658	-0.0053
505.3643	-0.0084
505.5628	0.0036
505.7612	-0.0059
505.9597	-0.007
506.1581	-0.001
506.3565	-0.0086
506.5549	-0.0065
506.7532	-0.0039
506.9516	-0.0005
507.1499	-0.0146
507.3482	-0.003
507.5465	0.0046
507.7448	-0.0064
507.9431	-0.0093
508.1414	-0.0088
508.3396	-0.0139
508.5379	-0.0071
508.7361	-0.0114
508.9343	-0.0114
509.1325	0.0028
509.3306	-0.0118
509.5288	-0.0201
509.7269	0.0002
509.9251	-0.0001
510.1232	-0.0113
510.3213	-0.0041
510.5193	-0.0041
510.7174	-0.011
510.9154	0.0002
511.1135	-0.0172
511.3115	-0.002
511.5095	-0.008
511.7075	-0
511.9055	-0.0101
512.1034	-0.0018
512.3014	-0.014
512.4993	0.0009
512.6972	-0.0152
512.8951	0.008
513.093	-0.007
513.2908	-0.0066
513.4887	0.0044
513.6865	-0.0046
513.8844	0.002
514.0822	-0.0003
514.2799	-0.0074
514.4777	-0.0013
514.6755	-0.0054
514.8732	-0.0132
515.0709	0.0028
515.2687	0.0073
515.4664	-0.0037
515.664	-0.0175
515.8617	-0.0052
516.0594	-0.0025
516.257	-0.0054
516.4546	-0.0079
516.6522	-0.0024
516.8498	-0.008
517.0474	-0.0022
517.2449	-0.0091
517.4425	0.0095
517.64	-0.0204
517.8375	0.0008
518.035	-0.0088
518.2325	-0.0129
518.43	-0.0047
518.6274	-0.0083
518.8249	0.0013
519.0223	-0.0053
519.2197	0.0082
519.4171	-0.0055
519.6145	0.0067
519.8118	-0.0126
520.0092	-0.0096
520.2065	-0.0154
520.4038	-0.0132
520.6011	-0.008
520.7984	0.0041
520.9956	-0.0025
521.1929	-0.0166
521.3901	-0.0034
521.5874	-0.0139
521.7846	-0.0017
521.9818	-0.0086
522.1789	-0.0006
522.3761	-0.005
522.5732	-0.0046
522.7704	0.0011
522.9675	-0.0111
523.1646	0.0026
523.3617	-0.0074
523.5587	0.0122
523.7558	0.0026
523.9528	0.0023
524.1498	-0.0045
524.3468	-0.0009
524.5438	-0.0084
524.7408	-0.0161
524.9378	0.0069
525.1347	-0.0017
525.3316	0.0047
525.5285	-0.0082
525.7254	0.0042
525.9223	-0.0046
526.1192	-0.0082
526.316	0.0004
526.5129	0.0101
526.7097	-0.0012
526.9065	0.0053
527.1033	-0.0026
527.3	-0.0088
527.4968	-0.0069
527.6935	0.007
527.8903	0.0056
528.087	0.0074
528.2837	0.0046
528.4804	0.0043
528.677	0.0003
528.8737	-0.0043
529.0703	-0.0067
529.2669	-0.0072
529.4635	-0.0039
529.6601	0.0095
529.8567	-0.0039
530.0532	0.0129
530.2498	0.0014
530.4463	-0.0043
530.6428	-0.0055
530.8393	0.003
531.0358	0.0038
531.2322	0.0084
531.4287	-0.0005
531.6251	0.004
531.8215	-0.0046
532.0179	-0.0053
532.2143	-0.0058
532.4107	-0.0071
532.607	0.0058
532.8034	-0.0023
532.9997	-0.0016
533.196	-0.0035
533.3923	-0.0004
533.5886	-0.0054
533.7848	0.0005
533.9811	-0.0018
534.1773	-0.0113
534.3735	-0.0165
534.5697	-0.0108
534.7659	-0.0002
534.9621	-0.0082
535.1582	0.0099
535.3544	-0.0102
535.5505	-0.0017
535.7466	-0.0037
535.9427	-0.0008
536.1387	-0.0044
536.3348	0.0028
536.5308	-0.0113
536.7269	0.0012
536.9229	-0.0065
537.1189	-0.0029
537.3148	-0.0063
537.5108	-0
537.7068	-0.0045
537.9027	0.0021
538.0986	-0.0005
538.2945	-0.0001
538.4904	0.0025
538.6863	0.0008
538.8821	-0.0067
539.078	-0.0059
539.2738	0.0104
539.4696	-0.0022
539.6654	-0.006
539.8611	0.0015
540.0569	0.0044
540.2526	0.0015
540.4484	0.0036
540.6441	-0.0037
540.8398	-0.0055
541.0355	0.0024
541.2311	-0.0058
541.4268	-0.0046
541.6224	0.0035
541.818	0.0046
542.0136	0.0025
542.2092	0.0046
542.4048	0.0071
542.6003	0.0034
542.7959	0.0033
542.9914	0.0055
543.1869	-0.0004
543.3824	-0.003
543.5779	0.004
543.7734	0.0021
543.9688	-0.0044
544.1642	-0.0008
544.3596	-0.0065
544.555	-0.0049
544.7504	0.0099
544.9458	-0.0009
545.1411	-0.0055
545.3365	0.0021
545.5318	0.0033
545.7271	-0.0054
545.9224	0.0008
546.1177	-0.0016
546.3129	-0.0087
546.5081	-0.0001
546.7034	-0.0016
546.8986	-0.0061
547.0938	0.0003
547.289	-0.0025
547.4841	0.0064
547.6793	-0.0003
547.8744	0.0109
548.0695	-0.0028
548.2646	-0.0088
548.4597	-0.0013
548.6548	0.0057
548.8498	0.0044
549.0448	0.0019
549.2399	-0.0076
549.4349	0.0054
549.6298	0.0044
549.8248	-0.0026
550.0198	0.0048
550.2147	-0.0043
550.4096	-0.007
550.6045	-0.01
550.7994	-0.0068
550.9943	-0.0056
551.1892	-0.0098
551.384	0
551.5788	0.0025
551.7737	-0.0019
551.9685	0.0033
552.1632	0.006
552.358	-0.0013
552.5528	-0.0035
552.7475	-0.0069
552.9422	0.0013
553.1369	-0.0086
553.3316	-0.0006
553.5263	0.0095
553.7209	-0.0006
553.9156	0.0008
554.1102	-0.0112
554.3048	0.0006
554.4994	0.0035
554.694	0.0013
554.8885	-0.0019
555.0831	0.0013
555.2776	0.0035
555.4721	0.0061
555.6666	0.0015
555.8611	-0.0043
556.0555	-0.0002
556.25	0.0107
556.4444	0.01
556.6388	0.0156
556.8332	0.0063
557.0276	0.0062
557.222	0.001
557.4163	0.0022
557.6107	0.02
557.805	0.0066
557.9993	-0.0029
558.1936	0.0083
558.3879	0.0113
558.5821	0
558.7764	0.0077
558.9706	0.001
559.1648	0.0007
559.359	0.0058
559.5532	0.0065
559.7473	0.0136
559.9415	0.0055
560.1356	0.0085
560.3297	-0.0007
560.5238	0.0053
560.7179	0.0062
560.9119	-0.0006
561.106	0.0116
561.3	0.0013
561.494	0.0037
561.688	0.0013
561.882	0.0073
562.076	-0.0021
562.2699	0.0065
562.4639	0.0034
562.6578	0.0003
562.8517	0.0047
563.0456	0.0021
563.2395	0.0093
563.4333	-0.0042
563.6272	0.0025
563.821	-0.0118
564.0148	0.0072
564.2086	-0.0206
564.4024	-0.0057
564.5961	0.0108
564.7899	0.0034
564.9836	0.0023
565.1773	0.0056
565.371	0.0046
565.5647	-0.0039
565.7584	0.0004
565.952	0.0161
566.1456	0.0049
566.3393	0.0058
566.5329	-0.0024
566.7264	0.0087
566.92	0.0012
567.1136	0.0058
567.3071	-0.0046
567.5006	0.0043
567.6941	0.0011
567.8876	0.0045
568.0811	0.0074
568.2745	0.002
568.468	0.003
568.6614	-0.0009
568.8548	0.004
569.0482	0.0033
569.2416	0.0047
569.4349	-0.0044
569.6283	0.0055
569.8216	0.0059
570.0149	0.0001
570.2082	0.0036
570.4015	0.0052
570.5947	0.0081
570.788	0.0093
570.9812	0.0013
571.1744	-0.0011
571.3676	0.0011
571.5608	-0.0017
571.754	-0.0042
571.9471	0.0035
572.1402	-0.0014
572.3333	0.0021
572.5264	0.0064
572.7195	0.0001
572.9126	0.0077
573.1057	0.0014
573.2987	0.0036
573.4917	-0.0031
573.6847	-0.007
573.8777	-0.0007
574.0707	0.0073
574.2636	0.0021
574.4566	0.0057
574.6495	0.0065
574.8424	0.0018
575.0353	-0.0027
575.2281	0.0017
575.421	0.007
575.6138	0.0017
575.8067	-0.0007
575.9995	0.0071
576.1923	0.0073
576.385	0.0006
576.5778	-0.004
576.7706	0.0072
576.9633	-0.0018
577.156	0.0039
577.3487	-0.0022
577.5414	0.0026
577.734	-0.0096
577.9267	-0.0016
578.1193	0.0008
578.3119	0.0003
578.5045	0.0007
578.6971	-0.0078
578.8897	0.0042
579.0822	0.0019
579.2747	0.0062
579.4673	-0.0005
579.6598	0.0102
579.8522	0.0034
580.0447	0.0011
580.2372	0.0051
580.4296	0.0157
580.622	-0.0002
580.8144	0.0065
581.0068	0.0074
581.1992	0.0075
581.3915	0.0063
581.5839	0.0027
581.7762	0.0001
581.9685	0.0011
582.1608	0.0029
582.353	-0.0008
582.5453	-0.0049
582.7375	-0.0056
582.9298	0.0041
583.122	-0.0022
583.3142	0.0039
583.5063	0.0071
583.6985	-0.0003
583.8906	0.0057
584.0827	-0.0017
584.2749	-0.0045
584.4669	0.002
584.659	-0.0008
584.8511	-0.0025
585.0431	-0.0007
585.2352	-0.0008
585.4272	0.0027
585.6192	0.0028
585.8111	-0.0028
586.0031	0.0017
586.195	-0.0018
586.387	-0.0011
586.5789	-0.0051
586.7708	0.008
586.9627	-0.0012
587.1545	0.0099
587.3464	0.0072
587.5382	-0.0034
587.73	0.0037
587.9218	0.0018
588.1136	-0.0021
588.3053	-0.0054
588.4971	-0.002
588.6888	0.0098
588.8805	-0.0014
589.0722	0.0056
589.2639	-0.0044
589.4556	-0.0077
589.6472	0.0018
589.8389	0.004
590.0305	0.013
590.2221	0.0052
590.4137	0.0003
590.6052	0.0065
590.7968	0.0093
590.9883	0.0023
591.1798	-0.0046
591.3713	0.0063
591.5628	0.0012
591.7543	0.0068
591.9458	0.0045
592.1372	0.0015
592.3286	0.0041
592.52	0.0017
592.7114	0.0019
592.9028	0.0035
593.0941	-0.0011
593.2855	0.0002
593.4768	-0.0008
593.6681	-0.0036
593.8594	-0.001
594.0506	-0.0073
594.2419	0.0035
594.4331	-0.0024
594.6244	0.0003
594.8156	0.0061
595.0067	0.0017
595.1979	0.0049
595.3891	-0.0006
595.5802	-0.002
595.7713	-0.0063
595.9624	0.0049
596.1535	0.0061
596.3446	0.0052
596.5357	0.0116
596.7267	0.0093
596.9177	0.0044
597.1087	0.0128
597.2997	0.0148
597.4907	-0.0038
597.6817	0.0056
597.8726	0.0156
598.0635	0.0055
598.2544	0.0051
598.4453	0.0079
598.6362	0.0019
598.827	0.0061
599.0179	0.0027
599.2087	0.0003
599.3995	0.0034
599.5903	0.0106
599.7811	0.0032
599.9718	0.0056
600.1626	0.0017
600.3533	-0.0033
600.544	-0.004
600.7347	0.0097
600.9254	0.0043
601.116	-0.0039
601.3067	-0.012
601.4973	-0.0026
601.6879	0.0099
601.8785	0.007
602.0691	0.0004
602.2596	0.0099
602.4502	0.0029
602.6407	0.0018
602.8312	-0.0072
603.0217	-0.0032
603.2122	0.0022
603.4027	0.0013
603.5931	-0.0032
603.7835	0.0063
603.9739	0.0103
604.1643	0.0088
604.3547	0.0032
604.5451	-0.0044
604.7354	0.003
604.9257	-0.0002
605.116	-0.0033
605.3063	0.0116
605.4966	-0.0026
605.6869	0.0158
605.8771	0.0015
606.0673	0.0052
606.2575	-0.0031
606.4477	-0.0002
606.6379	0.0064
606.8281	-0.0024
607.0182	0.0016
607.2083	0.003
607.3985	0.0017
607.5885	0.0019
607.7786	0.0043
607.9687	0.0027
608.1587	0.003
608.3488	0.0119
608.5388	0.0048
608.7288	0.0024
608.9187	0.0024
609.1087	0.0045
609.2986	0.0035
609.4886	-0.0046
609.6785	-0.0012
609.8684	0.0072
610.0582	0.0106
610.2481	0.0034
610.4379	-0.0027
610.6278	0.0057
610.8176	0.0061
611.0074	0.0016
611.1971	0.0057
611.3869	-0.0026
611.5766	0.0044
611.7664	0.0017
611.9561	0.0099
612.1458	0.0065
612.3354	0.0131
612.5251	0.0029
612.7147	-0.0037
612.9044	0.012
613.094	0.0032
613.2836	0.0053
613.4731	0.0049
613.6627	0.0058
613.8522	0.0134
614.0417	0.0105
614.2313	0.0059
614.4207	0.0129
614.6102	0.0039
614.7997	0.008
614.9891	0.0009
615.1785	0
615.3679	0.0099
615.5573	0.0053
615.7467	0.0017
615.9361	0.0042
616.1254	0.0024
616.3147	-0.0004
616.504	0.0036
616.6933	0.0038
616.8826	0.0088
617.0718	-0.0025
617.2611	0.0049
617.4503	0.0117
617.6395	0.0029
617.8287	0.0131
618.0179	0.0062
618.207	0.0073
618.3961	0.0082
618.5853	0.0101
618.7744	0.0059
618.9634	0.0049
619.1525	0.0057
619.3416	0.0077
619.5306	0.0094
619.7196	-0.0062
619.9086	0.0111
620.0976	0.01
620.2866	0.0047
620.4755	0.0095
620.6645	0.0112
620.8534	0.0042
621.0423	0.0077
621.2312	0.0038
621.42	0.0127
621.6089	0.0148
621.7977	0.0105
621.9865	0.0166
622.1753	0.0117
622.3641	0.0077
622.5529	0.0062
622.7416	0.0059
622.9303	0.012
623.1191	0.0031
623.3078	0.0043
623.4964	0.0055
623.6851	0.0109
623.8737	0.0115
624.0624	0.0009
624.251	0.008
624.4396	0.0097
624.6282	0.008
624.8167	0.0152
625.0053	-0.0018
625.1938	-0.0022
625.3823	0.0079
625.5708	0.0131
625.7593	0.0098
625.9477	0.0089
626.1362	0.008
626.3246	0.018
626.513	0.0011
626.7014	0.0018
626.8898	0.0116
627.0781	-0.0014
627.2665	0.0157
627.4548	0.0139
627.6431	0.0049
627.8314	0.0098
628.0197	0.0036
628.2079	0.0025
628.3962	0.0084
628.5844	0.013
628.7726	0.0061
628.9608	0.0071
629.1489	0.0107
629.3371	0.0106
629.5252	0.0091
629.7134	0.0104
629.9015	0.0047
630.0895	0.007
630.2776	-0.0009
630.4657	0.0092
630.6537	0.0121
630.8417	0.0026
631.0297	0.0151
631.2177	0.0108
631.4057	0.0071
631.5936	0.0085
631.7815	0.012
631.9695	0.0124
632.1574	0.0103
632.3452	0.0104
632.5331	-0.0019
632.7209	0.0045
632.9088	0.0045
633.0966	-0.0005
633.2844	-0.0009
633.4722	0.0053
633.6599	0.011
633.8477	0.0073
634.0354	0.0052
634.2231	0.0053
634.4108	0.0175
634.5985	0.0047
634.7861	0.0117
634.9738	0.0149
635.1614	0.0096
635.349	0.003
635.5366	0.0041
635.7242	0.006
635.9117	0.0091
636.0993	0.0105
636.2868	0.0044
636.4743	-0.0008
636.6618	0.0071
636.8492	0.0193
637.0367	0.0083
637.2241	0.0129
637.4115	0.0037
637.5989	0.0084
637.7863	0.0168
637.9737	0.0082
638.161	0.0133
638.3484	0.0036
638.5357	0.0092
638.723	0.0003
638.9103	0.0115
639.0975	0.0022
639.2848	0.0035
639.472	0.0051
639.6592	0.0034
639.8464	0.0051
640.0336	0.0054
640.2208	0.0052
640.4079	0.0083
640.595	0.0078
640.7821	0.0096
640.9692	0.0016
641.1563	0.0046
641.3434	0.0053
641.5304	0.0135
641.7174	0.0128
641.9044	0.0044
642.0914	0.0057
642.2784	-0.0069
642.4653	-0.0003
642.6523	-0.0036
642.8392	0.0055
643.0261	0.0085
643.213	0.0007
643.3999	0.003
643.5867	0.0017
643.7735	0.0076
643.9604	0.0047
644.1472	0.005
644.3339	0.0045
644.5207	0.0096
644.7075	0.0035
644.8942	0.0112
645.0809	0.0093
645.2676	0.0084
645.4543	0.0158
645.6409	0.006
645.8276	0.0052
646.0142	0.0083
646.2008	0.0167
646.3874	0.0117
646.574	0.011
646.7605	0.008
646.9471	0.011
647.1336	0.0099
647.3201	0.0105
647.5066	0.0018
647.6931	-0.0009
647.8795	-0.0026
648.0659	0.0058
648.2524	0.0115
648.4388	0.0063
648.6252	-0.0069
648.8115	0.0032
648.9979	0.0076
649.1842	0.0049
649.3705	-0.0041
649.5568	0.0013
649.7431	0.0078
649.9294	0.0126
650.1156	0.01
650.3018	0.0071
650.488	0.0016
650.6742	-0.0003
650.8604	0.0033
651.0466	0.007
651.2327	0.0089
651.4188	0.0075
651.6049	0.0172
651.791	0.0071
651.9771	0.0089
652.1632	0.0076
652.3492	0.0069
652.5352	0.0027
652.7212	0.0102
652.9072	-0.0028
653.0932	-0.004
653.2791	-0.0007
653.465	0.0054
653.651	0.005
653.8369	0.0036
654.0227	0.0105
654.2086	0.007
654.3944	0.0085
654.5803	0.0025
654.7661	0.008
654.9519	0.0016
655.1377	-0.0025
655.3234	-0.0028
655.5092	-0.0008
655.6949	-0.0056
655.8806	-0.0043
656.0663	-0.0003
656.2519	-0.0038
656.4376	0.0027
656.6232	-0.0025
656.8088	0.0062
656.9945	0.0034
657.18	0.0013
657.3656	0.0075
657.5511	-0.0007
657.7367	0.0026
657.9222	0.0011
658.1077	0.0108
658.2932	0.0047
658.4786	0.0021
658.6641	0.0041
658.8495	0.0021
659.0349	0.0023
659.2203	0.0073
659.4057	-0.0056
659.591	0.0081
659.7764	0.0009
659.9617	-0.0022
660.147	0.006
660.3323	0.0045
660.5176	0.0009
660.7028	0.0048
660.888	0.0075
661.0733	0.0054
661.2585	0.0091
661.4436	0.0092
661.6288	0.0134
661.8139	0.0069
661.9991	-0.0064
662.1842	0.0004
662.3693	0.002
662.5544	0.008
662.7394	0.0089
662.9245	0.0042
663.1095	0.0122
663.2945	0.0055
663.4795	0.0028
663.6644	0.0084
663.8494	0.0077
664.0343	0.0109
664.2193	0.0163
664.4042	0.0146
664.589	0.0042
664.7739	0.0014
664.9587	0.0086
665.1436	0.0041
665.3284	0.0024
665.5132	0.0003
665.698	0.0118
665.8827	0.011
666.0675	0.001
666.2522	0.0119
666.4369	0.0011
666.6216	0.0125
666.8063	0.0048
666.9909	0.0035
667.1756	0.0092
667.3602	0.0041
667.5448	0.0148
667.7294	0.0084
667.9139	0.0019
668.0985	0.0062
668.283	0.0002
668.4675	0.0133
668.652	0.0124
668.8365	-0.0055
669.0209	0.0064
669.2054	0.0055
669.3898	0.003
669.5742	0.0079
669.7586	0.005
669.943	-0.0005
670.1273	0.0122
670.3117	0.0054
670.496	-0.0019
670.6803	0.0038
670.8646	0.0089
671.0488	0.0167
671.2331	0.0102
671.4173	0.0143
671.6015	0.0043
671.7857	0.002
671.9699	0.0122
672.1541	0.0059
672.3382	0.0023
672.5223	0.0103
672.7064	0.0076
672.8905	0.0052
673.0746	0.0058
673.2587	0.0054
673.4427	0.0085
673.6267	0.0045
673.8107	0.0145
673.9947	0.0082
674.1787	0.0102
674.3626	0.0197
674.5465	0.0071
674.7304	0.0055
674.9143	0.0082
675.0982	0.0037
675.2821	0.0075
675.4659	0.0185
675.6497	0.0029
675.8335	0.015
676.0173	0.0032
676.2011	0.0086
676.3849	0.0092
676.5686	0.0166
676.7523	0.0179
676.936	0.0024
677.1197	0.0137
677.3034	0.0073
677.487	0.0062
677.6706	0.013
677.8542	0.0124
678.0378	0.0166
678.2214	0.0043
678.405	0.0203
678.5885	0.0108
678.772	0.0119
678.9555	0.0018
679.139	0.0175
679.3225	0.0111
679.5059	0.0169
679.6894	0.0034
679.8728	0.0058
680.0562	0.0144
680.2395	0.0088
680.4229	0.0018
680.6062	0.002
680.7896	0.0076
680.9729	-0.0021
681.1562	0.0041
681.3394	0.004
681.5227	0.0081
681.7059	0.001
681.8891	0.0069
682.0723	0.0002
682.2555	0.0063
682.4387	0.0037
682.6218	0.0122
682.805	0.007
682.9881	0.0093
683.1712	0.0137
683.3542	0.0079
683.5373	0.0156
683.7203	0.0221
683.9034	0.0076
684.0864	0
684.2694	0.0041
684.4523	0.0077
684.6353	0.0068
684.8182	0.0089
685.0011	0.0091
685.184	0.0021
685.3669	-0.0027
685.5498	-0.0027
685.7326	-0.0018
685.9154	0.011
686.0982	0.0167
686.281	0.0021
686.4638	-0.0013
686.6465	0.0109
686.8293	0.0049
687.012	0.0086
687.1947	0.0124
687.3774	0.0172
687.56	0.009
687.7427	0.0152
687.9253	0.0055
688.1079	0.0096
688.2905	0.0021
688.4731	0.0108
688.6556	0.0148
688.8382	0.0039
689.0207	0.0038
689.2032	0.008
689.3857	0.0104
689.5681	0.008
689.7506	0.0035
689.933	0.0041
690.1154	0.0059
690.2978	0.0014
690.4802	0.0062
690.6626	0.0103
690.8449	0.0121
691.0272	0.0024
691.2095	0.0117
691.3918	0.0045
691.5741	0.015
691.7563	0.0123
691.9386	0.0079
692.1208	-0.0031
692.303	0.0003
692.4852	0.0127
692.6673	0.0074
692.8495	0.0051
693.0316	0.0062
693.2137	0.01
693.3958	0.0126
693.5778	0.0102
693.7599	0.0128
693.9419	0.0067
694.1239	0.0197
694.3059	0.0193
694.4879	0.0042
694.6699	0.0057
694.8518	0.0119
695.0337	0.0113
695.2157	0.0076
695.3975	0.002
695.5794	0.0054
695.7613	-0.0002
695.9431	0.0155
696.1249	0.0058
696.3067	0.0007
696.4885	0.0054
696.6703	0.007
696.852	0.0099
697.0337	0.0134
697.2154	0.0123
697.3971	0.0081
697.5788	0.0088
697.7605	0.0058
697.9421	0.0063
698.1237	0.012
698.3053	0.0118
698.4869	0.01
698.6685	0.0031
698.85	0.0109
699.0315	0.0119
699.213	0.0052
699.3945	-0.0029
699.576	0.0146
699.7575	0.0124
699.9389	0.0146
700.1203	0.011
700.3017	0.0116
700.4831	0.0044
700.6645	-0.0065
700.8458	0.0134
701.0271	0.0055
701.2084	0.0034
701.3897	-0.0079
701.571	0.0022
701.7523	-0.0112
701.9335	-0
702.1147	0.008
702.2959	0.0039
702.4771	0.0026
702.6583	0.0082
702.8394	0.0045
703.0205	0.0098
703.2016	0.0081
703.3827	0.0044
703.5638	0.0074
703.7449	0.007
703.9259	0.0026
704.1069	0.0049
704.2879	0.0075
704.4689	0.0115
704.6499	0.004
704.8308	0.0059
705.0117	0.0012
705.1927	0.0065
705.3735	0.0031
705.5544	0.002
705.7353	0.0091
705.9161	0.0085
706.0969	0.0069
706.2777	0.0063
706.4585	0.0078
706.6393	0.0091
706.82	0.0033
707.0007	0.0063
707.1815	-0.006
707.3621	-0.0012
707.5428	0.0117
707.7235	0.004
707.9041	0.0048
708.0847	0.02
708.2653	0.0088
708.4459	0.0087
708.6265	0.0135
708.807	0.0168
708.9875	0.0205
709.168	0.0143
709.3485	0.0121
709.529	0.0059
709.7095	0.0154
709.8899	0.0064
710.0703	0.0042
710.2507	-0.0009
710.4311	0.0104
710.6115	0.0087
710.7918	0.0136
710.9721	0.0096
711.1524	0.0066
711.3327	0.003
711.513	0.0009
711.6932	0.0058
711.8735	0.0089
712.0537	-0.0015
712.2339	-0.007
712.4141	-0.0069
712.5942	-0.0049
712.7744	0.0134
712.9545	0.0064
713.1346	-0.0015
713.3147	-0.003
713.4947	-0.0035
713.6748	0.0031
713.8548	0.0052
714.0348	0.0093
714.2148	-0.005
714.3948	-0.0021
714.5748	0.0002
714.7547	-0.004
714.9346	-0.0001
715.1145	0.0093
715.2944	0.0037
715.4743	0.0048
715.6541	0.0107
715.834	-0.0026
716.0138	0.0124
716.1936	0.0166
716.3733	0.0133
716.5531	0.0196
716.7328	0.0082
716.9126	0.0036
717.0923	0.0092
717.2719	0.0119
717.4516	-0.0006
717.6312	0.0058
717.8109	-0.0043
717.9905	0.0036
718.1701	-0.0006
718.3496	0.0129
718.5292	0.0069
718.7087	-0.0092
718.8882	-0.0029
719.0677	0.0021
719.2472	0.0072
719.4267	0.0109
719.6061	0.0003
719.7856	0.0065
719.965	0.0063
720.1443	0.0063
720.3237	0.0107
720.5031	0.0041
720.6824	0.0103
720.8617	0.0017
721.041	-0.0021
721.2203	0.0045
721.3995	0.0035
721.5788	0.0156
721.758	-0.0037
721.9372	0.0186
722.1164	0.0076
722.2956	0.0026
722.4747	0.0134
722.6538	0.0013
722.8329	0.0057
723.012	0.0028
723.1911	0.0014
723.3702	0.0038
723.5492	0.0091
723.7282	0.0091
723.9072	0.0082
724.0862	0.0081
724.2652	0.0013
724.4441	0.0026
724.623	0.0154
724.8019	-0.0018
724.9808	0.0081
725.1597	0.0006
725.3385	0.0069
725.5174	0.008
725.6962	0.005
725.875	0.0069
726.0538	0.0076
726.2325	-0.0046
726.4112	0.0039
726.59	0.0068
726.7687	0.0027
726.9474	-0.006
727.126	0.0002
727.3047	-0.0022
727.4833	0.0059
727.6619	0.0018
727.8405	-0.0075
728.0191	0.0021
728.1976	-0.0017
728.3762	0.0136
728.5547	0.0004
728.7332	0.0006
728.9116	-0.0024
729.0901	0.0038
729.2686	-0.0125
729.447	-0.0032
729.6254	0.0101
729.8038	0.0037
729.9821	0.0062
730.1605	0.0072
730.3388	0.0029
730.5171	0.0112
730.6954	0.0103
730.8737	0.0016
731.0519	0.0062
731.2302	-0.0011
731.4084	-0
731.5866	-0.0004
731.7648	0.0103
731.9429	0.0031
732.1211	-0.0025
732.2992	0.0018
732.4773	-0.0071
732.6554	-0.0056
732.8335	-0.0038
733.0115	0.005
733.1896	-0.0021
733.3676	0.0026
733.5456	-0.002
733.7235	0.0034
733.9015	0.003
734.0794	-0.0017
734.2574	0.0131
734.4353	-0.0002
734.6131	-0.0061
734.791	0.0031
734.9689	0.0159
735.1467	0.0024
735.3245	-0.0026
735.5023	0.017
735.68	0.0105
735.8578	0.007
736.0355	0.0014
736.2132	0.0093
736.3909	0.0041
736.5686	0.0102
736.7463	0.0048
736.9239	0.0117
737.1015	0.013
737.2791	0.0049
737.4567	0.0002
737.6343	0.0088
737.8118	0.0098
737.9894	0.0072
738.1669	0.0178
738.3444	0.006
738.5218	0.002
738.6993	-0.0013
738.8767	0.0033
739.0541	0.0025
739.2315	0.0046
739.4089	0.0026
739.5863	0.0131
739.7636	0.0022
739.9409	0.0017
740.1182	0.0066
740.2955	0.0188
740.4728	0.0124
740.65	-0.0002
740.8272	0.0017
741.0044	0.0003
741.1816	0.0063
741.3588	0.0022
741.5359	0.0125
741.7131	0.004
741.8902	-0.0007
742.0673	0.0087
742.2444	0.0038
742.4214	0.0011
742.5985	0.0017
742.7755	-0.0046
742.9525	0.0027
743.1295	0.0038
743.3064	0.0031
743.4834	0.0077
743.6603	0.0003
743.8372	0.0014
744.0141	0.0046
744.191	0.0118
744.3678	-0.0073
744.5446	-0.0006
744.7215	0.0159
744.8982	0.0086
745.075	-0.0002
745.2518	-0.0074
745.4285	-0.0031
745.6052	0.0024
745.7819	-0.0026
745.9586	0.0001
746.1353	-0.0051
746.3119	0.0012
746.4885	0.0058
746.6651	0.0066
746.8417	-0.0023
747.0183	0.004
747.1948	0.0003
747.3714	0.011
747.5479	0.0002
747.7244	0.0092
747.9008	0.0035
748.0773	0.0041
748.2537	0.0005
748.4301	0.002
748.6065	0.004
748.7829	-0.0018
748.9593	0.0029
749.1356	0.0034
749.3119	0.0158
749.4882	0.0104
749.6645	0.0045
749.8408	0.0028
750.017	0.0076
750.1933	0.0124
750.3695	0.0065
750.5457	0.0177
750.7218	0.0055
750.898	0.0178
751.0741	0.0137
751.2502	0.0139
751.4263	0.0082
751.6024	0.0074
751.7784	0.0036
751.9545	0.0099
752.1305	0.0124
752.3065	0.0089
752.4825	0.005
752.6584	0.0108
752.8344	0.0096
753.0103	0.0021
753.1862	0.0042
753.3621	0.0035
753.5379	-0.0013
753.7138	0.0035
753.8896	0.0075
754.0654	0.0011
754.2412	-0.0041
754.417	-0.0024
754.5927	0.009
754.7685	0.0059
754.9442	0.0086
755.1199	0.0082
755.2956	0.0152
755.4712	-0.0013
755.6469	0.0124
755.8225	0.0106
755.9981	0.008
756.1736	-0.0086
756.3492	0.0126
756.5248	0.0144
756.7003	0.0109
756.8758	0.0121
757.0513	0.0131
757.2267	0.0064
757.4022	0.0035
757.5776	0.0049
757.753	0.006
757.9284	0.0075
758.1038	-0.0059
758.2791	0.0024
758.4545	0.0118
758.6298	0.01
758.8051	0.0065
758.9803	0.0085
759.1556	0.0051
759.3308	0.0082
759.506	0.0135
759.6812	0.004
759.8564	0.0065
760.0316	0.0056
760.2067	0.0033
760.3819	0.0005
760.557	0.003
760.732	0.0074
760.9071	0.0018
761.0821	0.0086
761.2572	0.0165
761.4322	0.0042
761.6072	-0.0028
761.7821	0.0027
761.9571	0.0153
762.132	0.0061
762.3069	0.0076
762.4818	0.0051
762.6567	0.0091
762.8316	0.0025
763.0064	-0.0044
763.1812	0.0072
763.356	0.0033
763.5308	0.0032
763.7055	0.0031
763.8803	0.0071
764.055	-0.0029
764.2297	0.0129
764.4044	-0.0009
764.579	0.0064
764.7537	0.0044
764.9283	0.0172
765.1029	0.0095
765.2775	0.0018
765.4521	0.0035
765.6266	0.004
765.8011	0.0061
765.9756	-0.0055
766.1501	0.0058
766.3246	-0.0068
766.4991	0.0004
766.6735	-0.0018
766.8479	0.0018
767.0223	-0.0047
767.1967	0.0026
767.371	0.0015
767.5454	-0.0001
767.7197	0.0042
767.894	0.0047
768.0683	0.0083
768.2425	0.0029
768.4168	-0.0047
768.591	0.006
768.7652	0.0073
768.9394	-0.005
769.1135	0.0208
769.2877	-0.0099
769.4618	0.0062
769.6359	0.0127
769.81	-0.0037
769.984	0.0159
770.1581	0.0038
770.3321	0.0064
770.5061	-0.0015
770.6801	-0.0015
770.8541	-0.0064
771.028	0.0124
771.202	0.0023
771.3759	-0.0057
771.5498	0.0081
771.7236	0.0079
771.8975	0.0058
772.0713	0.0078
772.2451	0.0087
772.4189	-0.0014
772.5927	0.0092
772.7665	-0.0054
772.9402	-0.001
773.1139	0.0032
773.2876	0.0052
773.4613	-0.0023
773.635	0.0051
773.8086	-0.0023
773.9822	0.0214
774.1558	0.0011
774.3294	0.0128
774.503	-0.0063
774.6765	0.019
774.8501	0.0114
775.0236	0.0114
775.1971	0.0171
775.3705	0.0186
775.544	0.0111
775.7174	0.013
775.8908	0.0103
776.0642	0.0129
776.2376	0.0041
776.4109	-0.0009
776.5843	0.0051
776.7576	0.0057
776.9309	-0.0014
777.1041	0.0116
777.2774	-0.0011
777.4506	0.0043
777.6238	0.003
777.797	0.0167
777.9702	0.0013
778.1434	0.0195
778.3165	-0.0012
778.4896	0.0113
778.6627	0.0032
778.8358	0.0166
779.0089	0.0071
779.1819	0.003
779.3549	0.0044
779.5279	0.0065
779.7009	-0.001
779.8739	0.0022
780.0468	0.0234
780.2197	0.0091
780.3926	0.0006
780.5655	-0.0004
780.7384	-0.0022
780.9112	0.0162
781.0841	-0.0093
781.2569	-0.0076
781.4297	-0.0227
781.6024	0.0066
781.7752	-0.015
781.9479	0.0054
782.1206	0.0022
782.2933	-0.0048
782.466	-0.006
782.6386	0.0233
782.8113	-0.0066
782.9839	-0.0055
783.1565	-0.0012
783.329	-0.0076
783.5016	0.0035
783.6741	0.0047
783.8466	-0.0017
784.0191	0.0081
784.1916	-0.0025
784.3641	0.0001
784.5365	0.0031
784.7089	-0.007
784.8813	-0.0019
785.0537	-0.0149
785.2261	0.0035
785.3984	0.0014
785.5707	0.0066
785.743	0.0089
785.9153	0.0014
786.0876	0.0103
786.2598	-0.0103
786.432	0.0126
786.6042	0.0047
786.7764	0.0073
786.9486	-0.0097
787.1207	0.0065
787.2928	-0.0047
787.4649	0.0018
787.637	0.0023
787.8091	0.0037
787.9811	-0.0069
788.1532	-0.0014
788.3252	0.0005
788.4972	-0.0041
788.6691	-0.004
788.8411	-0.0026
789.013	-0.0009
789.1849	0.0149
789.3568	0.0205
789.5287	0.0056
789.7005	0.0069
789.8723	0.0092
790.0442	0.0008
790.2159	-0.0005
790.3877	0.015
790.5595	-0.0014
790.7312	-0.0059
790.9029	0.0076
791.0746	-0.0041
791.2463	0.0188
791.4179	0.0117
791.5896	0.0164
791.7612	0.024
791.9328	0.0041
792.1044	0.0147
792.2759	0.0001
792.4474	0.0131
792.619	0.0119
792.7905	0.0273
792.9619	0.0056
793.1334	0.0236
793.3048	0.0166
793.4762	0.0093
793.6476	-0.0056
793.819	0.0043
793.9904	0.0096
794.1617	-0.0027
794.333	0.0001
794.5043	-0.0072
794.6756	-0.0116
794.8469	0.0031
795.0181	0.0035
795.1893	-0.0014
795.3605	0.0156
795.5317	-0.0147
795.7029	0.0053
795.874	-0.0027
796.0452	0.0011
796.2163	0.0127
796.3873	-0.0035
796.5584	0.0149
796.7294	-0.0079
796.9005	0.0024
797.0715	0.0112
797.2425	0.0047
797.4134	0.0313
797.5844	0.0059
797.7553	0.0076
797.9262	0.0083
798.0971	0.0176
798.2679	0.0114
798.4388	0.0025
798.6096	0.0013
798.7804	0.0065
798.9512	0.0115
799.122	0.0005
799.2927	0.0092
799.4635	0.0034
799.6342	0.0239
799.8049	0.0025
799.9755	0.0117
800.1462	0.0032
800.3168	0.0063
800.4874	0.0032
800.658	0.0083
800.8286	0.0122
800.9991	0.0184
801.1696	0.0166
801.3402	0.0151
801.5106	0.0104
801.6811	0.0071
801.8516	0.02
802.022	0.0035
802.1924	-0.0063
802.3628	0.0125
802.5332	0.0057
802.7035	0.0082
802.8739	-0.0044
803.0442	0.0081
803.2145	0.0077
803.3847	-0.0069
803.555	0.0052
803.7252	0.022
803.8954	-0.0011
804.0656	0.0012
804.2358	0.0124
804.4059	0.0186
804.5761	0.0142
804.7462	0.001
804.9163	0.0075
805.0864	0.0105
805.2564	0.0109
805.4264	-0.0045
805.5965	0.013
805.7665	0.0206
805.9364	-0.0123
806.1064	0.0052
806.2763	0.0069
806.4462	0.0235
806.6161	-0.0003
806.786	0.0204
806.9559	0.0131
807.1257	-0.0058
807.2955	0.0226
807.4653	0.0209
807.6351	0.0076
807.8048	0.0048
807.9746	0.021
808.1443	-0.0088
808.314	0.0077
808.4837	0.0156
808.6533	0.0013
808.8229	0.0231
808.9926	0.0095
809.1622	0.0243
809.3317	0.0203
809.5013	0.0172
809.6708	0.0192
809.8403	0.0215
810.0098	0.0231
810.1793	-0.0074
810.3488	0.0029
810.5182	0.0263
810.6876	0.007
810.857	0.0087
811.0264	-0.0026
811.1958	0.019
811.3651	0.0007
811.5344	0.0272
811.7037	0.0081
811.873	0.0093
812.0422	0.002
812.2115	0.0176
812.3807	0.0252
812.5499	0.0132
812.7191	0.0224
812.8882	0.015
813.0574	0.0071
813.2265	0.0219
813.3956	0.001
813.5646	0.0082
813.7337	0.0173
813.9027	0.0112
814.0718	0.0286
814.2407	0.0063
814.4097	0.0198
814.5787	0.0114
814.7476	0.0043
814.9165	0.0081
815.0854	-0.0068
815.2543	0.0077
815.4232	0.013
815.592	0.0002
815.7608	0.027
815.9296	0.0109
816.0984	-0.0061
816.2671	-0.0117
816.4359	0.0023
816.6046	0.0046
816.7733	0.0152
816.942	0.0088
817.1106	0.0025
817.2793	-0.0051
817.4479	-0.0016
817.6165	-0.0126
817.785	0.0011
817.9536	0.0011
818.1221	-0.0141
818.2906	-0.0076
818.4591	0.0083
818.6276	0.0069
818.7961	-0.0035
818.9645	-0.0095
819.1329	0.0141
819.3013	0.0158
819.4697	0.0233
819.638	0.0065
819.8064	0.0025
819.9747	0.0016
820.143	0.0036
820.3113	0.0103
820.4795	-0.0076
820.6477	-0.015
820.816	-0.0299
820.9842	0.0048
821.1523	0.0036
821.3205	0.0109
821.4886	0.0181
821.6567	-0.0058
821.8248	-0.0043
821.9929	-0.009
822.1609	-0.0061
822.329	0.0141
822.497	-0.0196
822.665	-0.0178
822.833	-0.0134
823.0009	-0.0031
823.1688	-0.0044
823.3367	-0.0034
823.5046	-0.0211
823.6725	-0.0408
823.8404	-0.0241
824.0082	0.0063
824.176	0.0098
824.3438	-0.0109
824.5116	-0.0017
824.6793	-0.0082
824.847	0.0206
825.0147	0.006
825.1824	-0.0122
825.3501	-0.0315
825.5177	-0.0326
825.6854	-0.0083
825.853	0.0308
826.0206	0.0064
826.1881	0.0401
826.3557	0.0133
826.5232	-0.0005
826.6907	0.0147
826.8582	0.0206
827.0257	0.0178
827.1931	0.0525
827.3605	0.0122
827.528	0.0158
827.6953	0.032
827.8627	0.0221
828.03	0.0436
828.1974	0.0297
828.3647	0.0243
828.532	-0.0201
828.6992	0.0003
828.8665	0.0303
829.0337	0.0016
829.2009	0.0162
829.3681	-0.004
829.5352	0.0068
829.7024	0.0151
829.8695	0.0415
830.0366	0.0017
830.2037	0.0154
830.3707	0.0398
830.5378	-0.0182
830.7048	-0.0093
830.8718	-0.0098
831.0388	-0.0023
831.2057	-0.0206
831.3727	0.0023
831.5396	-0.011
831.7065	-0.0119
831.8734	0.0154
832.0402	0.0267
832.2071	-0.0076
832.3739	0.0185
832.5407	0.006
832.7075	-0.0007
832.8742	0.0061
833.041	-0.0101
833.2077	-0.0204
833.3744	0.0538
833.541	0.0343
833.7077	0.0379
833.8743	0.0358
834.0409	0.0345
834.2075	0.0225
834.3741	0.0109
834.5407	0.006
834.7072	-0.0167
834.8737	0.0295
835.0402	-0.012
835.2067	-0.0076
835.3731	-0.0027
835.5395	-0.0241
835.706	0.032
835.8723	-0.0338
836.0387	0.0267
836.2051	0.013
836.3714	-0.0564
836.5377	-0.0333
836.704	-0.0248
836.8703	-0.0191
837.0365	-0.0395
837.2027	0.0074
837.3689	0.0122
837.5351	0.0115
837.7013	-0.0512
837.8674	0.0011
838.0335	-0.0196
838.1997	-0.0516
838.3657	-0.0422
838.5318	0.0056
838.6978	-0.0211
838.8639	-0.004
839.0299	0.0417
839.1958	-0.0111
839.3618	-0.0197
839.5277	0.0073
839.6937	-0.017
839.8596	-0.0229
840.0254	0.0127
840.1913	0.0511
840.3571	-0.0277
840.523	0.0286
840.6888	0.0071
840.8545	-0.0042
841.0203	0.0472
841.186	0.0067
841.3517	-0.0198
841.5174	-0.0302
841.6831	0.0233
841.8488	-0.0128
842.0144	0.0682
842.18	0.0582
842.3456	0.0331
842.5112	-0.0062
842.6767	0.0246
842.8422	-0.0205
843.0077	-0.0189
843.1732	-0.0155
843.3387	-0.0334
843.5042	0.003
843.6696	0.0149
843.835	0.0007
844.0004	-0.0264
844.1657	0.0367
844.3311	-0.0175
844.4964	-0.0386
844.6617	-0.0665
844.827	0.0319
844.9923	-0.0323
845.1575	0.0035
845.3227	-0.0121
845.4879	-0.0234
845.6531	-0.0301
845.8183	-0.0473
845.9834	-0.0274
846.1485	-0.029
846.3136	-0.0629
846.4787	0.0041
846.6438	0.058
846.8088	-0.043
846.9738	-0.0583
847.1388	0.0748
847.3038	-0.0446
847.4687	0.0022
847.6337	-0.116
847.7986	0.0756
847.9635	-0.022
848.1284	-0.0287
848.2932	-0.0031
848.458	0.0273
848.6228	0.0159
848.7876	-0.0223
848.9524	-0.0332
849.1172	-0.0005
849.2819	0.0653
849.4466	-0.0332
849.6113	0.0158
849.7759	-0.087
849.9406	0.024
850.1052	-0.0704
850.2698	0.0425
850.4344	0.0558
850.599	-0.024
850.7635	0.087
850.928	0.0213
851.0925	0.0568
851.257	0.0696
851.4215	-0.0654
851.5859	-0.012
851.7503	0.0418
851.9147	0.0665
852.0791	0.0673
852.2434	0.0194
852.4078	-0.0788
852.5721	0.1437
852.7364	-0.0231
852.9007	-0.156
853.0649	-0.0059
853.2291	0.1596
853.3934	-0.0024
853.5575	-0.0857
853.7217	0.0809
853.8859	-0.0139
854.05	-0.0401
854.2141	0.0186
854.3782	0.081
854.5423	0.0483
854.7063	-0.0175
854.8703	-0.0582
855.0343	-0.0378
855.1983	0.0017
855.3623	-0.0436
855.5262	0.0192
855.6901	-0.1699
855.854	-0.1079
856.0179	-0.1063
856.1818	0.0067
856.3456	-0.0272
856.5094	-0.0008
856.6732	-0.0422
856.837	0.0208
857.0008	-0.1205
857.1645	0.0242
857.3282	0.1836
857.4919	-0.0094
857.6556	-0.0102
857.8192	-0.0773
857.9828	-0.0171
858.1465	-0.0702
858.31	0.091
858.4736	0.2429
858.6372	-0.1099
858.8007	-0.3363
858.9642	0.0348
859.1277	-0.1813
859.2911	-0.14
859.4546	0.0139
859.618	-0.4185
859.7814	0.0071
859.9448	-0.1614
860.1081	-0.0649
860.2715	0.218
860.4348	0.0114
860.5981	0.131
860.7614	0.1181
860.9246	0.0287
861.0879	-0.1587
861.2511	0.0853
861.4143	-0.1198
861.5774	-0.0978
861.7406	-0.0793
861.9037	-0.318
862.0668	-0.0181
862.2299	-0.054
862.393	0.0689
862.556	0.2582
862.7191	0.0514
862.8821	-0.2097
863.0451	-0.1299
863.208	0.095
863.371	-0.2537
863.5339	-0.0672
863.6968	-0.3611
863.8597	-0.1065
864.0225	0.0281
864.1854	0.0342
864.3482	0.1101
864.511	-0.1264
864.6737	-0.18
864.8365	0.2178
864.9992	-0.0233
865.1619	0.0683
865.3246	0.2281
865.4873	-0.2615
865.65	-0.2241
865.8126	-0.3411
865.9752	-0.0437
866.1378	0.1902
866.3004	-0
866.4629	-0.0164
866.6254	-0.1217
866.7879	-0.032
866.9504	0.1374
867.1129	0.0555
867.2753	0.1058
867.4377	-0.4837
867.6001	0.0381
867.7625	0.9702
867.9249	-0.4946
868.0872	0.3293
868.2495	-0
868.4118	-0.1763
868.5741	0.1913
868.7363	0.7409
868.8986	-0.0491
869.0608	-0.4126
869.223	-0.0164
869.3851	-0.1123
869.5473	0.0517
869.7094	0.1404
869.8715	1.0464
870.0336	-0
870.1957	-0
870.3577	-0.362
870.5197	-0
870.6817	-0.0623
870.8437	0.0965
871.0057	-0.1767
871.1676	-0.1196
871.3295	0.2374
871.4914	-0
871.6533	-0.1147
871.8151	-0.0198
871.977	-0.6298
872.1388	0.7465
872.3006	0.0101
872.4623	0.4972
872.6241	-0
872.7858	-0.02
872.9475	0.7889
873.1092	-0.1023
873.2709	-0
873.4325	0.4709
873.5941	-0
873.7557	-0.7175
873.9173	-0.0623
874.0789	0.3753
874.2404	-0
874.4019	-0.113
874.5634	-0.2212
874.7249	0.3877
874.8863	0.4474
875.0478	0.5911
875.2092	0.6186
875.3706	-0.2248
875.5319	-0
875.6933	0.2255
875.8546	-0.2556
876.0159	-0.1132
876.1772	-0.4796
876.3385	-0.3247
876.4997	-0
876.6609	-0
876.8221	-0.7821
876.9833	-0.8745
877.1445	-0.2013
877.3056	-0.2781
877.4667	-0.1106
877.6278	0.3766
877.7889	-0
877.9499	0.0873
878.111	0.8904
878.272	-0.1858
878.433	0.1846
878.5939	0.0645
878.7549	0.152
878.9158	-0.1382
879.0767	-0.19
879.2376	0.1577
879.3984	-0
879.5593	-0.3107
879.7201	0.2257
879.8809	-0
880.0417	0.8833
880.2024	2.3444
880.3632	1.4457
880.5239	-0
880.6846	-0.6519
880.8452	0.2278
881.0059	0.8562
881.1665	-0
881.3271	-0.149
881.4877	-0
881.6483	0.6681
881.8088	-0.4706
881.9693	-0
882.1298	-0
882.2903	-0
