Data from MonoPyChalIsomerACN10uM400nmA_Absorbance_12-08-43-128.txt Node
Date: Fri Jul 05 12:08:43 BST 2024
User: LASERRRRR
Spectrometer: FLMT03099
Trigger mode: 0
Integration Time (sec): 1.000000E-1
Scans to average: 1
Electric dark correction enabled: true
Nonlinearity correction enabled: false
Boxcar width: 0
XAxis mode: Wavelengths
Number of Pixels in Spectrum: 3648
>>>>>Begin Spectral Data<<<<<
179.3399	0.5365
179.5586	0.5365
179.7771	0.5365
179.9957	0.2521
180.2143	-0.4828
180.4329	-0
180.6514	-0.3463
180.8699	-0.1973
181.0885	-0.1924
181.307	-0.026
181.5255	0.5617
181.744	0.7498
181.9625	-0.5413
182.181	0.1749
182.3994	-0
182.6179	-0.4721
182.8363	-0.2326
183.0547	0.3605
183.2732	0.0481
183.4916	0.0119
183.71	0.4337
183.9284	-0.0033
184.1467	0.1451
184.3651	0.035
184.5835	0.1379
184.8018	-0.0101
185.0201	0.2647
185.2385	0.4352
185.4568	0.0483
185.6751	0.2018
185.8934	0.0458
186.1117	0.1222
186.3299	0.0757
186.5482	-0.0439
186.7664	0.1987
186.9847	0.7659
187.2029	0.0353
187.4211	-0.1108
187.6393	-0.0194
187.8575	0.0585
188.0757	0.2604
188.2939	0.0424
188.512	0.1759
188.7302	0.011
188.9483	0.1725
189.1665	0.1015
189.3846	0.1009
189.6027	0.1359
189.8208	0.1822
190.0389	0.2415
190.257	0.1479
190.475	0.165
190.6931	0.3169
190.9111	0.6907
191.1292	0.3091
191.3472	0.4842
191.5652	0.3316
191.7832	0.5338
192.0012	0.382
192.2192	0.47
192.4371	0.3912
192.6551	0.4354
192.873	0.6566
193.091	0.4894
193.3089	0.4724
193.5268	0.7603
193.7447	0.5766
193.9626	0.7222
194.1805	0.5757
194.3984	0.4089
194.6162	0.5522
194.8341	0.6984
195.0519	1.1276
195.2697	0.5569
195.4875	0.7477
195.7054	0.402
195.9231	0.5263
196.1409	0.5862
196.3587	0.6373
196.5765	0.7152
196.7942	0.8536
197.012	0.9013
197.2297	0.7565
197.4474	0.7646
197.6651	0.6956
197.8828	0.669
198.1005	0.896
198.3182	0.7486
198.5358	1.1274
198.7535	0.6182
198.9711	0.658
199.1888	0.7962
199.4064	0.6348
199.624	0.7833
199.8416	0.6173
200.0592	0.8021
200.2767	0.5801
200.4943	0.7541
200.7119	0.8463
200.9294	0.873
201.1469	0.9989
201.3645	0.7528
201.582	0.6725
201.7995	0.828
202.017	0.9715
202.2344	0.7318
202.4519	0.7832
202.6694	0.9345
202.8868	0.819
203.1042	0.6719
203.3217	0.7156
203.5391	0.9406
203.7565	0.7655
203.9739	0.7517
204.1913	1.1115
204.4086	0.8459
204.626	0.8576
204.8433	1.2322
205.0607	0.7474
205.278	0.8348
205.4953	0.8852
205.7126	0.6684
205.9299	0.9099
206.1472	0.9384
206.3644	0.6564
206.5817	0.7655
206.7989	0.6608
207.0162	0.9006
207.2334	0.7903
207.4506	0.7321
207.6678	0.7692
207.885	0.7882
208.1022	0.7278
208.3194	0.6999
208.5365	0.8345
208.7537	0.8715
208.9708	0.7492
209.1879	0.722
209.405	0.6856
209.6222	0.9076
209.8392	0.7767
210.0563	0.8305
210.2734	0.83
210.4905	0.9207
210.7075	0.8077
210.9245	0.7236
211.1416	0.7832
211.3586	0.8499
211.5756	0.7171
211.7926	0.805
212.0096	0.7106
212.2265	0.7077
212.4435	0.6916
212.6604	0.7548
212.8774	0.7847
213.0943	0.7623
213.3112	0.7528
213.5281	0.6292
213.745	0.7114
213.9619	0.7003
214.1788	0.6919
214.3956	0.6899
214.6125	0.6817
214.8293	0.6763
215.0461	0.6457
215.2629	0.6564
215.4798	0.6619
215.6965	0.6634
215.9133	0.6988
216.1301	0.6141
216.3469	0.6883
216.5636	0.6384
216.7803	0.668
216.9971	0.6264
217.2138	0.6664
217.4305	0.6321
217.6472	0.5884
217.8639	0.6
218.0805	0.6087
218.2972	0.5583
218.5138	0.5656
218.7305	0.5654
218.9471	0.5466
219.1637	0.5636
219.3803	0.508
219.5969	0.5754
219.8135	0.5416
220.0301	0.5706
220.2466	0.6014
220.4632	0.5328
220.6797	0.5642
220.8962	0.5448
221.1127	0.538
221.3292	0.5453
221.5457	0.5628
221.7622	0.5644
221.9787	0.5339
222.1951	0.5497
222.4116	0.557
222.628	0.5987
222.8444	0.5512
223.0608	0.5725
223.2772	0.5645
223.4936	0.563
223.71	0.6293
223.9264	0.566
224.1427	0.549
224.3591	0.5878
224.5754	0.5682
224.7917	0.5335
225.008	0.5837
225.2243	0.5831
225.4406	0.573
225.6569	0.5563
225.8732	0.5793
226.0894	0.5745
226.3057	0.5665
226.5219	0.5623
226.7381	0.5786
226.9543	0.5907
227.1705	0.5516
227.3867	0.5514
227.6029	0.5366
227.8191	0.5761
228.0352	0.5977
228.2513	0.5739
228.4675	0.59
228.6836	0.6104
228.8997	0.547
229.1158	0.5814
229.3319	0.5732
229.548	0.6074
229.764	0.6137
229.9801	0.6001
230.1961	0.5813
230.4121	0.6212
230.6282	0.5954
230.8442	0.5833
231.0602	0.5611
231.2761	0.5879
231.4921	0.5941
231.7081	0.5726
231.924	0.5897
232.14	0.5875
232.3559	0.6008
232.5718	0.6057
232.7877	0.5682
233.0036	0.5991
233.2195	0.5849
233.4353	0.5812
233.6512	0.5723
233.867	0.5823
234.0829	0.5519
234.2987	0.5566
234.5145	0.5526
234.7303	0.5979
234.9461	0.5821
235.1619	0.5965
235.3776	0.5715
235.5934	0.5394
235.8091	0.5706
236.0249	0.5322
236.2406	0.5789
236.4563	0.5839
236.672	0.5794
236.8877	0.5641
237.1034	0.5321
237.319	0.543
237.5347	0.5545
237.7503	0.5741
237.966	0.5448
238.1816	0.5816
238.3972	0.5289
238.6128	0.5561
238.8284	0.5494
239.0439	0.5531
239.2595	0.5247
239.475	0.5507
239.6906	0.5342
239.9061	0.5174
240.1216	0.5135
240.3371	0.5293
240.5526	0.5272
240.7681	0.5077
240.9836	0.555
241.199	0.5113
241.4145	0.5108
241.6299	0.4941
241.8453	0.4665
242.0607	0.4848
242.2761	0.4859
242.4915	0.4492
242.7069	0.4586
242.9223	0.4605
243.1376	0.4374
243.353	0.4609
243.5683	0.4232
243.7836	0.4188
243.9989	0.4409
244.2142	0.412
244.4295	0.4048
244.6448	0.3839
244.86	0.3805
245.0753	0.3776
245.2905	0.3812
245.5057	0.3719
245.721	0.3569
245.9362	0.3493
246.1514	0.3469
246.3665	0.3149
246.5817	0.3391
246.7969	0.3304
247.012	0.3191
247.2271	0.3309
247.4423	0.3159
247.6574	0.301
247.8725	0.3095
248.0876	0.2976
248.3026	0.2906
248.5177	0.3025
248.7328	0.2901
248.9478	0.2876
249.1628	0.2561
249.3779	0.2693
249.5929	0.2663
249.8079	0.261
250.0228	0.2493
250.2378	0.2503
250.4528	0.2478
250.6677	0.2403
250.8827	0.2275
251.0976	0.2336
251.3125	0.2457
251.5274	0.248
251.7423	0.2471
251.9572	0.2418
252.172	0.2226
252.3869	0.2319
252.6017	0.2293
252.8166	0.2249
253.0314	0.2004
253.2462	0.2191
253.461	0.2181
253.6758	0.1998
253.8906	0.2267
254.1053	0.2043
254.3201	0.2097
254.5348	0.2105
254.7496	0.2201
254.9643	0.2038
255.179	0.1856
255.3937	0.2083
255.6083	0.1973
255.823	0.1999
256.0377	0.188
256.2523	0.1982
256.467	0.1914
256.6816	0.2015
256.8962	0.2047
257.1108	0.2002
257.3254	0.1977
257.54	0.1866
257.7545	0.2
257.9691	0.1983
258.1836	0.1763
258.3981	0.19
258.6127	0.1809
258.8272	0.1949
259.0417	0.1837
259.2561	0.1849
259.4706	0.1888
259.6851	0.1964
259.8995	0.1944
260.114	0.1954
260.3284	0.196
260.5428	0.183
260.7572	0.199
260.9716	0.1988
261.186	0.1962
261.4003	0.1933
261.6147	0.1959
261.829	0.1923
262.0433	0.1817
262.2577	0.1917
262.472	0.1786
262.6863	0.1901
262.9005	0.1863
263.1148	0.1791
263.3291	0.183
263.5433	0.1835
263.7576	0.1991
263.9718	0.1863
264.186	0.1784
264.4002	0.1922
264.6144	0.1823
264.8286	0.192
265.0427	0.1916
265.2569	0.199
265.471	0.1912
265.6851	0.1772
265.8993	0.2007
266.1134	0.1874
266.3275	0.1841
266.5415	0.1812
266.7556	0.1867
266.9697	0.1928
267.1837	0.1898
267.3978	0.1975
267.6118	0.1899
267.8258	0.2015
268.0398	0.1828
268.2538	0.1936
268.4677	0.1886
268.6817	0.1839
268.8957	0.176
269.1096	0.1869
269.3235	0.1866
269.5374	0.1788
269.7514	0.1629
269.9652	0.1792
270.1791	0.1808
270.393	0.1829
270.6068	0.1903
270.8207	0.1897
271.0345	0.1632
271.2483	0.1911
271.4622	0.175
271.676	0.1768
271.8897	0.193
272.1035	0.181
272.3173	0.1881
272.531	0.1657
272.7448	0.166
272.9585	0.1681
273.1722	0.1826
273.3859	0.1817
273.5996	0.1784
273.8133	0.1755
274.0269	0.1781
274.2406	0.1764
274.4542	0.1777
274.6679	0.1695
274.8815	0.1672
275.0951	0.1906
275.3087	0.1728
275.5223	0.1879
275.7358	0.1859
275.9494	0.1765
276.1629	0.1746
276.3765	0.1855
276.59	0.1769
276.8035	0.1835
277.017	0.1644
277.2305	0.1867
277.444	0.1759
277.6574	0.1709
277.8709	0.1773
278.0843	0.1821
278.2978	0.1756
278.5112	0.1795
278.7246	0.1733
278.938	0.1799
279.1513	0.1906
279.3647	0.1773
279.5781	0.1845
279.7914	0.1854
280.0047	0.1694
280.2181	0.1949
280.4314	0.1803
280.6447	0.1808
280.8579	0.1903
281.0712	0.1804
281.2845	0.1849
281.4977	0.1805
281.711	0.1807
281.9242	0.1913
282.1374	0.1717
282.3506	0.1807
282.5638	0.1867
282.7769	0.1829
282.9901	0.1926
283.2033	0.1797
283.4164	0.1725
283.6295	0.1811
283.8426	0.1805
284.0557	0.1786
284.2688	0.1734
284.4819	0.1791
284.695	0.1913
284.908	0.1792
285.1211	0.1941
285.3341	0.1823
285.5471	0.1887
285.7601	0.1817
285.9731	0.1942
286.1861	0.1788
286.3991	0.1768
286.612	0.1884
286.825	0.1824
287.0379	0.1976
287.2508	0.1763
287.4637	0.1788
287.6766	0.1876
287.8895	0.1753
288.1024	0.1835
288.3152	0.1908
288.5281	0.1921
288.7409	0.183
288.9538	0.1668
289.1666	0.174
289.3794	0.1773
289.5922	0.1771
289.8049	0.1793
290.0177	0.1787
290.2304	0.1813
290.4432	0.1655
290.6559	0.1906
290.8686	0.1762
291.0813	0.1776
291.294	0.1762
291.5067	0.1836
291.7194	0.1767
291.932	0.1752
292.1447	0.1907
292.3573	0.1896
292.5699	0.1809
292.7825	0.1721
292.9951	0.1929
293.2077	0.1968
293.4203	0.1819
293.6328	0.1891
293.8454	0.1781
294.0579	0.1815
294.2704	0.1777
294.4829	0.1867
294.6954	0.1806
294.9079	0.1778
295.1204	0.1829
295.3328	0.1707
295.5453	0.1749
295.7577	0.17
295.9701	0.1798
296.1825	0.1837
296.3949	0.1834
296.6073	0.1861
296.8197	0.1721
297.0321	0.1768
297.2444	0.1824
297.4567	0.1764
297.6691	0.1773
297.8814	0.188
298.0937	0.1817
298.306	0.1747
298.5182	0.1836
298.7305	0.1807
298.9428	0.1761
299.155	0.1767
299.3672	0.1631
299.5794	0.1756
299.7916	0.1732
300.0038	0.1692
300.216	0.1734
300.4282	0.1736
300.6403	0.188
300.8525	0.1776
301.0646	0.1742
301.2767	0.1863
301.4888	0.1746
301.7009	0.1694
301.913	0.1806
302.125	0.166
302.3371	0.1699
302.5491	0.1759
302.7612	0.1551
302.9732	0.1726
303.1852	0.178
303.3972	0.1712
303.6092	0.1741
303.8211	0.17
304.0331	0.1759
304.245	0.162
304.457	0.1743
304.6689	0.1618
304.8808	0.1624
305.0927	0.1611
305.3046	0.1582
305.5164	0.1624
305.7283	0.1626
305.9401	0.1693
306.152	0.1603
306.3638	0.1653
306.5756	0.158
306.7874	0.1427
306.9992	0.1511
307.2109	0.1547
307.4227	0.1596
307.6344	0.1549
307.8462	0.1361
308.0579	0.1546
308.2696	0.1518
308.4813	0.1326
308.693	0.1393
308.9046	0.1372
309.1163	0.1294
309.328	0.1412
309.5396	0.1404
309.7512	0.1302
309.9628	0.1359
310.1744	0.1234
310.386	0.124
310.5976	0.1241
310.8091	0.1206
311.0207	0.1224
311.2322	0.1131
311.4437	0.1297
311.6552	0.1233
311.8667	0.1243
312.0782	0.1182
312.2897	0.1182
312.5012	0.1113
312.7126	0.1238
312.924	0.1146
313.1355	0.118
313.3469	0.1134
313.5583	0.1083
313.7696	0.1225
313.981	0.1136
314.1924	0.1174
314.4037	0.1119
314.6151	0.1108
314.8264	0.1171
315.0377	0.12
315.249	0.1081
315.4603	0.1083
315.6716	0.1134
315.8828	0.0955
316.0941	0.0976
316.3053	0.0915
316.5165	0.117
316.7277	0.0994
316.9389	0.1065
317.1501	0.1095
317.3613	0.0931
317.5724	0.1055
317.7836	0.1064
317.9947	0.1
318.2058	0.1099
318.417	0.1174
318.6281	0.1018
318.8391	0.103
319.0502	0.1048
319.2613	0.1034
319.4723	0.1059
319.6834	0.1055
319.8944	0.1073
320.1054	0.1049
320.3164	0.1012
320.5274	0.092
320.7383	0.1085
320.9493	0.0991
321.1602	0.11
321.3712	0.097
321.5821	0.1061
321.793	0.112
322.0039	0.1085
322.2148	0.1023
322.4257	0.1029
322.6365	0.1104
322.8474	0.0914
323.0582	0.1178
323.269	0.1144
323.4798	0.1139
323.6906	0.0978
323.9014	0.1118
324.1122	0.1091
324.3229	0.105
324.5337	0.1141
324.7444	0.1086
324.9551	0.1036
325.1658	0.1079
325.3765	0.1128
325.5872	0.1208
325.7979	0.1124
326.0085	0.0912
326.2192	0.1041
326.4298	0.1126
326.6404	0.1168
326.851	0.1119
327.0616	0.1089
327.2722	0.1082
327.4828	0.1204
327.6933	0.1132
327.9039	0.1051
328.1144	0.1142
328.3249	0.101
328.5354	0.1059
328.7459	0.1168
328.9564	0.1134
329.1669	0.1191
329.3773	0.1083
329.5878	0.1014
329.7982	0.1082
330.0086	0.1164
330.219	0.1141
330.4294	0.1019
330.6398	0.1116
330.8502	0.1184
331.0605	0.1168
331.2708	0.1117
331.4812	0.116
331.6915	0.1071
331.9018	0.1152
332.1121	0.107
332.3224	0.1184
332.5326	0.111
332.7429	0.1034
332.9531	0.1176
333.1633	0.1191
333.3735	0.1244
333.5837	0.1077
333.7939	0.1062
334.0041	0.1126
334.2143	0.1139
334.4244	0.1163
334.6346	0.1132
334.8447	0.1014
335.0548	0.1119
335.2649	0.116
335.475	0.1159
335.685	0.0986
335.8951	0.1283
336.1051	0.1264
336.3152	0.1295
336.5252	0.1113
336.7352	0.1244
336.9452	0.1086
337.1552	0.1277
337.3652	0.1232
337.5751	0.1289
337.7851	0.1082
337.995	0.1263
338.2049	0.1087
338.4148	0.1198
338.6247	0.1027
338.8346	0.1244
339.0445	0.1135
339.2543	0.1369
339.4642	0.137
339.674	0.1285
339.8838	0.1291
340.0936	0.1218
340.3034	0.1318
340.5132	0.1284
340.7229	0.1278
340.9327	0.1215
341.1424	0.1106
341.3522	0.1081
341.5619	0.1155
341.7716	0.1261
341.9813	0.1369
342.1909	0.1281
342.4006	0.1243
342.6102	0.1195
342.8199	0.1131
343.0295	0.125
343.2391	0.1292
343.4487	0.1316
343.6583	0.1196
343.8679	0.1314
344.0774	0.1225
344.287	0.1331
344.4965	0.1301
344.706	0.1425
344.9155	0.1272
345.125	0.118
345.3345	0.1325
345.544	0.1388
345.7534	0.1359
345.9629	0.1293
346.1723	0.131
346.3817	0.1406
346.5911	0.1378
346.8005	0.1221
347.0099	0.1275
347.2193	0.1268
347.4286	0.1339
347.638	0.1403
347.8473	0.1274
348.0566	0.1302
348.2659	0.1379
348.4752	0.1292
348.6845	0.1387
348.8937	0.1369
349.103	0.1205
349.3122	0.127
349.5214	0.1524
349.7306	0.1323
349.9398	0.1397
350.149	0.1517
350.3582	0.1465
350.5674	0.1391
350.7765	0.137
350.9856	0.1376
351.1948	0.1364
351.4039	0.1546
351.613	0.142
351.822	0.1524
352.0311	0.1364
352.2402	0.1359
352.4492	0.1553
352.6582	0.1387
352.8672	0.1413
353.0762	0.1362
353.2852	0.1455
353.4942	0.1612
353.7032	0.156
353.9121	0.1557
354.1211	0.1479
354.33	0.1601
354.5389	0.1537
354.7478	0.1534
354.9567	0.1498
355.1655	0.149
355.3744	0.1341
355.5833	0.1611
355.7921	0.1451
356.0009	0.1523
356.2097	0.1334
356.4185	0.1497
356.6273	0.1587
356.8361	0.1763
357.0448	0.1492
357.2536	0.1465
357.4623	0.1679
357.671	0.1596
357.8797	0.1512
358.0884	0.1707
358.2971	0.1665
358.5057	0.1594
358.7144	0.164
358.923	0.1535
359.1316	0.1617
359.3402	0.1737
359.5488	0.1664
359.7574	0.1707
359.966	0.1646
360.1746	0.171
360.3831	0.1731
360.5916	0.1765
360.8002	0.1866
361.0087	0.1795
361.2172	0.1675
361.4256	0.1818
361.6341	0.1781
361.8426	0.1828
362.051	0.175
362.2594	0.1809
362.4678	0.176
362.6762	0.1862
362.8846	0.193
363.093	0.1793
363.3014	0.1753
363.5097	0.1845
363.718	0.19
363.9264	0.1986
364.1347	0.1888
364.343	0.1924
364.5513	0.1888
364.7595	0.1915
364.9678	0.1873
365.176	0.208
365.3842	0.1836
365.5925	0.1629
365.8007	0.2066
366.0089	0.1893
366.217	0.2002
366.4252	0.2061
366.6333	0.2051
366.8415	0.1974
367.0496	0.1865
367.2577	0.2185
367.4658	0.2171
367.6739	0.2154
367.882	0.1979
368.09	0.2046
368.2981	0.1844
368.5061	0.2028
368.7141	0.2155
368.9221	0.1968
369.1301	0.2063
369.3381	0.2129
369.5461	0.2274
369.754	0.1859
369.962	0.196
370.1699	0.2094
370.3778	0.2203
370.5857	0.2186
370.7936	0.2178
371.0015	0.2114
371.2093	0.2188
371.4172	0.2231
371.625	0.2127
371.8328	0.2135
372.0406	0.2214
372.2484	0.2048
372.4562	0.2267
372.664	0.2269
372.8717	0.2041
373.0795	0.2151
373.2872	0.2246
373.4949	0.2323
373.7026	0.234
373.9103	0.2294
374.118	0.2091
374.3256	0.2173
374.5333	0.2206
374.7409	0.2058
374.9485	0.2234
375.1561	0.225
375.3637	0.2218
375.5713	0.2342
375.7789	0.2242
375.9864	0.2334
376.194	0.2342
376.4015	0.2205
376.609	0.2317
376.8165	0.2301
377.024	0.2382
377.2315	0.2217
377.4389	0.2206
377.6464	0.2243
377.8538	0.2202
378.0612	0.235
378.2686	0.2428
378.476	0.2285
378.6834	0.2296
378.8908	0.218
379.0981	0.246
379.3055	0.2476
379.5128	0.2359
379.7201	0.241
379.9274	0.2348
380.1347	0.232
380.342	0.2334
380.5492	0.2364
380.7565	0.2404
380.9637	0.236
381.1709	0.2374
381.3781	0.254
381.5853	0.253
381.7925	0.2405
381.9997	0.236
382.2068	0.2314
382.4139	0.2562
382.6211	0.2455
382.8282	0.257
383.0353	0.2307
383.2424	0.2488
383.4494	0.2326
383.6565	0.2364
383.8635	0.2592
384.0706	0.2581
384.2776	0.2477
384.4846	0.2513
384.6916	0.254
384.8986	0.235
385.1055	0.2462
385.3125	0.2522
385.5194	0.248
385.7263	0.2423
385.9333	0.2362
386.1402	0.2359
386.347	0.2611
386.5539	0.2389
386.7608	0.2465
386.9676	0.2343
387.1744	0.2359
387.3813	0.2631
387.5881	0.2566
387.7948	0.2472
388.0016	0.2458
388.2084	0.2331
388.4151	0.2486
388.6219	0.2424
388.8286	0.2436
389.0353	0.2471
389.242	0.2402
389.4487	0.2399
389.6553	0.2464
389.862	0.2369
390.0686	0.2445
390.2753	0.2529
390.4819	0.234
390.6885	0.2463
390.8951	0.2306
391.1016	0.2428
391.3082	0.2275
391.5147	0.2344
391.7213	0.2209
391.9278	0.2217
392.1343	0.2158
392.3408	0.2208
392.5473	0.217
392.7537	0.2297
392.9602	0.2285
393.1666	0.2242
393.373	0.2135
393.5794	0.2211
393.7858	0.2152
393.9922	0.2225
394.1986	0.2282
394.4049	0.214
394.6113	0.211
394.8176	0.2286
395.0239	0.2323
395.2302	0.2241
395.4365	0.2007
395.6428	0.2118
395.8491	0.2046
396.0553	0.2264
396.2615	0.2243
396.4678	0.2007
396.674	0.2
396.8802	0.2051
397.0863	0.2143
397.2925	0.1963
397.4987	0.2062
397.7048	0.2134
397.9109	0.2031
398.117	0.2131
398.3231	0.2099
398.5292	0.2084
398.7353	0.1985
398.9413	0.202
399.1474	0.206
399.3534	0.1953
399.5594	0.2163
399.7654	0.2053
399.9714	0.1911
400.1774	0.1929
400.3833	0.2157
400.5893	0.1918
400.7952	0.2101
401.0011	0.2195
401.207	0.1986
401.4129	0.1943
401.6188	0.2091
401.8247	0.1928
402.0305	0.2083
402.2364	0.2171
402.4422	0.1913
402.648	0.2013
402.8538	0.206
403.0596	0.1961
403.2654	0.2105
403.4711	0.2097
403.6768	0.1843
403.8826	0.2081
404.0883	0.2119
404.294	0.2028
404.4997	0.1881
404.7054	0.2075
404.911	0.1972
405.1167	0.1946
405.3223	0.1979
405.5279	0.2043
405.7335	0.2164
405.9391	0.2122
406.1447	0.2045
406.3502	0.1989
406.5558	0.2107
406.7613	0.2351
406.9668	0.1987
407.1724	0.2235
407.3778	0.2133
407.5833	0.2137
407.7888	0.21
407.9942	0.1867
408.1997	0.1957
408.4051	0.1913
408.6105	0.2012
408.8159	0.1855
409.0213	0.1939
409.2267	0.1959
409.432	0.2144
409.6374	0.1907
409.8427	0.1878
410.048	0.1922
410.2533	0.1976
410.4586	0.1926
410.6639	0.2159
410.8691	0.1901
411.0744	0.2147
411.2796	0.1993
411.4848	0.2031
411.69	0.1944
411.8952	0.2059
412.1004	0.1917
412.3056	0.1937
412.5107	0.1764
412.7158	0.1896
412.921	0.2093
413.1261	0.2125
413.3312	0.1939
413.5362	0.1894
413.7413	0.2041
413.9464	0.2168
414.1514	0.1925
414.3564	0.194
414.5614	0.1736
414.7664	0.1875
414.9714	0.1883
415.1764	0.1911
415.3813	0.2096
415.5863	0.1933
415.7912	0.1908
415.9961	0.1942
416.201	0.2044
416.4059	0.1703
416.6108	0.1809
416.8156	0.1912
417.0205	0.1952
417.2253	0.1851
417.4301	0.1853
417.6349	0.1901
417.8397	0.1845
418.0445	0.1863
418.2492	0.1791
418.454	0.1831
418.6587	0.2156
418.8634	0.1873
419.0681	0.2007
419.2728	0.2028
419.4775	0.2073
419.6822	0.1898
419.8868	0.18
420.0915	0.1692
420.2961	0.1798
420.5007	0.1688
420.7053	0.1762
420.9099	0.1746
421.1144	0.1996
421.319	0.1943
421.5235	0.2165
421.728	0.1782
421.9325	0.1959
422.137	0.1773
422.3415	0.1779
422.546	0.1692
422.7504	0.1932
422.9549	0.1966
423.1593	0.1645
423.3637	0.1766
423.5681	0.166
423.7725	0.1677
423.9769	0.1676
424.1812	0.1723
424.3856	0.1668
424.5899	0.1852
424.7942	0.1675
424.9985	0.1973
425.2028	0.1601
425.4071	0.1608
425.6113	0.1631
425.8156	0.1615
426.0198	0.1548
426.224	0.1454
426.4282	0.1908
426.6324	0.1653
426.8366	0.1613
427.0407	0.1505
427.2449	0.1597
427.449	0.159
427.6531	0.1363
427.8572	0.1553
428.0613	0.1754
428.2654	0.1265
428.4694	0.1664
428.6735	0.1497
428.8775	0.1562
429.0815	0.1679
429.2855	0.1528
429.4895	0.139
429.6935	0.1318
429.8975	0.1506
430.1014	0.1315
430.3053	0.1407
430.5093	0.161
430.7132	0.1385
430.9171	0.1388
431.1209	0.122
431.3248	0.1342
431.5286	0.1226
431.7325	0.1398
431.9363	0.1276
432.1401	0.1289
432.3439	0.1195
432.5477	0.1317
432.7514	0.1188
432.9552	0.1226
433.1589	0.1086
433.3627	0.1151
433.5664	0.0992
433.7701	0.1147
433.9737	0.0941
434.1774	0.1256
434.3811	0.0938
434.5847	0.1211
434.7883	0.1018
434.9919	0.1068
435.1955	0.1066
435.3991	0.1017
435.6027	0.1042
435.8062	0.1039
436.0098	0.0983
436.2133	0.0943
436.4168	0.0903
436.6203	0.0905
436.8238	0.0934
437.0272	0.0852
437.2307	0.1199
437.4341	0.085
437.6375	0.1028
437.841	0.0725
438.0443	0.0936
438.2477	0.0831
438.4511	0.0932
438.6545	0.0843
438.8578	0.0814
439.0611	0.0987
439.2644	0.0767
439.4677	0.0743
439.671	0.0626
439.8743	0.0643
440.0775	0.0745
440.2808	0.0589
440.484	0.0802
440.6872	0.0643
440.8904	0.0642
441.0936	0.0705
441.2967	0.0588
441.4999	0.0411
441.703	0.0726
441.9062	0.0562
442.1093	0.0567
442.3124	0.0739
442.5155	0.0536
442.7185	0.0688
442.9216	0.0516
443.1246	0.0705
443.3276	0.0741
443.5307	0.0534
443.7337	0.0513
443.9366	0.0612
444.1396	0.0585
444.3426	0.0353
444.5455	0.0672
444.7484	0.0606
444.9513	0.0506
445.1542	0.0415
445.3571	0.0545
445.56	0.0471
445.7628	0.049
445.9657	0.0417
446.1685	0.0601
446.3713	0.0406
446.5741	0.0423
446.7769	0.0467
446.9797	0.0561
447.1824	0.0315
447.3852	0.0604
447.5879	0.0335
447.7906	0.0508
447.9933	0.0499
448.196	0.0465
448.3986	0.0435
448.6013	0.0294
448.8039	0.0403
449.0066	0.0265
449.2092	0.0392
449.4118	0.035
449.6143	0.023
449.8169	0.0272
450.0195	0.0227
450.222	0.0274
450.4245	0.0288
450.627	0.0105
450.8295	0.0193
451.032	0.0242
451.2345	0.008
451.4369	0.0126
451.6394	0.0306
451.8418	-0.0016
452.0442	-0.0048
452.2466	0.0056
452.449	0.0289
452.6513	0.0293
452.8537	0.0225
453.056	-0.003
453.2583	0.0218
453.4607	-0.0005
453.663	0.017
453.8652	0.0298
454.0675	-0.0028
454.2697	0.0108
454.472	0.0246
454.6742	0.0158
454.8764	0.0105
455.0786	0.0097
455.2808	-0.0045
455.4829	0.0124
455.6851	0.0257
455.8872	0.0218
456.0893	0.011
456.2915	0.0144
456.4935	0.0005
456.6956	-0.0029
456.8977	0.0176
457.0997	0.021
457.3018	0.0107
457.5038	0.0082
457.7058	0.0246
457.9078	-0.0104
458.1098	0.0232
458.3117	0.0187
458.5137	0.0008
458.7156	0.0088
458.9175	0.003
459.1194	-0.0013
459.3213	0.0121
459.5232	-0.0011
459.725	-0.0023
459.9269	0.0112
460.1287	0.0196
460.3305	0.0049
460.5323	0.0183
460.7341	0.0025
460.9359	0.0113
461.1376	0.0045
461.3394	0.0091
461.5411	-0.0138
461.7428	0.0243
461.9445	0.0114
462.1462	0.0042
462.3479	-0.0099
462.5495	0.0019
462.7512	-0.0057
462.9528	0.0031
463.1544	0.0025
463.356	0.0007
463.5576	0.0128
463.7592	0.0016
463.9607	0.0078
464.1623	-0.0006
464.3638	-0.0035
464.5653	-0.0006
464.7668	-0.0074
464.9683	0.0099
465.1697	0.0119
465.3712	-0.0081
465.5726	0.0186
465.7741	0.0144
465.9755	-0.0024
466.1769	0.0034
466.3782	0.0119
466.5796	-0.0119
466.7809	0.0057
466.9823	-0.0017
467.1836	0.0158
467.3849	0.0084
467.5862	-0.012
467.7875	0.0058
467.9887	0.0054
468.19	0.0153
468.3912	0.0031
468.5924	0.0028
468.7936	0.0213
468.9948	-0.0099
469.196	0.0028
469.3972	0.0009
469.5983	-0.0012
469.7994	0.0039
470.0006	-0.0246
470.2017	0.002
470.4027	-0.0087
470.6038	0.0007
470.8049	0.0007
471.0059	-0.0021
471.2069	0.0005
471.408	0.0147
471.6089	-0.0041
471.8099	0.0161
472.0109	0.0067
472.2119	0.0036
472.4128	-0.0214
472.6137	0.0181
472.8146	-0.0105
473.0155	-0.009
473.2164	-0.0035
473.4173	0.0123
473.6181	0.0072
473.819	0.0087
474.0198	-0.0174
474.2206	-0.0087
474.4214	0.0085
474.6222	0.0053
474.8229	0.0012
475.0237	0.0038
475.2244	-0.0029
475.4251	0.0081
475.6258	-0.0068
475.8265	-0.0098
476.0272	-0.0081
476.2278	-0.0163
476.4285	-0.0089
476.6291	0.0047
476.8297	0.0039
477.0303	0.002
477.2309	0.0006
477.4315	-0.0065
477.632	-0.0191
477.8326	0.006
478.0331	-0.0146
478.2336	-0.008
478.4341	-0.0072
478.6346	-0.0096
478.8351	-0.0133
479.0355	-0.0197
479.236	-0.0187
479.4364	-0.0089
479.6368	0.0072
479.8372	0.0021
480.0376	-0.0128
480.2379	-0.0114
480.4383	-0.0076
480.6386	-0.0035
480.8389	-0.0121
481.0392	0.0043
481.2395	-0.0033
481.4398	-0.0213
481.6401	-0.0059
481.8403	0.0061
482.0405	-0.0086
482.2408	-0.0188
482.441	-0.0047
482.6411	-0.0233
482.8413	-0.017
483.0415	-0.0024
483.2416	-0.009
483.4417	0.0041
483.6419	-0.0215
483.8419	-0.0086
484.042	0.0118
484.2421	-0.0063
484.4422	-0.0032
484.6422	0.0032
484.8422	0.0001
485.0422	0.0096
485.2422	-0.0087
485.4422	-0.0072
485.6422	-0.0207
485.8421	-0.007
486.042	-0.0005
486.242	-0.0172
486.4419	-0.0049
486.6417	0.0057
486.8416	-0.0105
487.0415	-0.0077
487.2413	-0.0034
487.4411	0.0104
487.641	0.0021
487.8408	-0.0031
488.0405	-0.0002
488.2403	-0.003
488.4401	-0.001
488.6398	-0.0125
488.8395	-0.0026
489.0392	-0.0065
489.2389	-0.022
489.4386	-0.0113
489.6383	-0.0176
489.8379	-0.01
490.0376	0.0017
490.2372	-0.0029
490.4368	0.0013
490.6364	-0.0054
490.836	-0.0197
491.0355	-0.0145
491.2351	0.0037
491.4346	-0.0156
491.6341	0.0029
491.8336	-0.0144
492.0331	-0.0082
492.2326	-0.0193
492.432	-0.0073
492.6315	0.0018
492.8309	-0.0017
493.0303	-0.0043
493.2297	-0.0084
493.4291	-0.002
493.6284	-0.0138
493.8278	0.0052
494.0271	0.0008
494.2264	-0.0041
494.4257	-0.0059
494.625	-0.0004
494.8243	-0.0029
495.0236	-0.014
495.2228	-0.0097
495.422	-0.0074
495.6213	-0.0085
495.8205	-0.0138
496.0196	-0.0114
496.2188	-0.0038
496.418	-0.0117
496.6171	-0.0105
496.8162	-0.0031
497.0153	0.0006
497.2144	-0.0071
497.4135	-0.0022
497.6126	-0.0128
497.8116	-0.0087
498.0107	-0.001
498.2097	-0.0118
498.4087	-0.0171
498.6077	-0.004
498.8067	0.0108
499.0056	-0.0115
499.2046	0.0019
499.4035	-0.0056
499.6024	-0.0107
499.8013	-0.0146
500.0002	-0.0121
500.199	0.0003
500.3979	-0.0028
500.5967	-0.0212
500.7956	-0.0076
500.9944	-0.0102
501.1932	0.0009
501.3919	-0.0058
501.5907	-0.0098
501.7895	-0.0218
501.9882	-0.0101
502.1869	-0.0042
502.3856	-0.0202
502.5843	-0.0109
502.783	0.001
502.9816	0.0034
503.1803	-0.0077
503.3789	-0.0051
503.5775	-0.0043
503.7761	-0.0009
503.9747	-0.0094
504.1732	-0.0066
504.3718	-0.0014
504.5703	-0.0022
504.7689	-0.0043
504.9674	-0.0127
505.1658	-0.0033
505.3643	-0.0006
505.5628	0.0048
505.7612	-0.0021
505.9597	-0.0118
506.1581	0.0007
506.3565	-0.0056
506.5549	-0.0094
506.7532	0.0077
506.9516	-0.009
507.1499	-0.0141
507.3482	0.0006
507.5465	0.0061
507.7448	0.0119
507.9431	-0.0109
508.1414	-0.0169
508.3396	0.0066
508.5379	-0.0065
508.7361	-0.0118
508.9343	-0.0054
509.1325	0.0011
509.3306	-0.0093
509.5288	-0.012
509.7269	-0.0008
509.9251	-0.0011
510.1232	-0.0044
510.3213	0.0033
510.5193	0.0035
510.7174	-0.0044
510.9154	-0.0053
511.1135	-0.015
511.3115	-0.0153
511.5095	-0.0009
511.7075	0.0005
511.9055	-0.0146
512.1034	-0.002
512.3014	-0.0025
512.4993	0.0058
512.6972	-0.0129
512.8951	0.0023
513.093	-0.0132
513.2908	0.004
513.4887	0.0027
513.6865	0.0002
513.8844	0.0021
514.0822	0.008
514.2799	-0.0176
514.4777	0.0118
514.6755	0.0083
514.8732	-0.0023
515.0709	-0.004
515.2687	-0.0054
515.4664	-0.0021
515.664	-0.0098
515.8617	-0.006
516.0594	-0.0044
516.257	-0.009
516.4546	-0.0127
516.6522	-0.0078
516.8498	-0.0114
517.0474	-0.011
517.2449	-0.0113
517.4425	0.0077
517.64	-0.0152
517.8375	0.0062
518.035	-0.0087
518.2325	-0.016
518.43	0.0013
518.6274	0.0009
518.8249	0.0073
519.0223	0.0001
519.2197	-0.0043
519.4171	0.0037
519.6145	0.0011
519.8118	-0.0075
520.0092	-0.0055
520.2065	-0.0139
520.4038	-0.0122
520.6011	0.0022
520.7984	0.0042
520.9956	0.0048
521.1929	-0.0092
521.3901	-0.0064
521.5874	0.0034
521.7846	-0.0002
521.9818	-0.0001
522.1789	0.0082
522.3761	0.0037
522.5732	-0.0104
522.7704	0.0121
522.9675	-0.0015
523.1646	-0.0032
523.3617	-0.0001
523.5587	0.0051
523.7558	-0.0045
523.9528	-0.0036
524.1498	-0.0037
524.3468	0.0003
524.5438	-0.0028
524.7408	-0.0061
524.9378	0.0046
525.1347	0.0017
525.3316	0.0024
525.5285	-0.01
525.7254	0.0049
525.9223	-0.0043
526.1192	-0.0091
526.316	0.0067
526.5129	-0.0029
526.7097	-0.0007
526.9065	0.0117
527.1033	-0.0013
527.3	-0.0128
527.4968	-0.0091
527.6935	0.0063
527.8903	0.0048
528.087	0.0001
528.2837	0.0082
528.4804	0.0073
528.677	0.0074
528.8737	0.0007
529.0703	0.0013
529.2669	-0.0035
529.4635	0.0027
529.6601	0.0002
529.8567	0.0112
530.0532	0.005
530.2498	-0.0029
530.4463	-0.0006
530.6428	-0.0076
530.8393	0.0055
531.0358	-0.003
531.2322	0.0103
531.4287	-0.0031
531.6251	0.0032
531.8215	-0.0021
532.0179	0.0023
532.2143	0.0016
532.4107	-0.0082
532.607	0.0102
532.8034	-0.0004
532.9997	0.0095
533.196	0.0022
533.3923	0.0076
533.5886	0
533.7848	0.0051
533.9811	0.0045
534.1773	-0.0083
534.3735	-0.0108
534.5697	-0.0081
534.7659	0.0008
534.9621	0.0015
535.1582	0.0001
535.3544	-0.0045
535.5505	-0.0015
535.7466	-0.0036
535.9427	-0.0013
536.1387	0.003
536.3348	-0.0075
536.5308	-0.0157
536.7269	0.0093
536.9229	-0.0006
537.1189	-0.0095
537.3148	-0.0075
537.5108	0.0041
537.7068	0.0006
537.9027	-0.0049
538.0986	-0.006
538.2945	0.0007
538.4904	0.0036
538.6863	0.0126
538.8821	0.0049
539.078	-0.0065
539.2738	0.0059
539.4696	-0.0048
539.6654	0.0045
539.8611	0.0102
540.0569	-0.0058
540.2526	-0.002
540.4484	0.0025
540.6441	-0.0011
540.8398	-0.0052
541.0355	0.0043
541.2311	0.0012
541.4268	0.0045
541.6224	0.0014
541.818	0.0002
542.0136	0.001
542.2092	0.0021
542.4048	0.0055
542.6003	0.0032
542.7959	-0.0014
542.9914	-0.0011
543.1869	0.002
543.3824	0.0031
543.5779	0.0024
543.7734	0.0051
543.9688	0.0025
544.1642	0.0036
544.3596	-0.0033
544.555	0.0018
544.7504	0.0119
544.9458	0.009
545.1411	0.0058
545.3365	-0.0004
545.5318	0.0056
545.7271	0.005
545.9224	0.0033
546.1177	-0.0129
546.3129	-0.0038
546.5081	-0.0064
546.7034	-0.001
546.8986	0.0011
547.0938	0.0001
547.289	0.0009
547.4841	-0.0043
547.6793	-0.0003
547.8744	0.0026
548.0695	-0.0013
548.2646	-0.0135
548.4597	-0.0041
548.6548	0.0048
548.8498	0.0044
549.0448	0.0019
549.2399	-0.005
549.4349	-0.0002
549.6298	0.001
549.8248	0.0056
550.0198	0.0076
550.2147	0.0062
550.4096	-0.0026
550.6045	-0.0037
550.7994	-0.0015
550.9943	-0.0022
551.1892	-0.0071
551.384	-0.011
551.5788	0.002
551.7737	-0.0084
551.9685	0.0024
552.1632	0.0063
552.358	0.0009
552.5528	-0.0068
552.7475	-0.0113
552.9422	0.0044
553.1369	0.0019
553.3316	0.0079
553.5263	0.0134
553.7209	-0.0019
553.9156	-0.0001
554.1102	-0.0064
554.3048	-0.0044
554.4994	0.0064
554.694	-0.001
554.8885	-0.0021
555.0831	0.0037
555.2776	0.0085
555.4721	0.011
555.6666	0.0099
555.8611	0.0065
556.0555	0.0028
556.25	0.0017
556.4444	0.0124
556.6388	0.0181
556.8332	0.0049
557.0276	0.0138
557.222	-0.0043
557.4163	0.0102
557.6107	0.0165
557.805	0.0041
557.9993	-0.0071
558.1936	0.0033
558.3879	0.0047
558.5821	0.0137
558.7764	0.0057
558.9706	0.0037
559.1648	0.0039
559.359	0.0112
559.5532	0.0012
559.7473	0.014
559.9415	0.0086
560.1356	0.0078
560.3297	-0.0007
560.5238	0.0001
560.7179	0.0093
560.9119	0.0033
561.106	0.0051
561.3	0.0083
561.494	0.0117
561.688	0.0017
561.882	0.0075
562.076	0.0031
562.2699	0.0065
562.4639	-0.0025
562.6578	0.0036
562.8517	0.0031
563.0456	0.0119
563.2395	0.0035
563.4333	-0.007
563.6272	0.0058
563.821	-0.0055
564.0148	0.0037
564.2086	-0.0109
564.4024	-0.0034
564.5961	0.0108
564.7899	-0.0049
564.9836	0.0046
565.1773	0.0033
565.371	0.0064
565.5647	-0.0076
565.7584	-0.0021
565.952	0.0102
566.1456	0.0071
566.3393	0.0095
566.5329	-0.0076
566.7264	0.0059
566.92	-0.0028
567.1136	0.0153
567.3071	0.0014
567.5006	-0.0012
567.6941	0.0041
567.8876	0.0012
568.0811	0.0022
568.2745	0.0066
568.468	0.0083
568.6614	0.0069
568.8548	0.0101
569.0482	0.0025
569.2416	0.0045
569.4349	-0.0038
569.6283	0.0034
569.8216	0.0004
570.0149	0.0025
570.2082	0.0073
570.4015	0.0086
570.5947	0.009
570.788	0.0047
570.9812	0.0076
571.1744	-0.0016
571.3676	0.0016
571.5608	0.0014
571.754	0.0017
571.9471	0.0049
572.1402	0.0003
572.3333	-0.0017
572.5264	0.0033
572.7195	-0.0002
572.9126	0.0101
573.1057	0.0044
573.2987	0.0137
573.4917	0.0026
573.6847	0.0015
573.8777	-0.0047
574.0707	0.0082
574.2636	0.0067
574.4566	0.0023
574.6495	0.0059
574.8424	0.0006
575.0353	-0.0021
575.2281	0.0113
575.421	0.0004
575.6138	-0.001
575.8067	0.0038
575.9995	-0.0007
576.1923	0.0072
576.385	-0.0002
576.5778	-0.0047
576.7706	0.0072
576.9633	-0.0009
577.156	0.0107
577.3487	-0.0043
577.5414	0.0004
577.734	-0.0094
577.9267	-0.0021
578.1193	0.0011
578.3119	0.004
578.5045	0.0087
578.6971	-0.0016
578.8897	0.0005
579.0822	0.0097
579.2747	0.0049
579.4673	0.0048
579.6598	0.0076
579.8522	0.0095
580.0447	-0.0057
580.2372	0.0097
580.4296	0.0195
580.622	0.0055
580.8144	0.0054
581.0068	0.0033
581.1992	0.0053
581.3915	-0.002
581.5839	0.0085
581.7762	0.0016
581.9685	0.0012
582.1608	0.0021
582.353	0.0011
582.5453	-0.0044
582.7375	-0.0053
582.9298	0.0002
583.122	0.0031
583.3142	0.0077
583.5063	-0.0006
583.6985	0.0002
583.8906	0.0054
584.0827	-0.0032
584.2749	0.0043
584.4669	-0.0038
584.659	0.0058
584.8511	-0.0027
585.0431	-0.0009
585.2352	-0.0061
585.4272	0.0039
585.6192	-0.002
585.8111	-0.0052
586.0031	-0.0003
586.195	0.0003
586.387	-0.0003
586.5789	0.0033
586.7708	0.0049
586.9627	0.0026
587.1545	0.0032
587.3464	0.015
587.5382	-0.0029
587.73	0.0072
587.9218	0.0089
588.1136	-0.001
588.3053	-0.0017
588.4971	0.0024
588.6888	0.005
588.8805	-0.0039
589.0722	0.0055
589.2639	0.0081
589.4556	0.0026
589.6472	0.0001
589.8389	-0.0026
590.0305	0.0014
590.2221	0.0075
590.4137	0.0032
590.6052	0.0073
590.7968	0.0027
590.9883	-0.0002
591.1798	-0.0034
591.3713	0.0031
591.5628	-0.0002
591.7543	0.0109
591.9458	0.0126
592.1372	0.0055
592.3286	0.0023
592.52	0.004
592.7114	0.0062
592.9028	0.0036
593.0941	0.0062
593.2855	-0.003
593.4768	-0.0008
593.6681	-0.0045
593.8594	0.004
594.0506	-0.0032
594.2419	0.0053
594.4331	0.001
594.6244	0.0022
594.8156	0.003
595.0067	0.0012
595.1979	-0.0007
595.3891	-0.0022
595.5802	0.0031
595.7713	0.0011
595.9624	0.01
596.1535	-0.0033
596.3446	0.009
596.5357	-0.0001
596.7267	0.0079
596.9177	0.0021
597.1087	0.0113
597.2997	0.0062
597.4907	0.0089
597.6817	0.0035
597.8726	0.0082
598.0635	0.0061
598.2544	0.0149
598.4453	0.016
598.6362	0.0025
598.827	0.0072
599.0179	0.0004
599.2087	-0.0007
599.3995	0.0069
599.5903	0.0071
599.7811	0.0087
599.9718	0.0015
600.1626	0.0061
600.3533	0.0018
600.544	-0.0021
600.7347	0.0093
600.9254	0.0021
601.116	0.0031
601.3067	-0.0012
601.4973	0.0058
601.6879	0.006
601.8785	0.0063
602.0691	-0.0045
602.2596	0.002
602.4502	0.0063
602.6407	0.0023
602.8312	0.0043
603.0217	0.0056
603.2122	0.0011
603.4027	0.0049
603.5931	0.0061
603.7835	0.0094
603.9739	0.0043
604.1643	0.0058
604.3547	0.0101
604.5451	0.0044
604.7354	0.0042
604.9257	-0.0001
605.116	-0.0024
605.3063	0.0055
605.4966	0.0005
605.6869	0.0129
605.8771	0.0017
606.0673	0.004
606.2575	0.0022
606.4477	0.0046
606.6379	0.0022
606.8281	-0.0043
607.0182	0.0038
607.2083	0.0035
607.3985	0.009
607.5885	-0.0036
607.7786	0.0039
607.9687	-0.0004
608.1587	0.0115
608.3488	0.003
608.5388	0.0123
608.7288	0.0017
608.9187	0.0014
609.1087	0.0016
609.2986	0.0067
609.4886	-0.001
609.6785	0.0028
609.8684	0.0068
610.0582	0.008
610.2481	0.0018
610.4379	0.0017
610.6278	-0.006
610.8176	0.002
611.0074	0.0029
611.1971	-0
611.3869	0.0025
611.5766	0.0091
611.7664	0.0029
611.9561	0.0059
612.1458	0.0007
612.3354	0.0103
612.5251	0.0058
612.7147	0.0023
612.9044	0.005
613.094	0.0069
613.2836	0.0042
613.4731	0.0055
613.6627	0.0065
613.8522	0.0126
614.0417	0.0081
614.2313	0.0096
614.4207	0.0091
614.6102	-0.0012
614.7997	-0.0023
614.9891	0.0011
615.1785	0.0046
615.3679	0.0153
615.5573	0.0109
615.7467	-0.0023
615.9361	0.0034
616.1254	0.0057
616.3147	0.004
616.504	0.0037
616.6933	0.0123
616.8826	0.0073
617.0718	0.001
617.2611	0.0072
617.4503	0.0105
617.6395	0.0097
617.8287	0.0123
618.0179	0.0091
618.207	0.0096
618.3961	0.0146
618.5853	0.0104
618.7744	0.0064
618.9634	0.0008
619.1525	0.0037
619.3416	0.0084
619.5306	0.0109
619.7196	0.0027
619.9086	0.0068
620.0976	0.0071
620.2866	0.007
620.4755	0.0092
620.6645	0.0061
620.8534	0.0132
621.0423	0.0037
621.2312	0.0049
621.42	0.0106
621.6089	0.0135
621.7977	0.0066
621.9865	0.018
622.1753	0.0168
622.3641	0.0083
622.5529	0.003
622.7416	0.0158
622.9303	0.0073
623.1191	0.0141
623.3078	0.0107
623.4964	0.0086
623.6851	0.0201
623.8737	0.0097
624.0624	0.0017
624.251	0.0095
624.4396	0.0021
624.6282	0.0086
624.8167	0.0111
625.0053	0.0087
625.1938	0.008
625.3823	0.0052
625.5708	0.0049
625.7593	0.006
625.9477	0.0131
626.1362	0.0037
626.3246	0.0113
626.513	0.0028
626.7014	0.0006
626.8898	0.0045
627.0781	0.0018
627.2665	0.0062
627.4548	0.0086
627.6431	0.0064
627.8314	0.0062
628.0197	0.0049
628.2079	0.0088
628.3962	0.0069
628.5844	0.0044
628.7726	0.0094
628.9608	0.0055
629.1489	0.0044
629.3371	0.0094
629.5252	0.0001
629.7134	0.0039
629.9015	0.0017
630.0895	0.0071
630.2776	0.0056
630.4657	0.0104
630.6537	0.0058
630.8417	0.0123
631.0297	0.0081
631.2177	0.0133
631.4057	0.0122
631.5936	0.0081
631.7815	0.0124
631.9695	0.0087
632.1574	0.0095
632.3452	0.0099
632.5331	0.0043
632.7209	0.0076
632.9088	0.0035
633.0966	-0.0009
633.2844	0.0031
633.4722	-0.0003
633.6599	0.0031
633.8477	0.0084
634.0354	0.0025
634.2231	0.0106
634.4108	0.0156
634.5985	0.0076
634.7861	0.0079
634.9738	0.0202
635.1614	0.0051
635.349	0.01
635.5366	0.0072
635.7242	0.0071
635.9117	0.0047
636.0993	0.0078
636.2868	0.0087
636.4743	0.0084
636.6618	0.0107
636.8492	0.0169
637.0367	0.0013
637.2241	0.0128
637.4115	0.0141
637.5989	0.0103
637.7863	0.0107
637.9737	0.008
638.161	0.022
638.3484	0.0097
638.5357	0.0128
638.723	-0.003
638.9103	0.0073
639.0975	0.0029
639.2848	0.0077
639.472	0.0014
639.6592	0.0114
639.8464	0.0134
640.0336	0.0041
640.2208	-0.0022
640.4079	0.0083
640.595	0.0027
640.7821	-0.0004
640.9692	0.0065
641.1563	0.0057
641.3434	0.0143
641.5304	0.0047
641.7174	0.0161
641.9044	-0.0006
642.0914	0.0082
642.2784	-0.0061
642.4653	0.0094
642.6523	-0.0035
642.8392	0.0008
643.0261	0.0056
643.213	0.0038
643.3999	0.005
643.5867	0.0059
643.7735	0.012
643.9604	-0.0011
644.1472	0.0039
644.3339	0.004
644.5207	0.0079
644.7075	-0.0024
644.8942	0.0113
645.0809	0.0086
645.2676	0.0069
645.4543	0.0111
645.6409	0.0015
645.8276	0.0033
646.0142	0.0038
646.2008	0.009
646.3874	0.0115
646.574	0.0092
646.7605	0.002
646.9471	0.0108
647.1336	0.0112
647.3201	0.013
647.5066	0.0019
647.6931	0.0032
647.8795	-0.0003
648.0659	0.0106
648.2524	0.0106
648.4388	0.0056
648.6252	0.0009
648.8115	0.0073
648.9979	0.0008
649.1842	0.003
649.3705	-0.0019
649.5568	0.0052
649.7431	0.0144
649.9294	0.0085
650.1156	0.0107
650.3018	0.0084
650.488	0.005
650.6742	0.0056
650.8604	0.0071
651.0466	0.0072
651.2327	0.009
651.4188	0.0045
651.6049	0.0205
651.791	0.0107
651.9771	0.0093
652.1632	0.0059
652.3492	0.0114
652.5352	0.0092
652.7212	0.0097
652.9072	-0.0048
653.0932	0.0025
653.2791	0.0039
653.465	0.0032
653.651	0.0094
653.8369	0.0043
654.0227	0.0039
654.2086	-0.0008
654.3944	0.0069
654.5803	0.0013
654.7661	0.0076
654.9519	-0.0007
655.1377	-0.0031
655.3234	-0.0047
655.5092	0.0003
655.6949	-0.0081
655.8806	-0.0072
656.0663	-0.0032
656.2519	-0.002
656.4376	0.0011
656.6232	0.0012
656.8088	0.0077
656.9945	0.0052
657.18	0.0014
657.3656	0.0102
657.5511	0.0007
657.7367	0.0006
657.9222	0.0062
658.1077	0.0073
658.2932	0.0009
658.4786	-0.0031
658.6641	0.0057
658.8495	0.0028
659.0349	0.0097
659.2203	0.0008
659.4057	-0.0025
659.591	0.0036
659.7764	-0.003
659.9617	-0.0007
660.147	0.0081
660.3323	0.0092
660.5176	-0.0004
660.7028	-0.0018
660.888	0.017
661.0733	0.0088
661.2585	0.0089
661.4436	0.0063
661.6288	0.0089
661.8139	0.0082
661.9991	0.0027
662.1842	0.0087
662.3693	0.0037
662.5544	0.0111
662.7394	0.0027
662.9245	0.0085
663.1095	0.008
663.2945	0.0082
663.4795	0.0014
663.6644	0.0034
663.8494	0.0018
664.0343	0.0097
664.2193	0.0171
664.4042	0.02
664.589	0.0141
664.7739	0.0066
664.9587	0.0102
665.1436	-0.0066
665.3284	0.0068
665.5132	0.0002
665.698	0.0075
665.8827	0.015
666.0675	0.0063
666.2522	0.005
666.4369	0.0045
666.6216	0.011
666.8063	0.0072
666.9909	0.0012
667.1756	0.0176
667.3602	0.007
667.5448	0.0179
667.7294	0.0113
667.9139	0.015
668.0985	0.0136
668.283	0.0023
668.4675	0.0068
668.652	0.0115
668.8365	0.0051
669.0209	0.0084
669.2054	0.0028
669.3898	0.0073
669.5742	0.0012
669.7586	0.0071
669.943	0.0066
670.1273	0.0122
670.3117	0
670.496	0.0026
670.6803	0.012
670.8646	0.0054
671.0488	0.0078
671.2331	0.0135
671.4173	0.0112
671.6015	0.0065
671.7857	0.0059
671.9699	0.0054
672.1541	0.0073
672.3382	0.0105
672.5223	0.0092
672.7064	0.0105
672.8905	0.0038
673.0746	0.0078
673.2587	0.0115
673.4427	0.0042
673.6267	-0.0013
673.8107	0.0128
673.9947	0.0063
674.1787	0.0126
674.3626	0.0184
674.5465	0.0053
674.7304	0.011
674.9143	0.0108
675.0982	0.0067
675.2821	-0.0013
675.4659	0.015
675.6497	0.006
675.8335	0.012
676.0173	0.0092
676.2011	0.0079
676.3849	0.0039
676.5686	0.0141
676.7523	0.0155
676.936	-0.0019
677.1197	0.0117
677.3034	0.0069
677.487	0.016
677.6706	0.0169
677.8542	0.01
678.0378	0.011
678.2214	0.0126
678.405	0.0226
678.5885	0.0129
678.772	0.0088
678.9555	0.0054
679.139	0.0146
679.3225	0.0074
679.5059	0.0101
679.6894	0.0043
679.8728	0.0108
680.0562	0.0133
680.2395	0.0148
680.4229	0.0074
680.6062	0.0051
680.7896	0.0098
680.9729	0.0085
681.1562	0.0103
681.3394	0.0088
681.5227	0.0089
681.7059	0.0044
681.8891	0.0029
682.0723	0.0081
682.2555	0.006
682.4387	0.0034
682.6218	0.0079
682.805	0.0065
682.9881	0.0186
683.1712	0.0172
683.3542	0.0087
683.5373	0.0107
683.7203	0.0138
683.9034	0.0181
684.0864	-0
684.2694	0.0085
684.4523	0.0117
684.6353	0.0055
684.8182	0.0069
685.0011	0.0156
685.184	0.0017
685.3669	0.0059
685.5498	0.0047
685.7326	0.0073
685.9154	0.0069
686.0982	0.0093
686.281	0.0081
686.4638	0.0049
686.6465	0.0061
686.8293	0.0068
687.012	0.0134
687.1947	0.0087
687.3774	0.0118
687.56	0.0071
687.7427	0.0173
687.9253	0.0103
688.1079	0.0133
688.2905	0.0039
688.4731	0.0078
688.6556	0.0095
688.8382	0.0034
689.0207	0.0067
689.2032	0.0096
689.3857	0.0145
689.5681	0.0103
689.7506	-0.0028
689.933	0.0066
690.1154	0.0043
690.2978	0.0023
690.4802	0.0064
690.6626	0.0159
690.8449	0.0215
691.0272	0.0157
691.2095	0.0127
691.3918	0.0074
691.5741	0.0184
691.7563	0.0109
691.9386	0.0113
692.1208	0.0016
692.303	0.0035
692.4852	0.0065
692.6673	0.0032
692.8495	0.0119
693.0316	0.0124
693.2137	0.0112
693.3958	0.0078
693.5778	0.0135
693.7599	0.0207
693.9419	0.0102
694.1239	0.0158
694.3059	0.0115
694.4879	0.004
694.6699	0.0076
694.8518	0.009
695.0337	0.0091
695.2157	0.0174
695.3975	0.0014
695.5794	0.0122
695.7613	0.004
695.9431	0.0104
696.1249	0.0094
696.3067	-0.0046
696.4885	0.0138
696.6703	0.0101
696.852	0.0059
697.0337	0.0154
697.2154	0.014
697.3971	0.0106
697.5788	0.0051
697.7605	0.0053
697.9421	0.0009
698.1237	0.0153
698.3053	0.0147
698.4869	0.0082
698.6685	0.0062
698.85	0.013
699.0315	0.0135
699.213	0.0027
699.3945	0.0116
699.576	0.0207
699.7575	0.015
699.9389	0.0227
700.1203	0.0101
700.3017	0.0023
700.4831	0.0039
700.6645	0.0099
700.8458	0.0078
701.0271	0.0037
701.2084	0.0126
701.3897	-0.0036
701.571	0.0034
701.7523	-0.0017
701.9335	-0.0002
702.1147	0.0051
702.2959	0.0064
702.4771	0.0132
702.6583	-0.0021
702.8394	0.0065
703.0205	0.0041
703.2016	0.0094
703.3827	-0.0033
703.5638	0.0126
703.7449	0.0131
703.9259	-0.0013
704.1069	0.004
704.2879	0.005
704.4689	0.0091
704.6499	0.0048
704.8308	0.003
705.0117	0.0094
705.1927	0.0179
705.3735	-0.0038
705.5544	-0.0055
705.7353	0.0067
705.9161	0.0078
706.0969	0.0148
706.2777	0.0088
706.4585	0.0032
706.6393	0.0154
706.82	0.0041
707.0007	0.0028
707.1815	0.0032
707.3621	-0.0009
707.5428	0.009
707.7235	0.0075
707.9041	0.0093
708.0847	0.0207
708.2653	0.0083
708.4459	0.0049
708.6265	0.0152
708.807	0.0099
708.9875	0.02
709.168	0.0152
709.3485	0.0063
709.529	0.0015
709.7095	0.0158
709.8899	0.0095
710.0703	0.0043
710.2507	0.0049
710.4311	0.0049
710.6115	0.0135
710.7918	0.0095
710.9721	0.0113
711.1524	0.0023
711.3327	-0.0002
711.513	-0.0021
711.6932	0.0021
711.8735	0.0016
712.0537	-0.0021
712.2339	-0.001
712.4141	-0.0036
712.5942	-0.0049
712.7744	0.0054
712.9545	0.006
713.1346	0.0027
713.3147	-0.0031
713.4947	0.0025
713.6748	0.0022
713.8548	0.0013
714.0348	0.0047
714.2148	-0.0055
714.3948	0.0047
714.5748	0.0052
714.7547	-0.0029
714.9346	0.0003
715.1145	0.0013
715.2944	-0.0019
715.4743	0.0066
715.6541	0.0123
715.834	-0.0009
716.0138	0.0067
716.1936	0.0089
716.3733	0.0136
716.5531	0.0178
716.7328	0.0094
716.9126	0.0075
717.0923	0.0021
717.2719	0.0105
717.4516	0.0004
717.6312	0.0164
717.8109	0.0016
717.9905	0.009
718.1701	0.0006
718.3496	0.0073
718.5292	0.0026
718.7087	-0.006
718.8882	0.0006
719.0677	0.0032
719.2472	0.0036
719.4267	0.0048
719.6061	0.0025
719.7856	0.0054
719.965	0.0091
720.1443	0.0118
720.3237	0.0122
720.5031	0.0128
720.6824	0.0152
720.8617	0.0068
721.041	0.005
721.2203	0.0033
721.3995	0.0097
721.5788	0.0091
721.758	-0.0075
721.9372	0.0126
722.1164	0.0128
722.2956	0.0074
722.4747	0.0094
722.6538	-0.0019
722.8329	0.0072
723.012	-0.0031
723.1911	0.0014
723.3702	0.0012
723.5492	0.0085
723.7282	0.0131
723.9072	0.0031
724.0862	0.0081
724.2652	0.0149
724.4441	-0.0064
724.623	0.0104
724.8019	-0.0001
724.9808	0.0123
725.1597	0.012
725.3385	0.0098
725.5174	0.0011
725.6962	0.0026
725.875	0.0063
726.0538	0.0122
726.2325	0.0008
726.4112	0.0067
726.59	0.0156
726.7687	-0.0009
726.9474	0.0025
727.126	0.0002
727.3047	-0.005
727.4833	-0.0037
727.6619	0.0033
727.8405	-0.009
728.0191	0.0032
728.1976	-0.0001
728.3762	-0.0012
728.5547	-0.0092
728.7332	0.0077
728.9116	-0.0049
729.0901	-0.0016
729.2686	0.0069
729.447	-0.0039
729.6254	0.0087
729.8038	0.0104
729.9821	-0.0008
730.1605	0.0074
730.3388	0.0056
730.5171	0.0031
730.6954	0.0078
730.8737	0.005
731.0519	0.0001
731.2302	0.0024
731.4084	0.0061
731.5866	-0.0056
731.7648	0.0131
731.9429	-0.0061
732.1211	-0.0013
732.2992	0.0007
732.4773	-0.0012
732.6554	-0.0069
732.8335	-0.0023
733.0115	-0.002
733.1896	0.01
733.3676	0.0047
733.5456	-0.0059
733.7235	0.002
733.9015	0.0132
734.0794	0.0032
734.2574	0.0005
734.4353	-0.0019
734.6131	-0.0025
734.791	0.0106
734.9689	0.0113
735.1467	-0.0004
735.3245	-0.0064
735.5023	0.0069
735.68	0.0114
735.8578	0.0077
736.0355	0.0057
736.2132	0.0033
736.3909	0.0007
736.5686	0.014
736.7463	0.0154
736.9239	0.0068
737.1015	0.0138
737.2791	0.0118
737.4567	0.01
737.6343	0.0067
737.8118	-0.0021
737.9894	0.0072
738.1669	0.0068
738.3444	0.0016
738.5218	0.0065
738.6993	0.0065
738.8767	-0.0021
739.0541	0.0074
739.2315	-0.004
739.4089	0.0108
739.5863	0.0087
739.7636	0.006
739.9409	0.005
740.1182	0.0032
740.2955	0.0139
740.4728	0.0047
740.65	0.0008
740.8272	-0.0048
741.0044	-0.0027
741.1816	0.0065
741.3588	0.0095
741.5359	0.0064
741.7131	0.0059
741.8902	0.0007
742.0673	0.0162
742.2444	0.0019
742.4214	-0.0038
742.5985	0.0054
742.7755	0.0044
742.9525	0.005
743.1295	0.016
743.3064	0.0014
743.4834	0.0109
743.6603	-0.0037
743.8372	-0.0058
744.0141	0.011
744.191	0.0031
744.3678	0.0024
744.5446	0.0027
744.7215	0.0171
744.8982	0.0102
745.075	-0.0005
745.2518	-0.0043
745.4285	-0.0098
745.6052	0.01
745.7819	-0.0092
745.9586	-0.0027
746.1353	-0.0061
746.3119	0.0129
746.4885	0.0026
746.6651	0.0001
746.8417	0.0059
747.0183	0.0035
747.1948	0.0086
747.3714	0.0055
747.5479	0.0051
747.7244	0.0042
747.9008	0.0105
748.0773	0.0101
748.2537	0.0088
748.4301	-0.0049
748.6065	0.013
748.7829	-0.0047
748.9593	0.0108
749.1356	0.0011
749.3119	0.0132
749.4882	0.0039
749.6645	0.003
749.8408	0.0153
750.017	0.0064
750.1933	0.0195
750.3695	0.0106
750.5457	0.0057
750.7218	0.0102
750.898	0.0171
751.0741	0.0232
751.2502	0.017
751.4263	0.0107
751.6024	0.0155
751.7784	0.0121
751.9545	0.0098
752.1305	0.0082
752.3065	0.007
752.4825	0.0062
752.6584	0.0182
752.8344	0.0015
753.0103	0.0047
753.1862	0.0015
753.3621	-0.0003
753.5379	-0.0054
753.7138	-0.0018
753.8896	0.0026
754.0654	-0.0023
754.2412	0.0084
754.417	0.0023
754.5927	0.0027
754.7685	0.0068
754.9442	-0.0004
755.1199	0.0079
755.2956	0.0033
755.4712	0.0038
755.6469	0.0025
755.8225	0.0119
755.9981	0.0123
756.1736	-0.0048
756.3492	0.0079
756.5248	0.0085
756.7003	0.0041
756.8758	0.0167
757.0513	0.0043
757.2267	0.0053
757.4022	-0.0006
757.5776	0.0004
757.753	0.0046
757.9284	0.0028
758.1038	-0.0047
758.2791	0.0114
758.4545	0.0045
758.6298	0.0097
758.8051	0.0086
758.9803	0.0032
759.1556	0.0012
759.3308	0.0141
759.506	0.0167
759.6812	0.0081
759.8564	0.0105
760.0316	0.0099
760.2067	0.0025
760.3819	0.0102
760.557	-0.0016
760.732	0.0165
760.9071	0.0152
761.0821	0.0158
761.2572	0.0122
761.4322	0.0123
761.6072	0.0032
761.7821	0.0081
761.9571	0.0031
762.132	-0.006
762.3069	0.0098
762.4818	0.0086
762.6567	0.0084
762.8316	0.0094
763.0064	-0.0061
763.1812	0.0029
763.356	-0.0096
763.5308	0.0037
763.7055	0.0055
763.8803	0.0105
764.055	0.0015
764.2297	0.0049
764.4044	0.0057
764.579	0.0124
764.7537	-0.0012
764.9283	0.0039
765.1029	0.0012
765.2775	0.0002
765.4521	-0.0062
765.6266	0.0087
765.8011	0.0045
765.9756	-0.0023
766.1501	0.0018
766.3246	0.0023
766.4991	0.0023
766.6735	0.0002
766.8479	0.0036
767.0223	-0.0085
767.1967	0.0115
767.371	0.0026
767.5454	-0.0031
767.7197	0.0108
767.894	0.0065
768.0683	0.0176
768.2425	0.0099
768.4168	0.0041
768.591	0.0018
768.7652	0.0085
768.9394	-0.0041
769.1135	0.0096
769.2877	0.0037
769.4618	0.0105
769.6359	0.0118
769.81	0.0081
769.984	0.0053
770.1581	0.005
770.3321	0.0031
770.5061	-0.0058
770.6801	0.0028
770.8541	0.0127
771.028	0.0158
771.202	0.0013
771.3759	-0.0084
771.5498	0.0205
771.7236	0.0062
771.8975	0.0005
772.0713	0.0131
772.2451	0.0043
772.4189	0.0165
772.5927	0.0093
772.7665	0.0015
772.9402	0.0034
773.1139	0.0028
773.2876	-0.006
773.4613	0.0067
773.635	0.0071
773.8086	0.0013
773.9822	0.0235
774.1558	0.0113
774.3294	0.0181
774.503	0.003
774.6765	0.0193
774.8501	0.0093
775.0236	0.0215
775.1971	0.0168
775.3705	0.0139
775.544	0.0135
775.7174	0.0116
775.8908	0.0103
776.0642	0.0019
776.2376	-0.0018
776.4109	0.0126
776.5843	-0.0028
776.7576	0.0078
776.9309	0.0225
777.1041	0.0094
777.2774	-0.0033
777.4506	0.0061
777.6238	-0.0051
777.797	0.0125
777.9702	0.0078
778.1434	0.0217
778.3165	0.009
778.4896	0.0057
778.6627	0.0074
778.8358	-0.0015
779.0089	0.0035
779.1819	0.002
779.3549	0.0069
779.5279	0.0049
779.7009	0.0006
779.8739	0.002
780.0468	0.0122
780.2197	0.0045
780.3926	0.0036
780.5655	0.0041
780.7384	0.003
780.9112	0.0185
781.0841	-0.0042
781.2569	-0.0028
781.4297	-0.0127
781.6024	0.0067
781.7752	-0.0126
781.9479	0.0063
782.1206	0.0025
782.2933	0.0047
782.466	0.0065
782.6386	0.016
782.8113	-0.0133
782.9839	0.0052
783.1565	0.0135
783.329	0.0055
783.5016	-0.0017
783.6741	0.017
783.8466	0.0064
784.0191	-0.0052
784.1916	0.0037
784.3641	0.0082
784.5365	0.0079
784.7089	0.0016
784.8813	0.0135
785.0537	-0.011
785.2261	0.0024
785.3984	0.0139
785.5707	0.0073
785.743	0.0018
785.9153	0.0088
786.0876	0.0117
786.2598	0.0015
786.432	0.0162
786.6042	0.0088
786.7764	0.0058
786.9486	-0.0021
787.1207	0.0073
787.2928	0.0108
787.4649	-0.0021
787.637	0.0036
787.8091	0.0121
787.9811	-0.0099
788.1532	0.0056
788.3252	0.0037
788.4972	0.0014
788.6691	-0.0026
788.8411	-0.0168
789.013	-0.0077
789.1849	0.0131
789.3568	0.0134
789.5287	-0.006
789.7005	0.0152
789.8723	0.0106
790.0442	0.0141
790.2159	-0.0099
790.3877	0.0257
790.5595	0.0137
790.7312	-0.0108
790.9029	0.0207
791.0746	0.0205
791.2463	0.0139
791.4179	0.0037
791.5896	0.0087
791.7612	0.0176
791.9328	0.0117
792.1044	0.0125
792.2759	0.0062
792.4474	0.0028
792.619	0.016
792.7905	0.0258
792.9619	0.0173
793.1334	0.0159
793.3048	0.0232
793.4762	0.0095
793.6476	-0.0004
793.819	0.0145
793.9904	0.0262
794.1617	0.0023
794.333	0.0058
794.5043	0.0084
794.6756	0.0054
794.8469	-0.0025
795.0181	0.0077
795.1893	-0.0065
795.3605	0.0083
795.5317	0.0013
795.7029	0.0074
795.874	0.0049
796.0452	0.006
796.2163	0.0188
796.3873	0.0023
796.5584	0.0087
796.7294	0.0073
796.9005	0.007
797.0715	0.0086
797.2425	0.0124
797.4134	0.0055
797.5844	0.0112
797.7553	0.0136
797.9262	0.0014
798.0971	0.0114
798.2679	0.0103
798.4388	-0.0009
798.6096	-0.009
798.7804	0.0135
798.9512	0.0163
799.122	0.0316
799.2927	0.0106
799.4635	0.0064
799.6342	0.0147
799.8049	0.0232
799.9755	0.0045
800.1462	0.012
800.3168	0.0087
800.4874	0.0016
800.658	0.0136
800.8286	0.0114
800.9991	0.0325
801.1696	0.0144
801.3402	0.0082
801.5106	0.0186
801.6811	-0.0131
801.8516	0.0103
802.022	0.0165
802.1924	0.0027
802.3628	0.0139
802.5332	0.014
802.7035	-0.0061
802.8739	0.0072
803.0442	-0.0032
803.2145	0.0068
803.3847	-0.0018
803.555	0.0191
803.7252	0.0202
803.8954	0.0044
804.0656	0.0083
804.2358	0.0146
804.4059	0.0176
804.5761	0.004
804.7462	0.0077
804.9163	0.0007
805.0864	0.0026
805.2564	0.0009
805.4264	0.015
805.5965	0.0088
805.7665	0.0166
805.9364	0.0011
806.1064	0.0222
806.2763	0.0251
806.4462	0.014
806.6161	0.0041
806.786	0.0115
806.9559	0.0157
807.1257	0.0192
807.2955	0.0277
807.4653	0.0245
807.6351	0.0228
807.8048	0.0082
807.9746	0.0133
808.1443	0.0153
808.314	0.0221
808.4837	0.0268
808.6533	0.0086
808.8229	0.0069
808.9926	0.0124
809.1622	0.0268
809.3317	0.0299
809.5013	0.0479
809.6708	0.0193
809.8403	0.0141
810.0098	0.0119
810.1793	0.0093
810.3488	-0.0014
810.5182	0.0204
810.6876	0.0291
810.857	0.0214
811.0264	0.0086
811.1958	0.0109
811.3651	0.011
811.5344	0.043
811.7037	0.0116
811.873	0.0121
812.0422	0.0056
812.2115	0.0204
812.3807	0.016
812.5499	0.0081
812.7191	0.019
812.8882	0.0029
813.0574	-0.0005
813.2265	0.0327
813.3956	0.0255
813.5646	0.0133
813.7337	0.008
813.9027	0.0047
814.0718	0.0266
814.2407	0.0239
814.4097	0.045
814.5787	0.0158
814.7476	0.0168
814.9165	0.0006
815.0854	0.0015
815.2543	-0.0128
815.4232	0.0126
815.592	0.0222
815.7608	0.0232
815.9296	0.0137
816.0984	-0.0152
816.2671	-0.013
816.4359	-0.012
816.6046	0.0099
816.7733	-0.0008
816.942	-0.0011
817.1106	0.0027
817.2793	0.0051
817.4479	-0.0075
817.6165	0.0107
817.785	0.0063
817.9536	0.0187
818.1221	0.018
818.2906	0.0249
818.4591	0.0031
818.6276	0.0422
818.7961	-0.0039
818.9645	0.0023
819.1329	0.0217
819.3013	0.0224
819.4697	0.0299
819.638	-0.0132
819.8064	0.0193
819.9747	0.0107
820.143	0.0031
820.3113	-0.0069
820.4795	-0.0029
820.6477	-0.0063
820.816	-0.0332
820.9842	-0.0129
821.1523	0.0377
821.3205	0.0066
821.4886	-0.0006
821.6567	0.0083
821.8248	0.0023
821.9929	0.0236
822.1609	-0.0193
822.329	0.0331
822.497	-0.0045
822.665	-0.0257
822.833	-0.0044
823.0009	0.0019
823.1688	0.0169
823.3367	0.0089
823.5046	-0.0048
823.6725	-0.0341
823.8404	-0.0192
824.0082	-0.0119
824.176	0.0242
824.3438	0.0201
824.5116	0.0216
824.6793	0.0112
824.847	0.0094
825.0147	-0.0051
825.1824	-0.0048
825.3501	-0.0025
825.5177	0.0149
825.6854	-0.0028
825.853	0.0228
826.0206	0.0178
826.1881	0.0107
826.3557	0.0047
826.5232	0.0001
826.6907	0.0221
826.8582	0.0387
827.0257	0.0296
827.1931	0.0224
827.3605	0.014
827.528	0.0194
827.6953	0.024
827.8627	0.0142
828.03	0.0478
828.1974	0.0327
828.3647	0.0274
828.532	0.0116
828.6992	0.0231
828.8665	0.0414
829.0337	0.0503
829.2009	0.0516
829.3681	-0.02
829.5352	0.001
829.7024	-0.0129
829.8695	0.0132
830.0366	0.0164
830.2037	0.0156
830.3707	0.0067
830.5378	-0.0164
830.7048	-0.008
830.8718	0.0244
831.0388	-0.003
831.2057	0.0178
831.3727	0.0447
831.5396	-0.0004
831.7065	-0.0133
831.8734	0.0011
832.0402	-0.0341
832.2071	-0.0047
832.3739	-0.0107
832.5407	0.0185
832.7075	-0.0009
832.8742	0.0018
833.041	0.0079
833.2077	0.0029
833.3744	0.0455
833.541	0.0484
833.7077	0.0382
833.8743	0.0615
834.0409	0.0165
834.2075	0.0007
834.3741	0.0546
834.5407	0.0013
834.7072	0.0001
834.8737	0.0075
835.0402	0.024
835.2067	0.0007
835.3731	0.0281
835.5395	0.0196
835.706	0.0138
835.8723	-0.0148
836.0387	0.0524
836.2051	0.002
836.3714	-0.0266
836.5377	-0.052
836.704	-0.0075
836.8703	-0.0273
837.0365	-0.0385
837.2027	-0.0134
837.3689	-0.016
837.5351	0.0112
837.7013	-0.0166
837.8674	0.0191
838.0335	-0.0107
838.1997	-0.0299
838.3657	0.0618
838.5318	0.0009
838.6978	0.0181
838.8639	-0.0199
839.0299	0.0194
839.1958	-0.0077
839.3618	0.0131
839.5277	0.0035
839.6937	-0.0015
839.8596	0.0001
840.0254	0.0692
840.1913	0.0297
840.3571	-0.0212
840.523	0.0265
840.6888	-0.0088
840.8545	0.017
841.0203	0.0369
841.186	0.0839
841.3517	0.0077
841.5174	-0.0089
841.6831	0.0042
841.8488	0.039
842.0144	0.0825
842.18	0.0173
842.3456	0.0541
842.5112	0.0303
842.6767	0.0047
842.8422	0.0277
843.0077	-0.0046
843.1732	0.0129
843.3387	-0.0416
843.5042	0.0808
843.6696	0.0175
843.835	-0.0233
844.0004	-0.0247
844.1657	0.0105
844.3311	0.0085
844.4964	0.0172
844.6617	-0.066
844.827	0.0715
844.9923	0.0537
845.1575	0.0597
845.3227	0.0002
845.4879	0.0203
845.6531	-0.0306
845.8183	-0.0733
845.9834	0.0702
846.1485	-0.0284
846.3136	-0.0382
846.4787	0.0562
846.6438	0.0268
846.8088	0.014
846.9738	-0.0405
847.1388	0.0511
847.3038	0.0156
847.4687	0.0612
847.6337	-0.0304
847.7986	0.0992
847.9635	-0.0011
848.1284	-0.0306
848.2932	0.0323
848.458	0.0739
848.6228	0.1304
848.7876	0.0566
848.9524	-0.0681
849.1172	0.0279
849.2819	-0.0053
849.4466	0.0315
849.6113	0.0408
849.7759	-0.03
849.9406	0.0099
850.1052	-0.0696
850.2698	-0.0027
850.4344	-0.0194
850.599	0.0269
850.7635	0.0727
850.928	0.0534
851.0925	0.0591
851.257	0.1131
851.4215	-0.1021
851.5859	0.0985
851.7503	-0.0514
851.9147	-0.0028
852.0791	0.064
852.2434	0.0783
852.4078	-0.0994
852.5721	0.1143
852.7364	0.0075
852.9007	-0.2076
853.0649	0.0758
853.2291	0.1005
853.3934	-0.047
853.5575	-0.0284
853.7217	0.1499
853.8859	-0.0867
854.05	-0.0502
854.2141	-0.002
854.3782	0.0394
854.5423	0.0097
854.7063	-0.119
854.8703	0.0068
855.0343	-0.0283
855.1983	0.053
855.3623	0.0095
855.5262	0.1397
855.6901	-0.2213
855.854	-0.0577
856.0179	0.0593
856.1818	0.1242
856.3456	0.0701
856.5094	0.0526
856.6732	-0.1282
856.837	0.2487
857.0008	-0.1763
857.1645	0.1047
857.3282	0.1358
857.4919	0.0911
857.6556	-0.0351
857.8192	-0.0137
857.9828	0.1294
858.1465	0.0006
858.31	-0.0595
858.4736	-0.0239
858.6372	-0.1783
858.8007	-0.3714
858.9642	0.2205
859.1277	-0.1081
859.2911	-0.1249
859.4546	0.0385
859.618	-0.5189
859.7814	-0.1043
859.9448	-0.0319
860.1081	-0.038
860.2715	0.1237
860.4348	0.2094
860.5981	0.0939
860.7614	0.0495
860.9246	0.0529
861.0879	-0.0072
861.2511	0.481
861.4143	0.2082
861.5774	0.049
861.7406	-0.1763
861.9037	-0.4799
862.0668	-0.1406
862.2299	0.2947
862.393	0.1289
862.556	0.0134
862.7191	0.0444
862.8821	-0.2727
863.0451	0.562
863.208	0.1596
863.371	-0.4887
863.5339	0.0008
863.6968	-0.1302
863.8597	0.0749
864.0225	0.0913
864.1854	0.1619
864.3482	0.1796
864.511	-0.1868
864.6737	0.7902
864.8365	0.1738
864.9992	0.0796
865.1619	-0.1023
865.3246	0.2821
865.4873	-0.0186
865.65	-0.3604
865.8126	0.1254
865.9752	0.2082
866.1378	0.4068
866.3004	-0
866.4629	0.1149
866.6254	-0.3038
866.7879	0.1914
866.9504	-0
867.1129	0.1821
867.2753	0.1266
867.4377	-0.3115
867.6001	0.6509
867.7625	0.313
867.9249	-0.1768
868.0872	0.1476
868.2495	0.2504
868.4118	0.5582
868.5741	0.134
868.7363	0.4555
868.8986	-0.2924
869.0608	-0.2106
869.223	-0.0834
869.3851	-0.1734
869.5473	-0.1247
869.7094	0.0142
869.8715	-0
870.0336	-0
870.1957	-0
870.3577	-0.3473
870.5197	-0
870.6817	0.8938
870.8437	0.8294
871.0057	-0.1689
871.1676	-0.3408
871.3295	-1.3617
871.4914	-0
871.6533	0.113
871.8151	-0.2716
871.977	0.4879
872.1388	-0
872.3006	-0
872.4623	0.0844
872.6241	-0.1379
872.7858	0.0822
872.9475	0.0876
873.1092	0.2028
873.2709	-0
873.4325	0.0063
873.5941	-0
873.7557	-0
873.9173	0.0021
874.0789	0.2104
874.2404	0.197
874.4019	-0.258
874.5634	-0.2027
874.7249	0.1251
874.8863	0.3578
875.0478	0.3883
875.2092	-0.337
875.3706	-0.3101
875.5319	-0
875.6933	-0.3968
875.8546	0.0016
876.0159	0.0304
876.1772	-0
876.3385	-0.247
876.4997	-0
876.6609	-0.256
876.8221	-0.98
876.9833	-0
877.1445	0.0362
877.3056	-0.3162
877.4667	-0.1128
877.6278	0.1862
877.7889	-0
877.9499	-0.0921
878.111	-0.1747
878.272	-0.0171
878.433	0.1392
878.5939	0.6173
878.7549	0.1208
878.9158	-0.2267
879.0767	-0.0962
879.2376	0.1342
879.3984	0.029
879.5593	-0.1499
879.7201	-0.0457
879.8809	1.5223
880.0417	0.334
880.2024	-0
880.3632	-0
880.5239	-0
880.6846	-0.1381
880.8452	-0.1815
881.0059	-0.4225
881.1665	-0
881.3271	-0.4861
881.4877	-0
881.6483	-0.055
881.8088	-0.3374
881.9693	-0.3601
882.1298	-0.3601
882.2903	-0.3601
