Data from MonoPyChalIsomerACN10uM400nmA_Absorbance_12-08-44-130.txt Node
Date: Fri Jul 05 12:08:44 BST 2024
User: LASERRRRR
Spectrometer: FLMT03099
Trigger mode: 0
Integration Time (sec): 1.000000E-1
Scans to average: 1
Electric dark correction enabled: true
Nonlinearity correction enabled: false
Boxcar width: 0
XAxis mode: Wavelengths
Number of Pixels in Spectrum: 3648
>>>>>Begin Spectral Data<<<<<
179.3399	0.2005
179.5586	0.2005
179.7771	0.2005
179.9957	0.5051
180.2143	-0
180.4329	-0
180.6514	-0.6637
180.8699	0.1194
181.0885	0.5001
181.307	-0.1198
181.5255	-0.8696
181.744	-0
181.9625	-0.899
182.181	-0
182.3994	-0.7233
182.6179	-0
182.8363	0.1402
183.0547	0.2404
183.2732	0.5616
183.4916	-0.0075
183.71	0.0368
183.9284	0.1339
184.1467	-0.0129
184.3651	-0.2189
184.5835	0.1752
184.8018	-0.0024
185.0201	-0.0209
185.2385	0.1245
185.4568	-0.0244
185.6751	0.1571
185.8934	-0.0031
186.1117	0.2767
186.3299	0.0946
186.5482	0.2346
186.7664	0.5896
186.9847	0.3324
187.2029	0.4147
187.4211	-0.227
187.6393	-0.009
187.8575	0.388
188.0757	0.0316
188.2939	0.0673
188.512	0.1463
188.7302	0.2363
188.9483	0.2341
189.1665	0.0562
189.3846	0.0322
189.6027	0.1027
189.8208	0.0751
190.0389	0.2989
190.257	0.1782
190.475	1.0697
190.6931	0.5406
190.9111	0.5779
191.1292	0.1208
191.3472	0.3296
191.5652	0.0964
191.7832	0.5917
192.0012	0.625
192.2192	0.4653
192.4371	0.4827
192.6551	0.3962
192.873	0.5012
193.091	0.4145
193.3089	0.4887
193.5268	0.5235
193.7447	0.8964
193.9626	0.7555
194.1805	0.4521
194.3984	0.522
194.6162	0.619
194.8341	0.6521
195.0519	1.0492
195.2697	0.605
195.4875	0.8804
195.7054	0.4669
195.9231	0.6848
196.1409	0.5612
196.3587	0.5531
196.5765	0.6464
196.7942	0.6746
197.012	0.6027
197.2297	0.7374
197.4474	0.5932
197.6651	0.5589
197.8828	0.6232
198.1005	0.8145
198.3182	0.6389
198.5358	0.8703
198.7535	0.6532
198.9711	0.5653
199.1888	0.7926
199.4064	1.1358
199.624	0.8885
199.8416	0.7327
200.0592	0.7532
200.2767	0.697
200.4943	0.6466
200.7119	0.7262
200.9294	0.753
201.1469	0.8704
201.3645	0.6588
201.582	0.6608
201.7995	1.0088
202.017	0.7293
202.2344	0.7197
202.4519	0.8852
202.6694	0.861
202.8868	0.7127
203.1042	0.718
203.3217	0.7697
203.5391	0.8969
203.7565	0.8204
203.9739	0.7257
204.1913	0.9529
204.4086	0.8958
204.626	1.0504
204.8433	0.9746
205.0607	0.7652
205.278	0.8701
205.4953	0.8455
205.7126	0.7267
205.9299	1.1918
206.1472	0.8424
206.3644	0.7206
206.5817	0.7844
206.7989	0.6484
207.0162	0.6727
207.2334	0.8538
207.4506	0.7913
207.6678	0.7766
207.885	0.7254
208.1022	0.8129
208.3194	0.7264
208.5365	0.7102
208.7537	0.896
208.9708	0.7408
209.1879	0.8073
209.405	0.7291
209.6222	0.8907
209.8392	0.7707
210.0563	0.8528
210.2734	0.66
210.4905	0.7502
210.7075	0.8127
210.9245	0.7416
211.1416	0.6871
211.3586	0.9072
211.5756	0.7758
211.7926	0.8175
212.0096	0.678
212.2265	0.7353
212.4435	0.7356
212.6604	0.7382
212.8774	0.8202
213.0943	0.7754
213.3112	0.7025
213.5281	0.6581
213.745	0.736
213.9619	0.626
214.1788	0.6948
214.3956	0.7234
214.6125	0.6519
214.8293	0.6777
215.0461	0.6254
215.2629	0.6708
215.4798	0.6423
215.6965	0.6468
215.9133	0.626
216.1301	0.603
216.3469	0.6702
216.5636	0.623
216.7803	0.6857
216.9971	0.6149
217.2138	0.6607
217.4305	0.6525
217.6472	0.5822
217.8639	0.6279
218.0805	0.6079
218.2972	0.5846
218.5138	0.5959
218.7305	0.5875
218.9471	0.5714
219.1637	0.5852
219.3803	0.5291
219.5969	0.581
219.8135	0.5852
220.0301	0.6034
220.2466	0.5444
220.4632	0.5398
220.6797	0.5643
220.8962	0.5635
221.1127	0.5852
221.3292	0.5667
221.5457	0.5835
221.7622	0.5274
221.9787	0.5187
222.1951	0.5622
222.4116	0.5697
222.628	0.5824
222.8444	0.548
223.0608	0.5693
223.2772	0.5168
223.4936	0.5243
223.71	0.5727
223.9264	0.5529
224.1427	0.5636
224.3591	0.5642
224.5754	0.5361
224.7917	0.5517
225.008	0.5744
225.2243	0.5715
225.4406	0.5548
225.6569	0.5564
225.8732	0.57
226.0894	0.5287
226.3057	0.542
226.5219	0.5641
226.7381	0.6215
226.9543	0.564
227.1705	0.5453
227.3867	0.5467
227.6029	0.5417
227.8191	0.539
228.0352	0.5805
228.2513	0.5606
228.4675	0.6041
228.6836	0.5786
228.8997	0.5649
229.1158	0.582
229.3319	0.5754
229.548	0.5898
229.764	0.6058
229.9801	0.6104
230.1961	0.589
230.4121	0.5911
230.6282	0.5656
230.8442	0.5713
231.0602	0.5547
231.2761	0.5366
231.4921	0.5697
231.7081	0.5673
231.924	0.5774
232.14	0.5616
232.3559	0.5568
232.5718	0.5997
232.7877	0.5623
233.0036	0.5816
233.2195	0.5873
233.4353	0.5966
233.6512	0.5882
233.867	0.6112
234.0829	0.5672
234.2987	0.581
234.5145	0.559
234.7303	0.5709
234.9461	0.5729
235.1619	0.5718
235.3776	0.5737
235.5934	0.5482
235.8091	0.557
236.0249	0.5545
236.2406	0.5602
236.4563	0.5724
236.672	0.5718
236.8877	0.59
237.1034	0.5449
237.319	0.5256
237.5347	0.5786
237.7503	0.5491
237.966	0.5438
238.1816	0.5582
238.3972	0.5651
238.6128	0.5428
238.8284	0.5142
239.0439	0.5452
239.2595	0.5286
239.475	0.5456
239.6906	0.5403
239.9061	0.5259
240.1216	0.5328
240.3371	0.5328
240.5526	0.5426
240.7681	0.5594
240.9836	0.5488
241.199	0.5226
241.4145	0.4971
241.6299	0.4832
241.8453	0.4862
242.0607	0.4928
242.2761	0.4882
242.4915	0.4564
242.7069	0.4632
242.9223	0.4635
243.1376	0.4403
243.353	0.4568
243.5683	0.4375
243.7836	0.4289
243.9989	0.4312
244.2142	0.4115
244.4295	0.3944
244.6448	0.3927
244.86	0.4047
245.0753	0.3746
245.2905	0.3656
245.5057	0.371
245.721	0.3735
245.9362	0.3458
246.1514	0.3492
246.3665	0.3343
246.5817	0.3278
246.7969	0.3127
247.012	0.3347
247.2271	0.3348
247.4423	0.3133
247.6574	0.3059
247.8725	0.3057
248.0876	0.3045
248.3026	0.2934
248.5177	0.3005
248.7328	0.2985
248.9478	0.2819
249.1628	0.2652
249.3779	0.2511
249.5929	0.2668
249.8079	0.2612
250.0228	0.2674
250.2378	0.261
250.4528	0.2352
250.6677	0.2373
250.8827	0.2339
251.0976	0.2411
251.3125	0.2364
251.5274	0.24
251.7423	0.2345
251.9572	0.2193
252.172	0.2278
252.3869	0.2107
252.6017	0.211
252.8166	0.2145
253.0314	0.2066
253.2462	0.2054
253.461	0.2166
253.6758	0.1983
253.8906	0.2094
254.1053	0.216
254.3201	0.2104
254.5348	0.2078
254.7496	0.2027
254.9643	0.2063
255.179	0.189
255.3937	0.2115
255.6083	0.2009
255.823	0.1978
256.0377	0.189
256.2523	0.1995
256.467	0.1874
256.6816	0.2022
256.8962	0.2068
257.1108	0.2009
257.3254	0.2012
257.54	0.1779
257.7545	0.1878
257.9691	0.2117
258.1836	0.1869
258.3981	0.1848
258.6127	0.1948
258.8272	0.2001
259.0417	0.1895
259.2561	0.1934
259.4706	0.1904
259.6851	0.1892
259.8995	0.1877
260.114	0.1788
260.3284	0.1928
260.5428	0.1889
260.7572	0.1918
260.9716	0.1848
261.186	0.2004
261.4003	0.1888
261.6147	0.1971
261.829	0.2043
262.0433	0.1832
262.2577	0.185
262.472	0.1893
262.6863	0.2036
262.9005	0.1887
263.1148	0.1893
263.3291	0.1823
263.5433	0.1847
263.7576	0.1895
263.9718	0.1818
264.186	0.1902
264.4002	0.1952
264.6144	0.183
264.8286	0.1851
265.0427	0.1977
265.2569	0.194
265.471	0.187
265.6851	0.1768
265.8993	0.1855
266.1134	0.1647
266.3275	0.1929
266.5415	0.1812
266.7556	0.1945
266.9697	0.2001
267.1837	0.1912
267.3978	0.1904
267.6118	0.1918
267.8258	0.203
268.0398	0.2005
268.2538	0.1886
268.4677	0.1989
268.6817	0.1884
268.8957	0.1997
269.1096	0.1812
269.3235	0.1675
269.5374	0.1866
269.7514	0.1696
269.9652	0.1914
270.1791	0.1754
270.393	0.1642
270.6068	0.196
270.8207	0.1919
271.0345	0.1639
271.2483	0.1857
271.4622	0.1813
271.676	0.1652
271.8897	0.1891
272.1035	0.1815
272.3173	0.1762
272.531	0.1753
272.7448	0.1628
272.9585	0.1769
273.1722	0.187
273.3859	0.1787
273.5996	0.1846
273.8133	0.1806
274.0269	0.1831
274.2406	0.1778
274.4542	0.1698
274.6679	0.1784
274.8815	0.1789
275.0951	0.1961
275.3087	0.1825
275.5223	0.1673
275.7358	0.1777
275.9494	0.1838
276.1629	0.1734
276.3765	0.1831
276.59	0.1787
276.8035	0.1828
277.017	0.1656
277.2305	0.1867
277.444	0.1855
277.6574	0.1909
277.8709	0.1638
278.0843	0.1892
278.2978	0.1692
278.5112	0.193
278.7246	0.191
278.938	0.1784
279.1513	0.2027
279.3647	0.181
279.5781	0.186
279.7914	0.1755
280.0047	0.199
280.2181	0.1917
280.4314	0.1891
280.6447	0.1957
280.8579	0.1937
281.0712	0.1831
281.2845	0.179
281.4977	0.1985
281.711	0.1918
281.9242	0.1885
282.1374	0.1843
282.3506	0.1837
282.5638	0.1941
282.7769	0.2006
282.9901	0.1831
283.2033	0.1771
283.4164	0.1911
283.6295	0.177
283.8426	0.1959
284.0557	0.1746
284.2688	0.1709
284.4819	0.1872
284.695	0.1932
284.908	0.1854
285.1211	0.1832
285.3341	0.1973
285.5471	0.1864
285.7601	0.1812
285.9731	0.189
286.1861	0.2001
286.3991	0.1885
286.612	0.1732
286.825	0.177
287.0379	0.1902
287.2508	0.183
287.4637	0.1841
287.6766	0.1813
287.8895	0.1827
288.1024	0.182
288.3152	0.1795
288.5281	0.1845
288.7409	0.1815
288.9538	0.1918
289.1666	0.1857
289.3794	0.1833
289.5922	0.18
289.8049	0.1777
290.0177	0.189
290.2304	0.1823
290.4432	0.175
290.6559	0.1904
290.8686	0.1919
291.0813	0.1732
291.294	0.1853
291.5067	0.1749
291.7194	0.1696
291.932	0.1881
292.1447	0.1921
292.3573	0.1899
292.5699	0.1916
292.7825	0.1679
292.9951	0.192
293.2077	0.1845
293.4203	0.1827
293.6328	0.1941
293.8454	0.1749
294.0579	0.1838
294.2704	0.1785
294.4829	0.1882
294.6954	0.1908
294.9079	0.1766
295.1204	0.1777
295.3328	0.1706
295.5453	0.1728
295.7577	0.1731
295.9701	0.1645
296.1825	0.1852
296.3949	0.1733
296.6073	0.1802
296.8197	0.1837
297.0321	0.1765
297.2444	0.1668
297.4567	0.1729
297.6691	0.1639
297.8814	0.1805
298.0937	0.1773
298.306	0.1738
298.5182	0.1781
298.7305	0.1813
298.9428	0.1836
299.155	0.1623
299.3672	0.1543
299.5794	0.1709
299.7916	0.1531
300.0038	0.1769
300.216	0.1758
300.4282	0.176
300.6403	0.1805
300.8525	0.1733
301.0646	0.1798
301.2767	0.1814
301.4888	0.1755
301.7009	0.1744
301.913	0.1778
302.125	0.1708
302.3371	0.1744
302.5491	0.1781
302.7612	0.1484
302.9732	0.168
303.1852	0.1808
303.3972	0.1714
303.6092	0.1702
303.8211	0.1756
304.0331	0.1642
304.245	0.1634
304.457	0.1714
304.6689	0.1678
304.8808	0.1589
305.0927	0.1471
305.3046	0.1632
305.5164	0.1611
305.7283	0.1547
305.9401	0.1613
306.152	0.1535
306.3638	0.1572
306.5756	0.1478
306.7874	0.1492
306.9992	0.1474
307.2109	0.14
307.4227	0.1536
307.6344	0.1441
307.8462	0.1342
308.0579	0.1441
308.2696	0.1554
308.4813	0.1335
308.693	0.1454
308.9046	0.1324
309.1163	0.1385
309.328	0.1286
309.5396	0.1367
309.7512	0.1414
309.9628	0.1285
310.1744	0.1294
310.386	0.1216
310.5976	0.1293
310.8091	0.1259
311.0207	0.1311
311.2322	0.1148
311.4437	0.132
311.6552	0.1196
311.8667	0.1157
312.0782	0.1279
312.2897	0.1147
312.5012	0.1158
312.7126	0.1202
312.924	0.1131
313.1355	0.1234
313.3469	0.1036
313.5583	0.1037
313.7696	0.1158
313.981	0.1149
314.1924	0.1239
314.4037	0.1137
314.6151	0.1084
314.8264	0.1135
315.0377	0.1147
315.249	0.1035
315.4603	0.109
315.6716	0.1126
315.8828	0.1042
316.0941	0.1013
316.3053	0.1139
316.5165	0.1134
316.7277	0.0984
316.9389	0.1182
317.1501	0.1091
317.3613	0.0935
317.5724	0.1069
317.7836	0.109
317.9947	0.109
318.2058	0.1199
318.417	0.1113
318.6281	0.1083
318.8391	0.1099
319.0502	0.1081
319.2613	0.1151
319.4723	0.1034
319.6834	0.107
319.8944	0.1095
320.1054	0.1112
320.3164	0.1199
320.5274	0.0945
320.7383	0.1101
320.9493	0.1008
321.1602	0.1149
321.3712	0.1031
321.5821	0.1077
321.793	0.1103
322.0039	0.1116
322.2148	0.1018
322.4257	0.1038
322.6365	0.1142
322.8474	0.0955
323.0582	0.1243
323.269	0.1147
323.4798	0.111
323.6906	0.1093
323.9014	0.1111
324.1122	0.1095
324.3229	0.1223
324.5337	0.1041
324.7444	0.1221
324.9551	0.1145
325.1658	0.1031
325.3765	0.1106
325.5872	0.1089
325.7979	0.1159
326.0085	0.0958
326.2192	0.0922
326.4298	0.1306
326.6404	0.1131
326.851	0.1019
327.0616	0.1224
327.2722	0.1088
327.4828	0.1273
327.6933	0.115
327.9039	0.112
328.1144	0.1105
328.3249	0.1059
328.5354	0.1127
328.7459	0.103
328.9564	0.1032
329.1669	0.1261
329.3773	0.116
329.5878	0.1063
329.7982	0.1086
330.0086	0.1077
330.219	0.1167
330.4294	0.1128
330.6398	0.1135
330.8502	0.1284
331.0605	0.1286
331.2708	0.1048
331.4812	0.116
331.6915	0.1169
331.9018	0.1144
332.1121	0.1171
332.3224	0.1246
332.5326	0.1202
332.7429	0.0896
332.9531	0.1071
333.1633	0.1149
333.3735	0.1022
333.5837	0.1128
333.7939	0.1125
334.0041	0.1237
334.2143	0.1166
334.4244	0.1198
334.6346	0.097
334.8447	0.1229
335.0548	0.1169
335.2649	0.1255
335.475	0.1016
335.685	0.1032
335.8951	0.1217
336.1051	0.1171
336.3152	0.109
336.5252	0.1108
336.7352	0.127
336.9452	0.1052
337.1552	0.1428
337.3652	0.126
337.5751	0.1215
337.7851	0.1162
337.995	0.1323
338.2049	0.1169
338.4148	0.1292
338.6247	0.1068
338.8346	0.1158
339.0445	0.11
339.2543	0.1297
339.4642	0.1392
339.674	0.1174
339.8838	0.127
340.0936	0.1197
340.3034	0.1282
340.5132	0.1221
340.7229	0.1302
340.9327	0.1241
341.1424	0.1164
341.3522	0.1135
341.5619	0.1299
341.7716	0.1291
341.9813	0.1105
342.1909	0.1284
342.4006	0.128
342.6102	0.1341
342.8199	0.1128
343.0295	0.1333
343.2391	0.1304
343.4487	0.1298
343.6583	0.1231
343.8679	0.135
344.0774	0.1367
344.287	0.145
344.4965	0.1345
344.706	0.1373
344.9155	0.1219
345.125	0.1212
345.3345	0.1291
345.544	0.1325
345.7534	0.1331
345.9629	0.1462
346.1723	0.1367
346.3817	0.1356
346.5911	0.1354
346.8005	0.1361
347.0099	0.1328
347.2193	0.1311
347.4286	0.1433
347.638	0.1374
347.8473	0.1416
348.0566	0.1377
348.2659	0.1364
348.4752	0.1513
348.6845	0.1407
348.8937	0.1412
349.103	0.1296
349.3122	0.1404
349.5214	0.1502
349.7306	0.1472
349.9398	0.1445
350.149	0.1555
350.3582	0.1411
350.5674	0.1514
350.7765	0.1464
350.9856	0.1433
351.1948	0.1463
351.4039	0.1536
351.613	0.1414
351.822	0.1497
352.0311	0.1396
352.2402	0.1432
352.4492	0.1493
352.6582	0.1407
352.8672	0.1468
353.0762	0.1537
353.2852	0.1394
353.4942	0.159
353.7032	0.1574
353.9121	0.1361
354.1211	0.1371
354.33	0.155
354.5389	0.1483
354.7478	0.1643
354.9567	0.1491
355.1655	0.1668
355.3744	0.1509
355.5833	0.169
355.7921	0.1618
356.0009	0.1799
356.2097	0.1634
356.4185	0.1417
356.6273	0.1668
356.8361	0.1619
357.0448	0.1613
357.2536	0.1597
357.4623	0.1604
357.671	0.1665
357.8797	0.1612
358.0884	0.1707
358.2971	0.1729
358.5057	0.1625
358.7144	0.1742
358.923	0.1596
359.1316	0.1825
359.3402	0.1722
359.5488	0.1579
359.7574	0.1694
359.966	0.1706
360.1746	0.1644
360.3831	0.1751
360.5916	0.1782
360.8002	0.1688
361.0087	0.187
361.2172	0.1707
361.4256	0.1888
361.6341	0.1568
361.8426	0.1888
362.051	0.1775
362.2594	0.1704
362.4678	0.1741
362.6762	0.1864
362.8846	0.1912
363.093	0.1632
363.3014	0.1861
363.5097	0.1806
363.718	0.193
363.9264	0.1979
364.1347	0.1907
364.343	0.1796
364.5513	0.1911
364.7595	0.1814
364.9678	0.1875
365.176	0.2017
365.3842	0.1958
365.5925	0.1874
365.8007	0.1956
366.0089	0.1848
366.217	0.1938
366.4252	0.1947
366.6333	0.1977
366.8415	0.2023
367.0496	0.1853
367.2577	0.2108
367.4658	0.2067
367.6739	0.1865
367.882	0.1768
368.09	0.2145
368.2981	0.2025
368.5061	0.197
368.7141	0.195
368.9221	0.2047
369.1301	0.2026
369.3381	0.1965
369.5461	0.2065
369.754	0.2017
369.962	0.1966
370.1699	0.211
370.3778	0.2124
370.5857	0.2265
370.7936	0.2103
371.0015	0.2135
371.2093	0.2157
371.4172	0.1948
371.625	0.2035
371.8328	0.2299
372.0406	0.2122
372.2484	0.207
372.4562	0.216
372.664	0.2174
372.8717	0.1777
373.0795	0.2162
373.2872	0.2234
373.4949	0.2107
373.7026	0.2207
373.9103	0.2286
374.118	0.2025
374.3256	0.224
374.5333	0.2219
374.7409	0.2013
374.9485	0.219
375.1561	0.2216
375.3637	0.2065
375.5713	0.2197
375.7789	0.2149
375.9864	0.2289
376.194	0.222
376.4015	0.2222
376.609	0.2049
376.8165	0.2111
377.024	0.2181
377.2315	0.225
377.4389	0.2297
377.6464	0.2196
377.8538	0.2161
378.0612	0.2287
378.2686	0.2413
378.476	0.2203
378.6834	0.2325
378.8908	0.2173
379.0981	0.2317
379.3055	0.2342
379.5128	0.2162
379.7201	0.2386
379.9274	0.2304
380.1347	0.222
380.342	0.2279
380.5492	0.2405
380.7565	0.2491
380.9637	0.2463
381.1709	0.2372
381.3781	0.2285
381.5853	0.2512
381.7925	0.2412
381.9997	0.236
382.2068	0.2345
382.4139	0.2445
382.6211	0.2421
382.8282	0.2376
383.0353	0.2309
383.2424	0.2196
383.4494	0.2306
383.6565	0.2414
383.8635	0.2383
384.0706	0.2452
384.2776	0.2269
384.4846	0.2283
384.6916	0.246
384.8986	0.2233
385.1055	0.2381
385.3125	0.242
385.5194	0.2315
385.7263	0.2539
385.9333	0.2356
386.1402	0.2369
386.347	0.2535
386.5539	0.2525
386.7608	0.2353
386.9676	0.2346
387.1744	0.233
387.3813	0.2319
387.5881	0.2382
387.7948	0.2358
388.0016	0.2325
388.2084	0.2277
388.4151	0.2232
388.6219	0.2398
388.8286	0.2461
389.0353	0.2122
389.242	0.2368
389.4487	0.2307
389.6553	0.2212
389.862	0.2472
390.0686	0.2426
390.2753	0.2458
390.4819	0.2434
390.6885	0.2435
390.8951	0.2155
391.1016	0.2284
391.3082	0.2252
391.5147	0.2002
391.7213	0.2207
391.9278	0.2092
392.1343	0.212
392.3408	0.2129
392.5473	0.2128
392.7537	0.2144
392.9602	0.2185
393.1666	0.2027
393.373	0.1965
393.5794	0.2139
393.7858	0.2019
393.9922	0.2334
394.1986	0.2314
394.4049	0.212
394.6113	0.202
394.8176	0.2109
395.0239	0.2193
395.2302	0.1971
395.4365	0.1992
395.6428	0.225
395.8491	0.2065
396.0553	0.2214
396.2615	0.2093
396.4678	0.1983
396.674	0.2108
396.8802	0.1851
397.0863	0.1928
397.2925	0.1938
397.4987	0.2006
397.7048	0.1892
397.9109	0.2167
398.117	0.1892
398.3231	0.1985
398.5292	0.2027
398.7353	0.1998
398.9413	0.1854
399.1474	0.1884
399.3534	0.1874
399.5594	0.1989
399.7654	0.1926
399.9714	0.2046
400.1774	0.1731
400.3833	0.1971
400.5893	0.1929
400.7952	0.2015
401.0011	0.2074
401.207	0.1914
401.4129	0.1977
401.6188	0.1882
401.8247	0.1967
402.0305	0.1897
402.2364	0.1839
402.4422	0.1946
402.648	0.1891
402.8538	0.1959
403.0596	0.193
403.2654	0.201
403.4711	0.183
403.6768	0.1998
403.8826	0.1959
404.0883	0.1804
404.294	0.2107
404.4997	0.1803
404.7054	0.1969
404.911	0.1875
405.1167	0.1763
405.3223	0.1828
405.5279	0.2024
405.7335	0.1936
405.9391	0.1957
406.1447	0.2093
406.3502	0.1943
406.5558	0.2032
406.7613	0.2058
406.9668	0.2007
407.1724	0.1904
407.3778	0.2023
407.5833	0.1764
407.7888	0.1948
407.9942	0.1879
408.1997	0.2023
408.4051	0.1935
408.6105	0.1791
408.8159	0.1763
409.0213	0.1867
409.2267	0.1972
409.432	0.212
409.6374	0.1898
409.8427	0.181
410.048	0.2148
410.2533	0.1916
410.4586	0.1715
410.6639	0.1957
410.8691	0.1882
411.0744	0.1962
411.2796	0.1801
411.4848	0.1843
411.69	0.185
411.8952	0.2002
412.1004	0.1668
412.3056	0.183
412.5107	0.161
412.7158	0.1766
412.921	0.1933
413.1261	0.1849
413.3312	0.1782
413.5362	0.1671
413.7413	0.1834
413.9464	0.2064
414.1514	0.1949
414.3564	0.1746
414.5614	0.152
414.7664	0.1854
414.9714	0.1927
415.1764	0.1992
415.3813	0.1781
415.5863	0.1984
415.7912	0.1873
415.9961	0.2
416.201	0.1902
416.4059	0.1852
416.6108	0.1915
416.8156	0.1927
417.0205	0.1644
417.2253	0.1839
417.4301	0.1844
417.6349	0.1786
417.8397	0.1748
418.0445	0.178
418.2492	0.1801
418.454	0.2001
418.6587	0.1852
418.8634	0.1842
419.0681	0.1869
419.2728	0.1697
419.4775	0.189
419.6822	0.1747
419.8868	0.1796
420.0915	0.1591
420.2961	0.1728
420.5007	0.1712
420.7053	0.1695
420.9099	0.1759
421.1144	0.1831
421.319	0.1811
421.5235	0.1911
421.728	0.1697
421.9325	0.1835
422.137	0.1477
422.3415	0.1757
422.546	0.1769
422.7504	0.1774
422.9549	0.1758
423.1593	0.1825
423.3637	0.1764
423.5681	0.1589
423.7725	0.1522
423.9769	0.1608
424.1812	0.1684
424.3856	0.155
424.5899	0.1437
424.7942	0.1547
424.9985	0.178
425.2028	0.1449
425.4071	0.1465
425.6113	0.1677
425.8156	0.1613
426.0198	0.1713
426.224	0.1724
426.4282	0.1664
426.6324	0.1615
426.8366	0.1424
427.0407	0.1658
427.2449	0.1707
427.449	0.1563
427.6531	0.1383
427.8572	0.1366
428.0613	0.1433
428.2654	0.1377
428.4694	0.1553
428.6735	0.1364
428.8775	0.1514
429.0815	0.144
429.2855	0.1542
429.4895	0.1419
429.6935	0.1274
429.8975	0.1386
430.1014	0.1219
430.3053	0.1265
430.5093	0.1308
430.7132	0.1145
430.9171	0.1275
431.1209	0.1356
431.3248	0.1323
431.5286	0.1295
431.7325	0.1321
431.9363	0.1146
432.1401	0.1309
432.3439	0.1284
432.5477	0.1334
432.7514	0.1171
432.9552	0.1103
433.1589	0.1177
433.3627	0.1173
433.5664	0.1167
433.7701	0.1047
433.9737	0.1083
434.1774	0.1081
434.3811	0.0943
434.5847	0.1078
434.7883	0.1044
434.9919	0.1109
435.1955	0.0993
435.3991	0.097
435.6027	0.095
435.8062	0.0937
436.0098	0.1154
436.2133	0.0777
436.4168	0.1042
436.6203	0.0714
436.8238	0.0731
437.0272	0.0854
437.2307	0.1078
437.4341	0.0828
437.6375	0.0733
437.841	0.083
438.0443	0.0865
438.2477	0.0801
438.4511	0.0792
438.6545	0.073
438.8578	0.0941
439.0611	0.0855
439.2644	0.0711
439.4677	0.0553
439.671	0.0751
439.8743	0.0749
440.0775	0.0778
440.2808	0.0453
440.484	0.056
440.6872	0.076
440.8904	0.0543
441.0936	0.0504
441.2967	0.0546
441.4999	0.0525
441.703	0.0791
441.9062	0.067
442.1093	0.0429
442.3124	0.0804
442.5155	0.0466
442.7185	0.0708
442.9216	0.0401
443.1246	0.0699
443.3276	0.0534
443.5307	0.0623
443.7337	0.0438
443.9366	0.0402
444.1396	0.0358
444.3426	0.0387
444.5455	0.0485
444.7484	0.0528
444.9513	0.051
445.1542	0.0506
445.3571	0.0435
445.56	0.0522
445.7628	0.0472
445.9657	0.0501
446.1685	0.0512
446.3713	0.0379
446.5741	0.0402
446.7769	0.0515
446.9797	0.0413
447.1824	0.0331
447.3852	0.0402
447.5879	0.0419
447.7906	0.0533
447.9933	0.0388
448.196	0.0387
448.3986	0.0379
448.6013	0.0161
448.8039	0.0422
449.0066	0.0353
449.2092	0.028
449.4118	0.0357
449.6143	0.0183
449.8169	0.0407
450.0195	0.0209
450.222	0.0125
450.4245	0.0151
450.627	0.0207
450.8295	0.0205
451.032	0.0216
451.2345	0.0189
451.4369	0.0346
451.6394	0.0314
451.8418	0.0012
452.0442	0.0005
452.2466	0.0065
452.449	0.0253
452.6513	0.0184
452.8537	0.0188
453.056	-0.0039
453.2583	0.0264
453.4607	0.0186
453.663	0.0158
453.8652	0.0261
454.0675	0.0053
454.2697	0.0175
454.472	0.0132
454.6742	0.0184
454.8764	0.0091
455.0786	0.0066
455.2808	0.0128
455.4829	0.0217
455.6851	0.0381
455.8872	0.0189
456.0893	0.0167
456.2915	0.0138
456.4935	0.0043
456.6956	-0.0082
456.8977	0.0065
457.0997	0.0161
457.3018	0.0177
457.5038	0.0048
457.7058	0.011
457.9078	0.0078
458.1098	0.0058
458.3117	0.0145
458.5137	0.0059
458.7156	0.0127
458.9175	0.008
459.1194	-0.0022
459.3213	0.0101
459.5232	-0.0095
459.725	-0.0032
459.9269	-0.0011
460.1287	0.0065
460.3305	-0.0012
460.5323	0.0104
460.7341	0.0019
460.9359	0.0124
461.1376	0.0113
461.3394	-0.0026
461.5411	0.0073
461.7428	0.0146
461.9445	0.0033
462.1462	0.0039
462.3479	-0.008
462.5495	0.0011
462.7512	0.005
462.9528	0.0035
463.1544	0.0088
463.356	0.0196
463.5576	-0.0035
463.7592	0.0035
463.9607	0.0145
464.1623	-0.0022
464.3638	0.0369
464.5653	-0.0081
464.7668	-0.0006
464.9683	0.0097
465.1697	0.0114
465.3712	0.0016
465.5726	0.018
465.7741	0.0067
465.9755	-0.0015
466.1769	0.0105
466.3782	0.0113
466.5796	-0.0022
466.7809	0.0048
466.9823	-0.0032
467.1836	0.0132
467.3849	0.0054
467.5862	0.0067
467.7875	0.0198
467.9887	-0.01
468.19	-0.0029
468.3912	0.0082
468.5924	-0.0075
468.7936	0.0109
468.9948	-0.011
469.196	0.0115
469.3972	-0.0043
469.5983	-0.0023
469.7994	-0.0025
470.0006	-0.0284
470.2017	0.0019
470.4027	-0.0083
470.6038	-0.0141
470.8049	0.0057
471.0059	0.0126
471.2069	-0.0054
471.408	-0.0095
471.6089	-0.0038
471.8099	0.0059
472.0109	0.0153
472.2119	0.0082
472.4128	-0.0117
472.6137	0.0094
472.8146	0.0031
473.0155	-0.0033
473.2164	-0.0085
473.4173	-0.003
473.6181	-0.0116
473.819	-0.0036
474.0198	-0.0208
474.2206	-0.0067
474.4214	0.0069
474.6222	-0.0007
474.8229	0.0052
475.0237	-0.003
475.2244	-0.0063
475.4251	-0.0059
475.6258	0.0045
475.8265	-0.0115
476.0272	-0.0006
476.2278	-0.0105
476.4285	-0.0098
476.6291	-0.0134
476.8297	-0.0067
477.0303	0.004
477.2309	-0.0073
477.4315	-0.0058
477.632	-0.0096
477.8326	-0.0026
478.0331	-0.0316
478.2336	-0.0139
478.4341	-0.0082
478.6346	-0.0081
478.8351	-0.0044
479.0355	-0.0082
479.236	-0.0158
479.4364	-0.0123
479.6368	0.0095
479.8372	0.0068
480.0376	-0.0126
480.2379	-0.0069
480.4383	0.0075
480.6386	0.0004
480.8389	-0.0068
481.0392	0.0034
481.2395	-0.0042
481.4398	-0.0193
481.6401	-0.0035
481.8403	0.0012
482.0405	-0.0045
482.2408	-0.0173
482.441	-0.0054
482.6411	-0.0284
482.8413	-0.0104
483.0415	0.0043
483.2416	-0.0177
483.4417	-0.0067
483.6419	-0.0088
483.8419	-0.0066
484.042	0.0062
484.2421	-0.0107
484.4422	-0.0059
484.6422	0.0025
484.8422	-0.0028
485.0422	-0.0019
485.2422	-0.0067
485.4422	-0.0059
485.6422	-0.004
485.8421	-0.0009
486.042	0.0067
486.242	-0.0062
486.4419	-0.0086
486.6417	-0.004
486.8416	-0.0134
487.0415	-0.0097
487.2413	-0.0029
487.4411	-0.0003
487.641	0.0029
487.8408	-0.0133
488.0405	0.0051
488.2403	-0.0065
488.4401	0.0054
488.6398	-0.0079
488.8395	-0.0085
489.0392	-0.0058
489.2389	-0.0082
489.4386	-0.0067
489.6383	-0.0084
489.8379	-0.0015
490.0376	-0.0123
490.2372	-0.005
490.4368	-0.0142
490.6364	0.0036
490.836	-0.0118
491.0355	-0.0058
491.2351	-0.0079
491.4346	-0.0167
491.6341	-0.0119
491.8336	0.0022
492.0331	-0.0154
492.2326	-0.0127
492.432	-0.0019
492.6315	-0.0092
492.8309	-0.0044
493.0303	-0.0099
493.2297	-0.008
493.4291	-0.0045
493.6284	-0.0205
493.8278	-0.006
494.0271	-0.0038
494.2264	-0.0088
494.4257	-0.0155
494.625	-0.0065
494.8243	-0.0002
495.0236	-0.0136
495.2228	-0.0162
495.422	0.0011
495.6213	-0.0117
495.8205	-0.0092
496.0196	-0.0018
496.2188	0.002
496.418	-0.0075
496.6171	-0.0063
496.8162	-0.0036
497.0153	-0.0036
497.2144	-0.0131
497.4135	-0.0011
497.6126	-0.0127
497.8116	-0.0151
498.0107	-0.0079
498.2097	-0.0172
498.4087	-0.015
498.6077	-0.0048
498.8067	0.0134
499.0056	-0.0093
499.2046	-0.0005
499.4035	-0.0118
499.6024	-0.0073
499.8013	-0.0173
500.0002	-0.0036
500.199	0.0001
500.3979	-0.0037
500.5967	-0.0114
500.7956	-0.0085
500.9944	-0.005
501.1932	0.0037
501.3919	-0.0045
501.5907	-0.0117
501.7895	-0.0121
501.9882	-0.0062
502.1869	-0.0127
502.3856	-0.0114
502.5843	-0.0033
502.783	0.0017
502.9816	-0.0028
503.1803	-0.0012
503.3789	-0.011
503.5775	-0.0098
503.7761	-0.0106
503.9747	-0.007
504.1732	-0.0082
504.3718	0.0024
504.5703	-0.0017
504.7689	-0.0116
504.9674	-0.0152
505.1658	-0.0021
505.3643	0.0028
505.5628	-0.0029
505.7612	-0.0015
505.9597	-0.0048
506.1581	0.0056
506.3565	-0.0073
506.5549	-0.0055
506.7532	0.002
506.9516	-0.0064
507.1499	-0.0034
507.3482	0.0039
507.5465	0.0089
507.7448	-0.0031
507.9431	-0.0039
508.1414	-0.008
508.3396	0.0018
508.5379	-0.0087
508.7361	-0.0104
508.9343	-0.0047
509.1325	-0.0025
509.3306	-0.0084
509.5288	-0.011
509.7269	0.0059
509.9251	-0.002
510.1232	-0.0071
510.3213	0.0028
510.5193	-0.0023
510.7174	-0.0056
510.9154	-0.0017
511.1135	-0.0148
511.3115	-0.0038
511.5095	-0.0021
511.7075	0.0012
511.9055	-0.0172
512.1034	-0.0012
512.3014	0.0008
512.4993	0.0062
512.6972	-0.0007
512.8951	0.0035
513.093	-0.0111
513.2908	-0.0057
513.4887	-0.0009
513.6865	0.0072
513.8844	0.004
514.0822	0.0047
514.2799	-0.0164
514.4777	-0.0075
514.6755	-0.0002
514.8732	-0.0087
515.0709	-0.0064
515.2687	-0.0009
515.4664	-0.0025
515.664	-0.0072
515.8617	0.006
516.0594	0.0034
516.257	-0.0026
516.4546	-0.0104
516.6522	-0.0135
516.8498	-0.0026
517.0474	-0.005
517.2449	-0.0088
517.4425	-0.0027
517.64	-0.0115
517.8375	-0.0081
518.035	-0.0055
518.2325	-0.0103
518.43	0.004
518.6274	-0.0011
518.8249	0.0026
519.0223	-0.0055
519.2197	-0.0032
519.4171	-0.0005
519.6145	0.001
519.8118	-0.0072
520.0092	-0.0182
520.2065	-0.0096
520.4038	-0.0176
520.6011	-0.0012
520.7984	0.0078
520.9956	0.0044
521.1929	-0.0065
521.3901	-0.0093
521.5874	-0.0025
521.7846	-0.0009
521.9818	0.0049
522.1789	0.0012
522.3761	0.0001
522.5732	-0.0103
522.7704	-0.0037
522.9675	-0.0095
523.1646	0.0027
523.3617	-0.0105
523.5587	0.0052
523.7558	-0.0067
523.9528	0.0095
524.1498	0.0047
524.3468	-0.0071
524.5438	-0.001
524.7408	-0.0073
524.9378	0.0081
525.1347	0.0005
525.3316	-0.0002
525.5285	-0.0142
525.7254	0.0093
525.9223	-0.0046
526.1192	-0.001
526.316	-0.0019
526.5129	0.0029
526.7097	0.0051
526.9065	0.0066
527.1033	-0.0009
527.3	-0.0086
527.4968	-0.0049
527.6935	-0.0001
527.8903	0.0141
528.087	0.0115
528.2837	0.0101
528.4804	0.0105
528.677	0.0104
528.8737	-0.0025
529.0703	0.0031
529.2669	-0.0031
529.4635	0.0048
529.6601	-0.0091
529.8567	0.0088
530.0532	0.0102
530.2498	-0.0035
530.4463	-0.0046
530.6428	0.001
530.8393	-0.0055
531.0358	0.005
531.2322	0.007
531.4287	-0.0019
531.6251	0.0043
531.8215	-0.0098
532.0179	0.0039
532.2143	0.0182
532.4107	0.0024
532.607	-0.0041
532.8034	-0.0078
532.9997	0.0015
533.196	-0.0084
533.3923	-0.0039
533.5886	-0.0091
533.7848	0.0035
533.9811	-0.0007
534.1773	-0.0085
534.3735	-0.0068
534.5697	-0.006
534.7659	-0.004
534.9621	-0.0023
535.1582	0.0014
535.3544	-0.0033
535.5505	-0.0045
535.7466	0.0013
535.9427	0.0034
536.1387	-0.0014
536.3348	-0.0008
536.5308	-0.0101
536.7269	-0.0033
536.9229	0.0041
537.1189	0.0007
537.3148	0.0001
537.5108	0.0018
537.7068	0.0021
537.9027	-0.0078
538.0986	-0.0087
538.2945	-0.0007
538.4904	0.0095
538.6863	0.0057
538.8821	-0.0084
539.078	-0.0034
539.2738	0.0073
539.4696	0.0004
539.6654	0.0081
539.8611	0.0065
540.0569	-0.002
540.2526	-0.0001
540.4484	0.0085
540.6441	0.0004
540.8398	-0.0019
541.0355	0.0136
541.2311	0.0021
541.4268	0.0114
541.6224	-0.0007
541.818	0.0058
542.0136	-0.003
542.2092	0.0006
542.4048	-0.0007
542.6003	-0.0008
542.7959	-0.0048
542.9914	0.0042
543.1869	-0.0044
543.3824	0.0006
543.5779	0.0039
543.7734	0.0039
543.9688	0.0014
544.1642	-0.0013
544.3596	0.007
544.555	0.0009
544.7504	0.0095
544.9458	-0.0015
545.1411	0.0073
545.3365	0.0094
545.5318	0.0081
545.7271	0.0006
545.9224	0.0045
546.1177	-0.0057
546.3129	-0.005
546.5081	-0.0044
546.7034	-0.0055
546.8986	-0.0058
547.0938	-0.0023
547.289	0.0095
547.4841	0.009
547.6793	0.0022
547.8744	-0.0076
548.0695	0.0007
548.2646	-0.0043
548.4597	-0.0032
548.6548	0.0039
548.8498	0.0106
549.0448	0.0001
549.2399	-0.0038
549.4349	0.0035
549.6298	0.0103
549.8248	0.0027
550.0198	-0.0008
550.2147	-0.0008
550.4096	0.0054
550.6045	-0.0026
550.7994	-0.004
550.9943	-0.0024
551.1892	-0.0085
551.384	-0.0016
551.5788	0.0047
551.7737	-0.008
551.9685	-0.0016
552.1632	0.0029
552.358	0.0043
552.5528	-0.0052
552.7475	-0.006
552.9422	0.0118
553.1369	-0.0006
553.3316	0.004
553.5263	0.0107
553.7209	-0.01
553.9156	0.0049
554.1102	-0.0013
554.3048	0.003
554.4994	0.0037
554.694	0.0076
554.8885	0.0046
555.0831	-0.0009
555.2776	0.0113
555.4721	0.0191
555.6666	0.0016
555.8611	-0.0046
556.0555	0.0093
556.25	0.0138
556.4444	0.0119
556.6388	0.0031
556.8332	0.0044
557.0276	0.001
557.222	-0.0035
557.4163	0.001
557.6107	0.0113
557.805	0.0095
557.9993	-0.0065
558.1936	0.012
558.3879	0.0032
558.5821	0.0041
558.7764	0.005
558.9706	0.0033
559.1648	0.0026
559.359	0.0088
559.5532	-0.002
559.7473	0.0061
559.9415	0.0092
560.1356	0.0105
560.3297	-0.0013
560.5238	-0.0017
560.7179	0.009
560.9119	0.0113
561.106	0.0073
561.3	0.005
561.494	0.0037
561.688	0.0042
561.882	0.0069
562.076	-0.0067
562.2699	0.0092
562.4639	-0.0027
562.6578	-0.0012
562.8517	0.0041
563.0456	0.0003
563.2395	0.0012
563.4333	-0.0082
563.6272	-0.0002
563.821	-0.0069
564.0148	0.0083
564.2086	-0.0032
564.4024	-0.0055
564.5961	0.0086
564.7899	0.001
564.9836	0.0037
565.1773	0.0062
565.371	0.0073
565.5647	-0.0027
565.7584	0.0055
565.952	0.0004
566.1456	0.0136
566.3393	0.0056
566.5329	-0.0053
566.7264	0.002
566.92	-0.0011
567.1136	0.0187
567.3071	0.0084
567.5006	0.0104
567.6941	0.0003
567.8876	0.008
568.0811	0.0073
568.2745	0.0073
568.468	0.0052
568.6614	0.0015
568.8548	0.0032
569.0482	0.0079
569.2416	0.0061
569.4349	0.0029
569.6283	0.0053
569.8216	-0.0042
570.0149	-0.0025
570.2082	0.0091
570.4015	-0.0006
570.5947	0.0038
570.788	0.0041
570.9812	0.0121
571.1744	0.0025
571.3676	-0.0023
571.5608	-0
571.754	-0.0021
571.9471	-0.0046
572.1402	0.0004
572.3333	0.0108
572.5264	0.0026
572.7195	-0.0012
572.9126	0.005
573.1057	0.0066
573.2987	0.0038
573.4917	-0.0043
573.6847	0.0061
573.8777	0.0051
574.0707	0.0001
574.2636	0.0054
574.4566	0.0004
574.6495	0.0088
574.8424	0.0025
575.0353	0.0044
575.2281	0.0035
575.421	0.0074
575.6138	0.0039
575.8067	0.003
575.9995	-0.0027
576.1923	0.0046
576.385	0.0043
576.5778	-0.0056
576.7706	0.0068
576.9633	0.0014
577.156	0.0076
577.3487	0.003
577.5414	0.005
577.734	-0.0018
577.9267	0.0017
578.1193	0.0081
578.3119	-0.0013
578.5045	0.0046
578.6971	0.0032
578.8897	-0.0013
579.0822	0.0002
579.2747	0.0054
579.4673	0.0072
579.6598	0.0074
579.8522	0.0056
580.0447	0.0036
580.2372	0.0086
580.4296	0.0105
580.622	0.0063
580.8144	0.0117
581.0068	0.0062
581.1992	0.0078
581.3915	0.0017
581.5839	0.0034
581.7762	0.0053
581.9685	-0.0019
582.1608	-0.0001
582.353	-0.0009
582.5453	-0.0015
582.7375	-0.0063
582.9298	-0.0005
583.122	0.0103
583.3142	0.0051
583.5063	0.007
583.6985	-0.0052
583.8906	0.0089
584.0827	0.0031
584.2749	-0.0023
584.4669	-0.0054
584.659	-0.0048
584.8511	-0.0013
585.0431	-0.0027
585.2352	-0.0068
585.4272	0.0008
585.6192	0.0038
585.8111	-0.0067
586.0031	-0.0009
586.195	0.0042
586.387	0.0034
586.5789	-0.0018
586.7708	0.0041
586.9627	0.0001
587.1545	0.0063
587.3464	0.0041
587.5382	-0.0061
587.73	0.0108
587.9218	0.0053
588.1136	0.0034
588.3053	-0.0045
588.4971	0.0052
588.6888	0.0033
588.8805	0.0004
589.0722	0.0053
589.2639	0.0045
589.4556	0.0051
589.6472	0.0011
589.8389	-0.0017
590.0305	0.0058
590.2221	0.0067
590.4137	-0.0053
590.6052	0.0014
590.7968	0.0109
590.9883	-0.0034
591.1798	-0.0032
591.3713	0.0061
591.5628	0.0025
591.7543	0.01
591.9458	0.0094
592.1372	0.0017
592.3286	0.0039
592.52	0.0038
592.7114	0.0098
592.9028	-0.001
593.0941	0.008
593.2855	0.0003
593.4768	-0.0025
593.6681	-0.0018
593.8594	-0.0015
594.0506	-0.0095
594.2419	0.0022
594.4331	0.002
594.6244	0.0023
594.8156	0.0032
595.0067	0.0001
595.1979	-0.0046
595.3891	-0.0039
595.5802	0.0077
595.7713	-0.0033
595.9624	0.0069
596.1535	0.0014
596.3446	0.006
596.5357	0.0005
596.7267	0.0063
596.9177	-0.0012
597.1087	0.0092
597.2997	0.0019
597.4907	0.0012
597.6817	-0.0013
597.8726	0.0099
598.0635	0.0011
598.2544	0.0101
598.4453	0.014
598.6362	0.005
598.827	0.0047
599.0179	0.0005
599.2087	0.0031
599.3995	0.0077
599.5903	0.0096
599.7811	0.0052
599.9718	0.003
600.1626	0.0007
600.3533	0.0036
600.544	0.0001
600.7347	0.0025
600.9254	-0.0002
601.116	0.0039
601.3067	-0.0091
601.4973	0.0021
601.6879	0.0061
601.8785	0.005
602.0691	0.0036
602.2596	0.0011
602.4502	0.0021
602.6407	-0.0021
602.8312	-0.0088
603.0217	0.0071
603.2122	-0.0016
603.4027	0.0093
603.5931	0.0017
603.7835	0.0091
603.9739	0.0039
604.1643	0.0102
604.3547	0.011
604.5451	0.0019
604.7354	0.0007
604.9257	0.0001
605.116	-0.0024
605.3063	0.0026
605.4966	-0.0038
605.6869	0.0109
605.8771	-0.0035
606.0673	0.0043
606.2575	0.0028
606.4477	-0.0043
606.6379	0.0071
606.8281	-0.0002
607.0182	0.0061
607.2083	0.0042
607.3985	0.0038
607.5885	0.0037
607.7786	0.0007
607.9687	0.0013
608.1587	0.0049
608.3488	0.0112
608.5388	0.0097
608.7288	0.0001
608.9187	-0.0003
609.1087	0.0051
609.2986	0.007
609.4886	-0.0044
609.6785	0.0021
609.8684	0.0057
610.0582	0.0114
610.2481	0.0027
610.4379	0.0055
610.6278	-0.0043
610.8176	0.0035
611.0074	0.0054
611.1971	0.0005
611.3869	-0.001
611.5766	0.0042
611.7664	0.0037
611.9561	0.0078
612.1458	0.0116
612.3354	0.01
612.5251	0.0075
612.7147	0.0038
612.9044	0.0085
613.094	-0
613.2836	0.0104
613.4731	0.0026
613.6627	0.0035
613.8522	0.0063
614.0417	0.0066
614.2313	0.008
614.4207	-0.0014
614.6102	-0.0009
614.7997	-0.0011
614.9891	0.0062
615.1785	0.0061
615.3679	0.0104
615.5573	0.0119
615.7467	0.0065
615.9361	0.0032
616.1254	0.0035
616.3147	-0.0026
616.504	-0.0004
616.6933	0.0034
616.8826	0.0066
617.0718	0.0051
617.2611	0.0109
617.4503	0.0111
617.6395	0.0041
617.8287	0.0072
618.0179	0.0008
618.207	0.006
618.3961	0.0012
618.5853	0.0025
618.7744	0.0045
618.9634	0.0069
619.1525	0.0025
619.3416	0.0053
619.5306	0.0084
619.7196	-0.0117
619.9086	0.0027
620.0976	0.0108
620.2866	0.0075
620.4755	0.003
620.6645	0.0091
620.8534	0.0093
621.0423	0.0051
621.2312	0.0045
621.42	-0.0006
621.6089	0.0199
621.7977	0.0102
621.9865	0.0093
622.1753	0.0131
622.3641	0.0117
622.5529	0.0026
622.7416	0.0098
622.9303	0.0148
623.1191	0.0074
623.3078	0.0046
623.4964	0.0101
623.6851	0.0126
623.8737	0.0201
624.0624	0.0033
624.251	0.0074
624.4396	0.0067
624.6282	0.0086
624.8167	0.0155
625.0053	-0.0011
625.1938	0.0089
625.3823	0.0072
625.5708	0.0103
625.7593	0.0066
625.9477	0.0147
626.1362	0.0103
626.3246	0.0125
626.513	0.0053
626.7014	0.0071
626.8898	0.015
627.0781	0.0051
627.2665	-0.0001
627.4548	0.0051
627.6431	0.0065
627.8314	0.0057
628.0197	0.0053
628.2079	0.0078
628.3962	0.0084
628.5844	0.0131
628.7726	0.0043
628.9608	0.0057
629.1489	0.001
629.3371	0.0042
629.5252	0.0042
629.7134	0.0046
629.9015	0.0065
630.0895	0.0034
630.2776	0.0091
630.4657	0.0059
630.6537	0.0097
630.8417	0.0112
631.0297	0.0186
631.2177	0.0127
631.4057	0.0114
631.5936	0.0071
631.7815	0.0137
631.9695	0.0138
632.1574	0.0078
632.3452	0.0144
632.5331	-0.0006
632.7209	0.0008
632.9088	-0.0024
633.0966	0.0054
633.2844	0.0068
633.4722	0.0046
633.6599	0.0019
633.8477	0.0136
634.0354	-0.0024
634.2231	0.0068
634.4108	0.0095
634.5985	-0.0028
634.7861	0.005
634.9738	0.0103
635.1614	0.0059
635.349	0.0048
635.5366	0.0018
635.7242	0.0016
635.9117	-0.0033
636.0993	0.0101
636.2868	0.0099
636.4743	0.0014
636.6618	0.0077
636.8492	0.0168
637.0367	0.0075
637.2241	0.0126
637.4115	0.0139
637.5989	0.0174
637.7863	0.0143
637.9737	0.0003
638.161	0.0124
638.3484	0.0124
638.5357	0.0093
638.723	0.0039
638.9103	-0.0003
639.0975	-0.0034
639.2848	0.0033
639.472	0.0031
639.6592	0.0091
639.8464	0.0079
640.0336	-0.0016
640.2208	0.0005
640.4079	-0.0041
640.595	0.0002
640.7821	0.0013
640.9692	0.0061
641.1563	0.0039
641.3434	0.0021
641.5304	0.0029
641.7174	0.0126
641.9044	0.0003
642.0914	0.0104
642.2784	-0.0047
642.4653	0.0068
642.6523	-0.0003
642.8392	0.0081
643.0261	0.0043
643.213	-0.0006
643.3999	-0.0004
643.5867	0.0008
643.7735	0.0087
643.9604	0.0027
644.1472	0.0007
644.3339	0.0083
644.5207	0.0046
644.7075	-0.0038
644.8942	0.0048
645.0809	0.0046
645.2676	0.0073
645.4543	0.0133
645.6409	0.0047
645.8276	0.0062
646.0142	0.0098
646.2008	0.0131
646.3874	0.0162
646.574	0.0072
646.7605	0.0062
646.9471	0.0098
647.1336	0.0083
647.3201	0.0113
647.5066	-0.0017
647.6931	-0.0033
647.8795	-0.0001
648.0659	0.0086
648.2524	0.0073
648.4388	0.0095
648.6252	-0.0074
648.8115	-0.0019
648.9979	0.0086
649.1842	0.0009
649.3705	0.0003
649.5568	-0.0027
649.7431	0.0075
649.9294	0.0012
650.1156	0.0076
650.3018	0.0068
650.488	0.0038
650.6742	0.0053
650.8604	0.0134
651.0466	0.013
651.2327	0.0093
651.4188	0.0091
651.6049	0.0185
651.791	0.0054
651.9771	0.0175
652.1632	0.0093
652.3492	0.0102
652.5352	0.0076
652.7212	0.0085
652.9072	-0.0013
653.0932	0.0052
653.2791	0.005
653.465	0.0025
653.651	0.0064
653.8369	0.0041
654.0227	0.0078
654.2086	0.0041
654.3944	0.0029
654.5803	0.0022
654.7661	0.0023
654.9519	-0.0019
655.1377	0.0038
655.3234	0.0017
655.5092	-0.0001
655.6949	-0.0072
655.8806	-0.008
656.0663	-0.0003
656.2519	-0.001
656.4376	0.0016
656.6232	-0.0022
656.8088	0.0061
656.9945	-0.0036
657.18	0.0005
657.3656	0.0073
657.5511	-0.0036
657.7367	0.0045
657.9222	0.0034
658.1077	0.0053
658.2932	0.0064
658.4786	0.0022
658.6641	0.0015
658.8495	0.0076
659.0349	-0
659.2203	0.0063
659.4057	-0.0021
659.591	0.0007
659.7764	0.0045
659.9617	-0.0009
660.147	0.0093
660.3323	0.0027
660.5176	-0.0063
660.7028	0.0034
660.888	0.0107
661.0733	0.0081
661.2585	0.0109
661.4436	0.0084
661.6288	0.0133
661.8139	0.0022
661.9991	-0.0072
662.1842	0.0038
662.3693	-0.0003
662.5544	0.0139
662.7394	0.0097
662.9245	0.0088
663.1095	0.0122
663.2945	0.0064
663.4795	-0.001
663.6644	0.0104
663.8494	0.007
664.0343	0.0141
664.2193	0.014
664.4042	0.0098
664.589	0.0059
664.7739	0.0033
664.9587	0.005
665.1436	0.0038
665.3284	0.0044
665.5132	0.0073
665.698	0.0092
665.8827	0.0087
666.0675	0.011
666.2522	0.0121
666.4369	0.0038
666.6216	0.0148
666.8063	0.0061
666.9909	0.0027
667.1756	0.0135
667.3602	0.0028
667.5448	0.0145
667.7294	0.0072
667.9139	0.008
668.0985	0.0072
668.283	0.0049
668.4675	0.0058
668.652	0.0081
668.8365	0.0006
669.0209	0.0073
669.2054	0.0004
669.3898	0.0014
669.5742	0.0013
669.7586	0.0039
669.943	0.007
670.1273	0.0142
670.3117	0.0065
670.496	0.0071
670.6803	0.01
670.8646	0.0151
671.0488	0.006
671.2331	0.01
671.4173	0.0092
671.6015	0.0052
671.7857	0.0023
671.9699	0.0086
672.1541	0.0066
672.3382	0.0129
672.5223	0.0232
672.7064	0.0065
672.8905	0.0111
673.0746	0.0061
673.2587	0.0138
673.4427	0.0034
673.6267	0.0042
673.8107	0.0098
673.9947	0.0034
674.1787	0.0097
674.3626	0.019
674.5465	0.0056
674.7304	0.0116
674.9143	0.0128
675.0982	0.0055
675.2821	0.0046
675.4659	0.0134
675.6497	0.0027
675.8335	0.0071
676.0173	0.003
676.2011	0.0128
676.3849	0.0045
676.5686	0.0179
676.7523	0.0064
676.936	-0.0062
677.1197	0.0158
677.3034	0.0081
677.487	0.015
677.6706	0.019
677.8542	0.0073
678.0378	0.002
678.2214	0.0042
678.405	0.018
678.5885	0.016
678.772	0.0142
678.9555	0.0048
679.139	0.0099
679.3225	0.0133
679.5059	0.0095
679.6894	0.0086
679.8728	0.0057
680.0562	0.0072
680.2395	0.0119
680.4229	0.0077
680.6062	0.0014
680.7896	-0.0022
680.9729	0.002
681.1562	0.0141
681.3394	0.0101
681.5227	0.0106
681.7059	0.0003
681.8891	0.0054
682.0723	0.0065
682.2555	0.0022
682.4387	0.0042
682.6218	0.0122
682.805	0.0155
682.9881	0.0071
683.1712	0.0148
683.3542	0.0041
683.5373	0.011
683.7203	0.0156
683.9034	0.0075
684.0864	0.0041
684.2694	0.0089
684.4523	0.0092
684.6353	0.0008
684.8182	0.0046
685.0011	0.0079
685.184	-0.0003
685.3669	0.0022
685.5498	0.0043
685.7326	0.0021
685.9154	0.0069
686.0982	0.0129
686.281	0.0045
686.4638	0.0081
686.6465	0.0024
686.8293	0.0112
687.012	0.0118
687.1947	0.0101
687.3774	0.0125
687.56	0.0062
687.7427	0.0162
687.9253	0.0088
688.1079	0.0094
688.2905	0.0014
688.4731	0.0069
688.6556	0.0111
688.8382	0.0032
689.0207	0.0071
689.2032	0.0109
689.3857	0.0049
689.5681	0.0041
689.7506	-0.0008
689.933	0.0084
690.1154	0.0065
690.2978	0.0046
690.4802	0.0054
690.6626	0.0072
690.8449	0.0101
691.0272	0.0043
691.2095	0.0098
691.3918	0.0094
691.5741	0.0166
691.7563	0.0079
691.9386	0.0132
692.1208	-0.0015
692.303	0.0029
692.4852	0.008
692.6673	0.0095
692.8495	0.0123
693.0316	0.0082
693.2137	0.0158
693.3958	0.0066
693.5778	0.0062
693.7599	0.0052
693.9419	0.0046
694.1239	0.0169
694.3059	0.0117
694.4879	0.0161
694.6699	0.0073
694.8518	0.0105
695.0337	0.0116
695.2157	0.0074
695.3975	0.0024
695.5794	0.011
695.7613	0.0063
695.9431	0.0144
696.1249	0.0061
696.3067	-0.0032
696.4885	0.0076
696.6703	0.0094
696.852	0.0112
697.0337	0.0139
697.2154	0.0098
697.3971	0.0038
697.5788	0.0132
697.7605	0.0036
697.9421	-0.0067
698.1237	0.0126
698.3053	0.0096
698.4869	0.0212
698.6685	0.0115
698.85	0.012
699.0315	0.0187
699.213	0.0131
699.3945	0.0047
699.576	0.0233
699.7575	0.0185
699.9389	0.0146
700.1203	0.0163
700.3017	0.0135
700.4831	0.0068
700.6645	0.0029
700.8458	0.0095
701.0271	0.0083
701.2084	0.0028
701.3897	-0.0014
701.571	0.0022
701.7523	-0.0014
701.9335	0.0076
702.1147	0.0039
702.2959	-0.0004
702.4771	0.0035
702.6583	0.0023
702.8394	0.0034
703.0205	0.0006
703.2016	0.0111
703.3827	0.0036
703.5638	0.0062
703.7449	0.0131
703.9259	-0.0007
704.1069	-0.0024
704.2879	0.0051
704.4689	0.0078
704.6499	-0.0062
704.8308	0.0001
705.0117	0.0092
705.1927	0.0084
705.3735	0.004
705.5544	-0.0022
705.7353	0.0124
705.9161	0.0099
706.0969	0.0064
706.2777	0.0094
706.4585	0.0079
706.6393	0.0106
706.82	0.0047
707.0007	-0.0017
707.1815	0.0009
707.3621	0.0027
707.5428	0.0142
707.7235	-0.0007
707.9041	0.0143
708.0847	0.0168
708.2653	0.0129
708.4459	0.0086
708.6265	0.0162
708.807	0.0083
708.9875	0.0105
709.168	0.0157
709.3485	0.005
709.529	-0.002
709.7095	0.0149
709.8899	0.0084
710.0703	0.0109
710.2507	0.0072
710.4311	0.011
710.6115	0.0052
710.7918	0.0074
710.9721	0.011
711.1524	0.0061
711.3327	0.0053
711.513	-0.0034
711.6932	0.0049
711.8735	0.0005
712.0537	0.0048
712.2339	-0.0081
712.4141	0.0014
712.5942	-0.0031
712.7744	0.0042
712.9545	0.0083
713.1346	0.0039
713.3147	0.0022
713.4947	0.0019
713.6748	0.0079
713.8548	0.0076
714.0348	0.0038
714.2148	-0.0019
714.3948	0.0087
714.5748	0.0077
714.7547	0.0034
714.9346	0.0004
715.1145	0.006
715.2944	0.0041
715.4743	0.0104
715.6541	0.0166
715.834	0.0099
716.0138	0.0089
716.1936	0.0175
716.3733	0.0126
716.5531	0.0093
716.7328	0.0058
716.9126	0.0023
717.0923	0.0145
717.2719	0.011
717.4516	0.0013
717.6312	0.007
717.8109	-0.0036
717.9905	0.0055
718.1701	-0.0008
718.3496	0.0034
718.5292	-0.0024
718.7087	-0.0046
718.8882	-0.0034
719.0677	0.0121
719.2472	0.0024
719.4267	0.0148
719.6061	-0.0004
719.7856	0.0066
719.965	0.0034
720.1443	-0.001
720.3237	0.0109
720.5031	0.0006
720.6824	0.0142
720.8617	0.0047
721.041	-0.0007
721.2203	0.0099
721.3995	0.0211
721.5788	0.0069
721.758	-0.0021
721.9372	0.0148
722.1164	0.0112
722.2956	0.0044
722.4747	0.0176
722.6538	-0.0018
722.8329	0.0087
723.012	-0.0002
723.1911	0.0051
723.3702	0.0078
723.5492	0.0062
723.7282	0.008
723.9072	0.0033
724.0862	0.0134
724.2652	0.009
724.4441	-0.005
724.623	0.0097
724.8019	-0.008
724.9808	0.0038
725.1597	0.0045
725.3385	0.0113
725.5174	0.002
725.6962	-0.0002
725.875	-0.0024
726.0538	0.0032
726.2325	0.0065
726.4112	-0.0024
726.59	0.0081
726.7687	-0.0026
726.9474	0.003
727.126	-0.0052
727.3047	-0.0005
727.4833	-0.0003
727.6619	-0.0041
727.8405	0.0031
728.0191	-0.0012
728.1976	0.0043
728.3762	0.0094
728.5547	0.0004
728.7332	-0.0004
728.9116	-0.0028
729.0901	-0.0016
729.2686	0.0008
729.447	-0.0059
729.6254	0.0144
729.8038	0.0026
729.9821	0.0094
730.1605	0.0117
730.3388	0.0017
730.5171	0.0056
730.6954	0.0038
730.8737	0.0047
731.0519	0.0004
731.2302	0.0008
731.4084	0.0058
731.5866	-0.0045
731.7648	0.0069
731.9429	-0.0025
732.1211	-0.001
732.2992	0.0044
732.4773	-0.0177
732.6554	-0.0043
732.8335	-0.0078
733.0115	0.0008
733.1896	0.0014
733.3676	0.0085
733.5456	-0.0045
733.7235	-0.0038
733.9015	0.01
734.0794	0.003
734.2574	0.0079
734.4353	0.0006
734.6131	0.0004
734.791	0.0107
734.9689	0.0137
735.1467	-0.0022
735.3245	-0.004
735.5023	0.0106
735.68	0.0176
735.8578	0.0045
736.0355	-0.0041
736.2132	-0.0009
736.3909	0.0032
736.5686	0.0151
736.7463	0.0049
736.9239	0.0057
737.1015	0.0145
737.2791	0.0142
737.4567	0.0107
737.6343	0.0045
737.8118	0.0082
737.9894	0.0028
738.1669	0.0033
738.3444	0.0032
738.5218	0.0061
738.6993	0.0057
738.8767	0.0035
739.0541	0.0095
739.2315	0.0016
739.4089	0.0097
739.5863	0.0059
739.7636	0.0037
739.9409	-0.003
740.1182	0.0027
740.2955	0.0124
740.4728	0.0042
740.65	0.001
740.8272	-0.0049
741.0044	-0.0035
741.1816	0.0112
741.3588	0.0025
741.5359	0.006
741.7131	0.0117
741.8902	0.0002
742.0673	0.0188
742.2444	-0.0031
742.4214	0.007
742.5985	0.007
742.7755	0.0016
742.9525	0.01
743.1295	0.0053
743.3064	0.0058
743.4834	0.0021
743.6603	-0.0066
743.8372	-0.011
744.0141	0.0182
744.191	0.0124
744.3678	0.003
744.5446	-0.0055
744.7215	0.0179
744.8982	0.0022
745.075	0.0087
745.2518	-0.0092
745.4285	-0.0001
745.6052	0.0026
745.7819	-0.0053
745.9586	0.0094
746.1353	0.0014
746.3119	0.0061
746.4885	0.0038
746.6651	-0.0043
746.8417	0.0049
747.0183	0.0027
747.1948	0.0041
747.3714	0.003
747.5479	-0.0014
747.7244	0.0002
747.9008	0.0209
748.0773	0.0088
748.2537	0.004
748.4301	-0.0007
748.6065	0.0083
748.7829	0.0071
748.9593	0.0118
749.1356	0.0066
749.3119	0.0024
749.4882	0.0012
749.6645	0.004
749.8408	0.0049
750.017	0.0081
750.1933	0.0115
750.3695	0.0175
750.5457	0.0104
750.7218	0.0124
750.898	0.0166
751.0741	0.0206
751.2502	0.015
751.4263	0.0099
751.6024	0.0054
751.7784	0.0043
751.9545	0.0088
752.1305	-0.0027
752.3065	0.0125
752.4825	0.005
752.6584	0.0053
752.8344	0.0093
753.0103	0.0074
753.1862	-0.0009
753.3621	0.0038
753.5379	0.0084
753.7138	-0.0003
753.8896	0.0057
754.0654	-0.0014
754.2412	0.0014
754.417	-0.0032
754.5927	0.0016
754.7685	0.0142
754.9442	0.0022
755.1199	0.0079
755.2956	0.0024
755.4712	-0.0059
755.6469	0.0054
755.8225	0.017
755.9981	0.0117
756.1736	-0.0067
756.3492	0.0174
756.5248	0.0101
756.7003	0.008
756.8758	0.0171
757.0513	0.0003
757.2267	0.0051
757.4022	0.0057
757.5776	0.0025
757.753	0.0043
757.9284	0.0144
758.1038	-0.0104
758.2791	0.0076
758.4545	0.0105
758.6298	0.0047
758.8051	0.0106
758.9803	0.0183
759.1556	-0.0025
759.3308	0.0151
759.506	0.008
759.6812	0.0115
759.8564	0.0034
760.0316	0.0041
760.2067	0.0069
760.3819	0.0065
760.557	0.0039
760.732	0.0048
760.9071	0.0094
761.0821	0.0176
761.2572	0.0149
761.4322	0.0084
761.6072	0.01
761.7821	0.0063
761.9571	0.0066
762.132	0.0038
762.3069	0.0203
762.4818	0.0053
762.6567	0.0023
762.8316	0.0062
763.0064	-0.0001
763.1812	0.0086
763.356	0.0045
763.5308	0.0071
763.7055	0.0086
763.8803	0.0025
764.055	0.0062
764.2297	0.0105
764.4044	0.0037
764.579	0.0044
764.7537	0.003
764.9283	0.0051
765.1029	0.0023
765.2775	0.0094
765.4521	-0.0014
765.6266	0.0076
765.8011	0.0076
765.9756	-0.0052
766.1501	0.0173
766.3246	-0.0003
766.4991	0.0142
766.6735	-0.0002
766.8479	0.0009
767.0223	0.0002
767.1967	0.008
767.371	0.0025
767.5454	-0.001
767.7197	0.0045
767.894	0.0054
768.0683	0.0065
768.2425	0.0101
768.4168	-0.0033
768.591	0.0034
768.7652	0.0036
768.9394	0.0027
769.1135	0.015
769.2877	-0.002
769.4618	0.0195
769.6359	0.0181
769.81	0.0029
769.984	0.0077
770.1581	-0.0071
770.3321	0.0149
770.5061	0.001
770.6801	0.0009
770.8541	0.0066
771.028	0.0039
771.202	0.0016
771.3759	-0.0025
771.5498	0.013
771.7236	-0.0014
771.8975	0.0087
772.0713	0.0077
772.2451	0.0111
772.4189	0.0043
772.5927	0.0018
772.7665	-0.0109
772.9402	0.0123
773.1139	-0.0112
773.2876	-0.0054
773.4613	0.0006
773.635	0.0046
773.8086	-0.0031
773.9822	0.0027
774.1558	0.007
774.3294	0.0067
774.503	0.0009
774.6765	0.0135
774.8501	-0.0015
775.0236	0.0068
775.1971	0.0222
775.3705	0.0227
775.544	0.0261
775.7174	0.0244
775.8908	0.0106
776.0642	0.0068
776.2376	0.0123
776.4109	0.0109
776.5843	-0.0061
776.7576	0.0106
776.9309	0.0063
777.1041	0.009
777.2774	-0.0008
777.4506	0.0002
777.6238	0.0122
777.797	0.0117
777.9702	0.0109
778.1434	0.0106
778.3165	0.0077
778.4896	0.0166
778.6627	0.0056
778.8358	0.0083
779.0089	0.0046
779.1819	0.0084
779.3549	0.0133
779.5279	0.0146
779.7009	-0.0023
779.8739	-0.0012
780.0468	0.0046
780.2197	0.0071
780.3926	0.0152
780.5655	0.0024
780.7384	0.0126
780.9112	0.0176
781.0841	0.0051
781.2569	-0.0041
781.4297	-0.0228
781.6024	0.0006
781.7752	-0.0093
781.9479	0.0091
782.1206	0.0016
782.2933	0.0177
782.466	0.0138
782.6386	0.0154
782.8113	-0.0055
782.9839	-0.0057
783.1565	0.0043
783.329	0.004
783.5016	-0.0007
783.6741	-0.0026
783.8466	-0.0027
784.0191	0.0044
784.1916	0.0041
784.3641	-0.0017
784.5365	0.008
784.7089	0.0022
784.8813	0.0033
785.0537	-0.009
785.2261	0.0036
785.3984	0.0095
785.5707	0.0153
785.743	0.0113
785.9153	-0.0029
786.0876	0.0073
786.2598	-0.0043
786.432	0.0133
786.6042	0.0248
786.7764	0.0029
786.9486	-0.003
787.1207	0.0078
787.2928	0.0006
787.4649	0.0035
787.637	-0.0063
787.8091	0.0053
787.9811	-0.0177
788.1532	-0.0051
788.3252	0.0089
788.4972	-0.0012
788.6691	0.0022
788.8411	-0.0068
789.013	0.0061
789.1849	0.0121
789.3568	0.0073
789.5287	0.0006
789.7005	0.0026
789.8723	0.0091
790.0442	0.0147
790.2159	0.006
790.3877	0.0333
790.5595	0.022
790.7312	0.0074
790.9029	0.0273
791.0746	0.0136
791.2463	0.021
791.4179	0.0109
791.5896	0.0072
791.7612	0.0098
791.9328	0.0144
792.1044	0.0192
792.2759	0.0068
792.4474	0.0127
792.619	0.0128
792.7905	0.0218
792.9619	0.0087
793.1334	0.0089
793.3048	0.0151
793.4762	0.0157
793.6476	0.0024
793.819	0.0011
793.9904	0.0118
794.1617	0.0005
794.333	0.0004
794.5043	0.0189
794.6756	-0.001
794.8469	-0.0024
795.0181	0.0079
795.1893	-0.0076
795.3605	0.0039
795.5317	-0.0035
795.7029	0.0089
795.874	0.006
796.0452	0.0079
796.2163	0.02
796.3873	-0.0079
796.5584	0.0053
796.7294	-0.0033
796.9005	0.0129
797.0715	0.0002
797.2425	0.0083
797.4134	0.0151
797.5844	0.005
797.7553	0.0142
797.9262	0.013
798.0971	0.0248
798.2679	0.0092
798.4388	0.0059
798.6096	-0.0174
798.7804	0.0107
798.9512	0.0008
799.122	0.0139
799.2927	0.0052
799.4635	0.0064
799.6342	0.0133
799.8049	0.0037
799.9755	0.0196
800.1462	0.015
800.3168	0.004
800.4874	-0.0151
800.658	0.0107
800.8286	0.0151
800.9991	0.028
801.1696	0.0128
801.3402	0.0207
801.5106	0.0112
801.6811	-0.0144
801.8516	0.0098
802.022	0.0122
802.1924	0.0183
802.3628	0.0167
802.5332	0.0127
802.7035	-0.0063
802.8739	-0.0043
803.0442	0.0062
803.2145	0.0056
803.3847	0.008
803.555	0.0091
803.7252	0.0072
803.8954	-0.0018
804.0656	0.0101
804.2358	0.0123
804.4059	0.0175
804.5761	0.0082
804.7462	0.02
804.9163	-0.0086
805.0864	-0.0098
805.2564	0.0033
805.4264	0.0028
805.5965	0.0069
805.7665	0.011
805.9364	-0.0014
806.1064	0.0176
806.2763	0.0128
806.4462	0.0171
806.6161	0.0132
806.786	0.0234
806.9559	0.023
807.1257	-0.0023
807.2955	0.0179
807.4653	0.0286
807.6351	0.0111
807.8048	0.0087
807.9746	0.0339
808.1443	0.0076
808.314	0.0226
808.4837	0.0184
808.6533	0.0028
808.8229	0.029
808.9926	0.024
809.1622	0.0183
809.3317	0.0285
809.5013	0.0251
809.6708	0.0245
809.8403	0.0063
810.0098	0.0343
810.1793	0.0123
810.3488	0.0078
810.5182	0.0217
810.6876	0.0315
810.857	0.0122
811.0264	0.0063
811.1958	0.0052
811.3651	0.0157
811.5344	0.024
811.7037	0.0188
811.873	0.0162
812.0422	-0.0002
812.2115	0.009
812.3807	0.0374
812.5499	0.0016
812.7191	0.0132
812.8882	0.0051
813.0574	0.0014
813.2265	0.0602
813.3956	0.0094
813.5646	-0.0053
813.7337	0.0094
813.9027	0.0066
814.0718	0.0163
814.2407	0.0321
814.4097	0.0402
814.5787	0.0076
814.7476	0.0134
814.9165	0.0066
815.0854	-0.027
815.2543	0.0124
815.4232	0.0324
815.592	0.01
815.7608	0.0033
815.9296	0.0077
816.0984	0.0112
816.2671	0.0065
816.4359	-0.0061
816.6046	-0.0161
816.7733	-0.0195
816.942	0.0084
817.1106	-0.0016
817.2793	0.003
817.4479	-0.0282
817.6165	0.0139
817.785	0.0085
817.9536	0.0274
818.1221	-0.0045
818.2906	0.0068
818.4591	-0.0127
818.6276	0.034
818.7961	0.0075
818.9645	0.0249
819.1329	0.0231
819.3013	0.0134
819.4697	0.0249
819.638	0.0001
819.8064	0.0001
819.9747	0.0147
820.143	0.0131
820.3113	-0.0019
820.4795	-0.0166
820.6477	-0.0039
820.816	-0.0126
820.9842	-0.0048
821.1523	0.001
821.3205	0.0077
821.4886	-0.0085
821.6567	-0.0063
821.8248	0.0156
821.9929	0.0008
822.1609	-0.0073
822.329	0.011
822.497	-0.016
822.665	-0.0333
822.833	-0.0185
823.0009	-0.0032
823.1688	-0.0277
823.3367	-0.006
823.5046	-0.0201
823.6725	-0.0325
823.8404	-0.0111
824.0082	-0.0066
824.176	0.0083
824.3438	0.0142
824.5116	0.0047
824.6793	0.0113
824.847	0.0124
825.0147	0.0066
825.1824	-0.0099
825.3501	0.0018
825.5177	-0.0185
825.6854	0.0101
825.853	0.0245
826.0206	-0.0031
826.1881	-0.0015
826.3557	0.0298
826.5232	-0.0119
826.6907	0.0199
826.8582	0.0188
827.0257	0.0084
827.1931	0.0083
827.3605	-0.0003
827.528	0.0366
827.6953	0.0284
827.8627	0.0342
828.03	0.0533
828.1974	0.0702
828.3647	-0.0007
828.532	-0.0093
828.6992	0.0279
828.8665	0.0565
829.0337	0.0215
829.2009	0.034
829.3681	-0.0343
829.5352	-0.0008
829.7024	0.0297
829.8695	0.0197
830.0366	-0.0003
830.2037	0.0051
830.3707	0.0433
830.5378	-0.0307
830.7048	-0.009
830.8718	-0.0044
831.0388	-0.0315
831.2057	0.0292
831.3727	0.031
831.5396	0.0057
831.7065	-0.0486
831.8734	-0.03
832.0402	0.0103
832.2071	-0.0089
832.3739	0.006
832.5407	0.0457
832.7075	-0.0131
832.8742	0.0076
833.041	-0.0059
833.2077	0.0321
833.3744	0.0234
833.541	0.014
833.7077	0.0727
833.8743	0.0439
834.0409	0.0581
834.2075	0.0259
834.3741	0.0287
834.5407	0.0002
834.7072	0.0027
834.8737	-0.0322
835.0402	0.0375
835.2067	0.0141
835.3731	0.0102
835.5395	-0.0131
835.706	0.0262
835.8723	-0.0315
836.0387	-0.0147
836.2051	0.0323
836.3714	-0.0609
836.5377	-0.0004
836.704	-0.0263
836.8703	-0.0167
837.0365	-0.0383
837.2027	0.0044
837.3689	-0.0092
837.5351	0.0134
837.7013	-0.0435
837.8674	0.0241
838.0335	0.0159
838.1997	-0.0518
838.3657	0.0176
838.5318	0.0251
838.6978	-0.0148
838.8639	-0.0445
839.0299	0.0054
839.1958	0.0114
839.3618	-0.0357
839.5277	0.024
839.6937	-0.0102
839.8596	-0.0168
840.0254	0.0174
840.1913	0.0386
840.3571	0.0161
840.523	0.0369
840.6888	0.0052
840.8545	-0.041
841.0203	0.0337
841.186	0.0175
841.3517	0.0104
841.5174	-0.0078
841.6831	-0.003
841.8488	-0.0056
842.0144	0.0572
842.18	0.0336
842.3456	0.0291
842.5112	0.0379
842.6767	-0.0173
842.8422	0.0344
843.0077	0.0051
843.1732	0.0272
843.3387	-0.0069
843.5042	0.0004
843.6696	0.0303
843.835	0.0207
844.0004	-0.0564
844.1657	-0.0224
844.3311	-0.0078
844.4964	-0.046
844.6617	-0.0008
844.827	0.0631
844.9923	0.0374
845.1575	0.0079
845.3227	-0.0187
845.4879	0.0204
845.6531	0.0413
845.8183	-0.0634
845.9834	0.0071
846.1485	-0.0009
846.3136	0.0083
846.4787	0.0106
846.6438	0.0565
846.8088	-0.0495
846.9738	0.013
847.1388	0.0702
847.3038	-0.0288
847.4687	0.0166
847.6337	-0.0052
847.7986	0.1509
847.9635	0.058
848.1284	-0.0105
848.2932	0.0517
848.458	0.0605
848.6228	0.0863
848.7876	-0.0215
848.9524	0.0156
849.1172	0.0005
849.2819	0.0033
849.4466	-0.02
849.6113	0.0323
849.7759	-0.0378
849.9406	0.0268
850.1052	-0.1533
850.2698	0.1494
850.4344	-0.0012
850.599	0.11
850.7635	0.051
850.928	0.006
851.0925	-0.0112
851.257	0.0741
851.4215	-0.066
851.5859	0.0452
851.7503	-0.0698
851.9147	0.1788
852.0791	0.0643
852.2434	-0.0471
852.4078	-0.0702
852.5721	0.0745
852.7364	-0.0607
852.9007	-0.0414
853.0649	-0.0168
853.2291	-0.0405
853.3934	0.0851
853.5575	0.0195
853.7217	0.1503
853.8859	-0.0345
854.05	0.02
854.2141	0.0433
854.3782	0.0352
854.5423	0.0043
854.7063	-0.0263
854.8703	0.0248
855.0343	0.0726
855.1983	-0.1307
855.3623	-0.0795
855.5262	-0.0246
855.6901	-0.1281
855.854	0.0349
856.0179	0.0827
856.1818	0.0033
856.3456	-0.0885
856.5094	0.0151
856.6732	-0.0723
856.837	-0.0285
857.0008	-0.1274
857.1645	0.1961
857.3282	0.4591
857.4919	0.2933
857.6556	-0.026
857.8192	-0.1038
857.9828	0.2235
858.1465	-0.1034
858.31	-0.1457
858.4736	-0.0231
858.6372	-0.2491
858.8007	-0.0985
858.9642	0.2595
859.1277	-0.1719
859.2911	-0.0613
859.4546	-0.1455
859.618	-0.3843
859.7814	0.0907
859.9448	-0.1279
860.1081	0.0483
860.2715	0.1414
860.4348	-0.0826
860.5981	0.0195
860.7614	-0.0231
860.9246	-0.0315
861.0879	-0.1623
861.2511	0.1095
861.4143	-0.1661
861.5774	-0.2405
861.7406	0.2464
861.9037	-0.3918
862.0668	-0.1243
862.2299	0.1453
862.393	-0.0025
862.556	0.0884
862.7191	0.1043
862.8821	-0.2329
863.0451	-0.1836
863.208	-0.0055
863.371	-0.4736
863.5339	-0.0031
863.6968	0.6314
863.8597	-0.0886
864.0225	0.4099
864.1854	0.3384
864.3482	0.4253
864.511	0.1273
864.6737	-0.3123
864.8365	0.1146
864.9992	-0.3067
865.1619	-0.1071
865.3246	0.3766
865.4873	0.0838
865.65	-0.2017
865.8126	-0.144
865.9752	-0.0647
866.1378	0.0718
866.3004	0.341
866.4629	0.2436
866.6254	-0
866.7879	-0.2307
866.9504	0.0342
867.1129	-0.0343
867.2753	0.0396
867.4377	0.0232
867.6001	-0.1316
867.7625	0.0678
867.9249	-0.0613
868.0872	0.1813
868.2495	-0
868.4118	0.1975
868.5741	0.2005
868.7363	-0
868.8986	-0.1009
869.0608	-0.1898
869.223	0.8659
869.3851	-0.2233
869.5473	-0.1312
869.7094	-0.0467
869.8715	0.3549
870.0336	-0
870.1957	-0
870.3577	0.3744
870.5197	-0.283
870.6817	-0
870.8437	-0.0494
871.0057	0.0859
871.1676	0.2762
871.3295	-0.1526
871.4914	-0
871.6533	0.1143
871.8151	0.5397
871.977	-0.7492
872.1388	-0
872.3006	0.707
872.4623	0.6919
872.6241	-0
872.7858	-0.0921
872.9475	0.3001
873.1092	0.0683
873.2709	-0
873.4325	-0
873.5941	0.1631
873.7557	-0
873.9173	0.328
874.0789	-0
874.2404	-0
874.4019	-0.4409
874.5634	-0.2005
874.7249	0.1388
874.8863	-0.1084
875.0478	0.0354
875.2092	-0.0755
875.3706	-0.2721
875.5319	-0
875.6933	-0
875.8546	0.3618
876.0159	0.3703
876.1772	-0.3458
876.3385	-0.2032
876.4997	-0
876.6609	0.3808
876.8221	1.4819
876.9833	-0
877.1445	0.2311
877.3056	-0.1929
877.4667	-0.0484
877.6278	-0.2811
877.7889	0.1338
877.9499	0.4204
878.111	-0.7538
878.272	0.0995
878.433	-0.1638
878.5939	1.0248
878.7549	0.1583
878.9158	-0.2037
879.0767	-0.1562
879.2376	-0
879.3984	1.2105
879.5593	-0
879.7201	-0.1753
879.8809	-0.1054
880.0417	0.2906
880.2024	-0
880.3632	-0.3647
880.5239	-0.0443
880.6846	-0.4332
880.8452	-0.01
881.0059	-0.6477
881.1665	-0
881.3271	0.1082
881.4877	-0
881.6483	-0
881.8088	-0.197
881.9693	-0
882.1298	-0
882.2903	-0
