Data from MonoPyChalIsomerACN10uM400nmA_Absorbance_12-08-40-428.txt Node
Date: Fri Jul 05 12:08:40 BST 2024
User: LASERRRRR
Spectrometer: FLMT03099
Trigger mode: 0
Integration Time (sec): 1.000000E-1
Scans to average: 1
Electric dark correction enabled: true
Nonlinearity correction enabled: false
Boxcar width: 0
XAxis mode: Wavelengths
Number of Pixels in Spectrum: 3648
>>>>>Begin Spectral Data<<<<<
179.3399	0.5192
179.5586	0.5192
179.7771	0.5192
179.9957	0.0447
180.2143	-0
180.4329	-0.9905
180.6514	-0.0685
180.8699	-0
181.0885	0.0599
181.307	-0.1402
181.5255	-0.2814
181.744	-0
181.9625	-0.7972
182.181	-0.1084
182.3994	-0.6604
182.6179	-0.365
182.8363	-0.4015
183.0547	0.2822
183.2732	0.2643
183.4916	-0.0467
183.71	-0.0013
183.9284	0.0706
184.1467	-0.078
184.3651	-0.002
184.5835	0.2662
184.8018	0.0021
185.0201	0.2682
185.2385	0.1765
185.4568	0.0586
185.6751	-0.0242
185.8934	-0.2114
186.1117	0.0379
186.3299	-0.0211
186.5482	0.1222
186.7664	0.041
186.9847	0.1807
187.2029	0.0151
187.4211	-0.4839
187.6393	-0.0213
187.8575	0.0443
188.0757	0.187
188.2939	-0.0104
188.512	-0.0263
188.7302	0.0289
188.9483	-0.1052
189.1665	0.2006
189.3846	0.0454
189.6027	0.1796
189.8208	-0.0194
190.0389	0.1682
190.257	0.118
190.475	0.1791
190.6931	0.2372
190.9111	0.2317
191.1292	0.1706
191.3472	0.3735
191.5652	0.1148
191.7832	-0
192.0012	0.4196
192.2192	0.408
192.4371	0.2269
192.6551	0.3124
192.873	0.3504
193.091	0.3821
193.3089	0.2916
193.5268	0.3336
193.7447	0.4088
193.9626	0.3401
194.1805	0.8673
194.3984	0.4104
194.6162	0.3138
194.8341	0.4657
195.0519	0.4983
195.2697	0.5464
195.4875	0.8733
195.7054	0.6556
195.9231	0.5664
196.1409	0.4755
196.3587	0.5965
196.5765	0.6225
196.7942	0.5959
197.012	0.9395
197.2297	0.8072
197.4474	0.4225
197.6651	0.5998
197.8828	0.5273
198.1005	0.4917
198.3182	0.7696
198.5358	0.8719
198.7535	0.5876
198.9711	0.7229
199.1888	0.7211
199.4064	0.7519
199.624	0.612
199.8416	0.7873
200.0592	0.6768
200.2767	0.6404
200.4943	0.7208
200.7119	0.5757
200.9294	0.7074
201.1469	0.7112
201.3645	0.7075
201.582	0.6896
201.7995	0.7522
202.017	0.8373
202.2344	0.6261
202.4519	0.808
202.6694	1.1075
202.8868	0.9786
203.1042	0.6579
203.3217	0.8281
203.5391	0.7005
203.7565	0.6845
203.9739	0.7529
204.1913	0.8818
204.4086	0.8403
204.626	0.748
204.8433	1.0427
205.0607	0.6927
205.278	0.8567
205.4953	0.8005
205.7126	0.7296
205.9299	0.7604
206.1472	0.6733
206.3644	0.6754
206.5817	0.8044
206.7989	0.606
207.0162	0.6691
207.2334	0.708
207.4506	0.7416
207.6678	0.7364
207.885	0.71
208.1022	0.799
208.3194	0.7652
208.5365	0.7357
208.7537	0.7384
208.9708	0.71
209.1879	0.8009
209.405	0.6346
209.6222	0.8775
209.8392	0.8182
210.0563	0.6901
210.2734	0.702
210.4905	0.7934
210.7075	0.7734
210.9245	0.7738
211.1416	0.7045
211.3586	0.7744
211.5756	0.7286
211.7926	0.794
212.0096	0.6768
212.2265	0.6827
212.4435	0.7189
212.6604	0.7287
212.8774	0.6549
213.0943	0.6827
213.3112	0.6142
213.5281	0.7124
213.745	0.7809
213.9619	0.6687
214.1788	0.6703
214.3956	0.6485
214.6125	0.6289
214.8293	0.6908
215.0461	0.6587
215.2629	0.6628
215.4798	0.6247
215.6965	0.6616
215.9133	0.6208
216.1301	0.6261
216.3469	0.679
216.5636	0.6506
216.7803	0.6483
216.9971	0.621
217.2138	0.705
217.4305	0.6305
217.6472	0.5771
217.8639	0.5951
218.0805	0.5735
218.2972	0.5532
218.5138	0.607
218.7305	0.5762
218.9471	0.5986
219.1637	0.6289
219.3803	0.5482
219.5969	0.5569
219.8135	0.5679
220.0301	0.5372
220.2466	0.5946
220.4632	0.531
220.6797	0.5468
220.8962	0.5416
221.1127	0.5634
221.3292	0.5185
221.5457	0.6006
221.7622	0.5613
221.9787	0.5258
222.1951	0.5257
222.4116	0.521
222.628	0.5533
222.8444	0.5617
223.0608	0.526
223.2772	0.5212
223.4936	0.5798
223.71	0.5628
223.9264	0.5384
224.1427	0.5725
224.3591	0.5861
224.5754	0.5487
224.7917	0.5451
225.008	0.5708
225.2243	0.5293
225.4406	0.5146
225.6569	0.5402
225.8732	0.5947
226.0894	0.5321
226.3057	0.5784
226.5219	0.5643
226.7381	0.5794
226.9543	0.5624
227.1705	0.5562
227.3867	0.5747
227.6029	0.5646
227.8191	0.5808
228.0352	0.578
228.2513	0.5817
228.4675	0.5821
228.6836	0.5873
228.8997	0.5874
229.1158	0.5615
229.3319	0.5682
229.548	0.6053
229.764	0.6031
229.9801	0.5833
230.1961	0.5511
230.4121	0.6009
230.6282	0.5796
230.8442	0.5907
231.0602	0.5698
231.2761	0.554
231.4921	0.5799
231.7081	0.5694
231.924	0.6001
232.14	0.5726
232.3559	0.5869
232.5718	0.5692
232.7877	0.5683
233.0036	0.5897
233.2195	0.5593
233.4353	0.5833
233.6512	0.5614
233.867	0.571
234.0829	0.5483
234.2987	0.5749
234.5145	0.5423
234.7303	0.5531
234.9461	0.5635
235.1619	0.5677
235.3776	0.5935
235.5934	0.545
235.8091	0.5655
236.0249	0.5421
236.2406	0.5369
236.4563	0.567
236.672	0.577
236.8877	0.5848
237.1034	0.5726
237.319	0.5431
237.5347	0.5395
237.7503	0.5519
237.966	0.5481
238.1816	0.5575
238.3972	0.5713
238.6128	0.53
238.8284	0.5511
239.0439	0.5364
239.2595	0.5359
239.475	0.5398
239.6906	0.5386
239.9061	0.5179
240.1216	0.5216
240.3371	0.5223
240.5526	0.5099
240.7681	0.5223
240.9836	0.5441
241.199	0.5076
241.4145	0.4981
241.6299	0.4773
241.8453	0.4881
242.0607	0.4684
242.2761	0.4787
242.4915	0.468
242.7069	0.4504
242.9223	0.4423
243.1376	0.4305
243.353	0.42
243.5683	0.418
243.7836	0.4235
243.9989	0.4008
244.2142	0.3927
244.4295	0.3798
244.6448	0.3716
244.86	0.3791
245.0753	0.3632
245.2905	0.3652
245.5057	0.3528
245.721	0.3561
245.9362	0.3274
246.1514	0.3257
246.3665	0.3069
246.5817	0.323
246.7969	0.3103
247.012	0.3268
247.2271	0.304
247.4423	0.2901
247.6574	0.2875
247.8725	0.2911
248.0876	0.2889
248.3026	0.2705
248.5177	0.2812
248.7328	0.291
248.9478	0.2605
249.1628	0.2464
249.3779	0.2569
249.5929	0.2607
249.8079	0.2526
250.0228	0.2586
250.2378	0.2551
250.4528	0.2516
250.6677	0.2382
250.8827	0.2258
251.0976	0.2291
251.3125	0.2458
251.5274	0.238
251.7423	0.2304
251.9572	0.2255
252.172	0.2183
252.3869	0.2238
252.6017	0.2108
252.8166	0.2078
253.0314	0.2003
253.2462	0.205
253.461	0.2043
253.6758	0.2009
253.8906	0.2211
254.1053	0.2029
254.3201	0.2117
254.5348	0.2033
254.7496	0.2077
254.9643	0.1973
255.179	0.1977
255.3937	0.1927
255.6083	0.1794
255.823	0.1919
256.0377	0.1684
256.2523	0.1966
256.467	0.1931
256.6816	0.2014
256.8962	0.2013
257.1108	0.2095
257.3254	0.2123
257.54	0.1929
257.7545	0.2019
257.9691	0.1969
258.1836	0.1824
258.3981	0.1795
258.6127	0.1882
258.8272	0.1956
259.0417	0.1811
259.2561	0.1845
259.4706	0.1683
259.6851	0.1906
259.8995	0.1982
260.114	0.1789
260.3284	0.1809
260.5428	0.1962
260.7572	0.1972
260.9716	0.1836
261.186	0.1891
261.4003	0.1772
261.6147	0.183
261.829	0.193
262.0433	0.1861
262.2577	0.1961
262.472	0.1791
262.6863	0.1946
262.9005	0.1784
263.1148	0.1874
263.3291	0.1837
263.5433	0.1791
263.7576	0.1803
263.9718	0.1716
264.186	0.177
264.4002	0.1936
264.6144	0.1899
264.8286	0.1812
265.0427	0.1819
265.2569	0.1929
265.471	0.1769
265.6851	0.1742
265.8993	0.1732
266.1134	0.1915
266.3275	0.1819
266.5415	0.1779
266.7556	0.1799
266.9697	0.1907
267.1837	0.1819
267.3978	0.1808
267.6118	0.1814
267.8258	0.1854
268.0398	0.1854
268.2538	0.1829
268.4677	0.1896
268.6817	0.1828
268.8957	0.1946
269.1096	0.1748
269.3235	0.1844
269.5374	0.166
269.7514	0.1738
269.9652	0.1766
270.1791	0.1648
270.393	0.1528
270.6068	0.1884
270.8207	0.1824
271.0345	0.1541
271.2483	0.1645
271.4622	0.1628
271.676	0.161
271.8897	0.171
272.1035	0.1733
272.3173	0.1665
272.531	0.1618
272.7448	0.1554
272.9585	0.161
273.1722	0.1727
273.3859	0.171
273.5996	0.161
273.8133	0.1645
274.0269	0.1584
274.2406	0.1605
274.4542	0.1634
274.6679	0.1549
274.8815	0.1727
275.0951	0.1722
275.3087	0.1552
275.5223	0.1688
275.7358	0.1631
275.9494	0.1597
276.1629	0.1617
276.3765	0.1584
276.59	0.1616
276.8035	0.1662
277.017	0.1734
277.2305	0.1726
277.444	0.155
277.6574	0.1601
277.8709	0.1616
278.0843	0.167
278.2978	0.1826
278.5112	0.1829
278.7246	0.1724
278.938	0.1784
279.1513	0.1777
279.3647	0.1642
279.5781	0.1665
279.7914	0.1747
280.0047	0.1653
280.2181	0.1747
280.4314	0.1735
280.6447	0.1764
280.8579	0.1675
281.0712	0.1832
281.2845	0.1782
281.4977	0.17
281.711	0.1702
281.9242	0.1721
282.1374	0.1694
282.3506	0.1727
282.5638	0.1755
282.7769	0.1816
282.9901	0.1655
283.2033	0.1729
283.4164	0.1837
283.6295	0.1801
283.8426	0.1783
284.0557	0.1802
284.2688	0.165
284.4819	0.1793
284.695	0.1857
284.908	0.1821
285.1211	0.1845
285.3341	0.1957
285.5471	0.1768
285.7601	0.1791
285.9731	0.1826
286.1861	0.1838
286.3991	0.1736
286.612	0.1849
286.825	0.1932
287.0379	0.1801
287.2508	0.1803
287.4637	0.183
287.6766	0.1717
287.8895	0.1857
288.1024	0.1702
288.3152	0.2096
288.5281	0.1793
288.7409	0.1813
288.9538	0.1853
289.1666	0.1898
289.3794	0.1929
289.5922	0.1844
289.8049	0.1808
290.0177	0.1844
290.2304	0.1802
290.4432	0.1803
290.6559	0.1875
290.8686	0.1931
291.0813	0.179
291.294	0.1899
291.5067	0.1915
291.7194	0.1802
291.932	0.1965
292.1447	0.1899
292.3573	0.1916
292.5699	0.1931
292.7825	0.1694
292.9951	0.1935
293.2077	0.2024
293.4203	0.1896
293.6328	0.1913
293.8454	0.186
294.0579	0.1981
294.2704	0.1885
294.4829	0.185
294.6954	0.1852
294.9079	0.1938
295.1204	0.1952
295.3328	0.1737
295.5453	0.179
295.7577	0.1829
295.9701	0.1926
296.1825	0.1861
296.3949	0.1762
296.6073	0.1939
296.8197	0.189
297.0321	0.1909
297.2444	0.1789
297.4567	0.1726
297.6691	0.1813
297.8814	0.1881
298.0937	0.1874
298.306	0.1886
298.5182	0.1885
298.7305	0.1859
298.9428	0.1819
299.155	0.1865
299.3672	0.1701
299.5794	0.1908
299.7916	0.1732
300.0038	0.1775
300.216	0.178
300.4282	0.1819
300.6403	0.1994
300.8525	0.1914
301.0646	0.1954
301.2767	0.1929
301.4888	0.1818
301.7009	0.1884
301.913	0.1894
302.125	0.1726
302.3371	0.1836
302.5491	0.1799
302.7612	0.1734
302.9732	0.175
303.1852	0.1798
303.3972	0.1804
303.6092	0.1742
303.8211	0.1832
304.0331	0.1759
304.245	0.1576
304.457	0.1832
304.6689	0.1746
304.8808	0.1678
305.0927	0.1731
305.3046	0.1789
305.5164	0.181
305.7283	0.1606
305.9401	0.1628
306.152	0.1588
306.3638	0.1633
306.5756	0.16
306.7874	0.1716
306.9992	0.1555
307.2109	0.1591
307.4227	0.1603
307.6344	0.1476
307.8462	0.1425
308.0579	0.1596
308.2696	0.1551
308.4813	0.1376
308.693	0.149
308.9046	0.1382
309.1163	0.1399
309.328	0.1368
309.5396	0.1404
309.7512	0.1244
309.9628	0.1324
310.1744	0.1298
310.386	0.1158
310.5976	0.1293
310.8091	0.1329
311.0207	0.1304
311.2322	0.1234
311.4437	0.1221
311.6552	0.1281
311.8667	0.1105
312.0782	0.122
312.2897	0.1085
312.5012	0.1033
312.7126	0.1234
312.924	0.1038
313.1355	0.1219
313.3469	0.1155
313.5583	0.1059
313.7696	0.1091
313.981	0.1119
314.1924	0.1103
314.4037	0.1056
314.6151	0.1084
314.8264	0.1052
315.0377	0.1037
315.249	0.0998
315.4603	0.0974
315.6716	0.1044
315.8828	0.0991
316.0941	0.0895
316.3053	0.1033
316.5165	0.0928
316.7277	0.0936
316.9389	0.1006
317.1501	0.0957
317.3613	0.0881
317.5724	0.0906
317.7836	0.1104
317.9947	0.1008
318.2058	0.0934
318.417	0.0974
318.6281	0.0952
318.8391	0.092
319.0502	0.0899
319.2613	0.0977
319.4723	0.1006
319.6834	0.0946
319.8944	0.0995
320.1054	0.0898
320.3164	0.1094
320.5274	0.0823
320.7383	0.0879
320.9493	0.0924
321.1602	0.0975
321.3712	0.0875
321.5821	0.097
321.793	0.1049
322.0039	0.1035
322.2148	0.088
322.4257	0.0855
322.6365	0.102
322.8474	0.0885
323.0582	0.1091
323.269	0.0912
323.4798	0.1037
323.6906	0.0955
323.9014	0.1061
324.1122	0.0973
324.3229	0.093
324.5337	0.1053
324.7444	0.1074
324.9551	0.0958
325.1658	0.1005
325.3765	0.1075
325.5872	0.0959
325.7979	0.0992
326.0085	0.0871
326.2192	0.0791
326.4298	0.11
326.6404	0.0941
326.851	0.094
327.0616	0.1067
327.2722	0.1107
327.4828	0.1174
327.6933	0.1067
327.9039	0.1013
328.1144	0.1061
328.3249	0.0922
328.5354	0.0902
328.7459	0.1096
328.9564	0.1092
329.1669	0.1112
329.3773	0.1025
329.5878	0.1026
329.7982	0.0971
330.0086	0.1016
330.219	0.0895
330.4294	0.1039
330.6398	0.0914
330.8502	0.0978
331.0605	0.1094
331.2708	0.0964
331.4812	0.1016
331.6915	0.0862
331.9018	0.1094
332.1121	0.0927
332.3224	0.0965
332.5326	0.1033
332.7429	0.0944
332.9531	0.0958
333.1633	0.1158
333.3735	0.0991
333.5837	0.0948
333.7939	0.0924
334.0041	0.1054
334.2143	0.1037
334.4244	0.1045
334.6346	0.0961
334.8447	0.1032
335.0548	0.1063
335.2649	0.1031
335.475	0.0954
335.685	0.0899
335.8951	0.1126
336.1051	0.1047
336.3152	0.1005
336.5252	0.1059
336.7352	0.1078
336.9452	0.1114
337.1552	0.1238
337.3652	0.1005
337.5751	0.1153
337.7851	0.0966
337.995	0.1011
338.2049	0.0912
338.4148	0.1078
338.6247	0.0971
338.8346	0.1075
339.0445	0.1153
339.2543	0.1084
339.4642	0.1086
339.674	0.1151
339.8838	0.1136
340.0936	0.1179
340.3034	0.1187
340.5132	0.1169
340.7229	0.1145
340.9327	0.1115
341.1424	0.1116
341.3522	0.1049
341.5619	0.1018
341.7716	0.1218
341.9813	0.1242
342.1909	0.1174
342.4006	0.1349
342.6102	0.0901
342.8199	0.1144
343.0295	0.1126
343.2391	0.1136
343.4487	0.1175
343.6583	0.1258
343.8679	0.1229
344.0774	0.1291
344.287	0.1271
344.4965	0.1314
344.706	0.1275
344.9155	0.1202
345.125	0.1241
345.3345	0.113
345.544	0.1417
345.7534	0.1148
345.9629	0.1242
346.1723	0.1253
346.3817	0.1223
346.5911	0.1252
346.8005	0.1312
347.0099	0.1266
347.2193	0.1201
347.4286	0.1344
347.638	0.1239
347.8473	0.1219
348.0566	0.1211
348.2659	0.1334
348.4752	0.1332
348.6845	0.125
348.8937	0.1292
349.103	0.1172
349.3122	0.1437
349.5214	0.1329
349.7306	0.1313
349.9398	0.1377
350.149	0.1319
350.3582	0.1392
350.5674	0.1415
350.7765	0.1374
350.9856	0.1334
351.1948	0.1427
351.4039	0.1455
351.613	0.1344
351.822	0.1333
352.0311	0.1393
352.2402	0.1213
352.4492	0.1405
352.6582	0.1385
352.8672	0.1481
353.0762	0.1478
353.2852	0.1426
353.4942	0.145
353.7032	0.146
353.9121	0.1365
354.1211	0.1354
354.33	0.1545
354.5389	0.1485
354.7478	0.1492
354.9567	0.1578
355.1655	0.1468
355.3744	0.1498
355.5833	0.182
355.7921	0.152
356.0009	0.1585
356.2097	0.1373
356.4185	0.1478
356.6273	0.1488
356.8361	0.1493
357.0448	0.1578
357.2536	0.1551
357.4623	0.1611
357.671	0.1579
357.8797	0.1774
358.0884	0.1782
358.2971	0.1521
358.5057	0.1639
358.7144	0.1654
358.923	0.1624
359.1316	0.1585
359.3402	0.1798
359.5488	0.1626
359.7574	0.1825
359.966	0.1694
360.1746	0.1509
360.3831	0.1852
360.5916	0.1965
360.8002	0.1728
361.0087	0.1898
361.2172	0.1578
361.4256	0.1873
361.6341	0.1784
361.8426	0.179
362.051	0.1716
362.2594	0.168
362.4678	0.1685
362.6762	0.1808
362.8846	0.1908
363.093	0.1612
363.3014	0.19
363.5097	0.1898
363.718	0.1984
363.9264	0.2186
364.1347	0.1791
364.343	0.18
364.5513	0.2001
364.7595	0.1972
364.9678	0.1907
365.176	0.2032
365.3842	0.1938
365.5925	0.1767
365.8007	0.2155
366.0089	0.1983
366.217	0.1873
366.4252	0.2227
366.6333	0.2071
366.8415	0.2039
367.0496	0.2109
367.2577	0.2024
367.4658	0.2363
367.6739	0.2027
367.882	0.2021
368.09	0.2205
368.2981	0.2037
368.5061	0.2194
368.7141	0.2267
368.9221	0.2141
369.1301	0.2044
369.3381	0.223
369.5461	0.2113
369.754	0.2163
369.962	0.2049
370.1699	0.2262
370.3778	0.2217
370.5857	0.2276
370.7936	0.2187
371.0015	0.231
371.2093	0.222
371.4172	0.2267
371.625	0.2267
371.8328	0.2403
372.0406	0.2232
372.2484	0.211
372.4562	0.2402
372.664	0.2438
372.8717	0.2065
373.0795	0.2181
373.2872	0.2291
373.4949	0.2439
373.7026	0.2363
373.9103	0.2372
374.118	0.2289
374.3256	0.2476
374.5333	0.2515
374.7409	0.2067
374.9485	0.2332
375.1561	0.233
375.3637	0.2255
375.5713	0.2377
375.7789	0.2542
375.9864	0.2624
376.194	0.2423
376.4015	0.2546
376.609	0.2351
376.8165	0.2367
377.024	0.2264
377.2315	0.2434
377.4389	0.2538
377.6464	0.2338
377.8538	0.2367
378.0612	0.2636
378.2686	0.2653
378.476	0.2492
378.6834	0.2547
378.8908	0.248
379.0981	0.245
379.3055	0.266
379.5128	0.2422
379.7201	0.2587
379.9274	0.2731
380.1347	0.2436
380.342	0.2444
380.5492	0.2546
380.7565	0.2681
380.9637	0.2779
381.1709	0.2602
381.3781	0.266
381.5853	0.2582
381.7925	0.2708
381.9997	0.2397
382.2068	0.2766
382.4139	0.2569
382.6211	0.2702
382.8282	0.2644
383.0353	0.2699
383.2424	0.2758
383.4494	0.2738
383.6565	0.2809
383.8635	0.2758
384.0706	0.2715
384.2776	0.2785
384.4846	0.2825
384.6916	0.2889
384.8986	0.2737
385.1055	0.2569
385.3125	0.2738
385.5194	0.2608
385.7263	0.2672
385.9333	0.2817
386.1402	0.2693
386.347	0.3054
386.5539	0.258
386.7608	0.2772
386.9676	0.2519
387.1744	0.2706
387.3813	0.2674
387.5881	0.2684
387.7948	0.2708
388.0016	0.2632
388.2084	0.2662
388.4151	0.2692
388.6219	0.282
388.8286	0.261
389.0353	0.2545
389.242	0.2672
389.4487	0.2538
389.6553	0.245
389.862	0.2671
390.0686	0.2459
390.2753	0.2796
390.4819	0.2768
390.6885	0.2642
390.8951	0.2525
391.1016	0.2571
391.3082	0.2527
391.5147	0.2409
391.7213	0.2462
391.9278	0.2447
392.1343	0.2303
392.3408	0.2601
392.5473	0.2529
392.7537	0.2419
392.9602	0.2659
393.1666	0.2459
393.373	0.2178
393.5794	0.2521
393.7858	0.2206
393.9922	0.2605
394.1986	0.2419
394.4049	0.2245
394.6113	0.257
394.8176	0.231
395.0239	0.2405
395.2302	0.2269
395.4365	0.2285
395.6428	0.2404
395.8491	0.2169
396.0553	0.2614
396.2615	0.2196
396.4678	0.2377
396.674	0.2315
396.8802	0.2341
397.0863	0.2245
397.2925	0.2285
397.4987	0.2203
397.7048	0.2133
397.9109	0.2401
398.117	0.2215
398.3231	0.2308
398.5292	0.242
398.7353	0.233
398.9413	0.2252
399.1474	0.2135
399.3534	0.2145
399.5594	0.2378
399.7654	0.2378
399.9714	0.2107
400.1774	0.2173
400.3833	0.2221
400.5893	0.2275
400.7952	0.2303
401.0011	0.2295
401.207	0.2196
401.4129	0.2148
401.6188	0.2273
401.8247	0.2401
402.0305	0.2068
402.2364	0.237
402.4422	0.2359
402.648	0.2234
402.8538	0.2347
403.0596	0.224
403.2654	0.2122
403.4711	0.2157
403.6768	0.2155
403.8826	0.2289
404.0883	0.2198
404.294	0.2368
404.4997	0.2005
404.7054	0.2261
404.911	0.2139
405.1167	0.2106
405.3223	0.2319
405.5279	0.2299
405.7335	0.2382
405.9391	0.2306
406.1447	0.2464
406.3502	0.2147
406.5558	0.2593
406.7613	0.2392
406.9668	0.2393
407.1724	0.2423
407.3778	0.2249
407.5833	0.2224
407.7888	0.2145
407.9942	0.2158
408.1997	0.2181
408.4051	0.2225
408.6105	0.2128
408.8159	0.2202
409.0213	0.2237
409.2267	0.2322
409.432	0.2199
409.6374	0.2292
409.8427	0.2153
410.048	0.2455
410.2533	0.2351
410.4586	0.2195
410.6639	0.2207
410.8691	0.2315
411.0744	0.2335
411.2796	0.2092
411.4848	0.2311
411.69	0.2265
411.8952	0.2133
412.1004	0.1984
412.3056	0.2343
412.5107	0.193
412.7158	0.2126
412.921	0.2384
413.1261	0.2265
413.3312	0.2192
413.5362	0.2246
413.7413	0.2085
413.9464	0.2201
414.1514	0.2212
414.3564	0.2186
414.5614	0.1915
414.7664	0.2285
414.9714	0.2219
415.1764	0.2126
415.3813	0.2145
415.5863	0.2244
415.7912	0.2199
415.9961	0.2199
416.201	0.2218
416.4059	0.2107
416.6108	0.2104
416.8156	0.2084
417.0205	0.2114
417.2253	0.2178
417.4301	0.2208
417.6349	0.2224
417.8397	0.2293
418.0445	0.2111
418.2492	0.2133
418.454	0.2173
418.6587	0.2202
418.8634	0.2096
419.0681	0.214
419.2728	0.2119
419.4775	0.2237
419.6822	0.222
419.8868	0.2152
420.0915	0.2007
420.2961	0.2098
420.5007	0.2218
420.7053	0.2088
420.9099	0.2128
421.1144	0.2212
421.319	0.2206
421.5235	0.2413
421.728	0.2087
421.9325	0.201
422.137	0.2012
422.3415	0.2188
422.546	0.2007
422.7504	0.2142
422.9549	0.206
423.1593	0.1957
423.3637	0.2066
423.5681	0.2013
423.7725	0.2187
423.9769	0.2099
424.1812	0.1917
424.3856	0.187
424.5899	0.1995
424.7942	0.1923
424.9985	0.1951
425.2028	0.1696
425.4071	0.1911
425.6113	0.1905
425.8156	0.1947
426.0198	0.1908
426.224	0.2063
426.4282	0.1864
426.6324	0.1854
426.8366	0.1755
427.0407	0.1747
427.2449	0.1666
427.449	0.1884
427.6531	0.1684
427.8572	0.1682
428.0613	0.1842
428.2654	0.1636
428.4694	0.1757
428.6735	0.176
428.8775	0.1795
429.0815	0.1796
429.2855	0.1698
429.4895	0.1583
429.6935	0.1585
429.8975	0.1604
430.1014	0.1479
430.3053	0.1545
430.5093	0.175
430.7132	0.154
430.9171	0.1462
431.1209	0.1494
431.3248	0.1628
431.5286	0.1454
431.7325	0.1558
431.9363	0.1597
432.1401	0.1637
432.3439	0.1469
432.5477	0.1561
432.7514	0.1413
432.9552	0.1344
433.1589	0.1339
433.3627	0.1314
433.5664	0.1451
433.7701	0.1338
433.9737	0.1132
434.1774	0.1424
434.3811	0.1026
434.5847	0.1361
434.7883	0.1356
434.9919	0.1144
435.1955	0.1086
435.3991	0.1304
435.6027	0.0992
435.8062	0.1179
436.0098	0.1081
436.2133	0.1
436.4168	0.1163
436.6203	0.1108
436.8238	0.0884
437.0272	0.1095
437.2307	0.1211
437.4341	0.1018
437.6375	0.1161
437.841	0.1026
438.0443	0.0952
438.2477	0.0996
438.4511	0.1071
438.6545	0.1077
438.8578	0.0849
439.0611	0.0912
439.2644	0.0841
439.4677	0.0875
439.671	0.0811
439.8743	0.0719
440.0775	0.0786
440.2808	0.0762
440.484	0.0609
440.6872	0.0798
440.8904	0.0665
441.0936	0.0776
441.2967	0.0738
441.4999	0.0486
441.703	0.0819
441.9062	0.0652
442.1093	0.063
442.3124	0.0619
442.5155	0.0558
442.7185	0.0712
442.9216	0.0551
443.1246	0.0718
443.3276	0.0673
443.5307	0.0643
443.7337	0.0504
443.9366	0.0713
444.1396	0.0676
444.3426	0.0479
444.5455	0.0527
444.7484	0.0542
444.9513	0.045
445.1542	0.0501
445.3571	0.0561
445.56	0.0517
445.7628	0.0455
445.9657	0.0389
446.1685	0.0495
446.3713	0.0443
446.5741	0.0444
446.7769	0.0581
446.9797	0.0516
447.1824	0.0272
447.3852	0.0421
447.5879	0.0398
447.7906	0.0484
447.9933	0.0573
448.196	0.0452
448.3986	0.0521
448.6013	0.0224
448.8039	0.0388
449.0066	0.0297
449.2092	0.0399
449.4118	0.0365
449.6143	0.0292
449.8169	0.039
450.0195	0.0096
450.222	0.0317
450.4245	0.0298
450.627	0.0142
450.8295	0.0223
451.032	0.0213
451.2345	0.0241
451.4369	0.0243
451.6394	0.0275
451.8418	-0.006
452.0442	0.0047
452.2466	0.0136
452.449	0.0142
452.6513	0.0151
452.8537	0.0185
453.056	0.0118
453.2583	0.0217
453.4607	0.0026
453.663	0.0116
453.8652	0.0345
454.0675	0.0066
454.2697	0.017
454.472	0.0167
454.6742	0.0213
454.8764	0.0019
455.0786	0.0052
455.2808	0.0034
455.4829	0.0195
455.6851	0.0225
455.8872	0.0273
456.0893	0.0192
456.2915	0.0203
456.4935	-0.0009
456.6956	-0.0038
456.8977	-0.0042
457.0997	0.0296
457.3018	0.0193
457.5038	0.014
457.7058	0.0186
457.9078	0.0153
458.1098	0.0159
458.3117	0.0173
458.5137	-0.0107
458.7156	0.0024
458.9175	0.0079
459.1194	0.0096
459.3213	-0.0014
459.5232	-0.0143
459.725	-0.0064
459.9269	0.0041
460.1287	0.0154
460.3305	0.0032
460.5323	0.0124
460.7341	-0.0015
460.9359	0.0191
461.1376	0.0298
461.3394	0.0062
461.5411	0.0092
461.7428	0.0039
461.9445	0.0124
462.1462	0.0156
462.3479	-0.0085
462.5495	-0.0044
462.7512	0.0047
462.9528	0.0025
463.1544	0.0143
463.356	-0.0023
463.5576	-0.0006
463.7592	-0.007
463.9607	0.0104
464.1623	0.0044
464.3638	0.0136
464.5653	-0.0079
464.7668	-0.0079
464.9683	0.0046
465.1697	0.0165
465.3712	0.0043
465.5726	0.0039
465.7741	0.0169
465.9755	-0.0133
466.1769	0.0084
466.3782	0.018
466.5796	-0.0139
466.7809	0.0109
466.9823	0.0068
467.1836	0.0131
467.3849	-0.0079
467.5862	0.007
467.7875	0.003
467.9887	0.0028
468.19	-0.001
468.3912	0.0105
468.5924	0.009
468.7936	0.0091
468.9948	-0.0024
469.196	-0.0017
469.3972	-0.0009
469.5983	0.0003
469.7994	-0.0113
470.0006	-0.0146
470.2017	-0.0095
470.4027	-0.0027
470.6038	-0.0031
470.8049	-0.0036
471.0059	-0.0027
471.2069	-0.0014
471.408	-0.0118
471.6089	0.0063
471.8099	0.0088
472.0109	-0.0105
472.2119	0.0076
472.4128	-0.0046
472.6137	0.0096
472.8146	-0.0105
473.0155	-0.0083
473.2164	0.0013
473.4173	0.0006
473.6181	-0.0105
473.819	-0.0043
474.0198	-0.008
474.2206	-0.0208
474.4214	-0.0018
474.6222	-0.0132
474.8229	-0.0131
475.0237	0.0002
475.2244	-0.0063
475.4251	-0.0077
475.6258	-0.0027
475.8265	-0.0179
476.0272	-0.0087
476.2278	-0.0117
476.4285	-0.0173
476.6291	0.0017
476.8297	-0.0023
477.0303	0.0066
477.2309	0.0141
477.4315	-0.0068
477.632	-0.0186
477.8326	-0.0011
478.0331	-0.0168
478.2336	-0.0205
478.4341	-0.0022
478.6346	-0.0017
478.8351	-0.0025
479.0355	-0.0172
479.236	-0.0063
479.4364	-0.0012
479.6368	0.0069
479.8372	0.0057
480.0376	-0.0091
480.2379	-0.0017
480.4383	-0.0074
480.6386	-0.0037
480.8389	-0.0106
481.0392	-0.0061
481.2395	-0.0075
481.4398	-0.0237
481.6401	-0.0012
481.8403	-0.0063
482.0405	-0.0107
482.2408	-0.0239
482.441	-0.0147
482.6411	-0.0116
482.8413	-0.0108
483.0415	-0.0127
483.2416	-0.0161
483.4417	-0.0027
483.6419	-0.0193
483.8419	-0.0103
484.042	0.0145
484.2421	-0.0189
484.4422	-0.0105
484.6422	-0.0008
484.8422	-0.0198
485.0422	0.0072
485.2422	-0.0125
485.4422	-0.0041
485.6422	-0.0089
485.8421	-0.0013
486.042	-0.0056
486.242	-0.004
486.4419	-0.0186
486.6417	-0.0049
486.8416	-0.0107
487.0415	-0.0035
487.2413	-0.0046
487.4411	0.0046
487.641	-0.0043
487.8408	-0.0065
488.0405	-0.0084
488.2403	0.0026
488.4401	-0.0053
488.6398	-0.0068
488.8395	-0.0045
489.0392	-0.0107
489.2389	-0.0136
489.4386	-0.0145
489.6383	-0.0004
489.8379	-0.0071
490.0376	-0.0034
490.2372	0.002
490.4368	-0.0046
490.6364	0.0037
490.836	-0.0269
491.0355	-0.0106
491.2351	-0.0122
491.4346	-0.0159
491.6341	-0.0174
491.8336	-0.0008
492.0331	-0.0112
492.2326	-0.0089
492.432	-0.0081
492.6315	-0.0049
492.8309	-0.0016
493.0303	-0.0148
493.2297	-0.0168
493.4291	-0.0039
493.6284	-0.0199
493.8278	-0.0172
494.0271	-0.0132
494.2264	-0.0099
494.4257	-0.0074
494.625	-0.0107
494.8243	-0.0057
495.0236	-0.0145
495.2228	-0.0184
495.422	0.0023
495.6213	-0.0134
495.8205	-0.016
496.0196	-0.0064
496.2188	-0.0063
496.418	-0.0133
496.6171	-0.012
496.8162	-0.0129
497.0153	-0.0002
497.2144	-0.0096
497.4135	-0.003
497.6126	-0.0135
497.8116	-0.0099
498.0107	-0.0104
498.2097	-0.0167
498.4087	-0.0149
498.6077	-0.0175
498.8067	0.0032
499.0056	-0.0128
499.2046	0.0053
499.4035	-0.0156
499.6024	-0.027
499.8013	-0.0144
500.0002	-0.002
500.199	-0.016
500.3979	-0.0031
500.5967	-0.01
500.7956	-0.0094
500.9944	-0.0183
501.1932	0.0076
501.3919	-0.0085
501.5907	-0.021
501.7895	-0.0236
501.9882	-0.0158
502.1869	-0.017
502.3856	-0.0257
502.5843	-0.0102
502.783	0.0041
502.9816	0.0027
503.1803	-0.0134
503.3789	-0.0012
503.5775	-0.0119
503.7761	-0.0067
503.9747	-0.0102
504.1732	0.0018
504.3718	-0.0018
504.5703	-0.0039
504.7689	-0.0115
504.9674	-0.011
505.1658	-0.0005
505.3643	-0.0029
505.5628	-0.0077
505.7612	-0.0108
505.9597	-0.0095
506.1581	0.004
506.3565	-0.0096
506.5549	-0.0059
506.7532	-0.0029
506.9516	-0.0027
507.1499	-0.0155
507.3482	-0.0109
507.5465	0.0024
507.7448	-0.002
507.9431	-0.0032
508.1414	-0.0163
508.3396	-0.0186
508.5379	0.0034
508.7361	-0.006
508.9343	-0.0077
509.1325	-0.0013
509.3306	-0.0131
509.5288	-0.004
509.7269	-0.003
509.9251	0.0095
510.1232	-0.0024
510.3213	-0.0008
510.5193	-0.0056
510.7174	-0.0162
510.9154	-0.0052
511.1135	-0.0076
511.3115	-0.0043
511.5095	-0.0068
511.7075	-0.0032
511.9055	-0.0089
512.1034	-0.004
512.3014	-0.0051
512.4993	-0.0032
512.6972	-0.0144
512.8951	0.0006
513.093	-0.0051
513.2908	-0.0192
513.4887	-0.0133
513.6865	-0.0013
513.8844	-0.0036
514.0822	0.0015
514.2799	-0.0104
514.4777	0.0021
514.6755	-0.0032
514.8732	-0.0094
515.0709	-0.0019
515.2687	0.0001
515.4664	-0.0032
515.664	-0.021
515.8617	0.0039
516.0594	0.0041
516.257	-0.0036
516.4546	-0.0184
516.6522	-0.0049
516.8498	-0.0198
517.0474	-0.0035
517.2449	-0.0126
517.4425	-0.0005
517.64	-0.0106
517.8375	-0.0083
518.035	0.0065
518.2325	-0.0154
518.43	-0.0057
518.6274	-0.0021
518.8249	0.0051
519.0223	-0.0046
519.2197	0.001
519.4171	-0.0004
519.6145	-0.0003
519.8118	-0.0122
520.0092	-0.0149
520.2065	-0.0141
520.4038	-0.023
520.6011	-0.002
520.7984	0.0078
520.9956	-0.0026
521.1929	-0.0068
521.3901	-0.0079
521.5874	0.0005
521.7846	-0.0073
521.9818	-0.0031
522.1789	0.0012
522.3761	0.0081
522.5732	-0.0075
522.7704	-0.0086
522.9675	-0.0096
523.1646	-0.0004
523.3617	-0.0126
523.5587	0.0066
523.7558	-0.0028
523.9528	0.003
524.1498	-0.0073
524.3468	-0.0036
524.5438	-0.001
524.7408	-0.0053
524.9378	0.0146
525.1347	-0.001
525.3316	0.0051
525.5285	-0.0096
525.7254	-0.0044
525.9223	0.0044
526.1192	-0.0141
526.316	0.0012
526.5129	0.0034
526.7097	-0.0014
526.9065	0.0111
527.1033	0.0035
527.3	-0.008
527.4968	-0.0068
527.6935	0.0066
527.8903	0.0143
528.087	0.006
528.2837	0.0134
528.4804	0.0045
528.677	0.0139
528.8737	0.0034
529.0703	0.0109
529.2669	-0.0063
529.4635	0.0036
529.6601	0.0051
529.8567	0.0055
530.0532	0.0121
530.2498	-0.0035
530.4463	-0.0058
530.6428	-0.0079
530.8393	-0.0012
531.0358	-0.0015
531.2322	0.0047
531.4287	-0.0116
531.6251	0.0027
531.8215	-0.0071
532.0179	-0.0063
532.2143	0.0046
532.4107	-0
532.607	0.0005
532.8034	0.0009
532.9997	-0.0055
533.196	0.0006
533.3923	0.0064
533.5886	-0.0039
533.7848	0.0017
533.9811	-0.0014
534.1773	-0.0053
534.3735	-0.0028
534.5697	-0.0015
534.7659	-0.0056
534.9621	0.0007
535.1582	-0.0073
535.3544	-0.0006
535.5505	-0.0041
535.7466	-0.0103
535.9427	-0.0064
536.1387	-0.0091
536.3348	-0.0017
536.5308	-0.0112
536.7269	0.002
536.9229	-0.0106
537.1189	-0.0048
537.3148	-0.0079
537.5108	0.001
537.7068	0.0034
537.9027	-0.0062
538.0986	-0.0085
538.2945	0.0005
538.4904	-0.0052
538.6863	0.0028
538.8821	-0.0031
539.078	-0.0001
539.2738	0.0042
539.4696	-0.011
539.6654	0.0015
539.8611	0.0066
540.0569	0.0041
540.2526	-0.0025
540.4484	0.0007
540.6441	-0.0003
540.8398	-0.0142
541.0355	0.0036
541.2311	-0.0011
541.4268	0.0034
541.6224	0.0003
541.818	0.001
542.0136	-0.0092
542.2092	-0.0003
542.4048	0.008
542.6003	-0.0054
542.7959	-0.0062
542.9914	0.0095
543.1869	-0.0053
543.3824	0.0084
543.5779	0.0044
543.7734	0.0012
543.9688	0.001
544.1642	-0.0019
544.3596	0.0053
544.555	-0.0036
544.7504	0.0087
544.9458	-0
545.1411	0.0045
545.3365	0.0101
545.5318	0.003
545.7271	0.0054
545.9224	-0.0018
546.1177	-0.0068
546.3129	0.0006
546.5081	-0.0074
546.7034	-0.0025
546.8986	-0.0017
547.0938	-0.0132
547.289	0.0016
547.4841	-0
547.6793	0.0011
547.8744	-0.0007
548.0695	-0.0015
548.2646	-0.0077
548.4597	0.0106
548.6548	0.0017
548.8498	0.0015
549.0448	-0.0028
549.2399	-0.0003
549.4349	0
549.6298	0.0025
549.8248	-0.0037
550.0198	-0.0029
550.2147	-0.0009
550.4096	-0.0072
550.6045	-0.001
550.7994	-0.0029
550.9943	0.0003
551.1892	-0.005
551.384	-0.0042
551.5788	0.0021
551.7737	-0.0092
551.9685	-0.0062
552.1632	-0.0024
552.358	0.0038
552.5528	-0.0072
552.7475	-0.007
552.9422	0.0015
553.1369	-0.0007
553.3316	0.0045
553.5263	0.013
553.7209	0.0016
553.9156	0.0038
554.1102	-0.0069
554.3048	0.0023
554.4994	-0.0023
554.694	0.005
554.8885	0.0028
555.0831	0.0038
555.2776	0.0128
555.4721	0.0106
555.6666	-0.0048
555.8611	0.0001
556.0555	0.0038
556.25	-0.002
556.4444	0.011
556.6388	0.0108
556.8332	0.0021
557.0276	0.0037
557.222	0.0074
557.4163	-0.0008
557.6107	0.023
557.805	0.0007
557.9993	-0.0062
558.1936	0.0126
558.3879	0.0053
558.5821	0.0091
558.7764	0.0096
558.9706	0.0048
559.1648	0.0044
559.359	0.0006
559.5532	0.0051
559.7473	0.0126
559.9415	0.0059
560.1356	0.014
560.3297	-0.0031
560.5238	0.01
560.7179	0.0014
560.9119	-0.0007
561.106	0.0093
561.3	0.0029
561.494	0.0116
561.688	-0.0012
561.882	0.0092
562.076	0.0024
562.2699	0.0035
562.4639	0.0033
562.6578	-0.0022
562.8517	0.0037
563.0456	0.0043
563.2395	0.0029
563.4333	-0.0096
563.6272	0.0025
563.821	-0.0076
564.0148	0.0015
564.2086	-0.0084
564.4024	0.0021
564.5961	0.0043
564.7899	-0.0096
564.9836	-0.0025
565.1773	0.0091
565.371	0.0109
565.5647	-0.0042
565.7584	0.0034
565.952	0.0096
566.1456	-0.0011
566.3393	0.0028
566.5329	-0.0045
566.7264	-0.001
566.92	-0.0018
567.1136	0.007
567.3071	0.0018
567.5006	0.0067
567.6941	0.0078
567.8876	0.0011
568.0811	-0.0002
568.2745	-0.0007
568.468	-0.0006
568.6614	0.007
568.8548	0.0117
569.0482	0.01
569.2416	0.0042
569.4349	0.0027
569.6283	0.0032
569.8216	0.008
570.0149	0.0038
570.2082	0.0106
570.4015	0.0001
570.5947	0.0059
570.788	0.012
570.9812	0.0099
571.1744	-0.003
571.3676	0.0038
571.5608	0.0053
571.754	0.003
571.9471	0.0016
572.1402	0.0065
572.3333	0.0081
572.5264	-0.0005
572.7195	0.0011
572.9126	0.0036
573.1057	-0.0017
573.2987	0.0023
573.4917	-0.0037
573.6847	-0.0026
573.8777	-0.0045
574.0707	-0.001
574.2636	0.0038
574.4566	0.005
574.6495	0.0032
574.8424	-0.002
575.0353	-0.0021
575.2281	0.0069
575.421	0.0045
575.6138	-0.0009
575.8067	0.0011
575.9995	0.0041
576.1923	0.0122
576.385	-0.0013
576.5778	-0.0047
576.7706	0.0096
576.9633	-0.0011
577.156	0.0062
577.3487	0.0023
577.5414	0.0038
577.734	-0.0107
577.9267	-0.0008
578.1193	0.0055
578.3119	0.0012
578.5045	0.006
578.6971	0.0086
578.8897	0.0027
579.0822	-0.004
579.2747	0.0062
579.4673	0.0078
579.6598	0.0132
579.8522	0.0064
580.0447	-0.0008
580.2372	0.0062
580.4296	0.01
580.622	0.0042
580.8144	0.0032
581.0068	0.0014
581.1992	0.0087
581.3915	0.0036
581.5839	0.0027
581.7762	0.0033
581.9685	0.0013
582.1608	0.0012
582.353	-0.0046
582.5453	0.0011
582.7375	-0.0015
582.9298	0.0053
583.122	0.0066
583.3142	0.0019
583.5063	0.004
583.6985	-0.0008
583.8906	0.0008
584.0827	-0.0088
584.2749	0.0001
584.4669	-0.002
584.659	-0.0041
584.8511	-0.0018
585.0431	-0.0012
585.2352	0.0017
585.4272	-0.0002
585.6192	0.0026
585.8111	-0.0028
586.0031	-0.0007
586.195	0.0055
586.387	0.0024
586.5789	0.0044
586.7708	-0.0005
586.9627	0.0041
587.1545	0.0064
587.3464	0.0041
587.5382	-0.0025
587.73	0.0077
587.9218	0.0073
588.1136	0.003
588.3053	0.0018
588.4971	-0.0013
588.6888	0.0026
588.8805	0.0008
589.0722	0.0005
589.2639	0.0067
589.4556	-0.0012
589.6472	-0.0013
589.8389	-0.0011
590.0305	0.0054
590.2221	0.0053
590.4137	-0.0024
590.6052	-0.0005
590.7968	0.0089
590.9883	-0.003
591.1798	-0.0027
591.3713	0.0072
591.5628	-0.0018
591.7543	0.0116
591.9458	0.008
592.1372	0.0034
592.3286	0.0008
592.52	0.0052
592.7114	0.0075
592.9028	-0.0022
593.0941	0.0092
593.2855	0.0075
593.4768	0.0007
593.6681	0.0009
593.8594	0.0013
594.0506	-0.0073
594.2419	0.0018
594.4331	-0.0015
594.6244	0.0052
594.8156	0.0042
595.0067	-0.0002
595.1979	-0
595.3891	0.0117
595.5802	0.0032
595.7713	-0.0073
595.9624	0.0035
596.1535	-0.0016
596.3446	0.0029
596.5357	0.0052
596.7267	0.0022
596.9177	0.0068
597.1087	0.0134
597.2997	0.0015
597.4907	0.0021
597.6817	-0.003
597.8726	0.0073
598.0635	0.0035
598.2544	0.006
598.4453	0.0097
598.6362	0.0059
598.827	0.0104
599.0179	0.0024
599.2087	0.0031
599.3995	0.0088
599.5903	0.0086
599.7811	0.0059
599.9718	-0.0001
600.1626	0.004
600.3533	-0.0014
600.544	0.0062
600.7347	0.0064
600.9254	-0.0027
601.116	-0.0012
601.3067	-0.0065
601.4973	-0.0004
601.6879	-0.0015
601.8785	-0.0019
602.0691	0.0069
602.2596	0.0062
602.4502	0.0073
602.6407	0.006
602.8312	0.0066
603.0217	0.0032
603.2122	-0.0073
603.4027	-0.0007
603.5931	0.0049
603.7835	0.0073
603.9739	0.0091
604.1643	0.0114
604.3547	0.0058
604.5451	-0.0038
604.7354	0.0064
604.9257	0.0032
605.116	0.0026
605.3063	0.0093
605.4966	-0.0036
605.6869	0.0149
605.8771	0.0006
606.0673	-0.0015
606.2575	-0.0049
606.4477	0.0004
606.6379	0.008
606.8281	0.0072
607.0182	0.0016
607.2083	0.0006
607.3985	0.0133
607.5885	-0.0014
607.7786	0.007
607.9687	0.0004
608.1587	0.0053
608.3488	0.0078
608.5388	0.012
608.7288	-0.0035
608.9187	-0.0014
609.1087	-0.0031
609.2986	0.0022
609.4886	0.0062
609.6785	0.007
609.8684	0.005
610.0582	0.015
610.2481	-0.0017
610.4379	0.0006
610.6278	0.002
610.8176	0.0062
611.0074	-0.0004
611.1971	0.0065
611.3869	-0.0025
611.5766	0.0134
611.7664	0.0072
611.9561	0.006
612.1458	0.0088
612.3354	0.0166
612.5251	0.0091
612.7147	0.0027
612.9044	0.0078
613.094	0.0021
613.2836	0.0101
613.4731	0.0097
613.6627	0.0044
613.8522	0.0067
614.0417	0.0037
614.2313	0.0034
614.4207	0.002
614.6102	0.0041
614.7997	0.0064
614.9891	0.0093
615.1785	-0.0003
615.3679	0.0086
615.5573	0.0124
615.7467	0.0031
615.9361	0.002
616.1254	0.0043
616.3147	0.0016
616.504	-0.0002
616.6933	-0.0005
616.8826	0.0067
617.0718	0.0091
617.2611	0.0039
617.4503	0.0069
617.6395	0.0042
617.8287	0.0175
618.0179	0.0013
618.207	0.0084
618.3961	0.0085
618.5853	0.0112
618.7744	0.0113
618.9634	0.0014
619.1525	0.0065
619.3416	0.005
619.5306	0.0038
619.7196	0.0029
619.9086	0.0145
620.0976	0.0014
620.2866	0.0113
620.4755	0.0123
620.6645	0.0057
620.8534	0.0083
621.0423	0.0057
621.2312	0.006
621.42	0.009
621.6089	0.0099
621.7977	0.0067
621.9865	0.0134
622.1753	0.0073
622.3641	0.0044
622.5529	0.0114
622.7416	0.0103
622.9303	0.0089
623.1191	0.0115
623.3078	0.0033
623.4964	0.0133
623.6851	0.0102
623.8737	0.0068
624.0624	0.0032
624.251	0.0135
624.4396	0.0065
624.6282	0.0065
624.8167	0.0112
625.0053	0.0081
625.1938	0.0082
625.3823	0.004
625.5708	0.0077
625.7593	-0.0003
625.9477	0.0105
626.1362	0.0092
626.3246	0.0144
626.513	0.0009
626.7014	0.0045
626.8898	0.0025
627.0781	0.0028
627.2665	0.0016
627.4548	0.0112
627.6431	0.0041
627.8314	0.0074
628.0197	0.0039
628.2079	0.0108
628.3962	0.0077
628.5844	0.0146
628.7726	0.0061
628.9608	0.0093
629.1489	0.012
629.3371	0.0051
629.5252	0.0072
629.7134	0.0039
629.9015	0.0113
630.0895	0.0078
630.2776	0.0054
630.4657	0.0106
630.6537	0.0062
630.8417	0.0085
631.0297	0.0162
631.2177	0.0113
631.4057	0.0094
631.5936	0.0078
631.7815	0.0142
631.9695	0.0191
632.1574	0.0103
632.3452	0.0153
632.5331	-0.0001
632.7209	0.0109
632.9088	0.0041
633.0966	0.0048
633.2844	0.0045
633.4722	0.009
633.6599	0.0037
633.8477	0.0135
634.0354	0.0056
634.2231	0.0121
634.4108	0.008
634.5985	0.0022
634.7861	0.0067
634.9738	0.0161
635.1614	0.0056
635.349	0.0023
635.5366	0.0143
635.7242	0.0071
635.9117	0.0081
636.0993	0.0061
636.2868	0.0165
636.4743	-0.0046
636.6618	0.0101
636.8492	0.0203
637.0367	0.0053
637.2241	0.0107
637.4115	0.0035
637.5989	0.0118
637.7863	0.0122
637.9737	0.0076
638.161	0.0134
638.3484	0.0056
638.5357	0.0109
638.723	-0.0019
638.9103	0.0018
639.0975	0.0084
639.2848	0.0106
639.472	0.0058
639.6592	0.0102
639.8464	0.0058
640.0336	0.011
640.2208	0.0067
640.4079	0.0064
640.595	0.0091
640.7821	0.0086
640.9692	0.0046
641.1563	0.0106
641.3434	0.0115
641.5304	0.01
641.7174	0.0137
641.9044	0.0055
642.0914	0.0016
642.2784	-0.0038
642.4653	0.0036
642.6523	-0.0037
642.8392	0.0048
643.0261	0.01
643.213	-0.0031
643.3999	0.0072
643.5867	0.0068
643.7735	0.0047
643.9604	0.0033
644.1472	0.004
644.3339	-0.001
644.5207	0.0047
644.7075	-0.0006
644.8942	0.0078
645.0809	0.0072
645.2676	0.0094
645.4543	0.009
645.6409	0.0101
645.8276	0.0051
646.0142	0.0049
646.2008	0.0169
646.3874	0.0103
646.574	0.0077
646.7605	0.0058
646.9471	0.0047
647.1336	0.0074
647.3201	0.0067
647.5066	-0.0009
647.6931	0.0027
647.8795	-0.0004
648.0659	0.0092
648.2524	0.0122
648.4388	0.0052
648.6252	-0.0022
648.8115	-0.0006
648.9979	0.0076
649.1842	0.0052
649.3705	-0.0051
649.5568	0.0107
649.7431	0.0141
649.9294	0.0157
650.1156	0.008
650.3018	0.0137
650.488	0.0014
650.6742	0.003
650.8604	0.0097
651.0466	0.0048
651.2327	0.007
651.4188	0.0111
651.6049	0.0165
651.791	0.0055
651.9771	0.0073
652.1632	0.0022
652.3492	0.0129
652.5352	0.0029
652.7212	0.0064
652.9072	-0.0013
653.0932	0.0017
653.2791	0.0006
653.465	0.0103
653.651	0.0023
653.8369	0.0109
654.0227	0.0072
654.2086	0.0071
654.3944	-0.0015
654.5803	0.0071
654.7661	0.0075
654.9519	0.002
655.1377	-0.0025
655.3234	0.0002
655.5092	-0.0019
655.6949	-0.0083
655.8806	-0.005
656.0663	0.0005
656.2519	-0.0034
656.4376	-0.0007
656.6232	-0.0015
656.8088	0.0072
656.9945	0.0035
657.18	0.0028
657.3656	0.0126
657.5511	-0.0023
657.7367	0.0031
657.9222	0.0105
658.1077	0.0026
658.2932	0.0003
658.4786	-0.0022
658.6641	-0.0009
658.8495	0.0078
659.0349	0.0099
659.2203	0.0061
659.4057	-0.0013
659.591	0.0053
659.7764	0.0029
659.9617	0.0051
660.147	0.0088
660.3323	0.0059
660.5176	0.0018
660.7028	0.005
660.888	0.0093
661.0733	0.0098
661.2585	0.0111
661.4436	0.0123
661.6288	0.0161
661.8139	0.0086
661.9991	-0.0023
662.1842	0.0108
662.3693	-0.0003
662.5544	0.0141
662.7394	0.0038
662.9245	0.0051
663.1095	0.0117
663.2945	0.0069
663.4795	0.0105
663.6644	0.0097
663.8494	0.0017
664.0343	0.0133
664.2193	0.0073
664.4042	0.0168
664.589	0.0028
664.7739	0.0063
664.9587	0.0049
665.1436	0.0015
665.3284	0.001
665.5132	0.0053
665.698	0.0102
665.8827	0.0069
666.0675	0.0064
666.2522	0.0092
666.4369	0.005
666.6216	0.0075
666.8063	0.0046
666.9909	0.0108
667.1756	0.0126
667.3602	0.0011
667.5448	0.0157
667.7294	0.0121
667.9139	0.0072
668.0985	0.008
668.283	0.0087
668.4675	0.0079
668.652	0.0084
668.8365	-0.0019
669.0209	0.0067
669.2054	0.0024
669.3898	0.0037
669.5742	0.0042
669.7586	-0.0054
669.943	0.0113
670.1273	0.0107
670.3117	0.0084
670.496	0.0015
670.6803	0.013
670.8646	0.0099
671.0488	0.0102
671.2331	0.0117
671.4173	0.0129
671.6015	-0
671.7857	0.0068
671.9699	0.0118
672.1541	0.0046
672.3382	0.0099
672.5223	0.0123
672.7064	0.0147
672.8905	0.0084
673.0746	0.0069
673.2587	0.0088
673.4427	0.0016
673.6267	0.0089
673.8107	0.0128
673.9947	0.0072
674.1787	0.0017
674.3626	0.0117
674.5465	0.0103
674.7304	0.0086
674.9143	0.004
675.0982	0.0048
675.2821	0.0048
675.4659	0.0135
675.6497	0.0016
675.8335	0.0093
676.0173	0.0072
676.2011	0.0058
676.3849	0.0082
676.5686	0.0202
676.7523	0.0098
676.936	-0.0092
677.1197	0.0112
677.3034	-0
677.487	0.0092
677.6706	0.0193
677.8542	0.0055
678.0378	0.0074
678.2214	0.0034
678.405	0.0124
678.5885	0.0113
678.772	0.0137
678.9555	0.006
679.139	0.013
679.3225	0.0137
679.5059	0.0087
679.6894	0.0112
679.8728	0.0122
680.0562	0.0038
680.2395	0.0129
680.4229	0.0038
680.6062	-0.0019
680.7896	0.0042
680.9729	0.0043
681.1562	0.005
681.3394	0.0056
681.5227	0.0177
681.7059	-0.0036
681.8891	0.0041
682.0723	0.0086
682.2555	-0.0002
682.4387	0.0029
682.6218	0.0135
682.805	0.0128
682.9881	0.0182
683.1712	0.0122
683.3542	0.0064
683.5373	0.0123
683.7203	0.0166
683.9034	0.0061
684.0864	0.0083
684.2694	0.0148
684.4523	0.0076
684.6353	-0.0002
684.8182	0.0084
685.0011	0.0089
685.184	-0.0018
685.3669	0.0026
685.5498	-0.0013
685.7326	0.0075
685.9154	0.0096
686.0982	0.0107
686.281	0.0011
686.4638	-0.0008
686.6465	0.0135
686.8293	0.0049
687.012	0.0096
687.1947	0.0079
687.3774	0.0124
687.56	0.0068
687.7427	0.023
687.9253	0.0036
688.1079	0.0066
688.2905	0.0053
688.4731	0.0101
688.6556	0.0124
688.8382	0.0107
689.0207	0.0093
689.2032	0.012
689.3857	0.0137
689.5681	0.0111
689.7506	0.0004
689.933	0.0059
690.1154	0.001
690.2978	-0.0018
690.4802	-0.001
690.6626	0.0064
690.8449	0.0086
691.0272	0.0022
691.2095	0.0137
691.3918	0.0072
691.5741	0.0193
691.7563	0.0051
691.9386	0.0133
692.1208	0.0001
692.303	0.0007
692.4852	0.0045
692.6673	0.0077
692.8495	0.0188
693.0316	0.0131
693.2137	0.0127
693.3958	0.0064
693.5778	0.0085
693.7599	0.0093
693.9419	0.0112
694.1239	0.011
694.3059	0.0153
694.4879	0.0102
694.6699	0.0037
694.8518	0.0062
695.0337	0.0071
695.2157	0.0167
695.3975	-0.0038
695.5794	0.0102
695.7613	0.0078
695.9431	0.0144
696.1249	0.0122
696.3067	-0.0002
696.4885	0.0123
696.6703	0.0089
696.852	0.0022
697.0337	0.0164
697.2154	0.0157
697.3971	0.0054
697.5788	0.0159
697.7605	0.01
697.9421	0.0028
698.1237	0.0127
698.3053	0.0091
698.4869	0.0064
698.6685	0.0062
698.85	0.0158
699.0315	0.0176
699.213	0.0126
699.3945	-0.003
699.576	0.0198
699.7575	0.0155
699.9389	0.0131
700.1203	0.0174
700.3017	0.013
700.4831	0.0102
700.6645	0.0041
700.8458	0.0102
701.0271	0.0108
701.2084	0.0055
701.3897	-0.0019
701.571	0.0062
701.7523	-0.0078
701.9335	0.0003
702.1147	0.0044
702.2959	0.0072
702.4771	0.0028
702.6583	0.0069
702.8394	0.0027
703.0205	0.0119
703.2016	0.0122
703.3827	0.0025
703.5638	0.0086
703.7449	0.014
703.9259	0.0061
704.1069	0.0018
704.2879	0.0039
704.4689	0.0069
704.6499	-0.0007
704.8308	0.0048
705.0117	0.0064
705.1927	0.0062
705.3735	-0.0018
705.5544	-0.0067
705.7353	0.0138
705.9161	0.0067
706.0969	0.0037
706.2777	0.0088
706.4585	0.0047
706.6393	0.0092
706.82	-0.0029
707.0007	-0.0056
707.1815	0.0031
707.3621	0.0004
707.5428	0.0074
707.7235	0.0016
707.9041	0.0043
708.0847	0.0174
708.2653	0.0086
708.4459	0.0046
708.6265	0.0143
708.807	0.0066
708.9875	0.0147
709.168	0.0153
709.3485	0.0104
709.529	0.0047
709.7095	0.0142
709.8899	0.009
710.0703	0.0083
710.2507	0.0051
710.4311	0.0098
710.6115	0.0093
710.7918	0.0108
710.9721	0.0126
711.1524	0.0018
711.3327	0.0025
711.513	0.0003
711.6932	-0.0006
711.8735	0.0069
712.0537	0.0012
712.2339	-0.0029
712.4141	-0.0022
712.5942	-0.0051
712.7744	0.0116
712.9545	0
713.1346	-0.001
713.3147	-0.002
713.4947	-0.0051
713.6748	0.0049
713.8548	0.0119
714.0348	0.0021
714.2148	0.0015
714.3948	-0.0034
714.5748	0.0161
714.7547	0.0006
714.9346	-0.0003
715.1145	0.0104
715.2944	-0.0021
715.4743	0.0117
715.6541	0.0125
715.834	0.0064
716.0138	0.0133
716.1936	0.0106
716.3733	0.0043
716.5531	0.0129
716.7328	0.0102
716.9126	0.0145
717.0923	0.013
717.2719	0.0128
717.4516	0.0069
717.6312	0.0041
717.8109	0.0002
717.9905	0.0069
718.1701	-0.0051
718.3496	0.0094
718.5292	-0.0025
718.7087	-0.0087
718.8882	-0.0014
719.0677	0.0102
719.2472	0.0062
719.4267	0.0118
719.6061	0.0024
719.7856	0.0037
719.965	0.0012
720.1443	0.0049
720.3237	0.0109
720.5031	0.0043
720.6824	0.0059
720.8617	0.0077
721.041	0.0031
721.2203	0.01
721.3995	0.0141
721.5788	0.0136
721.758	0.003
721.9372	0.0078
722.1164	0.0063
722.2956	0.008
722.4747	0.008
722.6538	0.0049
722.8329	0.0067
723.012	0.0041
723.1911	0.0014
723.3702	0.0028
723.5492	0.007
723.7282	0.007
723.9072	0.0067
724.0862	0.0052
724.2652	0.0079
724.4441	-0.0009
724.623	0.0039
724.8019	-0.0024
724.9808	0.003
725.1597	0.007
725.3385	0.0148
725.5174	0.01
725.6962	0.007
725.875	-0.0026
726.0538	0.0112
726.2325	0.0095
726.4112	0.0085
726.59	0.011
726.7687	-0.0035
726.9474	-0.007
727.126	-0.0033
727.3047	-0.0016
727.4833	0.0004
727.6619	-0.0049
727.8405	0.0012
728.0191	-0.0039
728.1976	-0.0006
728.3762	0.0055
728.5547	0.0081
728.7332	0.0121
728.9116	-0.0082
729.0901	0.0055
729.2686	0.0011
729.447	-0.0038
729.6254	0.0118
729.8038	0.0096
729.9821	0.0061
730.1605	0.0132
730.3388	0.0091
730.5171	0.0104
730.6954	0.0042
730.8737	0.0019
731.0519	0.004
731.2302	-0.0011
731.4084	0.0067
731.5866	-0.0075
731.7648	0.0027
731.9429	0.0045
732.1211	-0.0054
732.2992	0.002
732.4773	-0.0044
732.6554	-0.0087
732.8335	-0.0017
733.0115	-0.0029
733.1896	-0.0012
733.3676	-0.0042
733.5456	0.0009
733.7235	-0.0023
733.9015	0.0076
734.0794	0.0028
734.2574	0.0154
734.4353	0.0027
734.6131	-0.0044
734.791	0.0101
734.9689	0.013
735.1467	0.0046
735.3245	-0.0006
735.5023	0.0069
735.68	0.0107
735.8578	0.0109
736.0355	-0.0002
736.2132	0.0105
736.3909	0.006
736.5686	0.0192
736.7463	0.0104
736.9239	0.0117
737.1015	0.0128
737.2791	0.0044
737.4567	0.0007
737.6343	0.0051
737.8118	0.0053
737.9894	0.0025
738.1669	0.0057
738.3444	0.0009
738.5218	0.0177
738.6993	0.0066
738.8767	0.0051
739.0541	-0.0031
739.2315	0.005
739.4089	0.0137
739.5863	0.0036
739.7636	0.0128
739.9409	0.0008
740.1182	0.0003
740.2955	0.0136
740.4728	0.0161
740.65	-0.0022
740.8272	0.0005
741.0044	-0.0026
741.1816	0.0144
741.3588	0.004
741.5359	0.0135
741.7131	0.0111
741.8902	-0.0027
742.0673	0.0168
742.2444	-0.0115
742.4214	0.0065
742.5985	0.0074
742.7755	0.0031
742.9525	0.0022
743.1295	0.0058
743.3064	0.0067
743.4834	0.0034
743.6603	0.0036
743.8372	-0.0019
744.0141	0.0088
744.191	0.0058
744.3678	-0.0002
744.5446	-0.001
744.7215	0.0168
744.8982	-0.0007
745.075	0.0071
745.2518	-0.0077
745.4285	0.0031
745.6052	0.0001
745.7819	0.0014
745.9586	0.0072
746.1353	-0.003
746.3119	0.002
746.4885	0.0027
746.6651	0.0032
746.8417	0.0009
747.0183	0.0054
747.1948	0.0058
747.3714	0.0061
747.5479	0.0054
747.7244	0.0024
747.9008	0.0127
748.0773	0.0055
748.2537	0.0029
748.4301	-0.0038
748.6065	0.0099
748.7829	0.0005
748.9593	0.0057
749.1356	-0.0007
749.3119	0.0178
749.4882	0.0035
749.6645	0.0021
749.8408	0.0057
750.017	0.0029
750.1933	0.0098
750.3695	0.0085
750.5457	0.0135
750.7218	0.0118
750.898	0.0198
751.0741	0.0102
751.2502	0.0218
751.4263	0.0097
751.6024	0.0145
751.7784	0.0073
751.9545	0.0023
752.1305	0.0082
752.3065	0.0175
752.4825	0.0113
752.6584	0.0058
752.8344	0.0037
753.0103	0.0019
753.1862	0.0051
753.3621	0.0027
753.5379	0.0036
753.7138	0.0008
753.8896	0.0062
754.0654	0.0025
754.2412	0.0012
754.417	0.0017
754.5927	0.003
754.7685	0.0077
754.9442	0.0041
755.1199	0.0106
755.2956	0.0004
755.4712	-0.0022
755.6469	0.0145
755.8225	0.003
755.9981	0.0031
756.1736	-0.0041
756.3492	0.0024
756.5248	0.0095
756.7003	0.0127
756.8758	0.0097
757.0513	0.01
757.2267	0.008
757.4022	0.01
757.5776	0.0099
757.753	0.0064
757.9284	0.0071
758.1038	-0.0047
758.2791	0.0073
758.4545	0.0054
758.6298	0.0096
758.8051	-0.0012
758.9803	0.0113
759.1556	0.006
759.3308	0.0108
759.506	0.0164
759.6812	0.0048
759.8564	0.0018
760.0316	0.0081
760.2067	0.0037
760.3819	-0.0003
760.557	-0.0047
760.732	0.0145
760.9071	0.0136
761.0821	0.0232
761.2572	0.0162
761.4322	0.0015
761.6072	0.003
761.7821	0.0027
761.9571	0.0039
762.132	-0.0017
762.3069	0.0083
762.4818	0.017
762.6567	0.0039
762.8316	0.0139
763.0064	0.0006
763.1812	0.0028
763.356	0.0085
763.5308	0.0018
763.7055	-0.0006
763.8803	0.0096
764.055	0.006
764.2297	0.0108
764.4044	0.0154
764.579	0.0091
764.7537	0.0001
764.9283	0.0077
765.1029	0.007
765.2775	-0.001
765.4521	-0.0068
765.6266	0.0079
765.8011	0.0019
765.9756	-0.0038
766.1501	0.0015
766.3246	-0
766.4991	0.0026
766.6735	-0
766.8479	0.0018
767.0223	-0.0057
767.1967	0.0133
767.371	-0.0064
767.5454	-0.0029
767.7197	0.0038
767.894	0.0126
768.0683	0.0077
768.2425	-0.0015
768.4168	0.0009
768.591	0.0075
768.7652	0.0033
768.9394	-0.0039
769.1135	0.0019
769.2877	0.0024
769.4618	0.0083
769.6359	0.0225
769.81	0.0059
769.984	0.0006
770.1581	-0.0016
770.3321	0.0119
770.5061	-0.0075
770.6801	-0.0033
770.8541	0.0054
771.028	0.0085
771.202	-0.0049
771.3759	-0.009
771.5498	0.0042
771.7236	0.0005
771.8975	0.0086
772.0713	-0.0003
772.2451	0.0034
772.4189	0.0013
772.5927	0.001
772.7665	-0.0072
772.9402	0.0102
773.1139	0.0066
773.2876	-0.0043
773.4613	0.006
773.635	0.0069
773.8086	0.0033
773.9822	-0.0031
774.1558	0.0089
774.3294	0.0181
774.503	-0.0101
774.6765	0.0133
774.8501	0.0041
775.0236	0.0016
775.1971	0.0169
775.3705	0.0182
775.544	0.014
775.7174	0.0256
775.8908	0.0147
776.0642	0.0102
776.2376	0.0089
776.4109	0.0093
776.5843	-0.0021
776.7576	0.0004
776.9309	0.0122
777.1041	0.009
777.2774	0.0076
777.4506	0.0177
777.6238	0.001
777.797	0.0058
777.9702	0.0037
778.1434	0.0261
778.3165	0.0029
778.4896	0.0115
778.6627	0.0067
778.8358	0.0108
779.0089	0.0069
779.1819	-0.0002
779.3549	0.0038
779.5279	0.0061
779.7009	0.0047
779.8739	-0.0119
780.0468	0.019
780.2197	0.0014
780.3926	-0.0042
780.5655	0.0092
780.7384	-0.0046
780.9112	0.007
781.0841	0.003
781.2569	-0.0027
781.4297	-0.0239
781.6024	0.0028
781.7752	-0.013
781.9479	0.0116
782.1206	0.0134
782.2933	0.0037
782.466	-0.0019
782.6386	0.0134
782.8113	-0.0126
782.9839	0.0011
783.1565	0.0088
783.329	0.0075
783.5016	0.0018
783.6741	0.002
783.8466	-0.0058
784.0191	0.0018
784.1916	0.0068
784.3641	0.002
784.5365	0.0061
784.7089	-0.002
784.8813	0.0026
785.0537	-0.005
785.2261	0.0009
785.3984	-0.0061
785.5707	0.0154
785.743	-0.0046
785.9153	-0.0009
786.0876	0.0055
786.2598	-0.0115
786.432	0.0098
786.6042	-0.0025
786.7764	-0.0009
786.9486	0.0033
787.1207	0.0047
787.2928	0.0011
787.4649	-0.0073
787.637	-0.0001
787.8091	0.0088
787.9811	-0.0043
788.1532	0.0134
788.3252	-0.0071
788.4972	-0.0032
788.6691	0.0096
788.8411	-0.0018
789.013	-0.0034
789.1849	0.0132
789.3568	0.0043
789.5287	0.0043
789.7005	0.018
789.8723	0.0072
790.0442	-0.0027
790.2159	-0.0069
790.3877	0.0263
790.5595	0.013
790.7312	-0.008
790.9029	0.0137
791.0746	0.0115
791.2463	0.0192
791.4179	0.0123
791.5896	0.0022
791.7612	0.0225
791.9328	0.0144
792.1044	0.0156
792.2759	0.0096
792.4474	0.0034
792.619	0.0101
792.7905	0.0243
792.9619	0.0215
793.1334	0.0103
793.3048	0.0212
793.4762	0.0048
793.6476	0.012
793.819	0.0143
793.9904	0.0252
794.1617	-0.0108
794.333	0.0037
794.5043	0.0012
794.6756	-0.0084
794.8469	0.0253
795.0181	0.0075
795.1893	-0.015
795.3605	0.0071
795.5317	-0.0079
795.7029	0.003
795.874	0.0079
796.0452	0.0021
796.2163	0.0086
796.3873	0.007
796.5584	0.0061
796.7294	0.0052
796.9005	0.0008
797.0715	0.0052
797.2425	-0.0013
797.4134	0.0083
797.5844	0.0041
797.7553	0.0001
797.9262	0.0081
798.0971	0.0142
798.2679	0.0008
798.4388	0.0001
798.6096	-0.0016
798.7804	0.0032
798.9512	0.0058
799.122	0.013
799.2927	0.0003
799.4635	0.003
799.6342	0.0275
799.8049	0.0196
799.9755	0.0105
800.1462	0.0079
800.3168	0.0142
800.4874	0.0045
800.658	0.0048
800.8286	0.0116
800.9991	0.0159
801.1696	0.0018
801.3402	0.0112
801.5106	0.0068
801.6811	-0.0007
801.8516	0.0033
802.022	0.0019
802.1924	0.005
802.3628	0.0195
802.5332	0.0133
802.7035	0.0045
802.8739	0.0124
803.0442	0.0019
803.2145	0.0088
803.3847	0.0097
803.555	0.0021
803.7252	0.0169
803.8954	-0.0042
804.0656	-0.0096
804.2358	0.0013
804.4059	0.0328
804.5761	0.0091
804.7462	-0.0037
804.9163	0.0062
805.0864	-0.009
805.2564	0.007
805.4264	-0.0024
805.5965	0.0046
805.7665	0.0294
805.9364	-0.0044
806.1064	0.0105
806.2763	0.0252
806.4462	-0.0018
806.6161	0.0192
806.786	0.0202
806.9559	0.0191
807.1257	0.0017
807.2955	0.0237
807.4653	0.0273
807.6351	0.0172
807.8048	0.0117
807.9746	0.0289
808.1443	0.0114
808.314	0.0166
808.4837	0.0171
808.6533	0.0153
808.8229	0.027
808.9926	0.0013
809.1622	0.0252
809.3317	0.0212
809.5013	0.0266
809.6708	0.0124
809.8403	0.0071
810.0098	0.0067
810.1793	-0.0006
810.3488	-0.0201
810.5182	0.0168
810.6876	0.0213
810.857	0.0273
811.0264	0.0145
811.1958	0.0135
811.3651	-0.01
811.5344	0.0194
811.7037	0.0004
811.873	0.0056
812.0422	-0.0102
812.2115	0.0037
812.3807	0.0239
812.5499	0.0056
812.7191	0.0014
812.8882	0.0059
813.0574	0.0206
813.2265	0.0415
813.3956	0.0281
813.5646	0.0129
813.7337	0.0025
813.9027	0.007
814.0718	0.013
814.2407	0.0109
814.4097	0.0271
814.5787	-0.0012
814.7476	0.0252
814.9165	0.0122
815.0854	-0.0115
815.2543	-0.004
815.4232	0.0085
815.592	0.0151
815.7608	0.0199
815.9296	0.0041
816.0984	-0.0092
816.2671	-0.0129
816.4359	0.0002
816.6046	0.0103
816.7733	-0.0093
816.942	0.0163
817.1106	0.0019
817.2793	0.0046
817.4479	-0.0039
817.6165	-0.009
817.785	0.0172
817.9536	0.0032
818.1221	-0.0053
818.2906	0.0112
818.4591	0.002
818.6276	0.0063
818.7961	-0.0107
818.9645	-0.0058
819.1329	-0.0008
819.3013	0.0021
819.4697	0.0421
819.638	-0.0092
819.8064	0.0085
819.9747	-0.0064
820.143	0.0156
820.3113	-0.0084
820.4795	-0.0037
820.6477	0.0067
820.816	-0.0296
820.9842	-0.015
821.1523	0.0341
821.3205	0.0033
821.4886	-0.0163
821.6567	-0.0062
821.8248	-0.0027
821.9929	-0.0067
822.1609	-0.0189
822.329	0.0308
822.497	-0.0244
822.665	-0.0192
822.833	-0.0138
823.0009	-0.039
823.1688	-0.0209
823.3367	0.0013
823.5046	-0.0153
823.6725	-0.0268
823.8404	-0.018
824.0082	-0.011
824.176	0.0368
824.3438	0.0042
824.5116	0.0344
824.6793	-0.0102
824.847	0.0287
825.0147	0.0104
825.1824	-0.0126
825.3501	0.0092
825.5177	-0.0114
825.6854	-0.0071
825.853	0.0291
826.0206	-0.009
826.1881	0.018
826.3557	-0.008
826.5232	-0.0142
826.6907	0.0218
826.8582	0.0185
827.0257	0.0237
827.1931	0.0117
827.3605	0.0134
827.528	0.0123
827.6953	0.0259
827.8627	0.0098
828.03	0.0154
828.1974	0.0147
828.3647	-0.0183
828.532	0.008
828.6992	0.0214
828.8665	0.0112
829.0337	0.0197
829.2009	0.0074
829.3681	-0.0059
829.5352	-0.0227
829.7024	-0.0056
829.8695	0.0189
830.0366	-0.0142
830.2037	-0.0274
830.3707	0.0211
830.5378	-0.0162
830.7048	0.0112
830.8718	-0.0129
831.0388	0.0071
831.2057	0.017
831.3727	0.0142
831.5396	-0.0178
831.7065	-0.0147
831.8734	0.003
832.0402	-0.0024
832.2071	-0.0098
832.3739	-0.0143
832.5407	0.0351
832.7075	-0.0002
832.8742	-0.0397
833.041	0.0087
833.2077	-0.0002
833.3744	0.077
833.541	0.0414
833.7077	0.0175
833.8743	0.0294
834.0409	0.0325
834.2075	0.0101
834.3741	0.0061
834.5407	-0.026
834.7072	-0.018
834.8737	-0.0141
835.0402	-0.0014
835.2067	-0.0077
835.3731	0.031
835.5395	-0.035
835.706	0.0202
835.8723	-0.0464
836.0387	-0.0057
836.2051	0.0332
836.3714	-0.0483
836.5377	-0.0487
836.704	-0.0327
836.8703	-0.0258
837.0365	-0.085
837.2027	0.0004
837.3689	-0.0438
837.5351	-0.0091
837.7013	-0.0276
837.8674	-0.0165
838.0335	-0.0368
838.1997	-0.0662
838.3657	-0.0038
838.5318	-0.0018
838.6978	-0.019
838.8639	-0.0261
839.0299	0.0345
839.1958	-0.0011
839.3618	-0.0428
839.5277	0.0004
839.6937	-0.0084
839.8596	-0.0444
840.0254	0.0093
840.1913	0.0108
840.3571	-0.06
840.523	0.0061
840.6888	0.0038
840.8545	0.0332
841.0203	0.005
841.186	0.0332
841.3517	-0.0159
841.5174	-0.0386
841.6831	0.0071
841.8488	0.0116
842.0144	0.0436
842.18	-0.0103
842.3456	-0.0012
842.5112	0.028
842.6767	0.0123
842.8422	-0.0303
843.0077	-0.0547
843.1732	0.0084
843.3387	-0.0579
843.5042	-0.0027
843.6696	0.0514
843.835	-0.0654
844.0004	-0.0319
844.1657	0.0355
844.3311	0.0037
844.4964	-0.0615
844.6617	-0.1101
844.827	0.0098
844.9923	0.0377
845.1575	0.0082
845.3227	-0.0185
845.4879	-0.0196
845.6531	-0.0205
845.8183	-0.0288
845.9834	0.0029
846.1485	-0.0398
846.3136	-0.0108
846.4787	-0.0147
846.6438	-0.0033
846.8088	0.0317
846.9738	-0.0101
847.1388	0.0248
847.3038	-0.048
847.4687	-0.0058
847.6337	-0.0935
847.7986	0.0509
847.9635	-0.0286
848.1284	-0.0209
848.2932	0.0257
848.458	-0.0086
848.6228	0.0881
848.7876	-0.062
848.9524	-0.0151
849.1172	0.0362
849.2819	-0.0732
849.4466	-0.0005
849.6113	0.0624
849.7759	-0.0913
849.9406	0.0517
850.1052	-0.1611
850.2698	0.0473
850.4344	0.0085
850.599	0.0398
850.7635	0.0462
850.928	-0.0233
851.0925	0.0223
851.257	0.0729
851.4215	-0.0847
851.5859	0.0158
851.7503	-0.0569
851.9147	0.0486
852.0791	0.0738
852.2434	0.0226
852.4078	-0.0899
852.5721	0.0867
852.7364	-0.0603
852.9007	-0.1842
853.0649	0.0683
853.2291	-0.0353
853.3934	-0.0096
853.5575	-0.1042
853.7217	0.022
853.8859	0.005
854.05	-0.0076
854.2141	-0.0241
854.3782	0.0054
854.5423	-0.0396
854.7063	-0.0279
854.8703	-0.003
855.0343	-0.0099
855.1983	0.0192
855.3623	-0.0901
855.5262	0.0235
855.6901	-0.1161
855.854	-0.027
856.0179	0.0645
856.1818	0.0381
856.3456	-0.1429
856.5094	0.081
856.6732	-0.1394
856.837	0.0606
857.0008	-0.3106
857.1645	0.0135
857.3282	0.1895
857.4919	-0.2348
857.6556	0.0761
857.8192	-0.1167
857.9828	0.3096
858.1465	-0.1246
858.31	-0.0412
858.4736	-0.0407
858.6372	0.1411
858.8007	-0.3889
858.9642	-0.0624
859.1277	-0.218
859.2911	-0.1429
859.4546	0.0822
859.618	-0.5651
859.7814	0.0426
859.9448	-0.0772
860.1081	0.0633
860.2715	0.0993
860.4348	-0.139
860.5981	0.0348
860.7614	0.0241
860.9246	0.0389
861.0879	-0.0016
861.2511	0.2111
861.4143	-0.0797
861.5774	-0.1914
861.7406	-0.3249
861.9037	-0.0409
862.0668	-0.0866
862.2299	0.0751
862.393	-0.031
862.556	-0.0842
862.7191	-0.045
862.8821	-0.3171
863.0451	-0.2382
863.208	-0.0047
863.371	-0.5438
863.5339	0.0076
863.6968	0.0293
863.8597	-0.2013
864.0225	0.2012
864.1854	-0.1501
864.3482	-0.225
864.511	-0.0986
864.6737	-0.1659
864.8365	0.2032
864.9992	-0.1047
865.1619	-0.1057
865.3246	0.0606
865.4873	-0.1584
865.65	-0.3456
865.8126	-0.2906
865.9752	-0.2487
866.1378	0.1104
866.3004	-0
866.4629	0.0738
866.6254	-0
866.7879	-0.1449
866.9504	0.1662
867.1129	0.0791
867.2753	0.0996
867.4377	-0.4433
867.6001	0.2135
867.7625	-0.109
867.9249	-0.2021
868.0872	0.2838
868.2495	0.0606
868.4118	-0.181
868.5741	1.0933
868.7363	0.2825
868.8986	-0.0832
869.0608	-0.389
869.223	-0.2707
869.3851	0.1424
869.5473	0.1565
869.7094	-0.2232
869.8715	0.4352
870.0336	-0
870.1957	-0
870.3577	-0.1265
870.5197	-0.0588
870.6817	0.2378
870.8437	0.1599
871.0057	-0.1622
871.1676	-0.446
871.3295	-0.5786
871.4914	-0
871.6533	-0.0651
871.8151	-0.3073
871.977	-0.583
872.1388	0.3823
872.3006	0.0974
872.4623	0.4622
872.6241	0.0348
872.7858	-0.1725
872.9475	0.2306
873.1092	0.0587
873.2709	-0
873.4325	-0.1403
873.5941	-0.1416
873.7557	-0.8159
873.9173	-0.1424
874.0789	-0
874.2404	0.3402
874.4019	-0.0403
874.5634	-0.3902
874.7249	0.3433
874.8863	-0.2704
875.0478	-0.1342
875.2092	-0.1145
875.3706	-0.23
875.5319	-0
875.6933	-0
875.8546	-0.3095
876.0159	0.0041
876.1772	-0.3609
876.3385	-0.3418
876.4997	-0
876.6609	-0.4196
876.8221	-1.0286
876.9833	-0
877.1445	-0.1949
877.3056	-0.4248
877.4667	-0.1461
877.6278	0.2593
877.7889	0.4093
877.9499	0.2493
878.111	-0.1163
878.272	0.3578
878.433	-0.2288
878.5939	0.2978
878.7549	-0.04
878.9158	-0.0242
879.0767	0.4203
879.2376	-0.0094
879.3984	-0
879.5593	0.0436
879.7201	-0.218
879.8809	-0
880.0417	-0
880.2024	-0
880.3632	-0
880.5239	-0
880.6846	-0.6462
880.8452	-0.0754
881.0059	-0.644
881.1665	0.1527
881.3271	-0.5664
881.4877	-0
881.6483	-0.2287
881.8088	-0.3437
881.9693	-0.7054
882.1298	-0.7054
882.2903	-0.7054
