Data from MonoPyChalIsomerACN10uM400nmA_Absorbance_12-08-41-428.txt Node
Date: Fri Jul 05 12:08:41 BST 2024
User: LASERRRRR
Spectrometer: FLMT03099
Trigger mode: 0
Integration Time (sec): 1.000000E-1
Scans to average: 1
Electric dark correction enabled: true
Nonlinearity correction enabled: false
Boxcar width: 0
XAxis mode: Wavelengths
Number of Pixels in Spectrum: 3648
>>>>>Begin Spectral Data<<<<<
179.3399	-0.0906
179.5586	-0.0906
179.7771	-0.0906
179.9957	0.2358
180.2143	-0.0712
180.4329	-0
180.6514	0.5714
180.8699	0.338
181.0885	-0
181.307	-0.0736
181.5255	1.0117
181.744	-0
181.9625	-0.9862
182.181	-0
182.3994	-0.3998
182.6179	-0
182.8363	-0.2197
183.0547	0.9535
183.2732	0.2489
183.4916	0.0431
183.71	0.0654
183.9284	0.174
184.1467	-0.0215
184.3651	-0.1673
184.5835	0.0937
184.8018	-0.0194
185.0201	0.4066
185.2385	-0.0318
185.4568	0.118
185.6751	0.0085
185.8934	-0.0597
186.1117	0.0195
186.3299	0.0776
186.5482	0.1566
186.7664	0.0093
186.9847	0.0979
187.2029	0.1105
187.4211	-0.282
187.6393	0.0563
187.8575	0.1406
188.0757	-0.0021
188.2939	0.0335
188.512	0.0064
188.7302	0.0918
188.9483	0.1348
189.1665	0.0242
189.3846	-0.0409
189.6027	0.0993
189.8208	0.0794
190.0389	0.2429
190.257	0.1833
190.475	0.3463
190.6931	0.2559
190.9111	0.2669
191.1292	0.375
191.3472	0.3258
191.5652	0.1426
191.7832	0.2012
192.0012	0.3211
192.2192	0.4549
192.4371	0.2865
192.6551	0.33
192.873	0.5215
193.091	0.3505
193.3089	0.5139
193.5268	0.4761
193.7447	0.5376
193.9626	0.343
194.1805	0.5006
194.3984	0.3992
194.6162	0.6199
194.8341	0.6193
195.0519	0.5958
195.2697	0.8428
195.4875	0.7501
195.7054	0.6814
195.9231	0.5013
196.1409	0.5967
196.3587	0.5882
196.5765	0.531
196.7942	0.6847
197.012	0.7012
197.2297	0.8424
197.4474	0.5804
197.6651	0.5358
197.8828	0.703
198.1005	0.6513
198.3182	0.7318
198.5358	0.7984
198.7535	0.6873
198.9711	0.6454
199.1888	0.7026
199.4064	0.7947
199.624	0.583
199.8416	0.6962
200.0592	0.6609
200.2767	0.7237
200.4943	0.6978
200.7119	0.6541
200.9294	0.5969
201.1469	0.823
201.3645	0.6767
201.582	0.7124
201.7995	0.8919
202.017	0.8457
202.2344	0.5831
202.4519	0.8583
202.6694	0.7461
202.8868	0.7849
203.1042	0.6222
203.3217	0.6934
203.5391	0.8445
203.7565	0.8314
203.9739	0.8665
204.1913	0.8405
204.4086	0.8261
204.626	0.9379
204.8433	0.801
205.0607	0.8292
205.278	0.86
205.4953	0.8241
205.7126	0.6731
205.9299	0.857
206.1472	0.7822
206.3644	0.6943
206.5817	0.68
206.7989	0.7496
207.0162	0.8134
207.2334	0.7228
207.4506	0.7479
207.6678	0.7472
207.885	0.8308
208.1022	0.745
208.3194	0.706
208.5365	0.7277
208.7537	0.8639
208.9708	0.7118
209.1879	0.7589
209.405	0.6983
209.6222	0.8255
209.8392	0.7444
210.0563	0.8738
210.2734	0.7926
210.4905	0.7371
210.7075	0.6363
210.9245	0.6909
211.1416	0.7475
211.3586	0.7229
211.5756	0.7545
211.7926	0.8796
212.0096	0.6879
212.2265	0.7021
212.4435	0.7504
212.6604	0.7253
212.8774	0.7475
213.0943	0.7575
213.3112	0.7013
213.5281	0.6261
213.745	0.7285
213.9619	0.7231
214.1788	0.6977
214.3956	0.7137
214.6125	0.6055
214.8293	0.6868
215.0461	0.6767
215.2629	0.6808
215.4798	0.6246
215.6965	0.6788
215.9133	0.6891
216.1301	0.6357
216.3469	0.7091
216.5636	0.6761
216.7803	0.6396
216.9971	0.6228
217.2138	0.6484
217.4305	0.6019
217.6472	0.5596
217.8639	0.6387
218.0805	0.5873
218.2972	0.5764
218.5138	0.576
218.7305	0.5794
218.9471	0.5739
219.1637	0.6132
219.3803	0.5262
219.5969	0.585
219.8135	0.5947
220.0301	0.5842
220.2466	0.5714
220.4632	0.5491
220.6797	0.5446
220.8962	0.5946
221.1127	0.6068
221.3292	0.5301
221.5457	0.5913
221.7622	0.546
221.9787	0.5459
222.1951	0.5336
222.4116	0.554
222.628	0.5714
222.8444	0.5568
223.0608	0.5428
223.2772	0.5329
223.4936	0.5721
223.71	0.5777
223.9264	0.5624
224.1427	0.5588
224.3591	0.5593
224.5754	0.564
224.7917	0.5403
225.008	0.6298
225.2243	0.5439
225.4406	0.5601
225.6569	0.5588
225.8732	0.599
226.0894	0.5156
226.3057	0.565
226.5219	0.5163
226.7381	0.5765
226.9543	0.5483
227.1705	0.5354
227.3867	0.582
227.6029	0.5565
227.8191	0.537
228.0352	0.5639
228.2513	0.5778
228.4675	0.5804
228.6836	0.6055
228.8997	0.5774
229.1158	0.5869
229.3319	0.5954
229.548	0.5582
229.764	0.5936
229.9801	0.552
230.1961	0.5881
230.4121	0.5695
230.6282	0.5775
230.8442	0.5917
231.0602	0.5627
231.2761	0.5501
231.4921	0.5892
231.7081	0.5645
231.924	0.5789
232.14	0.5796
232.3559	0.5859
232.5718	0.5796
232.7877	0.5688
233.0036	0.5901
233.2195	0.5832
233.4353	0.5952
233.6512	0.565
233.867	0.5733
234.0829	0.5734
234.2987	0.5947
234.5145	0.5553
234.7303	0.5798
234.9461	0.569
235.1619	0.5544
235.3776	0.5721
235.5934	0.5433
235.8091	0.5489
236.0249	0.5409
236.2406	0.5545
236.4563	0.5587
236.672	0.5868
236.8877	0.563
237.1034	0.5446
237.319	0.5364
237.5347	0.5642
237.7503	0.5394
237.966	0.5363
238.1816	0.572
238.3972	0.5467
238.6128	0.5704
238.8284	0.5403
239.0439	0.5374
239.2595	0.5255
239.475	0.5427
239.6906	0.5517
239.9061	0.5264
240.1216	0.5603
240.3371	0.536
240.5526	0.5349
240.7681	0.5138
240.9836	0.5503
241.199	0.493
241.4145	0.5109
241.6299	0.4887
241.8453	0.4771
242.0607	0.4939
242.2761	0.4628
242.4915	0.4655
242.7069	0.4627
242.9223	0.4342
243.1376	0.4381
243.353	0.4452
243.5683	0.448
243.7836	0.4361
243.9989	0.4297
244.2142	0.405
244.4295	0.3817
244.6448	0.3957
244.86	0.3938
245.0753	0.368
245.2905	0.3585
245.5057	0.3777
245.721	0.3633
245.9362	0.3469
246.1514	0.344
246.3665	0.3207
246.5817	0.3331
246.7969	0.3181
247.012	0.3228
247.2271	0.3183
247.4423	0.2967
247.6574	0.3121
247.8725	0.2997
248.0876	0.3035
248.3026	0.2886
248.5177	0.2925
248.7328	0.2782
248.9478	0.2806
249.1628	0.2674
249.3779	0.2457
249.5929	0.2653
249.8079	0.2547
250.0228	0.2553
250.2378	0.2606
250.4528	0.2399
250.6677	0.2392
250.8827	0.2297
251.0976	0.2427
251.3125	0.2434
251.5274	0.2339
251.7423	0.2388
251.9572	0.2233
252.172	0.2004
252.3869	0.2315
252.6017	0.2155
252.8166	0.2142
253.0314	0.2135
253.2462	0.218
253.461	0.2201
253.6758	0.1955
253.8906	0.2045
254.1053	0.2068
254.3201	0.211
254.5348	0.2006
254.7496	0.2075
254.9643	0.1993
255.179	0.2023
255.3937	0.2006
255.6083	0.1948
255.823	0.1859
256.0377	0.1902
256.2523	0.1876
256.467	0.1958
256.6816	0.1946
256.8962	0.1872
257.1108	0.2004
257.3254	0.1911
257.54	0.1776
257.7545	0.2091
257.9691	0.2022
258.1836	0.1919
258.3981	0.1767
258.6127	0.194
258.8272	0.195
259.0417	0.1831
259.2561	0.1852
259.4706	0.1846
259.6851	0.1881
259.8995	0.1905
260.114	0.1795
260.3284	0.1861
260.5428	0.1933
260.7572	0.1894
260.9716	0.2003
261.186	0.1856
261.4003	0.1872
261.6147	0.1986
261.829	0.2024
262.0433	0.1822
262.2577	0.1731
262.472	0.175
262.6863	0.2004
262.9005	0.1878
263.1148	0.1861
263.3291	0.1801
263.5433	0.1768
263.7576	0.1985
263.9718	0.183
264.186	0.1839
264.4002	0.1974
264.6144	0.1797
264.8286	0.1932
265.0427	0.1892
265.2569	0.2001
265.471	0.1793
265.6851	0.1846
265.8993	0.184
266.1134	0.1769
266.3275	0.1834
266.5415	0.1851
266.7556	0.1897
266.9697	0.1764
267.1837	0.1929
267.3978	0.1964
267.6118	0.1979
267.8258	0.1907
268.0398	0.1894
268.2538	0.1971
268.4677	0.1834
268.6817	0.178
268.8957	0.1848
269.1096	0.1771
269.3235	0.1819
269.5374	0.177
269.7514	0.1721
269.9652	0.184
270.1791	0.171
270.393	0.171
270.6068	0.1667
270.8207	0.1791
271.0345	0.1593
271.2483	0.1732
271.4622	0.1791
271.676	0.1681
271.8897	0.1774
272.1035	0.1711
272.3173	0.171
272.531	0.1667
272.7448	0.1663
272.9585	0.1799
273.1722	0.1597
273.3859	0.1609
273.5996	0.179
273.8133	0.1768
274.0269	0.1673
274.2406	0.1668
274.4542	0.164
274.6679	0.1631
274.8815	0.165
275.0951	0.1853
275.3087	0.1726
275.5223	0.1697
275.7358	0.1611
275.9494	0.1625
276.1629	0.165
276.3765	0.1694
276.59	0.1664
276.8035	0.1577
277.017	0.1698
277.2305	0.1759
277.444	0.1597
277.6574	0.1808
277.8709	0.1481
278.0843	0.1768
278.2978	0.1796
278.5112	0.1791
278.7246	0.1748
278.938	0.1649
279.1513	0.1865
279.3647	0.1739
279.5781	0.1672
279.7914	0.1827
280.0047	0.1764
280.2181	0.1762
280.4314	0.1742
280.6447	0.185
280.8579	0.1699
281.0712	0.1811
281.2845	0.1774
281.4977	0.1784
281.711	0.1752
281.9242	0.1665
282.1374	0.1655
282.3506	0.1736
282.5638	0.1798
282.7769	0.1774
282.9901	0.1737
283.2033	0.1837
283.4164	0.1778
283.6295	0.1739
283.8426	0.1887
284.0557	0.1732
284.2688	0.1803
284.4819	0.1688
284.695	0.1749
284.908	0.1874
285.1211	0.1882
285.3341	0.1915
285.5471	0.1979
285.7601	0.1763
285.9731	0.1865
286.1861	0.1952
286.3991	0.1876
286.612	0.1865
286.825	0.1998
287.0379	0.1868
287.2508	0.1804
287.4637	0.197
287.6766	0.1833
287.8895	0.1941
288.1024	0.1809
288.3152	0.1847
288.5281	0.1713
288.7409	0.176
288.9538	0.1863
289.1666	0.1851
289.3794	0.1762
289.5922	0.1756
289.8049	0.1808
290.0177	0.1925
290.2304	0.1894
290.4432	0.183
290.6559	0.1956
290.8686	0.1818
291.0813	0.1802
291.294	0.1815
291.5067	0.1973
291.7194	0.1784
291.932	0.1841
292.1447	0.1983
292.3573	0.1911
292.5699	0.1992
292.7825	0.1864
292.9951	0.2058
293.2077	0.1923
293.4203	0.1898
293.6328	0.1875
293.8454	0.1752
294.0579	0.1778
294.2704	0.181
294.4829	0.1974
294.6954	0.199
294.9079	0.1848
295.1204	0.2015
295.3328	0.1818
295.5453	0.1781
295.7577	0.1745
295.9701	0.1849
296.1825	0.1836
296.3949	0.1812
296.6073	0.1803
296.8197	0.1905
297.0321	0.1901
297.2444	0.1625
297.4567	0.1798
297.6691	0.1866
297.8814	0.1856
298.0937	0.1896
298.306	0.1834
298.5182	0.1881
298.7305	0.1905
298.9428	0.1795
299.155	0.1815
299.3672	0.1674
299.5794	0.176
299.7916	0.1769
300.0038	0.1731
300.216	0.1868
300.4282	0.1793
300.6403	0.1942
300.8525	0.1908
301.0646	0.1929
301.2767	0.1885
301.4888	0.1835
301.7009	0.1827
301.913	0.1902
302.125	0.1778
302.3371	0.1841
302.5491	0.1786
302.7612	0.1746
302.9732	0.1733
303.1852	0.1783
303.3972	0.1802
303.6092	0.1732
303.8211	0.1806
304.0331	0.163
304.245	0.1686
304.457	0.1769
304.6689	0.1692
304.8808	0.1599
305.0927	0.1677
305.3046	0.1632
305.5164	0.1679
305.7283	0.1705
305.9401	0.156
306.152	0.1616
306.3638	0.1647
306.5756	0.1603
306.7874	0.152
306.9992	0.1553
307.2109	0.156
307.4227	0.1627
307.6344	0.1387
307.8462	0.1438
308.0579	0.1549
308.2696	0.155
308.4813	0.1343
308.693	0.1436
308.9046	0.1373
309.1163	0.1374
309.328	0.1434
309.5396	0.14
309.7512	0.1275
309.9628	0.127
310.1744	0.1422
310.386	0.1351
310.5976	0.132
310.8091	0.1365
311.0207	0.129
311.2322	0.1109
311.4437	0.1202
311.6552	0.1256
311.8667	0.1181
312.0782	0.113
312.2897	0.1113
312.5012	0.1153
312.7126	0.1177
312.924	0.1165
313.1355	0.1237
313.3469	0.107
313.5583	0.1093
313.7696	0.1178
313.981	0.1224
314.1924	0.1111
314.4037	0.1093
314.6151	0.1139
314.8264	0.107
315.0377	0.1156
315.249	0.1
315.4603	0.1039
315.6716	0.1113
315.8828	0.1037
316.0941	0.0916
316.3053	0.1017
316.5165	0.111
316.7277	0.0918
316.9389	0.1092
317.1501	0.0936
317.3613	0.0824
317.5724	0.0981
317.7836	0.0952
317.9947	0.0985
318.2058	0.1038
318.417	0.1106
318.6281	0.1015
318.8391	0.0874
319.0502	0.1067
319.2613	0.1042
319.4723	0.1008
319.6834	0.1052
319.8944	0.1054
320.1054	0.0984
320.3164	0.107
320.5274	0.0871
320.7383	0.1029
320.9493	0.1015
321.1602	0.1087
321.3712	0.1025
321.5821	0.1071
321.793	0.0991
322.0039	0.0943
322.2148	0.0945
322.4257	0.0947
322.6365	0.1072
322.8474	0.0963
323.0582	0.1083
323.269	0.1036
323.4798	0.1132
323.6906	0.0883
323.9014	0.1032
324.1122	0.0955
324.3229	0.1027
324.5337	0.1146
324.7444	0.113
324.9551	0.107
325.1658	0.0949
325.3765	0.109
325.5872	0.0992
325.7979	0.1022
326.0085	0.0966
326.2192	0.0919
326.4298	0.1053
326.6404	0.1222
326.851	0.1009
327.0616	0.11
327.2722	0.1067
327.4828	0.1223
327.6933	0.1032
327.9039	0.0902
328.1144	0.0981
328.3249	0.0899
328.5354	0.0955
328.7459	0.1042
328.9564	0.1116
329.1669	0.1185
329.3773	0.1024
329.5878	0.1001
329.7982	0.0952
330.0086	0.1019
330.219	0.1011
330.4294	0.1116
330.6398	0.1043
330.8502	0.1137
331.0605	0.1092
331.2708	0.1015
331.4812	0.1039
331.6915	0.1043
331.9018	0.1032
332.1121	0.1009
332.3224	0.0948
332.5326	0.1093
332.7429	0.0994
332.9531	0.1025
333.1633	0.1096
333.3735	0.1039
333.5837	0.0996
333.7939	0.112
334.0041	0.1206
334.2143	0.0999
334.4244	0.1165
334.6346	0.0896
334.8447	0.115
335.0548	0.1131
335.2649	0.1032
335.475	0.1091
335.685	0.0924
335.8951	0.1173
336.1051	0.1018
336.3152	0.1101
336.5252	0.1046
336.7352	0.1171
336.9452	0.1172
337.1552	0.1237
337.3652	0.106
337.5751	0.1236
337.7851	0.1098
337.995	0.1137
338.2049	0.1003
338.4148	0.1172
338.6247	0.1062
338.8346	0.1168
339.0445	0.109
339.2543	0.1178
339.4642	0.1182
339.674	0.1216
339.8838	0.1106
340.0936	0.1296
340.3034	0.113
340.5132	0.1211
340.7229	0.1306
340.9327	0.1127
341.1424	0.1129
341.3522	0.1016
341.5619	0.1039
341.7716	0.1193
341.9813	0.1178
342.1909	0.1208
342.4006	0.1221
342.6102	0.1142
342.8199	0.1179
343.0295	0.1225
343.2391	0.108
343.4487	0.1159
343.6583	0.1122
343.8679	0.1304
344.0774	0.1175
344.287	0.1309
344.4965	0.1325
344.706	0.1306
344.9155	0.1287
345.125	0.1175
345.3345	0.1303
345.544	0.1284
345.7534	0.1254
345.9629	0.1171
346.1723	0.1333
346.3817	0.1221
346.5911	0.1289
346.8005	0.1256
347.0099	0.1358
347.2193	0.1352
347.4286	0.1237
347.638	0.1427
347.8473	0.1277
348.0566	0.1273
348.2659	0.1341
348.4752	0.1411
348.6845	0.125
348.8937	0.1219
349.103	0.1316
349.3122	0.1277
349.5214	0.1343
349.7306	0.1289
349.9398	0.1323
350.149	0.1401
350.3582	0.1424
350.5674	0.1488
350.7765	0.1276
350.9856	0.1361
351.1948	0.1407
351.4039	0.1404
351.613	0.1384
351.822	0.135
352.0311	0.142
352.2402	0.1475
352.4492	0.1557
352.6582	0.1369
352.8672	0.135
353.0762	0.146
353.2852	0.1515
353.4942	0.1417
353.7032	0.1589
353.9121	0.1358
354.1211	0.1488
354.33	0.1576
354.5389	0.1615
354.7478	0.1587
354.9567	0.1516
355.1655	0.1497
355.3744	0.1415
355.5833	0.1838
355.7921	0.1525
356.0009	0.1691
356.2097	0.1428
356.4185	0.1398
356.6273	0.1629
356.8361	0.1608
357.0448	0.1442
357.2536	0.1552
357.4623	0.1613
357.671	0.1652
357.8797	0.1695
358.0884	0.1713
358.2971	0.1674
358.5057	0.1617
358.7144	0.1579
358.923	0.1733
359.1316	0.1688
359.3402	0.1768
359.5488	0.1704
359.7574	0.1734
359.966	0.1604
360.1746	0.1736
360.3831	0.163
360.5916	0.1781
360.8002	0.1802
361.0087	0.191
361.2172	0.1697
361.4256	0.1888
361.6341	0.1612
361.8426	0.195
362.051	0.1769
362.2594	0.1777
362.4678	0.1659
362.6762	0.1748
362.8846	0.1763
363.093	0.1788
363.3014	0.1808
363.5097	0.1644
363.718	0.201
363.9264	0.2126
364.1347	0.1887
364.343	0.1883
364.5513	0.1801
364.7595	0.1882
364.9678	0.1853
365.176	0.2043
365.3842	0.196
365.5925	0.1833
365.8007	0.1973
366.0089	0.1953
366.217	0.1935
366.4252	0.2009
366.6333	0.2101
366.8415	0.205
367.0496	0.203
367.2577	0.2046
367.4658	0.202
367.6739	0.2017
367.882	0.2218
368.09	0.2205
368.2981	0.2154
368.5061	0.2222
368.7141	0.199
368.9221	0.2057
369.1301	0.1969
369.3381	0.2305
369.5461	0.2213
369.754	0.1817
369.962	0.2031
370.1699	0.2134
370.3778	0.2249
370.5857	0.2282
370.7936	0.2222
371.0015	0.2225
371.2093	0.2134
371.4172	0.2245
371.625	0.2216
371.8328	0.2269
372.0406	0.2151
372.2484	0.2161
372.4562	0.2391
372.664	0.228
372.8717	0.2104
373.0795	0.2329
373.2872	0.2413
373.4949	0.2194
373.7026	0.2438
373.9103	0.2347
374.118	0.2374
374.3256	0.2244
374.5333	0.2309
374.7409	0.2112
374.9485	0.2214
375.1561	0.2272
375.3637	0.2275
375.5713	0.2559
375.7789	0.2401
375.9864	0.232
376.194	0.2425
376.4015	0.2341
376.609	0.2371
376.8165	0.2417
377.024	0.2343
377.2315	0.2325
377.4389	0.2283
377.6464	0.2568
377.8538	0.239
378.0612	0.2404
378.2686	0.2397
378.476	0.2453
378.6834	0.2387
378.8908	0.2417
379.0981	0.2471
379.3055	0.2601
379.5128	0.2543
379.7201	0.2499
379.9274	0.2588
380.1347	0.2536
380.342	0.249
380.5492	0.2504
380.7565	0.2578
380.9637	0.2743
381.1709	0.2495
381.3781	0.2582
381.5853	0.2612
381.7925	0.2545
381.9997	0.2327
382.2068	0.2445
382.4139	0.2587
382.6211	0.2695
382.8282	0.2531
383.0353	0.241
383.2424	0.2766
383.4494	0.2748
383.6565	0.2753
383.8635	0.2377
384.0706	0.2642
384.2776	0.2717
384.4846	0.2615
384.6916	0.2682
384.8986	0.2473
385.1055	0.2699
385.3125	0.2625
385.5194	0.2571
385.7263	0.2655
385.9333	0.2661
386.1402	0.2585
386.347	0.2705
386.5539	0.2557
386.7608	0.2411
386.9676	0.2353
387.1744	0.2799
387.3813	0.2576
387.5881	0.2735
387.7948	0.2648
388.0016	0.2499
388.2084	0.2627
388.4151	0.2595
388.6219	0.2614
388.8286	0.2298
389.0353	0.2497
389.242	0.2734
389.4487	0.2611
389.6553	0.2599
389.862	0.2593
390.0686	0.2456
390.2753	0.2569
390.4819	0.2517
390.6885	0.2654
390.8951	0.2496
391.1016	0.2537
391.3082	0.2641
391.5147	0.2445
391.7213	0.2238
391.9278	0.2424
392.1343	0.2292
392.3408	0.2435
392.5473	0.2305
392.7537	0.2352
392.9602	0.2394
393.1666	0.2342
393.373	0.2178
393.5794	0.2352
393.7858	0.225
393.9922	0.2469
394.1986	0.2448
394.4049	0.2259
394.6113	0.2208
394.8176	0.2333
395.0239	0.2501
395.2302	0.2237
395.4365	0.2173
395.6428	0.2372
395.8491	0.2228
396.0553	0.2471
396.2615	0.2302
396.4678	0.2316
396.674	0.2062
396.8802	0.2325
397.0863	0.2269
397.2925	0.228
397.4987	0.2476
397.7048	0.2148
397.9109	0.214
398.117	0.2231
398.3231	0.2167
398.5292	0.2298
398.7353	0.2028
398.9413	0.2168
399.1474	0.2284
399.3534	0.2111
399.5594	0.2257
399.7654	0.2025
399.9714	0.222
400.1774	0.217
400.3833	0.2425
400.5893	0.2103
400.7952	0.2318
401.0011	0.2313
401.207	0.2334
401.4129	0.211
401.6188	0.214
401.8247	0.2104
402.0305	0.2266
402.2364	0.2284
402.4422	0.2165
402.648	0.2224
402.8538	0.2202
403.0596	0.2215
403.2654	0.2198
403.4711	0.2203
403.6768	0.208
403.8826	0.2353
404.0883	0.2229
404.294	0.2455
404.4997	0.2084
404.7054	0.2167
404.911	0.1987
405.1167	0.2072
405.3223	0.221
405.5279	0.2276
405.7335	0.2267
405.9391	0.2249
406.1447	0.2211
406.3502	0.2149
406.5558	0.2351
406.7613	0.2402
406.9668	0.2096
407.1724	0.2354
407.3778	0.2323
407.5833	0.2257
407.7888	0.2213
407.9942	0.2057
408.1997	0.2213
408.4051	0.209
408.6105	0.2125
408.8159	0.202
409.0213	0.2136
409.2267	0.2034
409.432	0.2341
409.6374	0.2075
409.8427	0.2141
410.048	0.2238
410.2533	0.2205
410.4586	0.1981
410.6639	0.2263
410.8691	0.2157
411.0744	0.2337
411.2796	0.2071
411.4848	0.2388
411.69	0.1862
411.8952	0.2236
412.1004	0.2138
412.3056	0.1986
412.5107	0.1899
412.7158	0.2073
412.921	0.2089
413.1261	0.213
413.3312	0.1997
413.5362	0.2221
413.7413	0.2088
413.9464	0.2156
414.1514	0.2118
414.3564	0.2178
414.5614	0.1972
414.7664	0.1905
414.9714	0.2272
415.1764	0.1976
415.3813	0.2168
415.5863	0.2131
415.7912	0.1968
415.9961	0.2249
416.201	0.2176
416.4059	0.2063
416.6108	0.2148
416.8156	0.2076
417.0205	0.2063
417.2253	0.2203
417.4301	0.2043
417.6349	0.218
417.8397	0.2043
418.0445	0.1889
418.2492	0.1956
418.454	0.2022
418.6587	0.2165
418.8634	0.2068
419.0681	0.199
419.2728	0.2011
419.4775	0.2059
419.6822	0.2197
419.8868	0.2005
420.0915	0.1794
420.2961	0.1933
420.5007	0.2029
420.7053	0.2111
420.9099	0.1954
421.1144	0.2064
421.319	0.197
421.5235	0.2296
421.728	0.2038
421.9325	0.2061
422.137	0.202
422.3415	0.2098
422.546	0.1909
422.7504	0.2004
422.9549	0.1953
423.1593	0.1872
423.3637	0.2077
423.5681	0.1765
423.7725	0.18
423.9769	0.2051
424.1812	0.1923
424.3856	0.1906
424.5899	0.1991
424.7942	0.18
424.9985	0.1909
425.2028	0.1609
425.4071	0.1818
425.6113	0.1571
425.8156	0.1942
426.0198	0.1772
426.224	0.1683
426.4282	0.1762
426.6324	0.1773
426.8366	0.1777
427.0407	0.1837
427.2449	0.1509
427.449	0.1686
427.6531	0.1621
427.8572	0.1449
428.0613	0.163
428.2654	0.1438
428.4694	0.1698
428.6735	0.1617
428.8775	0.1567
429.0815	0.1682
429.2855	0.1637
429.4895	0.1655
429.6935	0.1579
429.8975	0.1463
430.1014	0.1437
430.3053	0.1442
430.5093	0.1526
430.7132	0.1469
430.9171	0.1467
431.1209	0.1475
431.3248	0.1544
431.5286	0.1479
431.7325	0.1688
431.9363	0.145
432.1401	0.1425
432.3439	0.1491
432.5477	0.1412
432.7514	0.1272
432.9552	0.137
433.1589	0.1368
433.3627	0.1218
433.5664	0.1341
433.7701	0.1198
433.9737	0.1243
434.1774	0.1412
434.3811	0.1014
434.5847	0.1256
434.7883	0.114
434.9919	0.1118
435.1955	0.1069
435.3991	0.1135
435.6027	0.1097
435.8062	0.1081
436.0098	0.1175
436.2133	0.1093
436.4168	0.115
436.6203	0.1075
436.8238	0.0882
437.0272	0.1097
437.2307	0.1093
437.4341	0.093
437.6375	0.0893
437.841	0.0802
438.0443	0.0858
438.2477	0.1052
438.4511	0.0763
438.6545	0.1066
438.8578	0.0926
439.0611	0.0813
439.2644	0.0862
439.4677	0.0817
439.671	0.0593
439.8743	0.074
440.0775	0.0888
440.2808	0.0689
440.484	0.0849
440.6872	0.0928
440.8904	0.0714
441.0936	0.0625
441.2967	0.0694
441.4999	0.0544
441.703	0.0718
441.9062	0.0618
442.1093	0.0714
442.3124	0.0722
442.5155	0.0514
442.7185	0.0731
442.9216	0.049
443.1246	0.0674
443.3276	0.0764
443.5307	0.0657
443.7337	0.0624
443.9366	0.0483
444.1396	0.0652
444.3426	0.0488
444.5455	0.0668
444.7484	0.0615
444.9513	0.0439
445.1542	0.0397
445.3571	0.0569
445.56	0.0593
445.7628	0.0523
445.9657	0.0441
446.1685	0.0453
446.3713	0.0468
446.5741	0.0569
446.7769	0.0532
446.9797	0.0389
447.1824	0.0356
447.3852	0.0444
447.5879	0.0451
447.7906	0.0465
447.9933	0.0417
448.196	0.0431
448.3986	0.0576
448.6013	0.0264
448.8039	0.0419
449.0066	0.0393
449.2092	0.05
449.4118	0.0395
449.6143	0.0334
449.8169	0.0349
450.0195	0.0034
450.222	0.018
450.4245	0.028
450.627	0.02
450.8295	0.0268
451.032	0.0314
451.2345	0.0264
451.4369	0.0311
451.6394	0.0216
451.8418	0.0123
452.0442	-0.0038
452.2466	0.0141
452.449	0.0153
452.6513	0.0288
452.8537	0.0267
453.056	0.0104
453.2583	0.0327
453.4607	0.0166
453.663	0.0218
453.8652	0.0218
454.0675	0.0152
454.2697	0.027
454.472	0.0127
454.6742	0.0134
454.8764	0.0066
455.0786	0.0157
455.2808	0.0057
455.4829	0.0283
455.6851	0.034
455.8872	0.0369
456.0893	0.01
456.2915	0.0146
456.4935	0.0128
456.6956	0.0082
456.8977	0.0034
457.0997	0.0374
457.3018	0.0158
457.5038	0.0115
457.7058	0.0294
457.9078	0.0032
458.1098	-0.0051
458.3117	0.0147
458.5137	-0.0009
458.7156	0.0203
458.9175	0.0002
459.1194	-0.001
459.3213	0.0089
459.5232	-0.0042
459.725	-0.0016
459.9269	0.0167
460.1287	0.0229
460.3305	0.0051
460.5323	0.0075
460.7341	0.0064
460.9359	0.0036
461.1376	0.0042
461.3394	0.0052
461.5411	-0.0042
461.7428	0.0155
461.9445	0.0154
462.1462	0.0014
462.3479	-0.004
462.5495	0.012
462.7512	0.0061
462.9528	0.0027
463.1544	0.0088
463.356	0.0107
463.5576	-0.0004
463.7592	-0.0083
463.9607	0.016
464.1623	0.0009
464.3638	0.0206
464.5653	-0.0213
464.7668	0.0044
464.9683	0.0043
465.1697	-0.0001
465.3712	0.0149
465.5726	0.0193
465.7741	0.0128
465.9755	-0.0082
466.1769	0.0017
466.3782	0.0104
466.5796	-0.012
466.7809	0.009
466.9823	-0.0065
467.1836	0.02
467.3849	0.0163
467.5862	0.0009
467.7875	0.0156
467.9887	-0.006
468.19	0.0002
468.3912	0.0044
468.5924	0.005
468.7936	0.0096
468.9948	-0.028
469.196	-0.0043
469.3972	-0.0192
469.5983	-0.0013
469.7994	0.0117
470.0006	-0.0151
470.2017	0.0081
470.4027	-0.013
470.6038	-0.0081
470.8049	0.0108
471.0059	-0.0038
471.2069	-0.0082
471.408	-0.0041
471.6089	0.0011
471.8099	0.0193
472.0109	-0.0043
472.2119	0.003
472.4128	-0.0158
472.6137	0.0073
472.8146	-0.0061
473.0155	-0.0134
473.2164	0.0055
473.4173	-0.0036
473.6181	-0.0104
473.819	-0.0032
474.0198	-0.014
474.2206	-0.0126
474.4214	0.0043
474.6222	0.0026
474.8229	-0.0069
475.0237	-0.0207
475.2244	-0.0089
475.4251	-0.0107
475.6258	0.0001
475.8265	-0.0126
476.0272	-0.0118
476.2278	-0.0076
476.4285	-0.0093
476.6291	0.0027
476.8297	0.0006
477.0303	0.0033
477.2309	-0.0091
477.4315	-0.0029
477.632	0.0009
477.8326	0.0023
478.0331	-0.0229
478.2336	-0.0105
478.4341	-0.0143
478.6346	-0.006
478.8351	-0.0048
479.0355	-0.0204
479.236	-0.0115
479.4364	-0.013
479.6368	-0.0014
479.8372	0.003
480.0376	-0.0175
480.2379	-0.0115
480.4383	-0.0068
480.6386	0.0075
480.8389	-0.0022
481.0392	0.0014
481.2395	-0.0078
481.4398	-0.0103
481.6401	-0.0082
481.8403	-0.0049
482.0405	-0.0067
482.2408	-0.0204
482.441	-0.0161
482.6411	-0.0209
482.8413	-0.009
483.0415	0.0057
483.2416	-0.0141
483.4417	0.0041
483.6419	-0.0145
483.8419	0.0026
484.042	0.0083
484.2421	-0.0101
484.4422	-0.0108
484.6422	-0.0025
484.8422	0.0018
485.0422	0.0024
485.2422	0
485.4422	-0.0058
485.6422	-0.0082
485.8421	0.0011
486.042	-0.0007
486.242	-0.0105
486.4419	-0.0076
486.6417	0.0045
486.8416	-0.0154
487.0415	-0.0051
487.2413	-0.0083
487.4411	0.0029
487.641	-0.0026
487.8408	-0.0017
488.0405	-0.0016
488.2403	-0.0063
488.4401	0
488.6398	-0.0231
488.8395	-0.007
489.0392	0.001
489.2389	-0.0213
489.4386	-0.0155
489.6383	0.0056
489.8379	-0.0092
490.0376	0.0027
490.2372	-0.0075
490.4368	-0.0064
490.6364	0.0006
490.836	-0.0096
491.0355	-0.0084
491.2351	-0.0074
491.4346	-0.0092
491.6341	-0.002
491.8336	-0.0098
492.0331	-0.0134
492.2326	-0.0134
492.432	-0.0155
492.6315	-0.0017
492.8309	-0.0082
493.0303	-0.0083
493.2297	-0.0029
493.4291	0.0026
493.6284	-0.019
493.8278	-0.0051
494.0271	-0.0027
494.2264	-0.0149
494.4257	-0.0098
494.625	-0.0069
494.8243	-0.0109
495.0236	-0.0035
495.2228	-0.0136
495.422	-0.0057
495.6213	-0.0104
495.8205	-0.0046
496.0196	-0.0029
496.2188	0.0036
496.418	-0.0013
496.6171	-0.017
496.8162	-0.007
497.0153	-0.0123
497.2144	-0.008
497.4135	-0.0091
497.6126	-0.0251
497.8116	-0.0013
498.0107	-0.0155
498.2097	-0.017
498.4087	-0.0242
498.6077	-0.0121
498.8067	0
499.0056	-0.0164
499.2046	0.0031
499.4035	-0.012
499.6024	-0.016
499.8013	-0.0066
500.0002	-0.0098
500.199	-0.0161
500.3979	-0.0046
500.5967	-0.0215
500.7956	-0.0106
500.9944	-0.0058
501.1932	0.0061
501.3919	-0.0094
501.5907	-0.0145
501.7895	-0.0224
501.9882	-0.0113
502.1869	-0.0131
502.3856	-0.0279
502.5843	-0.0032
502.783	0.0017
502.9816	-0.0047
503.1803	-0.0072
503.3789	-0.0134
503.5775	-0.0097
503.7761	-0.0147
503.9747	-0.0066
504.1732	-0.0117
504.3718	0.0009
504.5703	-0.0054
504.7689	-0.0062
504.9674	-0.0144
505.1658	-0.0088
505.3643	-0.0209
505.5628	0.0011
505.7612	-0.0016
505.9597	-0.0067
506.1581	0.0046
506.3565	-0.0064
506.5549	-0.0074
506.7532	-0.005
506.9516	0.0004
507.1499	-0.0088
507.3482	0.0034
507.5465	0.007
507.7448	-0.0011
507.9431	-0.0061
508.1414	-0.0139
508.3396	-0.0065
508.5379	-0.0044
508.7361	-0.0149
508.9343	-0.0143
509.1325	0.004
509.3306	-0.0102
509.5288	-0.0074
509.7269	0.002
509.9251	-0.0028
510.1232	-0.0026
510.3213	0.0092
510.5193	-0.0024
510.7174	-0.0136
510.9154	0.0032
511.1135	-0.0067
511.3115	-0.0096
511.5095	-0.0096
511.7075	0.0016
511.9055	-0.0093
512.1034	-0.0036
512.3014	-0.003
512.4993	0.0008
512.6972	0.0009
512.8951	-0.0022
513.093	-0.016
513.2908	-0.0133
513.4887	-0.0054
513.6865	-0.0095
513.8844	0.0016
514.0822	-0.0002
514.2799	-0.0207
514.4777	-0.0001
514.6755	0.0032
514.8732	-0.0049
515.0709	-0.0039
515.2687	-0.0048
515.4664	-0.002
515.664	-0.0102
515.8617	0.0054
516.0594	-0.008
516.257	0.0009
516.4546	-0.0081
516.6522	0.0005
516.8498	-0.0118
517.0474	0.0015
517.2449	-0.0072
517.4425	-0.0056
517.64	-0.0146
517.8375	-0.0048
518.035	-0.0062
518.2325	-0.0139
518.43	-0.0007
518.6274	0.0026
518.8249	0.0142
519.0223	-0.0017
519.2197	0.003
519.4171	-0.0034
519.6145	0.0049
519.8118	0.0015
520.0092	0.0024
520.2065	-0.0165
520.4038	-0.0114
520.6011	-0.0037
520.7984	0.0042
520.9956	0.0018
521.1929	-0.0132
521.3901	-0.0086
521.5874	-0.0013
521.7846	-0.013
521.9818	-0.0055
522.1789	-0.0017
522.3761	-0.0054
522.5732	-0.0145
522.7704	-0.0009
522.9675	-0.0066
523.1646	-0.0093
523.3617	0.0005
523.5587	0.0069
523.7558	-0.0086
523.9528	-0.0044
524.1498	-0.0087
524.3468	-0.0084
524.5438	-0.0032
524.7408	-0.0027
524.9378	0.0061
525.1347	-0.0035
525.3316	-0.004
525.5285	-0.0081
525.7254	-0.0009
525.9223	-0.001
526.1192	-0.0119
526.316	-0.0027
526.5129	0.0057
526.7097	-0.0081
526.9065	0.0078
527.1033	0.0014
527.3	-0.0028
527.4968	-0.013
527.6935	0.0046
527.8903	0.004
528.087	0.0004
528.2837	0.0061
528.4804	0.0107
528.677	0.0062
528.8737	0.0019
529.0703	0.0072
529.2669	-0.0062
529.4635	0.0004
529.6601	0.0067
529.8567	0.007
530.0532	0.0065
530.2498	-0.0024
530.4463	-0.0086
530.6428	0.0017
530.8393	0.002
531.0358	0.0027
531.2322	0.0048
531.4287	0.0002
531.6251	0.0003
531.8215	-0.0042
532.0179	-0.012
532.2143	0.0028
532.4107	-0.0084
532.607	0.0016
532.8034	-0.0035
532.9997	0.0024
533.196	-0.0056
533.3923	-0.0047
533.5886	0.0009
533.7848	0.0021
533.9811	0.0005
534.1773	-0.0092
534.3735	-0.0069
534.5697	-0.0001
534.7659	-0.0014
534.9621	0.0027
535.1582	0.001
535.3544	-0.0042
535.5505	-0.0102
535.7466	-0.0044
535.9427	0.0013
536.1387	-0.0009
536.3348	-0.0136
536.5308	-0.0079
536.7269	0.008
536.9229	-0.0021
537.1189	-0.0058
537.3148	-0.01
537.5108	0.0061
537.7068	0.0022
537.9027	-0.0054
538.0986	-0.0037
538.2945	0.0104
538.4904	0.002
538.6863	0.0063
538.8821	-0.0041
539.078	-0.0024
539.2738	0.0021
539.4696	-0.004
539.6654	-0.0027
539.8611	0.0104
540.0569	0.001
540.2526	-0.0017
540.4484	0.0014
540.6441	0.0049
540.8398	-0.0048
541.0355	-0.0008
541.2311	0.0021
541.4268	0.0105
541.6224	0.0077
541.818	0.001
542.0136	-0.0081
542.2092	0.0011
542.4048	0.0154
542.6003	0.0026
542.7959	-0.0042
542.9914	-0.0013
543.1869	0.0032
543.3824	0.0115
543.5779	0.0125
543.7734	0.0097
543.9688	-0.0071
544.1642	0.0024
544.3596	-0.0019
544.555	0.0042
544.7504	0.008
544.9458	-0.0044
545.1411	0.0093
545.3365	0.0067
545.5318	0.0026
545.7271	-0.004
545.9224	0.0081
546.1177	-0.0102
546.3129	-0
546.5081	0.0036
546.7034	-0.0024
546.8986	0.0022
547.0938	-0.0016
547.289	-0.003
547.4841	0.0022
547.6793	0.0034
547.8744	0.006
548.0695	0.0005
548.2646	-0.0004
548.4597	-0.0042
548.6548	0.0063
548.8498	0.0047
549.0448	0.0029
549.2399	-0.0024
549.4349	0.0078
549.6298	0.0123
549.8248	0.0088
550.0198	0.0061
550.2147	-0.0032
550.4096	-0.0018
550.6045	-0.018
550.7994	0.0003
550.9943	0.0028
551.1892	-0.0041
551.384	-0.0045
551.5788	0.0003
551.7737	-0.0115
551.9685	0.0069
552.1632	-0.0034
552.358	-0.0029
552.5528	-0.0094
552.7475	-0.0046
552.9422	0.0084
553.1369	-0.01
553.3316	-0.0021
553.5263	0.0119
553.7209	-0.006
553.9156	0.0085
554.1102	-0.0093
554.3048	-0.004
554.4994	0.0053
554.694	-0.0012
554.8885	0.0007
555.0831	0.0092
555.2776	0.0052
555.4721	0.0088
555.6666	0.0021
555.8611	0.0003
556.0555	0.0096
556.25	0.0056
556.4444	0.0081
556.6388	0.0106
556.8332	-0.0045
557.0276	0.0127
557.222	0.0125
557.4163	-0.0003
557.6107	0.0169
557.805	0.0047
557.9993	-0.0083
558.1936	0.0087
558.3879	0.0013
558.5821	0.0069
558.7764	-0
558.9706	0.0005
559.1648	0.0024
559.359	0.004
559.5532	0.0018
559.7473	0.0078
559.9415	0.005
560.1356	0.0058
560.3297	0.005
560.5238	0.0022
560.7179	0.0071
560.9119	0.0047
561.106	0.0065
561.3	0.0055
561.494	0.0138
561.688	0.0017
561.882	0.0067
562.076	-0.0001
562.2699	0.0078
562.4639	0.0024
562.6578	0.0006
562.8517	-0.0003
563.0456	0.0044
563.2395	0.0044
563.4333	-0.0006
563.6272	0.0079
563.821	-0.0103
564.0148	0.0095
564.2086	-0.0083
564.4024	-0.0046
564.5961	0.0073
564.7899	-0.0052
564.9836	0.0107
565.1773	0.0132
565.371	0.0072
565.5647	-0.0035
565.7584	-0.0011
565.952	0.0095
566.1456	0.0081
566.3393	0.0056
566.5329	-0.0022
566.7264	0.0082
566.92	0.0008
567.1136	0.0079
567.3071	0.001
567.5006	0.0022
567.6941	0.0029
567.8876	0.0058
568.0811	0.0049
568.2745	0.0021
568.468	0.0062
568.6614	0.0012
568.8548	0.0065
569.0482	0.0054
569.2416	0.0067
569.4349	-0.0011
569.6283	0.0039
569.8216	0.0031
570.0149	0.0033
570.2082	0.013
570.4015	0.0003
570.5947	0.0045
570.788	0.0117
570.9812	0.0048
571.1744	-0.0019
571.3676	0.0081
571.5608	0.0015
571.754	0.0011
571.9471	-0.0045
572.1402	0.0054
572.3333	0.0047
572.5264	0.0055
572.7195	0.0038
572.9126	0.0073
573.1057	0.0055
573.2987	0.0042
573.4917	-0.0031
573.6847	0.0014
573.8777	-0.0066
574.0707	0.0003
574.2636	0.0092
574.4566	0.0012
574.6495	0.0052
574.8424	0.0055
575.0353	0.0043
575.2281	0.0052
575.421	0.0042
575.6138	-0.0012
575.8067	0.0092
575.9995	0.0087
576.1923	0.0095
576.385	0.0074
576.5778	-0.0034
576.7706	0.0075
576.9633	0.0012
577.156	0.0064
577.3487	0.0089
577.5414	0.0035
577.734	-0.0114
577.9267	0.0017
578.1193	0.003
578.3119	0.0029
578.5045	0.0065
578.6971	0.0029
578.8897	0.0025
579.0822	-0.0012
579.2747	-0.0021
579.4673	0.0017
579.6598	0.0075
579.8522	0.0116
580.0447	-0.0059
580.2372	0.0113
580.4296	0.0112
580.622	0.0086
580.8144	0.0098
581.0068	0.0055
581.1992	0.0029
581.3915	-0.0004
581.5839	0.0012
581.7762	0.0032
581.9685	0.0009
582.1608	-0.0002
582.353	-0.0049
582.5453	-0.0013
582.7375	-0.0057
582.9298	0.0021
583.122	0.0045
583.3142	-0.0006
583.5063	0.0015
583.6985	-0.0027
583.8906	0.0054
584.0827	0.0018
584.2749	0.0046
584.4669	0.0023
584.659	-0.0004
584.8511	-0.0078
585.0431	0.0024
585.2352	-0.0014
585.4272	0.0001
585.6192	-0.0035
585.8111	-0.0033
586.0031	-0.0029
586.195	0.0062
586.387	-0.0012
586.5789	-0.0001
586.7708	0.0003
586.9627	-0.0002
587.1545	0.0045
587.3464	0.0077
587.5382	-0.0035
587.73	0.012
587.9218	0.0057
588.1136	0.0037
588.3053	-0.0003
588.4971	-0.0005
588.6888	-0.0009
588.8805	-0.0018
589.0722	0.0073
589.2639	0.0077
589.4556	-0.0057
589.6472	0.0024
589.8389	-0.0043
590.0305	0.0006
590.2221	0.0094
590.4137	0.0037
590.6052	0.0001
590.7968	0.0098
590.9883	0.0017
591.1798	-0.0101
591.3713	0.0007
591.5628	-0.0021
591.7543	0.0149
591.9458	0.0072
592.1372	0.0031
592.3286	0.0069
592.52	0.0029
592.7114	0.0041
592.9028	0
593.0941	0.0009
593.2855	0.0052
593.4768	0.003
593.6681	-0.0089
593.8594	-0.0001
594.0506	-0.004
594.2419	0.0033
594.4331	0.0004
594.6244	-0.0011
594.8156	0
595.0067	-0.0061
595.1979	0.0014
595.3891	-0.0003
595.5802	-0.0002
595.7713	-0.0047
595.9624	-0.004
596.1535	-0.0049
596.3446	0.0061
596.5357	0.0074
596.7267	0.0043
596.9177	0.0039
597.1087	0.0125
597.2997	0.008
597.4907	0.0042
597.6817	-0.0003
597.8726	0.0093
598.0635	0.0031
598.2544	0.0053
598.4453	0.0143
598.6362	0.0099
598.827	0.0036
599.0179	0.0016
599.2087	0.0021
599.3995	0.003
599.5903	0.0062
599.7811	0.0042
599.9718	0.0032
600.1626	0.0048
600.3533	-0.0037
600.544	0.0023
600.7347	0.0125
600.9254	-0.0038
601.116	-0.001
601.3067	-0.0064
601.4973	0.0068
601.6879	0.0046
601.8785	0.0056
602.0691	-0.0002
602.2596	0.0056
602.4502	-0.0001
602.6407	0.0019
602.8312	-0.0038
603.0217	0.0056
603.2122	0.0006
603.4027	0.0077
603.5931	-0.0002
603.7835	0.0034
603.9739	0.0074
604.1643	0.0055
604.3547	0.0033
604.5451	-0.0004
604.7354	0.0043
604.9257	0.0069
605.116	-0.0051
605.3063	0.0054
605.4966	0.0003
605.6869	0.0089
605.8771	0.0025
606.0673	0.0045
606.2575	0.0019
606.4477	0.0046
606.6379	0.006
606.8281	0.0055
607.0182	0.0054
607.2083	0.0041
607.3985	0.0077
607.5885	0.0077
607.7786	0.0049
607.9687	0.0003
608.1587	0.0019
608.3488	0.0082
608.5388	0.0117
608.7288	0.0089
608.9187	0.0002
609.1087	0.0023
609.2986	0.003
609.4886	0.0011
609.6785	0
609.8684	0.0014
610.0582	0.0105
610.2481	0.0014
610.4379	0.0024
610.6278	0.0039
610.8176	0.0097
611.0074	0.0056
611.1971	0.0018
611.3869	0.0006
611.5766	0.004
611.7664	0.0026
611.9561	0.0092
612.1458	0.0063
612.3354	0.0111
612.5251	0.0071
612.7147	0.0056
612.9044	0.0063
613.094	0.0024
613.2836	0.009
613.4731	0.004
613.6627	0.0029
613.8522	0.0183
614.0417	0.0062
614.2313	0.0111
614.4207	0.0064
614.6102	0.0041
614.7997	0.0075
614.9891	0.0092
615.1785	0.0055
615.3679	0.0058
615.5573	0.0077
615.7467	0.0045
615.9361	0.0023
616.1254	0.0027
616.3147	0.0016
616.504	0.006
616.6933	0.0083
616.8826	0.0104
617.0718	0.0022
617.2611	0.0032
617.4503	0.0074
617.6395	0.0077
617.8287	0.0058
618.0179	0.0022
618.207	0.0113
618.3961	0.0096
618.5853	0.0085
618.7744	-0.0046
618.9634	0.0015
619.1525	0.0045
619.3416	0.0072
619.5306	0.011
619.7196	-0.0034
619.9086	0.015
620.0976	0.0046
620.2866	0.0104
620.4755	0.0144
620.6645	0.0088
620.8534	0.0092
621.0423	0.0051
621.2312	0.0035
621.42	0.0103
621.6089	0.0133
621.7977	0.005
621.9865	0.0098
622.1753	0.0178
622.3641	0.0103
622.5529	0.0094
622.7416	0.0103
622.9303	0.0154
623.1191	0.0088
623.3078	0.0093
623.4964	0.0064
623.6851	0.0164
623.8737	0.012
624.0624	0.0122
624.251	0.0091
624.4396	0.0116
624.6282	0.003
624.8167	0.0089
625.0053	0.0077
625.1938	0.012
625.3823	0.0036
625.5708	0.0046
625.7593	0.0045
625.9477	0.0195
626.1362	0.0051
626.3246	0.0152
626.513	0.0031
626.7014	0.0086
626.8898	0.0049
627.0781	0.0009
627.2665	0.008
627.4548	0.0097
627.6431	0.007
627.8314	0.0131
628.0197	0.0057
628.2079	0.0099
628.3962	0.0121
628.5844	0.0126
628.7726	0.0094
628.9608	0.0162
629.1489	0.005
629.3371	0.0105
629.5252	0.0051
629.7134	0.0049
629.9015	0.0002
630.0895	0.0142
630.2776	0.0029
630.4657	0.0076
630.6537	-0.0002
630.8417	0.008
631.0297	0.0221
631.2177	0.0144
631.4057	0.011
631.5936	0.0113
631.7815	0.0106
631.9695	0.0133
632.1574	0.0134
632.3452	0.015
632.5331	0.0039
632.7209	0.0036
632.9088	-0.0025
633.0966	-0
633.2844	-0.0013
633.4722	0.0037
633.6599	0.0052
633.8477	0.0077
634.0354	0.0003
634.2231	0.0141
634.4108	0.0133
634.5985	0.0069
634.7861	0.0145
634.9738	0.0104
635.1614	0.0079
635.349	0.0084
635.5366	0.0059
635.7242	0.0018
635.9117	0.0098
636.0993	0.0117
636.2868	0.008
636.4743	0.0083
636.6618	0.0039
636.8492	0.0162
637.0367	0.0111
637.2241	0.0088
637.4115	0.0066
637.5989	0.0168
637.7863	0.005
637.9737	0.0095
638.161	0.0135
638.3484	0.0086
638.5357	0.0027
638.723	0.003
638.9103	0.0042
639.0975	0.0025
639.2848	0.0077
639.472	0.0034
639.6592	0.0122
639.8464	0.0112
640.0336	0.0108
640.2208	0.0012
640.4079	0.004
640.595	0.0041
640.7821	0.0048
640.9692	0.005
641.1563	0.0104
641.3434	0.0074
641.5304	0.0044
641.7174	0.0067
641.9044	0.0045
642.0914	0.0089
642.2784	-0.0029
642.4653	0.0065
642.6523	-0.0047
642.8392	0.009
643.0261	0.0011
643.213	-0.0031
643.3999	-0
643.5867	0.0009
643.7735	0.0053
643.9604	0.0082
644.1472	0.0046
644.3339	-0.0052
644.5207	-0.0004
644.7075	-0.0002
644.8942	0.0085
645.0809	0.0019
645.2676	0.0115
645.4543	0.0161
645.6409	0.0115
645.8276	0.0075
646.0142	0.0087
646.2008	0.0088
646.3874	0.017
646.574	0.0096
646.7605	0.0136
646.9471	0.0062
647.1336	0.0043
647.3201	0.0082
647.5066	0.0028
647.6931	-0.0097
647.8795	0.0062
648.0659	0.0069
648.2524	0.0155
648.4388	0.0096
648.6252	0.0043
648.8115	0.0059
648.9979	0.0056
649.1842	0.0066
649.3705	0.0026
649.5568	0.0011
649.7431	0.008
649.9294	0.0061
650.1156	0.0077
650.3018	0.0006
650.488	0.0004
650.6742	-0.0068
650.8604	0.0096
651.0466	0.0078
651.2327	0.0082
651.4188	0.0077
651.6049	0.017
651.791	0.0033
651.9771	0.0072
652.1632	0.0117
652.3492	0.0123
652.5352	0.0017
652.7212	0.0189
652.9072	0.0029
653.0932	-0.0025
653.2791	0.002
653.465	0.0009
653.651	0.0024
653.8369	0.004
654.0227	0.0145
654.2086	0.0088
654.3944	0.0106
654.5803	0.0024
654.7661	0.0081
654.9519	0.0009
655.1377	0.0023
655.3234	-0.0011
655.5092	0.0024
655.6949	-0.0019
655.8806	-0.0046
656.0663	0.0025
656.2519	0.0008
656.4376	-0.0008
656.6232	0.0012
656.8088	0.008
656.9945	0.0042
657.18	0.0019
657.3656	0.0074
657.5511	0.0008
657.7367	0.0013
657.9222	0.0017
658.1077	0.0122
658.2932	0.0034
658.4786	-0.0017
658.6641	-0.0041
658.8495	0.0016
659.0349	0.0022
659.2203	0.0042
659.4057	-0.0072
659.591	0.0052
659.7764	0.0012
659.9617	-0.0057
660.147	0.0096
660.3323	-0.002
660.5176	-0.0025
660.7028	0.0069
660.888	0.0105
661.0733	0.0116
661.2585	0.0111
661.4436	0.0081
661.6288	0.0079
661.8139	0.0038
661.9991	-0.0053
662.1842	0.0094
662.3693	0.0002
662.5544	0.0113
662.7394	0.0106
662.9245	0.0071
663.1095	0.0087
663.2945	-0.0025
663.4795	0.0009
663.6644	0.0167
663.8494	0.0107
664.0343	0.0085
664.2193	0.0146
664.4042	0.0194
664.589	0.0096
664.7739	0.0062
664.9587	0.0073
665.1436	0.0058
665.3284	0.0018
665.5132	-0.0004
665.698	0.0043
665.8827	0.0108
666.0675	0.0085
666.2522	0.0189
666.4369	-0
666.6216	0.0167
666.8063	0.0115
666.9909	0.0117
667.1756	0.0079
667.3602	0.0079
667.5448	0.0139
667.7294	0.0072
667.9139	0.0068
668.0985	0.012
668.283	0.0025
668.4675	0.0106
668.652	0.0147
668.8365	-0.0028
669.0209	0.0075
669.2054	0.0108
669.3898	0.0085
669.5742	0.0093
669.7586	0.0059
669.943	0.0112
670.1273	0.0081
670.3117	0.003
670.496	0.0017
670.6803	0.0073
670.8646	0.009
671.0488	0.0158
671.2331	0.011
671.4173	0.0122
671.6015	0.0051
671.7857	0.0064
671.9699	0.0141
672.1541	0.0006
672.3382	0.0133
672.5223	0.0118
672.7064	0.0012
672.8905	0.0121
673.0746	0.0129
673.2587	0.0035
673.4427	0.0117
673.6267	0.0061
673.8107	0.0077
673.9947	0.0126
674.1787	0.0093
674.3626	0.0113
674.5465	0.0131
674.7304	0.0073
674.9143	0.0107
675.0982	0.0092
675.2821	0.0007
675.4659	0.0178
675.6497	0.0082
675.8335	0.0221
676.0173	0.0137
676.2011	0.0025
676.3849	0.0135
676.5686	0.0193
676.7523	0.0113
676.936	-0.002
677.1197	0.0169
677.3034	0.0075
677.487	0.0129
677.6706	0.0176
677.8542	0.0109
678.0378	0.0128
678.2214	0.0071
678.405	0.0151
678.5885	0.0167
678.772	0.0094
678.9555	0.0061
679.139	0.0106
679.3225	0.0058
679.5059	0.0182
679.6894	0.0112
679.8728	0.0031
680.0562	0.0098
680.2395	0.01
680.4229	0.0032
680.6062	-0.0024
680.7896	0.0075
680.9729	0.0034
681.1562	0.0112
681.3394	0.0028
681.5227	0.0182
681.7059	0.0011
681.8891	0.0042
682.0723	0.0062
682.2555	0.0028
682.4387	0.0069
682.6218	0.0085
682.805	0.0142
682.9881	0.0168
683.1712	0.0154
683.3542	0.007
683.5373	0.0066
683.7203	0.0156
683.9034	0.0114
684.0864	0.0064
684.2694	0.0074
684.4523	0.0071
684.6353	0.0005
684.8182	0.0061
685.0011	0.0101
685.184	0.0067
685.3669	-0.002
685.5498	0.0113
685.7326	0.0086
685.9154	0.0112
686.0982	0.0098
686.281	0.0051
686.4638	0.0019
686.6465	0.009
686.8293	0.0107
687.012	0.0132
687.1947	0.0081
687.3774	0.0152
687.56	0.0125
687.7427	0.0124
687.9253	0.0013
688.1079	0.0092
688.2905	0.0023
688.4731	0.0048
688.6556	0.0129
688.8382	0.0061
689.0207	0.0061
689.2032	0.0089
689.3857	0.0154
689.5681	0.0069
689.7506	0.0088
689.933	0.0088
690.1154	0.0056
690.2978	-0.0032
690.4802	0.0063
690.6626	0.014
690.8449	0.0139
691.0272	0.0012
691.2095	0.0112
691.3918	0.0059
691.5741	0.0172
691.7563	0.0071
691.9386	0.0099
692.1208	-0.0029
692.303	0.0073
692.4852	0.0142
692.6673	0.0112
692.8495	0.0148
693.0316	0.0199
693.2137	0.011
693.3958	0.0158
693.5778	0.0067
693.7599	0.0131
693.9419	0.01
694.1239	0.0132
694.3059	0.0092
694.4879	0.0118
694.6699	0.0058
694.8518	0.0079
695.0337	0.0108
695.2157	0.0176
695.3975	0.0052
695.5794	0.0058
695.7613	0.0074
695.9431	0.0098
696.1249	0.0158
696.3067	0.0036
696.4885	0.0087
696.6703	0.0128
696.852	0.015
697.0337	0.014
697.2154	0.0156
697.3971	0.0087
697.5788	0.0137
697.7605	0.0105
697.9421	-0.0007
698.1237	0.0142
698.3053	0.0126
698.4869	0.0065
698.6685	0.0091
698.85	0.0097
699.0315	0.01
699.213	0.0117
699.3945	0.0024
699.576	0.0129
699.7575	0.0105
699.9389	0.0191
700.1203	0.0143
700.3017	0.0141
700.4831	0.0058
700.6645	0.0032
700.8458	0.008
701.0271	0.0057
701.2084	0.0151
701.3897	-0.0028
701.571	0.0094
701.7523	-0.0082
701.9335	0.0005
702.1147	0.0035
702.2959	-0.0038
702.4771	0.0043
702.6583	0.004
702.8394	0.0066
703.0205	0.0096
703.2016	0.015
703.3827	0.0056
703.5638	0.0128
703.7449	0.0147
703.9259	-0.0041
704.1069	-0.0042
704.2879	0.0042
704.4689	0.0114
704.6499	0.0021
704.8308	0.008
705.0117	0.0091
705.1927	0.0082
705.3735	-0.001
705.5544	0.0008
705.7353	0.0082
705.9161	0.0092
706.0969	0.0044
706.2777	0.0052
706.4585	0.0041
706.6393	0.0146
706.82	0.0006
707.0007	0.0024
707.1815	0.0034
707.3621	0.0116
707.5428	0.0154
707.7235	-0.0022
707.9041	0.0026
708.0847	0.0131
708.2653	0.0079
708.4459	0.0087
708.6265	0.0151
708.807	0.0078
708.9875	0.0103
709.168	0.0167
709.3485	0.0137
709.529	0.004
709.7095	0.0087
709.8899	0.0125
710.0703	0.0116
710.2507	-0.0002
710.4311	0.0127
710.6115	0.008
710.7918	0.0088
710.9721	0.0062
711.1524	0.0039
711.3327	0.0047
711.513	-0.0062
711.6932	0.0104
711.8735	0.0084
712.0537	0.0021
712.2339	-0.0021
712.4141	-0.001
712.5942	-0.0046
712.7744	0.0013
712.9545	-0.0003
713.1346	0.0032
713.3147	0.001
713.4947	-0.0077
713.6748	0.0026
713.8548	0.0111
714.0348	0.0039
714.2148	-0.0066
714.3948	0.0043
714.5748	0.0036
714.7547	0.0032
714.9346	-0.0003
715.1145	0.0026
715.2944	0.0063
715.4743	0.0026
715.6541	0.0106
715.834	-0.0007
716.0138	0.0168
716.1936	0.0045
716.3733	0.0143
716.5531	0.0206
716.7328	0.0061
716.9126	0.0014
717.0923	0.0094
717.2719	0.0143
717.4516	0.0015
717.6312	0.0062
717.8109	0.0024
717.9905	0.0105
718.1701	-0.0053
718.3496	0.0064
718.5292	-0.0026
718.7087	-0.0016
718.8882	-0.0084
719.0677	0.0113
719.2472	0.0077
719.4267	0.0114
719.6061	0.0022
719.7856	0.0078
719.965	0.0003
720.1443	0.0076
720.3237	0.0084
720.5031	0.0095
720.6824	0.0171
720.8617	0.0094
721.041	-0.0053
721.2203	0.006
721.3995	0.0082
721.5788	0.0164
721.758	-0.0052
721.9372	0.0073
722.1164	0.0125
722.2956	0.0081
722.4747	0.0069
722.6538	-0.0007
722.8329	0.0062
723.012	-0.0033
723.1911	-0.0015
723.3702	0.0063
723.5492	0.009
723.7282	0.0072
723.9072	0.008
724.0862	0.0174
724.2652	0.0078
724.4441	-0.0013
724.623	0.0079
724.8019	-0.0049
724.9808	0.001
725.1597	0.0048
725.3385	0.0123
725.5174	0.0119
725.6962	0.0017
725.875	0.0028
726.0538	0.008
726.2325	0.0026
726.4112	0.0105
726.59	0.0091
726.7687	0.0097
726.9474	-0.001
727.126	-0.0048
727.3047	0.0004
727.4833	0.0029
727.6619	0.0033
727.8405	-0.0015
728.0191	-0.0001
728.1976	-0.0005
728.3762	0.0084
728.5547	0.0012
728.7332	0.0091
728.9116	-0.0044
729.0901	0.0029
729.2686	-0.0009
729.447	-0.0035
729.6254	0.0153
729.8038	0.0114
729.9821	0.0083
730.1605	0.0155
730.3388	-0.0023
730.5171	0.0038
730.6954	0.0086
730.8737	0.0075
731.0519	-0.0034
731.2302	0.0033
731.4084	0.0016
731.5866	-0.0109
731.7648	0.0086
731.9429	-0.004
732.1211	0.0029
732.2992	0.0034
732.4773	-0.0028
732.6554	-0.0035
732.8335	0.0004
733.0115	-0.0027
733.1896	0.0081
733.3676	0.0039
733.5456	-0.0003
733.7235	-0.0024
733.9015	0.0062
734.0794	0.0007
734.2574	0.0073
734.4353	0.0001
734.6131	0.0002
734.791	0.0079
734.9689	0.0078
735.1467	0.0044
735.3245	-0.0055
735.5023	0.0203
735.68	0.0117
735.8578	0.012
736.0355	0.0121
736.2132	0.0118
736.3909	0.0088
736.5686	0.0175
736.7463	0.0075
736.9239	0.014
737.1015	0.0082
737.2791	0.0059
737.4567	0.0053
737.6343	0.0117
737.8118	0.0076
737.9894	0.0086
738.1669	0.0024
738.3444	-0.0035
738.5218	0.0026
738.6993	0.0033
738.8767	0.0088
739.0541	-0.0016
739.2315	-0.0006
739.4089	0.0149
739.5863	0.0075
739.7636	-0.0012
739.9409	-0.002
740.1182	0.0058
740.2955	0.0121
740.4728	0.0031
740.65	-0.0033
740.8272	0.0024
741.0044	-0.0092
741.1816	0.0063
741.3588	0.0038
741.5359	0.0046
741.7131	0.0037
741.8902	0.0019
742.0673	0.0136
742.2444	-0.0039
742.4214	0.003
742.5985	0.0082
742.7755	0.0074
742.9525	0.005
743.1295	0.0113
743.3064	0.0097
743.4834	0.0027
743.6603	0.0034
743.8372	-0.0024
744.0141	0.0124
744.191	0.009
744.3678	0.0044
744.5446	-0.0032
744.7215	0.0143
744.8982	0.0083
745.075	-0.002
745.2518	-0.0063
745.4285	-0.0045
745.6052	0.0067
745.7819	-0.0093
745.9586	-0.0026
746.1353	-0.0004
746.3119	-0.0012
746.4885	-0.0048
746.6651	0.0046
746.8417	0.0052
747.0183	0.0096
747.1948	0.0071
747.3714	0.0016
747.5479	0.003
747.7244	0.0106
747.9008	0.0132
748.0773	0.0061
748.2537	0.0035
748.4301	-0.0022
748.6065	0.0066
748.7829	0.0105
748.9593	-0.0015
749.1356	0.0141
749.3119	0.0137
749.4882	0.0091
749.6645	0.0053
749.8408	0.0028
750.017	0.0104
750.1933	0.0161
750.3695	0.0132
750.5457	0.0101
750.7218	0.0026
750.898	0.0198
751.0741	0.0109
751.2502	0.0279
751.4263	0.0108
751.6024	0.0033
751.7784	0.0159
751.9545	0.0032
752.1305	0.0167
752.3065	0.0021
752.4825	0.0036
752.6584	0.0144
752.8344	0.0158
753.0103	0.002
753.1862	-0.0005
753.3621	0.002
753.5379	0.0067
753.7138	0.0077
753.8896	0.0072
754.0654	0.0056
754.2412	0.0021
754.417	-0.0025
754.5927	0.015
754.7685	0.0059
754.9442	0.0063
755.1199	0.0197
755.2956	0.0129
755.4712	-0.0015
755.6469	0.0147
755.8225	0.0102
755.9981	0.0097
756.1736	0.0004
756.3492	0.0111
756.5248	0.0112
756.7003	0.0008
756.8758	0.0163
757.0513	0.0041
757.2267	0.0093
757.4022	0.0075
757.5776	0.0103
757.753	0.0027
757.9284	0.0015
758.1038	-0.0069
758.2791	0.0133
758.4545	0.0114
758.6298	0.011
758.8051	0.0095
758.9803	0.0106
759.1556	-0.0059
759.3308	0.0056
759.506	0.0154
759.6812	0.0074
759.8564	0.004
760.0316	0.0135
760.2067	0.0025
760.3819	0.0026
760.557	-0.0025
760.732	-0.0023
760.9071	0.0108
761.0821	0.0165
761.2572	0.0072
761.4322	0.0041
761.6072	0.0012
761.7821	0.009
761.9571	0.0078
762.132	-0
762.3069	0.0149
762.4818	0.0115
762.6567	0.0025
762.8316	0.0003
763.0064	0.0029
763.1812	0.0137
763.356	0.0048
763.5308	0.0004
763.7055	0.0064
763.8803	0.009
764.055	0.0045
764.2297	0.0063
764.4044	-0.0005
764.579	0.0115
764.7537	-0.0024
764.9283	0.0062
765.1029	0.0052
765.2775	0.0012
765.4521	-0.0041
765.6266	0.0036
765.8011	0.0074
765.9756	0.0007
766.1501	0.0091
766.3246	-0.0056
766.4991	0.0043
766.6735	-0.0053
766.8479	-0.0003
767.0223	-0.0063
767.1967	0.0179
767.371	0.011
767.5454	0.0032
767.7197	0.0076
767.894	0.0087
768.0683	0.013
768.2425	0.0091
768.4168	0.0121
768.591	0.0061
768.7652	0.0039
768.9394	0.0161
769.1135	0.0089
769.2877	-0.0007
769.4618	0.0136
769.6359	0.009
769.81	0.0058
769.984	-0.0011
770.1581	-0.0058
770.3321	0.0163
770.5061	-0.004
770.6801	-0.003
770.8541	0.0107
771.028	0.0118
771.202	0.0075
771.3759	-0.0063
771.5498	0.0139
771.7236	0.0003
771.8975	0.0057
772.0713	-0.0077
772.2451	-0.007
772.4189	-0.0028
772.5927	0.008
772.7665	-0.0062
772.9402	0.0068
773.1139	0.0021
773.2876	-0.0009
773.4613	0.0142
773.635	0.0129
773.8086	-0.0038
773.9822	0.0145
774.1558	0.0009
774.3294	0.0109
774.503	-0.0066
774.6765	0.0202
774.8501	0.0086
775.0236	0.0121
775.1971	0.0053
775.3705	0.0185
775.544	0.0165
775.7174	0.016
775.8908	0.0207
776.0642	0.01
776.2376	0.0121
776.4109	0.0042
776.5843	-0.0055
776.7576	0.0028
776.9309	0.0083
777.1041	0.0052
777.2774	-0.0011
777.4506	0.0116
777.6238	0.0102
777.797	0.0125
777.9702	0.0177
778.1434	0.0135
778.3165	0.0063
778.4896	0.022
778.6627	0.0174
778.8358	0.0128
779.0089	0.008
779.1819	-0.0115
779.3549	0.0078
779.5279	0.0165
779.7009	-0.0049
779.8739	-0.0034
780.0468	0.0112
780.2197	0.0109
780.3926	0.0005
780.5655	0.0015
780.7384	0.0029
780.9112	0.0173
781.0841	-0.0158
781.2569	-0.0069
781.4297	-0.0162
781.6024	0.0021
781.7752	-0.0031
781.9479	-0.0055
782.1206	0.0067
782.2933	0.0158
782.466	-0.0086
782.6386	-0.0023
782.8113	-0.0147
782.9839	0.0057
783.1565	-0.006
783.329	0.0074
783.5016	0.0025
783.6741	0.0032
783.8466	0.0091
784.0191	0.0056
784.1916	0.0052
784.3641	0.0059
784.5365	0.0144
784.7089	0.0017
784.8813	0.0093
785.0537	0.0111
785.2261	0.005
785.3984	0.0007
785.5707	0.0074
785.743	0.0066
785.9153	0.001
786.0876	0.0105
786.2598	-0.0071
786.432	0.0078
786.6042	0.008
786.7764	0.0116
786.9486	0.0044
787.1207	0.0037
787.2928	0.009
787.4649	0.0082
787.637	-0.0065
787.8091	0.0062
787.9811	0.0041
788.1532	0.0076
788.3252	-0.0126
788.4972	-0.0058
788.6691	0.005
788.8411	-0.0015
789.013	0.0016
789.1849	0.0171
789.3568	0.0285
789.5287	0.0205
789.7005	0.0209
789.8723	0.0151
790.0442	0.0092
790.2159	-0.0146
790.3877	0.0133
790.5595	0.0136
790.7312	-0.0083
790.9029	0.0233
791.0746	0.0057
791.2463	0.0126
791.4179	0.0087
791.5896	0.0145
791.7612	0.0097
791.9328	0.0149
792.1044	0.0105
792.2759	0.0152
792.4474	0.0129
792.619	0.0189
792.7905	0.0256
792.9619	0.0012
793.1334	0.0191
793.3048	0.0194
793.4762	-0.0034
793.6476	-0.0027
793.819	0.0191
793.9904	0.0222
794.1617	-0.0034
794.333	0.0002
794.5043	0.0091
794.6756	0.0002
794.8469	0.0053
795.0181	0.0054
795.1893	-0.0039
795.3605	0.0107
795.5317	0.0016
795.7029	0.0035
795.874	-0.0063
796.0452	0.0019
796.2163	0.0098
796.3873	0.006
796.5584	0.0043
796.7294	-0.0106
796.9005	0.0046
797.0715	0.0001
797.2425	-0.0145
797.4134	0.0113
797.5844	0.0227
797.7553	0.0074
797.9262	0.0049
798.0971	0.0097
798.2679	0.0013
798.4388	0.0162
798.6096	-0.0067
798.7804	0.016
798.9512	-0.0015
799.122	0.0013
799.2927	0.0025
799.4635	0.0006
799.6342	0.0179
799.8049	0.0034
799.9755	-0.0041
800.1462	0.015
800.3168	0.0008
800.4874	0.0144
800.658	0.0173
800.8286	0.0091
800.9991	0.0075
801.1696	0.015
801.3402	0.0147
801.5106	0.0242
801.6811	-0.0063
801.8516	0.0171
802.022	0.0082
802.1924	0.0048
802.3628	0.0071
802.5332	0.0076
802.7035	0.0063
802.8739	0.0095
803.0442	0.0052
803.2145	-0.006
803.3847	0.0036
803.555	0.0172
803.7252	0.0091
803.8954	0.0055
804.0656	0.0234
804.2358	0.0094
804.4059	0.0208
804.5761	0.0206
804.7462	0.0044
804.9163	-0.0038
805.0864	-0.0152
805.2564	-0.012
805.4264	0.0136
805.5965	-0.0089
805.7665	0.0161
805.9364	0.002
806.1064	0.027
806.2763	0.0239
806.4462	0.0193
806.6161	0.0005
806.786	0.0163
806.9559	0.0102
807.1257	0.001
807.2955	0.0162
807.4653	0.0172
807.6351	0.0008
807.8048	0.0061
807.9746	0.0165
808.1443	-0.0031
808.314	0.0325
808.4837	0.0322
808.6533	0.0308
808.8229	0.023
808.9926	0.0158
809.1622	0.0271
809.3317	0.018
809.5013	0.0263
809.6708	0.0285
809.8403	0.0145
810.0098	0.0074
810.1793	0.0185
810.3488	0.0152
810.5182	0.0195
810.6876	0.0147
810.857	0.0268
811.0264	0.0122
811.1958	-0.0025
811.3651	0.0024
811.5344	0.0093
811.7037	0.0034
811.873	0.0046
812.0422	0.0012
812.2115	0.0213
812.3807	0.0143
812.5499	-0.0012
812.7191	0.0253
812.8882	0.0104
813.0574	-0.0052
813.2265	0.0288
813.3956	0.0184
813.5646	0.0118
813.7337	0.0167
813.9027	0.0072
814.0718	0.0221
814.2407	0.0324
814.4097	0.0235
814.5787	-0.0026
814.7476	0.0129
814.9165	0.0166
815.0854	-0.0168
815.2543	0.0128
815.4232	0.0012
815.592	-0.0033
815.7608	0.0185
815.9296	-0.004
816.0984	-0.0107
816.2671	-0.0079
816.4359	-0.0013
816.6046	0.0049
816.7733	-0.0013
816.942	-0.0049
817.1106	0.0104
817.2793	0.0135
817.4479	0.0057
817.6165	0.0111
817.785	-0.0052
817.9536	0.0197
818.1221	-0.0165
818.2906	0.009
818.4591	-0.0087
818.6276	0.0093
818.7961	0.0048
818.9645	0.0095
819.1329	0.0167
819.3013	0.0102
819.4697	0.0033
819.638	-0.015
819.8064	-0.0116
819.9747	-0.0012
820.143	-0.0045
820.3113	0.0096
820.4795	0.0021
820.6477	-0.0015
820.816	-0.0303
820.9842	-0.0005
821.1523	0.0241
821.3205	0.0009
821.4886	-0.0218
821.6567	-0.0217
821.8248	0.0008
821.9929	0.0099
822.1609	-0.0185
822.329	0.0301
822.497	-0.0069
822.665	-0.0026
822.833	-0.0138
823.0009	-0.0172
823.1688	-0.0073
823.3367	0.0146
823.5046	-0.0009
823.6725	-0.0336
823.8404	-0.0077
824.0082	0.0259
824.176	0.0173
824.3438	0.0094
824.5116	-0.0189
824.6793	-0.0259
824.847	0.0362
825.0147	-0.0002
825.1824	-0.027
825.3501	0.0188
825.5177	0.0059
825.6854	-0.0206
825.853	0.0311
826.0206	0.0047
826.1881	0.0096
826.3557	-0.0064
826.5232	0.0064
826.6907	-0.0041
826.8582	0.0252
827.0257	0.0156
827.1931	0.0273
827.3605	0.0093
827.528	0.0178
827.6953	0.0417
827.8627	0.0229
828.03	0.048
828.1974	0.0366
828.3647	0.0219
828.532	0.0231
828.6992	0.0204
828.8665	0.0651
829.0337	0.0069
829.2009	0.0444
829.3681	0.0017
829.5352	0.0053
829.7024	0.0007
829.8695	0.0094
830.0366	0.0058
830.2037	0.0194
830.3707	0.02
830.5378	-0.0247
830.7048	0.048
830.8718	0.0039
831.0388	0.0119
831.2057	0.0132
831.3727	0.0022
831.5396	0.0285
831.7065	-0.0153
831.8734	0.0142
832.0402	-0.0063
832.2071	-0.0293
832.3739	-0.0048
832.5407	0.0522
832.7075	-0.0008
832.8742	-0.0309
833.041	-0.0214
833.2077	0.0014
833.3744	0.0526
833.541	0.0401
833.7077	0.0533
833.8743	0.0512
834.0409	0.0273
834.2075	0.0514
834.3741	0.0388
834.5407	0.0078
834.7072	0.006
834.8737	0.0121
835.0402	-0.0097
835.2067	-0.0089
835.3731	0.0022
835.5395	-0.007
835.706	0.0189
835.8723	-0.0581
836.0387	0.0378
836.2051	-0.0052
836.3714	-0.0316
836.5377	-0.0284
836.704	-0.0275
836.8703	-0.0119
837.0365	-0.0438
837.2027	-0.0132
837.3689	-0.0071
837.5351	0.0149
837.7013	-0.0474
837.8674	0.0451
838.0335	-0.0396
838.1997	-0.0303
838.3657	0.0207
838.5318	-0.0162
838.6978	-0.037
838.8639	-0.0375
839.0299	-0.0292
839.1958	0.0189
839.3618	-0.062
839.5277	-0.0064
839.6937	-0.0347
839.8596	0.0037
840.0254	0.0301
840.1913	0.0396
840.3571	-0.005
840.523	0.08
840.6888	0.0062
840.8545	0.0323
841.0203	0.0371
841.186	0.0615
841.3517	-0.0485
841.5174	-0.02
841.6831	0.0363
841.8488	0.0467
842.0144	0.0583
842.18	-0.0273
842.3456	0.0257
842.5112	0.0456
842.6767	0.005
842.8422	0.0271
843.0077	0.014
843.1732	-0.0053
843.3387	-0.0355
843.5042	0.0306
843.6696	0.0086
843.835	-0.0259
844.0004	-0.0562
844.1657	-0.0318
844.3311	0.0281
844.4964	-0.0428
844.6617	-0.0161
844.827	0.0051
844.9923	0.0253
845.1575	0.0119
845.3227	-0.0059
845.4879	-0.0197
845.6531	0.0057
845.8183	-0.0217
845.9834	-0.0137
846.1485	-0.0316
846.3136	-0.0495
846.4787	-0.005
846.6438	0.1063
846.8088	-0.0705
846.9738	-0.0102
847.1388	0.0077
847.3038	0.0657
847.4687	-0.0149
847.6337	-0.0782
847.7986	0.0904
847.9635	-0.0075
848.1284	0.0716
848.2932	0.0157
848.458	0.0112
848.6228	0.0616
848.7876	-0.025
848.9524	-0.0153
849.1172	-0.0146
849.2819	0.0105
849.4466	0.0477
849.6113	0.0748
849.7759	-0.0375
849.9406	0.0056
850.1052	-0.064
850.2698	0.1179
850.4344	-0.0573
850.599	-0.0348
850.7635	0.0304
850.928	-0.0149
851.0925	0.1038
851.257	0.0431
851.4215	-0.0542
851.5859	0.0374
851.7503	-0.1355
851.9147	0.0331
852.0791	0.0692
852.2434	0.0888
852.4078	-0.0141
852.5721	0.0826
852.7364	-0.0284
852.9007	-0.1625
853.0649	-0.0114
853.2291	0.0443
853.3934	0.0705
853.5575	0.0272
853.7217	0.0056
853.8859	-0.0307
854.05	-0.0211
854.2141	-0.0332
854.3782	-0.0715
854.5423	-0.0155
854.7063	0.0164
854.8703	-0.0975
855.0343	-0.0034
855.1983	0.1139
855.3623	-0.0829
855.5262	0.1407
855.6901	0.0713
855.854	-0.0217
856.0179	0.0114
856.1818	0.0038
856.3456	-0.0037
856.5094	-0.0518
856.6732	-0.069
856.837	0.0046
857.0008	-0.3553
857.1645	0.203
857.3282	0.1232
857.4919	0.0779
857.6556	0.0337
857.8192	-0.0529
857.9828	0.2136
858.1465	-0.0767
858.31	0.0019
858.4736	0.1759
858.6372	-0.1891
858.8007	-0.3606
858.9642	0.112
859.1277	-0.2297
859.2911	-0.0828
859.4546	-0.0225
859.618	-0.4474
859.7814	0.0195
859.9448	0.1129
860.1081	-0.0477
860.2715	0.2237
860.4348	-0.0693
860.5981	-0.0518
860.7614	-0.1433
860.9246	0.1273
861.0879	-0.1158
861.2511	0.2879
861.4143	-0.0657
861.5774	0.0028
861.7406	-0.163
861.9037	-0.21
862.0668	-0.1457
862.2299	-0.0125
862.393	0.0818
862.556	0.0968
862.7191	0.0553
862.8821	-0.3939
863.0451	-0.2881
863.208	0.0944
863.371	0.1968
863.5339	-0.0298
863.6968	-0.1513
863.8597	-0.2656
864.0225	0.1177
864.1854	0.0035
864.3482	0.0987
864.511	-0.062
864.6737	-0.1022
864.8365	0.1508
864.9992	-0.1344
865.1619	-0.1444
865.3246	0.022
865.4873	0.0242
865.65	-0.1247
865.8126	-0.1019
865.9752	-0.0523
866.1378	0.2537
866.3004	-0
866.4629	0.0734
866.6254	-0.4869
866.7879	0.0798
866.9504	0.3414
867.1129	0.0989
867.2753	-0.0881
867.4377	-0.2917
867.6001	0.2813
867.7625	-0.1197
867.9249	-0.4546
868.0872	0.0037
868.2495	0.7458
868.4118	-0.0464
868.5741	-0.2545
868.7363	-0
868.8986	-0.1073
869.0608	-0.168
869.223	0.1095
869.3851	-0.2005
869.5473	-0.181
869.7094	0.0658
869.8715	-0
870.0336	-0
870.1957	-0
870.3577	-0.1271
870.5197	0.3279
870.6817	0.0904
870.8437	0.3549
871.0057	-0
871.1676	-0.4269
871.3295	-1.4447
871.4914	-0
871.6533	0.0847
871.8151	-0.4136
871.977	-0.0734
872.1388	-0
872.3006	-0
872.4623	0.1158
872.6241	-0.5528
872.7858	-0.076
872.9475	-0
873.1092	0.2053
873.2709	-0
873.4325	-0.4424
873.5941	0.0967
873.7557	-0.6829
873.9173	0.3902
874.0789	-0
874.2404	0.1126
874.4019	-0.4281
874.5634	-0
874.7249	0.0796
874.8863	-0.2633
875.0478	0.3264
875.2092	0.4324
875.3706	-0.1635
875.5319	-1.0068
875.6933	-0.3303
875.8546	-0.2131
876.0159	0.4262
876.1772	-0.6321
876.3385	-0.2729
876.4997	1.326
876.6609	-0.0186
876.8221	-0.7338
876.9833	-0
877.1445	0.419
877.3056	-0.314
877.4667	-0.2199
877.6278	0.0784
877.7889	-0.0035
877.9499	-0.0321
878.111	-0.186
878.272	-0.0321
878.433	0.0399
878.5939	0.1998
878.7549	0.1598
878.9158	-0.1391
879.0767	-0.2172
879.2376	0.2905
879.3984	0.4572
879.5593	-0.4532
879.7201	-0.0516
879.8809	-0.5308
880.0417	-0.028
880.2024	0.5735
880.3632	0.2295
880.5239	-0
880.6846	-0.3765
880.8452	-0.2436
881.0059	-0.5979
881.1665	0.9189
881.3271	0.3185
881.4877	-0.3085
881.6483	-0
881.8088	-0
881.9693	-0.2525
882.1298	-0.2525
882.2903	-0.2525
