Data from MonoPyChalIsomerACN10uM400nmA_Absorbance_12-08-47-228.txt Node
Date: Fri Jul 05 12:08:47 BST 2024
User: LASERRRRR
Spectrometer: FLMT03099
Trigger mode: 0
Integration Time (sec): 1.000000E-1
Scans to average: 1
Electric dark correction enabled: true
Nonlinearity correction enabled: false
Boxcar width: 0
XAxis mode: Wavelengths
Number of Pixels in Spectrum: 3648
>>>>>Begin Spectral Data<<<<<
179.3399	-0.0529
179.5586	-0.0529
179.7771	-0.0529
179.9957	0.8898
180.2143	-0
180.4329	-0
180.6514	-0
180.8699	-0.3139
181.0885	0.3208
181.307	-0.115
181.5255	0.2749
181.744	-0
181.9625	-0.6681
182.181	-0
182.3994	-0.4925
182.6179	-0.28
182.8363	-0.2188
183.0547	0.0587
183.2732	0.1952
183.4916	0.0528
183.71	0.073
183.9284	0.1629
184.1467	0.0283
184.3651	-0.0066
184.5835	0.2323
184.8018	-0.0086
185.0201	0.0727
185.2385	0.0459
185.4568	0.0417
185.6751	0.1781
185.8934	0.2136
186.1117	0.119
186.3299	-0.082
186.5482	0.0094
186.7664	0.285
186.9847	0.2744
187.2029	0.1218
187.4211	-0.2202
187.6393	-0.0901
187.8575	-0.0655
188.0757	-0.0911
188.2939	0.0438
188.512	0.092
188.7302	0.0343
188.9483	0.1799
189.1665	-0.0266
189.3846	-0.0406
189.6027	0.3094
189.8208	0.1567
190.0389	0.1012
190.257	0.3687
190.475	0.3227
190.6931	0.2189
190.9111	0.1831
191.1292	0.1972
191.3472	0.2716
191.5652	0.1493
191.7832	0.4267
192.0012	0.1881
192.2192	0.3652
192.4371	0.3519
192.6551	0.3195
192.873	0.2277
193.091	0.3685
193.3089	0.307
193.5268	0.6689
193.7447	0.497
193.9626	0.5242
194.1805	0.3563
194.3984	0.4216
194.6162	0.5637
194.8341	0.6533
195.0519	0.5611
195.2697	0.5504
195.4875	0.6329
195.7054	0.6874
195.9231	0.409
196.1409	0.5186
196.3587	0.4273
196.5765	0.5584
196.7942	0.7094
197.012	0.7017
197.2297	0.6467
197.4474	0.6481
197.6651	0.6314
197.8828	0.9252
198.1005	0.671
198.3182	0.7413
198.5358	0.6512
198.7535	0.5755
198.9711	0.595
199.1888	0.7479
199.4064	0.7901
199.624	0.6591
199.8416	0.6723
200.0592	0.9258
200.2767	0.6279
200.4943	0.752
200.7119	0.698
200.9294	0.8652
201.1469	0.8234
201.3645	0.7687
201.582	0.6738
201.7995	0.8576
202.017	0.7804
202.2344	0.6518
202.4519	0.8326
202.6694	0.9368
202.8868	0.8712
203.1042	0.6506
203.3217	0.688
203.5391	0.7005
203.7565	0.7852
203.9739	0.9083
204.1913	0.7569
204.4086	0.8163
204.626	0.6903
204.8433	0.8592
205.0607	0.7749
205.278	0.8103
205.4953	0.7976
205.7126	0.6733
205.9299	0.9153
206.1472	0.764
206.3644	0.6859
206.5817	0.7041
206.7989	0.7066
207.0162	0.7402
207.2334	0.8287
207.4506	0.8042
207.6678	0.7772
207.885	0.7341
208.1022	0.7668
208.3194	0.7912
208.5365	0.7997
208.7537	0.7626
208.9708	0.7436
209.1879	0.7654
209.405	0.6438
209.6222	0.7817
209.8392	0.7691
210.0563	0.7971
210.2734	0.7718
210.4905	0.7705
210.7075	0.7388
210.9245	0.6484
211.1416	0.7547
211.3586	0.7923
211.5756	0.6955
211.7926	0.7639
212.0096	0.6978
212.2265	0.6842
212.4435	0.7113
212.6604	0.833
212.8774	0.7308
213.0943	0.7121
213.3112	0.6681
213.5281	0.7096
213.745	0.721
213.9619	0.6866
214.1788	0.7213
214.3956	0.711
214.6125	0.6206
214.8293	0.6536
215.0461	0.6972
215.2629	0.6465
215.4798	0.6391
215.6965	0.6957
215.9133	0.6497
216.1301	0.5883
216.3469	0.6705
216.5636	0.6122
216.7803	0.6198
216.9971	0.6142
217.2138	0.6541
217.4305	0.616
217.6472	0.5512
217.8639	0.5924
218.0805	0.5692
218.2972	0.5477
218.5138	0.583
218.7305	0.544
218.9471	0.6114
219.1637	0.5762
219.3803	0.5278
219.5969	0.5883
219.8135	0.5893
220.0301	0.5828
220.2466	0.5641
220.4632	0.5484
220.6797	0.5338
220.8962	0.5246
221.1127	0.5439
221.3292	0.5212
221.5457	0.5998
221.7622	0.5383
221.9787	0.5309
222.1951	0.5591
222.4116	0.5457
222.628	0.5818
222.8444	0.5528
223.0608	0.5343
223.2772	0.5548
223.4936	0.5326
223.71	0.5516
223.9264	0.5568
224.1427	0.5546
224.3591	0.5828
224.5754	0.5246
224.7917	0.5081
225.008	0.5758
225.2243	0.526
225.4406	0.5275
225.6569	0.5514
225.8732	0.5621
226.0894	0.5364
226.3057	0.611
226.5219	0.5219
226.7381	0.5893
226.9543	0.5641
227.1705	0.5595
227.3867	0.5565
227.6029	0.5054
227.8191	0.5573
228.0352	0.5822
228.2513	0.5682
228.4675	0.562
228.6836	0.5916
228.8997	0.5824
229.1158	0.554
229.3319	0.5549
229.548	0.5627
229.764	0.6215
229.9801	0.5695
230.1961	0.5385
230.4121	0.5918
230.6282	0.5407
230.8442	0.572
231.0602	0.5585
231.2761	0.5565
231.4921	0.5938
231.7081	0.5574
231.924	0.597
232.14	0.5872
232.3559	0.5777
232.5718	0.5963
232.7877	0.5566
233.0036	0.6057
233.2195	0.554
233.4353	0.5963
233.6512	0.5618
233.867	0.549
234.0829	0.5512
234.2987	0.5947
234.5145	0.5696
234.7303	0.575
234.9461	0.5601
235.1619	0.5545
235.3776	0.5571
235.5934	0.5429
235.8091	0.5216
236.0249	0.5381
236.2406	0.5464
236.4563	0.5645
236.672	0.5611
236.8877	0.5455
237.1034	0.5553
237.319	0.525
237.5347	0.5519
237.7503	0.5232
237.966	0.537
238.1816	0.5661
238.3972	0.57
238.6128	0.5512
238.8284	0.5251
239.0439	0.5106
239.2595	0.5369
239.475	0.5343
239.6906	0.5146
239.9061	0.5106
240.1216	0.5206
240.3371	0.5319
240.5526	0.513
240.7681	0.547
240.9836	0.55
241.199	0.4917
241.4145	0.4757
241.6299	0.4916
241.8453	0.4931
242.0607	0.4988
242.2761	0.4939
242.4915	0.4532
242.7069	0.4757
242.9223	0.4648
243.1376	0.4571
243.353	0.4586
243.5683	0.4439
243.7836	0.4038
243.9989	0.4168
244.2142	0.4244
244.4295	0.3954
244.6448	0.3975
244.86	0.4027
245.0753	0.384
245.2905	0.3881
245.5057	0.3778
245.721	0.3649
245.9362	0.3536
246.1514	0.3434
246.3665	0.3397
246.5817	0.3491
246.7969	0.3274
247.012	0.3262
247.2271	0.3318
247.4423	0.3153
247.6574	0.3169
247.8725	0.3052
248.0876	0.3166
248.3026	0.291
248.5177	0.2958
248.7328	0.2911
248.9478	0.291
249.1628	0.2769
249.3779	0.2505
249.5929	0.2723
249.8079	0.2569
250.0228	0.2605
250.2378	0.2558
250.4528	0.2399
250.6677	0.2387
250.8827	0.2377
251.0976	0.2568
251.3125	0.2366
251.5274	0.249
251.7423	0.2427
251.9572	0.2167
252.172	0.2188
252.3869	0.2226
252.6017	0.2139
252.8166	0.2204
253.0314	0.2149
253.2462	0.2053
253.461	0.2168
253.6758	0.2048
253.8906	0.217
254.1053	0.1973
254.3201	0.2009
254.5348	0.2043
254.7496	0.2013
254.9643	0.1976
255.179	0.2036
255.3937	0.2004
255.6083	0.1964
255.823	0.1831
256.0377	0.175
256.2523	0.1977
256.467	0.2
256.6816	0.1845
256.8962	0.195
257.1108	0.2002
257.3254	0.1921
257.54	0.1825
257.7545	0.1905
257.9691	0.1997
258.1836	0.1693
258.3981	0.1784
258.6127	0.1878
258.8272	0.1978
259.0417	0.1704
259.2561	0.1722
259.4706	0.1897
259.6851	0.1752
259.8995	0.1899
260.114	0.1706
260.3284	0.1777
260.5428	0.1867
260.7572	0.2003
260.9716	0.1944
261.186	0.1972
261.4003	0.1808
261.6147	0.203
261.829	0.1986
262.0433	0.1805
262.2577	0.1853
262.472	0.1847
262.6863	0.1883
262.9005	0.1962
263.1148	0.1858
263.3291	0.1859
263.5433	0.172
263.7576	0.1959
263.9718	0.183
264.186	0.1846
264.4002	0.2078
264.6144	0.1927
264.8286	0.1816
265.0427	0.195
265.2569	0.1974
265.471	0.1933
265.6851	0.184
265.8993	0.1816
266.1134	0.1792
266.3275	0.1888
266.5415	0.1873
266.7556	0.1828
266.9697	0.1915
267.1837	0.1897
267.3978	0.194
267.6118	0.1963
267.8258	0.2082
268.0398	0.1958
268.2538	0.1943
268.4677	0.2089
268.6817	0.1924
268.8957	0.1917
269.1096	0.1968
269.3235	0.1855
269.5374	0.1856
269.7514	0.1792
269.9652	0.1864
270.1791	0.1877
270.393	0.1841
270.6068	0.193
270.8207	0.1966
271.0345	0.1742
271.2483	0.1909
271.4622	0.1891
271.676	0.186
271.8897	0.1858
272.1035	0.1879
272.3173	0.194
272.531	0.1772
272.7448	0.1697
272.9585	0.1763
273.1722	0.189
273.3859	0.1771
273.5996	0.1886
273.8133	0.1916
274.0269	0.19
274.2406	0.1921
274.4542	0.1926
274.6679	0.1876
274.8815	0.1885
275.0951	0.1901
275.3087	0.1847
275.5223	0.1887
275.7358	0.1833
275.9494	0.1738
276.1629	0.1733
276.3765	0.195
276.59	0.1833
276.8035	0.1773
277.017	0.1817
277.2305	0.1847
277.444	0.1805
277.6574	0.1922
277.8709	0.1721
278.0843	0.1907
278.2978	0.1971
278.5112	0.1929
278.7246	0.1985
278.938	0.1886
279.1513	0.1895
279.3647	0.1798
279.5781	0.1995
279.7914	0.1885
280.0047	0.1918
280.2181	0.1905
280.4314	0.1911
280.6447	0.1808
280.8579	0.1973
281.0712	0.1953
281.2845	0.2017
281.4977	0.1972
281.711	0.1855
281.9242	0.2017
282.1374	0.1782
282.3506	0.1912
282.5638	0.1952
282.7769	0.1913
282.9901	0.1885
283.2033	0.1928
283.4164	0.1852
283.6295	0.1737
283.8426	0.1892
284.0557	0.1976
284.2688	0.1742
284.4819	0.1893
284.695	0.178
284.908	0.1892
285.1211	0.2007
285.3341	0.1857
285.5471	0.1897
285.7601	0.1998
285.9731	0.194
286.1861	0.1983
286.3991	0.181
286.612	0.184
286.825	0.1897
287.0379	0.1986
287.2508	0.1871
287.4637	0.1837
287.6766	0.1766
287.8895	0.1726
288.1024	0.1806
288.3152	0.1868
288.5281	0.1847
288.7409	0.1777
288.9538	0.1872
289.1666	0.1908
289.3794	0.171
289.5922	0.1717
289.8049	0.1709
290.0177	0.165
290.2304	0.1761
290.4432	0.1702
290.6559	0.1877
290.8686	0.1724
291.0813	0.1655
291.294	0.1924
291.5067	0.1745
291.7194	0.1602
291.932	0.1816
292.1447	0.1775
292.3573	0.1701
292.5699	0.1752
292.7825	0.1594
292.9951	0.1865
293.2077	0.1819
293.4203	0.1798
293.6328	0.1698
293.8454	0.1721
294.0579	0.1758
294.2704	0.1597
294.4829	0.1756
294.6954	0.1804
294.9079	0.1709
295.1204	0.1798
295.3328	0.1687
295.5453	0.1662
295.7577	0.167
295.9701	0.1652
296.1825	0.1632
296.3949	0.1619
296.6073	0.1572
296.8197	0.1707
297.0321	0.1685
297.2444	0.157
297.4567	0.1583
297.6691	0.1688
297.8814	0.1656
298.0937	0.1658
298.306	0.1739
298.5182	0.1681
298.7305	0.1721
298.9428	0.1752
299.155	0.1558
299.3672	0.1485
299.5794	0.1607
299.7916	0.157
300.0038	0.1575
300.216	0.163
300.4282	0.171
300.6403	0.1746
300.8525	0.1614
301.0646	0.1692
301.2767	0.1608
301.4888	0.1616
301.7009	0.1585
301.913	0.1667
302.125	0.1602
302.3371	0.1615
302.5491	0.1605
302.7612	0.1569
302.9732	0.1594
303.1852	0.1619
303.3972	0.1768
303.6092	0.1648
303.8211	0.1671
304.0331	0.1499
304.245	0.1527
304.457	0.1562
304.6689	0.1526
304.8808	0.1468
305.0927	0.153
305.3046	0.1564
305.5164	0.1601
305.7283	0.1543
305.9401	0.152
306.152	0.1479
306.3638	0.1363
306.5756	0.1458
306.7874	0.1476
306.9992	0.1412
307.2109	0.1535
307.4227	0.1525
307.6344	0.1408
307.8462	0.1302
308.0579	0.146
308.2696	0.1517
308.4813	0.132
308.693	0.1369
308.9046	0.134
309.1163	0.1294
309.328	0.1347
309.5396	0.134
309.7512	0.1298
309.9628	0.1308
310.1744	0.1348
310.386	0.1228
310.5976	0.1248
310.8091	0.1259
311.0207	0.1232
311.2322	0.1176
311.4437	0.1246
311.6552	0.1224
311.8667	0.1156
312.0782	0.1193
312.2897	0.1113
312.5012	0.1183
312.7126	0.1287
312.924	0.1033
313.1355	0.1333
313.3469	0.1185
313.5583	0.1003
313.7696	0.1258
313.981	0.1225
314.1924	0.1157
314.4037	0.1086
314.6151	0.1127
314.8264	0.116
315.0377	0.1053
315.249	0.1142
315.4603	0.1135
315.6716	0.1126
315.8828	0.1154
316.0941	0.0894
316.3053	0.11
316.5165	0.1166
316.7277	0.0979
316.9389	0.1218
317.1501	0.1099
317.3613	0.0988
317.5724	0.1047
317.7836	0.1116
317.9947	0.1273
318.2058	0.1089
318.417	0.1188
318.6281	0.1096
318.8391	0.1052
319.0502	0.1029
319.2613	0.1115
319.4723	0.112
319.6834	0.1078
319.8944	0.0967
320.1054	0.1165
320.3164	0.1224
320.5274	0.1001
320.7383	0.1177
320.9493	0.1081
321.1602	0.1199
321.3712	0.1041
321.5821	0.1182
321.793	0.1188
322.0039	0.1114
322.2148	0.1164
322.4257	0.1044
322.6365	0.1143
322.8474	0.1078
323.0582	0.1248
323.269	0.1074
323.4798	0.1161
323.6906	0.107
323.9014	0.1182
324.1122	0.1063
324.3229	0.1231
324.5337	0.1115
324.7444	0.1166
324.9551	0.1236
325.1658	0.1216
325.3765	0.1152
325.5872	0.1219
325.7979	0.1257
326.0085	0.106
326.2192	0.1001
326.4298	0.1294
326.6404	0.1139
326.851	0.1214
327.0616	0.1215
327.2722	0.1293
327.4828	0.1339
327.6933	0.1171
327.9039	0.1198
328.1144	0.1162
328.3249	0.1155
328.5354	0.1084
328.7459	0.1166
328.9564	0.1176
329.1669	0.1252
329.3773	0.1202
329.5878	0.1101
329.7982	0.1189
330.0086	0.1023
330.219	0.1161
330.4294	0.1053
330.6398	0.111
330.8502	0.1373
331.0605	0.13
331.2708	0.1102
331.4812	0.114
331.6915	0.116
331.9018	0.1184
332.1121	0.1247
332.3224	0.122
332.5326	0.1182
332.7429	0.1123
332.9531	0.1187
333.1633	0.1237
333.3735	0.1117
333.5837	0.1085
333.7939	0.0995
334.0041	0.1197
334.2143	0.127
334.4244	0.1185
334.6346	0.1018
334.8447	0.1286
335.0548	0.1237
335.2649	0.1159
335.475	0.1235
335.685	0.0952
335.8951	0.1232
336.1051	0.1179
336.3152	0.1215
336.5252	0.1203
336.7352	0.1283
336.9452	0.132
337.1552	0.1358
337.3652	0.125
337.5751	0.1324
337.7851	0.1106
337.995	0.1287
338.2049	0.111
338.4148	0.1307
338.6247	0.1069
338.8346	0.1365
339.0445	0.1211
339.2543	0.1381
339.4642	0.139
339.674	0.1289
339.8838	0.1265
340.0936	0.1396
340.3034	0.1296
340.5132	0.1422
340.7229	0.1297
340.9327	0.129
341.1424	0.1294
341.3522	0.1143
341.5619	0.1222
341.7716	0.1279
341.9813	0.1279
342.1909	0.129
342.4006	0.1242
342.6102	0.1278
342.8199	0.1171
343.0295	0.144
343.2391	0.1403
343.4487	0.1356
343.6583	0.1295
343.8679	0.1297
344.0774	0.1389
344.287	0.1352
344.4965	0.1409
344.706	0.1478
344.9155	0.1379
345.125	0.1322
345.3345	0.1384
345.544	0.1454
345.7534	0.1332
345.9629	0.1374
346.1723	0.1391
346.3817	0.141
346.5911	0.144
346.8005	0.1348
347.0099	0.137
347.2193	0.1307
347.4286	0.1375
347.638	0.1504
347.8473	0.1275
348.0566	0.1398
348.2659	0.1457
348.4752	0.1447
348.6845	0.139
348.8937	0.1422
349.103	0.1351
349.3122	0.1337
349.5214	0.1544
349.7306	0.1405
349.9398	0.1392
350.149	0.1463
350.3582	0.1529
350.5674	0.1411
350.7765	0.1463
350.9856	0.1472
351.1948	0.1461
351.4039	0.1559
351.613	0.16
351.822	0.1468
352.0311	0.1465
352.2402	0.1429
352.4492	0.1437
352.6582	0.1379
352.8672	0.137
353.0762	0.1461
353.2852	0.1523
353.4942	0.1488
353.7032	0.148
353.9121	0.164
354.1211	0.1523
354.33	0.1524
354.5389	0.1586
354.7478	0.1696
354.9567	0.1659
355.1655	0.1612
355.3744	0.1504
355.5833	0.1811
355.7921	0.1507
356.0009	0.1585
356.2097	0.1383
356.4185	0.1409
356.6273	0.1593
356.8361	0.1568
357.0448	0.1422
357.2536	0.1539
357.4623	0.1577
357.671	0.162
357.8797	0.1633
358.0884	0.1835
358.2971	0.1583
358.5057	0.1622
358.7144	0.1611
358.923	0.1563
359.1316	0.1674
359.3402	0.1821
359.5488	0.1655
359.7574	0.1549
359.966	0.1673
360.1746	0.1658
360.3831	0.173
360.5916	0.1859
360.8002	0.1748
361.0087	0.1709
361.2172	0.1698
361.4256	0.1806
361.6341	0.1721
361.8426	0.1646
362.051	0.1767
362.2594	0.1786
362.4678	0.1819
362.6762	0.1766
362.8846	0.1808
363.093	0.1596
363.3014	0.1767
363.5097	0.1757
363.718	0.179
363.9264	0.182
364.1347	0.1823
364.343	0.164
364.5513	0.1807
364.7595	0.1789
364.9678	0.1874
365.176	0.1887
365.3842	0.1768
365.5925	0.169
365.8007	0.1804
366.0089	0.1905
366.217	0.1873
366.4252	0.1949
366.6333	0.1955
366.8415	0.2009
367.0496	0.1966
367.2577	0.196
367.4658	0.1951
367.6739	0.1935
367.882	0.2038
368.09	0.1984
368.2981	0.1862
368.5061	0.1938
368.7141	0.1958
368.9221	0.1845
369.1301	0.1796
369.3381	0.2067
369.5461	0.1843
369.754	0.189
369.962	0.178
370.1699	0.2019
370.3778	0.205
370.5857	0.1958
370.7936	0.197
371.0015	0.1939
371.2093	0.2102
371.4172	0.2049
371.625	0.1914
371.8328	0.214
372.0406	0.1846
372.2484	0.186
372.4562	0.2197
372.664	0.2006
372.8717	0.1976
373.0795	0.1892
373.2872	0.2052
373.4949	0.1849
373.7026	0.2041
373.9103	0.2078
374.118	0.192
374.3256	0.2096
374.5333	0.1967
374.7409	0.1911
374.9485	0.1955
375.1561	0.2147
375.3637	0.1961
375.5713	0.204
375.7789	0.2129
375.9864	0.2036
376.194	0.1984
376.4015	0.2163
376.609	0.1942
376.8165	0.2035
377.024	0.1939
377.2315	0.193
377.4389	0.2048
377.6464	0.2003
377.8538	0.2021
378.0612	0.1976
378.2686	0.2099
378.476	0.192
378.6834	0.2158
378.8908	0.1953
379.0981	0.2134
379.3055	0.2166
379.5128	0.2153
379.7201	0.2106
379.9274	0.2076
380.1347	0.2086
380.342	0.2027
380.5492	0.2213
380.7565	0.2146
380.9637	0.2261
381.1709	0.2127
381.3781	0.2221
381.5853	0.2148
381.7925	0.2234
381.9997	0.1944
382.2068	0.2268
382.4139	0.2134
382.6211	0.1998
382.8282	0.2108
383.0353	0.198
383.2424	0.2282
383.4494	0.2075
383.6565	0.2142
383.8635	0.2091
384.0706	0.2203
384.2776	0.2227
384.4846	0.2138
384.6916	0.2256
384.8986	0.2057
385.1055	0.201
385.3125	0.2093
385.5194	0.1924
385.7263	0.2076
385.9333	0.2043
386.1402	0.2057
386.347	0.2181
386.5539	0.2092
386.7608	0.2114
386.9676	0.2109
387.1744	0.2087
387.3813	0.2088
387.5881	0.216
387.7948	0.2152
388.0016	0.2074
388.2084	0.2188
388.4151	0.2105
388.6219	0.2159
388.8286	0.1949
389.0353	0.1834
389.242	0.2235
389.4487	0.2112
389.6553	0.1939
389.862	0.2096
390.0686	0.2092
390.2753	0.2026
390.4819	0.1976
390.6885	0.2053
390.8951	0.1879
391.1016	0.1902
391.3082	0.2029
391.5147	0.1914
391.7213	0.1781
391.9278	0.195
392.1343	0.1945
392.3408	0.1982
392.5473	0.1895
392.7537	0.1851
392.9602	0.201
393.1666	0.1885
393.373	0.1858
393.5794	0.1932
393.7858	0.1891
393.9922	0.2116
394.1986	0.2007
394.4049	0.175
394.6113	0.1734
394.8176	0.197
395.0239	0.1844
395.2302	0.1773
395.4365	0.1771
395.6428	0.186
395.8491	0.1746
396.0553	0.2014
396.2615	0.1715
396.4678	0.1811
396.674	0.165
396.8802	0.1748
397.0863	0.1818
397.2925	0.167
397.4987	0.1804
397.7048	0.1761
397.9109	0.1784
398.117	0.1599
398.3231	0.1786
398.5292	0.1876
398.7353	0.1748
398.9413	0.1674
399.1474	0.1785
399.3534	0.1692
399.5594	0.1838
399.7654	0.1685
399.9714	0.1714
400.1774	0.152
400.3833	0.1776
400.5893	0.1537
400.7952	0.1748
401.0011	0.182
401.207	0.1766
401.4129	0.1628
401.6188	0.1765
401.8247	0.1656
402.0305	0.1728
402.2364	0.1766
402.4422	0.1914
402.648	0.1523
402.8538	0.1614
403.0596	0.1564
403.2654	0.1737
403.4711	0.1533
403.6768	0.1607
403.8826	0.1749
404.0883	0.1598
404.294	0.1777
404.4997	0.1667
404.7054	0.1578
404.911	0.1762
405.1167	0.1632
405.3223	0.1748
405.5279	0.1715
405.7335	0.1769
405.9391	0.1633
406.1447	0.1594
406.3502	0.1599
406.5558	0.1626
406.7613	0.1819
406.9668	0.1608
407.1724	0.1558
407.3778	0.1767
407.5833	0.1671
407.7888	0.1825
407.9942	0.1621
408.1997	0.1606
408.4051	0.1598
408.6105	0.1719
408.8159	0.1614
409.0213	0.1575
409.2267	0.1657
409.432	0.168
409.6374	0.1667
409.8427	0.152
410.048	0.1641
410.2533	0.1584
410.4586	0.1469
410.6639	0.1729
410.8691	0.1577
411.0744	0.1708
411.2796	0.1561
411.4848	0.164
411.69	0.1637
411.8952	0.1547
412.1004	0.1657
412.3056	0.1574
412.5107	0.1667
412.7158	0.1501
412.921	0.182
413.1261	0.1723
413.3312	0.1551
413.5362	0.1561
413.7413	0.1652
413.9464	0.1714
414.1514	0.1644
414.3564	0.1455
414.5614	0.1396
414.7664	0.1629
414.9714	0.1584
415.1764	0.1813
415.3813	0.1622
415.5863	0.154
415.7912	0.1503
415.9961	0.1772
416.201	0.1556
416.4059	0.1512
416.6108	0.1639
416.8156	0.1758
417.0205	0.1615
417.2253	0.157
417.4301	0.1562
417.6349	0.1684
417.8397	0.1427
418.0445	0.1482
418.2492	0.1531
418.454	0.1552
418.6587	0.162
418.8634	0.1648
419.0681	0.1525
419.2728	0.1393
419.4775	0.1733
419.6822	0.1663
419.8868	0.1472
420.0915	0.1467
420.2961	0.1544
420.5007	0.1482
420.7053	0.1411
420.9099	0.1699
421.1144	0.1586
421.319	0.1416
421.5235	0.1617
421.728	0.1491
421.9325	0.1747
422.137	0.1409
422.3415	0.1463
422.546	0.1338
422.7504	0.1662
422.9549	0.1518
423.1593	0.1487
423.3637	0.1469
423.5681	0.1185
423.7725	0.1412
423.9769	0.1412
424.1812	0.1477
424.3856	0.1341
424.5899	0.1426
424.7942	0.1253
424.9985	0.152
425.2028	0.1204
425.4071	0.1343
425.6113	0.1419
425.8156	0.159
426.0198	0.1376
426.224	0.1481
426.4282	0.1465
426.6324	0.1282
426.8366	0.136
427.0407	0.1275
427.2449	0.1274
427.449	0.1177
427.6531	0.1142
427.8572	0.1182
428.0613	0.1275
428.2654	0.104
428.4694	0.1352
428.6735	0.1341
428.8775	0.1279
429.0815	0.1097
429.2855	0.1212
429.4895	0.1068
429.6935	0.1152
429.8975	0.115
430.1014	0.0978
430.3053	0.115
430.5093	0.1279
430.7132	0.0907
430.9171	0.1062
431.1209	0.1089
431.3248	0.1088
431.5286	0.0987
431.7325	0.1182
431.9363	0.0805
432.1401	0.0979
432.3439	0.0941
432.5477	0.0944
432.7514	0.0807
432.9552	0.0979
433.1589	0.1066
433.3627	0.0984
433.5664	0.1032
433.7701	0.0814
433.9737	0.0918
434.1774	0.0871
434.3811	0.1006
434.5847	0.102
434.7883	0.0932
434.9919	0.0762
435.1955	0.0836
435.3991	0.088
435.6027	0.0944
435.8062	0.0783
436.0098	0.0868
436.2133	0.0746
436.4168	0.0717
436.6203	0.0839
436.8238	0.0569
437.0272	0.0742
437.2307	0.09
437.4341	0.0552
437.6375	0.08
437.841	0.075
438.0443	0.0731
438.2477	0.0744
438.4511	0.0519
438.6545	0.0871
438.8578	0.0776
439.0611	0.0675
439.2644	0.0473
439.4677	0.0561
439.671	0.0444
439.8743	0.0505
440.0775	0.0687
440.2808	0.0537
440.484	0.0434
440.6872	0.0547
440.8904	0.0565
441.0936	0.0434
441.2967	0.0326
441.4999	0.0449
441.703	0.0541
441.9062	0.0573
442.1093	0.0499
442.3124	0.0518
442.5155	0.041
442.7185	0.0554
442.9216	0.0347
443.1246	0.0458
443.3276	0.0372
443.5307	0.0468
443.7337	0.0396
443.9366	0.0405
444.1396	0.0414
444.3426	0.0356
444.5455	0.0423
444.7484	0.0415
444.9513	0.0345
445.1542	0.0246
445.3571	0.0459
445.56	0.0432
445.7628	0.0517
445.9657	0.0297
446.1685	0.0342
446.3713	0.0359
446.5741	0.0362
446.7769	0.0411
446.9797	0.0357
447.1824	0.0217
447.3852	0.0497
447.5879	0.0282
447.7906	0.037
447.9933	0.0302
448.196	0.0431
448.3986	0.0371
448.6013	0.0051
448.8039	0.0275
449.0066	0.0088
449.2092	0.033
449.4118	0.0309
449.6143	0.0123
449.8169	0.0204
450.0195	0.0097
450.222	0.0058
450.4245	0.0056
450.627	0.0147
450.8295	0.0162
451.032	0.0053
451.2345	0.0036
451.4369	0.0196
451.6394	0.0207
451.8418	0.0024
452.0442	0.0096
452.2466	0.0064
452.449	0.006
452.6513	0.0243
452.8537	0.0246
453.056	0.007
453.2583	0.0055
453.4607	-0.0012
453.663	0.0054
453.8652	0.0158
454.0675	0.001
454.2697	0.0078
454.472	0.0115
454.6742	0.0255
454.8764	-0.0004
455.0786	-0.0136
455.2808	-0.0011
455.4829	0.015
455.6851	0.0187
455.8872	0.0145
456.0893	0.0199
456.2915	0.0024
456.4935	-0.0028
456.6956	-0.0102
456.8977	0.0018
457.0997	0.0168
457.3018	0.0094
457.5038	0.0027
457.7058	0.001
457.9078	-0.0015
458.1098	0.007
458.3117	0.0194
458.5137	-0.0029
458.7156	0.0064
458.9175	-0.0055
459.1194	0.0001
459.3213	0.0014
459.5232	0.0036
459.725	-0.0006
459.9269	0.0019
460.1287	0.0158
460.3305	0.0028
460.5323	0.0149
460.7341	-0.0063
460.9359	0.0115
461.1376	0.012
461.3394	-0.0194
461.5411	-0.01
461.7428	0.0144
461.9445	0.0027
462.1462	0.0038
462.3479	-0.0048
462.5495	-0.0049
462.7512	0.0088
462.9528	0.0006
463.1544	0.0083
463.356	-0.0072
463.5576	-0.0114
463.7592	-0.0249
463.9607	0.0096
464.1623	-0.0109
464.3638	0.0149
464.5653	-0.017
464.7668	-0.0133
464.9683	-0.0041
465.1697	0.0001
465.3712	0.0012
465.5726	0.0113
465.7741	0.0239
465.9755	-0.0237
466.1769	0.011
466.3782	0.0064
466.5796	-0.0077
466.7809	0.0015
466.9823	0.0042
467.1836	0.0157
467.3849	0.0097
467.5862	-0.0045
467.7875	0.0101
467.9887	0.0027
468.19	0.0013
468.3912	0.0044
468.5924	-0.0001
468.7936	0.0054
468.9948	-0.0132
469.196	-0.002
469.3972	-0.0077
469.5983	0.0011
469.7994	-0.0046
470.0006	-0.0079
470.2017	0.0143
470.4027	0.0014
470.6038	-0.0043
470.8049	0.0039
471.0059	-0.0033
471.2069	-0.0174
471.408	-0.0024
471.6089	-0.0137
471.8099	0.0163
472.0109	0.0078
472.2119	0.009
472.4128	-0.0117
472.6137	-0.0027
472.8146	-0.005
473.0155	-0.0156
473.2164	-0.006
473.4173	0.0018
473.6181	-0.0175
473.819	-0.0124
474.0198	-0.0039
474.2206	-0.0147
474.4214	0.0077
474.6222	-0.0096
474.8229	0.0053
475.0237	0.0086
475.2244	-0.0077
475.4251	-0.0045
475.6258	-0.0079
475.8265	-0.0128
476.0272	-0.0138
476.2278	-0.0027
476.4285	-0.0098
476.6291	-0.005
476.8297	0.0072
477.0303	0.0074
477.2309	-0.0051
477.4315	-0.0018
477.632	-0.0173
477.8326	0.0005
478.0331	-0.0261
478.2336	-0.0051
478.4341	-0.0135
478.6346	-0.0018
478.8351	-0.0044
479.0355	-0.0163
479.236	-0.0213
479.4364	-0.0149
479.6368	0.0052
479.8372	-0.0014
480.0376	-0.0163
480.2379	-0.0134
480.4383	-0.0056
480.6386	-0.0116
480.8389	-0.0039
481.0392	-0.0039
481.2395	0.0002
481.4398	-0.0134
481.6401	-0.0049
481.8403	-0.001
482.0405	-0.0113
482.2408	-0.026
482.441	-0.0138
482.6411	-0.0062
482.8413	-0.0135
483.0415	-0.008
483.2416	-0.0115
483.4417	-0.0019
483.6419	-0.0063
483.8419	-0.0095
484.042	0.0068
484.2421	-0.0099
484.4422	-0.0129
484.6422	-0.006
484.8422	-0.0123
485.0422	0.0107
485.2422	-0.0111
485.4422	-0.0054
485.6422	-0.0086
485.8421	-0.0034
486.042	-0.0042
486.242	-0.0129
486.4419	-0.009
486.6417	-0.0015
486.8416	-0.0137
487.0415	-0.0072
487.2413	-0.0086
487.4411	0.0014
487.641	0.0022
487.8408	-0.0126
488.0405	-0.0089
488.2403	-0.0152
488.4401	0.0049
488.6398	-0.0094
488.8395	-0.0077
489.0392	0.0011
489.2389	-0.0103
489.4386	-0.0177
489.6383	-0.0084
489.8379	-0.0088
490.0376	0.0047
490.2372	-0.0063
490.4368	-0.0057
490.6364	0.0012
490.836	-0.0034
491.0355	-0.0155
491.2351	-0.0084
491.4346	-0.0017
491.6341	-0.0034
491.8336	-0.0107
492.0331	-0.0036
492.2326	-0.0129
492.432	0.0036
492.6315	-0.0052
492.8309	-0.0096
493.0303	-0.0081
493.2297	-0.0134
493.4291	-0.0116
493.6284	-0.017
493.8278	-0.0109
494.0271	-0.0028
494.2264	-0.0126
494.4257	-0.0076
494.625	-0.0042
494.8243	-0.0046
495.0236	-0.0108
495.2228	-0.0067
495.422	-0.002
495.6213	-0.0082
495.8205	-0.0059
496.0196	-0.0108
496.2188	-0.0046
496.418	-0.0087
496.6171	-0.0098
496.8162	-0.0127
497.0153	0.0028
497.2144	-0.0111
497.4135	-0.012
497.6126	-0.0215
497.8116	-0.0186
498.0107	-0.0111
498.2097	-0.0096
498.4087	-0.0122
498.6077	-0.0158
498.8067	0.0032
499.0056	-0.0108
499.2046	-0.0023
499.4035	-0.0116
499.6024	-0.0136
499.8013	-0.006
500.0002	-0.0092
500.199	-0.0126
500.3979	0.0002
500.5967	-0.0083
500.7956	-0.0042
500.9944	-0.0086
501.1932	-0.0085
501.3919	-0.0026
501.5907	-0.0053
501.7895	-0.027
501.9882	-0.0068
502.1869	-0.0125
502.3856	-0.0207
502.5843	-0.0032
502.783	-0.0062
502.9816	-0.0018
503.1803	-0.0032
503.3789	-0.0039
503.5775	-0.0082
503.7761	-0.007
503.9747	-0.0046
504.1732	-0.0124
504.3718	0.007
504.5703	-0.0034
504.7689	-0.0092
504.9674	-0.0117
505.1658	-0.0079
505.3643	-0.0095
505.5628	-0.0101
505.7612	-0.0078
505.9597	-0.0171
506.1581	0.0027
506.3565	-0.0049
506.5549	-0.006
506.7532	-0.0066
506.9516	-0.0075
507.1499	-0.0136
507.3482	-0.005
507.5465	0.0042
507.7448	-0.0034
507.9431	-0.0047
508.1414	-0.013
508.3396	-0.0119
508.5379	0.0032
508.7361	-0.008
508.9343	-0.009
509.1325	0.0032
509.3306	-0.0122
509.5288	-0.0146
509.7269	-0.0012
509.9251	0.0024
510.1232	-0.0047
510.3213	0.0115
510.5193	-0.0042
510.7174	-0.0139
510.9154	-0.0037
511.1135	-0.0119
511.3115	-0.0075
511.5095	-0.0073
511.7075	-0.0047
511.9055	-0.0115
512.1034	-0.0022
512.3014	-0.0091
512.4993	-0.0008
512.6972	-0.0049
512.8951	0.0001
513.093	-0.0137
513.2908	0.0004
513.4887	0.0036
513.6865	0.014
513.8844	-0.0024
514.0822	0.0035
514.2799	-0.0148
514.4777	-0.0005
514.6755	0.0061
514.8732	-0.0028
515.0709	-0.0062
515.2687	-0.0021
515.4664	-0.0037
515.664	-0.0059
515.8617	0.0064
516.0594	-0.0069
516.257	-0
516.4546	-0.0151
516.6522	-0.0037
516.8498	-0.0121
517.0474	0.0032
517.2449	-0.0033
517.4425	0.0044
517.64	-0.0176
517.8375	-0.0003
518.035	-0.0072
518.2325	-0.013
518.43	-0.0048
518.6274	-0.0058
518.8249	0.0034
519.0223	-0.002
519.2197	0.0026
519.4171	-0.0056
519.6145	0.0024
519.8118	-0.0123
520.0092	-0.011
520.2065	-0.0068
520.4038	-0.0194
520.6011	-0.0051
520.7984	-0.005
520.9956	0.0012
521.1929	-0.0038
521.3901	0.0001
521.5874	-0.0004
521.7846	0.0044
521.9818	-0.0002
522.1789	0.001
522.3761	0.0081
522.5732	-0.009
522.7704	-0.0058
522.9675	-0.0135
523.1646	0.0015
523.3617	-0.0015
523.5587	-0.0015
523.7558	-0.0028
523.9528	-0.0108
524.1498	-0.0015
524.3468	-0.0058
524.5438	0.0037
524.7408	-0.008
524.9378	0.014
525.1347	0.0006
525.3316	-0.0011
525.5285	-0.0135
525.7254	-0.0047
525.9223	-0.0067
526.1192	-0.0139
526.316	0.0021
526.5129	0.0009
526.7097	0.0077
526.9065	0.0027
527.1033	-0.0035
527.3	-0.007
527.4968	-0.0125
527.6935	-0.0022
527.8903	-0.0078
528.087	0.0007
528.2837	0.0048
528.4804	0.0103
528.677	0.0016
528.8737	0.0127
529.0703	0.0025
529.2669	-0.0112
529.4635	-0.0047
529.6601	0.0016
529.8567	0.002
530.0532	-0.0016
530.2498	-0.0087
530.4463	-0.0105
530.6428	-0.0105
530.8393	-0.0025
531.0358	-0.0023
531.2322	0.0036
531.4287	-0.0035
531.6251	0.0026
531.8215	-0.0008
532.0179	-0.0006
532.2143	-0.0005
532.4107	0.0009
532.607	0.0036
532.8034	-0.0064
532.9997	0.0006
533.196	0.0017
533.3923	-0.0011
533.5886	-0.0097
533.7848	-0.0053
533.9811	0.0037
534.1773	-0.0088
534.3735	-0.011
534.5697	-0.0082
534.7659	-0.0052
534.9621	-0.0018
535.1582	-0.0059
535.3544	-0.0002
535.5505	-0.0057
535.7466	-0.0003
535.9427	-0.007
536.1387	0.0019
536.3348	-0.0061
536.5308	-0.0146
536.7269	0.0054
536.9229	-0.0026
537.1189	-0.0003
537.3148	-0.0096
537.5108	-0.0008
537.7068	-0.0067
537.9027	-0.0021
538.0986	-0.0091
538.2945	-0.0031
538.4904	0.018
538.6863	-0.0007
538.8821	-0.0056
539.078	-0.0007
539.2738	0.0072
539.4696	-0.0107
539.6654	0.0008
539.8611	0.0091
540.0569	-0.0062
540.2526	0.0113
540.4484	0.0003
540.6441	0.0037
540.8398	-0.0056
541.0355	-0.0037
541.2311	-0.0001
541.4268	-0.0064
541.6224	0.0124
541.818	-0.0033
542.0136	-0.0026
542.2092	0.0098
542.4048	0.0028
542.6003	-0.0023
542.7959	0.0021
542.9914	0.008
543.1869	0.0042
543.3824	-0.0069
543.5779	0.0003
543.7734	-0.0042
543.9688	-0.0013
544.1642	-0.0059
544.3596	-0.0009
544.555	-0.0084
544.7504	0.0094
544.9458	0.0021
545.1411	0.0037
545.3365	0.0016
545.5318	0.0033
545.7271	0.0044
545.9224	0.0071
546.1177	-0.0171
546.3129	-0.0067
546.5081	-0.0129
546.7034	0.0047
546.8986	0.0002
547.0938	-0.0002
547.289	0.0038
547.4841	0.0096
547.6793	-0.002
547.8744	0.0017
548.0695	0.0066
548.2646	-0.0058
548.4597	-0.0047
548.6548	0.0007
548.8498	0.0023
549.0448	-0.0019
549.2399	0.0024
549.4349	0.0048
549.6298	0.0072
549.8248	-0.0014
550.0198	0.0011
550.2147	-0.0019
550.4096	0.0027
550.6045	-0.009
550.7994	-0.0065
550.9943	-0.0074
551.1892	-0.0093
551.384	0.0011
551.5788	0.0013
551.7737	-0.0009
551.9685	0.0103
552.1632	-0.0024
552.358	-0.0062
552.5528	-0.006
552.7475	-0.0114
552.9422	0.0066
553.1369	-0.0023
553.3316	-0.0044
553.5263	0.0062
553.7209	-0.0029
553.9156	-0.0002
554.1102	-0.0133
554.3048	-0.0052
554.4994	0.0068
554.694	0.0025
554.8885	-0.0014
555.0831	-0.0045
555.2776	0.0016
555.4721	0.0192
555.6666	-0.0069
555.8611	-0.0019
556.0555	0.0046
556.25	-0.002
556.4444	0.0064
556.6388	0.012
556.8332	-0.0012
557.0276	0.0036
557.222	-0.005
557.4163	-0.0005
557.6107	0.0133
557.805	0.0021
557.9993	0.0033
558.1936	0.0031
558.3879	0.0052
558.5821	0.017
558.7764	0.0051
558.9706	0.0003
559.1648	0.0019
559.359	0.0067
559.5532	0.0059
559.7473	0.0126
559.9415	0.0037
560.1356	-0.0028
560.3297	0.0021
560.5238	0.0065
560.7179	0.0112
560.9119	0.0008
561.106	-0.0038
561.3	0.0057
561.494	0.0009
561.688	0.0045
561.882	0.0095
562.076	-0.0038
562.2699	-0.0021
562.4639	0
562.6578	-0.0023
562.8517	0.0012
563.0456	-0.0007
563.2395	0.0056
563.4333	-0.0067
563.6272	0.0071
563.821	-0.0059
564.0148	0.0081
564.2086	-0.015
564.4024	-0.0053
564.5961	0.0046
564.7899	0.0008
564.9836	0.0049
565.1773	0.0068
565.371	0.0094
565.5647	-0.0011
565.7584	-0.006
565.952	0.0024
566.1456	0.0107
566.3393	0.007
566.5329	-0.001
566.7264	0.0063
566.92	-0.0018
567.1136	0.0077
567.3071	0.0051
567.5006	0.0064
567.6941	0.009
567.8876	-0.0006
568.0811	-0.0007
568.2745	-0.0006
568.468	0.0011
568.6614	0.0013
568.8548	0.006
569.0482	0.0086
569.2416	-0.0066
569.4349	0.0049
569.6283	0.0017
569.8216	-0.0021
570.0149	0.0035
570.2082	0.0088
570.4015	-0.0008
570.5947	0.0067
570.788	0.0049
570.9812	0.006
571.1744	-0.0012
571.3676	-0.0024
571.5608	-0.0019
571.754	-0.0016
571.9471	-0.0052
572.1402	-0.0022
572.3333	0.0007
572.5264	0.0108
572.7195	-0.0049
572.9126	0.0083
573.1057	-0.0054
573.2987	0.0034
573.4917	-0.0083
573.6847	-0.0049
573.8777	-0.0109
574.0707	0.0034
574.2636	0.0015
574.4566	0.0057
574.6495	0.0004
574.8424	0.0014
575.0353	-0.0006
575.2281	-0.0001
575.421	-0.0024
575.6138	0.0028
575.8067	-0.0098
575.9995	0.0016
576.1923	0.0022
576.385	-0.0005
576.5778	-0.0041
576.7706	0.0058
576.9633	0.0019
577.156	0.0019
577.3487	-0.002
577.5414	0.0007
577.734	-0.0106
577.9267	-0.002
578.1193	0.0011
578.3119	-0.0009
578.5045	0.0004
578.6971	0.0011
578.8897	-0.0055
579.0822	0.0003
579.2747	-0.0047
579.4673	0.0037
579.6598	0.0095
579.8522	0.0045
580.0447	-0.0011
580.2372	0.0047
580.4296	0.0099
580.622	0.0002
580.8144	0.0036
581.0068	0.0033
581.1992	-0.0006
581.3915	-0.0018
581.5839	0.0058
581.7762	0.0036
581.9685	0.0009
582.1608	0.0047
582.353	-0.0092
582.5453	-0.0055
582.7375	-0.0102
582.9298	-0.0038
583.122	0.0024
583.3142	-0.0017
583.5063	-0.0021
583.6985	-0.0076
583.8906	0.0024
584.0827	-0.0018
584.2749	-0.0018
584.4669	-0.0024
584.659	-0.0043
584.8511	0.0005
585.0431	-0.0013
585.2352	-0.0026
585.4272	-0.0013
585.6192	-0.0085
585.8111	-0.0052
586.0031	-0.0025
586.195	-0.0005
586.387	0.0004
586.5789	-0.0073
586.7708	0.0005
586.9627	-0.0036
587.1545	0.0046
587.3464	0.0055
587.5382	-0.0109
587.73	0.0087
587.9218	0.0062
588.1136	0.0053
588.3053	-0.0058
588.4971	-0.0035
588.6888	-0.0006
588.8805	-0.0066
589.0722	0.0095
589.2639	0.0025
589.4556	-0.0053
589.6472	-0.0083
589.8389	0.0032
590.0305	-0.0014
590.2221	0.0051
590.4137	0.0017
590.6052	0.0035
590.7968	0.0071
590.9883	-0.001
591.1798	-0.0045
591.3713	-0.0041
591.5628	-0.0053
591.7543	0.0091
591.9458	0.0063
592.1372	-0.0019
592.3286	0.0034
592.52	-0.0076
592.7114	0.0048
592.9028	-0
593.0941	0.0059
593.2855	0.0089
593.4768	-0.008
593.6681	-0.0023
593.8594	0.0009
594.0506	-0.0059
594.2419	0.0033
594.4331	-0.0032
594.6244	0.0014
594.8156	0.0046
595.0067	-0.0049
595.1979	-0.0074
595.3891	-0.0028
595.5802	-0.0035
595.7713	-0.0044
595.9624	0.003
596.1535	-0.0021
596.3446	0.0037
596.5357	-0.0051
596.7267	0.0001
596.9177	0.0016
597.1087	0.01
597.2997	0.0021
597.4907	-0.0044
597.6817	0
597.8726	0.0068
598.0635	0.0038
598.2544	0.0049
598.4453	0.0032
598.6362	0.0046
598.827	0.001
599.0179	-0.0011
599.2087	-0.0009
599.3995	0.0059
599.5903	0.0025
599.7811	0.0051
599.9718	0.0017
600.1626	0.0025
600.3533	-0.0024
600.544	-0.001
600.7347	0.0064
600.9254	-0.0031
601.116	0.0019
601.3067	-0.0098
601.4973	0.0019
601.6879	0.0016
601.8785	0.0062
602.0691	-0.0012
602.2596	0.0055
602.4502	0.0019
602.6407	0.0003
602.8312	0.0033
603.0217	0.0068
603.2122	-0.0082
603.4027	0.0005
603.5931	-0.0032
603.7835	0.0042
603.9739	0.0058
604.1643	0.0107
604.3547	0.0064
604.5451	0.0002
604.7354	0.0023
604.9257	0.0012
605.116	-0.0039
605.3063	-0.0019
605.4966	-0.0049
605.6869	0.0118
605.8771	0.0045
606.0673	0.0012
606.2575	0.005
606.4477	-0.0039
606.6379	0.0031
606.8281	-0.0047
607.0182	-0.0018
607.2083	-0.0008
607.3985	0.0015
607.5885	-0.0034
607.7786	0.0028
607.9687	0.0009
608.1587	0.003
608.3488	0.0057
608.5388	0.0021
608.7288	0.0016
608.9187	0.0033
609.1087	0.0026
609.2986	-0.0015
609.4886	0.0036
609.6785	-0.0002
609.8684	-0.0006
610.0582	0.0051
610.2481	0.0085
610.4379	0.0033
610.6278	-0.0038
610.8176	0.0042
611.0074	0.0021
611.1971	-0.0032
611.3869	-0.0059
611.5766	0.0009
611.7664	-0.0014
611.9561	0.0028
612.1458	0.0026
612.3354	0.0106
612.5251	0.004
612.7147	-0.0048
612.9044	0.0011
613.094	-0.0019
613.2836	0.0048
613.4731	0.0043
613.6627	0.0032
613.8522	0.0088
614.0417	0.0059
614.2313	0.0047
614.4207	0.0021
614.6102	0.0039
614.7997	-0.0043
614.9891	0.0028
615.1785	0.0027
615.3679	0.0075
615.5573	0.0023
615.7467	0.0009
615.9361	0.0092
616.1254	0.0029
616.3147	0.0019
616.504	0.0036
616.6933	-0.0038
616.8826	0.0084
617.0718	0.0009
617.2611	0.003
617.4503	0.0115
617.6395	0.0017
617.8287	0.0139
618.0179	0.0007
618.207	0.0035
618.3961	0.0025
618.5853	0.0039
618.7744	0.0073
618.9634	0.0011
619.1525	0.0075
619.3416	0.0074
619.5306	0.007
619.7196	-0.0009
619.9086	0.0139
620.0976	0.0053
620.2866	0.0002
620.4755	0.0111
620.6645	0.0104
620.8534	0.0064
621.0423	0.0004
621.2312	0.0069
621.42	0.0035
621.6089	0.0082
621.7977	0.0092
621.9865	0.0154
622.1753	0.0091
622.3641	0.0037
622.5529	0.008
622.7416	0.0094
622.9303	0.0111
623.1191	0.0083
623.3078	0.0104
623.4964	0.0075
623.6851	0.01
623.8737	0.0192
624.0624	-0.0008
624.251	0.007
624.4396	0.0026
624.6282	0.0101
624.8167	0.0073
625.0053	0.0044
625.1938	0.0051
625.3823	0.0098
625.5708	0.0018
625.7593	-0.0002
625.9477	0.0128
626.1362	0.003
626.3246	0.0085
626.513	-0.0002
626.7014	0.0047
626.8898	0.0034
627.0781	0.0043
627.2665	0.0035
627.4548	0.014
627.6431	0.0027
627.8314	0.0069
628.0197	0.0066
628.2079	0.0051
628.3962	0.0054
628.5844	0.0094
628.7726	0.008
628.9608	0.0141
629.1489	-0
629.3371	0.0093
629.5252	0.009
629.7134	0.0068
629.9015	0.0084
630.0895	0.0074
630.2776	0.0027
630.4657	0.0043
630.6537	0.0087
630.8417	0.0046
631.0297	0.017
631.2177	0.0092
631.4057	0.0065
631.5936	0.0069
631.7815	0.0143
631.9695	0.0141
632.1574	0.0069
632.3452	0.006
632.5331	0.0024
632.7209	0.0074
632.9088	-0.0006
633.0966	-0.0016
633.2844	0.0057
633.4722	0.0074
633.6599	0.0013
633.8477	0.0069
634.0354	0.0052
634.2231	0.0066
634.4108	0.0085
634.5985	0.0046
634.7861	0.0057
634.9738	0.0129
635.1614	0.0064
635.349	0.0018
635.5366	0.0013
635.7242	0.0075
635.9117	0.0074
636.0993	0.0037
636.2868	0.0036
636.4743	0.0008
636.6618	0.0032
636.8492	0.0178
637.0367	0.0056
637.2241	0.016
637.4115	0.0058
637.5989	0.014
637.7863	0.0037
637.9737	0.0046
638.161	0.0077
638.3484	0.0087
638.5357	0.0064
638.723	0.0021
638.9103	0.0039
639.0975	0.0029
639.2848	0.003
639.472	0.0073
639.6592	0.0026
639.8464	0.0114
640.0336	0.004
640.2208	0.006
640.4079	0.0004
640.595	0.005
640.7821	0.0009
640.9692	0.0077
641.1563	0.0013
641.3434	0.0026
641.5304	0.0056
641.7174	0.0115
641.9044	-0.0033
642.0914	0.0054
642.2784	-0.0017
642.4653	-0.0007
642.6523	-0.0023
642.8392	0.0018
643.0261	0.0078
643.213	-0.0027
643.3999	-0.0029
643.5867	0.0108
643.7735	0.001
643.9604	0.0032
644.1472	0.0014
644.3339	-0.0043
644.5207	0.0068
644.7075	-0.0057
644.8942	0.0013
645.0809	-0.0011
645.2676	0.0093
645.4543	0.013
645.6409	0.0033
645.8276	0.0018
646.0142	0.0024
646.2008	0.0162
646.3874	0.0074
646.574	-0.0016
646.7605	0.0054
646.9471	0.0066
647.1336	0.0118
647.3201	0.0124
647.5066	-0.0024
647.6931	-0.0006
647.8795	-0.0022
648.0659	0.0036
648.2524	0.0095
648.4388	0.003
648.6252	-0.0043
648.8115	0.0014
648.9979	-0.0003
649.1842	0.0024
649.3705	0.0017
649.5568	0.0062
649.7431	0.0099
649.9294	0.0116
650.1156	0.0074
650.3018	0.0058
650.488	0.0008
650.6742	-0.0025
650.8604	0.0025
651.0466	0.0081
651.2327	0.0015
651.4188	0.0059
651.6049	0.0141
651.791	0.0054
651.9771	0.009
652.1632	0.0107
652.3492	0.0063
652.5352	-0.0016
652.7212	0.0046
652.9072	-0.0037
653.0932	-0.0017
653.2791	0.0041
653.465	0.0028
653.651	0.0074
653.8369	0.0034
654.0227	0.0082
654.2086	0.0089
654.3944	0.0106
654.5803	0.0032
654.7661	0.0053
654.9519	-0.0024
655.1377	-0.0014
655.3234	-0.0028
655.5092	-0.0048
655.6949	-0.0072
655.8806	-0.0078
656.0663	0.0018
656.2519	-0.0054
656.4376	0.0059
656.6232	-0.0008
656.8088	0.0018
656.9945	-0.0056
657.18	0
657.3656	0.0072
657.5511	-0.007
657.7367	0.0058
657.9222	0.005
658.1077	0.0084
658.2932	0.0011
658.4786	-0.0085
658.6641	-0.0039
658.8495	0.004
659.0349	0.0087
659.2203	-0.0003
659.4057	0.0017
659.591	0.0025
659.7764	0.0032
659.9617	-0.0059
660.147	0.0053
660.3323	0.0054
660.5176	-0.0056
660.7028	0.0021
660.888	0.0064
661.0733	0.0056
661.2585	0.009
661.4436	0.0065
661.6288	0.0097
661.8139	0.0002
661.9991	-0.005
662.1842	0.0082
662.3693	0.0007
662.5544	0.0091
662.7394	0.003
662.9245	0.0101
663.1095	0.0095
663.2945	0.0027
663.4795	0.0057
663.6644	0.0017
663.8494	0.0053
664.0343	0.0034
664.2193	0.013
664.4042	0.008
664.589	0.0066
664.7739	0.0045
664.9587	-0.0044
665.1436	-0.0033
665.3284	0.0028
665.5132	0.0011
665.698	0.0044
665.8827	0.0107
666.0675	0.0051
666.2522	0.0061
666.4369	0.0053
666.6216	0.0077
666.8063	0.0003
666.9909	0.004
667.1756	0.0115
667.3602	0.0069
667.5448	0.0113
667.7294	0.0069
667.9139	0.0035
668.0985	0.0037
668.283	0.0087
668.4675	0.0086
668.652	0.0059
668.8365	-0.005
669.0209	0.0024
669.2054	0.0036
669.3898	0.0043
669.5742	-0.002
669.7586	-0.0007
669.943	0.0041
670.1273	0.0133
670.3117	0.0056
670.496	0.0087
670.6803	0.011
670.8646	0.0093
671.0488	0.0068
671.2331	0.0108
671.4173	0.0189
671.6015	0.0033
671.7857	-0.0028
671.9699	0.0076
672.1541	0.0065
672.3382	0.0063
672.5223	0.0156
672.7064	0.008
672.8905	0.0064
673.0746	0.0075
673.2587	0.0067
673.4427	0.0028
673.6267	0.0042
673.8107	0.0117
673.9947	0.0053
674.1787	0.0074
674.3626	0.0111
674.5465	0.0132
674.7304	0.0056
674.9143	0.0091
675.0982	0.0052
675.2821	0
675.4659	0.0179
675.6497	-0.0026
675.8335	0.0094
676.0173	0.0055
676.2011	0.0007
676.3849	0.0046
676.5686	0.0192
676.7523	0.0109
676.936	-0.0057
677.1197	0.0106
677.3034	0.0001
677.487	0.0083
677.6706	0.0165
677.8542	0.0052
678.0378	0.0096
678.2214	0.0009
678.405	0.0089
678.5885	0.012
678.772	0.0127
678.9555	0.0082
679.139	0.0068
679.3225	0.0105
679.5059	0.0076
679.6894	0.0085
679.8728	0.0032
680.0562	0.0032
680.2395	0.006
680.4229	-0.0037
680.6062	-0.0054
680.7896	0.0069
680.9729	0.0007
681.1562	0.0034
681.3394	0.0053
681.5227	0.0085
681.7059	-0.0038
681.8891	-0.0001
682.0723	0.004
682.2555	0.0057
682.4387	-0.0026
682.6218	0.0111
682.805	0.0037
682.9881	0.0125
683.1712	0.0107
683.3542	0.0044
683.5373	0
683.7203	0.0176
683.9034	0.0044
684.0864	0.0039
684.2694	0.0058
684.4523	0.0082
684.6353	-0.0033
684.8182	0.006
685.0011	0.0093
685.184	0.0025
685.3669	-0.0005
685.5498	-0.0009
685.7326	0.0015
685.9154	0.0071
686.0982	0.0076
686.281	0.0066
686.4638	0.0019
686.6465	0.0155
686.8293	0.003
687.012	0.0104
687.1947	0.0053
687.3774	0.0091
687.56	0.0071
687.7427	0.0117
687.9253	0.0036
688.1079	0.0085
688.2905	0.0013
688.4731	0.0007
688.6556	0.0119
688.8382	0.0065
689.0207	0.0057
689.2032	0.0048
689.3857	0.009
689.5681	0.0046
689.7506	-0
689.933	0.0061
690.1154	0.0063
690.2978	-0.0049
690.4802	-0.0018
690.6626	0.0047
690.8449	0.0114
691.0272	0.0039
691.2095	0.0079
691.3918	0.0116
691.5741	0.0119
691.7563	0.0092
691.9386	0.013
692.1208	0.0035
692.303	-0.0005
692.4852	0.0042
692.6673	0.0096
692.8495	0.0065
693.0316	0.0139
693.2137	0.0129
693.3958	0.0086
693.5778	0.0082
693.7599	0.0153
693.9419	0.0109
694.1239	0.0102
694.3059	0.0125
694.4879	0.0098
694.6699	-0.0012
694.8518	0.0012
695.0337	-0.0006
695.2157	0.0083
695.3975	-0.0049
695.5794	0.0083
695.7613	0.0082
695.9431	0.0022
696.1249	0.0016
696.3067	-0.0053
696.4885	0.0114
696.6703	0.0116
696.852	0.0068
697.0337	0.0093
697.2154	0.0086
697.3971	0.0074
697.5788	0.0047
697.7605	0.0043
697.9421	0.0004
698.1237	0.0173
698.3053	0.0087
698.4869	0.0083
698.6685	0.0128
698.85	0.0075
699.0315	0.0146
699.213	0.0055
699.3945	0.0021
699.576	0.0129
699.7575	0.0138
699.9389	0.0179
700.1203	0.012
700.3017	0.0102
700.4831	0.0048
700.6645	0.005
700.8458	0.0119
701.0271	0.0085
701.2084	0.0052
701.3897	-0.008
701.571	0.0057
701.7523	-0.005
701.9335	-0.002
702.1147	-0.0051
702.2959	-0.0077
702.4771	0.0039
702.6583	0.0032
702.8394	0.009
703.0205	0.0037
703.2016	0.0071
703.3827	0.0071
703.5638	0.0071
703.7449	0.0074
703.9259	-0.0034
704.1069	0.0049
704.2879	0.001
704.4689	0.0002
704.6499	-0.0024
704.8308	0.0027
705.0117	0.0113
705.1927	0.0114
705.3735	-0.0016
705.5544	-0.0027
705.7353	0.0013
705.9161	0.0028
706.0969	0.0016
706.2777	0.0096
706.4585	-0.0023
706.6393	0.0105
706.82	0.0022
707.0007	0.0029
707.1815	0.0042
707.3621	0.0048
707.5428	0.0007
707.7235	0.0015
707.9041	0.0045
708.0847	0.0153
708.2653	0.0121
708.4459	0.0066
708.6265	0.0186
708.807	0.0165
708.9875	0.0167
709.168	0.0136
709.3485	0.0063
709.529	0.0078
709.7095	0.0108
709.8899	0.0117
710.0703	0.0012
710.2507	0.001
710.4311	0.0106
710.6115	0.002
710.7918	0.0068
710.9721	0.0061
711.1524	-0
711.3327	0.0018
711.513	-0.0053
711.6932	0.0017
711.8735	-0.0029
712.0537	-0.0088
712.2339	-0.0076
712.4141	-0.0057
712.5942	-0.0026
712.7744	0.0059
712.9545	0.0092
713.1346	-0.006
713.3147	-0
713.4947	-0.004
713.6748	-0.0022
713.8548	0.0062
714.0348	0.0039
714.2148	0.0009
714.3948	-0.0007
714.5748	-0.0005
714.7547	-0.0007
714.9346	-0.011
715.1145	0.0081
715.2944	-0.0042
715.4743	0.0089
715.6541	0.0136
715.834	-0.0043
716.0138	0.0027
716.1936	0.008
716.3733	0.0154
716.5531	0.0127
716.7328	-0.0018
716.9126	0.0044
717.0923	0.0067
717.2719	0.0078
717.4516	-0.0042
717.6312	-0.0025
717.8109	0.0092
717.9905	0.0012
718.1701	-0.0037
718.3496	0.0067
718.5292	0.0004
718.7087	-0.0007
718.8882	-0.0095
719.0677	0.0024
719.2472	0.0035
719.4267	0.0067
719.6061	-0.0007
719.7856	0.0042
719.965	0.0028
720.1443	0.0026
720.3237	0.0121
720.5031	0.0022
720.6824	0.0066
720.8617	0.0105
721.041	-0.0026
721.2203	0.0019
721.3995	0.0105
721.5788	0.0114
721.758	-0.008
721.9372	-0.0011
722.1164	0.0143
722.2956	0.009
722.4747	0.0093
722.6538	-0.0028
722.8329	0.0039
723.012	0.0022
723.1911	0.0074
723.3702	0.0033
723.5492	0.0097
723.7282	0.009
723.9072	0.0025
724.0862	0.0153
724.2652	0.0027
724.4441	-0.0106
724.623	0.0153
724.8019	-0.0077
724.9808	0.0024
725.1597	0.0058
725.3385	0.0155
725.5174	0.0071
725.6962	0.0047
725.875	-0.0009
726.0538	0.0092
726.2325	0.0046
726.4112	0.0064
726.59	0.0085
726.7687	-0.013
726.9474	-0.01
727.126	-0.0106
727.3047	-0.0047
727.4833	0.0016
727.6619	0.0027
727.8405	0.0018
728.0191	-0.0104
728.1976	-0.0012
728.3762	0.0032
728.5547	0.0001
728.7332	0.0108
728.9116	-0.0058
729.0901	0.0027
729.2686	-0.0037
729.447	-0.0058
729.6254	0.003
729.8038	0.0017
729.9821	0.0031
730.1605	0.0076
730.3388	0.005
730.5171	0.0042
730.6954	0.0055
730.8737	0.0068
731.0519	0.0046
731.2302	0.0027
731.4084	0.0024
731.5866	-0.0069
731.7648	0.0027
731.9429	0.0039
732.1211	-0.004
732.2992	0.0059
732.4773	-0.0123
732.6554	-0.0033
732.8335	0.0001
733.0115	-0.0047
733.1896	0.0025
733.3676	0.0015
733.5456	-0.0012
733.7235	-0.0013
733.9015	0.0088
734.0794	-0.0008
734.2574	0.0047
734.4353	-0.0037
734.6131	0.0037
734.791	0.0075
734.9689	0.0144
735.1467	0.0027
735.3245	-0.0019
735.5023	0.0113
735.68	0.0099
735.8578	-0.0006
736.0355	0.0037
736.2132	0.0047
736.3909	0.0067
736.5686	0.0171
736.7463	0.0126
736.9239	0.0063
737.1015	0.0084
737.2791	0.0082
737.4567	-0.0006
737.6343	-0.0012
737.8118	0.007
737.9894	-0.0013
738.1669	0.0071
738.3444	0.0063
738.5218	0.0096
738.6993	0.0062
738.8767	-0.0014
739.0541	0.0068
739.2315	0.0004
739.4089	0.0054
739.5863	0.0024
739.7636	0.0072
739.9409	-0.0021
740.1182	0.001
740.2955	0.0056
740.4728	0.003
740.65	-0.0063
740.8272	0.001
741.0044	-0.0094
741.1816	0.007
741.3588	0.0085
741.5359	0.0021
741.7131	0.005
741.8902	-0.0032
742.0673	0.0087
742.2444	0.003
742.4214	-0.0014
742.5985	0.009
742.7755	0.0006
742.9525	0.0035
743.1295	0.0058
743.3064	0.001
743.4834	0.0012
743.6603	-0.0046
743.8372	-0.009
744.0141	0.0093
744.191	0.0013
744.3678	0.0035
744.5446	0.0003
744.7215	0.0146
744.8982	0.0065
745.075	-0.0008
745.2518	-0.007
745.4285	-0.0019
745.6052	-0.0008
745.7819	-0.0119
745.9586	0.0008
746.1353	0.0026
746.3119	0.0013
746.4885	-0.0051
746.6651	-0.0025
746.8417	0.0003
747.0183	-0.0007
747.1948	-0.0051
747.3714	0.0045
747.5479	-0.0042
747.7244	0.0078
747.9008	0.0083
748.0773	0.0018
748.2537	0.0057
748.4301	-0.0005
748.6065	0.0014
748.7829	-0.0039
748.9593	0.0088
749.1356	0.0006
749.3119	0.0031
749.4882	0.0024
749.6645	-0.0029
749.8408	-0.0007
750.017	0.0071
750.1933	0.0108
750.3695	0.0095
750.5457	0.0028
750.7218	0.0035
750.898	0.0164
751.0741	0.0167
751.2502	0.0106
751.4263	0.0072
751.6024	0.0037
751.7784	0.0032
751.9545	0.0051
752.1305	0.002
752.3065	0.0063
752.4825	0.0096
752.6584	0.0047
752.8344	0.0074
753.0103	0.0014
753.1862	-0.0004
753.3621	-0.0089
753.5379	0.0006
753.7138	0.0057
753.8896	0.0029
754.0654	0.0012
754.2412	0.0021
754.417	0.0008
754.5927	0.0079
754.7685	0.0033
754.9442	-0.0018
755.1199	0.0045
755.2956	0.0021
755.4712	-0.003
755.6469	0.008
755.8225	0.0094
755.9981	0.0084
756.1736	-0.0092
756.3492	0.0038
756.5248	0.0079
756.7003	0.0038
756.8758	0.0101
757.0513	0.0043
757.2267	0.0021
757.4022	0.0073
757.5776	0.0043
757.753	0.0026
757.9284	0.003
758.1038	-0.0051
758.2791	0.0144
758.4545	0.0141
758.6298	0.0075
758.8051	-0.0043
758.9803	0.0088
759.1556	-0.001
759.3308	0.004
759.506	0.0086
759.6812	0.0108
759.8564	0.0049
760.0316	0.0074
760.2067	0.0027
760.3819	-0.0009
760.557	-0.001
760.732	0.0087
760.9071	0.0118
761.0821	0.0133
761.2572	0.0122
761.4322	0.0085
761.6072	0.0038
761.7821	0.008
761.9571	-0.0016
762.132	-0.003
762.3069	0.005
762.4818	0.0094
762.6567	0.0035
762.8316	0.0083
763.0064	-0.0028
763.1812	0.004
763.356	0.0065
763.5308	0.0102
763.7055	0.0067
763.8803	-0.0009
764.055	-0.0008
764.2297	-0.0015
764.4044	0.0059
764.579	0.0001
764.7537	-0.0066
764.9283	0.0101
765.1029	0.0053
765.2775	0.0049
765.4521	-0.0061
765.6266	0.0004
765.8011	0.0001
765.9756	0.0004
766.1501	-0.0023
766.3246	-0.0032
766.4991	-0.0055
766.6735	-0.0121
766.8479	0.0033
767.0223	-0.0134
767.1967	0.0125
767.371	0.0083
767.5454	0.0004
767.7197	0.0038
767.894	0.0035
768.0683	0.0029
768.2425	0.0035
768.4168	-0.0048
768.591	0.0002
768.7652	0.012
768.9394	-0.0012
769.1135	0.0008
769.2877	-0.0044
769.4618	0.0122
769.6359	0.0095
769.81	0.006
769.984	0.0103
770.1581	0.0081
770.3321	0.0054
770.5061	-0.0042
770.6801	0.0028
770.8541	0.0084
771.028	0.0014
771.202	-0.0014
771.3759	-0.0036
771.5498	0.0087
771.7236	0.0023
771.8975	0.0019
772.0713	0.0133
772.2451	0.0117
772.4189	0.0013
772.5927	0.0009
772.7665	-0.0034
772.9402	0.0017
773.1139	0.0039
773.2876	-0.0097
773.4613	-0.004
773.635	0.0051
773.8086	-0.0077
773.9822	0.0015
774.1558	0.0068
774.3294	0.0128
774.503	0.002
774.6765	0.0097
774.8501	0.0014
775.0236	0.0112
775.1971	0.0116
775.3705	0.0141
775.544	0.0222
775.7174	0.0168
775.8908	0.0072
776.0642	0.002
776.2376	0.0169
776.4109	-0.0013
776.5843	-0
776.7576	0.0035
776.9309	0.0087
777.1041	0.0112
777.2774	0.0025
777.4506	-0.0014
777.6238	-0.0018
777.797	0.009
777.9702	0.0067
778.1434	0.02
778.3165	-0.0003
778.4896	0.0148
778.6627	-0.003
778.8358	0.0073
779.0089	-0.0057
779.1819	0.0004
779.3549	0.0104
779.5279	0.0055
779.7009	0.0099
779.8739	-0.0009
780.0468	-0.0024
780.2197	-0.0022
780.3926	-0.0002
780.5655	-0.0037
780.7384	-0.0012
780.9112	0.0085
781.0841	-0.0137
781.2569	-0.0072
781.4297	-0.0186
781.6024	0.0077
781.7752	-0.0083
781.9479	-0.0009
782.1206	-0.0021
782.2933	0.0096
782.466	0.0044
782.6386	0.0071
782.8113	-0.012
782.9839	0.0001
783.1565	0.0016
783.329	-0.0017
783.5016	-0.0018
783.6741	0.0089
783.8466	0.0012
784.0191	-0.0053
784.1916	0.0053
784.3641	0.006
784.5365	-0.001
784.7089	-0.0083
784.8813	0.001
785.0537	-0.007
785.2261	0.0005
785.3984	0.0023
785.5707	0.006
785.743	0.0018
785.9153	-0.0042
786.0876	0.008
786.2598	-0.0009
786.432	0.0139
786.6042	0.0147
786.7764	-0.0058
786.9486	-0.0037
787.1207	-0.0009
787.2928	0.0072
787.4649	-0.0021
787.637	-0.0097
787.8091	0.0102
787.9811	-0.0016
788.1532	-0.0037
788.3252	-0.0061
788.4972	-0.0099
788.6691	0.0075
788.8411	-0.0081
789.013	0.0036
789.1849	0.0072
789.3568	0.0105
789.5287	0.0126
789.7005	0.0238
789.8723	-0.0021
790.0442	-0.0023
790.2159	0.0005
790.3877	0.0218
790.5595	0.013
790.7312	-0.0079
790.9029	0.0097
791.0746	0.0049
791.2463	0.0162
791.4179	0.0197
791.5896	0.0174
791.7612	0.0192
791.9328	0.0046
792.1044	0.0108
792.2759	0.0001
792.4474	0.0137
792.619	0.0076
792.7905	0.0232
792.9619	0.0176
793.1334	0.0175
793.3048	0.0129
793.4762	0.0091
793.6476	0.0068
793.819	-0.0011
793.9904	0.0063
794.1617	-0.0013
794.333	0.0062
794.5043	-0.0034
794.6756	-0.0109
794.8469	0.0096
795.0181	-0.0025
795.1893	-0.0033
795.3605	0.0154
795.5317	-0.0007
795.7029	0.0101
795.874	-0.0036
796.0452	-0.0006
796.2163	-0.0001
796.3873	0.0003
796.5584	0.0158
796.7294	-0.0198
796.9005	0.008
797.0715	-0.0063
797.2425	-0.014
797.4134	0.0104
797.5844	0.0124
797.7553	-0.0052
797.9262	0.0062
798.0971	0.0145
798.2679	0.0195
798.4388	0.0048
798.6096	-0.0122
798.7804	0.0052
798.9512	0.0104
799.122	-0.0004
799.2927	-0.0014
799.4635	0.0118
799.6342	0.0071
799.8049	0.0137
799.9755	0.0053
800.1462	0.0119
800.3168	-0.0012
800.4874	-0.0087
800.658	0.0058
800.8286	-0.0068
800.9991	0.0168
801.1696	0.0037
801.3402	0.0149
801.5106	0.0081
801.6811	-0.0142
801.8516	-0.0055
802.022	0.0033
802.1924	-0.0083
802.3628	0.015
802.5332	0.0287
802.7035	0.0156
802.8739	0.0039
803.0442	-0.0075
803.2145	-0.0051
803.3847	0.0001
803.555	0.006
803.7252	0.0197
803.8954	-0.0003
804.0656	0.0069
804.2358	0.0065
804.4059	0.0223
804.5761	0.0051
804.7462	-0.0045
804.9163	-0.014
805.0864	-0.0029
805.2564	-0.0085
805.4264	-0.003
805.5965	0.0039
805.7665	0.0092
805.9364	-0.0016
806.1064	0.0084
806.2763	0.0098
806.4462	0.0111
806.6161	0.0252
806.786	0.0248
806.9559	-0.0007
807.1257	0.012
807.2955	0.0146
807.4653	0.0255
807.6351	0.0063
807.8048	-0.0109
807.9746	0.021
808.1443	0.0082
808.314	0.0093
808.4837	0.0212
808.6533	0.0155
808.8229	0.0189
808.9926	0.0221
809.1622	0.031
809.3317	0.0157
809.5013	0.0254
809.6708	0.0243
809.8403	0.026
810.0098	0.017
810.1793	-0.0023
810.3488	-0.0197
810.5182	0.0176
810.6876	0.0135
810.857	0.0021
811.0264	-0.0008
811.1958	-0.0037
811.3651	-0.0006
811.5344	0.0285
811.7037	-0.0041
811.873	0.0146
812.0422	-0.0166
812.2115	0.0192
812.3807	0.0148
812.5499	0.0201
812.7191	0.0074
812.8882	-0.0004
813.0574	0.0186
813.2265	0.0323
813.3956	0.0116
813.5646	0.0045
813.7337	0.0038
813.9027	-0.0164
814.0718	0.0211
814.2407	0.0164
814.4097	0.0208
814.5787	0.0013
814.7476	0.0118
814.9165	0.0089
815.0854	-0.0012
815.2543	0.0097
815.4232	0.011
815.592	-0.0173
815.7608	0.0047
815.9296	0.0193
816.0984	-0.014
816.2671	0.0053
816.4359	-0.0093
816.6046	-0.0007
816.7733	-0.0039
816.942	0.0076
817.1106	0.0045
817.2793	0.0124
817.4479	-0.0159
817.6165	0.0014
817.785	-0.0202
817.9536	-0.0062
818.1221	-0.0014
818.2906	-0.0049
818.4591	-0.0014
818.6276	0.0237
818.7961	-0.0032
818.9645	-0.003
819.1329	0.0301
819.3013	0.0018
819.4697	0.0355
819.638	-0.0228
819.8064	0.0035
819.9747	0.0094
820.143	0.0163
820.3113	-0.0041
820.4795	-0.0256
820.6477	-0.0052
820.816	-0.0197
820.9842	-0.0001
821.1523	0.0338
821.3205	-0.0056
821.4886	-0.0061
821.6567	0.0039
821.8248	0.0144
821.9929	-0.0028
822.1609	-0.0144
822.329	0.0097
822.497	-0.0274
822.665	0.0179
822.833	-0.0291
823.0009	-0.0027
823.1688	-0.034
823.3367	0.0246
823.5046	-0.0069
823.6725	-0.0441
823.8404	-0.0266
824.0082	0.0121
824.176	0.0098
824.3438	0.0116
824.5116	0.0099
824.6793	-0.0259
824.847	0.0221
825.0147	0.0188
825.1824	-0.0086
825.3501	0.0015
825.5177	-0.0219
825.6854	-0.0367
825.853	0.025
826.0206	0.0059
826.1881	-0.0042
826.3557	-0.0108
826.5232	-0.0134
826.6907	0.0028
826.8582	0.0429
827.0257	0.0077
827.1931	0.0088
827.3605	0.0042
827.528	0.0256
827.6953	0.0324
827.8627	0.0247
828.03	0.0453
828.1974	0.0197
828.3647	0.0087
828.532	0.0035
828.6992	0.0012
828.8665	0.0566
829.0337	0.0124
829.2009	0.0341
829.3681	-0.0175
829.5352	-0.0178
829.7024	0.0132
829.8695	0.0174
830.0366	0.0229
830.2037	-0.0218
830.3707	0.0074
830.5378	0.0008
830.7048	-0.0188
830.8718	-0.0124
831.0388	-0.0049
831.2057	-0.0017
831.3727	-0.0002
831.5396	-0.0047
831.7065	-0.0131
831.8734	0.0344
832.0402	-0.0155
832.2071	-0.0253
832.3739	-0.011
832.5407	0.0351
832.7075	-0.0038
832.8742	0.0078
833.041	-0.0052
833.2077	-0.0113
833.3744	0.0273
833.541	0.0153
833.7077	0.0269
833.8743	0.0363
834.0409	0.0015
834.2075	-0.0047
834.3741	0.0452
834.5407	-0.0225
834.7072	-0.0362
834.8737	0.0078
835.0402	0.0003
835.2067	-0.0107
835.3731	-0.0225
835.5395	-0.0051
835.706	0.0177
835.8723	-0.0196
836.0387	-0.0233
836.2051	0.0041
836.3714	-0.0799
836.5377	-0.0188
836.704	-0.0531
836.8703	0.0109
837.0365	-0.0375
837.2027	-0.0307
837.3689	-0.0281
837.5351	-0.0044
837.7013	-0.0234
837.8674	0.0064
838.0335	-0.0054
838.1997	-0.0246
838.3657	0.0268
838.5318	-0.0196
838.6978	-0.0026
838.8639	-0.0703
839.0299	0.0092
839.1958	-0.0158
839.3618	-0.0051
839.5277	0.0079
839.6937	-0.002
839.8596	-0.0414
840.0254	0.0285
840.1913	0.0131
840.3571	-0.0663
840.523	0.0251
840.6888	0.0046
840.8545	-0.0241
841.0203	0.0413
841.186	0.0349
841.3517	-0.0175
841.5174	-0.0395
841.6831	0.0096
841.8488	-0.007
842.0144	0.0504
842.18	0.0338
842.3456	0.0584
842.5112	-0.0269
842.6767	0.017
842.8422	-0.0106
843.0077	-0.0051
843.1732	0.0336
843.3387	-0.0597
843.5042	-0.0398
843.6696	-0.0103
843.835	-0.0219
844.0004	0.0077
844.1657	-0.0212
844.3311	-0.0215
844.4964	-0.0346
844.6617	-0.0365
844.827	-0.0103
844.9923	-0.0129
845.1575	0.0006
845.3227	0.0116
845.4879	-0.0066
845.6531	0.0228
845.8183	-0.037
845.9834	0.0367
846.1485	-0.0094
846.3136	-0.022
846.4787	-0.0005
846.6438	0.0769
846.8088	0.0104
846.9738	-0.1051
847.1388	0.0425
847.3038	-0.0092
847.4687	-0.0224
847.6337	-0.0244
847.7986	0.0147
847.9635	0.0264
848.1284	-0.0352
848.2932	-0.0202
848.458	-0.0086
848.6228	0.0302
848.7876	-0.0274
848.9524	-0.005
849.1172	0.0137
849.2819	0.0164
849.4466	-0.0134
849.6113	0.0399
849.7759	-0.0997
849.9406	-0.0459
850.1052	-0.1145
850.2698	0.0489
850.4344	-0.0682
850.599	-0.0055
850.7635	0.0155
850.928	0.0212
851.0925	-0.0357
851.257	0.0464
851.4215	-0.0639
851.5859	0.0219
851.7503	-0.0833
851.9147	0.0119
852.0791	-0.0356
852.2434	0.0419
852.4078	-0.0407
852.5721	0.0987
852.7364	-0.0493
852.9007	-0.1899
853.0649	0.044
853.2291	0.0277
853.3934	0.0193
853.5575	-0.0626
853.7217	0.0963
853.8859	-0.0566
854.05	-0.0449
854.2141	0.0573
854.3782	0.0012
854.5423	0.0162
854.7063	-0.0218
854.8703	-0.0747
855.0343	0.0297
855.1983	-0.094
855.3623	0.0128
855.5262	0.0519
855.6901	-0.1598
855.854	0.0107
856.0179	-0.0832
856.1818	-0.0637
856.3456	-0.0456
856.5094	0.059
856.6732	-0.0631
856.837	0.0048
857.0008	-0.1411
857.1645	0.1295
857.3282	0.1803
857.4919	0.0191
857.6556	-0.1073
857.8192	-0.0964
857.9828	0.0656
858.1465	-0.1055
858.31	-0.0839
858.4736	0.0186
858.6372	-0.0321
858.8007	-0.3366
858.9642	0.0625
859.1277	-0.1417
859.2911	-0.1123
859.4546	0.0948
859.618	-0.6121
859.7814	-0.0534
859.9448	-0.039
860.1081	-0.0921
860.2715	0.3076
860.4348	-0.1231
860.5981	0.0026
860.7614	0.0859
860.9246	-0.078
861.0879	-0.1698
861.2511	0.0957
861.4143	-0.2197
861.5774	-0.019
861.7406	-0.2066
861.9037	-0.2015
862.0668	-0.0724
862.2299	-0.0453
862.393	0.0822
862.556	0.0817
862.7191	0.0952
862.8821	-0.2312
863.0451	-0.3284
863.208	0.0706
863.371	-0.3767
863.5339	-0.0951
863.6968	-0
863.8597	-0.1448
864.0225	-0.0161
864.1854	-0.119
864.3482	-0.2064
864.511	0.0064
864.6737	-0.3056
864.8365	0.0069
864.9992	-0.2414
865.1619	-0.2818
865.3246	0.0508
865.4873	-0.1985
865.65	-0.3814
865.8126	-0.2114
865.9752	0.04
866.1378	0.3036
866.3004	-0
866.4629	-0.0204
866.6254	-0.4405
866.7879	-0.2158
866.9504	0.25
867.1129	0.1098
867.2753	0.2095
867.4377	0.01
867.6001	0.0637
867.7625	0.8559
867.9249	-0.674
868.0872	0.2188
868.2495	0.0705
868.4118	-0.1766
868.5741	-0.1176
868.7363	-0.0668
868.8986	-0.2751
869.0608	-0.2998
869.223	-0.243
869.3851	-0.0988
869.5473	0.0507
869.7094	-0.1614
869.8715	-0.0139
870.0336	-0
870.1957	-0
870.3577	-0.222
870.5197	-0
870.6817	0.1587
870.8437	0.4231
871.0057	-0.1111
871.1676	-0.186
871.3295	-0
871.4914	-0
871.6533	-0.0756
871.8151	0.1551
871.977	-0.6378
872.1388	0.155
872.3006	0.1533
872.4623	0.3073
872.6241	-0
872.7858	0.3436
872.9475	-0
873.1092	0.1167
873.2709	-0
873.4325	-0.0153
873.5941	1.0272
873.7557	-0.4849
873.9173	-0.0739
874.0789	0.6209
874.2404	0.5397
874.4019	13.8174
874.5634	-0.3561
874.7249	0.2341
874.8863	-0.3341
875.0478	-0.1032
875.2092	-0.0865
875.3706	-0.4108
875.5319	-1.2628
875.6933	0.3413
875.8546	-0.1706
876.0159	0.2213
876.1772	-0.5098
876.3385	-0.4354
876.4997	-0
876.6609	-0
876.8221	-1.0232
876.9833	-0
877.1445	0.1825
877.3056	-0.0803
877.4667	-0.12
877.6278	0.7541
877.7889	-0.0556
877.9499	0.5917
878.111	-0
878.272	-0.0736
878.433	-0.0728
878.5939	-0.068
878.7549	-0.0574
878.9158	-0.2583
879.0767	-0.3639
879.2376	0.2419
879.3984	-0
879.5593	-0.1228
879.7201	0.0373
879.8809	0.209
880.0417	0.0698
880.2024	-0.1327
880.3632	-0
880.5239	-0
880.6846	-0.1876
880.8452	0.2008
881.0059	-0.6867
881.1665	-0.291
881.3271	-0.1795
881.4877	-0
881.6483	-0.2649
881.8088	-0.0319
881.9693	-0.4894
882.1298	-0.4894
882.2903	-0.4894
