Data from MonoPyChalIsomerACN10uM400nmA_Absorbance_12-08-43-728.txt Node
Date: Fri Jul 05 12:08:43 BST 2024
User: LASERRRRR
Spectrometer: FLMT03099
Trigger mode: 0
Integration Time (sec): 1.000000E-1
Scans to average: 1
Electric dark correction enabled: true
Nonlinearity correction enabled: false
Boxcar width: 0
XAxis mode: Wavelengths
Number of Pixels in Spectrum: 3648
>>>>>Begin Spectral Data<<<<<
179.3399	0.1565
179.5586	0.1565
179.7771	0.1565
179.9957	1.0713
180.2143	-0
180.4329	-0
180.6514	-0.817
180.8699	0.363
181.0885	-0
181.307	0.306
181.5255	-0.7538
181.744	-0
181.9625	0.981
182.181	-0
182.3994	0.8643
182.6179	-0
182.8363	-0.3787
183.0547	0.1881
183.2732	0.0903
183.4916	0.206
183.71	0.1645
183.9284	0.1268
184.1467	-0.0376
184.3651	-0.0571
184.5835	0.5062
184.8018	-0.0697
185.0201	0.2007
185.2385	0.3935
185.4568	0.1513
185.6751	0.0136
185.8934	-0.0535
186.1117	0.0787
186.3299	-0.0145
186.5482	0.0222
186.7664	0.1133
186.9847	0.031
187.2029	0.0529
187.4211	-0.3207
187.6393	-0.1337
187.8575	0.308
188.0757	0.1297
188.2939	-0.0547
188.512	-0.1399
188.7302	0.3291
188.9483	0.0592
189.1665	-0.0447
189.3846	0.1193
189.6027	0.1308
189.8208	0.1285
190.0389	0.1873
190.257	0.1638
190.475	0.8382
190.6931	0.1354
190.9111	0.2517
191.1292	0.1472
191.3472	0.4462
191.5652	0.1674
191.7832	0.3085
192.0012	0.3138
192.2192	0.3581
192.4371	0.2417
192.6551	0.551
192.873	0.4463
193.091	0.6599
193.3089	0.4605
193.5268	0.6647
193.7447	0.5187
193.9626	0.4419
194.1805	0.5082
194.3984	0.5252
194.6162	0.5907
194.8341	0.5571
195.0519	0.5729
195.2697	0.5901
195.4875	0.6812
195.7054	0.5912
195.9231	0.8568
196.1409	0.5435
196.3587	0.6106
196.5765	0.4828
196.7942	0.6336
197.012	0.7039
197.2297	0.951
197.4474	0.6615
197.6651	0.7142
197.8828	0.5836
198.1005	0.7987
198.3182	0.6714
198.5358	0.7566
198.7535	0.4875
198.9711	0.701
199.1888	0.5973
199.4064	0.8748
199.624	0.6672
199.8416	0.7431
200.0592	0.5764
200.2767	0.5908
200.4943	0.7156
200.7119	0.5987
200.9294	0.7227
201.1469	0.9227
201.3645	0.7384
201.582	0.7141
201.7995	0.9741
202.017	0.7525
202.2344	0.6719
202.4519	0.6479
202.6694	1.0575
202.8868	0.804
203.1042	0.6664
203.3217	0.7394
203.5391	0.7527
203.7565	0.714
203.9739	0.7761
204.1913	0.8914
204.4086	0.7496
204.626	0.857
204.8433	0.9366
205.0607	0.6509
205.278	0.8547
205.4953	0.7819
205.7126	0.7375
205.9299	0.8622
206.1472	0.8322
206.3644	0.658
206.5817	0.7862
206.7989	0.6532
207.0162	0.691
207.2334	0.8161
207.4506	0.7857
207.6678	0.7782
207.885	0.7434
208.1022	0.8072
208.3194	0.7811
208.5365	0.7782
208.7537	0.7774
208.9708	0.7068
209.1879	0.816
209.405	0.7063
209.6222	0.7893
209.8392	0.7202
210.0563	0.816
210.2734	0.7566
210.4905	0.814
210.7075	0.8635
210.9245	0.6838
211.1416	0.718
211.3586	0.8519
211.5756	0.7555
211.7926	0.7521
212.0096	0.6382
212.2265	0.7075
212.4435	0.6899
212.6604	0.758
212.8774	0.7348
213.0943	0.716
213.3112	0.7152
213.5281	0.6244
213.745	0.7216
213.9619	0.7426
214.1788	0.7248
214.3956	0.6924
214.6125	0.6925
214.8293	0.6836
215.0461	0.6868
215.2629	0.668
215.4798	0.6488
215.6965	0.652
215.9133	0.6055
216.1301	0.5397
216.3469	0.6674
216.5636	0.6107
216.7803	0.6051
216.9971	0.5968
217.2138	0.6312
217.4305	0.5941
217.6472	0.5634
217.8639	0.6613
218.0805	0.6067
218.2972	0.5614
218.5138	0.5965
218.7305	0.5346
218.9471	0.5873
219.1637	0.5532
219.3803	0.5462
219.5969	0.5799
219.8135	0.569
220.0301	0.5519
220.2466	0.5863
220.4632	0.5713
220.6797	0.5477
220.8962	0.6037
221.1127	0.5012
221.3292	0.5161
221.5457	0.6009
221.7622	0.567
221.9787	0.539
222.1951	0.5541
222.4116	0.5873
222.628	0.5589
222.8444	0.5978
223.0608	0.5298
223.2772	0.5753
223.4936	0.5615
223.71	0.5849
223.9264	0.5344
224.1427	0.5213
224.3591	0.5559
224.5754	0.5442
224.7917	0.5299
225.008	0.5729
225.2243	0.5424
225.4406	0.5558
225.6569	0.5317
225.8732	0.5751
226.0894	0.5015
226.3057	0.5607
226.5219	0.5399
226.7381	0.5728
226.9543	0.6013
227.1705	0.5754
227.3867	0.5616
227.6029	0.5525
227.8191	0.5722
228.0352	0.5631
228.2513	0.5982
228.4675	0.5834
228.6836	0.5633
228.8997	0.569
229.1158	0.5557
229.3319	0.572
229.548	0.5737
229.764	0.5928
229.9801	0.5568
230.1961	0.5766
230.4121	0.6039
230.6282	0.5947
230.8442	0.5832
231.0602	0.5436
231.2761	0.6084
231.4921	0.5634
231.7081	0.5667
231.924	0.5807
232.14	0.5956
232.3559	0.5576
232.5718	0.5956
232.7877	0.5717
233.0036	0.5814
233.2195	0.575
233.4353	0.5655
233.6512	0.5512
233.867	0.5776
234.0829	0.5727
234.2987	0.5862
234.5145	0.5479
234.7303	0.5721
234.9461	0.571
235.1619	0.5902
235.3776	0.5749
235.5934	0.5752
235.8091	0.5491
236.0249	0.5294
236.2406	0.549
236.4563	0.5693
236.672	0.5528
236.8877	0.5485
237.1034	0.5525
237.319	0.5405
237.5347	0.558
237.7503	0.5396
237.966	0.5513
238.1816	0.5726
238.3972	0.5686
238.6128	0.533
238.8284	0.5256
239.0439	0.5477
239.2595	0.5378
239.475	0.5266
239.6906	0.5268
239.9061	0.524
240.1216	0.527
240.3371	0.5426
240.5526	0.5162
240.7681	0.5439
240.9836	0.5316
241.199	0.4965
241.4145	0.4973
241.6299	0.4879
241.8453	0.4727
242.0607	0.4607
242.2761	0.4776
242.4915	0.4644
242.7069	0.4447
242.9223	0.4566
243.1376	0.4496
243.353	0.4602
243.5683	0.4462
243.7836	0.4315
243.9989	0.4327
244.2142	0.4122
244.4295	0.3789
244.6448	0.4156
244.86	0.3845
245.0753	0.3793
245.2905	0.3807
245.5057	0.3746
245.721	0.3718
245.9362	0.3555
246.1514	0.3502
246.3665	0.339
246.5817	0.339
246.7969	0.3203
247.012	0.3156
247.2271	0.3227
247.4423	0.3116
247.6574	0.3064
247.8725	0.2973
248.0876	0.297
248.3026	0.2862
248.5177	0.2809
248.7328	0.2999
248.9478	0.2794
249.1628	0.2515
249.3779	0.254
249.5929	0.2592
249.8079	0.2493
250.0228	0.2619
250.2378	0.2462
250.4528	0.2473
250.6677	0.2319
250.8827	0.2334
251.0976	0.2474
251.3125	0.2551
251.5274	0.2388
251.7423	0.2402
251.9572	0.2189
252.172	0.2181
252.3869	0.2181
252.6017	0.2222
252.8166	0.228
253.0314	0.2178
253.2462	0.2147
253.461	0.2164
253.6758	0.2121
253.8906	0.2099
254.1053	0.1978
254.3201	0.2109
254.5348	0.2151
254.7496	0.2066
254.9643	0.1939
255.179	0.1909
255.3937	0.2011
255.6083	0.1941
255.823	0.1851
256.0377	0.1877
256.2523	0.1896
256.467	0.2026
256.6816	0.1942
256.8962	0.2007
257.1108	0.2034
257.3254	0.2019
257.54	0.1831
257.7545	0.202
257.9691	0.1965
258.1836	0.1871
258.3981	0.1848
258.6127	0.1955
258.8272	0.1933
259.0417	0.1901
259.2561	0.1808
259.4706	0.1891
259.6851	0.1808
259.8995	0.19
260.114	0.174
260.3284	0.1772
260.5428	0.1895
260.7572	0.1987
260.9716	0.1922
261.186	0.1924
261.4003	0.1966
261.6147	0.205
261.829	0.1997
262.0433	0.1988
262.2577	0.1969
262.472	0.1982
262.6863	0.1993
262.9005	0.1796
263.1148	0.1892
263.3291	0.1939
263.5433	0.178
263.7576	0.1944
263.9718	0.1836
264.186	0.1751
264.4002	0.1929
264.6144	0.1882
264.8286	0.1809
265.0427	0.1949
265.2569	0.1902
265.471	0.1915
265.6851	0.1812
265.8993	0.1906
266.1134	0.1886
266.3275	0.1876
266.5415	0.1914
266.7556	0.1785
266.9697	0.1874
267.1837	0.1906
267.3978	0.1802
267.6118	0.2014
267.8258	0.1879
268.0398	0.2004
268.2538	0.197
268.4677	0.1935
268.6817	0.1887
268.8957	0.1825
269.1096	0.1796
269.3235	0.1891
269.5374	0.1787
269.7514	0.159
269.9652	0.1955
270.1791	0.1713
270.393	0.1762
270.6068	0.185
270.8207	0.1855
271.0345	0.1666
271.2483	0.1797
271.4622	0.1753
271.676	0.1842
271.8897	0.1858
272.1035	0.1875
272.3173	0.1798
272.531	0.1645
272.7448	0.177
272.9585	0.1731
273.1722	0.1785
273.3859	0.1803
273.5996	0.1767
273.8133	0.1679
274.0269	0.1768
274.2406	0.1714
274.4542	0.1815
274.6679	0.1757
274.8815	0.1767
275.0951	0.1865
275.3087	0.1715
275.5223	0.1865
275.7358	0.1843
275.9494	0.1624
276.1629	0.1675
276.3765	0.1763
276.59	0.1839
276.8035	0.1684
277.017	0.1762
277.2305	0.1815
277.444	0.171
277.6574	0.1831
277.8709	0.1671
278.0843	0.1836
278.2978	0.182
278.5112	0.1803
278.7246	0.1797
278.938	0.1804
279.1513	0.1903
279.3647	0.1744
279.5781	0.1827
279.7914	0.1913
280.0047	0.1936
280.2181	0.19
280.4314	0.1846
280.6447	0.1908
280.8579	0.1938
281.0712	0.1872
281.2845	0.1949
281.4977	0.1903
281.711	0.1988
281.9242	0.186
282.1374	0.1696
282.3506	0.169
282.5638	0.1901
282.7769	0.1834
282.9901	0.1799
283.2033	0.1716
283.4164	0.1769
283.6295	0.1748
283.8426	0.1775
284.0557	0.1853
284.2688	0.1717
284.4819	0.1809
284.695	0.1837
284.908	0.182
285.1211	0.1893
285.3341	0.184
285.5471	0.1953
285.7601	0.1898
285.9731	0.1862
286.1861	0.1981
286.3991	0.1769
286.612	0.1862
286.825	0.1875
287.0379	0.1782
287.2508	0.1787
287.4637	0.191
287.6766	0.1736
287.8895	0.1768
288.1024	0.1894
288.3152	0.1871
288.5281	0.1842
288.7409	0.1925
288.9538	0.1823
289.1666	0.19
289.3794	0.1911
289.5922	0.1842
289.8049	0.1746
290.0177	0.1779
290.2304	0.172
290.4432	0.1752
290.6559	0.1838
290.8686	0.185
291.0813	0.1804
291.294	0.1834
291.5067	0.178
291.7194	0.1874
291.932	0.1877
292.1447	0.1956
292.3573	0.1751
292.5699	0.187
292.7825	0.1689
292.9951	0.193
293.2077	0.1886
293.4203	0.1719
293.6328	0.186
293.8454	0.1767
294.0579	0.1858
294.2704	0.1766
294.4829	0.1839
294.6954	0.1791
294.9079	0.1796
295.1204	0.1776
295.3328	0.17
295.5453	0.1691
295.7577	0.1782
295.9701	0.1699
296.1825	0.1722
296.3949	0.1712
296.6073	0.1736
296.8197	0.1763
297.0321	0.1674
297.2444	0.1719
297.4567	0.1787
297.6691	0.1825
297.8814	0.1771
298.0937	0.182
298.306	0.1821
298.5182	0.1815
298.7305	0.173
298.9428	0.1701
299.155	0.1713
299.3672	0.1619
299.5794	0.1652
299.7916	0.1671
300.0038	0.1794
300.216	0.179
300.4282	0.1739
300.6403	0.1845
300.8525	0.1786
301.0646	0.1744
301.2767	0.1869
301.4888	0.1742
301.7009	0.1724
301.913	0.1887
302.125	0.1797
302.3371	0.166
302.5491	0.1755
302.7612	0.1697
302.9732	0.1625
303.1852	0.1715
303.3972	0.1822
303.6092	0.1772
303.8211	0.176
304.0331	0.1625
304.245	0.1613
304.457	0.1635
304.6689	0.1705
304.8808	0.1583
305.0927	0.1625
305.3046	0.1632
305.5164	0.1702
305.7283	0.1575
305.9401	0.1527
306.152	0.1488
306.3638	0.1656
306.5756	0.1498
306.7874	0.1632
306.9992	0.1612
307.2109	0.1523
307.4227	0.1477
307.6344	0.1453
307.8462	0.1263
308.0579	0.1448
308.2696	0.1469
308.4813	0.1262
308.693	0.1481
308.9046	0.1348
309.1163	0.1383
309.328	0.1315
309.5396	0.1317
309.7512	0.1311
309.9628	0.1204
310.1744	0.1356
310.386	0.1274
310.5976	0.1195
310.8091	0.1283
311.0207	0.1164
311.2322	0.1256
311.4437	0.12
311.6552	0.1317
311.8667	0.109
312.0782	0.1189
312.2897	0.1106
312.5012	0.1215
312.7126	0.1171
312.924	0.1162
313.1355	0.1239
313.3469	0.1238
313.5583	0.1104
313.7696	0.1186
313.981	0.1128
314.1924	0.1154
314.4037	0.1103
314.6151	0.1134
314.8264	0.1183
315.0377	0.1093
315.249	0.1061
315.4603	0.106
315.6716	0.0968
315.8828	0.108
316.0941	0.0922
316.3053	0.1091
316.5165	0.1107
316.7277	0.1014
316.9389	0.1072
317.1501	0.1059
317.3613	0.0961
317.5724	0.1135
317.7836	0.1106
317.9947	0.1116
318.2058	0.1111
318.417	0.1153
318.6281	0.1104
318.8391	0.1044
319.0502	0.1191
319.2613	0.1147
319.4723	0.1008
319.6834	0.1033
319.8944	0.104
320.1054	0.1077
320.3164	0.1133
320.5274	0.0917
320.7383	0.1083
320.9493	0.099
321.1602	0.1092
321.3712	0.1063
321.5821	0.1075
321.793	0.0979
322.0039	0.1092
322.2148	0.1105
322.4257	0.0863
322.6365	0.1124
322.8474	0.1086
323.0582	0.1097
323.269	0.1106
323.4798	0.1105
323.6906	0.0948
323.9014	0.1103
324.1122	0.1149
324.3229	0.1153
324.5337	0.1102
324.7444	0.1078
324.9551	0.1168
325.1658	0.1192
325.3765	0.1216
325.5872	0.1139
325.7979	0.1149
326.0085	0.1021
326.2192	0.0983
326.4298	0.1195
326.6404	0.1222
326.851	0.102
327.0616	0.1167
327.2722	0.1195
327.4828	0.1184
327.6933	0.1231
327.9039	0.1087
328.1144	0.1083
328.3249	0.1045
328.5354	0.1066
328.7459	0.1145
328.9564	0.1113
329.1669	0.1232
329.3773	0.1102
329.5878	0.1013
329.7982	0.1122
330.0086	0.1118
330.219	0.1152
330.4294	0.1164
330.6398	0.1104
330.8502	0.1203
331.0605	0.1122
331.2708	0.1112
331.4812	0.1127
331.6915	0.1077
331.9018	0.1188
332.1121	0.1194
332.3224	0.1117
332.5326	0.1187
332.7429	0.1052
332.9531	0.1118
333.1633	0.115
333.3735	0.1121
333.5837	0.1214
333.7939	0.1097
334.0041	0.1225
334.2143	0.1189
334.4244	0.1233
334.6346	0.0924
334.8447	0.1239
335.0548	0.115
335.2649	0.1226
335.475	0.1186
335.685	0.1164
335.8951	0.1147
336.1051	0.1159
336.3152	0.1054
336.5252	0.1111
336.7352	0.125
336.9452	0.122
337.1552	0.126
337.3652	0.1088
337.5751	0.1189
337.7851	0.1171
337.995	0.1244
338.2049	0.1095
338.4148	0.1199
338.6247	0.1088
338.8346	0.1151
339.0445	0.1121
339.2543	0.1224
339.4642	0.132
339.674	0.1229
339.8838	0.1268
340.0936	0.1201
340.3034	0.1176
340.5132	0.1355
340.7229	0.1339
340.9327	0.1142
341.1424	0.1116
341.3522	0.1268
341.5619	0.1151
341.7716	0.1214
341.9813	0.122
342.1909	0.1325
342.4006	0.1138
342.6102	0.1233
342.8199	0.1051
343.0295	0.126
343.2391	0.1287
343.4487	0.1325
343.6583	0.1221
343.8679	0.1275
344.0774	0.1388
344.287	0.1345
344.4965	0.1262
344.706	0.1343
344.9155	0.1316
345.125	0.1217
345.3345	0.1403
345.544	0.1329
345.7534	0.1322
345.9629	0.1338
346.1723	0.1272
346.3817	0.1298
346.5911	0.1402
346.8005	0.1237
347.0099	0.1258
347.2193	0.1442
347.4286	0.1366
347.638	0.1391
347.8473	0.1334
348.0566	0.143
348.2659	0.1466
348.4752	0.147
348.6845	0.1343
348.8937	0.1369
349.103	0.1212
349.3122	0.1307
349.5214	0.1472
349.7306	0.151
349.9398	0.1324
350.149	0.1438
350.3582	0.1387
350.5674	0.1539
350.7765	0.1419
350.9856	0.1365
351.1948	0.1324
351.4039	0.1513
351.613	0.1421
351.822	0.1344
352.0311	0.1573
352.2402	0.1447
352.4492	0.1384
352.6582	0.1334
352.8672	0.1519
353.0762	0.1429
353.2852	0.1528
353.4942	0.1398
353.7032	0.1566
353.9121	0.148
354.1211	0.1535
354.33	0.1508
354.5389	0.1505
354.7478	0.1496
354.9567	0.1616
355.1655	0.1516
355.3744	0.1453
355.5833	0.1611
355.7921	0.1572
356.0009	0.1534
356.2097	0.1527
356.4185	0.1363
356.6273	0.1528
356.8361	0.1577
357.0448	0.1529
357.2536	0.1631
357.4623	0.1765
357.671	0.1717
357.8797	0.1601
358.0884	0.1822
358.2971	0.1555
358.5057	0.1646
358.7144	0.1705
358.923	0.1612
359.1316	0.1678
359.3402	0.1799
359.5488	0.19
359.7574	0.1762
359.966	0.1691
360.1746	0.1796
360.3831	0.1633
360.5916	0.1994
360.8002	0.1891
361.0087	0.1875
361.2172	0.1893
361.4256	0.1733
361.6341	0.1708
361.8426	0.184
362.051	0.1768
362.2594	0.1701
362.4678	0.1693
362.6762	0.1743
362.8846	0.1818
363.093	0.169
363.3014	0.1742
363.5097	0.1765
363.718	0.1871
363.9264	0.1992
364.1347	0.182
364.343	0.1959
364.5513	0.1853
364.7595	0.1877
364.9678	0.2072
365.176	0.1949
365.3842	0.1857
365.5925	0.1684
365.8007	0.1873
366.0089	0.1909
366.217	0.1904
366.4252	0.1928
366.6333	0.1997
366.8415	0.2116
367.0496	0.1881
367.2577	0.2168
367.4658	0.1833
367.6739	0.2155
367.882	0.1988
368.09	0.2023
368.2981	0.1958
368.5061	0.2068
368.7141	0.2064
368.9221	0.1985
369.1301	0.2086
369.3381	0.2197
369.5461	0.2004
369.754	0.19
369.962	0.208
370.1699	0.2023
370.3778	0.2138
370.5857	0.2234
370.7936	0.207
371.0015	0.2176
371.2093	0.2129
371.4172	0.1947
371.625	0.2191
371.8328	0.2279
372.0406	0.1925
372.2484	0.2171
372.4562	0.2251
372.664	0.2155
372.8717	0.1977
373.0795	0.2159
373.2872	0.2227
373.4949	0.2176
373.7026	0.2208
373.9103	0.2325
374.118	0.2172
374.3256	0.2144
374.5333	0.211
374.7409	0.2093
374.9485	0.2039
375.1561	0.2187
375.3637	0.206
375.5713	0.2357
375.7789	0.2408
375.9864	0.2197
376.194	0.2266
376.4015	0.2154
376.609	0.2113
376.8165	0.2223
377.024	0.2126
377.2315	0.2151
377.4389	0.2181
377.6464	0.2217
377.8538	0.2177
378.0612	0.2379
378.2686	0.2325
378.476	0.2231
378.6834	0.2399
378.8908	0.2214
379.0981	0.2343
379.3055	0.2453
379.5128	0.2348
379.7201	0.2249
379.9274	0.2318
380.1347	0.2378
380.342	0.2249
380.5492	0.2173
380.7565	0.2315
380.9637	0.2358
381.1709	0.2356
381.3781	0.2549
381.5853	0.2342
381.7925	0.24
381.9997	0.2208
382.2068	0.2269
382.4139	0.2445
382.6211	0.2404
382.8282	0.2335
383.0353	0.2336
383.2424	0.2323
383.4494	0.2385
383.6565	0.2357
383.8635	0.2391
384.0706	0.2535
384.2776	0.2624
384.4846	0.2346
384.6916	0.2488
384.8986	0.2195
385.1055	0.2391
385.3125	0.2281
385.5194	0.2257
385.7263	0.2516
385.9333	0.2439
386.1402	0.2328
386.347	0.2464
386.5539	0.2315
386.7608	0.2436
386.9676	0.2166
387.1744	0.2393
387.3813	0.2314
387.5881	0.2376
387.7948	0.2395
388.0016	0.2296
388.2084	0.2249
388.4151	0.2397
388.6219	0.2279
388.8286	0.2239
389.0353	0.2296
389.242	0.2372
389.4487	0.2331
389.6553	0.214
389.862	0.229
390.0686	0.2182
390.2753	0.2254
390.4819	0.2403
390.6885	0.2349
390.8951	0.221
391.1016	0.2257
391.3082	0.2225
391.5147	0.2034
391.7213	0.2115
391.9278	0.215
392.1343	0.2075
392.3408	0.2295
392.5473	0.2085
392.7537	0.2013
392.9602	0.2158
393.1666	0.2256
393.373	0.1855
393.5794	0.214
393.7858	0.2158
393.9922	0.2274
394.1986	0.2152
394.4049	0.2184
394.6113	0.1908
394.8176	0.2055
395.0239	0.2064
395.2302	0.1942
395.4365	0.2016
395.6428	0.2269
395.8491	0.1922
396.0553	0.2078
396.2615	0.2213
396.4678	0.1998
396.674	0.1993
396.8802	0.2061
397.0863	0.2184
397.2925	0.1852
397.4987	0.2034
397.7048	0.1985
397.9109	0.2169
398.117	0.1869
398.3231	0.1959
398.5292	0.2042
398.7353	0.1965
398.9413	0.1781
399.1474	0.1993
399.3534	0.194
399.5594	0.2118
399.7654	0.1948
399.9714	0.1954
400.1774	0.1804
400.3833	0.2031
400.5893	0.1897
400.7952	0.2175
401.0011	0.2043
401.207	0.1878
401.4129	0.18
401.6188	0.1807
401.8247	0.2096
402.0305	0.1905
402.2364	0.2014
402.4422	0.2059
402.648	0.1918
402.8538	0.1933
403.0596	0.1702
403.2654	0.2005
403.4711	0.2024
403.6768	0.1686
403.8826	0.2099
404.0883	0.1895
404.294	0.2053
404.4997	0.1928
404.7054	0.1841
404.911	0.19
405.1167	0.1808
405.3223	0.2074
405.5279	0.1851
405.7335	0.1959
405.9391	0.2011
406.1447	0.1966
406.3502	0.1946
406.5558	0.209
406.7613	0.2078
406.9668	0.2008
407.1724	0.1994
407.3778	0.1984
407.5833	0.1896
407.7888	0.2013
407.9942	0.1937
408.1997	0.2091
408.4051	0.1961
408.6105	0.1749
408.8159	0.1769
409.0213	0.1936
409.2267	0.2085
409.432	0.1989
409.6374	0.1668
409.8427	0.1907
410.048	0.2018
410.2533	0.1961
410.4586	0.1573
410.6639	0.1935
410.8691	0.1918
411.0744	0.1971
411.2796	0.1908
411.4848	0.2068
411.69	0.2052
411.8952	0.1843
412.1004	0.1693
412.3056	0.1915
412.5107	0.1634
412.7158	0.1869
412.921	0.2122
413.1261	0.198
413.3312	0.1979
413.5362	0.1795
413.7413	0.1889
413.9464	0.1999
414.1514	0.1842
414.3564	0.1915
414.5614	0.1824
414.7664	0.1918
414.9714	0.1969
415.1764	0.186
415.3813	0.1825
415.5863	0.194
415.7912	0.172
415.9961	0.1937
416.201	0.1751
416.4059	0.1676
416.6108	0.184
416.8156	0.1866
417.0205	0.1671
417.2253	0.1706
417.4301	0.2029
417.6349	0.1776
417.8397	0.1722
418.0445	0.187
418.2492	0.1904
418.454	0.1903
418.6587	0.1949
418.8634	0.1753
419.0681	0.1744
419.2728	0.1701
419.4775	0.1837
419.6822	0.1965
419.8868	0.184
420.0915	0.1798
420.2961	0.1805
420.5007	0.1733
420.7053	0.1917
420.9099	0.1695
421.1144	0.1982
421.319	0.1847
421.5235	0.2147
421.728	0.1739
421.9325	0.1714
422.137	0.1795
422.3415	0.1769
422.546	0.1629
422.7504	0.1822
422.9549	0.1776
423.1593	0.1607
423.3637	0.1755
423.5681	0.1497
423.7725	0.1628
423.9769	0.1566
424.1812	0.1656
424.3856	0.1754
424.5899	0.1762
424.7942	0.154
424.9985	0.1684
425.2028	0.1449
425.4071	0.146
425.6113	0.17
425.8156	0.1755
426.0198	0.1744
426.224	0.1679
426.4282	0.1772
426.6324	0.1619
426.8366	0.1706
427.0407	0.1491
427.2449	0.1515
427.449	0.1551
427.6531	0.1588
427.8572	0.1435
428.0613	0.1563
428.2654	0.1219
428.4694	0.1447
428.6735	0.1374
428.8775	0.1373
429.0815	0.1431
429.2855	0.147
429.4895	0.1371
429.6935	0.1449
429.8975	0.1217
430.1014	0.1333
430.3053	0.1291
430.5093	0.1551
430.7132	0.1337
430.9171	0.1177
431.1209	0.1329
431.3248	0.1412
431.5286	0.1241
431.7325	0.1258
431.9363	0.1273
432.1401	0.1138
432.3439	0.1116
432.5477	0.1291
432.7514	0.1244
432.9552	0.1017
433.1589	0.1141
433.3627	0.1191
433.5664	0.1101
433.7701	0.1069
433.9737	0.0824
434.1774	0.1171
434.3811	0.0972
434.5847	0.1128
434.7883	0.106
434.9919	0.1009
435.1955	0.1083
435.3991	0.102
435.6027	0.0976
435.8062	0.0982
436.0098	0.0965
436.2133	0.0754
436.4168	0.0974
436.6203	0.0974
436.8238	0.0808
437.0272	0.0772
437.2307	0.0949
437.4341	0.085
437.6375	0.0823
437.841	0.0766
438.0443	0.0751
438.2477	0.0911
438.4511	0.0738
438.6545	0.0815
438.8578	0.0816
439.0611	0.0714
439.2644	0.0708
439.4677	0.0683
439.671	0.0837
439.8743	0.0611
440.0775	0.0709
440.2808	0.066
440.484	0.0697
440.6872	0.0802
440.8904	0.0749
441.0936	0.0543
441.2967	0.067
441.4999	0.065
441.703	0.0703
441.9062	0.0778
442.1093	0.0477
442.3124	0.0551
442.5155	0.0422
442.7185	0.0562
442.9216	0.0408
443.1246	0.0639
443.3276	0.0753
443.5307	0.063
443.7337	0.0508
443.9366	0.0562
444.1396	0.0457
444.3426	0.0338
444.5455	0.0508
444.7484	0.0507
444.9513	0.0443
445.1542	0.0293
445.3571	0.046
445.56	0.0498
445.7628	0.0523
445.9657	0.0298
446.1685	0.0531
446.3713	0.0546
446.5741	0.0392
446.7769	0.0426
446.9797	0.0245
447.1824	0.0345
447.3852	0.0611
447.5879	0.0291
447.7906	0.0419
447.9933	0.0415
448.196	0.0319
448.3986	0.0462
448.6013	0.0154
448.8039	0.0362
449.0066	0.0136
449.2092	0.0305
449.4118	0.0316
449.6143	0.02
449.8169	0.0377
450.0195	0.0103
450.222	0.0071
450.4245	0.0168
450.627	0.0146
450.8295	0.0233
451.032	0.0147
451.2345	0.0221
451.4369	0.0221
451.6394	0.0296
451.8418	0.0167
452.0442	0.0172
452.2466	0.009
452.449	0.0087
452.6513	0.0193
452.8537	0.0261
453.056	0.0005
453.2583	0.0197
453.4607	0.0069
453.663	0.0133
453.8652	0.0308
454.0675	0.0003
454.2697	0.0147
454.472	0.0123
454.6742	0.0245
454.8764	0.0042
455.0786	-0.0007
455.2808	0.0115
455.4829	0.0242
455.6851	0.0377
455.8872	0.0232
456.0893	0.0134
456.2915	0.0243
456.4935	0.002
456.6956	-0.0032
456.8977	0.0131
457.0997	0.0201
457.3018	0.0152
457.5038	0.0201
457.7058	0.0191
457.9078	0.0145
458.1098	-0.0087
458.3117	0.0302
458.5137	0.0133
458.7156	0.0119
458.9175	-0.0073
459.1194	0.0062
459.3213	0.0122
459.5232	-0.0027
459.725	-0.0047
459.9269	0.0084
460.1287	0.0041
460.3305	0.0114
460.5323	0.0188
460.7341	0.0009
460.9359	0.0091
461.1376	0.0208
461.3394	-0.0162
461.5411	0.0102
461.7428	-0.0003
461.9445	0.0048
462.1462	0.0059
462.3479	-0.0134
462.5495	0.0082
462.7512	0.0136
462.9528	0.0047
463.1544	0.0145
463.356	0.0042
463.5576	0.0039
463.7592	-0.0138
463.9607	0.0117
464.1623	-0.0084
464.3638	0.0138
464.5653	-0.0037
464.7668	0.006
464.9683	0.012
465.1697	0.0071
465.3712	-0.0043
465.5726	0.0062
465.7741	0.0164
465.9755	-0.0186
466.1769	0.0078
466.3782	0.0129
466.5796	-0.0053
466.7809	-0.0011
466.9823	0.0062
467.1836	0.0103
467.3849	0.0063
467.5862	-0.0112
467.7875	-0.0028
467.9887	0.0045
468.19	-0.0106
468.3912	0.0163
468.5924	-0.008
468.7936	0.0003
468.9948	-0.0091
469.196	-0.0026
469.3972	-0.0003
469.5983	0.002
469.7994	-0.0045
470.0006	-0.0152
470.2017	0.0031
470.4027	-0.0179
470.6038	-0.0174
470.8049	-0.0121
471.0059	-0.001
471.2069	-0.0043
471.408	-0.0167
471.6089	0.0003
471.8099	0.0028
472.0109	0.0016
472.2119	0.0033
472.4128	-0.0072
472.6137	0.0057
472.8146	0.0023
473.0155	-0.0102
473.2164	-0.0025
473.4173	-0.0046
473.6181	0.0072
473.819	-0.0039
474.0198	-0.0145
474.2206	-0.0126
474.4214	0.0008
474.6222	0.0067
474.8229	-0.0093
475.0237	-0.004
475.2244	0.006
475.4251	0.0008
475.6258	-0.0043
475.8265	-0.0141
476.0272	-0.0068
476.2278	-0.0036
476.4285	-0.0051
476.6291	-0.0037
476.8297	-0.0004
477.0303	0.0055
477.2309	-0.0084
477.4315	0.0066
477.632	0.0007
477.8326	-0.0027
478.0331	-0.0237
478.2336	-0.0012
478.4341	-0.018
478.6346	0.0008
478.8351	-0.0096
479.0355	-0.0194
479.236	-0.0129
479.4364	-0.0165
479.6368	0.0032
479.8372	0.0086
480.0376	-0.0042
480.2379	-0.0081
480.4383	-0.009
480.6386	0.0019
480.8389	-0.0048
481.0392	-0.0118
481.2395	0.0017
481.4398	-0.0236
481.6401	-0.0001
481.8403	-0.0031
482.0405	-0.0145
482.2408	-0.0227
482.441	-0.0098
482.6411	-0.0143
482.8413	-0.015
483.0415	-0.0034
483.2416	-0.0109
483.4417	-0.0049
483.6419	-0.0133
483.8419	-0.0061
484.042	0.0034
484.2421	-0.007
484.4422	-0.0021
484.6422	-0.0063
484.8422	0.0041
485.0422	-0.0013
485.2422	-0.0077
485.4422	-0.0116
485.6422	-0.0106
485.8421	0.002
486.042	0.0021
486.242	-0.0065
486.4419	-0.0029
486.6417	0.0014
486.8416	-0.0065
487.0415	-0.0066
487.2413	0.0037
487.4411	-0.0027
487.641	-0.0072
487.8408	-0.0019
488.0405	-0.01
488.2403	-0.003
488.4401	0.0015
488.6398	-0.0072
488.8395	-0.01
489.0392	-0.0121
489.2389	-0.0235
489.4386	-0.0106
489.6383	-0.021
489.8379	-0.007
490.0376	0.0039
490.2372	-0.0077
490.4368	-0.0067
490.6364	-0.0005
490.836	-0.0092
491.0355	-0.0166
491.2351	-0.012
491.4346	-0.018
491.6341	-0.0011
491.8336	-0.008
492.0331	-0.006
492.2326	-0.007
492.432	-0.0039
492.6315	-0.008
492.8309	-0.0115
493.0303	-0.0114
493.2297	-0.01
493.4291	-0.0109
493.6284	-0.0152
493.8278	-0.0098
494.0271	-0.0001
494.2264	-0.0164
494.4257	-0.013
494.625	-0.0056
494.8243	-0.0085
495.0236	-0.0155
495.2228	-0.0092
495.422	-0.0134
495.6213	-0.006
495.8205	-0.0114
496.0196	-0.0137
496.2188	-0.0108
496.418	-0.0038
496.6171	-0.0086
496.8162	-0.013
497.0153	-0.0069
497.2144	-0.0091
497.4135	-0.0019
497.6126	-0.0177
497.8116	-0.0164
498.0107	-0.0102
498.2097	-0.0108
498.4087	-0.0205
498.6077	-0.0107
498.8067	0.0078
499.0056	-0.0072
499.2046	-0.0001
499.4035	-0.0141
499.6024	-0.0202
499.8013	-0.0118
500.0002	-0.0141
500.199	-0.0066
500.3979	0.0042
500.5967	-0.0069
500.7956	-0.0108
500.9944	-0.0221
501.1932	-0.0093
501.3919	-0.009
501.5907	-0.0176
501.7895	-0.0155
501.9882	-0.0036
502.1869	-0.0075
502.3856	-0.0132
502.5843	-0.0074
502.783	-0.0048
502.9816	0.0015
503.1803	-0.0164
503.3789	-0.0052
503.5775	-0.0121
503.7761	-0.0039
503.9747	-0.009
504.1732	-0.003
504.3718	0.0039
504.5703	-0.0004
504.7689	-0.003
504.9674	-0.0041
505.1658	-0.0068
505.3643	-0.0005
505.5628	-0.0035
505.7612	-0.0047
505.9597	-0.0041
506.1581	0.0039
506.3565	-0.0004
506.5549	-0.01
506.7532	-0.0057
506.9516	-0.0092
507.1499	-0.0219
507.3482	-0.0032
507.5465	-0.0006
507.7448	-0.002
507.9431	-0.0089
508.1414	-0.0082
508.3396	-0.0105
508.5379	-0.0064
508.7361	-0.0022
508.9343	-0.0054
509.1325	-0.004
509.3306	-0.016
509.5288	-0.0129
509.7269	0.0052
509.9251	0.0038
510.1232	-0.0007
510.3213	-0.0049
510.5193	-0.0078
510.7174	-0.007
510.9154	0.0058
511.1135	-0.0166
511.3115	-0.0071
511.5095	-0.0119
511.7075	-0.0009
511.9055	-0.0038
512.1034	-0.0067
512.3014	0.0018
512.4993	0.0039
512.6972	-0.0117
512.8951	0.0003
513.093	-0.0093
513.2908	-0.0104
513.4887	0.0027
513.6865	-0.0027
513.8844	-0.0051
514.0822	0.0016
514.2799	-0.0167
514.4777	0.0021
514.6755	0.0058
514.8732	-0.0032
515.0709	-0.0069
515.2687	-0.0003
515.4664	0.0064
515.664	-0.0082
515.8617	-0.0022
516.0594	-0.008
516.257	-0.0132
516.4546	-0.0148
516.6522	-0.0066
516.8498	-0.0118
517.0474	0.0014
517.2449	-0.0252
517.4425	0.0016
517.64	-0.0245
517.8375	-0.0041
518.035	-0.0047
518.2325	-0.0126
518.43	0.0049
518.6274	-0.0097
518.8249	0.0048
519.0223	0.0089
519.2197	0.0028
519.4171	-0.0059
519.6145	0.0041
519.8118	-0.0035
520.0092	-0.0122
520.2065	-0.0154
520.4038	-0.0143
520.6011	0.0023
520.7984	0.0016
520.9956	0.0017
521.1929	-0.0103
521.3901	0.0043
521.5874	-0.0035
521.7846	-0.0066
521.9818	-0.0033
522.1789	0.0044
522.3761	0.0052
522.5732	-0.0109
522.7704	0.0021
522.9675	-0.012
523.1646	0.0007
523.3617	-0.001
523.5587	0.0048
523.7558	-0.0127
523.9528	0.0037
524.1498	-0.0013
524.3468	-0.0042
524.5438	0.0037
524.7408	-0.0004
524.9378	-0.0008
525.1347	-0.0099
525.3316	0.006
525.5285	-0.0102
525.7254	-0.0006
525.9223	-0.0026
526.1192	0.0009
526.316	-0.005
526.5129	-0.0016
526.7097	0.0128
526.9065	0.0037
527.1033	-0.0016
527.3	-0.0066
527.4968	-0.0137
527.6935	0.0083
527.8903	0.0018
528.087	0.0048
528.2837	0.0032
528.4804	0.005
528.677	-0.0067
528.8737	-0.0004
529.0703	-0.0056
529.2669	-0.0086
529.4635	0.0067
529.6601	0.008
529.8567	0.0074
530.0532	-0.0004
530.2498	-0.0053
530.4463	-0.0087
530.6428	-0.0068
530.8393	0.0046
531.0358	0.0005
531.2322	0.0107
531.4287	0.0023
531.6251	-0.0022
531.8215	-0.0144
532.0179	-0.0053
532.2143	-0.0006
532.4107	-0.0003
532.607	0.0022
532.8034	-0.0123
532.9997	-0.0048
533.196	-0.011
533.3923	-0.0031
533.5886	-0.0046
533.7848	0.0009
533.9811	0.0008
534.1773	-0.0131
534.3735	-0.006
534.5697	-0.0064
534.7659	0.0009
534.9621	-0.0052
535.1582	-0.0037
535.3544	-0.0048
535.5505	-0.0031
535.7466	-0.0063
535.9427	-0.0004
536.1387	0.0022
536.3348	-0
536.5308	-0.0141
536.7269	0.0041
536.9229	-0.0037
537.1189	-0.0057
537.3148	-0.004
537.5108	0.0029
537.7068	-0.0018
537.9027	0.0009
538.0986	-0.0055
538.2945	-0.0109
538.4904	0.0063
538.6863	-0.0005
538.8821	-0.0066
539.078	-0.0026
539.2738	0.007
539.4696	-0.0167
539.6654	0.0027
539.8611	0.0097
540.0569	-0.0012
540.2526	0.0037
540.4484	0.003
540.6441	0.0017
540.8398	-0.0072
541.0355	0.0084
541.2311	-0.0036
541.4268	-0.0034
541.6224	0.0047
541.818	0.0004
542.0136	-0.0045
542.2092	0.0066
542.4048	-0.0008
542.6003	0.0061
542.7959	0.0034
542.9914	0.0014
543.1869	-0.0012
543.3824	0.0021
543.5779	0.0145
543.7734	-0.0026
543.9688	-0.0068
544.1642	-0.0037
544.3596	0.004
544.555	0.0056
544.7504	-0.0027
544.9458	0.0057
545.1411	0.0039
545.3365	0.0055
545.5318	0.015
545.7271	0.001
545.9224	-0.0036
546.1177	-0.008
546.3129	-0.0009
546.5081	-0.0035
546.7034	0.0015
546.8986	0.0092
547.0938	-0.0009
547.289	-0.0053
547.4841	0.0036
547.6793	0.0001
547.8744	-0.0049
548.0695	0.0004
548.2646	-0.0004
548.4597	0.0053
548.6548	-0.0061
548.8498	0.0052
549.0448	0.0059
549.2399	0.009
549.4349	-0.0016
549.6298	0.0118
549.8248	-0.0003
550.0198	0.0036
550.2147	-0.007
550.4096	-0.0062
550.6045	-0.0093
550.7994	-0.0029
550.9943	0.0054
551.1892	-0.0099
551.384	-0.0003
551.5788	0.0044
551.7737	-0.0134
551.9685	-0.0006
552.1632	-0.0003
552.358	0.0035
552.5528	-0.0066
552.7475	-0.0044
552.9422	0.0071
553.1369	-0.0006
553.3316	-0.009
553.5263	0.0083
553.7209	0.002
553.9156	0.0097
554.1102	-0.0106
554.3048	-0.0051
554.4994	-0.0009
554.694	0.0005
554.8885	0.0122
555.0831	-0.0039
555.2776	0.003
555.4721	0.0107
555.6666	-0.0015
555.8611	0.0009
556.0555	0.0065
556.25	0.0054
556.4444	0.0123
556.6388	0.01
556.8332	0.0085
557.0276	0.01
557.222	-0.0049
557.4163	0.0036
557.6107	0.0181
557.805	0.01
557.9993	-0.0012
558.1936	0.0095
558.3879	0.0079
558.5821	0.0006
558.7764	0.0075
558.9706	0.0051
559.1648	0.0001
559.359	0.0024
559.5532	-0.0037
559.7473	0.0149
559.9415	0.0062
560.1356	0.0091
560.3297	0.0045
560.5238	0.0093
560.7179	0.0109
560.9119	-0.0013
561.106	-0
561.3	0.0087
561.494	-0.0005
561.688	-0.0008
561.882	0.0112
562.076	0.0009
562.2699	0.0139
562.4639	0.0025
562.6578	0.0011
562.8517	0.0052
563.0456	0.0069
563.2395	0.0005
563.4333	-0.0067
563.6272	0.0011
563.821	-0.0112
564.0148	0.0164
564.2086	-0.0152
564.4024	-0.0016
564.5961	0.0148
564.7899	0.0004
564.9836	0.0129
565.1773	0.0088
565.371	0.0077
565.5647	0.0021
565.7584	-0.001
565.952	0.0114
566.1456	0.0117
566.3393	0.0058
566.5329	-0.0038
566.7264	0.0033
566.92	0.0029
567.1136	0.0111
567.3071	0.0054
567.5006	0.0039
567.6941	0.0031
567.8876	0.0022
568.0811	-0.0037
568.2745	-0.0024
568.468	0.0015
568.6614	0.0009
568.8548	0.0057
569.0482	0.0139
569.2416	0.0022
569.4349	0.0046
569.6283	0.0062
569.8216	0.0053
570.0149	0.0047
570.2082	0.0139
570.4015	0.001
570.5947	0.0055
570.788	0.0071
570.9812	0.0026
571.1744	0.0009
571.3676	0.0075
571.5608	0.0005
571.754	0.0022
571.9471	-0.0015
572.1402	0.0021
572.3333	-0.0003
572.5264	-0.001
572.7195	-0.0075
572.9126	0.0084
573.1057	-0.0015
573.2987	0.0066
573.4917	-0.0021
573.6847	0.0027
573.8777	0.0014
574.0707	0.0048
574.2636	-0.0008
574.4566	0.0027
574.6495	0.006
574.8424	0.0004
575.0353	-0.0033
575.2281	0.0026
575.421	-0.0021
575.6138	-0.0011
575.8067	-0.0017
575.9995	0.0007
576.1923	0.0059
576.385	0.0086
576.5778	-0.0023
576.7706	0.0056
576.9633	-0.0046
577.156	0.0019
577.3487	0
577.5414	-0.0005
577.734	-0.0042
577.9267	-0.0014
578.1193	0.0068
578.3119	0.0024
578.5045	0.0067
578.6971	0.0059
578.8897	-0.0001
579.0822	0.0016
579.2747	0.0037
579.4673	0.0016
579.6598	0.007
579.8522	0.0072
580.0447	0.0034
580.2372	0.0078
580.4296	0.0177
580.622	0.01
580.8144	-0
581.0068	0.0057
581.1992	0.0024
581.3915	0.0047
581.5839	0.0096
581.7762	0.0099
581.9685	0.0034
582.1608	0.0025
582.353	-0.0033
582.5453	-0.0039
582.7375	-0.0058
582.9298	0.0005
583.122	0.0036
583.3142	0.0003
583.5063	0.0066
583.6985	0.0035
583.8906	-0.0012
584.0827	0.0005
584.2749	0.0012
584.4669	-0.0013
584.659	0.0056
584.8511	-0.0039
585.0431	-0.0029
585.2352	-0.0029
585.4272	0.0006
585.6192	-0.0002
585.8111	-0.0026
586.0031	-0.0006
586.195	-0.002
586.387	0.002
586.5789	-0.005
586.7708	-0.0006
586.9627	-0.0024
587.1545	0.0073
587.3464	0.0048
587.5382	-0.0066
587.73	0.0079
587.9218	0.0066
588.1136	0.0026
588.3053	-0.0052
588.4971	0.0016
588.6888	0.0041
588.8805	0.0055
589.0722	-0.0001
589.2639	0.0055
589.4556	-0.0051
589.6472	-0
589.8389	0.0015
590.0305	0.0049
590.2221	0.0071
590.4137	-0.0003
590.6052	-0.0014
590.7968	0.0028
590.9883	0.0032
591.1798	-0.0084
591.3713	-0
591.5628	0.0017
591.7543	0.0155
591.9458	0.0073
592.1372	-0.0039
592.3286	0.0085
592.52	0.0013
592.7114	0.0014
592.9028	-0.0048
593.0941	0.0034
593.2855	0.0005
593.4768	-0.0035
593.6681	-0.0049
593.8594	0.0028
594.0506	-0.0072
594.2419	0.0074
594.4331	-0.003
594.6244	-0.001
594.8156	0.0086
595.0067	-0.0044
595.1979	-0.0023
595.3891	-0.0007
595.5802	-0.0011
595.7713	-0.0081
595.9624	0.0007
596.1535	0.0014
596.3446	0.0042
596.5357	0.0034
596.7267	0.0061
596.9177	0.0075
597.1087	0.0143
597.2997	0.007
597.4907	-0.0021
597.6817	-0.0001
597.8726	0.0112
598.0635	0.0007
598.2544	0.0114
598.4453	0.0147
598.6362	0.005
598.827	0.0056
599.0179	-0.001
599.2087	-0.0016
599.3995	0.0154
599.5903	0.0109
599.7811	0.008
599.9718	-0.0022
600.1626	0.0007
600.3533	-0.0001
600.544	-0.0013
600.7347	-0.0007
600.9254	-0.0018
601.116	-0.0032
601.3067	-0.0091
601.4973	-0.0007
601.6879	0.0024
601.8785	0.0031
602.0691	0.004
602.2596	0.0061
602.4502	0.0055
602.6407	-0.0098
602.8312	-0.0063
603.0217	0.0015
603.2122	-0.0013
603.4027	0.0024
603.5931	0.001
603.7835	0.0056
603.9739	0.0033
604.1643	0.0075
604.3547	0.0085
604.5451	0.0067
604.7354	0.0044
604.9257	-0.0021
605.116	0.0007
605.3063	0.0018
605.4966	-0.0003
605.6869	0.0142
605.8771	0.0027
606.0673	-0.0009
606.2575	0.0033
606.4477	-0.0004
606.6379	0.0063
606.8281	0.0019
607.0182	0.0076
607.2083	0
607.3985	0.0027
607.5885	-0.0036
607.7786	0.0018
607.9687	0.0024
608.1587	0.005
608.3488	0.006
608.5388	0.0019
608.7288	0.0016
608.9187	0.0014
609.1087	0.0013
609.2986	0.0039
609.4886	-0.0012
609.6785	0.0109
609.8684	0.0087
610.0582	0.0082
610.2481	0.0019
610.4379	0.003
610.6278	0.0002
610.8176	0.0068
611.0074	0.0087
611.1971	0.002
611.3869	0.0001
611.5766	0.0031
611.7664	0.0028
611.9561	0.0063
612.1458	0.0041
612.3354	0.0091
612.5251	0.0018
612.7147	-0
612.9044	0.008
613.094	0.0044
613.2836	0.0119
613.4731	0.0038
613.6627	-0.0017
613.8522	0.0145
614.0417	0.0079
614.2313	0.007
614.4207	0.0054
614.6102	0.0038
614.7997	0.0019
614.9891	0.002
615.1785	0.0054
615.3679	0.0059
615.5573	0.0008
615.7467	-0.003
615.9361	-0.0012
616.1254	-0.0027
616.3147	-0.0011
616.504	0.0075
616.6933	-0.0006
616.8826	0.0107
617.0718	0.0037
617.2611	0.0123
617.4503	0.0123
617.6395	0.0086
617.8287	0.012
618.0179	0.0033
618.207	0.0085
618.3961	0.011
618.5853	0.0089
618.7744	0.0013
618.9634	0.0089
619.1525	-0.0071
619.3416	0.0017
619.5306	0.0115
619.7196	0.0002
619.9086	0.0051
620.0976	0.0041
620.2866	0.0012
620.4755	0.0098
620.6645	0.0091
620.8534	0.0082
621.0423	0.0014
621.2312	0.0054
621.42	0.005
621.6089	0.0082
621.7977	0.0083
621.9865	0.0085
622.1753	0.0131
622.3641	-0.0015
622.5529	0.0196
622.7416	0.0076
622.9303	0.0127
623.1191	0.0083
623.3078	0.0095
623.4964	0.0057
623.6851	0.0033
623.8737	0.0148
624.0624	0.0017
624.251	0.0087
624.4396	0.0094
624.6282	0.0106
624.8167	0.0122
625.0053	0.0021
625.1938	0.0082
625.3823	0.008
625.5708	0.0102
625.7593	0.006
625.9477	0.0125
626.1362	0.0056
626.3246	0.0046
626.513	-0.0002
626.7014	0.0078
626.8898	0.0068
627.0781	0.0052
627.2665	0.0064
627.4548	0.0054
627.6431	0.0098
627.8314	0.0123
628.0197	-0.0008
628.2079	-0.0012
628.3962	0.0039
628.5844	0.0086
628.7726	0.0104
628.9608	0.0086
629.1489	0.0026
629.3371	0.008
629.5252	0.0066
629.7134	0.0055
629.9015	0.0035
630.0895	0.0096
630.2776	-0.0014
630.4657	0.0079
630.6537	0.0039
630.8417	0.0134
631.0297	0.0139
631.2177	0.0132
631.4057	0.0074
631.5936	0.0009
631.7815	0.0074
631.9695	0.0105
632.1574	0.0066
632.3452	0.0127
632.5331	0.0048
632.7209	0.0064
632.9088	0.0018
633.0966	0.0043
633.2844	-0.0031
633.4722	0.0091
633.6599	0.0107
633.8477	0.0109
634.0354	0.0051
634.2231	0.0137
634.4108	0.0074
634.5985	0.0033
634.7861	0.0096
634.9738	0.0144
635.1614	0.0087
635.349	0.0085
635.5366	0.003
635.7242	0.0096
635.9117	0.0009
636.0993	0.0077
636.2868	0.011
636.4743	0.002
636.6618	-0.0002
636.8492	0.0166
637.0367	0.0014
637.2241	0.014
637.4115	0.0073
637.5989	0.0193
637.7863	0.005
637.9737	0.0076
638.161	0.0162
638.3484	0.0021
638.5357	-0.0007
638.723	0.0026
638.9103	0.003
639.0975	0.0018
639.2848	0.0048
639.472	0.0048
639.6592	0.0019
639.8464	0.0074
640.0336	0.0061
640.2208	0.0063
640.4079	0.0058
640.595	0.0019
640.7821	0.0069
640.9692	0.0048
641.1563	0.0059
641.3434	0.0054
641.5304	0.0123
641.7174	0.0102
641.9044	-0.0001
642.0914	-0.0003
642.2784	-0.0094
642.4653	0.0057
642.6523	-0.0004
642.8392	0.006
643.0261	-0.0029
643.213	0.003
643.3999	-0.0011
643.5867	0.0058
643.7735	0.0055
643.9604	-0.0024
644.1472	0.0015
644.3339	-0.0005
644.5207	0.0014
644.7075	-0.0022
644.8942	0.0081
645.0809	0.0036
645.2676	0.0048
645.4543	0.012
645.6409	0.0064
645.8276	0.0023
646.0142	0.0086
646.2008	0.0143
646.3874	0.0065
646.574	0.0087
646.7605	0.0044
646.9471	0.0039
647.1336	0.0068
647.3201	0.0167
647.5066	0.0056
647.6931	0.0054
647.8795	-0.0062
648.0659	0.0044
648.2524	0.0078
648.4388	0.0013
648.6252	-0.0033
648.8115	0.0036
648.9979	0.0025
649.1842	0.0027
649.3705	-0.0035
649.5568	0.0012
649.7431	0.0152
649.9294	0.0058
650.1156	0.0094
650.3018	0.0102
650.488	0.0068
650.6742	-0.0016
650.8604	0.0127
651.0466	0.0089
651.2327	0.0086
651.4188	0.0119
651.6049	0.017
651.791	0.014
651.9771	0.0057
652.1632	0.0105
652.3492	0.0031
652.5352	0.0058
652.7212	0.0017
652.9072	-0.0052
653.0932	0.0043
653.2791	-0.004
653.465	0.0037
653.651	0.0061
653.8369	0.0005
654.0227	0.0072
654.2086	0.007
654.3944	0.0056
654.5803	0.0028
654.7661	0.0073
654.9519	0.0002
655.1377	-0.002
655.3234	-0.0033
655.5092	-0.0021
655.6949	-0.0079
655.8806	-0.0065
656.0663	0.0017
656.2519	-0.0044
656.4376	0.0019
656.6232	0.0037
656.8088	0.0037
656.9945	0.0057
657.18	0.0055
657.3656	0.005
657.5511	-0.0021
657.7367	0.0102
657.9222	0.0067
658.1077	0.0113
658.2932	0.0005
658.4786	-0.0091
658.6641	0.0021
658.8495	0.0036
659.0349	0.008
659.2203	0.0084
659.4057	-0.0011
659.591	0.0049
659.7764	-0.001
659.9617	0.0006
660.147	0.0061
660.3323	0.0013
660.5176	0.003
660.7028	0.0037
660.888	0.01
661.0733	0.0075
661.2585	0.0108
661.4436	0.0073
661.6288	0.0097
661.8139	0.0094
661.9991	-0.003
662.1842	0.0046
662.3693	0.001
662.5544	0.0145
662.7394	0.0078
662.9245	0.0025
663.1095	0.0138
663.2945	0.0053
663.4795	0.0023
663.6644	0.0057
663.8494	0.0046
664.0343	0.0052
664.2193	0.012
664.4042	0.0162
664.589	0.0052
664.7739	0.0035
664.9587	0.0096
665.1436	-0.0043
665.3284	0.0035
665.5132	0.0058
665.698	0.0006
665.8827	0.0077
666.0675	0.0044
666.2522	0.0085
666.4369	-0.0034
666.6216	0.0122
666.8063	-0.0013
666.9909	0.0021
667.1756	0.0192
667.3602	0.003
667.5448	0.0132
667.7294	0.012
667.9139	0.0035
668.0985	0.0024
668.283	-0.0037
668.4675	0.0014
668.652	0.0005
668.8365	-0.006
669.0209	0.0033
669.2054	0.0026
669.3898	0.003
669.5742	0.0071
669.7586	0.007
669.943	0.0022
670.1273	0.0095
670.3117	0.0032
670.496	0.0085
670.6803	0.0067
670.8646	0.0062
671.0488	0.0082
671.2331	0.0099
671.4173	0.0099
671.6015	0.0051
671.7857	0.0009
671.9699	0.0136
672.1541	0.0075
672.3382	0.0105
672.5223	0.0083
672.7064	0.004
672.8905	0.0136
673.0746	0.0107
673.2587	0.0112
673.4427	0.0044
673.6267	0.0026
673.8107	0.0178
673.9947	0.0062
674.1787	0.0089
674.3626	0.0141
674.5465	0.0107
674.7304	0.0094
674.9143	0.0088
675.0982	0.0047
675.2821	0.0023
675.4659	0.0187
675.6497	-0.0002
675.8335	0.0072
676.0173	0.0057
676.2011	0.0042
676.3849	0.0036
676.5686	0.0178
676.7523	0.017
676.936	-0.0018
677.1197	0.0108
677.3034	0.0036
677.487	0.0129
677.6706	0.0167
677.8542	0.0062
678.0378	0.013
678.2214	-0.0001
678.405	0.0172
678.5885	0.0153
678.772	0.0084
678.9555	0.0094
679.139	0.0062
679.3225	0.0078
679.5059	0.0095
679.6894	0.0033
679.8728	0.0041
680.0562	0.0059
680.2395	0.0114
680.4229	-0.0005
680.6062	0.0064
680.7896	0.0084
680.9729	0.0019
681.1562	0.0123
681.3394	0.0103
681.5227	0.0136
681.7059	0.0055
681.8891	0.0029
682.0723	0.006
682.2555	0.0023
682.4387	0.0025
682.6218	0.0081
682.805	0.0069
682.9881	0.0187
683.1712	0.0173
683.3542	0.0105
683.5373	0.0085
683.7203	0.0127
683.9034	0.0134
684.0864	0.007
684.2694	0.0174
684.4523	0.0099
684.6353	0.002
684.8182	0.0028
685.0011	0.007
685.184	0.0022
685.3669	-0.0015
685.5498	0.0027
685.7326	0.0045
685.9154	0.005
686.0982	0.0114
686.281	0.0114
686.4638	0.0051
686.6465	0.0097
686.8293	0.0091
687.012	0.01
687.1947	0.0058
687.3774	0.0182
687.56	0.0058
687.7427	0.0116
687.9253	0.0084
688.1079	0.0102
688.2905	0.0012
688.4731	0.0123
688.6556	0.0106
688.8382	0.0001
689.0207	0.0083
689.2032	0.0132
689.3857	0.0152
689.5681	0.0064
689.7506	0.0069
689.933	0.0052
690.1154	0.0011
690.2978	-0.0003
690.4802	0.0048
690.6626	0.0038
690.8449	0.0138
691.0272	0.0051
691.2095	0.0118
691.3918	0.0041
691.5741	0.0153
691.7563	0.0066
691.9386	0.0164
692.1208	0.0041
692.303	0.0023
692.4852	0.0132
692.6673	0.0074
692.8495	0.0082
693.0316	0.0179
693.2137	0.0102
693.3958	0.007
693.5778	0.0088
693.7599	0.0138
693.9419	0.0114
694.1239	0.0111
694.3059	0.0191
694.4879	0.0066
694.6699	0.0048
694.8518	0.0113
695.0337	0.0132
695.2157	0.0131
695.3975	-0.0018
695.5794	0.0098
695.7613	0.0064
695.9431	0.0103
696.1249	0.0104
696.3067	-0
696.4885	0.0112
696.6703	0.0102
696.852	0.0095
697.0337	0.0095
697.2154	0.0121
697.3971	0.0117
697.5788	0.0109
697.7605	0.0085
697.9421	-0.0073
698.1237	0.0145
698.3053	0.0104
698.4869	0.008
698.6685	0.0064
698.85	0.0088
699.0315	0.0163
699.213	0.0042
699.3945	0.0046
699.576	0.0122
699.7575	0.013
699.9389	0.0217
700.1203	0.0097
700.3017	0.0103
700.4831	0.009
700.6645	0.0025
700.8458	0.0051
701.0271	0.007
701.2084	0.005
701.3897	0.0023
701.571	0.0009
701.7523	-0.0036
701.9335	0.0039
702.1147	0.0012
702.2959	-0.0059
702.4771	0.0045
702.6583	-0.0002
702.8394	0.0041
703.0205	-0.0021
703.2016	0.0129
703.3827	0.005
703.5638	0.0157
703.7449	0.0118
703.9259	0.0042
704.1069	0.0058
704.2879	-0.0003
704.4689	0.0033
704.6499	-0.0024
704.8308	0.0079
705.0117	0.0089
705.1927	0.0031
705.3735	0.0031
705.5544	-0.002
705.7353	0.0046
705.9161	0.0063
706.0969	0.0037
706.2777	0.0091
706.4585	0.0023
706.6393	0.0076
706.82	-0.0003
707.0007	-0.0049
707.1815	-0.0013
707.3621	-0.0024
707.5428	0.0117
707.7235	-0.0029
707.9041	0.0064
708.0847	0.0135
708.2653	0.0082
708.4459	0.0064
708.6265	0.0153
708.807	0.0147
708.9875	0.0122
709.168	0.0123
709.3485	0.008
709.529	-0.0022
709.7095	0.0181
709.8899	0.0077
710.0703	0.0067
710.2507	0.0003
710.4311	0.0097
710.6115	0.0115
710.7918	0.0102
710.9721	0.0072
711.1524	0.0054
711.3327	0.0052
711.513	-0.0041
711.6932	0.0007
711.8735	-0.0001
712.0537	-0.0042
712.2339	-0.0116
712.4141	0.0012
712.5942	-0.0011
712.7744	-0.0005
712.9545	0.0034
713.1346	0.008
713.3147	-0.0019
713.4947	-0.0055
713.6748	0.0018
713.8548	0.0086
714.0348	0.0049
714.2148	-0.0015
714.3948	0.0004
714.5748	0.0079
714.7547	0.0093
714.9346	0.002
715.1145	0.0035
715.2944	-0.001
715.4743	0.0111
715.6541	0.0142
715.834	0.005
716.0138	0.0163
716.1936	0.0067
716.3733	0.0176
716.5531	0.0145
716.7328	0.0022
716.9126	0.0086
717.0923	0.0081
717.2719	0.01
717.4516	0.004
717.6312	0.0083
717.8109	0.0042
717.9905	-0.001
718.1701	-0.008
718.3496	0.01
718.5292	-0.001
718.7087	-0.008
718.8882	-0.0022
719.0677	0.0078
719.2472	0.0061
719.4267	0.0118
719.6061	0.0045
719.7856	0.0061
719.965	0.0067
720.1443	0.007
720.3237	0.0073
720.5031	0.0059
720.6824	0.0065
720.8617	0.0067
721.041	-0.0036
721.2203	0.0083
721.3995	0.002
721.5788	0.0089
721.758	-0.0019
721.9372	0.0094
722.1164	0.0024
722.2956	0.0103
722.4747	0.0057
722.6538	0.0033
722.8329	0.011
723.012	0.0013
723.1911	0.0047
723.3702	0.0027
723.5492	0.0037
723.7282	0.0034
723.9072	0.0008
724.0862	0.0113
724.2652	0.0006
724.4441	-0.0057
724.623	0.0096
724.8019	-0.003
724.9808	0.0063
725.1597	0.0136
725.3385	0.0107
725.5174	0.003
725.6962	0.0033
725.875	-0.0025
726.0538	0.0117
726.2325	-0.0006
726.4112	0.0069
726.59	0.0064
726.7687	-0.0041
726.9474	-0.0005
727.126	-0.0028
727.3047	0.0043
727.4833	-0.0001
727.6619	-0.0038
727.8405	-0.0045
728.0191	-0.004
728.1976	-0.0021
728.3762	0.0032
728.5547	0.0039
728.7332	0.0054
728.9116	-0.0047
729.0901	0.0077
729.2686	0.0011
729.447	-0.002
729.6254	0.0098
729.8038	-0.001
729.9821	0.0138
730.1605	0.0076
730.3388	-0.0062
730.5171	0.005
730.6954	0.0094
730.8737	-0.0054
731.0519	0.0005
731.2302	0.0037
731.4084	0.0062
731.5866	-0.005
731.7648	0.0051
731.9429	0.0088
732.1211	-0.0011
732.2992	0.0066
732.4773	-0.0093
732.6554	-0.0023
732.8335	-0.0033
733.0115	0.0002
733.1896	0.0082
733.3676	-0.0012
733.5456	-0.0071
733.7235	0.0033
733.9015	0.0086
734.0794	0.0028
734.2574	-0.0034
734.4353	-0.0019
734.6131	0.0071
734.791	0.0094
734.9689	0.0132
735.1467	-0.0023
735.3245	0.0019
735.5023	0.0046
735.68	0.0162
735.8578	0.0053
736.0355	0.0014
736.2132	0.0083
736.3909	0.0057
736.5686	0.008
736.7463	0.0127
736.9239	0.0153
737.1015	0.0073
737.2791	0.0132
737.4567	-0.0002
737.6343	0.0029
737.8118	0.0077
737.9894	0.0024
738.1669	-0.0021
738.3444	0.008
738.5218	0.0062
738.6993	0.0016
738.8767	0.0073
739.0541	-0.0003
739.2315	0.005
739.4089	0.0041
739.5863	-0.0023
739.7636	0.0041
739.9409	-0.0024
740.1182	0.0079
740.2955	0.0162
740.4728	0.0058
740.65	-0.0008
740.8272	0.0019
741.0044	-0.0077
741.1816	0.0069
741.3588	-0
741.5359	0.0025
741.7131	0.0059
741.8902	-0.0043
742.0673	0.0122
742.2444	0.0077
742.4214	-0.0065
742.5985	0.0098
742.7755	0.0021
742.9525	0.0074
743.1295	-0.0009
743.3064	0.0001
743.4834	0.0087
743.6603	-0.0074
743.8372	-0.0085
744.0141	0.0008
744.191	0.0069
744.3678	-0.0037
744.5446	-0.004
744.7215	0.0212
744.8982	0.0041
745.075	-0.0031
745.2518	-0.0063
745.4285	-0.0077
745.6052	0.006
745.7819	-0.014
745.9586	0.0053
746.1353	0.0009
746.3119	0.0064
746.4885	0.0008
746.6651	0.0039
746.8417	0.0077
747.0183	0.0072
747.1948	-0.001
747.3714	0.0042
747.5479	-0.0009
747.7244	0.006
747.9008	0.0068
748.0773	0.0016
748.2537	0.0017
748.4301	-0.0035
748.6065	0.0004
748.7829	-0.0033
748.9593	0.009
749.1356	0.005
749.3119	0.0062
749.4882	0.0072
749.6645	-0.0013
749.8408	0.0066
750.017	0.0072
750.1933	0.0049
750.3695	0.0133
750.5457	0.0077
750.7218	0.0049
750.898	0.0132
751.0741	0.011
751.2502	0.017
751.4263	0.0162
751.6024	0.0041
751.7784	0.0158
751.9545	0.0057
752.1305	0.0015
752.3065	0.01
752.4825	0.0059
752.6584	0.006
752.8344	0.0047
753.0103	0.0071
753.1862	0.0046
753.3621	-0.0034
753.5379	0.0015
753.7138	0.0081
753.8896	-0.0001
754.0654	-0.0042
754.2412	-0.0044
754.417	-0.0016
754.5927	0.0055
754.7685	-0.0021
754.9442	-0.0027
755.1199	0.0114
755.2956	0.0039
755.4712	0.0007
755.6469	0.009
755.8225	0.007
755.9981	0.0131
756.1736	-0.0023
756.3492	0.0076
756.5248	0.0059
756.7003	0.0067
756.8758	0.0059
757.0513	-0.0008
757.2267	0.0025
757.4022	0.0048
757.5776	0.0049
757.753	-0.002
757.9284	0.007
758.1038	-0.002
758.2791	0.0011
758.4545	0.0052
758.6298	0.0094
758.8051	0.0039
758.9803	0.0111
759.1556	0.002
759.3308	0.0145
759.506	0.0135
759.6812	0.0079
759.8564	-0.0028
760.0316	0.0097
760.2067	-0.0005
760.3819	0.004
760.557	0.0009
760.732	0.0054
760.9071	0.0085
761.0821	0.0084
761.2572	0.0138
761.4322	0.0011
761.6072	0.0007
761.7821	0.0024
761.9571	0.003
762.132	-0.0036
762.3069	0.011
762.4818	0.0038
762.6567	-0.0021
762.8316	0.0011
763.0064	0.0014
763.1812	0.017
763.356	0.005
763.5308	0.0068
763.7055	0.0063
763.8803	0.011
764.055	0.0002
764.2297	0.0133
764.4044	0.0105
764.579	0.0076
764.7537	0.0098
764.9283	0.0129
765.1029	0.0045
765.2775	0.0009
765.4521	-0.0007
765.6266	0.0037
765.8011	0.0013
765.9756	-0.0031
766.1501	0.0034
766.3246	-0.0071
766.4991	0.0048
766.6735	-0.0035
766.8479	-0.0028
767.0223	-0.0013
767.1967	0.0061
767.371	0.0158
767.5454	-0.0026
767.7197	0.0056
767.894	-0.002
768.0683	0.0091
768.2425	0.0061
768.4168	0.0012
768.591	0.0049
768.7652	0.0061
768.9394	0.0036
769.1135	0.0149
769.2877	-0.0055
769.4618	0.0133
769.6359	0.0093
769.81	0.0023
769.984	0.007
770.1581	-0.0017
770.3321	0.0058
770.5061	-0.0076
770.6801	-0.0013
770.8541	0.0009
771.028	0.004
771.202	0.0027
771.3759	-0.004
771.5498	0.0151
771.7236	-0.0013
771.8975	0.0065
772.0713	0.01
772.2451	0.0053
772.4189	-0.0059
772.5927	0.0001
772.7665	0.0028
772.9402	-0.0012
773.1139	-0.0018
773.2876	-0.0068
773.4613	0.0067
773.635	0.0054
773.8086	-0.0016
773.9822	0.0074
774.1558	0.02
774.3294	0.007
774.503	-0.0085
774.6765	0.0176
774.8501	0.0041
775.0236	0.0073
775.1971	0.0188
775.3705	0.0179
775.544	0.027
775.7174	0.0196
775.8908	0.0202
776.0642	0.0036
776.2376	0.0027
776.4109	0.0106
776.5843	-0.0011
776.7576	0.0023
776.9309	0.0172
777.1041	0.0096
777.2774	0.0099
777.4506	0.0088
777.6238	-0.0061
777.797	0.0116
777.9702	-0.0017
778.1434	0.0132
778.3165	-0.0062
778.4896	0.0101
778.6627	0.0026
778.8358	0.0069
779.0089	0.0015
779.1819	0.005
779.3549	0.0132
779.5279	0.0068
779.7009	0.0054
779.8739	-0.0015
780.0468	0.0105
780.2197	0.01
780.3926	0.0126
780.5655	0.0002
780.7384	-0.005
780.9112	-0.007
781.0841	-0.0077
781.2569	-0.0127
781.4297	-0.0101
781.6024	0.0033
781.7752	-0.0047
781.9479	-0.0119
782.1206	0.0116
782.2933	0.0063
782.466	0.0018
782.6386	0.0163
782.8113	-0.0079
782.9839	0.0067
783.1565	-0.008
783.329	0.0038
783.5016	-0.0071
783.6741	0.0058
783.8466	0.0004
784.0191	-0.0065
784.1916	0.0034
784.3641	-0.0068
784.5365	0.0098
784.7089	0.0073
784.8813	0.0095
785.0537	-0.0048
785.2261	-0.0088
785.3984	0.0024
785.5707	0.015
785.743	-0.0025
785.9153	-0.0047
786.0876	0.0126
786.2598	-0.0105
786.432	0.0092
786.6042	0.0044
786.7764	0.0128
786.9486	0.0049
787.1207	0.0103
787.2928	-0
787.4649	0.0007
787.637	0.0004
787.8091	0.0111
787.9811	-0.007
788.1532	-0.0074
788.3252	0.0014
788.4972	0.0084
788.6691	0.0091
788.8411	-0.0108
789.013	-0.0066
789.1849	0.0131
789.3568	0.0101
789.5287	0.0224
789.7005	0.0077
789.8723	0.0079
790.0442	0.0122
790.2159	0.0076
790.3877	0.01
790.5595	0.012
790.7312	-0.0031
790.9029	0.0141
791.0746	0.0045
791.2463	0.0214
791.4179	0.0113
791.5896	0.0188
791.7612	0.0265
791.9328	0.0162
792.1044	0.0262
792.2759	0.0129
792.4474	0.0097
792.619	0.0094
792.7905	0.0307
792.9619	0.0101
793.1334	0.0268
793.3048	0.0058
793.4762	-0.0029
793.6476	0.0026
793.819	0.0105
793.9904	0.0187
794.1617	-0.0088
794.333	0.0011
794.5043	0.0093
794.6756	-0.0091
794.8469	-0.0062
795.0181	-0.0003
795.1893	-0.0073
795.3605	0.0095
795.5317	-0.0028
795.7029	-0.0111
795.874	-0.0047
796.0452	0.0051
796.2163	0.0136
796.3873	0.0078
796.5584	0.0215
796.7294	-0.0005
796.9005	0.0137
797.0715	0.0183
797.2425	0.0098
797.4134	0.0133
797.5844	0.0048
797.7553	0.0042
797.9262	0.0142
798.0971	0.0123
798.2679	-0.0051
798.4388	0.0085
798.6096	-0.0058
798.7804	-0.0015
798.9512	-0.0036
799.122	0.0016
799.2927	-0.0024
799.4635	-0.0032
799.6342	0.0088
799.8049	0.0208
799.9755	0.0022
800.1462	0.0114
800.3168	0.0114
800.4874	0.0088
800.658	0.0147
800.8286	0.0044
800.9991	0.0211
801.1696	0.0063
801.3402	0.0205
801.5106	-0.0024
801.6811	0.0041
801.8516	0.026
802.022	0.0053
802.1924	-0.0032
802.3628	0.007
802.5332	-0.0013
802.7035	-0.014
802.8739	0.01
803.0442	0.0034
803.2145	0.0066
803.3847	0.0178
803.555	0.0053
803.7252	0.0115
803.8954	0.0004
804.0656	0.0053
804.2358	0.0192
804.4059	0.0278
804.5761	-0.0023
804.7462	-0.0008
804.9163	0.0012
805.0864	-0.0124
805.2564	0.0002
805.4264	0.0187
805.5965	0.0126
805.7665	0.0049
805.9364	-0.0189
806.1064	0.0242
806.2763	0.0342
806.4462	0.0181
806.6161	0.0127
806.786	0.0218
806.9559	0.0154
807.1257	0.0166
807.2955	0.032
807.4653	0.0371
807.6351	0.0191
807.8048	-0.0007
807.9746	0.038
808.1443	-0.0009
808.314	0.0078
808.4837	0.0385
808.6533	0.0127
808.8229	0.0206
808.9926	0.0173
809.1622	0.0296
809.3317	0.0267
809.5013	0.0316
809.6708	0.0203
809.8403	0.005
810.0098	0.0171
810.1793	0.0087
810.3488	-0.0017
810.5182	0.0269
810.6876	-0.0015
810.857	0.0108
811.0264	-0.0047
811.1958	0.0206
811.3651	0.0025
811.5344	0.0247
811.7037	-0.0065
811.873	-0.0041
812.0422	0.0066
812.2115	0.0056
812.3807	0.0181
812.5499	-0.0015
812.7191	-0.0003
812.8882	0.0023
813.0574	0.0037
813.2265	0.0284
813.3956	0.0112
813.5646	0.0028
813.7337	0.0125
813.9027	-0.0062
814.0718	0.0249
814.2407	0.0282
814.4097	0.0226
814.5787	0.0067
814.7476	0.0187
814.9165	0.0179
815.0854	-0.0008
815.2543	0.0003
815.4232	0.012
815.592	-0.0091
815.7608	0.0338
815.9296	-0.0137
816.0984	-0.0203
816.2671	-0.0186
816.4359	0.0057
816.6046	-0.0026
816.7733	-0.0086
816.942	-0.0053
817.1106	0.0055
817.2793	0.0003
817.4479	-0.002
817.6165	-0.0049
817.785	0.0105
817.9536	-0.0087
818.1221	0.0304
818.2906	0.0166
818.4591	-0.0113
818.6276	0.0229
818.7961	0.0071
818.9645	0.0019
819.1329	0.0112
819.3013	-0.0035
819.4697	0.009
819.638	-0.012
819.8064	-0.0046
819.9747	-0.0104
820.143	-0.0136
820.3113	-0.0069
820.4795	0.0225
820.6477	-0.006
820.816	-0.0192
820.9842	-0.0068
821.1523	0.023
821.3205	-0.0268
821.4886	-0.0027
821.6567	-0.0067
821.8248	0.0306
821.9929	0.0125
822.1609	-0.0228
822.329	0.0129
822.497	-0.0123
822.665	0.0061
822.833	-0.0067
823.0009	-0.0167
823.1688	0.0029
823.3367	0.0048
823.5046	-0.0481
823.6725	-0.0382
823.8404	-0.0112
824.0082	-0.0281
824.176	0.0124
824.3438	0.0399
824.5116	0.0168
824.6793	-0.0322
824.847	0.0321
825.0147	-0.0052
825.1824	-0.0077
825.3501	-0.0008
825.5177	-0.0032
825.6854	-0.0133
825.853	0.0124
826.0206	0.0082
826.1881	0.0165
826.3557	0.0071
826.5232	0.012
826.6907	0.0316
826.8582	0.0225
827.0257	0.0179
827.1931	-0.0084
827.3605	0.0489
827.528	0.0241
827.6953	0.0166
827.8627	0.0112
828.03	0.0323
828.1974	0.0406
828.3647	-0.0004
828.532	0.0143
828.6992	-0.0098
828.8665	0.048
829.0337	0.0199
829.2009	0.011
829.3681	0.0156
829.5352	0.015
829.7024	0.0082
829.8695	0.0312
830.0366	0.0221
830.2037	-0.0336
830.3707	0.0149
830.5378	-0.0104
830.7048	-0.0061
830.8718	0.0178
831.0388	0.0068
831.2057	0.0072
831.3727	0.0205
831.5396	0.0005
831.7065	-0.0123
831.8734	-0.0306
832.0402	-0.0066
832.2071	0.0109
832.3739	-0.0102
832.5407	0.0211
832.7075	-0.0005
832.8742	-0.0117
833.041	0.0062
833.2077	0.0011
833.3744	0.0292
833.541	0.0369
833.7077	0.0296
833.8743	0.0137
834.0409	0.0108
834.2075	0.0121
834.3741	0.0158
834.5407	-0.0006
834.7072	-0.0177
834.8737	0.0226
835.0402	-0.0065
835.2067	-0.0086
835.3731	0.0215
835.5395	-0.0031
835.706	-0.0018
835.8723	-0.045
836.0387	0.0123
836.2051	0.0062
836.3714	-0.0293
836.5377	-0.0217
836.704	-0.0472
836.8703	-0.0143
837.0365	-0.0194
837.2027	-0.0253
837.3689	-0.0141
837.5351	-0.0014
837.7013	-0.0627
837.8674	0.0345
838.0335	-0.0201
838.1997	-0.06
838.3657	0.0043
838.5318	-0.0065
838.6978	-0.0252
838.8639	-0.0186
839.0299	0.027
839.1958	-0.0245
839.3618	-0.033
839.5277	0.0194
839.6937	-0.0425
839.8596	-0.0625
840.0254	0.0357
840.1913	0.0188
840.3571	-0.0188
840.523	0.0097
840.6888	-0.0041
840.8545	0.0087
841.0203	0.0425
841.186	0.0173
841.3517	0.0161
841.5174	-0.0273
841.6831	-0.0524
841.8488	0.0034
842.0144	0.0543
842.18	-0.0092
842.3456	-0.0092
842.5112	0.0367
842.6767	-0.0369
842.8422	0.0359
843.0077	0.0096
843.1732	-0.0352
843.3387	-0.0052
843.5042	0.0067
843.6696	0.007
843.835	-0.0342
844.0004	0.0191
844.1657	-0.0597
844.3311	-0.024
844.4964	-0.0716
844.6617	-0.0672
844.827	0.0273
844.9923	0.014
845.1575	0.0405
845.3227	0.0409
845.4879	-0.0423
845.6531	0.0582
845.8183	-0.0692
845.9834	0.0558
846.1485	-0.0611
846.3136	-0.0512
846.4787	0.0194
846.6438	0.039
846.8088	-0.0276
846.9738	-0.0992
847.1388	-0.0161
847.3038	-0.0327
847.4687	-0.0219
847.6337	-0.0641
847.7986	0.0731
847.9635	-0.0268
848.1284	0.017
848.2932	0.0558
848.458	-0.0149
848.6228	0.0525
848.7876	-0.0318
848.9524	-0.0244
849.1172	0.0307
849.2819	0.0258
849.4466	0.0039
849.6113	0.0631
849.7759	-0.0302
849.9406	0.008
850.1052	-0.094
850.2698	-0.0256
850.4344	0.013
850.599	0.0065
850.7635	0.0178
850.928	-0.044
851.0925	0.027
851.257	0.0487
851.4215	-0.1368
851.5859	0.0646
851.7503	-0.041
851.9147	0.0078
852.0791	0.0255
852.2434	0.0898
852.4078	-0.0727
852.5721	0.0165
852.7364	-0.0258
852.9007	-0.1594
853.0649	0.0108
853.2291	0.034
853.3934	-0.0106
853.5575	0.0093
853.7217	-0.0125
853.8859	-0.0542
854.05	0.0752
854.2141	0.0504
854.3782	-0.0143
854.5423	0.0658
854.7063	-0.0209
854.8703	-0.0063
855.0343	0.0307
855.1983	-0.0356
855.3623	-0.0347
855.5262	0.1075
855.6901	-0.1061
855.854	0.0848
856.0179	-0.1301
856.1818	0.0025
856.3456	-0.1332
856.5094	-0.0115
856.6732	-0.0066
856.837	0.2067
857.0008	-0.3686
857.1645	0.153
857.3282	0.424
857.4919	-0.0389
857.6556	0.0595
857.8192	-0.0789
857.9828	0.0827
858.1465	-0.0568
858.31	0.0154
858.4736	-0.1229
858.6372	-0.1178
858.8007	-0.3281
858.9642	0.1705
859.1277	-0.1675
859.2911	-0.1471
859.4546	0.3189
859.618	-0.4107
859.7814	-0.0738
859.9448	0.0353
860.1081	-0.0159
860.2715	-0.0279
860.4348	0.022
860.5981	0.018
860.7614	-0.0323
860.9246	0.1175
861.0879	0.004
861.2511	0.0363
861.4143	-0.1227
861.5774	-0.2481
861.7406	-0.1237
861.9037	-0.4888
862.0668	-0.0672
862.2299	-0.1416
862.393	0.0196
862.556	0.0871
862.7191	-0.0654
862.8821	-0.2918
863.0451	-0.1217
863.208	0.0801
863.371	-0.4543
863.5339	0.0665
863.6968	-0.0317
863.8597	-0.1659
864.0225	0.3079
864.1854	-0.1327
864.3482	0.0574
864.511	-0.1712
864.6737	-0.1065
864.8365	-0.0715
864.9992	0.0112
865.1619	-0.1033
865.3246	0.0851
865.4873	0.0976
865.65	-0.0981
865.8126	-0.2776
865.9752	0.0323
866.1378	0.2655
866.3004	-0.0763
866.4629	0.3927
866.6254	-0.0422
866.7879	-0.2367
866.9504	0.3709
867.1129	0.0714
867.2753	0.157
867.4377	-0
867.6001	-0.0228
867.7625	-0.0567
867.9249	-0.6718
868.0872	0.7113
868.2495	0.2634
868.4118	-0.0314
868.5741	0.2243
868.7363	-0
868.8986	-0.0958
869.0608	-0.3042
869.223	0.2435
869.3851	-0.2753
869.5473	-0
869.7094	-0.0923
869.8715	0.3052
870.0336	-0
870.1957	-0
870.3577	-0.2581
870.5197	-0.2956
870.6817	0.1851
870.8437	0.7395
871.0057	-0
871.1676	-0.062
871.3295	-0.9931
871.4914	-0
871.6533	0.9688
871.8151	-0.354
871.977	0.9334
872.1388	0.4866
872.3006	0.4047
872.4623	0.1229
872.6241	-0
872.7858	-0.0937
872.9475	0.0759
873.1092	0.1131
873.2709	-0
873.4325	-0.5226
873.5941	-0
873.7557	-1.0253
873.9173	-0.1386
874.0789	0.5062
874.2404	0.2848
874.4019	-0.4949
874.5634	-0.5612
874.7249	-0.0732
874.8863	-0.311
875.0478	-0.0661
875.2092	-0
875.3706	-0.2603
875.5319	-0
875.6933	-0.4267
875.8546	0.2776
876.0159	0.1705
876.1772	-0.1183
876.3385	0.3268
876.4997	-0
876.6609	-0.5155
876.8221	-0.659
876.9833	-0
877.1445	0.284
877.3056	-0.3173
877.4667	-0.1568
877.6278	0.1464
877.7889	0.2382
877.9499	0.2823
878.111	-0.3401
878.272	-0.2365
878.433	-0.0203
878.5939	0.0496
878.7549	0.184
878.9158	0.0148
879.0767	-0.4014
879.2376	0.1327
879.3984	-0
879.5593	-0.5253
879.7201	-0.1056
879.8809	-0
880.0417	-0.1203
880.2024	-0
880.3632	0.8537
880.5239	-0
880.6846	-0.656
880.8452	-0.1189
881.0059	-0
881.1665	1.2084
881.3271	0.3634
881.4877	-0
881.6483	-0.0867
881.8088	-0.1715
881.9693	0.1
882.1298	0.1
882.2903	0.1
