Data from MonoPyChalIsomerACN10uM400nmA_Absorbance_12-08-45-528.txt Node
Date: Fri Jul 05 12:08:45 BST 2024
User: LASERRRRR
Spectrometer: FLMT03099
Trigger mode: 0
Integration Time (sec): 1.000000E-1
Scans to average: 1
Electric dark correction enabled: true
Nonlinearity correction enabled: false
Boxcar width: 0
XAxis mode: Wavelengths
Number of Pixels in Spectrum: 3648
>>>>>Begin Spectral Data<<<<<
179.3399	0.4282
179.5586	0.4282
179.7771	0.4282
179.9957	0.5997
180.2143	-0.0526
180.4329	-0
180.6514	-0.4876
180.8699	-0
181.0885	-0
181.307	0.1036
181.5255	-0.7207
181.744	-0
181.9625	-0.7514
182.181	-0
182.3994	-0.474
182.6179	0.021
182.8363	-0.172
183.0547	0.1886
183.2732	0.1384
183.4916	0.0387
183.71	0.2231
183.9284	0.2619
184.1467	0.3619
184.3651	0.0554
184.5835	0.5614
184.8018	0.1343
185.0201	0.0004
185.2385	0.1161
185.4568	0.3862
185.6751	0.1235
185.8934	-0.0614
186.1117	-0.0039
186.3299	-0.0921
186.5482	0.0225
186.7664	0.0471
186.9847	0.055
187.2029	0.1713
187.4211	-0.1253
187.6393	-0.0541
187.8575	-0.0235
188.0757	0.0676
188.2939	0.1403
188.512	0.1274
188.7302	-0.1507
188.9483	0.0144
189.1665	0.1525
189.3846	0.0393
189.6027	0.14
189.8208	0.0891
190.0389	0.1699
190.257	0.2279
190.475	0.2651
190.6931	0.2737
190.9111	0.4545
191.1292	0.3329
191.3472	0.3196
191.5652	0.1543
191.7832	0.626
192.0012	0.5112
192.2192	0.3497
192.4371	0.6618
192.6551	0.246
192.873	0.5123
193.091	0.5664
193.3089	0.4997
193.5268	0.6185
193.7447	0.5954
193.9626	0.5899
194.1805	0.4647
194.3984	0.2635
194.6162	0.6458
194.8341	0.7092
195.0519	0.7194
195.2697	0.5444
195.4875	0.6697
195.7054	0.5187
195.9231	0.5214
196.1409	0.4255
196.3587	0.5485
196.5765	0.5673
196.7942	0.853
197.012	0.7545
197.2297	0.5593
197.4474	0.4957
197.6651	0.6334
197.8828	0.6822
198.1005	0.9388
198.3182	0.6602
198.5358	0.956
198.7535	0.6896
198.9711	0.5965
199.1888	0.7083
199.4064	0.7977
199.624	0.8495
199.8416	0.8262
200.0592	1.0698
200.2767	0.675
200.4943	0.6266
200.7119	0.7605
200.9294	0.6795
201.1469	0.8743
201.3645	0.6904
201.582	0.6118
201.7995	0.9387
202.017	0.7422
202.2344	0.5983
202.4519	0.8222
202.6694	0.8508
202.8868	0.917
203.1042	0.6567
203.3217	0.7065
203.5391	0.8386
203.7565	0.7563
203.9739	0.8382
204.1913	1.0268
204.4086	0.7674
204.626	0.8683
204.8433	0.9414
205.0607	0.795
205.278	1.0032
205.4953	0.8711
205.7126	0.628
205.9299	0.9212
206.1472	0.6937
206.3644	0.7412
206.5817	0.8321
206.7989	0.6894
207.0162	0.7366
207.2334	0.6726
207.4506	0.7093
207.6678	0.7929
207.885	0.7765
208.1022	0.7635
208.3194	0.7558
208.5365	0.7962
208.7537	0.7683
208.9708	0.7602
209.1879	0.851
209.405	0.7682
209.6222	0.9223
209.8392	0.7376
210.0563	0.9026
210.2734	0.7243
210.4905	0.8616
210.7075	0.8215
210.9245	0.8155
211.1416	0.7117
211.3586	0.7813
211.5756	0.7917
211.7926	0.7796
212.0096	0.7688
212.2265	0.7415
212.4435	0.6583
212.6604	0.8118
212.8774	0.7137
213.0943	0.6895
213.3112	0.7094
213.5281	0.6653
213.745	0.7597
213.9619	0.6817
214.1788	0.6878
214.3956	0.6627
214.6125	0.6331
214.8293	0.7086
215.0461	0.6696
215.2629	0.6928
215.4798	0.5986
215.6965	0.6368
215.9133	0.6411
216.1301	0.5868
216.3469	0.7466
216.5636	0.6372
216.7803	0.6489
216.9971	0.6313
217.2138	0.6456
217.4305	0.573
217.6472	0.6156
217.8639	0.5764
218.0805	0.6237
218.2972	0.5599
218.5138	0.5808
218.7305	0.5798
218.9471	0.5792
219.1637	0.5961
219.3803	0.5223
219.5969	0.5655
219.8135	0.5912
220.0301	0.5969
220.2466	0.5622
220.4632	0.5481
220.6797	0.5795
220.8962	0.5655
221.1127	0.5528
221.3292	0.5481
221.5457	0.5357
221.7622	0.5444
221.9787	0.5592
222.1951	0.5761
222.4116	0.5512
222.628	0.5857
222.8444	0.5108
223.0608	0.5251
223.2772	0.5246
223.4936	0.5386
223.71	0.5585
223.9264	0.5647
224.1427	0.5355
224.3591	0.6025
224.5754	0.5625
224.7917	0.5288
225.008	0.5792
225.2243	0.5302
225.4406	0.5834
225.6569	0.558
225.8732	0.5528
226.0894	0.5615
226.3057	0.5776
226.5219	0.5186
226.7381	0.5655
226.9543	0.5825
227.1705	0.5726
227.3867	0.5414
227.6029	0.5265
227.8191	0.5739
228.0352	0.5581
228.2513	0.5595
228.4675	0.622
228.6836	0.6086
228.8997	0.5772
229.1158	0.574
229.3319	0.5617
229.548	0.6062
229.764	0.5956
229.9801	0.5923
230.1961	0.5822
230.4121	0.5996
230.6282	0.5916
230.8442	0.5772
231.0602	0.5682
231.2761	0.5728
231.4921	0.5841
231.7081	0.5825
231.924	0.5822
232.14	0.5794
232.3559	0.5669
232.5718	0.5951
232.7877	0.5516
233.0036	0.581
233.2195	0.593
233.4353	0.5883
233.6512	0.591
233.867	0.5672
234.0829	0.5577
234.2987	0.5764
234.5145	0.5538
234.7303	0.6029
234.9461	0.5961
235.1619	0.5772
235.3776	0.5396
235.5934	0.5406
235.8091	0.6125
236.0249	0.5278
236.2406	0.5681
236.4563	0.5838
236.672	0.5663
236.8877	0.5751
237.1034	0.5424
237.319	0.571
237.5347	0.562
237.7503	0.5312
237.966	0.5361
238.1816	0.5731
238.3972	0.55
238.6128	0.5236
238.8284	0.5397
239.0439	0.544
239.2595	0.5285
239.475	0.521
239.6906	0.5449
239.9061	0.5167
240.1216	0.5484
240.3371	0.5087
240.5526	0.5229
240.7681	0.5428
240.9836	0.5399
241.199	0.4935
241.4145	0.5078
241.6299	0.4844
241.8453	0.4818
242.0607	0.4999
242.2761	0.4909
242.4915	0.4762
242.7069	0.4617
242.9223	0.4758
243.1376	0.4485
243.353	0.4664
243.5683	0.4399
243.7836	0.4485
243.9989	0.4456
244.2142	0.4235
244.4295	0.4117
244.6448	0.4108
244.86	0.3957
245.0753	0.3814
245.2905	0.3795
245.5057	0.3702
245.721	0.3767
245.9362	0.3438
246.1514	0.3481
246.3665	0.3426
246.5817	0.3395
246.7969	0.3285
247.012	0.3409
247.2271	0.3311
247.4423	0.3069
247.6574	0.3178
247.8725	0.2908
248.0876	0.3112
248.3026	0.2906
248.5177	0.2986
248.7328	0.2888
248.9478	0.2827
249.1628	0.2738
249.3779	0.27
249.5929	0.2791
249.8079	0.2443
250.0228	0.2729
250.2378	0.2545
250.4528	0.2471
250.6677	0.2536
250.8827	0.2464
251.0976	0.2343
251.3125	0.2467
251.5274	0.2348
251.7423	0.2289
251.9572	0.2267
252.172	0.2276
252.3869	0.2178
252.6017	0.222
252.8166	0.2074
253.0314	0.2036
253.2462	0.2167
253.461	0.2145
253.6758	0.2151
253.8906	0.2171
254.1053	0.2003
254.3201	0.2088
254.5348	0.2068
254.7496	0.2082
254.9643	0.1997
255.179	0.1901
255.3937	0.2026
255.6083	0.1863
255.823	0.197
256.0377	0.1862
256.2523	0.196
256.467	0.1942
256.6816	0.198
256.8962	0.2023
257.1108	0.1918
257.3254	0.1989
257.54	0.1934
257.7545	0.1944
257.9691	0.2091
258.1836	0.1981
258.3981	0.1872
258.6127	0.1925
258.8272	0.1973
259.0417	0.1907
259.2561	0.1788
259.4706	0.188
259.6851	0.1886
259.8995	0.193
260.114	0.1721
260.3284	0.2027
260.5428	0.1831
260.7572	0.1896
260.9716	0.2012
261.186	0.2017
261.4003	0.1927
261.6147	0.2099
261.829	0.2068
262.0433	0.1864
262.2577	0.1778
262.472	0.1936
262.6863	0.1895
262.9005	0.1762
263.1148	0.1857
263.3291	0.1947
263.5433	0.1876
263.7576	0.1985
263.9718	0.1762
264.186	0.186
264.4002	0.1906
264.6144	0.1926
264.8286	0.1799
265.0427	0.1964
265.2569	0.199
265.471	0.1814
265.6851	0.188
265.8993	0.1793
266.1134	0.1729
266.3275	0.1951
266.5415	0.1891
266.7556	0.1895
266.9697	0.1941
267.1837	0.1933
267.3978	0.1956
267.6118	0.187
267.8258	0.2017
268.0398	0.1943
268.2538	0.1951
268.4677	0.1954
268.6817	0.1987
268.8957	0.1897
269.1096	0.1878
269.3235	0.1933
269.5374	0.1751
269.7514	0.179
269.9652	0.1838
270.1791	0.1819
270.393	0.1801
270.6068	0.1967
270.8207	0.1944
271.0345	0.1785
271.2483	0.1907
271.4622	0.1879
271.676	0.1764
271.8897	0.1966
272.1035	0.1957
272.3173	0.1802
272.531	0.1714
272.7448	0.1762
272.9585	0.1883
273.1722	0.1782
273.3859	0.1858
273.5996	0.1827
273.8133	0.1828
274.0269	0.183
274.2406	0.1852
274.4542	0.1755
274.6679	0.1865
274.8815	0.176
275.0951	0.1829
275.3087	0.1818
275.5223	0.1871
275.7358	0.181
275.9494	0.1829
276.1629	0.1707
276.3765	0.1878
276.59	0.1857
276.8035	0.1854
277.017	0.1824
277.2305	0.1954
277.444	0.1807
277.6574	0.1814
277.8709	0.1818
278.0843	0.1981
278.2978	0.1759
278.5112	0.1897
278.7246	0.1862
278.938	0.181
279.1513	0.1791
279.3647	0.1864
279.5781	0.19
279.7914	0.1891
280.0047	0.1908
280.2181	0.1865
280.4314	0.178
280.6447	0.1923
280.8579	0.204
281.0712	0.2042
281.2845	0.1959
281.4977	0.1989
281.711	0.1949
281.9242	0.1907
282.1374	0.1791
282.3506	0.1872
282.5638	0.1901
282.7769	0.1836
282.9901	0.1948
283.2033	0.192
283.4164	0.1859
283.6295	0.175
283.8426	0.1903
284.0557	0.1834
284.2688	0.1753
284.4819	0.1894
284.695	0.184
284.908	0.1855
285.1211	0.1818
285.3341	0.1849
285.5471	0.203
285.7601	0.1841
285.9731	0.1881
286.1861	0.193
286.3991	0.1881
286.612	0.1866
286.825	0.1934
287.0379	0.184
287.2508	0.1822
287.4637	0.1855
287.6766	0.1725
287.8895	0.1794
288.1024	0.1878
288.3152	0.1892
288.5281	0.1873
288.7409	0.1779
288.9538	0.179
289.1666	0.1921
289.3794	0.1928
289.5922	0.1791
289.8049	0.168
290.0177	0.1758
290.2304	0.1796
290.4432	0.1743
290.6559	0.177
290.8686	0.1787
291.0813	0.1749
291.294	0.1814
291.5067	0.1798
291.7194	0.1768
291.932	0.1851
292.1447	0.1867
292.3573	0.175
292.5699	0.1821
292.7825	0.1503
292.9951	0.1765
293.2077	0.1707
293.4203	0.1871
293.6328	0.1869
293.8454	0.1727
294.0579	0.1829
294.2704	0.173
294.4829	0.1783
294.6954	0.1773
294.9079	0.1769
295.1204	0.1891
295.3328	0.1689
295.5453	0.166
295.7577	0.1662
295.9701	0.1667
296.1825	0.178
296.3949	0.1647
296.6073	0.1625
296.8197	0.1687
297.0321	0.17
297.2444	0.1731
297.4567	0.1707
297.6691	0.1739
297.8814	0.1675
298.0937	0.1759
298.306	0.1703
298.5182	0.1841
298.7305	0.1674
298.9428	0.1706
299.155	0.1657
299.3672	0.1587
299.5794	0.1672
299.7916	0.1696
300.0038	0.1584
300.216	0.1659
300.4282	0.1709
300.6403	0.1818
300.8525	0.1727
301.0646	0.1765
301.2767	0.1648
301.4888	0.1545
301.7009	0.1652
301.913	0.1579
302.125	0.173
302.3371	0.1728
302.5491	0.1744
302.7612	0.1616
302.9732	0.1619
303.1852	0.1695
303.3972	0.1657
303.6092	0.1521
303.8211	0.167
304.0331	0.1605
304.245	0.1475
304.457	0.1651
304.6689	0.163
304.8808	0.1538
305.0927	0.1553
305.3046	0.1481
305.5164	0.1595
305.7283	0.1528
305.9401	0.1539
306.152	0.1332
306.3638	0.1459
306.5756	0.139
306.7874	0.147
306.9992	0.1541
307.2109	0.1427
307.4227	0.1503
307.6344	0.1441
307.8462	0.1402
308.0579	0.1407
308.2696	0.1452
308.4813	0.1291
308.693	0.1355
308.9046	0.1363
309.1163	0.1301
309.328	0.1336
309.5396	0.138
309.7512	0.1328
309.9628	0.1252
310.1744	0.1278
310.386	0.1129
310.5976	0.1337
310.8091	0.1265
311.0207	0.1306
311.2322	0.1136
311.4437	0.1286
311.6552	0.1193
311.8667	0.1252
312.0782	0.1311
312.2897	0.1101
312.5012	0.1105
312.7126	0.1194
312.924	0.1109
313.1355	0.1239
313.3469	0.1205
313.5583	0.1041
313.7696	0.1267
313.981	0.1198
314.1924	0.1149
314.4037	0.1128
314.6151	0.1163
314.8264	0.1172
315.0377	0.1127
315.249	0.1122
315.4603	0.1044
315.6716	0.1092
315.8828	0.0965
316.0941	0.102
316.3053	0.1095
316.5165	0.1097
316.7277	0.0975
316.9389	0.1209
317.1501	0.1026
317.3613	0.0943
317.5724	0.1161
317.7836	0.1125
317.9947	0.116
318.2058	0.1081
318.417	0.1065
318.6281	0.1111
318.8391	0.1068
319.0502	0.1079
319.2613	0.1154
319.4723	0.1167
319.6834	0.1078
319.8944	0.1019
320.1054	0.1168
320.3164	0.115
320.5274	0.1011
320.7383	0.1083
320.9493	0.1137
321.1602	0.1227
321.3712	0.1023
321.5821	0.1173
321.793	0.1087
322.0039	0.1193
322.2148	0.1209
322.4257	0.1057
322.6365	0.1117
322.8474	0.1026
323.0582	0.1178
323.269	0.1086
323.4798	0.1236
323.6906	0.1023
323.9014	0.1099
324.1122	0.1135
324.3229	0.1117
324.5337	0.1214
324.7444	0.117
324.9551	0.1158
325.1658	0.1175
325.3765	0.1166
325.5872	0.1136
325.7979	0.1176
326.0085	0.1147
326.2192	0.107
326.4298	0.1343
326.6404	0.127
326.851	0.116
327.0616	0.117
327.2722	0.1187
327.4828	0.1287
327.6933	0.1167
327.9039	0.1062
328.1144	0.1076
328.3249	0.1095
328.5354	0.1108
328.7459	0.1187
328.9564	0.1213
329.1669	0.1258
329.3773	0.1167
329.5878	0.1232
329.7982	0.1202
330.0086	0.1119
330.219	0.1208
330.4294	0.1211
330.6398	0.1158
330.8502	0.117
331.0605	0.1221
331.2708	0.1068
331.4812	0.1208
331.6915	0.1146
331.9018	0.1209
332.1121	0.1109
332.3224	0.1205
332.5326	0.1091
332.7429	0.1125
332.9531	0.1127
333.1633	0.1099
333.3735	0.1149
333.5837	0.113
333.7939	0.1176
334.0041	0.1259
334.2143	0.1108
334.4244	0.1266
334.6346	0.1024
334.8447	0.1224
335.0548	0.1142
335.2649	0.1133
335.475	0.1255
335.685	0.1113
335.8951	0.118
336.1051	0.1238
336.3152	0.1088
336.5252	0.1233
336.7352	0.1297
336.9452	0.1187
337.1552	0.1191
337.3652	0.1282
337.5751	0.1343
337.7851	0.1173
337.995	0.1206
338.2049	0.1203
338.4148	0.1264
338.6247	0.1221
338.8346	0.1324
339.0445	0.1246
339.2543	0.1263
339.4642	0.1348
339.674	0.1232
339.8838	0.1312
340.0936	0.1374
340.3034	0.1155
340.5132	0.1255
340.7229	0.1382
340.9327	0.1196
341.1424	0.1342
341.3522	0.1226
341.5619	0.1287
341.7716	0.1311
341.9813	0.1234
342.1909	0.1304
342.4006	0.1437
342.6102	0.1249
342.8199	0.1278
343.0295	0.1461
343.2391	0.1256
343.4487	0.1274
343.6583	0.1415
343.8679	0.1365
344.0774	0.1495
344.287	0.1354
344.4965	0.1278
344.706	0.1343
344.9155	0.1283
345.125	0.1259
345.3345	0.1374
345.544	0.1347
345.7534	0.1256
345.9629	0.1367
346.1723	0.1341
346.3817	0.1367
346.5911	0.1388
346.8005	0.128
347.0099	0.1302
347.2193	0.1289
347.4286	0.145
347.638	0.143
347.8473	0.1357
348.0566	0.1272
348.2659	0.1439
348.4752	0.1358
348.6845	0.1344
348.8937	0.15
349.103	0.131
349.3122	0.1354
349.5214	0.1449
349.7306	0.1353
349.9398	0.1405
350.149	0.1437
350.3582	0.147
350.5674	0.1559
350.7765	0.1423
350.9856	0.1391
351.1948	0.1437
351.4039	0.1555
351.613	0.1367
351.822	0.1358
352.0311	0.1512
352.2402	0.1422
352.4492	0.1479
352.6582	0.1476
352.8672	0.1494
353.0762	0.1496
353.2852	0.1508
353.4942	0.137
353.7032	0.1597
353.9121	0.155
354.1211	0.132
354.33	0.1624
354.5389	0.1582
354.7478	0.1627
354.9567	0.1658
355.1655	0.16
355.3744	0.1623
355.5833	0.1846
355.7921	0.1521
356.0009	0.1512
356.2097	0.1408
356.4185	0.1427
356.6273	0.1556
356.8361	0.1587
357.0448	0.1465
357.2536	0.1505
357.4623	0.1607
357.671	0.157
357.8797	0.1538
358.0884	0.1781
358.2971	0.1713
358.5057	0.1683
358.7144	0.1748
358.923	0.1796
359.1316	0.1584
359.3402	0.1806
359.5488	0.1705
359.7574	0.1729
359.966	0.1688
360.1746	0.1686
360.3831	0.1638
360.5916	0.1783
360.8002	0.1801
361.0087	0.1774
361.2172	0.1758
361.4256	0.1811
361.6341	0.1819
361.8426	0.189
362.051	0.1812
362.2594	0.1796
362.4678	0.176
362.6762	0.1847
362.8846	0.1717
363.093	0.1776
363.3014	0.176
363.5097	0.17
363.718	0.1853
363.9264	0.1995
364.1347	0.1912
364.343	0.1871
364.5513	0.1866
364.7595	0.1831
364.9678	0.1822
365.176	0.1926
365.3842	0.1804
365.5925	0.1749
365.8007	0.1882
366.0089	0.2006
366.217	0.1952
366.4252	0.1826
366.6333	0.1929
366.8415	0.1928
367.0496	0.1815
367.2577	0.1945
367.4658	0.1981
367.6739	0.1963
367.882	0.2034
368.09	0.2071
368.2981	0.2002
368.5061	0.2005
368.7141	0.2014
368.9221	0.1893
369.1301	0.1813
369.3381	0.1976
369.5461	0.199
369.754	0.1839
369.962	0.1934
370.1699	0.1989
370.3778	0.2
370.5857	0.1944
370.7936	0.2028
371.0015	0.1998
371.2093	0.1979
371.4172	0.1948
371.625	0.196
371.8328	0.2183
372.0406	0.1929
372.2484	0.1835
372.4562	0.2134
372.664	0.205
372.8717	0.1813
373.0795	0.2062
373.2872	0.2086
373.4949	0.2024
373.7026	0.2175
373.9103	0.2085
374.118	0.1937
374.3256	0.2027
374.5333	0.2191
374.7409	0.1875
374.9485	0.1961
375.1561	0.2125
375.3637	0.2022
375.5713	0.2053
375.7789	0.2083
375.9864	0.2014
376.194	0.22
376.4015	0.2295
376.609	0.2119
376.8165	0.1948
377.024	0.2122
377.2315	0.1985
377.4389	0.213
377.6464	0.2172
377.8538	0.2109
378.0612	0.214
378.2686	0.2335
378.476	0.2105
378.6834	0.2197
378.8908	0.2045
379.0981	0.2273
379.3055	0.2177
379.5128	0.2207
379.7201	0.2309
379.9274	0.2312
380.1347	0.2058
380.342	0.217
380.5492	0.2146
380.7565	0.245
380.9637	0.2232
381.1709	0.2396
381.3781	0.2428
381.5853	0.2253
381.7925	0.2127
381.9997	0.2124
382.2068	0.2287
382.4139	0.2312
382.6211	0.2335
382.8282	0.2302
383.0353	0.2102
383.2424	0.2393
383.4494	0.225
383.6565	0.2257
383.8635	0.2302
384.0706	0.2369
384.2776	0.2306
384.4846	0.2193
384.6916	0.2348
384.8986	0.2166
385.1055	0.2149
385.3125	0.227
385.5194	0.2264
385.7263	0.2404
385.9333	0.2187
386.1402	0.2213
386.347	0.232
386.5539	0.2197
386.7608	0.2278
386.9676	0.2179
387.1744	0.2166
387.3813	0.2193
387.5881	0.221
387.7948	0.238
388.0016	0.2148
388.2084	0.2129
388.4151	0.2214
388.6219	0.2253
388.8286	0.2161
389.0353	0.2143
389.242	0.2095
389.4487	0.2211
389.6553	0.2052
389.862	0.2326
390.0686	0.207
390.2753	0.2345
390.4819	0.2077
390.6885	0.218
390.8951	0.2026
391.1016	0.2237
391.3082	0.2085
391.5147	0.2092
391.7213	0.2006
391.9278	0.211
392.1343	0.1952
392.3408	0.2081
392.5473	0.2002
392.7537	0.2063
392.9602	0.2159
393.1666	0.2117
393.373	0.1638
393.5794	0.1921
393.7858	0.192
393.9922	0.1983
394.1986	0.2231
394.4049	0.2022
394.6113	0.1856
394.8176	0.2014
395.0239	0.2016
395.2302	0.1965
395.4365	0.1909
395.6428	0.1945
395.8491	0.1783
396.0553	0.1916
396.2615	0.2124
396.4678	0.2
396.674	0.1791
396.8802	0.1808
397.0863	0.188
397.2925	0.1861
397.4987	0.1986
397.7048	0.2016
397.9109	0.179
398.117	0.1759
398.3231	0.1938
398.5292	0.1917
398.7353	0.1865
398.9413	0.1826
399.1474	0.1862
399.3534	0.1799
399.5594	0.1944
399.7654	0.1896
399.9714	0.1865
400.1774	0.1787
400.3833	0.1873
400.5893	0.1767
400.7952	0.194
401.0011	0.2078
401.207	0.1857
401.4129	0.182
401.6188	0.1747
401.8247	0.1839
402.0305	0.1708
402.2364	0.1876
402.4422	0.1792
402.648	0.1714
402.8538	0.1882
403.0596	0.1804
403.2654	0.1958
403.4711	0.1801
403.6768	0.1599
403.8826	0.1775
404.0883	0.166
404.294	0.1987
404.4997	0.1698
404.7054	0.1874
404.911	0.1874
405.1167	0.1641
405.3223	0.1743
405.5279	0.1781
405.7335	0.1942
405.9391	0.1832
406.1447	0.1918
406.3502	0.1574
406.5558	0.1874
406.7613	0.188
406.9668	0.1665
407.1724	0.1892
407.3778	0.1961
407.5833	0.1746
407.7888	0.1806
407.9942	0.1715
408.1997	0.1745
408.4051	0.1827
408.6105	0.1716
408.8159	0.1778
409.0213	0.1738
409.2267	0.1805
409.432	0.1896
409.6374	0.1851
409.8427	0.1841
410.048	0.2067
410.2533	0.1799
410.4586	0.1715
410.6639	0.1764
410.8691	0.1767
411.0744	0.1842
411.2796	0.1693
411.4848	0.1838
411.69	0.1767
411.8952	0.1629
412.1004	0.1813
412.3056	0.1696
412.5107	0.1607
412.7158	0.158
412.921	0.1951
413.1261	0.1844
413.3312	0.1768
413.5362	0.1868
413.7413	0.1579
413.9464	0.188
414.1514	0.1749
414.3564	0.1724
414.5614	0.1583
414.7664	0.1667
414.9714	0.188
415.1764	0.1732
415.3813	0.1732
415.5863	0.1675
415.7912	0.1683
415.9961	0.1916
416.201	0.1777
416.4059	0.1681
416.6108	0.1814
416.8156	0.1685
417.0205	0.16
417.2253	0.1754
417.4301	0.1584
417.6349	0.1786
417.8397	0.1672
418.0445	0.1605
418.2492	0.1546
418.454	0.1684
418.6587	0.1827
418.8634	0.1654
419.0681	0.1835
419.2728	0.1421
419.4775	0.1802
419.6822	0.1811
419.8868	0.177
420.0915	0.1513
420.2961	0.1499
420.5007	0.1457
420.7053	0.1703
420.9099	0.1599
421.1144	0.1828
421.319	0.1638
421.5235	0.1759
421.728	0.1424
421.9325	0.1667
422.137	0.1591
422.3415	0.153
422.546	0.1327
422.7504	0.1632
422.9549	0.1582
423.1593	0.1647
423.3637	0.1574
423.5681	0.1334
423.7725	0.1454
423.9769	0.1531
424.1812	0.1559
424.3856	0.1527
424.5899	0.1507
424.7942	0.1446
424.9985	0.1652
425.2028	0.1353
425.4071	0.141
425.6113	0.1532
425.8156	0.1708
426.0198	0.1539
426.224	0.1474
426.4282	0.1394
426.6324	0.1406
426.8366	0.1477
427.0407	0.1414
427.2449	0.1547
427.449	0.1227
427.6531	0.1305
427.8572	0.1431
428.0613	0.159
428.2654	0.1171
428.4694	0.1426
428.6735	0.1396
428.8775	0.124
429.0815	0.1197
429.2855	0.1467
429.4895	0.1373
429.6935	0.1245
429.8975	0.1198
430.1014	0.1167
430.3053	0.1196
430.5093	0.1386
430.7132	0.1139
430.9171	0.1138
431.1209	0.1163
431.3248	0.1241
431.5286	0.1115
431.7325	0.1242
431.9363	0.1099
432.1401	0.1206
432.3439	0.1143
432.5477	0.1254
432.7514	0.0947
432.9552	0.0901
433.1589	0.101
433.3627	0.1007
433.5664	0.0956
433.7701	0.1037
433.9737	0.0722
434.1774	0.1016
434.3811	0.1099
434.5847	0.1088
434.7883	0.1116
434.9919	0.0849
435.1955	0.0926
435.3991	0.0877
435.6027	0.0898
435.8062	0.0887
436.0098	0.0987
436.2133	0.082
436.4168	0.0864
436.6203	0.0791
436.8238	0.0732
437.0272	0.0732
437.2307	0.0978
437.4341	0.0803
437.6375	0.0731
437.841	0.0661
438.0443	0.0665
438.2477	0.0858
438.4511	0.0657
438.6545	0.0888
438.8578	0.0818
439.0611	0.0687
439.2644	0.0552
439.4677	0.0767
439.671	0.0498
439.8743	0.0603
440.0775	0.0706
440.2808	0.0574
440.484	0.0749
440.6872	0.0598
440.8904	0.045
441.0936	0.0523
441.2967	0.0556
441.4999	0.0489
441.703	0.0578
441.9062	0.0531
442.1093	0.0481
442.3124	0.0475
442.5155	0.0441
442.7185	0.0659
442.9216	0.033
443.1246	0.0536
443.3276	0.053
443.5307	0.0548
443.7337	0.0452
443.9366	0.0387
444.1396	0.0451
444.3426	0.0361
444.5455	0.0361
444.7484	0.0469
444.9513	0.0393
445.1542	0.0228
445.3571	0.0542
445.56	0.0374
445.7628	0.0356
445.9657	0.0439
446.1685	0.0442
446.3713	0.0323
446.5741	0.04
446.7769	0.0451
446.9797	0.0357
447.1824	0.018
447.3852	0.0322
447.5879	0.0356
447.7906	0.0385
447.9933	0.0321
448.196	0.0456
448.3986	0.047
448.6013	0.0186
448.8039	0.0398
449.0066	0.0226
449.2092	0.0351
449.4118	0.0306
449.6143	0.0076
449.8169	0.0303
450.0195	-0.0031
450.222	0.0094
450.4245	0.0107
450.627	0.0174
450.8295	0.0084
451.032	0.0177
451.2345	0.0093
451.4369	0.0294
451.6394	0.0169
451.8418	0.0038
452.0442	-0.0044
452.2466	0.0053
452.449	0.0218
452.6513	0.0095
452.8537	0.0181
453.056	-0.0166
453.2583	0.0137
453.4607	0.0175
453.663	0.0152
453.8652	0.019
454.0675	-0.0076
454.2697	0.026
454.472	0.0112
454.6742	0.0149
454.8764	-0.0037
455.0786	-0.0026
455.2808	-0.0071
455.4829	0.0186
455.6851	0.0186
455.8872	0.0189
456.0893	0.0026
456.2915	0.0185
456.4935	0.0198
456.6956	0.0038
456.8977	0.0064
457.0997	0.0091
457.3018	0.0169
457.5038	0.0031
457.7058	0.0139
457.9078	0.0162
458.1098	0.0096
458.3117	0.0219
458.5137	0.0109
458.7156	0.002
458.9175	0.0032
459.1194	0.0135
459.3213	0.0146
459.5232	0.0037
459.725	0.0146
459.9269	0.0079
460.1287	0.0074
460.3305	0.0032
460.5323	-0.0016
460.7341	0.0003
460.9359	-0.0024
461.1376	0.0145
461.3394	-0.0099
461.5411	-0.0005
461.7428	0.0069
461.9445	-0.0039
462.1462	0.0085
462.3479	-0.0186
462.5495	0.0044
462.7512	-0.0016
462.9528	0.0078
463.1544	0.0137
463.356	0.0017
463.5576	-0.0002
463.7592	0
463.9607	0.014
464.1623	-0.007
464.3638	0.0048
464.5653	-0.0098
464.7668	-0.0057
464.9683	0.0126
465.1697	0.0051
465.3712	0.002
465.5726	0.0055
465.7741	0.016
465.9755	-0.0102
466.1769	-0.0007
466.3782	0.0104
466.5796	-0.0076
466.7809	0.0068
466.9823	-0.0042
467.1836	0.0114
467.3849	0.022
467.5862	-0.0021
467.7875	0.0047
467.9887	-0.0008
468.19	-0.0028
468.3912	0.008
468.5924	-0.0074
468.7936	-0.0009
468.9948	-0.0043
469.196	0.0073
469.3972	-0.0132
469.5983	0.0026
469.7994	-0.0186
470.0006	-0.0102
470.2017	0.0055
470.4027	-0.0016
470.6038	0.001
470.8049	-0.0101
471.0059	-0.0045
471.2069	-0.0113
471.408	-0.0166
471.6089	-0.0061
471.8099	0.0115
472.0109	0.0077
472.2119	0.0141
472.4128	-0.0079
472.6137	0.0112
472.8146	-0.0073
473.0155	0.0101
473.2164	-0.0016
473.4173	-0.0118
473.6181	-0.0012
473.819	-0.0084
474.0198	-0.0218
474.2206	-0.0024
474.4214	-0.0046
474.6222	-0.0035
474.8229	-0.0056
475.0237	0.0106
475.2244	-0.0108
475.4251	0.0001
475.6258	-0.0027
475.8265	-0.0117
476.0272	-0.01
476.2278	-0.0084
476.4285	-0.0074
476.6291	-0.0078
476.8297	0.0071
477.0303	0.0092
477.2309	-0.0111
477.4315	-0.0109
477.632	-0.0147
477.8326	0.0054
478.0331	-0.0235
478.2336	-0.0126
478.4341	-0.011
478.6346	-0.0029
478.8351	-0.0146
479.0355	-0.0174
479.236	-0.016
479.4364	-0.0021
479.6368	0.0049
479.8372	0.0049
480.0376	-0.0018
480.2379	-0.0131
480.4383	-0.0025
480.6386	0.0045
480.8389	-0.0176
481.0392	-0.0066
481.2395	-0.0073
481.4398	-0.0161
481.6401	-0.0058
481.8403	-0.006
482.0405	-0.0151
482.2408	-0.0252
482.441	-0.0018
482.6411	-0.0195
482.8413	-0.0172
483.0415	-0.0036
483.2416	-0.0162
483.4417	-0.003
483.6419	-0.0217
483.8419	-0.0041
484.042	0.0024
484.2421	-0.0026
484.4422	0.0001
484.6422	0.0119
484.8422	0.0044
485.0422	0.0016
485.2422	-0.0052
485.4422	-0.0135
485.6422	-0.0217
485.8421	-0.007
486.042	0.0007
486.242	-0.0087
486.4419	-0.0032
486.6417	0.0013
486.8416	-0.007
487.0415	-0.0076
487.2413	-0.0047
487.4411	-0.0078
487.641	-0.0019
487.8408	-0.004
488.0405	-0.0018
488.2403	0.0037
488.4401	-0.0029
488.6398	-0.0131
488.8395	-0.0103
489.0392	-0.0077
489.2389	-0.0207
489.4386	-0.0029
489.6383	-0.0157
489.8379	-0.005
490.0376	-0.0037
490.2372	-0.0102
490.4368	-0.0016
490.6364	-0.0021
490.836	-0.0093
491.0355	-0.0162
491.2351	-0.0088
491.4346	-0.018
491.6341	0.0021
491.8336	-0.0136
492.0331	-0.0081
492.2326	-0.0095
492.432	-0.0136
492.6315	-0.0016
492.8309	-0.0121
493.0303	-0.0033
493.2297	-0.0118
493.4291	-0.0117
493.6284	-0.0173
493.8278	-0.0025
494.0271	-0.0091
494.2264	-0.0019
494.4257	-0.0121
494.625	-0.0055
494.8243	-0.0093
495.0236	-0.0099
495.2228	-0.0112
495.422	-0.0075
495.6213	-0.0058
495.8205	-0.0066
496.0196	-0.0103
496.2188	-0.0125
496.418	-0.0079
496.6171	-0.0152
496.8162	-0.0026
497.0153	-0.014
497.2144	-0.0089
497.4135	-0.0095
497.6126	-0.018
497.8116	-0.0176
498.0107	-0.0033
498.2097	-0.0207
498.4087	-0.0177
498.6077	-0.0101
498.8067	0.0009
499.0056	-0.0262
499.2046	-0.0056
499.4035	-0.0196
499.6024	-0.0075
499.8013	-0.0102
500.0002	-0.0106
500.199	-0.0208
500.3979	-0.0067
500.5967	-0.01
500.7956	-0.0036
500.9944	-0.0164
501.1932	0.0054
501.3919	-0.01
501.5907	-0.0078
501.7895	-0.0174
501.9882	-0.0091
502.1869	-0.0169
502.3856	-0.0142
502.5843	-0.0148
502.783	0.0036
502.9816	0.0018
503.1803	-0.0081
503.3789	-0.0066
503.5775	-0.0131
503.7761	-0.0044
503.9747	-0.0057
504.1732	-0.0095
504.3718	-0.0018
504.5703	-0.0061
504.7689	-0.0084
504.9674	-0.0126
505.1658	-0.0154
505.3643	-0.0087
505.5628	0.001
505.7612	-0.0068
505.9597	-0.0087
506.1581	0.0045
506.3565	-0.0091
506.5549	-0.0064
506.7532	0.0016
506.9516	-0.0098
507.1499	-0.0239
507.3482	-0.0078
507.5465	0.0027
507.7448	-0.0056
507.9431	0.0016
508.1414	-0.0089
508.3396	-0.0041
508.5379	-0.0004
508.7361	-0.0125
508.9343	-0.0029
509.1325	-0.0022
509.3306	-0.0107
509.5288	-0.0072
509.7269	0.0045
509.9251	-0.0017
510.1232	-0.0126
510.3213	0.0003
510.5193	-0.0089
510.7174	-0.0012
510.9154	0.0015
511.1135	-0.0102
511.3115	-0.0082
511.5095	-0.011
511.7075	-0.0029
511.9055	-0.0126
512.1034	-0.0045
512.3014	-0.0097
512.4993	0.0056
512.6972	-0.0047
512.8951	0.0027
513.093	-0.0071
513.2908	-0.0141
513.4887	-0.0103
513.6865	0.0012
513.8844	-0.0066
514.0822	0.002
514.2799	-0.0221
514.4777	0.0028
514.6755	-0.0034
514.8732	-0.0203
515.0709	-0.001
515.2687	-0.0072
515.4664	0.0037
515.664	-0.0153
515.8617	0.0044
516.0594	-0.0043
516.257	-0.0009
516.4546	-0.0185
516.6522	-0.0065
516.8498	-0.0114
517.0474	0.0016
517.2449	-0.0052
517.4425	0.0041
517.64	-0.0161
517.8375	0.0035
518.035	0.0066
518.2325	-0.0152
518.43	-0.0095
518.6274	-0.0053
518.8249	-0.003
519.0223	-0.005
519.2197	0.0011
519.4171	-0.0035
519.6145	-0.0079
519.8118	-0.0069
520.0092	-0.0124
520.2065	-0.0141
520.4038	-0.0073
520.6011	0.0008
520.7984	-0.0018
520.9956	0.0041
521.1929	-0.0086
521.3901	-0.0078
521.5874	-0.0051
521.7846	-0.0058
521.9818	-0.0051
522.1789	-0.0089
522.3761	-0.0098
522.5732	-0.0164
522.7704	-0.0019
522.9675	-0.0087
523.1646	0.0023
523.3617	-0.0054
523.5587	0.0011
523.7558	-0.0087
523.9528	0.009
524.1498	-0.011
524.3468	-0.0109
524.5438	-0.0003
524.7408	-0.0127
524.9378	0.007
525.1347	-0.0011
525.3316	0.009
525.5285	-0.0172
525.7254	-0.0065
525.9223	0.0023
526.1192	0.0055
526.316	-0.0021
526.5129	-0.0027
526.7097	0.0005
526.9065	0.0085
527.1033	-0.004
527.3	-0.0091
527.4968	0.0007
527.6935	0.0017
527.8903	0.0053
528.087	0.0007
528.2837	0.0048
528.4804	0.0058
528.677	0.0007
528.8737	0.0018
529.0703	0.0007
529.2669	-0.0122
529.4635	-0.0049
529.6601	0.0016
529.8567	0.0022
530.0532	-0.0037
530.2498	0.0038
530.4463	-0.0017
530.6428	-0.0105
530.8393	-0.0049
531.0358	0.0004
531.2322	0.0007
531.4287	0.0034
531.6251	-0.0022
531.8215	-0.0067
532.0179	-0.0068
532.2143	-0.0023
532.4107	0.0077
532.607	0.0007
532.8034	-0.0054
532.9997	-0.0023
533.196	-0.0062
533.3923	0.0015
533.5886	-0.0045
533.7848	0.0069
533.9811	0.0038
534.1773	-0.0027
534.3735	0.0009
534.5697	-0.0026
534.7659	-0.0052
534.9621	-0.0046
535.1582	0.0051
535.3544	0.0038
535.5505	-0.0006
535.7466	0.0072
535.9427	-0.0021
536.1387	-0.0132
536.3348	-0.0027
536.5308	-0.0065
536.7269	0.011
536.9229	0.0031
537.1189	-0.0084
537.3148	-0.0094
537.5108	0.0085
537.7068	-0.0089
537.9027	0.0015
538.0986	-0.0026
538.2945	-0.0009
538.4904	0.0073
538.6863	-0.0064
538.8821	-0.0097
539.078	-0.0049
539.2738	0.001
539.4696	-0.005
539.6654	-0.0043
539.8611	0.0103
540.0569	-0.0024
540.2526	-0.0073
540.4484	-0.0025
540.6441	-0.0005
540.8398	-0.0029
541.0355	0.0041
541.2311	-0.0114
541.4268	-0.001
541.6224	0.0041
541.818	-0.0025
542.0136	-0.0077
542.2092	0.0093
542.4048	0.0094
542.6003	-0.0002
542.7959	0.0012
542.9914	0.0005
543.1869	0.0052
543.3824	0.0039
543.5779	0.0047
543.7734	0.0052
543.9688	-0.0029
544.1642	0.0011
544.3596	0.0033
544.555	0.0002
544.7504	-0.0018
544.9458	0.0067
545.1411	0
545.3365	0.0027
545.5318	0.0058
545.7271	-0.0037
545.9224	-0.0024
546.1177	-0.013
546.3129	0.0011
546.5081	-0.0038
546.7034	0.0059
546.8986	-0.0093
547.0938	-0.0056
547.289	0.0039
547.4841	-0.0106
547.6793	-0.0047
547.8744	0.0065
548.0695	0.0072
548.2646	-0.0067
548.4597	-0.0024
548.6548	-0.0013
548.8498	-0.0009
549.0448	0.0043
549.2399	-0.0004
549.4349	-0.0043
549.6298	0.0164
549.8248	0.0035
550.0198	0.004
550.2147	0.0028
550.4096	-0.0059
550.6045	0.0046
550.7994	-0.0073
550.9943	0.0092
551.1892	-0.0037
551.384	-0.0098
551.5788	0.0062
551.7737	-0.0067
551.9685	-0.0004
552.1632	0.0073
552.358	0.0093
552.5528	-0.0069
552.7475	-0.0117
552.9422	0.006
553.1369	0.0003
553.3316	-0.0009
553.5263	0.0087
553.7209	0.0101
553.9156	-0.0012
554.1102	-0.0087
554.3048	0.0019
554.4994	0.0009
554.694	-0.0009
554.8885	-0.001
555.0831	-0.002
555.2776	0.0074
555.4721	0.0081
555.6666	-0.0038
555.8611	0.0057
556.0555	0.0031
556.25	0.0038
556.4444	0.0075
556.6388	0.0107
556.8332	-0.0019
557.0276	0.0025
557.222	-0.0002
557.4163	0.0091
557.6107	0.0108
557.805	0.0021
557.9993	-0.0041
558.1936	0.0015
558.3879	0.012
558.5821	0.0059
558.7764	-0.0034
558.9706	0.0022
559.1648	0.0044
559.359	0.001
559.5532	0.0017
559.7473	0.0099
559.9415	0.0041
560.1356	0.0133
560.3297	-0.0011
560.5238	0.0025
560.7179	0.0046
560.9119	-0.0045
561.106	0.002
561.3	0.0104
561.494	0.0042
561.688	0.0043
561.882	0.0046
562.076	0.0006
562.2699	0.0094
562.4639	0.0061
562.6578	0.0024
562.8517	0.0088
563.0456	-0.0007
563.2395	0.0091
563.4333	-0.0056
563.6272	0.0012
563.821	-0.0007
564.0148	0.0164
564.2086	-0.0125
564.4024	-0.0027
564.5961	0.0009
564.7899	0.0016
564.9836	-0.0009
565.1773	0.0086
565.371	-0.0026
565.5647	-0.0106
565.7584	0.0146
565.952	0.0009
566.1456	0.0052
566.3393	-0.0033
566.5329	-0.0042
566.7264	0.0034
566.92	-0.0003
567.1136	0.0063
567.3071	0.0067
567.5006	0.0034
567.6941	0.0006
567.8876	0.0019
568.0811	-0.0018
568.2745	0.002
568.468	0.0054
568.6614	0.0026
568.8548	0.0089
569.0482	0.0043
569.2416	0.0047
569.4349	-0.0005
569.6283	0.0092
569.8216	-0.0027
570.0149	0.0066
570.2082	0.0162
570.4015	0.0028
570.5947	0.0079
570.788	0.0069
570.9812	0.0081
571.1744	-0.0016
571.3676	0.0044
571.5608	0.0019
571.754	0.0006
571.9471	-0.006
572.1402	0.0008
572.3333	0.0033
572.5264	0.001
572.7195	-0.0033
572.9126	0.0038
573.1057	0.0003
573.2987	0.0064
573.4917	-0.0097
573.6847	-0.0007
573.8777	-0.003
574.0707	0.0049
574.2636	0.0064
574.4566	0.0103
574.6495	0.0001
574.8424	0.0041
575.0353	-0.0021
575.2281	0.0083
575.421	0.0014
575.6138	0.0021
575.8067	-0.0033
575.9995	0.005
576.1923	0.0056
576.385	0.0061
576.5778	0.0002
576.7706	0.0076
576.9633	0.0006
577.156	0.0039
577.3487	0.0041
577.5414	-0.0004
577.734	-0.006
577.9267	-0.0071
578.1193	0.0049
578.3119	0.0036
578.5045	-0.0008
578.6971	-0.0034
578.8897	-0.0005
579.0822	0.0095
579.2747	0.0083
579.4673	0.0078
579.6598	0.0094
579.8522	0.0068
580.0447	0.0037
580.2372	0.0094
580.4296	0.0138
580.622	0.0018
580.8144	0.0059
581.0068	0.0045
581.1992	0.0001
581.3915	0.004
581.5839	-0.0008
581.7762	0.0022
581.9685	-0.0008
582.1608	-0.0018
582.353	-0.0079
582.5453	0.0018
582.7375	-0.0073
582.9298	-0.0046
583.122	0.0024
583.3142	-0.0001
583.5063	0.0044
583.6985	0.0007
583.8906	0.0043
584.0827	-0.0038
584.2749	0.0024
584.4669	-0.0032
584.659	0.0006
584.8511	-0.0025
585.0431	-0.0033
585.2352	-0.0065
585.4272	-0.0059
585.6192	0.0021
585.8111	-0.0083
586.0031	0.0003
586.195	0.0009
586.387	-0.0046
586.5789	-0.0032
586.7708	-0.0018
586.9627	-0.0085
587.1545	0.0047
587.3464	0.0057
587.5382	0.0011
587.73	0.0116
587.9218	0.0063
588.1136	0.0019
588.3053	-0.0043
588.4971	-0.0014
588.6888	0.0025
588.8805	-0.0012
589.0722	-0.0013
589.2639	-0.0026
589.4556	-0.0024
589.6472	-0.0023
589.8389	0.0032
590.0305	0.005
590.2221	0.0039
590.4137	0.0003
590.6052	-0.0002
590.7968	0.0112
590.9883	0.0059
591.1798	-0.0059
591.3713	-0.0016
591.5628	-0.0004
591.7543	0.0108
591.9458	0.0075
592.1372	0.0023
592.3286	0.0045
592.52	0.0004
592.7114	0.0106
592.9028	-0.0008
593.0941	0.0046
593.2855	0.002
593.4768	0.001
593.6681	-0.0018
593.8594	-0.001
594.0506	-0.0067
594.2419	0.0057
594.4331	0.0015
594.6244	0.0012
594.8156	0.0086
595.0067	-0.0004
595.1979	0
595.3891	0.0011
595.5802	0.0062
595.7713	-0.0055
595.9624	-0.0032
596.1535	-0.0025
596.3446	0.0076
596.5357	-0.0033
596.7267	-0.0003
596.9177	0.0038
597.1087	0.0136
597.2997	0.0019
597.4907	0.0024
597.6817	0.0016
597.8726	0.0124
598.0635	0.0037
598.2544	0.0095
598.4453	0.0096
598.6362	0.0042
598.827	0.0063
599.0179	0.0017
599.2087	0.0052
599.3995	0.0067
599.5903	0.0005
599.7811	-0.0001
599.9718	0.0007
600.1626	0.0027
600.3533	0.0019
600.544	0.0037
600.7347	0.0077
600.9254	0.0024
601.116	0.0026
601.3067	-0.0081
601.4973	0.0037
601.6879	0.0025
601.8785	0.0046
602.0691	-0.0007
602.2596	0.0011
602.4502	0.0013
602.6407	-0.0036
602.8312	-0.0038
603.0217	0.0038
603.2122	-0.0025
603.4027	0.0024
603.5931	0.0114
603.7835	0.0065
603.9739	0.0043
604.1643	0.0065
604.3547	0.0076
604.5451	0.0006
604.7354	-0.0037
604.9257	-0.0013
605.116	-0.0032
605.3063	0.0023
605.4966	-0.0025
605.6869	0.0101
605.8771	0.0002
606.0673	0.0012
606.2575	0.0047
606.4477	-0.001
606.6379	0.007
606.8281	0.0013
607.0182	-0.0009
607.2083	0.0018
607.3985	0.0055
607.5885	0.0017
607.7786	-0.0034
607.9687	0.002
608.1587	0.0042
608.3488	0.0087
608.5388	0.0045
608.7288	0.0003
608.9187	0.0003
609.1087	-0.0018
609.2986	-0.0031
609.4886	-0.0041
609.6785	-0.0045
609.8684	0.0003
610.0582	0.0046
610.2481	0.001
610.4379	-0.0017
610.6278	-0.0047
610.8176	0.0046
611.0074	-0.0005
611.1971	0.0029
611.3869	-0.001
611.5766	0.0098
611.7664	0.001
611.9561	0.0131
612.1458	0.0085
612.3354	0.0107
612.5251	0.0038
612.7147	0.0058
612.9044	0.0105
613.094	0.0014
613.2836	0.0115
613.4731	0.0095
613.6627	-0.0002
613.8522	0.0122
614.0417	0.0057
614.2313	0.0052
614.4207	0.0074
614.6102	0.0005
614.7997	0.0004
614.9891	0.0063
615.1785	-0.0059
615.3679	0.012
615.5573	0.0033
615.7467	-0.0055
615.9361	0.0099
616.1254	0.0052
616.3147	0.0024
616.504	0.0037
616.6933	0.0045
616.8826	0.0087
617.0718	0.0031
617.2611	0.005
617.4503	0.0096
617.6395	0.0009
617.8287	0.0192
618.0179	-0.0027
618.207	0.0022
618.3961	0.0103
618.5853	0.0099
618.7744	0.0027
618.9634	0.0044
619.1525	0.0083
619.3416	0.0056
619.5306	0.0087
619.7196	-0.002
619.9086	0.0054
620.0976	0.009
620.2866	0.0037
620.4755	0.0084
620.6645	0.002
620.8534	0.0079
621.0423	0.0085
621.2312	0.0051
621.42	0.0105
621.6089	0.0086
621.7977	0.0151
621.9865	0.0145
622.1753	0.0093
622.3641	0.0012
622.5529	0.0064
622.7416	0.0069
622.9303	0.0141
623.1191	0.0115
623.3078	0.0079
623.4964	0.0084
623.6851	0.0158
623.8737	0.0126
624.0624	0.0021
624.251	0.0175
624.4396	0.0059
624.6282	0.008
624.8167	0.0105
625.0053	-0.0011
625.1938	0.0075
625.3823	0.0042
625.5708	0.0132
625.7593	0.0102
625.9477	0.0169
626.1362	0.0068
626.3246	0.0082
626.513	-0.0005
626.7014	0.0031
626.8898	0.0058
627.0781	0.0013
627.2665	0.0069
627.4548	0.0071
627.6431	0.005
627.8314	0.0093
628.0197	0.0079
628.2079	0.009
628.3962	0.0045
628.5844	0.0038
628.7726	0.0067
628.9608	0.0061
629.1489	0.0019
629.3371	0.0045
629.5252	0.0081
629.7134	-0.0021
629.9015	0.0025
630.0895	0.0036
630.2776	0.0084
630.4657	0.0098
630.6537	0.0079
630.8417	0.007
631.0297	0.0077
631.2177	0.015
631.4057	0.0088
631.5936	0.0032
631.7815	0.0136
631.9695	0.0111
632.1574	0.012
632.3452	0.0089
632.5331	0.0035
632.7209	0.0005
632.9088	-0.0023
633.0966	0.0025
633.2844	0.001
633.4722	0.0033
633.6599	0.006
633.8477	0.0079
634.0354	0.0104
634.2231	0.0101
634.4108	0.0094
634.5985	0.003
634.7861	0.006
634.9738	0.0124
635.1614	0.0104
635.349	0.0043
635.5366	-0.0016
635.7242	0.0022
635.9117	0.0044
636.0993	0.0072
636.2868	0.0087
636.4743	0.0022
636.6618	0.0085
636.8492	0.0174
637.0367	0.0087
637.2241	0.0011
637.4115	0.0037
637.5989	0.0154
637.7863	0.0028
637.9737	0.0011
638.161	0.009
638.3484	0.0114
638.5357	0.0092
638.723	-0.0026
638.9103	0.0061
639.0975	0.0018
639.2848	0.0045
639.472	0.0062
639.6592	0.0113
639.8464	0.0045
640.0336	0.0026
640.2208	0.0032
640.4079	0.0013
640.595	0.0042
640.7821	-0.002
640.9692	0.003
641.1563	0.0072
641.3434	0.0108
641.5304	0.0039
641.7174	0.0136
641.9044	-0.004
642.0914	0.006
642.2784	0.0028
642.4653	-0.0001
642.6523	-0
642.8392	0.0113
643.0261	0.0009
643.213	-0.0019
643.3999	0.0012
643.5867	0.0076
643.7735	0.0072
643.9604	0.0026
644.1472	-0.0031
644.3339	-0.0003
644.5207	0.0059
644.7075	0.0034
644.8942	0.0076
645.0809	0.0079
645.2676	0.0113
645.4543	0.0062
645.6409	-0.0005
645.8276	0.0009
646.0142	0.0031
646.2008	0.0067
646.3874	0.0135
646.574	0.0086
646.7605	-0.001
646.9471	0.0034
647.1336	0.0043
647.3201	0.0156
647.5066	0.0025
647.6931	0.0011
647.8795	-0.0027
648.0659	0.0024
648.2524	0.0005
648.4388	0.0018
648.6252	-0.0005
648.8115	0.0037
648.9979	0.0069
649.1842	0.0024
649.3705	-0.001
649.5568	0.0028
649.7431	0.0057
649.9294	0.0048
650.1156	0.0116
650.3018	0.0039
650.488	0.0024
650.6742	0.0028
650.8604	0.0111
651.0466	0.0051
651.2327	0.0068
651.4188	0.0029
651.6049	0.0077
651.791	0.0105
651.9771	0.0018
652.1632	0.0066
652.3492	0.0016
652.5352	0.0089
652.7212	0.0034
652.9072	-0.008
653.0932	0.0045
653.2791	-0.0009
653.465	0.0037
653.651	0.0141
653.8369	0.0073
654.0227	0.007
654.2086	0.0086
654.3944	0.0034
654.5803	0.0008
654.7661	0.0059
654.9519	-0.0049
655.1377	-0.0046
655.3234	0.0008
655.5092	-0.0022
655.6949	-0.0074
655.8806	-0.0105
656.0663	-0.0043
656.2519	-0.0047
656.4376	-0.0025
656.6232	-0.0027
656.8088	0.0076
656.9945	0.0025
657.18	-0.0002
657.3656	0.004
657.5511	-0.0021
657.7367	-0.0015
657.9222	0.0086
658.1077	0.004
658.2932	0.002
658.4786	-0.0026
658.6641	-0.0033
658.8495	0.0024
659.0349	0.0069
659.2203	0.0039
659.4057	0.0072
659.591	0.0093
659.7764	-0.0035
659.9617	0.0001
660.147	0.007
660.3323	0.0016
660.5176	-0.0031
660.7028	0.0008
660.888	0.0138
661.0733	0.0082
661.2585	0.0081
661.4436	0.0126
661.6288	0.0113
661.8139	0.0002
661.9991	-0.0046
662.1842	0.0045
662.3693	0.0007
662.5544	0.011
662.7394	0.0055
662.9245	0.0104
663.1095	0.0127
663.2945	0.0033
663.4795	0.0046
663.6644	0.0083
663.8494	0.0123
664.0343	0.0065
664.2193	0.0107
664.4042	0.0151
664.589	0.0052
664.7739	0.001
664.9587	0.0033
665.1436	-0.0012
665.3284	0.0105
665.5132	0.0018
665.698	0.0076
665.8827	0.01
666.0675	0.0028
666.2522	0.0151
666.4369	0.0007
666.6216	0.0117
666.8063	-0.0023
666.9909	0.0028
667.1756	0.0115
667.3602	0.0011
667.5448	0.0185
667.7294	0.0074
667.9139	0.0036
668.0985	0.0095
668.283	-0.002
668.4675	0.0044
668.652	0.0129
668.8365	-0.0007
669.0209	0.0016
669.2054	0.001
669.3898	0.0019
669.5742	-0.002
669.7586	-0.001
669.943	0.0057
670.1273	0.006
670.3117	-0.0001
670.496	0.0059
670.6803	0.0044
670.8646	0.0081
671.0488	0.0109
671.2331	0.0096
671.4173	0.0143
671.6015	0.0076
671.7857	0.005
671.9699	0.0085
672.1541	0.0106
672.3382	0.0109
672.5223	0.0082
672.7064	0.0111
672.8905	0.0094
673.0746	0.012
673.2587	0.0089
673.4427	-0.0011
673.6267	0.0042
673.8107	0.0118
673.9947	0.0051
674.1787	0.0044
674.3626	0.0108
674.5465	0.0078
674.7304	0.0069
674.9143	0.0063
675.0982	0.0079
675.2821	0.0022
675.4659	0.0146
675.6497	-0.007
675.8335	0.0125
676.0173	0.0058
676.2011	0.0095
676.3849	0.0102
676.5686	0.0141
676.7523	0.0185
676.936	-0.0028
677.1197	0.0063
677.3034	0.003
677.487	0.0062
677.6706	0.0087
677.8542	0.0135
678.0378	0.0127
678.2214	-0.0041
678.405	0.0202
678.5885	0.0117
678.772	0.0117
678.9555	0.0036
679.139	0.0084
679.3225	0.0108
679.5059	0.0118
679.6894	0.0109
679.8728	0.0074
680.0562	0.0103
680.2395	0.0073
680.4229	0.0006
680.6062	-0.0025
680.7896	0.0117
680.9729	0.0079
681.1562	0.004
681.3394	0.0089
681.5227	0.0075
681.7059	-0.0095
681.8891	-0.0013
682.0723	0.003
682.2555	0.006
682.4387	0.0008
682.6218	0.019
682.805	0.0114
682.9881	0.0161
683.1712	0.0144
683.3542	0.0047
683.5373	0.0029
683.7203	0.0117
683.9034	0.0137
684.0864	0.0003
684.2694	0.0073
684.4523	0.0076
684.6353	0.002
684.8182	0.0052
685.0011	0.0033
685.184	0.0098
685.3669	0.0039
685.5498	0.0027
685.7326	0.0017
685.9154	0.011
686.0982	0.0114
686.281	0.0058
686.4638	0.0056
686.6465	0.0149
686.8293	0.0097
687.012	0.0104
687.1947	0.0036
687.3774	0.0116
687.56	0.0099
687.7427	0.0152
687.9253	0.0104
688.1079	0.0098
688.2905	0.0037
688.4731	0.0068
688.6556	0.0073
688.8382	-0.0005
689.0207	0.0016
689.2032	0.0048
689.3857	0.0152
689.5681	0.0021
689.7506	0.0063
689.933	0.0049
690.1154	-0.0035
690.2978	-0.0015
690.4802	0.0018
690.6626	0.0011
690.8449	0.0161
691.0272	0.0014
691.2095	0.0088
691.3918	0.0057
691.5741	0.0132
691.7563	0.0044
691.9386	0.0093
692.1208	0.0022
692.303	-0.0034
692.4852	0.0095
692.6673	0.0109
692.8495	0.0054
693.0316	0.0136
693.2137	0.0126
693.3958	0.0121
693.5778	0.0082
693.7599	0.0139
693.9419	0.0121
694.1239	0.0132
694.3059	0.011
694.4879	0.0047
694.6699	0.0004
694.8518	0.0089
695.0337	0.0056
695.2157	0.0114
695.3975	0.0004
695.5794	0.005
695.7613	0.0072
695.9431	0.0052
696.1249	0.0065
696.3067	-0.0012
696.4885	0.0101
696.6703	0.0029
696.852	0.0088
697.0337	0.0133
697.2154	0.0098
697.3971	0.009
697.5788	0.0077
697.7605	0.0031
697.9421	-0.0014
698.1237	0.0098
698.3053	0.0058
698.4869	0.0138
698.6685	0.0059
698.85	-0.0009
699.0315	0.0202
699.213	0.0084
699.3945	-0.0039
699.576	0.0207
699.7575	0.0249
699.9389	0.0187
700.1203	0.0128
700.3017	0.0101
700.4831	0.0003
700.6645	0.0008
700.8458	0.0134
701.0271	0.004
701.2084	0.0102
701.3897	0.0021
701.571	-0.0045
701.7523	0.0005
701.9335	-0.0058
702.1147	-0.0033
702.2959	0.0015
702.4771	-0.0016
702.6583	0.0026
702.8394	0.0039
703.0205	0.0025
703.2016	0.0074
703.3827	0.0009
703.5638	0.0117
703.7449	0.01
703.9259	-0.0001
704.1069	-0.0021
704.2879	0.0017
704.4689	0.003
704.6499	-0.005
704.8308	0.0014
705.0117	0.0042
705.1927	0.0084
705.3735	-0.003
705.5544	-0.0065
705.7353	0.0059
705.9161	0.002
706.0969	0.0075
706.2777	0.006
706.4585	0.0111
706.6393	0.0115
706.82	-0.0011
707.0007	-0.0021
707.1815	-0.0006
707.3621	0.0009
707.5428	0.0136
707.7235	-0.0009
707.9041	0.0068
708.0847	0.0164
708.2653	0.0097
708.4459	0.0031
708.6265	0.0136
708.807	0.0103
708.9875	0.0091
709.168	0.0081
709.3485	0.0073
709.529	0.0088
709.7095	0.0217
709.8899	0.0066
710.0703	0.0108
710.2507	0.0066
710.4311	0.0053
710.6115	0.0047
710.7918	0.0082
710.9721	0.0057
711.1524	-0.0031
711.3327	0.002
711.513	0.0032
711.6932	0.01
711.8735	0.0046
712.0537	-0.0017
712.2339	-0.0077
712.4141	-0.0078
712.5942	0.0042
712.7744	0.007
712.9545	0.0031
713.1346	-0.0025
713.3147	-0.0022
713.4947	0.0071
713.6748	0.0009
713.8548	0.0097
714.0348	0.0078
714.2148	0.0019
714.3948	-0.0005
714.5748	0.0016
714.7547	0.0031
714.9346	0.0055
715.1145	0.0066
715.2944	0.0029
715.4743	0.0088
715.6541	0.0119
715.834	0.0068
716.0138	0.006
716.1936	0.0152
716.3733	0.0073
716.5531	0.0177
716.7328	0.0071
716.9126	0.0015
717.0923	0.0053
717.2719	0.013
717.4516	-0.0021
717.6312	0.0029
717.8109	-0.0002
717.9905	0.0061
718.1701	-0.011
718.3496	0.0051
718.5292	0
718.7087	0.0017
718.8882	-0.0004
719.0677	0.0055
719.2472	0.0028
719.4267	0.0112
719.6061	-0.004
719.7856	0.0063
719.965	0.0023
720.1443	-0.0013
720.3237	0.0049
720.5031	0.0041
720.6824	0.011
720.8617	0.0081
721.041	-0.0075
721.2203	0.0069
721.3995	0.0059
721.5788	0.0073
721.758	-0.0033
721.9372	0.01
722.1164	0.0069
722.2956	0.0052
722.4747	0.0106
722.6538	0.0035
722.8329	0.0054
723.012	0.0032
723.1911	0.0041
723.3702	0.0088
723.5492	0.0069
723.7282	0.0062
723.9072	0.0092
724.0862	0.0069
724.2652	0.001
724.4441	-0.0049
724.623	0.0178
724.8019	-0.0044
724.9808	0.008
725.1597	0.0101
725.3385	0.0191
725.5174	-0.0004
725.6962	0.0031
725.875	-0.0086
726.0538	0.0045
726.2325	0.0036
726.4112	0.0021
726.59	0.0077
726.7687	0.009
726.9474	-0.001
727.126	-0.007
727.3047	-0.0056
727.4833	-0.0031
727.6619	-0.0059
727.8405	-0.0049
728.0191	-0.0049
728.1976	-0.0038
728.3762	0.0087
728.5547	0.0019
728.7332	0.0025
728.9116	-0.0106
729.0901	-0.0002
729.2686	-0.0045
729.447	0.0043
729.6254	0.0079
729.8038	0.0078
729.9821	0.0076
730.1605	0.0103
730.3388	0.0021
730.5171	0.0079
730.6954	0
730.8737	-0.0003
731.0519	0
731.2302	0.0024
731.4084	0.0041
731.5866	-0.0072
731.7648	0.004
731.9429	-0.0063
732.1211	0.0032
732.2992	0.001
732.4773	-0.005
732.6554	-0.0026
732.8335	-0.0023
733.0115	0.0036
733.1896	0.0049
733.3676	-0.0049
733.5456	-0.0085
733.7235	-0.0054
733.9015	0.0152
734.0794	-0.0033
734.2574	0.0019
734.4353	0.0061
734.6131	-0.0001
734.791	0.0014
734.9689	0.0102
735.1467	0.007
735.3245	-0.0041
735.5023	0.0023
735.68	0.0077
735.8578	0.0048
736.0355	0.0086
736.2132	0.0122
736.3909	0.0075
736.5686	0.0189
736.7463	0.006
736.9239	0.0082
737.1015	0.0138
737.2791	0.0004
737.4567	0.0052
737.6343	-0.0023
737.8118	0.0095
737.9894	0.006
738.1669	-0.0018
738.3444	0.0104
738.5218	0.0024
738.6993	0.0008
738.8767	0.0034
739.0541	0.0025
739.2315	0.0044
739.4089	0.0132
739.5863	0.0029
739.7636	-0.0003
739.9409	-0.0013
740.1182	0.0029
740.2955	0.0134
740.4728	0.0049
740.65	-0.0009
740.8272	-0.0007
741.0044	-0.004
741.1816	0.0104
741.3588	0.0014
741.5359	0.0155
741.7131	0.0066
741.8902	0.0033
742.0673	0.0138
742.2444	0.0027
742.4214	-0.0014
742.5985	0.0011
742.7755	0.008
742.9525	0.0075
743.1295	0.0084
743.3064	0.0023
743.4834	0.0024
743.6603	0.0017
743.8372	-0.0028
744.0141	0.0095
744.191	-0.0014
744.3678	0.0041
744.5446	-0.0003
744.7215	0.0105
744.8982	0.0101
745.075	-0.0025
745.2518	-0.0076
745.4285	0.0005
745.6052	0.0048
745.7819	-0.0017
745.9586	0.0073
746.1353	-0.0041
746.3119	0.0139
746.4885	0.0064
746.6651	0.0021
746.8417	0.0014
747.0183	0.0069
747.1948	-0.0032
747.3714	0.0089
747.5479	-0.0002
747.7244	0.0109
747.9008	0.0098
748.0773	-0.0023
748.2537	-0.0004
748.4301	-0.0035
748.6065	0.014
748.7829	-0.0005
748.9593	0.0099
749.1356	-0.001
749.3119	0.0081
749.4882	0.0076
749.6645	-0.0039
749.8408	0.0031
750.017	0.0058
750.1933	0.0179
750.3695	0.0128
750.5457	0.0167
750.7218	0.0075
750.898	0.0154
751.0741	0.0153
751.2502	0.0222
751.4263	0.0201
751.6024	0.0016
751.7784	0.0046
751.9545	0.0117
752.1305	0.0011
752.3065	0.0166
752.4825	0.0054
752.6584	0.005
752.8344	0
753.0103	0.0055
753.1862	0.0034
753.3621	-0.0035
753.5379	0.0057
753.7138	0.0004
753.8896	0.0136
754.0654	0.0024
754.2412	-0.0016
754.417	0.0023
754.5927	0.0107
754.7685	0.0052
754.9442	0.0027
755.1199	0.0031
755.2956	-0.0018
755.4712	0.0009
755.6469	0.0084
755.8225	0.0072
755.9981	0.0109
756.1736	-0.0026
756.3492	0.0074
756.5248	0.0116
756.7003	0.0075
756.8758	0.0148
757.0513	0.0068
757.2267	-0.0019
757.4022	0.0128
757.5776	-0.0001
757.753	0.0064
757.9284	0.0093
758.1038	0.0009
758.2791	0.0074
758.4545	0.0026
758.6298	0.01
758.8051	0.0049
758.9803	0.0109
759.1556	0.0007
759.3308	0.0025
759.506	0.0082
759.6812	0.0121
759.8564	0.0054
760.0316	0.0088
760.2067	0.0069
760.3819	0.001
760.557	0.0033
760.732	0.0159
760.9071	0.0154
761.0821	0.01
761.2572	0.0077
761.4322	0.0007
761.6072	0.0045
761.7821	-0.0016
761.9571	0.0155
762.132	-0.0038
762.3069	0.0125
762.4818	0.0091
762.6567	0.0052
762.8316	0.005
763.0064	0.0046
763.1812	0.0052
763.356	0.0062
763.5308	-0.0041
763.7055	0.0049
763.8803	0.0034
764.055	0.0017
764.2297	0.0011
764.4044	0.005
764.579	0.0098
764.7537	0.0022
764.9283	0.0083
765.1029	-0.0006
765.2775	0.0036
765.4521	-0.0003
765.6266	0.0024
765.8011	0.004
765.9756	-0.0017
766.1501	0.0052
766.3246	0.0008
766.4991	0.0099
766.6735	-0.0047
766.8479	-0.0005
767.0223	-0.0108
767.1967	0.0077
767.371	0.004
767.5454	-0.0027
767.7197	0.0091
767.894	0.0055
768.0683	0.0093
768.2425	0.003
768.4168	0.0063
768.591	-0.0011
768.7652	-0.0035
768.9394	0.0038
769.1135	0.0046
769.2877	-0.0048
769.4618	0.0144
769.6359	0.0175
769.81	0.0066
769.984	0.0016
770.1581	-0.006
770.3321	0.0107
770.5061	-0.0086
770.6801	-0.0013
770.8541	0.0067
771.028	0.0166
771.202	0.007
771.3759	-0.0028
771.5498	0.0194
771.7236	0.0067
771.8975	0.0052
772.0713	0.0061
772.2451	0.0051
772.4189	0.0106
772.5927	0.001
772.7665	-0.0032
772.9402	0.0037
773.1139	0.0043
773.2876	0.0004
773.4613	0.0107
773.635	0.0035
773.8086	-0.0048
773.9822	0.0109
774.1558	0.0128
774.3294	0.0179
774.503	-0.0058
774.6765	0.0134
774.8501	0.0076
775.0236	0.0043
775.1971	0.0125
775.3705	0.0255
775.544	0.0094
775.7174	0.0108
775.8908	0.0091
776.0642	0.0142
776.2376	-0.0004
776.4109	0.001
776.5843	-0.0046
776.7576	0.0082
776.9309	0.0091
777.1041	0.0077
777.2774	0.0052
777.4506	0.0081
777.6238	0.0037
777.797	0.0155
777.9702	0.006
778.1434	0.0189
778.3165	0.0057
778.4896	0.007
778.6627	0.0082
778.8358	-0.0016
779.0089	0.0046
779.1819	-0.004
779.3549	0.0039
779.5279	0.0188
779.7009	-0.0163
779.8739	-0.0031
780.0468	0.0009
780.2197	-0.0077
780.3926	0.0013
780.5655	-0.0027
780.7384	0.0082
780.9112	0.0037
781.0841	-0.0056
781.2569	-0.0124
781.4297	-0.0114
781.6024	0.0044
781.7752	-0.0181
781.9479	0.007
782.1206	0.0024
782.2933	0.0015
782.466	-0.0112
782.6386	0.014
782.8113	-0.0168
782.9839	0.0043
783.1565	0.004
783.329	0.0005
783.5016	-0.0016
783.6741	-0.002
783.8466	0.0004
784.0191	-0.0044
784.1916	-0.0013
784.3641	0.0005
784.5365	-0.0125
784.7089	0.008
784.8813	-0.0013
785.0537	-0.0027
785.2261	-0.001
785.3984	0.0021
785.5707	0.0172
785.743	-0.009
785.9153	-0.0008
786.0876	0.0071
786.2598	0.0077
786.432	0.0088
786.6042	0.0093
786.7764	0.0011
786.9486	0.007
787.1207	0.0095
787.2928	0.005
787.4649	0.0049
787.637	0.0113
787.8091	0.0137
787.9811	-0.0018
788.1532	0.0072
788.3252	0.0042
788.4972	0.0034
788.6691	0.0096
788.8411	-0.0063
789.013	0.0013
789.1849	0.0121
789.3568	0.0083
789.5287	-0.0033
789.7005	0.0106
789.8723	0.0232
790.0442	0.005
790.2159	0.0044
790.3877	0.0124
790.5595	0.0085
790.7312	-0.0078
790.9029	0.0069
791.0746	0.0044
791.2463	0.0163
791.4179	-0.0047
791.5896	0.0296
791.7612	0.0221
791.9328	-0.0011
792.1044	0.0057
792.2759	-0.0045
792.4474	0.0152
792.619	0.0096
792.7905	0.0279
792.9619	0.0002
793.1334	0.0092
793.3048	0.0094
793.4762	0.015
793.6476	-0.0035
793.819	0.0186
793.9904	0.0133
794.1617	0.0123
794.333	0.0038
794.5043	0.0095
794.6756	-0.0039
794.8469	0.009
795.0181	0.0143
795.1893	-0.0044
795.3605	-0.0008
795.5317	-0.0026
795.7029	0.0008
795.874	-0.0049
796.0452	-0.0035
796.2163	0.0186
796.3873	0.0057
796.5584	0.0046
796.7294	-0.0059
796.9005	-0.0058
797.0715	0.0084
797.2425	-0.004
797.4134	0.0205
797.5844	0.0094
797.7553	0.0044
797.9262	0.007
798.0971	0.015
798.2679	-0.0089
798.4388	0.0097
798.6096	-0.0184
798.7804	0.0107
798.9512	0.0013
799.122	0.0042
799.2927	0.0098
799.4635	0.009
799.6342	0.0199
799.8049	0.013
799.9755	0.0101
800.1462	0.0151
800.3168	0.0055
800.4874	-0.0043
800.658	0.0042
800.8286	0.028
800.9991	0.0146
801.1696	0.0094
801.3402	-0.0013
801.5106	0.0101
801.6811	0.0024
801.8516	0.0065
802.022	0.0074
802.1924	-0.0042
802.3628	0.0196
802.5332	0.0054
802.7035	0.0055
802.8739	0.0192
803.0442	-0.0024
803.2145	-0.005
803.3847	-0.0002
803.555	0.0082
803.7252	0.0162
803.8954	0.0107
804.0656	-0.0112
804.2358	-0.0101
804.4059	0.008
804.5761	0.0132
804.7462	0.0047
804.9163	0.0013
805.0864	-0.007
805.2564	0.0026
805.4264	0.0181
805.5965	0.0079
805.7665	0.0134
805.9364	0.0017
806.1064	0.0036
806.2763	0.0191
806.4462	0.0287
806.6161	0.0024
806.786	0.0164
806.9559	0.0203
807.1257	0.0065
807.2955	0.0154
807.4653	0.0312
807.6351	0.0046
807.8048	-0.0006
807.9746	0.0177
808.1443	0.0092
808.314	0.0194
808.4837	0.0234
808.6533	0.0189
808.8229	0.0127
808.9926	0.0283
809.1622	0.0248
809.3317	0.0274
809.5013	0.0154
809.6708	0.0188
809.8403	0.0158
810.0098	0.0071
810.1793	0.011
810.3488	-0.0071
810.5182	0.0356
810.6876	0.0304
810.857	0.0088
811.0264	-0.012
811.1958	0.0154
811.3651	0.0053
811.5344	0.0271
811.7037	0.0113
811.873	0.0047
812.0422	-0.019
812.2115	0.0241
812.3807	0.0005
812.5499	0.012
812.7191	0.0236
812.8882	0.0216
813.0574	0.0051
813.2265	0.0321
813.3956	0.0164
813.5646	-0.0094
813.7337	0.0274
813.9027	0.0138
814.0718	0.0215
814.2407	0.0189
814.4097	0.0384
814.5787	0.0003
814.7476	0.0248
814.9165	0.0022
815.0854	0.0112
815.2543	0.0149
815.4232	0.0229
815.592	-0.0125
815.7608	0.0255
815.9296	-0.0077
816.0984	0.015
816.2671	-0.0116
816.4359	-0.0103
816.6046	-0.0064
816.7733	-0.0052
816.942	0.0144
817.1106	0.0015
817.2793	0.0086
817.4479	-0.0183
817.6165	0.0119
817.785	-0.0114
817.9536	0.0065
818.1221	0.0059
818.2906	0.0095
818.4591	0.0081
818.6276	0.0207
818.7961	-0.0027
818.9645	0.0032
819.1329	0.0152
819.3013	0.0143
819.4697	0.035
819.638	0.0007
819.8064	-0.0078
819.9747	-0.0271
820.143	-0.0047
820.3113	-0.0098
820.4795	0.0046
820.6477	0.0041
820.816	-0.0237
820.9842	0.01
821.1523	0.0207
821.3205	0.0153
821.4886	-0.005
821.6567	-0.014
821.8248	0.0324
821.9929	0.0118
822.1609	-0.007
822.329	0.0122
822.497	-0.0067
822.665	-0.0052
822.833	-0.0218
823.0009	-0.0044
823.1688	0.0135
823.3367	-0.0083
823.5046	-0.0188
823.6725	-0.0363
823.8404	-0.016
824.0082	0.0134
824.176	0.0205
824.3438	0.0129
824.5116	0.0105
824.6793	-0.0156
824.847	0.0313
825.0147	0.0219
825.1824	-0.0056
825.3501	0.0069
825.5177	-0.0068
825.6854	-0.0101
825.853	0.0396
826.0206	0.0098
826.1881	0.0263
826.3557	0.0257
826.5232	-0.0048
826.6907	0.0453
826.8582	0.0318
827.0257	0.0393
827.1931	-0.0032
827.3605	0.0485
827.528	-0.0028
827.6953	0.0162
827.8627	0.0381
828.03	0.0297
828.1974	0.0327
828.3647	-0.003
828.532	0.0262
828.6992	-0.004
828.8665	0.0296
829.0337	0.0167
829.2009	0.0288
829.3681	0.0049
829.5352	-0.0207
829.7024	0.0092
829.8695	0.0083
830.0366	0.0334
830.2037	0.0005
830.3707	0.0115
830.5378	0.0064
830.7048	0.0347
830.8718	-0.0312
831.0388	-0.0118
831.2057	0.0341
831.3727	0.0356
831.5396	0.0106
831.7065	-0.0073
831.8734	0.0234
832.0402	-0.0038
832.2071	0.0054
832.3739	-0.0163
832.5407	0.0168
832.7075	-0.0172
832.8742	-0.015
833.041	0.0017
833.2077	-0.0066
833.3744	0.0593
833.541	0.0305
833.7077	0.0131
833.8743	0.0577
834.0409	0.022
834.2075	0.0348
834.3741	0.0417
834.5407	0.0001
834.7072	0.0063
834.8737	-0.012
835.0402	0.0061
835.2067	0.0263
835.3731	-0.0181
835.5395	-0.0192
835.706	0.0125
835.8723	-0.0129
836.0387	0.018
836.2051	0.0113
836.3714	-0.0611
836.5377	-0.0242
836.704	-0.0192
836.8703	-0.0129
837.0365	-0.0392
837.2027	0.0014
837.3689	-0.0416
837.5351	0.0189
837.7013	-0.0152
837.8674	0.0088
838.0335	-0.0338
838.1997	-0.0397
838.3657	-0.0028
838.5318	0.021
838.6978	0.0392
838.8639	-0.0193
839.0299	-0.0288
839.1958	0.0457
839.3618	0.0106
839.5277	-0.0307
839.6937	0.0066
839.8596	-0.0016
840.0254	0.0264
840.1913	0.0112
840.3571	-0.0425
840.523	0.0256
840.6888	0.0323
840.8545	-0.0162
841.0203	0.0295
841.186	0.0506
841.3517	-0.029
841.5174	0.0056
841.6831	0.0202
841.8488	0.0271
842.0144	0.0579
842.18	-0.0332
842.3456	0.0147
842.5112	0.0778
842.6767	0.0128
842.8422	0.0062
843.0077	-0.013
843.1732	-0.0234
843.3387	-0.0183
843.5042	-0.0238
843.6696	0.0143
843.835	-0.0283
844.0004	-0.0688
844.1657	-0.01
844.3311	-0.022
844.4964	-0.0289
844.6617	-0.0235
844.827	0.0159
844.9923	0.0721
845.1575	0.0324
845.3227	-0.0138
845.4879	-0.0141
845.6531	0.0137
845.8183	-0.0525
845.9834	0.0509
846.1485	-0.0151
846.3136	-0.0557
846.4787	0.0823
846.6438	0.0444
846.8088	-0.0338
846.9738	-0.0732
847.1388	0.0617
847.3038	0.0129
847.4687	-0.0243
847.6337	-0.0987
847.7986	0.0867
847.9635	0.0043
848.1284	-0.0422
848.2932	0.0652
848.458	-0.0022
848.6228	0.1421
848.7876	-0.0155
848.9524	0.0046
849.1172	-0.0151
849.2819	-0.0359
849.4466	-0.0128
849.6113	0.0137
849.7759	-0.0584
849.9406	-0.014
850.1052	-0.1426
850.2698	-0.0071
850.4344	0.0485
850.599	0.1013
850.7635	-0.0422
850.928	-0.0156
851.0925	0.0327
851.257	0.0737
851.4215	-0.0326
851.5859	0.0352
851.7503	-0.0231
851.9147	0.0512
852.0791	-0.0074
852.2434	0.0392
852.4078	-0.0836
852.5721	0.0133
852.7364	-0.0307
852.9007	-0.1653
853.0649	-0.034
853.2291	0.0249
853.3934	-0.0471
853.5575	-0.0089
853.7217	0.0685
853.8859	0.0002
854.05	-0.0654
854.2141	0.1263
854.3782	0.0821
854.5423	0.045
854.7063	0.0067
854.8703	-0.0809
855.0343	0.1324
855.1983	0.0002
855.3623	0.1013
855.5262	0.0655
855.6901	0.0315
855.854	-0.0448
856.0179	-0.0368
856.1818	0.045
856.3456	-0.0808
856.5094	0.0121
856.6732	0.0036
856.837	0.1391
857.0008	-0.1721
857.1645	0.1922
857.3282	0.1116
857.4919	0.0663
857.6556	0.0065
857.8192	0.009
857.9828	0.116
858.1465	-0.0503
858.31	-0.0219
858.4736	0.1803
858.6372	-0.0982
858.8007	-0.3652
858.9642	0.1268
859.1277	0.0365
859.2911	-0.1195
859.4546	-0.0705
859.618	-0.4332
859.7814	0.1162
859.9448	-0.1429
860.1081	-0.1311
860.2715	-0.0427
860.4348	0.1278
860.5981	0.4198
860.7614	0.0399
860.9246	0.0581
861.0879	-0.0623
861.2511	0.1949
861.4143	0.2661
861.5774	0.0548
861.7406	-0.2853
861.9037	-0.4178
862.0668	-0.0813
862.2299	-0.0384
862.393	0.0708
862.556	0.0952
862.7191	0.1591
862.8821	0.1052
863.0451	-0.1454
863.208	-0.0645
863.371	-0.6133
863.5339	0.1136
863.6968	-0.0205
863.8597	0.2142
864.0225	0.2538
864.1854	0.0611
864.3482	0.2025
864.511	0.0998
864.6737	0.5006
864.8365	0.1077
864.9992	-0.1111
865.1619	0.2128
865.3246	0.2342
865.4873	-0.0735
865.65	-0.2823
865.8126	0.2003
865.9752	0.0094
866.1378	0.2907
866.3004	-0
866.4629	0.1145
866.6254	0.479
866.7879	-0.0701
866.9504	0.4378
867.1129	0.0302
867.2753	0.08
867.4377	-0.2953
867.6001	0.0331
867.7625	0.2361
867.9249	-0.6442
868.0872	0.0894
868.2495	2.005
868.4118	-0.0824
868.5741	0.1213
868.7363	-0.1988
868.8986	-0.1326
869.0608	0.0329
869.223	0.0705
869.3851	0.0098
869.5473	-0.1175
869.7094	0.2224
869.8715	0.3721
870.0336	-0
870.1957	-0
870.3577	-0.144
870.5197	0.6322
870.6817	-0
870.8437	0.155
871.0057	0.0788
871.1676	-0.1545
871.3295	-0
871.4914	-0
871.6533	0.0391
871.8151	-0.1062
871.977	0.0361
872.1388	1.8874
872.3006	0.6434
872.4623	-0
872.6241	-0
872.7858	0.1907
872.9475	0.698
873.1092	0.1873
873.2709	-0
873.4325	-0.5216
873.5941	0.3392
873.7557	-0
873.9173	0.084
874.0789	-0.0726
874.2404	-0
874.4019	-0
874.5634	-0.3777
874.7249	0.1707
874.8863	0.2183
875.0478	0.3621
875.2092	0.0196
875.3706	-0.1431
875.5319	-1.2987
875.6933	-0
875.8546	-0.0085
876.0159	0.2776
876.1772	-0
876.3385	-0.1717
876.4997	-0
876.6609	-0
876.8221	-0.3376
876.9833	-0
877.1445	0.191
877.3056	-0.0384
877.4667	0.0005
877.6278	0.1874
877.7889	0.3346
877.9499	0.1712
878.111	-0
878.272	-0.053
878.433	-0.0698
878.5939	0.3217
878.7549	0.2611
878.9158	-0.0912
879.0767	-0
879.2376	-0.0319
879.3984	-0
879.5593	0.1985
879.7201	-0.3027
879.8809	-0
880.0417	-0
880.2024	-0
880.3632	-0
880.5239	-0
880.6846	-0.5891
880.8452	-0.2722
881.0059	-0.0566
881.1665	1.709
881.3271	-0.4452
881.4877	-0
881.6483	0.0027
881.8088	-0.1857
881.9693	-0.0265
882.1298	-0.0265
882.2903	-0.0265
