Data from MonoPyChalIsomerACN10uM400nmA_Absorbance_12-08-46-828.txt Node
Date: Fri Jul 05 12:08:46 BST 2024
User: LASERRRRR
Spectrometer: FLMT03099
Trigger mode: 0
Integration Time (sec): 1.000000E-1
Scans to average: 1
Electric dark correction enabled: true
Nonlinearity correction enabled: false
Boxcar width: 0
XAxis mode: Wavelengths
Number of Pixels in Spectrum: 3648
>>>>>Begin Spectral Data<<<<<
179.3399	-0.3203
179.5586	-0.3203
179.7771	-0.3203
179.9957	0.0659
180.2143	-0
180.4329	0.0969
180.6514	-0.1032
180.8699	-0
181.0885	0.1093
181.307	-0.0548
181.5255	-0.6424
181.744	1.3091
181.9625	-0.5468
182.181	-0
182.3994	-0
182.6179	0.4865
182.8363	-0.4427
183.0547	0.2152
183.2732	0.0655
183.4916	0.023
183.71	0.1292
183.9284	0.0539
184.1467	-0.2848
184.3651	-0.1496
184.5835	0.2026
184.8018	-0.0415
185.0201	0.0232
185.2385	-0.1077
185.4568	0.0776
185.6751	0.141
185.8934	-0.0783
186.1117	-0.0368
186.3299	0.0801
186.5482	0.0219
186.7664	-0.0219
186.9847	0.3108
187.2029	-0.0166
187.4211	-0.4918
187.6393	-0.0605
187.8575	0.1106
188.0757	0.0573
188.2939	0.1109
188.512	-0.1493
188.7302	-0.0433
188.9483	0.1048
189.1665	0.0306
189.3846	-0.0846
189.6027	0.0734
189.8208	0.2002
190.0389	0.082
190.257	0.1117
190.475	0.3017
190.6931	0.1656
190.9111	0.1097
191.1292	0.3076
191.3472	0.2536
191.5652	0.2025
191.7832	0.3337
192.0012	0.1514
192.2192	0.2215
192.4371	0.4302
192.6551	0.2864
192.873	0.682
193.091	0.2391
193.3089	0.4491
193.5268	0.3986
193.7447	0.4829
193.9626	0.521
194.1805	0.9935
194.3984	0.2657
194.6162	0.5751
194.8341	0.5689
195.0519	0.5725
195.2697	0.4482
195.4875	0.5289
195.7054	0.4012
195.9231	0.4659
196.1409	0.4373
196.3587	0.5516
196.5765	0.5006
196.7942	0.5673
197.012	0.9247
197.2297	0.5923
197.4474	0.5884
197.6651	0.7664
197.8828	0.5188
198.1005	0.7035
198.3182	0.9016
198.5358	0.7334
198.7535	0.7383
198.9711	0.5754
199.1888	0.6505
199.4064	0.7674
199.624	0.6071
199.8416	0.7549
200.0592	0.724
200.2767	0.5905
200.4943	0.528
200.7119	0.5031
200.9294	0.6919
201.1469	0.8998
201.3645	0.6045
201.582	0.5955
201.7995	0.7886
202.017	0.7486
202.2344	0.6146
202.4519	0.7066
202.6694	0.837
202.8868	0.7932
203.1042	0.6538
203.3217	0.6414
203.5391	0.8811
203.7565	0.7329
203.9739	0.7331
204.1913	0.8565
204.4086	0.8042
204.626	0.6719
204.8433	0.9068
205.0607	0.9176
205.278	0.7693
205.4953	0.7126
205.7126	0.637
205.9299	0.7808
206.1472	0.8112
206.3644	0.5985
206.5817	0.5894
206.7989	0.6716
207.0162	0.6213
207.2334	0.765
207.4506	0.707
207.6678	0.7372
207.885	0.7971
208.1022	0.6998
208.3194	0.7294
208.5365	0.7113
208.7537	0.8373
208.9708	0.6851
209.1879	0.7661
209.405	0.6903
209.6222	0.7567
209.8392	0.8004
210.0563	0.6623
210.2734	0.7544
210.4905	0.8739
210.7075	0.7037
210.9245	0.708
211.1416	0.779
211.3586	0.7468
211.5756	0.7439
211.7926	0.7082
212.0096	0.6951
212.2265	0.6673
212.4435	0.7073
212.6604	0.7292
212.8774	0.7103
213.0943	0.6907
213.3112	0.6439
213.5281	0.6075
213.745	0.6661
213.9619	0.6087
214.1788	0.6437
214.3956	0.6804
214.6125	0.6353
214.8293	0.6912
215.0461	0.6273
215.2629	0.6149
215.4798	0.5974
215.6965	0.6464
215.9133	0.6064
216.1301	0.5361
216.3469	0.6267
216.5636	0.6371
216.7803	0.604
216.9971	0.6392
217.2138	0.6661
217.4305	0.595
217.6472	0.549
217.8639	0.5797
218.0805	0.585
218.2972	0.5298
218.5138	0.5841
218.7305	0.5427
218.9471	0.5524
219.1637	0.5732
219.3803	0.5273
219.5969	0.521
219.8135	0.5787
220.0301	0.5287
220.2466	0.568
220.4632	0.5054
220.6797	0.5175
220.8962	0.5595
221.1127	0.533
221.3292	0.5068
221.5457	0.5634
221.7622	0.5437
221.9787	0.5337
222.1951	0.5151
222.4116	0.5176
222.628	0.5676
222.8444	0.5497
223.0608	0.5388
223.2772	0.5446
223.4936	0.5417
223.71	0.5127
223.9264	0.5601
224.1427	0.5603
224.3591	0.5534
224.5754	0.5581
224.7917	0.5139
225.008	0.5879
225.2243	0.5133
225.4406	0.5398
225.6569	0.5602
225.8732	0.5612
226.0894	0.5242
226.3057	0.5612
226.5219	0.5528
226.7381	0.5919
226.9543	0.549
227.1705	0.5362
227.3867	0.554
227.6029	0.5369
227.8191	0.5465
228.0352	0.561
228.2513	0.5786
228.4675	0.5988
228.6836	0.5924
228.8997	0.5531
229.1158	0.5612
229.3319	0.5762
229.548	0.5397
229.764	0.5751
229.9801	0.5644
230.1961	0.5623
230.4121	0.5672
230.6282	0.5685
230.8442	0.557
231.0602	0.5476
231.2761	0.5779
231.4921	0.5662
231.7081	0.5844
231.924	0.5618
232.14	0.5636
232.3559	0.5749
232.5718	0.594
232.7877	0.5202
233.0036	0.5577
233.2195	0.5373
233.4353	0.5954
233.6512	0.5694
233.867	0.5667
234.0829	0.5374
234.2987	0.583
234.5145	0.5359
234.7303	0.5863
234.9461	0.5456
235.1619	0.5489
235.3776	0.5524
235.5934	0.5623
235.8091	0.5508
236.0249	0.5206
236.2406	0.5292
236.4563	0.5752
236.672	0.5327
236.8877	0.5385
237.1034	0.5199
237.319	0.5187
237.5347	0.5415
237.7503	0.5312
237.966	0.5319
238.1816	0.5561
238.3972	0.5586
238.6128	0.5286
238.8284	0.536
239.0439	0.5321
239.2595	0.5264
239.475	0.5262
239.6906	0.5219
239.9061	0.5219
240.1216	0.5169
240.3371	0.5163
240.5526	0.5042
240.7681	0.5238
240.9836	0.5309
241.199	0.4955
241.4145	0.5045
241.6299	0.4853
241.8453	0.4736
242.0607	0.4947
242.2761	0.48
242.4915	0.4551
242.7069	0.4551
242.9223	0.4658
243.1376	0.4387
243.353	0.4544
243.5683	0.4423
243.7836	0.42
243.9989	0.4146
244.2142	0.4264
244.4295	0.3972
244.6448	0.4048
244.86	0.3968
245.0753	0.3862
245.2905	0.3769
245.5057	0.3725
245.721	0.3665
245.9362	0.3579
246.1514	0.3515
246.3665	0.3501
246.5817	0.3443
246.7969	0.3223
247.012	0.3205
247.2271	0.3278
247.4423	0.3044
247.6574	0.3095
247.8725	0.2954
248.0876	0.3084
248.3026	0.2872
248.5177	0.2964
248.7328	0.2871
248.9478	0.2747
249.1628	0.2718
249.3779	0.2666
249.5929	0.2686
249.8079	0.259
250.0228	0.2506
250.2378	0.2768
250.4528	0.2504
250.6677	0.2454
250.8827	0.2494
251.0976	0.2528
251.3125	0.2289
251.5274	0.2383
251.7423	0.2285
251.9572	0.2287
252.172	0.2146
252.3869	0.2264
252.6017	0.2212
252.8166	0.2236
253.0314	0.2136
253.2462	0.2181
253.461	0.2134
253.6758	0.2048
253.8906	0.2166
254.1053	0.2
254.3201	0.2175
254.5348	0.2029
254.7496	0.1958
254.9643	0.1916
255.179	0.1946
255.3937	0.198
255.6083	0.1894
255.823	0.1912
256.0377	0.1769
256.2523	0.1936
256.467	0.2006
256.6816	0.1827
256.8962	0.1957
257.1108	0.2079
257.3254	0.1847
257.54	0.1767
257.7545	0.1775
257.9691	0.2019
258.1836	0.1813
258.3981	0.1721
258.6127	0.1796
258.8272	0.193
259.0417	0.1854
259.2561	0.1844
259.4706	0.1929
259.6851	0.189
259.8995	0.1756
260.114	0.1704
260.3284	0.1882
260.5428	0.1813
260.7572	0.1986
260.9716	0.1842
261.186	0.2026
261.4003	0.1797
261.6147	0.2034
261.829	0.205
262.0433	0.194
262.2577	0.1745
262.472	0.1846
262.6863	0.1987
262.9005	0.1955
263.1148	0.1822
263.3291	0.1926
263.5433	0.181
263.7576	0.1889
263.9718	0.1869
264.186	0.1888
264.4002	0.191
264.6144	0.1917
264.8286	0.1888
265.0427	0.1924
265.2569	0.1879
265.471	0.1801
265.6851	0.1792
265.8993	0.1805
266.1134	0.1864
266.3275	0.1874
266.5415	0.1881
266.7556	0.1798
266.9697	0.2058
267.1837	0.1883
267.3978	0.1932
267.6118	0.1891
267.8258	0.1862
268.0398	0.1986
268.2538	0.1976
268.4677	0.184
268.6817	0.2038
268.8957	0.1833
269.1096	0.1778
269.3235	0.1928
269.5374	0.1888
269.7514	0.1779
269.9652	0.1858
270.1791	0.1766
270.393	0.185
270.6068	0.1901
270.8207	0.1837
271.0345	0.1654
271.2483	0.1788
271.4622	0.1827
271.676	0.1736
271.8897	0.1904
272.1035	0.1781
272.3173	0.1916
272.531	0.1698
272.7448	0.1875
272.9585	0.1855
273.1722	0.185
273.3859	0.1751
273.5996	0.183
273.8133	0.186
274.0269	0.1841
274.2406	0.1844
274.4542	0.1823
274.6679	0.1872
274.8815	0.1813
275.0951	0.1854
275.3087	0.187
275.5223	0.1884
275.7358	0.1776
275.9494	0.1759
276.1629	0.1833
276.3765	0.1813
276.59	0.1856
276.8035	0.1841
277.017	0.1782
277.2305	0.1931
277.444	0.175
277.6574	0.1726
277.8709	0.1716
278.0843	0.1977
278.2978	0.1879
278.5112	0.1942
278.7246	0.1855
278.938	0.1852
279.1513	0.1815
279.3647	0.18
279.5781	0.1943
279.7914	0.1963
280.0047	0.1929
280.2181	0.1837
280.4314	0.1838
280.6447	0.1846
280.8579	0.1876
281.0712	0.1952
281.2845	0.1882
281.4977	0.2064
281.711	0.1888
281.9242	0.1847
282.1374	0.1776
282.3506	0.1761
282.5638	0.1848
282.7769	0.1925
282.9901	0.2035
283.2033	0.1855
283.4164	0.1809
283.6295	0.1837
283.8426	0.1891
284.0557	0.1859
284.2688	0.1845
284.4819	0.1846
284.695	0.1926
284.908	0.1772
285.1211	0.1805
285.3341	0.1839
285.5471	0.1988
285.7601	0.1827
285.9731	0.1896
286.1861	0.1939
286.3991	0.1803
286.612	0.1934
286.825	0.1827
287.0379	0.1892
287.2508	0.1885
287.4637	0.1824
287.6766	0.1677
287.8895	0.1664
288.1024	0.1829
288.3152	0.1888
288.5281	0.1804
288.7409	0.1646
288.9538	0.1678
289.1666	0.1841
289.3794	0.1746
289.5922	0.1747
289.8049	0.1744
290.0177	0.1673
290.2304	0.167
290.4432	0.1606
290.6559	0.1843
290.8686	0.1757
291.0813	0.1629
291.294	0.1749
291.5067	0.1827
291.7194	0.1706
291.932	0.179
292.1447	0.1779
292.3573	0.1806
292.5699	0.1773
292.7825	0.1597
292.9951	0.1929
293.2077	0.1717
293.4203	0.1771
293.6328	0.189
293.8454	0.1687
294.0579	0.1835
294.2704	0.1623
294.4829	0.1671
294.6954	0.1669
294.9079	0.1797
295.1204	0.171
295.3328	0.1565
295.5453	0.1663
295.7577	0.1637
295.9701	0.1779
296.1825	0.1631
296.3949	0.1569
296.6073	0.1531
296.8197	0.1591
297.0321	0.161
297.2444	0.1479
297.4567	0.1786
297.6691	0.1657
297.8814	0.1716
298.0937	0.1752
298.306	0.165
298.5182	0.1636
298.7305	0.1667
298.9428	0.1594
299.155	0.1542
299.3672	0.1521
299.5794	0.1684
299.7916	0.1596
300.0038	0.1573
300.216	0.1609
300.4282	0.1523
300.6403	0.1805
300.8525	0.1651
301.0646	0.1683
301.2767	0.1657
301.4888	0.1592
301.7009	0.1647
301.913	0.1653
302.125	0.1695
302.3371	0.1661
302.5491	0.1638
302.7612	0.166
302.9732	0.159
303.1852	0.1635
303.3972	0.1585
303.6092	0.1581
303.8211	0.1562
304.0331	0.1563
304.245	0.1581
304.457	0.156
304.6689	0.1592
304.8808	0.1439
305.0927	0.1523
305.3046	0.1517
305.5164	0.1604
305.7283	0.1494
305.9401	0.1431
306.152	0.141
306.3638	0.145
306.5756	0.1465
306.7874	0.1441
306.9992	0.1375
307.2109	0.1534
307.4227	0.1406
307.6344	0.1379
307.8462	0.1369
308.0579	0.1441
308.2696	0.1471
308.4813	0.1278
308.693	0.1378
308.9046	0.1364
309.1163	0.1392
309.328	0.1245
309.5396	0.1308
309.7512	0.1289
309.9628	0.1223
310.1744	0.1221
310.386	0.1239
310.5976	0.1251
310.8091	0.1193
311.0207	0.1272
311.2322	0.1154
311.4437	0.1332
311.6552	0.1291
311.8667	0.1161
312.0782	0.12
312.2897	0.0986
312.5012	0.1113
312.7126	0.121
312.924	0.1084
313.1355	0.1266
313.3469	0.1224
313.5583	0.1078
313.7696	0.1051
313.981	0.1149
314.1924	0.1173
314.4037	0.1171
314.6151	0.115
314.8264	0.1105
315.0377	0.1223
315.249	0.109
315.4603	0.1082
315.6716	0.109
315.8828	0.1035
316.0941	0.0935
316.3053	0.1049
316.5165	0.1201
316.7277	0.1135
316.9389	0.1125
317.1501	0.1198
317.3613	0.094
317.5724	0.1199
317.7836	0.1091
317.9947	0.1192
318.2058	0.1102
318.417	0.1176
318.6281	0.1084
318.8391	0.1113
319.0502	0.1112
319.2613	0.1138
319.4723	0.1003
319.6834	0.1153
319.8944	0.1026
320.1054	0.104
320.3164	0.1169
320.5274	0.1062
320.7383	0.0986
320.9493	0.1135
321.1602	0.1095
321.3712	0.1005
321.5821	0.1105
321.793	0.1044
322.0039	0.1123
322.2148	0.107
322.4257	0.1036
322.6365	0.1174
322.8474	0.094
323.0582	0.1221
323.269	0.1108
323.4798	0.1135
323.6906	0.0869
323.9014	0.1149
324.1122	0.1112
324.3229	0.1083
324.5337	0.1229
324.7444	0.1174
324.9551	0.1336
325.1658	0.1189
325.3765	0.1254
325.5872	0.1199
325.7979	0.1224
326.0085	0.1094
326.2192	0.1026
326.4298	0.1189
326.6404	0.1208
326.851	0.121
327.0616	0.1179
327.2722	0.1166
327.4828	0.127
327.6933	0.1142
327.9039	0.1177
328.1144	0.1191
328.3249	0.1213
328.5354	0.1081
328.7459	0.1264
328.9564	0.1297
329.1669	0.1256
329.3773	0.1235
329.5878	0.1202
329.7982	0.1036
330.0086	0.1162
330.219	0.108
330.4294	0.1088
330.6398	0.1182
330.8502	0.1279
331.0605	0.1331
331.2708	0.1112
331.4812	0.123
331.6915	0.1141
331.9018	0.1091
332.1121	0.1086
332.3224	0.1118
332.5326	0.1256
332.7429	0.0978
332.9531	0.1067
333.1633	0.1343
333.3735	0.1214
333.5837	0.1167
333.7939	0.1118
334.0041	0.126
334.2143	0.1163
334.4244	0.1177
334.6346	0.1017
334.8447	0.1161
335.0548	0.126
335.2649	0.1153
335.475	0.1104
335.685	0.1063
335.8951	0.1272
336.1051	0.1156
336.3152	0.1267
336.5252	0.131
336.7352	0.1263
336.9452	0.1254
337.1552	0.1366
337.3652	0.1252
337.5751	0.1183
337.7851	0.0993
337.995	0.1267
338.2049	0.1143
338.4148	0.1331
338.6247	0.1127
338.8346	0.1309
339.0445	0.1242
339.2543	0.1355
339.4642	0.1272
339.674	0.1371
339.8838	0.1281
340.0936	0.1324
340.3034	0.1241
340.5132	0.1393
340.7229	0.1359
340.9327	0.1196
341.1424	0.1249
341.3522	0.1231
341.5619	0.1207
341.7716	0.1242
341.9813	0.1311
342.1909	0.1256
342.4006	0.1351
342.6102	0.1182
342.8199	0.1288
343.0295	0.1403
343.2391	0.1291
343.4487	0.1211
343.6583	0.1372
343.8679	0.1349
344.0774	0.1433
344.287	0.1316
344.4965	0.1394
344.706	0.1405
344.9155	0.132
345.125	0.1266
345.3345	0.1548
345.544	0.146
345.7534	0.1353
345.9629	0.126
346.1723	0.1381
346.3817	0.1285
346.5911	0.1462
346.8005	0.1427
347.0099	0.1378
347.2193	0.1436
347.4286	0.133
347.638	0.1346
347.8473	0.1491
348.0566	0.1272
348.2659	0.1472
348.4752	0.1417
348.6845	0.1336
348.8937	0.1373
349.103	0.1392
349.3122	0.1361
349.5214	0.1288
349.7306	0.1413
349.9398	0.1319
350.149	0.1369
350.3582	0.1335
350.5674	0.1528
350.7765	0.1435
350.9856	0.1374
351.1948	0.1312
351.4039	0.1508
351.613	0.1325
351.822	0.1485
352.0311	0.1634
352.2402	0.1447
352.4492	0.1564
352.6582	0.1353
352.8672	0.1438
353.0762	0.147
353.2852	0.1445
353.4942	0.1383
353.7032	0.1489
353.9121	0.1384
354.1211	0.135
354.33	0.1555
354.5389	0.1496
354.7478	0.1472
354.9567	0.1601
355.1655	0.1428
355.3744	0.148
355.5833	0.1641
355.7921	0.1565
356.0009	0.1587
356.2097	0.1586
356.4185	0.1435
356.6273	0.1615
356.8361	0.1552
357.0448	0.1386
357.2536	0.1546
357.4623	0.177
357.671	0.1566
357.8797	0.1598
358.0884	0.1589
358.2971	0.1518
358.5057	0.1578
358.7144	0.1508
358.923	0.1739
359.1316	0.1716
359.3402	0.1699
359.5488	0.1584
359.7574	0.174
359.966	0.1545
360.1746	0.1583
360.3831	0.165
360.5916	0.1798
360.8002	0.1732
361.0087	0.1809
361.2172	0.1703
361.4256	0.1769
361.6341	0.1783
361.8426	0.1699
362.051	0.1623
362.2594	0.1717
362.4678	0.1542
362.6762	0.1659
362.8846	0.1827
363.093	0.1658
363.3014	0.1901
363.5097	0.1641
363.718	0.1803
363.9264	0.1771
364.1347	0.1684
364.343	0.1892
364.5513	0.1905
364.7595	0.1897
364.9678	0.1796
365.176	0.1947
365.3842	0.1768
365.5925	0.1632
365.8007	0.1915
366.0089	0.1838
366.217	0.1764
366.4252	0.2029
366.6333	0.1827
366.8415	0.1842
367.0496	0.1606
367.2577	0.2091
367.4658	0.1894
367.6739	0.2044
367.882	0.2003
368.09	0.1883
368.2981	0.1825
368.5061	0.1982
368.7141	0.1916
368.9221	0.176
369.1301	0.1981
369.3381	0.1939
369.5461	0.1819
369.754	0.1879
369.962	0.1887
370.1699	0.1869
370.3778	0.2061
370.5857	0.1965
370.7936	0.1928
371.0015	0.2034
371.2093	0.1897
371.4172	0.1933
371.625	0.182
371.8328	0.2049
372.0406	0.1825
372.2484	0.1904
372.4562	0.1938
372.664	0.2123
372.8717	0.1656
373.0795	0.2078
373.2872	0.1906
373.4949	0.2004
373.7026	0.1869
373.9103	0.2126
374.118	0.2067
374.3256	0.2027
374.5333	0.2044
374.7409	0.1818
374.9485	0.2009
375.1561	0.1927
375.3637	0.1893
375.5713	0.2076
375.7789	0.2099
375.9864	0.1989
376.194	0.2031
376.4015	0.2156
376.609	0.1867
376.8165	0.1846
377.024	0.2064
377.2315	0.191
377.4389	0.1967
377.6464	0.2045
377.8538	0.1974
378.0612	0.2036
378.2686	0.2168
378.476	0.1932
378.6834	0.2031
378.8908	0.1987
379.0981	0.2199
379.3055	0.2286
379.5128	0.1967
379.7201	0.2428
379.9274	0.2031
380.1347	0.2065
380.342	0.1989
380.5492	0.2108
380.7565	0.2328
380.9637	0.2128
381.1709	0.2017
381.3781	0.2237
381.5853	0.2259
381.7925	0.2112
381.9997	0.2025
382.2068	0.2165
382.4139	0.208
382.6211	0.2076
382.8282	0.2177
383.0353	0.1966
383.2424	0.2197
383.4494	0.217
383.6565	0.2177
383.8635	0.22
384.0706	0.221
384.2776	0.2172
384.4846	0.209
384.6916	0.2138
384.8986	0.1913
385.1055	0.1991
385.3125	0.2202
385.5194	0.2129
385.7263	0.2139
385.9333	0.2043
386.1402	0.214
386.347	0.2308
386.5539	0.2169
386.7608	0.2262
386.9676	0.2188
387.1744	0.2113
387.3813	0.211
387.5881	0.1981
387.7948	0.2049
388.0016	0.2093
388.2084	0.2128
388.4151	0.1998
388.6219	0.2155
388.8286	0.2002
389.0353	0.205
389.242	0.2099
389.4487	0.2226
389.6553	0.2049
389.862	0.2129
390.0686	0.1974
390.2753	0.207
390.4819	0.2074
390.6885	0.2091
390.8951	0.1883
391.1016	0.1944
391.3082	0.1874
391.5147	0.1966
391.7213	0.1963
391.9278	0.1891
392.1343	0.1783
392.3408	0.2044
392.5473	0.1917
392.7537	0.1917
392.9602	0.2042
393.1666	0.1942
393.373	0.1861
393.5794	0.1777
393.7858	0.1753
393.9922	0.205
394.1986	0.2037
394.4049	0.1863
394.6113	0.1643
394.8176	0.1815
395.0239	0.1838
395.2302	0.1554
395.4365	0.1722
395.6428	0.1943
395.8491	0.1726
396.0553	0.1954
396.2615	0.1671
396.4678	0.1663
396.674	0.1695
396.8802	0.1884
397.0863	0.1773
397.2925	0.1695
397.4987	0.1808
397.7048	0.1758
397.9109	0.1806
398.117	0.1788
398.3231	0.1803
398.5292	0.1949
398.7353	0.1829
398.9413	0.156
399.1474	0.1666
399.3534	0.1689
399.5594	0.1688
399.7654	0.1869
399.9714	0.159
400.1774	0.1693
400.3833	0.1812
400.5893	0.1596
400.7952	0.1748
401.0011	0.1794
401.207	0.1893
401.4129	0.1701
401.6188	0.1669
401.8247	0.171
402.0305	0.1571
402.2364	0.1697
402.4422	0.1698
402.648	0.168
402.8538	0.1793
403.0596	0.1786
403.2654	0.1883
403.4711	0.1664
403.6768	0.1804
403.8826	0.1754
404.0883	0.1626
404.294	0.1858
404.4997	0.1591
404.7054	0.146
404.911	0.1548
405.1167	0.1633
405.3223	0.1653
405.5279	0.1734
405.7335	0.1776
405.9391	0.1748
406.1447	0.177
406.3502	0.1621
406.5558	0.176
406.7613	0.1692
406.9668	0.167
407.1724	0.1594
407.3778	0.1665
407.5833	0.1672
407.7888	0.1776
407.9942	0.1607
408.1997	0.1764
408.4051	0.1572
408.6105	0.144
408.8159	0.1868
409.0213	0.1844
409.2267	0.1746
409.432	0.1924
409.6374	0.1636
409.8427	0.1513
410.048	0.1652
410.2533	0.1596
410.4586	0.1454
410.6639	0.1725
410.8691	0.1571
411.0744	0.1773
411.2796	0.1693
411.4848	0.1671
411.69	0.1619
411.8952	0.1568
412.1004	0.1628
412.3056	0.1522
412.5107	0.1492
412.7158	0.1474
412.921	0.1706
413.1261	0.1763
413.3312	0.1469
413.5362	0.1523
413.7413	0.1542
413.9464	0.1816
414.1514	0.1574
414.3564	0.1425
414.5614	0.1346
414.7664	0.156
414.9714	0.1769
415.1764	0.1627
415.3813	0.1689
415.5863	0.1853
415.7912	0.1571
415.9961	0.1687
416.201	0.1535
416.4059	0.1515
416.6108	0.1493
416.8156	0.1589
417.0205	0.1539
417.2253	0.1624
417.4301	0.1671
417.6349	0.152
417.8397	0.1472
418.0445	0.1735
418.2492	0.1464
418.454	0.1507
418.6587	0.1687
418.8634	0.1481
419.0681	0.1744
419.2728	0.1401
419.4775	0.1586
419.6822	0.1581
419.8868	0.1608
420.0915	0.1318
420.2961	0.1547
420.5007	0.1516
420.7053	0.1524
420.9099	0.1554
421.1144	0.1616
421.319	0.1533
421.5235	0.1552
421.728	0.1405
421.9325	0.1603
422.137	0.1393
422.3415	0.1369
422.546	0.1441
422.7504	0.1501
422.9549	0.1729
423.1593	0.1307
423.3637	0.1754
423.5681	0.1345
423.7725	0.1351
423.9769	0.1331
424.1812	0.1301
424.3856	0.1423
424.5899	0.1492
424.7942	0.1497
424.9985	0.135
425.2028	0.1084
425.4071	0.1211
425.6113	0.127
425.8156	0.1516
426.0198	0.1517
426.224	0.1412
426.4282	0.1237
426.6324	0.1403
426.8366	0.1401
427.0407	0.1301
427.2449	0.1368
427.449	0.1256
427.6531	0.1029
427.8572	0.139
428.0613	0.1304
428.2654	0.0995
428.4694	0.1312
428.6735	0.1193
428.8775	0.1068
429.0815	0.1224
429.2855	0.1261
429.4895	0.1087
429.6935	0.122
429.8975	0.113
430.1014	0.1094
430.3053	0.1133
430.5093	0.1262
430.7132	0.1037
430.9171	0.1019
431.1209	0.1043
431.3248	0.1229
431.5286	0.0897
431.7325	0.12
431.9363	0.094
432.1401	0.1031
432.3439	0.1096
432.5477	0.1112
432.7514	0.104
432.9552	0.0952
433.1589	0.0991
433.3627	0.0972
433.5664	0.087
433.7701	0.0972
433.9737	0.0898
434.1774	0.0966
434.3811	0.0886
434.5847	0.093
434.7883	0.0882
434.9919	0.0932
435.1955	0.0685
435.3991	0.084
435.6027	0.069
435.8062	0.0903
436.0098	0.0853
436.2133	0.0681
436.4168	0.0914
436.6203	0.0717
436.8238	0.068
437.0272	0.0796
437.2307	0.0943
437.4341	0.068
437.6375	0.0748
437.841	0.0753
438.0443	0.0705
438.2477	0.0764
438.4511	0.0614
438.6545	0.0596
438.8578	0.067
439.0611	0.0651
439.2644	0.0598
439.4677	0.0537
439.671	0.0496
439.8743	0.0571
440.0775	0.0426
440.2808	0.0521
440.484	0.0635
440.6872	0.0564
440.8904	0.0452
441.0936	0.038
441.2967	0.0504
441.4999	0.0458
441.703	0.0636
441.9062	0.0432
442.1093	0.0416
442.3124	0.0603
442.5155	0.0367
442.7185	0.0495
442.9216	0.0314
443.1246	0.0598
443.3276	0.0565
443.5307	0.0372
443.7337	0.0331
443.9366	0.0398
444.1396	0.041
444.3426	0.031
444.5455	0.053
444.7484	0.034
444.9513	0.0427
445.1542	0.0401
445.3571	0.0617
445.56	0.0399
445.7628	0.0462
445.9657	0.0327
446.1685	0.0447
446.3713	0.0393
446.5741	0.0284
446.7769	0.0446
446.9797	0.0275
447.1824	0.0133
447.3852	0.0513
447.5879	0.0307
447.7906	0.039
447.9933	0.0267
448.196	0.038
448.3986	0.038
448.6013	0.0174
448.8039	0.0207
449.0066	0.0192
449.2092	0.0271
449.4118	0.0281
449.6143	0.0148
449.8169	0.0265
450.0195	-0.0006
450.222	0.0027
450.4245	0.0082
450.627	0.0079
450.8295	0.0256
451.032	0.0155
451.2345	0.0174
451.4369	0.0166
451.6394	0.0178
451.8418	0.0005
452.0442	0.0145
452.2466	-0.0034
452.449	0.0203
452.6513	0.0119
452.8537	0.0293
453.056	-0.0145
453.2583	0.001
453.4607	-0.0012
453.663	0.012
453.8652	0.0272
454.0675	-0.0148
454.2697	0.0085
454.472	-0.0081
454.6742	0.0179
454.8764	0.0083
455.0786	-0.0042
455.2808	0.0019
455.4829	0.024
455.6851	0.0174
455.8872	0.0124
456.0893	0.0067
456.2915	0.0053
456.4935	-0.0056
456.6956	-0.0066
456.8977	0.0025
457.0997	0.0048
457.3018	0.002
457.5038	0.0055
457.7058	-0.0061
457.9078	-0.0036
458.1098	0.0001
458.3117	0.019
458.5137	0.007
458.7156	-0.0021
458.9175	0.0032
459.1194	-0.012
459.3213	0.0003
459.5232	-0.0089
459.725	0.0003
459.9269	0.0154
460.1287	0.0121
460.3305	0.0022
460.5323	0.0142
460.7341	0.0074
460.9359	0.0067
461.1376	0.0147
461.3394	-0.0026
461.5411	0.005
461.7428	0.0061
461.9445	0.0055
462.1462	-0.0116
462.3479	-0.0215
462.5495	-0.0017
462.7512	-0.0037
462.9528	0.0085
463.1544	0.0157
463.356	-0.0267
463.5576	-0.004
463.7592	-0.0156
463.9607	0.0139
464.1623	-0.0104
464.3638	0.0127
464.5653	-0.018
464.7668	-0.0157
464.9683	-0.0032
465.1697	-0.0019
465.3712	-0.0115
465.5726	0.0106
465.7741	0.0089
465.9755	-0.0102
466.1769	0.0144
466.3782	-0.0029
466.5796	0.0063
466.7809	-0.0016
466.9823	0.0011
467.1836	0.0202
467.3849	-0.0106
467.5862	-0.0045
467.7875	0.0106
467.9887	-0.0086
468.19	-0.0062
468.3912	0.004
468.5924	-0.0161
468.7936	-0.018
468.9948	-0.0202
469.196	-0.0016
469.3972	-0.0073
469.5983	-0.0031
469.7994	-0.0193
470.0006	-0.0194
470.2017	0.0033
470.4027	-0.0142
470.6038	-0.0007
470.8049	-0.0027
471.0059	-0.0047
471.2069	-0.0005
471.408	-0.0075
471.6089	-0.0135
471.8099	0.0029
472.0109	0.001
472.2119	-0.0014
472.4128	-0.0256
472.6137	0.004
472.8146	-0.0038
473.0155	-0.0078
473.2164	-0.0123
473.4173	0.0011
473.6181	-0.0153
473.819	-0.0045
474.0198	-0.0108
474.2206	-0.0145
474.4214	0.0046
474.6222	0.0016
474.8229	-0.0185
475.0237	0.005
475.2244	0.0015
475.4251	0.0004
475.6258	-0.0056
475.8265	-0.0197
476.0272	-0.0185
476.2278	-0.0193
476.4285	-0.007
476.6291	-0.0022
476.8297	0.0066
477.0303	-0.0126
477.2309	-0.0114
477.4315	-0.0069
477.632	0.0027
477.8326	-0.0123
478.0331	-0.0136
478.2336	-0.0065
478.4341	-0.0088
478.6346	-0.002
478.8351	-0.0082
479.0355	-0.0198
479.236	-0.0101
479.4364	-0.0069
479.6368	0.0099
479.8372	-0.0023
480.0376	-0.0159
480.2379	-0.0093
480.4383	-0.0124
480.6386	-0.0011
480.8389	-0.0104
481.0392	-0.0084
481.2395	-0.0087
481.4398	-0.029
481.6401	-0.0023
481.8403	0.0038
482.0405	-0.0177
482.2408	-0.0103
482.441	-0.0116
482.6411	-0.0262
482.8413	-0.0113
483.0415	-0.0156
483.2416	-0.0095
483.4417	0.0001
483.6419	-0.0138
483.8419	-0.0112
484.042	0.003
484.2421	-0.0158
484.4422	-0.0096
484.6422	-0.0032
484.8422	-0.0045
485.0422	-0.0026
485.2422	-0.0093
485.4422	-0.0007
485.6422	-0.0184
485.8421	-0.008
486.042	-0.0058
486.242	-0.0063
486.4419	-0.0049
486.6417	-0.0021
486.8416	-0.0165
487.0415	-0.0111
487.2413	-0.0157
487.4411	-0.0113
487.641	-0.0046
487.8408	-0.0095
488.0405	-0.0169
488.2403	0.0021
488.4401	-0.0007
488.6398	-0.0135
488.8395	-0.013
489.0392	-0.0019
489.2389	-0.0138
489.4386	-0.007
489.6383	-0.0113
489.8379	-0.0128
490.0376	-0.0098
490.2372	-0.0086
490.4368	-0.0038
490.6364	0.0052
490.836	-0.0133
491.0355	-0.0098
491.2351	-0.0076
491.4346	-0.0092
491.6341	-0.0033
491.8336	0.0039
492.0331	-0.0133
492.2326	-0.0085
492.432	-0.008
492.6315	-0.0105
492.8309	-0.0148
493.0303	-0.0162
493.2297	-0.0129
493.4291	-0.0168
493.6284	-0.0153
493.8278	-0.0157
494.0271	-0.0089
494.2264	-0.0109
494.4257	-0.0125
494.625	-0.0167
494.8243	-0.015
495.0236	-0.0156
495.2228	-0.0082
495.422	-0.0132
495.6213	-0.011
495.8205	-0.0147
496.0196	-0.0113
496.2188	-0.015
496.418	-0.0114
496.6171	-0.0171
496.8162	-0.0125
497.0153	-0.0053
497.2144	-0.0087
497.4135	-0.0068
497.6126	-0.0164
497.8116	-0.0117
498.0107	-0.0109
498.2097	-0.0127
498.4087	-0.0209
498.6077	-0.0163
498.8067	-0.0022
499.0056	-0.0146
499.2046	-0.0066
499.4035	-0.0071
499.6024	-0.0101
499.8013	-0.01
500.0002	-0.0101
500.199	-0.0047
500.3979	-0.0089
500.5967	-0.0179
500.7956	-0.0129
500.9944	-0.012
501.1932	0.0003
501.3919	-0.0056
501.5907	-0.0076
501.7895	-0.0193
501.9882	-0.0145
502.1869	-0.0103
502.3856	-0.0224
502.5843	-0.0125
502.783	-0.0049
502.9816	0.0019
503.1803	-0.0142
503.3789	-0.0087
503.5775	-0.0163
503.7761	-0.0118
503.9747	-0.0092
504.1732	-0.0042
504.3718	0.0048
504.5703	-0.0073
504.7689	-0.0144
504.9674	-0.0037
505.1658	-0.0099
505.3643	-0.0044
505.5628	-0.0025
505.7612	0.0012
505.9597	-0.0007
506.1581	-0.0018
506.3565	-0.0121
506.5549	0.0008
506.7532	-0.0041
506.9516	-0.0107
507.1499	-0.0139
507.3482	-0.0065
507.5465	0.0058
507.7448	0.0011
507.9431	-0.0091
508.1414	-0.0176
508.3396	-0.0084
508.5379	0.0012
508.7361	-0.0075
508.9343	-0.0123
509.1325	-0.0041
509.3306	-0.0195
509.5288	-0.0079
509.7269	0.0026
509.9251	0.0003
510.1232	-0.0052
510.3213	0.0038
510.5193	-0.0121
510.7174	-0.0209
510.9154	-0.0005
511.1135	-0.0135
511.3115	-0.0132
511.5095	-0.0134
511.7075	-0.0037
511.9055	-0.0155
512.1034	-0.0076
512.3014	-0.007
512.4993	-0.0026
512.6972	-0.0117
512.8951	-0.0032
513.093	-0.0092
513.2908	-0.0073
513.4887	0.0011
513.6865	0.0007
513.8844	-0.0053
514.0822	-0.0045
514.2799	-0.0078
514.4777	-0.0003
514.6755	-0.0078
514.8732	-0.0058
515.0709	-0.0119
515.2687	0.0006
515.4664	-0.002
515.664	-0.0195
515.8617	-0.0015
516.0594	-0.005
516.257	-0.0061
516.4546	-0.0167
516.6522	-0.0149
516.8498	-0.0108
517.0474	0.0073
517.2449	-0.0063
517.4425	0.0013
517.64	-0.0237
517.8375	-0.0051
518.035	-0.0001
518.2325	-0.0094
518.43	-0.0043
518.6274	-0.0058
518.8249	-0.0098
519.0223	0.0058
519.2197	-0.0057
519.4171	-0.0085
519.6145	-0.0029
519.8118	-0.0086
520.0092	-0.0084
520.2065	-0.011
520.4038	-0.0216
520.6011	-0.0066
520.7984	0.0019
520.9956	-0.0026
521.1929	-0.0182
521.3901	-0.0093
521.5874	-0.0106
521.7846	-0.0095
521.9818	0.0011
522.1789	0.0012
522.3761	-0.0024
522.5732	-0.0105
522.7704	-0.0025
522.9675	-0.0042
523.1646	-0.0029
523.3617	-0.0119
523.5587	-0.0008
523.7558	-0.005
523.9528	-0.0003
524.1498	-0.0069
524.3468	-0.0124
524.5438	0.0057
524.7408	-0.0009
524.9378	0.002
525.1347	-0.0077
525.3316	0.0065
525.5285	-0.0056
525.7254	-0.0016
525.9223	-0.0134
526.1192	-0.0096
526.316	-0.0006
526.5129	0.0064
526.7097	-0.0147
526.9065	-0.0036
527.1033	-0.0074
527.3	-0.0088
527.4968	-0.0069
527.6935	0.0061
527.8903	0.0025
528.087	0.0029
528.2837	0.0037
528.4804	0.0052
528.677	-0.0077
528.8737	0.0077
529.0703	0.0084
529.2669	-0.0198
529.4635	-0.0033
529.6601	-0.0005
529.8567	-0.0023
530.0532	-0.0009
530.2498	-0.0035
530.4463	-0.009
530.6428	-0.0166
530.8393	-0.0022
531.0358	0.0006
531.2322	0.0048
531.4287	-0.0024
531.6251	0.0069
531.8215	-0.0121
532.0179	-0.0042
532.2143	0.0065
532.4107	-0.0028
532.607	0.0032
532.8034	-0.0185
532.9997	-0.0067
533.196	-0.0018
533.3923	-0.0003
533.5886	-0.0052
533.7848	-0.0054
533.9811	-0.0112
534.1773	-0.004
534.3735	-0.0011
534.5697	-0.0025
534.7659	-0.0062
534.9621	0.0029
535.1582	-0.0088
535.3544	-0.0033
535.5505	-0.0077
535.7466	-0.0092
535.9427	-0.0003
536.1387	-0.0047
536.3348	-0.0033
536.5308	-0.01
536.7269	0.0006
536.9229	-0.0061
537.1189	-0.0087
537.3148	-0.0082
537.5108	0.0031
537.7068	-0.0015
537.9027	-0.0109
538.0986	-0.0015
538.2945	-0.0043
538.4904	-0.0051
538.6863	-0.0005
538.8821	-0.0016
539.078	-0.0035
539.2738	0.0019
539.4696	-0.0079
539.6654	0.0047
539.8611	0.0064
540.0569	-0.0037
540.2526	-0.0007
540.4484	0.0029
540.6441	0.0038
540.8398	-0.0082
541.0355	0.0069
541.2311	0.0033
541.4268	0.0013
541.6224	0.0075
541.818	0.0006
542.0136	-0.01
542.2092	0.0008
542.4048	-0.0013
542.6003	-0.0049
542.7959	-0.0096
542.9914	0.0038
543.1869	-0.0047
543.3824	-0.0111
543.5779	0.0056
543.7734	0.0015
543.9688	0.0007
544.1642	0.0038
544.3596	-0.0004
544.555	0.004
544.7504	0.0015
544.9458	0.0014
545.1411	0.0003
545.3365	0.0032
545.5318	0.0073
545.7271	-0.0008
545.9224	0.0021
546.1177	-0.0059
546.3129	0.0008
546.5081	-0.0107
546.7034	0.0007
546.8986	-0.0015
547.0938	-0.0033
547.289	0.0031
547.4841	0.002
547.6793	-0.0075
547.8744	0.0006
548.0695	0.0018
548.2646	0.0046
548.4597	0.0028
548.6548	-0.0069
548.8498	-0.0005
549.0448	-0.0002
549.2399	-0.002
549.4349	-0.0045
549.6298	0.0046
549.8248	-0.0032
550.0198	0.0005
550.2147	0.0081
550.4096	-0.0078
550.6045	-0.006
550.7994	-0.0086
550.9943	0.0027
551.1892	-0.0096
551.384	-0.0086
551.5788	-0.0032
551.7737	-0.0071
551.9685	0.0008
552.1632	0.0005
552.358	-0.0037
552.5528	-0.0088
552.7475	-0.0111
552.9422	0.0093
553.1369	0.0013
553.3316	-0.0031
553.5263	0.0074
553.7209	-0.0046
553.9156	-0.0023
554.1102	-0.0076
554.3048	0.0033
554.4994	-0.0005
554.694	0.0091
554.8885	-0.0016
555.0831	-0.0038
555.2776	0.0105
555.4721	0.0118
555.6666	-0.0057
555.8611	-0.0031
556.0555	0.0019
556.25	-0.0039
556.4444	0.0102
556.6388	0.0052
556.8332	0.0035
557.0276	-0.0012
557.222	-0.0036
557.4163	0.0057
557.6107	0.0104
557.805	-0.0008
557.9993	-0.0063
558.1936	0.0038
558.3879	0.0042
558.5821	0.01
558.7764	0.0048
558.9706	-0.0008
559.1648	0.0041
559.359	0.0114
559.5532	-0.003
559.7473	0.0088
559.9415	0.0079
560.1356	0.0022
560.3297	0.0028
560.5238	0.0031
560.7179	0.0089
560.9119	-0.0047
561.106	0.0038
561.3	0.002
561.494	0.002
561.688	0.0095
561.882	0.0041
562.076	-0.0044
562.2699	-0.0016
562.4639	-0.0004
562.6578	0.0047
562.8517	0.0103
563.0456	-0.0037
563.2395	-0.0033
563.4333	-0.0092
563.6272	0.0001
563.821	-0.0084
564.0148	0.0083
564.2086	-0.0117
564.4024	-0.0062
564.5961	0.0121
564.7899	0.0017
564.9836	-0.0022
565.1773	-0.001
565.371	0.0054
565.5647	-0.0055
565.7584	0.0096
565.952	0.0131
566.1456	-0.003
566.3393	0.0012
566.5329	-0.0038
566.7264	0.0053
566.92	-0.0044
567.1136	0.0093
567.3071	0.0053
567.5006	0.0047
567.6941	0.0017
567.8876	-0.0018
568.0811	0.0016
568.2745	-0.0012
568.468	0.0075
568.6614	-0.0011
568.8548	0.0043
569.0482	0.0037
569.2416	0.0023
569.4349	-0.0036
569.6283	0.0084
569.8216	-0.0024
570.0149	0.0044
570.2082	0.0051
570.4015	-0.0036
570.5947	0.006
570.788	0.0053
570.9812	0.0006
571.1744	0.0014
571.3676	0.0037
571.5608	0.0038
571.754	0.0022
571.9471	-0.0095
572.1402	-0.0037
572.3333	0.0026
572.5264	0.0043
572.7195	0.0013
572.9126	0.0053
573.1057	0.0035
573.2987	-0.0007
573.4917	-0.0062
573.6847	-0.0032
573.8777	-0.0114
574.0707	0.0025
574.2636	0.0062
574.4566	-0.0012
574.6495	0.0008
574.8424	-0.0034
575.0353	0.0009
575.2281	0.001
575.421	-0.0074
575.6138	-0.0045
575.8067	0.003
575.9995	0.0005
576.1923	0.006
576.385	-0.0055
576.5778	-0.0066
576.7706	0.0047
576.9633	0.001
577.156	0.0028
577.3487	-0.0024
577.5414	0.0053
577.734	-0.0108
577.9267	-0.0021
578.1193	0.0038
578.3119	0.0031
578.5045	0.0038
578.6971	0.0034
578.8897	-0.0003
579.0822	0.0031
579.2747	-0.0003
579.4673	0.0012
579.6598	0.008
579.8522	-0.0016
580.0447	-0.0067
580.2372	0.0048
580.4296	0.0199
580.622	0.0062
580.8144	0.002
581.0068	-0.0008
581.1992	0.0074
581.3915	0.0018
581.5839	0.0023
581.7762	0.0047
581.9685	-0
582.1608	-0.0041
582.353	-0.0054
582.5453	-0.004
582.7375	-0.0032
582.9298	-0.001
583.122	0.0013
583.3142	0.0044
583.5063	0.0025
583.6985	-0.0053
583.8906	0.002
584.0827	0.0005
584.2749	0.0012
584.4669	-0.005
584.659	-0.0084
584.8511	-0.0043
585.0431	-0.0037
585.2352	-0.0061
585.4272	-0.0021
585.6192	-0.0005
585.8111	-0.0069
586.0031	-0.0017
586.195	-0.0014
586.387	-0.0026
586.5789	-0.0033
586.7708	-0.0085
586.9627	-0.0023
587.1545	0.0047
587.3464	0.009
587.5382	-0.0069
587.73	0.0024
587.9218	-0.0003
588.1136	0.0034
588.3053	-0.0114
588.4971	0.0055
588.6888	0.0054
588.8805	-0.0007
589.0722	-0.0001
589.2639	-0.0002
589.4556	-0.0046
589.6472	-0.0098
589.8389	-0.0031
590.0305	0.0015
590.2221	0.0078
590.4137	-0.002
590.6052	-0.0027
590.7968	0.001
590.9883	-0.0001
591.1798	-0.0042
591.3713	0.0023
591.5628	-0.0024
591.7543	0.0025
591.9458	-0.001
592.1372	0.0007
592.3286	0.0027
592.52	0.0003
592.7114	0
592.9028	-0.0071
593.0941	0.0049
593.2855	0.0016
593.4768	-0.0063
593.6681	-0.004
593.8594	0.0038
594.0506	-0.0018
594.2419	0.0009
594.4331	-0.0023
594.6244	0.0024
594.8156	0.0029
595.0067	0.0028
595.1979	-0.0041
595.3891	-0.0044
595.5802	-0.0008
595.7713	-0.0096
595.9624	-0.0009
596.1535	-0.0125
596.3446	0.0052
596.5357	0.0034
596.7267	0.001
596.9177	0.0005
597.1087	0.0079
597.2997	0.0003
597.4907	-0.0056
597.6817	-0.0029
597.8726	0.0082
598.0635	-0.0039
598.2544	0.0064
598.4453	0.0065
598.6362	0.0052
598.827	-0.0017
599.0179	0.002
599.2087	0.003
599.3995	0.0028
599.5903	0.0039
599.7811	0.007
599.9718	-0.0017
600.1626	-0.0019
600.3533	0.0037
600.544	0.0023
600.7347	0.0036
600.9254	-0.0059
601.116	-0.0004
601.3067	-0.0073
601.4973	0.0025
601.6879	-0.0018
601.8785	0.0054
602.0691	-0.0025
602.2596	0.0028
602.4502	0.0008
602.6407	-0.0009
602.8312	-0.0053
603.0217	0.0056
603.2122	-0.0047
603.4027	-0.0003
603.5931	-0.0038
603.7835	0.0024
603.9739	0.0024
604.1643	0.0071
604.3547	-0.0021
604.5451	-0.0025
604.7354	0.0058
604.9257	-0.0002
605.116	-0.0066
605.3063	-0.0018
605.4966	-0.0031
605.6869	0.0121
605.8771	0.0003
606.0673	0.0004
606.2575	-0.0019
606.4477	-0.0004
606.6379	0.0037
606.8281	-0.0014
607.0182	-0.0025
607.2083	-0.0075
607.3985	0.0056
607.5885	-0.0038
607.7786	0.0004
607.9687	0.0013
608.1587	-0.0032
608.3488	0.0062
608.5388	0.0065
608.7288	-0.0044
608.9187	-0.001
609.1087	0.0012
609.2986	-0.001
609.4886	0.0007
609.6785	-0.0001
609.8684	0.0035
610.0582	0.0061
610.2481	-0.0003
610.4379	0.0005
610.6278	-0.001
610.8176	0.0085
611.0074	-0.0016
611.1971	-0.0005
611.3869	-0.0069
611.5766	0.0049
611.7664	0.002
611.9561	0.0081
612.1458	0.0066
612.3354	0.0095
612.5251	0.0042
612.7147	-0.0054
612.9044	0.0094
613.094	0.0065
613.2836	-0.0012
613.4731	0.0037
613.6627	-0.0011
613.8522	0.0095
614.0417	-0.0017
614.2313	0.0062
614.4207	0.0082
614.6102	-0.0055
614.7997	-0.0012
614.9891	0.0004
615.1785	-0.0022
615.3679	0.0092
615.5573	0.0036
615.7467	0.0002
615.9361	0.0038
616.1254	-0.0005
616.3147	0.0063
616.504	0.0049
616.6933	0.0053
616.8826	0.0056
617.0718	0.0044
617.2611	0.0102
617.4503	0.0069
617.6395	0.0059
617.8287	0.0146
618.0179	0.0024
618.207	0.012
618.3961	0.0035
618.5853	0.0053
618.7744	0.0017
618.9634	0.002
619.1525	0.0058
619.3416	-0.0008
619.5306	0.0031
619.7196	-0.0032
619.9086	0.0057
620.0976	0.0031
620.2866	0.0034
620.4755	0.0096
620.6645	0.0018
620.8534	0.0052
621.0423	0.0052
621.2312	0.0077
621.42	0.0096
621.6089	0.013
621.7977	0.0095
621.9865	0.0099
622.1753	0.0135
622.3641	0.0009
622.5529	0.0034
622.7416	0.0087
622.9303	0.0032
623.1191	0.0092
623.3078	0.01
623.4964	0.0036
623.6851	0.0123
623.8737	0.0135
624.0624	0.0033
624.251	0.0058
624.4396	0.01
624.6282	0.0074
624.8167	0.0051
625.0053	-0.0002
625.1938	0.0006
625.3823	0.0055
625.5708	0.0063
625.7593	-0.0009
625.9477	0.005
626.1362	0.0024
626.3246	0.0085
626.513	-0.0011
626.7014	0.0068
626.8898	0.0056
627.0781	0.0031
627.2665	0.0039
627.4548	0.0065
627.6431	0.002
627.8314	0.0062
628.0197	0.0019
628.2079	0.0038
628.3962	0.005
628.5844	0.0098
628.7726	0.0109
628.9608	0.0124
629.1489	0.004
629.3371	0.0029
629.5252	0.0043
629.7134	0.0022
629.9015	0.0072
630.0895	0.0044
630.2776	0.0038
630.4657	0.0063
630.6537	0.0082
630.8417	0.011
631.0297	0.0036
631.2177	0.0128
631.4057	0.0056
631.5936	0.0017
631.7815	0.0087
631.9695	0.0073
632.1574	0.006
632.3452	0.0084
632.5331	0.0097
632.7209	-0.0008
632.9088	-0.003
633.0966	-0.0005
633.2844	-0.0008
633.4722	0.0039
633.6599	-0.0003
633.8477	0.0009
634.0354	-0.0024
634.2231	0.0045
634.4108	0.0077
634.5985	-0.001
634.7861	0.0079
634.9738	0.0067
635.1614	0.012
635.349	0.0028
635.5366	0.0017
635.7242	0.0079
635.9117	0.0078
636.0993	0.0037
636.2868	0.0006
636.4743	0.0008
636.6618	0.0088
636.8492	0.0152
637.0367	0.0036
637.2241	0.0131
637.4115	-0.0006
637.5989	0.0149
637.7863	0.0085
637.9737	0.0019
638.161	0.0128
638.3484	0.0021
638.5357	0.0139
638.723	0.0008
638.9103	-0.0004
639.0975	0.0035
639.2848	-0.0042
639.472	0.0017
639.6592	0.0119
639.8464	0.0057
640.0336	0.0025
640.2208	-0.0018
640.4079	0.0016
640.595	0.0013
640.7821	-0.0042
640.9692	0.0075
641.1563	0.002
641.3434	0.0071
641.5304	0.0042
641.7174	0.0112
641.9044	0.0036
642.0914	0.0057
642.2784	-0.0012
642.4653	0.0038
642.6523	-0.0081
642.8392	0.0048
643.0261	0.0057
643.213	0.0032
643.3999	0.0021
643.5867	0.0056
643.7735	0.0028
643.9604	0.0027
644.1472	-0.0021
644.3339	-0.003
644.5207	0.0018
644.7075	-0.002
644.8942	-0.0016
645.0809	0.0045
645.2676	0.0048
645.4543	0.0147
645.6409	0.0019
645.8276	0.0007
646.0142	0.0069
646.2008	0.0072
646.3874	0.0168
646.574	0.0067
646.7605	0.0039
646.9471	0.0106
647.1336	0.0021
647.3201	0.0071
647.5066	-0.0033
647.6931	-0.0014
647.8795	-0.0014
648.0659	0.0067
648.2524	0.009
648.4388	0.0038
648.6252	-0.0079
648.8115	0.0006
648.9979	0.0039
649.1842	0.0008
649.3705	-0.0085
649.5568	-0.0031
649.7431	0.0072
649.9294	0.0085
650.1156	0.0028
650.3018	0.0045
650.488	0.0008
650.6742	-0.0006
650.8604	0.0047
651.0466	0.0072
651.2327	0.0133
651.4188	0.0044
651.6049	0.0118
651.791	0.0019
651.9771	0.0077
652.1632	-0
652.3492	0.0074
652.5352	0.006
652.7212	0.0035
652.9072	-0.0062
653.0932	0.0005
653.2791	0.0044
653.465	-0.0026
653.651	0.0041
653.8369	0.0111
654.0227	0.0029
654.2086	-0.0004
654.3944	0.0059
654.5803	-0.0076
654.7661	0.0072
654.9519	-0.0023
655.1377	-0.003
655.3234	-0.006
655.5092	-0.003
655.6949	-0.0084
655.8806	-0.0113
656.0663	-0.0008
656.2519	-0.0017
656.4376	-0.0065
656.6232	-0.001
656.8088	0.0065
656.9945	0.0006
657.18	-0.0008
657.3656	0.0072
657.5511	-0.0057
657.7367	0.0087
657.9222	0.0006
658.1077	0.0053
658.2932	-0.0006
658.4786	-0.0042
658.6641	0.0025
658.8495	-0.0026
659.0349	0.0093
659.2203	0.0039
659.4057	-0.0094
659.591	0.0095
659.7764	-0.0028
659.9617	0.0007
660.147	0.007
660.3323	-0.0001
660.5176	-0.0031
660.7028	-0.0059
660.888	0.0077
661.0733	0.0108
661.2585	0.0046
661.4436	0.0083
661.6288	0.0137
661.8139	0.007
661.9991	-0.0095
662.1842	0.0098
662.3693	-0.0009
662.5544	0.0147
662.7394	0.0015
662.9245	0.0077
663.1095	0.0065
663.2945	0.0027
663.4795	0.003
663.6644	0.0043
663.8494	0.0057
664.0343	0.0078
664.2193	0.013
664.4042	0.0178
664.589	0.0009
664.7739	0.0072
664.9587	-0.0036
665.1436	0.0023
665.3284	-0.0003
665.5132	0.0034
665.698	0.0046
665.8827	0.0005
666.0675	0.0032
666.2522	0.0071
666.4369	-0.0015
666.6216	0.0091
666.8063	0.0111
666.9909	-0.0058
667.1756	0.0093
667.3602	0.0017
667.5448	0.0127
667.7294	0.0065
667.9139	0.0086
668.0985	0.0083
668.283	-0.0034
668.4675	0.0071
668.652	0.0144
668.8365	-0.005
669.0209	0.0025
669.2054	0.0016
669.3898	0.0022
669.5742	0.006
669.7586	-0.0026
669.943	0.0052
670.1273	0.009
670.3117	0.0072
670.496	0.0027
670.6803	0.0053
670.8646	0.0083
671.0488	0.0103
671.2331	0.0102
671.4173	0.0071
671.6015	0.0071
671.7857	-0.0047
671.9699	0.0062
672.1541	0.0081
672.3382	0.0097
672.5223	0.0133
672.7064	0.01
672.8905	0.0076
673.0746	0.005
673.2587	0.0097
673.4427	0.0032
673.6267	0.0063
673.8107	0.0085
673.9947	0.0073
674.1787	0.0033
674.3626	0.0127
674.5465	0.0165
674.7304	0.005
674.9143	0.0088
675.0982	0.0032
675.2821	-0.001
675.4659	0.0146
675.6497	-0.0004
675.8335	0.0097
676.0173	0.0039
676.2011	0.0112
676.3849	0.0069
676.5686	0.0176
676.7523	0.0106
676.936	-0.0091
677.1197	0.0087
677.3034	0.0009
677.487	0.0059
677.6706	0.0174
677.8542	0.0077
678.0378	0.0054
678.2214	0.0048
678.405	0.0134
678.5885	0.0053
678.772	0.009
678.9555	0.0066
679.139	0.0078
679.3225	0.0066
679.5059	0.0101
679.6894	0.0033
679.8728	0.0025
680.0562	0.0106
680.2395	0.0069
680.4229	0.0045
680.6062	-0.0091
680.7896	0.0033
680.9729	0.0047
681.1562	-0.0001
681.3394	0.0088
681.5227	0.0068
681.7059	-0.0002
681.8891	0.0008
682.0723	0.0049
682.2555	-0.0016
682.4387	-0
682.6218	0.0111
682.805	0.0067
682.9881	0.0083
683.1712	0.0126
683.3542	0.0034
683.5373	0.0083
683.7203	0.0139
683.9034	0.0046
684.0864	0.0029
684.2694	0.0068
684.4523	0.007
684.6353	-0.0039
684.8182	0.0068
685.0011	0.004
685.184	0.0041
685.3669	-0.0027
685.5498	0.0017
685.7326	0.0028
685.9154	0.008
686.0982	0.0068
686.281	0
686.4638	0.0004
686.6465	0.0062
686.8293	0.008
687.012	0.0028
687.1947	0.0089
687.3774	0.0072
687.56	0.0068
687.7427	0.0128
687.9253	-0.0033
688.1079	0.0084
688.2905	0.0009
688.4731	0.0002
688.6556	0.0117
688.8382	-0.0033
689.0207	-0.0005
689.2032	0.0113
689.3857	0.0059
689.5681	-0.0031
689.7506	-0.0021
689.933	-0
690.1154	0.0041
690.2978	0.001
690.4802	0.0008
690.6626	0.0041
690.8449	0.0048
691.0272	0.0023
691.2095	0.0117
691.3918	0.0054
691.5741	0.0124
691.7563	0.014
691.9386	0.0059
692.1208	-0.0095
692.303	0.0021
692.4852	0.0169
692.6673	0.005
692.8495	0.0079
693.0316	0.0147
693.2137	0.0048
693.3958	0.0082
693.5778	0.0066
693.7599	0.0123
693.9419	0.0084
694.1239	0.0092
694.3059	0.0137
694.4879	0.0057
694.6699	0.0093
694.8518	0.0024
695.0337	0.0025
695.2157	0.0074
695.3975	0.0073
695.5794	0.0051
695.7613	-0.004
695.9431	0.0062
696.1249	0.0032
696.3067	-0.0017
696.4885	0.0113
696.6703	0.0089
696.852	0.0053
697.0337	0.0112
697.2154	0.0112
697.3971	0.0094
697.5788	0.0069
697.7605	-0.0006
697.9421	-0.0021
698.1237	0.0085
698.3053	0.0064
698.4869	0.0032
698.6685	0.0077
698.85	0.0053
699.0315	0.0106
699.213	0.0067
699.3945	0.0108
699.576	0.0148
699.7575	0.0164
699.9389	0.0185
700.1203	0.0167
700.3017	0.0099
700.4831	-0.0021
700.6645	0.0016
700.8458	-0.0001
701.0271	0.0047
701.2084	0.005
701.3897	-0.0047
701.571	0.0055
701.7523	-0.0074
701.9335	-0.006
702.1147	0.0025
702.2959	-0.0055
702.4771	0.0003
702.6583	0.0035
702.8394	0.0008
703.0205	-0.0029
703.2016	0.0118
703.3827	0.0102
703.5638	0.0091
703.7449	0.0051
703.9259	-0.0019
704.1069	-0.0008
704.2879	0.0018
704.4689	0.0114
704.6499	0.0009
704.8308	0.0093
705.0117	0.0037
705.1927	0.0055
705.3735	0.0016
705.5544	-0.0035
705.7353	0.0043
705.9161	0.0057
706.0969	0.0014
706.2777	0.005
706.4585	0.0102
706.6393	0.0099
706.82	-0.0044
707.0007	0.0025
707.1815	0.0042
707.3621	-0.0011
707.5428	0.0124
707.7235	-0.0016
707.9041	0.0059
708.0847	0.0137
708.2653	0.0108
708.4459	0.0065
708.6265	0.0172
708.807	0.0199
708.9875	0.0135
709.168	0.0207
709.3485	0.0007
709.529	0.0013
709.7095	0.0166
709.8899	0.0049
710.0703	0.0045
710.2507	0.0051
710.4311	0.012
710.6115	-0.0043
710.7918	0.0138
710.9721	0.001
711.1524	-0.0029
711.3327	0.0071
711.513	-0.0055
711.6932	0.0003
711.8735	0.0033
712.0537	-0.0004
712.2339	-0.0024
712.4141	-0.001
712.5942	-0.0053
712.7744	0.0013
712.9545	-0.0008
713.1346	0.0036
713.3147	-0.0057
713.4947	-0.0067
713.6748	0.0062
713.8548	0.0124
714.0348	0.0009
714.2148	0.0024
714.3948	0.0031
714.5748	0.001
714.7547	-0.0007
714.9346	-0.0017
715.1145	0.0053
715.2944	0.0041
715.4743	0.0054
715.6541	0.0135
715.834	-0.0048
716.0138	0.0092
716.1936	0.0082
716.3733	0.0085
716.5531	0.0099
716.7328	0.0064
716.9126	0.004
717.0923	0.0126
717.2719	0.0051
717.4516	-0.006
717.6312	0.0048
717.8109	-0.0034
717.9905	0.0035
718.1701	-0.004
718.3496	0.0084
718.5292	0.0006
718.7087	-0.0101
718.8882	-0.0035
719.0677	0.0013
719.2472	0.0029
719.4267	0.005
719.6061	0.0029
719.7856	0.0054
719.965	0.0064
720.1443	0.0098
720.3237	0.0001
720.5031	0.0043
720.6824	0.0096
720.8617	-0.0043
721.041	-0.0066
721.2203	0.0026
721.3995	0.006
721.5788	0.0132
721.758	-0.0089
721.9372	0.0066
722.1164	0.0053
722.2956	0.002
722.4747	0.0057
722.6538	-0.0032
722.8329	-0.0015
723.012	-0.0036
723.1911	0.0028
723.3702	-0.0012
723.5492	0.0088
723.7282	0.0041
723.9072	0.0105
724.0862	0.0099
724.2652	0.0076
724.4441	-0.0071
724.623	0.0061
724.8019	-0.0031
724.9808	0.0074
725.1597	0.0056
725.3385	0.0024
725.5174	0.0052
725.6962	0.0067
725.875	-0.0016
726.0538	-0.0017
726.2325	-0.0031
726.4112	-0.0019
726.59	0.002
726.7687	-0.0035
726.9474	-0.0043
727.126	-0.0051
727.3047	-0.0071
727.4833	-0.0001
727.6619	0.0019
727.8405	-0.0108
728.0191	-0.0049
728.1976	-0.0054
728.3762	0.0005
728.5547	0.0001
728.7332	0.0038
728.9116	-0.007
729.0901	0.0004
729.2686	0.0009
729.447	-0.005
729.6254	0.0003
729.8038	0.0136
729.9821	0.0102
730.1605	0.0004
730.3388	-0.0019
730.5171	0.0096
730.6954	0.0094
730.8737	0.0031
731.0519	0.0051
731.2302	0.0025
731.4084	0.011
731.5866	-0.0058
731.7648	0.0161
731.9429	-0.0042
732.1211	-0.0025
732.2992	0.0015
732.4773	-0.0089
732.6554	-0.0062
732.8335	-0
733.0115	-0.0023
733.1896	0.0094
733.3676	0.0022
733.5456	-0.0045
733.7235	-0.0053
733.9015	0.0086
734.0794	-0.0017
734.2574	-0.0064
734.4353	-0.0046
734.6131	0.0015
734.791	0.0047
734.9689	0.0164
735.1467	0.0011
735.3245	-0.0051
735.5023	0.0137
735.68	0.0102
735.8578	0.009
736.0355	-0.0002
736.2132	0.0073
736.3909	0.0015
736.5686	0.0167
736.7463	0.0058
736.9239	0.0089
737.1015	0.0071
737.2791	0.0061
737.4567	0.002
737.6343	-0.0002
737.8118	0.0072
737.9894	0.0068
738.1669	0.0015
738.3444	0.0015
738.5218	0.0048
738.6993	-0.0033
738.8767	-0.0011
739.0541	0.0039
739.2315	-0.0035
739.4089	0.0037
739.5863	0.0005
739.7636	0.0026
739.9409	-0.0076
740.1182	-0.0028
740.2955	0.0126
740.4728	0.0041
740.65	-0.005
740.8272	-0.0019
741.0044	-0.0065
741.1816	0.0078
741.3588	0.006
741.5359	-0.0001
741.7131	0.0068
741.8902	-0.0031
742.0673	0.0066
742.2444	-0.0008
742.4214	-0.0027
742.5985	0.0023
742.7755	0.0018
742.9525	0.0065
743.1295	0.0059
743.3064	0.0025
743.4834	0.0028
743.6603	0.0082
743.8372	-0.005
744.0141	0.0079
744.191	0.0043
744.3678	0.0041
744.5446	-0.0067
744.7215	0.0094
744.8982	0.0046
745.075	-0.0011
745.2518	-0.0089
745.4285	0.0009
745.6052	0.0057
745.7819	-0.0056
745.9586	0.0029
746.1353	-0.0062
746.3119	0.0008
746.4885	0.0003
746.6651	-0.0001
746.8417	-0.0009
747.0183	0.0055
747.1948	0.0042
747.3714	0.0006
747.5479	-0.0042
747.7244	0.0053
747.9008	0.0083
748.0773	0.0013
748.2537	0.0018
748.4301	0.0001
748.6065	0.0061
748.7829	0.0088
748.9593	-0.0006
749.1356	0.0022
749.3119	0.0134
749.4882	-0.0034
749.6645	0.0046
749.8408	0.0036
750.017	0.009
750.1933	0.0186
750.3695	0.0107
750.5457	0.0119
750.7218	0.0031
750.898	0.0139
751.0741	0.0158
751.2502	0.0193
751.4263	0.0107
751.6024	0.0077
751.7784	0.0041
751.9545	0.01
752.1305	0.0034
752.3065	0.0129
752.4825	0.0018
752.6584	0.0143
752.8344	0.0087
753.0103	-0.0004
753.1862	0.0063
753.3621	-0.0048
753.5379	-0.0012
753.7138	-0.0004
753.8896	0.0026
754.0654	0.0016
754.2412	-0.0069
754.417	0.0004
754.5927	0.0027
754.7685	-0.004
754.9442	-0.006
755.1199	-0.0026
755.2956	0.0007
755.4712	-0.0038
755.6469	0.0138
755.8225	0.0065
755.9981	0.0022
756.1736	-0.0061
756.3492	0.0091
756.5248	0.0018
756.7003	0.0013
756.8758	0.0127
757.0513	0.0008
757.2267	0.0028
757.4022	-0.0011
757.5776	0.0016
757.753	-0
757.9284	0.0069
758.1038	-0.0093
758.2791	0.0048
758.4545	0.0091
758.6298	0.0068
758.8051	0.0032
758.9803	0.0053
759.1556	-0.0022
759.3308	0.0122
759.506	0.0112
759.6812	0.0088
759.8564	-0.0047
760.0316	0.0103
760.2067	0.0053
760.3819	-0.0002
760.557	-0.0035
760.732	0.0079
760.9071	0.0086
761.0821	0.0132
761.2572	0.0041
761.4322	-0.0047
761.6072	0.0008
761.7821	0.0014
761.9571	0.0021
762.132	-0.0041
762.3069	0.0101
762.4818	0.0064
762.6567	0.0042
762.8316	0.0097
763.0064	-0.0021
763.1812	0.0114
763.356	0.0053
763.5308	0.0033
763.7055	-0.0012
763.8803	-0.0016
764.055	-0.0092
764.2297	0.0076
764.4044	0.004
764.579	0.001
764.7537	-0.0019
764.9283	0.0068
765.1029	0.0031
765.2775	-0.0016
765.4521	-0.0026
765.6266	0.001
765.8011	0.0002
765.9756	0.0037
766.1501	0.0038
766.3246	-0.0087
766.4991	0.004
766.6735	-0.0021
766.8479	0.0003
767.0223	-0.0126
767.1967	0.0053
767.371	0.0042
767.5454	-0.0064
767.7197	0.0091
767.894	-0.0052
768.0683	0.0011
768.2425	0.0024
768.4168	-0.0078
768.591	0.0046
768.7652	-0.0092
768.9394	-0.0082
769.1135	0.0046
769.2877	-0.0053
769.4618	0.0055
769.6359	0.0055
769.81	-0.0032
769.984	0.0051
770.1581	-0.0044
770.3321	0.0118
770.5061	-0.0139
770.6801	-0.0059
770.8541	-0.0007
771.028	0.0051
771.202	0.0052
771.3759	0.0012
771.5498	0.0171
771.7236	-0.0009
771.8975	0.0084
772.0713	0.0023
772.2451	-0.0017
772.4189	0.0043
772.5927	0.0089
772.7665	-0.0047
772.9402	-0.0087
773.1139	-0.0004
773.2876	-0.0124
773.4613	-0.0056
773.635	0.0024
773.8086	-0.0079
773.9822	-0.0028
774.1558	0.0088
774.3294	0.0112
774.503	-0.0144
774.6765	0.0134
774.8501	0.0086
775.0236	0.0093
775.1971	0.0125
775.3705	0.0123
775.544	0.0145
775.7174	0.0107
775.8908	0.0141
776.0642	0.0023
776.2376	0.0038
776.4109	0.0063
776.5843	-0.0069
776.7576	0.0102
776.9309	-0.0032
777.1041	0.0091
777.2774	-0.0042
777.4506	-0.0039
777.6238	-0.0106
777.797	0.0072
777.9702	0.0047
778.1434	0.004
778.3165	0.0019
778.4896	0.0081
778.6627	0.0024
778.8358	-0.0059
779.0089	0.0055
779.1819	0.0019
779.3549	0.0095
779.5279	0.0003
779.7009	0.0037
779.8739	-0.0058
780.0468	-0.0085
780.2197	0.0073
780.3926	0.007
780.5655	-0.0012
780.7384	-0.0082
780.9112	0.0011
781.0841	-0.0131
781.2569	-0.0103
781.4297	-0.0239
781.6024	0.0017
781.7752	-0.008
781.9479	-0.01
782.1206	0.0013
782.2933	-0.0002
782.466	-0.0017
782.6386	0.0185
782.8113	-0.0282
782.9839	-0.0092
783.1565	-0.0039
783.329	0.0006
783.5016	-0.0065
783.6741	-0.0013
783.8466	0.0122
784.0191	-0.0012
784.1916	0.0027
784.3641	-0.0052
784.5365	-0.0003
784.7089	0.0044
784.8813	-0.0086
785.0537	-0.0197
785.2261	0.0045
785.3984	-0.0018
785.5707	-0.0022
785.743	-0.0083
785.9153	0.0114
786.0876	-0.0007
786.2598	0.0037
786.432	0.0118
786.6042	0.0164
786.7764	0.0106
786.9486	-0.0014
787.1207	0.0154
787.2928	-0.0007
787.4649	0.0042
787.637	0.0035
787.8091	0.0071
787.9811	-0.0034
788.1532	0.0019
788.3252	-0.0003
788.4972	0.0012
788.6691	0.0045
788.8411	-0.0214
789.013	-0.0064
789.1849	0.0129
789.3568	0.0129
789.5287	0.0088
789.7005	0.0007
789.8723	0.0013
790.0442	0.0027
790.2159	0.0025
790.3877	0.0194
790.5595	0.0022
790.7312	-0.0051
790.9029	-0.0009
791.0746	0.001
791.2463	0.0161
791.4179	0.0074
791.5896	0.0149
791.7612	0.0152
791.9328	0.0024
792.1044	0.0152
792.2759	-0.0016
792.4474	0.0155
792.619	0.0172
792.7905	0.0226
792.9619	0.0048
793.1334	0.0179
793.3048	0.0055
793.4762	0.0066
793.6476	-0.0168
793.819	0.0048
793.9904	0.0132
794.1617	-0.0155
794.333	0.0049
794.5043	0.0041
794.6756	0.0028
794.8469	-0.0061
795.0181	0.0017
795.1893	-0.0176
795.3605	-0.0094
795.5317	-0.0012
795.7029	0.0008
795.874	-0.0087
796.0452	0.0144
796.2163	0.0075
796.3873	0.0029
796.5584	0.0129
796.7294	-0.0045
796.9005	0.001
797.0715	0.0029
797.2425	-0.0082
797.4134	0.0093
797.5844	0.0112
797.7553	0.0054
797.9262	-0.0013
798.0971	0.0175
798.2679	-0.0128
798.4388	0.0051
798.6096	-0.0208
798.7804	-0.0035
798.9512	-0.0007
799.122	0.0079
799.2927	-0.0053
799.4635	-0.0009
799.6342	0.0084
799.8049	-0.0004
799.9755	0.0129
800.1462	0.0072
800.3168	0.0156
800.4874	-0.0027
800.658	-0.0034
800.8286	-0.001
800.9991	0.0169
801.1696	0.0102
801.3402	0.0286
801.5106	0.0066
801.6811	-0.006
801.8516	0.0073
802.022	0.0073
802.1924	0.0073
802.3628	0.0031
802.5332	-0.0063
802.7035	0.0022
802.8739	0.0074
803.0442	-0.0176
803.2145	0.0004
803.3847	-0.0008
803.555	0.002
803.7252	0.024
803.8954	-0.0033
804.0656	-0.0126
804.2358	-0.0069
804.4059	0.0184
804.5761	0.0168
804.7462	0.0131
804.9163	-0.0183
805.0864	-0.0198
805.2564	-0.0021
805.4264	-0.0088
805.5965	-0.0077
805.7665	0.0055
805.9364	-0.0041
806.1064	0.0085
806.2763	0.0047
806.4462	0.0179
806.6161	0.019
806.786	0.0207
806.9559	0.0214
807.1257	0.0026
807.2955	0.0151
807.4653	0.0303
807.6351	0.0121
807.8048	-0.0005
807.9746	0.006
808.1443	0.0013
808.314	0.0257
808.4837	0.0056
808.6533	0.0135
808.8229	0.0257
808.9926	0.0189
809.1622	0.0196
809.3317	0.0063
809.5013	0.0088
809.6708	0.0259
809.8403	0.0126
810.0098	0.0282
810.1793	-0.0054
810.3488	0.0062
810.5182	0.0113
810.6876	-0.0113
810.857	0.0123
811.0264	0.0229
811.1958	0.0051
811.3651	0.0081
811.5344	0.0255
811.7037	-0.0028
811.873	0.011
812.0422	-0.0076
812.2115	-0.0003
812.3807	-0.0028
812.5499	0.0208
812.7191	0.0122
812.8882	0.0148
813.0574	-0.0116
813.2265	0.0244
813.3956	-0.0063
813.5646	-0.0005
813.7337	0.0069
813.9027	0.0018
814.0718	0.0238
814.2407	0.0069
814.4097	0.0169
814.5787	-0.0106
814.7476	0.0105
814.9165	0.009
815.0854	-0.009
815.2543	-0.0006
815.4232	0.0014
815.592	-0.0043
815.7608	0.0183
815.9296	-0.0025
816.0984	-0.0192
816.2671	-0.0186
816.4359	-0.008
816.6046	-0.0088
816.7733	-0.0187
816.942	-0.0076
817.1106	-0.0072
817.2793	-0.013
817.4479	-0.0121
817.6165	-0.0234
817.785	-0.0132
817.9536	0.0092
818.1221	-0.0164
818.2906	-0.0024
818.4591	0.0018
818.6276	0.011
818.7961	0.0201
818.9645	0.0125
819.1329	0.0082
819.3013	-0.0132
819.4697	0.0261
819.638	-0.0158
819.8064	0.0196
819.9747	-0.0004
820.143	0.0064
820.3113	-0.0043
820.4795	-0.0148
820.6477	-0.0104
820.816	-0.042
820.9842	-0.0155
821.1523	0.0158
821.3205	-0.0048
821.4886	-0.001
821.6567	0.0003
821.8248	-0.0004
821.9929	-0.0007
822.1609	-0.0271
822.329	0.0209
822.497	-0.0081
822.665	-0.0412
822.833	-0.0352
823.0009	-0.0055
823.1688	-0.01
823.3367	-0.0004
823.5046	-0.0174
823.6725	-0.0533
823.8404	-0.0146
824.0082	0.0015
824.176	0.0245
824.3438	-0.0018
824.5116	0.0155
824.6793	-0.0196
824.847	0.0119
825.0147	-0.0232
825.1824	-0.0238
825.3501	-0.0109
825.5177	-0.0321
825.6854	-0.0122
825.853	0.0421
826.0206	0.0069
826.1881	0.0207
826.3557	0.0092
826.5232	-0.0144
826.6907	0.027
826.8582	0.006
827.0257	0.0099
827.1931	0.0052
827.3605	0.0196
827.528	0.0062
827.6953	0.0183
827.8627	0.0045
828.03	0.0491
828.1974	0.0021
828.3647	-0.0165
828.532	-0.0081
828.6992	0.0316
828.8665	0.0185
829.0337	0.0167
829.2009	0.0384
829.3681	-0.0137
829.5352	0.0102
829.7024	0.0399
829.8695	0.0121
830.0366	0.0064
830.2037	-0.0332
830.3707	-0
830.5378	-0.0533
830.7048	-0.0254
830.8718	-0.0117
831.0388	-0.0169
831.2057	-0.0131
831.3727	0.0209
831.5396	0.0055
831.7065	-0.0216
831.8734	0.0063
832.0402	-0.0153
832.2071	-0.0231
832.3739	-0.0289
832.5407	0.0005
832.7075	-0.0339
832.8742	-0.0129
833.041	0.0022
833.2077	0.009
833.3744	0.0258
833.541	0.055
833.7077	-0.0073
833.8743	0.0354
834.0409	0.0047
834.2075	0.0062
834.3741	-0.008
834.5407	0.0497
834.7072	-0.0148
834.8737	-0.0204
835.0402	-0.0311
835.2067	0.0031
835.3731	-0.0205
835.5395	-0.0438
835.706	0.007
835.8723	-0.0403
836.0387	0.003
836.2051	-0.0218
836.3714	-0.1098
836.5377	-0.0521
836.704	-0.0403
836.8703	-0.0378
837.0365	-0.059
837.2027	-0.0122
837.3689	-0.0028
837.5351	-0.0088
837.7013	-0.0438
837.8674	-0.0073
838.0335	-0.0229
838.1997	-0.0398
838.3657	-0.0154
838.5318	-0.0008
838.6978	-0.0202
838.8639	-0.0406
839.0299	0.0246
839.1958	-0.0186
839.3618	-0.0568
839.5277	-0.0101
839.6937	-0.071
839.8596	-0.0509
840.0254	0.0096
840.1913	0.0195
840.3571	-0.0699
840.523	-0.0088
840.6888	-0.0177
840.8545	-0.0102
841.0203	-0.006
841.186	0.0277
841.3517	-0.0042
841.5174	-0.0781
841.6831	-0.0066
841.8488	-0.0084
842.0144	0.0813
842.18	-0.023
842.3456	-0.0223
842.5112	0.0025
842.6767	-0.0253
842.8422	-0.012
843.0077	-0.0338
843.1732	-0.0636
843.3387	-0.0884
843.5042	0.0323
843.6696	-0.006
843.835	-0.0477
844.0004	-0.0369
844.1657	-0.0746
844.3311	-0.0496
844.4964	-0.0143
844.6617	-0.0191
844.827	0.0401
844.9923	0.0011
845.1575	-0.023
845.3227	-0.0335
845.4879	0.0062
845.6531	-0.0658
845.8183	-0.0779
845.9834	0.0135
846.1485	-0.0904
846.3136	-0.0715
846.4787	-0.0045
846.6438	0.0716
846.8088	-0.0377
846.9738	0.0013
847.1388	0.034
847.3038	0.0152
847.4687	-0.0093
847.6337	-0.0491
847.7986	0.0269
847.9635	0.0225
848.1284	-0.0752
848.2932	-0.012
848.458	0.0264
848.6228	0.0679
848.7876	-0.0662
848.9524	-0.0772
849.1172	-0.0379
849.2819	-0.0512
849.4466	-0.0496
849.6113	0.0039
849.7759	-0.1048
849.9406	0.0261
850.1052	-0.0391
850.2698	-0.0229
850.4344	-0.0708
850.599	0.0129
850.7635	0.016
850.928	-0.0692
851.0925	-0.004
851.257	0.0375
851.4215	-0.0731
851.5859	0.0088
851.7503	-0.1205
851.9147	0.1188
852.0791	-0.0096
852.2434	0.0389
852.4078	-0.1318
852.5721	0.0265
852.7364	-0.0209
852.9007	-0.1697
853.0649	0.0034
853.2291	0.0956
853.3934	-0.0001
853.5575	-0.0963
853.7217	-0.0292
853.8859	-0.0317
854.05	0.0265
854.2141	-0.0002
854.3782	0.0146
854.5423	-0.0508
854.7063	0.0594
854.8703	-0.0812
855.0343	-0.0373
855.1983	-0.1351
855.3623	-0.0552
855.5262	0.0175
855.6901	-0.2286
855.854	-0.1657
856.0179	0.0263
856.1818	0.0255
856.3456	-0.0335
856.5094	-0.0551
856.6732	-0.0873
856.837	0.0152
857.0008	-0.3916
857.1645	-0.0042
857.3282	0.119
857.4919	-0.1016
857.6556	-0.0607
857.8192	-0.1247
857.9828	0.0904
858.1465	-0.0633
858.31	-0.0982
858.4736	-0.1383
858.6372	-0.3264
858.8007	-0.4347
858.9642	0.0425
859.1277	-0.0967
859.2911	-0.0594
859.4546	0.06
859.618	-0.584
859.7814	-0.0881
859.9448	-0.2021
860.1081	-0.1256
860.2715	-0.0165
860.4348	-0.0786
860.5981	-0.0463
860.7614	-0.0479
860.9246	-0.0288
861.0879	-0.1411
861.2511	0.1509
861.4143	-0.1479
861.5774	-0.232
861.7406	-0.1721
861.9037	-0.4892
862.0668	-0.0411
862.2299	-0.0705
862.393	0.0979
862.556	0.167
862.7191	0.0342
862.8821	-0.2489
863.0451	-0.3643
863.208	0.0272
863.371	-0.5985
863.5339	0.0445
863.6968	-0.1157
863.8597	-0.1777
864.0225	0.0504
864.1854	-0.2091
864.3482	-0.1262
864.511	-0.091
864.6737	0.0969
864.8365	0.1236
864.9992	-0.1641
865.1619	-0.3343
865.3246	-0.0007
865.4873	-0.2925
865.65	-0.3963
865.8126	-0.3054
865.9752	-0.1098
866.1378	0.2893
866.3004	-0
866.4629	0.1289
866.6254	-0.3279
866.7879	-0.1375
866.9504	-0.1373
867.1129	-0.0358
867.2753	0.119
867.4377	-0.2516
867.6001	0.169
867.7625	-0.0572
867.9249	-0.4681
868.0872	0.0619
868.2495	0.0842
868.4118	-0.2006
868.5741	-0.1836
868.7363	-0.1742
868.8986	-0.1876
869.0608	-0.3612
869.223	0.1626
869.3851	-0.2514
869.5473	-0.3189
869.7094	-0.2142
869.8715	0.7547
870.0336	-0
870.1957	-0
870.3577	-0.2425
870.5197	-0.1673
870.6817	-0.0485
870.8437	0.1733
871.0057	-0.0863
871.1676	-0.3937
871.3295	-1.522
871.4914	-0
871.6533	-0.1135
871.8151	-0.3339
871.977	-0.6974
872.1388	-0
872.3006	-0.077
872.4623	0.0942
872.6241	-0.4139
872.7858	-0.1793
872.9475	-0
873.1092	0.1648
873.2709	-0
873.4325	-0.2072
873.5941	0.2739
873.7557	-0.1627
873.9173	-0.2221
874.0789	-0
874.2404	0.5909
874.4019	-0.4861
874.5634	-0.306
874.7249	0.0337
874.8863	-0.2106
875.0478	0.1151
875.2092	0.0353
875.3706	-0.3736
875.5319	-0.5538
875.6933	-0
875.8546	-0.1931
876.0159	-0.0344
876.1772	-0.6967
876.3385	-0.562
876.4997	-0
876.6609	-0
876.8221	-0.7797
876.9833	-0
877.1445	0.4025
877.3056	-0.4018
877.4667	0.0561
877.6278	-0.0616
877.7889	-0.1534
877.9499	-0.0293
878.111	-0
878.272	-0.1519
878.433	-0.1209
878.5939	1.0759
878.7549	0.0404
878.9158	-0.2102
879.0767	-0.2539
879.2376	-0.0391
879.3984	-0
879.5593	-0.4104
879.7201	-0.1216
879.8809	0.7653
880.0417	-0.1211
880.2024	-0.283
880.3632	0.1608
880.5239	-0
880.6846	-0.5289
880.8452	-0.4228
881.0059	-0
881.1665	-0.168
881.3271	-0.3112
881.4877	-0
881.6483	-0.7843
881.8088	-0.4181
881.9693	0.942
882.1298	0.942
882.2903	0.942
