Data from MonoPyChalIsomerACN10uM360nmA_Absorbance_13-57-29-404.txt Node
Date: Fri Jul 05 13:57:29 BST 2024
User: LASERRRRR
Spectrometer: FLMT03099
Trigger mode: 0
Integration Time (sec): 1.000000E-1
Scans to average: 1
Electric dark correction enabled: true
Nonlinearity correction enabled: false
Boxcar width: 0
XAxis mode: Wavelengths
Number of Pixels in Spectrum: 3648
>>>>>Begin Spectral Data<<<<<
179.3399	-0.382
179.5586	-0.382
179.7771	-0.382
179.9957	1.1225
180.2143	0.0976
180.4329	0.3694
180.6514	-0
180.8699	0.5712
181.0885	0.1473
181.307	0.0881
181.5255	-0.2591
181.744	-0
181.9625	-0.283
182.181	-0
182.3994	-0
182.6179	-0
182.8363	-0.2918
183.0547	-0.3258
183.2732	0.1163
183.4916	0.1126
183.71	0.1127
183.9284	0.0241
184.1467	-0.2287
184.3651	0.0473
184.5835	-0.1529
184.8018	0.0982
185.0201	0.0824
185.2385	0.0396
185.4568	-0.0556
185.6751	0.0516
185.8934	0.5035
186.1117	0.0091
186.3299	0.1379
186.5482	0.0393
186.7664	-0.0391
186.9847	-0.17
187.2029	0.0046
187.4211	0.1383
187.6393	0.1925
187.8575	-0.0839
188.0757	0.2694
188.2939	-0.0374
188.512	0.0283
188.7302	0.148
188.9483	0.2453
189.1665	0.1007
189.3846	0.3648
189.6027	0.045
189.8208	0.1935
190.0389	0.1748
190.257	0.1284
190.475	0.2194
190.6931	0.3513
190.9111	0.2333
191.1292	0.1031
191.3472	0.2906
191.5652	0.2131
191.7832	0.3417
192.0012	0.5294
192.2192	0.4945
192.4371	0.3549
192.6551	0.2162
192.873	0.3846
193.091	0.2885
193.3089	0.7196
193.5268	0.3821
193.7447	0.6921
193.9626	0.5359
194.1805	0.6558
194.3984	0.9931
194.6162	0.5294
194.8341	0.4918
195.0519	0.7005
195.2697	0.7854
195.4875	0.7252
195.7054	0.5347
195.9231	0.5212
196.1409	0.6078
196.3587	1.153
196.5765	0.5031
196.7942	0.5647
197.012	0.5739
197.2297	0.5556
197.4474	0.8142
197.6651	0.6077
197.8828	0.4794
198.1005	0.617
198.3182	0.6715
198.5358	0.8488
198.7535	0.6101
198.9711	0.5431
199.1888	0.6903
199.4064	0.7404
199.624	0.5531
199.8416	0.5036
200.0592	0.5748
200.2767	0.6354
200.4943	0.719
200.7119	0.6093
200.9294	0.6413
201.1469	0.5304
201.3645	0.5254
201.582	0.6328
201.7995	0.5848
202.017	0.5884
202.2344	0.6004
202.4519	0.6394
202.6694	0.6051
202.8868	0.6334
203.1042	0.6947
203.3217	0.7427
203.5391	0.595
203.7565	0.5636
203.9739	0.5704
204.1913	0.6647
204.4086	0.5603
204.626	0.6959
204.8433	0.6923
205.0607	0.647
205.278	0.6571
205.4953	0.6084
205.7126	0.6906
205.9299	0.7422
206.1472	0.6727
206.3644	0.63
206.5817	0.7513
206.7989	0.696
207.0162	0.6716
207.2334	0.6527
207.4506	0.6581
207.6678	0.6084
207.885	0.561
208.1022	0.6654
208.3194	0.5834
208.5365	0.6488
208.7537	0.5924
208.9708	0.5552
209.1879	0.5807
209.405	0.625
209.6222	0.7511
209.8392	0.6505
210.0563	0.5905
210.2734	0.6417
210.4905	0.5831
210.7075	0.6766
210.9245	0.6036
211.1416	0.5913
211.3586	0.5924
211.5756	0.5403
211.7926	0.639
212.0096	0.5891
212.2265	0.6231
212.4435	0.5584
212.6604	0.5343
212.8774	0.5524
213.0943	0.5685
213.3112	0.5464
213.5281	0.5267
213.745	0.5012
213.9619	0.4653
214.1788	0.4982
214.3956	0.4903
214.6125	0.4773
214.8293	0.4409
215.0461	0.4622
215.2629	0.4511
215.4798	0.4457
215.6965	0.4442
215.9133	0.4542
216.1301	0.3897
216.3469	0.4642
216.5636	0.4097
216.7803	0.4337
216.9971	0.4226
217.2138	0.3882
217.4305	0.372
217.6472	0.3435
217.8639	0.3986
218.0805	0.353
218.2972	0.3319
218.5138	0.3038
218.7305	0.3424
218.9471	0.3088
219.1637	0.3029
219.3803	0.298
219.5969	0.2643
219.8135	0.2521
220.0301	0.2854
220.2466	0.2965
220.4632	0.2776
220.6797	0.2431
220.8962	0.2566
221.1127	0.2525
221.3292	0.2479
221.5457	0.2679
221.7622	0.2341
221.9787	0.2461
222.1951	0.2347
222.4116	0.263
222.628	0.2587
222.8444	0.2669
223.0608	0.2677
223.2772	0.2579
223.4936	0.2471
223.71	0.2506
223.9264	0.2779
224.1427	0.2549
224.3591	0.2521
224.5754	0.2667
224.7917	0.2517
225.008	0.2521
225.2243	0.247
225.4406	0.2769
225.6569	0.2821
225.8732	0.2573
226.0894	0.2578
226.3057	0.2652
226.5219	0.2923
226.7381	0.2813
226.9543	0.2802
227.1705	0.294
227.3867	0.2809
227.6029	0.3075
227.8191	0.2848
228.0352	0.3071
228.2513	0.3226
228.4675	0.3013
228.6836	0.2942
228.8997	0.2922
229.1158	0.3108
229.3319	0.3412
229.548	0.3411
229.764	0.3128
229.9801	0.3436
230.1961	0.352
230.4121	0.3421
230.6282	0.3371
230.8442	0.3372
231.0602	0.3567
231.2761	0.3546
231.4921	0.324
231.7081	0.3532
231.924	0.3282
232.14	0.3659
232.3559	0.3427
232.5718	0.3699
232.7877	0.3556
233.0036	0.3597
233.2195	0.3677
233.4353	0.3531
233.6512	0.3608
233.867	0.3568
234.0829	0.3783
234.2987	0.3721
234.5145	0.3898
234.7303	0.3867
234.9461	0.3879
235.1619	0.388
235.3776	0.4015
235.5934	0.3893
235.8091	0.3554
236.0249	0.3807
236.2406	0.3906
236.4563	0.3702
236.672	0.414
236.8877	0.3899
237.1034	0.3809
237.319	0.4102
237.5347	0.4025
237.7503	0.3827
237.966	0.4007
238.1816	0.408
238.3972	0.4102
238.6128	0.3894
238.8284	0.412
239.0439	0.4345
239.2595	0.3974
239.475	0.4258
239.6906	0.4223
239.9061	0.396
240.1216	0.3996
240.3371	0.4123
240.5526	0.3987
240.7681	0.4053
240.9836	0.3874
241.199	0.4011
241.4145	0.4006
241.6299	0.3709
241.8453	0.3702
242.0607	0.3696
242.2761	0.3441
242.4915	0.364
242.7069	0.3701
242.9223	0.3741
243.1376	0.3654
243.353	0.3404
243.5683	0.3396
243.7836	0.3315
243.9989	0.3373
244.2142	0.3051
244.4295	0.3435
244.6448	0.3253
244.86	0.2961
245.0753	0.2937
245.2905	0.2925
245.5057	0.2738
245.721	0.2752
245.9362	0.2653
246.1514	0.2615
246.3665	0.2633
246.5817	0.2707
246.7969	0.2451
247.012	0.2486
247.2271	0.236
247.4423	0.2569
247.6574	0.2382
247.8725	0.224
248.0876	0.2221
248.3026	0.2261
248.5177	0.2239
248.7328	0.2211
248.9478	0.2089
249.1628	0.2183
249.3779	0.2158
249.5929	0.1958
249.8079	0.2171
250.0228	0.2014
250.2378	0.2028
250.4528	0.1968
250.6677	0.1875
250.8827	0.1939
251.0976	0.1981
251.3125	0.19
251.5274	0.1832
251.7423	0.1767
251.9572	0.1894
252.172	0.1821
252.3869	0.1953
252.6017	0.1839
252.8166	0.1685
253.0314	0.1711
253.2462	0.1642
253.461	0.1751
253.6758	0.1707
253.8906	0.174
254.1053	0.1679
254.3201	0.1715
254.5348	0.1822
254.7496	0.1834
254.9643	0.1669
255.179	0.1715
255.3937	0.1658
255.6083	0.1828
255.823	0.1629
256.0377	0.169
256.2523	0.1628
256.467	0.149
256.6816	0.1773
256.8962	0.1686
257.1108	0.1591
257.3254	0.1835
257.54	0.1673
257.7545	0.1685
257.9691	0.1615
258.1836	0.1666
258.3981	0.1707
258.6127	0.1816
258.8272	0.1574
259.0417	0.1659
259.2561	0.1723
259.4706	0.1554
259.6851	0.1617
259.8995	0.1566
260.114	0.1641
260.3284	0.1639
260.5428	0.1582
260.7572	0.1703
260.9716	0.1775
261.186	0.1591
261.4003	0.1653
261.6147	0.1545
261.829	0.1509
262.0433	0.1611
262.2577	0.1627
262.472	0.1648
262.6863	0.1599
262.9005	0.1763
263.1148	0.165
263.3291	0.1435
263.5433	0.157
263.7576	0.1591
263.9718	0.1533
264.186	0.1652
264.4002	0.1637
264.6144	0.153
264.8286	0.1697
265.0427	0.1701
265.2569	0.1631
265.471	0.1483
265.6851	0.1624
265.8993	0.1651
266.1134	0.1588
266.3275	0.1484
266.5415	0.1611
266.7556	0.1787
266.9697	0.158
267.1837	0.1659
267.3978	0.147
267.6118	0.1664
267.8258	0.1602
268.0398	0.1542
268.2538	0.1782
268.4677	0.1607
268.6817	0.1438
268.8957	0.1642
269.1096	0.1656
269.3235	0.1749
269.5374	0.1561
269.7514	0.1631
269.9652	0.1523
270.1791	0.1514
270.393	0.1475
270.6068	0.1507
270.8207	0.1514
271.0345	0.1495
271.2483	0.1423
271.4622	0.1382
271.676	0.1622
271.8897	0.1416
272.1035	0.1391
272.3173	0.1379
272.531	0.1428
272.7448	0.143
272.9585	0.1383
273.1722	0.1469
273.3859	0.1506
273.5996	0.14
273.8133	0.148
274.0269	0.1398
274.2406	0.1499
274.4542	0.1424
274.6679	0.1325
274.8815	0.1422
275.0951	0.1507
275.3087	0.1559
275.5223	0.1505
275.7358	0.1572
275.9494	0.1597
276.1629	0.1444
276.3765	0.1451
276.59	0.1488
276.8035	0.1584
277.017	0.1602
277.2305	0.1332
277.444	0.1546
277.6574	0.1401
277.8709	0.1521
278.0843	0.1393
278.2978	0.147
278.5112	0.1411
278.7246	0.146
278.938	0.1419
279.1513	0.1473
279.3647	0.1523
279.5781	0.1541
279.7914	0.1524
280.0047	0.162
280.2181	0.1531
280.4314	0.1463
280.6447	0.1584
280.8579	0.1599
281.0712	0.1675
281.2845	0.1684
281.4977	0.1526
281.711	0.1566
281.9242	0.1567
282.1374	0.1626
282.3506	0.1544
282.5638	0.1549
282.7769	0.1549
282.9901	0.141
283.2033	0.1591
283.4164	0.1702
283.6295	0.1559
283.8426	0.1632
284.0557	0.1635
284.2688	0.1731
284.4819	0.172
284.695	0.1569
284.908	0.1676
285.1211	0.1578
285.3341	0.1579
285.5471	0.1654
285.7601	0.1519
285.9731	0.1564
286.1861	0.15
286.3991	0.1722
286.612	0.1662
286.825	0.1595
287.0379	0.1799
287.2508	0.1499
287.4637	0.1583
287.6766	0.1555
287.8895	0.1703
288.1024	0.175
288.3152	0.171
288.5281	0.15
288.7409	0.1737
288.9538	0.1573
289.1666	0.1605
289.3794	0.1584
289.5922	0.1519
289.8049	0.1643
290.0177	0.1605
290.2304	0.1645
290.4432	0.1628
290.6559	0.1644
290.8686	0.1664
291.0813	0.1603
291.294	0.1667
291.5067	0.1735
291.7194	0.1646
291.932	0.1857
292.1447	0.1577
292.3573	0.1607
292.5699	0.1642
292.7825	0.1723
292.9951	0.1532
293.2077	0.1654
293.4203	0.1606
293.6328	0.1521
293.8454	0.1756
294.0579	0.1632
294.2704	0.1632
294.4829	0.153
294.6954	0.1538
294.9079	0.1701
295.1204	0.1697
295.3328	0.1616
295.5453	0.1617
295.7577	0.163
295.9701	0.1582
296.1825	0.1599
296.3949	0.1551
296.6073	0.1534
296.8197	0.151
297.0321	0.1774
297.2444	0.1477
297.4567	0.1645
297.6691	0.1617
297.8814	0.1592
298.0937	0.1635
298.306	0.1645
298.5182	0.1703
298.7305	0.1652
298.9428	0.1558
299.155	0.1682
299.3672	0.1557
299.5794	0.1681
299.7916	0.1572
300.0038	0.1648
300.216	0.1612
300.4282	0.1569
300.6403	0.1621
300.8525	0.1659
301.0646	0.1488
301.2767	0.1642
301.4888	0.1654
301.7009	0.1658
301.913	0.1631
302.125	0.1639
302.3371	0.1484
302.5491	0.1576
302.7612	0.1608
302.9732	0.1582
303.1852	0.1608
303.3972	0.1579
303.6092	0.1528
303.8211	0.1533
304.0331	0.1538
304.245	0.1453
304.457	0.1578
304.6689	0.1469
304.8808	0.1621
305.0927	0.146
305.3046	0.156
305.5164	0.1409
305.7283	0.142
305.9401	0.149
306.152	0.1306
306.3638	0.1584
306.5756	0.1426
306.7874	0.1531
306.9992	0.1526
307.2109	0.1346
307.4227	0.1183
307.6344	0.1422
307.8462	0.1344
308.0579	0.1409
308.2696	0.1324
308.4813	0.131
308.693	0.1243
308.9046	0.1363
309.1163	0.1238
309.328	0.1309
309.5396	0.1182
309.7512	0.1219
309.9628	0.1253
310.1744	0.1192
310.386	0.1292
310.5976	0.1218
310.8091	0.1263
311.0207	0.1107
311.2322	0.1227
311.4437	0.1123
311.6552	0.1136
311.8667	0.1178
312.0782	0.105
312.2897	0.0999
312.5012	0.111
312.7126	0.1117
312.924	0.1031
313.1355	0.1114
313.3469	0.1037
313.5583	0.1177
313.7696	0.1021
313.981	0.1054
314.1924	0.1102
314.4037	0.108
314.6151	0.1119
314.8264	0.0975
315.0377	0.0986
315.249	0.1107
315.4603	0.1076
315.6716	0.0988
315.8828	0.0939
316.0941	0.0948
316.3053	0.0883
316.5165	0.1029
316.7277	0.097
316.9389	0.1019
317.1501	0.0987
317.3613	0.0966
317.5724	0.1043
317.7836	0.107
317.9947	0.0966
318.2058	0.093
318.417	0.0823
318.6281	0.0861
318.8391	0.0937
319.0502	0.0919
319.2613	0.1026
319.4723	0.095
319.6834	0.1042
319.8944	0.0861
320.1054	0.1012
320.3164	0.1024
320.5274	0.0906
320.7383	0.0966
320.9493	0.102
321.1602	0.1091
321.3712	0.0892
321.5821	0.1089
321.793	0.1022
322.0039	0.1009
322.2148	0.0989
322.4257	0.103
322.6365	0.1055
322.8474	0.1061
323.0582	0.1088
323.269	0.1046
323.4798	0.1158
323.6906	0.1014
323.9014	0.1105
324.1122	0.0981
324.3229	0.0962
324.5337	0.1097
324.7444	0.0946
324.9551	0.1155
325.1658	0.1055
325.3765	0.1056
325.5872	0.1062
325.7979	0.1013
326.0085	0.1059
326.2192	0.1181
326.4298	0.1039
326.6404	0.0889
326.851	0.0932
327.0616	0.1014
327.2722	0.1031
327.4828	0.1068
327.6933	0.1094
327.9039	0.1021
328.1144	0.1178
328.3249	0.1108
328.5354	0.0886
328.7459	0.1057
328.9564	0.0958
329.1669	0.1002
329.3773	0.1067
329.5878	0.11
329.7982	0.1098
330.0086	0.1006
330.219	0.1097
330.4294	0.1138
330.6398	0.1125
330.8502	0.0952
331.0605	0.1102
331.2708	0.1141
331.4812	0.1042
331.6915	0.1128
331.9018	0.0998
332.1121	0.0992
332.3224	0.1189
332.5326	0.1151
332.7429	0.1154
332.9531	0.1223
333.1633	0.1069
333.3735	0.1105
333.5837	0.1066
333.7939	0.1017
334.0041	0.1133
334.2143	0.1133
334.4244	0.1039
334.6346	0.0945
334.8447	0.1217
335.0548	0.1119
335.2649	0.1037
335.475	0.1273
335.685	0.1099
335.8951	0.1147
336.1051	0.1095
336.3152	0.1039
336.5252	0.1067
336.7352	0.115
336.9452	0.1066
337.1552	0.1204
337.3652	0.112
337.5751	0.1092
337.7851	0.1157
337.995	0.0974
338.2049	0.111
338.4148	0.1178
338.6247	0.1182
338.8346	0.1139
339.0445	0.1089
339.2543	0.1156
339.4642	0.1201
339.674	0.1076
339.8838	0.1213
340.0936	0.1159
340.3034	0.1165
340.5132	0.1156
340.7229	0.1068
340.9327	0.113
341.1424	0.1107
341.3522	0.1308
341.5619	0.1217
341.7716	0.1251
341.9813	0.1282
342.1909	0.1058
342.4006	0.1185
342.6102	0.1259
342.8199	0.1171
343.0295	0.1209
343.2391	0.1205
343.4487	0.1289
343.6583	0.1192
343.8679	0.1266
344.0774	0.1281
344.287	0.1316
344.4965	0.1224
344.706	0.1325
344.9155	0.1272
345.125	0.1248
345.3345	0.1319
345.544	0.1258
345.7534	0.1301
345.9629	0.1285
346.1723	0.1188
346.3817	0.1187
346.5911	0.1369
346.8005	0.119
347.0099	0.1246
347.2193	0.1329
347.4286	0.1267
347.638	0.1497
347.8473	0.1398
348.0566	0.1259
348.2659	0.1378
348.4752	0.1301
348.6845	0.1288
348.8937	0.1292
349.103	0.1298
349.3122	0.1348
349.5214	0.1275
349.7306	0.1412
349.9398	0.1264
350.149	0.1436
350.3582	0.1316
350.5674	0.1545
350.7765	0.1382
350.9856	0.1526
351.1948	0.1467
351.4039	0.133
351.613	0.1326
351.822	0.1452
352.0311	0.1449
352.2402	0.1359
352.4492	0.1489
352.6582	0.1461
352.8672	0.1511
353.0762	0.1518
353.2852	0.1387
353.4942	0.1321
353.7032	0.1495
353.9121	0.1454
354.1211	0.1557
354.33	0.1587
354.5389	0.1681
354.7478	0.1445
354.9567	0.1434
355.1655	0.1361
355.3744	0.1463
355.5833	0.1569
355.7921	0.163
356.0009	0.1677
356.2097	0.1586
356.4185	0.1693
356.6273	0.1604
356.8361	0.1662
357.0448	0.138
357.2536	0.1564
357.4623	0.1464
357.671	0.1703
357.8797	0.1625
358.0884	0.164
358.2971	0.1595
358.5057	0.1734
358.7144	0.1705
358.923	0.1639
359.1316	0.166
359.3402	0.1691
359.5488	0.1623
359.7574	0.1545
359.966	0.1641
360.1746	0.1719
360.3831	0.1717
360.5916	0.1542
360.8002	0.164
361.0087	0.1757
361.2172	0.1696
361.4256	0.1783
361.6341	0.1802
361.8426	0.1769
362.051	0.1842
362.2594	0.1734
362.4678	0.1804
362.6762	0.2036
362.8846	0.1749
363.093	0.17
363.3014	0.1798
363.5097	0.1804
363.718	0.1865
363.9264	0.1811
364.1347	0.1804
364.343	0.1797
364.5513	0.1947
364.7595	0.1937
364.9678	0.184
365.176	0.2093
365.3842	0.1884
365.5925	0.1851
365.8007	0.1952
366.0089	0.1946
366.217	0.1845
366.4252	0.1981
366.6333	0.2111
366.8415	0.195
367.0496	0.1846
367.2577	0.201
367.4658	0.2127
367.6739	0.1984
367.882	0.1962
368.09	0.1917
368.2981	0.1945
368.5061	0.2038
368.7141	0.214
368.9221	0.2174
369.1301	0.2071
369.3381	0.1939
369.5461	0.1965
369.754	0.2086
369.962	0.2138
370.1699	0.2214
370.3778	0.2238
370.5857	0.1912
370.7936	0.2103
371.0015	0.2196
371.2093	0.2081
371.4172	0.2107
371.625	0.21
371.8328	0.2119
372.0406	0.204
372.2484	0.201
372.4562	0.2192
372.664	0.2092
372.8717	0.222
373.0795	0.1898
373.2872	0.2206
373.4949	0.2202
373.7026	0.214
373.9103	0.2194
374.118	0.2312
374.3256	0.2252
374.5333	0.2278
374.7409	0.2224
374.9485	0.2192
375.1561	0.2187
375.3637	0.2375
375.5713	0.2275
375.7789	0.2235
375.9864	0.2347
376.194	0.2114
376.4015	0.2452
376.609	0.2285
376.8165	0.2159
377.024	0.2227
377.2315	0.2349
377.4389	0.2552
377.6464	0.248
377.8538	0.2317
378.0612	0.2444
378.2686	0.2444
378.476	0.2575
378.6834	0.2402
378.8908	0.2384
379.0981	0.2462
379.3055	0.2335
379.5128	0.2573
379.7201	0.2402
379.9274	0.2249
380.1347	0.2379
380.342	0.26
380.5492	0.2215
380.7565	0.241
380.9637	0.2481
381.1709	0.2389
381.3781	0.2376
381.5853	0.257
381.7925	0.2588
381.9997	0.2608
382.2068	0.2368
382.4139	0.2365
382.6211	0.2393
382.8282	0.2322
383.0353	0.2556
383.2424	0.2488
383.4494	0.2715
383.6565	0.2346
383.8635	0.2391
384.0706	0.2359
384.2776	0.2693
384.4846	0.2456
384.6916	0.2578
384.8986	0.2586
385.1055	0.2639
385.3125	0.25
385.5194	0.2185
385.7263	0.2481
385.9333	0.2411
386.1402	0.2449
386.347	0.2544
386.5539	0.2557
386.7608	0.2454
386.9676	0.2383
387.1744	0.254
387.3813	0.2498
387.5881	0.2563
387.7948	0.241
388.0016	0.2338
388.2084	0.241
388.4151	0.2336
388.6219	0.2471
388.8286	0.2389
389.0353	0.2484
389.242	0.2548
389.4487	0.2454
389.6553	0.2341
389.862	0.2181
390.0686	0.2283
390.2753	0.2386
390.4819	0.2233
390.6885	0.2362
390.8951	0.2393
391.1016	0.2357
391.3082	0.2272
391.5147	0.2229
391.7213	0.2371
391.9278	0.2297
392.1343	0.2179
392.3408	0.2208
392.5473	0.2259
392.7537	0.2106
392.9602	0.2162
393.1666	0.2124
393.373	0.2336
393.5794	0.2171
393.7858	0.2122
393.9922	0.1993
394.1986	0.2383
394.4049	0.2183
394.6113	0.2148
394.8176	0.2103
395.0239	0.1882
395.2302	0.1949
395.4365	0.2202
395.6428	0.2066
395.8491	0.2025
396.0553	0.2164
396.2615	0.2014
396.4678	0.2088
396.674	0.2049
396.8802	0.227
397.0863	0.2159
397.2925	0.2127
397.4987	0.2149
397.7048	0.2046
397.9109	0.222
398.117	0.2063
398.3231	0.1952
398.5292	0.2138
398.7353	0.2216
398.9413	0.2011
399.1474	0.1969
399.3534	0.2128
399.5594	0.1918
399.7654	0.2067
399.9714	0.2169
400.1774	0.2098
400.3833	0.2051
400.5893	0.2058
400.7952	0.198
401.0011	0.1995
401.207	0.2132
401.4129	0.1989
401.6188	0.2007
401.8247	0.1862
402.0305	0.1919
402.2364	0.1974
402.4422	0.2232
402.648	0.2118
402.8538	0.2066
403.0596	0.2132
403.2654	0.1998
403.4711	0.1899
403.6768	0.222
403.8826	0.1999
404.0883	0.2123
404.294	0.2093
404.4997	0.2114
404.7054	0.1977
404.911	0.196
405.1167	0.2102
405.3223	0.2264
405.5279	0.1987
405.7335	0.2049
405.9391	0.2034
406.1447	0.2223
406.3502	0.2354
406.5558	0.2039
406.7613	0.2072
406.9668	0.2103
407.1724	0.1912
407.3778	0.202
407.5833	0.1894
407.7888	0.1995
407.9942	0.2317
408.1997	0.1964
408.4051	0.195
408.6105	0.1993
408.8159	0.2009
409.0213	0.1878
409.2267	0.2125
409.432	0.2088
409.6374	0.2125
409.8427	0.2027
410.048	0.1955
410.2533	0.191
410.4586	0.203
410.6639	0.2125
410.8691	0.2
411.0744	0.1997
411.2796	0.1942
411.4848	0.2012
411.69	0.1989
411.8952	0.2155
412.1004	0.1969
412.3056	0.2052
412.5107	0.19
412.7158	0.2137
412.921	0.204
413.1261	0.2189
413.3312	0.1886
413.5362	0.1876
413.7413	0.1944
413.9464	0.1833
414.1514	0.2006
414.3564	0.1869
414.5614	0.1842
414.7664	0.1977
414.9714	0.1997
415.1764	0.1905
415.3813	0.199
415.5863	0.2023
415.7912	0.1905
415.9961	0.2
416.201	0.1994
416.4059	0.1991
416.6108	0.1944
416.8156	0.191
417.0205	0.2092
417.2253	0.1865
417.4301	0.2019
417.6349	0.1888
417.8397	0.179
418.0445	0.1958
418.2492	0.1914
418.454	0.1851
418.6587	0.2023
418.8634	0.1979
419.0681	0.1725
419.2728	0.1818
419.4775	0.1956
419.6822	0.1754
419.8868	0.1635
420.0915	0.1936
420.2961	0.1571
420.5007	0.1743
420.7053	0.1721
420.9099	0.1897
421.1144	0.1833
421.319	0.1837
421.5235	0.1964
421.728	0.1887
421.9325	0.195
422.137	0.1924
422.3415	0.1807
422.546	0.1719
422.7504	0.1942
422.9549	0.1864
423.1593	0.1813
423.3637	0.1906
423.5681	0.1661
423.7725	0.1718
423.9769	0.1572
424.1812	0.1618
424.3856	0.1692
424.5899	0.1656
424.7942	0.1581
424.9985	0.1801
425.2028	0.1517
425.4071	0.1902
425.6113	0.1569
425.8156	0.1653
426.0198	0.1668
426.224	0.1429
426.4282	0.143
426.6324	0.1604
426.8366	0.1528
427.0407	0.1626
427.2449	0.1503
427.449	0.1723
427.6531	0.1459
427.8572	0.1483
428.0613	0.1531
428.2654	0.1631
428.4694	0.1415
428.6735	0.1539
428.8775	0.1526
429.0815	0.149
429.2855	0.131
429.4895	0.1499
429.6935	0.1546
429.8975	0.1483
430.1014	0.1395
430.3053	0.1388
430.5093	0.1458
430.7132	0.1184
430.9171	0.1266
431.1209	0.1431
431.3248	0.1204
431.5286	0.1296
431.7325	0.136
431.9363	0.1277
432.1401	0.1396
432.3439	0.1265
432.5477	0.1116
432.7514	0.108
432.9552	0.1088
433.1589	0.1044
433.3627	0.1114
433.5664	0.1137
433.7701	0.1224
433.9737	0.0897
434.1774	0.1038
434.3811	0.1112
434.5847	0.1215
434.7883	0.1176
434.9919	0.0954
435.1955	0.1061
435.3991	0.117
435.6027	0.1004
435.8062	0.1106
436.0098	0.092
436.2133	0.1009
436.4168	0.0877
436.6203	0.0863
436.8238	0.1065
437.0272	0.0939
437.2307	0.0931
437.4341	0.0935
437.6375	0.1064
437.841	0.0754
438.0443	0.1075
438.2477	0.0942
438.4511	0.0785
438.6545	0.0876
438.8578	0.1015
439.0611	0.0746
439.2644	0.087
439.4677	0.0875
439.671	0.0791
439.8743	0.0829
440.0775	0.0776
440.2808	0.0754
440.484	0.0689
440.6872	0.0653
440.8904	0.059
441.0936	0.0858
441.2967	0.0679
441.4999	0.0658
441.703	0.05
441.9062	0.0578
442.1093	0.0591
442.3124	0.074
442.5155	0.0439
442.7185	0.0528
442.9216	0.0336
443.1246	0.0696
443.3276	0.0499
443.5307	0.0616
443.7337	0.0584
443.9366	0.0665
444.1396	0.0536
444.3426	0.0398
444.5455	0.0525
444.7484	0.0439
444.9513	0.0382
445.1542	0.0485
445.3571	0.0475
445.56	0.0507
445.7628	0.0381
445.9657	0.0438
446.1685	0.0551
446.3713	0.0356
446.5741	0.0443
446.7769	0.0301
446.9797	0.0302
447.1824	0.0445
447.3852	0.0265
447.5879	0.049
447.7906	0.0419
447.9933	0.0381
448.196	0.0312
448.3986	0.026
448.6013	0.0197
448.8039	0.0255
449.0066	0.0266
449.2092	0.0402
449.4118	0.0472
449.6143	0.0311
449.8169	0.0407
450.0195	0.0271
450.222	0.0121
450.4245	0.0399
450.627	0.0315
450.8295	0.0342
451.032	0.027
451.2345	0.0063
451.4369	0.0322
451.6394	0.0207
451.8418	0.0014
452.0442	0.0153
452.2466	0.0382
452.449	0.0207
452.6513	0.0097
452.8537	0.0256
453.056	0.0091
453.2583	0.0094
453.4607	0.0195
453.663	0.0216
453.8652	0.0316
454.0675	0.0055
454.2697	0.0206
454.472	0.0012
454.6742	0.0172
454.8764	0.018
455.0786	0.0319
455.2808	0.0294
455.4829	0.0094
455.6851	0.0255
455.8872	0.0171
456.0893	0.0254
456.2915	0.0006
456.4935	0.0172
456.6956	0.0091
456.8977	0.0134
457.0997	-0.0021
457.3018	0.0052
457.5038	0.0136
457.7058	0.0099
457.9078	-0.0077
458.1098	0.007
458.3117	0.0219
458.5137	0.0051
458.7156	0.0182
458.9175	-0.0027
459.1194	0.0079
459.3213	0.011
459.5232	0.0065
459.725	-0.0001
459.9269	0.0087
460.1287	0.0024
460.3305	0.0093
460.5323	0.0027
460.7341	0.0029
460.9359	0.0153
461.1376	-0.004
461.3394	0.0114
461.5411	0.0096
461.7428	0.0086
461.9445	0.0295
462.1462	0.0251
462.3479	0.0001
462.5495	0.0092
462.7512	-0.0041
462.9528	-0.0045
463.1544	-0.0067
463.356	0.0123
463.5576	-0.0057
463.7592	-0.0064
463.9607	0.0047
464.1623	0.0135
464.3638	0.0283
464.5653	-0.0092
464.7668	0.0008
464.9683	0.0049
465.1697	0.0156
465.3712	-0.0055
465.5726	-0.0104
465.7741	0.0102
465.9755	-0.0058
466.1769	-0.0019
466.3782	0.0027
466.5796	0.001
466.7809	0.0046
466.9823	-0.0102
467.1836	0.0023
467.3849	0.0006
467.5862	-0.0076
467.7875	0.0051
467.9887	0.0068
468.19	0.0036
468.3912	-0.0086
468.5924	-0.0104
468.7936	0.0077
468.9948	0.0054
469.196	-0.0096
469.3972	-0.0106
469.5983	-0.0028
469.7994	-0.011
470.0006	0.0063
470.2017	-0.0113
470.4027	0.0034
470.6038	-0.0044
470.8049	-0.0054
471.0059	-0.0044
471.2069	-0.0148
471.408	0.0025
471.6089	0.0058
471.8099	-0.0027
472.0109	0.0016
472.2119	-0.0118
472.4128	-0.0044
472.6137	0.0071
472.8146	-0.0159
473.0155	-0.0104
473.2164	0.0065
473.4173	0.0097
473.6181	0.0097
473.819	-0.0055
474.0198	-0.0095
474.2206	-0.0045
474.4214	-0.0049
474.6222	-0.0032
474.8229	-0.0085
475.0237	-0.0099
475.2244	-0.0008
475.4251	-0.0037
475.6258	-0.0197
475.8265	-0.0044
476.0272	0.0131
476.2278	0.0035
476.4285	-0.0033
476.6291	0.0057
476.8297	-0.0139
477.0303	0.0011
477.2309	0.0007
477.4315	-0.0111
477.632	-0.0089
477.8326	0.0042
478.0331	0.0021
478.2336	-0.0009
478.4341	-0.0033
478.6346	0.0041
478.8351	-0.0062
479.0355	0.0035
479.236	-0.0124
479.4364	0.0047
479.6368	-0.0048
479.8372	-0.0038
480.0376	0.0014
480.2379	-0.012
480.4383	-0.0044
480.6386	0.0047
480.8389	-0.0041
481.0392	-0.0137
481.2395	-0.0067
481.4398	-0.0002
481.6401	0.0033
481.8403	-0.0026
482.0405	-0.0182
482.2408	-0.0038
482.441	0.0139
482.6411	-0.0081
482.8413	-0.0062
483.0415	0.001
483.2416	-0.0099
483.4417	-0.0085
483.6419	-0.0038
483.8419	-0.0088
484.042	0.0031
484.2421	-0.0013
484.4422	-0.002
484.6422	-0.0058
484.8422	-0.0008
485.0422	-0.0069
485.2422	-0.001
485.4422	-0.0171
485.6422	-0.0177
485.8421	-0.0051
486.042	0.0049
486.242	-0.0097
486.4419	-0.0276
486.6417	-0.0048
486.8416	-0.0053
487.0415	0.0026
487.2413	-0.0061
487.4411	-0.0036
487.641	-0.0089
487.8408	0.0028
488.0405	-0.0056
488.2403	-0.0057
488.4401	0.0064
488.6398	-0.003
488.8395	-0.002
489.0392	-0.0005
489.2389	-0.0091
489.4386	-0.0131
489.6383	-0.001
489.8379	-0.0028
490.0376	-0.0002
490.2372	-0.0094
490.4368	-0.0033
490.6364	-0.0148
490.836	-0.0202
491.0355	-0.0072
491.2351	-0.0017
491.4346	-0.0053
491.6341	-0.0168
491.8336	0.0082
492.0331	-0.01
492.2326	-0.0159
492.432	-0.0059
492.6315	-0.0026
492.8309	-0.0179
493.0303	-0.0124
493.2297	-0.0241
493.4291	-0.0153
493.6284	-0.0072
493.8278	0.002
494.0271	0.003
494.2264	0.0041
494.4257	-0.009
494.625	-0.0022
494.8243	-0.025
495.0236	-0.0048
495.2228	-0.0151
495.422	-0.0092
495.6213	-0.0069
495.8205	-0.0108
496.0196	-0.0017
496.2188	0.0049
496.418	-0.0082
496.6171	0.0003
496.8162	-0.0134
497.0153	0.0015
497.2144	-0.0137
497.4135	-0.0118
497.6126	-0.015
497.8116	-0.0035
498.0107	-0.0017
498.2097	-0.008
498.4087	-0.0036
498.6077	0.0015
498.8067	-0.0115
499.0056	-0.0027
499.2046	0.0016
499.4035	-0.0195
499.6024	-0.0045
499.8013	0.0019
500.0002	-0.0018
500.199	-0.0054
500.3979	-0.0046
500.5967	-0.022
500.7956	0.0047
500.9944	-0.0071
501.1932	-0.0134
501.3919	-0.0075
501.5907	-0.0194
501.7895	0.0003
501.9882	-0.0068
502.1869	-0.0073
502.3856	-0.0111
502.5843	-0.0093
502.783	-0.0064
502.9816	-0.0148
503.1803	-0.0167
503.3789	-0.0088
503.5775	0.0023
503.7761	-0.0039
503.9747	-0.0076
504.1732	-0.0062
504.3718	-0.0071
504.5703	-0.0076
504.7689	-0.0081
504.9674	-0.0115
505.1658	-0.0159
505.3643	0.006
505.5628	-0.0085
505.7612	-0.0091
505.9597	0.0057
506.1581	-0.0081
506.3565	0.0035
506.5549	-0.0039
506.7532	-0.0182
506.9516	0.0001
507.1499	-0.0066
507.3482	-0.0128
507.5465	-0.007
507.7448	-0.0069
507.9431	-0.0021
508.1414	-0.0064
508.3396	-0.0072
508.5379	-0.0074
508.7361	-0.0045
508.9343	-0.0056
509.1325	0.0041
509.3306	-0.0088
509.5288	-0.0121
509.7269	-0.0088
509.9251	-0.006
510.1232	-0.0079
510.3213	-0.001
510.5193	-0.0009
510.7174	-0.0008
510.9154	-0.0122
511.1135	-0.0043
511.3115	-0.0113
511.5095	0.0012
511.7075	-0.0102
511.9055	-0.0125
512.1034	-0.001
512.3014	0.0011
512.4993	-0.0075
512.6972	-0.0078
512.8951	-0.0173
513.093	0.0001
513.2908	-0.0013
513.4887	-0.0019
513.6865	-0.0035
513.8844	-0.0018
514.0822	-0.0094
514.2799	-0.0164
514.4777	-0.0063
514.6755	-0.0091
514.8732	-0.0088
515.0709	-0.0025
515.2687	-0.0112
515.4664	-0.0064
515.664	-0.0059
515.8617	-0.0027
516.0594	-0.0202
516.257	-0.0036
516.4546	-0.0217
516.6522	0.0011
516.8498	-0.0005
517.0474	-0.0008
517.2449	-0.0065
517.4425	-0.0171
517.64	-0.0049
517.8375	-0.0114
518.035	-0.0077
518.2325	-0.0083
518.43	-0.0119
518.6274	-0.0036
518.8249	-0.0201
519.0223	-0.0015
519.2197	-0.0007
519.4171	-0.0114
519.6145	-0.0079
519.8118	-0.0066
520.0092	-0.0084
520.2065	-0.0158
520.4038	-0.0206
520.6011	-0.0022
520.7984	-0.0118
520.9956	-0.0009
521.1929	-0.0113
521.3901	-0.0067
521.5874	-0.0067
521.7846	-0.0024
521.9818	-0.0013
522.1789	-0.0034
522.3761	-0.0071
522.5732	-0.0001
522.7704	-0.0078
522.9675	-0.0027
523.1646	-0.0006
523.3617	0.0003
523.5587	-0.0031
523.7558	-0.01
523.9528	-0.0184
524.1498	0.0001
524.3468	-0.0013
524.5438	-0.0106
524.7408	-0.0063
524.9378	0.0098
525.1347	-0.0037
525.3316	-0.0045
525.5285	-0.0145
525.7254	-0.0072
525.9223	-0.0081
526.1192	-0.0047
526.316	-0.0093
526.5129	-0.0024
526.7097	-0.0002
526.9065	-0.0117
527.1033	-0.0103
527.3	-0.0021
527.4968	-0.0099
527.6935	-0.0058
527.8903	-0.0171
528.087	-0.0066
528.2837	-0.0008
528.4804	0.002
528.677	-0.0035
528.8737	0.0071
529.0703	-0.0003
529.2669	0.0043
529.4635	-0.0038
529.6601	-0.0077
529.8567	-0.006
530.0532	-0.0103
530.2498	0
530.4463	0.0053
530.6428	-0.0101
530.8393	0.0095
531.0358	-0.0051
531.2322	-0.0031
531.4287	-0.0039
531.6251	0.0009
531.8215	0.0073
532.0179	-0.007
532.2143	0.004
532.4107	-0.0056
532.607	-0.013
532.8034	-0.0056
532.9997	-0.0038
533.196	-0.0116
533.3923	-0.0113
533.5886	-0.005
533.7848	0.0057
533.9811	0.0015
534.1773	0.0003
534.3735	0.0078
534.5697	-0.0041
534.7659	-0.0011
534.9621	-0.0037
535.1582	-0.0084
535.3544	-0.0036
535.5505	-0.0092
535.7466	-0.0005
535.9427	-0.0005
536.1387	-0.0047
536.3348	-0.007
536.5308	0.0117
536.7269	-0.0106
536.9229	0.0044
537.1189	-0.0049
537.3148	-0.002
537.5108	-0.0101
537.7068	0
537.9027	-0.006
538.0986	-0.0067
538.2945	-0.0105
538.4904	-0.0056
538.6863	-0.0081
538.8821	-0.0043
539.078	-0.0149
539.2738	-0.0031
539.4696	-0.01
539.6654	0.0035
539.8611	0.0127
540.0569	0.0092
540.2526	-0.0065
540.4484	-0.0026
540.6441	0.0021
540.8398	-0.0044
541.0355	0.0005
541.2311	-0.0113
541.4268	-0.004
541.6224	0.0051
541.818	0.0005
542.0136	0.0014
542.2092	0.0006
542.4048	-0.0008
542.6003	-0.0019
542.7959	-0.0001
542.9914	-0.0038
543.1869	-0.0028
543.3824	0.0033
543.5779	0.0011
543.7734	-0.0106
543.9688	-0.0053
544.1642	-0.0031
544.3596	0.0024
544.555	-0.002
544.7504	-0.0091
544.9458	-0.0069
545.1411	-0.002
545.3365	0.0057
545.5318	-0.0077
545.7271	0.0022
545.9224	-0.0089
546.1177	0.0003
546.3129	0.006
546.5081	-0.0071
546.7034	-0.0001
546.8986	-0.0003
547.0938	-0.011
547.289	-0.0133
547.4841	-0.0028
547.6793	0.0113
547.8744	-0.0108
548.0695	-0.0008
548.2646	-0.0085
548.4597	-0.0056
548.6548	0.0018
548.8498	0.0049
549.0448	0.0034
549.2399	0.0052
549.4349	0.0103
549.6298	-0.004
549.8248	0
550.0198	-0.0061
550.2147	-0.0053
550.4096	-0.0081
550.6045	-0.013
550.7994	0.0011
550.9943	0.0049
551.1892	-0.0004
551.384	-0.0065
551.5788	-0.0049
551.7737	0.0027
551.9685	-0.0072
552.1632	0.0013
552.358	-0.0056
552.5528	0.0085
552.7475	-0.0004
552.9422	-0.004
553.1369	-0.0022
553.3316	0.0104
553.5263	-0.0123
553.7209	0.0095
553.9156	-0.0035
554.1102	-0.0068
554.3048	-0.0041
554.4994	0.004
554.694	-0.0005
554.8885	0.0071
555.0831	-0.0046
555.2776	-0.0062
555.4721	0.0009
555.6666	-0.0068
555.8611	0.0128
556.0555	-0.0013
556.25	-0.0026
556.4444	-0.007
556.6388	0.0003
556.8332	-0.0051
557.0276	-0.0088
557.222	-0.0047
557.4163	-0.0038
557.6107	-0.0151
557.805	0.0011
557.9993	-0.0025
558.1936	0.003
558.3879	-0.0003
558.5821	-0.0011
558.7764	-0.0012
558.9706	0.0011
559.1648	0.0005
559.359	0.0027
559.5532	-0.0092
559.7473	-0.0127
559.9415	-0.0054
560.1356	-0.0018
560.3297	-0.0021
560.5238	-0.0046
560.7179	0.0001
560.9119	-0.0001
561.106	-0.0002
561.3	-0.0087
561.494	-0.007
561.688	-0.0058
561.882	-0.0103
562.076	-0.0095
562.2699	0.0044
562.4639	0.0029
562.6578	0.0031
562.8517	0.0061
563.0456	-0.0004
563.2395	-0.0061
563.4333	0.0026
563.6272	0.0099
563.821	0.0023
564.0148	0.0013
564.2086	-0.0165
564.4024	-0.005
564.5961	-0.0037
564.7899	0.0079
564.9836	0.0006
565.1773	0.001
565.371	0.0038
565.5647	0.009
565.7584	0.0046
565.952	0.0061
566.1456	-0.0043
566.3393	0.0002
566.5329	-0.0096
566.7264	0.0008
566.92	-0.0054
567.1136	-0.0016
567.3071	-0.0085
567.5006	0.0045
567.6941	0.0045
567.8876	0.0038
568.0811	-0.0035
568.2745	0.0046
568.468	0.0141
568.6614	0.0045
568.8548	0.0036
569.0482	0.004
569.2416	-0.0007
569.4349	-0.0014
569.6283	0.0056
569.8216	-0.0026
570.0149	-0.0064
570.2082	0.0041
570.4015	0.0064
570.5947	0.0095
570.788	0.0064
570.9812	0.0039
571.1744	-0.0025
571.3676	-0.0057
571.5608	0.0034
571.754	0.0064
571.9471	0.0066
572.1402	0.0024
572.3333	-0.0122
572.5264	0.0005
572.7195	-0.0028
572.9126	0.002
573.1057	0.0076
573.2987	-0.0032
573.4917	0.0027
573.6847	0.0001
573.8777	0.0008
574.0707	0.0057
574.2636	-0.0114
574.4566	-0.0043
574.6495	0.0075
574.8424	-0.0002
575.0353	-0.0056
575.2281	-0.0001
575.421	0.0029
575.6138	0.0023
575.8067	-0.0008
575.9995	0.0038
576.1923	0.0057
576.385	0.0041
576.5778	0.0027
576.7706	0.0005
576.9633	0.0033
577.156	0.0059
577.3487	-0.0017
577.5414	0.0066
577.734	0.0011
577.9267	0.005
578.1193	-0.0067
578.3119	-0.0056
578.5045	0.0028
578.6971	0.0057
578.8897	0.0084
579.0822	0.0057
579.2747	0.0049
579.4673	-0.0013
579.6598	-0.004
579.8522	-0.0036
580.0447	-0.0066
580.2372	0.0025
580.4296	0.0061
580.622	0.0048
580.8144	0.0078
581.0068	0.002
581.1992	-0.0077
581.3915	-0.001
581.5839	-0.0023
581.7762	-0.007
581.9685	-0.0023
582.1608	0.0013
582.353	-0.0041
582.5453	0.0028
582.7375	0.0006
582.9298	0.0049
583.122	0.0049
583.3142	0.0027
583.5063	-0.0037
583.6985	0.0022
583.8906	0.0009
584.0827	0.0003
584.2749	0.0056
584.4669	0.0072
584.659	0.0042
584.8511	0.0032
585.0431	0.0007
585.2352	0.0016
585.4272	0.007
585.6192	0.0047
585.8111	0.0002
586.0031	0.0049
586.195	0.0039
586.387	0.0045
586.5789	0.0047
586.7708	0.0053
586.9627	0.0073
587.1545	-0.0069
587.3464	0.0046
587.5382	0.007
587.73	-0.002
587.9218	0.0022
588.1136	-0.0007
588.3053	0.0047
588.4971	-0.0016
588.6888	-0.0058
588.8805	0.0086
589.0722	0.0103
589.2639	-0.0003
589.4556	0.0052
589.6472	-0.0018
589.8389	-0.0094
590.0305	-0.0081
590.2221	0.0057
590.4137	-0.0042
590.6052	0.0047
590.7968	-0.0007
590.9883	-0.0037
591.1798	-0.0013
591.3713	0.0077
591.5628	0.0015
591.7543	0.009
591.9458	-0.0015
592.1372	0.0066
592.3286	0.0074
592.52	0.0069
592.7114	-0.0013
592.9028	-0.003
593.0941	-0.0013
593.2855	0.0034
593.4768	0.007
593.6681	-0.0026
593.8594	0.0008
594.0506	-0.0011
594.2419	0.016
594.4331	0.0058
594.6244	0.0066
594.8156	-0.006
595.0067	0.0004
595.1979	0.0014
595.3891	0.0016
595.5802	0.0022
595.7713	-0.0029
595.9624	-0.0015
596.1535	0.0126
596.3446	-0.0022
596.5357	0.0085
596.7267	0.0111
596.9177	-0.0002
597.1087	-0.0025
597.2997	0.0001
597.4907	0.0082
597.6817	-0.0032
597.8726	0.0034
598.0635	0.0016
598.2544	-0.0003
598.4453	0.0017
598.6362	-0.0007
598.827	0.0026
599.0179	0.0077
599.2087	0.0054
599.3995	-0.0005
599.5903	0.0049
599.7811	-0.0026
599.9718	-0.0004
600.1626	-0.0086
600.3533	0.0005
600.544	0.0029
600.7347	-0.0006
600.9254	0.0003
601.116	-0.0065
601.3067	0.0021
601.4973	-0.0007
601.6879	0.0071
601.8785	-0.0048
602.0691	0.0004
602.2596	0.0044
602.4502	-0.0021
602.6407	0.01
602.8312	0.0075
603.0217	-0.0049
603.2122	-0.0028
603.4027	-0.0028
603.5931	-0.0008
603.7835	0.0001
603.9739	-0.0075
604.1643	-0.0021
604.3547	-0.0013
604.5451	0.0003
604.7354	-0.0037
604.9257	0.0056
605.116	-0.0009
605.3063	0.0118
605.4966	-0.0019
605.6869	0.0076
605.8771	0.0094
606.0673	0.0049
606.2575	0.0074
606.4477	0.0063
606.6379	0.0013
606.8281	-0.0003
607.0182	0.001
607.2083	0.0097
607.3985	-0.0035
607.5885	0.0015
607.7786	0.001
607.9687	-0.0039
608.1587	0.0061
608.3488	0.0014
608.5388	0.006
608.7288	0.0005
608.9187	0.0036
609.1087	-0.0083
609.2986	-0.0019
609.4886	-0.0056
609.6785	-0.0019
609.8684	0.0063
610.0582	0.0026
610.2481	-0.0045
610.4379	0.0045
610.6278	0.0028
610.8176	-0.0023
611.0074	-0.0045
611.1971	0.0056
611.3869	0.002
611.5766	-0.0008
611.7664	0.007
611.9561	0.007
612.1458	0.0001
612.3354	-0.0055
612.5251	-0.0006
612.7147	0.0072
612.9044	0.0103
613.094	-0.0091
613.2836	0.007
613.4731	0.0025
613.6627	0.0004
613.8522	0.0092
614.0417	0.0093
614.2313	0.0013
614.4207	0.0011
614.6102	0.0063
614.7997	0.0002
614.9891	0.0011
615.1785	-0.0001
615.3679	-0.0028
615.5573	0.007
615.7467	0.0017
615.9361	-0.0008
616.1254	-0.0029
616.3147	0.0085
616.504	0.0052
616.6933	0.0064
616.8826	0.003
617.0718	0.0052
617.2611	0.0058
617.4503	0.0016
617.6395	-0.0029
617.8287	-0.001
618.0179	-0.0021
618.207	0.0132
618.3961	0.0004
618.5853	0.0013
618.7744	0.0106
618.9634	0.0072
619.1525	0.003
619.3416	0.0035
619.5306	0.0092
619.7196	0.0013
619.9086	0.0038
620.0976	0.0038
620.2866	0.0017
620.4755	0.0103
620.6645	0.0067
620.8534	0.0145
621.0423	0.0066
621.2312	0.0029
621.42	0.0086
621.6089	0.0002
621.7977	0.0032
621.9865	-0.0009
622.1753	0.004
622.3641	-0.0005
622.5529	0.0104
622.7416	0.0124
622.9303	0.001
623.1191	0.0092
623.3078	0.0038
623.4964	0.0089
623.6851	0.0028
623.8737	0.0007
624.0624	0.006
624.251	0.0049
624.4396	-0.0022
624.6282	-0.0016
624.8167	-0.0053
625.0053	0.0037
625.1938	0.0058
625.3823	0.0056
625.5708	0.0039
625.7593	-0.0054
625.9477	-0.0032
626.1362	-0.0012
626.3246	0.005
626.513	0.0049
626.7014	0.008
626.8898	0.0027
627.0781	0.0042
627.2665	0.0003
627.4548	0.0021
627.6431	0.0082
627.8314	0.0082
628.0197	0.0058
628.2079	-0.0041
628.3962	-0.0016
628.5844	-0.0002
628.7726	0.0007
628.9608	0.0089
629.1489	-0
629.3371	0.0073
629.5252	-0.0028
629.7134	0.0124
629.9015	-0.0028
630.0895	-0.0019
630.2776	0.001
630.4657	0.0022
630.6537	0.005
630.8417	-0.0034
631.0297	-0.0036
631.2177	0.0035
631.4057	-0.0041
631.5936	0.0024
631.7815	0.0003
631.9695	0.0048
632.1574	0.0033
632.3452	0.0162
632.5331	0.0049
632.7209	0.0028
632.9088	0.0104
633.0966	0.0128
633.2844	0.0044
633.4722	-0.0037
633.6599	0.0063
633.8477	0.0029
634.0354	0.0024
634.2231	0.0011
634.4108	0.0036
634.5985	0.0076
634.7861	0.0013
634.9738	0.0032
635.1614	0.0054
635.349	0.0091
635.5366	0.0023
635.7242	-0.0033
635.9117	0.0003
636.0993	-0.0037
636.2868	-0.0004
636.4743	-0.0084
636.6618	0.0051
636.8492	0.0008
637.0367	0.0057
637.2241	-0.0022
637.4115	0.0004
637.5989	0.0037
637.7863	0.0004
637.9737	0.0038
638.161	0.0042
638.3484	0.0084
638.5357	0.004
638.723	0.0036
638.9103	0.0047
639.0975	0.0042
639.2848	0.0074
639.472	0.0002
639.6592	0.0068
639.8464	0.0094
640.0336	0.0068
640.2208	0.0036
640.4079	-0.0029
640.595	0.0032
640.7821	0.004
640.9692	-0.0019
641.1563	0.0109
641.3434	0.0077
641.5304	-0.0009
641.7174	0.0066
641.9044	0.0075
642.0914	0.0085
642.2784	-0.0024
642.4653	0.0089
642.6523	-0.0047
642.8392	0.0037
643.0261	-0.0025
643.213	0.0057
643.3999	-0.0025
643.5867	-0.0005
643.7735	-0.0011
643.9604	-0.0052
644.1472	0.0018
644.3339	0.0001
644.5207	0.0012
644.7075	-0.0007
644.8942	0.0088
645.0809	0.0142
645.2676	0.0086
645.4543	0.0033
645.6409	0.002
645.8276	0.0028
646.0142	0.0054
646.2008	-0.0034
646.3874	-0.0021
646.574	-0.0032
646.7605	-0.0019
646.9471	-0.009
647.1336	0.0003
647.3201	0.0063
647.5066	0.0056
647.6931	0.0071
647.8795	0.0035
648.0659	0.0074
648.2524	0.0092
648.4388	-0.0017
648.6252	-0.0008
648.8115	0.0033
648.9979	-0.0018
649.1842	0.0021
649.3705	0.0064
649.5568	0.0008
649.7431	0.004
649.9294	0.0022
650.1156	0.0049
650.3018	-0.0014
650.488	0.0072
650.6742	0.0127
650.8604	0.0037
651.0466	-0.0002
651.2327	0.0066
651.4188	0.012
651.6049	0.0027
651.791	0.0016
651.9771	0.0001
652.1632	0.0039
652.3492	0.0031
652.5352	0.0053
652.7212	-0.0055
652.9072	0.0067
653.0932	0.0014
653.2791	0.002
653.465	-0.0035
653.651	-0.0073
653.8369	-0.0014
654.0227	0.001
654.2086	0.0087
654.3944	0.0064
654.5803	0.0025
654.7661	0.0048
654.9519	0.0054
655.1377	-0.005
655.3234	0.0014
655.5092	-0.0041
655.6949	-0.0037
655.8806	-0.0067
656.0663	0.0006
656.2519	0.0006
656.4376	-0.003
656.6232	0.0015
656.8088	-0.0007
656.9945	-0.0012
657.18	0.0045
657.3656	0.004
657.5511	0.0013
657.7367	-0.0074
657.9222	0.0102
658.1077	0.0086
658.2932	0.0036
658.4786	-0.007
658.6641	0.0006
658.8495	0.0029
659.0349	0.0024
659.2203	0.0059
659.4057	-0.0002
659.591	0.0018
659.7764	0.0042
659.9617	-0.0005
660.147	0.0016
660.3323	0.0071
660.5176	0.0115
660.7028	0.0046
660.888	0.0032
661.0733	0.0106
661.2585	-0.0021
661.4436	0.0022
661.6288	0.0024
661.8139	0.0004
661.9991	0.0087
662.1842	0.0042
662.3693	0.0053
662.5544	0.0022
662.7394	0.0024
662.9245	-0.0036
663.1095	0.0079
663.2945	0.0066
663.4795	0.007
663.6644	0.009
663.8494	0.0093
664.0343	0.0033
664.2193	-0.0006
664.4042	0.0109
664.589	-0.0012
664.7739	0.0079
664.9587	-0.0014
665.1436	0.005
665.3284	0.0067
665.5132	-0.0001
665.698	0.0016
665.8827	0.0108
666.0675	0.0023
666.2522	0.0014
666.4369	0.0064
666.6216	0.0062
666.8063	0.0114
666.9909	0.0042
667.1756	0.0013
667.3602	0.0007
667.5448	0.0013
667.7294	0.0113
667.9139	-0.0004
668.0985	0.0144
668.283	0.0032
668.4675	0.008
668.652	0.0042
668.8365	0.001
669.0209	0.0059
669.2054	0.0111
669.3898	0.004
669.5742	0.0108
669.7586	0.0053
669.943	0.0094
670.1273	0.0064
670.3117	0.0047
670.496	0.011
670.6803	0.0137
670.8646	0.0049
671.0488	0.0002
671.2331	0.0064
671.4173	0.0046
671.6015	0.0111
671.7857	0.007
671.9699	0.0062
672.1541	0.0076
672.3382	0.0061
672.5223	0.01
672.7064	0.0029
672.8905	0.0068
673.0746	0.0027
673.2587	0.0029
673.4427	0.0072
673.6267	0.0075
673.8107	0.0111
673.9947	0.0093
674.1787	0.0044
674.3626	-0.0014
674.5465	0.0132
674.7304	0.0065
674.9143	0.0017
675.0982	0.0091
675.2821	-0.0077
675.4659	0.0067
675.6497	0.0017
675.8335	-0.0094
676.0173	-0.0057
676.2011	-0.0001
676.3849	0.0094
676.5686	-0.0087
676.7523	0.0063
676.936	0.001
677.1197	-0.0034
677.3034	0.0048
677.487	0.0052
677.6706	0.0043
677.8542	0.0098
678.0378	-0.0007
678.2214	-0.0018
678.405	-0.0001
678.5885	-0.0106
678.772	0.0003
678.9555	-0.0084
679.139	-0.0086
679.3225	-0.007
679.5059	0.0008
679.6894	0.0068
679.8728	-0
680.0562	-0.0061
680.2395	-0.0045
680.4229	0.0012
680.6062	0.0046
680.7896	-0.0002
680.9729	-0.0046
681.1562	0.002
681.3394	0.0015
681.5227	-0.0023
681.7059	-0.0026
681.8891	-0.0008
682.0723	0.0033
682.2555	0.0094
682.4387	0.0015
682.6218	-0.0044
682.805	0.0026
682.9881	0.0034
683.1712	-0.003
683.3542	-0.0012
683.5373	0.0006
683.7203	-0.002
683.9034	0.0015
684.0864	-0.0087
684.2694	-0.0021
684.4523	0.0058
684.6353	-0.0046
684.8182	0.0049
685.0011	-0.0028
685.184	0.0074
685.3669	-0.0069
685.5498	0.0052
685.7326	0.0043
685.9154	0.0025
686.0982	0.0092
686.281	0.0081
686.4638	0.0048
686.6465	0.0062
686.8293	0.0065
687.012	0.0024
687.1947	-0.0035
687.3774	0.0085
687.56	-0.0007
687.7427	0.0107
687.9253	-0.0027
688.1079	-0.0074
688.2905	0.0074
688.4731	0.0034
688.6556	0.0003
688.8382	0.001
689.0207	-0.0028
689.2032	-0.0057
689.3857	-0.0024
689.5681	0.0034
689.7506	-0.0032
689.933	0.0013
690.1154	-0.003
690.2978	0.0011
690.4802	0.0034
690.6626	-0.0035
690.8449	-0.0054
691.0272	0.0058
691.2095	-0.0079
691.3918	-0.0002
691.5741	0.0112
691.7563	0.0003
691.9386	0.0007
692.1208	0.0099
692.303	-0.001
692.4852	0.0058
692.6673	-0.006
692.8495	-0.0088
693.0316	0.0079
693.2137	0.0014
693.3958	0.0064
693.5778	0.0066
693.7599	0.007
693.9419	0.0019
694.1239	-0.0034
694.3059	-0.0047
694.4879	0.0078
694.6699	0.0121
694.8518	-0.0007
695.0337	-0.0047
695.2157	0.0146
695.3975	0.0092
695.5794	0.0101
695.7613	0.0015
695.9431	-0.0044
696.1249	0.0106
696.3067	0.0099
696.4885	0.0092
696.6703	-0.001
696.852	0.0062
697.0337	0.0061
697.2154	-0.0005
697.3971	0.004
697.5788	0.0012
697.7605	0.0004
697.9421	0.0048
698.1237	-0.0002
698.3053	0.0013
698.4869	0.0056
698.6685	-0.0074
698.85	-0.0052
699.0315	0.0089
699.213	-0.004
699.3945	0.0072
699.576	0.0063
699.7575	0.0037
699.9389	0.0162
700.1203	0.002
700.3017	-0.0033
700.4831	-0.0093
700.6645	0.0051
700.8458	0.0076
701.0271	0.0013
701.2084	0.0093
701.3897	-0.0007
701.571	0.0046
701.7523	-0.0054
701.9335	-0.001
702.1147	0.0083
702.2959	0.0095
702.4771	0.0062
702.6583	0.0018
702.8394	-0.001
703.0205	-0.0002
703.2016	0.0057
703.3827	0.0024
703.5638	0.0076
703.7449	0.0048
703.9259	0.0021
704.1069	-0.0066
704.2879	-0.0033
704.4689	-0.0054
704.6499	0.0022
704.8308	0.0005
705.0117	-0.0042
705.1927	-0.0023
705.3735	-0.0049
705.5544	-0.0093
705.7353	-0.0103
705.9161	-0.007
706.0969	-0.0075
706.2777	0.0029
706.4585	0.006
706.6393	0.0106
706.82	0.0039
707.0007	0.0076
707.1815	0.0077
707.3621	0.0118
707.5428	0.0133
707.7235	0.0069
707.9041	0.0125
708.0847	0.0005
708.2653	0.0076
708.4459	-0.0077
708.6265	0.0037
708.807	0.0031
708.9875	0.0046
709.168	-0.0047
709.3485	-0.007
709.529	-0.0011
709.7095	-0.0098
709.8899	0.004
710.0703	-0.017
710.2507	-0.0031
710.4311	-0.0027
710.6115	-0.0106
710.7918	-0.0063
710.9721	0.0046
711.1524	-0.007
711.3327	-0.0003
711.513	-0.0012
711.6932	0.0051
711.8735	-0.0004
712.0537	-0.0048
712.2339	-0.0058
712.4141	-0.0077
712.5942	-0.0089
712.7744	0.0027
712.9545	-0.0082
713.1346	-0.0005
713.3147	-0.0022
713.4947	-0.0041
713.6748	-0.0022
713.8548	-0.0022
714.0348	-0.0036
714.2148	0.0021
714.3948	0.0069
714.5748	-0
714.7547	-0.0019
714.9346	0.006
715.1145	-0.0011
715.2944	-0.0105
715.4743	-0.0079
715.6541	-0.0008
715.834	0.007
716.0138	-0.0018
716.1936	-0.0118
716.3733	-0.0022
716.5531	0.0099
716.7328	-0.0055
716.9126	0.0004
717.0923	0.0096
717.2719	0.0064
717.4516	0.0072
717.6312	0.0073
717.8109	-0.0043
717.9905	0.0014
718.1701	-0.0021
718.3496	-0.0032
718.5292	0.0068
718.7087	0.0001
718.8882	0.0048
719.0677	0.001
719.2472	0.0056
719.4267	-0.0043
719.6061	-0.001
719.7856	0.0086
719.965	0.0008
720.1443	-0.0038
720.3237	0.0115
720.5031	0.0036
720.6824	0.0055
720.8617	-0.0073
721.041	0.0009
721.2203	0.0053
721.3995	0.0048
721.5788	0.002
721.758	0.0051
721.9372	0.0056
722.1164	-0.0006
722.2956	0.0106
722.4747	0.0033
722.6538	0.005
722.8329	0.0066
723.012	0.0124
723.1911	0.0086
723.3702	0.0055
723.5492	0.0098
723.7282	-0.0033
723.9072	0.0026
724.0862	0.0004
724.2652	-0.0071
724.4441	0.0055
724.623	-0.0029
724.8019	-0.0046
724.9808	-0.008
725.1597	-0.0061
725.3385	0.0063
725.5174	0.003
725.6962	-0.0037
725.875	-0.0034
726.0538	0.0052
726.2325	-0.0049
726.4112	-0.0052
726.59	-0.008
726.7687	-0.0113
726.9474	-0.0023
727.126	-0.0051
727.3047	-0.0045
727.4833	-0.001
727.6619	-0.0046
727.8405	-0.0095
728.0191	-0.0073
728.1976	0.007
728.3762	-0.0019
728.5547	0.0034
728.7332	-0.0142
728.9116	-0.0019
729.0901	0.0057
729.2686	-0.0019
729.447	-0.0027
729.6254	0.0008
729.8038	0.0014
729.9821	-0.0068
730.1605	0.0002
730.3388	-0.0016
730.5171	-0.0041
730.6954	-0.0112
730.8737	0.0015
731.0519	0.0108
731.2302	0.002
731.4084	0.0175
731.5866	0.0073
731.7648	-0.001
731.9429	0.0035
732.1211	0.0015
732.2992	0.0066
732.4773	-0.0008
732.6554	-0.0015
732.8335	0.0089
733.0115	0.0081
733.1896	0.0088
733.3676	-0.0024
733.5456	0.0053
733.7235	0.0091
733.9015	0.0047
734.0794	0.0046
734.2574	-0.003
734.4353	0.005
734.6131	0.0142
734.791	0.009
734.9689	0.0081
735.1467	0.0146
735.3245	0.0012
735.5023	-0.0067
735.68	0.0094
735.8578	0.0073
736.0355	-0.0094
736.2132	-0.0078
736.3909	0.0042
736.5686	-0.0065
736.7463	0.0154
736.9239	-0.0072
737.1015	-0.001
737.2791	0.0164
737.4567	0.0094
737.6343	0.0012
737.8118	0.0046
737.9894	0.0049
738.1669	-0.0087
738.3444	-0.0094
738.5218	0.0083
738.6993	0.0069
738.8767	0.0084
739.0541	0.0027
739.2315	-0.0035
739.4089	0.0041
739.5863	0.0105
739.7636	0.0001
739.9409	0.0019
740.1182	0.0138
740.2955	0.0094
740.4728	0.0011
740.65	0.003
740.8272	-0.004
741.0044	-0.005
741.1816	0.0046
741.3588	-0.0008
741.5359	-0.0013
741.7131	-0.0091
741.8902	0.0029
742.0673	-0.0044
742.2444	-0.0081
742.4214	-0.0002
742.5985	-0.0107
742.7755	-0.0092
742.9525	-0.0176
743.1295	0.0024
743.3064	0.008
743.4834	0.0057
743.6603	-0.0033
743.8372	-0.002
744.0141	0.0042
744.191	0.0087
744.3678	-0.008
744.5446	0
744.7215	0.0016
744.8982	-0.0132
745.075	-0.0032
745.2518	0.0074
745.4285	0.0069
745.6052	-0.0058
745.7819	0.0011
745.9586	-0.0112
746.1353	-0.0003
746.3119	-0.01
746.4885	-0.0031
746.6651	-0.0033
746.8417	0.0032
747.0183	-0.0071
747.1948	-0.0036
747.3714	-0.0033
747.5479	-0.0089
747.7244	-0.0115
747.9008	0.0123
748.0773	-0.0061
748.2537	-0.0048
748.4301	-0.0043
748.6065	0.0018
748.7829	0.0082
748.9593	-0.0071
749.1356	-0.0033
749.3119	0.0112
749.4882	-0.011
749.6645	0.003
749.8408	-0.0087
750.017	-0.0068
750.1933	0.0037
750.3695	-0.0006
750.5457	0.0021
750.7218	-0.0037
750.898	-0.0008
751.0741	-0.0056
751.2502	-0.0012
751.4263	-0.0017
751.6024	0.0034
751.7784	0.0056
751.9545	-0.004
752.1305	0.0115
752.3065	0.001
752.4825	0.0113
752.6584	0.004
752.8344	0.0046
753.0103	-0.0055
753.1862	-0.0013
753.3621	-0.0037
753.5379	-0.0064
753.7138	-0.0026
753.8896	-0.0023
754.0654	0.0032
754.2412	0.0065
754.417	0.0003
754.5927	-0.0126
754.7685	-0.0063
754.9442	0.0027
755.1199	0.018
755.2956	0.0037
755.4712	0.0109
755.6469	0.0029
755.8225	-0.0079
755.9981	-0.0032
756.1736	0.0018
756.3492	0.0046
756.5248	-0.0036
756.7003	-0.0059
756.8758	0.0051
757.0513	-0.0131
757.2267	-0.002
757.4022	-0.0008
757.5776	-0.017
757.753	-0.0007
757.9284	-0.0007
758.1038	0.0041
758.2791	0.001
758.4545	-0.0135
758.6298	-0.0014
758.8051	0.0005
758.9803	0.0001
759.1556	-0.0009
759.3308	-0.0115
759.506	0.0071
759.6812	-0.0022
759.8564	0.0116
760.0316	-0.002
760.2067	0.0003
760.3819	0.0039
760.557	0.008
760.732	0.0042
760.9071	-0.0059
761.0821	-0.0028
761.2572	0.0158
761.4322	0.0072
761.6072	0.0014
761.7821	-0.0046
761.9571	0.0172
762.132	0.0001
762.3069	-0.0114
762.4818	-0.0071
762.6567	-0.0074
762.8316	0.0043
763.0064	0.0023
763.1812	-0.001
763.356	-0.013
763.5308	0.0009
763.7055	0.0044
763.8803	-0.004
764.055	-0.0002
764.2297	-0.0005
764.4044	-0.0077
764.579	-0.0141
764.7537	0.0004
764.9283	-0.0036
765.1029	0.0005
765.2775	-0.0095
765.4521	-0.0105
765.6266	-0.0082
765.8011	0.0001
765.9756	-0.001
766.1501	0.0128
766.3246	0.0069
766.4991	0.0041
766.6735	0.0129
766.8479	-0.0032
767.0223	0.0145
767.1967	0.0144
767.371	0.0027
767.5454	0.0033
767.7197	0.0023
767.894	-0.0007
768.0683	-0.0078
768.2425	0.0044
768.4168	0.0088
768.591	-0.0014
768.7652	0.0064
768.9394	0.0025
769.1135	-0.0006
769.2877	-0.0055
769.4618	-0.0018
769.6359	-0.0087
769.81	0.0022
769.984	-0.0016
770.1581	0.0023
770.3321	0.0019
770.5061	0.0013
770.6801	0.001
770.8541	0.0088
771.028	0.0071
771.202	-0.0018
771.3759	0.0054
771.5498	-0.0042
771.7236	-0.0001
771.8975	0.0035
772.0713	0.003
772.2451	0.0032
772.4189	0.0044
772.5927	0.0097
772.7665	-0.0027
772.9402	-0.0041
773.1139	0.0039
773.2876	-0.0027
773.4613	0.0066
773.635	-0.0074
773.8086	-0.0083
773.9822	-0.0065
774.1558	-0.0019
774.3294	-0.0064
774.503	-0.0027
774.6765	0.011
774.8501	0.0034
775.0236	0.0002
775.1971	0.0083
775.3705	-0.0071
775.544	0.02
775.7174	-0.0017
775.8908	0.0031
776.0642	-0.0053
776.2376	0.0069
776.4109	0.0008
776.5843	-0.0029
776.7576	0.0157
776.9309	0.0059
777.1041	0.0153
777.2774	0.0177
777.4506	0.0081
777.6238	0.001
777.797	0.0032
777.9702	-0.0007
778.1434	0.005
778.3165	-0.0013
778.4896	-0.0039
778.6627	0.0031
778.8358	-0.009
779.0089	-0.0183
779.1819	-0.0072
779.3549	-0.0002
779.5279	0.0087
779.7009	-0.0012
779.8739	0.0035
780.0468	0.0127
780.2197	0.0013
780.3926	-0.0049
780.5655	-0.0027
780.7384	-0.0068
780.9112	0.001
781.0841	-0.004
781.2569	0.0132
781.4297	0.0053
781.6024	0.0062
781.7752	-0.0003
781.9479	0.013
782.1206	0.0028
782.2933	0.0049
782.466	0.0081
782.6386	0.006
782.8113	-0.006
782.9839	0.0084
783.1565	0.0204
783.329	0.0032
783.5016	0.0192
783.6741	0.0106
783.8466	-0.0011
784.0191	0.0182
784.1916	0.0104
784.3641	0.0035
784.5365	0.0089
784.7089	0.0038
784.8813	0.0037
785.0537	0.0048
785.2261	0.0031
785.3984	-0.009
785.5707	0.0053
785.743	0.0169
785.9153	-0.012
786.0876	-0.0026
786.2598	-0.0018
786.432	0.0021
786.6042	0.0064
786.7764	0.0022
786.9486	0.0118
787.1207	-0.0119
787.2928	0.0062
787.4649	0.0063
787.637	0.0026
787.8091	0.0077
787.9811	0.0061
788.1532	0.0115
788.3252	0.011
788.4972	0.0062
788.6691	0.0026
788.8411	0.0052
789.013	-0.0098
789.1849	0.0011
789.3568	-0.0011
789.5287	0.0032
789.7005	-0.0014
789.8723	0.0093
790.0442	0.0201
790.2159	0.0163
790.3877	0.0163
790.5595	-0.0023
790.7312	0.0153
790.9029	-0.0053
791.0746	0.0083
791.2463	0.0164
791.4179	-0.0019
791.5896	-0.0009
791.7612	-0.0016
791.9328	-0.0035
792.1044	-0.0124
792.2759	-0.016
792.4474	-0.0017
792.619	-0.0157
792.7905	0.0049
792.9619	-0.0106
793.1334	0.0175
793.3048	0.0162
793.4762	0.0007
793.6476	-0.0009
793.819	0.0052
793.9904	-0.0023
794.1617	-0.0023
794.333	0.001
794.5043	0.0005
794.6756	-0.0011
794.8469	0.0015
795.0181	-0.0127
795.1893	-0.0014
795.3605	0.0145
795.5317	0.0074
795.7029	-0.0116
795.874	0.0026
796.0452	0.0092
796.2163	-0.0011
796.3873	0.005
796.5584	0.0151
796.7294	0.0011
796.9005	0.015
797.0715	0.0112
797.2425	-0.0203
797.4134	0.0207
797.5844	0.0088
797.7553	0.0014
797.9262	-0.0054
798.0971	-0.0078
798.2679	-0.0143
798.4388	-0.0104
798.6096	-0.0052
798.7804	0.0052
798.9512	-0.0133
799.122	-0.0041
799.2927	0.006
799.4635	0.0212
799.6342	-0.017
799.8049	-0.0038
799.9755	-0.0118
800.1462	0.0009
800.3168	0.0164
800.4874	0.0036
800.658	0.0143
800.8286	0.0028
800.9991	0.0036
801.1696	0.0032
801.3402	0.0129
801.5106	0.0015
801.6811	0.0126
801.8516	0.0247
802.022	0.0104
802.1924	0.0021
802.3628	0.007
802.5332	0.0087
802.7035	0.0137
802.8739	0.0011
803.0442	0.0064
803.2145	0.0245
803.3847	-0.0147
803.555	0.0031
803.7252	-0.0001
803.8954	0.0012
804.0656	-0.0052
804.2358	0.0023
804.4059	0.0269
804.5761	0.0075
804.7462	0.0092
804.9163	0.0018
805.0864	-0.0251
805.2564	-0.0013
805.4264	0.0101
805.5965	-0.0278
805.7665	-0.0046
805.9364	-0.0028
806.1064	0.0252
806.2763	0.0072
806.4462	0.0195
806.6161	0.0053
806.786	0.0224
806.9559	0.0049
807.1257	0.016
807.2955	-0.0008
807.4653	-0.0033
807.6351	0.0163
807.8048	0.0108
807.9746	0.0209
808.1443	0.0103
808.314	0.0057
808.4837	0.0053
808.6533	0.0168
808.8229	0.026
808.9926	-0.0131
809.1622	0.0152
809.3317	-0.0021
809.5013	-0.01
809.6708	0.0067
809.8403	0.0038
810.0098	-0.0044
810.1793	0.0171
810.3488	0.0021
810.5182	-0.0214
810.6876	0.0108
810.857	0.0087
811.0264	0.0159
811.1958	0.0357
811.3651	0.0263
811.5344	-0.0004
811.7037	0.0134
811.873	-0.0225
812.0422	-0.0116
812.2115	0.0053
812.3807	0.0117
812.5499	0.0166
812.7191	0.0124
812.8882	-0.0105
813.0574	0.0018
813.2265	-0.0026
813.3956	-0.0085
813.5646	0.0026
813.7337	-0.0209
813.9027	0.0258
814.0718	0.0256
814.2407	0.0207
814.4097	-0.0002
814.5787	-0.0117
814.7476	0.0139
814.9165	0.0074
815.0854	0.0189
815.2543	-0.0118
815.4232	-0.0112
815.592	0.0094
815.7608	0.0031
815.9296	0.0151
816.0984	0.0239
816.2671	0.0061
816.4359	0.0121
816.6046	0.0106
816.7733	0.0078
816.942	-0.0005
817.1106	0.0207
817.2793	0.0293
817.4479	0.0263
817.6165	0.025
817.785	0.0027
817.9536	-0.0178
818.1221	0.0172
818.2906	0.0198
818.4591	0.0168
818.6276	0.0146
818.7961	-0.0005
818.9645	0.0188
819.1329	0.0223
819.3013	0.0066
819.4697	0.0295
819.638	-0.0016
819.8064	0.0334
819.9747	0.0323
820.143	0.0009
820.3113	-0.0074
820.4795	-0.0019
820.6477	0.0163
820.816	-0.0044
820.9842	0.0103
821.1523	0.0081
821.3205	-0.0203
821.4886	0.0034
821.6567	0.0059
821.8248	0.0128
821.9929	0.0253
822.1609	-0.0032
822.329	0.0241
822.497	0.0296
822.665	0.0065
822.833	0.004
823.0009	0.0093
823.1688	0.0166
823.3367	0.0299
823.5046	-0.0059
823.6725	0.0232
823.8404	0.0122
824.0082	0.0185
824.176	0.0228
824.3438	0.016
824.5116	0.004
824.6793	-0.0035
824.847	0.0056
825.0147	-0.0153
825.1824	0.0388
825.3501	0.015
825.5177	0.0137
825.6854	0.0191
825.853	0.0322
826.0206	0.0068
826.1881	0.0137
826.3557	-0.0192
826.5232	0.0345
826.6907	-0.0269
826.8582	0.0215
827.0257	-0.0026
827.1931	0.0182
827.3605	0.0088
827.528	0.0011
827.6953	-0.0065
827.8627	-0.0063
828.03	0.0302
828.1974	-0.0026
828.3647	-0.019
828.532	-0.0042
828.6992	-0.0023
828.8665	0.0197
829.0337	-0.0113
829.2009	0.0399
829.3681	0.0147
829.5352	0.0194
829.7024	-0.0223
829.8695	-0.0211
830.0366	0.0093
830.2037	0.0205
830.3707	0.0062
830.5378	0.016
830.7048	0.0174
830.8718	0.0013
831.0388	-0.0077
831.2057	0.016
831.3727	0.0232
831.5396	-0.0252
831.7065	-0.0216
831.8734	0.009
832.0402	-0.0257
832.2071	0.0222
832.3739	-0.0299
832.5407	0.0142
832.7075	0.0047
832.8742	-0.0317
833.041	-0.0349
833.2077	-0.0082
833.3744	0.027
833.541	0.0027
833.7077	-0.0241
833.8743	-0.0568
834.0409	0.0177
834.2075	0.0151
834.3741	0.0134
834.5407	0.0326
834.7072	-0.0232
834.8737	-0.0057
835.0402	0.0003
835.2067	0.0266
835.3731	0.0368
835.5395	0.0475
835.706	0.0094
835.8723	0.0076
836.0387	0.0511
836.2051	-0.026
836.3714	-0.0237
836.5377	0.0122
836.704	0.0024
836.8703	0.0003
837.0365	0.0025
837.2027	0.0189
837.3689	0.0515
837.5351	-0.0188
837.7013	-0.0089
837.8674	-0.0646
838.0335	-0.027
838.1997	0.0324
838.3657	0.0021
838.5318	-0.0286
838.6978	0.0317
838.8639	0.0694
839.0299	-0.0207
839.1958	0.0074
839.3618	0.0232
839.5277	0.0269
839.6937	-0.0013
839.8596	-0.0139
840.0254	0.0198
840.1913	-0.0005
840.3571	0.021
840.523	-0.0085
840.6888	-0.0043
840.8545	-0.0453
841.0203	0.0275
841.186	0.0073
841.3517	0.0187
841.5174	0.0164
841.6831	-0.0071
841.8488	0.0095
842.0144	0.0219
842.18	0.0013
842.3456	0.0305
842.5112	-0.0165
842.6767	-0.0025
842.8422	-0.0245
843.0077	0.0162
843.1732	-0.031
843.3387	0.0384
843.5042	-0.0122
843.6696	-0.0043
843.835	-0.0081
844.0004	0.0004
844.1657	0.0263
844.3311	-0.0743
844.4964	-0.0914
844.6617	-0.048
844.827	0.0343
844.9923	0.0132
845.1575	0.0288
845.3227	-0.0075
845.4879	0.0393
845.6531	-0.0641
845.8183	0.0167
845.9834	-0.049
846.1485	0.0427
846.3136	-0.0729
846.4787	-0.0736
846.6438	0.1552
846.8088	-0.058
846.9738	-0.0449
847.1388	0.0106
847.3038	-0.0329
847.4687	-0.1308
847.6337	-0.002
847.7986	-0.0472
847.9635	-0.0468
848.1284	0.0102
848.2932	0.1211
848.458	-0.0289
848.6228	0.0931
848.7876	0.0576
848.9524	-0.0325
849.1172	-0.0835
849.2819	-0.0105
849.4466	-0.075
849.6113	-0.0326
849.7759	0.0213
849.9406	-0.0324
850.1052	-0.0304
850.2698	0.0597
850.4344	-0.1097
850.599	-0.0447
850.7635	0.0452
850.928	-0.1093
851.0925	0.0348
851.257	0.0782
851.4215	0.0352
851.5859	-0.068
851.7503	0.0528
851.9147	0.0057
852.0791	-0.0912
852.2434	0.0282
852.4078	0.0334
852.5721	-0.0167
852.7364	-0.0875
852.9007	-0.0708
853.0649	-0.0386
853.2291	0.0894
853.3934	0.008
853.5575	0.0577
853.7217	-0.1191
853.8859	-0.0871
854.05	0.0313
854.2141	0.0625
854.3782	-0.0646
854.5423	-0.1602
854.7063	0.1562
854.8703	0.0067
855.0343	-0.0868
855.1983	-0.1055
855.3623	0.0688
855.5262	-0.0408
855.6901	-0.0831
855.854	-0.0291
856.0179	0.1144
856.1818	-0.0298
856.3456	-0.0087
856.5094	-0.1481
856.6732	-0.1863
856.837	-0.1218
857.0008	0.0395
857.1645	-0.0018
857.3282	-0.2651
857.4919	0.2216
857.6556	-0.1636
857.8192	-0.0335
857.9828	0.0367
858.1465	0.0136
858.31	0.0406
858.4736	0.0118
858.6372	-0.0473
858.8007	-0.1811
858.9642	0.1949
859.1277	-0.2081
859.2911	0.0066
859.4546	0.0933
859.618	-0.3162
859.7814	0.0151
859.9448	-0.0111
860.1081	0.1035
860.2715	0.0892
860.4348	-0.2983
860.5981	-0.1101
860.7614	0.0876
860.9246	-0.1002
861.0879	0.057
861.2511	-0.0427
861.4143	-0.3287
861.5774	0.3289
861.7406	-0.2295
861.9037	-0.0023
862.0668	-0.0418
862.2299	0.2141
862.393	-0.6594
862.556	0.1094
862.7191	-0.2917
862.8821	-0.0741
863.0451	0.0741
863.208	0.1
863.371	0.0202
863.5339	-0.2019
863.6968	-0.1472
863.8597	-0.209
864.0225	-0.1992
864.1854	0.514
864.3482	-0.279
864.511	0.0433
864.6737	-0.0352
864.8365	0.8227
864.9992	-0.3647
865.1619	-0.4533
865.3246	0.086
865.4873	0.0382
865.65	-0.2886
865.8126	-0.0046
865.9752	0.2939
866.1378	-0.2529
866.3004	1.6186
866.4629	0.405
866.6254	0.3101
866.7879	-0.1428
866.9504	0.2033
867.1129	-0
867.2753	-0.1294
867.4377	0.0718
867.6001	-0.2628
867.7625	0.1729
867.9249	-0
868.0872	-0.2067
868.2495	-0.0542
868.4118	0.0562
868.5741	-0.5031
868.7363	-0.1761
868.8986	1.3842
869.0608	-0.065
869.223	0.1427
869.3851	-0
869.5473	-0
869.7094	-0
869.8715	-0.2905
870.0336	-0
870.1957	-0.0629
870.3577	-1.139
870.5197	-0.2526
870.6817	-0.2026
870.8437	-0.202
871.0057	-0
871.1676	-0.2884
871.3295	-0.2559
871.4914	-0
871.6533	-0.4225
871.8151	0.0398
871.977	-0
872.1388	-0
872.3006	-0
872.4623	-0.0849
872.6241	0.4134
872.7858	0.0966
872.9475	0.0472
873.1092	-0.1056
873.2709	-0
873.4325	-0.2651
873.5941	-0.2013
873.7557	-0
873.9173	0.2656
874.0789	-0
874.2404	-0.4177
874.4019	0.2144
874.5634	0.0184
874.7249	-0.2842
874.8863	-0
875.0478	-0.1834
875.2092	-0
875.3706	0.0142
875.5319	-0.9278
875.6933	-0
875.8546	-0.1761
876.0159	-0
876.1772	2.062
876.3385	-0
876.4997	0.0616
876.6609	-0.2363
876.8221	-0
876.9833	-0
877.1445	-0
877.3056	0.2039
877.4667	-0.2671
877.6278	0.0404
877.7889	-0.6788
877.9499	-0
878.111	-0
878.272	-0
878.433	-0.151
878.5939	0.4783
878.7549	-0.2252
878.9158	-1.0631
879.0767	0.2379
879.2376	-0
879.3984	0.8863
879.5593	-0
879.7201	-0
879.8809	0.0182
880.0417	0.0754
880.2024	0.2506
880.3632	-0
880.5239	0.2298
880.6846	0.5022
880.8452	-2.7164
881.0059	-0.1761
881.1665	1.2021
881.3271	-0
881.4877	-0.0629
881.6483	0.5454
881.8088	-0.4206
881.9693	-0
882.1298	-0
882.2903	-0
