Data from MonoPyChalIsomerACN10uM360nmA_Absorbance_13-57-30-004.txt Node
Date: Fri Jul 05 13:57:30 BST 2024
User: LASERRRRR
Spectrometer: FLMT03099
Trigger mode: 0
Integration Time (sec): 1.000000E-1
Scans to average: 1
Electric dark correction enabled: true
Nonlinearity correction enabled: false
Boxcar width: 0
XAxis mode: Wavelengths
Number of Pixels in Spectrum: 3648
>>>>>Begin Spectral Data<<<<<
179.3399	0.2036
179.5586	0.2036
179.7771	0.2036
179.9957	0.4268
180.2143	-0
180.4329	0.2013
180.6514	0.3526
180.8699	-0
181.0885	-0.0955
181.307	0.3045
181.5255	-0
181.744	-0.47
181.9625	-0
182.181	-0
182.3994	-0
182.6179	-0
182.8363	0.0645
183.0547	-0.1243
183.2732	0.1429
183.4916	-0.0073
183.71	0.2548
183.9284	0.1096
184.1467	-0.1081
184.3651	-0.0887
184.5835	0.0248
184.8018	0.0019
185.0201	0.1188
185.2385	0.0391
185.4568	0.1022
185.6751	0.2342
185.8934	0.1506
186.1117	0.2669
186.3299	0.2198
186.5482	-0.08
186.7664	-0.1502
186.9847	-0.1671
187.2029	0.1662
187.4211	0.179
187.6393	0.0962
187.8575	-0.2143
188.0757	0.2379
188.2939	0.1278
188.512	0.045
188.7302	-0.0427
188.9483	0.0218
189.1665	0.0742
189.3846	-0.1725
189.6027	0.1827
189.8208	0.2543
190.0389	0.2251
190.257	0.1124
190.475	0.2082
190.6931	0.4389
190.9111	0.3854
191.1292	0.0473
191.3472	0.3893
191.5652	0.2748
191.7832	0.1746
192.0012	0.2571
192.2192	0.2561
192.4371	0.6953
192.6551	0.415
192.873	0.2774
193.091	0.5015
193.3089	0.8188
193.5268	0.4326
193.7447	0.6289
193.9626	0.479
194.1805	0.4942
194.3984	0.7903
194.6162	0.6005
194.8341	0.6424
195.0519	0.6678
195.2697	0.6876
195.4875	0.5901
195.7054	0.7389
195.9231	0.3584
196.1409	0.6209
196.3587	0.5779
196.5765	0.6735
196.7942	0.5156
197.012	0.4572
197.2297	0.5808
197.4474	0.9193
197.6651	0.5393
197.8828	0.5077
198.1005	0.7676
198.3182	0.6444
198.5358	0.6772
198.7535	0.5589
198.9711	0.6293
199.1888	0.6096
199.4064	0.7647
199.624	0.6998
199.8416	0.5914
200.0592	0.6716
200.2767	0.7051
200.4943	0.6224
200.7119	0.6443
200.9294	0.6613
201.1469	0.6132
201.3645	0.5533
201.582	0.5963
201.7995	0.6618
202.017	0.6007
202.2344	0.598
202.4519	0.6152
202.6694	0.7061
202.8868	0.6594
203.1042	0.8299
203.3217	0.7151
203.5391	0.6554
203.7565	0.6985
203.9739	0.6025
204.1913	0.6347
204.4086	0.6416
204.626	0.7446
204.8433	0.6232
205.0607	0.6864
205.278	0.6524
205.4953	0.6844
205.7126	0.6772
205.9299	0.7149
206.1472	0.6686
206.3644	0.6981
206.5817	0.6707
206.7989	0.6299
207.0162	0.6606
207.2334	0.6471
207.4506	0.7767
207.6678	0.6532
207.885	0.643
208.1022	0.5916
208.3194	0.6084
208.5365	0.6196
208.7537	0.5992
208.9708	0.5346
209.1879	0.6408
209.405	0.6154
209.6222	0.6745
209.8392	0.5975
210.0563	0.6235
210.2734	0.6823
210.4905	0.6239
210.7075	0.5593
210.9245	0.5928
211.1416	0.6448
211.3586	0.5985
211.5756	0.5983
211.7926	0.5747
212.0096	0.5856
212.2265	0.568
212.4435	0.625
212.6604	0.5532
212.8774	0.5616
213.0943	0.5829
213.3112	0.5521
213.5281	0.4978
213.745	0.5386
213.9619	0.4998
214.1788	0.4947
214.3956	0.4611
214.6125	0.4557
214.8293	0.4266
215.0461	0.4363
215.2629	0.4455
215.4798	0.4538
215.6965	0.4388
215.9133	0.4562
216.1301	0.4386
216.3469	0.4116
216.5636	0.3858
216.7803	0.3877
216.9971	0.3989
217.2138	0.3427
217.4305	0.3544
217.6472	0.3548
217.8639	0.3957
218.0805	0.3093
218.2972	0.3291
218.5138	0.3103
218.7305	0.3067
218.9471	0.3171
219.1637	0.2972
219.3803	0.2818
219.5969	0.3017
219.8135	0.2543
220.0301	0.2858
220.2466	0.2789
220.4632	0.2769
220.6797	0.2348
220.8962	0.2486
221.1127	0.2497
221.3292	0.2716
221.5457	0.2443
221.7622	0.2371
221.9787	0.2623
222.1951	0.2331
222.4116	0.262
222.628	0.2482
222.8444	0.2735
223.0608	0.2576
223.2772	0.2417
223.4936	0.2465
223.71	0.2499
223.9264	0.2738
224.1427	0.2582
224.3591	0.2561
224.5754	0.2607
224.7917	0.2774
225.008	0.2617
225.2243	0.2759
225.4406	0.2763
225.6569	0.2729
225.8732	0.262
226.0894	0.2787
226.3057	0.2983
226.5219	0.2952
226.7381	0.2738
226.9543	0.283
227.1705	0.2937
227.3867	0.2738
227.6029	0.2999
227.8191	0.3092
228.0352	0.3134
228.2513	0.2999
228.4675	0.3279
228.6836	0.2939
228.8997	0.2983
229.1158	0.3159
229.3319	0.3138
229.548	0.3092
229.764	0.3237
229.9801	0.3285
230.1961	0.3281
230.4121	0.3339
230.6282	0.308
230.8442	0.323
231.0602	0.3447
231.2761	0.3686
231.4921	0.3297
231.7081	0.3569
231.924	0.3455
232.14	0.3555
232.3559	0.3098
232.5718	0.3659
232.7877	0.3539
233.0036	0.3435
233.2195	0.3672
233.4353	0.352
233.6512	0.363
233.867	0.3494
234.0829	0.3499
234.2987	0.377
234.5145	0.3648
234.7303	0.387
234.9461	0.3996
235.1619	0.3899
235.3776	0.3778
235.5934	0.3859
235.8091	0.3739
236.0249	0.3769
236.2406	0.3882
236.4563	0.3903
236.672	0.3931
236.8877	0.4095
237.1034	0.4079
237.319	0.3905
237.5347	0.4065
237.7503	0.3723
237.966	0.4219
238.1816	0.3856
238.3972	0.4158
238.6128	0.3922
238.8284	0.4058
239.0439	0.3923
239.2595	0.3992
239.475	0.4131
239.6906	0.4027
239.9061	0.4081
240.1216	0.3846
240.3371	0.4157
240.5526	0.3967
240.7681	0.3995
240.9836	0.3864
241.199	0.4107
241.4145	0.397
241.6299	0.3816
241.8453	0.3908
242.0607	0.3899
242.2761	0.3502
242.4915	0.3639
242.7069	0.3708
242.9223	0.349
243.1376	0.3627
243.353	0.3615
243.5683	0.3527
243.7836	0.3288
243.9989	0.327
244.2142	0.317
244.4295	0.3178
244.6448	0.3134
244.86	0.2963
245.0753	0.2962
245.2905	0.3006
245.5057	0.2854
245.721	0.2776
245.9362	0.27
246.1514	0.2756
246.3665	0.259
246.5817	0.2563
246.7969	0.2525
247.012	0.2539
247.2271	0.2345
247.4423	0.2444
247.6574	0.249
247.8725	0.2254
248.0876	0.2231
248.3026	0.2275
248.5177	0.231
248.7328	0.2109
248.9478	0.22
249.1628	0.2142
249.3779	0.2088
249.5929	0.1976
249.8079	0.2128
250.0228	0.2077
250.2378	0.1945
250.4528	0.2076
250.6677	0.1802
250.8827	0.2045
251.0976	0.2047
251.3125	0.1961
251.5274	0.1717
251.7423	0.1838
251.9572	0.2001
252.172	0.1879
252.3869	0.1811
252.6017	0.1795
252.8166	0.1805
253.0314	0.162
253.2462	0.1756
253.461	0.18
253.6758	0.1795
253.8906	0.178
254.1053	0.1768
254.3201	0.157
254.5348	0.1902
254.7496	0.1719
254.9643	0.1637
255.179	0.1688
255.3937	0.1627
255.6083	0.1722
255.823	0.1696
256.0377	0.1549
256.2523	0.1742
256.467	0.1557
256.6816	0.1667
256.8962	0.1581
257.1108	0.1698
257.3254	0.1663
257.54	0.1619
257.7545	0.1649
257.9691	0.1689
258.1836	0.1766
258.3981	0.1756
258.6127	0.176
258.8272	0.1587
259.0417	0.1508
259.2561	0.1714
259.4706	0.1636
259.6851	0.1687
259.8995	0.1672
260.114	0.1691
260.3284	0.1636
260.5428	0.165
260.7572	0.1674
260.9716	0.1644
261.186	0.1575
261.4003	0.1643
261.6147	0.1517
261.829	0.1673
262.0433	0.1653
262.2577	0.159
262.472	0.1709
262.6863	0.1621
262.9005	0.164
263.1148	0.166
263.3291	0.1384
263.5433	0.1639
263.7576	0.1663
263.9718	0.1609
264.186	0.1592
264.4002	0.1662
264.6144	0.161
264.8286	0.1719
265.0427	0.1614
265.2569	0.1481
265.471	0.1595
265.6851	0.1579
265.8993	0.1621
266.1134	0.1607
266.3275	0.1655
266.5415	0.1654
266.7556	0.1636
266.9697	0.1665
267.1837	0.1634
267.3978	0.1626
267.6118	0.1722
267.8258	0.1634
268.0398	0.1529
268.2538	0.162
268.4677	0.158
268.6817	0.1495
268.8957	0.1618
269.1096	0.159
269.3235	0.1754
269.5374	0.1605
269.7514	0.1487
269.9652	0.1554
270.1791	0.149
270.393	0.1499
270.6068	0.1519
270.8207	0.1549
271.0345	0.1504
271.2483	0.1572
271.4622	0.1414
271.676	0.1599
271.8897	0.1402
272.1035	0.1498
272.3173	0.1478
272.531	0.152
272.7448	0.1453
272.9585	0.136
273.1722	0.1556
273.3859	0.1595
273.5996	0.1395
273.8133	0.1552
274.0269	0.1428
274.2406	0.1292
274.4542	0.1448
274.6679	0.1462
274.8815	0.1397
275.0951	0.1517
275.3087	0.1505
275.5223	0.1447
275.7358	0.1518
275.9494	0.1493
276.1629	0.1353
276.3765	0.1533
276.59	0.1482
276.8035	0.145
277.017	0.1433
277.2305	0.1514
277.444	0.1524
277.6574	0.1373
277.8709	0.1527
278.0843	0.136
278.2978	0.1503
278.5112	0.1526
278.7246	0.1461
278.938	0.1559
279.1513	0.1392
279.3647	0.1606
279.5781	0.1531
279.7914	0.1556
280.0047	0.1654
280.2181	0.1593
280.4314	0.153
280.6447	0.1576
280.8579	0.1584
281.0712	0.1693
281.2845	0.1658
281.4977	0.1505
281.711	0.1479
281.9242	0.1581
282.1374	0.1632
282.3506	0.1538
282.5638	0.156
282.7769	0.1586
282.9901	0.153
283.2033	0.1662
283.4164	0.1633
283.6295	0.1478
283.8426	0.1441
284.0557	0.149
284.2688	0.171
284.4819	0.1589
284.695	0.1642
284.908	0.1658
285.1211	0.1578
285.3341	0.1684
285.5471	0.1776
285.7601	0.1689
285.9731	0.1489
286.1861	0.1558
286.3991	0.1623
286.612	0.1736
286.825	0.1606
287.0379	0.1611
287.2508	0.1539
287.4637	0.1676
287.6766	0.1602
287.8895	0.1785
288.1024	0.1816
288.3152	0.1678
288.5281	0.1528
288.7409	0.1724
288.9538	0.158
289.1666	0.1688
289.3794	0.1646
289.5922	0.1511
289.8049	0.1602
290.0177	0.1551
290.2304	0.1597
290.4432	0.1668
290.6559	0.1604
290.8686	0.1648
291.0813	0.1554
291.294	0.1618
291.5067	0.1716
291.7194	0.1562
291.932	0.1747
292.1447	0.1661
292.3573	0.1574
292.5699	0.1725
292.7825	0.1724
292.9951	0.1578
293.2077	0.1632
293.4203	0.1625
293.6328	0.1517
293.8454	0.1672
294.0579	0.167
294.2704	0.1573
294.4829	0.1398
294.6954	0.1566
294.9079	0.152
295.1204	0.1673
295.3328	0.1614
295.5453	0.1664
295.7577	0.1705
295.9701	0.1491
296.1825	0.1615
296.3949	0.157
296.6073	0.1563
296.8197	0.1466
297.0321	0.1642
297.2444	0.1507
297.4567	0.1663
297.6691	0.1633
297.8814	0.1697
298.0937	0.159
298.306	0.1595
298.5182	0.1626
298.7305	0.1713
298.9428	0.1595
299.155	0.1674
299.3672	0.1521
299.5794	0.1448
299.7916	0.1529
300.0038	0.1598
300.216	0.1547
300.4282	0.1672
300.6403	0.1568
300.8525	0.1633
301.0646	0.1452
301.2767	0.1618
301.4888	0.1587
301.7009	0.153
301.913	0.1572
302.125	0.1525
302.3371	0.1478
302.5491	0.1736
302.7612	0.1706
302.9732	0.1658
303.1852	0.1625
303.3972	0.1512
303.6092	0.1593
303.8211	0.1459
304.0331	0.1516
304.245	0.1497
304.457	0.1455
304.6689	0.1514
304.8808	0.1628
305.0927	0.1513
305.3046	0.1556
305.5164	0.149
305.7283	0.1482
305.9401	0.1524
306.152	0.1477
306.3638	0.1499
306.5756	0.1445
306.7874	0.1326
306.9992	0.1391
307.2109	0.1438
307.4227	0.1276
307.6344	0.1471
307.8462	0.1374
308.0579	0.1352
308.2696	0.1344
308.4813	0.124
308.693	0.1224
308.9046	0.1397
309.1163	0.1282
309.328	0.1269
309.5396	0.1215
309.7512	0.1204
309.9628	0.1133
310.1744	0.1267
310.386	0.1188
310.5976	0.1261
310.8091	0.1189
311.0207	0.1194
311.2322	0.1261
311.4437	0.1015
311.6552	0.1058
311.8667	0.1156
312.0782	0.1042
312.2897	0.0945
312.5012	0.1126
312.7126	0.1074
312.924	0.1023
313.1355	0.1214
313.3469	0.1141
313.5583	0.1026
313.7696	0.1135
313.981	0.1067
314.1924	0.1029
314.4037	0.1068
314.6151	0.1135
314.8264	0.1009
315.0377	0.0877
315.249	0.1041
315.4603	0.1103
315.6716	0.1104
315.8828	0.0961
316.0941	0.11
316.3053	0.0995
316.5165	0.0936
316.7277	0.0853
316.9389	0.1084
317.1501	0.0958
317.3613	0.1058
317.5724	0.0963
317.7836	0.1058
317.9947	0.0974
318.2058	0.0945
318.417	0.0898
318.6281	0.0972
318.8391	0.091
319.0502	0.0974
319.2613	0.0973
319.4723	0.0927
319.6834	0.1058
319.8944	0.0923
320.1054	0.1053
320.3164	0.0979
320.5274	0.0976
320.7383	0.1026
320.9493	0.1054
321.1602	0.1066
321.3712	0.0873
321.5821	0.103
321.793	0.091
322.0039	0.1006
322.2148	0.0937
322.4257	0.1031
322.6365	0.1134
322.8474	0.1071
323.0582	0.1083
323.269	0.1029
323.4798	0.1217
323.6906	0.0997
323.9014	0.1093
324.1122	0.098
324.3229	0.091
324.5337	0.096
324.7444	0.0944
324.9551	0.1157
325.1658	0.1102
325.3765	0.1116
325.5872	0.1095
325.7979	0.1029
326.0085	0.1098
326.2192	0.1105
326.4298	0.1004
326.6404	0.1013
326.851	0.104
327.0616	0.0977
327.2722	0.1133
327.4828	0.1129
327.6933	0.0978
327.9039	0.1099
328.1144	0.1112
328.3249	0.1101
328.5354	0.1005
328.7459	0.1052
328.9564	0.0994
329.1669	0.0996
329.3773	0.095
329.5878	0.1031
329.7982	0.1079
330.0086	0.1041
330.219	0.1149
330.4294	0.0996
330.6398	0.1034
330.8502	0.0992
331.0605	0.1119
331.2708	0.108
331.4812	0.1081
331.6915	0.1073
331.9018	0.1015
332.1121	0.0967
332.3224	0.1098
332.5326	0.1047
332.7429	0.1053
332.9531	0.1158
333.1633	0.1162
333.3735	0.0973
333.5837	0.0999
333.7939	0.1054
334.0041	0.119
334.2143	0.127
334.4244	0.1112
334.6346	0.0888
334.8447	0.127
335.0548	0.1061
335.2649	0.1113
335.475	0.1226
335.685	0.1049
335.8951	0.1066
336.1051	0.1228
336.3152	0.1168
336.5252	0.1038
336.7352	0.1148
336.9452	0.1101
337.1552	0.1148
337.3652	0.1169
337.5751	0.1167
337.7851	0.1224
337.995	0.0983
338.2049	0.1156
338.4148	0.1146
338.6247	0.1199
338.8346	0.1042
339.0445	0.1015
339.2543	0.1197
339.4642	0.1081
339.674	0.106
339.8838	0.1135
340.0936	0.1134
340.3034	0.1229
340.5132	0.1216
340.7229	0.1223
340.9327	0.1232
341.1424	0.1144
341.3522	0.1349
341.5619	0.111
341.7716	0.1263
341.9813	0.1241
342.1909	0.1088
342.4006	0.1405
342.6102	0.125
342.8199	0.1193
343.0295	0.1206
343.2391	0.13
343.4487	0.1336
343.6583	0.1217
343.8679	0.1213
344.0774	0.1316
344.287	0.1253
344.4965	0.1214
344.706	0.1344
344.9155	0.1193
345.125	0.1301
345.3345	0.1333
345.544	0.1162
345.7534	0.1294
345.9629	0.1165
346.1723	0.1235
346.3817	0.1254
346.5911	0.1179
346.8005	0.1402
347.0099	0.1283
347.2193	0.1377
347.4286	0.1361
347.638	0.1436
347.8473	0.1369
348.0566	0.1401
348.2659	0.1308
348.4752	0.1328
348.6845	0.1297
348.8937	0.1359
349.103	0.1503
349.3122	0.1206
349.5214	0.142
349.7306	0.1483
349.9398	0.1434
350.149	0.1388
350.3582	0.1333
350.5674	0.1467
350.7765	0.1422
350.9856	0.1417
351.1948	0.1389
351.4039	0.1266
351.613	0.1237
351.822	0.1442
352.0311	0.1452
352.2402	0.1431
352.4492	0.144
352.6582	0.1596
352.8672	0.1477
353.0762	0.1473
353.2852	0.1321
353.4942	0.1365
353.7032	0.1487
353.9121	0.1546
354.1211	0.1521
354.33	0.1379
354.5389	0.1462
354.7478	0.139
354.9567	0.1486
355.1655	0.1385
355.3744	0.1575
355.5833	0.1573
355.7921	0.1627
356.0009	0.1494
356.2097	0.1696
356.4185	0.1616
356.6273	0.1669
356.8361	0.1525
357.0448	0.1512
357.2536	0.1558
357.4623	0.1511
357.671	0.1708
357.8797	0.1574
358.0884	0.1559
358.2971	0.1625
358.5057	0.1549
358.7144	0.1546
358.923	0.1598
359.1316	0.1649
359.3402	0.1614
359.5488	0.1667
359.7574	0.1576
359.966	0.1629
360.1746	0.1601
360.3831	0.1641
360.5916	0.1658
360.8002	0.161
361.0087	0.1723
361.2172	0.179
361.4256	0.1761
361.6341	0.1862
361.8426	0.1813
362.051	0.1822
362.2594	0.1766
362.4678	0.1802
362.6762	0.1982
362.8846	0.1756
363.093	0.1679
363.3014	0.1802
363.5097	0.1825
363.718	0.1757
363.9264	0.1809
364.1347	0.1878
364.343	0.1854
364.5513	0.1963
364.7595	0.1966
364.9678	0.1897
365.176	0.1882
365.3842	0.1908
365.5925	0.1942
365.8007	0.2049
366.0089	0.182
366.217	0.1918
366.4252	0.2019
366.6333	0.2173
366.8415	0.2022
367.0496	0.177
367.2577	0.2017
367.4658	0.2226
367.6739	0.2055
367.882	0.2018
368.09	0.1925
368.2981	0.2045
368.5061	0.187
368.7141	0.204
368.9221	0.2047
369.1301	0.2034
369.3381	0.1842
369.5461	0.2026
369.754	0.2168
369.962	0.2206
370.1699	0.2076
370.3778	0.207
370.5857	0.2008
370.7936	0.2029
371.0015	0.2212
371.2093	0.2059
371.4172	0.2241
371.625	0.2027
371.8328	0.2082
372.0406	0.2239
372.2484	0.2101
372.4562	0.2283
372.664	0.2022
372.8717	0.2205
373.0795	0.1952
373.2872	0.2214
373.4949	0.22
373.7026	0.2136
373.9103	0.2178
374.118	0.2143
374.3256	0.2248
374.5333	0.2154
374.7409	0.2214
374.9485	0.2422
375.1561	0.2212
375.3637	0.2199
375.5713	0.2315
375.7789	0.2326
375.9864	0.2316
376.194	0.2191
376.4015	0.2305
376.609	0.2422
376.8165	0.2288
377.024	0.2275
377.2315	0.2236
377.4389	0.2354
377.6464	0.2339
377.8538	0.223
378.0612	0.2119
378.2686	0.2373
378.476	0.2431
378.6834	0.2412
378.8908	0.2325
379.0981	0.2466
379.3055	0.2477
379.5128	0.2327
379.7201	0.2423
379.9274	0.2259
380.1347	0.2381
380.342	0.2501
380.5492	0.2316
380.7565	0.2476
380.9637	0.2472
381.1709	0.2349
381.3781	0.2414
381.5853	0.2548
381.7925	0.2461
381.9997	0.2581
382.2068	0.2593
382.4139	0.2482
382.6211	0.2425
382.8282	0.2311
383.0353	0.2512
383.2424	0.2429
383.4494	0.2539
383.6565	0.2395
383.8635	0.2623
384.0706	0.2511
384.2776	0.2738
384.4846	0.2536
384.6916	0.235
384.8986	0.2367
385.1055	0.2514
385.3125	0.2488
385.5194	0.2107
385.7263	0.2615
385.9333	0.2592
386.1402	0.2475
386.347	0.2458
386.5539	0.2369
386.7608	0.2681
386.9676	0.2315
387.1744	0.2428
387.3813	0.2447
387.5881	0.2515
387.7948	0.2357
388.0016	0.2408
388.2084	0.2446
388.4151	0.2262
388.6219	0.2567
388.8286	0.2461
389.0353	0.2556
389.242	0.257
389.4487	0.2302
389.6553	0.2189
389.862	0.2272
390.0686	0.222
390.2753	0.2427
390.4819	0.2498
390.6885	0.2383
390.8951	0.2395
391.1016	0.2454
391.3082	0.2207
391.5147	0.2317
391.7213	0.2426
391.9278	0.2126
392.1343	0.2357
392.3408	0.2125
392.5473	0.2274
392.7537	0.214
392.9602	0.2043
393.1666	0.227
393.373	0.2158
393.5794	0.2289
393.7858	0.2312
393.9922	0.2099
394.1986	0.2343
394.4049	0.2273
394.6113	0.1988
394.8176	0.2123
395.0239	0.2219
395.2302	0.2234
395.4365	0.2107
395.6428	0.2226
395.8491	0.2039
396.0553	0.1972
396.2615	0.2061
396.4678	0.213
396.674	0.1888
396.8802	0.2115
397.0863	0.2246
397.2925	0.1982
397.4987	0.2142
397.7048	0.198
397.9109	0.2102
398.117	0.2011
398.3231	0.207
398.5292	0.2102
398.7353	0.2082
398.9413	0.2053
399.1474	0.2008
399.3534	0.1994
399.5594	0.1846
399.7654	0.1987
399.9714	0.2093
400.1774	0.2082
400.3833	0.1975
400.5893	0.2114
400.7952	0.2015
401.0011	0.1982
401.207	0.2045
401.4129	0.2019
401.6188	0.2171
401.8247	0.2061
402.0305	0.1955
402.2364	0.206
402.4422	0.2177
402.648	0.1977
402.8538	0.2194
403.0596	0.1925
403.2654	0.2108
403.4711	0.1979
403.6768	0.2104
403.8826	0.2171
404.0883	0.2021
404.294	0.2264
404.4997	0.2021
404.7054	0.2018
404.911	0.1901
405.1167	0.2144
405.3223	0.2047
405.5279	0.2133
405.7335	0.2186
405.9391	0.2159
406.1447	0.1874
406.3502	0.2145
406.5558	0.2103
406.7613	0.1931
406.9668	0.2033
407.1724	0.1894
407.3778	0.1981
407.5833	0.1967
407.7888	0.1837
407.9942	0.2167
408.1997	0.1978
408.4051	0.1947
408.6105	0.2194
408.8159	0.1896
409.0213	0.199
409.2267	0.2094
409.432	0.1818
409.6374	0.2084
409.8427	0.206
410.048	0.1912
410.2533	0.2061
410.4586	0.2145
410.6639	0.1864
410.8691	0.1957
411.0744	0.2137
411.2796	0.1996
411.4848	0.2099
411.69	0.1999
411.8952	0.207
412.1004	0.1811
412.3056	0.1993
412.5107	0.2098
412.7158	0.2004
412.921	0.204
413.1261	0.197
413.3312	0.186
413.5362	0.1934
413.7413	0.1893
413.9464	0.1975
414.1514	0.1822
414.3564	0.1799
414.5614	0.1749
414.7664	0.1998
414.9714	0.1987
415.1764	0.2011
415.3813	0.2153
415.5863	0.1902
415.7912	0.1944
415.9961	0.1737
416.201	0.1887
416.4059	0.1936
416.6108	0.1887
416.8156	0.1886
417.0205	0.1994
417.2253	0.1745
417.4301	0.2024
417.6349	0.1883
417.8397	0.1737
418.0445	0.1963
418.2492	0.2081
418.454	0.1911
418.6587	0.1826
418.8634	0.1939
419.0681	0.1909
419.2728	0.1611
419.4775	0.1836
419.6822	0.1756
419.8868	0.1795
420.0915	0.2018
420.2961	0.1716
420.5007	0.1719
420.7053	0.1742
420.9099	0.1827
421.1144	0.1826
421.319	0.164
421.5235	0.188
421.728	0.1805
421.9325	0.1889
422.137	0.1916
422.3415	0.1823
422.546	0.1704
422.7504	0.1703
422.9549	0.1841
423.1593	0.1861
423.3637	0.1988
423.5681	0.1661
423.7725	0.1589
423.9769	0.1593
424.1812	0.1503
424.3856	0.1678
424.5899	0.1815
424.7942	0.1674
424.9985	0.1654
425.2028	0.1674
425.4071	0.195
425.6113	0.1575
425.8156	0.1721
426.0198	0.1754
426.224	0.1672
426.4282	0.1681
426.6324	0.1624
426.8366	0.1517
427.0407	0.1563
427.2449	0.1548
427.449	0.1485
427.6531	0.1446
427.8572	0.1512
428.0613	0.1359
428.2654	0.1438
428.4694	0.1541
428.6735	0.158
428.8775	0.1642
429.0815	0.1469
429.2855	0.1359
429.4895	0.1413
429.6935	0.1509
429.8975	0.1364
430.1014	0.124
430.3053	0.1256
430.5093	0.139
430.7132	0.1148
430.9171	0.132
431.1209	0.1343
431.3248	0.1354
431.5286	0.1446
431.7325	0.136
431.9363	0.1272
432.1401	0.1211
432.3439	0.1269
432.5477	0.0956
432.7514	0.109
432.9552	0.1209
433.1589	0.0991
433.3627	0.101
433.5664	0.1147
433.7701	0.1223
433.9737	0.0925
434.1774	0.1096
434.3811	0.1126
434.5847	0.1131
434.7883	0.1223
434.9919	0.1023
435.1955	0.1075
435.3991	0.1014
435.6027	0.1025
435.8062	0.1036
436.0098	0.0981
436.2133	0.1048
436.4168	0.0921
436.6203	0.098
436.8238	0.0985
437.0272	0.0928
437.2307	0.0893
437.4341	0.1079
437.6375	0.0992
437.841	0.0861
438.0443	0.0864
438.2477	0.105
438.4511	0.088
438.6545	0.0821
438.8578	0.0873
439.0611	0.0799
439.2644	0.0876
439.4677	0.0715
439.671	0.0601
439.8743	0.0881
440.0775	0.0731
440.2808	0.073
440.484	0.0582
440.6872	0.0655
440.8904	0.0775
441.0936	0.0931
441.2967	0.0547
441.4999	0.0633
441.703	0.0541
441.9062	0.0623
442.1093	0.0626
442.3124	0.0758
442.5155	0.0384
442.7185	0.0481
442.9216	0.0459
443.1246	0.0784
443.3276	0.0576
443.5307	0.0477
443.7337	0.0539
443.9366	0.0602
444.1396	0.0477
444.3426	0.0657
444.5455	0.0523
444.7484	0.0546
444.9513	0.0489
445.1542	0.0621
445.3571	0.0559
445.56	0.0367
445.7628	0.0456
445.9657	0.0387
446.1685	0.0461
446.3713	0.055
446.5741	0.0494
446.7769	0.0309
446.9797	0.0522
447.1824	0.0408
447.3852	0.0356
447.5879	0.0454
447.7906	0.0458
447.9933	0.0477
448.196	0.0224
448.3986	0.0379
448.6013	0.0325
448.8039	0.0168
449.0066	0.0317
449.2092	0.045
449.4118	0.0391
449.6143	0.0304
449.8169	0.0426
450.0195	0.0159
450.222	0.0114
450.4245	0.0225
450.627	0.0292
450.8295	0.0236
451.032	0.0209
451.2345	0.0092
451.4369	0.0268
451.6394	0.024
451.8418	0.0122
452.0442	0.0086
452.2466	0.0403
452.449	0.0068
452.6513	0.0194
452.8537	0.0196
453.056	0.0183
453.2583	0.0276
453.4607	0.0029
453.663	0.017
453.8652	0.0286
454.0675	-0.0039
454.2697	0.0326
454.472	0.0038
454.6742	0.0057
454.8764	0.0131
455.0786	0.0333
455.2808	0.0053
455.4829	0.015
455.6851	0.0187
455.8872	0.0126
456.0893	0.0191
456.2915	-0.0004
456.4935	0.0163
456.6956	0.0143
456.8977	0.0267
457.0997	0.0087
457.3018	0.0012
457.5038	0.0176
457.7058	0.0062
457.9078	-0.0119
458.1098	0.0165
458.3117	0.0112
458.5137	0.0136
458.7156	0.0035
458.9175	-0.0112
459.1194	0.0142
459.3213	0.0042
459.5232	0.0061
459.725	-0.0038
459.9269	-0.0184
460.1287	-0.0039
460.3305	-0.0006
460.5323	0.0105
460.7341	-0.0006
460.9359	0.0018
461.1376	0.0098
461.3394	-0.0116
461.5411	-0.0021
461.7428	0.0001
461.9445	0.0132
462.1462	0.0224
462.3479	-0.007
462.5495	-0.0043
462.7512	0.0149
462.9528	0.0048
463.1544	-0.021
463.356	0.007
463.5576	-0.0046
463.7592	-0.0129
463.9607	0.0024
464.1623	0.021
464.3638	0.0299
464.5653	-0.0097
464.7668	0.0096
464.9683	0.0074
465.1697	0.0116
465.3712	0.0008
465.5726	-0.0044
465.7741	0.0024
465.9755	-0.0006
466.1769	0.0038
466.3782	-0.0004
466.5796	-0.0014
466.7809	0.0069
466.9823	0.0049
467.1836	0.023
467.3849	-0.0162
467.5862	0.0047
467.7875	0.0007
467.9887	0.0134
468.19	-0.0051
468.3912	-0.0049
468.5924	0.0028
468.7936	0.0033
468.9948	-0.0043
469.196	-0.0067
469.3972	-0.0115
469.5983	-0.0015
469.7994	-0.0003
470.0006	-0.0049
470.2017	-0.005
470.4027	-0.0024
470.6038	0.0058
470.8049	0.0042
471.0059	-0.0021
471.2069	-0.0227
471.408	0.0111
471.6089	0.0042
471.8099	0.0019
472.0109	-0.0054
472.2119	-0.0118
472.4128	-0.0152
472.6137	-0.0013
472.8146	-0.0182
473.0155	-0.0006
473.2164	-0.0088
473.4173	0.0072
473.6181	-0.0007
473.819	-0.001
474.0198	-0.0147
474.2206	-0.0096
474.4214	-0.0075
474.6222	0.0026
474.8229	-0.0039
475.0237	-0.0056
475.2244	-0.0065
475.4251	-0.0074
475.6258	-0.0058
475.8265	-0.0056
476.0272	0.0154
476.2278	-0.0019
476.4285	-0.0069
476.6291	-0.004
476.8297	-0.0083
477.0303	-0.0061
477.2309	0.002
477.4315	-0.0033
477.632	-0.0111
477.8326	-0.0062
478.0331	-0.0041
478.2336	-0.0001
478.4341	-0.0097
478.6346	0.0026
478.8351	-0.0075
479.0355	-0.0059
479.236	-0.0032
479.4364	-0.0029
479.6368	-0.0002
479.8372	-0.014
480.0376	-0.0053
480.2379	-0.023
480.4383	-0.0162
480.6386	-0.0015
480.8389	-0.0096
481.0392	-0.008
481.2395	-0.0073
481.4398	0.0003
481.6401	-0.0009
481.8403	-0.0113
482.0405	-0.0097
482.2408	-0.0062
482.441	-0.0001
482.6411	-0.0004
482.8413	-0.0069
483.0415	-0.0082
483.2416	-0.0055
483.4417	-0.0009
483.6419	-0.0084
483.8419	0.0019
484.042	0.0059
484.2421	-0.0061
484.4422	-0.0051
484.6422	-0.0012
484.8422	-0.0046
485.0422	-0.0053
485.2422	-0.0068
485.4422	-0.014
485.6422	-0.0074
485.8421	-0.0081
486.042	0.0012
486.242	-0.0081
486.4419	-0.0134
486.6417	-0.018
486.8416	0.0064
487.0415	-0.0037
487.2413	-0.0059
487.4411	-0.0042
487.641	-0.0115
487.8408	-0.0005
488.0405	-0.0094
488.2403	-0.0091
488.4401	-0.0068
488.6398	0.0009
488.8395	-0.0142
489.0392	0.0041
489.2389	-0.0158
489.4386	-0.0033
489.6383	-0.0061
489.8379	-0.0059
490.0376	-0.0031
490.2372	-0.0083
490.4368	-0.0159
490.6364	-0.0031
490.836	-0.0129
491.0355	-0.0067
491.2351	-0.0091
491.4346	-0.0102
491.6341	-0.0185
491.8336	-0.0013
492.0331	-0.0177
492.2326	-0.0019
492.432	-0.0071
492.6315	-0.0026
492.8309	-0.0143
493.0303	-0.0181
493.2297	-0.0089
493.4291	-0.002
493.6284	-0.0086
493.8278	-0.0143
494.0271	-0.0008
494.2264	0.0015
494.4257	-0.0128
494.625	-0.0044
494.8243	-0.0106
495.0236	-0.0068
495.2228	-0.0188
495.422	-0.0068
495.6213	-0.0061
495.8205	-0.0033
496.0196	0.0009
496.2188	-0.0035
496.418	-0.0104
496.6171	-0.0149
496.8162	-0.0197
497.0153	-0.0059
497.2144	-0.0183
497.4135	-0.0077
497.6126	-0.0232
497.8116	-0.0146
498.0107	0.0005
498.2097	-0.0158
498.4087	-0.0143
498.6077	-0.0063
498.8067	-0.0081
499.0056	-0.0007
499.2046	-0.0127
499.4035	-0.0229
499.6024	-0.0092
499.8013	0.0082
500.0002	-0.0078
500.199	-0.0033
500.3979	-0.0036
500.5967	-0.0212
500.7956	-0.009
500.9944	-0.011
501.1932	-0.012
501.3919	-0.0145
501.5907	-0.0104
501.7895	-0.0163
501.9882	-0.0149
502.1869	-0.0148
502.3856	-0.0058
502.5843	-0.0104
502.783	-0.0101
502.9816	-0.0089
503.1803	-0.0162
503.3789	-0.011
503.5775	0.0065
503.7761	-0.016
503.9747	-0.0015
504.1732	-0.0069
504.3718	-0.0049
504.5703	-0.0036
504.7689	-0.0155
504.9674	-0.0108
505.1658	-0.0099
505.3643	-0.0164
505.5628	-0.0074
505.7612	-0.0075
505.9597	0.0065
506.1581	-0.0096
506.3565	-0.0009
506.5549	-0.0065
506.7532	-0.0165
506.9516	-0.0018
507.1499	-0.0058
507.3482	-0.0155
507.5465	-0.0087
507.7448	-0.003
507.9431	0.0008
508.1414	-0.0044
508.3396	-0.0079
508.5379	-0.0025
508.7361	-0.0084
508.9343	-0.0039
509.1325	-0.0017
509.3306	-0.0033
509.5288	-0.0095
509.7269	-0.0111
509.9251	0.001
510.1232	-0.0089
510.3213	-0.0024
510.5193	-0.0023
510.7174	-0.0173
510.9154	-0.019
511.1135	-0.0081
511.3115	-0.0057
511.5095	-0.0072
511.7075	-0.0122
511.9055	-0.0083
512.1034	-0.0116
512.3014	0.0007
512.4993	-0.01
512.6972	-0.0099
512.8951	-0.0171
513.093	-0.0023
513.2908	-0.0074
513.4887	-0.0028
513.6865	-0.0057
513.8844	0.0002
514.0822	-0.0193
514.2799	-0.0115
514.4777	-0.0122
514.6755	-0.0142
514.8732	-0.0171
515.0709	-0.0095
515.2687	-0.0075
515.4664	-0.0018
515.664	-0.0106
515.8617	0.0029
516.0594	-0.0228
516.257	-0.005
516.4546	-0.019
516.6522	0.009
516.8498	-0.0062
517.0474	0.0032
517.2449	0.0017
517.4425	-0.0166
517.64	-0.0109
517.8375	-0.0002
518.035	0.0035
518.2325	-0.0135
518.43	-0.0081
518.6274	-0.0111
518.8249	-0.0061
519.0223	-0.0024
519.2197	-0.0037
519.4171	-0.0126
519.6145	-0.0176
519.8118	0.0036
520.0092	-0.0093
520.2065	-0.0144
520.4038	-0.0071
520.6011	-0.0016
520.7984	-0.0101
520.9956	-0.0065
521.1929	-0.0157
521.3901	-0.0036
521.5874	-0.0061
521.7846	-0.0016
521.9818	-0.0156
522.1789	-0.0204
522.3761	-0.0163
522.5732	-0.007
522.7704	0.0012
522.9675	-0.0091
523.1646	-0.0103
523.3617	0.0038
523.5587	-0.0004
523.7558	-0.0074
523.9528	-0.0066
524.1498	0.0026
524.3468	0.0012
524.5438	-0.0119
524.7408	0.0038
524.9378	-0.0045
525.1347	-0.0072
525.3316	0.0026
525.5285	-0.0068
525.7254	-0.0058
525.9223	-0.0008
526.1192	-0.012
526.316	-0.0131
526.5129	0.0009
526.7097	-0.003
526.9065	-0.0056
527.1033	-0.01
527.3	0.0011
527.4968	-0.0112
527.6935	-0.0089
527.8903	-0.0112
528.087	-0.0053
528.2837	-0.0053
528.4804	-0.0073
528.677	-0.0013
528.8737	0.0054
529.0703	-0.0002
529.2669	-0.0107
529.4635	-0.0069
529.6601	-0.0045
529.8567	-0.0049
530.0532	-0.0215
530.2498	0.0073
530.4463	-0.0034
530.6428	-0.005
530.8393	0.0044
531.0358	-0.0138
531.2322	-0.0081
531.4287	-0.0065
531.6251	-0.0138
531.8215	0.0014
532.0179	0.0071
532.2143	0.0037
532.4107	0.0008
532.607	-0.002
532.8034	-0.0049
532.9997	-0.0082
533.196	-0.0041
533.3923	-0.0174
533.5886	0.0037
533.7848	-0.0046
533.9811	0.0024
534.1773	0.0028
534.3735	0.0067
534.5697	-0.0035
534.7659	-0.0092
534.9621	0.008
535.1582	-0.0132
535.3544	-0.0069
535.5505	-0.0077
535.7466	-0.0097
535.9427	-0.0032
536.1387	-0.0088
536.3348	-0.0022
536.5308	-0.0003
536.7269	-0.0234
536.9229	0.0058
537.1189	0.001
537.3148	0.0021
537.5108	-0.0076
537.7068	0.0006
537.9027	0.0036
538.0986	-0.0128
538.2945	-0.0139
538.4904	-0.007
538.6863	-0.0071
538.8821	-0.0041
539.078	-0.0096
539.2738	-0.0017
539.4696	-0.0039
539.6654	0.0117
539.8611	0.0046
540.0569	-0.0088
540.2526	-0.0113
540.4484	-0.0041
540.6441	0.0036
540.8398	-0.001
541.0355	-0.0008
541.2311	0.0048
541.4268	-0.0044
541.6224	0.0081
541.818	0.0038
542.0136	-0.0024
542.2092	-0.0069
542.4048	0.0003
542.6003	-0.0035
542.7959	0.0007
542.9914	-0.009
543.1869	-0.0037
543.3824	-0.0045
543.5779	-0.0097
543.7734	-0.0069
543.9688	-0.0055
544.1642	-0.0054
544.3596	-0.0087
544.555	-0.0099
544.7504	0.0007
544.9458	-0.0148
545.1411	-0.009
545.3365	-0.0132
545.5318	0.0046
545.7271	-0.01
545.9224	-0.0015
546.1177	-0.0009
546.3129	0.0025
546.5081	-0.002
546.7034	-0.0057
546.8986	-0.0111
547.0938	-0.0079
547.289	-0.0061
547.4841	-0.0029
547.6793	0.0045
547.8744	-0.0144
548.0695	-0.003
548.2646	-0.0036
548.4597	-0.0032
548.6548	-0.0066
548.8498	0.0125
549.0448	0.0015
549.2399	-0.0104
549.4349	0.006
549.6298	-0.0058
549.8248	0.0006
550.0198	0.0049
550.2147	-0.0087
550.4096	-0.0082
550.6045	-0.0083
550.7994	0.0058
550.9943	0.0012
551.1892	-0.0028
551.384	0.0059
551.5788	-0.0094
551.7737	-0.0019
551.9685	-0.0045
552.1632	0.0041
552.358	-0.0017
552.5528	0.0049
552.7475	-0.002
552.9422	-0.0091
553.1369	-0.002
553.3316	0.0047
553.5263	-0.0059
553.7209	0.0033
553.9156	-0.0141
554.1102	-0.0038
554.3048	-0.0125
554.4994	-0.0032
554.694	-0.0081
554.8885	0.0091
555.0831	-0.0098
555.2776	-0.0094
555.4721	-0.0173
555.6666	-0.0049
555.8611	0.0066
556.0555	-0.0025
556.25	0.0004
556.4444	-0.0067
556.6388	0.001
556.8332	0.0012
557.0276	-0.0029
557.222	-0.0032
557.4163	0.0016
557.6107	-0.0071
557.805	0.0054
557.9993	-0.007
558.1936	0.0015
558.3879	0.0039
558.5821	-0.0039
558.7764	-0.0089
558.9706	0.0001
559.1648	0.0122
559.359	-0.0076
559.5532	-0.0142
559.7473	-0.0027
559.9415	0.0059
560.1356	-0.0018
560.3297	-0.0109
560.5238	-0.0043
560.7179	-0.003
560.9119	-0.0034
561.106	-0.0032
561.3	-0.0053
561.494	0.0007
561.688	-0.012
561.882	-0.0084
562.076	-0.0051
562.2699	0.0022
562.4639	-0.0006
562.6578	-0.0021
562.8517	0.0026
563.0456	-0.001
563.2395	0.0028
563.4333	-0.0077
563.6272	0.0018
563.821	-0.006
564.0148	0.0053
564.2086	-0.0014
564.4024	-0.0028
564.5961	-0.0036
564.7899	0.0031
564.9836	-0.0034
565.1773	-0.006
565.371	0.0041
565.5647	0.0072
565.7584	0.0034
565.952	0.0096
566.1456	0.0026
566.3393	-0.0074
566.5329	-0.0059
566.7264	-0.0075
566.92	-0.013
567.1136	0.0039
567.3071	-0.0083
567.5006	-0.0034
567.6941	0.0004
567.8876	-0.0022
568.0811	0.0005
568.2745	-0.0018
568.468	0.0047
568.6614	0.0065
568.8548	-0.0017
569.0482	-0.003
569.2416	0.0033
569.4349	0.0056
569.6283	0.006
569.8216	-0.011
570.0149	0.0016
570.2082	0.0048
570.4015	0.0072
570.5947	0.0077
570.788	0.0073
570.9812	0.0077
571.1744	-0.004
571.3676	-0.0091
571.5608	-0.0017
571.754	0.0039
571.9471	-0.0002
572.1402	0.003
572.3333	-0.0064
572.5264	-0.0009
572.7195	0.0048
572.9126	0.0023
573.1057	-0.0019
573.2987	-0.0021
573.4917	0.0089
573.6847	-0.0083
573.8777	0.0005
574.0707	0.0051
574.2636	-0.002
574.4566	-0.0058
574.6495	0.0014
574.8424	-0.0017
575.0353	-0.0002
575.2281	0.0081
575.421	0.005
575.6138	0.0022
575.8067	-0.0035
575.9995	0.0042
576.1923	0.0073
576.385	0.0036
576.5778	-0.0008
576.7706	-0.0022
576.9633	0.0037
577.156	0.0073
577.3487	-0.0008
577.5414	-0.0055
577.734	0.0015
577.9267	0.0064
578.1193	-0.0075
578.3119	-0.0062
578.5045	0.0072
578.6971	0.0019
578.8897	0.0043
579.0822	-0.0016
579.2747	0.0023
579.4673	-0.0033
579.6598	-0.0045
579.8522	-0.0015
580.0447	-0.004
580.2372	0.004
580.4296	0.0032
580.622	0.0018
580.8144	0.002
581.0068	0.0062
581.1992	-0.0048
581.3915	-0.0022
581.5839	-0.0062
581.7762	-0.0072
581.9685	0.0023
582.1608	0.0037
582.353	0.0004
582.5453	0.0078
582.7375	0.004
582.9298	0.0086
583.122	0.0047
583.3142	0.0031
583.5063	-0.0002
583.6985	-0.0009
583.8906	-0.0072
584.0827	-0.0055
584.2749	0.0044
584.4669	0.0055
584.659	0.0021
584.8511	0.0068
585.0431	-0.0023
585.2352	0.0091
585.4272	0.0003
585.6192	0.0061
585.8111	0.0028
586.0031	0.0015
586.195	0.0005
586.387	0.0053
586.5789	0.0054
586.7708	0.0074
586.9627	0.0041
587.1545	-0.0025
587.3464	0.002
587.5382	0.0048
587.73	0.0017
587.9218	0.0017
588.1136	0.0063
588.3053	0.0034
588.4971	-0.0039
588.6888	-0.0032
588.8805	0.0107
589.0722	0.0113
589.2639	0.0032
589.4556	0.0064
589.6472	-0.0027
589.8389	0.0021
590.0305	-0.0076
590.2221	-0.0026
590.4137	-0.0063
590.6052	0.0094
590.7968	-0.0045
590.9883	0.0081
591.1798	-0.0033
591.3713	-0.0019
591.5628	0.002
591.7543	0.0109
591.9458	0.0029
592.1372	-0.0005
592.3286	0.0104
592.52	0.0124
592.7114	-0.0012
592.9028	-0.0019
593.0941	0.0084
593.2855	0.0081
593.4768	-0.0018
593.6681	-0.0027
593.8594	-0.0013
594.0506	0.0012
594.2419	0.0098
594.4331	0.0078
594.6244	0.0076
594.8156	-0.0016
595.0067	0.0049
595.1979	0.008
595.3891	-0.0044
595.5802	-0.0029
595.7713	-0.0052
595.9624	-0.0016
596.1535	0.0033
596.3446	-0.0021
596.5357	0.0045
596.7267	0.0032
596.9177	0.0014
597.1087	-0.0074
597.2997	0.0015
597.4907	0.0051
597.6817	-0.0026
597.8726	-0.006
598.0635	0.0008
598.2544	0.004
598.4453	0.0045
598.6362	0.0001
598.827	-0.0029
599.0179	0.0057
599.2087	0.0012
599.3995	0.0067
599.5903	0.0013
599.7811	0.0053
599.9718	-0.0013
600.1626	-0.0033
600.3533	-0.0079
600.544	0.0015
600.7347	-0.0015
600.9254	0.0019
601.116	-0.0041
601.3067	0.0008
601.4973	-0.0014
601.6879	0.0075
601.8785	-0.0022
602.0691	0.0007
602.2596	0.0109
602.4502	0.0077
602.6407	0.0068
602.8312	0.0027
603.0217	0.0038
603.2122	0.0039
603.4027	-0.0051
603.5931	-0.0046
603.7835	0.0015
603.9739	-0.0042
604.1643	-0.0019
604.3547	-0.0055
604.5451	0.0008
604.7354	0.0042
604.9257	0.0109
605.116	-0.0006
605.3063	0.0053
605.4966	0.0062
605.6869	0.0025
605.8771	0.0072
606.0673	0.0035
606.2575	-0.0011
606.4477	0.0072
606.6379	-0.0026
606.8281	0.0001
607.0182	-0.0045
607.2083	0.0118
607.3985	-0.0066
607.5885	0.0049
607.7786	0.0079
607.9687	-0.0017
608.1587	0.0012
608.3488	0.0036
608.5388	0.0014
608.7288	0.0016
608.9187	-0.004
609.1087	-0.0054
609.2986	-0.0009
609.4886	-0.0008
609.6785	0.0065
609.8684	0.0056
610.0582	0.0083
610.2481	0.0009
610.4379	0.0012
610.6278	0.003
610.8176	-0.0022
611.0074	-0.0052
611.1971	-0.0026
611.3869	-0.0001
611.5766	-0.0052
611.7664	0.0102
611.9561	0.0051
612.1458	0.0031
612.3354	-0.0013
612.5251	0.0066
612.7147	0.0033
612.9044	0.0108
613.094	-0.0031
613.2836	0.0029
613.4731	0.0049
613.6627	-0.0008
613.8522	0.0072
614.0417	0.0054
614.2313	0.0054
614.4207	0.0036
614.6102	-0.0017
614.7997	-0.0007
614.9891	-0.0001
615.1785	0.0017
615.3679	-0.0033
615.5573	0.0054
615.7467	0.0017
615.9361	-0.0031
616.1254	-0.0043
616.3147	-0
616.504	0.0021
616.6933	0.0021
616.8826	0.0013
617.0718	0.0001
617.2611	0.0046
617.4503	0.0008
617.6395	-0.0012
617.8287	-0
618.0179	0.0054
618.207	0.0097
618.3961	-0.0017
618.5853	-0.0015
618.7744	0.008
618.9634	0.0074
619.1525	0.0094
619.3416	0.0066
619.5306	0.0158
619.7196	0.0018
619.9086	0.0008
620.0976	0.0053
620.2866	0.0031
620.4755	0.0077
620.6645	0.0094
620.8534	0.0093
621.0423	0.0007
621.2312	0.0075
621.42	0.0043
621.6089	-0.0055
621.7977	0.0099
621.9865	0.005
622.1753	0.0097
622.3641	-0.0007
622.5529	0.0063
622.7416	0.0013
622.9303	0.0115
623.1191	0.0081
623.3078	-0.0027
623.4964	0.0063
623.6851	0.0028
623.8737	0.003
624.0624	0.0029
624.251	0.0079
624.4396	0.0034
624.6282	-0.0014
624.8167	0.0006
625.0053	0.0014
625.1938	0.0034
625.3823	0.0026
625.5708	0.0077
625.7593	0.0003
625.9477	-0.0002
626.1362	-0.0061
626.3246	0.0032
626.513	0.0142
626.7014	0.0084
626.8898	0.0086
627.0781	-0.0015
627.2665	-0.0032
627.4548	0.0089
627.6431	0.0048
627.8314	0.0034
628.0197	0.0088
628.2079	-0.0089
628.3962	0.001
628.5844	-0.0014
628.7726	0.0039
628.9608	0.0073
629.1489	0.0056
629.3371	0.0009
629.5252	-0.0001
629.7134	0.0139
629.9015	0.0039
630.0895	0.0004
630.2776	0.0004
630.4657	-0.0011
630.6537	0.0043
630.8417	0.0059
631.0297	-0.0004
631.2177	0.0044
631.4057	-0.0057
631.5936	-0.0007
631.7815	0.0071
631.9695	0.0012
632.1574	0.0034
632.3452	0.0187
632.5331	0.0038
632.7209	0.0077
632.9088	0.0194
633.0966	0.0102
633.2844	-0.0011
633.4722	0.0081
633.6599	0.0043
633.8477	0.0011
634.0354	0.003
634.2231	-0.0005
634.4108	0.0004
634.5985	0.0142
634.7861	0.0059
634.9738	-0.0014
635.1614	0.0006
635.349	-0.0025
635.5366	-0.006
635.7242	-0.0021
635.9117	0.0034
636.0993	-0.0002
636.2868	0.0046
636.4743	-0.0028
636.6618	0.0067
636.8492	0.0002
637.0367	-0.0019
637.2241	-0.0002
637.4115	-0.0004
637.5989	0.0021
637.7863	0.0055
637.9737	0.0006
638.161	0.0055
638.3484	0.0074
638.5357	0.0065
638.723	0.0056
638.9103	0.0067
639.0975	0.0058
639.2848	0.006
639.472	0.0021
639.6592	0.0065
639.8464	0.0116
640.0336	0.0063
640.2208	0.0054
640.4079	0.0051
640.595	0.0089
640.7821	0.0008
640.9692	0.004
641.1563	0.0083
641.3434	0.0019
641.5304	0.0008
641.7174	0.0073
641.9044	0.0066
642.0914	0.0023
642.2784	0.0005
642.4653	0.0007
642.6523	0.0037
642.8392	0.0018
643.0261	0.0031
643.213	0.0055
643.3999	-0.0035
643.5867	-0.005
643.7735	0.0044
643.9604	-0.0027
644.1472	-0.0016
644.3339	0.0066
644.5207	0.0026
644.7075	-0.0016
644.8942	0.0003
645.0809	0.0088
645.2676	0.0093
645.4543	-0.0016
645.6409	0.0089
645.8276	0.0048
646.0142	0.0014
646.2008	-0.0082
646.3874	-0.0045
646.574	0.0009
646.7605	0.0016
646.9471	-0.0091
647.1336	-0.0004
647.3201	0.0042
647.5066	-0.0005
647.6931	0.0112
647.8795	0.0003
648.0659	0.0104
648.2524	0.0048
648.4388	-0.0046
648.6252	-0.0023
648.8115	0.0042
648.9979	-0.0045
649.1842	0.0004
649.3705	0.0046
649.5568	0.0047
649.7431	0.0042
649.9294	-0.0022
650.1156	0.0008
650.3018	0.0011
650.488	0.0047
650.6742	0.0102
650.8604	0.0023
651.0466	-0.0036
651.2327	0.0035
651.4188	0.0034
651.6049	0.005
651.791	-0.0028
651.9771	0.0056
652.1632	0.0069
652.3492	0.0075
652.5352	0.007
652.7212	0.0001
652.9072	0.0072
653.0932	0.0004
653.2791	0.0029
653.465	-0.0004
653.651	-0.0055
653.8369	0.0062
654.0227	0.0038
654.2086	0.0009
654.3944	0.0073
654.5803	0.0026
654.7661	-0.004
654.9519	0.0046
655.1377	-0.0033
655.3234	0.0043
655.5092	-0.0004
655.6949	-0.0072
655.8806	-0.0021
656.0663	0.003
656.2519	-0
656.4376	0.0013
656.6232	0.0046
656.8088	0.0002
656.9945	0.0026
657.18	-0.0031
657.3656	0.003
657.5511	-0.0063
657.7367	-0.0048
657.9222	0.0116
658.1077	0.0023
658.2932	0.0059
658.4786	-0.0006
658.6641	0.0049
658.8495	0.0039
659.0349	0.0035
659.2203	0.0088
659.4057	0.0034
659.591	0.004
659.7764	0.001
659.9617	0.0071
660.147	-0.0032
660.3323	0.0023
660.5176	0.0199
660.7028	0.0092
660.888	0.0033
661.0733	0.0103
661.2585	-0.01
661.4436	0.0069
661.6288	-0.0097
661.8139	-0.0032
661.9991	0.0053
662.1842	0.0012
662.3693	-0.0032
662.5544	-0.0007
662.7394	0.0046
662.9245	0.0054
663.1095	0.0067
663.2945	0.0052
663.4795	0.0092
663.6644	0.0064
663.8494	0.0146
664.0343	0.0124
664.2193	-0.0024
664.4042	0.0054
664.589	0.0035
664.7739	0.0009
664.9587	-0.0041
665.1436	0.0037
665.3284	0.0079
665.5132	0.0003
665.698	0.0008
665.8827	0.013
666.0675	0.0029
666.2522	0.0066
666.4369	0.008
666.6216	0.0092
666.8063	0.0035
666.9909	0.001
667.1756	0.0013
667.3602	0.0021
667.5448	-0.0002
667.7294	0.0119
667.9139	0.0088
668.0985	0.0135
668.283	0.0073
668.4675	0.0028
668.652	0.0017
668.8365	0.005
669.0209	0.0102
669.2054	0.0121
669.3898	0.0056
669.5742	0.0135
669.7586	0.0096
669.943	0.0135
670.1273	0.0143
670.3117	0.0071
670.496	0.0105
670.6803	0.0159
670.8646	0.0089
671.0488	0.0058
671.2331	0.0094
671.4173	0.0105
671.6015	0.0016
671.7857	0.0071
671.9699	0.01
672.1541	0.0063
672.3382	0.0082
672.5223	0.0054
672.7064	0.0028
672.8905	0.0147
673.0746	0.0082
673.2587	0.0039
673.4427	0.0073
673.6267	0.0104
673.8107	0.0152
673.9947	0.0061
674.1787	0.0044
674.3626	-0.0069
674.5465	0.0071
674.7304	0.0092
674.9143	0.0066
675.0982	0.0054
675.2821	-0.0113
675.4659	0.0033
675.6497	0.0057
675.8335	-0.003
676.0173	-0.0002
676.2011	0.0039
676.3849	0.0041
676.5686	-0.0047
676.7523	0.0021
676.936	0.0019
677.1197	0.0012
677.3034	-0.0018
677.487	0.0044
677.6706	0.002
677.8542	0.0012
678.0378	0.0088
678.2214	-0.0048
678.405	-0.002
678.5885	-0.0109
678.772	0.0013
678.9555	-0.0133
679.139	0.0011
679.3225	0.0015
679.5059	-0.0012
679.6894	0.0068
679.8728	0
680.0562	-0.009
680.2395	-0.0009
680.4229	-0.0027
680.6062	0.0043
680.7896	-0.0029
680.9729	-0.0018
681.1562	0.0018
681.3394	0.0084
681.5227	-0.0081
681.7059	0.0002
681.8891	0.0017
682.0723	0.0065
682.2555	0.0004
682.4387	0.0035
682.6218	0.0021
682.805	0.0014
682.9881	0.0035
683.1712	-0.0051
683.3542	-0.0017
683.5373	0.0049
683.7203	-0.0003
683.9034	-0.0013
684.0864	-0.0153
684.2694	-0.0052
684.4523	0.0059
684.6353	-0.0079
684.8182	-0.0031
685.0011	-0.011
685.184	0.0029
685.3669	-0.0046
685.5498	-0.0012
685.7326	0.0062
685.9154	-0.0037
686.0982	0.0071
686.281	0.0054
686.4638	0.0054
686.6465	-0.0011
686.8293	0.0012
687.012	0.0023
687.1947	-0.0027
687.3774	0.0086
687.56	-0.004
687.7427	0.0096
687.9253	0.006
688.1079	0.002
688.2905	0.0124
688.4731	-0.0033
688.6556	0.0043
688.8382	0.0015
689.0207	0.0031
689.2032	-0.0047
689.3857	0.0077
689.5681	0.0039
689.7506	-0.0028
689.933	0.0026
690.1154	0.0024
690.2978	-0.0004
690.4802	0.0066
690.6626	-0.0046
690.8449	0.0007
691.0272	0.0076
691.2095	0.0001
691.3918	-0.0019
691.5741	0.0048
691.7563	0.0017
691.9386	0.0043
692.1208	-0.0058
692.303	0.0028
692.4852	0.0071
692.6673	0.0044
692.8495	0.0035
693.0316	0.0024
693.2137	0.0031
693.3958	-0.0003
693.5778	0.0038
693.7599	0
693.9419	-0.0003
694.1239	0.0032
694.3059	-0.003
694.4879	0.0026
694.6699	0.0074
694.8518	0.0059
695.0337	-0.0005
695.2157	0.0031
695.3975	0.0091
695.5794	-0.0002
695.7613	-0.0004
695.9431	-0.0022
696.1249	0.0086
696.3067	0.0003
696.4885	0.0085
696.6703	-0.0084
696.852	0.0047
697.0337	0.013
697.2154	0.0018
697.3971	0.0029
697.5788	0.0085
697.7605	0
697.9421	0.0057
698.1237	-0.0024
698.3053	-0.0005
698.4869	-0.0001
698.6685	-0.0051
698.85	0.0015
699.0315	0.0116
699.213	-0.0008
699.3945	0.0053
699.576	0.0053
699.7575	0.0036
699.9389	0.0151
700.1203	0.0055
700.3017	-0.0003
700.4831	-0.0018
700.6645	-0.0015
700.8458	0.0054
701.0271	-0.0026
701.2084	0.007
701.3897	0.0068
701.571	0.0096
701.7523	-0.0078
701.9335	0.0078
702.1147	0.0017
702.2959	0.0015
702.4771	0.003
702.6583	0.0024
702.8394	-0.0061
703.0205	0.0013
703.2016	-0.0039
703.3827	-0.0031
703.5638	-0.0027
703.7449	0.0012
703.9259	0.0042
704.1069	-0.0112
704.2879	-0.0041
704.4689	-0.0029
704.6499	0.0028
704.8308	-0.0053
705.0117	-0.0024
705.1927	0.0023
705.3735	-0.0015
705.5544	-0.0042
705.7353	-0.0077
705.9161	-0.007
706.0969	-0.007
706.2777	0.0025
706.4585	0.0056
706.6393	0.0006
706.82	0.0053
707.0007	0.0095
707.1815	0.0038
707.3621	0.0168
707.5428	0.0169
707.7235	0.0063
707.9041	0.0105
708.0847	-0.0035
708.2653	0.0009
708.4459	-0.0052
708.6265	-0.0036
708.807	-0.0004
708.9875	-0.0074
709.168	-0.0016
709.3485	-0.0009
709.529	-0.0023
709.7095	-0.0038
709.8899	0.0002
710.0703	-0.0097
710.2507	0.0088
710.4311	-0.0032
710.6115	-0.0066
710.7918	-0.0021
710.9721	0.0016
711.1524	-0.0051
711.3327	0.0021
711.513	-0.0034
711.6932	0.0029
711.8735	0.0054
712.0537	0.0021
712.2339	-0.0059
712.4141	-0.0095
712.5942	-0.0021
712.7744	0.0033
712.9545	-0.0071
713.1346	-0.0011
713.3147	0.0008
713.4947	-0.0018
713.6748	-0.006
713.8548	-0.0009
714.0348	0.0037
714.2148	-0.003
714.3948	0.0037
714.5748	-0.0041
714.7547	-0.0032
714.9346	0.0047
715.1145	-0.0022
715.2944	-0.005
715.4743	-0.0057
715.6541	-0.0015
715.834	0.0044
716.0138	-0.0041
716.1936	-0.0115
716.3733	-0.0048
716.5531	0.0052
716.7328	-0.0072
716.9126	-0.0011
717.0923	0.0087
717.2719	0.0057
717.4516	0.0101
717.6312	0.0107
717.8109	-0.0061
717.9905	0.0112
718.1701	0.0001
718.3496	-0.0089
718.5292	0.0046
718.7087	0.0033
718.8882	-0.0045
719.0677	0.0044
719.2472	-0.0065
719.4267	-0.0051
719.6061	0.004
719.7856	0.0016
719.965	0.008
720.1443	-0
720.3237	0.0073
720.5031	-0.0041
720.6824	0.0067
720.8617	0.0042
721.041	0.0018
721.2203	0.0036
721.3995	0.0077
721.5788	0.0031
721.758	-0.0012
721.9372	0.0003
722.1164	0.0027
722.2956	0.0039
722.4747	-0.0008
722.6538	0.0043
722.8329	0.0168
723.012	0.0095
723.1911	0.0085
723.3702	0.0061
723.5492	0.0023
723.7282	0.0076
723.9072	0.0038
724.0862	0.0033
724.2652	-0.0025
724.4441	0.001
724.623	0.0028
724.8019	-0.0033
724.9808	0.004
725.1597	-0.0119
725.3385	0.0041
725.5174	0.0032
725.6962	-0.0013
725.875	0.0028
726.0538	0.0079
726.2325	0.0019
726.4112	-0.0018
726.59	-0.0098
726.7687	-0.0054
726.9474	0.0054
727.126	-0.0075
727.3047	-0.0101
727.4833	-0.0058
727.6619	-0.007
727.8405	-0.0056
728.0191	-0.012
728.1976	0.0012
728.3762	-0.0013
728.5547	0.0022
728.7332	-0.0117
728.9116	0.0018
729.0901	0.0167
729.2686	-0.007
729.447	0.0021
729.6254	0.0045
729.8038	-0.0063
729.9821	-0.0111
730.1605	-0.0002
730.3388	-0.0047
730.5171	-0.0043
730.6954	-0.0088
730.8737	0.0021
731.0519	0.0015
731.2302	0.0033
731.4084	0.0061
731.5866	0.0053
731.7648	-0.0042
731.9429	0.0029
732.1211	-0.0015
732.2992	0.0011
732.4773	0.0018
732.6554	0.0016
732.8335	0.0015
733.0115	0.0045
733.1896	0.003
733.3676	-0.0053
733.5456	0.002
733.7235	0.0133
733.9015	-0.0022
734.0794	0.0078
734.2574	0.0032
734.4353	0.0023
734.6131	0.0143
734.791	-0.0006
734.9689	0.0103
735.1467	0.0079
735.3245	0.0036
735.5023	0.0028
735.68	0.0139
735.8578	0.0119
736.0355	-0.0072
736.2132	0.0033
736.3909	0.0102
736.5686	-0.0087
736.7463	0.0082
736.9239	-0.0015
737.1015	0.0047
737.2791	0.0096
737.4567	0.0049
737.6343	0.0037
737.8118	-0.001
737.9894	0.0063
738.1669	-0.0108
738.3444	-0.003
738.5218	0.0017
738.6993	0.0004
738.8767	0.0026
739.0541	0.0052
739.2315	-0.0152
739.4089	-0.0028
739.5863	0.0048
739.7636	-0.0087
739.9409	0.0026
740.1182	0.0078
740.2955	0.0053
740.4728	0.0018
740.65	-0.0003
740.8272	0.0034
741.0044	-0.0048
741.1816	-0.0019
741.3588	0.0004
741.5359	0.0024
741.7131	-0.0107
741.8902	-0.0091
742.0673	0.0041
742.2444	-0.0055
742.4214	-0.0016
742.5985	-0.0061
742.7755	-0.0078
742.9525	-0.0175
743.1295	-0.0025
743.3064	0.0027
743.4834	0.0178
743.6603	-0.0054
743.8372	-0.0006
744.0141	0.0017
744.191	0.0031
744.3678	0.0007
744.5446	0.0001
744.7215	-0.0025
744.8982	-0.0019
745.075	-0.0076
745.2518	0.0017
745.4285	0.0047
745.6052	-0.0065
745.7819	-0.0055
745.9586	-0.0063
746.1353	0.0019
746.3119	-0.0111
746.4885	-0.0052
746.6651	-0.0044
746.8417	-0.0021
747.0183	0.0021
747.1948	0.0003
747.3714	-0.0037
747.5479	-0.0016
747.7244	-0.0064
747.9008	-0
748.0773	0.0018
748.2537	0.0022
748.4301	-0.0075
748.6065	0.0031
748.7829	0.0041
748.9593	-0.0049
749.1356	0.0002
749.3119	0.0059
749.4882	-0.0032
749.6645	0.0052
749.8408	-0.0072
750.017	-0.0104
750.1933	-0.0006
750.3695	-0.0038
750.5457	-0.0075
750.7218	-0.005
750.898	0.0065
751.0741	-0.0032
751.2502	-0.0015
751.4263	-0.0102
751.6024	0.0053
751.7784	-0.005
751.9545	-0.0052
752.1305	-0.0006
752.3065	0.0018
752.4825	0.006
752.6584	-0.0037
752.8344	-0.0023
753.0103	-0.0001
753.1862	-0.0072
753.3621	0.0039
753.5379	-0.0058
753.7138	0.0028
753.8896	-0.0005
754.0654	0.0024
754.2412	0.0018
754.417	0.0032
754.5927	-0.0065
754.7685	-0.0018
754.9442	-0.005
755.1199	0.0059
755.2956	0.0097
755.4712	0.0067
755.6469	0.0012
755.8225	-0.0088
755.9981	-0.0048
756.1736	0.0012
756.3492	0.0011
756.5248	-0.0027
756.7003	-0.0077
756.8758	0.0099
757.0513	-0.0124
757.2267	-0.0033
757.4022	0.0023
757.5776	-0.0093
757.753	-0.0041
757.9284	-0.0061
758.1038	0.0016
758.2791	0.0031
758.4545	-0.0106
758.6298	-0.0043
758.8051	-0.0037
758.9803	-0.0084
759.1556	-0.0086
759.3308	-0.0079
759.506	0.0045
759.6812	-0.0069
759.8564	0.006
760.0316	0.001
760.2067	0.0036
760.3819	0.003
760.557	0.017
760.732	0.0022
760.9071	-0.0026
761.0821	-0.0005
761.2572	0.0002
761.4322	0.0018
761.6072	-0.0015
761.7821	-0.0058
761.9571	-0.0036
762.132	-0.0069
762.3069	-0.0055
762.4818	-0.0145
762.6567	-0.0067
762.8316	-0.0046
763.0064	-0.0009
763.1812	0.0024
763.356	-0.007
763.5308	-0.0085
763.7055	-0.005
763.8803	-0.0035
764.055	-0.0066
764.2297	-0.0032
764.4044	-0.0011
764.579	-0.0022
764.7537	-0.009
764.9283	0.004
765.1029	-0.0016
765.2775	-0.0052
765.4521	-0.0042
765.6266	0
765.8011	-0.0035
765.9756	-0.0028
766.1501	0.0032
766.3246	0.007
766.4991	-0.0007
766.6735	0.01
766.8479	-0.0038
767.0223	0.0187
767.1967	0.0034
767.371	0.0021
767.5454	0.0054
767.7197	0.0004
767.894	0.0001
768.0683	-0.0041
768.2425	-0.0017
768.4168	0.0021
768.591	0.0026
768.7652	0.0024
768.9394	0.0035
769.1135	0.0041
769.2877	0.0026
769.4618	-0.0103
769.6359	-0.0042
769.81	-0.0041
769.984	-0.0057
770.1581	-0.0046
770.3321	0.0003
770.5061	-0.0175
770.6801	-0.0121
770.8541	0.0019
771.028	0.0058
771.202	-0.0107
771.3759	0.0022
771.5498	0.0054
771.7236	0.0103
771.8975	0.0025
772.0713	0.0056
772.2451	0.0034
772.4189	0.007
772.5927	0.0088
772.7665	0.0007
772.9402	0.0036
773.1139	-0.0012
773.2876	0.0041
773.4613	0.0079
773.635	0.0162
773.8086	-0.0075
773.9822	0.002
774.1558	0.0193
774.3294	-0.0091
774.503	0.0099
774.6765	0.0024
774.8501	0.0104
775.0236	0.0143
775.1971	0.0181
775.3705	-0.0019
775.544	0.0152
775.7174	0.0053
775.8908	0.0128
776.0642	-0.0041
776.2376	0.0102
776.4109	-0.007
776.5843	0.0055
776.7576	0.012
776.9309	0.0186
777.1041	0.0155
777.2774	0.0191
777.4506	-0.0036
777.6238	0.0037
777.797	0.0092
777.9702	-0.0023
778.1434	0.0022
778.3165	0.0021
778.4896	-0.0052
778.6627	0.0076
778.8358	0
779.0089	-0.0074
779.1819	-0.0043
779.3549	0.0066
779.5279	0.0094
779.7009	-0.0063
779.8739	0.0053
780.0468	0.0013
780.2197	0.0025
780.3926	-0.0076
780.5655	-0.0012
780.7384	-0.0027
780.9112	0.0051
781.0841	-0.0105
781.2569	-0.001
781.4297	0.0021
781.6024	0.0068
781.7752	-0.0056
781.9479	0.0082
782.1206	0.0059
782.2933	-0.0005
782.466	0.0109
782.6386	0.0029
782.8113	0.0103
782.9839	0.0031
783.1565	0.0046
783.329	0.0123
783.5016	0.0042
783.6741	0.0038
783.8466	-0.0021
784.0191	0.023
784.1916	0.0137
784.3641	0.0225
784.5365	0.0155
784.7089	-0.001
784.8813	-0.0064
785.0537	0.0046
785.2261	-0.0035
785.3984	-0.0046
785.5707	-0.0081
785.743	0.0051
785.9153	0.0078
786.0876	0.012
786.2598	0.0082
786.432	-0.0134
786.6042	0.0041
786.7764	-0.0082
786.9486	0.0045
787.1207	0.005
787.2928	0.004
787.4649	0.0098
787.637	0.0013
787.8091	-0.0022
787.9811	-0.0012
788.1532	-0.0033
788.3252	0.007
788.4972	0.0058
788.6691	0.0046
788.8411	-0.0036
789.013	-0.0056
789.1849	0.0063
789.3568	-0.0026
789.5287	0.0001
789.7005	-0.0019
789.8723	0.0086
790.0442	0.013
790.2159	0.006
790.3877	0.0019
790.5595	-0.0076
790.7312	0.0134
790.9029	-0.0044
791.0746	-0.0081
791.2463	0.0041
791.4179	-0.0001
791.5896	-0.0181
791.7612	0.007
791.9328	0.0202
792.1044	0.0018
792.2759	-0.0149
792.4474	-0.0132
792.619	-0.0028
792.7905	-0.0003
792.9619	0.0094
793.1334	0.0011
793.3048	0.0093
793.4762	0.0106
793.6476	0.0173
793.819	-0.0067
793.9904	-0.0039
794.1617	-0.0033
794.333	0.0058
794.5043	-0.0327
794.6756	-0.0056
794.8469	-0.0104
795.0181	-0.0101
795.1893	0.0057
795.3605	0.0182
795.5317	-0.0056
795.7029	0.0059
795.874	0.0013
796.0452	-0.0029
796.2163	0.0101
796.3873	0.0216
796.5584	0.0106
796.7294	-0.0087
796.9005	0.0122
797.0715	0.0121
797.2425	-0.0083
797.4134	0.0052
797.5844	0.0086
797.7553	-0.002
797.9262	0.0019
798.0971	0.0025
798.2679	-0.0099
798.4388	-0.0049
798.6096	-0.0077
798.7804	0.0101
798.9512	0.0139
799.122	0.0067
799.2927	0.0064
799.4635	0.0157
799.6342	-0.0202
799.8049	-0.0154
799.9755	-0.0083
800.1462	0.0098
800.3168	0.0012
800.4874	0.0034
800.658	0.0385
800.8286	-0.004
800.9991	0.014
801.1696	0.0142
801.3402	0.0131
801.5106	0.0091
801.6811	0.0134
801.8516	0.007
802.022	0.0111
802.1924	0.0025
802.3628	0.0196
802.5332	0.0229
802.7035	0.0178
802.8739	0.0047
803.0442	-0.0081
803.2145	0.0154
803.3847	-0.0077
803.555	0.0078
803.7252	-0.0144
803.8954	-0.0154
804.0656	-0.0133
804.2358	-0.0008
804.4059	0.0194
804.5761	0.0077
804.7462	0.0058
804.9163	0.0185
805.0864	0.0064
805.2564	-0.0139
805.4264	-0.0028
805.5965	-0.0068
805.7665	-0.0027
805.9364	0.0014
806.1064	0.0339
806.2763	0.0105
806.4462	0.0161
806.6161	0.0027
806.786	-0.004
806.9559	0.0005
807.1257	-0.0168
807.2955	-0.0066
807.4653	0.001
807.6351	0.0022
807.8048	0.0136
807.9746	0.0147
808.1443	-0.0011
808.314	-0.0056
808.4837	-0.0079
808.6533	0.0139
808.8229	0.0283
808.9926	0.0078
809.1622	-0.0061
809.3317	-0.0133
809.5013	0.0153
809.6708	0.0067
809.8403	0.0289
810.0098	0.0008
810.1793	0.0184
810.3488	0.0196
810.5182	-0.009
810.6876	0.0242
810.857	-0.0089
811.0264	0.021
811.1958	0.0195
811.3651	0.012
811.5344	0.0171
811.7037	-0.0059
811.873	0.0083
812.0422	0.0004
812.2115	0.0009
812.3807	-0.015
812.5499	0.0163
812.7191	0.0025
812.8882	-0.0064
813.0574	-0.0119
813.2265	0.0159
813.3956	0.0053
813.5646	0.0158
813.7337	-0.0122
813.9027	0.0257
814.0718	0.033
814.2407	0.0137
814.4097	-0.0131
814.5787	-0.0005
814.7476	0.0018
814.9165	0.0099
815.0854	0.0216
815.2543	-0.0124
815.4232	0.0246
815.592	0.0321
815.7608	0.0043
815.9296	0.0211
816.0984	0.0205
816.2671	0.0037
816.4359	0.0013
816.6046	0.0151
816.7733	-0.0069
816.942	-0.0297
817.1106	0.0255
817.2793	0.018
817.4479	-0.0017
817.6165	0.016
817.785	0.0218
817.9536	-0.0157
818.1221	0.0066
818.2906	0.0049
818.4591	0.0134
818.6276	-0.0116
818.7961	0.0038
818.9645	0.0296
819.1329	0.015
819.3013	0.0083
819.4697	0.038
819.638	0.023
819.8064	0.0108
819.9747	0.0036
820.143	-0.0063
820.3113	0.0071
820.4795	0.0169
820.6477	0.0008
820.816	0.022
820.9842	-0.0031
821.1523	0.0045
821.3205	0.0149
821.4886	0.0167
821.6567	-0.0087
821.8248	0.0046
821.9929	0.0235
822.1609	0.0197
822.329	0.0143
822.497	0.0269
822.665	0.0138
822.833	-0.0117
823.0009	0.0276
823.1688	0.0139
823.3367	0.0307
823.5046	0.0169
823.6725	0.0483
823.8404	0.0021
824.0082	0.0276
824.176	0.0191
824.3438	0.0264
824.5116	-0.009
824.6793	0.0255
824.847	0.0076
825.0147	-0.0116
825.1824	0.0169
825.3501	0.0208
825.5177	-0.0198
825.6854	-0.0011
825.853	0.0215
826.0206	0.0039
826.1881	0.0088
826.3557	-0.0179
826.5232	0.0382
826.6907	-0.0074
826.8582	-0.0008
827.0257	0.0048
827.1931	0.0214
827.3605	0.0261
827.528	0.0086
827.6953	-0.018
827.8627	-0.0086
828.03	0.0581
828.1974	0.0011
828.3647	-0.0453
828.532	-0.0294
828.6992	0.0256
828.8665	0.0197
829.0337	-0.021
829.2009	0.0217
829.3681	-0.0024
829.5352	0.0577
829.7024	-0.0009
829.8695	-0.0254
830.0366	0.0301
830.2037	0.0126
830.3707	0.0056
830.5378	-0.0046
830.7048	0.0013
830.8718	-0.0174
831.0388	0.0202
831.2057	0.0002
831.3727	0.0231
831.5396	-0.0071
831.7065	0.0136
831.8734	-0.01
832.0402	0.0123
832.2071	0.018
832.3739	-0.0388
832.5407	0.0032
832.7075	-0.0259
832.8742	-0.0119
833.041	-0.035
833.2077	0.0002
833.3744	0.027
833.541	0.0051
833.7077	0.0002
833.8743	-0.014
834.0409	-0.0166
834.2075	-0.0123
834.3741	-0.0083
834.5407	0.0197
834.7072	0.0073
834.8737	-0.0218
835.0402	-0.0156
835.2067	-0.0029
835.3731	0.044
835.5395	0.0185
835.706	0.0035
835.8723	0.0331
836.0387	0.0347
836.2051	-0.0427
836.3714	0.027
836.5377	-0.0213
836.704	-0.0054
836.8703	-0.0036
837.0365	-0.0027
837.2027	0.0087
837.3689	-0.0058
837.5351	0.0109
837.7013	-0.0325
837.8674	-0.0202
838.0335	0.0003
838.1997	0.0085
838.3657	-0.0643
838.5318	-0.0334
838.6978	0.0378
838.8639	0.0326
839.0299	0.0188
839.1958	0.0162
839.3618	0.0232
839.5277	0.0277
839.6937	0.0163
839.8596	0.0039
840.0254	-0.0047
840.1913	0.0446
840.3571	-0.0277
840.523	-0.072
840.6888	-0.0425
840.8545	-0.0339
841.0203	0.0397
841.186	-0.0048
841.3517	0.0252
841.5174	-0.0461
841.6831	0.0098
841.8488	-0.0259
842.0144	-0.034
842.18	0.0003
842.3456	-0.0181
842.5112	-0.0449
842.6767	-0.0328
842.8422	-0.0385
843.0077	-0.0078
843.1732	-0.0584
843.3387	-0.0539
843.5042	0.0027
843.6696	-0.008
843.835	0.0271
844.0004	0.0212
844.1657	0.0326
844.3311	-0.0034
844.4964	-0.102
844.6617	0.0026
844.827	-0.0663
844.9923	-0.0175
845.1575	0.0137
845.3227	-0.0042
845.4879	-0.0205
845.6531	-0.09
845.8183	-0.0518
845.9834	0.008
846.1485	-0.0188
846.3136	-0.0555
846.4787	-0.1571
846.6438	0.0947
846.8088	0.0521
846.9738	-0.0655
847.1388	0.0388
847.3038	0.0303
847.4687	-0.0931
847.6337	0.007
847.7986	-0.0152
847.9635	0.0201
848.1284	-0.0196
848.2932	0.0147
848.458	0.0197
848.6228	0.1287
848.7876	0.096
848.9524	-0.0358
849.1172	-0.0568
849.2819	0.0118
849.4466	-0.1086
849.6113	-0.0694
849.7759	-0.0503
849.9406	-0.0372
850.1052	0.0004
850.2698	-0.0512
850.4344	-0.0033
850.599	-0.0761
850.7635	0.0481
850.928	-0.0963
851.0925	-0.0397
851.257	0.0513
851.4215	0.0466
851.5859	0.0007
851.7503	0.0098
851.9147	-0.0266
852.0791	-0.0816
852.2434	-0.0742
852.4078	0.0209
852.5721	0.0574
852.7364	-0.0134
852.9007	-0.1624
853.0649	-0.0442
853.2291	-0.0041
853.3934	-0.085
853.5575	0.035
853.7217	-0.0073
853.8859	-0.107
854.05	-0.0699
854.2141	-0.0598
854.3782	-0.1
854.5423	-0.113
854.7063	0.14
854.8703	-0.0413
855.0343	-0.0972
855.1983	-0.0709
855.3623	0.174
855.5262	-0.0309
855.6901	-0.0833
855.854	-0.0136
856.0179	0.0756
856.1818	0.1174
856.3456	-0.1519
856.5094	-0.2156
856.6732	-0.0974
856.837	-0.1329
857.0008	0.0746
857.1645	-0.1271
857.3282	-0.0919
857.4919	0.1219
857.6556	-0.0303
857.8192	0.0354
857.9828	0.0183
858.1465	-0.0103
858.31	-0.2288
858.4736	0.0214
858.6372	-0.1558
858.8007	-0.1247
858.9642	-0.2412
859.1277	0.072
859.2911	-0.0166
859.4546	0.0623
859.618	-0.2942
859.7814	-0.0467
859.9448	0.0425
860.1081	-0.1416
860.2715	0.0985
860.4348	0.1443
860.5981	-0.0879
860.7614	0.0335
860.9246	-0.0417
861.0879	-0.2596
861.2511	-0.02
861.4143	0.2024
861.5774	0.1776
861.7406	-0.0319
861.9037	-0.2192
862.0668	-0.1247
862.2299	0.0172
862.393	-0.6075
862.556	0.0274
862.7191	-0.4068
862.8821	0.0325
863.0451	0.0935
863.208	0.0185
863.371	-0.1455
863.5339	-0.315
863.6968	-0.0994
863.8597	-0.1412
864.0225	0.0141
864.1854	-0.1551
864.3482	-0
864.511	0.0059
864.6737	-0.1609
864.8365	-0.1209
864.9992	-0.4265
865.1619	0.1999
865.3246	-0.3255
865.4873	-0.0915
865.65	0.1748
865.8126	-0.1266
865.9752	0.0299
866.1378	-0.2919
866.3004	-0.2759
866.4629	0.1604
866.6254	-0.1344
866.7879	-0.0513
866.9504	1.3139
867.1129	-0
867.2753	0.0545
867.4377	0.18
867.6001	-0.3974
867.7625	-0.1401
867.9249	-0.6772
868.0872	0.2405
868.2495	0.1193
868.4118	-0.0393
868.5741	-0.327
868.7363	0.0699
868.8986	-0.4469
869.0608	-0.213
869.223	0.0067
869.3851	-0
869.5473	-0
869.7094	0.0442
869.8715	-0.3099
870.0336	-0
870.1957	-0.0276
870.3577	-0.6488
870.5197	0.2559
870.6817	-0.2163
870.8437	0.0671
871.0057	-0.6838
871.1676	0.1725
871.3295	0.1509
871.4914	-0
871.6533	-0.3869
871.8151	-0.443
871.977	-0
872.1388	-0
872.3006	-0
872.4623	0.8638
872.6241	0.1198
872.7858	0.3991
872.9475	-0.2775
873.1092	-0.2292
873.2709	-0
873.4325	1.6253
873.5941	0.7847
873.7557	-0
873.9173	-0
874.0789	-0.5064
874.2404	-0.8757
874.4019	0.1893
874.5634	-0.3105
874.7249	-0.3169
874.8863	0.0267
875.0478	0.5198
875.2092	-0
875.3706	-0.1171
875.5319	-0.664
875.6933	0.2734
875.8546	-0.2594
876.0159	0.6776
876.1772	0.3086
876.3385	-0
876.4997	0.2631
876.6609	-0.3929
876.8221	-0
876.9833	0.2497
877.1445	-0
877.3056	0.2325
877.4667	-0.5565
877.6278	-0.3526
877.7889	-0.9345
877.9499	-0
878.111	-0.1807
878.272	-1.0825
878.433	-0
878.5939	-0
878.7549	-0.1392
878.9158	-0.8978
879.0767	-0
879.2376	-0
879.3984	-0.0329
879.5593	-0
879.7201	0.0554
879.8809	0.4236
880.0417	-0.4083
880.2024	-0.0317
880.3632	-1.0414
880.5239	0.2289
880.6846	1.0813
880.8452	-2.4393
881.0059	-1.5289
881.1665	0.2286
881.3271	-0
881.4877	0.0611
881.6483	-0.2927
881.8088	-0.4993
881.9693	-0
882.1298	-0
882.2903	-0
