Data from MonoPyChalIsomerACN10uM360nmA_Absorbance_13-57-28-604.txt Node
Date: Fri Jul 05 13:57:28 BST 2024
User: LASERRRRR
Spectrometer: FLMT03099
Trigger mode: 0
Integration Time (sec): 1.000000E-1
Scans to average: 1
Electric dark correction enabled: true
Nonlinearity correction enabled: false
Boxcar width: 0
XAxis mode: Wavelengths
Number of Pixels in Spectrum: 3648
>>>>>Begin Spectral Data<<<<<
179.3399	-0.4497
179.5586	-0.4497
179.7771	-0.4497
179.9957	0.4857
180.2143	-0
180.4329	-0.5546
180.6514	0.5931
180.8699	-0
181.0885	-0.2869
181.307	0.0755
181.5255	-0
181.744	-0.8063
181.9625	-0
182.181	-0
182.3994	0.6359
182.6179	-0
182.8363	-0.2397
183.0547	-0.0698
183.2732	0.0507
183.4916	0.0131
183.71	-0.0655
183.9284	0.2744
184.1467	-0.1141
184.3651	-0.184
184.5835	0.1182
184.8018	-0.0785
185.0201	0.4695
185.2385	0.1725
185.4568	0.2995
185.6751	0.1337
185.8934	0.2747
186.1117	-0.043
186.3299	0.2616
186.5482	0.2076
186.7664	-0.1166
186.9847	-0.1016
187.2029	-0.0722
187.4211	0.3294
187.6393	0.2223
187.8575	-0.1324
188.0757	0.3238
188.2939	0.1521
188.512	0.2119
188.7302	0.1778
188.9483	-0.1267
189.1665	0.1878
189.3846	-0.1123
189.6027	0.2482
189.8208	0.289
190.0389	0.1473
190.257	0.1426
190.475	0.1609
190.6931	0.3266
190.9111	0.251
191.1292	0.3169
191.3472	0.5926
191.5652	0.2986
191.7832	0.0778
192.0012	0.478
192.2192	0.3963
192.4371	0.4244
192.6551	0.4885
192.873	0.3864
193.091	0.3678
193.3089	0.6427
193.5268	0.5597
193.7447	0.4727
193.9626	0.5494
194.1805	0.6154
194.3984	1.3105
194.6162	0.6141
194.8341	0.4472
195.0519	0.8411
195.2697	1.0232
195.4875	1.1271
195.7054	0.6823
195.9231	0.5161
196.1409	0.5675
196.3587	0.6043
196.5765	0.7406
196.7942	0.5894
197.012	0.4667
197.2297	0.5645
197.4474	0.7157
197.6651	0.6776
197.8828	0.6083
198.1005	0.7155
198.3182	0.5559
198.5358	0.7655
198.7535	0.5494
198.9711	0.5613
199.1888	0.6113
199.4064	0.8946
199.624	0.8637
199.8416	0.5738
200.0592	0.6805
200.2767	0.6488
200.4943	0.6377
200.7119	0.7773
200.9294	0.748
201.1469	0.5852
201.3645	0.5362
201.582	0.5783
201.7995	0.6697
202.017	0.6677
202.2344	0.5993
202.4519	0.6284
202.6694	0.6788
202.8868	0.6299
203.1042	0.6666
203.3217	0.7198
203.5391	0.7101
203.7565	0.6092
203.9739	0.63
204.1913	0.6177
204.4086	0.8122
204.626	0.6879
204.8433	0.5819
205.0607	0.6356
205.278	0.6788
205.4953	0.6928
205.7126	0.6085
205.9299	0.7115
206.1472	0.7066
206.3644	0.6181
206.5817	0.6283
206.7989	0.6701
207.0162	0.5289
207.2334	0.6374
207.4506	0.6403
207.6678	0.5952
207.885	0.6754
208.1022	0.6769
208.3194	0.6329
208.5365	0.6365
208.7537	0.5768
208.9708	0.5774
209.1879	0.6039
209.405	0.6589
209.6222	0.7064
209.8392	0.6529
210.0563	0.6586
210.2734	0.6719
210.4905	0.724
210.7075	0.5912
210.9245	0.566
211.1416	0.7172
211.3586	0.5942
211.5756	0.5764
211.7926	0.6143
212.0096	0.5909
212.2265	0.6102
212.4435	0.5012
212.6604	0.5727
212.8774	0.6088
213.0943	0.5292
213.3112	0.5263
213.5281	0.5125
213.745	0.5345
213.9619	0.4985
214.1788	0.5037
214.3956	0.4553
214.6125	0.454
214.8293	0.4362
215.0461	0.4447
215.2629	0.4685
215.4798	0.4563
215.6965	0.4353
215.9133	0.4552
216.1301	0.4089
216.3469	0.4144
216.5636	0.4185
216.7803	0.3983
216.9971	0.4137
217.2138	0.3747
217.4305	0.369
217.6472	0.3255
217.8639	0.3916
218.0805	0.3374
218.2972	0.3261
218.5138	0.311
218.7305	0.3343
218.9471	0.3143
219.1637	0.2931
219.3803	0.2829
219.5969	0.2853
219.8135	0.2728
220.0301	0.28
220.2466	0.2733
220.4632	0.2674
220.6797	0.2415
220.8962	0.2237
221.1127	0.2691
221.3292	0.2443
221.5457	0.2911
221.7622	0.2253
221.9787	0.2711
222.1951	0.2486
222.4116	0.2811
222.628	0.2517
222.8444	0.2421
223.0608	0.2733
223.2772	0.2633
223.4936	0.2622
223.71	0.2523
223.9264	0.2777
224.1427	0.2439
224.3591	0.2637
224.5754	0.2535
224.7917	0.2647
225.008	0.2607
225.2243	0.2757
225.4406	0.316
225.6569	0.2716
225.8732	0.27
226.0894	0.2613
226.3057	0.2651
226.5219	0.3103
226.7381	0.2765
226.9543	0.2734
227.1705	0.2852
227.3867	0.2762
227.6029	0.2952
227.8191	0.3099
228.0352	0.3055
228.2513	0.3079
228.4675	0.3136
228.6836	0.2981
228.8997	0.2968
229.1158	0.3184
229.3319	0.3134
229.548	0.3198
229.764	0.3361
229.9801	0.3227
230.1961	0.3444
230.4121	0.3209
230.6282	0.3387
230.8442	0.329
231.0602	0.3593
231.2761	0.3911
231.4921	0.3454
231.7081	0.3511
231.924	0.3615
232.14	0.3699
232.3559	0.3479
232.5718	0.3596
232.7877	0.3641
233.0036	0.344
233.2195	0.3701
233.4353	0.3739
233.6512	0.3709
233.867	0.3844
234.0829	0.3575
234.2987	0.3774
234.5145	0.3893
234.7303	0.3855
234.9461	0.3851
235.1619	0.3845
235.3776	0.3817
235.5934	0.3866
235.8091	0.3724
236.0249	0.3693
236.2406	0.3764
236.4563	0.3822
236.672	0.3919
236.8877	0.4121
237.1034	0.4005
237.319	0.3981
237.5347	0.3929
237.7503	0.3943
237.966	0.4182
238.1816	0.4273
238.3972	0.4026
238.6128	0.41
238.8284	0.4132
239.0439	0.4058
239.2595	0.4121
239.475	0.4162
239.6906	0.4152
239.9061	0.3959
240.1216	0.4031
240.3371	0.3991
240.5526	0.3971
240.7681	0.4261
240.9836	0.404
241.199	0.4134
241.4145	0.3839
241.6299	0.3695
241.8453	0.3985
242.0607	0.3975
242.2761	0.3673
242.4915	0.3784
242.7069	0.377
242.9223	0.3561
243.1376	0.3538
243.353	0.3589
243.5683	0.352
243.7836	0.3329
243.9989	0.3332
244.2142	0.3211
244.4295	0.3262
244.6448	0.3178
244.86	0.3034
245.0753	0.2959
245.2905	0.2867
245.5057	0.2874
245.721	0.293
245.9362	0.2752
246.1514	0.2619
246.3665	0.2792
246.5817	0.2605
246.7969	0.2526
247.012	0.2604
247.2271	0.2462
247.4423	0.2452
247.6574	0.2481
247.8725	0.2286
248.0876	0.221
248.3026	0.2188
248.5177	0.2259
248.7328	0.2169
248.9478	0.2023
249.1628	0.2149
249.3779	0.216
249.5929	0.2052
249.8079	0.2222
250.0228	0.2088
250.2378	0.19
250.4528	0.2076
250.6677	0.1953
250.8827	0.2072
251.0976	0.2006
251.3125	0.2041
251.5274	0.1736
251.7423	0.1942
251.9572	0.1839
252.172	0.1757
252.3869	0.1789
252.6017	0.1855
252.8166	0.1636
253.0314	0.16
253.2462	0.1781
253.461	0.1735
253.6758	0.1684
253.8906	0.1808
254.1053	0.1664
254.3201	0.1595
254.5348	0.1903
254.7496	0.1687
254.9643	0.1581
255.179	0.157
255.3937	0.1639
255.6083	0.1831
255.823	0.1923
256.0377	0.1757
256.2523	0.1698
256.467	0.1443
256.6816	0.1724
256.8962	0.1567
257.1108	0.1497
257.3254	0.1684
257.54	0.1618
257.7545	0.1666
257.9691	0.1761
258.1836	0.1681
258.3981	0.1753
258.6127	0.1776
258.8272	0.1525
259.0417	0.1687
259.2561	0.1625
259.4706	0.1689
259.6851	0.174
259.8995	0.1622
260.114	0.1585
260.3284	0.1567
260.5428	0.1589
260.7572	0.1676
260.9716	0.1699
261.186	0.1556
261.4003	0.16
261.6147	0.1735
261.829	0.1693
262.0433	0.1608
262.2577	0.1609
262.472	0.1678
262.6863	0.1448
262.9005	0.1686
263.1148	0.1626
263.3291	0.1525
263.5433	0.1701
263.7576	0.1482
263.9718	0.1726
264.186	0.1578
264.4002	0.1586
264.6144	0.1728
264.8286	0.1705
265.0427	0.1624
265.2569	0.1539
265.471	0.1572
265.6851	0.1575
265.8993	0.1632
266.1134	0.1532
266.3275	0.1571
266.5415	0.1642
266.7556	0.1693
266.9697	0.1713
267.1837	0.1637
267.3978	0.1741
267.6118	0.1785
267.8258	0.174
268.0398	0.155
268.2538	0.1699
268.4677	0.165
268.6817	0.1585
268.8957	0.161
269.1096	0.1518
269.3235	0.1676
269.5374	0.163
269.7514	0.1482
269.9652	0.1602
270.1791	0.1488
270.393	0.1494
270.6068	0.1588
270.8207	0.1524
271.0345	0.1422
271.2483	0.1392
271.4622	0.1475
271.676	0.1571
271.8897	0.1471
272.1035	0.1452
272.3173	0.1472
272.531	0.1469
272.7448	0.1468
272.9585	0.1463
273.1722	0.1465
273.3859	0.1501
273.5996	0.1359
273.8133	0.1497
274.0269	0.1424
274.2406	0.1359
274.4542	0.1431
274.6679	0.1489
274.8815	0.1449
275.0951	0.1537
275.3087	0.1541
275.5223	0.1523
275.7358	0.1436
275.9494	0.1468
276.1629	0.1461
276.3765	0.1424
276.59	0.1426
276.8035	0.1535
277.017	0.1483
277.2305	0.1357
277.444	0.1429
277.6574	0.1483
277.8709	0.1554
278.0843	0.1484
278.2978	0.1484
278.5112	0.1445
278.7246	0.1548
278.938	0.1499
279.1513	0.1471
279.3647	0.1624
279.5781	0.1545
279.7914	0.152
280.0047	0.1584
280.2181	0.1514
280.4314	0.1628
280.6447	0.155
280.8579	0.1542
281.0712	0.165
281.2845	0.1603
281.4977	0.1568
281.711	0.1534
281.9242	0.1424
282.1374	0.1507
282.3506	0.155
282.5638	0.1618
282.7769	0.1594
282.9901	0.1564
283.2033	0.16
283.4164	0.1669
283.6295	0.1527
283.8426	0.1528
284.0557	0.1438
284.2688	0.1728
284.4819	0.1572
284.695	0.1629
284.908	0.159
285.1211	0.1563
285.3341	0.1619
285.5471	0.1615
285.7601	0.1579
285.9731	0.1554
286.1861	0.1497
286.3991	0.1738
286.612	0.1725
286.825	0.1657
287.0379	0.1699
287.2508	0.17
287.4637	0.1644
287.6766	0.1548
287.8895	0.1676
288.1024	0.1776
288.3152	0.158
288.5281	0.1663
288.7409	0.163
288.9538	0.1548
289.1666	0.1691
289.3794	0.1629
289.5922	0.1636
289.8049	0.1723
290.0177	0.1677
290.2304	0.1664
290.4432	0.1702
290.6559	0.1698
290.8686	0.1671
291.0813	0.1695
291.294	0.1623
291.5067	0.1638
291.7194	0.1663
291.932	0.1665
292.1447	0.1605
292.3573	0.1539
292.5699	0.1733
292.7825	0.1595
292.9951	0.1637
293.2077	0.1674
293.4203	0.1591
293.6328	0.1531
293.8454	0.1772
294.0579	0.1597
294.2704	0.1608
294.4829	0.1524
294.6954	0.1673
294.9079	0.1549
295.1204	0.1556
295.3328	0.1563
295.5453	0.1622
295.7577	0.1554
295.9701	0.1608
296.1825	0.1665
296.3949	0.1524
296.6073	0.1579
296.8197	0.1546
297.0321	0.1803
297.2444	0.1592
297.4567	0.17
297.6691	0.1717
297.8814	0.1556
298.0937	0.1679
298.306	0.1741
298.5182	0.1605
298.7305	0.1665
298.9428	0.1662
299.155	0.1645
299.3672	0.1497
299.5794	0.1596
299.7916	0.1548
300.0038	0.1702
300.216	0.1619
300.4282	0.176
300.6403	0.1514
300.8525	0.1751
301.0646	0.1517
301.2767	0.1664
301.4888	0.1598
301.7009	0.1613
301.913	0.1578
302.125	0.1598
302.3371	0.1584
302.5491	0.1625
302.7612	0.1882
302.9732	0.1687
303.1852	0.158
303.3972	0.1694
303.6092	0.1439
303.8211	0.1475
304.0331	0.1471
304.245	0.1566
304.457	0.1487
304.6689	0.155
304.8808	0.166
305.0927	0.1468
305.3046	0.1545
305.5164	0.157
305.7283	0.1362
305.9401	0.1485
306.152	0.1451
306.3638	0.1543
306.5756	0.1428
306.7874	0.1446
306.9992	0.1527
307.2109	0.1367
307.4227	0.128
307.6344	0.1335
307.8462	0.1268
308.0579	0.1289
308.2696	0.1276
308.4813	0.1267
308.693	0.1362
308.9046	0.1359
309.1163	0.1305
309.328	0.1232
309.5396	0.1203
309.7512	0.1169
309.9628	0.1315
310.1744	0.1266
310.386	0.1235
310.5976	0.1246
310.8091	0.1173
311.0207	0.1154
311.2322	0.1198
311.4437	0.1159
311.6552	0.1087
311.8667	0.1146
312.0782	0.0962
312.2897	0.0976
312.5012	0.1123
312.7126	0.0986
312.924	0.1038
313.1355	0.1139
313.3469	0.1077
313.5583	0.1122
313.7696	0.1133
313.981	0.1052
314.1924	0.1007
314.4037	0.1071
314.6151	0.1129
314.8264	0.0938
315.0377	0.1034
315.249	0.1014
315.4603	0.1103
315.6716	0.1043
315.8828	0.0929
316.0941	0.1039
316.3053	0.0854
316.5165	0.0946
316.7277	0.0977
316.9389	0.1069
317.1501	0.0967
317.3613	0.1001
317.5724	0.0947
317.7836	0.1086
317.9947	0.0976
318.2058	0.0975
318.417	0.0922
318.6281	0.0907
318.8391	0.0952
319.0502	0.0994
319.2613	0.0999
319.4723	0.109
319.6834	0.0948
319.8944	0.0922
320.1054	0.1053
320.3164	0.1019
320.5274	0.0958
320.7383	0.1023
320.9493	0.1023
321.1602	0.1078
321.3712	0.0932
321.5821	0.1038
321.793	0.0992
322.0039	0.1075
322.2148	0.0993
322.4257	0.1088
322.6365	0.1059
322.8474	0.1068
323.0582	0.1066
323.269	0.1072
323.4798	0.1126
323.6906	0.1121
323.9014	0.1041
324.1122	0.1127
324.3229	0.1085
324.5337	0.0955
324.7444	0.0943
324.9551	0.1111
325.1658	0.1056
325.3765	0.1142
325.5872	0.1154
325.7979	0.1062
326.0085	0.1081
326.2192	0.1133
326.4298	0.1048
326.6404	0.0975
326.851	0.0914
327.0616	0.0925
327.2722	0.1125
327.4828	0.0978
327.6933	0.1013
327.9039	0.1096
328.1144	0.1209
328.3249	0.1148
328.5354	0.1042
328.7459	0.0954
328.9564	0.0982
329.1669	0.1047
329.3773	0.1079
329.5878	0.1099
329.7982	0.112
330.0086	0.1043
330.219	0.1006
330.4294	0.1083
330.6398	0.1065
330.8502	0.1034
331.0605	0.0959
331.2708	0.1108
331.4812	0.1012
331.6915	0.1087
331.9018	0.1114
332.1121	0.1005
332.3224	0.1105
332.5326	0.107
332.7429	0.1039
332.9531	0.1197
333.1633	0.1013
333.3735	0.0985
333.5837	0.1029
333.7939	0.1036
334.0041	0.1204
334.2143	0.1149
334.4244	0.1112
334.6346	0.0873
334.8447	0.1153
335.0548	0.1114
335.2649	0.1071
335.475	0.1183
335.685	0.099
335.8951	0.118
336.1051	0.111
336.3152	0.1167
336.5252	0.1077
336.7352	0.1049
336.9452	0.1209
337.1552	0.1114
337.3652	0.1171
337.5751	0.117
337.7851	0.1209
337.995	0.1039
338.2049	0.1194
338.4148	0.1176
338.6247	0.1269
338.8346	0.1113
339.0445	0.1059
339.2543	0.1153
339.4642	0.1149
339.674	0.1112
339.8838	0.1192
340.0936	0.113
340.3034	0.126
340.5132	0.1165
340.7229	0.1276
340.9327	0.121
341.1424	0.109
341.3522	0.1189
341.5619	0.1175
341.7716	0.1193
341.9813	0.1245
342.1909	0.1237
342.4006	0.124
342.6102	0.1284
342.8199	0.1254
343.0295	0.1269
343.2391	0.1147
343.4487	0.1209
343.6583	0.1134
343.8679	0.1229
344.0774	0.1253
344.287	0.1163
344.4965	0.1237
344.706	0.1394
344.9155	0.1208
345.125	0.1242
345.3345	0.1399
345.544	0.126
345.7534	0.1341
345.9629	0.1265
346.1723	0.1316
346.3817	0.1372
346.5911	0.1178
346.8005	0.1368
347.0099	0.1347
347.2193	0.137
347.4286	0.1275
347.638	0.1372
347.8473	0.1298
348.0566	0.127
348.2659	0.1368
348.4752	0.1366
348.6845	0.1247
348.8937	0.1357
349.103	0.1512
349.3122	0.1313
349.5214	0.1284
349.7306	0.1349
349.9398	0.1492
350.149	0.1464
350.3582	0.1395
350.5674	0.1486
350.7765	0.1379
350.9856	0.1365
351.1948	0.1419
351.4039	0.1295
351.613	0.1322
351.822	0.1449
352.0311	0.1514
352.2402	0.1528
352.4492	0.1488
352.6582	0.1547
352.8672	0.1378
353.0762	0.1501
353.2852	0.1499
353.4942	0.142
353.7032	0.1542
353.9121	0.1531
354.1211	0.1587
354.33	0.1492
354.5389	0.1593
354.7478	0.1558
354.9567	0.1487
355.1655	0.1324
355.3744	0.1428
355.5833	0.1594
355.7921	0.178
356.0009	0.1603
356.2097	0.1709
356.4185	0.1587
356.6273	0.166
356.8361	0.1601
357.0448	0.1529
357.2536	0.1558
357.4623	0.1642
357.671	0.1743
357.8797	0.1538
358.0884	0.1651
358.2971	0.1568
358.5057	0.161
358.7144	0.1733
358.923	0.1791
359.1316	0.1613
359.3402	0.1729
359.5488	0.1596
359.7574	0.1732
359.966	0.1573
360.1746	0.179
360.3831	0.1761
360.5916	0.1658
360.8002	0.1634
361.0087	0.1821
361.2172	0.1754
361.4256	0.1788
361.6341	0.1742
361.8426	0.1948
362.051	0.1873
362.2594	0.1816
362.4678	0.1749
362.6762	0.1949
362.8846	0.1865
363.093	0.1933
363.3014	0.1832
363.5097	0.1715
363.718	0.1853
363.9264	0.1885
364.1347	0.1999
364.343	0.184
364.5513	0.2045
364.7595	0.1936
364.9678	0.1876
365.176	0.1912
365.3842	0.1997
365.5925	0.1859
365.8007	0.1927
366.0089	0.1932
366.217	0.1942
366.4252	0.1908
366.6333	0.2083
366.8415	0.1933
367.0496	0.1962
367.2577	0.2148
367.4658	0.2174
367.6739	0.2172
367.882	0.2048
368.09	0.2126
368.2981	0.208
368.5061	0.1995
368.7141	0.2111
368.9221	0.205
369.1301	0.2072
369.3381	0.2003
369.5461	0.2068
369.754	0.2045
369.962	0.2175
370.1699	0.2094
370.3778	0.212
370.5857	0.2123
370.7936	0.2154
371.0015	0.2173
371.2093	0.212
371.4172	0.2161
371.625	0.199
371.8328	0.2209
372.0406	0.2249
372.2484	0.207
372.4562	0.2251
372.664	0.2194
372.8717	0.2473
373.0795	0.2051
373.2872	0.2219
373.4949	0.2222
373.7026	0.2232
373.9103	0.2342
374.118	0.2184
374.3256	0.2219
374.5333	0.2308
374.7409	0.2093
374.9485	0.223
375.1561	0.2283
375.3637	0.2383
375.5713	0.2369
375.7789	0.2261
375.9864	0.2217
376.194	0.2342
376.4015	0.2366
376.609	0.2271
376.8165	0.2219
377.024	0.2306
377.2315	0.2287
377.4389	0.2449
377.6464	0.2366
377.8538	0.2275
378.0612	0.2291
378.2686	0.2347
378.476	0.2605
378.6834	0.2384
378.8908	0.2427
379.0981	0.239
379.3055	0.246
379.5128	0.235
379.7201	0.2311
379.9274	0.247
380.1347	0.2502
380.342	0.2457
380.5492	0.2385
380.7565	0.2454
380.9637	0.2682
381.1709	0.2437
381.3781	0.2395
381.5853	0.2592
381.7925	0.2562
381.9997	0.2551
382.2068	0.2697
382.4139	0.2476
382.6211	0.237
382.8282	0.2338
383.0353	0.2529
383.2424	0.2477
383.4494	0.27
383.6565	0.2554
383.8635	0.2634
384.0706	0.2468
384.2776	0.2501
384.4846	0.2299
384.6916	0.2631
384.8986	0.2457
385.1055	0.2487
385.3125	0.2689
385.5194	0.2392
385.7263	0.2586
385.9333	0.2386
386.1402	0.2604
386.347	0.2506
386.5539	0.2481
386.7608	0.2443
386.9676	0.2482
387.1744	0.2364
387.3813	0.2472
387.5881	0.2424
387.7948	0.2479
388.0016	0.2425
388.2084	0.2396
388.4151	0.2342
388.6219	0.2619
388.8286	0.238
389.0353	0.2728
389.242	0.2317
389.4487	0.2255
389.6553	0.2301
389.862	0.2258
390.0686	0.2322
390.2753	0.2522
390.4819	0.2338
390.6885	0.2316
390.8951	0.2433
391.1016	0.2256
391.3082	0.2208
391.5147	0.2385
391.7213	0.2217
391.9278	0.2149
392.1343	0.2176
392.3408	0.2239
392.5473	0.2437
392.7537	0.2457
392.9602	0.2281
393.1666	0.2271
393.373	0.2309
393.5794	0.2331
393.7858	0.2228
393.9922	0.2128
394.1986	0.2387
394.4049	0.2304
394.6113	0.2298
394.8176	0.2129
395.0239	0.2363
395.2302	0.2205
395.4365	0.2142
395.6428	0.1998
395.8491	0.1933
396.0553	0.2217
396.2615	0.2239
396.4678	0.2152
396.674	0.1985
396.8802	0.2074
397.0863	0.2374
397.2925	0.2219
397.4987	0.2093
397.7048	0.2062
397.9109	0.2022
398.117	0.1857
398.3231	0.2103
398.5292	0.2089
398.7353	0.2181
398.9413	0.2133
399.1474	0.2085
399.3534	0.2091
399.5594	0.1942
399.7654	0.2169
399.9714	0.2175
400.1774	0.1968
400.3833	0.2147
400.5893	0.2017
400.7952	0.2113
401.0011	0.2102
401.207	0.2136
401.4129	0.2084
401.6188	0.2087
401.8247	0.1992
402.0305	0.2036
402.2364	0.2146
402.4422	0.2194
402.648	0.2046
402.8538	0.2112
403.0596	0.1968
403.2654	0.2169
403.4711	0.2062
403.6768	0.1939
403.8826	0.2236
404.0883	0.2147
404.294	0.2059
404.4997	0.2166
404.7054	0.2183
404.911	0.1943
405.1167	0.2103
405.3223	0.2124
405.5279	0.229
405.7335	0.2219
405.9391	0.2287
406.1447	0.2047
406.3502	0.2352
406.5558	0.195
406.7613	0.2321
406.9668	0.2127
407.1724	0.2037
407.3778	0.1958
407.5833	0.1949
407.7888	0.1881
407.9942	0.224
408.1997	0.2009
408.4051	0.217
408.6105	0.2105
408.8159	0.2082
409.0213	0.2085
409.2267	0.2128
409.432	0.1864
409.6374	0.204
409.8427	0.1912
410.048	0.2106
410.2533	0.2068
410.4586	0.2006
410.6639	0.1885
410.8691	0.2001
411.0744	0.1887
411.2796	0.2048
411.4848	0.1863
411.69	0.1983
411.8952	0.2247
412.1004	0.1866
412.3056	0.2163
412.5107	0.192
412.7158	0.2138
412.921	0.193
413.1261	0.1971
413.3312	0.2038
413.5362	0.1959
413.7413	0.2188
413.9464	0.2037
414.1514	0.208
414.3564	0.2146
414.5614	0.1952
414.7664	0.1946
414.9714	0.2239
415.1764	0.2035
415.3813	0.2069
415.5863	0.2019
415.7912	0.2013
415.9961	0.206
416.201	0.1955
416.4059	0.2081
416.6108	0.196
416.8156	0.1947
417.0205	0.1887
417.2253	0.1962
417.4301	0.1929
417.6349	0.1885
417.8397	0.1904
418.0445	0.2036
418.2492	0.1968
418.454	0.2082
418.6587	0.1891
418.8634	0.1965
419.0681	0.1901
419.2728	0.1854
419.4775	0.1975
419.6822	0.1734
419.8868	0.1539
420.0915	0.1858
420.2961	0.1839
420.5007	0.1835
420.7053	0.1849
420.9099	0.1772
421.1144	0.1889
421.319	0.1809
421.5235	0.1932
421.728	0.1997
421.9325	0.1911
422.137	0.1855
422.3415	0.1767
422.546	0.179
422.7504	0.179
422.9549	0.1944
423.1593	0.1834
423.3637	0.1826
423.5681	0.1795
423.7725	0.1719
423.9769	0.1575
424.1812	0.1704
424.3856	0.1607
424.5899	0.1727
424.7942	0.1795
424.9985	0.1674
425.2028	0.1704
425.4071	0.1857
425.6113	0.155
425.8156	0.1785
426.0198	0.1665
426.224	0.1543
426.4282	0.1653
426.6324	0.1607
426.8366	0.1796
427.0407	0.1665
427.2449	0.1716
427.449	0.1667
427.6531	0.1465
427.8572	0.1333
428.0613	0.1584
428.2654	0.1706
428.4694	0.1525
428.6735	0.1636
428.8775	0.166
429.0815	0.1544
429.2855	0.1313
429.4895	0.1626
429.6935	0.1525
429.8975	0.1489
430.1014	0.144
430.3053	0.1363
430.5093	0.1543
430.7132	0.138
430.9171	0.1355
431.1209	0.1683
431.3248	0.1285
431.5286	0.1259
431.7325	0.1372
431.9363	0.1284
432.1401	0.1331
432.3439	0.1191
432.5477	0.1046
432.7514	0.1059
432.9552	0.1173
433.1589	0.1048
433.3627	0.1131
433.5664	0.1219
433.7701	0.1256
433.9737	0.1233
434.1774	0.1005
434.3811	0.1058
434.5847	0.1151
434.7883	0.0991
434.9919	0.1084
435.1955	0.1328
435.3991	0.097
435.6027	0.1263
435.8062	0.097
436.0098	0.1016
436.2133	0.1054
436.4168	0.0969
436.6203	0.0913
436.8238	0.1053
437.0272	0.0997
437.2307	0.1004
437.4341	0.1037
437.6375	0.0982
437.841	0.0945
438.0443	0.1041
438.2477	0.1021
438.4511	0.0682
438.6545	0.0881
438.8578	0.0926
439.0611	0.0839
439.2644	0.0882
439.4677	0.0786
439.671	0.0599
439.8743	0.0865
440.0775	0.0743
440.2808	0.0908
440.484	0.0793
440.6872	0.0686
440.8904	0.0666
441.0936	0.0884
441.2967	0.0699
441.4999	0.0627
441.703	0.074
441.9062	0.068
442.1093	0.0637
442.3124	0.0575
442.5155	0.0423
442.7185	0.0574
442.9216	0.0321
443.1246	0.0844
443.3276	0.0671
443.5307	0.0684
443.7337	0.0522
443.9366	0.068
444.1396	0.055
444.3426	0.0568
444.5455	0.0593
444.7484	0.0625
444.9513	0.0611
445.1542	0.0617
445.3571	0.0665
445.56	0.0476
445.7628	0.0452
445.9657	0.0381
446.1685	0.0664
446.3713	0.0539
446.5741	0.0441
446.7769	0.0313
446.9797	0.0441
447.1824	0.0428
447.3852	0.0486
447.5879	0.0488
447.7906	0.0469
447.9933	0.0357
448.196	0.0423
448.3986	0.0333
448.6013	0.0341
448.8039	0.0202
449.0066	0.0321
449.2092	0.0318
449.4118	0.0304
449.6143	0.0167
449.8169	0.0341
450.0195	0.0142
450.222	-0.0019
450.4245	0.0249
450.627	0.0288
450.8295	0.0248
451.032	0.0251
451.2345	0.032
451.4369	0.0358
451.6394	0.0295
451.8418	-0.0025
452.0442	0.0206
452.2466	0.0412
452.449	0.0052
452.6513	0.0325
452.8537	0.0115
453.056	-0.011
453.2583	0.0267
453.4607	0.0203
453.663	0.0086
453.8652	0.0202
454.0675	-0.0101
454.2697	0.0172
454.472	0.0065
454.6742	0.0214
454.8764	0.026
455.0786	0.0191
455.2808	0.0187
455.4829	0.0228
455.6851	0.028
455.8872	0.0177
456.0893	0.0271
456.2915	0.0214
456.4935	0.0051
456.6956	0.0123
456.8977	0.036
457.0997	0.02
457.3018	-0.0082
457.5038	0.0273
457.7058	0.0143
457.9078	0.0038
458.1098	0.0168
458.3117	0.0134
458.5137	0.019
458.7156	0.0046
458.9175	0.0023
459.1194	0.01
459.3213	0.0114
459.5232	0.0139
459.725	-0.004
459.9269	0.0048
460.1287	0.0059
460.3305	0.0142
460.5323	-0.0053
460.7341	0.0092
460.9359	-0.0077
461.1376	0.0231
461.3394	0.0054
461.5411	-0.0093
461.7428	0.0065
461.9445	0.0117
462.1462	0.0399
462.3479	-0.0228
462.5495	-0.0024
462.7512	0.0014
462.9528	0.0144
463.1544	-0.009
463.356	0.0045
463.5576	0.0005
463.7592	-0.002
463.9607	0.0098
464.1623	0.0158
464.3638	0.0343
464.5653	-0.0068
464.7668	0.0088
464.9683	0.0077
465.1697	0.0163
465.3712	-0.0013
465.5726	-0.0061
465.7741	0.0007
465.9755	-0.0105
466.1769	0.0035
466.3782	0.0041
466.5796	-0.0028
466.7809	-0.0078
466.9823	0.0033
467.1836	0.0079
467.3849	-0.0044
467.5862	0.0036
467.7875	0.0016
467.9887	0.0145
468.19	0.004
468.3912	-0.0013
468.5924	0.0039
468.7936	-0.0093
468.9948	0.0031
469.196	0.008
469.3972	-0.0185
469.5983	0.0075
469.7994	-0.0059
470.0006	0.0086
470.2017	-0.0097
470.4027	0.0023
470.6038	0.0106
470.8049	-0.0111
471.0059	-0.0073
471.2069	-0.0165
471.408	0.008
471.6089	0.0119
471.8099	-0.0046
472.0109	0.0046
472.2119	-0.0088
472.4128	-0.0217
472.6137	0.012
472.8146	-0.0115
473.0155	-0.0136
473.2164	0.0048
473.4173	-0.0023
473.6181	0.0129
473.819	0.0188
474.0198	0.0059
474.2206	-0.0071
474.4214	-0.0021
474.6222	-0.0042
474.8229	-0.0071
475.0237	-0.0107
475.2244	-0.0139
475.4251	-0.0124
475.6258	-0.0058
475.8265	0.0013
476.0272	0.0032
476.2278	0.0025
476.4285	-0.0012
476.6291	-0.0109
476.8297	0.0021
477.0303	-0.0003
477.2309	-0.0038
477.4315	-0.0145
477.632	0.0019
477.8326	0.0044
478.0331	0.002
478.2336	-0.0079
478.4341	-0.0019
478.6346	0.0028
478.8351	-0.0029
479.0355	-0.0012
479.236	0.0033
479.4364	-0.0019
479.6368	0.0036
479.8372	-0.0061
480.0376	0.0036
480.2379	-0.0147
480.4383	-0.0146
480.6386	0.0022
480.8389	0.0018
481.0392	-0.012
481.2395	-0.0041
481.4398	0.0171
481.6401	0.0002
481.8403	-0.0103
482.0405	-0.0024
482.2408	-0.0112
482.441	0.0077
482.6411	-0.0071
482.8413	-0.0042
483.0415	-0.0068
483.2416	-0.0172
483.4417	-0.0102
483.6419	0.0031
483.8419	-0.0021
484.042	0.0192
484.2421	-0.0008
484.4422	-0.0019
484.6422	-0.0033
484.8422	-0.0074
485.0422	-0.0101
485.2422	-0.0046
485.4422	-0.0134
485.6422	-0.001
485.8421	0.0014
486.042	-0.0076
486.242	-0.0075
486.4419	-0.0118
486.6417	-0.0082
486.8416	-0.0043
487.0415	-0.0092
487.2413	-0.0033
487.4411	-0.0069
487.641	-0.0105
487.8408	-0.0018
488.0405	-0.0033
488.2403	-0.0071
488.4401	0.008
488.6398	-0.0041
488.8395	-0.0085
489.0392	0.002
489.2389	-0.0118
489.4386	0.0004
489.6383	0.0002
489.8379	0.0031
490.0376	-0.0077
490.2372	-0.011
490.4368	-0.0068
490.6364	-0.0084
490.836	-0.0082
491.0355	-0.0036
491.2351	-0.0065
491.4346	-0.0071
491.6341	-0.0075
491.8336	0.0002
492.0331	-0.0112
492.2326	-0.0022
492.432	-0.0002
492.6315	-0.0048
492.8309	-0.0098
493.0303	-0.0157
493.2297	-0.0098
493.4291	0.0046
493.6284	-0.0023
493.8278	0.0007
494.0271	0.009
494.2264	0.016
494.4257	-0.0207
494.625	-0.0028
494.8243	-0.0192
495.0236	-0.0069
495.2228	-0.015
495.422	0.0093
495.6213	-0.0074
495.8205	-0.0066
496.0196	-0.0056
496.2188	0.0079
496.418	-0.0157
496.6171	-0.0046
496.8162	-0.0095
497.0153	0.0035
497.2144	-0.0096
497.4135	-0.0029
497.6126	-0.0155
497.8116	-0.0072
498.0107	-0.003
498.2097	-0.0182
498.4087	-0.0038
498.6077	-0.0033
498.8067	-0.0123
499.0056	0.0006
499.2046	-0.0024
499.4035	-0.0107
499.6024	-0.0081
499.8013	-0.0053
500.0002	-0.0108
500.199	-0.0038
500.3979	-0.0015
500.5967	-0.0136
500.7956	0.0141
500.9944	-0.0022
501.1932	-0.0102
501.3919	-0.005
501.5907	-0.0129
501.7895	-0.0091
501.9882	-0.0249
502.1869	-0.0091
502.3856	-0.0075
502.5843	-0.012
502.783	-0.001
502.9816	-0.0142
503.1803	-0.0101
503.3789	-0.0124
503.5775	0.0022
503.7761	-0.0122
503.9747	-0.0014
504.1732	-0.0043
504.3718	-0.0037
504.5703	-0.0037
504.7689	-0.0112
504.9674	-0.0025
505.1658	-0.0208
505.3643	-0.0053
505.5628	0.0102
505.7612	-0.0024
505.9597	0.0049
506.1581	-0.0128
506.3565	-0.0025
506.5549	-0.0089
506.7532	-0.0208
506.9516	-0.0059
507.1499	0.0025
507.3482	-0.0041
507.5465	-0.0137
507.7448	-0.0138
507.9431	-0.0081
508.1414	-0.0076
508.3396	-0.0056
508.5379	-0.0061
508.7361	-0.0182
508.9343	-0.0019
509.1325	-0.0008
509.3306	-0.0062
509.5288	-0.0032
509.7269	-0.0141
509.9251	0.0041
510.1232	-0.0055
510.3213	0.0048
510.5193	0.0003
510.7174	-0.0076
510.9154	-0.0083
511.1135	-0.0042
511.3115	-0.0099
511.5095	-0.0051
511.7075	-0.0088
511.9055	-0.007
512.1034	-0.0097
512.3014	0.0037
512.4993	0.0001
512.6972	-0.0052
512.8951	-0.0144
513.093	0.0016
513.2908	-0.0011
513.4887	0.0012
513.6865	-0.0092
513.8844	-0.0005
514.0822	-0.0048
514.2799	-0.0185
514.4777	-0.0107
514.6755	-0.0017
514.8732	-0.0105
515.0709	0.0041
515.2687	-0.0076
515.4664	0.0007
515.664	-0.0001
515.8617	0.0012
516.0594	-0.0147
516.257	-0.002
516.4546	-0.0171
516.6522	-0.0036
516.8498	-0.011
517.0474	0.0048
517.2449	0.0058
517.4425	-0.0154
517.64	-0.0064
517.8375	-0.0011
518.035	-0.0018
518.2325	-0.007
518.43	-0.0028
518.6274	-0.0097
518.8249	-0.0149
519.0223	-0.0026
519.2197	-0.0056
519.4171	-0.0133
519.6145	-0.0024
519.8118	0.0028
520.0092	-0.0069
520.2065	-0.0163
520.4038	-0.012
520.6011	-0.0018
520.7984	-0.002
520.9956	-0.0145
521.1929	-0.0111
521.3901	0.0012
521.5874	-0.0121
521.7846	-0.0019
521.9818	-0.0033
522.1789	-0.0038
522.3761	-0.0025
522.5732	-0.0088
522.7704	-0.0069
522.9675	0.0001
523.1646	-0.005
523.3617	-0.0104
523.5587	-0.0005
523.7558	-0.0078
523.9528	-0.0055
524.1498	-0.0012
524.3468	-0.0071
524.5438	-0.0054
524.7408	-0.0119
524.9378	-0.0015
525.1347	-0.003
525.3316	-0.0054
525.5285	-0.0061
525.7254	-0.005
525.9223	-0.004
526.1192	0.0009
526.316	-0.0096
526.5129	0.0045
526.7097	0.01
526.9065	-0.0059
527.1033	-0.0058
527.3	-0.0002
527.4968	-0.0022
527.6935	-0.006
527.8903	-0.0054
528.087	-0.0042
528.2837	-0.0083
528.4804	-0.0007
528.677	-0.01
528.8737	-0.0004
529.0703	-0.0052
529.2669	-0.0039
529.4635	-0.0073
529.6601	0.0067
529.8567	-0.0073
530.0532	-0.001
530.2498	-0.0025
530.4463	-0.0006
530.6428	-0.0002
530.8393	0.0004
531.0358	-0.0076
531.2322	-0.0011
531.4287	-0.0025
531.6251	-0.0082
531.8215	0.0021
532.0179	-0.0096
532.2143	0.0003
532.4107	-0.0005
532.607	-0.0094
532.8034	-0.0009
532.9997	0.0008
533.196	-0.0029
533.3923	-0.0093
533.5886	0.0014
533.7848	0.0033
533.9811	-0.0065
534.1773	0.0001
534.3735	0.006
534.5697	0.0077
534.7659	-0.0058
534.9621	0.0035
535.1582	-0.0064
535.3544	-0.005
535.5505	-0.0169
535.7466	-0.003
535.9427	-0.006
536.1387	-0.0125
536.3348	-0.0043
536.5308	0.0063
536.7269	-0.0191
536.9229	-0.002
537.1189	-0.0008
537.3148	-0.0009
537.5108	-0.0016
537.7068	-0.0007
537.9027	-0.0047
538.0986	-0.0026
538.2945	-0.0026
538.4904	-0.0055
538.6863	-0.0003
538.8821	-0.0083
539.078	-0.0079
539.2738	-0.0062
539.4696	-0.0106
539.6654	-0.0011
539.8611	0.0101
540.0569	-0.0093
540.2526	-0.0131
540.4484	-0.0008
540.6441	0.0129
540.8398	0.0042
541.0355	0.0024
541.2311	0.0046
541.4268	-0.0052
541.6224	0.0065
541.818	-0.0038
542.0136	-0.0007
542.2092	-0.0037
542.4048	0.0075
542.6003	-0.0001
542.7959	-0.0064
542.9914	-0.0012
543.1869	-0.0042
543.3824	-0.0018
543.5779	-0.0112
543.7734	-0.0048
543.9688	-0.0162
544.1642	0.005
544.3596	-0.0022
544.555	-0.0026
544.7504	-0.0071
544.9458	-0.0073
545.1411	-0.0092
545.3365	-0.0021
545.5318	-0.0032
545.7271	-0.0042
545.9224	-0.0087
546.1177	0.0005
546.3129	0.0105
546.5081	-0.0064
546.7034	-0.0041
546.8986	-0.0017
547.0938	-0.0085
547.289	-0.0003
547.4841	-0.0059
547.6793	0.0047
547.8744	-0.0046
548.0695	-0.0085
548.2646	-0.0101
548.4597	0.0012
548.6548	-0.0029
548.8498	0.0019
549.0448	0.0026
549.2399	-0.0051
549.4349	0.0063
549.6298	-0.0021
549.8248	-0.002
550.0198	0.0021
550.2147	-0.0019
550.4096	-0.0055
550.6045	0.0033
550.7994	0.0089
550.9943	0.0014
551.1892	0.0001
551.384	-0.0085
551.5788	-0.0078
551.7737	0.0077
551.9685	-0.0049
552.1632	-0.0012
552.358	-0.0029
552.5528	0.0008
552.7475	0.0006
552.9422	0.0007
553.1369	-0.0041
553.3316	-0.0006
553.5263	-0.0015
553.7209	0.0076
553.9156	-0.0025
554.1102	-0.0106
554.3048	-0.0015
554.4994	0.0077
554.694	-0.0074
554.8885	0.002
555.0831	0.0023
555.2776	-0.0072
555.4721	-0.0062
555.6666	-0.0058
555.8611	0.0093
556.0555	0.0045
556.25	-0.0032
556.4444	-0.0094
556.6388	0.0119
556.8332	-0.001
557.0276	-0.0039
557.222	-0.002
557.4163	0.0013
557.6107	-0.0064
557.805	0.0084
557.9993	-0.0086
558.1936	-0.0019
558.3879	0.0069
558.5821	0.0016
558.7764	-0.0038
558.9706	0.0034
559.1648	-0.0054
559.359	-0.0014
559.5532	-0.0099
559.7473	-0.0068
559.9415	-0.0027
560.1356	-0
560.3297	-0.0145
560.5238	-0.0009
560.7179	0.0015
560.9119	-0.001
561.106	-0.0008
561.3	-0.0115
561.494	0.0061
561.688	-0.0047
561.882	-0.0051
562.076	-0.0048
562.2699	0.0052
562.4639	-0.0047
562.6578	-0.0039
562.8517	0.0015
563.0456	-0.0023
563.2395	0.0064
563.4333	-0.0003
563.6272	0.0026
563.821	0.0023
564.0148	-0.007
564.2086	-0.0031
564.4024	-0.0096
564.5961	0.002
564.7899	0.0108
564.9836	0.0032
565.1773	0.0027
565.371	0.0079
565.5647	0.0035
565.7584	0.0051
565.952	0.0024
566.1456	0.0032
566.3393	-0.0104
566.5329	-0.0017
566.7264	-0.0014
566.92	-0.0048
567.1136	0.0058
567.3071	-0.0158
567.5006	0.0056
567.6941	0.0071
567.8876	0.0048
568.0811	-0.0001
568.2745	0.0056
568.468	0.0084
568.6614	0.0035
568.8548	-0.0006
569.0482	0.0044
569.2416	0.0085
569.4349	-0.0002
569.6283	0.0031
569.8216	0.0026
570.0149	-0.0005
570.2082	0.0083
570.4015	0.0088
570.5947	0.007
570.788	0.0084
570.9812	0.0052
571.1744	-0
571.3676	-0.0066
571.5608	-0.0022
571.754	0.0048
571.9471	-0.0003
572.1402	0.0015
572.3333	0.0053
572.5264	-0.0037
572.7195	0.0004
572.9126	0.0041
573.1057	0.0026
573.2987	0.0036
573.4917	0.0058
573.6847	-0.01
573.8777	0.0075
574.0707	0.0076
574.2636	-0.0049
574.4566	-0.0056
574.6495	0.0017
574.8424	-0.0032
575.0353	-0.0009
575.2281	0.0047
575.421	0.0007
575.6138	0.0031
575.8067	0.0006
575.9995	0.0028
576.1923	0.0051
576.385	-0.0009
576.5778	0.0016
576.7706	-0.0002
576.9633	-0.002
577.156	0.0082
577.3487	0.0044
577.5414	0.0045
577.734	-0.0015
577.9267	0.004
578.1193	0.0025
578.3119	-0.0001
578.5045	0.0051
578.6971	0.0048
578.8897	0.0048
579.0822	0.0078
579.2747	0.0035
579.4673	-0.0001
579.6598	0.0019
579.8522	-0.0044
580.0447	-0.0083
580.2372	-0.007
580.4296	0.0034
580.622	-0.0013
580.8144	-0.0083
581.0068	-0.0019
581.1992	-0.0066
581.3915	-0.0009
581.5839	-0.0055
581.7762	-0.0061
581.9685	0.0018
582.1608	0.0074
582.353	-0.0044
582.5453	-0.0009
582.7375	0.0018
582.9298	0.0018
583.122	0.002
583.3142	0.0063
583.5063	0.0027
583.6985	0.0044
583.8906	-0.0006
584.0827	-0.0024
584.2749	0.0014
584.4669	0.0052
584.659	0.0003
584.8511	0.0032
585.0431	0.0068
585.2352	0.0045
585.4272	0.0017
585.6192	0.0042
585.8111	0.0048
586.0031	0.0054
586.195	0.003
586.387	0.004
586.5789	0.0014
586.7708	0.0083
586.9627	-0.0001
587.1545	-0.0042
587.3464	0.01
587.5382	0.0043
587.73	-0.0025
587.9218	0.0047
588.1136	0.0007
588.3053	0.0063
588.4971	-0.0003
588.6888	-0.0062
588.8805	0.0051
589.0722	0.0077
589.2639	0.002
589.4556	0.0014
589.6472	0.0047
589.8389	-0.003
590.0305	0.0002
590.2221	0.0074
590.4137	-0.0044
590.6052	0.0105
590.7968	0.0039
590.9883	0.0031
591.1798	-0.0011
591.3713	0.0003
591.5628	0.0071
591.7543	0.0148
591.9458	0.0062
592.1372	0.0128
592.3286	0.0127
592.52	0.0117
592.7114	0.0005
592.9028	0.0036
593.0941	-0.0016
593.2855	0
593.4768	0.0006
593.6681	-0.0021
593.8594	0.0063
594.0506	-0.0006
594.2419	0.0097
594.4331	0.0013
594.6244	0.0079
594.8156	-0.0039
595.0067	0.0023
595.1979	-0.0019
595.3891	0.0087
595.5802	-0.0029
595.7713	-0.008
595.9624	-0.0057
596.1535	0.0086
596.3446	0.0006
596.5357	-0.0041
596.7267	-0.0043
596.9177	-0
597.1087	-0.0001
597.2997	-0.0029
597.4907	0.011
597.6817	0.0063
597.8726	0.0011
598.0635	-0.0042
598.2544	-0.0015
598.4453	0.0054
598.6362	0.0063
598.827	-0.0007
599.0179	0.0055
599.2087	0.0056
599.3995	-0.0018
599.5903	0.0007
599.7811	0.0007
599.9718	-0.0024
600.1626	-0.0012
600.3533	-0.0039
600.544	0.0015
600.7347	0.0003
600.9254	0.0032
601.116	-0.0037
601.3067	-0.001
601.4973	0.0002
601.6879	0.0062
601.8785	0.0008
602.0691	0.0096
602.2596	0.0039
602.4502	0.004
602.6407	0.0083
602.8312	0.0048
603.0217	0.0008
603.2122	-0.0005
603.4027	0.0015
603.5931	0.0009
603.7835	-0.0018
603.9739	0.0011
604.1643	-0.0024
604.3547	-0.0051
604.5451	0.0031
604.7354	-0.0043
604.9257	-0.0009
605.116	0.0023
605.3063	0.0048
605.4966	0.0092
605.6869	0.0028
605.8771	0.0096
606.0673	0.007
606.2575	0.0038
606.4477	0.0068
606.6379	0.0022
606.8281	0.006
607.0182	0.0014
607.2083	0.0053
607.3985	-0.0003
607.5885	0.0022
607.7786	0.0106
607.9687	-0.0005
608.1587	0.0048
608.3488	0.0056
608.5388	0.002
608.7288	-0.0057
608.9187	-0.0001
609.1087	-0.007
609.2986	-0.0055
609.4886	0.0048
609.6785	0.0001
609.8684	0.0082
610.0582	0.0093
610.2481	0.0053
610.4379	0.0058
610.6278	-0.0072
610.8176	-0.0035
611.0074	0.0003
611.1971	-0.0021
611.3869	-0.0032
611.5766	-0.005
611.7664	0.0088
611.9561	0.0058
612.1458	0.0029
612.3354	0.0024
612.5251	0.0074
612.7147	0.0079
612.9044	0.0135
613.094	-0.0063
613.2836	0.008
613.4731	0.0054
613.6627	-0.0028
613.8522	0.0073
614.0417	0.0051
614.2313	-0.0012
614.4207	-0.0021
614.6102	0.0061
614.7997	0.0013
614.9891	0.001
615.1785	0.0016
615.3679	-0.0028
615.5573	0.0102
615.7467	-0.0086
615.9361	-0.0005
616.1254	0.0005
616.3147	-0.002
616.504	0.0058
616.6933	0.0103
616.8826	0.0086
617.0718	0.0072
617.2611	0.0006
617.4503	-0.0012
617.6395	0.0029
617.8287	0.0018
618.0179	0.0034
618.207	0.012
618.3961	0.0015
618.5853	0.0001
618.7744	0.0131
618.9634	0.0116
619.1525	-0.0006
619.3416	-0.0001
619.5306	0.0093
619.7196	0.0085
619.9086	0.0014
620.0976	0.0108
620.2866	0.0047
620.4755	0.0136
620.6645	0.0097
620.8534	0.0028
621.0423	0.0064
621.2312	0.0059
621.42	0.0025
621.6089	-0.0015
621.7977	0.01
621.9865	-0.0019
622.1753	0.0062
622.3641	0.002
622.5529	0.0099
622.7416	0.0075
622.9303	-0.0013
623.1191	0.0078
623.3078	0.0079
623.4964	0.0061
623.6851	0.0064
623.8737	0.0043
624.0624	0.0023
624.251	0.0048
624.4396	-0.0024
624.6282	-0.006
624.8167	-0.0022
625.0053	0.0056
625.1938	0.0132
625.3823	0.0053
625.5708	0.0019
625.7593	-0.0025
625.9477	-0.0019
626.1362	0.0043
626.3246	0.0045
626.513	0.009
626.7014	0.0083
626.8898	-0.0003
627.0781	0.0037
627.2665	-0.0085
627.4548	0.0093
627.6431	0.0099
627.8314	0.0036
628.0197	0.0076
628.2079	-0.0036
628.3962	-0.0051
628.5844	0.0091
628.7726	0.0128
628.9608	0.0097
629.1489	0.0015
629.3371	0.011
629.5252	-0.0032
629.7134	0.0072
629.9015	0.0001
630.0895	0.0026
630.2776	0.003
630.4657	-0.0021
630.6537	0.0053
630.8417	-0.0065
631.0297	0.0011
631.2177	-0.0014
631.4057	-0.0026
631.5936	0.0047
631.7815	0.0057
631.9695	0.0057
632.1574	0.0066
632.3452	0.0111
632.5331	0.0041
632.7209	0.0001
632.9088	0.0095
633.0966	0.0073
633.2844	-0.0034
633.4722	-0.0002
633.6599	0.0103
633.8477	0.003
634.0354	0.005
634.2231	0.0023
634.4108	0.0083
634.5985	0.0125
634.7861	0.0048
634.9738	0.0035
635.1614	0.005
635.349	0.0001
635.5366	0.0075
635.7242	0.0091
635.9117	0.0062
636.0993	0.0032
636.2868	0.0082
636.4743	-0.0061
636.6618	0.0074
636.8492	0.0072
637.0367	0.0056
637.2241	0.0011
637.4115	-0.0016
637.5989	0.0061
637.7863	-0.0007
637.9737	0.001
638.161	0.0049
638.3484	0.0041
638.5357	0.0069
638.723	0.0002
638.9103	0.0063
639.0975	0.0016
639.2848	0.0064
639.472	0.0096
639.6592	0.007
639.8464	0.0177
640.0336	0.01
640.2208	0.0008
640.4079	-0.0066
640.595	0.0054
640.7821	0.0004
640.9692	0.0028
641.1563	0.0025
641.3434	0.0072
641.5304	0.0027
641.7174	-0.0037
641.9044	-0.0041
642.0914	0.0055
642.2784	0.0043
642.4653	0.0069
642.6523	0.0021
642.8392	0.0059
643.0261	0.0017
643.213	0.0041
643.3999	0.0016
643.5867	-0.004
643.7735	0.0093
643.9604	-0.0075
644.1472	0.0014
644.3339	0.0054
644.5207	0.0011
644.7075	0.0003
644.8942	-0
645.0809	0.0119
645.2676	0.0059
645.4543	0.0072
645.6409	0.005
645.8276	0.006
646.0142	0.0099
646.2008	-0.0016
646.3874	-0.0038
646.574	0.0059
646.7605	-0.0029
646.9471	-0.0057
647.1336	0.0026
647.3201	0.0034
647.5066	0.0011
647.6931	0.006
647.8795	0.0091
648.0659	0.0088
648.2524	0.0043
648.4388	-0.0019
648.6252	0.0078
648.8115	0.0083
648.9979	-0.0048
649.1842	0.0021
649.3705	0.0064
649.5568	0.0053
649.7431	0.0076
649.9294	-0.0021
650.1156	0.0094
650.3018	-0.003
650.488	0.0093
650.6742	0.0069
650.8604	0.0036
651.0466	0.0041
651.2327	0.0086
651.4188	0.0009
651.6049	0.0019
651.791	0.0016
651.9771	0.0034
652.1632	0.0058
652.3492	0.0065
652.5352	0.0016
652.7212	0.003
652.9072	0.0065
653.0932	-0.0017
653.2791	0.0007
653.465	0.001
653.651	-0.0028
653.8369	0.0024
654.0227	-0.0025
654.2086	0.0042
654.3944	0.0051
654.5803	0.0011
654.7661	-0.0017
654.9519	0.0019
655.1377	-0.004
655.3234	-0.0027
655.5092	-0.0021
655.6949	-0.0039
655.8806	-0.0072
656.0663	0.0002
656.2519	-0.0036
656.4376	-0.0009
656.6232	0.0094
656.8088	0.0021
656.9945	0.0028
657.18	0.0051
657.3656	0.006
657.5511	0.001
657.7367	-0.0077
657.9222	0.0084
658.1077	0.0054
658.2932	0.014
658.4786	-0.008
658.6641	0.0014
658.8495	0.0004
659.0349	-0.001
659.2203	0.0067
659.4057	0.0078
659.591	0.0061
659.7764	-0.0007
659.9617	0.0066
660.147	-0.0014
660.3323	0.007
660.5176	0.0071
660.7028	0.0078
660.888	0.0083
661.0733	0.0055
661.2585	-0.0016
661.4436	0.0048
661.6288	0.0078
661.8139	0.0009
661.9991	0.0137
662.1842	0.0049
662.3693	0.011
662.5544	0.0015
662.7394	0.0102
662.9245	-0.0006
663.1095	0.0039
663.2945	0.0069
663.4795	0.0084
663.6644	0.0156
663.8494	0.0025
664.0343	0.0129
664.2193	-0.0076
664.4042	0.0077
664.589	0.0005
664.7739	-0.0009
664.9587	-0.0052
665.1436	-0.0031
665.3284	0.0025
665.5132	-0.0055
665.698	0.0035
665.8827	0.0096
666.0675	0.008
666.2522	-0.0021
666.4369	0.0058
666.6216	0.0021
666.8063	0.0088
666.9909	0.0092
667.1756	0.0028
667.3602	-0.0014
667.5448	0.0029
667.7294	0.0063
667.9139	0.0105
668.0985	0.008
668.283	0.0072
668.4675	0.0054
668.652	0.0068
668.8365	0.0048
669.0209	0.0073
669.2054	0.014
669.3898	0.0084
669.5742	0.0052
669.7586	0.0142
669.943	0.009
670.1273	0.0161
670.3117	0.0113
670.496	0.0072
670.6803	0.0204
670.8646	0.0076
671.0488	0.0069
671.2331	0.0096
671.4173	0.0075
671.6015	0.0044
671.7857	0.0098
671.9699	0.0108
672.1541	0.0074
672.3382	0.0087
672.5223	0.0057
672.7064	0.0071
672.8905	0.0082
673.0746	0.0106
673.2587	0.0014
673.4427	0.0115
673.6267	0.0089
673.8107	0.0134
673.9947	0.0093
674.1787	0.0031
674.3626	-0.0034
674.5465	0.0076
674.7304	0.0092
674.9143	0.0058
675.0982	0.0076
675.2821	0.0001
675.4659	0.0096
675.6497	0.0053
675.8335	0.0063
676.0173	-0.0051
676.2011	0.002
676.3849	-0.0037
676.5686	0.0063
676.7523	0.0029
676.936	0.0023
677.1197	0.0037
677.3034	-0.0036
677.487	0.0059
677.6706	0.0058
677.8542	0.0058
678.0378	0.0004
678.2214	0.0003
678.405	-0.0005
678.5885	-0.005
678.772	0.0028
678.9555	-0.0066
679.139	-0.0055
679.3225	-0.0016
679.5059	-0.0034
679.6894	0.0024
679.8728	-0.0018
680.0562	-0.0097
680.2395	-0.0023
680.4229	0.003
680.6062	0.0084
680.7896	0.0051
680.9729	0.0023
681.1562	0.0033
681.3394	0.0051
681.5227	-0.0065
681.7059	-0.002
681.8891	0.0035
682.0723	0.0065
682.2555	0.0128
682.4387	0.0038
682.6218	-0.001
682.805	0.0029
682.9881	0.0045
683.1712	-0.0037
683.3542	-0.003
683.5373	0.0061
683.7203	-0.0032
683.9034	0.0025
684.0864	-0.0061
684.2694	-0.0059
684.4523	0.0083
684.6353	-0.0038
684.8182	0.0016
685.0011	-0.011
685.184	0.0012
685.3669	-0.0053
685.5498	0.005
685.7326	0.0045
685.9154	-0.0012
686.0982	0.0065
686.281	0.0088
686.4638	-0.0013
686.6465	0.002
686.8293	-0.0007
687.012	0.0081
687.1947	-0.0008
687.3774	0.0065
687.56	0.0015
687.7427	0.0024
687.9253	0.0051
688.1079	0.0024
688.2905	0.0103
688.4731	0.0014
688.6556	0.0024
688.8382	0.0056
689.0207	0.0018
689.2032	-0.0081
689.3857	-0.0034
689.5681	0.0042
689.7506	0.0051
689.933	-0.0004
690.1154	0.0005
690.2978	-0.0052
690.4802	0.0077
690.6626	-0.0036
690.8449	0.0003
691.0272	0.0109
691.2095	0.0007
691.3918	0.0017
691.5741	0.0071
691.7563	0.0024
691.9386	0.0056
692.1208	0.0031
692.303	0.005
692.4852	0.0034
692.6673	-0.0014
692.8495	0.002
693.0316	0.0054
693.2137	-0.0031
693.3958	0.0027
693.5778	0.0052
693.7599	0.0047
693.9419	0.0003
694.1239	0.0036
694.3059	-0.0027
694.4879	-0.0001
694.6699	0.0098
694.8518	0.0029
695.0337	-0.0059
695.2157	0.0051
695.3975	0.0033
695.5794	0.0094
695.7613	0.0028
695.9431	0.0027
696.1249	-0.0007
696.3067	0.0056
696.4885	0
696.6703	-0.0084
696.852	0.0065
697.0337	0.0058
697.2154	0.0035
697.3971	0.0102
697.5788	0.0026
697.7605	0.0047
697.9421	0.0074
698.1237	-0.0028
698.3053	0.0024
698.4869	-0.0072
698.6685	-0.0046
698.85	-0.0067
699.0315	0.0063
699.213	-0.0021
699.3945	0.0061
699.576	0.0014
699.7575	0.0068
699.9389	0.002
700.1203	-0.0004
700.3017	-0.005
700.4831	-0.0031
700.6645	0.0029
700.8458	0.0033
701.0271	0.001
701.2084	0.0098
701.3897	0.0058
701.571	0.0106
701.7523	-0.0009
701.9335	-0.0024
702.1147	0.0049
702.2959	0.0009
702.4771	0.0087
702.6583	0.0001
702.8394	-0.004
703.0205	0.0075
703.2016	0.0039
703.3827	0.0007
703.5638	0.0114
703.7449	0.0045
703.9259	0.0087
704.1069	-0.0073
704.2879	0.0015
704.4689	0.0041
704.6499	-0.0012
704.8308	-0.0087
705.0117	-0.0066
705.1927	0.0044
705.3735	-0.003
705.5544	-0.0026
705.7353	0.0033
705.9161	-0.0035
706.0969	-0.004
706.2777	0.0021
706.4585	0.0064
706.6393	0.0075
706.82	0.0014
707.0007	-0.003
707.1815	0.012
707.3621	0.0086
707.5428	0.0044
707.7235	0.002
707.9041	0.0087
708.0847	-0.0088
708.2653	0.005
708.4459	-0.0148
708.6265	0.0038
708.807	-0.0015
708.9875	-0.0092
709.168	-0.0029
709.3485	0.0029
709.529	-0.0031
709.7095	-0.0082
709.8899	0.0019
710.0703	-0.0064
710.2507	0.0013
710.4311	-0.0038
710.6115	-0.0092
710.7918	-0.0103
710.9721	-0.0028
711.1524	-0.0071
711.3327	-0.0021
711.513	0.0043
711.6932	0.0028
711.8735	0.0085
712.0537	-0.0031
712.2339	0.0015
712.4141	-0.0096
712.5942	-0.0101
712.7744	0.0015
712.9545	-0.0055
713.1346	-0.0107
713.3147	0.0009
713.4947	-0.0056
713.6748	0.0012
713.8548	0.0006
714.0348	-0.0072
714.2148	-0.0041
714.3948	0.0113
714.5748	-0.0029
714.7547	0.0016
714.9346	0.0099
715.1145	-0.004
715.2944	-0.01
715.4743	0.0007
715.6541	0.0009
715.834	0.0029
716.0138	-0.003
716.1936	-0.0134
716.3733	-0.0083
716.5531	0.0023
716.7328	-0.0041
716.9126	-0.0019
717.0923	-0.0035
717.2719	0.0086
717.4516	0.0138
717.6312	0.009
717.8109	-0.0049
717.9905	0.0036
718.1701	0.0018
718.3496	-0.0021
718.5292	0.0006
718.7087	-0.0055
718.8882	0.0039
719.0677	0.0069
719.2472	0.0004
719.4267	0.0006
719.6061	-0.0035
719.7856	-0.0018
719.965	0.0056
720.1443	-0.0045
720.3237	0.0205
720.5031	-0.0003
720.6824	0.0116
720.8617	0.003
721.041	0.011
721.2203	0.0049
721.3995	-0.0018
721.5788	0.0017
721.758	0.0054
721.9372	0.0038
722.1164	0.0042
722.2956	0.0096
722.4747	0.0051
722.6538	-0.0003
722.8329	0.0162
723.012	0.0082
723.1911	0.0064
723.3702	0.0023
723.5492	0.0093
723.7282	0.0077
723.9072	-0.0007
724.0862	0.001
724.2652	-0.001
724.4441	-0.0005
724.623	0.0044
724.8019	-0.0062
724.9808	-0.0027
725.1597	-0.0067
725.3385	0.0112
725.5174	0.0006
725.6962	-0.0012
725.875	-0.0026
726.0538	0.0057
726.2325	-0.0005
726.4112	0.0038
726.59	-0.0091
726.7687	-0.0132
726.9474	-0.0017
727.126	0.0023
727.3047	-0.0062
727.4833	0.0034
727.6619	-0.0051
727.8405	-0.0027
728.0191	-0.0078
728.1976	0.0046
728.3762	-0.0028
728.5547	0.0053
728.7332	-0.0068
728.9116	-0.002
729.0901	0.0063
729.2686	0.0003
729.447	-0.0033
729.6254	-0.0009
729.8038	0.0046
729.9821	-0.0033
730.1605	-0.0023
730.3388	-0.0022
730.5171	-0.0028
730.6954	-0.0002
730.8737	0.0067
731.0519	0.0029
731.2302	0.0018
731.4084	0.0146
731.5866	0.0037
731.7648	-0.006
731.9429	0.0035
732.1211	-0.0016
732.2992	0.0084
732.4773	0.0026
732.6554	0.0034
732.8335	0.006
733.0115	0.0167
733.1896	0.0122
733.3676	0.0001
733.5456	0.0026
733.7235	0.0073
733.9015	0.0003
734.0794	-0.0029
734.2574	0.0077
734.4353	0.0056
734.6131	0.0148
734.791	0.0039
734.9689	0.0053
735.1467	0.0091
735.3245	-0.001
735.5023	0.0004
735.68	0.0078
735.8578	0.0184
736.0355	-0.0088
736.2132	-0.0031
736.3909	0.0041
736.5686	-0.0016
736.7463	0.0034
736.9239	-0.0025
737.1015	-0.0024
737.2791	0.0119
737.4567	0.0066
737.6343	0.0038
737.8118	0.0058
737.9894	0.0094
738.1669	-0.0067
738.3444	-0.0014
738.5218	0.0007
738.6993	0.0024
738.8767	-0.0066
739.0541	0.0092
739.2315	-0.0144
739.4089	0.0041
739.5863	0.0071
739.7636	-0.0049
739.9409	0.0071
740.1182	0.0069
740.2955	0.0032
740.4728	0.0043
740.65	0.0025
740.8272	-0.0016
741.0044	-0.0069
741.1816	0.0011
741.3588	0.0012
741.5359	0.013
741.7131	-0.0156
741.8902	-0.0061
742.0673	0.0048
742.2444	-0.0028
742.4214	-0.0145
742.5985	-0.0032
742.7755	-0.006
742.9525	-0.0093
743.1295	0.0025
743.3064	-0.0016
743.4834	0.0083
743.6603	0.0068
743.8372	0.0008
744.0141	-0.0014
744.191	0.0062
744.3678	-0.0039
744.5446	0.004
744.7215	0.0089
744.8982	-0.0044
745.075	-0.0069
745.2518	0.0064
745.4285	0.0025
745.6052	0.0009
745.7819	0.0007
745.9586	-0.0081
746.1353	-0.0066
746.3119	-0.0072
746.4885	-0.0093
746.6651	-0.0027
746.8417	0.0022
747.0183	-0.0026
747.1948	-0.004
747.3714	0.0064
747.5479	-0.0044
747.7244	0.0032
747.9008	0.0016
748.0773	0.0012
748.2537	-0.0054
748.4301	-0.005
748.6065	0.0028
748.7829	0.0067
748.9593	-0.001
749.1356	0.0095
749.3119	0.012
749.4882	-0.0071
749.6645	0.0046
749.8408	-0.0031
750.017	-0.0048
750.1933	-0.0031
750.3695	-0.0088
750.5457	0.0035
750.7218	-0.0003
750.898	0.007
751.0741	-0.0071
751.2502	0.0004
751.4263	-0.0019
751.6024	-0.0007
751.7784	-0.0023
751.9545	-0.0028
752.1305	0.0065
752.3065	0.0037
752.4825	0.0023
752.6584	-0.0002
752.8344	-0.0085
753.0103	-0.0085
753.1862	-0.0079
753.3621	-0.0003
753.5379	-0.0052
753.7138	0.0014
753.8896	-0.0068
754.0654	0.001
754.2412	0.0068
754.417	0.0011
754.5927	0.0015
754.7685	0.0056
754.9442	0.0015
755.1199	0.0047
755.2956	-0.0011
755.4712	0.0132
755.6469	-0.0006
755.8225	-0.0042
755.9981	-0.0038
756.1736	-0.0006
756.3492	0.0024
756.5248	-0.0032
756.7003	-0.0032
756.8758	0.0045
757.0513	-0.0088
757.2267	-0.005
757.4022	0.0074
757.5776	-0.0077
757.753	0.0053
757.9284	-0.0009
758.1038	0.0034
758.2791	0.0027
758.4545	-0.0154
758.6298	-0.0063
758.8051	-0.0011
758.9803	-0.003
759.1556	0.0004
759.3308	-0.0062
759.506	-0.001
759.6812	0.0004
759.8564	-0.0005
760.0316	0.0028
760.2067	0.0059
760.3819	0.0067
760.557	0.0123
760.732	0.0101
760.9071	-0.0042
761.0821	-0.0017
761.2572	0.0087
761.4322	0.005
761.6072	-0.0008
761.7821	-0.0029
761.9571	0.0014
762.132	-0.0109
762.3069	-0.0105
762.4818	-0.0032
762.6567	-0.0013
762.8316	-0.0009
763.0064	-0.0145
763.1812	-0.0014
763.356	-0.0042
763.5308	-0.0027
763.7055	0.0059
763.8803	-0.0054
764.055	-0.0018
764.2297	0.0025
764.4044	-0.008
764.579	-0.009
764.7537	-0.0147
764.9283	0.0051
765.1029	-0.0065
765.2775	0.0039
765.4521	-0.0051
765.6266	-0.0114
765.8011	-0.0038
765.9756	0.0004
766.1501	0.0071
766.3246	0.0036
766.4991	-0.0033
766.6735	0.0097
766.8479	-0.0046
767.0223	0.0161
767.1967	0.0092
767.371	0.012
767.5454	-0.0069
767.7197	0.002
767.894	0.0024
768.0683	-0.0142
768.2425	0.0078
768.4168	0.0052
768.591	0.0042
768.7652	-0.0009
768.9394	0.0102
769.1135	0.0044
769.2877	0.0083
769.4618	-0.0036
769.6359	-0.0057
769.81	-0.0017
769.984	-0.0077
770.1581	-0.0003
770.3321	-0.0023
770.5061	-0
770.6801	-0.0097
770.8541	0.0051
771.028	0.0082
771.202	-0.0042
771.3759	0.0089
771.5498	0.0022
771.7236	0.0019
771.8975	0.0107
772.0713	-0.0065
772.2451	0.0093
772.4189	0.0012
772.5927	0.0054
772.7665	0.0065
772.9402	-0.0078
773.1139	0.0037
773.2876	0.0051
773.4613	0.0128
773.635	0.0101
773.8086	0.0039
773.9822	0.0059
774.1558	0.0063
774.3294	-0.0135
774.503	-0.0001
774.6765	0.012
774.8501	0.0218
775.0236	0.0131
775.1971	0.0096
775.3705	0.0023
775.544	0.0075
775.7174	0.0044
775.8908	0.0055
776.0642	0.0156
776.2376	0.009
776.4109	0.0013
776.5843	-0.0008
776.7576	0.0096
776.9309	0.0156
777.1041	0.0099
777.2774	0.0183
777.4506	0.0097
777.6238	0.0078
777.797	0.0227
777.9702	0.0091
778.1434	0.0092
778.3165	-0.0117
778.4896	0.0054
778.6627	0.0079
778.8358	-0.001
779.0089	-0.0027
779.1819	-0.0096
779.3549	0.0154
779.5279	0.0024
779.7009	0.0034
779.8739	0.012
780.0468	0.0104
780.2197	0.0164
780.3926	-0.0085
780.5655	0.0044
780.7384	-0.0132
780.9112	0.0096
781.0841	-0.0079
781.2569	0.0071
781.4297	0.001
781.6024	0.0176
781.7752	0.019
781.9479	0.0078
782.1206	0.0109
782.2933	-0.0119
782.466	0.0186
782.6386	0.0051
782.8113	-0.0021
782.9839	0.0097
783.1565	0.0105
783.329	0.0114
783.5016	0.004
783.6741	0.0207
783.8466	0.0114
784.0191	0.0209
784.1916	0.011
784.3641	0.0158
784.5365	0.0132
784.7089	0.0108
784.8813	0.012
785.0537	0.0063
785.2261	-0.0019
785.3984	-0.0011
785.5707	0.0066
785.743	0.0037
785.9153	-0.0024
786.0876	0.0078
786.2598	0.0065
786.432	0.0037
786.6042	0.0126
786.7764	0.0037
786.9486	0.0034
787.1207	0.0027
787.2928	0.0177
787.4649	0.0141
787.637	0.018
787.8091	0.0097
787.9811	0.0007
788.1532	0.008
788.3252	0.0165
788.4972	-0.0038
788.6691	-0.0017
788.8411	0.0127
789.013	-0.0003
789.1849	-0
789.3568	0.0061
789.5287	-0.0009
789.7005	0.0056
789.8723	0.0046
790.0442	0.0128
790.2159	0.0007
790.3877	0.0194
790.5595	-0.0093
790.7312	0.0076
790.9029	0.0067
791.0746	-0.0023
791.2463	0.0008
791.4179	0.0061
791.5896	-0.0161
791.7612	0.0082
791.9328	0.0089
792.1044	0.0039
792.2759	-0.0122
792.4474	-0.0013
792.619	0.0054
792.7905	0.0186
792.9619	0.009
793.1334	0.0124
793.3048	0.0212
793.4762	0.0125
793.6476	0.022
793.819	-0.0019
793.9904	0.0015
794.1617	-0.0023
794.333	0.0047
794.5043	-0.0011
794.6756	0.0088
794.8469	0.0001
795.0181	-0.0005
795.1893	-0.0041
795.3605	0.0195
795.5317	0.0066
795.7029	-0.0005
795.874	0.0039
796.0452	-0.0045
796.2163	0.009
796.3873	0.0095
796.5584	0.0073
796.7294	-0.005
796.9005	0.015
797.0715	0.0201
797.2425	-0.0051
797.4134	0.0016
797.5844	0.0154
797.7553	-0.0036
797.9262	0.0096
798.0971	-0.0055
798.2679	0.0002
798.4388	-0.0008
798.6096	0.0021
798.7804	-0.0078
798.9512	-0.0109
799.122	-0.0081
799.2927	0.0144
799.4635	-0.0004
799.6342	-0.0173
799.8049	-0.0037
799.9755	-0.0063
800.1462	0.0006
800.3168	0.0029
800.4874	0.008
800.658	0.0295
800.8286	0.0122
800.9991	-0.001
801.1696	0.0063
801.3402	0.006
801.5106	-0.0004
801.6811	0.0082
801.8516	0.0094
802.022	0.0041
802.1924	0.0243
802.3628	0.0113
802.5332	0.0177
802.7035	0.024
802.8739	-0.0125
803.0442	-0.0086
803.2145	0.0174
803.3847	-0.0192
803.555	0.0118
803.7252	-0.01
803.8954	0.0108
804.0656	-0.0031
804.2358	-0.0028
804.4059	0.0158
804.5761	-0.002
804.7462	0.0192
804.9163	0.0072
805.0864	-0.0247
805.2564	0.0052
805.4264	0.0237
805.5965	0.0002
805.7665	0.0073
805.9364	0.0138
806.1064	0.0243
806.2763	0.0071
806.4462	0.0174
806.6161	0.016
806.786	0.0112
806.9559	-0.0225
807.1257	0.0224
807.2955	0.0066
807.4653	0.0146
807.6351	-0.0126
807.8048	0.0116
807.9746	0.0083
808.1443	0.0032
808.314	0.0021
808.4837	0.0195
808.6533	-0.005
808.8229	0.0204
808.9926	0.0195
809.1622	0.0062
809.3317	0.003
809.5013	0.0139
809.6708	0.0069
809.8403	0.0166
810.0098	0.0043
810.1793	0.001
810.3488	0.0232
810.5182	0.0063
810.6876	-0.0043
810.857	-0.0051
811.0264	0.0233
811.1958	0.0064
811.3651	-0.0052
811.5344	0.0091
811.7037	-0.016
811.873	0.0011
812.0422	0.009
812.2115	0.0109
812.3807	-0.0088
812.5499	0.0156
812.7191	0.0131
812.8882	-0.0071
813.0574	0.0089
813.2265	0.0166
813.3956	0.0005
813.5646	0.0117
813.7337	0.0017
813.9027	0.0291
814.0718	0.0222
814.2407	0.0172
814.4097	0.0019
814.5787	0.0169
814.7476	0.0011
814.9165	0.0182
815.0854	-0.0097
815.2543	0.0134
815.4232	0.0051
815.592	0.0152
815.7608	0.0169
815.9296	0.0285
816.0984	0.0293
816.2671	-0.0033
816.4359	0.011
816.6046	0.0152
816.7733	0.0287
816.942	-0.005
817.1106	0.0269
817.2793	0.0198
817.4479	-0.0006
817.6165	0.022
817.785	0.0057
817.9536	-0.001
818.1221	-0.0016
818.2906	0.0159
818.4591	-0.0043
818.6276	-0.0169
818.7961	0.035
818.9645	0.0073
819.1329	0.0386
819.3013	0.0268
819.4697	0.0123
819.638	0.015
819.8064	0.0177
819.9747	0.0306
820.143	0.0213
820.3113	0.0204
820.4795	0.0106
820.6477	-0.0109
820.816	0.0174
820.9842	0.0025
821.1523	0.0139
821.3205	-0.006
821.4886	0.0102
821.6567	0.0032
821.8248	0.0297
821.9929	0.034
822.1609	0.0176
822.329	0.019
822.497	0.0168
822.665	0.0004
822.833	0.0181
823.0009	0.0164
823.1688	0.036
823.3367	0.0342
823.5046	0.0172
823.6725	0.0161
823.8404	0.0043
824.0082	0.0159
824.176	0.0478
824.3438	0.027
824.5116	0.0042
824.6793	0.0527
824.847	0.0371
825.0147	0.0025
825.1824	0.024
825.3501	0.0173
825.5177	-0.008
825.6854	0.042
825.853	0.0114
826.0206	-0.0106
826.1881	0.0087
826.3557	-0.0043
826.5232	-0.0026
826.6907	-0.0009
826.8582	0.0022
827.0257	-0.0146
827.1931	-0.0085
827.3605	0.0068
827.528	0.0303
827.6953	-0.009
827.8627	-0.0254
828.03	0.0486
828.1974	-0.0028
828.3647	-0.0162
828.532	-0.0098
828.6992	0.0392
828.8665	0.0245
829.0337	-0.0174
829.2009	0.0225
829.3681	0.0092
829.5352	0.0351
829.7024	-0.0059
829.8695	-0.0422
830.0366	0.0577
830.2037	0.0087
830.3707	0.015
830.5378	-0.0137
830.7048	0.0032
830.8718	0.0093
831.0388	-0.0332
831.2057	-0.008
831.3727	0.0477
831.5396	-0.0029
831.7065	-0.0158
831.8734	0.0187
832.0402	-0.0452
832.2071	0.0073
832.3739	-0.0291
832.5407	0.0233
832.7075	0.0018
832.8742	-0.0145
833.041	0.0246
833.2077	-0.0115
833.3744	0.0041
833.541	0.0054
833.7077	-0.0279
833.8743	-0.0104
834.0409	0.013
834.2075	-0.0076
834.3741	-0.0223
834.5407	0.0057
834.7072	-0.0013
834.8737	-0.0554
835.0402	0.004
835.2067	0.0508
835.3731	-0.0226
835.5395	-0.0007
835.706	0.0058
835.8723	0.0094
836.0387	0.0336
836.2051	-0.0069
836.3714	0.0013
836.5377	0.0097
836.704	-0.0343
836.8703	0.0489
837.0365	-0.0051
837.2027	0.0161
837.3689	0.0069
837.5351	0.0022
837.7013	-0.0328
837.8674	0.0052
838.0335	0.0236
838.1997	0.0337
838.3657	-0.0053
838.5318	-0.003
838.6978	0.005
838.8639	0.0283
839.0299	-0.0284
839.1958	0.0199
839.3618	0.0103
839.5277	-0.0362
839.6937	0.0142
839.8596	-0.0135
840.0254	0.0228
840.1913	0.0397
840.3571	0.0251
840.523	0.0395
840.6888	0.024
840.8545	0.0267
841.0203	-0.0009
841.186	0.0319
841.3517	0.0154
841.5174	-0.0044
841.6831	-0.0203
841.8488	0.0183
842.0144	0.0421
842.18	-0.001
842.3456	0.022
842.5112	-0.0285
842.6767	-0.0286
842.8422	0.0769
843.0077	-0.0309
843.1732	-0.0547
843.3387	-0.0691
843.5042	-0.0391
843.6696	-0.0426
843.835	0.0301
844.0004	0.0438
844.1657	0.0453
844.3311	-0.0014
844.4964	-0.0293
844.6617	-0.0394
844.827	0.0129
844.9923	0.0115
845.1575	0.0638
845.3227	0.0022
845.4879	0.0148
845.6531	-0.0068
845.8183	-0.022
845.9834	-0.0255
846.1485	0.0303
846.3136	0.0012
846.4787	-0.0935
846.6438	0.0477
846.8088	-0.0476
846.9738	-0.089
847.1388	0.0351
847.3038	-0.0279
847.4687	-0.1183
847.6337	0.0322
847.7986	-0.0284
847.9635	-0.0146
848.1284	0.1008
848.2932	0.022
848.458	0.0033
848.6228	0.0771
848.7876	0.0649
848.9524	-0.0566
849.1172	-0.0605
849.2819	0.058
849.4466	-0.0988
849.6113	-0.0532
849.7759	-0.0633
849.9406	0.0209
850.1052	0.0691
850.2698	0.0586
850.4344	-0.0287
850.599	-0.0935
850.7635	0.0551
850.928	-0.0676
851.0925	-0.0208
851.257	0.0772
851.4215	0.1031
851.5859	-0.0745
851.7503	0.0624
851.9147	0.034
852.0791	-0.0785
852.2434	-0.0058
852.4078	0.047
852.5721	0.0214
852.7364	-0.0354
852.9007	-0.2003
853.0649	0.1011
853.2291	0.0444
853.3934	-0.0116
853.5575	0.0505
853.7217	-0.1074
853.8859	-0.1706
854.05	-0.0029
854.2141	-0.0652
854.3782	0.0201
854.5423	-0.0205
854.7063	0.1504
854.8703	0.0652
855.0343	-0.0751
855.1983	-0.0344
855.3623	0.061
855.5262	0.1451
855.6901	0.0072
855.854	0.0364
856.0179	0.054
856.1818	0.1083
856.3456	0.0615
856.5094	-0.1362
856.6732	-0.1702
856.837	0.0338
857.0008	0.0699
857.1645	-0.1189
857.3282	-0.1111
857.4919	0.1417
857.6556	-0.0541
857.8192	-0.0227
857.9828	0.023
858.1465	-0.0754
858.31	0.0377
858.4736	0.154
858.6372	-0.1194
858.8007	-0.2748
858.9642	0.1774
859.1277	0.4041
859.2911	0.086
859.4546	-0.0252
859.618	-0.4516
859.7814	-0.0628
859.9448	-0.0337
860.1081	0.044
860.2715	0.4273
860.4348	0.3463
860.5981	-0.0699
860.7614	0.1647
860.9246	-0.0717
861.0879	-0.0837
861.2511	0.0625
861.4143	-0.3058
861.5774	0.3981
861.7406	-0.0076
861.9037	0.237
862.0668	-0.0201
862.2299	-0.0611
862.393	-0.3532
862.556	0.0697
862.7191	-0.4132
862.8821	-0.2005
863.0451	0.5512
863.208	-0.0514
863.371	-0.0221
863.5339	-0.128
863.6968	-0.0197
863.8597	-0
864.0225	0.122
864.1854	-0.1251
864.3482	0.0776
864.511	0.0556
864.6737	0.4184
864.8365	-0.1232
864.9992	-0.0021
865.1619	-0.15
865.3246	-0.0012
865.4873	0.0197
865.65	0.1653
865.8126	-0.1991
865.9752	0.005
866.1378	-0.3239
866.3004	-0
866.4629	0.0763
866.6254	0.2461
866.7879	-0
866.9504	-0.0927
867.1129	-0
867.2753	0.3274
867.4377	0.1006
867.6001	-0.1707
867.7625	-0.0006
867.9249	1.5141
868.0872	-0.2252
868.2495	0.0306
868.4118	-0.4601
868.5741	-0.3658
868.7363	-0.1711
868.8986	0.1371
869.0608	-0.2051
869.223	0.0999
869.3851	1.52
869.5473	0.1151
869.7094	0.2429
869.8715	-0.2213
870.0336	-0
870.1957	-0.081
870.3577	-0.3108
870.5197	-0.3007
870.6817	-0
870.8437	-0.1603
871.0057	-0
871.1676	-0.4589
871.3295	-0.2356
871.4914	-0
871.6533	-0.3259
871.8151	0.4885
871.977	-0
872.1388	-0
872.3006	-0.3024
872.4623	-0
872.6241	0.6578
872.7858	0.2966
872.9475	-0.0841
873.1092	-0.2716
873.2709	0.0213
873.4325	-0.001
873.5941	-0
873.7557	-0
873.9173	-0
874.0789	-0.1629
874.2404	-0.328
874.4019	0.0439
874.5634	-0.0136
874.7249	0.0277
874.8863	0.6268
875.0478	-0.1798
875.2092	-0
875.3706	-0.073
875.5319	-0.4701
875.6933	0.1094
875.8546	0.3164
876.0159	-0
876.1772	-0
876.3385	-0
876.4997	0.4676
876.6609	-0
876.8221	-0.3409
876.9833	-0
877.1445	0.2576
877.3056	0.138
877.4667	-0
877.6278	-0
877.7889	0.1663
877.9499	-0
878.111	-0
878.272	-1.1641
878.433	-0
878.5939	-0
878.7549	0.5072
878.9158	-0.9965
879.0767	0.5854
879.2376	-0
879.3984	0.8138
879.5593	-0
879.7201	-0
879.8809	-0.1761
880.0417	-0
880.2024	0.0115
880.3632	-0.6749
880.5239	0.0672
880.6846	-0
880.8452	-2.372
881.0059	-0
881.1665	-0.0867
881.3271	0.0952
881.4877	-0.115
881.6483	-0.5456
881.8088	-0.502
881.9693	-0.1596
882.1298	-0.1596
882.2903	-0.1596
