Data from MonoPyChalIsomerACN10uM360nmA_Absorbance_13-57-27-004.txt Node
Date: Fri Jul 05 13:57:27 BST 2024
User: LASERRRRR
Spectrometer: FLMT03099
Trigger mode: 0
Integration Time (sec): 1.000000E-1
Scans to average: 1
Electric dark correction enabled: true
Nonlinearity correction enabled: false
Boxcar width: 0
XAxis mode: Wavelengths
Number of Pixels in Spectrum: 3648
>>>>>Begin Spectral Data<<<<<
179.3399	-0.3678
179.5586	-0.3678
179.7771	-0.3678
179.9957	-0.0471
180.2143	-0
180.4329	-0.1144
180.6514	-0
180.8699	-0.1851
181.0885	0.0086
181.307	0.2653
181.5255	-0
181.744	0.2062
181.9625	-0.5203
182.181	-0.8025
182.3994	1.066
182.6179	0.6877
182.8363	0.6129
183.0547	0.2157
183.2732	-0.0619
183.4916	0.0341
183.71	0.0427
183.9284	0.3039
184.1467	-0.0726
184.3651	0.0581
184.5835	-0.1024
184.8018	0.0509
185.0201	0.2622
185.2385	0.0021
185.4568	0.121
185.6751	-0.0202
185.8934	0.1671
186.1117	0.2278
186.3299	0.1231
186.5482	0.0492
186.7664	0.0921
186.9847	0.0991
187.2029	0.1042
187.4211	0.1008
187.6393	0.3864
187.8575	0.1259
188.0757	0.3859
188.2939	0.0869
188.512	0.3064
188.7302	-0.026
188.9483	0.2567
189.1665	0.0782
189.3846	-0.1454
189.6027	0.1938
189.8208	0.3383
190.0389	0.188
190.257	0.3213
190.475	0.3907
190.6931	0.254
190.9111	0.8596
191.1292	0.179
191.3472	0.2609
191.5652	0.293
191.7832	0.191
192.0012	0.6851
192.2192	0.4072
192.4371	0.5315
192.6551	0.5922
192.873	0.4336
193.091	0.4309
193.3089	2.0648
193.5268	0.4068
193.7447	0.5745
193.9626	0.4203
194.1805	0.4946
194.3984	0.7674
194.6162	0.6562
194.8341	0.659
195.0519	0.7415
195.2697	0.8095
195.4875	0.65
195.7054	0.6012
195.9231	0.5111
196.1409	0.6353
196.3587	0.4938
196.5765	0.5584
196.7942	0.6974
197.012	0.4957
197.2297	0.7014
197.4474	0.7697
197.6651	0.5091
197.8828	0.6955
198.1005	0.5229
198.3182	0.6795
198.5358	0.8039
198.7535	0.6977
198.9711	0.536
199.1888	0.5987
199.4064	0.7779
199.624	0.5361
199.8416	0.6264
200.0592	0.6552
200.2767	0.7089
200.4943	0.5327
200.7119	0.6389
200.9294	0.7877
201.1469	0.5519
201.3645	0.5924
201.582	0.5916
201.7995	0.7133
202.017	0.7328
202.2344	0.5308
202.4519	0.6597
202.6694	0.6945
202.8868	0.6427
203.1042	0.6257
203.3217	0.7066
203.5391	0.7379
203.7565	0.64
203.9739	0.6776
204.1913	0.5441
204.4086	0.7886
204.626	0.7197
204.8433	0.7582
205.0607	0.6387
205.278	0.7167
205.4953	0.6427
205.7126	0.5843
205.9299	0.7578
206.1472	0.6806
206.3644	0.6172
206.5817	0.7125
206.7989	0.7529
207.0162	0.62
207.2334	0.6125
207.4506	0.6704
207.6678	0.6516
207.885	0.6241
208.1022	0.6144
208.3194	0.6491
208.5365	0.6324
208.7537	0.6282
208.9708	0.5859
209.1879	0.5554
209.405	0.7033
209.6222	0.7574
209.8392	0.5907
210.0563	0.6281
210.2734	0.5844
210.4905	0.5819
210.7075	0.607
210.9245	0.5988
211.1416	0.6864
211.3586	0.5874
211.5756	0.6121
211.7926	0.6063
212.0096	0.5834
212.2265	0.5551
212.4435	0.5638
212.6604	0.5568
212.8774	0.581
213.0943	0.6046
213.3112	0.5304
213.5281	0.5428
213.745	0.5597
213.9619	0.5393
214.1788	0.4506
214.3956	0.458
214.6125	0.4679
214.8293	0.4525
215.0461	0.4753
215.2629	0.412
215.4798	0.4602
215.6965	0.4496
215.9133	0.4349
216.1301	0.4186
216.3469	0.4473
216.5636	0.4103
216.7803	0.3992
216.9971	0.4327
217.2138	0.3688
217.4305	0.3886
217.6472	0.386
217.8639	0.3908
218.0805	0.3712
218.2972	0.3352
218.5138	0.3265
218.7305	0.3349
218.9471	0.292
219.1637	0.287
219.3803	0.288
219.5969	0.2879
219.8135	0.2843
220.0301	0.2791
220.2466	0.2918
220.4632	0.2746
220.6797	0.2403
220.8962	0.2384
221.1127	0.2545
221.3292	0.2479
221.5457	0.243
221.7622	0.2348
221.9787	0.2771
222.1951	0.2443
222.4116	0.2746
222.628	0.2553
222.8444	0.2712
223.0608	0.2667
223.2772	0.2529
223.4936	0.2791
223.71	0.2466
223.9264	0.282
224.1427	0.2675
224.3591	0.2664
224.5754	0.2753
224.7917	0.2808
225.008	0.2761
225.2243	0.2614
225.4406	0.3203
225.6569	0.2686
225.8732	0.2625
226.0894	0.2766
226.3057	0.2555
226.5219	0.288
226.7381	0.2753
226.9543	0.295
227.1705	0.2885
227.3867	0.2815
227.6029	0.3061
227.8191	0.2968
228.0352	0.3094
228.2513	0.3224
228.4675	0.3165
228.6836	0.3068
228.8997	0.3076
229.1158	0.3159
229.3319	0.3299
229.548	0.3244
229.764	0.3297
229.9801	0.346
230.1961	0.3279
230.4121	0.3287
230.6282	0.342
230.8442	0.3255
231.0602	0.3531
231.2761	0.3648
231.4921	0.3481
231.7081	0.3513
231.924	0.3559
232.14	0.356
232.3559	0.3383
232.5718	0.3869
232.7877	0.3405
233.0036	0.3492
233.2195	0.3711
233.4353	0.37
233.6512	0.3688
233.867	0.3803
234.0829	0.382
234.2987	0.3742
234.5145	0.3849
234.7303	0.3678
234.9461	0.3874
235.1619	0.3822
235.3776	0.3767
235.5934	0.3842
235.8091	0.3798
236.0249	0.3634
236.2406	0.3927
236.4563	0.3794
236.672	0.3893
236.8877	0.4045
237.1034	0.39
237.319	0.4004
237.5347	0.4139
237.7503	0.3982
237.966	0.4175
238.1816	0.4089
238.3972	0.3875
238.6128	0.4043
238.8284	0.4122
239.0439	0.4192
239.2595	0.3984
239.475	0.4178
239.6906	0.4262
239.9061	0.4084
240.1216	0.4068
240.3371	0.4222
240.5526	0.4029
240.7681	0.412
240.9836	0.4085
241.199	0.4089
241.4145	0.3778
241.6299	0.3934
241.8453	0.3842
242.0607	0.3838
242.2761	0.3593
242.4915	0.3688
242.7069	0.3607
242.9223	0.3689
243.1376	0.3406
243.353	0.3463
243.5683	0.3549
243.7836	0.317
243.9989	0.3369
244.2142	0.2834
244.4295	0.3188
244.6448	0.3063
244.86	0.3125
245.0753	0.2798
245.2905	0.2952
245.5057	0.2812
245.721	0.2822
245.9362	0.275
246.1514	0.277
246.3665	0.2642
246.5817	0.2641
246.7969	0.2505
247.012	0.2498
247.2271	0.2503
247.4423	0.2438
247.6574	0.2484
247.8725	0.229
248.0876	0.2236
248.3026	0.2329
248.5177	0.2195
248.7328	0.2101
248.9478	0.1976
249.1628	0.2181
249.3779	0.2209
249.5929	0.201
249.8079	0.21
250.0228	0.2045
250.2378	0.2028
250.4528	0.1941
250.6677	0.1989
250.8827	0.191
251.0976	0.1906
251.3125	0.2
251.5274	0.1748
251.7423	0.1793
251.9572	0.1763
252.172	0.1767
252.3869	0.1877
252.6017	0.1809
252.8166	0.1597
253.0314	0.1732
253.2462	0.1745
253.461	0.1783
253.6758	0.1742
253.8906	0.1843
254.1053	0.1688
254.3201	0.1764
254.5348	0.175
254.7496	0.183
254.9643	0.1751
255.179	0.165
255.3937	0.1658
255.6083	0.1732
255.823	0.1744
256.0377	0.1621
256.2523	0.1673
256.467	0.1417
256.6816	0.1892
256.8962	0.1785
257.1108	0.1709
257.3254	0.1658
257.54	0.1683
257.7545	0.1786
257.9691	0.1705
258.1836	0.171
258.3981	0.166
258.6127	0.167
258.8272	0.1641
259.0417	0.1587
259.2561	0.1649
259.4706	0.1691
259.6851	0.1704
259.8995	0.1676
260.114	0.1516
260.3284	0.1645
260.5428	0.1488
260.7572	0.1665
260.9716	0.1739
261.186	0.146
261.4003	0.1688
261.6147	0.1705
261.829	0.1614
262.0433	0.1672
262.2577	0.1565
262.472	0.166
262.6863	0.1502
262.9005	0.1678
263.1148	0.1604
263.3291	0.1526
263.5433	0.1616
263.7576	0.1663
263.9718	0.1584
264.186	0.1549
264.4002	0.1535
264.6144	0.1609
264.8286	0.1669
265.0427	0.1625
265.2569	0.1569
265.471	0.1571
265.6851	0.1543
265.8993	0.1535
266.1134	0.156
266.3275	0.151
266.5415	0.1595
266.7556	0.1744
266.9697	0.1681
267.1837	0.1629
267.3978	0.1634
267.6118	0.1712
267.8258	0.1745
268.0398	0.1544
268.2538	0.1597
268.4677	0.17
268.6817	0.1624
268.8957	0.1606
269.1096	0.1491
269.3235	0.1652
269.5374	0.1507
269.7514	0.1619
269.9652	0.1599
270.1791	0.144
270.393	0.1425
270.6068	0.1565
270.8207	0.14
271.0345	0.1428
271.2483	0.1533
271.4622	0.1455
271.676	0.1541
271.8897	0.141
272.1035	0.139
272.3173	0.1534
272.531	0.1544
272.7448	0.1398
272.9585	0.1378
273.1722	0.1441
273.3859	0.1533
273.5996	0.1292
273.8133	0.1436
274.0269	0.1368
274.2406	0.1459
274.4542	0.1466
274.6679	0.139
274.8815	0.1545
275.0951	0.1471
275.3087	0.151
275.5223	0.1511
275.7358	0.1588
275.9494	0.1409
276.1629	0.1437
276.3765	0.1397
276.59	0.1595
276.8035	0.1524
277.017	0.145
277.2305	0.1413
277.444	0.1513
277.6574	0.143
277.8709	0.1525
278.0843	0.1411
278.2978	0.1481
278.5112	0.1494
278.7246	0.1404
278.938	0.1459
279.1513	0.1547
279.3647	0.1441
279.5781	0.1471
279.7914	0.1513
280.0047	0.1681
280.2181	0.1506
280.4314	0.1506
280.6447	0.1458
280.8579	0.1577
281.0712	0.1529
281.2845	0.158
281.4977	0.1502
281.711	0.1526
281.9242	0.1447
282.1374	0.1524
282.3506	0.151
282.5638	0.1554
282.7769	0.1601
282.9901	0.1524
283.2033	0.1612
283.4164	0.1714
283.6295	0.1437
283.8426	0.1563
284.0557	0.1549
284.2688	0.1528
284.4819	0.164
284.695	0.1504
284.908	0.1628
285.1211	0.1484
285.3341	0.1634
285.5471	0.152
285.7601	0.1453
285.9731	0.1532
286.1861	0.154
286.3991	0.1617
286.612	0.1686
286.825	0.1622
287.0379	0.1688
287.2508	0.1497
287.4637	0.1691
287.6766	0.1506
287.8895	0.1601
288.1024	0.1871
288.3152	0.1628
288.5281	0.1634
288.7409	0.1649
288.9538	0.1589
289.1666	0.1523
289.3794	0.1571
289.5922	0.1593
289.8049	0.1625
290.0177	0.1534
290.2304	0.1561
290.4432	0.1717
290.6559	0.1655
290.8686	0.1741
291.0813	0.1594
291.294	0.1626
291.5067	0.173
291.7194	0.1623
291.932	0.1759
292.1447	0.1724
292.3573	0.1507
292.5699	0.1662
292.7825	0.1701
292.9951	0.167
293.2077	0.1653
293.4203	0.1563
293.6328	0.155
293.8454	0.1793
294.0579	0.1698
294.2704	0.1587
294.4829	0.1563
294.6954	0.1677
294.9079	0.1707
295.1204	0.1722
295.3328	0.1667
295.5453	0.1604
295.7577	0.1561
295.9701	0.1557
296.1825	0.1692
296.3949	0.15
296.6073	0.1668
296.8197	0.156
297.0321	0.1749
297.2444	0.1487
297.4567	0.1649
297.6691	0.1668
297.8814	0.1629
298.0937	0.1614
298.306	0.1689
298.5182	0.1707
298.7305	0.1706
298.9428	0.1528
299.155	0.1778
299.3672	0.1619
299.5794	0.1631
299.7916	0.1657
300.0038	0.1813
300.216	0.1661
300.4282	0.1717
300.6403	0.1673
300.8525	0.1692
301.0646	0.1538
301.2767	0.1602
301.4888	0.1703
301.7009	0.1572
301.913	0.1662
302.125	0.1702
302.3371	0.1584
302.5491	0.1662
302.7612	0.1655
302.9732	0.1597
303.1852	0.1618
303.3972	0.1668
303.6092	0.1562
303.8211	0.1556
304.0331	0.1489
304.245	0.1595
304.457	0.1522
304.6689	0.1467
304.8808	0.1723
305.0927	0.1414
305.3046	0.161
305.5164	0.1549
305.7283	0.1427
305.9401	0.1466
306.152	0.1533
306.3638	0.1489
306.5756	0.1522
306.7874	0.1518
306.9992	0.1537
307.2109	0.1471
307.4227	0.1238
307.6344	0.1453
307.8462	0.1317
308.0579	0.1445
308.2696	0.1396
308.4813	0.1251
308.693	0.133
308.9046	0.1325
309.1163	0.1177
309.328	0.1186
309.5396	0.1217
309.7512	0.1197
309.9628	0.1233
310.1744	0.1224
310.386	0.1175
310.5976	0.1242
310.8091	0.117
311.0207	0.119
311.2322	0.1238
311.4437	0.1028
311.6552	0.1192
311.8667	0.1148
312.0782	0.1131
312.2897	0.1081
312.5012	0.1151
312.7126	0.1054
312.924	0.0977
313.1355	0.116
313.3469	0.1057
313.5583	0.1149
313.7696	0.1096
313.981	0.1118
314.1924	0.1062
314.4037	0.0978
314.6151	0.1174
314.8264	0.0959
315.0377	0.1011
315.249	0.1001
315.4603	0.1092
315.6716	0.1029
315.8828	0.095
316.0941	0.1059
316.3053	0.0944
316.5165	0.1024
316.7277	0.0908
316.9389	0.0976
317.1501	0.0981
317.3613	0.1062
317.5724	0.0895
317.7836	0.1056
317.9947	0.1055
318.2058	0.0994
318.417	0.0945
318.6281	0.0846
318.8391	0.1031
319.0502	0.0846
319.2613	0.0958
319.4723	0.1035
319.6834	0.111
319.8944	0.089
320.1054	0.1017
320.3164	0.1033
320.5274	0.0964
320.7383	0.0906
320.9493	0.0976
321.1602	0.1049
321.3712	0.0922
321.5821	0.095
321.793	0.1003
322.0039	0.1087
322.2148	0.0918
322.4257	0.1084
322.6365	0.1036
322.8474	0.0974
323.0582	0.0981
323.269	0.1017
323.4798	0.1101
323.6906	0.0951
323.9014	0.0928
324.1122	0.1061
324.3229	0.0886
324.5337	0.112
324.7444	0.0925
324.9551	0.1134
325.1658	0.1057
325.3765	0.1103
325.5872	0.1043
325.7979	0.1045
326.0085	0.1115
326.2192	0.1032
326.4298	0.1044
326.6404	0.0987
326.851	0.0849
327.0616	0.0931
327.2722	0.0976
327.4828	0.1067
327.6933	0.1094
327.9039	0.1226
328.1144	0.1146
328.3249	0.1168
328.5354	0.1015
328.7459	0.1037
328.9564	0.1016
329.1669	0.0987
329.3773	0.1109
329.5878	0.1056
329.7982	0.1046
330.0086	0.101
330.219	0.1062
330.4294	0.1048
330.6398	0.1072
330.8502	0.1022
331.0605	0.1014
331.2708	0.104
331.4812	0.1053
331.6915	0.1108
331.9018	0.0995
332.1121	0.0942
332.3224	0.1077
332.5326	0.0994
332.7429	0.1143
332.9531	0.1131
333.1633	0.113
333.3735	0.1032
333.5837	0.1105
333.7939	0.1027
334.0041	0.1186
334.2143	0.1016
334.4244	0.1085
334.6346	0.0962
334.8447	0.1242
335.0548	0.1095
335.2649	0.1048
335.475	0.1246
335.685	0.111
335.8951	0.1105
336.1051	0.1058
336.3152	0.1237
336.5252	0.1135
336.7352	0.1169
336.9452	0.1189
337.1552	0.1157
337.3652	0.1039
337.5751	0.1039
337.7851	0.1241
337.995	0.1006
338.2049	0.112
338.4148	0.118
338.6247	0.1197
338.8346	0.1117
339.0445	0.1106
339.2543	0.1063
339.4642	0.1084
339.674	0.1086
339.8838	0.1149
340.0936	0.1209
340.3034	0.1203
340.5132	0.1182
340.7229	0.1193
340.9327	0.1204
341.1424	0.1084
341.3522	0.138
341.5619	0.1274
341.7716	0.1204
341.9813	0.1171
342.1909	0.1204
342.4006	0.1321
342.6102	0.1385
342.8199	0.1225
343.0295	0.1246
343.2391	0.1233
343.4487	0.1303
343.6583	0.1187
343.8679	0.1253
344.0774	0.1254
344.287	0.1248
344.4965	0.1199
344.706	0.1339
344.9155	0.1234
345.125	0.12
345.3345	0.1281
345.544	0.1186
345.7534	0.1271
345.9629	0.1213
346.1723	0.1368
346.3817	0.1275
346.5911	0.1216
346.8005	0.1348
347.0099	0.1119
347.2193	0.1294
347.4286	0.1335
347.638	0.1349
347.8473	0.1349
348.0566	0.1248
348.2659	0.1336
348.4752	0.1242
348.6845	0.1435
348.8937	0.1353
349.103	0.1526
349.3122	0.1253
349.5214	0.1316
349.7306	0.1368
349.9398	0.1324
350.149	0.1343
350.3582	0.1301
350.5674	0.1547
350.7765	0.1482
350.9856	0.1309
351.1948	0.1514
351.4039	0.1314
351.613	0.1328
351.822	0.1504
352.0311	0.1427
352.2402	0.1427
352.4492	0.1591
352.6582	0.1542
352.8672	0.1348
353.0762	0.1568
353.2852	0.1501
353.4942	0.1473
353.7032	0.1428
353.9121	0.1555
354.1211	0.1536
354.33	0.1508
354.5389	0.149
354.7478	0.1386
354.9567	0.1607
355.1655	0.1464
355.3744	0.1561
355.5833	0.1524
355.7921	0.1857
356.0009	0.1599
356.2097	0.1732
356.4185	0.1723
356.6273	0.1515
356.8361	0.1679
357.0448	0.1557
357.2536	0.1487
357.4623	0.1526
357.671	0.16
357.8797	0.1662
358.0884	0.1678
358.2971	0.1748
358.5057	0.1657
358.7144	0.1723
358.923	0.1691
359.1316	0.1714
359.3402	0.166
359.5488	0.1633
359.7574	0.157
359.966	0.1606
360.1746	0.1734
360.3831	0.1688
360.5916	0.164
360.8002	0.1605
361.0087	0.1812
361.2172	0.175
361.4256	0.1654
361.6341	0.1873
361.8426	0.1982
362.051	0.1831
362.2594	0.1806
362.4678	0.171
362.6762	0.2043
362.8846	0.1793
363.093	0.181
363.3014	0.1805
363.5097	0.1789
363.718	0.1826
363.9264	0.182
364.1347	0.1706
364.343	0.1978
364.5513	0.211
364.7595	0.1911
364.9678	0.1969
365.176	0.1968
365.3842	0.1854
365.5925	0.2021
365.8007	0.1813
366.0089	0.2008
366.217	0.2132
366.4252	0.2064
366.6333	0.2139
366.8415	0.2207
367.0496	0.1888
367.2577	0.1975
367.4658	0.2046
367.6739	0.2177
367.882	0.2107
368.09	0.1978
368.2981	0.2085
368.5061	0.203
368.7141	0.22
368.9221	0.2241
369.1301	0.2106
369.3381	0.2061
369.5461	0.2128
369.754	0.2086
369.962	0.2192
370.1699	0.219
370.3778	0.2125
370.5857	0.2031
370.7936	0.2195
371.0015	0.2051
371.2093	0.2243
371.4172	0.2208
371.625	0.2051
371.8328	0.2117
372.0406	0.2246
372.2484	0.2117
372.4562	0.2215
372.664	0.2263
372.8717	0.2254
373.0795	0.1998
373.2872	0.2142
373.4949	0.2298
373.7026	0.2272
373.9103	0.2352
374.118	0.2328
374.3256	0.2348
374.5333	0.2135
374.7409	0.2304
374.9485	0.2347
375.1561	0.2345
375.3637	0.2412
375.5713	0.2364
375.7789	0.2273
375.9864	0.2347
376.194	0.2341
376.4015	0.2508
376.609	0.2208
376.8165	0.2351
377.024	0.2347
377.2315	0.234
377.4389	0.225
377.6464	0.2601
377.8538	0.2476
378.0612	0.2347
378.2686	0.2414
378.476	0.2598
378.6834	0.2447
378.8908	0.255
379.0981	0.2395
379.3055	0.2554
379.5128	0.2392
379.7201	0.2392
379.9274	0.2465
380.1347	0.2612
380.342	0.2825
380.5492	0.2474
380.7565	0.2406
380.9637	0.2454
381.1709	0.2494
381.3781	0.2518
381.5853	0.2573
381.7925	0.2713
381.9997	0.253
382.2068	0.265
382.4139	0.2589
382.6211	0.24
382.8282	0.2513
383.0353	0.2489
383.2424	0.2511
383.4494	0.2655
383.6565	0.2409
383.8635	0.2587
384.0706	0.2573
384.2776	0.2589
384.4846	0.2481
384.6916	0.2769
384.8986	0.2492
385.1055	0.2505
385.3125	0.2466
385.5194	0.2323
385.7263	0.272
385.9333	0.2526
386.1402	0.2536
386.347	0.2523
386.5539	0.2353
386.7608	0.2676
386.9676	0.2425
387.1744	0.2776
387.3813	0.245
387.5881	0.2534
387.7948	0.2473
388.0016	0.2591
388.2084	0.2523
388.4151	0.2517
388.6219	0.2606
388.8286	0.2557
389.0353	0.2611
389.242	0.259
389.4487	0.2416
389.6553	0.2433
389.862	0.2243
390.0686	0.235
390.2753	0.2462
390.4819	0.2527
390.6885	0.243
390.8951	0.2466
391.1016	0.2262
391.3082	0.226
391.5147	0.2407
391.7213	0.2494
391.9278	0.2374
392.1343	0.2494
392.3408	0.2432
392.5473	0.2266
392.7537	0.2197
392.9602	0.2405
393.1666	0.2353
393.373	0.2271
393.5794	0.245
393.7858	0.2418
393.9922	0.2127
394.1986	0.2265
394.4049	0.2327
394.6113	0.218
394.8176	0.2145
395.0239	0.2305
395.2302	0.2227
395.4365	0.2229
395.6428	0.2231
395.8491	0.2188
396.0553	0.2113
396.2615	0.2266
396.4678	0.218
396.674	0.2164
396.8802	0.2131
397.0863	0.2283
397.2925	0.2134
397.4987	0.2083
397.7048	0.2067
397.9109	0.2187
398.117	0.195
398.3231	0.2049
398.5292	0.2309
398.7353	0.2233
398.9413	0.2013
399.1474	0.2186
399.3534	0.221
399.5594	0.2025
399.7654	0.2076
399.9714	0.2206
400.1774	0.2197
400.3833	0.2078
400.5893	0.2157
400.7952	0.2278
401.0011	0.2019
401.207	0.2395
401.4129	0.209
401.6188	0.2258
401.8247	0.217
402.0305	0.2082
402.2364	0.1912
402.4422	0.2196
402.648	0.2233
402.8538	0.2356
403.0596	0.2156
403.2654	0.2038
403.4711	0.206
403.6768	0.2196
403.8826	0.2189
404.0883	0.2269
404.294	0.2289
404.4997	0.216
404.7054	0.2157
404.911	0.1963
405.1167	0.2059
405.3223	0.2214
405.5279	0.2047
405.7335	0.2154
405.9391	0.2036
406.1447	0.2065
406.3502	0.2351
406.5558	0.2187
406.7613	0.2203
406.9668	0.212
407.1724	0.2162
407.3778	0.2011
407.5833	0.1996
407.7888	0.2134
407.9942	0.2205
408.1997	0.1962
408.4051	0.2233
408.6105	0.2079
408.8159	0.1932
409.0213	0.2039
409.2267	0.2163
409.432	0.2105
409.6374	0.2452
409.8427	0.2124
410.048	0.2061
410.2533	0.2202
410.4586	0.226
410.6639	0.1847
410.8691	0.207
411.0744	0.1939
411.2796	0.2217
411.4848	0.2196
411.69	0.2091
411.8952	0.2236
412.1004	0.1972
412.3056	0.2164
412.5107	0.1931
412.7158	0.2272
412.921	0.2028
413.1261	0.2071
413.3312	0.209
413.5362	0.2053
413.7413	0.2117
413.9464	0.1942
414.1514	0.1941
414.3564	0.2073
414.5614	0.1965
414.7664	0.1977
414.9714	0.2149
415.1764	0.2058
415.3813	0.2045
415.5863	0.2006
415.7912	0.218
415.9961	0.1926
416.201	0.2008
416.4059	0.217
416.6108	0.2222
416.8156	0.2124
417.0205	0.1984
417.2253	0.2112
417.4301	0.2073
417.6349	0.2024
417.8397	0.1927
418.0445	0.1921
418.2492	0.212
418.454	0.207
418.6587	0.2023
418.8634	0.1998
419.0681	0.2032
419.2728	0.1962
419.4775	0.2054
419.6822	0.1825
419.8868	0.1764
420.0915	0.1862
420.2961	0.1831
420.5007	0.1881
420.7053	0.2016
420.9099	0.1948
421.1144	0.1972
421.319	0.1796
421.5235	0.2089
421.728	0.2093
421.9325	0.1881
422.137	0.2044
422.3415	0.1907
422.546	0.1893
422.7504	0.193
422.9549	0.1949
423.1593	0.1988
423.3637	0.2027
423.5681	0.1763
423.7725	0.1766
423.9769	0.1641
424.1812	0.1593
424.3856	0.1717
424.5899	0.18
424.7942	0.185
424.9985	0.1845
425.2028	0.1703
425.4071	0.1865
425.6113	0.1502
425.8156	0.1775
426.0198	0.1807
426.224	0.1549
426.4282	0.1699
426.6324	0.1653
426.8366	0.1799
427.0407	0.1826
427.2449	0.1488
427.449	0.1885
427.6531	0.1604
427.8572	0.1536
428.0613	0.1682
428.2654	0.1492
428.4694	0.1463
428.6735	0.1543
428.8775	0.1773
429.0815	0.1676
429.2855	0.1642
429.4895	0.1627
429.6935	0.1417
429.8975	0.1686
430.1014	0.158
430.3053	0.1401
430.5093	0.1562
430.7132	0.143
430.9171	0.1346
431.1209	0.1408
431.3248	0.1366
431.5286	0.1505
431.7325	0.1318
431.9363	0.1277
432.1401	0.1354
432.3439	0.1311
432.5477	0.1146
432.7514	0.1145
432.9552	0.1313
433.1589	0.1208
433.3627	0.1188
433.5664	0.1266
433.7701	0.1207
433.9737	0.1079
434.1774	0.1059
434.3811	0.1126
434.5847	0.1136
434.7883	0.1098
434.9919	0.1102
435.1955	0.1161
435.3991	0.122
435.6027	0.0991
435.8062	0.1078
436.0098	0.108
436.2133	0.0989
436.4168	0.0917
436.6203	0.09
436.8238	0.1115
437.0272	0.0937
437.2307	0.1078
437.4341	0.0985
437.6375	0.0967
437.841	0.0904
438.0443	0.1067
438.2477	0.0876
438.4511	0.0891
438.6545	0.0971
438.8578	0.0969
439.0611	0.1095
439.2644	0.0838
439.4677	0.0745
439.671	0.0839
439.8743	0.0862
440.0775	0.0954
440.2808	0.0896
440.484	0.0685
440.6872	0.0678
440.8904	0.0639
441.0936	0.0943
441.2967	0.0631
441.4999	0.0678
441.703	0.0592
441.9062	0.0679
442.1093	0.0668
442.3124	0.0632
442.5155	0.0537
442.7185	0.0773
442.9216	0.0456
443.1246	0.0728
443.3276	0.054
443.5307	0.0604
443.7337	0.0741
443.9366	0.0711
444.1396	0.0533
444.3426	0.0488
444.5455	0.0668
444.7484	0.0473
444.9513	0.0544
445.1542	0.0539
445.3571	0.0488
445.56	0.0524
445.7628	0.0326
445.9657	0.0392
446.1685	0.0524
446.3713	0.0475
446.5741	0.0553
446.7769	0.0373
446.9797	0.0496
447.1824	0.0552
447.3852	0.0345
447.5879	0.0423
447.7906	0.0616
447.9933	0.0404
448.196	0.0253
448.3986	0.0393
448.6013	0.0385
448.8039	0.0182
449.0066	0.0314
449.2092	0.0487
449.4118	0.042
449.6143	0.0334
449.8169	0.0402
450.0195	0.0168
450.222	0.0108
450.4245	0.0346
450.627	0.0436
450.8295	0.0242
451.032	0.0247
451.2345	0.0302
451.4369	0.0345
451.6394	0.0246
451.8418	0.0127
452.0442	0.0297
452.2466	0.0149
452.449	0.0001
452.6513	0.0236
452.8537	-0.0011
453.056	0.0048
453.2583	0.0158
453.4607	0.0179
453.663	0.0085
453.8652	0.0406
454.0675	-0.0015
454.2697	0.0233
454.472	0.0106
454.6742	0.0264
454.8764	0.0046
455.0786	0.0301
455.2808	0.0077
455.4829	0.0249
455.6851	0.0259
455.8872	0.028
456.0893	0.0357
456.2915	0.0043
456.4935	0.0269
456.6956	0.0084
456.8977	0.0311
457.0997	0.0171
457.3018	0.0021
457.5038	0.0173
457.7058	0.0072
457.9078	-0.0019
458.1098	0.009
458.3117	0.0133
458.5137	0.0175
458.7156	0.0045
458.9175	-0.0123
459.1194	0.0089
459.3213	0.0032
459.5232	0.009
459.725	-0.009
459.9269	0.0158
460.1287	0.0045
460.3305	0.0088
460.5323	0.0009
460.7341	0.0139
460.9359	0.0119
461.1376	0.0082
461.3394	-0.0034
461.5411	0.0127
461.7428	0.0038
461.9445	0.0168
462.1462	0.0183
462.3479	0.0047
462.5495	0.0124
462.7512	0.0079
462.9528	0.0043
463.1544	0.0072
463.356	0.0105
463.5576	-0.0036
463.7592	-0.0073
463.9607	-0.0082
464.1623	0.0137
464.3638	0.0176
464.5653	-0.0106
464.7668	-0.0022
464.9683	0.0155
465.1697	0.0216
465.3712	-0.009
465.5726	-0.0033
465.7741	0.0006
465.9755	-0.0009
466.1769	0.008
466.3782	-0.006
466.5796	-0.0083
466.7809	0.0084
466.9823	-0.0116
467.1836	0.0005
467.3849	-0.0148
467.5862	0.0127
467.7875	0.0022
467.9887	0.0168
468.19	-0.0049
468.3912	-0.0134
468.5924	-0.0097
468.7936	-0.0011
468.9948	0.0009
469.196	0.0086
469.3972	-0.0249
469.5983	0.0107
469.7994	0.0067
470.0006	0.0029
470.2017	-0.0128
470.4027	0.0027
470.6038	-0.0041
470.8049	-0.0103
471.0059	-0.0006
471.2069	-0.0065
471.408	0.0114
471.6089	0.0088
471.8099	-0.004
472.0109	0.0133
472.2119	-0.0069
472.4128	-0.0143
472.6137	0.0031
472.8146	-0.0126
473.0155	0.0083
473.2164	0.0073
473.4173	0.0129
473.6181	0.0079
473.819	0.0136
474.0198	-0.0109
474.2206	-0.0069
474.4214	-0.0024
474.6222	0.0095
474.8229	-0.0009
475.0237	-0.0172
475.2244	-0.0035
475.4251	0.0003
475.6258	0.0011
475.8265	0.0022
476.0272	0.0187
476.2278	-0.0046
476.4285	-0.0147
476.6291	-0.0149
476.8297	-0.0083
477.0303	-0.011
477.2309	0.0003
477.4315	-0.0137
477.632	-0.0083
477.8326	0.0009
478.0331	-0.0008
478.2336	0.0119
478.4341	-0.005
478.6346	-0.0098
478.8351	0.0043
479.0355	0.0024
479.236	-0.0126
479.4364	0.0016
479.6368	-0.008
479.8372	-0.0021
480.0376	0.0048
480.2379	-0.0182
480.4383	-0.0003
480.6386	0.0024
480.8389	-0.0045
481.0392	-0.017
481.2395	-0.0066
481.4398	-0.0023
481.6401	0.0027
481.8403	0.0007
482.0405	-0.0043
482.2408	-0.0062
482.441	0.0034
482.6411	0.0008
482.8413	-0.0159
483.0415	-0.0016
483.2416	-0.0004
483.4417	-0.0069
483.6419	-0.0086
483.8419	-0.005
484.042	0.0066
484.2421	-0.0011
484.4422	-0.0033
484.6422	-0.0012
484.8422	-0.0066
485.0422	-0.0059
485.2422	-0.0089
485.4422	-0.0113
485.6422	-0.0091
485.8421	-0.004
486.042	-0.0071
486.242	-0.0089
486.4419	-0.012
486.6417	-0.0172
486.8416	-0.0058
487.0415	-0.0107
487.2413	0.0021
487.4411	-0.0182
487.641	0.0017
487.8408	-0.0061
488.0405	-0.0079
488.2403	-0.0077
488.4401	0.0059
488.6398	-0.0108
488.8395	-0.0029
489.0392	-0.0048
489.2389	-0.0076
489.4386	-0.0006
489.6383	-0.0026
489.8379	0.0041
490.0376	-0.0003
490.2372	-0.0125
490.4368	-0.0084
490.6364	-0.0029
490.836	-0.0011
491.0355	-0.0111
491.2351	-0.0085
491.4346	0.0027
491.6341	-0.023
491.8336	-0.0063
492.0331	-0.0149
492.2326	-0.0085
492.432	-0.0069
492.6315	-0.0096
492.8309	-0.0109
493.0303	-0.0129
493.2297	-0.0062
493.4291	-0.0032
493.6284	-0.0028
493.8278	-0.0048
494.0271	0.0016
494.2264	0.0111
494.4257	-0.0038
494.625	-0.0065
494.8243	-0.0201
495.0236	-0.0113
495.2228	-0.0164
495.422	-0.0028
495.6213	-0.0107
495.8205	-0.0011
496.0196	-0.0001
496.2188	0.0035
496.418	-0.0154
496.6171	-0.0067
496.8162	-0.009
497.0153	-0.0114
497.2144	-0.0067
497.4135	-0.0032
497.6126	-0.0154
497.8116	-0.017
498.0107	0.0021
498.2097	-0.0145
498.4087	-0.0129
498.6077	-0.0003
498.8067	-0.0082
499.0056	0.006
499.2046	-0.0045
499.4035	-0.0216
499.6024	-0.0088
499.8013	-0.0008
500.0002	-0.0125
500.199	-0.0008
500.3979	-0.0091
500.5967	-0.0232
500.7956	-0.0003
500.9944	0.0046
501.1932	-0.0078
501.3919	-0.0102
501.5907	-0.0195
501.7895	-0.017
501.9882	-0.003
502.1869	-0.0165
502.3856	-0.0123
502.5843	-0.004
502.783	-0.0043
502.9816	0.0003
503.1803	-0.0066
503.3789	-0.0099
503.5775	-0.0057
503.7761	-0.0147
503.9747	-0.0117
504.1732	-0.008
504.3718	-0.0001
504.5703	-0.0058
504.7689	-0.0119
504.9674	-0.0092
505.1658	-0.007
505.3643	0.0009
505.5628	-0.0084
505.7612	-0.0045
505.9597	0.0078
506.1581	-0.0128
506.3565	0.0027
506.5549	-0.0093
506.7532	-0.0207
506.9516	-0.0057
507.1499	-0.0083
507.3482	-0.0119
507.5465	-0.0082
507.7448	-0.0099
507.9431	-0.0048
508.1414	-0.0078
508.3396	-0.0097
508.5379	-0.0107
508.7361	-0.0143
508.9343	-0.0098
509.1325	-0.0041
509.3306	-0.0106
509.5288	-0.0066
509.7269	-0.0075
509.9251	-0.0046
510.1232	-0.0078
510.3213	0.0018
510.5193	-0.0067
510.7174	-0.0157
510.9154	-0.0097
511.1135	0.0019
511.3115	-0.0054
511.5095	-0.0132
511.7075	0.0074
511.9055	-0.0015
512.1034	-0.0045
512.3014	-0.0031
512.4993	0.0003
512.6972	-0.0068
512.8951	-0.0184
513.093	-0.0072
513.2908	-0.0005
513.4887	0.0024
513.6865	-0.0018
513.8844	-0.0056
514.0822	-0.0049
514.2799	-0.0098
514.4777	-0.0096
514.6755	-0.016
514.8732	-0.0114
515.0709	-0.0033
515.2687	-0.0077
515.4664	0.002
515.664	-0.0051
515.8617	-0.0078
516.0594	-0.013
516.257	-0.0013
516.4546	-0.013
516.6522	0.012
516.8498	-0.0085
517.0474	0.0067
517.2449	0.007
517.4425	-0.0032
517.64	-0.0051
517.8375	-0.0064
518.035	-0.0027
518.2325	-0.0154
518.43	-0.0137
518.6274	-0.0124
518.8249	-0.0102
519.0223	-0.0059
519.2197	-0.0131
519.4171	-0.0126
519.6145	-0.0215
519.8118	-0.0003
520.0092	-0.0121
520.2065	-0.0077
520.4038	-0.0195
520.6011	-0.0058
520.7984	-0.0109
520.9956	-0.015
521.1929	-0.0045
521.3901	-0.0038
521.5874	-0.0051
521.7846	-0.0072
521.9818	-0.0097
522.1789	-0.0192
522.3761	-0.0036
522.5732	-0.0015
522.7704	-0.0098
522.9675	0.0015
523.1646	-0.0083
523.3617	-0.0112
523.5587	-0.0019
523.7558	0.0008
523.9528	-0.009
524.1498	-0.0038
524.3468	-0.0158
524.5438	-0.0168
524.7408	-0.0084
524.9378	0.0025
525.1347	-0.0012
525.3316	0.0009
525.5285	-0.0012
525.7254	-0.0022
525.9223	-0.0115
526.1192	-0.0094
526.316	-0.0048
526.5129	0.002
526.7097	-0.0095
526.9065	-0.0132
527.1033	-0.0115
527.3	-0.0008
527.4968	-0.0103
527.6935	-0.0031
527.8903	-0.0199
528.087	-0.0027
528.2837	-0.0054
528.4804	-0.0005
528.677	-0.0052
528.8737	0.0028
529.0703	-0.0012
529.2669	-0.0047
529.4635	-0.0088
529.6601	0.0016
529.8567	0.005
530.0532	-0.0157
530.2498	-0.0049
530.4463	0.0055
530.6428	0.0006
530.8393	0.004
531.0358	-0.0036
531.2322	-0.0034
531.4287	0.0046
531.6251	-0.0143
531.8215	-0.0067
532.0179	0.0003
532.2143	0.0055
532.4107	-0.0072
532.607	0.0006
532.8034	0.0015
532.9997	-0.0022
533.196	-0.0053
533.3923	-0.0153
533.5886	-0.0011
533.7848	0.0101
533.9811	-0.0058
534.1773	-0.002
534.3735	0.0144
534.5697	-0.0114
534.7659	-0.0087
534.9621	-0.0026
535.1582	-0.0032
535.3544	-0.0041
535.5505	-0.0082
535.7466	0.0038
535.9427	-0.0052
536.1387	-0.0078
536.3348	-0.015
536.5308	0.001
536.7269	-0.0125
536.9229	-0.0036
537.1189	-0.003
537.3148	-0.0024
537.5108	-0.0069
537.7068	-0.005
537.9027	-0.0083
538.0986	0.0019
538.2945	-0.0097
538.4904	-0.0003
538.6863	-0.0086
538.8821	-0.0051
539.078	-0.0138
539.2738	-0.0086
539.4696	-0.0037
539.6654	0.0035
539.8611	0.0151
540.0569	0.0009
540.2526	-0.0026
540.4484	-0.0007
540.6441	0.001
540.8398	-0.0043
541.0355	0.0156
541.2311	0.0007
541.4268	-0.0089
541.6224	0.0083
541.818	-0.0054
542.0136	-0.0051
542.2092	0.0014
542.4048	0.0065
542.6003	-0.0063
542.7959	-0.0031
542.9914	-0.0006
543.1869	0.0041
543.3824	0.0018
543.5779	-0.0094
543.7734	-0.0059
543.9688	-0.0049
544.1642	0.0062
544.3596	-0.0072
544.555	-0.0047
544.7504	-0.0075
544.9458	-0.0121
545.1411	-0.0049
545.3365	-0.0024
545.5318	-0.0017
545.7271	-0.0056
545.9224	-0.0028
546.1177	-0.0064
546.3129	-0.0007
546.5081	-0.0055
546.7034	-0.006
546.8986	-0.0037
547.0938	0.0015
547.289	-0.0026
547.4841	0.0065
547.6793	0.006
547.8744	-0.0113
548.0695	0.001
548.2646	-0
548.4597	0.0034
548.6548	-0.0026
548.8498	0.0052
549.0448	-0.0025
549.2399	-0.0053
549.4349	0.0037
549.6298	0.0016
549.8248	-0.0007
550.0198	-0.0032
550.2147	-0.0069
550.4096	-0.0073
550.6045	-0.0083
550.7994	-0.0001
550.9943	0.0003
551.1892	-0.0021
551.384	0.0034
551.5788	-0.0101
551.7737	0.0021
551.9685	-0.0032
552.1632	-0.0021
552.358	-0.0017
552.5528	-0.0024
552.7475	0.0062
552.9422	0.0068
553.1369	0.0013
553.3316	0.0024
553.5263	-0.0128
553.7209	0.0054
553.9156	-0.0087
554.1102	-0.0075
554.3048	-0.0052
554.4994	0.0075
554.694	-0.0069
554.8885	0.0065
555.0831	-0.0129
555.2776	0.0007
555.4721	-0.0027
555.6666	-0.0058
555.8611	0.0121
556.0555	0.0007
556.25	-0.0049
556.4444	-0.006
556.6388	-0.0007
556.8332	-0.005
557.0276	-0.0035
557.222	-0.0057
557.4163	0.0005
557.6107	-0.0048
557.805	0.0094
557.9993	-0.0056
558.1936	0.0077
558.3879	0.0014
558.5821	0.0019
558.7764	0.0001
558.9706	0.0079
559.1648	0.0038
559.359	0.0018
559.5532	-0.0131
559.7473	-0.0011
559.9415	-0.0015
560.1356	-0.0031
560.3297	-0.0163
560.5238	-0.0061
560.7179	-0.0078
560.9119	-0.0093
561.106	-0.0039
561.3	-0.0064
561.494	-0.0071
561.688	-0.0005
561.882	-0.0056
562.076	-0.0052
562.2699	0.0089
562.4639	-0.0001
562.6578	-0.0045
562.8517	-0.0042
563.0456	-0.001
563.2395	0.002
563.4333	0.0078
563.6272	0.0112
563.821	-0.0135
564.0148	-0.0014
564.2086	-0.0126
564.4024	-0.0013
564.5961	-0.0071
564.7899	0.0106
564.9836	-0.0074
565.1773	-0
565.371	0.0114
565.5647	0.0092
565.7584	0.0049
565.952	0.0048
566.1456	-0.0057
566.3393	-0.0027
566.5329	-0.0048
566.7264	-0.0044
566.92	-0.0057
567.1136	0.0034
567.3071	-0.0057
567.5006	0.0071
567.6941	0.0087
567.8876	0.002
568.0811	-0.011
568.2745	0.0013
568.468	0.0049
568.6614	0.0041
568.8548	0.0001
569.0482	-0.0009
569.2416	0.0001
569.4349	0.0038
569.6283	0.0096
569.8216	-0.0016
570.0149	-0.0006
570.2082	0.013
570.4015	0.01
570.5947	0.0126
570.788	0.0019
570.9812	0.0019
571.1744	0.0031
571.3676	-0.0041
571.5608	-0.0013
571.754	0
571.9471	0.0035
572.1402	0.0043
572.3333	-0.0046
572.5264	-0.0042
572.7195	-0.001
572.9126	0.0005
573.1057	0.0015
573.2987	0.0004
573.4917	0.0026
573.6847	-0.0022
573.8777	0.0033
574.0707	0.0087
574.2636	0.0016
574.4566	-0.0038
574.6495	0.0054
574.8424	-0.0015
575.0353	-0.0046
575.2281	0.0088
575.421	0.0046
575.6138	0.0062
575.8067	-0.0007
575.9995	0.0022
576.1923	0.0076
576.385	0.0015
576.5778	-0.0002
576.7706	-0.0007
576.9633	0.0013
577.156	-0.0003
577.3487	0.0022
577.5414	-0.0022
577.734	-0.0022
577.9267	0.0048
578.1193	-0.0049
578.3119	-0.0011
578.5045	-0.0008
578.6971	0.0062
578.8897	0.0123
579.0822	0.0067
579.2747	0.0024
579.4673	0.0009
579.6598	-0.0065
579.8522	-0.0001
580.0447	-0.009
580.2372	0.0016
580.4296	0.0054
580.622	0.0025
580.8144	-0.0025
581.0068	0.0003
581.1992	-0.0081
581.3915	-0.0051
581.5839	-0.0106
581.7762	-0.0061
581.9685	0.0031
582.1608	0.0031
582.353	0.0034
582.5453	-0.001
582.7375	0.0022
582.9298	0.0062
583.122	0.0009
583.3142	0.0004
583.5063	0.008
583.6985	0.0063
583.8906	-0.0011
584.0827	-0.0068
584.2749	0.0033
584.4669	0.0059
584.659	0.0037
584.8511	0.007
585.0431	-0.0031
585.2352	0.0111
585.4272	0.0025
585.6192	0.0046
585.8111	0.0035
586.0031	0.0048
586.195	-0.0028
586.387	0.0072
586.5789	0.0041
586.7708	0.0003
586.9627	0.0032
587.1545	-0.0077
587.3464	0.0001
587.5382	0.0048
587.73	0.0026
587.9218	0.0066
588.1136	-0.0036
588.3053	0.0021
588.4971	-0.0025
588.6888	-0.0011
588.8805	0.0033
589.0722	0.0038
589.2639	0.0079
589.4556	0.008
589.6472	-0.001
589.8389	-0.0006
590.0305	-0.0057
590.2221	0.0001
590.4137	-0.0017
590.6052	0.0101
590.7968	0.0018
590.9883	0.0065
591.1798	-0.0003
591.3713	0.0016
591.5628	0.007
591.7543	0.0104
591.9458	0.0036
592.1372	0.0075
592.3286	0.0091
592.52	0.0116
592.7114	0.0014
592.9028	0.0007
593.0941	0.0007
593.2855	0.0074
593.4768	-0.005
593.6681	-0.0005
593.8594	0.0011
594.0506	0.0063
594.2419	0.0126
594.4331	0.0096
594.6244	0.0087
594.8156	-0.0048
595.0067	0.0079
595.1979	0.006
595.3891	0.0007
595.5802	0.0032
595.7713	-0.0059
595.9624	-0.0012
596.1535	-0.001
596.3446	-0.0053
596.5357	0.0015
596.7267	0.0081
596.9177	0.0005
597.1087	-0.0044
597.2997	-0.0066
597.4907	0.0055
597.6817	-0.0007
597.8726	-0.0043
598.0635	-0.0032
598.2544	0.0074
598.4453	-0.0003
598.6362	0.0011
598.827	-0.001
599.0179	0.0082
599.2087	0.0031
599.3995	0.0021
599.5903	0.0031
599.7811	0.008
599.9718	0.0034
600.1626	-0.0024
600.3533	-0.0077
600.544	0.005
600.7347	-0.0007
600.9254	0.0011
601.116	-0.0044
601.3067	0.0009
601.4973	-0.0019
601.6879	0.0084
601.8785	0.0004
602.0691	0.0044
602.2596	0.0036
602.4502	0.008
602.6407	0.0081
602.8312	0.0022
603.0217	-0.0043
603.2122	0.0069
603.4027	-0
603.5931	0.0007
603.7835	-0.0065
603.9739	-0.0042
604.1643	-0.0054
604.3547	-0.0019
604.5451	0.0014
604.7354	0.0018
604.9257	0.0055
605.116	0.0023
605.3063	0.0036
605.4966	0.0042
605.6869	0.0032
605.8771	0.008
606.0673	0.0108
606.2575	0.0106
606.4477	0.0052
606.6379	0.0049
606.8281	-0.0016
607.0182	-0.0034
607.2083	0.0129
607.3985	0.0002
607.5885	-0.0029
607.7786	0.0068
607.9687	-0.0032
608.1587	0.0065
608.3488	0.0001
608.5388	0.0021
608.7288	0.0018
608.9187	-0.0019
609.1087	0.0021
609.2986	0.0007
609.4886	0.0057
609.6785	0.0035
609.8684	0.0015
610.0582	0.0096
610.2481	0.004
610.4379	0.0025
610.6278	0.0023
610.8176	0.0044
611.0074	-0.0029
611.1971	-0.0007
611.3869	0.0027
611.5766	-0.0026
611.7664	0.0033
611.9561	0.0013
612.1458	0.0076
612.3354	-0.0055
612.5251	0.0077
612.7147	0.006
612.9044	0.0096
613.094	-0.0096
613.2836	0.0075
613.4731	0.0037
613.6627	0.0016
613.8522	0.0006
614.0417	0.0089
614.2313	0.0051
614.4207	0.0005
614.6102	0.0023
614.7997	0.0047
614.9891	-0.0079
615.1785	0.0038
615.3679	-0.0026
615.5573	0.0114
615.7467	-0.0003
615.9361	0.0005
616.1254	0.0014
616.3147	0.0036
616.504	0.0082
616.6933	-0.0025
616.8826	0.0063
617.0718	0.0051
617.2611	0.0015
617.4503	0.0022
617.6395	0.0031
617.8287	-0.0037
618.0179	0.0015
618.207	0.0097
618.3961	0.0056
618.5853	0.0011
618.7744	0.0094
618.9634	0.0126
619.1525	0.0028
619.3416	0.0076
619.5306	0.0098
619.7196	0.0055
619.9086	-0.0007
620.0976	0.0111
620.2866	0.0057
620.4755	0.0095
620.6645	0.0106
620.8534	0.0145
621.0423	-0.0004
621.2312	0.0117
621.42	0.007
621.6089	0.0035
621.7977	0.0087
621.9865	-0.0075
622.1753	0.0095
622.3641	-0.0058
622.5529	0.0181
622.7416	0.0105
622.9303	-0.0003
623.1191	-0.0011
623.3078	-0.0031
623.4964	0.014
623.6851	0.0092
623.8737	0.0026
624.0624	0.0056
624.251	0.0009
624.4396	0.0029
624.6282	-0.0035
624.8167	0.0014
625.0053	0.0057
625.1938	0.0064
625.3823	0.0048
625.5708	-0.0016
625.7593	-0.0037
625.9477	0.0015
626.1362	0.0077
626.3246	0.005
626.513	0.0068
626.7014	0.0117
626.8898	0.0003
627.0781	0.0041
627.2665	-0.0063
627.4548	0.0082
627.6431	0.0041
627.8314	0.0052
628.0197	0.0072
628.2079	-0.0062
628.3962	-0.0016
628.5844	0.0005
628.7726	0.002
628.9608	0.0051
629.1489	0.0063
629.3371	0.0091
629.5252	0.0049
629.7134	0.0056
629.9015	-0.0069
630.0895	0.0027
630.2776	0.01
630.4657	-0.0013
630.6537	0.0037
630.8417	0.002
631.0297	-0.0073
631.2177	0.0099
631.4057	-0.0044
631.5936	-0.0005
631.7815	0.0055
631.9695	0.0081
632.1574	0.0118
632.3452	0.0158
632.5331	0.0002
632.7209	0.0028
632.9088	0.0114
633.0966	0.0165
633.2844	-0.0011
633.4722	0.0055
633.6599	0.0088
633.8477	0.0069
634.0354	0.0064
634.2231	0.0019
634.4108	0.0008
634.5985	0.0066
634.7861	0.002
634.9738	0.0067
635.1614	0.0054
635.349	0.005
635.5366	-0.0033
635.7242	0.0008
635.9117	0.0096
636.0993	0.0003
636.2868	0.0024
636.4743	-0.0027
636.6618	0.0118
636.8492	0.0044
637.0367	0.003
637.2241	0.0011
637.4115	-0.0059
637.5989	0.0017
637.7863	0.0041
637.9737	-0.0002
638.161	0.0044
638.3484	0.0122
638.5357	0.0084
638.723	0.002
638.9103	0.0136
639.0975	0.0049
639.2848	0.0044
639.472	-0.006
639.6592	0.0049
639.8464	0.0108
640.0336	0.0158
640.2208	0.0035
640.4079	0.0016
640.595	-0.0001
640.7821	-0.0007
640.9692	0.0052
641.1563	0.0029
641.3434	0.0103
641.5304	-0.0007
641.7174	0.0034
641.9044	0.0068
642.0914	0.0039
642.2784	0.0055
642.4653	0.0109
642.6523	0.0024
642.8392	-0.0019
643.0261	0.0029
643.213	0.0028
643.3999	-0.0034
643.5867	-0.0048
643.7735	0.0084
643.9604	-0.0082
644.1472	0.0026
644.3339	0.0032
644.5207	0.0058
644.7075	-0.0023
644.8942	0.0128
645.0809	0.0058
645.2676	0.0109
645.4543	0.0029
645.6409	0.0018
645.8276	-0.0024
646.0142	0.0062
646.2008	-0.0085
646.3874	-0.0057
646.574	0.0004
646.7605	-0.0026
646.9471	-0.011
647.1336	-0.0007
647.3201	0.0024
647.5066	-0.0017
647.6931	0.0076
647.8795	0.0061
648.0659	0.0047
648.2524	0.0116
648.4388	0.0005
648.6252	0.002
648.8115	-0.0001
648.9979	-0.006
649.1842	0.0036
649.3705	0.0029
649.5568	0.004
649.7431	0.0086
649.9294	-0.0018
650.1156	0.0056
650.3018	0.0021
650.488	0.0036
650.6742	0.0115
650.8604	0.0102
651.0466	-0.0014
651.2327	0.0075
651.4188	-0.0008
651.6049	0.0022
651.791	0.0045
651.9771	0.0113
652.1632	0.0151
652.3492	0.0092
652.5352	0.0042
652.7212	0.002
652.9072	0.0104
653.0932	0.0056
653.2791	-0.0041
653.465	0.0014
653.651	-0.0029
653.8369	-0.0027
654.0227	0.0048
654.2086	0.0042
654.3944	0.0085
654.5803	0.0023
654.7661	0.0034
654.9519	0.0062
655.1377	-0.003
655.3234	0.0003
655.5092	-0.0037
655.6949	-0.0046
655.8806	0.0006
656.0663	0.0011
656.2519	0.0009
656.4376	0.0021
656.6232	0.0032
656.8088	-0.0035
656.9945	0.0022
657.18	0.0012
657.3656	0.0022
657.5511	-0.0014
657.7367	-0.0005
657.9222	0.0124
658.1077	0.0071
658.2932	0.0107
658.4786	-0.0013
658.6641	-0.0001
658.8495	0.0058
659.0349	0.0005
659.2203	0.0069
659.4057	0.0064
659.591	0.009
659.7764	0.0034
659.9617	0.0085
660.147	0.0047
660.3323	0.0083
660.5176	0.015
660.7028	0.0078
660.888	0.0003
661.0733	0.004
661.2585	-0.0058
661.4436	0.0051
661.6288	0.0061
661.8139	0.0025
661.9991	0.0039
662.1842	-0.0033
662.3693	0.0063
662.5544	0.001
662.7394	0.0139
662.9245	0.0022
663.1095	0.0049
663.2945	0.0039
663.4795	0.0031
663.6644	0.0112
663.8494	0.0104
664.0343	0.0125
664.2193	-0.0044
664.4042	0.0052
664.589	-0.0003
664.7739	0.0028
664.9587	-0.0052
665.1436	0.0021
665.3284	0.0062
665.5132	-0.0022
665.698	-0.0008
665.8827	0.0078
666.0675	0.0058
666.2522	0.0035
666.4369	0.0067
666.6216	0.0125
666.8063	0.0055
666.9909	-0.0015
667.1756	0.0063
667.3602	0.0029
667.5448	0.0033
667.7294	0.011
667.9139	0.0024
668.0985	0.0153
668.283	0.0034
668.4675	0.0036
668.652	0.0002
668.8365	-0.0026
669.0209	0.0158
669.2054	0.0109
669.3898	0.0078
669.5742	0.0064
669.7586	0.0097
669.943	0.0153
670.1273	0.0084
670.3117	0.0089
670.496	0.0053
670.6803	0.0142
670.8646	0.0117
671.0488	0.0036
671.2331	0.0101
671.4173	0.0095
671.6015	0.0052
671.7857	0.0121
671.9699	0.0071
672.1541	0.0098
672.3382	0.01
672.5223	0.0107
672.7064	0.0034
672.8905	0.0076
673.0746	0.0039
673.2587	-0.0021
673.4427	0.0127
673.6267	0.0053
673.8107	0.0171
673.9947	0.0109
674.1787	0.0085
674.3626	-0.0004
674.5465	0.0075
674.7304	0.0032
674.9143	0.0025
675.0982	0.0054
675.2821	-0.0017
675.4659	0.0066
675.6497	-0.0008
675.8335	-0
676.0173	0.0022
676.2011	-0.0027
676.3849	0.0055
676.5686	-0.0021
676.7523	0.0074
676.936	0.0019
677.1197	0.0038
677.3034	0.0031
677.487	0.0093
677.6706	0.0056
677.8542	0.0027
678.0378	-0.0067
678.2214	-0.0053
678.405	0.0036
678.5885	-0.0102
678.772	0.0037
678.9555	-0.0047
679.139	-0.0039
679.3225	0.0019
679.5059	-0.0052
679.6894	-0.0019
679.8728	-0.0016
680.0562	-0.004
680.2395	-0.0022
680.4229	0.0042
680.6062	0.0135
680.7896	0.0057
680.9729	-0.0099
681.1562	0.0087
681.3394	0.0041
681.5227	-0.0029
681.7059	-0.0058
681.8891	0.0036
682.0723	0.0061
682.2555	0.001
682.4387	0
682.6218	-0.0004
682.805	0.0103
682.9881	0.004
683.1712	-0.005
683.3542	-0.0026
683.5373	0.0055
683.7203	-0.0019
683.9034	0.0025
684.0864	-0.0047
684.2694	0.0025
684.4523	0.0068
684.6353	-0.005
684.8182	0.0071
685.0011	-0.008
685.184	0.0067
685.3669	0.0052
685.5498	0.0069
685.7326	0.0047
685.9154	-0.005
686.0982	0.0089
686.281	0.0053
686.4638	0.0027
686.6465	-0.0071
686.8293	-0.0033
687.012	0.0087
687.1947	-0.0043
687.3774	0.0014
687.56	0.0085
687.7427	0.0108
687.9253	0.0043
688.1079	0.0016
688.2905	0.0157
688.4731	0.0002
688.6556	-0.0058
688.8382	0.0075
689.0207	0.008
689.2032	-0.0075
689.3857	0.0023
689.5681	0.0123
689.7506	-0.0015
689.933	0.0024
690.1154	-0.0027
690.2978	0.0064
690.4802	0.0133
690.6626	-0.0105
690.8449	-0.0059
691.0272	0.0076
691.2095	0.001
691.3918	-0.0021
691.5741	0.0064
691.7563	0.0062
691.9386	0.002
692.1208	-0.0005
692.303	-0.0038
692.4852	0.0013
692.6673	0.0035
692.8495	-0.003
693.0316	-0.0025
693.2137	0.0072
693.3958	0.0033
693.5778	0.0061
693.7599	0.0105
693.9419	0.0082
694.1239	-0.0006
694.3059	0.0029
694.4879	0.0111
694.6699	0.0055
694.8518	0.0085
695.0337	0.0029
695.2157	0.0083
695.3975	0.0057
695.5794	0.0065
695.7613	0.004
695.9431	0.0081
696.1249	0.001
696.3067	-0.0027
696.4885	0.0089
696.6703	-0.0021
696.852	0.0007
697.0337	0.003
697.2154	0.0066
697.3971	0.0103
697.5788	0.0094
697.7605	-0.0008
697.9421	0.0129
698.1237	-0.0008
698.3053	0.003
698.4869	-0.0036
698.6685	-0.0022
698.85	-0.0027
699.0315	0.0086
699.213	-0.0017
699.3945	0.0014
699.576	0.0066
699.7575	0.0051
699.9389	0.0068
700.1203	-0.0012
700.3017	0.0011
700.4831	-0.0008
700.6645	0.0057
700.8458	0.006
701.0271	-0.0023
701.2084	0.0099
701.3897	0.0057
701.571	0.0057
701.7523	-0.0071
701.9335	0.0019
702.1147	0.0053
702.2959	0.0081
702.4771	0.0066
702.6583	0.0082
702.8394	0.0006
703.0205	0.0095
703.2016	-0.0024
703.3827	0.0013
703.5638	0.0032
703.7449	0.007
703.9259	0.0056
704.1069	-0.005
704.2879	0.0053
704.4689	0.0067
704.6499	0.0049
704.8308	0.0008
705.0117	-0.0014
705.1927	0.0024
705.3735	-0.0101
705.5544	-0.0022
705.7353	-0.0043
705.9161	-0.0082
706.0969	0.0019
706.2777	0.0031
706.4585	0.0002
706.6393	0.0019
706.82	0.0032
707.0007	0.005
707.1815	0.0065
707.3621	0.0113
707.5428	0.0095
707.7235	0.0063
707.9041	0.0096
708.0847	-0.0039
708.2653	-0.0026
708.4459	-0.0076
708.6265	-0.0008
708.807	0.0007
708.9875	-0
709.168	-0.0086
709.3485	-0.0006
709.529	-0.0002
709.7095	-0.0085
709.8899	0.0027
710.0703	-0.0095
710.2507	-0.0016
710.4311	-0.0047
710.6115	-0.0082
710.7918	0.0028
710.9721	0.0033
711.1524	-0.0056
711.3327	-0.0018
711.513	0.0013
711.6932	0.0061
711.8735	0.0003
712.0537	-0.0028
712.2339	0.0026
712.4141	-0.0116
712.5942	0.0012
712.7744	-0.0046
712.9545	-0.0034
713.1346	-0.0003
713.3147	0.0025
713.4947	-0.0011
713.6748	0.0017
713.8548	0.0013
714.0348	0.0006
714.2148	-0.0048
714.3948	0.0098
714.5748	0.0022
714.7547	-0.0036
714.9346	0.0081
715.1145	-0.0011
715.2944	-0.0062
715.4743	0.0008
715.6541	-0.002
715.834	0.0099
716.0138	-0.0067
716.1936	-0.0072
716.3733	-0.0002
716.5531	0.0047
716.7328	-0.0003
716.9126	-0.0028
717.0923	0.0071
717.2719	0.0034
717.4516	0.0042
717.6312	0.0023
717.8109	-0.0081
717.9905	-0.0006
718.1701	0.0021
718.3496	-0.0081
718.5292	0.0016
718.7087	-0.0001
718.8882	0.0092
719.0677	0.0038
719.2472	-0.0002
719.4267	0.0029
719.6061	0.0027
719.7856	0.0066
719.965	0.0109
720.1443	-0.0047
720.3237	0.0125
720.5031	0.0079
720.6824	0.0085
720.8617	0.0011
721.041	0.0015
721.2203	0.0054
721.3995	-0.0017
721.5788	0.0045
721.758	0.0063
721.9372	-0.0006
722.1164	0.0074
722.2956	0.0088
722.4747	0.008
722.6538	0.0064
722.8329	0.0146
723.012	0.01
723.1911	0.0019
723.3702	0.008
723.5492	0.0108
723.7282	0.0014
723.9072	0.0057
724.0862	-0.0066
724.2652	-0.0087
724.4441	-0.001
724.623	-0.0012
724.8019	-0.0039
724.9808	-0.0071
725.1597	-0.0192
725.3385	-0.0003
725.5174	0.0025
725.6962	0.0031
725.875	0.0094
726.0538	0.0141
726.2325	-0.0023
726.4112	-0.0025
726.59	-0.0064
726.7687	-0.0072
726.9474	-0.0037
727.126	-0.0126
727.3047	-0.0044
727.4833	0.0037
727.6619	-0.0032
727.8405	-0.0099
728.0191	-0.0059
728.1976	0.0043
728.3762	0.0008
728.5547	0.0032
728.7332	-0.0114
728.9116	0.001
729.0901	0.0131
729.2686	-0.0088
729.447	0.0076
729.6254	0.0041
729.8038	0.0038
729.9821	-0.0088
730.1605	0.0003
730.3388	0.0032
730.5171	-0.0057
730.6954	-0.0025
730.8737	0.0039
731.0519	0.0006
731.2302	0.0115
731.4084	0.0083
731.5866	0.0032
731.7648	0.0072
731.9429	0.0089
732.1211	-0.0041
732.2992	-0.0022
732.4773	0.0062
732.6554	0.011
732.8335	0.0047
733.0115	0.0057
733.1896	0.007
733.3676	-0.0103
733.5456	0.0119
733.7235	0.0047
733.9015	0.0073
734.0794	-0.0061
734.2574	0.0023
734.4353	-0.0013
734.6131	0.0136
734.791	0.0083
734.9689	0.0097
735.1467	0.0064
735.3245	0.0038
735.5023	-0.0025
735.68	0.0065
735.8578	0.0222
736.0355	-0.0104
736.2132	0.0014
736.3909	-0.0024
736.5686	-0.0039
736.7463	0.0148
736.9239	0.008
737.1015	0.008
737.2791	0.0065
737.4567	0.007
737.6343	-0.0013
737.8118	0.0087
737.9894	0.0078
738.1669	-0.0055
738.3444	-0.0022
738.5218	0.0099
738.6993	-0.0009
738.8767	-0.0069
739.0541	0.0127
739.2315	-0.0015
739.4089	0.0072
739.5863	-0.0007
739.7636	0.0047
739.9409	0
740.1182	0.0036
740.2955	0.0073
740.4728	-0.0003
740.65	-0.0021
740.8272	-0.0005
741.0044	-0.0021
741.1816	0.0058
741.3588	-0.0065
741.5359	0.0039
741.7131	-0.0111
741.8902	0.0034
742.0673	0.0018
742.2444	-0.0034
742.4214	-0.0054
742.5985	0.008
742.7755	-0.0064
742.9525	-0.0114
743.1295	0.0054
743.3064	0.0032
743.4834	0.0051
743.6603	-0.0073
743.8372	-0.0017
744.0141	0.0111
744.191	0.0021
744.3678	-0.0056
744.5446	0.0053
744.7215	0.0079
744.8982	-0.0038
745.075	-0.0065
745.2518	0.0009
745.4285	-0.0005
745.6052	-0.012
745.7819	-0.0006
745.9586	0.0023
746.1353	-0.0009
746.3119	0.0014
746.4885	-0.0082
746.6651	0.003
746.8417	0.0016
747.0183	0.0038
747.1948	-0.0049
747.3714	-0.0013
747.5479	-0.0015
747.7244	-0.0046
747.9008	-0.0002
748.0773	0.0023
748.2537	-0.0026
748.4301	-0.0026
748.6065	0.0069
748.7829	0.0109
748.9593	0.0023
749.1356	0.0085
749.3119	0.009
749.4882	-0.0127
749.6645	0.0051
749.8408	-0.0055
750.017	-0.0001
750.1933	-0.0008
750.3695	-0.0077
750.5457	0.0002
750.7218	-0.0003
750.898	0.0008
751.0741	0.0004
751.2502	-0.0003
751.4263	-0.0004
751.6024	-0.0043
751.7784	-0.0027
751.9545	-0.0122
752.1305	0.0076
752.3065	-0.0027
752.4825	0.0092
752.6584	-0.0005
752.8344	0.0011
753.0103	-0.0157
753.1862	-0.0055
753.3621	0.0098
753.5379	-0.0019
753.7138	-0.0022
753.8896	0.0035
754.0654	-0.0027
754.2412	0.007
754.417	-0.0004
754.5927	0.0002
754.7685	-0.0047
754.9442	-0.0034
755.1199	0.0114
755.2956	-0.0013
755.4712	0.0113
755.6469	0.0053
755.8225	-0.0058
755.9981	-0.0046
756.1736	0.0025
756.3492	0.0011
756.5248	-0.0049
756.7003	-0.006
756.8758	0.0023
757.0513	-0.0176
757.2267	-0.005
757.4022	-0.0038
757.5776	-0.0065
757.753	0.0037
757.9284	-0.0045
758.1038	0.0082
758.2791	0.0017
758.4545	-0.0073
758.6298	0.0054
758.8051	0.004
758.9803	-0.0021
759.1556	-0.0007
759.3308	-0.019
759.506	0.0006
759.6812	-0.0023
759.8564	0.0075
760.0316	-0.0039
760.2067	0.0024
760.3819	0.0069
760.557	0.0158
760.732	0.0039
760.9071	-0.01
761.0821	0.0017
761.2572	0.0151
761.4322	0.0081
761.6072	0.0012
761.7821	-0.0044
761.9571	0.0071
762.132	-0.0053
762.3069	-0.0073
762.4818	-0.0039
762.6567	-0.009
762.8316	0.0049
763.0064	0.0024
763.1812	0.0007
763.356	-0.0022
763.5308	-0.0099
763.7055	-0.0031
763.8803	-0.0011
764.055	0.0036
764.2297	0.0059
764.4044	-0.0046
764.579	0.0052
764.7537	-0.0029
764.9283	0.0079
765.1029	0
765.2775	0.0032
765.4521	-0.0044
765.6266	-0.0092
765.8011	0.0026
765.9756	0.0052
766.1501	0.0181
766.3246	-0.0006
766.4991	0.0014
766.6735	0.0081
766.8479	-0.0011
767.0223	0.0048
767.1967	0.0076
767.371	0.0068
767.5454	-0.002
767.7197	0.0023
767.894	-0.0034
768.0683	-0.0068
768.2425	0.0028
768.4168	0.0065
768.591	0.0074
768.7652	-0.0021
768.9394	0.0052
769.1135	0.0052
769.2877	0.0145
769.4618	-0.0011
769.6359	0.0054
769.81	0.006
769.984	-0.0068
770.1581	-0.0121
770.3321	-0.0022
770.5061	-0.0049
770.6801	-0.0032
770.8541	0.0046
771.028	0.0026
771.202	-0.0167
771.3759	0.0059
771.5498	-0.0122
771.7236	0.0055
771.8975	-0.0074
772.0713	0.0086
772.2451	0.0013
772.4189	0.003
772.5927	0.0078
772.7665	0.0028
772.9402	-0.0001
773.1139	-0.0007
773.2876	0.0074
773.4613	0.0081
773.635	0.0053
773.8086	0.0048
773.9822	0.0059
774.1558	0.0054
774.3294	-0.0131
774.503	0.0096
774.6765	-0.0061
774.8501	0.0074
775.0236	0.0143
775.1971	0.0105
775.3705	-0.0082
775.544	0.012
775.7174	0.0005
775.8908	0.0178
776.0642	0.0064
776.2376	0.0131
776.4109	0.0086
776.5843	0.012
776.7576	0.0185
776.9309	0.0245
777.1041	0.0154
777.2774	0.0183
777.4506	0.0111
777.6238	0.01
777.797	0.0082
777.9702	0.002
778.1434	0.0126
778.3165	-0.0026
778.4896	0.0069
778.6627	0.0142
778.8358	0.0006
779.0089	-0.0121
779.1819	-0.0019
779.3549	0.0288
779.5279	-0.0036
779.7009	0.0035
779.8739	0.003
780.0468	-0.0081
780.2197	0.0158
780.3926	-0.006
780.5655	0.0102
780.7384	-0.0017
780.9112	0.0042
781.0841	-0.0045
781.2569	-0.0064
781.4297	0.0046
781.6024	0.0109
781.7752	0.0109
781.9479	0.0033
782.1206	0.003
782.2933	0.0026
782.466	0.0157
782.6386	0.0037
782.8113	-0.0043
782.9839	0.0132
783.1565	0.0163
783.329	0.013
783.5016	0.0128
783.6741	0.0094
783.8466	-0.0002
784.0191	0.0173
784.1916	-0.0016
784.3641	0.003
784.5365	0.0265
784.7089	0.009
784.8813	-0.0048
785.0537	0.0056
785.2261	0.0075
785.3984	0.0009
785.5707	0.0094
785.743	0.0075
785.9153	0.0008
786.0876	0.0069
786.2598	-0.0086
786.432	-0.0054
786.6042	0.0107
786.7764	-0.0008
786.9486	0.0055
787.1207	-0.0043
787.2928	0.018
787.4649	0.0073
787.637	0.0031
787.8091	0.0182
787.9811	-0.0014
788.1532	0.0177
788.3252	0.0061
788.4972	0.0063
788.6691	0.0046
788.8411	0.0137
789.013	-0.0108
789.1849	0.009
789.3568	-0.0074
789.5287	0.0069
789.7005	0.0084
789.8723	0.0067
790.0442	0.0184
790.2159	0.0056
790.3877	0.008
790.5595	-0.0059
790.7312	0.014
790.9029	0.0038
791.0746	-0.0131
791.2463	0.0033
791.4179	0.0236
791.5896	0.0044
791.7612	0.0062
791.9328	0.0104
792.1044	-0.0113
792.2759	-0.0079
792.4474	0.013
792.619	0.0158
792.7905	0.0108
792.9619	0.0029
793.1334	0.0144
793.3048	0.0166
793.4762	0.0132
793.6476	0.0065
793.819	-0.0078
793.9904	0.0097
794.1617	-0.0085
794.333	0.0005
794.5043	-0.0171
794.6756	-0.0067
794.8469	-0.0043
795.0181	0.0017
795.1893	-0.0013
795.3605	0.0122
795.5317	0.0093
795.7029	-0.0023
795.874	0.0059
796.0452	0.0027
796.2163	-0.013
796.3873	0.0015
796.5584	0.0061
796.7294	0.0123
796.9005	0.0204
797.0715	0.0045
797.2425	0.001
797.4134	0.0026
797.5844	0.0202
797.7553	-0.0078
797.9262	0.0099
798.0971	0.0078
798.2679	-0.0117
798.4388	-0.0133
798.6096	-0.0064
798.7804	-0.0027
798.9512	-0.0066
799.122	0.0037
799.2927	0.002
799.4635	0.0195
799.6342	-0.0174
799.8049	-0.0028
799.9755	-0.0007
800.1462	0.0001
800.3168	0.0168
800.4874	-0.0057
800.658	0.0311
800.8286	0.0038
800.9991	0.0144
801.1696	0.0076
801.3402	0.0205
801.5106	0.0081
801.6811	0.0252
801.8516	0.0273
802.022	0.0109
802.1924	0.0161
802.3628	0.0139
802.5332	0.0255
802.7035	0.0239
802.8739	0.0071
803.0442	0.0108
803.2145	0.0234
803.3847	-0.0096
803.555	0.0098
803.7252	0.0005
803.8954	-0.0069
804.0656	-0.0012
804.2358	-0.0068
804.4059	0.0229
804.5761	-0.0042
804.7462	0.0205
804.9163	0.0107
805.0864	-0.0126
805.2564	-0.0035
805.4264	0.0025
805.5965	-0.0026
805.7665	-0.0074
805.9364	-0.0004
806.1064	0.0392
806.2763	0.0129
806.4462	0.0299
806.6161	0.0146
806.786	0.0062
806.9559	-0.0062
807.1257	0.0024
807.2955	0.0069
807.4653	0.0116
807.6351	-0.01
807.8048	0.0156
807.9746	0.0155
808.1443	0.001
808.314	0.0088
808.4837	0.006
808.6533	0.0107
808.8229	0.0339
808.9926	0.0004
809.1622	0.0159
809.3317	0.0028
809.5013	0.0069
809.6708	0.0142
809.8403	-0.0021
810.0098	-0.0054
810.1793	0.0334
810.3488	0.0209
810.5182	-0.0166
810.6876	0.0184
810.857	0.0049
811.0264	0.0371
811.1958	0.0332
811.3651	0.0083
811.5344	0.0254
811.7037	-0.0133
811.873	0.0031
812.0422	-0.0146
812.2115	0.0058
812.3807	-0.0005
812.5499	0.0253
812.7191	0.0193
812.8882	0.0033
813.0574	0.0051
813.2265	0.0196
813.3956	0.0056
813.5646	0.0176
813.7337	-0.0088
813.9027	0.0246
814.0718	0.0389
814.2407	0.0236
814.4097	-0.001
814.5787	0.0028
814.7476	0.0021
814.9165	0.0015
815.0854	0.0094
815.2543	0.0027
815.4232	0.0068
815.592	0.0178
815.7608	0.0001
815.9296	0.0246
816.0984	0.0377
816.2671	0.0232
816.4359	0.0305
816.6046	0.0229
816.7733	-0.014
816.942	-0.0165
817.1106	0.0195
817.2793	0.0333
817.4479	0.0263
817.6165	0.0299
817.785	0.0065
817.9536	-0.0121
818.1221	0.0139
818.2906	0.0102
818.4591	-0.0089
818.6276	-0.0128
818.7961	-0.0038
818.9645	0.015
819.1329	-0.0015
819.3013	0.053
819.4697	0.0301
819.638	-0.0097
819.8064	0.0207
819.9747	0.0341
820.143	0.0208
820.3113	-0.0184
820.4795	0.0176
820.6477	0.0181
820.816	0.0231
820.9842	0.0174
821.1523	0.002
821.3205	0.0077
821.4886	0.0239
821.6567	0.007
821.8248	-0.0019
821.9929	0.029
822.1609	-0.0058
822.329	0.0402
822.497	0.0464
822.665	0.0057
822.833	0.008
823.0009	0.0205
823.1688	0.0366
823.3367	0.0142
823.5046	-0.0014
823.6725	0.0247
823.8404	0.0274
824.0082	0.0189
824.176	0.0291
824.3438	0.0294
824.5116	-0.0007
824.6793	0.0221
824.847	-0.0096
825.0147	0.0234
825.1824	0.0097
825.3501	-0.0053
825.5177	-0.0064
825.6854	-0.0196
825.853	0.0211
826.0206	-0.0021
826.1881	0.0351
826.3557	0.0098
826.5232	-0.0011
826.6907	-0.0105
826.8582	0.0384
827.0257	0.0067
827.1931	0.0248
827.3605	0.0438
827.528	0.0187
827.6953	-0.0021
827.8627	0.0039
828.03	0.0493
828.1974	-0.0059
828.3647	-0.0075
828.532	-0.0032
828.6992	-0.0186
828.8665	-0.0031
829.0337	-0.0038
829.2009	0.0399
829.3681	0.0179
829.5352	0.0308
829.7024	0.0024
829.8695	-0.052
830.0366	0.0542
830.2037	0.0147
830.3707	0.0482
830.5378	0.033
830.7048	-0.0003
830.8718	-0.0014
831.0388	0.0054
831.2057	0.0249
831.3727	0.0676
831.5396	-0.0032
831.7065	-0.0139
831.8734	0.027
832.0402	-0.0346
832.2071	0.0216
832.3739	-0.041
832.5407	0.0063
832.7075	-0.0235
832.8742	-0.0435
833.041	0.0104
833.2077	0.0222
833.3744	0.0159
833.541	0.0244
833.7077	0.0104
833.8743	0.0016
834.0409	0.0339
834.2075	-0.0292
834.3741	-0.0208
834.5407	0.006
834.7072	0.0251
834.8737	0.0165
835.0402	-0.0239
835.2067	0.0279
835.3731	0.0304
835.5395	0.0172
835.706	0.0445
835.8723	-0.0194
836.0387	0.0296
836.2051	0.0166
836.3714	0.0044
836.5377	0.028
836.704	-0.0089
836.8703	0.0144
837.0365	0.0175
837.2027	-0.0318
837.3689	0.0346
837.5351	-0.0101
837.7013	-0.013
837.8674	-0.0185
838.0335	-0.0318
838.1997	0.0119
838.3657	-0.0495
838.5318	-0.034
838.6978	0.0225
838.8639	0.0616
839.0299	-0.0115
839.1958	-0.002
839.3618	-0.023
839.5277	-0.0081
839.6937	0.0121
839.8596	-0.0014
840.0254	0.0207
840.1913	0.0392
840.3571	0.0768
840.523	-0.0055
840.6888	0.0356
840.8545	-0.023
841.0203	0.0155
841.186	-0.0056
841.3517	-0.0014
841.5174	0.021
841.6831	-0.0635
841.8488	0.0302
842.0144	-0.0069
842.18	0.0111
842.3456	0.0501
842.5112	-0.0242
842.6767	0.0034
842.8422	-0.0133
843.0077	-0.0006
843.1732	-0.0501
843.3387	-0.0375
843.5042	-0.0088
843.6696	0.041
843.835	0.0472
844.0004	0.0767
844.1657	0.0252
844.3311	-0.0185
844.4964	-0.064
844.6617	-0.0006
844.827	0.0016
844.9923	-0.0251
845.1575	0.0126
845.3227	0.0194
845.4879	0.0236
845.6531	-0.0767
845.8183	-0.0434
845.9834	0.0424
846.1485	-0.0401
846.3136	-0.0181
846.4787	-0.0878
846.6438	0.0484
846.8088	0.0249
846.9738	-0.0765
847.1388	-0.0064
847.3038	-0.0113
847.4687	-0.1291
847.6337	-0.0122
847.7986	-0.052
847.9635	-0.0388
848.1284	-0.0546
848.2932	-0.007
848.458	-0.0193
848.6228	0.0729
848.7876	0.0373
848.9524	-0.0879
849.1172	-0.0314
849.2819	0.0221
849.4466	-0.107
849.6113	-0.0891
849.7759	0.0172
849.9406	-0.0631
850.1052	0.0229
850.2698	-0.0196
850.4344	-0.0781
850.599	-0.021
850.7635	0.0574
850.928	0.0472
851.0925	-0.0431
851.257	0.0397
851.4215	-0.0342
851.5859	0.0053
851.7503	0.1262
851.9147	-0.0042
852.0791	-0.0131
852.2434	-0.0443
852.4078	0.0074
852.5721	0.0188
852.7364	0.0239
852.9007	-0.0677
853.0649	-0.058
853.2291	0.0458
853.3934	0.0577
853.5575	0.1129
853.7217	-0.0071
853.8859	-0.0838
854.05	-0.0981
854.2141	0.0116
854.3782	-0.0573
854.5423	-0.0217
854.7063	0.1139
854.8703	0.0298
855.0343	0.0045
855.1983	-0.2347
855.3623	0.2006
855.5262	0.2135
855.6901	-0.0831
855.854	0.0928
856.0179	0.026
856.1818	0.1027
856.3456	-0.1064
856.5094	-0.0709
856.6732	-0.1376
856.837	0.1183
857.0008	-0.0786
857.1645	-0.0583
857.3282	-0.1905
857.4919	0.0277
857.6556	-0.1346
857.8192	-0.0273
857.9828	0.0461
858.1465	0.0929
858.31	-0.1998
858.4736	-0.1375
858.6372	-0.2374
858.8007	-0.1537
858.9642	0.2401
859.1277	0.0657
859.2911	0.0407
859.4546	-0.0675
859.618	-0.3074
859.7814	-0.0642
859.9448	0.133
860.1081	0.065
860.2715	0.1323
860.4348	0.2801
860.5981	0.2591
860.7614	0.0992
860.9246	-0.0412
861.0879	-0.0938
861.2511	0.0537
861.4143	0.2038
861.5774	0.1375
861.7406	-0.1713
861.9037	0.1418
862.0668	0.0234
862.2299	0.2141
862.393	-0.5833
862.556	0.0441
862.7191	0.0292
862.8821	-0.0236
863.0451	0.4107
863.208	0.15
863.371	0.0443
863.5339	-0.4172
863.6968	-0.0492
863.8597	0.1544
864.0225	-0.1641
864.1854	0.181
864.3482	0.7986
864.511	0.2128
864.6737	0.0027
864.8365	0.0184
864.9992	-0.2671
865.1619	0.2033
865.3246	-0.1809
865.4873	0.1618
865.65	-0.1496
865.8126	-0.0628
865.9752	0.4305
866.1378	-0.2252
866.3004	-0
866.4629	-0.01
866.6254	0.0339
866.7879	0.6234
866.9504	-0
867.1129	-0
867.2753	0.0552
867.4377	0.3353
867.6001	-0.2539
867.7625	1.3542
867.9249	-0.9498
868.0872	-0.0135
868.2495	0.2377
868.4118	-0.3118
868.5741	-0.5031
868.7363	-0.2891
868.8986	-0
869.0608	-0.0988
869.223	-0.0542
869.3851	0.5992
869.5473	-0
869.7094	0.8298
869.8715	-0.3256
870.0336	-1.0562
870.1957	-0.0983
870.3577	-0
870.5197	-0.3028
870.6817	-0.4283
870.8437	-0.0039
871.0057	-0
871.1676	0.7641
871.3295	-0.0782
871.4914	-0
871.6533	-0.3755
871.8151	-0.1084
871.977	-0
872.1388	-0
872.3006	-0.1284
872.4623	1.8016
872.6241	0.03
872.7858	-0.2832
872.9475	0.6314
873.1092	-0.0346
873.2709	-0
873.4325	-0.0071
873.5941	-0.0576
873.7557	-0
873.9173	-0
874.0789	-0.7497
874.2404	-0.5203
874.4019	0.0485
874.5634	-0.0074
874.7249	-0.3465
874.8863	-0.2865
875.0478	-0.0481
875.2092	-0
875.3706	0.7031
875.5319	-0.6438
875.6933	-0.15
875.8546	-0
876.0159	-0
876.1772	0.5996
876.3385	-0
876.4997	0.655
876.6609	-0.316
876.8221	0.1183
876.9833	-0
877.1445	-0
877.3056	0.4211
877.4667	-0.3306
877.6278	-0
877.7889	-0.5661
877.9499	1.0544
878.111	-0.0465
878.272	-0
878.433	-0
878.5939	-0.2981
878.7549	0.115
878.9158	-0.9376
879.0767	1.3778
879.2376	-0
879.3984	0.4963
879.5593	-0
879.7201	-0.0726
879.8809	-0.2658
880.0417	-0.1361
880.2024	0.3221
880.3632	-0.7697
880.5239	-0
880.6846	-0
880.8452	-1.9754
881.0059	-1.574
881.1665	-0.3555
881.3271	-0.0685
881.4877	-0.0983
881.6483	-0.4338
881.8088	-0.3623
881.9693	0.2454
882.1298	0.2454
882.2903	0.2454
