Data from MonoPyChalIsomerACN10uM360nmA_Absorbance_13-57-24-104.txt Node
Date: Fri Jul 05 13:57:24 BST 2024
User: LASERRRRR
Spectrometer: FLMT03099
Trigger mode: 0
Integration Time (sec): 1.000000E-1
Scans to average: 1
Electric dark correction enabled: true
Nonlinearity correction enabled: false
Boxcar width: 0
XAxis mode: Wavelengths
Number of Pixels in Spectrum: 3648
>>>>>Begin Spectral Data<<<<<
179.3399	-0.2171
179.5586	-0.2171
179.7771	-0.2171
179.9957	0.7278
180.2143	0.1268
180.4329	0.1356
180.6514	0.4762
180.8699	1
181.0885	-0.1003
181.307	-0
181.5255	-0.5171
181.744	-0.358
181.9625	-0
182.181	-1.1473
182.3994	1.1657
182.6179	-0
182.8363	-0
183.0547	-0.1196
183.2732	0.0975
183.4916	0.1088
183.71	0.0442
183.9284	0.1291
184.1467	-0.0978
184.3651	-0.1062
184.5835	0.2394
184.8018	0.2058
185.0201	-0.1158
185.2385	0.009
185.4568	0.1624
185.6751	0.0044
185.8934	0.3331
186.1117	0.0181
186.3299	0.0331
186.5482	0.2064
186.7664	-0.1062
186.9847	0.0034
187.2029	0.2031
187.4211	0.0354
187.6393	0.2388
187.8575	0.1053
188.0757	0.3049
188.2939	0.1116
188.512	-0.0474
188.7302	-0.0242
188.9483	-0.1227
189.1665	0.1965
189.3846	0.0956
189.6027	0.054
189.8208	0.2936
190.0389	0.1633
190.257	0.2932
190.475	0.2379
190.6931	0.2169
190.9111	0.3676
191.1292	0.2241
191.3472	0.5913
191.5652	0.313
191.7832	0.2993
192.0012	0.4169
192.2192	0.4963
192.4371	0.4862
192.6551	0.3568
192.873	0.3416
193.091	0.4718
193.3089	0.419
193.5268	0.4255
193.7447	0.4795
193.9626	0.4608
194.1805	0.3819
194.3984	0.5509
194.6162	0.4655
194.8341	0.493
195.0519	0.789
195.2697	0.6263
195.4875	0.7742
195.7054	0.7778
195.9231	0.6257
196.1409	0.6663
196.3587	0.4406
196.5765	0.5041
196.7942	0.4498
197.012	0.5582
197.2297	0.5675
197.4474	0.6839
197.6651	0.3944
197.8828	0.4733
198.1005	0.6494
198.3182	0.6101
198.5358	0.6823
198.7535	0.6476
198.9711	0.5184
199.1888	0.6555
199.4064	0.7581
199.624	0.7015
199.8416	0.5424
200.0592	0.6563
200.2767	0.6162
200.4943	0.6486
200.7119	0.8751
200.9294	0.6685
201.1469	0.5968
201.3645	0.548
201.582	0.5414
201.7995	0.6199
202.017	0.6387
202.2344	0.6176
202.4519	0.7158
202.6694	0.6617
202.8868	0.5717
203.1042	0.674
203.3217	0.6286
203.5391	0.5893
203.7565	0.6277
203.9739	0.5259
204.1913	0.5652
204.4086	0.591
204.626	0.5849
204.8433	0.7046
205.0607	0.5779
205.278	0.6879
205.4953	0.6562
205.7126	0.5201
205.9299	0.821
206.1472	0.7395
206.3644	0.6477
206.5817	0.639
206.7989	0.6773
207.0162	0.7006
207.2334	0.6371
207.4506	0.6205
207.6678	0.6452
207.885	0.6867
208.1022	0.6625
208.3194	0.6005
208.5365	0.6395
208.7537	0.6948
208.9708	0.5022
209.1879	0.6624
209.405	0.6889
209.6222	0.6414
209.8392	0.5844
210.0563	0.5801
210.2734	0.6452
210.4905	0.6315
210.7075	0.6349
210.9245	0.5494
211.1416	0.6543
211.3586	0.5593
211.5756	0.5269
211.7926	0.5674
212.0096	0.536
212.2265	0.547
212.4435	0.5289
212.6604	0.5797
212.8774	0.6086
213.0943	0.5337
213.3112	0.5335
213.5281	0.5251
213.745	0.4947
213.9619	0.4843
214.1788	0.5203
214.3956	0.4491
214.6125	0.456
214.8293	0.4535
215.0461	0.4716
215.2629	0.4683
215.4798	0.4925
215.6965	0.4312
215.9133	0.4264
216.1301	0.4278
216.3469	0.4242
216.5636	0.4093
216.7803	0.3808
216.9971	0.4433
217.2138	0.3937
217.4305	0.3755
217.6472	0.3792
217.8639	0.3606
218.0805	0.3611
218.2972	0.3556
218.5138	0.3335
218.7305	0.3269
218.9471	0.3209
219.1637	0.2987
219.3803	0.2857
219.5969	0.2795
219.8135	0.2545
220.0301	0.2621
220.2466	0.2848
220.4632	0.2785
220.6797	0.2549
220.8962	0.256
221.1127	0.2655
221.3292	0.2627
221.5457	0.2478
221.7622	0.2425
221.9787	0.2644
222.1951	0.2419
222.4116	0.2605
222.628	0.2483
222.8444	0.268
223.0608	0.2309
223.2772	0.2774
223.4936	0.291
223.71	0.2587
223.9264	0.2888
224.1427	0.2617
224.3591	0.2544
224.5754	0.2847
224.7917	0.273
225.008	0.2699
225.2243	0.2775
225.4406	0.2945
225.6569	0.2629
225.8732	0.2554
226.0894	0.2912
226.3057	0.2636
226.5219	0.2805
226.7381	0.2791
226.9543	0.2828
227.1705	0.299
227.3867	0.2776
227.6029	0.3018
227.8191	0.3044
228.0352	0.2852
228.2513	0.3078
228.4675	0.3116
228.6836	0.3207
228.8997	0.3021
229.1158	0.331
229.3319	0.3016
229.548	0.3296
229.764	0.3399
229.9801	0.3235
230.1961	0.3417
230.4121	0.3354
230.6282	0.3212
230.8442	0.3218
231.0602	0.3464
231.2761	0.3773
231.4921	0.3392
231.7081	0.3575
231.924	0.3594
232.14	0.3755
232.3559	0.3453
232.5718	0.3689
232.7877	0.3511
233.0036	0.3522
233.2195	0.369
233.4353	0.3727
233.6512	0.3584
233.867	0.372
234.0829	0.3675
234.2987	0.3835
234.5145	0.3831
234.7303	0.3796
234.9461	0.4011
235.1619	0.4117
235.3776	0.3974
235.5934	0.3959
235.8091	0.3767
236.0249	0.3802
236.2406	0.3744
236.4563	0.3962
236.672	0.4107
236.8877	0.4138
237.1034	0.4129
237.319	0.4056
237.5347	0.4154
237.7503	0.4146
237.966	0.425
238.1816	0.4073
238.3972	0.4058
238.6128	0.3962
238.8284	0.4249
239.0439	0.3993
239.2595	0.3889
239.475	0.4173
239.6906	0.407
239.9061	0.4167
240.1216	0.399
240.3371	0.4324
240.5526	0.3991
240.7681	0.4001
240.9836	0.3796
241.199	0.403
241.4145	0.3905
241.6299	0.3857
241.8453	0.3756
242.0607	0.3905
242.2761	0.3534
242.4915	0.3556
242.7069	0.38
242.9223	0.3426
243.1376	0.3525
243.353	0.3452
243.5683	0.3526
243.7836	0.3128
243.9989	0.3294
244.2142	0.2991
244.4295	0.3111
244.6448	0.3137
244.86	0.2854
245.0753	0.2741
245.2905	0.2827
245.5057	0.2699
245.721	0.2717
245.9362	0.2665
246.1514	0.2543
246.3665	0.2555
246.5817	0.257
246.7969	0.2413
247.012	0.2419
247.2271	0.2344
247.4423	0.2345
247.6574	0.2432
247.8725	0.2242
248.0876	0.2204
248.3026	0.2171
248.5177	0.2172
248.7328	0.2202
248.9478	0.2163
249.1628	0.2094
249.3779	0.2169
249.5929	0.192
249.8079	0.2066
250.0228	0.1947
250.2378	0.1997
250.4528	0.1949
250.6677	0.1885
250.8827	0.1915
251.0976	0.1964
251.3125	0.1886
251.5274	0.163
251.7423	0.1863
251.9572	0.1892
252.172	0.1887
252.3869	0.1901
252.6017	0.1722
252.8166	0.1665
253.0314	0.174
253.2462	0.1797
253.461	0.1829
253.6758	0.1743
253.8906	0.1733
254.1053	0.1665
254.3201	0.1614
254.5348	0.1705
254.7496	0.1778
254.9643	0.1705
255.179	0.1677
255.3937	0.1721
255.6083	0.179
255.823	0.1707
256.0377	0.1576
256.2523	0.1729
256.467	0.1547
256.6816	0.1673
256.8962	0.1704
257.1108	0.1498
257.3254	0.1711
257.54	0.1732
257.7545	0.1662
257.9691	0.1785
258.1836	0.1678
258.3981	0.1777
258.6127	0.1673
258.8272	0.1623
259.0417	0.1659
259.2561	0.1686
259.4706	0.1706
259.6851	0.157
259.8995	0.1626
260.114	0.1564
260.3284	0.1651
260.5428	0.1596
260.7572	0.1663
260.9716	0.1618
261.186	0.1543
261.4003	0.177
261.6147	0.16
261.829	0.1708
262.0433	0.1713
262.2577	0.1596
262.472	0.1657
262.6863	0.1634
262.9005	0.1531
263.1148	0.1651
263.3291	0.1434
263.5433	0.1589
263.7576	0.1762
263.9718	0.1635
264.186	0.1651
264.4002	0.1668
264.6144	0.1601
264.8286	0.1641
265.0427	0.1673
265.2569	0.1606
265.471	0.1768
265.6851	0.1618
265.8993	0.162
266.1134	0.1492
266.3275	0.1553
266.5415	0.1536
266.7556	0.1604
266.9697	0.1543
267.1837	0.1592
267.3978	0.1632
267.6118	0.1726
267.8258	0.1816
268.0398	0.155
268.2538	0.1646
268.4677	0.1618
268.6817	0.147
268.8957	0.1551
269.1096	0.1542
269.3235	0.1632
269.5374	0.1525
269.7514	0.1524
269.9652	0.1483
270.1791	0.1461
270.393	0.1432
270.6068	0.1537
270.8207	0.1488
271.0345	0.1421
271.2483	0.1568
271.4622	0.1465
271.676	0.1519
271.8897	0.1407
272.1035	0.1384
272.3173	0.1314
272.531	0.1316
272.7448	0.1342
272.9585	0.1319
273.1722	0.1442
273.3859	0.148
273.5996	0.1311
273.8133	0.1404
274.0269	0.1417
274.2406	0.1345
274.4542	0.1433
274.6679	0.1301
274.8815	0.1426
275.0951	0.1388
275.3087	0.1395
275.5223	0.1396
275.7358	0.1435
275.9494	0.1349
276.1629	0.1294
276.3765	0.1404
276.59	0.1394
276.8035	0.1396
277.017	0.1425
277.2305	0.1389
277.444	0.1335
277.6574	0.1264
277.8709	0.1377
278.0843	0.1421
278.2978	0.125
278.5112	0.1431
278.7246	0.1357
278.938	0.1463
279.1513	0.1487
279.3647	0.1507
279.5781	0.132
279.7914	0.1393
280.0047	0.1528
280.2181	0.1502
280.4314	0.1459
280.6447	0.1468
280.8579	0.1319
281.0712	0.1489
281.2845	0.1435
281.4977	0.1458
281.711	0.1429
281.9242	0.1419
282.1374	0.154
282.3506	0.1471
282.5638	0.1459
282.7769	0.1548
282.9901	0.1397
283.2033	0.1527
283.4164	0.1544
283.6295	0.1429
283.8426	0.1577
284.0557	0.1517
284.2688	0.1687
284.4819	0.1556
284.695	0.1561
284.908	0.173
285.1211	0.1535
285.3341	0.1499
285.5471	0.1678
285.7601	0.1565
285.9731	0.1457
286.1861	0.1624
286.3991	0.1699
286.612	0.1702
286.825	0.1645
287.0379	0.1686
287.2508	0.1705
287.4637	0.1599
287.6766	0.1606
287.8895	0.1756
288.1024	0.1838
288.3152	0.1718
288.5281	0.1539
288.7409	0.1593
288.9538	0.1638
289.1666	0.1685
289.3794	0.17
289.5922	0.1601
289.8049	0.1476
290.0177	0.1611
290.2304	0.176
290.4432	0.1698
290.6559	0.1704
290.8686	0.1797
291.0813	0.17
291.294	0.1759
291.5067	0.1686
291.7194	0.1762
291.932	0.1772
292.1447	0.179
292.3573	0.1586
292.5699	0.171
292.7825	0.1729
292.9951	0.1695
293.2077	0.1711
293.4203	0.1751
293.6328	0.1552
293.8454	0.1818
294.0579	0.1799
294.2704	0.1688
294.4829	0.1609
294.6954	0.1577
294.9079	0.1775
295.1204	0.1738
295.3328	0.1696
295.5453	0.1751
295.7577	0.1767
295.9701	0.1649
296.1825	0.1794
296.3949	0.1767
296.6073	0.1728
296.8197	0.1657
297.0321	0.1783
297.2444	0.1585
297.4567	0.1699
297.6691	0.1725
297.8814	0.1618
298.0937	0.1662
298.306	0.1751
298.5182	0.1754
298.7305	0.1791
298.9428	0.1685
299.155	0.1758
299.3672	0.1758
299.5794	0.1613
299.7916	0.1688
300.0038	0.1795
300.216	0.1676
300.4282	0.1722
300.6403	0.1713
300.8525	0.179
301.0646	0.178
301.2767	0.1732
301.4888	0.1702
301.7009	0.1682
301.913	0.1723
302.125	0.1694
302.3371	0.1736
302.5491	0.1693
302.7612	0.1712
302.9732	0.1779
303.1852	0.1743
303.3972	0.1778
303.6092	0.1615
303.8211	0.1608
304.0331	0.1697
304.245	0.1567
304.457	0.1593
304.6689	0.1588
304.8808	0.1824
305.0927	0.1551
305.3046	0.1664
305.5164	0.1645
305.7283	0.1427
305.9401	0.1437
306.152	0.1614
306.3638	0.154
306.5756	0.1597
306.7874	0.165
306.9992	0.1643
307.2109	0.1524
307.4227	0.1389
307.6344	0.1506
307.8462	0.1405
308.0579	0.1451
308.2696	0.1341
308.4813	0.1379
308.693	0.1273
308.9046	0.1377
309.1163	0.1357
309.328	0.1266
309.5396	0.1218
309.7512	0.117
309.9628	0.1166
310.1744	0.1115
310.386	0.1215
310.5976	0.1244
310.8091	0.119
311.0207	0.1225
311.2322	0.1193
311.4437	0.1121
311.6552	0.1098
311.8667	0.1155
312.0782	0.0987
312.2897	0.1018
312.5012	0.1167
312.7126	0.1192
312.924	0.0999
313.1355	0.111
313.3469	0.1033
313.5583	0.1067
313.7696	0.1132
313.981	0.099
314.1924	0.1038
314.4037	0.0973
314.6151	0.1122
314.8264	0.0927
315.0377	0.1035
315.249	0.0908
315.4603	0.0996
315.6716	0.0996
315.8828	0.0951
316.0941	0.0945
316.3053	0.0884
316.5165	0.0933
316.7277	0.087
316.9389	0.1059
317.1501	0.0859
317.3613	0.0992
317.5724	0.0882
317.7836	0.0993
317.9947	0.0987
318.2058	0.0902
318.417	0.0889
318.6281	0.0859
318.8391	0.0899
319.0502	0.0811
319.2613	0.101
319.4723	0.0955
319.6834	0.1043
319.8944	0.0799
320.1054	0.0987
320.3164	0.0876
320.5274	0.0748
320.7383	0.0906
320.9493	0.0987
321.1602	0.1081
321.3712	0.0783
321.5821	0.0953
321.793	0.0868
322.0039	0.1039
322.2148	0.0902
322.4257	0.0983
322.6365	0.1069
322.8474	0.109
323.0582	0.097
323.269	0.1033
323.4798	0.1071
323.6906	0.1034
323.9014	0.0986
324.1122	0.0916
324.3229	0.0911
324.5337	0.0994
324.7444	0.0922
324.9551	0.1127
325.1658	0.1049
325.3765	0.0964
325.5872	0.0972
325.7979	0.095
326.0085	0.0952
326.2192	0.1009
326.4298	0.0975
326.6404	0.1019
326.851	0.0823
327.0616	0.0854
327.2722	0.0994
327.4828	0.1065
327.6933	0.0939
327.9039	0.0933
328.1144	0.1054
328.3249	0.1045
328.5354	0.0884
328.7459	0.0983
328.9564	0.0975
329.1669	0.0929
329.3773	0.0833
329.5878	0.0941
329.7982	0.1093
330.0086	0.0974
330.219	0.1078
330.4294	0.0935
330.6398	0.1125
330.8502	0.093
331.0605	0.108
331.2708	0.0937
331.4812	0.1054
331.6915	0.1075
331.9018	0.0965
332.1121	0.0987
332.3224	0.1054
332.5326	0.11
332.7429	0.0954
332.9531	0.114
333.1633	0.1044
333.3735	0.1028
333.5837	0.1068
333.7939	0.0978
334.0041	0.1039
334.2143	0.1063
334.4244	0.0982
334.6346	0.0893
334.8447	0.117
335.0548	0.0938
335.2649	0.1015
335.475	0.1033
335.685	0.0959
335.8951	0.1105
336.1051	0.101
336.3152	0.1148
336.5252	0.0961
336.7352	0.102
336.9452	0.1052
337.1552	0.1107
337.3652	0.1024
337.5751	0.1071
337.7851	0.1074
337.995	0.0971
338.2049	0.1097
338.4148	0.1036
338.6247	0.1221
338.8346	0.109
339.0445	0.0998
339.2543	0.0978
339.4642	0.1148
339.674	0.1043
339.8838	0.1063
340.0936	0.1118
340.3034	0.1202
340.5132	0.1139
340.7229	0.1075
340.9327	0.1104
341.1424	0.116
341.3522	0.1215
341.5619	0.1106
341.7716	0.1155
341.9813	0.1215
342.1909	0.1161
342.4006	0.1143
342.6102	0.1351
342.8199	0.119
343.0295	0.119
343.2391	0.1155
343.4487	0.1278
343.6583	0.1059
343.8679	0.1206
344.0774	0.1153
344.287	0.124
344.4965	0.1109
344.706	0.1245
344.9155	0.128
345.125	0.1221
345.3345	0.1245
345.544	0.1136
345.7534	0.1225
345.9629	0.1217
346.1723	0.1245
346.3817	0.1316
346.5911	0.1292
346.8005	0.1336
347.0099	0.1201
347.2193	0.1249
347.4286	0.1272
347.638	0.1411
347.8473	0.1302
348.0566	0.1291
348.2659	0.1337
348.4752	0.1317
348.6845	0.1215
348.8937	0.1273
349.103	0.1331
349.3122	0.1347
349.5214	0.1268
349.7306	0.1275
349.9398	0.143
350.149	0.1308
350.3582	0.1313
350.5674	0.1425
350.7765	0.1423
350.9856	0.1394
351.1948	0.137
351.4039	0.1221
351.613	0.1331
351.822	0.1444
352.0311	0.1429
352.2402	0.1372
352.4492	0.1463
352.6582	0.1518
352.8672	0.1429
353.0762	0.1501
353.2852	0.1368
353.4942	0.1285
353.7032	0.1536
353.9121	0.1454
354.1211	0.1568
354.33	0.1673
354.5389	0.1479
354.7478	0.1414
354.9567	0.1426
355.1655	0.1387
355.3744	0.1442
355.5833	0.1585
355.7921	0.1672
356.0009	0.1413
356.2097	0.1617
356.4185	0.1675
356.6273	0.1598
356.8361	0.1594
357.0448	0.156
357.2536	0.1437
357.4623	0.1489
357.671	0.1601
357.8797	0.1662
358.0884	0.1608
358.2971	0.1647
358.5057	0.159
358.7144	0.1581
358.923	0.165
359.1316	0.1632
359.3402	0.1581
359.5488	0.1678
359.7574	0.1729
359.966	0.1675
360.1746	0.1721
360.3831	0.1738
360.5916	0.1658
360.8002	0.167
361.0087	0.1862
361.2172	0.1828
361.4256	0.1744
361.6341	0.1883
361.8426	0.1831
362.051	0.1873
362.2594	0.1872
362.4678	0.1838
362.6762	0.2067
362.8846	0.1886
363.093	0.1873
363.3014	0.1731
363.5097	0.1733
363.718	0.1903
363.9264	0.1978
364.1347	0.174
364.343	0.2043
364.5513	0.2039
364.7595	0.2157
364.9678	0.1956
365.176	0.2028
365.3842	0.1941
365.5925	0.2046
365.8007	0.1976
366.0089	0.201
366.217	0.2097
366.4252	0.224
366.6333	0.2032
366.8415	0.2067
367.0496	0.1941
367.2577	0.2182
367.4658	0.2341
367.6739	0.2105
367.882	0.2246
368.09	0.2177
368.2981	0.215
368.5061	0.1943
368.7141	0.2143
368.9221	0.228
369.1301	0.2188
369.3381	0.2146
369.5461	0.2048
369.754	0.2172
369.962	0.2325
370.1699	0.2185
370.3778	0.2407
370.5857	0.2027
370.7936	0.2274
371.0015	0.2156
371.2093	0.2352
371.4172	0.2356
371.625	0.2174
371.8328	0.2346
372.0406	0.2291
372.2484	0.229
372.4562	0.2271
372.664	0.2329
372.8717	0.2394
373.0795	0.2146
373.2872	0.2426
373.4949	0.2365
373.7026	0.2479
373.9103	0.2458
374.118	0.2428
374.3256	0.248
374.5333	0.235
374.7409	0.2378
374.9485	0.252
375.1561	0.2525
375.3637	0.2477
375.5713	0.2537
375.7789	0.2463
375.9864	0.2405
376.194	0.2392
376.4015	0.2515
376.609	0.2543
376.8165	0.2531
377.024	0.2398
377.2315	0.2512
377.4389	0.252
377.6464	0.2627
377.8538	0.2472
378.0612	0.2455
378.2686	0.2539
378.476	0.2714
378.6834	0.257
378.8908	0.2572
379.0981	0.2746
379.3055	0.2527
379.5128	0.2569
379.7201	0.2618
379.9274	0.2657
380.1347	0.2641
380.342	0.2802
380.5492	0.2624
380.7565	0.2717
380.9637	0.2821
381.1709	0.2664
381.3781	0.2613
381.5853	0.2567
381.7925	0.2841
381.9997	0.2813
382.2068	0.2726
382.4139	0.2651
382.6211	0.2669
382.8282	0.2467
383.0353	0.2625
383.2424	0.275
383.4494	0.2777
383.6565	0.2674
383.8635	0.266
384.0706	0.2746
384.2776	0.2811
384.4846	0.2567
384.6916	0.2726
384.8986	0.2709
385.1055	0.2812
385.3125	0.2857
385.5194	0.262
385.7263	0.283
385.9333	0.2598
386.1402	0.2626
386.347	0.2767
386.5539	0.2706
386.7608	0.2893
386.9676	0.2628
387.1744	0.2611
387.3813	0.2554
387.5881	0.2771
387.7948	0.2704
388.0016	0.2825
388.2084	0.2813
388.4151	0.2504
388.6219	0.2769
388.8286	0.2469
389.0353	0.2861
389.242	0.2737
389.4487	0.2524
389.6553	0.2599
389.862	0.2469
390.0686	0.2504
390.2753	0.2801
390.4819	0.2637
390.6885	0.2523
390.8951	0.2807
391.1016	0.2594
391.3082	0.2448
391.5147	0.2684
391.7213	0.239
391.9278	0.2581
392.1343	0.2391
392.3408	0.2526
392.5473	0.2582
392.7537	0.2574
392.9602	0.2543
393.1666	0.251
393.373	0.2557
393.5794	0.259
393.7858	0.2425
393.9922	0.238
394.1986	0.2707
394.4049	0.2533
394.6113	0.2357
394.8176	0.2445
395.0239	0.242
395.2302	0.244
395.4365	0.2351
395.6428	0.238
395.8491	0.2158
396.0553	0.2422
396.2615	0.2391
396.4678	0.2324
396.674	0.2377
396.8802	0.242
397.0863	0.2396
397.2925	0.2164
397.4987	0.2372
397.7048	0.2183
397.9109	0.236
398.117	0.2413
398.3231	0.2415
398.5292	0.2417
398.7353	0.2441
398.9413	0.2379
399.1474	0.2303
399.3534	0.2237
399.5594	0.2117
399.7654	0.2509
399.9714	0.2318
400.1774	0.2311
400.3833	0.2248
400.5893	0.2143
400.7952	0.222
401.0011	0.2323
401.207	0.2369
401.4129	0.2398
401.6188	0.2551
401.8247	0.219
402.0305	0.2272
402.2364	0.2273
402.4422	0.2472
402.648	0.2313
402.8538	0.2564
403.0596	0.2292
403.2654	0.2307
403.4711	0.2125
403.6768	0.2168
403.8826	0.2329
404.0883	0.2351
404.294	0.2246
404.4997	0.2265
404.7054	0.2276
404.911	0.2039
405.1167	0.2225
405.3223	0.2453
405.5279	0.2428
405.7335	0.238
405.9391	0.2529
406.1447	0.2307
406.3502	0.2322
406.5558	0.2217
406.7613	0.2356
406.9668	0.2573
407.1724	0.2291
407.3778	0.2223
407.5833	0.2252
407.7888	0.2265
407.9942	0.2457
408.1997	0.2205
408.4051	0.2308
408.6105	0.2329
408.8159	0.2236
409.0213	0.2273
409.2267	0.2332
409.432	0.2239
409.6374	0.2406
409.8427	0.2382
410.048	0.2487
410.2533	0.236
410.4586	0.2284
410.6639	0.222
410.8691	0.2216
411.0744	0.2367
411.2796	0.2088
411.4848	0.2324
411.69	0.2158
411.8952	0.2358
412.1004	0.222
412.3056	0.2315
412.5107	0.2205
412.7158	0.2464
412.921	0.2218
413.1261	0.2176
413.3312	0.2298
413.5362	0.2153
413.7413	0.2275
413.9464	0.2099
414.1514	0.2221
414.3564	0.224
414.5614	0.217
414.7664	0.2215
414.9714	0.2079
415.1764	0.2124
415.3813	0.2281
415.5863	0.2238
415.7912	0.2414
415.9961	0.2191
416.201	0.2414
416.4059	0.2311
416.6108	0.2206
416.8156	0.2185
417.0205	0.2204
417.2253	0.205
417.4301	0.2145
417.6349	0.2144
417.8397	0.2314
418.0445	0.2263
418.2492	0.2346
418.454	0.2108
418.6587	0.2201
418.8634	0.227
419.0681	0.2164
419.2728	0.2314
419.4775	0.2057
419.6822	0.2072
419.8868	0.1973
420.0915	0.217
420.2961	0.2096
420.5007	0.1808
420.7053	0.2067
420.9099	0.2195
421.1144	0.2311
421.319	0.2044
421.5235	0.216
421.728	0.2146
421.9325	0.2239
422.137	0.2229
422.3415	0.2032
422.546	0.2066
422.7504	0.1967
422.9549	0.2198
423.1593	0.204
423.3637	0.2046
423.5681	0.2042
423.7725	0.2088
423.9769	0.1994
424.1812	0.194
424.3856	0.1734
424.5899	0.197
424.7942	0.2068
424.9985	0.1934
425.2028	0.189
425.4071	0.214
425.6113	0.1788
425.8156	0.2018
426.0198	0.1962
426.224	0.1742
426.4282	0.178
426.6324	0.1838
426.8366	0.1822
427.0407	0.1817
427.2449	0.1692
427.449	0.182
427.6531	0.155
427.8572	0.1616
428.0613	0.1639
428.2654	0.1745
428.4694	0.1675
428.6735	0.1684
428.8775	0.1693
429.0815	0.1888
429.2855	0.1542
429.4895	0.1793
429.6935	0.1742
429.8975	0.1729
430.1014	0.1586
430.3053	0.1627
430.5093	0.1615
430.7132	0.1473
430.9171	0.1368
431.1209	0.1684
431.3248	0.1543
431.5286	0.1522
431.7325	0.1584
431.9363	0.142
432.1401	0.1553
432.3439	0.1302
432.5477	0.1334
432.7514	0.1431
432.9552	0.1442
433.1589	0.1407
433.3627	0.1273
433.5664	0.1388
433.7701	0.1251
433.9737	0.1184
434.1774	0.1226
434.3811	0.1332
434.5847	0.1382
434.7883	0.1258
434.9919	0.117
435.1955	0.1078
435.3991	0.1126
435.6027	0.1207
435.8062	0.1355
436.0098	0.1073
436.2133	0.1108
436.4168	0.1002
436.6203	0.0901
436.8238	0.1199
437.0272	0.1179
437.2307	0.1079
437.4341	0.1208
437.6375	0.1183
437.841	0.1012
438.0443	0.1167
438.2477	0.1068
438.4511	0.0863
438.6545	0.1021
438.8578	0.1079
439.0611	0.1018
439.2644	0.098
439.4677	0.0963
439.671	0.0878
439.8743	0.0817
440.0775	0.0933
440.2808	0.0869
440.484	0.0785
440.6872	0.062
440.8904	0.0834
441.0936	0.0877
441.2967	0.0822
441.4999	0.0807
441.703	0.069
441.9062	0.0699
442.1093	0.0751
442.3124	0.0867
442.5155	0.0573
442.7185	0.0553
442.9216	0.0441
443.1246	0.0771
443.3276	0.0671
443.5307	0.0696
443.7337	0.0755
443.9366	0.087
444.1396	0.0675
444.3426	0.0567
444.5455	0.0637
444.7484	0.0627
444.9513	0.0512
445.1542	0.0541
445.3571	0.0625
445.56	0.0503
445.7628	0.0492
445.9657	0.0522
446.1685	0.0664
446.3713	0.0597
446.5741	0.0527
446.7769	0.0306
446.9797	0.0388
447.1824	0.0505
447.3852	0.0276
447.5879	0.0633
447.7906	0.0378
447.9933	0.0498
448.196	0.0257
448.3986	0.0488
448.6013	0.0409
448.8039	0.0173
449.0066	0.0351
449.2092	0.0419
449.4118	0.0421
449.6143	0.0383
449.8169	0.029
450.0195	0.0206
450.222	0.0051
450.4245	0.034
450.627	0.0347
450.8295	0.0204
451.032	0.0118
451.2345	0.036
451.4369	0.0476
451.6394	0.0315
451.8418	0.0076
452.0442	0.0297
452.2466	0.035
452.449	0.0148
452.6513	0.0283
452.8537	0.0296
453.056	0.0013
453.2583	0.0284
453.4607	0.0149
453.663	0.0165
453.8652	0.0387
454.0675	0.0165
454.2697	0.0096
454.472	-0.0036
454.6742	0.0121
454.8764	0.0079
455.0786	0.0144
455.2808	0.0234
455.4829	0.0254
455.6851	0.0323
455.8872	0.027
456.0893	0.0292
456.2915	0.0047
456.4935	0.035
456.6956	-0.0014
456.8977	0.0338
457.0997	0.0039
457.3018	-0.0111
457.5038	0.0124
457.7058	0.0199
457.9078	0.0096
458.1098	0.0247
458.3117	0.025
458.5137	0.0187
458.7156	0.0137
458.9175	0.0027
459.1194	0.0219
459.3213	0.009
459.5232	0.0001
459.725	-0.0148
459.9269	0.016
460.1287	0.0044
460.3305	0.0017
460.5323	0.0041
460.7341	0.0042
460.9359	0.0019
461.1376	0.0318
461.3394	0.0049
461.5411	0.0119
461.7428	0.0081
461.9445	0.0146
462.1462	0.0122
462.3479	0.0016
462.5495	-0.0057
462.7512	0.0036
462.9528	0.0065
463.1544	-0.0168
463.356	0.0027
463.5576	0.007
463.7592	-0.026
463.9607	0.0057
464.1623	0.0217
464.3638	0.0183
464.5653	-0.0024
464.7668	0.0117
464.9683	0.01
465.1697	0.0254
465.3712	0.001
465.5726	-0.0049
465.7741	0.0089
465.9755	-0.0003
466.1769	-0.006
466.3782	-0.01
466.5796	0.0063
466.7809	0.0105
466.9823	0.0069
467.1836	-0.0104
467.3849	0.0013
467.5862	0.0107
467.7875	0.0037
467.9887	0.0113
468.19	0.0059
468.3912	0.0058
468.5924	-0.0071
468.7936	0.0081
468.9948	-0.0005
469.196	0.0047
469.3972	-0.008
469.5983	-0
469.7994	-0.0004
470.0006	-0.005
470.2017	-0.008
470.4027	-0.0039
470.6038	0.007
470.8049	-0.0059
471.0059	-0.0104
471.2069	-0.0149
471.408	0.006
471.6089	0.0199
471.8099	0.0018
472.0109	0.001
472.2119	-0.0062
472.4128	-0.0085
472.6137	0.0095
472.8146	-0.0183
473.0155	-0.012
473.2164	-0.0098
473.4173	0.0048
473.6181	0.0045
473.819	0.0025
474.0198	0.004
474.2206	0.0021
474.4214	0.005
474.6222	-0.0082
474.8229	-0.0092
475.0237	-0.0068
475.2244	-0.0064
475.4251	-0.0093
475.6258	0.002
475.8265	0.0005
476.0272	0.0109
476.2278	0.005
476.4285	-0.0141
476.6291	-0.005
476.8297	-0.0137
477.0303	-0.0086
477.2309	-0.0003
477.4315	-0.0101
477.632	-0.0049
477.8326	-0.0077
478.0331	0.0112
478.2336	-0.0004
478.4341	-0.0101
478.6346	-0.0077
478.8351	0.0012
479.0355	0.0051
479.236	-0.0182
479.4364	0.0083
479.6368	-0.0135
479.8372	-0.0056
480.0376	0.0018
480.2379	-0.0234
480.4383	0.0022
480.6386	-0.0025
480.8389	-0.0011
481.0392	-0.011
481.2395	-0.0033
481.4398	0.0119
481.6401	0.0048
481.8403	-0.0069
482.0405	-0.0132
482.2408	-0.0005
482.441	0.003
482.6411	-0.0043
482.8413	0.0011
483.0415	-0.0032
483.2416	-0.0084
483.4417	-0.0015
483.6419	-0.0058
483.8419	-0.006
484.042	0.005
484.2421	-0.0014
484.4422	0.0024
484.6422	0.0027
484.8422	0.0037
485.0422	-0.0114
485.2422	0.0028
485.4422	-0.008
485.6422	-0.0101
485.8421	0.0003
486.042	-0.0037
486.242	-0.0004
486.4419	-0.0154
486.6417	-0.0045
486.8416	-0.0006
487.0415	0.0021
487.2413	-0.0089
487.4411	-0.0061
487.641	-0.0038
487.8408	0.0069
488.0405	0.0045
488.2403	-0.008
488.4401	0.0095
488.6398	-0.0009
488.8395	-0.0185
489.0392	0.001
489.2389	-0.0067
489.4386	-0.0014
489.6383	-0.0002
489.8379	-0.0007
490.0376	-0.0005
490.2372	-0.0124
490.4368	-0.0089
490.6364	-0.0098
490.836	-0.0095
491.0355	-0.0079
491.2351	-0.0085
491.4346	0.0021
491.6341	-0.0209
491.8336	0.0067
492.0331	-0.013
492.2326	-0.0126
492.432	0.0073
492.6315	0.0031
492.8309	-0.0174
493.0303	-0.0095
493.2297	-0.007
493.4291	-0.0003
493.6284	-0.0019
493.8278	0.0005
494.0271	-0.0004
494.2264	0.0091
494.4257	-0.0098
494.625	0.0018
494.8243	-0.0104
495.0236	0.0036
495.2228	-0.0117
495.422	-0.0046
495.6213	-0.004
495.8205	-0.0098
496.0196	-0.0094
496.2188	-0.0016
496.418	-0.002
496.6171	0.0036
496.8162	-0.019
497.0153	0.0019
497.2144	-0.0142
497.4135	-0.0045
497.6126	-0.0163
497.8116	-0.0046
498.0107	0.0011
498.2097	-0.0149
498.4087	-0.0174
498.6077	-0.0052
498.8067	-0.0085
499.0056	0.0013
499.2046	-0.0012
499.4035	-0.0213
499.6024	-0.0042
499.8013	0.0014
500.0002	-0.0094
500.199	0.0024
500.3979	-0.002
500.5967	-0.0209
500.7956	-0.0035
500.9944	-0.0062
501.1932	-0.0081
501.3919	-0.0116
501.5907	-0.0051
501.7895	-0.0052
501.9882	-0.0053
502.1869	-0.0153
502.3856	-0.0133
502.5843	-0.0125
502.783	-0.006
502.9816	-0.008
503.1803	-0.0175
503.3789	-0.0146
503.5775	0.0084
503.7761	-0.0116
503.9747	-0.0063
504.1732	-0.006
504.3718	0.0011
504.5703	-0.0106
504.7689	-0.0027
504.9674	-0.0038
505.1658	-0.0016
505.3643	-0.007
505.5628	-0.0036
505.7612	-0.0103
505.9597	-0.0021
506.1581	-0.0069
506.3565	0.0048
506.5549	-0.0023
506.7532	-0.0109
506.9516	-0.0049
507.1499	-0.003
507.3482	-0.0135
507.5465	-0.0094
507.7448	-0.0062
507.9431	0.0015
508.1414	-0.0026
508.3396	-0.0073
508.5379	-0.0122
508.7361	-0.0046
508.9343	0.0005
509.1325	0.0091
509.3306	-0.0012
509.5288	-0.012
509.7269	-0.0019
509.9251	-0.0053
510.1232	-0.0176
510.3213	-0.0031
510.5193	-0.0054
510.7174	-0.0142
510.9154	-0.0115
511.1135	-0.0119
511.3115	-0.0141
511.5095	-0.0011
511.7075	-0.012
511.9055	-0.0179
512.1034	-0.007
512.3014	0.003
512.4993	-0.0028
512.6972	-0.0122
512.8951	-0.0024
513.093	0.0055
513.2908	0.0011
513.4887	-0.0038
513.6865	-0.0036
513.8844	-0.0032
514.0822	-0.006
514.2799	-0.0132
514.4777	0.0029
514.6755	-0.0079
514.8732	-0.0067
515.0709	-0.0004
515.2687	-0.0078
515.4664	0.0078
515.664	0.0047
515.8617	-0.0075
516.0594	-0.0152
516.257	0.0012
516.4546	-0.015
516.6522	-0.0058
516.8498	0.0018
517.0474	-0.0002
517.2449	-0.0038
517.4425	-0.0049
517.64	-0.0137
517.8375	0.0018
518.035	-0.0012
518.2325	-0.0117
518.43	-0.0115
518.6274	-0.0073
518.8249	-0.0218
519.0223	0.0013
519.2197	-0.0142
519.4171	-0.0183
519.6145	-0.0096
519.8118	0.0064
520.0092	-0.0058
520.2065	-0.0102
520.4038	-0.0183
520.6011	-0
520.7984	-0.0099
520.9956	-0.0116
521.1929	-0.0182
521.3901	-0.0018
521.5874	-0.0032
521.7846	-0.0002
521.9818	-0.0088
522.1789	-0.0122
522.3761	-0.004
522.5732	-0.0067
522.7704	-0.0079
522.9675	0.005
523.1646	-0.0036
523.3617	0.0008
523.5587	0.0024
523.7558	-0.0039
523.9528	-0.002
524.1498	-0.0058
524.3468	-0.0114
524.5438	-0.0084
524.7408	-0.0063
524.9378	0.0058
525.1347	-0.0031
525.3316	-0.0016
525.5285	-0.0074
525.7254	-0.0096
525.9223	-0.007
526.1192	0.001
526.316	-0.0108
526.5129	-0.0009
526.7097	-0.0012
526.9065	-0.0074
527.1033	-0.0132
527.3	0.0017
527.4968	-0.0081
527.6935	0.0009
527.8903	-0.0056
528.087	0.0095
528.2837	0.0021
528.4804	-0.0033
528.677	-0.0061
528.8737	0.0025
529.0703	0.007
529.2669	-0.0055
529.4635	-0.0086
529.6601	-0.0044
529.8567	-0.0046
530.0532	-0.0124
530.2498	-0.0044
530.4463	-0.0034
530.6428	-0.0021
530.8393	0.0129
531.0358	-0.0136
531.2322	-0.0027
531.4287	-0.0082
531.6251	-0.0058
531.8215	0.0068
532.0179	0.0002
532.2143	0.0076
532.4107	-0.0024
532.607	-0.006
532.8034	0.0037
532.9997	-0.0085
533.196	-0.0114
533.3923	-0.0088
533.5886	-0.0008
533.7848	0.0039
533.9811	-0.003
534.1773	0.0081
534.3735	0.0023
534.5697	-0.0019
534.7659	0.0008
534.9621	0.0052
535.1582	-0.0062
535.3544	-0.0093
535.5505	-0.0069
535.7466	-0.005
535.9427	-0.0105
536.1387	-0.0078
536.3348	-0.0058
536.5308	0.0019
536.7269	-0.0147
536.9229	0.0002
537.1189	-0.0012
537.3148	-0.0057
537.5108	-0.0147
537.7068	-0.0018
537.9027	-0.0057
538.0986	-0.0054
538.2945	-0.0136
538.4904	-0.0073
538.6863	-0.0077
538.8821	-0.0109
539.078	-0.0089
539.2738	-0.0044
539.4696	-0.0079
539.6654	-0.0071
539.8611	0.0146
540.0569	-0.0046
540.2526	-0.0101
540.4484	-0.0052
540.6441	0.0096
540.8398	-0.0102
541.0355	0.0029
541.2311	-0.0049
541.4268	-0.0042
541.6224	0.0105
541.818	0.0077
542.0136	-0.0091
542.2092	-0.0019
542.4048	0.0053
542.6003	0.0007
542.7959	-0.0027
542.9914	-0.0063
543.1869	0.0052
543.3824	-0.0013
543.5779	-0.0078
543.7734	-0.005
543.9688	-0.0089
544.1642	0.0062
544.3596	0.0042
544.555	-0.0012
544.7504	-0.0032
544.9458	-0.0036
545.1411	0.0001
545.3365	-0.0084
545.5318	0.0057
545.7271	-0.0096
545.9224	-0.0032
546.1177	-0.0011
546.3129	0.0036
546.5081	-0.0038
546.7034	0.0039
546.8986	-0.0075
547.0938	-0.0044
547.289	0.0003
547.4841	-0.0015
547.6793	0.0111
547.8744	-0.0039
548.0695	-0.0028
548.2646	-0.0062
548.4597	0.0007
548.6548	-0.0049
548.8498	-0.0011
549.0448	0.0026
549.2399	-0.0015
549.4349	0.0177
549.6298	0.007
549.8248	0.0051
550.0198	-0.0051
550.2147	-0.0016
550.4096	-0.0064
550.6045	-0.0001
550.7994	0.0102
550.9943	0.0057
551.1892	-0.0036
551.384	0.003
551.5788	-0.0081
551.7737	0.0022
551.9685	0.0009
552.1632	-0.0005
552.358	-0.0029
552.5528	0.0039
552.7475	-0.0015
552.9422	-0.0064
553.1369	-0.0027
553.3316	0.0028
553.5263	-0.005
553.7209	0.0005
553.9156	-0.0086
554.1102	-0.0075
554.3048	-0.0021
554.4994	0.009
554.694	0.0016
554.8885	0.0097
555.0831	-0.0025
555.2776	-0.0003
555.4721	0.0006
555.6666	-0.0079
555.8611	0.0025
556.0555	-0.0022
556.25	-0.0023
556.4444	-0.007
556.6388	0.0022
556.8332	-0.0038
557.0276	-0.0031
557.222	-0.0024
557.4163	-0.0061
557.6107	-0.0066
557.805	0.0047
557.9993	0.001
558.1936	-0.0015
558.3879	0.0028
558.5821	0.005
558.7764	0.0077
558.9706	-0.0072
559.1648	0.0007
559.359	-0.0037
559.5532	-0.0038
559.7473	0.0028
559.9415	0.0084
560.1356	-0.0037
560.3297	-0.0088
560.5238	-0.0065
560.7179	-0.0057
560.9119	0.0022
561.106	-0.0062
561.3	-0.003
561.494	0.002
561.688	0.0014
561.882	-0.0073
562.076	-0
562.2699	0.0094
562.4639	0.0054
562.6578	-0.0047
562.8517	-0.0009
563.0456	-0.0018
563.2395	0.0019
563.4333	0.0003
563.6272	0.0046
563.821	-0.0029
564.0148	0.0063
564.2086	-0.0066
564.4024	-0.0036
564.5961	0.0061
564.7899	0.0028
564.9836	0.002
565.1773	0.0079
565.371	0.0108
565.5647	0.0173
565.7584	0.0015
565.952	0.0044
566.1456	0.0062
566.3393	0.0007
566.5329	-0.0026
566.7264	-0.0014
566.92	-0.0023
567.1136	0
567.3071	-0.0007
567.5006	0.0014
567.6941	0.0054
567.8876	0.0041
568.0811	-0.0049
568.2745	-0.0001
568.468	0.0053
568.6614	0.0053
568.8548	0.0058
569.0482	-0.0056
569.2416	-0.0014
569.4349	0.0037
569.6283	0.0091
569.8216	-0.0008
570.0149	-0.0029
570.2082	0.0092
570.4015	0.0089
570.5947	0.0061
570.788	0.0087
570.9812	0.0073
571.1744	-0.0031
571.3676	-0.0068
571.5608	0.0033
571.754	0.0052
571.9471	0.0051
572.1402	0.0059
572.3333	-0.0086
572.5264	-0.0065
572.7195	0.0041
572.9126	0.0058
573.1057	0.0005
573.2987	-0.0028
573.4917	0.0076
573.6847	-0.0013
573.8777	0.0069
574.0707	0.0102
574.2636	0.0024
574.4566	0.0014
574.6495	0.0071
574.8424	0.0027
575.0353	0.0051
575.2281	0.0081
575.421	0.0061
575.6138	0.0019
575.8067	0.001
575.9995	0.0017
576.1923	0.0099
576.385	0.0075
576.5778	-0.0008
576.7706	0.0012
576.9633	0.0024
577.156	0.0048
577.3487	0.0068
577.5414	0.0049
577.734	-0.0006
577.9267	0.0081
578.1193	-0.0045
578.3119	0.0027
578.5045	-0.0007
578.6971	0.0109
578.8897	0.007
579.0822	0.0001
579.2747	0
579.4673	0.0027
579.6598	0.004
579.8522	0.0014
580.0447	-0.0056
580.2372	0.0008
580.4296	0.0095
580.622	0.006
580.8144	0.0041
581.0068	0.0078
581.1992	-0.0078
581.3915	0.0015
581.5839	-0.001
581.7762	-0.0025
581.9685	-0.004
582.1608	0.0114
582.353	0.0047
582.5453	0.0021
582.7375	0.0045
582.9298	0.0099
583.122	0.0025
583.3142	0.0024
583.5063	0.0034
583.6985	0.0009
583.8906	0.0024
584.0827	-0.0012
584.2749	0.0037
584.4669	0.0086
584.659	0.0043
584.8511	0.0028
585.0431	-0.0028
585.2352	0.0079
585.4272	0.006
585.6192	0.0103
585.8111	0.0061
586.0031	0.0004
586.195	0.0006
586.387	0.0091
586.5789	0.004
586.7708	0.0107
586.9627	0.0039
587.1545	-0.0004
587.3464	0.0085
587.5382	0.0078
587.73	0.009
587.9218	0.0057
588.1136	-0.0004
588.3053	0.0125
588.4971	0.0009
588.6888	-0.0091
588.8805	0.002
589.0722	0.0081
589.2639	0.0101
589.4556	-0.0027
589.6472	0.0013
589.8389	-0.0022
590.0305	-0.0062
590.2221	0.0036
590.4137	-0.0045
590.6052	0.0044
590.7968	-0.0026
590.9883	0.0081
591.1798	0.0021
591.3713	0.0104
591.5628	0.0085
591.7543	0.0093
591.9458	0.0101
592.1372	0.0095
592.3286	0.0145
592.52	0.0144
592.7114	-0.0034
592.9028	0.0029
593.0941	-0.0031
593.2855	0.0023
593.4768	0.0002
593.6681	-0.0011
593.8594	0.0001
594.0506	0.0058
594.2419	0.0102
594.4331	0.0042
594.6244	0.0156
594.8156	0.0025
595.0067	0.0055
595.1979	0.0096
595.3891	0.0035
595.5802	-0.0023
595.7713	0.005
595.9624	-0.0051
596.1535	0.0149
596.3446	0.0031
596.5357	-0
596.7267	0.0145
596.9177	0.0004
597.1087	0.0014
597.2997	-0.0027
597.4907	0.0031
597.6817	0.0008
597.8726	0.0026
598.0635	0.0055
598.2544	0.0019
598.4453	0.0019
598.6362	-0.0027
598.827	-0.0007
599.0179	0.0113
599.2087	0.0089
599.3995	0.0028
599.5903	0.0034
599.7811	0.0084
599.9718	-0.0034
600.1626	0.0018
600.3533	-0.0075
600.544	0.0053
600.7347	0.0043
600.9254	-0.0033
601.116	0.0004
601.3067	0.006
601.4973	-0.0035
601.6879	0.007
601.8785	-0.0021
602.0691	0.0126
602.2596	0.0052
602.4502	0.0091
602.6407	0.0079
602.8312	0.0058
603.0217	-0.0066
603.2122	-0.003
603.4027	0.002
603.5931	0.0026
603.7835	-0.0034
603.9739	-0.0028
604.1643	-0.0058
604.3547	0.0026
604.5451	0.002
604.7354	-0.0043
604.9257	0.0059
605.116	0.0019
605.3063	0.0058
605.4966	0.0071
605.6869	0.0062
605.8771	0.0061
606.0673	0.0073
606.2575	0.0093
606.4477	0.0099
606.6379	0.0063
606.8281	-0.0006
607.0182	-0.0062
607.2083	0.0098
607.3985	-0.0015
607.5885	0.0022
607.7786	-0.0007
607.9687	-0.0022
608.1587	0.0094
608.3488	-0.0032
608.5388	0.0008
608.7288	0.0031
608.9187	0.0006
609.1087	0.0011
609.2986	-0.0017
609.4886	0.0018
609.6785	0.0021
609.8684	0.0081
610.0582	0.0025
610.2481	0.0075
610.4379	0.0013
610.6278	-0.0007
610.8176	0.0045
611.0074	0.0082
611.1971	0.0047
611.3869	0.002
611.5766	-0.0016
611.7664	0.0112
611.9561	0.0109
612.1458	0.0045
612.3354	-0.0088
612.5251	0.0101
612.7147	0.0084
612.9044	0.0117
613.094	0.0033
613.2836	0.0084
613.4731	0.0023
613.6627	0.0018
613.8522	0.0049
614.0417	0.0075
614.2313	0.0009
614.4207	0.0046
614.6102	0.0035
614.7997	0.0111
614.9891	-0.0011
615.1785	0.0048
615.3679	-0.0028
615.5573	0.0118
615.7467	0.0042
615.9361	0.001
616.1254	-0.0009
616.3147	0.0051
616.504	0.0019
616.6933	0.0085
616.8826	0.0035
617.0718	0.0094
617.2611	0.0012
617.4503	-0.0009
617.6395	0.0037
617.8287	0.0002
618.0179	0.0019
618.207	0.0111
618.3961	0.0038
618.5853	0.007
618.7744	0.0117
618.9634	0.0112
619.1525	0.009
619.3416	0.0023
619.5306	0.015
619.7196	0.0059
619.9086	0.0047
620.0976	0.0076
620.2866	0.0005
620.4755	0.013
620.6645	0.0113
620.8534	0.0105
621.0423	0.0064
621.2312	0.0165
621.42	0.0012
621.6089	0.0096
621.7977	0.0066
621.9865	0.0037
622.1753	0.0107
622.3641	0.0051
622.5529	0.0122
622.7416	0.0099
622.9303	0.0024
623.1191	0.0096
623.3078	0.0032
623.4964	0.0059
623.6851	0.0023
623.8737	0.0003
624.0624	0.0151
624.251	0.0061
624.4396	0.0078
624.6282	-0.006
624.8167	0.0014
625.0053	0.009
625.1938	0.0046
625.3823	0.0089
625.5708	0.009
625.7593	0.0006
625.9477	-0.0043
626.1362	-0.0004
626.3246	0.0101
626.513	0.0063
626.7014	0.01
626.8898	0.0042
627.0781	0.0049
627.2665	-0.0038
627.4548	0.0026
627.6431	0.0124
627.8314	0.0031
628.0197	0.009
628.2079	-0.0026
628.3962	-0.0064
628.5844	0.0033
628.7726	0.0094
628.9608	0.0122
629.1489	0.0093
629.3371	0.0076
629.5252	0.0052
629.7134	0.0059
629.9015	0.0035
630.0895	0.0057
630.2776	0.0031
630.4657	-0.0038
630.6537	0.0038
630.8417	0.0029
631.0297	0.0006
631.2177	0.0028
631.4057	-0.0015
631.5936	0.0032
631.7815	0.0047
631.9695	0.0053
632.1574	0.0111
632.3452	0.0155
632.5331	0.0086
632.7209	0.0094
632.9088	0.008
633.0966	0.0149
633.2844	0.0024
633.4722	0.0044
633.6599	0.0106
633.8477	0.0039
634.0354	0.0046
634.2231	0.0015
634.4108	0.0099
634.5985	0.0152
634.7861	0.005
634.9738	0.0004
635.1614	0.005
635.349	0.0074
635.5366	0.0114
635.7242	0.0041
635.9117	0.0155
636.0993	-0.0052
636.2868	0.0109
636.4743	-0.0057
636.6618	0.0066
636.8492	0.0008
637.0367	0.0048
637.2241	0.0018
637.4115	-0.0078
637.5989	0.0016
637.7863	0.0052
637.9737	0.0027
638.161	0.0095
638.3484	0.0031
638.5357	0.0099
638.723	-0.0019
638.9103	0.0079
639.0975	0.0098
639.2848	0.0045
639.472	0.0048
639.6592	0.014
639.8464	0.0159
640.0336	0.0136
640.2208	0.0057
640.4079	0.0048
640.595	0.0067
640.7821	0.006
640.9692	-0.0025
641.1563	0.0075
641.3434	0.0065
641.5304	0.002
641.7174	0.0124
641.9044	0.0094
642.0914	0.0068
642.2784	0.0076
642.4653	0.012
642.6523	0.0042
642.8392	0.0032
643.0261	0.0101
643.213	0.0054
643.3999	0.0016
643.5867	-0.0021
643.7735	0.004
643.9604	-0.0034
644.1472	-0.0002
644.3339	0.0017
644.5207	0.007
644.7075	0.0114
644.8942	0.0107
645.0809	0.0086
645.2676	0.0089
645.4543	-0.0007
645.6409	0.0061
645.8276	0.0014
646.0142	0.0182
646.2008	-0.0011
646.3874	-0.0013
646.574	0.0066
646.7605	0.0047
646.9471	-0.0024
647.1336	0.0037
647.3201	0.0042
647.5066	-0.0016
647.6931	0.0103
647.8795	0.0041
648.0659	0.013
648.2524	0.0151
648.4388	0.008
648.6252	-0.0002
648.8115	0.0038
648.9979	0.0063
649.1842	0.0001
649.3705	0.0096
649.5568	0.0033
649.7431	0.0073
649.9294	0.0001
650.1156	0.0102
650.3018	0.0038
650.488	0.0089
650.6742	0.0091
650.8604	0.0109
651.0466	0.0022
651.2327	0.0073
651.4188	0.0096
651.6049	0.0066
651.791	0.0047
651.9771	0.008
652.1632	0.0098
652.3492	0.0053
652.5352	0.0085
652.7212	0.0041
652.9072	0.0075
653.0932	-0.0018
653.2791	-0.0013
653.465	-0.0066
653.651	-0.0054
653.8369	-0.0081
654.0227	0.0037
654.2086	0.0047
654.3944	0.0078
654.5803	0.0069
654.7661	0.0004
654.9519	0.0051
655.1377	-0.0023
655.3234	-0.0012
655.5092	-0.0017
655.6949	-0.0037
655.8806	0.0007
656.0663	0.0009
656.2519	-0.003
656.4376	-0.0024
656.6232	0.0093
656.8088	0.0006
656.9945	0.0054
657.18	-0.0004
657.3656	-0.0018
657.5511	0.0027
657.7367	0.0009
657.9222	0.0069
658.1077	0.0111
658.2932	0.0024
658.4786	0.002
658.6641	0.0038
658.8495	0.0071
659.0349	0.0036
659.2203	0.0111
659.4057	0.0056
659.591	0.0034
659.7764	0.0002
659.9617	0.0055
660.147	0.0082
660.3323	0.0056
660.5176	0.0127
660.7028	0.0063
660.888	0.0096
661.0733	0.0018
661.2585	-0.0025
661.4436	0.0031
661.6288	0.0019
661.8139	0.0027
661.9991	0.0105
662.1842	0.002
662.3693	0.0048
662.5544	0.0059
662.7394	0.0027
662.9245	0.0044
663.1095	0.0063
663.2945	0.0119
663.4795	0.0057
663.6644	0.0117
663.8494	0.0037
664.0343	0.0014
664.2193	-0.0032
664.4042	0.0068
664.589	0.0019
664.7739	0.0054
664.9587	-0.0018
665.1436	0.0061
665.3284	0.0056
665.5132	0.005
665.698	-0.0007
665.8827	0.0131
666.0675	0.0075
666.2522	0.0059
666.4369	0.0083
666.6216	0.0184
666.8063	0.005
666.9909	0.0039
667.1756	-0.0017
667.3602	0.0019
667.5448	0.0072
667.7294	0.0068
667.9139	0.0046
668.0985	0.0125
668.283	0.0064
668.4675	0.0139
668.652	0.0034
668.8365	0.0027
669.0209	0.0178
669.2054	0.0103
669.3898	0.0011
669.5742	0.0157
669.7586	0.0092
669.943	0.0102
670.1273	0.0179
670.3117	0.0138
670.496	0.0105
670.6803	0.0184
670.8646	0.0131
671.0488	0.0036
671.2331	0.0072
671.4173	0.012
671.6015	0.0082
671.7857	0.0029
671.9699	0.0087
672.1541	0.0055
672.3382	0.0028
672.5223	0.0089
672.7064	0.0075
672.8905	0.0131
673.0746	0.0111
673.2587	0.0043
673.4427	0.0143
673.6267	0.0159
673.8107	0.0156
673.9947	0.0056
674.1787	0.0087
674.3626	-0.0001
674.5465	0.0088
674.7304	0.0134
674.9143	0.0129
675.0982	0.0127
675.2821	-0.0018
675.4659	0.003
675.6497	0.0046
675.8335	0.0113
676.0173	0.0051
676.2011	0.005
676.3849	0.0084
676.5686	-0.0028
676.7523	0.0097
676.936	0.004
677.1197	-0.0032
677.3034	-0.0024
677.487	0.0126
677.6706	0.0043
677.8542	0.006
678.0378	0.0065
678.2214	0.003
678.405	-0.001
678.5885	-0.0104
678.772	0.0009
678.9555	-0.012
679.139	-0.0016
679.3225	0.0017
679.5059	-0.0022
679.6894	0.002
679.8728	0.0033
680.0562	-0.0021
680.2395	-0.0015
680.4229	0.0046
680.6062	0.0099
680.7896	0.0073
680.9729	-0.002
681.1562	0.0067
681.3394	-0.0029
681.5227	-0.0071
681.7059	0.0019
681.8891	0.0077
682.0723	0.0025
682.2555	0.0002
682.4387	0.0008
682.6218	0.0017
682.805	0.0052
682.9881	-0.0022
683.1712	-0.0052
683.3542	0.0002
683.5373	0.0056
683.7203	-0.0031
683.9034	0.0013
684.0864	0.0037
684.2694	-0.0007
684.4523	0.0071
684.6353	0.0037
684.8182	0.0035
685.0011	-0.0055
685.184	0.0066
685.3669	0.0063
685.5498	0.0043
685.7326	0.008
685.9154	0.0022
686.0982	0.003
686.281	0.0051
686.4638	0.0013
686.6465	0.0009
686.8293	0.0013
687.012	0.0116
687.1947	-0.0023
687.3774	0.0095
687.56	-0.0003
687.7427	0.0167
687.9253	0.002
688.1079	0.0044
688.2905	0.012
688.4731	0.0009
688.6556	0.0006
688.8382	0.0095
689.0207	0.0086
689.2032	0.0048
689.3857	-0.0036
689.5681	0.006
689.7506	0.0008
689.933	-0.0007
690.1154	0.0114
690.2978	0.0095
690.4802	0.0099
690.6626	-0.0072
690.8449	0.0027
691.0272	0.0098
691.2095	0.0027
691.3918	0.0002
691.5741	0.0094
691.7563	0.0032
691.9386	0.0058
692.1208	0.0052
692.303	0.0079
692.4852	0.0011
692.6673	0.0061
692.8495	0.0008
693.0316	-0.0016
693.2137	0.0103
693.3958	0.0138
693.5778	0.0043
693.7599	0.0087
693.9419	-0.0025
694.1239	0.01
694.3059	-0.0011
694.4879	0.004
694.6699	0.0139
694.8518	0.0085
695.0337	-0.0043
695.2157	0.0077
695.3975	0.0041
695.5794	0.0135
695.7613	0.011
695.9431	0.0054
696.1249	0.01
696.3067	0.0087
696.4885	0.0119
696.6703	-0.0044
696.852	0.0046
697.0337	0.0086
697.2154	0.0067
697.3971	0.0073
697.5788	0.0064
697.7605	0.0039
697.9421	0.0096
698.1237	0.0039
698.3053	0.0033
698.4869	0.0043
698.6685	-0.0028
698.85	-0
699.0315	0.0029
699.213	-0.002
699.3945	-0.0002
699.576	0.014
699.7575	0.0055
699.9389	0.012
700.1203	0.0017
700.3017	0.0084
700.4831	-0.0092
700.6645	0.0068
700.8458	0.0078
701.0271	-0.0065
701.2084	0.0134
701.3897	0.0062
701.571	0.0106
701.7523	-0.0034
701.9335	0.0071
702.1147	0.0103
702.2959	0.0024
702.4771	-0.0006
702.6583	0.0073
702.8394	0.0035
703.0205	0.0053
703.2016	-0.0013
703.3827	0.0062
703.5638	0.0167
703.7449	0.0031
703.9259	0.0107
704.1069	0.0014
704.2879	-0.0008
704.4689	0.0104
704.6499	-0.0043
704.8308	-0.0003
705.0117	-0.0061
705.1927	0.0042
705.3735	-0.0041
705.5544	-0.0092
705.7353	-0.0035
705.9161	-0.0065
706.0969	0.004
706.2777	0.0075
706.4585	0.0016
706.6393	0.0078
706.82	0.0021
707.0007	0.013
707.1815	0.0125
707.3621	0.0103
707.5428	0.0091
707.7235	0.0105
707.9041	0.0214
708.0847	-0.0037
708.2653	-0.0019
708.4459	-0.006
708.6265	0.0061
708.807	-0.0032
708.9875	-0.0025
709.168	-0.0049
709.3485	-0
709.529	0.0011
709.7095	-0.0078
709.8899	0.0019
710.0703	-0.0027
710.2507	0.0039
710.4311	0.0069
710.6115	-0.0029
710.7918	-0.0001
710.9721	-0.0016
711.1524	-0.0041
711.3327	0.0036
711.513	0.0023
711.6932	0.0017
711.8735	0.0094
712.0537	0.0015
712.2339	0.0007
712.4141	-0.0004
712.5942	-0.0015
712.7744	0.004
712.9545	-0.0025
713.1346	0.006
713.3147	-0.0029
713.4947	0.0007
713.6748	0.0022
713.8548	-0.0048
714.0348	-0.002
714.2148	-0.0105
714.3948	0.0162
714.5748	-0.0046
714.7547	0.0085
714.9346	0.0094
715.1145	0.0011
715.2944	-0.0053
715.4743	-0.0001
715.6541	-0.0044
715.834	0.0043
716.0138	-0.0051
716.1936	-0.0099
716.3733	0.0027
716.5531	0.0019
716.7328	-0.0048
716.9126	-0.0015
717.0923	0.0117
717.2719	0.0013
717.4516	0.0063
717.6312	0.0086
717.8109	-0.0046
717.9905	0.0027
718.1701	-0.0004
718.3496	-0.0016
718.5292	0.0012
718.7087	0.0022
718.8882	0.0016
719.0677	0.007
719.2472	-0.0004
719.4267	-0.001
719.6061	0.0018
719.7856	0.0044
719.965	0.0069
720.1443	0.0029
720.3237	0.0181
720.5031	-0.001
720.6824	0.0187
720.8617	0.0004
721.041	0.0104
721.2203	0.0144
721.3995	0.0027
721.5788	0.0037
721.758	0.0041
721.9372	0.0009
722.1164	-0.003
722.2956	0.0136
722.4747	-0.002
722.6538	0.0048
722.8329	0.0158
723.012	0.0097
723.1911	0.0057
723.3702	0.0164
723.5492	0.0107
723.7282	0.001
723.9072	0.0096
724.0862	-0.0027
724.2652	-0.0014
724.4441	-0.0023
724.623	0.0065
724.8019	-0.0047
724.9808	0.0031
725.1597	-0.0062
725.3385	0.006
725.5174	0.004
725.6962	0.0026
725.875	0.0029
726.0538	-0.0026
726.2325	-0.0043
726.4112	0.0054
726.59	-0.0053
726.7687	-0.0029
726.9474	-0.0012
727.126	-0.0048
727.3047	0.0044
727.4833	-0.0053
727.6619	-0.0055
727.8405	-0.0141
728.0191	-0.0078
728.1976	0.0032
728.3762	0.0005
728.5547	0.0063
728.7332	-0.0089
728.9116	0.0052
729.0901	0.0097
729.2686	0.0022
729.447	0.0055
729.6254	0.0007
729.8038	-0.0008
729.9821	-0.0077
730.1605	-0.0005
730.3388	0.0029
730.5171	0.0011
730.6954	-0.0031
730.8737	0.0066
731.0519	0.0051
731.2302	0.0055
731.4084	0.0047
731.5866	0.0073
731.7648	0.0104
731.9429	0.0068
732.1211	0.006
732.2992	-0.0004
732.4773	0.0023
732.6554	0.0062
732.8335	0.0096
733.0115	0.01
733.1896	0.0125
733.3676	-0.0082
733.5456	0.0156
733.7235	0.0087
733.9015	0.002
734.0794	0.0037
734.2574	0.005
734.4353	0.002
734.6131	0.0135
734.791	0.0079
734.9689	-0.0002
735.1467	0.0109
735.3245	0.0061
735.5023	0.0016
735.68	0.0103
735.8578	0.0109
736.0355	-0.0072
736.2132	-0.0018
736.3909	0.0061
736.5686	0.0036
736.7463	0.0121
736.9239	-0.0044
737.1015	0.0057
737.2791	0.0042
737.4567	0.008
737.6343	0.0015
737.8118	0.012
737.9894	0.0033
738.1669	-0.0049
738.3444	-0.004
738.5218	0.013
738.6993	0.0005
738.8767	0.0043
739.0541	0.012
739.2315	-0.0046
739.4089	0.0098
739.5863	0.0118
739.7636	-0.003
739.9409	0.005
740.1182	0.0158
740.2955	0.007
740.4728	0.0053
740.65	0.0057
740.8272	0.0012
741.0044	-0.0005
741.1816	0.0068
741.3588	-0.0057
741.5359	0.0062
741.7131	-0.0095
741.8902	-0.0016
742.0673	-0.0013
742.2444	-0.0069
742.4214	-0.0015
742.5985	0.0004
742.7755	-0.0018
742.9525	-0.0111
743.1295	0.0041
743.3064	0.0055
743.4834	0.0098
743.6603	0.0045
743.8372	0.0015
744.0141	0.0116
744.191	0.0058
744.3678	0.0005
744.5446	0.0044
744.7215	0.0056
744.8982	0.0003
745.075	-0.0061
745.2518	0.0084
745.4285	-0.0014
745.6052	-0.0083
745.7819	-0.0016
745.9586	-0.0095
746.1353	-0.0013
746.3119	-0.0151
746.4885	-0.0131
746.6651	-0.0043
746.8417	0.0028
747.0183	0.006
747.1948	-0.0087
747.3714	-0.0018
747.5479	0.0007
747.7244	-0.0016
747.9008	0.0115
748.0773	0.001
748.2537	-0.0079
748.4301	0.0027
748.6065	0.0033
748.7829	0.0159
748.9593	0.003
749.1356	0.0078
749.3119	0.0074
749.4882	-0.0091
749.6645	0.006
749.8408	-0.0038
750.017	-0.0041
750.1933	0.0034
750.3695	-0.0123
750.5457	-0.002
750.7218	0.0089
750.898	0.0131
751.0741	-0.0025
751.2502	-0.0005
751.4263	0.0006
751.6024	0.0069
751.7784	-0.0035
751.9545	-0.0051
752.1305	0.0021
752.3065	-0.0063
752.4825	0.0101
752.6584	-0.0001
752.8344	0.0061
753.0103	0.0034
753.1862	0.002
753.3621	0.0022
753.5379	-0.0057
753.7138	0.0023
753.8896	-0.0007
754.0654	0.013
754.2412	0.0158
754.417	0.0061
754.5927	-0.0074
754.7685	-0.0042
754.9442	-0.0033
755.1199	0.0158
755.2956	-0.0092
755.4712	0.006
755.6469	0.0024
755.8225	-0.0072
755.9981	0.0066
756.1736	0.0087
756.3492	-0.0073
756.5248	0.0006
756.7003	-0.0019
756.8758	0.0088
757.0513	-0.0091
757.2267	-0.0044
757.4022	0.0001
757.5776	-0.005
757.753	0.002
757.9284	0.009
758.1038	0.0094
758.2791	0.008
758.4545	-0.0193
758.6298	0.0036
758.8051	0.0044
758.9803	0.0031
759.1556	-0.0118
759.3308	-0.0061
759.506	0.006
759.6812	0.007
759.8564	0.0031
760.0316	0.0056
760.2067	0.0024
760.3819	0.0046
760.557	0.0133
760.732	0.003
760.9071	-0.0069
761.0821	0.0037
761.2572	0.0123
761.4322	-0.0012
761.6072	0.0036
761.7821	-0.0045
761.9571	0.003
762.132	0.0018
762.3069	-0.0094
762.4818	-0.0047
762.6567	0.0012
762.8316	-0.0009
763.0064	-0.0023
763.1812	-0.0038
763.356	-0.0114
763.5308	-0.001
763.7055	0.0042
763.8803	-0.0062
764.055	-0.0035
764.2297	0.0077
764.4044	-0.0019
764.579	-0.005
764.7537	-0.0065
764.9283	0.0078
765.1029	-0.0002
765.2775	0.0013
765.4521	0.0099
765.6266	-0.0059
765.8011	-0.0025
765.9756	0.0017
766.1501	0.0062
766.3246	-0.0031
766.4991	0.0134
766.6735	0.0079
766.8479	-0.0044
767.0223	0.0233
767.1967	0.0123
767.371	0.0056
767.5454	-0.0024
767.7197	0.0079
767.894	0.0008
768.0683	0.0085
768.2425	0.0022
768.4168	0.009
768.591	0.0091
768.7652	0.005
768.9394	0.0015
769.1135	0.0057
769.2877	0.0046
769.4618	0.0003
769.6359	0.0061
769.81	0.0156
769.984	0.002
770.1581	-0.0072
770.3321	-0.0042
770.5061	-0.0003
770.6801	-0.0064
770.8541	-0.0014
771.028	0.0031
771.202	-0.0095
771.3759	0.0246
771.5498	0.0041
771.7236	0.0042
771.8975	0.0016
772.0713	0.0066
772.2451	-0.0022
772.4189	0.0101
772.5927	0.0127
772.7665	-0.0053
772.9402	0.0011
773.1139	0.0054
773.2876	-0.0071
773.4613	0.0102
773.635	0.0093
773.8086	-0.0094
773.9822	0.0054
774.1558	0.009
774.3294	-0.0159
774.503	0.0026
774.6765	0.0052
774.8501	0.0124
775.0236	0.0106
775.1971	0.0177
775.3705	-0.0051
775.544	0.015
775.7174	-0.0076
775.8908	0.013
776.0642	0.0074
776.2376	0.0108
776.4109	0.0026
776.5843	0.0036
776.7576	0.0179
776.9309	0.0148
777.1041	0.0165
777.2774	0.0256
777.4506	0.0051
777.6238	0.0008
777.797	0.0118
777.9702	0.0113
778.1434	-0
778.3165	0.0002
778.4896	-0.0017
778.6627	0.0065
778.8358	-0.0013
779.0089	-0.0043
779.1819	-0.0004
779.3549	0.0115
779.5279	-0.0012
779.7009	0.0052
779.8739	0.001
780.0468	0.0062
780.2197	0.002
780.3926	-0.0004
780.5655	0.005
780.7384	0.0094
780.9112	0.0108
781.0841	-0.0032
781.2569	0.003
781.4297	-0.0022
781.6024	0.0076
781.7752	0.0007
781.9479	0.002
782.1206	-0.0025
782.2933	-0.0093
782.466	0.0036
782.6386	0.0089
782.8113	0.0203
782.9839	0.0017
783.1565	0.0127
783.329	0.015
783.5016	0.0243
783.6741	0.0079
783.8466	0.0145
784.0191	0.0161
784.1916	0.0006
784.3641	0.0086
784.5365	0.008
784.7089	0.0224
784.8813	0.005
785.0537	0.0014
785.2261	0.0057
785.3984	0.0042
785.5707	0.005
785.743	0.0128
785.9153	0.0068
786.0876	0.0108
786.2598	0.0057
786.432	-0.0022
786.6042	0.0079
786.7764	0.0056
786.9486	0.0084
787.1207	-0.0092
787.2928	0.021
787.4649	0.0057
787.637	0.0137
787.8091	-0.0003
787.9811	-0.0006
788.1532	0.0133
788.3252	0.0278
788.4972	0.0062
788.6691	0.0015
788.8411	0.0136
789.013	-0.0014
789.1849	0.0098
789.3568	-0.0135
789.5287	0.0102
789.7005	0.0003
789.8723	0.0078
790.0442	0.022
790.2159	0.0138
790.3877	0.0012
790.5595	-0.0126
790.7312	0.0172
790.9029	0.0127
791.0746	0.0066
791.2463	0.018
791.4179	0.0106
791.5896	-0.0064
791.7612	-0.0011
791.9328	0.0059
792.1044	-0.0038
792.2759	-0.019
792.4474	0.0083
792.619	-0.0005
792.7905	-0.003
792.9619	-0.0024
793.1334	0.01
793.3048	0.0134
793.4762	0.0217
793.6476	0.023
793.819	0.0086
793.9904	0.003
794.1617	-0.0096
794.333	0.0019
794.5043	-0.0186
794.6756	0.0017
794.8469	0.0042
795.0181	0.0029
795.1893	-0.0043
795.3605	0.0122
795.5317	0.0045
795.7029	0.0063
795.874	0.0189
796.0452	0.0117
796.2163	-0.0073
796.3873	0.0166
796.5584	0.0062
796.7294	-0.0115
796.9005	0.0132
797.0715	0.0086
797.2425	-0.0066
797.4134	0.0148
797.5844	0.001
797.7553	-0.0192
797.9262	-0.0095
798.0971	0.0026
798.2679	-0.0041
798.4388	0.0005
798.6096	0.0127
798.7804	0.0015
798.9512	0.0035
799.122	0.002
799.2927	-0.0002
799.4635	0.0097
799.6342	-0.0059
799.8049	0.0098
799.9755	-0.0018
800.1462	0.0064
800.3168	0.0113
800.4874	-0.0022
800.658	0.021
800.8286	0.0126
800.9991	0.0117
801.1696	0.0033
801.3402	0.0142
801.5106	-0.0067
801.6811	0.0055
801.8516	0.0173
802.022	0.0078
802.1924	0.0172
802.3628	0.0115
802.5332	0.0145
802.7035	0.015
802.8739	0.0161
803.0442	0.0133
803.2145	0.0193
803.3847	-0.0093
803.555	0.0144
803.7252	-0.0027
803.8954	0.0006
804.0656	-0.0123
804.2358	0.02
804.4059	0.0245
804.5761	0.018
804.7462	0.0268
804.9163	0.0173
805.0864	-0.0127
805.2564	-0.0087
805.4264	0.0177
805.5965	0.0002
805.7665	0.0115
805.9364	0.0029
806.1064	0.0384
806.2763	0.0228
806.4462	0.0134
806.6161	0.021
806.786	0.005
806.9559	0.0022
807.1257	0.016
807.2955	0.0013
807.4653	-0.0037
807.6351	0.0062
807.8048	0.014
807.9746	-0.0062
808.1443	0.0076
808.314	0.0201
808.4837	-0.0008
808.6533	0.0057
808.8229	0.0317
808.9926	0.0115
809.1622	0.0258
809.3317	0.0029
809.5013	0.0055
809.6708	0.0194
809.8403	0.0298
810.0098	-0.0118
810.1793	0.0128
810.3488	-0.0053
810.5182	-0.0238
810.6876	0.0053
810.857	-0.0104
811.0264	0.0383
811.1958	0.0108
811.3651	0.0111
811.5344	0.0087
811.7037	-0.0048
811.873	0.0084
812.0422	0.0055
812.2115	0.0156
812.3807	0.0048
812.5499	0.0007
812.7191	0.0105
812.8882	-0.0054
813.0574	0.0142
813.2265	0.0121
813.3956	0.0151
813.5646	0.0063
813.7337	0.0002
813.9027	0.0187
814.0718	0.0281
814.2407	0.0191
814.4097	-0.0037
814.5787	0.0011
814.7476	-0.004
814.9165	-0.0015
815.0854	-0.0033
815.2543	0.0164
815.4232	-0.0167
815.592	0.0221
815.7608	0.0095
815.9296	0.0231
816.0984	0.0423
816.2671	0.0071
816.4359	0.0036
816.6046	0.0344
816.7733	0.003
816.942	0.0117
817.1106	0.0165
817.2793	0.0211
817.4479	-0.0089
817.6165	0.0108
817.785	0.0028
817.9536	-0.0043
818.1221	0.0126
818.2906	-0.002
818.4591	0.0214
818.6276	0.0054
818.7961	0.0062
818.9645	0.0224
819.1329	0.0349
819.3013	0.0315
819.4697	0.0303
819.638	0.0278
819.8064	0.0183
819.9747	0.0316
820.143	0.001
820.3113	-0.013
820.4795	0.0266
820.6477	0.0207
820.816	0.0228
820.9842	-0.0184
821.1523	0.0035
821.3205	-0.0012
821.4886	0.0046
821.6567	0.0049
821.8248	0.0154
821.9929	0.0288
822.1609	0.0041
822.329	0.0353
822.497	0.0182
822.665	0.0152
822.833	-0.0253
823.0009	0.0003
823.1688	0.0223
823.3367	0.0014
823.5046	0.0088
823.6725	0.0431
823.8404	-0.011
824.0082	0.009
824.176	0.0318
824.3438	0.0219
824.5116	-0.0149
824.6793	0.0349
824.847	0.0138
825.0147	-0.0123
825.1824	0.0527
825.3501	0.0448
825.5177	-0.0119
825.6854	-0.0018
825.853	0.0148
826.0206	0.0126
826.1881	0.0201
826.3557	-0.02
826.5232	0.0158
826.6907	-0.0037
826.8582	-0.0001
827.0257	-0.0079
827.1931	-0.0055
827.3605	-0.0028
827.528	0.0169
827.6953	-0.0187
827.8627	0.0065
828.03	0.0335
828.1974	0.007
828.3647	-0.0042
828.532	-0.0016
828.6992	0.0114
828.8665	-0.0265
829.0337	-0.0165
829.2009	-0.0041
829.3681	0.0107
829.5352	0.0254
829.7024	-0.018
829.8695	-0.0377
830.0366	0.0273
830.2037	0.0107
830.3707	0.0716
830.5378	0.0201
830.7048	-0.0018
830.8718	-0.0376
831.0388	-0.0148
831.2057	0.0313
831.3727	0.0289
831.5396	-0.0244
831.7065	0.008
831.8734	0.0214
832.0402	-0.0267
832.2071	-0.0041
832.3739	-0.0143
832.5407	0.0077
832.7075	0.0087
832.8742	-0.0439
833.041	-0.0563
833.2077	0.0173
833.3744	-0.0013
833.541	0.0164
833.7077	-0.0057
833.8743	0.0044
834.0409	0.0097
834.2075	-0.0108
834.3741	0.0123
834.5407	-0.0237
834.7072	0.0005
834.8737	-0.0158
835.0402	-0.0068
835.2067	0.0322
835.3731	-0.0061
835.5395	-0.0046
835.706	0.0116
835.8723	-0.0314
836.0387	0.0357
836.2051	-0.0023
836.3714	-0.0009
836.5377	0.0349
836.704	-0.0009
836.8703	0.0171
837.0365	-0.0167
837.2027	-0.0287
837.3689	0.0258
837.5351	0.0143
837.7013	-0.0353
837.8674	-0.0371
838.0335	-0.0145
838.1997	-0.0239
838.3657	-0.0124
838.5318	-0.0002
838.6978	0.0358
838.8639	0.0394
839.0299	-0.031
839.1958	-0.0102
839.3618	0.0354
839.5277	0.0067
839.6937	0.0359
839.8596	-0.0359
840.0254	0.0065
840.1913	0.0081
840.3571	0.0325
840.523	-0.0244
840.6888	-0.0345
840.8545	-0.0406
841.0203	-0.0063
841.186	0.0137
841.3517	0.0088
841.5174	0.0007
841.6831	-0.0449
841.8488	0.0135
842.0144	-0.0021
842.18	0.006
842.3456	0.017
842.5112	-0.0033
842.6767	-0.0423
842.8422	-0.0242
843.0077	-0.0134
843.1732	-0.0106
843.3387	-0.0464
843.5042	-0.0457
843.6696	-0.046
843.835	0.0219
844.0004	0.0725
844.1657	-0.0321
844.3311	-0.0493
844.4964	-0.0726
844.6617	-0.0365
844.827	-0.0072
844.9923	0.0256
845.1575	0.0167
845.3227	-0.0378
845.4879	-0.019
845.6531	-0.0472
845.8183	-0.037
845.9834	0.0034
846.1485	-0.0014
846.3136	-0.0483
846.4787	-0.0887
846.6438	0.0118
846.8088	-0.0188
846.9738	-0.0674
847.1388	0.06
847.3038	-0.031
847.4687	-0.1286
847.6337	0.0049
847.7986	0.0091
847.9635	-0.0062
848.1284	0.0533
848.2932	0.0074
848.458	0.003
848.6228	0.0253
848.7876	0.0864
848.9524	-0.0818
849.1172	-0.0815
849.2819	0.0514
849.4466	-0.0991
849.6113	-0.0796
849.7759	-0.035
849.9406	-0.0222
850.1052	0.018
850.2698	-0.0621
850.4344	-0.0159
850.599	-0.0624
850.7635	0.1145
850.928	0.0058
851.0925	-0.0283
851.257	0.0067
851.4215	0.0473
851.5859	0.0061
851.7503	0.0168
851.9147	0.0373
852.0791	-0.0415
852.2434	-0.0522
852.4078	0.0394
852.5721	0.0509
852.7364	-0.0699
852.9007	-0.169
853.0649	0.0789
853.2291	0.0019
853.3934	0.0775
853.5575	0.0361
853.7217	-0.1369
853.8859	-0.1121
854.05	-0.1139
854.2141	0.0072
854.3782	-0.0663
854.5423	-0.165
854.7063	0.0265
854.8703	-0.1034
855.0343	0.049
855.1983	-0.1073
855.3623	0.1897
855.5262	0.0838
855.6901	-0.1247
855.854	0.0036
856.0179	0.0106
856.1818	-0.0007
856.3456	-0.0578
856.5094	-0.1116
856.6732	-0.1707
856.837	0.0532
857.0008	0.005
857.1645	-0.0601
857.3282	-0.2489
857.4919	0.1237
857.6556	0.0031
857.8192	-0.0922
857.9828	0.0732
858.1465	0.0231
858.31	-0.0642
858.4736	0.0551
858.6372	-0.2225
858.8007	-0.1453
858.9642	0.1068
859.1277	0.0287
859.2911	-0.0057
859.4546	-0.031
859.618	-0.3059
859.7814	-0.0424
859.9448	0.0166
860.1081	-0.204
860.2715	0.113
860.4348	0.036
860.5981	-0.1828
860.7614	0.2019
860.9246	-0.3276
861.0879	-0.0021
861.2511	-0.0636
861.4143	-0.2962
861.5774	-0.0475
861.7406	-0.16
861.9037	-0.1305
862.0668	0.005
862.2299	0.0944
862.393	-0.5717
862.556	-0.0393
862.7191	-0.265
862.8821	-0.0633
863.0451	0.0447
863.208	-0.0909
863.371	-0.0436
863.5339	-0.234
863.6968	-0.1281
863.8597	-0.0459
864.0225	-0.2477
864.1854	0.0255
864.3482	-0.0374
864.511	0.7811
864.6737	0.0849
864.8365	0.0797
864.9992	-0.1872
865.1619	-0.509
865.3246	-0.0176
865.4873	-0.1132
865.65	0.0117
865.8126	-0.13
865.9752	0.0152
866.1378	-0.1694
866.3004	0.6864
866.4629	0.1044
866.6254	-0.1776
866.7879	0.1717
866.9504	0.0194
867.1129	-0
867.2753	0.1086
867.4377	0.044
867.6001	0.1241
867.7625	-0.0352
867.9249	-0.526
868.0872	-0
868.2495	0.2412
868.4118	-0.3525
868.5741	-0.1301
868.7363	-0.3639
868.8986	0.2017
869.0608	-0.0697
869.223	0.3128
869.3851	-0
869.5473	-0
869.7094	0.2159
869.8715	-0.3367
870.0336	0.2527
870.1957	-0.65
870.3577	-1.0709
870.5197	-0.1654
870.6817	-0.2589
870.8437	-0.1701
871.0057	-0
871.1676	0.624
871.3295	-0.2093
871.4914	-0.9347
871.6533	-0.207
871.8151	-0.0566
871.977	-0
872.1388	-0
872.3006	-0
872.4623	-0
872.6241	0.1477
872.7858	-0
872.9475	-0.1988
873.1092	0.4362
873.2709	-0.1051
873.4325	-0.2826
873.5941	-0.193
873.7557	-0
873.9173	-0.0876
874.0789	-0
874.2404	0.3217
874.4019	0.1254
874.5634	0.0228
874.7249	-0.2208
874.8863	-0.1661
875.0478	-0.1348
875.2092	-0.6293
875.3706	0.0494
875.5319	-0.6745
875.6933	-0
875.8546	-0.171
876.0159	-0
876.1772	-0
876.3385	-0
876.4997	0.0711
876.6609	-0.3892
876.8221	-0
876.9833	0.0688
877.1445	-0
877.3056	0.076
877.4667	-0
877.6278	-0
877.7889	-0.1318
877.9499	-0
878.111	-0
878.272	-0
878.433	-0
878.5939	-0
878.7549	0.2701
878.9158	-1.0063
879.0767	-0
879.2376	0.3221
879.3984	0.4554
879.5593	-0
879.7201	0.3703
879.8809	-0.4614
880.0417	-0.5856
880.2024	0.0094
880.3632	-0
880.5239	-0
880.6846	-0
880.8452	-2.3847
881.0059	-1.4518
881.1665	-0.1582
881.3271	-0
881.4877	0.2734
881.6483	-0
881.8088	-0.4483
881.9693	0.2648
882.1298	0.2648
882.2903	0.2648
