Data from MonoPyChalIsomerACN10uM360nmA_Absorbance_13-57-27-204.txt Node
Date: Fri Jul 05 13:57:27 BST 2024
User: LASERRRRR
Spectrometer: FLMT03099
Trigger mode: 0
Integration Time (sec): 1.000000E-1
Scans to average: 1
Electric dark correction enabled: true
Nonlinearity correction enabled: false
Boxcar width: 0
XAxis mode: Wavelengths
Number of Pixels in Spectrum: 3648
>>>>>Begin Spectral Data<<<<<
179.3399	-0.1063
179.5586	-0.1063
179.7771	-0.1063
179.9957	-0
180.2143	-0
180.4329	-0.2426
180.6514	0.0854
180.8699	-0
181.0885	-0.2962
181.307	-0.0638
181.5255	0.0235
181.744	0.0565
181.9625	-0
182.181	-0
182.3994	0.2991
182.6179	-0.1806
182.8363	-0
183.0547	-0.2675
183.2732	-0.1089
183.4916	0.0889
183.71	0.1375
183.9284	0.1682
184.1467	0.0232
184.3651	0.0253
184.5835	-0.0037
184.8018	0.1575
185.0201	0.0311
185.2385	-0.0475
185.4568	0.3211
185.6751	0.332
185.8934	0.5006
186.1117	-0.0248
186.3299	0.0591
186.5482	0.101
186.7664	-0.1574
186.9847	0.1656
187.2029	0.0713
187.4211	0.0473
187.6393	0.1085
187.8575	-0.0222
188.0757	0.3637
188.2939	0.0764
188.512	0.0805
188.7302	-0.0792
188.9483	0.1012
189.1665	0.1234
189.3846	-0.2068
189.6027	0.1325
189.8208	0.0513
190.0389	0.2706
190.257	0.1781
190.475	0.1299
190.6931	0.2703
190.9111	0.2175
191.1292	0.2123
191.3472	0.4397
191.5652	0.1476
191.7832	0.2758
192.0012	0.4136
192.2192	0.3298
192.4371	0.6849
192.6551	0.4305
192.873	0.3982
193.091	0.3413
193.3089	0.4048
193.5268	0.6551
193.7447	0.5248
193.9626	0.6226
194.1805	0.6477
194.3984	1.1596
194.6162	0.825
194.8341	0.5179
195.0519	0.5343
195.2697	0.9189
195.4875	0.5894
195.7054	0.499
195.9231	0.5169
196.1409	0.4708
196.3587	0.8861
196.5765	0.581
196.7942	0.7326
197.012	0.4893
197.2297	0.6193
197.4474	0.691
197.6651	0.6218
197.8828	0.5939
198.1005	0.848
198.3182	0.6116
198.5358	0.8423
198.7535	0.6526
198.9711	0.5594
199.1888	0.7285
199.4064	0.6245
199.624	0.5271
199.8416	0.6802
200.0592	0.6745
200.2767	0.6682
200.4943	0.6087
200.7119	0.6272
200.9294	0.7142
201.1469	0.5514
201.3645	0.5851
201.582	0.4887
201.7995	0.5867
202.017	0.6835
202.2344	0.5953
202.4519	0.6148
202.6694	0.6443
202.8868	0.5567
203.1042	0.7896
203.3217	0.7296
203.5391	0.7432
203.7565	0.508
203.9739	0.7238
204.1913	0.5713
204.4086	0.7669
204.626	0.6862
204.8433	0.6267
205.0607	0.5751
205.278	0.661
205.4953	0.6339
205.7126	0.699
205.9299	0.8316
206.1472	0.629
206.3644	0.5974
206.5817	0.6804
206.7989	0.7055
207.0162	0.6712
207.2334	0.6986
207.4506	0.6374
207.6678	0.7778
207.885	0.6481
208.1022	0.6462
208.3194	0.6242
208.5365	0.5748
208.7537	0.6384
208.9708	0.5452
209.1879	0.6452
209.405	0.6646
209.6222	0.7242
209.8392	0.607
210.0563	0.6
210.2734	0.6224
210.4905	0.6251
210.7075	0.6252
210.9245	0.5879
211.1416	0.6844
211.3586	0.6634
211.5756	0.5981
211.7926	0.6452
212.0096	0.5877
212.2265	0.5391
212.4435	0.5646
212.6604	0.567
212.8774	0.5731
213.0943	0.6571
213.3112	0.5588
213.5281	0.5494
213.745	0.4826
213.9619	0.5245
214.1788	0.4474
214.3956	0.4657
214.6125	0.4514
214.8293	0.4307
215.0461	0.4704
215.2629	0.4427
215.4798	0.4558
215.6965	0.4099
215.9133	0.4253
216.1301	0.4022
216.3469	0.4472
216.5636	0.4311
216.7803	0.377
216.9971	0.3797
217.2138	0.3857
217.4305	0.343
217.6472	0.3731
217.8639	0.3951
218.0805	0.338
218.2972	0.2929
218.5138	0.3133
218.7305	0.3101
218.9471	0.2949
219.1637	0.3305
219.3803	0.2896
219.5969	0.2816
219.8135	0.285
220.0301	0.2805
220.2466	0.2738
220.4632	0.2522
220.6797	0.2476
220.8962	0.2444
221.1127	0.2674
221.3292	0.2513
221.5457	0.2452
221.7622	0.2263
221.9787	0.2629
222.1951	0.2417
222.4116	0.2559
222.628	0.2768
222.8444	0.2724
223.0608	0.2835
223.2772	0.2612
223.4936	0.262
223.71	0.2705
223.9264	0.2772
224.1427	0.2615
224.3591	0.2518
224.5754	0.2845
224.7917	0.2669
225.008	0.2712
225.2243	0.2656
225.4406	0.2962
225.6569	0.2645
225.8732	0.267
226.0894	0.2588
226.3057	0.276
226.5219	0.3038
226.7381	0.2827
226.9543	0.2912
227.1705	0.2983
227.3867	0.2668
227.6029	0.2939
227.8191	0.2967
228.0352	0.296
228.2513	0.3025
228.4675	0.3184
228.6836	0.2936
228.8997	0.2867
229.1158	0.3252
229.3319	0.3295
229.548	0.3207
229.764	0.3345
229.9801	0.3345
230.1961	0.3258
230.4121	0.3275
230.6282	0.3308
230.8442	0.32
231.0602	0.3701
231.2761	0.3615
231.4921	0.3534
231.7081	0.3501
231.924	0.3516
232.14	0.3703
232.3559	0.3463
232.5718	0.3728
232.7877	0.3534
233.0036	0.3502
233.2195	0.3702
233.4353	0.3811
233.6512	0.3618
233.867	0.358
234.0829	0.3633
234.2987	0.3693
234.5145	0.3762
234.7303	0.3572
234.9461	0.3901
235.1619	0.3896
235.3776	0.3777
235.5934	0.3946
235.8091	0.3677
236.0249	0.3891
236.2406	0.384
236.4563	0.3775
236.672	0.3969
236.8877	0.4064
237.1034	0.4045
237.319	0.3931
237.5347	0.4163
237.7503	0.4039
237.966	0.4048
238.1816	0.4082
238.3972	0.4069
238.6128	0.3912
238.8284	0.3968
239.0439	0.4172
239.2595	0.3852
239.475	0.4263
239.6906	0.4204
239.9061	0.3947
240.1216	0.393
240.3371	0.4175
240.5526	0.393
240.7681	0.3942
240.9836	0.3812
241.199	0.4021
241.4145	0.3842
241.6299	0.3878
241.8453	0.3757
242.0607	0.3938
242.2761	0.3628
242.4915	0.3456
242.7069	0.3541
242.9223	0.3494
243.1376	0.3475
243.353	0.3531
243.5683	0.3492
243.7836	0.3465
243.9989	0.3385
244.2142	0.3018
244.4295	0.3127
244.6448	0.311
244.86	0.2974
245.0753	0.2886
245.2905	0.2962
245.5057	0.275
245.721	0.2816
245.9362	0.2775
246.1514	0.2635
246.3665	0.2621
246.5817	0.2509
246.7969	0.2547
247.012	0.2417
247.2271	0.2367
247.4423	0.238
247.6574	0.2492
247.8725	0.2353
248.0876	0.2241
248.3026	0.2235
248.5177	0.2296
248.7328	0.2187
248.9478	0.2055
249.1628	0.2279
249.3779	0.2156
249.5929	0.2117
249.8079	0.2197
250.0228	0.2174
250.2378	0.2026
250.4528	0.1946
250.6677	0.1919
250.8827	0.2017
251.0976	0.186
251.3125	0.176
251.5274	0.1777
251.7423	0.1745
251.9572	0.181
252.172	0.1896
252.3869	0.191
252.6017	0.1811
252.8166	0.1713
253.0314	0.1754
253.2462	0.1649
253.461	0.1851
253.6758	0.1706
253.8906	0.1862
254.1053	0.1769
254.3201	0.1663
254.5348	0.1724
254.7496	0.1781
254.9643	0.1605
255.179	0.178
255.3937	0.1763
255.6083	0.1783
255.823	0.1812
256.0377	0.15
256.2523	0.1747
256.467	0.1647
256.6816	0.1688
256.8962	0.1654
257.1108	0.1576
257.3254	0.179
257.54	0.1553
257.7545	0.1711
257.9691	0.1727
258.1836	0.1718
258.3981	0.1754
258.6127	0.1714
258.8272	0.1623
259.0417	0.1629
259.2561	0.1603
259.4706	0.1766
259.6851	0.1554
259.8995	0.1645
260.114	0.1686
260.3284	0.1696
260.5428	0.1734
260.7572	0.1662
260.9716	0.1769
261.186	0.1639
261.4003	0.1578
261.6147	0.1799
261.829	0.1682
262.0433	0.158
262.2577	0.1737
262.472	0.1713
262.6863	0.1533
262.9005	0.1732
263.1148	0.1589
263.3291	0.1392
263.5433	0.1655
263.7576	0.1672
263.9718	0.17
264.186	0.1747
264.4002	0.1467
264.6144	0.1591
264.8286	0.1595
265.0427	0.1563
265.2569	0.1572
265.471	0.1547
265.6851	0.1503
265.8993	0.1581
266.1134	0.1447
266.3275	0.1653
266.5415	0.1541
266.7556	0.1625
266.9697	0.1747
267.1837	0.1586
267.3978	0.1604
267.6118	0.1637
267.8258	0.1699
268.0398	0.155
268.2538	0.1631
268.4677	0.1607
268.6817	0.1574
268.8957	0.1642
269.1096	0.159
269.3235	0.1729
269.5374	0.1602
269.7514	0.1545
269.9652	0.1571
270.1791	0.1439
270.393	0.1489
270.6068	0.1659
270.8207	0.1473
271.0345	0.1451
271.2483	0.1473
271.4622	0.147
271.676	0.1542
271.8897	0.1448
272.1035	0.1441
272.3173	0.144
272.531	0.1469
272.7448	0.1484
272.9585	0.1345
273.1722	0.1488
273.3859	0.1577
273.5996	0.1475
273.8133	0.1515
274.0269	0.1303
274.2406	0.1431
274.4542	0.1479
274.6679	0.1299
274.8815	0.1468
275.0951	0.1583
275.3087	0.153
275.5223	0.1473
275.7358	0.1434
275.9494	0.1385
276.1629	0.1507
276.3765	0.132
276.59	0.149
276.8035	0.1655
277.017	0.1459
277.2305	0.134
277.444	0.1548
277.6574	0.145
277.8709	0.1551
278.0843	0.1396
278.2978	0.1436
278.5112	0.1361
278.7246	0.1522
278.938	0.1581
279.1513	0.1467
279.3647	0.154
279.5781	0.1543
279.7914	0.1513
280.0047	0.1596
280.2181	0.1459
280.4314	0.1429
280.6447	0.1529
280.8579	0.1561
281.0712	0.154
281.2845	0.1598
281.4977	0.1487
281.711	0.1526
281.9242	0.143
282.1374	0.1483
282.3506	0.1643
282.5638	0.1517
282.7769	0.1477
282.9901	0.166
283.2033	0.1741
283.4164	0.1628
283.6295	0.1424
283.8426	0.15
284.0557	0.1535
284.2688	0.1655
284.4819	0.1574
284.695	0.1602
284.908	0.1708
285.1211	0.1617
285.3341	0.152
285.5471	0.1715
285.7601	0.1612
285.9731	0.1629
286.1861	0.1529
286.3991	0.1611
286.612	0.1732
286.825	0.1673
287.0379	0.1646
287.2508	0.1546
287.4637	0.172
287.6766	0.1505
287.8895	0.1722
288.1024	0.172
288.3152	0.1734
288.5281	0.1595
288.7409	0.1717
288.9538	0.1632
289.1666	0.1614
289.3794	0.1677
289.5922	0.1673
289.8049	0.1561
290.0177	0.1575
290.2304	0.1666
290.4432	0.1677
290.6559	0.1602
290.8686	0.1755
291.0813	0.1699
291.294	0.1592
291.5067	0.1688
291.7194	0.1715
291.932	0.1847
292.1447	0.1646
292.3573	0.1572
292.5699	0.1672
292.7825	0.178
292.9951	0.1626
293.2077	0.1574
293.4203	0.1707
293.6328	0.142
293.8454	0.1713
294.0579	0.1711
294.2704	0.1695
294.4829	0.1586
294.6954	0.1601
294.9079	0.17
295.1204	0.1678
295.3328	0.1657
295.5453	0.166
295.7577	0.1735
295.9701	0.155
296.1825	0.1701
296.3949	0.1668
296.6073	0.1633
296.8197	0.1569
297.0321	0.1775
297.2444	0.1574
297.4567	0.1596
297.6691	0.1649
297.8814	0.1465
298.0937	0.166
298.306	0.1692
298.5182	0.1723
298.7305	0.1764
298.9428	0.1555
299.155	0.1658
299.3672	0.1571
299.5794	0.158
299.7916	0.1618
300.0038	0.1641
300.216	0.158
300.4282	0.1653
300.6403	0.1643
300.8525	0.1839
301.0646	0.1643
301.2767	0.1636
301.4888	0.1632
301.7009	0.166
301.913	0.1615
302.125	0.1618
302.3371	0.157
302.5491	0.1645
302.7612	0.167
302.9732	0.1674
303.1852	0.1623
303.3972	0.1629
303.6092	0.1659
303.8211	0.1547
304.0331	0.151
304.245	0.1555
304.457	0.1561
304.6689	0.1599
304.8808	0.1676
305.0927	0.1488
305.3046	0.1644
305.5164	0.1616
305.7283	0.142
305.9401	0.1513
306.152	0.1518
306.3638	0.163
306.5756	0.1436
306.7874	0.1577
306.9992	0.151
307.2109	0.1396
307.4227	0.1386
307.6344	0.1422
307.8462	0.1323
308.0579	0.1374
308.2696	0.1402
308.4813	0.1213
308.693	0.1285
308.9046	0.1423
309.1163	0.1311
309.328	0.1299
309.5396	0.1244
309.7512	0.1154
309.9628	0.1153
310.1744	0.1329
310.386	0.1168
310.5976	0.1183
310.8091	0.1232
311.0207	0.1152
311.2322	0.1135
311.4437	0.113
311.6552	0.1229
311.8667	0.1167
312.0782	0.1019
312.2897	0.1012
312.5012	0.1152
312.7126	0.1145
312.924	0.1029
313.1355	0.1158
313.3469	0.1081
313.5583	0.1195
313.7696	0.1108
313.981	0.1074
314.1924	0.0967
314.4037	0.1057
314.6151	0.1105
314.8264	0.0986
315.0377	0.1016
315.249	0.1119
315.4603	0.1134
315.6716	0.0997
315.8828	0.0963
316.0941	0.1041
316.3053	0.0952
316.5165	0.0941
316.7277	0.0947
316.9389	0.1066
317.1501	0.106
317.3613	0.0998
317.5724	0.0924
317.7836	0.0954
317.9947	0.0956
318.2058	0.1013
318.417	0.0861
318.6281	0.0906
318.8391	0.0875
319.0502	0.0933
319.2613	0.1123
319.4723	0.0968
319.6834	0.1028
319.8944	0.0819
320.1054	0.1056
320.3164	0.0905
320.5274	0.0836
320.7383	0.0937
320.9493	0.1001
321.1602	0.1125
321.3712	0.0799
321.5821	0.1149
321.793	0.1003
322.0039	0.0902
322.2148	0.1
322.4257	0.1104
322.6365	0.1188
322.8474	0.1056
323.0582	0.1026
323.269	0.0977
323.4798	0.1161
323.6906	0.0955
323.9014	0.1022
324.1122	0.0962
324.3229	0.0986
324.5337	0.11
324.7444	0.0917
324.9551	0.1095
325.1658	0.1113
325.3765	0.1018
325.5872	0.1028
325.7979	0.0953
326.0085	0.1021
326.2192	0.1034
326.4298	0.113
326.6404	0.0898
326.851	0.0897
327.0616	0.0982
327.2722	0.1051
327.4828	0.1099
327.6933	0.1045
327.9039	0.1039
328.1144	0.1114
328.3249	0.1068
328.5354	0.1006
328.7459	0.111
328.9564	0.0965
329.1669	0.1071
329.3773	0.0988
329.5878	0.1115
329.7982	0.0997
330.0086	0.1095
330.219	0.0992
330.4294	0.1002
330.6398	0.1113
330.8502	0.0942
331.0605	0.1165
331.2708	0.1118
331.4812	0.1051
331.6915	0.1174
331.9018	0.1076
332.1121	0.1098
332.3224	0.1126
332.5326	0.1085
332.7429	0.1038
332.9531	0.1126
333.1633	0.1037
333.3735	0.1096
333.5837	0.1201
333.7939	0.0941
334.0041	0.1102
334.2143	0.1084
334.4244	0.1068
334.6346	0.0979
334.8447	0.1187
335.0548	0.1061
335.2649	0.106
335.475	0.1064
335.685	0.099
335.8951	0.1095
336.1051	0.1059
336.3152	0.1221
336.5252	0.1027
336.7352	0.1123
336.9452	0.1144
337.1552	0.1059
337.3652	0.1108
337.5751	0.11
337.7851	0.1133
337.995	0.1039
338.2049	0.1103
338.4148	0.1142
338.6247	0.1161
338.8346	0.1113
339.0445	0.1062
339.2543	0.1118
339.4642	0.1154
339.674	0.1054
339.8838	0.1095
340.0936	0.1097
340.3034	0.1303
340.5132	0.1298
340.7229	0.1106
340.9327	0.1209
341.1424	0.1112
341.3522	0.1292
341.5619	0.1246
341.7716	0.124
341.9813	0.1231
342.1909	0.1101
342.4006	0.1317
342.6102	0.1285
342.8199	0.1155
343.0295	0.1175
343.2391	0.1202
343.4487	0.1232
343.6583	0.1199
343.8679	0.1235
344.0774	0.1211
344.287	0.1319
344.4965	0.12
344.706	0.1214
344.9155	0.1187
345.125	0.1136
345.3345	0.1352
345.544	0.1281
345.7534	0.1225
345.9629	0.126
346.1723	0.1199
346.3817	0.1277
346.5911	0.1244
346.8005	0.1243
347.0099	0.1272
347.2193	0.1295
347.4286	0.1289
347.638	0.131
347.8473	0.127
348.0566	0.1337
348.2659	0.1278
348.4752	0.1337
348.6845	0.1332
348.8937	0.1441
349.103	0.1321
349.3122	0.1206
349.5214	0.1356
349.7306	0.1339
349.9398	0.1296
350.149	0.1289
350.3582	0.1307
350.5674	0.1482
350.7765	0.1289
350.9856	0.1346
351.1948	0.1545
351.4039	0.1228
351.613	0.1268
351.822	0.1527
352.0311	0.1568
352.2402	0.1484
352.4492	0.1577
352.6582	0.1512
352.8672	0.1392
353.0762	0.1411
353.2852	0.1523
353.4942	0.1507
353.7032	0.1426
353.9121	0.1409
354.1211	0.1457
354.33	0.1546
354.5389	0.1502
354.7478	0.1537
354.9567	0.1557
355.1655	0.1385
355.3744	0.1565
355.5833	0.1634
355.7921	0.1606
356.0009	0.1469
356.2097	0.1801
356.4185	0.174
356.6273	0.1543
356.8361	0.1517
357.0448	0.1458
357.2536	0.157
357.4623	0.1584
357.671	0.168
357.8797	0.163
358.0884	0.1735
358.2971	0.17
358.5057	0.1614
358.7144	0.158
358.923	0.1596
359.1316	0.1652
359.3402	0.1516
359.5488	0.1571
359.7574	0.1633
359.966	0.1667
360.1746	0.1668
360.3831	0.171
360.5916	0.1615
360.8002	0.165
361.0087	0.1767
361.2172	0.1797
361.4256	0.1786
361.6341	0.1821
361.8426	0.1782
362.051	0.1824
362.2594	0.1741
362.4678	0.1856
362.6762	0.1933
362.8846	0.1866
363.093	0.1841
363.3014	0.192
363.5097	0.1695
363.718	0.2021
363.9264	0.19
364.1347	0.1793
364.343	0.1904
364.5513	0.2029
364.7595	0.2203
364.9678	0.202
365.176	0.202
365.3842	0.2112
365.5925	0.1812
365.8007	0.2022
366.0089	0.1989
366.217	0.197
366.4252	0.1998
366.6333	0.2161
366.8415	0.1957
367.0496	0.2035
367.2577	0.1987
367.4658	0.2126
367.6739	0.2128
367.882	0.2111
368.09	0.2011
368.2981	0.2128
368.5061	0.1916
368.7141	0.2211
368.9221	0.2158
369.1301	0.2109
369.3381	0.2049
369.5461	0.2039
369.754	0.2097
369.962	0.2265
370.1699	0.2044
370.3778	0.2278
370.5857	0.2004
370.7936	0.2069
371.0015	0.2009
371.2093	0.2193
371.4172	0.2299
371.625	0.2117
371.8328	0.2094
372.0406	0.2243
372.2484	0.2123
372.4562	0.229
372.664	0.2129
372.8717	0.2149
373.0795	0.2093
373.2872	0.2234
373.4949	0.2326
373.7026	0.2253
373.9103	0.2381
374.118	0.2329
374.3256	0.2141
374.5333	0.2212
374.7409	0.2335
374.9485	0.2428
375.1561	0.2329
375.3637	0.2317
375.5713	0.2374
375.7789	0.2224
375.9864	0.2333
376.194	0.2259
376.4015	0.2434
376.609	0.2618
376.8165	0.233
377.024	0.2245
377.2315	0.2389
377.4389	0.2341
377.6464	0.248
377.8538	0.2475
378.0612	0.2314
378.2686	0.2392
378.476	0.2477
378.6834	0.2356
378.8908	0.2444
379.0981	0.2428
379.3055	0.2575
379.5128	0.2249
379.7201	0.2526
379.9274	0.2432
380.1347	0.2631
380.342	0.2801
380.5492	0.2438
380.7565	0.2568
380.9637	0.2694
381.1709	0.2478
381.3781	0.2431
381.5853	0.2543
381.7925	0.2479
381.9997	0.2657
382.2068	0.2816
382.4139	0.2661
382.6211	0.2301
382.8282	0.2446
383.0353	0.2556
383.2424	0.2532
383.4494	0.2624
383.6565	0.2552
383.8635	0.2577
384.0706	0.2522
384.2776	0.2545
384.4846	0.2598
384.6916	0.2519
384.8986	0.2553
385.1055	0.2616
385.3125	0.2586
385.5194	0.2388
385.7263	0.2658
385.9333	0.2622
386.1402	0.2499
386.347	0.2462
386.5539	0.2577
386.7608	0.2498
386.9676	0.2371
387.1744	0.2603
387.3813	0.2497
387.5881	0.2399
387.7948	0.2479
388.0016	0.2564
388.2084	0.2508
388.4151	0.244
388.6219	0.2573
388.8286	0.24
389.0353	0.2546
389.242	0.2525
389.4487	0.252
389.6553	0.2355
389.862	0.2263
390.0686	0.238
390.2753	0.2328
390.4819	0.2397
390.6885	0.2427
390.8951	0.2523
391.1016	0.2347
391.3082	0.2265
391.5147	0.2367
391.7213	0.24
391.9278	0.2376
392.1343	0.2332
392.3408	0.2345
392.5473	0.2398
392.7537	0.2174
392.9602	0.2383
393.1666	0.2263
393.373	0.2245
393.5794	0.2343
393.7858	0.2422
393.9922	0.2232
394.1986	0.2374
394.4049	0.2277
394.6113	0.2117
394.8176	0.2033
395.0239	0.2198
395.2302	0.2127
395.4365	0.2077
395.6428	0.2193
395.8491	0.2134
396.0553	0.2197
396.2615	0.2144
396.4678	0.2186
396.674	0.207
396.8802	0.2077
397.0863	0.2114
397.2925	0.1999
397.4987	0.2045
397.7048	0.2067
397.9109	0.2205
398.117	0.2061
398.3231	0.2178
398.5292	0.2392
398.7353	0.2163
398.9413	0.2205
399.1474	0.2175
399.3534	0.2168
399.5594	0.1993
399.7654	0.2361
399.9714	0.2216
400.1774	0.1938
400.3833	0.1899
400.5893	0.212
400.7952	0.2191
401.0011	0.2103
401.207	0.219
401.4129	0.2113
401.6188	0.225
401.8247	0.216
402.0305	0.2154
402.2364	0.2071
402.4422	0.2282
402.648	0.2282
402.8538	0.2258
403.0596	0.1978
403.2654	0.2186
403.4711	0.2009
403.6768	0.2261
403.8826	0.2193
404.0883	0.2034
404.294	0.2266
404.4997	0.2178
404.7054	0.2037
404.911	0.2026
405.1167	0.2137
405.3223	0.2196
405.5279	0.2191
405.7335	0.2236
405.9391	0.2091
406.1447	0.2169
406.3502	0.2294
406.5558	0.1816
406.7613	0.2117
406.9668	0.209
407.1724	0.2059
407.3778	0.2261
407.5833	0.216
407.7888	0.2081
407.9942	0.2407
408.1997	0.203
408.4051	0.2072
408.6105	0.2171
408.8159	0.209
409.0213	0.1918
409.2267	0.2274
409.432	0.1874
409.6374	0.2204
409.8427	0.2057
410.048	0.2087
410.2533	0.2063
410.4586	0.214
410.6639	0.1901
410.8691	0.1975
411.0744	0.2039
411.2796	0.2011
411.4848	0.1987
411.69	0.206
411.8952	0.2181
412.1004	0.1989
412.3056	0.2298
412.5107	0.2006
412.7158	0.2141
412.921	0.1844
413.1261	0.203
413.3312	0.2107
413.5362	0.2103
413.7413	0.2013
413.9464	0.1944
414.1514	0.203
414.3564	0.2052
414.5614	0.183
414.7664	0.2182
414.9714	0.1984
415.1764	0.1924
415.3813	0.2336
415.5863	0.2099
415.7912	0.1996
415.9961	0.2007
416.201	0.2039
416.4059	0.2243
416.6108	0.1874
416.8156	0.2071
417.0205	0.1904
417.2253	0.1953
417.4301	0.2039
417.6349	0.1912
417.8397	0.1992
418.0445	0.2102
418.2492	0.207
418.454	0.2038
418.6587	0.1963
418.8634	0.1978
419.0681	0.1899
419.2728	0.1982
419.4775	0.1981
419.6822	0.1882
419.8868	0.178
420.0915	0.1896
420.2961	0.1713
420.5007	0.186
420.7053	0.1936
420.9099	0.1935
421.1144	0.1882
421.319	0.1783
421.5235	0.1955
421.728	0.196
421.9325	0.196
422.137	0.2019
422.3415	0.1798
422.546	0.1818
422.7504	0.1815
422.9549	0.1948
423.1593	0.1865
423.3637	0.1786
423.5681	0.1883
423.7725	0.1724
423.9769	0.154
424.1812	0.1794
424.3856	0.1651
424.5899	0.1714
424.7942	0.1766
424.9985	0.1726
425.2028	0.1889
425.4071	0.195
425.6113	0.1611
425.8156	0.1781
426.0198	0.1756
426.224	0.1585
426.4282	0.1568
426.6324	0.1669
426.8366	0.1741
427.0407	0.1572
427.2449	0.1575
427.449	0.1711
427.6531	0.1349
427.8572	0.1701
428.0613	0.1654
428.2654	0.1529
428.4694	0.1634
428.6735	0.158
428.8775	0.17
429.0815	0.1601
429.2855	0.1468
429.4895	0.1534
429.6935	0.1694
429.8975	0.1417
430.1014	0.1476
430.3053	0.135
430.5093	0.1513
430.7132	0.142
430.9171	0.134
431.1209	0.1517
431.3248	0.1362
431.5286	0.1327
431.7325	0.1359
431.9363	0.1327
432.1401	0.14
432.3439	0.1252
432.5477	0.1163
432.7514	0.111
432.9552	0.1354
433.1589	0.1042
433.3627	0.1142
433.5664	0.1296
433.7701	0.1221
433.9737	0.1301
434.1774	0.1135
434.3811	0.1205
434.5847	0.1082
434.7883	0.1194
434.9919	0.1137
435.1955	0.1094
435.3991	0.1133
435.6027	0.111
435.8062	0.1148
436.0098	0.0975
436.2133	0.1086
436.4168	0.0979
436.6203	0.0944
436.8238	0.1071
437.0272	0.097
437.2307	0.0973
437.4341	0.1054
437.6375	0.1024
437.841	0.1001
438.0443	0.1013
438.2477	0.0999
438.4511	0.0872
438.6545	0.0967
438.8578	0.0984
439.0611	0.0832
439.2644	0.0815
439.4677	0.0737
439.671	0.0823
439.8743	0.0875
440.0775	0.0875
440.2808	0.0816
440.484	0.0599
440.6872	0.0466
440.8904	0.0671
441.0936	0.0893
441.2967	0.0794
441.4999	0.067
441.703	0.059
441.9062	0.0647
442.1093	0.0728
442.3124	0.0589
442.5155	0.0595
442.7185	0.0687
442.9216	0.0445
443.1246	0.0761
443.3276	0.0535
443.5307	0.0721
443.7337	0.0679
443.9366	0.0612
444.1396	0.0453
444.3426	0.0533
444.5455	0.0633
444.7484	0.0396
444.9513	0.0572
445.1542	0.0542
445.3571	0.0557
445.56	0.0534
445.7628	0.0411
445.9657	0.0431
446.1685	0.0595
446.3713	0.0468
446.5741	0.0513
446.7769	0.0434
446.9797	0.0422
447.1824	0.0472
447.3852	0.0333
447.5879	0.037
447.7906	0.0496
447.9933	0.0383
448.196	0.0269
448.3986	0.0384
448.6013	0.0405
448.8039	0.025
449.0066	0.0262
449.2092	0.045
449.4118	0.0394
449.6143	0.0339
449.8169	0.035
450.0195	0.0334
450.222	0.0136
450.4245	0.0249
450.627	0.0368
450.8295	0.0313
451.032	0.0395
451.2345	0.0289
451.4369	0.0328
451.6394	0.0325
451.8418	0.0231
452.0442	0.0045
452.2466	0.0383
452.449	-0.0091
452.6513	0.0327
452.8537	0.0071
453.056	0.0209
453.2583	0.024
453.4607	0.0096
453.663	0.0106
453.8652	0.0221
454.0675	0.0135
454.2697	0.0188
454.472	0.0002
454.6742	0.0168
454.8764	0.0211
455.0786	0.0191
455.2808	0.0091
455.4829	0.0144
455.6851	0.0158
455.8872	0.0167
456.0893	0.0275
456.2915	0.0081
456.4935	0.0284
456.6956	0.0128
456.8977	0.0149
457.0997	0.0093
457.3018	-0.0107
457.5038	0.0126
457.7058	0.0104
457.9078	0.0079
458.1098	0.0162
458.3117	0.0212
458.5137	0.0129
458.7156	0.0119
458.9175	0.0007
459.1194	0.007
459.3213	-0.0006
459.5232	0.0068
459.725	-0.0092
459.9269	-0.01
460.1287	0.0016
460.3305	0.0072
460.5323	0.0045
460.7341	0.0137
460.9359	0.0053
461.1376	0.0163
461.3394	0.0152
461.5411	0.0132
461.7428	0.0087
461.9445	0.0133
462.1462	0.0319
462.3479	-0.0026
462.5495	0.0081
462.7512	0.0056
462.9528	-0.0105
463.1544	-0.0008
463.356	0.0063
463.5576	0.0148
463.7592	0.0137
463.9607	-0.0061
464.1623	-0.0001
464.3638	0.0108
464.5653	0.0095
464.7668	-0.0057
464.9683	0.0073
465.1697	0.0209
465.3712	-0.0049
465.5726	-0.0153
465.7741	-0.0007
465.9755	-0.0067
466.1769	-0.0101
466.3782	0.0024
466.5796	0.0005
466.7809	0.0094
466.9823	0.0071
467.1836	0.0061
467.3849	0.0057
467.5862	0.0095
467.7875	-0.0019
467.9887	0.0129
468.19	0.0067
468.3912	-0.0116
468.5924	-0.0073
468.7936	-0.0023
468.9948	-0.0003
469.196	0.0012
469.3972	-0.0168
469.5983	0.0016
469.7994	-0.0152
470.0006	0.011
470.2017	-0.0095
470.4027	-0.0077
470.6038	0.0002
470.8049	-0.0248
471.0059	-0.0159
471.2069	-0.0161
471.408	0.0077
471.6089	0.0105
471.8099	0.0043
472.0109	-0.0015
472.2119	0.0004
472.4128	-0.0236
472.6137	-0.0009
472.8146	-0.0131
473.0155	-0.01
473.2164	-0.0013
473.4173	0.0127
473.6181	0.0028
473.819	-0.0036
474.0198	-0.0079
474.2206	-0.0003
474.4214	-0.0032
474.6222	-0.007
474.8229	0.0019
475.0237	-0.0145
475.2244	-0.0096
475.4251	0
475.6258	-0.0079
475.8265	0.0048
476.0272	0.0118
476.2278	0.0036
476.4285	0.0022
476.6291	-0.0073
476.8297	0.0006
477.0303	-0.0058
477.2309	-0.0146
477.4315	-0.0138
477.632	-0.0085
477.8326	-0.0024
478.0331	-0.0017
478.2336	0.0007
478.4341	-0.0018
478.6346	-0.011
478.8351	-0.0043
479.0355	-0.0022
479.236	-0.0113
479.4364	-0.0131
479.6368	0.0051
479.8372	-0.0081
480.0376	-0.0004
480.2379	-0.0158
480.4383	-0.0027
480.6386	0.0104
480.8389	0.0023
481.0392	-0.0006
481.2395	-0.0053
481.4398	0.0066
481.6401	-0.0014
481.8403	-0.0041
482.0405	-0.0038
482.2408	-0.0113
482.441	0.0076
482.6411	-0.0136
482.8413	-0.0135
483.0415	-0.0113
483.2416	0.0032
483.4417	-0.008
483.6419	-0.0014
483.8419	-0.0048
484.042	0.0013
484.2421	0.0031
484.4422	0.0082
484.6422	0.0066
484.8422	-0.0012
485.0422	-0.0028
485.2422	-0.0033
485.4422	-0.0107
485.6422	-0.0099
485.8421	-0.0103
486.042	0.0038
486.242	-0.0088
486.4419	-0.0112
486.6417	-0.0105
486.8416	-0.0104
487.0415	-0.0085
487.2413	-0.0082
487.4411	-0.0036
487.641	-0.011
487.8408	0.0057
488.0405	-0.0076
488.2403	-0.0085
488.4401	0.0077
488.6398	-0.0062
488.8395	-0.0169
489.0392	0.0018
489.2389	0.0049
489.4386	-0.0123
489.6383	-0.0035
489.8379	0.0034
490.0376	-0.0059
490.2372	-0.0088
490.4368	-0.0116
490.6364	0.0014
490.836	-0.0128
491.0355	-0.0091
491.2351	-0.0084
491.4346	0.0061
491.6341	-0.0143
491.8336	-0.0049
492.0331	-0.0198
492.2326	-0.0096
492.432	0
492.6315	-0.0197
492.8309	-0.0188
493.0303	0.0006
493.2297	-0.0118
493.4291	0.001
493.6284	-0.0057
493.8278	-0.0101
494.0271	0.0027
494.2264	-0.0042
494.4257	-0.0173
494.625	0.0038
494.8243	-0.0159
495.0236	-0.0076
495.2228	-0.0101
495.422	-0.0054
495.6213	0
495.8205	0.0015
496.0196	0.0037
496.2188	0.0061
496.418	-0.007
496.6171	-0.0063
496.8162	-0.0019
497.0153	0.0002
497.2144	-0.0073
497.4135	-0.0078
497.6126	-0.0182
497.8116	-0.013
498.0107	-0.0003
498.2097	-0.0063
498.4087	-0.0092
498.6077	-0.0017
498.8067	-0.0188
499.0056	-0.003
499.2046	-0.0058
499.4035	-0.0104
499.6024	-0.0108
499.8013	-0.0112
500.0002	-0.0116
500.199	-0.0088
500.3979	-0.0029
500.5967	-0.0201
500.7956	0.0012
500.9944	-0.003
501.1932	-0.0124
501.3919	-0.01
501.5907	-0.0053
501.7895	-0.012
501.9882	-0.0072
502.1869	-0.005
502.3856	-0.0154
502.5843	-0.0113
502.783	-0.001
502.9816	-0.0047
503.1803	-0.0153
503.3789	-0.0132
503.5775	0.0023
503.7761	-0.0152
503.9747	-0.0065
504.1732	-0.0056
504.3718	-0.0054
504.5703	-0.0093
504.7689	-0.0093
504.9674	-0.0053
505.1658	-0.0147
505.3643	-0.0105
505.5628	-0.0143
505.7612	-0.0094
505.9597	0.0018
506.1581	-0.0085
506.3565	-0.0015
506.5549	-0.002
506.7532	-0.0111
506.9516	-0.0021
507.1499	0.001
507.3482	-0.0156
507.5465	-0.012
507.7448	-0.0002
507.9431	-0.0041
508.1414	-0.0014
508.3396	-0.0048
508.5379	-0.0096
508.7361	-0.0041
508.9343	0.0009
509.1325	-0.0005
509.3306	-0.0104
509.5288	-0.0086
509.7269	-0.0066
509.9251	-0.0039
510.1232	-0.0069
510.3213	-0.0012
510.5193	-0.0019
510.7174	-0.0103
510.9154	-0.0152
511.1135	-0.0107
511.3115	-0.0112
511.5095	0.0018
511.7075	0.0035
511.9055	-0.009
512.1034	-0.0073
512.3014	0.0056
512.4993	-0.0078
512.6972	-0.0137
512.8951	-0.0141
513.093	0.0013
513.2908	0.0054
513.4887	-0.0025
513.6865	-0.0096
513.8844	-0.0064
514.0822	-0.0081
514.2799	-0.0124
514.4777	-0.0099
514.6755	0.0021
514.8732	-0.0079
515.0709	-0.009
515.2687	-0.0141
515.4664	-0.0058
515.664	-0.0019
515.8617	-0.0169
516.0594	-0.0133
516.257	-0.002
516.4546	-0.0112
516.6522	0
516.8498	0.0071
517.0474	0.0014
517.2449	-0.0008
517.4425	-0.0127
517.64	-0.0019
517.8375	0.0055
518.035	0.0007
518.2325	-0.0087
518.43	-0.0086
518.6274	-0.0079
518.8249	-0.0195
519.0223	-0.0029
519.2197	-0.0061
519.4171	-0.0147
519.6145	-0.0147
519.8118	0.0027
520.0092	-0.0103
520.2065	-0.0089
520.4038	-0.0184
520.6011	-0.0017
520.7984	-0.0194
520.9956	-0.0102
521.1929	-0.0071
521.3901	-0.0098
521.5874	-0.0057
521.7846	-0.0034
521.9818	-0.0105
522.1789	-0.0105
522.3761	0.0045
522.5732	-0.0129
522.7704	-0.0068
522.9675	-0.0019
523.1646	-0.0101
523.3617	-0.0079
523.5587	-0.0054
523.7558	0.0002
523.9528	-0.0028
524.1498	0.0038
524.3468	-0.0161
524.5438	-0.0126
524.7408	-0.0061
524.9378	0.0011
525.1347	0.0011
525.3316	0.0039
525.5285	-0.0075
525.7254	-0.0084
525.9223	-0.0125
526.1192	-0.0049
526.316	-0.0033
526.5129	-0.0091
526.7097	-0.0155
526.9065	-0.0078
527.1033	-0.0078
527.3	-0.006
527.4968	-0.0037
527.6935	-0.0067
527.8903	-0.0057
528.087	0.0048
528.2837	-0.0088
528.4804	-0.0076
528.677	-0.0132
528.8737	0.001
529.0703	-0.0061
529.2669	-0.005
529.4635	-0.0002
529.6601	0.0004
529.8567	-0.0003
530.0532	-0.0085
530.2498	-0.0003
530.4463	0.0054
530.6428	-0.0078
530.8393	0.0019
531.0358	0
531.2322	-0.0064
531.4287	0.0014
531.6251	0.0044
531.8215	-0.0002
532.0179	0
532.2143	-0.0031
532.4107	0.0054
532.607	-0.0014
532.8034	0.0075
532.9997	-0.0085
533.196	-0.002
533.3923	-0.0141
533.5886	0.0012
533.7848	-0.0077
533.9811	-0.0047
534.1773	-0.0033
534.3735	0.0025
534.5697	-0.0016
534.7659	-0.0028
534.9621	0.0007
535.1582	-0.0094
535.3544	0.0026
535.5505	-0.0123
535.7466	-0.0066
535.9427	-0.0027
536.1387	-0.0069
536.3348	-0.0145
536.5308	-0.0007
536.7269	-0.0138
536.9229	0.0047
537.1189	0.0001
537.3148	-0.009
537.5108	-0.0097
537.7068	0.0054
537.9027	0.001
538.0986	-0.0037
538.2945	-0.0088
538.4904	-0.0077
538.6863	-0.0075
538.8821	-0.003
539.078	0.0034
539.2738	-0.0054
539.4696	-0.0072
539.6654	0.005
539.8611	0.0106
540.0569	0.0001
540.2526	-0.0095
540.4484	0.0002
540.6441	0.0096
540.8398	0.001
541.0355	-0.003
541.2311	0.001
541.4268	-0.0089
541.6224	0.0013
541.818	-0.0056
542.0136	-0.0084
542.2092	0.0108
542.4048	0.0048
542.6003	-0.0014
542.7959	0.0005
542.9914	0.0005
543.1869	0.005
543.3824	-0.0015
543.5779	-0.0068
543.7734	0.0037
543.9688	-0.0049
544.1642	0.0019
544.3596	-0.005
544.555	-0.0035
544.7504	-0.0039
544.9458	-0.0063
545.1411	-0.004
545.3365	-0.0075
545.5318	-0.0038
545.7271	0.0034
545.9224	-0.0086
546.1177	0.0055
546.3129	-0.0004
546.5081	-0.005
546.7034	-0.0001
546.8986	-0.0089
547.0938	-0.0071
547.289	-0.004
547.4841	-0.0021
547.6793	0.0068
547.8744	-0.0069
548.0695	-0.0011
548.2646	-0.0087
548.4597	0.004
548.6548	-0.0013
548.8498	-0.0048
549.0448	0.0031
549.2399	-0.0009
549.4349	0.0088
549.6298	0.0053
549.8248	0.0021
550.0198	-0.0056
550.2147	-0.0017
550.4096	-0.0062
550.6045	-0.0012
550.7994	0.0072
550.9943	0.0009
551.1892	-0.0075
551.384	0.0016
551.5788	-0.0084
551.7737	0.0023
551.9685	-0.0013
552.1632	0.0023
552.358	-0.0067
552.5528	-0.0027
552.7475	-0.0102
552.9422	0.0067
553.1369	0.0022
553.3316	0.0007
553.5263	-0.0125
553.7209	0.0029
553.9156	-0.0021
554.1102	-0.0013
554.3048	-0.0097
554.4994	0.0064
554.694	-0.0103
554.8885	0.008
555.0831	-0.0066
555.2776	-0.0112
555.4721	-0.0003
555.6666	-0.0088
555.8611	0.0075
556.0555	-0.0036
556.25	-0.0006
556.4444	-0.0043
556.6388	-0.0045
556.8332	0.0007
557.0276	-0.004
557.222	-0.0012
557.4163	-0.0021
557.6107	-0.0005
557.805	0.0006
557.9993	-0.0136
558.1936	0.0016
558.3879	0.002
558.5821	0.0083
558.7764	-0.0019
558.9706	0.0023
559.1648	0.0085
559.359	-0.0016
559.5532	-0.0104
559.7473	0.0024
559.9415	-0.0064
560.1356	-0.0038
560.3297	-0.0098
560.5238	0.0038
560.7179	0.0048
560.9119	-0.0027
561.106	-0.0056
561.3	-0.0054
561.494	-0.0063
561.688	-0.0111
561.882	-0.0078
562.076	-0.0017
562.2699	0.0008
562.4639	0.0009
562.6578	-0.0023
562.8517	-0.0073
563.0456	0.0089
563.2395	0.0058
563.4333	0.0031
563.6272	0.009
563.821	-0.0009
564.0148	-0.0019
564.2086	-0.0049
564.4024	0.0037
564.5961	-0.0041
564.7899	-0.0002
564.9836	-0.0024
565.1773	-0.0003
565.371	0.0058
565.5647	0.0073
565.7584	0.008
565.952	0.0002
566.1456	-0.0033
566.3393	0.0049
566.5329	-0.0007
566.7264	-0.008
566.92	-0.0107
567.1136	0.0019
567.3071	-0.0023
567.5006	0.0099
567.6941	0.0002
567.8876	0.0066
568.0811	-0.0015
568.2745	0.0052
568.468	0.0033
568.6614	0.0078
568.8548	0.0017
569.0482	0.0025
569.2416	-0.0005
569.4349	-0.0032
569.6283	0.0045
569.8216	0
570.0149	0.002
570.2082	0.0021
570.4015	0.007
570.5947	0.0035
570.788	0.0027
570.9812	0.0045
571.1744	0.0031
571.3676	-0.0048
571.5608	-0.0009
571.754	0.0057
571.9471	0.0082
572.1402	-0.0048
572.3333	0.001
572.5264	-0.004
572.7195	0.0022
572.9126	0.0029
573.1057	0.0001
573.2987	-0.0014
573.4917	0.0032
573.6847	-0.0069
573.8777	0.0034
574.0707	0.0016
574.2636	0.0037
574.4566	-0.0026
574.6495	0.0065
574.8424	-0.0021
575.0353	0.0007
575.2281	0.0059
575.421	0.0024
575.6138	0.0016
575.8067	0.0036
575.9995	0.0055
576.1923	0.007
576.385	0.0073
576.5778	0.0059
576.7706	-0.007
576.9633	0.0014
577.156	0.0061
577.3487	0.0074
577.5414	0.0019
577.734	-0.0009
577.9267	0.0102
578.1193	-0.0104
578.3119	0.0001
578.5045	0.0049
578.6971	0.0023
578.8897	0.0064
579.0822	0.0015
579.2747	0.0004
579.4673	0.0034
579.6598	-0.0053
579.8522	-0.0027
580.0447	-0.0006
580.2372	-0.0002
580.4296	0.0052
580.622	-0.0035
580.8144	0.0042
581.0068	-0.0015
581.1992	-0.0097
581.3915	-0.0016
581.5839	-0.0085
581.7762	-0.004
581.9685	0.0028
582.1608	0.0032
582.353	0.0002
582.5453	-0.0009
582.7375	-0.0009
582.9298	-0.0002
583.122	0.0015
583.3142	0.0097
583.5063	0.0038
583.6985	-0.0013
583.8906	-0.0007
584.0827	-0.0032
584.2749	0.0038
584.4669	0.0049
584.659	0.0017
584.8511	0
585.0431	0.0019
585.2352	0.0071
585.4272	0.0026
585.6192	0.0079
585.8111	0.0013
586.0031	0.0032
586.195	0.0003
586.387	0.0052
586.5789	-0.0005
586.7708	0.0094
586.9627	0.0009
587.1545	-0.0023
587.3464	0.0022
587.5382	0.0056
587.73	0.0041
587.9218	0.0023
588.1136	0.0011
588.3053	0.0045
588.4971	-0.0018
588.6888	-0.0024
588.8805	0.0043
589.0722	0.0061
589.2639	0.0022
589.4556	0.0019
589.6472	0.0066
589.8389	-0.0049
590.0305	-0.0012
590.2221	0.0064
590.4137	-0.0062
590.6052	0.0083
590.7968	0.0042
590.9883	0.0031
591.1798	-0.0002
591.3713	0.0082
591.5628	0.0076
591.7543	0.0145
591.9458	0.0069
592.1372	0.0071
592.3286	0.0147
592.52	0.0119
592.7114	-0.0036
592.9028	0.0046
593.0941	0.0043
593.2855	-0.0039
593.4768	-0.0018
593.6681	-0.0008
593.8594	0.0002
594.0506	0.0052
594.2419	0.0063
594.4331	0.0104
594.6244	0.0028
594.8156	-0.0023
595.0067	0.0019
595.1979	0.0032
595.3891	0.004
595.5802	0.0016
595.7713	-0.0035
595.9624	-0.0082
596.1535	0.0052
596.3446	0.0025
596.5357	0.0012
596.7267	0.001
596.9177	-0.0031
597.1087	-0.0063
597.2997	-0.0008
597.4907	0.0076
597.6817	0.0025
597.8726	0.0022
598.0635	-0.0008
598.2544	0.0045
598.4453	0.0028
598.6362	0.002
598.827	-0.0049
599.0179	0.0021
599.2087	0.0031
599.3995	0.0008
599.5903	0.0011
599.7811	0.0088
599.9718	0.0075
600.1626	-0.0073
600.3533	-0.0031
600.544	-0.0007
600.7347	0.0005
600.9254	0.0047
601.116	-0.0055
601.3067	-0.0066
601.4973	0.0011
601.6879	0.0095
601.8785	0.0055
602.0691	0.0046
602.2596	0.0086
602.4502	0.0065
602.6407	0.0052
602.8312	0.0066
603.0217	-0.002
603.2122	0.004
603.4027	0.0071
603.5931	0.0021
603.7835	-0.0038
603.9739	0.0065
604.1643	-0.0017
604.3547	-0.0006
604.5451	0.005
604.7354	0.0073
604.9257	0.0066
605.116	0.0025
605.3063	0.0089
605.4966	0.0079
605.6869	0.0018
605.8771	0.0108
606.0673	0.0082
606.2575	0.0109
606.4477	0.0045
606.6379	0.001
606.8281	0.0035
607.0182	0.0003
607.2083	0.0097
607.3985	-0.0023
607.5885	0.0011
607.7786	0.0083
607.9687	-0.0007
608.1587	0.0081
608.3488	0.0022
608.5388	0.0044
608.7288	-0.0013
608.9187	0.0053
609.1087	-0.0024
609.2986	-0.0027
609.4886	0
609.6785	-0.0015
609.8684	0.0054
610.0582	-0.0002
610.2481	0.0012
610.4379	0.0005
610.6278	-0.0024
610.8176	0.0037
611.0074	0.0009
611.1971	0.0033
611.3869	0.0031
611.5766	-0.0005
611.7664	0.0013
611.9561	0.0051
612.1458	0.0001
612.3354	-0.0019
612.5251	-0.0007
612.7147	0.0086
612.9044	0.0145
613.094	-0.0006
613.2836	0.0033
613.4731	0.0027
613.6627	0.0024
613.8522	0.0081
614.0417	0.008
614.2313	0.0024
614.4207	-0.0012
614.6102	0.0024
614.7997	-0.0009
614.9891	-0.0031
615.1785	0.0011
615.3679	-0.0059
615.5573	0.0061
615.7467	-0.0019
615.9361	0.0001
616.1254	0.0041
616.3147	0.0088
616.504	0.0049
616.6933	0.0068
616.8826	0.0053
617.0718	0.0043
617.2611	0.0047
617.4503	0.0028
617.6395	-0.0035
617.8287	-0.0009
618.0179	0.0024
618.207	0.0116
618.3961	0.0076
618.5853	0.007
618.7744	0.0043
618.9634	0.0136
619.1525	0.002
619.3416	0.0023
619.5306	0.0182
619.7196	0.0074
619.9086	0.0057
620.0976	0.0115
620.2866	0.008
620.4755	0.0126
620.6645	0.0086
620.8534	0.0105
621.0423	-0.0034
621.2312	0.009
621.42	0.0032
621.6089	0.0022
621.7977	0.0072
621.9865	-0.0068
622.1753	0.0063
622.3641	-0.0003
622.5529	0.0087
622.7416	0.0139
622.9303	0.0002
623.1191	0.0098
623.3078	0.0017
623.4964	0.0113
623.6851	0.0039
623.8737	-0.0021
624.0624	0.0036
624.251	0.0031
624.4396	0.0013
624.6282	0.0034
624.8167	0.0022
625.0053	0.0034
625.1938	0.0061
625.3823	0.0055
625.5708	-0.0009
625.7593	-0.0047
625.9477	-0.0043
626.1362	-0.0007
626.3246	0.001
626.513	0.0012
626.7014	0.0094
626.8898	0.0029
627.0781	-0.0037
627.2665	-0.0059
627.4548	0.0089
627.6431	0.004
627.8314	0.0062
628.0197	0.0091
628.2079	-0.0028
628.3962	-0.0027
628.5844	0.0017
628.7726	0.0033
628.9608	0.0091
629.1489	0.0062
629.3371	0.0083
629.5252	-0.0015
629.7134	0.0013
629.9015	-0.0036
630.0895	0.005
630.2776	0.0031
630.4657	0.0059
630.6537	0.0031
630.8417	0.0021
631.0297	-0.0015
631.2177	0.0007
631.4057	-0.0058
631.5936	0.0031
631.7815	0.0004
631.9695	0.0019
632.1574	0.0133
632.3452	0.0143
632.5331	0.0069
632.7209	-0.0005
632.9088	0.0123
633.0966	0.0114
633.2844	-0.0029
633.4722	0.0056
633.6599	0.0071
633.8477	0.0095
634.0354	0.0021
634.2231	-0.0012
634.4108	0.0009
634.5985	0.005
634.7861	0.0069
634.9738	0.0074
635.1614	-0.0019
635.349	0.0052
635.5366	-0.0011
635.7242	0.0007
635.9117	0.0042
636.0993	-0.0018
636.2868	0.0014
636.4743	0.0006
636.6618	0.0017
636.8492	0.0068
637.0367	0.0006
637.2241	-0.0003
637.4115	0.0043
637.5989	-0.0006
637.7863	0.0008
637.9737	-0.0039
638.161	0.0063
638.3484	0.0048
638.5357	0.0061
638.723	0.0062
638.9103	0.0061
639.0975	0.0027
639.2848	0.0062
639.472	0
639.6592	0.0055
639.8464	0.0108
640.0336	0.0125
640.2208	0.0042
640.4079	-0.0033
640.595	-0.0017
640.7821	0.0048
640.9692	-0.0019
641.1563	0.0074
641.3434	0.0076
641.5304	0.0105
641.7174	0.003
641.9044	-0.0021
642.0914	0.0076
642.2784	0.006
642.4653	0.003
642.6523	0.0076
642.8392	-0.0032
643.0261	0.0075
643.213	-0.0005
643.3999	-0.0025
643.5867	0.0021
643.7735	0.0005
643.9604	-0.0049
644.1472	0.0023
644.3339	-0.0064
644.5207	0.0064
644.7075	-0.0048
644.8942	0.0026
645.0809	0.006
645.2676	0.0085
645.4543	0.0042
645.6409	0.0122
645.8276	-0.0012
646.0142	0.0007
646.2008	0.0035
646.3874	-0.0043
646.574	-0.0025
646.7605	-0.0054
646.9471	-0.013
647.1336	-0.0023
647.3201	-0.0007
647.5066	-0.005
647.6931	0.0035
647.8795	0.0012
648.0659	0.0029
648.2524	0.0037
648.4388	0.0002
648.6252	0.0035
648.8115	0.0043
648.9979	-0.0022
649.1842	0.0017
649.3705	0.0064
649.5568	0.0047
649.7431	0.015
649.9294	-0.0008
650.1156	0.0132
650.3018	0.0013
650.488	0.0029
650.6742	0.0055
650.8604	0.003
651.0466	0.0025
651.2327	0.0048
651.4188	0.0023
651.6049	0.0023
651.791	0.0034
651.9771	0.0093
652.1632	0.0052
652.3492	0.0089
652.5352	0.0087
652.7212	0.0021
652.9072	0.0073
653.0932	-0.0037
653.2791	-0.0023
653.465	0.0045
653.651	-0.0051
653.8369	-0.0006
654.0227	0.0008
654.2086	0.0081
654.3944	0.0041
654.5803	0.0028
654.7661	0.0003
654.9519	0.0062
655.1377	-0.0073
655.3234	0
655.5092	-0.0012
655.6949	-0.0047
655.8806	-0.004
656.0663	0.003
656.2519	-0.003
656.4376	-0.0019
656.6232	0.0049
656.8088	0.0012
656.9945	0.0018
657.18	0.0067
657.3656	0.0078
657.5511	0.0032
657.7367	-0.0036
657.9222	0.0046
658.1077	0.0031
658.2932	0.0093
658.4786	-0.0013
658.6641	-0.0004
658.8495	0.0035
659.0349	0.0054
659.2203	0.0069
659.4057	0.0043
659.591	0.0065
659.7764	0.0073
659.9617	0.005
660.147	0.0014
660.3323	0.0098
660.5176	0.0115
660.7028	0.007
660.888	0.002
661.0733	0.0067
661.2585	-0.0037
661.4436	0.0096
661.6288	0.0007
661.8139	-0.0017
661.9991	0.0109
662.1842	-0.0043
662.3693	0.0002
662.5544	0.0037
662.7394	0.0042
662.9245	0.0011
663.1095	0.0056
663.2945	0.0019
663.4795	0.0026
663.6644	0.0116
663.8494	0.0032
664.0343	0.0125
664.2193	-0.0026
664.4042	0.0062
664.589	0.0006
664.7739	0.0022
664.9587	-0.0026
665.1436	0.001
665.3284	0.0104
665.5132	-0.0045
665.698	0.0042
665.8827	0.0089
666.0675	0.0024
666.2522	-0.0054
666.4369	0.0088
666.6216	0.0062
666.8063	0.0098
666.9909	0.0066
667.1756	0.0038
667.3602	-0.0012
667.5448	0.0006
667.7294	0.0087
667.9139	0.0062
668.0985	0.0106
668.283	0.0025
668.4675	0.0088
668.652	0.0009
668.8365	0.0049
669.0209	0.0061
669.2054	0.0175
669.3898	0.0027
669.5742	0.0077
669.7586	0.014
669.943	0.0129
670.1273	0.0151
670.3117	0.0069
670.496	0.0125
670.6803	0.0185
670.8646	0.0087
671.0488	0.0047
671.2331	0.008
671.4173	0.0024
671.6015	0.0043
671.7857	0.0083
671.9699	0.0098
672.1541	0.0087
672.3382	0.0072
672.5223	0.0032
672.7064	0.0077
672.8905	0.0119
673.0746	0.0053
673.2587	0.003
673.4427	0.0119
673.6267	0.0084
673.8107	0.0113
673.9947	0.0112
674.1787	0.002
674.3626	0.0009
674.5465	0.0067
674.7304	0.0019
674.9143	0.0079
675.0982	0.0093
675.2821	0.0026
675.4659	0.0056
675.6497	0.0029
675.8335	0.0021
676.0173	0.0031
676.2011	0.0035
676.3849	-0.0021
676.5686	-0.0001
676.7523	0.0014
676.936	0.0055
677.1197	0.0056
677.3034	-0.0038
677.487	0.0058
677.6706	-0.0009
677.8542	0.0055
678.0378	0.0022
678.2214	0.0006
678.405	-0.0076
678.5885	-0.0093
678.772	-0.0056
678.9555	-0.0097
679.139	-0.0061
679.3225	-0.0043
679.5059	-0.0009
679.6894	0.0041
679.8728	-0.0015
680.0562	-0.0035
680.2395	-0.0037
680.4229	0.0061
680.6062	0.0034
680.7896	0.005
680.9729	-0.0102
681.1562	0.0044
681.3394	0.0014
681.5227	-0.0077
681.7059	-0.0048
681.8891	-0.0003
682.0723	0.0071
682.2555	0.0038
682.4387	0.002
682.6218	-0.0077
682.805	0.0055
682.9881	-0.0006
683.1712	0.0007
683.3542	0.0012
683.5373	-0.0007
683.7203	-0.0091
683.9034	-0.004
684.0864	-0.0057
684.2694	0.0025
684.4523	0.0031
684.6353	-0.0098
684.8182	0.0034
685.0011	-0.0108
685.184	0.005
685.3669	-0.0023
685.5498	0.0034
685.7326	-0.001
685.9154	0.0024
686.0982	0.0078
686.281	0.0072
686.4638	0.0022
686.6465	-0.0006
686.8293	0.0037
687.012	0.0059
687.1947	0.0007
687.3774	0.0013
687.56	0.0014
687.7427	0.0118
687.9253	-0.0004
688.1079	0.0013
688.2905	0.0092
688.4731	0.0054
688.6556	0.0007
688.8382	0.0015
689.0207	-0.0008
689.2032	-0.0037
689.3857	-0.0018
689.5681	-0.0015
689.7506	-0.0019
689.933	-0.0016
690.1154	0.0014
690.2978	0.0019
690.4802	0.0148
690.6626	-0.0036
690.8449	-0.001
691.0272	0.009
691.2095	0.0015
691.3918	-0.0033
691.5741	0.0065
691.7563	0.0029
691.9386	0.0078
692.1208	0.0022
692.303	0.0031
692.4852	0.0045
692.6673	-0.0002
692.8495	0.0077
693.0316	0.007
693.2137	0.006
693.3958	-0.0003
693.5778	0.0007
693.7599	0.0008
693.9419	0.0042
694.1239	0.0023
694.3059	0.0035
694.4879	0.0069
694.6699	0.007
694.8518	0.013
695.0337	0.0018
695.2157	-0.0002
695.3975	0.0047
695.5794	0.0078
695.7613	0.006
695.9431	0.0023
696.1249	0.0058
696.3067	0.0014
696.4885	0.005
696.6703	-0.0048
696.852	0.0076
697.0337	0.0121
697.2154	0.0011
697.3971	0.0097
697.5788	-0.0023
697.7605	0.005
697.9421	0.0044
698.1237	0.0034
698.3053	0.0113
698.4869	-0.0077
698.6685	-0.0075
698.85	0.0007
699.0315	0.0092
699.213	0.0013
699.3945	0.0002
699.576	0.0119
699.7575	0.0063
699.9389	0.0071
700.1203	0.0011
700.3017	-0.0052
700.4831	-0.0016
700.6645	0.0065
700.8458	0.0056
701.0271	0.0017
701.2084	0.0133
701.3897	0.0055
701.571	0.0029
701.7523	0.0079
701.9335	0.01
702.1147	0.0035
702.2959	0.0088
702.4771	0.0021
702.6583	0.0008
702.8394	-0.0036
703.0205	0.0032
703.2016	-0.0035
703.3827	-0.0055
703.5638	0.0106
703.7449	0.0036
703.9259	0.0133
704.1069	-0.0049
704.2879	0.0073
704.4689	0
704.6499	-0
704.8308	-0.0023
705.0117	-0.0066
705.1927	0.0018
705.3735	-0.0056
705.5544	-0.0044
705.7353	-0.0044
705.9161	-0.0054
706.0969	-0.0043
706.2777	0.0071
706.4585	-0.0025
706.6393	0.0077
706.82	0.0091
707.0007	0.0111
707.1815	0.0124
707.3621	0.0116
707.5428	0.0061
707.7235	0.0082
707.9041	0.0077
708.0847	0.0012
708.2653	0.0002
708.4459	-0.0113
708.6265	0.0108
708.807	0.0049
708.9875	-0.0006
709.168	-0.004
709.3485	-0.0027
709.529	-0.0016
709.7095	-0.0158
709.8899	0.0031
710.0703	-0.0089
710.2507	0.0009
710.4311	-0.0059
710.6115	-0.0077
710.7918	-0.0039
710.9721	-0.0012
711.1524	-0.0031
711.3327	0.0028
711.513	-0.0059
711.6932	0.0043
711.8735	0.0036
712.0537	0.0001
712.2339	0.0017
712.4141	-0.0086
712.5942	-0.0067
712.7744	-0.0013
712.9545	-0.0055
713.1346	-0.0062
713.3147	0.0007
713.4947	-0.0021
713.6748	0.0003
713.8548	-0.007
714.0348	-0.0003
714.2148	-0.0039
714.3948	0.0113
714.5748	0.0018
714.7547	-0.0027
714.9346	0.0073
715.1145	-0.002
715.2944	-0.0069
715.4743	-0.0032
715.6541	-0.0012
715.834	0.0071
716.0138	0.0041
716.1936	-0.0144
716.3733	-0.0097
716.5531	0.0045
716.7328	-0.0016
716.9126	-0.0002
717.0923	0.0022
717.2719	0.0019
717.4516	0.0102
717.6312	0.006
717.8109	0.0033
717.9905	0.0077
718.1701	-0.0062
718.3496	-0.0045
718.5292	0.0019
718.7087	0.0008
718.8882	-0.0032
719.0677	0.0039
719.2472	0.0066
719.4267	0.0048
719.6061	-0.0017
719.7856	0.0071
719.965	0.0011
720.1443	-0.0013
720.3237	0.0042
720.5031	0.0001
720.6824	0.0039
720.8617	0.0021
721.041	0.0075
721.2203	0.0082
721.3995	0.0064
721.5788	-0.0017
721.758	0.0054
721.9372	0.0009
722.1164	0.0092
722.2956	0.0085
722.4747	0.0085
722.6538	0.0042
722.8329	0.0184
723.012	0.0106
723.1911	0.0121
723.3702	0.0066
723.5492	0.0075
723.7282	0.0081
723.9072	-0.0012
724.0862	-0.0062
724.2652	0.0008
724.4441	-0.0017
724.623	0.0076
724.8019	-0.0023
724.9808	0.0074
725.1597	-0.0096
725.3385	0.0102
725.5174	0.0024
725.6962	0.0032
725.875	-0.0038
726.0538	-0.0037
726.2325	-0.0012
726.4112	0.0022
726.59	-0.0051
726.7687	-0.0098
726.9474	-0.0026
727.126	-0.003
727.3047	-0.0053
727.4833	0.0008
727.6619	-0.0014
727.8405	-0.0056
728.0191	-0.005
728.1976	-0.0019
728.3762	0.0006
728.5547	0.0029
728.7332	-0.0053
728.9116	0.0031
729.0901	0.0008
729.2686	-0.0019
729.447	-0.0063
729.6254	-0.0018
729.8038	-0.0002
729.9821	-0.0076
730.1605	-0.0056
730.3388	-0.0112
730.5171	0.0031
730.6954	-0.0094
730.8737	-0.0059
731.0519	0.0061
731.2302	0.0028
731.4084	0.0093
731.5866	0.0088
731.7648	0.0142
731.9429	0.0048
732.1211	-0.0047
732.2992	0.0024
732.4773	0.0011
732.6554	0.0005
732.8335	-0.0029
733.0115	-0.0026
733.1896	0.0094
733.3676	-0.0045
733.5456	0.0096
733.7235	0.0078
733.9015	0.0026
734.0794	0.0047
734.2574	0.0024
734.4353	0.0121
734.6131	0.0094
734.791	0.015
734.9689	0.0055
735.1467	0.0128
735.3245	-0.0053
735.5023	0.0033
735.68	0.0149
735.8578	0.0159
736.0355	-0.0107
736.2132	0.0107
736.3909	-0.0016
736.5686	-0.0047
736.7463	0.0019
736.9239	0.0027
737.1015	0.002
737.2791	0.0157
737.4567	0.0091
737.6343	-0.0058
737.8118	0.0058
737.9894	0.0097
738.1669	-0.0002
738.3444	-0.0023
738.5218	0.006
738.6993	-0.0026
738.8767	-0.0084
739.0541	0.0071
739.2315	-0.0072
739.4089	0.003
739.5863	0.0071
739.7636	-0.0011
739.9409	-0.0011
740.1182	0.012
740.2955	0.0102
740.4728	0.0017
740.65	0.0032
740.8272	0.0009
741.0044	-0.0051
741.1816	0.0047
741.3588	-0.0039
741.5359	0.0056
741.7131	-0.0035
741.8902	-0.0005
742.0673	-0.0062
742.2444	-0.018
742.4214	-0.0012
742.5985	-0.0044
742.7755	-0.0048
742.9525	-0.0134
743.1295	0.0018
743.3064	0.0015
743.4834	0.0078
743.6603	-0.0016
743.8372	-0.0045
744.0141	-0.0035
744.191	0.0036
744.3678	-0.007
744.5446	0.0029
744.7215	0.0011
744.8982	-0.0026
745.075	-0.0111
745.2518	0.0047
745.4285	-0.0063
745.6052	-0.0056
745.7819	0.0033
745.9586	0.0035
746.1353	-0.0037
746.3119	-0.0107
746.4885	-0.0082
746.6651	-0.0063
746.8417	-0.0039
747.0183	-0.0008
747.1948	0.0013
747.3714	-0.0069
747.5479	-0.0088
747.7244	-0.011
747.9008	0.0096
748.0773	0.0011
748.2537	0.0049
748.4301	-0.0087
748.6065	0.0044
748.7829	0.0059
748.9593	0.0114
749.1356	0.0075
749.3119	0.0104
749.4882	0.0003
749.6645	0.0113
749.8408	-0.0075
750.017	-0.0017
750.1933	-0.0084
750.3695	-0.0105
750.5457	-0.0016
750.7218	-0.0019
750.898	0.0102
751.0741	-0.0052
751.2502	0.0005
751.4263	-0.009
751.6024	0.0034
751.7784	0.002
751.9545	-0.006
752.1305	0.0016
752.3065	-0.0029
752.4825	0.0068
752.6584	0.0051
752.8344	0.005
753.0103	-0.0112
753.1862	-0.002
753.3621	-0.0049
753.5379	0.0015
753.7138	0.0032
753.8896	0.0037
754.0654	0.0041
754.2412	0.0104
754.417	-0.0017
754.5927	-0.0089
754.7685	-0.0081
754.9442	0.0031
755.1199	0.0148
755.2956	-0.0007
755.4712	0.0126
755.6469	0.0041
755.8225	0.0029
755.9981	-0.0015
756.1736	0.0082
756.3492	0.0042
756.5248	-0.0079
756.7003	-0.0024
756.8758	0.0072
757.0513	-0.0106
757.2267	-0.0059
757.4022	0.0003
757.5776	-0.0036
757.753	-0.0028
757.9284	-0.0014
758.1038	0.0143
758.2791	0.002
758.4545	-0.0208
758.6298	-0.001
758.8051	0.0002
758.9803	-0.0032
759.1556	0.0061
759.3308	-0.0069
759.506	-0.0016
759.6812	0.0035
759.8564	0.0077
760.0316	0.0016
760.2067	0.0083
760.3819	0.0121
760.557	0.0145
760.732	-0.0012
760.9071	-0.0023
761.0821	0.0097
761.2572	0.0084
761.4322	0.0022
761.6072	0.0016
761.7821	0.0022
761.9571	0.006
762.132	-0.0034
762.3069	-0.0067
762.4818	-0.0058
762.6567	-0.0022
762.8316	-0.0015
763.0064	-0.0056
763.1812	-0.0058
763.356	-0.0111
763.5308	0.0076
763.7055	0.0139
763.8803	-0.0051
764.055	-0.0085
764.2297	-0.0053
764.4044	-0.0073
764.579	-0.0046
764.7537	-0.0127
764.9283	0.0062
765.1029	-0.0073
765.2775	0.0002
765.4521	0.0003
765.6266	-0.0088
765.8011	0.0013
765.9756	-0.0054
766.1501	0.003
766.3246	0.0031
766.4991	0.0083
766.6735	0.0094
766.8479	0.0022
767.0223	0.0192
767.1967	0.0034
767.371	0.0116
767.5454	-0.0039
767.7197	0.0081
767.894	-0.0026
768.0683	-0.0043
768.2425	0.0044
768.4168	0.0043
768.591	0.0089
768.7652	0.0008
768.9394	0.0026
769.1135	0.0058
769.2877	0.012
769.4618	0.0013
769.6359	-0.0058
769.81	0.0036
769.984	-0.0045
770.1581	-0.0101
770.3321	-0.0035
770.5061	-0.0039
770.6801	-0.0014
770.8541	-0.002
771.028	0.0112
771.202	-0.0016
771.3759	0.0028
771.5498	-0.0081
771.7236	-0.0018
771.8975	0.0026
772.0713	0.0051
772.2451	0.0027
772.4189	-0.0016
772.5927	0.0045
772.7665	0.0074
772.9402	-0.0014
773.1139	0.0067
773.2876	-0.0046
773.4613	0.0171
773.635	0.0235
773.8086	0.0005
773.9822	0.0076
774.1558	0.0101
774.3294	-0.0087
774.503	0.0049
774.6765	0.0081
774.8501	0.0133
775.0236	0.0132
775.1971	0.0181
775.3705	-0.0071
775.544	0.0186
775.7174	-0.0085
775.8908	0.0042
776.0642	0.0079
776.2376	0.0091
776.4109	-0.0006
776.5843	0.0053
776.7576	0.0143
776.9309	0.0113
777.1041	0.0085
777.2774	0.0137
777.4506	-0.0005
777.6238	0
777.797	-0.002
777.9702	0.0106
778.1434	-0.0029
778.3165	-0.0036
778.4896	-0.0132
778.6627	0.0045
778.8358	-0.0059
779.0089	-0.0094
779.1819	-0.0082
779.3549	0.0133
779.5279	0.002
779.7009	-0.0033
779.8739	0.0052
780.0468	0.0044
780.2197	0.0061
780.3926	-0.002
780.5655	-0.0002
780.7384	-0.003
780.9112	0.0111
781.0841	0.0031
781.2569	-0.0002
781.4297	0.0121
781.6024	0.0081
781.7752	0.0072
781.9479	0.006
782.1206	-0.0053
782.2933	0.0076
782.466	-0.0001
782.6386	-0.002
782.8113	0.0021
782.9839	0.0137
783.1565	0.0214
783.329	0.0168
783.5016	0.0068
783.6741	0.0138
783.8466	0.0037
784.0191	0.0245
784.1916	0.0061
784.3641	0.0189
784.5365	0.0132
784.7089	0.0096
784.8813	0.0058
785.0537	0.0116
785.2261	0.0048
785.3984	-0.0081
785.5707	0.0101
785.743	0.0035
785.9153	-0.0055
786.0876	0.0033
786.2598	0.0014
786.432	-0.0029
786.6042	0.006
786.7764	0.0081
786.9486	0.0037
787.1207	-0.0059
787.2928	0.0058
787.4649	0.0102
787.637	0.0176
787.8091	-0.0038
787.9811	0.0065
788.1532	0.0073
788.3252	0.0009
788.4972	0.0006
788.6691	0.0004
788.8411	0.0149
789.013	0.0009
789.1849	0.0115
789.3568	-0.0097
789.5287	-0.0064
789.7005	-0.0006
789.8723	0.0056
790.0442	0.0173
790.2159	0.0032
790.3877	0.0103
790.5595	-0.0169
790.7312	0.0134
790.9029	0.0059
791.0746	0.0126
791.2463	0.0041
791.4179	0.0005
791.5896	-0.0076
791.7612	0.0074
791.9328	-0.0032
792.1044	-0.0078
792.2759	-0.0008
792.4474	-0.0066
792.619	-0.0016
792.7905	0.0066
792.9619	-0.0097
793.1334	0.0136
793.3048	0.011
793.4762	0.0106
793.6476	0.0083
793.819	-0.0049
793.9904	0.0219
794.1617	-0.0035
794.333	-0.0047
794.5043	-0.0048
794.6756	0.0031
794.8469	-0.004
795.0181	0.0048
795.1893	-0.0041
795.3605	0.008
795.5317	-0.0144
795.7029	-0.0098
795.874	-0.0001
796.0452	0.0141
796.2163	0.0098
796.3873	0.0129
796.5584	0.008
796.7294	0.0007
796.9005	0.0281
797.0715	0.0111
797.2425	-0.0024
797.4134	-0.007
797.5844	0.0128
797.7553	-0.0011
797.9262	0.0028
798.0971	-0.0133
798.2679	0.0013
798.4388	-0.0135
798.6096	-0.0066
798.7804	0.0059
798.9512	0.0064
799.122	-0.0145
799.2927	0.0109
799.4635	0.0147
799.6342	-0.0182
799.8049	0.0018
799.9755	0.0151
800.1462	0.009
800.3168	0.0041
800.4874	-0.0059
800.658	0.0251
800.8286	0.0103
800.9991	0.0136
801.1696	0.003
801.3402	0.0171
801.5106	0.0006
801.6811	-0.0008
801.8516	0.0309
802.022	0.0031
802.1924	0.0112
802.3628	0.0153
802.5332	0.0141
802.7035	0.0343
802.8739	-0.0044
803.0442	-0.0062
803.2145	0.0218
803.3847	-0.0187
803.555	0.0063
803.7252	-0.0065
803.8954	0.0063
804.0656	-0.0026
804.2358	0.0022
804.4059	0.0062
804.5761	0.0024
804.7462	0.008
804.9163	0.0196
805.0864	-0.0104
805.2564	-0.0093
805.4264	0.0047
805.5965	-0.0136
805.7665	0.0065
805.9364	0.0032
806.1064	0.0261
806.2763	0.0085
806.4462	0.0348
806.6161	0.0011
806.786	0.0095
806.9559	0.0097
807.1257	0.0111
807.2955	-0.0102
807.4653	0.0026
807.6351	-0.0028
807.8048	0.0117
807.9746	0.0174
808.1443	0.0267
808.314	0.0066
808.4837	0.0139
808.6533	0.0188
808.8229	0.017
808.9926	0.0025
809.1622	0.0219
809.3317	0.0003
809.5013	0.0132
809.6708	0.0192
809.8403	0.0184
810.0098	-0.0022
810.1793	-0.0042
810.3488	0.0097
810.5182	-0.0139
810.6876	0.021
810.857	-0.0203
811.0264	0.0194
811.1958	0.029
811.3651	0.004
811.5344	0.0094
811.7037	-0.007
811.873	0.0047
812.0422	0.0107
812.2115	0.0115
812.3807	-0.0112
812.5499	0.0146
812.7191	0.0022
812.8882	0.0157
813.0574	0.0144
813.2265	-0.0005
813.3956	0.0017
813.5646	0.0023
813.7337	-0.0179
813.9027	0.0321
814.0718	0.0139
814.2407	0.0151
814.4097	0.0057
814.5787	-0.0046
814.7476	-0.0008
814.9165	0.0085
815.0854	0.0003
815.2543	0.0171
815.4232	0.0217
815.592	0.0349
815.7608	0.0087
815.9296	0.0245
816.0984	0.0257
816.2671	0.0057
816.4359	-0.0054
816.6046	0.0278
816.7733	0.0074
816.942	-0.0068
817.1106	0.0172
817.2793	0.0349
817.4479	0.0243
817.6165	0.0535
817.785	0.0171
817.9536	0.0033
818.1221	0.0033
818.2906	-0.0028
818.4591	-0.0006
818.6276	0.0131
818.7961	0.0326
818.9645	0.0091
819.1329	-0.0026
819.3013	0.0191
819.4697	0.0397
819.638	0.0302
819.8064	0.0263
819.9747	0.0258
820.143	0.0033
820.3113	0.0213
820.4795	0.006
820.6477	0.0112
820.816	-0.002
820.9842	0.0106
821.1523	0.0004
821.3205	0.0174
821.4886	0.0044
821.6567	-0.0074
821.8248	0.0191
821.9929	0.042
822.1609	-0.0029
822.329	0.0236
822.497	0.042
822.665	0.0068
822.833	0.0166
823.0009	0.0295
823.1688	0.0361
823.3367	0.0525
823.5046	0.0086
823.6725	0.0405
823.8404	0.0129
824.0082	0.03
824.176	0.0206
824.3438	0.0069
824.5116	0.0211
824.6793	-0.0032
824.847	-0.0093
825.0147	0.0347
825.1824	-0.002
825.3501	0.0129
825.5177	-0.0061
825.6854	0.0267
825.853	0.0184
826.0206	0.001
826.1881	-0.016
826.3557	-0.0051
826.5232	0.0169
826.6907	-0.032
826.8582	-0.0207
827.0257	-0.0167
827.1931	0.0214
827.3605	0.0115
827.528	0.0119
827.6953	0.0001
827.8627	0.0341
828.03	0.0386
828.1974	0.0149
828.3647	-0.0436
828.532	-0.0029
828.6992	0.0016
828.8665	0.0252
829.0337	0.0036
829.2009	0.0164
829.3681	0.0141
829.5352	0.0481
829.7024	0.0199
829.8695	-0.0375
830.0366	0.046
830.2037	0.0083
830.3707	0.0141
830.5378	0.0131
830.7048	0.0039
830.8718	0.0023
831.0388	-0.0255
831.2057	0.0208
831.3727	0.0011
831.5396	0.0205
831.7065	-0.0201
831.8734	0.0274
832.0402	-0.0467
832.2071	0.0168
832.3739	-0.0233
832.5407	0.0025
832.7075	-0.0248
832.8742	-0.0114
833.041	-0.0052
833.2077	0.0201
833.3744	0.0527
833.541	-0.0065
833.7077	0.0173
833.8743	0.0188
834.0409	0.0371
834.2075	0.0104
834.3741	0.002
834.5407	0.0104
834.7072	0.0117
834.8737	-0.02
835.0402	0.0351
835.2067	0.0045
835.3731	0.0068
835.5395	-0.0005
835.706	0.0309
835.8723	0.0155
836.0387	0.0259
836.2051	0.0064
836.3714	0.0417
836.5377	-0.0047
836.704	-0.0194
836.8703	0.0103
837.0365	-0.0121
837.2027	-0.0368
837.3689	0.0071
837.5351	0.0062
837.7013	-0.0286
837.8674	-0.064
838.0335	-0.0007
838.1997	-0.0079
838.3657	-0.0086
838.5318	0.0045
838.6978	0.0103
838.8639	-0.0094
839.0299	-0.0242
839.1958	0.0169
839.3618	0.0717
839.5277	0.0062
839.6937	0.0584
839.8596	-0.0115
840.0254	0.0196
840.1913	0.0204
840.3571	0.0492
840.523	-0.0048
840.6888	-0.0146
840.8545	-0.0359
841.0203	0.031
841.186	0.0331
841.3517	0.0514
841.5174	0.029
841.6831	-0.0137
841.8488	0.0176
842.0144	-0.0044
842.18	0.0192
842.3456	0.0519
842.5112	0.0053
842.6767	0.0051
842.8422	0.0099
843.0077	-0.016
843.1732	0.0144
843.3387	-0.0009
843.5042	-0.0136
843.6696	0.0354
843.835	0.0067
844.0004	0.0262
844.1657	0.0271
844.3311	-0.0151
844.4964	-0.0203
844.6617	-0.0141
844.827	0.0037
844.9923	0.0249
845.1575	0.0427
845.3227	0.0143
845.4879	-0.0354
845.6531	-0.0467
845.8183	-0.0879
845.9834	0.0435
846.1485	0.0134
846.3136	0.0105
846.4787	-0.07
846.6438	0.077
846.8088	0.0018
846.9738	-0.0386
847.1388	0.0355
847.3038	-0.0511
847.4687	-0.1075
847.6337	0.0584
847.7986	-0.0077
847.9635	-0.0627
848.1284	0.0811
848.2932	0.0949
848.458	-0.101
848.6228	0.0364
848.7876	0.0524
848.9524	-0.0082
849.1172	0.0074
849.2819	-0.0229
849.4466	-0.0527
849.6113	-0.004
849.7759	0.0913
849.9406	0.025
850.1052	0.008
850.2698	-0.0053
850.4344	0.0103
850.599	-0.0904
850.7635	0.0761
850.928	0.0754
851.0925	0.014
851.257	0.1084
851.4215	-0.0482
851.5859	-0.0231
851.7503	0.0255
851.9147	0.0327
852.0791	-0.0994
852.2434	-0.0712
852.4078	0.0276
852.5721	0.1445
852.7364	-0.033
852.9007	-0.1804
853.0649	0.1042
853.2291	-0.0854
853.3934	0.1102
853.5575	0.0211
853.7217	-0.0708
853.8859	-0.0604
854.05	-0.0747
854.2141	-0.0865
854.3782	-0.1093
854.5423	-0.0757
854.7063	0.0827
854.8703	-0.1003
855.0343	0.0166
855.1983	-0.1172
855.3623	0.0982
855.5262	-0.0439
855.6901	-0.037
855.854	0.0461
856.0179	0.1194
856.1818	0.0338
856.3456	-0.0445
856.5094	-0.0664
856.6732	-0.1049
856.837	0.0762
857.0008	-0.0862
857.1645	-0.1452
857.3282	-0.0508
857.4919	0.0622
857.6556	0.2131
857.8192	-0.0156
857.9828	-0.0427
858.1465	-0.068
858.31	-0.1664
858.4736	-0.1277
858.6372	-0.2763
858.8007	-0.1365
858.9642	-0.0934
859.1277	-0.0743
859.2911	-0.1053
859.4546	0.0456
859.618	-0.3891
859.7814	0.0542
859.9448	-0.0121
860.1081	0.0886
860.2715	0.1601
860.4348	0.0716
860.5981	0.3018
860.7614	0.2923
860.9246	-0.2373
861.0879	-0.1399
861.2511	-0.0406
861.4143	-0.1778
861.5774	0.1411
861.7406	-0.182
861.9037	0.0425
862.0668	-0.0552
862.2299	-0.0268
862.393	-0.4547
862.556	-0.0808
862.7191	-0.2494
862.8821	0.0209
863.0451	0.0352
863.208	0.0539
863.371	0.1813
863.5339	-0.0811
863.6968	0.0588
863.8597	-0.1742
864.0225	-0.0651
864.1854	-0
864.3482	0.002
864.511	-0.033
864.6737	0.2643
864.8365	-0.0135
864.9992	-0.5782
865.1619	-0.2567
865.3246	-0.0768
865.4873	-0.0324
865.65	-0.2745
865.8126	0.1506
865.9752	0.0407
866.1378	-0.0545
866.3004	0.0465
866.4629	0.4439
866.6254	-0.1738
866.7879	1.0528
866.9504	-0
867.1129	-0
867.2753	0.1034
867.4377	0.046
867.6001	-0.485
867.7625	0.3786
867.9249	-0
868.0872	0.4451
868.2495	0.2456
868.4118	-0.3954
868.5741	0.4831
868.7363	-0.291
868.8986	-0.0831
869.0608	-0.1552
869.223	-0.0419
869.3851	0.5499
869.5473	-0
869.7094	0.3121
869.8715	-0.5276
870.0336	-0.5891
870.1957	-0.4552
870.3577	-0.8829
870.5197	-0.0478
870.6817	0.2843
870.8437	-0.0725
871.0057	0.0669
871.1676	-0
871.3295	-0.592
871.4914	0.3832
871.6533	-0.4478
871.8151	-0.3824
871.977	-0
872.1388	-0
872.3006	-0.7838
872.4623	-0
872.6241	0.1292
872.7858	-0
872.9475	-0.0234
873.1092	-0.0115
873.2709	-0
873.4325	-0.2173
873.5941	0.0065
873.7557	-0
873.9173	-0.3365
874.0789	-0.066
874.2404	-0.5918
874.4019	0.1547
874.5634	-0.4059
874.7249	-0.0339
874.8863	0.6898
875.0478	0.4168
875.2092	-0
875.3706	-0.0177
875.5319	-0.609
875.6933	0.3172
875.8546	-0.1488
876.0159	-0
876.1772	0.0127
876.3385	-0
876.4997	0.3609
876.6609	-0.0756
876.8221	-0.327
876.9833	0.8553
877.1445	-0
877.3056	0.065
877.4667	-0.3564
877.6278	-0.3051
877.7889	-0.2139
877.9499	-0
878.111	-0
878.272	-0
878.433	-0
878.5939	-0
878.7549	-0.2051
878.9158	-0
879.0767	0.2194
879.2376	-0
879.3984	-0.3078
879.5593	-0
879.7201	0.8593
879.8809	-0.741
880.0417	-0
880.2024	0.2037
880.3632	-0
880.5239	-0
880.6846	0.3575
880.8452	-2.1931
881.0059	-0
881.1665	0.1229
881.3271	-0.2868
881.4877	-0.4242
881.6483	0.2164
881.8088	-0.4378
881.9693	0.1499
882.1298	0.1499
882.2903	0.1499
