Data from MonoPyChalIsomerACN10uM360nmA_Absorbance_13-57-29-604.txt Node
Date: Fri Jul 05 13:57:29 BST 2024
User: LASERRRRR
Spectrometer: FLMT03099
Trigger mode: 0
Integration Time (sec): 1.000000E-1
Scans to average: 1
Electric dark correction enabled: true
Nonlinearity correction enabled: false
Boxcar width: 0
XAxis mode: Wavelengths
Number of Pixels in Spectrum: 3648
>>>>>Begin Spectral Data<<<<<
179.3399	-0.1676
179.5586	-0.1676
179.7771	-0.1676
179.9957	-0.2496
180.2143	0.4094
180.4329	-0.0616
180.6514	-0
180.8699	-0
181.0885	-0
181.307	-0.0126
181.5255	-0
181.744	-0.2445
181.9625	-0
182.181	-0
182.3994	0.3474
182.6179	0.4214
182.8363	0.2071
183.0547	0.3857
183.2732	0.0429
183.4916	0.1227
183.71	0.2825
183.9284	-0.0163
184.1467	-0.0355
184.3651	0.2356
184.5835	-0.017
184.8018	0.0557
185.0201	0.0751
185.2385	0.1241
185.4568	0.1257
185.6751	-0.0161
185.8934	0.2363
186.1117	0.22
186.3299	0.103
186.5482	0.1125
186.7664	-0.0655
186.9847	0.0864
187.2029	-0.0027
187.4211	0.0438
187.6393	0.1223
187.8575	0.1319
188.0757	0.5431
188.2939	0.0577
188.512	-0.1051
188.7302	0.0849
188.9483	-0.0357
189.1665	0.1528
189.3846	-0.174
189.6027	0.4882
189.8208	0.1586
190.0389	0.2243
190.257	0.1871
190.475	0.343
190.6931	0.0902
190.9111	0.2958
191.1292	0.4138
191.3472	0.3885
191.5652	0.2849
191.7832	0.2024
192.0012	0.4995
192.2192	0.3261
192.4371	0.4666
192.6551	0.3358
192.873	0.3909
193.091	0.377
193.3089	0.7058
193.5268	0.5673
193.7447	0.6124
193.9626	0.5388
194.1805	0.4674
194.3984	0.9416
194.6162	0.5795
194.8341	0.425
195.0519	0.5306
195.2697	1.0265
195.4875	0.676
195.7054	0.6398
195.9231	0.5203
196.1409	0.6841
196.3587	0.5931
196.5765	0.5261
196.7942	0.6489
197.012	0.4979
197.2297	0.5839
197.4474	0.6432
197.6651	0.5388
197.8828	0.7022
198.1005	0.5871
198.3182	0.7207
198.5358	0.7798
198.7535	0.7166
198.9711	0.557
199.1888	0.6568
199.4064	0.6869
199.624	0.5553
199.8416	0.5385
200.0592	0.774
200.2767	0.6746
200.4943	0.6952
200.7119	0.786
200.9294	0.6638
201.1469	0.5215
201.3645	0.5249
201.582	0.6928
201.7995	0.5791
202.017	0.6744
202.2344	0.68
202.4519	0.6802
202.6694	0.7116
202.8868	0.674
203.1042	0.7661
203.3217	0.5565
203.5391	0.7556
203.7565	0.5669
203.9739	0.6412
204.1913	0.5695
204.4086	0.6729
204.626	0.7365
204.8433	0.5967
205.0607	0.655
205.278	0.6701
205.4953	0.6593
205.7126	0.72
205.9299	0.6958
206.1472	0.6965
206.3644	0.6466
206.5817	0.6684
206.7989	0.6724
207.0162	0.736
207.2334	0.6866
207.4506	0.6308
207.6678	0.6932
207.885	0.591
208.1022	0.6901
208.3194	0.6154
208.5365	0.6131
208.7537	0.606
208.9708	0.5525
209.1879	0.6101
209.405	0.6136
209.6222	0.6621
209.8392	0.6127
210.0563	0.6944
210.2734	0.6443
210.4905	0.5408
210.7075	0.5915
210.9245	0.552
211.1416	0.7024
211.3586	0.7032
211.5756	0.5945
211.7926	0.6183
212.0096	0.6328
212.2265	0.5537
212.4435	0.5891
212.6604	0.5926
212.8774	0.546
213.0943	0.5622
213.3112	0.5884
213.5281	0.5534
213.745	0.4984
213.9619	0.4987
214.1788	0.4904
214.3956	0.4329
214.6125	0.4757
214.8293	0.4538
215.0461	0.4627
215.2629	0.4333
215.4798	0.4091
215.6965	0.3977
215.9133	0.4247
216.1301	0.409
216.3469	0.4328
216.5636	0.3977
216.7803	0.3876
216.9971	0.3935
217.2138	0.3999
217.4305	0.3708
217.6472	0.3643
217.8639	0.3884
218.0805	0.315
218.2972	0.3271
218.5138	0.305
218.7305	0.3243
218.9471	0.3039
219.1637	0.2907
219.3803	0.2818
219.5969	0.266
219.8135	0.3004
220.0301	0.2705
220.2466	0.2799
220.4632	0.2693
220.6797	0.2276
220.8962	0.2565
221.1127	0.2531
221.3292	0.2551
221.5457	0.2319
221.7622	0.2344
221.9787	0.255
222.1951	0.2436
222.4116	0.2831
222.628	0.2314
222.8444	0.2728
223.0608	0.2551
223.2772	0.2581
223.4936	0.262
223.71	0.2496
223.9264	0.2909
224.1427	0.2609
224.3591	0.2466
224.5754	0.2559
224.7917	0.278
225.008	0.2718
225.2243	0.2565
225.4406	0.2812
225.6569	0.2482
225.8732	0.2661
226.0894	0.256
226.3057	0.2695
226.5219	0.2931
226.7381	0.2781
226.9543	0.3061
227.1705	0.2942
227.3867	0.2919
227.6029	0.3013
227.8191	0.3143
228.0352	0.3067
228.2513	0.3145
228.4675	0.3193
228.6836	0.3023
228.8997	0.3208
229.1158	0.3249
229.3319	0.3168
229.548	0.3119
229.764	0.3259
229.9801	0.3279
230.1961	0.3407
230.4121	0.3389
230.6282	0.3624
230.8442	0.3274
231.0602	0.3569
231.2761	0.3753
231.4921	0.3401
231.7081	0.3457
231.924	0.3367
232.14	0.3524
232.3559	0.3542
232.5718	0.3633
232.7877	0.3623
233.0036	0.343
233.2195	0.3613
233.4353	0.3528
233.6512	0.3646
233.867	0.3572
234.0829	0.3554
234.2987	0.3634
234.5145	0.3903
234.7303	0.3705
234.9461	0.3976
235.1619	0.3913
235.3776	0.3837
235.5934	0.3573
235.8091	0.3523
236.0249	0.3718
236.2406	0.3694
236.4563	0.3754
236.672	0.3974
236.8877	0.4039
237.1034	0.3905
237.319	0.4011
237.5347	0.4009
237.7503	0.3957
237.966	0.4344
238.1816	0.4245
238.3972	0.4017
238.6128	0.3845
238.8284	0.4034
239.0439	0.4132
239.2595	0.4172
239.475	0.437
239.6906	0.423
239.9061	0.3896
240.1216	0.405
240.3371	0.3916
240.5526	0.3804
240.7681	0.4153
240.9836	0.3926
241.199	0.4083
241.4145	0.3909
241.6299	0.386
241.8453	0.3832
242.0607	0.3901
242.2761	0.3796
242.4915	0.382
242.7069	0.3817
242.9223	0.3596
243.1376	0.3624
243.353	0.3475
243.5683	0.3421
243.7836	0.3362
243.9989	0.3439
244.2142	0.3066
244.4295	0.3362
244.6448	0.3158
244.86	0.3008
245.0753	0.2896
245.2905	0.2944
245.5057	0.2906
245.721	0.2718
245.9362	0.2762
246.1514	0.2726
246.3665	0.2716
246.5817	0.2532
246.7969	0.2593
247.012	0.252
247.2271	0.2409
247.4423	0.2503
247.6574	0.2534
247.8725	0.2372
248.0876	0.2305
248.3026	0.2338
248.5177	0.2293
248.7328	0.2204
248.9478	0.1992
249.1628	0.2178
249.3779	0.2302
249.5929	0.2017
249.8079	0.2144
250.0228	0.2001
250.2378	0.2061
250.4528	0.1931
250.6677	0.1925
250.8827	0.1972
251.0976	0.1961
251.3125	0.1941
251.5274	0.1799
251.7423	0.1804
251.9572	0.1839
252.172	0.1834
252.3869	0.1923
252.6017	0.1843
252.8166	0.1723
253.0314	0.1787
253.2462	0.1659
253.461	0.181
253.6758	0.1826
253.8906	0.1756
254.1053	0.1716
254.3201	0.1641
254.5348	0.1721
254.7496	0.1781
254.9643	0.169
255.179	0.165
255.3937	0.1672
255.6083	0.1813
255.823	0.1706
256.0377	0.1698
256.2523	0.1735
256.467	0.155
256.6816	0.1722
256.8962	0.1674
257.1108	0.1646
257.3254	0.1725
257.54	0.1665
257.7545	0.164
257.9691	0.1716
258.1836	0.1659
258.3981	0.1722
258.6127	0.1673
258.8272	0.1674
259.0417	0.1539
259.2561	0.1674
259.4706	0.1657
259.6851	0.1767
259.8995	0.1746
260.114	0.1574
260.3284	0.1663
260.5428	0.1565
260.7572	0.1725
260.9716	0.1641
261.186	0.15
261.4003	0.1548
261.6147	0.1725
261.829	0.1603
262.0433	0.1522
262.2577	0.1739
262.472	0.1644
262.6863	0.158
262.9005	0.1693
263.1148	0.1526
263.3291	0.1506
263.5433	0.1538
263.7576	0.1708
263.9718	0.1641
264.186	0.1616
264.4002	0.1656
264.6144	0.1552
264.8286	0.1685
265.0427	0.1647
265.2569	0.1517
265.471	0.1639
265.6851	0.1613
265.8993	0.1531
266.1134	0.157
266.3275	0.1566
266.5415	0.1526
266.7556	0.1616
266.9697	0.1705
267.1837	0.1569
267.3978	0.1588
267.6118	0.1678
267.8258	0.1778
268.0398	0.1554
268.2538	0.175
268.4677	0.1665
268.6817	0.1599
268.8957	0.1584
269.1096	0.1614
269.3235	0.1633
269.5374	0.154
269.7514	0.1576
269.9652	0.1498
270.1791	0.1468
270.393	0.1443
270.6068	0.1606
270.8207	0.1566
271.0345	0.1539
271.2483	0.1665
271.4622	0.1386
271.676	0.152
271.8897	0.1325
272.1035	0.1342
272.3173	0.1398
272.531	0.1539
272.7448	0.1339
272.9585	0.136
273.1722	0.1555
273.3859	0.1541
273.5996	0.1408
273.8133	0.15
274.0269	0.1467
274.2406	0.1457
274.4542	0.1505
274.6679	0.1361
274.8815	0.15
275.0951	0.1475
275.3087	0.1473
275.5223	0.1616
275.7358	0.1497
275.9494	0.1433
276.1629	0.1364
276.3765	0.1553
276.59	0.1606
276.8035	0.1568
277.017	0.1504
277.2305	0.1485
277.444	0.1582
277.6574	0.1422
277.8709	0.1465
278.0843	0.1495
278.2978	0.1445
278.5112	0.1458
278.7246	0.152
278.938	0.1587
279.1513	0.1507
279.3647	0.1594
279.5781	0.1562
279.7914	0.162
280.0047	0.1583
280.2181	0.1482
280.4314	0.1431
280.6447	0.163
280.8579	0.1461
281.0712	0.1698
281.2845	0.1649
281.4977	0.1527
281.711	0.1498
281.9242	0.1628
282.1374	0.1609
282.3506	0.1541
282.5638	0.1679
282.7769	0.1557
282.9901	0.1514
283.2033	0.1581
283.4164	0.1618
283.6295	0.1452
283.8426	0.1412
284.0557	0.1604
284.2688	0.1779
284.4819	0.1678
284.695	0.1549
284.908	0.167
285.1211	0.1538
285.3341	0.1587
285.5471	0.1583
285.7601	0.15
285.9731	0.1506
286.1861	0.1583
286.3991	0.1612
286.612	0.1678
286.825	0.1581
287.0379	0.1669
287.2508	0.1594
287.4637	0.1702
287.6766	0.1486
287.8895	0.1734
288.1024	0.1802
288.3152	0.167
288.5281	0.1638
288.7409	0.1519
288.9538	0.1539
289.1666	0.1646
289.3794	0.1546
289.5922	0.1557
289.8049	0.1571
290.0177	0.1656
290.2304	0.1559
290.4432	0.1723
290.6559	0.1669
290.8686	0.1685
291.0813	0.158
291.294	0.1542
291.5067	0.1651
291.7194	0.1532
291.932	0.1635
292.1447	0.151
292.3573	0.1583
292.5699	0.163
292.7825	0.1629
292.9951	0.1618
293.2077	0.1563
293.4203	0.1594
293.6328	0.1531
293.8454	0.1596
294.0579	0.1739
294.2704	0.1598
294.4829	0.1604
294.6954	0.1576
294.9079	0.1539
295.1204	0.1645
295.3328	0.157
295.5453	0.1618
295.7577	0.1747
295.9701	0.1552
296.1825	0.1576
296.3949	0.1592
296.6073	0.1648
296.8197	0.1569
297.0321	0.1786
297.2444	0.1463
297.4567	0.1641
297.6691	0.1578
297.8814	0.1568
298.0937	0.1667
298.306	0.172
298.5182	0.1595
298.7305	0.1663
298.9428	0.1502
299.155	0.1638
299.3672	0.1573
299.5794	0.1565
299.7916	0.1596
300.0038	0.157
300.216	0.1655
300.4282	0.1658
300.6403	0.1457
300.8525	0.1665
301.0646	0.1522
301.2767	0.1586
301.4888	0.162
301.7009	0.1571
301.913	0.1493
302.125	0.1714
302.3371	0.1573
302.5491	0.1681
302.7612	0.1658
302.9732	0.1686
303.1852	0.1595
303.3972	0.1631
303.6092	0.1575
303.8211	0.1559
304.0331	0.1546
304.245	0.1518
304.457	0.1531
304.6689	0.1488
304.8808	0.1598
305.0927	0.1509
305.3046	0.1451
305.5164	0.1643
305.7283	0.1443
305.9401	0.1472
306.152	0.1471
306.3638	0.1463
306.5756	0.1386
306.7874	0.1489
306.9992	0.1412
307.2109	0.1427
307.4227	0.1265
307.6344	0.1339
307.8462	0.1242
308.0579	0.1465
308.2696	0.1369
308.4813	0.1334
308.693	0.1282
308.9046	0.1469
309.1163	0.1329
309.328	0.1293
309.5396	0.1319
309.7512	0.1216
309.9628	0.1225
310.1744	0.1151
310.386	0.1176
310.5976	0.1204
310.8091	0.1167
311.0207	0.1086
311.2322	0.1208
311.4437	0.1036
311.6552	0.1138
311.8667	0.1188
312.0782	0.0967
312.2897	0.0968
312.5012	0.1127
312.7126	0.1078
312.924	0.105
313.1355	0.1141
313.3469	0.1099
313.5583	0.1136
313.7696	0.1113
313.981	0.1101
314.1924	0.104
314.4037	0.1063
314.6151	0.105
314.8264	0.0907
315.0377	0.102
315.249	0.0973
315.4603	0.109
315.6716	0.106
315.8828	0.0991
316.0941	0.099
316.3053	0.1005
316.5165	0.0981
316.7277	0.1046
316.9389	0.0936
317.1501	0.0901
317.3613	0.1021
317.5724	0.0935
317.7836	0.099
317.9947	0.1024
318.2058	0.1008
318.417	0.0844
318.6281	0.0891
318.8391	0.0982
319.0502	0.0979
319.2613	0.0925
319.4723	0.102
319.6834	0.0997
319.8944	0.0893
320.1054	0.0997
320.3164	0.1063
320.5274	0.0952
320.7383	0.0941
320.9493	0.1087
321.1602	0.1019
321.3712	0.1022
321.5821	0.1183
321.793	0.1044
322.0039	0.0957
322.2148	0.1025
322.4257	0.1084
322.6365	0.1144
322.8474	0.105
323.0582	0.1006
323.269	0.1053
323.4798	0.1096
323.6906	0.1018
323.9014	0.1003
324.1122	0.1061
324.3229	0.0946
324.5337	0.1011
324.7444	0.0897
324.9551	0.1129
325.1658	0.1076
325.3765	0.1198
325.5872	0.1017
325.7979	0.1104
326.0085	0.1046
326.2192	0.118
326.4298	0.1114
326.6404	0.0966
326.851	0.0926
327.0616	0.1048
327.2722	0.1116
327.4828	0.1153
327.6933	0.0988
327.9039	0.1146
328.1144	0.1146
328.3249	0.1092
328.5354	0.0986
328.7459	0.1024
328.9564	0.1018
329.1669	0.1054
329.3773	0.1124
329.5878	0.1109
329.7982	0.1038
330.0086	0.103
330.219	0.1086
330.4294	0.0969
330.6398	0.1008
330.8502	0.0973
331.0605	0.1159
331.2708	0.1133
331.4812	0.109
331.6915	0.1087
331.9018	0.1102
332.1121	0.1052
332.3224	0.1064
332.5326	0.1105
332.7429	0.1054
332.9531	0.1196
333.1633	0.1138
333.3735	0.1084
333.5837	0.1148
333.7939	0.1087
334.0041	0.1127
334.2143	0.1078
334.4244	0.1137
334.6346	0.096
334.8447	0.1252
335.0548	0.0999
335.2649	0.1065
335.475	0.1101
335.685	0.103
335.8951	0.1169
336.1051	0.1234
336.3152	0.1109
336.5252	0.1068
336.7352	0.1209
336.9452	0.1249
337.1552	0.1307
337.3652	0.1158
337.5751	0.1237
337.7851	0.1216
337.995	0.1043
338.2049	0.1164
338.4148	0.1103
338.6247	0.1187
338.8346	0.1147
339.0445	0.0896
339.2543	0.1165
339.4642	0.1236
339.674	0.1131
339.8838	0.1049
340.0936	0.1126
340.3034	0.1225
340.5132	0.1162
340.7229	0.1143
340.9327	0.113
341.1424	0.1175
341.3522	0.1363
341.5619	0.13
341.7716	0.1209
341.9813	0.1287
342.1909	0.108
342.4006	0.1342
342.6102	0.1358
342.8199	0.1247
343.0295	0.1244
343.2391	0.1275
343.4487	0.1366
343.6583	0.1239
343.8679	0.1232
344.0774	0.1364
344.287	0.1458
344.4965	0.124
344.706	0.1215
344.9155	0.1322
345.125	0.1201
345.3345	0.1285
345.544	0.1178
345.7534	0.1262
345.9629	0.1222
346.1723	0.1334
346.3817	0.1293
346.5911	0.1336
346.8005	0.1441
347.0099	0.1315
347.2193	0.1318
347.4286	0.1352
347.638	0.1374
347.8473	0.1299
348.0566	0.1404
348.2659	0.1283
348.4752	0.1445
348.6845	0.133
348.8937	0.1393
349.103	0.144
349.3122	0.14
349.5214	0.1324
349.7306	0.1522
349.9398	0.1331
350.149	0.1474
350.3582	0.1284
350.5674	0.1563
350.7765	0.1425
350.9856	0.1426
351.1948	0.149
351.4039	0.1371
351.613	0.1246
351.822	0.1437
352.0311	0.1516
352.2402	0.1453
352.4492	0.1397
352.6582	0.1588
352.8672	0.1531
353.0762	0.1536
353.2852	0.1488
353.4942	0.1347
353.7032	0.1421
353.9121	0.1455
354.1211	0.1566
354.33	0.1488
354.5389	0.1551
354.7478	0.144
354.9567	0.1491
355.1655	0.1308
355.3744	0.1556
355.5833	0.1528
355.7921	0.1561
356.0009	0.15
356.2097	0.1728
356.4185	0.1672
356.6273	0.1543
356.8361	0.1768
357.0448	0.164
357.2536	0.1634
357.4623	0.1513
357.671	0.1616
357.8797	0.1577
358.0884	0.1647
358.2971	0.1636
358.5057	0.1736
358.7144	0.1679
358.923	0.1601
359.1316	0.1612
359.3402	0.1706
359.5488	0.16
359.7574	0.1558
359.966	0.1755
360.1746	0.1804
360.3831	0.1586
360.5916	0.1677
360.8002	0.1717
361.0087	0.1962
361.2172	0.1725
361.4256	0.1682
361.6341	0.1837
361.8426	0.1832
362.051	0.1794
362.2594	0.1787
362.4678	0.173
362.6762	0.201
362.8846	0.1953
363.093	0.2028
363.3014	0.1821
363.5097	0.1641
363.718	0.1811
363.9264	0.1753
364.1347	0.1727
364.343	0.2044
364.5513	0.1981
364.7595	0.2028
364.9678	0.194
365.176	0.1906
365.3842	0.185
365.5925	0.1976
365.8007	0.2005
366.0089	0.1962
366.217	0.1813
366.4252	0.2073
366.6333	0.2202
366.8415	0.2034
367.0496	0.1886
367.2577	0.2107
367.4658	0.213
367.6739	0.2036
367.882	0.2072
368.09	0.1862
368.2981	0.205
368.5061	0.2069
368.7141	0.2092
368.9221	0.2117
369.1301	0.2163
369.3381	0.2088
369.5461	0.2007
369.754	0.2039
369.962	0.2216
370.1699	0.1983
370.3778	0.2104
370.5857	0.1964
370.7936	0.2224
371.0015	0.2165
371.2093	0.209
371.4172	0.2297
371.625	0.1989
371.8328	0.2032
372.0406	0.2112
372.2484	0.2149
372.4562	0.2233
372.664	0.216
372.8717	0.2243
373.0795	0.2052
373.2872	0.2006
373.4949	0.218
373.7026	0.2295
373.9103	0.2231
374.118	0.2296
374.3256	0.2266
374.5333	0.2188
374.7409	0.2001
374.9485	0.2306
375.1561	0.2322
375.3637	0.2357
375.5713	0.2232
375.7789	0.2357
375.9864	0.2333
376.194	0.2235
376.4015	0.2447
376.609	0.238
376.8165	0.2338
377.024	0.2187
377.2315	0.2307
377.4389	0.2317
377.6464	0.244
377.8538	0.2346
378.0612	0.2233
378.2686	0.2422
378.476	0.2499
378.6834	0.2391
378.8908	0.2417
379.0981	0.2532
379.3055	0.2284
379.5128	0.2339
379.7201	0.2564
379.9274	0.239
380.1347	0.2365
380.342	0.2613
380.5492	0.2478
380.7565	0.2396
380.9637	0.2435
381.1709	0.2465
381.3781	0.249
381.5853	0.2527
381.7925	0.2463
381.9997	0.2505
382.2068	0.2482
382.4139	0.2375
382.6211	0.2366
382.8282	0.2417
383.0353	0.2452
383.2424	0.2347
383.4494	0.2601
383.6565	0.2654
383.8635	0.2563
384.0706	0.2565
384.2776	0.2621
384.4846	0.2549
384.6916	0.2433
384.8986	0.2415
385.1055	0.2334
385.3125	0.2393
385.5194	0.2364
385.7263	0.2632
385.9333	0.2499
386.1402	0.2523
386.347	0.2593
386.5539	0.2376
386.7608	0.2501
386.9676	0.2434
387.1744	0.2487
387.3813	0.2334
387.5881	0.2562
387.7948	0.2491
388.0016	0.2503
388.2084	0.2465
388.4151	0.2421
388.6219	0.2576
388.8286	0.2407
389.0353	0.2579
389.242	0.246
389.4487	0.2366
389.6553	0.2318
389.862	0.237
390.0686	0.2228
390.2753	0.254
390.4819	0.2495
390.6885	0.2444
390.8951	0.2367
391.1016	0.2338
391.3082	0.2241
391.5147	0.2303
391.7213	0.235
391.9278	0.2277
392.1343	0.2286
392.3408	0.2373
392.5473	0.233
392.7537	0.2168
392.9602	0.2126
393.1666	0.2326
393.373	0.2141
393.5794	0.228
393.7858	0.2246
393.9922	0.2043
394.1986	0.2197
394.4049	0.2272
394.6113	0.2199
394.8176	0.1932
395.0239	0.2073
395.2302	0.2035
395.4365	0.2208
395.6428	0.2147
395.8491	0.2213
396.0553	0.2017
396.2615	0.2174
396.4678	0.2008
396.674	0.2065
396.8802	0.2222
397.0863	0.2127
397.2925	0.1945
397.4987	0.2031
397.7048	0.1998
397.9109	0.2104
398.117	0.2109
398.3231	0.2023
398.5292	0.2145
398.7353	0.2209
398.9413	0.1922
399.1474	0.2106
399.3534	0.2024
399.5594	0.193
399.7654	0.218
399.9714	0.2229
400.1774	0.191
400.3833	0.2023
400.5893	0.2072
400.7952	0.2134
401.0011	0.2123
401.207	0.2242
401.4129	0.2068
401.6188	0.2027
401.8247	0.2114
402.0305	0.1995
402.2364	0.2135
402.4422	0.2156
402.648	0.2193
402.8538	0.1977
403.0596	0.2036
403.2654	0.2064
403.4711	0.2095
403.6768	0.2208
403.8826	0.215
404.0883	0.2027
404.294	0.2095
404.4997	0.2079
404.7054	0.2081
404.911	0.2075
405.1167	0.2052
405.3223	0.2066
405.5279	0.213
405.7335	0.2188
405.9391	0.2216
406.1447	0.2176
406.3502	0.2133
406.5558	0.2046
406.7613	0.218
406.9668	0.2115
407.1724	0.1963
407.3778	0.2089
407.5833	0.2063
407.7888	0.1835
407.9942	0.2165
408.1997	0.2109
408.4051	0.2079
408.6105	0.2135
408.8159	0.1878
409.0213	0.2041
409.2267	0.2007
409.432	0.1987
409.6374	0.1931
409.8427	0.2062
410.048	0.2099
410.2533	0.1971
410.4586	0.1942
410.6639	0.1958
410.8691	0.1906
411.0744	0.1852
411.2796	0.1888
411.4848	0.2007
411.69	0.1957
411.8952	0.2326
412.1004	0.1948
412.3056	0.2168
412.5107	0.1949
412.7158	0.2197
412.921	0.1976
413.1261	0.1974
413.3312	0.1982
413.5362	0.1966
413.7413	0.2072
413.9464	0.2155
414.1514	0.2003
414.3564	0.2035
414.5614	0.1848
414.7664	0.2068
414.9714	0.2059
415.1764	0.2009
415.3813	0.221
415.5863	0.1945
415.7912	0.1758
415.9961	0.2051
416.201	0.1901
416.4059	0.2125
416.6108	0.1826
416.8156	0.1876
417.0205	0.1912
417.2253	0.1812
417.4301	0.2029
417.6349	0.1993
417.8397	0.1909
418.0445	0.2027
418.2492	0.2052
418.454	0.1973
418.6587	0.2023
418.8634	0.1865
419.0681	0.1787
419.2728	0.1837
419.4775	0.1834
419.6822	0.1825
419.8868	0.1664
420.0915	0.1891
420.2961	0.1838
420.5007	0.1667
420.7053	0.1959
420.9099	0.1982
421.1144	0.1814
421.319	0.1802
421.5235	0.1824
421.728	0.1928
421.9325	0.1962
422.137	0.1871
422.3415	0.1871
422.546	0.1838
422.7504	0.1887
422.9549	0.1718
423.1593	0.1919
423.3637	0.1895
423.5681	0.1827
423.7725	0.1658
423.9769	0.158
424.1812	0.1601
424.3856	0.1819
424.5899	0.1633
424.7942	0.1607
424.9985	0.1718
425.2028	0.166
425.4071	0.1851
425.6113	0.1586
425.8156	0.1808
426.0198	0.1657
426.224	0.1525
426.4282	0.1535
426.6324	0.1567
426.8366	0.1444
427.0407	0.1584
427.2449	0.16
427.449	0.1783
427.6531	0.1414
427.8572	0.1525
428.0613	0.1573
428.2654	0.1568
428.4694	0.1625
428.6735	0.1436
428.8775	0.1593
429.0815	0.1508
429.2855	0.1388
429.4895	0.1416
429.6935	0.1488
429.8975	0.1529
430.1014	0.145
430.3053	0.122
430.5093	0.1422
430.7132	0.1338
430.9171	0.1234
431.1209	0.1363
431.3248	0.1311
431.5286	0.137
431.7325	0.1278
431.9363	0.1144
432.1401	0.1366
432.3439	0.121
432.5477	0.1092
432.7514	0.1055
432.9552	0.1222
433.1589	0.1155
433.3627	0.1125
433.5664	0.1141
433.7701	0.1112
433.9737	0.1094
434.1774	0.1016
434.3811	0.1073
434.5847	0.1141
434.7883	0.1028
434.9919	0.1033
435.1955	0.1042
435.3991	0.1034
435.6027	0.1069
435.8062	0.1039
436.0098	0.1055
436.2133	0.1024
436.4168	0.0901
436.6203	0.0992
436.8238	0.102
437.0272	0.0866
437.2307	0.1012
437.4341	0.0953
437.6375	0.1102
437.841	0.0755
438.0443	0.0949
438.2477	0.0958
438.4511	0.0768
438.6545	0.0912
438.8578	0.0991
439.0611	0.0839
439.2644	0.089
439.4677	0.0624
439.671	0.0656
439.8743	0.0829
440.0775	0.0773
440.2808	0.0654
440.484	0.0521
440.6872	0.0603
440.8904	0.0566
441.0936	0.0813
441.2967	0.0702
441.4999	0.0731
441.703	0.0698
441.9062	0.0796
442.1093	0.0718
442.3124	0.077
442.5155	0.0418
442.7185	0.0546
442.9216	0.0332
443.1246	0.0599
443.3276	0.0556
443.5307	0.0656
443.7337	0.0619
443.9366	0.0714
444.1396	0.0485
444.3426	0.0511
444.5455	0.0454
444.7484	0.0476
444.9513	0.0524
445.1542	0.0571
445.3571	0.0423
445.56	0.053
445.7628	0.027
445.9657	0.0338
446.1685	0.0587
446.3713	0.0646
446.5741	0.035
446.7769	0.0244
446.9797	0.0391
447.1824	0.0395
447.3852	0.0097
447.5879	0.0548
447.7906	0.0445
447.9933	0.0352
448.196	0.0293
448.3986	0.0387
448.6013	0.0205
448.8039	0.0267
449.0066	0.0189
449.2092	0.0344
449.4118	0.0461
449.6143	0.0309
449.8169	0.0315
450.0195	0.0228
450.222	0.0172
450.4245	0.0233
450.627	0.0395
450.8295	0.0363
451.032	0.0227
451.2345	0.0429
451.4369	0.0267
451.6394	0.0293
451.8418	0.0105
452.0442	0.0122
452.2466	0.0289
452.449	0.0241
452.6513	0.027
452.8537	0.0192
453.056	0.0048
453.2583	0.0314
453.4607	0.0117
453.663	0.016
453.8652	0.0326
454.0675	0.0157
454.2697	0.0269
454.472	-0.0051
454.6742	0.0195
454.8764	0.0253
455.0786	0.0161
455.2808	0.0168
455.4829	0.0225
455.6851	0.0265
455.8872	0.0234
456.0893	0.026
456.2915	0.0047
456.4935	0.0275
456.6956	-0.0013
456.8977	0.0165
457.0997	0.0078
457.3018	0.0139
457.5038	0.0177
457.7058	0.0195
457.9078	0.0153
458.1098	0.0061
458.3117	0.0149
458.5137	0.0121
458.7156	0.02
458.9175	-0.0013
459.1194	0.0051
459.3213	0.0127
459.5232	0.0054
459.725	-0.0149
459.9269	-0.0026
460.1287	-0.0016
460.3305	-0.0024
460.5323	0.0082
460.7341	0.0062
460.9359	0.0062
461.1376	0.0021
461.3394	0.0032
461.5411	0.0189
461.7428	0.0154
461.9445	0.0112
462.1462	0.016
462.3479	0.0036
462.5495	0.0072
462.7512	0.0083
462.9528	0.005
463.1544	-0.0105
463.356	0.0094
463.5576	0.0079
463.7592	-0.001
463.9607	0.0134
464.1623	0.0175
464.3638	0.0254
464.5653	-0.006
464.7668	0.0135
464.9683	0.0067
465.1697	0.0188
465.3712	-0.0042
465.5726	-0.0076
465.7741	-0.0004
465.9755	-0.0181
466.1769	-0.0009
466.3782	0.0096
466.5796	0.0013
466.7809	0.0112
466.9823	-0.0125
467.1836	0.0125
467.3849	-0.0005
467.5862	0.0181
467.7875	-0.0055
467.9887	0.0087
468.19	0.0103
468.3912	-0.0081
468.5924	-0.0094
468.7936	-0.0037
468.9948	0.0084
469.196	-0.0013
469.3972	-0.021
469.5983	0.0013
469.7994	-0.01
470.0006	-0.0118
470.2017	-0.0124
470.4027	-0.0136
470.6038	0.003
470.8049	-0.0136
471.0059	-0.0077
471.2069	-0.0256
471.408	0.0117
471.6089	-0.0145
471.8099	-0.0001
472.0109	0.0059
472.2119	-0.0046
472.4128	-0.0187
472.6137	0.0061
472.8146	-0.005
473.0155	0.0081
473.2164	-0.0001
473.4173	0.0017
473.6181	0.0038
473.819	0.0144
474.0198	-0.0129
474.2206	0.0044
474.4214	-0.003
474.6222	0
474.8229	-0.0033
475.0237	-0.0141
475.2244	-0.0039
475.4251	0.0044
475.6258	-0.0079
475.8265	0.0003
476.0272	0.0035
476.2278	-0.0058
476.4285	-0.0094
476.6291	-0.0084
476.8297	-0.0142
477.0303	-0.0101
477.2309	-0.0004
477.4315	-0.0213
477.632	-0.0223
477.8326	0.0016
478.0331	0.0021
478.2336	-0.0032
478.4341	-0.0117
478.6346	-0.018
478.8351	-0.0047
479.0355	-0.0176
479.236	0.0019
479.4364	0.0042
479.6368	0.0037
479.8372	-0.0001
480.0376	0.0034
480.2379	-0.0213
480.4383	0.001
480.6386	-0.0038
480.8389	-0.0161
481.0392	-0.0086
481.2395	-0.0061
481.4398	0.0078
481.6401	-0.0024
481.8403	0.0012
482.0405	-0.0125
482.2408	-0.0037
482.441	0.0018
482.6411	-0.0007
482.8413	-0.0016
483.0415	-0.0026
483.2416	-0.0119
483.4417	-0.0013
483.6419	-0.0091
483.8419	-0.0144
484.042	0.0079
484.2421	-0.0012
484.4422	-0.0025
484.6422	-0.0055
484.8422	0.0058
485.0422	-0.015
485.2422	0.003
485.4422	-0.0132
485.6422	-0.0082
485.8421	-0.0001
486.042	-0.0051
486.242	-0.0022
486.4419	-0.0062
486.6417	-0.0023
486.8416	-0.0116
487.0415	-0.0082
487.2413	-0.0084
487.4411	-0.0048
487.641	-0.0127
487.8408	0.0096
488.0405	-0.011
488.2403	-0.0131
488.4401	0.0049
488.6398	0.0005
488.8395	-0.0037
489.0392	0.0059
489.2389	0.0035
489.4386	-0.0042
489.6383	-0.0125
489.8379	-0.0104
490.0376	-0.0015
490.2372	-0.0127
490.4368	-0.0133
490.6364	-0.01
490.836	-0.0099
491.0355	0.002
491.2351	-0.0187
491.4346	-0.0085
491.6341	-0.018
491.8336	-0.0062
492.0331	-0.0146
492.2326	-0.0128
492.432	-0.0019
492.6315	-0.0104
492.8309	-0.0121
493.0303	-0.0142
493.2297	-0.0074
493.4291	-0.001
493.6284	-0.0114
493.8278	-0.002
494.0271	0.0041
494.2264	0.0048
494.4257	-0.0099
494.625	-0.0118
494.8243	-0.0142
495.0236	-0.0109
495.2228	-0.009
495.422	-0.0017
495.6213	-0.006
495.8205	-0.0047
496.0196	-0.0093
496.2188	-0.002
496.418	-0.0123
496.6171	-0.0114
496.8162	-0.0187
497.0153	-0.002
497.2144	-0.0037
497.4135	-0.0032
497.6126	-0.0094
497.8116	-0.006
498.0107	0.0037
498.2097	-0.003
498.4087	-0.0066
498.6077	-0.0091
498.8067	-0.0049
499.0056	0.007
499.2046	-0.0035
499.4035	-0.0284
499.6024	0.0018
499.8013	-0.0064
500.0002	-0.0071
500.199	-0.0052
500.3979	-0.0109
500.5967	-0.0173
500.7956	0.0024
500.9944	-0.0012
501.1932	-0.0055
501.3919	-0.0157
501.5907	-0.017
501.7895	-0.0005
501.9882	-0.0103
502.1869	-0.0112
502.3856	-0.0117
502.5843	-0.0076
502.783	-0.016
502.9816	0.0017
503.1803	-0.0151
503.3789	-0.0105
503.5775	-0.0036
503.7761	-0.0171
503.9747	-0.0028
504.1732	-0.0112
504.3718	-0.0139
504.5703	-0.0096
504.7689	-0.0183
504.9674	-0.0074
505.1658	-0.0147
505.3643	-0.0021
505.5628	-0.0053
505.7612	-0.0052
505.9597	0.0032
506.1581	-0.0053
506.3565	0.0093
506.5549	0
506.7532	-0.0284
506.9516	-0.0047
507.1499	-0.0008
507.3482	-0.0115
507.5465	-0.0029
507.7448	-0.003
507.9431	0.0009
508.1414	-0.0011
508.3396	-0.0038
508.5379	-0.0064
508.7361	-0.0048
508.9343	-0.0049
509.1325	0.004
509.3306	-0.0063
509.5288	-0.0064
509.7269	-0.0046
509.9251	0.0045
510.1232	-0.0053
510.3213	0.0025
510.5193	-0.0022
510.7174	-0.014
510.9154	-0.0148
511.1135	-0.0039
511.3115	-0.0078
511.5095	-0.0064
511.7075	0.0012
511.9055	-0.0033
512.1034	-0.0164
512.3014	0.0028
512.4993	0.0035
512.6972	-0.0021
512.8951	-0.0218
513.093	-0.0017
513.2908	-0.0021
513.4887	-0.0081
513.6865	-0.0135
513.8844	-0.0077
514.0822	-0.0077
514.2799	-0.0157
514.4777	-0.0135
514.6755	-0.0094
514.8732	-0.0007
515.0709	-0.008
515.2687	-0.0071
515.4664	0.0002
515.664	-0.0099
515.8617	-0.0044
516.0594	-0.0089
516.257	0.0047
516.4546	-0.0122
516.6522	-0.0054
516.8498	-0.01
517.0474	0.0031
517.2449	-0.0062
517.4425	-0.0123
517.64	-0.0085
517.8375	0.0015
518.035	-0.0114
518.2325	-0.0126
518.43	-0.0099
518.6274	-0.0087
518.8249	-0.0277
519.0223	0.0013
519.2197	-0.0063
519.4171	-0.0193
519.6145	-0.0021
519.8118	-0.0054
520.0092	-0.0012
520.2065	-0.0094
520.4038	-0.0133
520.6011	-0.004
520.7984	-0.0048
520.9956	-0.0118
521.1929	-0.0134
521.3901	0.0009
521.5874	-0.0005
521.7846	-0.0163
521.9818	-0.0082
522.1789	-0.0136
522.3761	-0.0045
522.5732	-0.0118
522.7704	-0.0045
522.9675	-0.0012
523.1646	-0.0084
523.3617	-0.0021
523.5587	-0.0001
523.7558	0.0004
523.9528	-0.0039
524.1498	-0.0097
524.3468	-0.011
524.5438	-0.0159
524.7408	-0.0114
524.9378	0.0025
525.1347	-0.0056
525.3316	-0.0066
525.5285	-0.0014
525.7254	-0.0014
525.9223	0.0048
526.1192	-0.0042
526.316	-0.0103
526.5129	0.0065
526.7097	-0.0042
526.9065	-0.0037
527.1033	-0.0104
527.3	-0.0063
527.4968	0.003
527.6935	0.0044
527.8903	-0.0077
528.087	-0.0038
528.2837	-0.0061
528.4804	-0.0025
528.677	-0.0074
528.8737	0.0019
529.0703	-0.0063
529.2669	-0.0079
529.4635	-0.0083
529.6601	0.0024
529.8567	-0.005
530.0532	-0.0141
530.2498	-0.0021
530.4463	0.002
530.6428	-0.0053
530.8393	0.003
531.0358	-0.0003
531.2322	-0.0095
531.4287	-0.0045
531.6251	-0.0111
531.8215	0.0003
532.0179	-0.0086
532.2143	0.0058
532.4107	-0.0003
532.607	-0.0148
532.8034	0.0059
532.9997	0.0013
533.196	-0.004
533.3923	-0.0122
533.5886	0.0027
533.7848	-0.0065
533.9811	-0.0031
534.1773	-0.0028
534.3735	0.0084
534.5697	0.0012
534.7659	-0.0051
534.9621	0.0073
535.1582	-0.0118
535.3544	-0.0049
535.5505	-0.0116
535.7466	-0.0008
535.9427	-0.0173
536.1387	-0.0091
536.3348	-0.0104
536.5308	0.0048
536.7269	-0.0127
536.9229	-0.0041
537.1189	-0.0016
537.3148	-0.0105
537.5108	-0.0149
537.7068	-0.0039
537.9027	-0.0061
538.0986	-0.0039
538.2945	-0.01
538.4904	-0.007
538.6863	-0.0023
538.8821	-0.0072
539.078	-0.0054
539.2738	-0.0046
539.4696	-0.0076
539.6654	0.0042
539.8611	0.0077
540.0569	-0.0068
540.2526	-0.0049
540.4484	-0.0028
540.6441	0.0071
540.8398	0.0018
541.0355	-0.0035
541.2311	-0.0027
541.4268	-0.0138
541.6224	0.0073
541.818	-0.0031
542.0136	-0.0058
542.2092	-0.004
542.4048	0.0064
542.6003	0.0014
542.7959	-0.0039
542.9914	-0.0037
543.1869	-0.0005
543.3824	-0.0002
543.5779	-0.006
543.7734	0.0022
543.9688	-0.0105
544.1642	0.0007
544.3596	-0.0004
544.555	-0.0038
544.7504	-0.0077
544.9458	-0.0088
545.1411	0.0026
545.3365	-0.0068
545.5318	-0.0026
545.7271	-0.0041
545.9224	-0.0097
546.1177	0.007
546.3129	0.0051
546.5081	-0.0078
546.7034	-0.0072
546.8986	-0.0027
547.0938	0.0006
547.289	-0.0014
547.4841	0.0023
547.6793	0.0086
547.8744	-0.0044
548.0695	-0.0018
548.2646	-0.0047
548.4597	0.0073
548.6548	-0.0065
548.8498	-0.0016
549.0448	0.0041
549.2399	-0.0114
549.4349	0.0087
549.6298	0.0018
549.8248	-0.001
550.0198	-0.0016
550.2147	0.0013
550.4096	-0.014
550.6045	-0.0038
550.7994	0.0016
550.9943	0.0008
551.1892	-0.0029
551.384	0.0011
551.5788	-0.0043
551.7737	0.0045
551.9685	-0.006
552.1632	-0.0001
552.358	-0.0042
552.5528	-0.0059
552.7475	-0.0022
552.9422	-0.0007
553.1369	-0.0026
553.3316	0.0059
553.5263	-0.0131
553.7209	0.0044
553.9156	-0.0065
554.1102	-0.0011
554.3048	-0.0064
554.4994	0.011
554.694	-0.0063
554.8885	0.0117
555.0831	-0.0025
555.2776	0.0026
555.4721	0.0018
555.6666	0.0013
555.8611	0.0039
556.0555	0.0027
556.25	0.0007
556.4444	-0.005
556.6388	0.0099
556.8332	-0.0007
557.0276	-0.0015
557.222	0.0019
557.4163	0.0022
557.6107	-0.007
557.805	-0.0022
557.9993	-0.003
558.1936	-0.0023
558.3879	-0.0022
558.5821	-0.0033
558.7764	-0.0044
558.9706	-0.0015
559.1648	0.0017
559.359	0.0004
559.5532	-0.0003
559.7473	0.0076
559.9415	0.0032
560.1356	-0.0076
560.3297	-0.0124
560.5238	-0.0009
560.7179	-0.0024
560.9119	-0.0024
561.106	-0.0053
561.3	-0.0105
561.494	0.004
561.688	-0.0055
561.882	-0.0082
562.076	-0.0027
562.2699	0.0067
562.4639	-0.0014
562.6578	-0.0012
562.8517	0.0015
563.0456	-0.0066
563.2395	-0.0001
563.4333	-0.0038
563.6272	0.0068
563.821	-0.0051
564.0148	-0.0077
564.2086	-0.0069
564.4024	-0.0067
564.5961	-0.0016
564.7899	0.0061
564.9836	0.0037
565.1773	0.0065
565.371	0.0049
565.5647	0.0053
565.7584	0.0029
565.952	0.0024
566.1456	-0.0024
566.3393	-0.0004
566.5329	-0.0057
566.7264	0.0002
566.92	-0.0094
567.1136	0.0017
567.3071	-0.0079
567.5006	0.0007
567.6941	0.0014
567.8876	0.0026
568.0811	-0.0003
568.2745	0.0025
568.468	0.0099
568.6614	0.0079
568.8548	0.0058
569.0482	0.0004
569.2416	0.0083
569.4349	-0.0016
569.6283	0.0075
569.8216	-0.0052
570.0149	-0.004
570.2082	0.0061
570.4015	0.006
570.5947	0.0095
570.788	0.0034
570.9812	0.0052
571.1744	0.0029
571.3676	0.0007
571.5608	-0.0033
571.754	0.0055
571.9471	0.0045
572.1402	0.0043
572.3333	0.0022
572.5264	-0
572.7195	0.0015
572.9126	0.0047
573.1057	0.0021
573.2987	-0.0054
573.4917	0.0059
573.6847	-0.0131
573.8777	0.0062
574.0707	-0.0005
574.2636	-0.0014
574.4566	0.0008
574.6495	0.0051
574.8424	-0.0037
575.0353	-0.0048
575.2281	0.009
575.421	0.0016
575.6138	-0.0021
575.8067	-0.0007
575.9995	0.0097
576.1923	0.0079
576.385	0.0062
576.5778	0.0052
576.7706	-0.0029
576.9633	0.002
577.156	0.0048
577.3487	0.0099
577.5414	0.0039
577.734	0.0023
577.9267	0.0036
578.1193	-0.0028
578.3119	0.0005
578.5045	0.0062
578.6971	0.0064
578.8897	0.0086
579.0822	0.0014
579.2747	0.0088
579.4673	-0.0021
579.6598	-0.0005
579.8522	0.002
580.0447	0
580.2372	0.0018
580.4296	-0.0003
580.622	0.0015
580.8144	0.0047
581.0068	0.0013
581.1992	-0.007
581.3915	0.0034
581.5839	-0.0063
581.7762	-0.0028
581.9685	-0.0007
582.1608	0.0015
582.353	-0.0014
582.5453	-0.004
582.7375	0.0018
582.9298	0.0032
583.122	-0.0007
583.3142	0.0026
583.5063	0.0038
583.6985	0.0005
583.8906	0.0069
584.0827	-0.0037
584.2749	0.006
584.4669	0.003
584.659	0.006
584.8511	0.0004
585.0431	-0.0014
585.2352	0.0047
585.4272	0.0039
585.6192	0.008
585.8111	0.0032
586.0031	0.0022
586.195	0.0077
586.387	0.0044
586.5789	0.0008
586.7708	0.0042
586.9627	-0.0062
587.1545	-0.0012
587.3464	0.0007
587.5382	0.0023
587.73	0.0044
587.9218	0.0071
588.1136	0.0056
588.3053	0.0041
588.4971	-0.0045
588.6888	-0.0071
588.8805	-0.0007
589.0722	0.0159
589.2639	0.004
589.4556	0.0035
589.6472	0.0034
589.8389	0.0004
590.0305	-0.0094
590.2221	0.0021
590.4137	-0.0071
590.6052	0.0017
590.7968	0.0047
590.9883	0.0047
591.1798	-0.0004
591.3713	0.0034
591.5628	0.0094
591.7543	0.007
591.9458	0.0021
592.1372	0.0079
592.3286	0.0102
592.52	0.0057
592.7114	-0.0022
592.9028	-0.0061
593.0941	0.0016
593.2855	0.0022
593.4768	0.0035
593.6681	-0.0013
593.8594	-0.0017
594.0506	0.003
594.2419	0.004
594.4331	0.006
594.6244	0.0036
594.8156	-0.0029
595.0067	0.0021
595.1979	0.0011
595.3891	0.0019
595.5802	0.0037
595.7713	-0.0004
595.9624	0.0011
596.1535	0.0022
596.3446	-0.0008
596.5357	-0.0046
596.7267	0.0079
596.9177	0.004
597.1087	-0.0089
597.2997	0.0027
597.4907	0.0044
597.6817	-0.0016
597.8726	0.0053
598.0635	-0.0057
598.2544	-0.0044
598.4453	-0.0077
598.6362	0.0011
598.827	-0.001
599.0179	0.0006
599.2087	0.0037
599.3995	0.0016
599.5903	0.0042
599.7811	0.0043
599.9718	0.0015
600.1626	-0.0004
600.3533	-0.0018
600.544	0.0051
600.7347	0
600.9254	0.0038
601.116	-0.0101
601.3067	0.0019
601.4973	0.0005
601.6879	0.0057
601.8785	-0.0002
602.0691	0.0073
602.2596	0.0092
602.4502	0.0075
602.6407	0.0051
602.8312	-0.0036
603.0217	-0.0047
603.2122	0.003
603.4027	-0.0028
603.5931	0.0001
603.7835	-0.008
603.9739	0.0057
604.1643	-0.0003
604.3547	-0.0015
604.5451	0.0027
604.7354	0.0066
604.9257	0.0051
605.116	0.0025
605.3063	0.0053
605.4966	0.0045
605.6869	0.0037
605.8771	0.0108
606.0673	0.0073
606.2575	0.0029
606.4477	0.0083
606.6379	0.0065
606.8281	0.0016
607.0182	-0.0025
607.2083	0.0039
607.3985	-0.0076
607.5885	0.0005
607.7786	0.0026
607.9687	0.0014
608.1587	0.0081
608.3488	0.0008
608.5388	0.0013
608.7288	-0.0006
608.9187	-0.0011
609.1087	-0.0012
609.2986	-0.0091
609.4886	-0.0024
609.6785	0.0003
609.8684	0.0034
610.0582	0.0012
610.2481	0.0003
610.4379	-0.0026
610.6278	0.0042
610.8176	0.0007
611.0074	-0.0067
611.1971	-0.001
611.3869	-0.0041
611.5766	-0.0006
611.7664	0.0032
611.9561	0.0093
612.1458	-0.0004
612.3354	-0.0012
612.5251	0.0075
612.7147	0.0089
612.9044	0.0073
613.094	0.003
613.2836	0.0047
613.4731	-0.0029
613.6627	-0.0032
613.8522	0.0085
614.0417	0.0029
614.2313	-0.0054
614.4207	-0.0013
614.6102	0.002
614.7997	-0.0017
614.9891	-0.0003
615.1785	0.0021
615.3679	-0.0023
615.5573	0.0071
615.7467	0.0018
615.9361	-0.007
616.1254	0.0029
616.3147	-0.0036
616.504	0.0066
616.6933	0.0076
616.8826	0.0073
617.0718	-0.0009
617.2611	0.0053
617.4503	-0.0033
617.6395	0.0008
617.8287	0.0056
618.0179	0.0012
618.207	0.0125
618.3961	0.0033
618.5853	0.0059
618.7744	0.0048
618.9634	0.0075
619.1525	0.012
619.3416	0.0072
619.5306	0.007
619.7196	0.0053
619.9086	0.0033
620.0976	0.0153
620.2866	0.0077
620.4755	0.0077
620.6645	0.0112
620.8534	0.0086
621.0423	0.005
621.2312	0.0083
621.42	0.005
621.6089	0.0004
621.7977	0.0085
621.9865	-0.0009
622.1753	0.0035
622.3641	-0.0001
622.5529	0.0128
622.7416	0.0065
622.9303	-0.0044
623.1191	0.0163
623.3078	0.0064
623.4964	0.0067
623.6851	-0.0009
623.8737	0.0038
624.0624	0.0044
624.251	-0.0034
624.4396	0.0015
624.6282	-0.0043
624.8167	-0.001
625.0053	0.0021
625.1938	0.0084
625.3823	0.008
625.5708	0.0008
625.7593	0.0012
625.9477	-0.0067
626.1362	-0.0012
626.3246	0.0017
626.513	0.0134
626.7014	0.0022
626.8898	-0.0006
627.0781	0.0072
627.2665	0.0009
627.4548	0.0019
627.6431	0.0083
627.8314	0.0016
628.0197	0.0071
628.2079	-0.0009
628.3962	-0.0008
628.5844	0.0018
628.7726	0.0034
628.9608	0.0069
629.1489	-0.0023
629.3371	0.0077
629.5252	0.0022
629.7134	0.0068
629.9015	0.0049
630.0895	-0.0033
630.2776	0.007
630.4657	0.0018
630.6537	-0.0027
630.8417	0.0017
631.0297	-0.0102
631.2177	-0.0023
631.4057	-0.0022
631.5936	0.004
631.7815	0.0037
631.9695	-0.0007
632.1574	0.013
632.3452	0.0113
632.5331	-0.0013
632.7209	0.0073
632.9088	0.004
633.0966	0.0139
633.2844	0.0002
633.4722	-0.0006
633.6599	0.0063
633.8477	0.0085
634.0354	0.0003
634.2231	0.0027
634.4108	0.0073
634.5985	0.0079
634.7861	0.0093
634.9738	0.0048
635.1614	0.0004
635.349	0.0068
635.5366	-0.0041
635.7242	0.0028
635.9117	0.0065
636.0993	0.0013
636.2868	0.0079
636.4743	-0.0082
636.6618	0.0032
636.8492	0.0021
637.0367	0.0042
637.2241	-0.0014
637.4115	-0.0019
637.5989	0.003
637.7863	-0.0049
637.9737	-0.0005
638.161	0.009
638.3484	0.0023
638.5357	0.0146
638.723	0.0018
638.9103	0.0057
639.0975	0.0115
639.2848	0.0011
639.472	0.0075
639.6592	0.0033
639.8464	0.012
640.0336	0.0044
640.2208	-0.0036
640.4079	-0.0014
640.595	0.0057
640.7821	0.0026
640.9692	0.0065
641.1563	0.0051
641.3434	0.0011
641.5304	0.0064
641.7174	0.0052
641.9044	0.0024
642.0914	0.0065
642.2784	0.005
642.4653	0.0056
642.6523	-0.0045
642.8392	-0.0055
643.0261	0.0058
643.213	0.0033
643.3999	-0.0024
643.5867	-0.0057
643.7735	-0.0021
643.9604	-0.0101
644.1472	-0.0017
644.3339	0.0069
644.5207	-0.0017
644.7075	0.0016
644.8942	0.0048
645.0809	0.0087
645.2676	0.0038
645.4543	0.0005
645.6409	0.0083
645.8276	0.0006
646.0142	0.0041
646.2008	-0
646.3874	-0.0078
646.574	0.0041
646.7605	0.0028
646.9471	-0.0032
647.1336	0.0066
647.3201	0.0004
647.5066	-0.0034
647.6931	-0.0025
647.8795	0.0048
648.0659	0.0061
648.2524	0.0086
648.4388	0.0041
648.6252	0.0029
648.8115	0.0036
648.9979	0.0009
649.1842	0.0009
649.3705	0.0037
649.5568	0.0026
649.7431	0.0073
649.9294	0.0005
650.1156	0.0063
650.3018	0.0015
650.488	0.0049
650.6742	0.0095
650.8604	0.0035
651.0466	-0.0025
651.2327	0.0037
651.4188	0.0092
651.6049	0.0003
651.791	-0.0008
651.9771	0.0118
652.1632	0.0104
652.3492	0.0103
652.5352	0.0122
652.7212	-0.0005
652.9072	0.0085
653.0932	-0.0018
653.2791	-0.0019
653.465	0.0037
653.651	-0.0012
653.8369	-0.0016
654.0227	0.0058
654.2086	0.0098
654.3944	0.0062
654.5803	0.0017
654.7661	0.0056
654.9519	0.0024
655.1377	-0.0017
655.3234	0.003
655.5092	-0.0027
655.6949	-0.0077
655.8806	0.0018
656.0663	0.0014
656.2519	-0.0021
656.4376	0.0038
656.6232	0.0082
656.8088	0.0001
656.9945	-0.0006
657.18	0.0042
657.3656	0.0028
657.5511	-0.0011
657.7367	-0.0053
657.9222	0.0077
658.1077	0.002
658.2932	0.0026
658.4786	-0.0002
658.6641	0.0026
658.8495	0.0046
659.0349	0.0007
659.2203	0.0026
659.4057	0.0066
659.591	0.0049
659.7764	0.0086
659.9617	0.0069
660.147	0.0108
660.3323	0.0082
660.5176	0.0144
660.7028	0.0049
660.888	0.0028
661.0733	0.005
661.2585	0.0008
661.4436	0.0007
661.6288	0.0044
661.8139	0.0014
661.9991	0.0095
662.1842	-0.0035
662.3693	0.0077
662.5544	0.0075
662.7394	0.0013
662.9245	0.005
663.1095	0.0063
663.2945	-0.0016
663.4795	0.0043
663.6644	0.0107
663.8494	0.0147
664.0343	0.0043
664.2193	0.0032
664.4042	0.0052
664.589	0.0022
664.7739	0.0018
664.9587	0.0037
665.1436	0.0075
665.3284	0.0095
665.5132	0.0001
665.698	0.004
665.8827	0.0125
666.0675	0.0077
666.2522	-0.0047
666.4369	0.0114
666.6216	0.0086
666.8063	-0.0006
666.9909	0.0037
667.1756	0.006
667.3602	0.0043
667.5448	0.0017
667.7294	0.0164
667.9139	-0.0025
668.0985	0.015
668.283	0.0006
668.4675	0.0054
668.652	0.0029
668.8365	-0.0007
669.0209	0.0054
669.2054	0.0096
669.3898	0.0043
669.5742	0.0093
669.7586	0.0067
669.943	0.0128
670.1273	0.0126
670.3117	0.0094
670.496	0.0134
670.6803	0.013
670.8646	0.0153
671.0488	0.0106
671.2331	0.0087
671.4173	0.012
671.6015	0.0069
671.7857	0.0055
671.9699	0.0052
672.1541	0.0053
672.3382	0.0081
672.5223	0.0072
672.7064	0.0004
672.8905	0.0163
673.0746	0.0135
673.2587	0.0068
673.4427	0.0128
673.6267	0.0202
673.8107	0.0139
673.9947	0.0057
674.1787	0.0075
674.3626	0.0053
674.5465	0.0108
674.7304	0.0065
674.9143	0.0076
675.0982	0.0046
675.2821	-0.0011
675.4659	0.0054
675.6497	0.0018
675.8335	0.0031
676.0173	-0.0025
676.2011	-0.0058
676.3849	-0.0041
676.5686	-0.0014
676.7523	0.0052
676.936	-0.0025
677.1197	0.0045
677.3034	-0.0006
677.487	0.0078
677.6706	0.0046
677.8542	0.0071
678.0378	0.004
678.2214	0.0028
678.405	-0.0006
678.5885	-0.0133
678.772	-0.0012
678.9555	0.0004
679.139	-0.0023
679.3225	0.0041
679.5059	-0.0042
679.6894	0.0061
679.8728	-0.0043
680.0562	-0.0039
680.2395	-0.0108
680.4229	0.0003
680.6062	0.0024
680.7896	0.0034
680.9729	-0.0078
681.1562	0.0021
681.3394	0.0043
681.5227	-0.0062
681.7059	-0.0026
681.8891	0.0039
682.0723	0.011
682.2555	0.0061
682.4387	0.0065
682.6218	0.0004
682.805	0.0019
682.9881	0.0041
683.1712	-0.0044
683.3542	0.0006
683.5373	0.002
683.7203	-0.0064
683.9034	-0.0035
684.0864	-0.0059
684.2694	-0.0081
684.4523	0.0008
684.6353	-0.0031
684.8182	0.006
685.0011	-0.0036
685.184	-0.0009
685.3669	-0.0009
685.5498	0.0006
685.7326	0.0021
685.9154	0.0017
686.0982	0.0078
686.281	0.0093
686.4638	0.0071
686.6465	-0.0034
686.8293	0.0026
687.012	0.0063
687.1947	-0.0039
687.3774	0.0103
687.56	0.0013
687.7427	0.0065
687.9253	-0.0017
688.1079	0.0008
688.2905	0.0068
688.4731	0.0046
688.6556	0.001
688.8382	-0.0026
689.0207	0.0072
689.2032	-0.0026
689.3857	-0.0024
689.5681	0.0053
689.7506	-0.0013
689.933	-0.0018
690.1154	0.0057
690.2978	-0.001
690.4802	0.0053
690.6626	-0.0016
690.8449	-0.004
691.0272	0.0101
691.2095	0.0013
691.3918	-0.0005
691.5741	-0.0001
691.7563	-0.0045
691.9386	0.0074
692.1208	0.0008
692.303	0.0045
692.4852	-0.0042
692.6673	-0.0013
692.8495	-0.0038
693.0316	0.0015
693.2137	-0.0032
693.3958	0.0094
693.5778	0.0082
693.7599	0.0035
693.9419	0.0042
694.1239	-0.0011
694.3059	-0.0002
694.4879	0.0065
694.6699	0.0087
694.8518	0.0031
695.0337	-0.0001
695.2157	0.0115
695.3975	0.0032
695.5794	0.0082
695.7613	0.0061
695.9431	-0.0016
696.1249	0.0004
696.3067	0.0029
696.4885	0.0041
696.6703	-0.0099
696.852	0.002
697.0337	0.0033
697.2154	0.0063
697.3971	0.0061
697.5788	0.0015
697.7605	-0.0031
697.9421	0.0034
698.1237	0.0032
698.3053	0.0012
698.4869	-0.0017
698.6685	-0.0071
698.85	0.001
699.0315	0.0018
699.213	-0.001
699.3945	-0.0016
699.576	0.0064
699.7575	0.0104
699.9389	0.0058
700.1203	0.0074
700.3017	-0.0093
700.4831	-0.0063
700.6645	-0.0024
700.8458	0.0071
701.0271	-0.0037
701.2084	0.0073
701.3897	0.0005
701.571	-0.0006
701.7523	0.0003
701.9335	0.0056
702.1147	0.0017
702.2959	-0.0008
702.4771	0.0072
702.6583	0.0017
702.8394	-0.0052
703.0205	0.0062
703.2016	-0.0009
703.3827	0.0027
703.5638	0.0062
703.7449	0.001
703.9259	0.0102
704.1069	-0.0096
704.2879	0.0004
704.4689	0.0015
704.6499	-0.0019
704.8308	-0.0002
705.0117	-0.0016
705.1927	0.0016
705.3735	-0.0057
705.5544	-0.004
705.7353	-0.0039
705.9161	-0.0071
706.0969	-0.0006
706.2777	-0.0037
706.4585	-0.0036
706.6393	0.0032
706.82	0.0065
707.0007	0.0081
707.1815	0.0093
707.3621	0.0086
707.5428	0.0116
707.7235	0.0152
707.9041	0.0142
708.0847	0.0054
708.2653	0.0023
708.4459	-0.0068
708.6265	0.0004
708.807	-0.0019
708.9875	-0.0051
709.168	0.0022
709.3485	-0.0044
709.529	-0.0072
709.7095	-0.0061
709.8899	0.0018
710.0703	-0.0087
710.2507	0.0033
710.4311	-0.0023
710.6115	-0.0101
710.7918	-0.0085
710.9721	-0.0035
711.1524	-0.0088
711.3327	-0.0046
711.513	0.0044
711.6932	-0.0031
711.8735	0.0051
712.0537	-0.0012
712.2339	0.0018
712.4141	-0.0046
712.5942	-0.0045
712.7744	-0.0006
712.9545	-0.0083
713.1346	-0.0019
713.3147	-0.0019
713.4947	-0.0012
713.6748	-0.0031
713.8548	-0.0031
714.0348	-0.0007
714.2148	-0.0015
714.3948	-0.0003
714.5748	0.0015
714.7547	-0.0029
714.9346	0.0003
715.1145	-0.0083
715.2944	-0.0118
715.4743	-0.0087
715.6541	-0.0042
715.834	0.0066
716.0138	-0.0021
716.1936	-0.0114
716.3733	-0.0085
716.5531	0.0188
716.7328	-0.0031
716.9126	-0.0034
717.0923	0.0086
717.2719	0.0044
717.4516	0.0067
717.6312	0.0077
717.8109	0.002
717.9905	0.003
718.1701	-0.0005
718.3496	-0.0009
718.5292	0.0109
718.7087	0.0053
718.8882	-0.0027
719.0677	0.0072
719.2472	-0.0004
719.4267	-0.0042
719.6061	0.0036
719.7856	0.0029
719.965	0.014
720.1443	-0.004
720.3237	0.0132
720.5031	0.0094
720.6824	0.0079
720.8617	-0.0022
721.041	-0.0025
721.2203	0.0085
721.3995	0.0017
721.5788	0.0064
721.758	0.0089
721.9372	0.0007
722.1164	0.0069
722.2956	0.0096
722.4747	-0.0004
722.6538	0.0059
722.8329	0.0132
723.012	0.0001
723.1911	0.0011
723.3702	0.0081
723.5492	0.0134
723.7282	-0.0017
723.9072	0.0099
724.0862	-0.0034
724.2652	0.0015
724.4441	-0.0039
724.623	-0.0013
724.8019	0.0054
724.9808	0.0039
725.1597	-0.0114
725.3385	0.0041
725.5174	0.0028
725.6962	-0.0019
725.875	-0.0007
726.0538	0.0034
726.2325	0.0063
726.4112	0.006
726.59	-0.0087
726.7687	-0.0036
726.9474	0.0024
727.126	-0.0072
727.3047	0
727.4833	-0.0066
727.6619	-0.0083
727.8405	-0.0109
728.0191	-0.0019
728.1976	0.0053
728.3762	-0.0057
728.5547	-0.0028
728.7332	-0.0097
728.9116	-0.0025
729.0901	0.0085
729.2686	0.0004
729.447	0.0011
729.6254	0.0026
729.8038	-0.0089
729.9821	-0.0096
730.1605	0.0008
730.3388	-0.0024
730.5171	0.0011
730.6954	-0.0058
730.8737	0.0012
731.0519	0.0098
731.2302	0.0022
731.4084	0.0117
731.5866	0.0075
731.7648	0.0004
731.9429	0.0006
732.1211	-0.002
732.2992	0.0019
732.4773	0.0019
732.6554	0.004
732.8335	0.0025
733.0115	0.0098
733.1896	0.0117
733.3676	-0.0046
733.5456	0.0049
733.7235	0.0044
733.9015	-0.0001
734.0794	0.0021
734.2574	0.0004
734.4353	0.004
734.6131	0.0101
734.791	0.0095
734.9689	0.0074
735.1467	0.0068
735.3245	0.0019
735.5023	0.0051
735.68	-0.0012
735.8578	0.0067
736.0355	-0.0131
736.2132	0.0011
736.3909	0.0005
736.5686	-0.0071
736.7463	0.003
736.9239	-0.0052
737.1015	0.0022
737.2791	0.0074
737.4567	0.0037
737.6343	0.0004
737.8118	0.0045
737.9894	0.008
738.1669	-0.0141
738.3444	-0.0019
738.5218	0.0077
738.6993	-0.003
738.8767	-0.0087
739.0541	0.0016
739.2315	-0.0063
739.4089	-0.0068
739.5863	0.0059
739.7636	-0.006
739.9409	-0.0006
740.1182	0.0113
740.2955	0.0114
740.4728	0.0125
740.65	0.002
740.8272	-0.0023
741.0044	-0.0058
741.1816	0.0075
741.3588	-0.0039
741.5359	-0.0004
741.7131	-0.018
741.8902	0.003
742.0673	-0.0025
742.2444	-0.0072
742.4214	-0.0057
742.5985	-0.0065
742.7755	-0.0008
742.9525	-0.0192
743.1295	0.0041
743.3064	0.0068
743.4834	0.0092
743.6603	0.0056
743.8372	-0.0048
744.0141	-0.0008
744.191	0.0021
744.3678	-0.0075
744.5446	-0.0014
744.7215	0.0048
744.8982	-0.0006
745.075	-0.0068
745.2518	0.0024
745.4285	-0.0008
745.6052	-0.0051
745.7819	-0.0064
745.9586	-0.0097
746.1353	-0.0018
746.3119	-0.0075
746.4885	-0.0069
746.6651	-0.0058
746.8417	-0.0013
747.0183	-0.0039
747.1948	-0.0048
747.3714	-0.0024
747.5479	0.0058
747.7244	-0.0065
747.9008	0.0088
748.0773	-0.0037
748.2537	0.0052
748.4301	-0.0057
748.6065	-0.0062
748.7829	-0.0022
748.9593	-0.0053
749.1356	0.004
749.3119	0.0079
749.4882	-0.011
749.6645	0.0031
749.8408	-0.0026
750.017	0.0023
750.1933	0.0023
750.3695	-0.005
750.5457	0.0023
750.7218	-0.0052
750.898	0.0047
751.0741	0.0037
751.2502	0.001
751.4263	0.001
751.6024	-0.0039
751.7784	-0.0031
751.9545	-0.0065
752.1305	0.0052
752.3065	-0.0088
752.4825	0.011
752.6584	-0.0045
752.8344	0.0015
753.0103	-0.0088
753.1862	0.0002
753.3621	-0.005
753.5379	-0.0007
753.7138	0.0017
753.8896	0.0001
754.0654	0.0034
754.2412	0.0046
754.417	0.0123
754.5927	-0.0023
754.7685	-0.0063
754.9442	0.0002
755.1199	0.012
755.2956	-0.0051
755.4712	0.0054
755.6469	0.0052
755.8225	-0.0009
755.9981	-0.0018
756.1736	0.004
756.3492	-0.0006
756.5248	-0.0018
756.7003	-0.0077
756.8758	0.0042
757.0513	-0.0167
757.2267	-0.0063
757.4022	0.0023
757.5776	-0.0062
757.753	-0.0038
757.9284	0.0011
758.1038	0.0069
758.2791	-0.0003
758.4545	-0.0177
758.6298	-0.0021
758.8051	0.007
758.9803	-0.0053
759.1556	-0.0059
759.3308	-0.0093
759.506	0.0093
759.6812	-0.0046
759.8564	0.0009
760.0316	-0.0051
760.2067	0.0124
760.3819	0.0125
760.557	0.0123
760.732	0.0091
760.9071	-0.0045
761.0821	0.0148
761.2572	0.0135
761.4322	0.0067
761.6072	0.0043
761.7821	-0.0029
761.9571	0.0002
762.132	0.0002
762.3069	-0.0087
762.4818	-0.0076
762.6567	0.003
762.8316	0.0006
763.0064	-0.001
763.1812	-0.0039
763.356	-0.005
763.5308	0
763.7055	0.0102
763.8803	-0.0053
764.055	0.003
764.2297	-0.0059
764.4044	0.0003
764.579	-0.0136
764.7537	-0.0159
764.9283	0.0094
765.1029	-0.0039
765.2775	-0.0007
765.4521	0.0027
765.6266	-0.0004
765.8011	-0.0003
765.9756	-0.0004
766.1501	0.0093
766.3246	0.0027
766.4991	0.0068
766.6735	0.0067
766.8479	-0.0063
767.0223	0.0087
767.1967	0.0092
767.371	0.002
767.5454	-0.007
767.7197	-0.0047
767.894	-0.0023
768.0683	0.0007
768.2425	-0.0032
768.4168	0.0047
768.591	0.0033
768.7652	0.0012
768.9394	0.0111
769.1135	0.0005
769.2877	0.0021
769.4618	0.002
769.6359	0.001
769.81	0.0016
769.984	0.0042
770.1581	-0.0038
770.3321	0.0022
770.5061	-0.0009
770.6801	-0.0072
770.8541	0.0067
771.028	0.0026
771.202	-0.0108
771.3759	0.0077
771.5498	-0.0018
771.7236	0.0024
771.8975	0.0084
772.0713	0.0079
772.2451	-0.0043
772.4189	0.005
772.5927	0.0046
772.7665	0.0055
772.9402	-0.003
773.1139	0.0022
773.2876	-0.0121
773.4613	0.0104
773.635	0.008
773.8086	-0.0037
773.9822	0.0082
774.1558	0.0025
774.3294	-0.019
774.503	0.0062
774.6765	0.0008
774.8501	0.0038
775.0236	0.0245
775.1971	0.0129
775.3705	-0.0015
775.544	0.0153
775.7174	-0.0069
775.8908	0.0064
776.0642	0.0063
776.2376	0.0053
776.4109	0.0107
776.5843	0.0116
776.7576	0.0189
776.9309	0.009
777.1041	0.0223
777.2774	0.0246
777.4506	-0.0029
777.6238	-0.008
777.797	0.0031
777.9702	0.0049
778.1434	0.0029
778.3165	-0.0135
778.4896	-0.0051
778.6627	0.0095
778.8358	-0.0076
779.0089	-0.0013
779.1819	-0.0092
779.3549	0.0034
779.5279	0.003
779.7009	0.0034
779.8739	0.0031
780.0468	0.0082
780.2197	0.0067
780.3926	-0.004
780.5655	-0.0024
780.7384	0.0113
780.9112	0.0064
781.0841	-0.0049
781.2569	0.0032
781.4297	0.0032
781.6024	0.0108
781.7752	0.0092
781.9479	0.0079
782.1206	0.0051
782.2933	-0.0059
782.466	0.0128
782.6386	0.004
782.8113	0.0059
782.9839	0.0168
783.1565	0.0189
783.329	-0.0004
783.5016	0.0148
783.6741	0.0069
783.8466	-0.0027
784.0191	0.0103
784.1916	-0.0049
784.3641	0.0061
784.5365	0.0202
784.7089	0.0125
784.8813	-0.007
785.0537	0.0156
785.2261	0.0118
785.3984	-0.0065
785.5707	0.0058
785.743	0.0014
785.9153	0.0086
786.0876	0.0114
786.2598	-0.0015
786.432	-0.0042
786.6042	0.0063
786.7764	0.0056
786.9486	0.0141
787.1207	-0.0073
787.2928	0.0142
787.4649	0.0016
787.637	0.0045
787.8091	-0.0028
787.9811	0.0091
788.1532	0.0077
788.3252	0.0017
788.4972	0.0006
788.6691	0.0061
788.8411	0.0107
789.013	-0.0103
789.1849	0.0018
789.3568	0.0071
789.5287	0.0055
789.7005	-0.0068
789.8723	0.006
790.0442	0.0074
790.2159	0.0086
790.3877	0.0035
790.5595	-0.0064
790.7312	0.0152
790.9029	0.0002
791.0746	0.0095
791.2463	0.0091
791.4179	0.0037
791.5896	0.0013
791.7612	0.0071
791.9328	0.0045
792.1044	-0.0066
792.2759	-0.0121
792.4474	0.0065
792.619	0.004
792.7905	0.0024
792.9619	-0.0091
793.1334	0.005
793.3048	0.0218
793.4762	0.0103
793.6476	0.0069
793.819	0.0124
793.9904	0.0124
794.1617	-0.0108
794.333	0.0109
794.5043	-0.0082
794.6756	0.0064
794.8469	0.0044
795.0181	-0.001
795.1893	-0.0076
795.3605	0.0249
795.5317	0.0007
795.7029	-0.0051
795.874	0.0125
796.0452	0.0007
796.2163	-0.0093
796.3873	0.0212
796.5584	0.0151
796.7294	0.0016
796.9005	0.0042
797.0715	0.0087
797.2425	-0.0022
797.4134	0.0028
797.5844	0.013
797.7553	-0.0061
797.9262	0.0189
798.0971	-0.0206
798.2679	0.0004
798.4388	-0.0103
798.6096	-0.0053
798.7804	0.0124
798.9512	-0.0015
799.122	-0.0019
799.2927	0.0115
799.4635	0.0106
799.6342	-0.008
799.8049	0.0014
799.9755	-0.0164
800.1462	-0.0015
800.3168	-0.007
800.4874	-0.0076
800.658	0.0023
800.8286	0.0079
800.9991	-0.0027
801.1696	0.0176
801.3402	0.0195
801.5106	-0.0056
801.6811	0.0062
801.8516	0.0386
802.022	0.0146
802.1924	0.0112
802.3628	0.0072
802.5332	0.0033
802.7035	0.0173
802.8739	0.0045
803.0442	-0.0002
803.2145	0.0126
803.3847	-0.0294
803.555	0.0293
803.7252	-0.008
803.8954	-0.0144
804.0656	0.0111
804.2358	0.0009
804.4059	0.0113
804.5761	0.0105
804.7462	0.0114
804.9163	0.0046
805.0864	-0.0185
805.2564	-0.002
805.4264	0.0009
805.5965	-0.0066
805.7665	-0.0015
805.9364	0.0197
806.1064	0.0357
806.2763	0.0015
806.4462	0.0333
806.6161	0.0256
806.786	0.0071
806.9559	-0.0022
807.1257	0.0118
807.2955	0.0098
807.4653	-0.0063
807.6351	0.0075
807.8048	0.0069
807.9746	0.0144
808.1443	0.0202
808.314	0.0187
808.4837	0.0024
808.6533	0.0128
808.8229	0.0247
808.9926	0.0154
809.1622	0.0097
809.3317	-0.0046
809.5013	0.0109
809.6708	0.0187
809.8403	0.0133
810.0098	-0.0161
810.1793	-0.0032
810.3488	0.0061
810.5182	-0.0199
810.6876	-0.0097
810.857	-0.0284
811.0264	0.0323
811.1958	0.0208
811.3651	0.0226
811.5344	0.0051
811.7037	0.0136
811.873	-0.001
812.0422	0.0134
812.2115	0.0112
812.3807	-0.0017
812.5499	0.0336
812.7191	0.0038
812.8882	-0.0078
813.0574	0.0025
813.2265	0.0267
813.3956	0.016
813.5646	0.0172
813.7337	0.0097
813.9027	0.0341
814.0718	0.0405
814.2407	0.0193
814.4097	0.0043
814.5787	-0.002
814.7476	0.006
814.9165	0.0088
815.0854	-0.0055
815.2543	0.0029
815.4232	0.004
815.592	0.0198
815.7608	0.0225
815.9296	0.0116
816.0984	0.0128
816.2671	0.0051
816.4359	0.016
816.6046	0.0248
816.7733	0.0056
816.942	-0.0166
817.1106	-0.0038
817.2793	0.0092
817.4479	0.0172
817.6165	0.0195
817.785	0.0214
817.9536	0.006
818.1221	-0.0041
818.2906	0.0237
818.4591	-0.0096
818.6276	-0.009
818.7961	0.0152
818.9645	-0.0006
819.1329	0.016
819.3013	0.0335
819.4697	0.0321
819.638	0.008
819.8064	0.0018
819.9747	0.0113
820.143	0.0066
820.3113	-0.0118
820.4795	0.0186
820.6477	0.0252
820.816	-0.0017
820.9842	0.0088
821.1523	0.0051
821.3205	0.0029
821.4886	0.0059
821.6567	-0.0021
821.8248	0.025
821.9929	0.0409
822.1609	0.0205
822.329	0.0262
822.497	0.0291
822.665	0.0052
822.833	-0.0003
823.0009	0.0228
823.1688	0.0288
823.3367	0.0372
823.5046	0.0217
823.6725	0.0305
823.8404	0.0024
824.0082	0.0156
824.176	0.0157
824.3438	0.0297
824.5116	-0.0029
824.6793	0.0329
824.847	0.0256
825.0147	0.0175
825.1824	0.0233
825.3501	0.0207
825.5177	0.0187
825.6854	-0.0059
825.853	0.0232
826.0206	-0.0101
826.1881	0.0203
826.3557	-0.0088
826.5232	0.0005
826.6907	-0.0337
826.8582	0.0157
827.0257	0.0052
827.1931	0.0115
827.3605	-0.0031
827.528	-0.0235
827.6953	-0.0049
827.8627	0.0211
828.03	0.0552
828.1974	0.0091
828.3647	-0.0303
828.532	-0.0004
828.6992	-0.0097
828.8665	-0.0172
829.0337	-0.0099
829.2009	0.0011
829.3681	0.0052
829.5352	0.0383
829.7024	0.0022
829.8695	-0.0169
830.0366	0.0346
830.2037	0.0001
830.3707	0.0366
830.5378	-0.0031
830.7048	0.0128
830.8718	0.0156
831.0388	0.0024
831.2057	0.0022
831.3727	0.0308
831.5396	0.0128
831.7065	-0.0212
831.8734	0.0217
832.0402	-0.0429
832.2071	0.0156
832.3739	-0.0267
832.5407	0.0278
832.7075	-0.0073
832.8742	0.0234
833.041	-0.0039
833.2077	0.0207
833.3744	0.0697
833.541	-0.0059
833.7077	0.007
833.8743	-0.0197
834.0409	0.0144
834.2075	0.0256
834.3741	-0.0011
834.5407	0.0052
834.7072	0.0059
834.8737	0.0068
835.0402	-0.0183
835.2067	0.0331
835.3731	0.0156
835.5395	0.0313
835.706	0.0316
835.8723	0.0147
836.0387	0.0015
836.2051	-0.0109
836.3714	0.0387
836.5377	0.0198
836.704	-0.0208
836.8703	0.0305
837.0365	0.0068
837.2027	-0.0355
837.3689	0.0055
837.5351	-0.0139
837.7013	0.0122
837.8674	-0.0818
838.0335	0.0019
838.1997	0.0339
838.3657	-0.0077
838.5318	-0.0078
838.6978	0.023
838.8639	0.0175
839.0299	0.0213
839.1958	-0.0183
839.3618	0.0044
839.5277	0.0019
839.6937	-0.0048
839.8596	-0.0088
840.0254	0.0409
840.1913	0.0408
840.3571	0.0045
840.523	0.0032
840.6888	-0.011
840.8545	-0.0278
841.0203	-0.0102
841.186	0.0221
841.3517	0.0203
841.5174	0.0028
841.6831	0.0116
841.8488	0.029
842.0144	0.0141
842.18	0.0238
842.3456	-0.011
842.5112	0.0178
842.6767	-0.0446
842.8422	-0.0328
843.0077	-0.0287
843.1732	-0.0409
843.3387	0.0247
843.5042	-0.0546
843.6696	0.025
843.835	-0.0084
844.0004	0.0539
844.1657	0.0134
844.3311	-0.1231
844.4964	-0.0766
844.6617	-0.0173
844.827	-0.0543
844.9923	0.0059
845.1575	0.0479
845.3227	0.0072
845.4879	-0.0175
845.6531	-0.0038
845.8183	-0.0669
845.9834	0.0394
846.1485	-0.0009
846.3136	-0.016
846.4787	-0.0195
846.6438	0.1004
846.8088	-0.0151
846.9738	-0.0306
847.1388	-0.0081
847.3038	0.022
847.4687	-0.1393
847.6337	0.0339
847.7986	-0.0129
847.9635	0.0387
848.1284	-0.0092
848.2932	0.0563
848.458	-0.0014
848.6228	0.0596
848.7876	0.1247
848.9524	-0.0248
849.1172	-0.1367
849.2819	0.0381
849.4466	-0.1117
849.6113	-0.0584
849.7759	0.0064
849.9406	-0.0766
850.1052	0.008
850.2698	0.0099
850.4344	0.0503
850.599	-0.1054
850.7635	0.0463
850.928	-0.0452
851.0925	-0.0418
851.257	0.0221
851.4215	0.0299
851.5859	0.0466
851.7503	0.0682
851.9147	-0.042
852.0791	-0.0206
852.2434	-0.0072
852.4078	0.0276
852.5721	0.0916
852.7364	-0.0176
852.9007	-0.1804
853.0649	-0.0075
853.2291	0.0826
853.3934	0.0985
853.5575	0.0211
853.7217	-0.0613
853.8859	-0.0496
854.05	-0.0589
854.2141	0.0356
854.3782	-0.1049
854.5423	-0.0579
854.7063	0.1699
854.8703	0.032
855.0343	-0.0386
855.1983	-0.1826
855.3623	0.1487
855.5262	-0.0023
855.6901	-0.0836
855.854	0.0215
856.0179	0.0471
856.1818	0.0401
856.3456	-0.0128
856.5094	-0.1036
856.6732	-0.0944
856.837	-0.0731
857.0008	0.0327
857.1645	-0.0144
857.3282	-0.0153
857.4919	0.0269
857.6556	-0.0347
857.8192	-0.0372
857.9828	0.1984
858.1465	0.0289
858.31	-0.1628
858.4736	0.0308
858.6372	-0.264
858.8007	-0.1819
858.9642	-0.0427
859.1277	-0.0163
859.2911	0.0149
859.4546	-0.0136
859.618	-0.1981
859.7814	-0.0256
859.9448	0.0922
860.1081	-0.0395
860.2715	0.0853
860.4348	0.1965
860.5981	-0.0885
860.7614	0.2685
860.9246	-0.1748
861.0879	0.0184
861.2511	0.0853
861.4143	0.1232
861.5774	0.0571
861.7406	-0.0943
861.9037	-0.1606
862.0668	-0.1305
862.2299	0.0634
862.393	-0.5102
862.556	-0.0931
862.7191	-0.498
862.8821	-0.0915
863.0451	-0.0099
863.208	0.1369
863.371	-0.0419
863.5339	0.8827
863.6968	0.16
863.8597	-0.3159
864.0225	-0.161
864.1854	-0.2311
864.3482	-0.0545
864.511	0.211
864.6737	0.0282
864.8365	0.0323
864.9992	-0
865.1619	-0.5057
865.3246	0.3656
865.4873	0.389
865.65	-0.3061
865.8126	0.1082
865.9752	0.0119
866.1378	-0.0949
866.3004	-0
866.4629	0.1947
866.6254	0.165
866.7879	-0.1514
866.9504	0.3896
867.1129	-0
867.2753	0.3164
867.4377	0.3923
867.6001	-0.0131
867.7625	0.0154
867.9249	-0
868.0872	-0.1804
868.2495	-0.005
868.4118	-0.3427
868.5741	-0.663
868.7363	0.0177
868.8986	0.2593
869.0608	-0.1004
869.223	0.3493
869.3851	-0
869.5473	-0
869.7094	0.1224
869.8715	-0
870.0336	-0.3259
870.1957	-0
870.3577	-1.059
870.5197	0.3025
870.6817	-0.2976
870.8437	-0.0945
871.0057	-0.5563
871.1676	-0.072
871.3295	-0.3089
871.4914	-0
871.6533	-0.4287
871.8151	13.8622
871.977	-0
872.1388	1.5029
872.3006	0.0292
872.4623	-0
872.6241	-0
872.7858	-0
872.9475	-0.4705
873.1092	0.0023
873.2709	0.1065
873.4325	0.9441
873.5941	-0.5084
873.7557	-0.1534
873.9173	-0
874.0789	-0
874.2404	-0
874.4019	0.2605
874.5634	1.0565
874.7249	-0.2014
874.8863	0.3625
875.0478	-0
875.2092	-0
875.3706	1.3441
875.5319	-0.2868
875.6933	-0.3657
875.8546	-0.0792
876.0159	-0.3047
876.1772	1.1589
876.3385	-0
876.4997	-0.0398
876.6609	-0.5646
876.8221	-0
876.9833	-0
877.1445	-0
877.3056	0.3592
877.4667	-0.2277
877.6278	-0
877.7889	-0.7368
877.9499	0.1513
878.111	13.3668
878.272	-0.4357
878.433	-0
878.5939	-0
878.7549	-0.4148
878.9158	-0.8183
879.0767	1.1737
879.2376	-0
879.3984	-0.0893
879.5593	-0
879.7201	0.0812
879.8809	-0.315
880.0417	0.0669
880.2024	0.0837
880.3632	-0
880.5239	0.1587
880.6846	0.1719
880.8452	-2.0569
881.0059	-1.1931
881.1665	0.0491
881.3271	-0
881.4877	-0.4699
881.6483	0.5174
881.8088	-0.2307
881.9693	-0
882.1298	-0
882.2903	-0
