Data from MonoPyChalIsomerACN10uM360nmA_Absorbance_13-57-25-904.txt Node
Date: Fri Jul 05 13:57:25 BST 2024
User: LASERRRRR
Spectrometer: FLMT03099
Trigger mode: 0
Integration Time (sec): 1.000000E-1
Scans to average: 1
Electric dark correction enabled: true
Nonlinearity correction enabled: false
Boxcar width: 0
XAxis mode: Wavelengths
Number of Pixels in Spectrum: 3648
>>>>>Begin Spectral Data<<<<<
179.3399	-0.3456
179.5586	-0.3456
179.7771	-0.3456
179.9957	0.8463
180.2143	-0
180.4329	-0.1644
180.6514	-0
180.8699	-0
181.0885	0.2134
181.307	0.2166
181.5255	0.2576
181.744	-0
181.9625	-0
182.181	-0
182.3994	0.3411
182.6179	0.6877
182.8363	0.202
183.0547	-0.3787
183.2732	-0.0063
183.4916	0.1126
183.71	0.1178
183.9284	0.2317
184.1467	-0.1481
184.3651	-0.0167
184.5835	-0.1024
184.8018	0.0382
185.0201	0.017
185.2385	0.0509
185.4568	0.0067
185.6751	0.1706
185.8934	0.151
186.1117	-0.0895
186.3299	0.1429
186.5482	0.1899
186.7664	-0.0806
186.9847	0.0607
187.2029	-0.0844
187.4211	0.0412
187.6393	0.0712
187.8575	-0.2029
188.0757	0.1733
188.2939	0.0935
188.512	0.1455
188.7302	-0.0034
188.9483	0.2234
189.1665	0.0818
189.3846	-0.0973
189.6027	0.1528
189.8208	0.0782
190.0389	0.1494
190.257	0.1883
190.475	0.101
190.6931	0.1795
190.9111	0.2859
191.1292	0.0385
191.3472	0.4521
191.5652	0.3004
191.7832	0.3081
192.0012	0.4945
192.2192	0.2987
192.4371	0.3467
192.6551	0.3843
192.873	0.3065
193.091	0.256
193.3089	0.5939
193.5268	0.3782
193.7447	0.5517
193.9626	0.4859
194.1805	0.734
194.3984	0.791
194.6162	0.5857
194.8341	0.5696
195.0519	0.4917
195.2697	0.9548
195.4875	0.6046
195.7054	0.6184
195.9231	0.5793
196.1409	0.7866
196.3587	0.5446
196.5765	0.6571
196.7942	0.6875
197.012	0.6364
197.2297	0.5964
197.4474	0.7348
197.6651	0.5121
197.8828	0.5857
198.1005	0.6132
198.3182	0.6484
198.5358	0.7633
198.7535	0.5677
198.9711	0.536
199.1888	0.6272
199.4064	0.8643
199.624	0.6055
199.8416	0.5916
200.0592	0.5886
200.2767	0.5503
200.4943	0.719
200.7119	0.6445
200.9294	0.6705
201.1469	0.6059
201.3645	0.5064
201.582	0.5747
201.7995	0.6414
202.017	0.6967
202.2344	0.5891
202.4519	0.5731
202.6694	0.6423
202.8868	0.6357
203.1042	0.754
203.3217	0.5822
203.5391	0.7758
203.7565	0.5249
203.9739	0.5834
204.1913	0.6069
204.4086	0.7077
204.626	0.669
204.8433	0.5863
205.0607	0.7404
205.278	0.6396
205.4953	0.6103
205.7126	0.6973
205.9299	0.7322
206.1472	0.7797
206.3644	0.6413
206.5817	0.615
206.7989	0.7552
207.0162	0.5389
207.2334	0.6658
207.4506	0.7274
207.6678	0.6006
207.885	0.686
208.1022	0.7292
208.3194	0.5944
208.5365	0.5627
208.7537	0.7048
208.9708	0.5716
209.1879	0.6239
209.405	0.6282
209.6222	0.7428
209.8392	0.6145
210.0563	0.6296
210.2734	0.5792
210.4905	0.5857
210.7075	0.576
210.9245	0.5534
211.1416	0.6768
211.3586	0.6075
211.5756	0.6236
211.7926	0.5897
212.0096	0.6167
212.2265	0.5393
212.4435	0.5511
212.6604	0.5522
212.8774	0.6047
213.0943	0.5872
213.3112	0.5388
213.5281	0.4987
213.745	0.5259
213.9619	0.4892
214.1788	0.479
214.3956	0.4612
214.6125	0.4766
214.8293	0.463
215.0461	0.4872
215.2629	0.4477
215.4798	0.463
215.6965	0.455
215.9133	0.4479
216.1301	0.4117
216.3469	0.4533
216.5636	0.3985
216.7803	0.3992
216.9971	0.4164
217.2138	0.3722
217.4305	0.3955
217.6472	0.3599
217.8639	0.3799
218.0805	0.362
218.2972	0.3423
218.5138	0.3121
218.7305	0.3209
218.9471	0.3163
219.1637	0.2955
219.3803	0.2839
219.5969	0.2934
219.8135	0.2577
220.0301	0.2996
220.2466	0.259
220.4632	0.2903
220.6797	0.2365
220.8962	0.2242
221.1127	0.257
221.3292	0.2687
221.5457	0.242
221.7622	0.2497
221.9787	0.2499
222.1951	0.2283
222.4116	0.2643
222.628	0.2377
222.8444	0.2447
223.0608	0.2652
223.2772	0.2579
223.4936	0.262
223.71	0.25
223.9264	0.2732
224.1427	0.2567
224.3591	0.2534
224.5754	0.2818
224.7917	0.2747
225.008	0.2653
225.2243	0.2534
225.4406	0.2914
225.6569	0.2597
225.8732	0.2564
226.0894	0.269
226.3057	0.2788
226.5219	0.2909
226.7381	0.2604
226.9543	0.2947
227.1705	0.3051
227.3867	0.299
227.6029	0.3034
227.8191	0.3146
228.0352	0.2941
228.2513	0.3121
228.4675	0.3379
228.6836	0.3226
228.8997	0.2939
229.1158	0.3435
229.3319	0.3249
229.548	0.3275
229.764	0.3234
229.9801	0.3328
230.1961	0.3327
230.4121	0.3418
230.6282	0.3345
230.8442	0.3096
231.0602	0.3567
231.2761	0.3521
231.4921	0.3507
231.7081	0.3544
231.924	0.3467
232.14	0.3729
232.3559	0.3383
232.5718	0.3954
232.7877	0.3526
233.0036	0.3497
233.2195	0.3619
233.4353	0.3486
233.6512	0.3859
233.867	0.3728
234.0829	0.3672
234.2987	0.3781
234.5145	0.3796
234.7303	0.3689
234.9461	0.3874
235.1619	0.383
235.3776	0.3984
235.5934	0.3904
235.8091	0.3701
236.0249	0.3964
236.2406	0.3838
236.4563	0.3778
236.672	0.4134
236.8877	0.3996
237.1034	0.3876
237.319	0.4116
237.5347	0.4082
237.7503	0.4098
237.966	0.4311
238.1816	0.4199
238.3972	0.3983
238.6128	0.399
238.8284	0.4141
239.0439	0.4091
239.2595	0.3984
239.475	0.423
239.6906	0.4184
239.9061	0.3953
240.1216	0.4014
240.3371	0.4078
240.5526	0.3928
240.7681	0.419
240.9836	0.3852
241.199	0.3971
241.4145	0.3924
241.6299	0.3894
241.8453	0.3806
242.0607	0.38
242.2761	0.3537
242.4915	0.3621
242.7069	0.3824
242.9223	0.3298
243.1376	0.3458
243.353	0.3452
243.5683	0.3456
243.7836	0.3294
243.9989	0.321
244.2142	0.3202
244.4295	0.3102
244.6448	0.3167
244.86	0.3067
245.0753	0.2866
245.2905	0.2942
245.5057	0.2701
245.721	0.2641
245.9362	0.2664
246.1514	0.2742
246.3665	0.2532
246.5817	0.2505
246.7969	0.2609
247.012	0.2429
247.2271	0.238
247.4423	0.2451
247.6574	0.2428
247.8725	0.2282
248.0876	0.2285
248.3026	0.2249
248.5177	0.2177
248.7328	0.2066
248.9478	0.2104
249.1628	0.2163
249.3779	0.2178
249.5929	0.1973
249.8079	0.2254
250.0228	0.2138
250.2378	0.1902
250.4528	0.1933
250.6677	0.186
250.8827	0.193
251.0976	0.1887
251.3125	0.2009
251.5274	0.1744
251.7423	0.1917
251.9572	0.1839
252.172	0.1782
252.3869	0.1798
252.6017	0.1833
252.8166	0.1748
253.0314	0.1602
253.2462	0.1626
253.461	0.1829
253.6758	0.1656
253.8906	0.1837
254.1053	0.1722
254.3201	0.1668
254.5348	0.1723
254.7496	0.1766
254.9643	0.1717
255.179	0.1632
255.3937	0.179
255.6083	0.1762
255.823	0.1655
256.0377	0.1631
256.2523	0.1799
256.467	0.1541
256.6816	0.1846
256.8962	0.1658
257.1108	0.1532
257.3254	0.1758
257.54	0.1664
257.7545	0.1628
257.9691	0.1543
258.1836	0.1649
258.3981	0.17
258.6127	0.1757
258.8272	0.1613
259.0417	0.1603
259.2561	0.1692
259.4706	0.1733
259.6851	0.1642
259.8995	0.1663
260.114	0.1607
260.3284	0.1702
260.5428	0.1582
260.7572	0.1747
260.9716	0.1841
261.186	0.1591
261.4003	0.1622
261.6147	0.1613
261.829	0.1569
262.0433	0.1625
262.2577	0.1638
262.472	0.1598
262.6863	0.1531
262.9005	0.1577
263.1148	0.1538
263.3291	0.1481
263.5433	0.1659
263.7576	0.1513
263.9718	0.1609
264.186	0.1558
264.4002	0.1573
264.6144	0.1563
264.8286	0.1748
265.0427	0.1498
265.2569	0.1639
265.471	0.157
265.6851	0.1529
265.8993	0.1542
266.1134	0.1555
266.3275	0.1648
266.5415	0.1539
266.7556	0.166
266.9697	0.1481
267.1837	0.1584
267.3978	0.1571
267.6118	0.1773
267.8258	0.1653
268.0398	0.1596
268.2538	0.1817
268.4677	0.1558
268.6817	0.1703
268.8957	0.1615
269.1096	0.1514
269.3235	0.1664
269.5374	0.1523
269.7514	0.1542
269.9652	0.157
270.1791	0.1441
270.393	0.1456
270.6068	0.1479
270.8207	0.1419
271.0345	0.1381
271.2483	0.1511
271.4622	0.1413
271.676	0.1453
271.8897	0.13
272.1035	0.1479
272.3173	0.1366
272.531	0.1447
272.7448	0.1452
272.9585	0.1385
273.1722	0.1462
273.3859	0.1486
273.5996	0.138
273.8133	0.1489
274.0269	0.1389
274.2406	0.1493
274.4542	0.1336
274.6679	0.1289
274.8815	0.1373
275.0951	0.1404
275.3087	0.1421
275.5223	0.1544
275.7358	0.1411
275.9494	0.1537
276.1629	0.1342
276.3765	0.1415
276.59	0.1369
276.8035	0.1425
277.017	0.1459
277.2305	0.1407
277.444	0.1443
277.6574	0.136
277.8709	0.157
278.0843	0.133
278.2978	0.1486
278.5112	0.1398
278.7246	0.1492
278.938	0.1464
279.1513	0.1531
279.3647	0.1551
279.5781	0.1449
279.7914	0.1516
280.0047	0.1513
280.2181	0.1504
280.4314	0.1485
280.6447	0.1538
280.8579	0.1437
281.0712	0.1584
281.2845	0.1586
281.4977	0.1565
281.711	0.1426
281.9242	0.1405
282.1374	0.1642
282.3506	0.1641
282.5638	0.1628
282.7769	0.1558
282.9901	0.1505
283.2033	0.1583
283.4164	0.1616
283.6295	0.1476
283.8426	0.1466
284.0557	0.165
284.2688	0.1588
284.4819	0.1594
284.695	0.1615
284.908	0.1609
285.1211	0.161
285.3341	0.1525
285.5471	0.169
285.7601	0.1588
285.9731	0.149
286.1861	0.1534
286.3991	0.1718
286.612	0.1621
286.825	0.1579
287.0379	0.1657
287.2508	0.1564
287.4637	0.1759
287.6766	0.1611
287.8895	0.1739
288.1024	0.1906
288.3152	0.1541
288.5281	0.1687
288.7409	0.1633
288.9538	0.1597
289.1666	0.1602
289.3794	0.1638
289.5922	0.1702
289.8049	0.1579
290.0177	0.1594
290.2304	0.1694
290.4432	0.1663
290.6559	0.1592
290.8686	0.1724
291.0813	0.1608
291.294	0.1659
291.5067	0.1853
291.7194	0.1616
291.932	0.1823
292.1447	0.1627
292.3573	0.1629
292.5699	0.1694
292.7825	0.1706
292.9951	0.1705
293.2077	0.1676
293.4203	0.1713
293.6328	0.1525
293.8454	0.1732
294.0579	0.1641
294.2704	0.1587
294.4829	0.1573
294.6954	0.1715
294.9079	0.1659
295.1204	0.1694
295.3328	0.1681
295.5453	0.1702
295.7577	0.1709
295.9701	0.1603
296.1825	0.1616
296.3949	0.1634
296.6073	0.1642
296.8197	0.169
297.0321	0.164
297.2444	0.1555
297.4567	0.1641
297.6691	0.1621
297.8814	0.1577
298.0937	0.1656
298.306	0.1812
298.5182	0.1646
298.7305	0.1775
298.9428	0.1573
299.155	0.1683
299.3672	0.1558
299.5794	0.1639
299.7916	0.1614
300.0038	0.1671
300.216	0.1859
300.4282	0.1704
300.6403	0.1632
300.8525	0.169
301.0646	0.1563
301.2767	0.17
301.4888	0.1741
301.7009	0.1716
301.913	0.1688
302.125	0.1767
302.3371	0.1645
302.5491	0.1646
302.7612	0.1701
302.9732	0.1675
303.1852	0.1688
303.3972	0.1526
303.6092	0.161
303.8211	0.1555
304.0331	0.1466
304.245	0.1589
304.457	0.1534
304.6689	0.1505
304.8808	0.1551
305.0927	0.1478
305.3046	0.1586
305.5164	0.1604
305.7283	0.1458
305.9401	0.158
306.152	0.1471
306.3638	0.158
306.5756	0.1428
306.7874	0.1523
306.9992	0.1459
307.2109	0.1484
307.4227	0.132
307.6344	0.1371
307.8462	0.13
308.0579	0.1452
308.2696	0.1383
308.4813	0.1293
308.693	0.1292
308.9046	0.1385
309.1163	0.1298
309.328	0.134
309.5396	0.1252
309.7512	0.1165
309.9628	0.1222
310.1744	0.126
310.386	0.12
310.5976	0.1199
310.8091	0.1172
311.0207	0.1139
311.2322	0.1289
311.4437	0.1121
311.6552	0.107
311.8667	0.114
312.0782	0.0922
312.2897	0.1075
312.5012	0.1072
312.7126	0.106
312.924	0.109
313.1355	0.1103
313.3469	0.0922
313.5583	0.1026
313.7696	0.1005
313.981	0.1121
314.1924	0.1064
314.4037	0.1069
314.6151	0.1229
314.8264	0.0896
315.0377	0.1066
315.249	0.098
315.4603	0.1173
315.6716	0.1033
315.8828	0.0959
316.0941	0.0936
316.3053	0.0982
316.5165	0.0965
316.7277	0.0937
316.9389	0.0986
317.1501	0.0966
317.3613	0.1073
317.5724	0.0793
317.7836	0.0933
317.9947	0.0936
318.2058	0.0967
318.417	0.0833
318.6281	0.08
318.8391	0.0914
319.0502	0.083
319.2613	0.093
319.4723	0.1045
319.6834	0.0997
319.8944	0.0945
320.1054	0.1038
320.3164	0.103
320.5274	0.0938
320.7383	0.0929
320.9493	0.1017
321.1602	0.1105
321.3712	0.0812
321.5821	0.1092
321.793	0.1054
322.0039	0.1048
322.2148	0.0908
322.4257	0.0947
322.6365	0.1005
322.8474	0.0976
323.0582	0.0989
323.269	0.1
323.4798	0.1008
323.6906	0.1002
323.9014	0.1068
324.1122	0.0957
324.3229	0.0861
324.5337	0.0999
324.7444	0.0922
324.9551	0.1138
325.1658	0.1038
325.3765	0.0987
325.5872	0.0978
325.7979	0.1013
326.0085	0.0983
326.2192	0.0989
326.4298	0.1058
326.6404	0.0897
326.851	0.1062
327.0616	0.0935
327.2722	0.1135
327.4828	0.1044
327.6933	0.1033
327.9039	0.1088
328.1144	0.1054
328.3249	0.099
328.5354	0.0944
328.7459	0.1013
328.9564	0.0932
329.1669	0.099
329.3773	0.1106
329.5878	0.1013
329.7982	0.1051
330.0086	0.0982
330.219	0.1094
330.4294	0.0997
330.6398	0.0978
330.8502	0.1047
331.0605	0.1002
331.2708	0.1116
331.4812	0.102
331.6915	0.1017
331.9018	0.1124
332.1121	0.1086
332.3224	0.116
332.5326	0.1091
332.7429	0.1044
332.9531	0.1043
333.1633	0.101
333.3735	0.099
333.5837	0.1046
333.7939	0.0984
334.0041	0.1108
334.2143	0.1106
334.4244	0.1057
334.6346	0.097
334.8447	0.1193
335.0548	0.1038
335.2649	0.0898
335.475	0.118
335.685	0.1026
335.8951	0.1191
336.1051	0.1098
336.3152	0.1214
336.5252	0.1072
336.7352	0.107
336.9452	0.1096
337.1552	0.1091
337.3652	0.102
337.5751	0.1009
337.7851	0.1126
337.995	0.1037
338.2049	0.1083
338.4148	0.097
338.6247	0.1182
338.8346	0.0983
339.0445	0.0939
339.2543	0.1167
339.4642	0.1143
339.674	0.0947
339.8838	0.1071
340.0936	0.107
340.3034	0.1216
340.5132	0.122
340.7229	0.1162
340.9327	0.1137
341.1424	0.1147
341.3522	0.1274
341.5619	0.1253
341.7716	0.1159
341.9813	0.1185
342.1909	0.1154
342.4006	0.1256
342.6102	0.1294
342.8199	0.1158
343.0295	0.1321
343.2391	0.1297
343.4487	0.1181
343.6583	0.1167
343.8679	0.12
344.0774	0.1274
344.287	0.1294
344.4965	0.1187
344.706	0.1302
344.9155	0.1149
345.125	0.1273
345.3345	0.1274
345.544	0.1262
345.7534	0.1235
345.9629	0.1192
346.1723	0.1231
346.3817	0.1168
346.5911	0.1252
346.8005	0.1183
347.0099	0.1315
347.2193	0.1382
347.4286	0.1353
347.638	0.1359
347.8473	0.1392
348.0566	0.1295
348.2659	0.1416
348.4752	0.1319
348.6845	0.1282
348.8937	0.1355
349.103	0.144
349.3122	0.1228
349.5214	0.1356
349.7306	0.1433
349.9398	0.1345
350.149	0.1352
350.3582	0.1346
350.5674	0.1505
350.7765	0.132
350.9856	0.1425
351.1948	0.1438
351.4039	0.1381
351.613	0.1236
351.822	0.1403
352.0311	0.1492
352.2402	0.1486
352.4492	0.1397
352.6582	0.1482
352.8672	0.1447
353.0762	0.1552
353.2852	0.1378
353.4942	0.13
353.7032	0.1493
353.9121	0.1472
354.1211	0.1448
354.33	0.1484
354.5389	0.149
354.7478	0.147
354.9567	0.1549
355.1655	0.14
355.3744	0.1472
355.5833	0.1681
355.7921	0.1684
356.0009	0.1575
356.2097	0.1829
356.4185	0.1617
356.6273	0.1578
356.8361	0.1579
357.0448	0.1425
357.2536	0.1523
357.4623	0.1569
357.671	0.1649
357.8797	0.1597
358.0884	0.1695
358.2971	0.1635
358.5057	0.1763
358.7144	0.1693
358.923	0.1737
359.1316	0.1618
359.3402	0.1621
359.5488	0.1594
359.7574	0.1573
359.966	0.171
360.1746	0.1746
360.3831	0.1731
360.5916	0.1638
360.8002	0.1535
361.0087	0.1845
361.2172	0.1661
361.4256	0.1723
361.6341	0.185
361.8426	0.1709
362.051	0.1775
362.2594	0.189
362.4678	0.1784
362.6762	0.2123
362.8846	0.1703
363.093	0.1821
363.3014	0.1821
363.5097	0.1717
363.718	0.1826
363.9264	0.1831
364.1347	0.1931
364.343	0.191
364.5513	0.196
364.7595	0.2
364.9678	0.1993
365.176	0.1872
365.3842	0.2025
365.5925	0.1906
365.8007	0.1973
366.0089	0.2088
366.217	0.1868
366.4252	0.2093
366.6333	0.2107
366.8415	0.2031
367.0496	0.203
367.2577	0.21
367.4658	0.2206
367.6739	0.2132
367.882	0.2165
368.09	0.2011
368.2981	0.2165
368.5061	0.1991
368.7141	0.2136
368.9221	0.2312
369.1301	0.2239
369.3381	0.1998
369.5461	0.2144
369.754	0.2117
369.962	0.2254
370.1699	0.2164
370.3778	0.2226
370.5857	0.1999
370.7936	0.231
371.0015	0.2157
371.2093	0.2321
371.4172	0.2289
371.625	0.1967
371.8328	0.2303
372.0406	0.2127
372.2484	0.2277
372.4562	0.2237
372.664	0.2129
372.8717	0.2277
373.0795	0.201
373.2872	0.2128
373.4949	0.2161
373.7026	0.2252
373.9103	0.2358
374.118	0.2277
374.3256	0.2248
374.5333	0.2374
374.7409	0.2315
374.9485	0.2422
375.1561	0.2289
375.3637	0.2354
375.5713	0.2287
375.7789	0.2356
375.9864	0.2393
376.194	0.2219
376.4015	0.2548
376.609	0.2456
376.8165	0.2402
377.024	0.2365
377.2315	0.2412
377.4389	0.2571
377.6464	0.2451
377.8538	0.2315
378.0612	0.245
378.2686	0.2501
378.476	0.2623
378.6834	0.2502
378.8908	0.2436
379.0981	0.2399
379.3055	0.2567
379.5128	0.2428
379.7201	0.254
379.9274	0.23
380.1347	0.2602
380.342	0.2609
380.5492	0.2528
380.7565	0.2654
380.9637	0.2711
381.1709	0.2488
381.3781	0.2678
381.5853	0.2803
381.7925	0.2746
381.9997	0.2787
382.2068	0.2871
382.4139	0.2557
382.6211	0.2568
382.8282	0.2723
383.0353	0.2643
383.2424	0.2555
383.4494	0.2634
383.6565	0.2486
383.8635	0.2493
384.0706	0.2599
384.2776	0.2468
384.4846	0.2382
384.6916	0.2646
384.8986	0.2529
385.1055	0.2761
385.3125	0.2509
385.5194	0.2426
385.7263	0.2644
385.9333	0.2585
386.1402	0.2441
386.347	0.2683
386.5539	0.2585
386.7608	0.2709
386.9676	0.2464
387.1744	0.2377
387.3813	0.2337
387.5881	0.2524
387.7948	0.2553
388.0016	0.2433
388.2084	0.2513
388.4151	0.2531
388.6219	0.2701
388.8286	0.2614
389.0353	0.2601
389.242	0.2625
389.4487	0.2552
389.6553	0.2428
389.862	0.2338
390.0686	0.2379
390.2753	0.2579
390.4819	0.2456
390.6885	0.2329
390.8951	0.2649
391.1016	0.2307
391.3082	0.237
391.5147	0.2395
391.7213	0.2503
391.9278	0.228
392.1343	0.2315
392.3408	0.238
392.5473	0.2444
392.7537	0.2407
392.9602	0.2373
393.1666	0.2229
393.373	0.244
393.5794	0.2401
393.7858	0.2279
393.9922	0.2159
394.1986	0.2458
394.4049	0.2195
394.6113	0.2392
394.8176	0.2241
395.0239	0.234
395.2302	0.2225
395.4365	0.2377
395.6428	0.2315
395.8491	0.2089
396.0553	0.2187
396.2615	0.2332
396.4678	0.2191
396.674	0.2123
396.8802	0.2393
397.0863	0.2339
397.2925	0.2179
397.4987	0.2163
397.7048	0.2204
397.9109	0.2286
398.117	0.2156
398.3231	0.2092
398.5292	0.2341
398.7353	0.2225
398.9413	0.2274
399.1474	0.2058
399.3534	0.2372
399.5594	0.2129
399.7654	0.2236
399.9714	0.2172
400.1774	0.2315
400.3833	0.2136
400.5893	0.2175
400.7952	0.2208
401.0011	0.2248
401.207	0.2207
401.4129	0.1998
401.6188	0.2253
401.8247	0.2277
402.0305	0.2084
402.2364	0.2128
402.4422	0.2299
402.648	0.2245
402.8538	0.2294
403.0596	0.2065
403.2654	0.2196
403.4711	0.2153
403.6768	0.223
403.8826	0.2187
404.0883	0.2271
404.294	0.2356
404.4997	0.2066
404.7054	0.2173
404.911	0.2059
405.1167	0.2209
405.3223	0.2372
405.5279	0.218
405.7335	0.2478
405.9391	0.2373
406.1447	0.2027
406.3502	0.2309
406.5558	0.2231
406.7613	0.2108
406.9668	0.2364
407.1724	0.2182
407.3778	0.2118
407.5833	0.2206
407.7888	0.2109
407.9942	0.2142
408.1997	0.2128
408.4051	0.2178
408.6105	0.2242
408.8159	0.2067
409.0213	0.2076
409.2267	0.2144
409.432	0.2142
409.6374	0.2227
409.8427	0.2034
410.048	0.2104
410.2533	0.2125
410.4586	0.2204
410.6639	0.2235
410.8691	0.2029
411.0744	0.1946
411.2796	0.2136
411.4848	0.2266
411.69	0.2177
411.8952	0.2187
412.1004	0.2243
412.3056	0.2227
412.5107	0.2113
412.7158	0.2241
412.921	0.2104
413.1261	0.2175
413.3312	0.2142
413.5362	0.2275
413.7413	0.2043
413.9464	0.2019
414.1514	0.2181
414.3564	0.2148
414.5614	0.1944
414.7664	0.2114
414.9714	0.2017
415.1764	0.2225
415.3813	0.2326
415.5863	0.2087
415.7912	0.2178
415.9961	0.2012
416.201	0.2172
416.4059	0.2177
416.6108	0.2227
416.8156	0.2246
417.0205	0.2208
417.2253	0.2027
417.4301	0.2413
417.6349	0.2179
417.8397	0.1998
418.0445	0.2125
418.2492	0.2118
418.454	0.2083
418.6587	0.2143
418.8634	0.1988
419.0681	0.2019
419.2728	0.1978
419.4775	0.1939
419.6822	0.1856
419.8868	0.1841
420.0915	0.1892
420.2961	0.1976
420.5007	0.1746
420.7053	0.1989
420.9099	0.2124
421.1144	0.2135
421.319	0.1835
421.5235	0.1984
421.728	0.2137
421.9325	0.2002
422.137	0.1942
422.3415	0.2058
422.546	0.2009
422.7504	0.1917
422.9549	0.193
423.1593	0.2074
423.3637	0.2089
423.5681	0.1953
423.7725	0.1768
423.9769	0.1671
424.1812	0.1742
424.3856	0.1909
424.5899	0.1881
424.7942	0.1783
424.9985	0.1924
425.2028	0.1967
425.4071	0.1913
425.6113	0.1477
425.8156	0.1905
426.0198	0.1823
426.224	0.1867
426.4282	0.1602
426.6324	0.1713
426.8366	0.1952
427.0407	0.1714
427.2449	0.1705
427.449	0.1788
427.6531	0.1629
427.8572	0.1684
428.0613	0.1629
428.2654	0.1642
428.4694	0.1632
428.6735	0.1576
428.8775	0.1775
429.0815	0.1852
429.2855	0.1519
429.4895	0.1695
429.6935	0.1576
429.8975	0.1497
430.1014	0.1553
430.3053	0.1408
430.5093	0.1542
430.7132	0.1391
430.9171	0.1373
431.1209	0.1494
431.3248	0.1311
431.5286	0.1448
431.7325	0.1473
431.9363	0.1249
432.1401	0.1352
432.3439	0.1165
432.5477	0.1294
432.7514	0.1334
432.9552	0.1357
433.1589	0.107
433.3627	0.101
433.5664	0.1262
433.7701	0.1149
433.9737	0.1109
434.1774	0.1215
434.3811	0.1254
434.5847	0.1298
434.7883	0.1168
434.9919	0.1168
435.1955	0.1197
435.3991	0.1191
435.6027	0.1256
435.8062	0.111
436.0098	0.1013
436.2133	0.1122
436.4168	0.1069
436.6203	0.1017
436.8238	0.1194
437.0272	0.0998
437.2307	0.0987
437.4341	0.1126
437.6375	0.1004
437.841	0.0793
438.0443	0.1149
438.2477	0.1
438.4511	0.0967
438.6545	0.1054
438.8578	0.1017
439.0611	0.0961
439.2644	0.0958
439.4677	0.0756
439.671	0.082
439.8743	0.0932
440.0775	0.0791
440.2808	0.0762
440.484	0.0811
440.6872	0.0707
440.8904	0.0636
441.0936	0.0963
441.2967	0.0838
441.4999	0.0786
441.703	0.0836
441.9062	0.0596
442.1093	0.0679
442.3124	0.0742
442.5155	0.0551
442.7185	0.062
442.9216	0.0451
443.1246	0.0675
443.3276	0.0543
443.5307	0.0678
443.7337	0.0524
443.9366	0.0665
444.1396	0.0518
444.3426	0.0652
444.5455	0.0662
444.7484	0.0529
444.9513	0.0596
445.1542	0.062
445.3571	0.0607
445.56	0.0537
445.7628	0.0376
445.9657	0.0401
446.1685	0.0461
446.3713	0.054
446.5741	0.0404
446.7769	0.0354
446.9797	0.0658
447.1824	0.0464
447.3852	0.0464
447.5879	0.0506
447.7906	0.0401
447.9933	0.0405
448.196	0.0363
448.3986	0.0432
448.6013	0.0436
448.8039	0.0238
449.0066	0.0322
449.2092	0.0439
449.4118	0.0285
449.6143	0.042
449.8169	0.0459
450.0195	0.0182
450.222	0.0049
450.4245	0.0349
450.627	0.041
450.8295	0.0356
451.032	0.0312
451.2345	0.0251
451.4369	0.0251
451.6394	0.0272
451.8418	0.0112
452.0442	0.0193
452.2466	0.0314
452.449	0.0058
452.6513	0.0382
452.8537	0.0168
453.056	0.0152
453.2583	0.0225
453.4607	0.0176
453.663	0.005
453.8652	0.0306
454.0675	0.002
454.2697	0.0118
454.472	0.0205
454.6742	0.0163
454.8764	0.0205
455.0786	0.0051
455.2808	0.0118
455.4829	0.0089
455.6851	0.0196
455.8872	0.009
456.0893	0.0139
456.2915	-0.0067
456.4935	0.0126
456.6956	0.0188
456.8977	0.0201
457.0997	0.0087
457.3018	0.0057
457.5038	0.0147
457.7058	0.0101
457.9078	0.0073
458.1098	0.0198
458.3117	0.0164
458.5137	0.0057
458.7156	0.0218
458.9175	0.0065
459.1194	0.0176
459.3213	-0.0003
459.5232	0.0145
459.725	-0.0131
459.9269	0.0017
460.1287	0.0097
460.3305	0.0136
460.5323	0.0084
460.7341	0.0072
460.9359	0.0058
461.1376	0.0063
461.3394	-0.0042
461.5411	0.0163
461.7428	0.0104
461.9445	0.0108
462.1462	0.0104
462.3479	0.0123
462.5495	-0.0051
462.7512	-0.001
462.9528	-0.005
463.1544	-0.0151
463.356	0.0093
463.5576	0.0136
463.7592	0.0065
463.9607	0.0093
464.1623	0.0107
464.3638	0.0102
464.5653	-0.0067
464.7668	0.0092
464.9683	0.0045
465.1697	0.0273
465.3712	-0.009
465.5726	-0.0018
465.7741	0.0085
465.9755	0.0002
466.1769	0.0029
466.3782	-0.0076
466.5796	-0.0072
466.7809	0.0101
466.9823	0.0021
467.1836	0.0094
467.3849	0.0042
467.5862	0.0132
467.7875	0.0084
467.9887	0.0105
468.19	-0.0009
468.3912	-0.0055
468.5924	-0.0079
468.7936	0.0063
468.9948	0.0061
469.196	-0.0061
469.3972	-0.0117
469.5983	-0.0003
469.7994	-0.0225
470.0006	0.0103
470.2017	-0.029
470.4027	0.0009
470.6038	0.0014
470.8049	-0.0035
471.0059	-0.015
471.2069	-0.0234
471.408	0.0063
471.6089	-0.0011
471.8099	-0.0001
472.0109	0.0106
472.2119	-0.0174
472.4128	-0.0073
472.6137	0.0196
472.8146	-0.0222
473.0155	-0.0157
473.2164	-0.0056
473.4173	0.0013
473.6181	-0.0037
473.819	-0.003
474.0198	-0.0114
474.2206	-0.0071
474.4214	-0.0141
474.6222	-0.0084
474.8229	-0.0089
475.0237	-0.0181
475.2244	-0.0019
475.4251	-0.0132
475.6258	0.0018
475.8265	-0.0075
476.0272	0.0125
476.2278	-0.0093
476.4285	-0.0114
476.6291	-0.0074
476.8297	-0.0045
477.0303	-0.0124
477.2309	0.0015
477.4315	-0.0062
477.632	-0.0078
477.8326	-0.0042
478.0331	-0.0014
478.2336	0.0011
478.4341	-0.0049
478.6346	0.0014
478.8351	-0.0035
479.0355	-0.0016
479.236	0.0012
479.4364	0.0113
479.6368	0.0085
479.8372	-0.0078
480.0376	-0.0069
480.2379	-0.0266
480.4383	-0.0032
480.6386	0.0153
480.8389	0.0055
481.0392	-0.0058
481.2395	-0.0114
481.4398	0.0076
481.6401	-0.0005
481.8403	-0.0114
482.0405	-0.0041
482.2408	-0.0086
482.441	0.0035
482.6411	-0.0051
482.8413	-0.0098
483.0415	-0.015
483.2416	-0.0158
483.4417	-0.0087
483.6419	-0.0059
483.8419	0.0002
484.042	0.0105
484.2421	-0.0139
484.4422	-0.0037
484.6422	-0.0108
484.8422	-0.0078
485.0422	-0.0093
485.2422	-0.0037
485.4422	-0.0174
485.6422	-0.0021
485.8421	-0.0061
486.042	-0.0045
486.242	0.0001
486.4419	-0.0168
486.6417	-0.0007
486.8416	0.0004
487.0415	-0.0035
487.2413	-0.0039
487.4411	-0.0092
487.641	-0.0141
487.8408	-0.0003
488.0405	-0.0024
488.2403	-0.0133
488.4401	-0.0061
488.6398	0.0025
488.8395	-0.0069
489.0392	0.0103
489.2389	-0.0115
489.4386	-0.0038
489.6383	-0.0019
489.8379	-0.0003
490.0376	0.0022
490.2372	-0.0091
490.4368	-0.0052
490.6364	-0.0001
490.836	-0.0059
491.0355	-0.006
491.2351	-0.0157
491.4346	-0.0071
491.6341	-0.0159
491.8336	-0.0042
492.0331	-0.0019
492.2326	-0.0144
492.432	-0.0007
492.6315	-0.0036
492.8309	-0.0174
493.0303	-0.0146
493.2297	-0.0089
493.4291	-0.0006
493.6284	-0.0118
493.8278	-0.0109
494.0271	0.0026
494.2264	-0.0006
494.4257	-0.0093
494.625	-0.0053
494.8243	-0.0143
495.0236	-0.0176
495.2228	-0.0218
495.422	-0.0055
495.6213	-0.0056
495.8205	-0.0077
496.0196	-0.0107
496.2188	0.0029
496.418	-0.0105
496.6171	-0.0063
496.8162	-0.0137
497.0153	0.0046
497.2144	-0.0153
497.4135	-0.0052
497.6126	-0.0063
497.8116	-0.0076
498.0107	-0.0037
498.2097	-0.0198
498.4087	-0.0144
498.6077	-0.0006
498.8067	-0.0196
499.0056	0.0082
499.2046	0.0057
499.4035	-0.0158
499.6024	-0.0123
499.8013	-0.0062
500.0002	-0.0056
500.199	-0.0061
500.3979	-0.003
500.5967	-0.018
500.7956	0.0012
500.9944	-0.0034
501.1932	-0.0062
501.3919	-0.003
501.5907	-0.009
501.7895	-0.0163
501.9882	-0.0088
502.1869	-0.0091
502.3856	-0.0151
502.5843	-0.003
502.783	-0.0147
502.9816	-0.0048
503.1803	-0.0186
503.3789	-0.0128
503.5775	0.0021
503.7761	-0.0123
503.9747	0.002
504.1732	-0.0056
504.3718	-0.01
504.5703	-0.0095
504.7689	-0.0087
504.9674	-0.0104
505.1658	-0.0104
505.3643	-0.002
505.5628	-0.0081
505.7612	-0.0069
505.9597	-0.0004
506.1581	-0.0133
506.3565	-0.0005
506.5549	-0.0062
506.7532	-0.0208
506.9516	-0.0059
507.1499	-0.0098
507.3482	-0.0148
507.5465	-0.0046
507.7448	-0.0102
507.9431	0.0011
508.1414	0.0049
508.3396	-0.0115
508.5379	-0.0115
508.7361	-0.0093
508.9343	0.0005
509.1325	0.0087
509.3306	-0.0007
509.5288	-0.0088
509.7269	0.0042
509.9251	-0.0013
510.1232	-0.0103
510.3213	0.0009
510.5193	-0.0015
510.7174	-0.0097
510.9154	-0.0108
511.1135	-0.0128
511.3115	-0.0112
511.5095	-0.0029
511.7075	-0.0023
511.9055	-0.0067
512.1034	-0.0158
512.3014	-0.0019
512.4993	0.0047
512.6972	-0.0165
512.8951	-0.01
513.093	0.0044
513.2908	-0.0013
513.4887	-0.0017
513.6865	-0.0152
513.8844	-0.0086
514.0822	-0.0012
514.2799	-0.0141
514.4777	-0.0061
514.6755	-0.011
514.8732	-0.0116
515.0709	-0.0034
515.2687	-0.0035
515.4664	0.002
515.664	-0.0046
515.8617	-0.0153
516.0594	-0.0158
516.257	-0.0064
516.4546	-0.0151
516.6522	0.0025
516.8498	-0.0078
517.0474	0.0057
517.2449	0.0033
517.4425	-0.0204
517.64	-0.0065
517.8375	-0.0046
518.035	-0.0047
518.2325	-0.0251
518.43	-0.0129
518.6274	-0.0097
518.8249	-0.0161
519.0223	-0.0072
519.2197	-0.0059
519.4171	-0.008
519.6145	-0.0033
519.8118	-0.0039
520.0092	-0.0079
520.2065	-0.0177
520.4038	-0.0063
520.6011	0.0052
520.7984	-0.0091
520.9956	-0.0069
521.1929	-0.0087
521.3901	-0.0026
521.5874	-0.0065
521.7846	0.0011
521.9818	-0.003
522.1789	-0.0206
522.3761	-0.0029
522.5732	-0.0098
522.7704	-0.0072
522.9675	-0.0023
523.1646	-0.0105
523.3617	-0.0051
523.5587	-0.0068
523.7558	0.0054
523.9528	-0.0027
524.1498	0.0084
524.3468	-0.0097
524.5438	-0.0001
524.7408	-0.0157
524.9378	0.0045
525.1347	-0.0043
525.3316	-0.0057
525.5285	-0.0109
525.7254	-0.0082
525.9223	0.0044
526.1192	-0.0178
526.316	-0.0137
526.5129	-0.003
526.7097	-0.0009
526.9065	-0.0057
527.1033	-0.0024
527.3	-0.0067
527.4968	-0.002
527.6935	-0.0062
527.8903	-0.0026
528.087	0.0022
528.2837	-0.0099
528.4804	0.002
528.677	-0.0024
528.8737	-0.0004
529.0703	-0.0015
529.2669	-0.0029
529.4635	-0.009
529.6601	-0.0036
529.8567	-0.0091
530.0532	-0.0198
530.2498	0.0002
530.4463	0.0095
530.6428	-0.0076
530.8393	0.0031
531.0358	-0.0069
531.2322	0.0016
531.4287	-0.0061
531.6251	-0.0106
531.8215	-0.0005
532.0179	-0.0052
532.2143	-0.0003
532.4107	-0.0035
532.607	-0.0026
532.8034	-0.0037
532.9997	0.0015
533.196	0.0006
533.3923	-0.0091
533.5886	0.0028
533.7848	0.0011
533.9811	-0.0089
534.1773	0.0003
534.3735	0.0088
534.5697	-0.0055
534.7659	0.0007
534.9621	-0.0067
535.1582	-0.0134
535.3544	-0.0041
535.5505	-0.0156
535.7466	0.001
535.9427	-0.0134
536.1387	-0.008
536.3348	-0.0115
536.5308	0.0037
536.7269	-0.0055
536.9229	-0.001
537.1189	0.0045
537.3148	-0.0005
537.5108	-0.0125
537.7068	-0.0005
537.9027	-0.0068
538.0986	-0.0067
538.2945	-0.001
538.4904	-0.0099
538.6863	-0.017
538.8821	-0.0125
539.078	-0.0089
539.2738	0.0087
539.4696	-0.0058
539.6654	0.0087
539.8611	0.0111
540.0569	0.0024
540.2526	0.0008
540.4484	-0.0011
540.6441	0.0112
540.8398	0.0019
541.0355	0.0051
541.2311	0.0012
541.4268	-0.0088
541.6224	0.0129
541.818	0.0052
542.0136	-0.0026
542.2092	0.0005
542.4048	0.0098
542.6003	0.0059
542.7959	-0.0003
542.9914	-0.0056
543.1869	0.001
543.3824	-0.0063
543.5779	-0.0017
543.7734	-0.0085
543.9688	-0.0145
544.1642	-0.0065
544.3596	-0.0032
544.555	-0.0003
544.7504	-0.0014
544.9458	-0.0107
545.1411	-0.0003
545.3365	-0.0012
545.5318	-0.0035
545.7271	0.0005
545.9224	0.0007
546.1177	0.0055
546.3129	0.0041
546.5081	0.0023
546.7034	-0.0001
546.8986	-0.0023
547.0938	-0.0082
547.289	-0.0038
547.4841	0.0058
547.6793	0.0078
547.8744	-0.009
548.0695	-0.0139
548.2646	-0.0093
548.4597	-0.0037
548.6548	-0.0012
548.8498	0.0006
549.0448	0.0054
549.2399	-0.0005
549.4349	-0.0013
549.6298	-0.0005
549.8248	0.003
550.0198	-0.0064
550.2147	-0.0002
550.4096	-0.008
550.6045	-0.0027
550.7994	0.001
550.9943	0.0041
551.1892	0.0012
551.384	0.0105
551.5788	-0.0135
551.7737	0.0019
551.9685	0.0034
552.1632	-0.0015
552.358	-0.0027
552.5528	-0.0032
552.7475	-0.0036
552.9422	-0.002
553.1369	-0.002
553.3316	0.0018
553.5263	-0.0085
553.7209	0.0083
553.9156	-0.0079
554.1102	-0.0084
554.3048	-0.0043
554.4994	0.0089
554.694	-0.0014
554.8885	0.0084
555.0831	-0.0016
555.2776	-0.01
555.4721	-0.0069
555.6666	-0.0072
555.8611	0.0092
556.0555	-0.0104
556.25	0.0045
556.4444	-0.0082
556.6388	0.0031
556.8332	0.0038
557.0276	-0.0008
557.222	-0.0044
557.4163	-0.0024
557.6107	-0.0048
557.805	0.0118
557.9993	-0.0031
558.1936	-0.0041
558.3879	0.0003
558.5821	-0.0002
558.7764	-0.0023
558.9706	0.0084
559.1648	0.0004
559.359	-0.0062
559.5532	-0.0082
559.7473	0.0067
559.9415	0.0051
560.1356	-0.0007
560.3297	-0.0101
560.5238	0.0003
560.7179	-0.0049
560.9119	-0.0109
561.106	-0.0011
561.3	-0.0036
561.494	0.0006
561.688	-0.0057
561.882	-0.0053
562.076	-0.0032
562.2699	0.0018
562.4639	-0.0058
562.6578	0.0044
562.8517	0.0004
563.0456	-0.0084
563.2395	0.0054
563.4333	0.0085
563.6272	0.0053
563.821	-0.005
564.0148	-0.0011
564.2086	-0.0067
564.4024	-0.0072
564.5961	-0.0034
564.7899	0.0059
564.9836	-0.0045
565.1773	0.0022
565.371	0.0087
565.5647	0.0068
565.7584	0.0038
565.952	0.0068
566.1456	0.0035
566.3393	0.0078
566.5329	0.0017
566.7264	-0.0004
566.92	-0.0082
567.1136	0.0025
567.3071	-0.0026
567.5006	0.0065
567.6941	0.0053
567.8876	0.0001
568.0811	0.0028
568.2745	0.003
568.468	0.0035
568.6614	-0.005
568.8548	-0.0053
569.0482	-0.0085
569.2416	-0.0012
569.4349	-0.0011
569.6283	0.002
569.8216	0.0001
570.0149	0.0012
570.2082	0.0062
570.4015	0.0143
570.5947	0.0062
570.788	0.0007
570.9812	0.0094
571.1744	-0.0009
571.3676	0.0013
571.5608	0.0108
571.754	0.0014
571.9471	0.0061
572.1402	-0.0009
572.3333	-0.0044
572.5264	0.0007
572.7195	0.0063
572.9126	-0.0004
573.1057	0.0057
573.2987	-0.0035
573.4917	0.0037
573.6847	-0.0089
573.8777	0.0037
574.0707	0.009
574.2636	-0.0012
574.4566	0.0055
574.6495	0.0066
574.8424	0.0002
575.0353	-0.003
575.2281	0.01
575.421	-0.0002
575.6138	0.0024
575.8067	-0.0049
575.9995	0.003
576.1923	0.0019
576.385	0.0034
576.5778	0.0005
576.7706	-0.0053
576.9633	0.0001
577.156	0.0005
577.3487	0.0021
577.5414	-0.0015
577.734	-0.0004
577.9267	0.0046
578.1193	-0.0006
578.3119	-0.0035
578.5045	0.0049
578.6971	0.003
578.8897	0.0104
579.0822	0.0068
579.2747	0.0046
579.4673	-0.0078
579.6598	0.0016
579.8522	0.0017
580.0447	-0.0023
580.2372	0.0006
580.4296	0.0099
580.622	0.0021
580.8144	0.0068
581.0068	-0.0027
581.1992	-0.0046
581.3915	-0.0022
581.5839	-0.005
581.7762	-0.0026
581.9685	-0.0004
582.1608	0.0019
582.353	-0.0034
582.5453	0.0013
582.7375	0.0014
582.9298	0.0072
583.122	0.0036
583.3142	-0.0016
583.5063	0.0038
583.6985	0.0043
583.8906	-0.0042
584.0827	0.0038
584.2749	0.0048
584.4669	0.0091
584.659	0.0011
584.8511	0.0008
585.0431	-0.002
585.2352	0.007
585.4272	0.0013
585.6192	0.0107
585.8111	0.0018
586.0031	-0.003
586.195	-0.0009
586.387	0.0103
586.5789	0.0069
586.7708	0.0048
586.9627	-0.0034
587.1545	0.0067
587.3464	0.0053
587.5382	0.007
587.73	0.0064
587.9218	0.0042
588.1136	0.0006
588.3053	0.0083
588.4971	-0.0032
588.6888	-0.0095
588.8805	0.0038
589.0722	0.0109
589.2639	0.0021
589.4556	0.0066
589.6472	-0.0011
589.8389	-0.0093
590.0305	-0.006
590.2221	0.0062
590.4137	-0.0065
590.6052	0.0133
590.7968	0.0061
590.9883	0.0068
591.1798	-0.0019
591.3713	0.0028
591.5628	0.0001
591.7543	0.0093
591.9458	0.0081
592.1372	0.0088
592.3286	0.0123
592.52	0.0055
592.7114	0.0041
592.9028	0.0056
593.0941	-0.002
593.2855	-0.0015
593.4768	-0.0039
593.6681	-0.005
593.8594	0.0014
594.0506	0.0028
594.2419	0.0113
594.4331	0.0052
594.6244	0.0063
594.8156	-0.0086
595.0067	0.0075
595.1979	0.0059
595.3891	0.0029
595.5802	-0.0039
595.7713	-0.0032
595.9624	0.0043
596.1535	0.0012
596.3446	0.0026
596.5357	-0.0012
596.7267	0.0039
596.9177	0.0073
597.1087	-0.001
597.2997	0.0016
597.4907	-0.0022
597.6817	-0.0009
597.8726	0.0023
598.0635	-0.0057
598.2544	0.007
598.4453	0.0031
598.6362	-0.0028
598.827	-0.0016
599.0179	0.0083
599.2087	0.01
599.3995	0.0012
599.5903	-0.0033
599.7811	0.0021
599.9718	-0.0015
600.1626	-0.0071
600.3533	0.0016
600.544	0.0046
600.7347	0.0011
600.9254	0.0032
601.116	-0.0004
601.3067	0.0021
601.4973	-0.0006
601.6879	0.0057
601.8785	0.005
602.0691	0.0055
602.2596	0.0072
602.4502	0.004
602.6407	0.0108
602.8312	0.0006
603.0217	-0.0048
603.2122	0.0012
603.4027	-0.0005
603.5931	0.0003
603.7835	-0.0006
603.9739	-0.0062
604.1643	-0.0027
604.3547	-0.0063
604.5451	-0.0002
604.7354	0.0002
604.9257	0.0106
605.116	0.0029
605.3063	0.0046
605.4966	0.004
605.6869	0.0032
605.8771	0.0133
606.0673	0.0031
606.2575	0.0095
606.4477	0.0077
606.6379	0.0044
606.8281	0.0041
607.0182	0.0041
607.2083	0.0175
607.3985	-0.009
607.5885	0.002
607.7786	0.0068
607.9687	-0.0072
608.1587	0.0036
608.3488	0.006
608.5388	-0.0006
608.7288	0.0029
608.9187	0.0035
609.1087	-0.0003
609.2986	-0.0058
609.4886	-0.0034
609.6785	0.0022
609.8684	0.0006
610.0582	0.011
610.2481	0.0064
610.4379	-0.0023
610.6278	-0.0017
610.8176	0.0007
611.0074	-0.002
611.1971	0.0041
611.3869	0.0036
611.5766	-0.0027
611.7664	0.0125
611.9561	0.0086
612.1458	0.0063
612.3354	-0.0033
612.5251	0.0062
612.7147	0.0096
612.9044	0.0118
613.094	0.0008
613.2836	0.0046
613.4731	0.0093
613.6627	-0.0033
613.8522	0.0117
614.0417	0.0086
614.2313	0.0009
614.4207	0.0002
614.6102	0.0013
614.7997	-0.003
614.9891	-0.0021
615.1785	-0.0021
615.3679	0.0002
615.5573	0.0069
615.7467	-0.0007
615.9361	0.0005
616.1254	-0.0049
616.3147	0.0012
616.504	0.0034
616.6933	-0.003
616.8826	0.0024
617.0718	0.0099
617.2611	-0.0041
617.4503	0.004
617.6395	-0.0002
617.8287	0.0002
618.0179	0.0005
618.207	0.0207
618.3961	0.0032
618.5853	-0.0044
618.7744	0.0101
618.9634	0.0075
619.1525	0.011
619.3416	0.0057
619.5306	0.0103
619.7196	0.0072
619.9086	0.0072
620.0976	0.0096
620.2866	0.0093
620.4755	0.0131
620.6645	0.0078
620.8534	0.0121
621.0423	0.0044
621.2312	0.008
621.42	0.0073
621.6089	0.0026
621.7977	0.0139
621.9865	-0.0017
622.1753	0.0075
622.3641	-0.0008
622.5529	0.007
622.7416	0.0099
622.9303	0.0001
623.1191	0.0093
623.3078	0.0048
623.4964	0.006
623.6851	0.0041
623.8737	0.0068
624.0624	0.0097
624.251	-0.0041
624.4396	0.004
624.6282	-0.0013
624.8167	0.0025
625.0053	0.0051
625.1938	0.0082
625.3823	0.005
625.5708	0.0043
625.7593	-0.0013
625.9477	0.0041
626.1362	0.0042
626.3246	0.0104
626.513	0.0094
626.7014	0.0109
626.8898	0.0057
627.0781	0.0048
627.2665	-0.005
627.4548	0.0067
627.6431	0.0081
627.8314	0.0001
628.0197	0.0061
628.2079	0.0004
628.3962	-0.0006
628.5844	0.0054
628.7726	0.0099
628.9608	0.0096
629.1489	-0.0021
629.3371	0.0025
629.5252	-0.0084
629.7134	0.0159
629.9015	-0.0011
630.0895	-0.0035
630.2776	0.0033
630.4657	0.0038
630.6537	0.0085
630.8417	0.0041
631.0297	-0.0023
631.2177	0.0041
631.4057	-0.0056
631.5936	0.0009
631.7815	0.0103
631.9695	0.0043
632.1574	0.0086
632.3452	0.0123
632.5331	0.0097
632.7209	0.0105
632.9088	0.014
633.0966	0.0067
633.2844	-0.0001
633.4722	0.0032
633.6599	0.001
633.8477	0.0029
634.0354	-0.0033
634.2231	0.0058
634.4108	0.0046
634.5985	0.0042
634.7861	0.0068
634.9738	0.0016
635.1614	0.0032
635.349	0.0034
635.5366	0.0031
635.7242	-0.0058
635.9117	0.0031
636.0993	-0.0045
636.2868	0.0021
636.4743	0.0001
636.6618	0.0101
636.8492	0.0078
637.0367	0.0055
637.2241	0.0012
637.4115	0.0004
637.5989	0.0045
637.7863	0.0024
637.9737	-0.0034
638.161	0.0001
638.3484	0.0028
638.5357	0.0027
638.723	0.0008
638.9103	0.0064
639.0975	0.0086
639.2848	0.0084
639.472	0.0064
639.6592	0.0061
639.8464	0.0127
640.0336	0.0143
640.2208	0.0119
640.4079	0.0016
640.595	0.004
640.7821	0.0011
640.9692	0.0005
641.1563	0.0073
641.3434	0.0011
641.5304	0.002
641.7174	0.0031
641.9044	0.0047
642.0914	0.0069
642.2784	0.003
642.4653	0.0116
642.6523	0.0036
642.8392	0.0009
643.0261	0.0023
643.213	-0.0003
643.3999	0.0002
643.5867	0.0025
643.7735	-0.0052
643.9604	-0.0013
644.1472	0.0031
644.3339	0.0052
644.5207	-0.0021
644.7075	0
644.8942	0.0063
645.0809	0.0046
645.2676	0.0094
645.4543	0.0026
645.6409	0.0051
645.8276	0.0071
646.0142	0.0023
646.2008	-0.004
646.3874	0.0015
646.574	0.0061
646.7605	-0.0015
646.9471	-0.011
647.1336	0.0012
647.3201	0.0044
647.5066	-0.0045
647.6931	0.0129
647.8795	0.0102
648.0659	0.0074
648.2524	0.0113
648.4388	0.0008
648.6252	0.0116
648.8115	0.0062
648.9979	0.002
649.1842	0.001
649.3705	0.0124
649.5568	0.0109
649.7431	0.0091
649.9294	-0.0048
650.1156	0.0088
650.3018	-0.0038
650.488	0.0113
650.6742	0.0052
650.8604	0.0067
651.0466	0.0004
651.2327	-0.0004
651.4188	0.0006
651.6049	0.0055
651.791	0.0024
651.9771	0.007
652.1632	0.0076
652.3492	0.0099
652.5352	0.0042
652.7212	-0.0034
652.9072	0.0103
653.0932	0.0005
653.2791	-0.0018
653.465	0.002
653.651	0.0052
653.8369	-0.0041
654.0227	0.0009
654.2086	0.0155
654.3944	0.0052
654.5803	0.002
654.7661	-0.0012
654.9519	0.0039
655.1377	-0.0009
655.3234	0.0014
655.5092	-0.0037
655.6949	-0.002
655.8806	-0.0026
656.0663	-0.0001
656.2519	-0.0002
656.4376	-0.0043
656.6232	0.0099
656.8088	0.0012
656.9945	0.0073
657.18	0.0011
657.3656	0.0042
657.5511	-0.0026
657.7367	-0.0058
657.9222	0.0051
658.1077	0.0051
658.2932	0.0054
658.4786	0.0053
658.6641	0.0042
658.8495	0.004
659.0349	0.0076
659.2203	0.0062
659.4057	-0.0022
659.591	0.0052
659.7764	0.0004
659.9617	0.0031
660.147	0.0031
660.3323	0.0069
660.5176	0.018
660.7028	0.0097
660.888	0.0092
661.0733	0.0068
661.2585	-0.0022
661.4436	0.0101
661.6288	0.0035
661.8139	-0.0038
661.9991	0.0073
662.1842	0.004
662.3693	0.0081
662.5544	0.0092
662.7394	0.0019
662.9245	0.0068
663.1095	0.0035
663.2945	0.0072
663.4795	0.0051
663.6644	0.013
663.8494	0.0027
664.0343	0.0081
664.2193	-0.0004
664.4042	0.0016
664.589	0.0002
664.7739	0.0092
664.9587	-0.0021
665.1436	0.0018
665.3284	0.0074
665.5132	-0.0016
665.698	0.0018
665.8827	0.0095
666.0675	0.0072
666.2522	0.0028
666.4369	0.0041
666.6216	0.0046
666.8063	0.0069
666.9909	0.0018
667.1756	-0.0007
667.3602	0.0076
667.5448	0.0008
667.7294	0.0104
667.9139	0.004
668.0985	0.0105
668.283	0.0073
668.4675	0.0068
668.652	0.0067
668.8365	0.0024
669.0209	0.0075
669.2054	0.0145
669.3898	0.0055
669.5742	0.0102
669.7586	0.0114
669.943	0.0088
670.1273	0.0112
670.3117	0.0078
670.496	0.0132
670.6803	0.011
670.8646	0.0091
671.0488	0.0016
671.2331	0.0123
671.4173	0.0105
671.6015	0.0053
671.7857	0.0061
671.9699	0.006
672.1541	0.0101
672.3382	0.0063
672.5223	0.0121
672.7064	0.01
672.8905	0.0073
673.0746	0.0011
673.2587	0.0074
673.4427	0.0122
673.6267	0.0186
673.8107	0.0101
673.9947	0.0072
674.1787	-0.0034
674.3626	0.0015
674.5465	0.0135
674.7304	0.0116
674.9143	0.0047
675.0982	0.0157
675.2821	-0.0007
675.4659	0.0143
675.6497	0.0001
675.8335	0.0008
676.0173	-0.0032
676.2011	-0.0023
676.3849	0.0089
676.5686	-0.0055
676.7523	-0.0022
676.936	0.003
677.1197	0.0016
677.3034	-0.0032
677.487	0.0116
677.6706	0.0011
677.8542	0.0057
678.0378	0.0056
678.2214	0.0003
678.405	0.0002
678.5885	-0.0022
678.772	0.0006
678.9555	-0.008
679.139	-0.0059
679.3225	0.0023
679.5059	0.0013
679.6894	-0.0001
679.8728	-0.0033
680.0562	0.0038
680.2395	-0.0047
680.4229	0.0045
680.6062	0.0067
680.7896	0.003
680.9729	-0.0019
681.1562	0.0032
681.3394	0.0054
681.5227	-0.0055
681.7059	0.0012
681.8891	0.0004
682.0723	0.0064
682.2555	0.0107
682.4387	-0.0037
682.6218	-0.0056
682.805	0.0127
682.9881	0.0084
683.1712	-0.0031
683.3542	0.0005
683.5373	-0.0004
683.7203	-0.0078
683.9034	-0.0038
684.0864	-0.0124
684.2694	-0.0015
684.4523	0.0093
684.6353	-0.0029
684.8182	0.0042
685.0011	-0.0052
685.184	-0.001
685.3669	-0.0021
685.5498	0.004
685.7326	0.0005
685.9154	-0.0044
686.0982	0.0022
686.281	0.0089
686.4638	0.0025
686.6465	-0.0018
686.8293	0.0017
687.012	0.0081
687.1947	-0.0097
687.3774	0.0065
687.56	-0.0029
687.7427	0.0117
687.9253	0.0021
688.1079	0.002
688.2905	0.0087
688.4731	0.0083
688.6556	-0.0004
688.8382	0.0052
689.0207	0.0044
689.2032	-0.0106
689.3857	-0.0014
689.5681	0.0007
689.7506	-0.0006
689.933	-0.0048
690.1154	0.0048
690.2978	0.0011
690.4802	0.0013
690.6626	-0.0035
690.8449	-0.0031
691.0272	0.0056
691.2095	-0.0019
691.3918	-0.0039
691.5741	0.0087
691.7563	0.0029
691.9386	0.0047
692.1208	0.0045
692.303	0.0017
692.4852	-0.0057
692.6673	0.0049
692.8495	0.0023
693.0316	0.0046
693.2137	0.0025
693.3958	0.0038
693.5778	0.0067
693.7599	0.0056
693.9419	0.0037
694.1239	0.0032
694.3059	-0.0037
694.4879	0.0103
694.6699	0.0108
694.8518	0.0027
695.0337	-0.0037
695.2157	0.0069
695.3975	0.0054
695.5794	0.0058
695.7613	0.0025
695.9431	0.004
696.1249	-0.0026
696.3067	-0.0009
696.4885	0.0059
696.6703	-0.0061
696.852	0.0045
697.0337	0.0083
697.2154	0.0102
697.3971	0.0057
697.5788	0.0106
697.7605	0.0013
697.9421	0.0074
698.1237	0.0023
698.3053	0.0054
698.4869	-0.0012
698.6685	-0.0074
698.85	-0.0004
699.0315	0.006
699.213	-0.0021
699.3945	0.0047
699.576	0.0056
699.7575	0.0058
699.9389	0.013
700.1203	0.0037
700.3017	-0.0022
700.4831	0.001
700.6645	0.0039
700.8458	0.0126
701.0271	0.0003
701.2084	0.0071
701.3897	0.0014
701.571	0.0067
701.7523	0.0061
701.9335	0.002
702.1147	0.0032
702.2959	0.005
702.4771	0.007
702.6583	0.0005
702.8394	-0.0028
703.0205	0.0101
703.2016	-0.0042
703.3827	0.0053
703.5638	0.0097
703.7449	0.0001
703.9259	0.0151
704.1069	-0.007
704.2879	0.0096
704.4689	0.001
704.6499	0.0053
704.8308	0.0021
705.0117	-0.0062
705.1927	0.0055
705.3735	0.0017
705.5544	-0.0041
705.7353	-0.0019
705.9161	-0.0026
706.0969	-0.0018
706.2777	0.0062
706.4585	0.0095
706.6393	0.006
706.82	0.0026
707.0007	0.012
707.1815	0.0042
707.3621	0.0137
707.5428	0.0074
707.7235	0.0171
707.9041	0.0068
708.0847	-0.0004
708.2653	-0.005
708.4459	-0.0067
708.6265	0.0073
708.807	-0.0009
708.9875	0.0022
709.168	-0.0003
709.3485	-0.0099
709.529	-0.0012
709.7095	-0.0159
709.8899	0.0011
710.0703	-0.0082
710.2507	0.0059
710.4311	-0.0042
710.6115	-0.0168
710.7918	-0.0046
710.9721	-0.0031
711.1524	-0.0099
711.3327	0.0005
711.513	-0.003
711.6932	0.0015
711.8735	0.004
712.0537	0.0039
712.2339	-0.0059
712.4141	-0.0059
712.5942	-0.0066
712.7744	-0.0063
712.9545	-0.0069
713.1346	-0.0024
713.3147	0.0008
713.4947	-0.0081
713.6748	-0.0028
713.8548	0.0035
714.0348	0.0035
714.2148	-0.0037
714.3948	0.0154
714.5748	-0.0006
714.7547	-0.0028
714.9346	0.0067
715.1145	-0.0001
715.2944	-0.0076
715.4743	-0.0027
715.6541	-0.0023
715.834	0.006
716.0138	-0.0026
716.1936	-0.0092
716.3733	0.0015
716.5531	0.0144
716.7328	-0.0042
716.9126	-0.0071
717.0923	0.0031
717.2719	0.0032
717.4516	0.0078
717.6312	0.0062
717.8109	0.0022
717.9905	0.0089
718.1701	0.0042
718.3496	-0.0055
718.5292	0.0034
718.7087	0.0023
718.8882	-0.0013
719.0677	0.0059
719.2472	0.0026
719.4267	0.0002
719.6061	0.0045
719.7856	0.0061
719.965	0.0094
720.1443	-0.0002
720.3237	0.0161
720.5031	0.0036
720.6824	0.0141
720.8617	0.0041
721.041	-0.0013
721.2203	0.0091
721.3995	0.0003
721.5788	0.0052
721.758	0.0063
721.9372	0.0021
722.1164	-0.0024
722.2956	0.0002
722.4747	0.0069
722.6538	0.0025
722.8329	0.0141
723.012	0.0104
723.1911	-0.001
723.3702	-0.0004
723.5492	0.0038
723.7282	-0.0033
723.9072	0.0022
724.0862	-0.0003
724.2652	-0.0016
724.4441	0.005
724.623	0.0043
724.8019	0.0015
724.9808	0.009
725.1597	-0.0057
725.3385	0.0091
725.5174	0.0021
725.6962	-0.0038
725.875	0.0028
726.0538	0.0006
726.2325	0.0026
726.4112	0.0098
726.59	-0.0107
726.7687	-0.009
726.9474	0.0016
727.126	-0.0013
727.3047	-0.0037
727.4833	0.0007
727.6619	-0.003
727.8405	-0.0135
728.0191	-0.0082
728.1976	0.0052
728.3762	-0.0005
728.5547	0.0061
728.7332	-0.009
728.9116	0.0009
729.0901	0.0051
729.2686	-0.0029
729.447	-0.0023
729.6254	0.0057
729.8038	0.0032
729.9821	-0.0026
730.1605	0.0036
730.3388	0.0024
730.5171	0.0069
730.6954	-0.0066
730.8737	0.0047
731.0519	0.0022
731.2302	-0
731.4084	0.0152
731.5866	0.0103
731.7648	0.0108
731.9429	0.0009
732.1211	-0.0025
732.2992	0.0117
732.4773	-0.0011
732.6554	0.0053
732.8335	0.0012
733.0115	0.0126
733.1896	0.0167
733.3676	-0.0048
733.5456	0.0068
733.7235	0.0025
733.9015	0.0072
734.0794	0.0049
734.2574	-0
734.4353	0.0036
734.6131	0.0142
734.791	0.0096
734.9689	0.0038
735.1467	0.0099
735.3245	0.0067
735.5023	0.0031
735.68	0.0081
735.8578	0.017
736.0355	-0.0041
736.2132	0.0019
736.3909	0.0042
736.5686	0.0025
736.7463	0.012
736.9239	-0.0018
737.1015	-0.0042
737.2791	0.0083
737.4567	0.0036
737.6343	-0.0034
737.8118	0.0071
737.9894	0.0118
738.1669	-0.003
738.3444	-0.0099
738.5218	0.0043
738.6993	-0.0004
738.8767	-0.0063
739.0541	0.0108
739.2315	-0.0111
739.4089	0.0023
739.5863	0.0053
739.7636	0.0017
739.9409	0.0026
740.1182	0.0053
740.2955	0.0085
740.4728	-0.0022
740.65	0.0012
740.8272	0.0002
741.0044	-0.0058
741.1816	0.0048
741.3588	0.0054
741.5359	0.0085
741.7131	-0.0013
741.8902	0.0004
742.0673	-0.0064
742.2444	-0.0088
742.4214	-0.0043
742.5985	-0.0023
742.7755	-0.0067
742.9525	-0.0124
743.1295	0.0057
743.3064	0.0054
743.4834	-0.0006
743.6603	-0.0101
743.8372	0.0053
744.0141	0.0023
744.191	0.0066
744.3678	0.0012
744.5446	0
744.7215	0.0059
744.8982	0.0044
745.075	-0.0076
745.2518	0.0064
745.4285	-0.0002
745.6052	-0.0059
745.7819	-0.0018
745.9586	-0.0074
746.1353	-0.0007
746.3119	-0.0112
746.4885	0.0037
746.6651	-0.0099
746.8417	-0.001
747.0183	-0.0101
747.1948	-0.0013
747.3714	0.0056
747.5479	0.0058
747.7244	-0.0104
747.9008	-0.0059
748.0773	-0.0028
748.2537	0.0035
748.4301	-0.0039
748.6065	0.0042
748.7829	0.0122
748.9593	0.0008
749.1356	0.0015
749.3119	0.0146
749.4882	-0.0026
749.6645	0.0058
749.8408	-0.0048
750.017	-0.0001
750.1933	0.0013
750.3695	-0.0082
750.5457	0.0018
750.7218	0.0022
750.898	0.0044
751.0741	-0.0043
751.2502	0.0078
751.4263	-0.0038
751.6024	0.0014
751.7784	0.0061
751.9545	-0.0034
752.1305	0.0079
752.3065	-0.0028
752.4825	0.0151
752.6584	-0.0006
752.8344	-0.0004
753.0103	-0.0035
753.1862	0.0077
753.3621	0.0003
753.5379	-0.0034
753.7138	-0.0095
753.8896	-0.0051
754.0654	0.01
754.2412	0.0033
754.417	0.007
754.5927	0.0012
754.7685	0.002
754.9442	0.0023
755.1199	0.0115
755.2956	0.006
755.4712	0.0077
755.6469	0.0058
755.8225	-0.0027
755.9981	-0.0023
756.1736	0.0095
756.3492	-0.0148
756.5248	0.0007
756.7003	0.0013
756.8758	0.0034
757.0513	-0.0075
757.2267	-0.0052
757.4022	0.0018
757.5776	-0.0089
757.753	0.0044
757.9284	0
758.1038	0.0052
758.2791	0.0026
758.4545	-0.0051
758.6298	-0.0031
758.8051	-0.0022
758.9803	-0.0049
759.1556	0.0052
759.3308	-0.009
759.506	-0.0056
759.6812	-0.0024
759.8564	0.0097
760.0316	-0.0032
760.2067	0.0087
760.3819	0.0044
760.557	0.0214
760.732	0.0052
760.9071	-0.0047
761.0821	0.0129
761.2572	0.0043
761.4322	0.0055
761.6072	0.0007
761.7821	-0.0048
761.9571	0.0121
762.132	-0.0027
762.3069	-0.0096
762.4818	-0.0127
762.6567	-0.0089
762.8316	0.0025
763.0064	-0.0141
763.1812	-0.0039
763.356	-0.0161
763.5308	-0.0058
763.7055	-0.0016
763.8803	0.0026
764.055	0.0015
764.2297	0.0025
764.4044	-0.0045
764.579	-0.008
764.7537	-0.0051
764.9283	0.0092
765.1029	-0.0032
765.2775	-0.0044
765.4521	0.0102
765.6266	-0.0008
765.8011	-0.0072
765.9756	0.0097
766.1501	0.0146
766.3246	-0.0033
766.4991	0.0009
766.6735	0.0009
766.8479	0.0002
767.0223	0.0128
767.1967	0.011
767.371	-0.0009
767.5454	-0.0016
767.7197	0.008
767.894	-0.0099
768.0683	-0.0114
768.2425	0.0051
768.4168	0.0025
768.591	0.0121
768.7652	0.0021
768.9394	0.0086
769.1135	0.0044
769.2877	0.003
769.4618	0.0007
769.6359	0.0036
769.81	0.0092
769.984	-0.001
770.1581	-0.0007
770.3321	-0.0029
770.5061	-0.004
770.6801	-0.003
770.8541	-0.0003
771.028	0.0002
771.202	-0.0131
771.3759	0.0044
771.5498	-0.0048
771.7236	-0.0011
771.8975	0.0107
772.0713	0.0007
772.2451	0.0013
772.4189	0.0109
772.5927	0.0053
772.7665	-0.0049
772.9402	0.0028
773.1139	0.0042
773.2876	0.002
773.4613	0.0049
773.635	0.0198
773.8086	0.0027
773.9822	0.018
774.1558	0.0096
774.3294	-0.0123
774.503	-0.003
774.6765	0.013
774.8501	0.0113
775.0236	0.0159
775.1971	0.0149
775.3705	0.0036
775.544	0.0111
775.7174	0.0002
775.8908	0.0054
776.0642	0.0131
776.2376	0.0045
776.4109	-0.003
776.5843	0.0064
776.7576	0.016
776.9309	0.0143
777.1041	0.0122
777.2774	0.0146
777.4506	0.0053
777.6238	-0.0042
777.797	0.0076
777.9702	0.0049
778.1434	-0.0033
778.3165	-0.0102
778.4896	-0.0013
778.6627	-0.0052
778.8358	0.0016
779.0089	-0.0172
779.1819	0.0061
779.3549	0.0033
779.5279	0.0023
779.7009	0.0107
779.8739	-0.0024
780.0468	-0.0026
780.2197	0.0075
780.3926	-0.0001
780.5655	0.0022
780.7384	-0.0098
780.9112	-0.0009
781.0841	-0.0091
781.2569	0.0033
781.4297	0.0051
781.6024	0.0104
781.7752	0.0095
781.9479	0.0155
782.1206	-0.0034
782.2933	-0.009
782.466	0.006
782.6386	0.0069
782.8113	0.0097
782.9839	0.013
783.1565	0.0129
783.329	0.0058
783.5016	0.0171
783.6741	0.0128
783.8466	0.0133
784.0191	0.0182
784.1916	0.0002
784.3641	0.0046
784.5365	0.0145
784.7089	0.0053
784.8813	0.0089
785.0537	0.0137
785.2261	0.01
785.3984	-0.0129
785.5707	0.0025
785.743	0.0106
785.9153	0.0013
786.0876	0.0084
786.2598	0.0033
786.432	-0.0033
786.6042	0.0158
786.7764	-0.0022
786.9486	0.0108
787.1207	0.0018
787.2928	0.0148
787.4649	0.005
787.637	0.0146
787.8091	0.0016
787.9811	-0.0012
788.1532	-0.004
788.3252	0.0185
788.4972	0.006
788.6691	0.0022
788.8411	0.0095
789.013	-0.013
789.1849	0.0079
789.3568	0.0024
789.5287	-0.0089
789.7005	0.0038
789.8723	0.0114
790.0442	0.0191
790.2159	0.0036
790.3877	0.0051
790.5595	-0.0042
790.7312	0.0131
790.9029	0.0085
791.0746	0.0002
791.2463	0.0073
791.4179	0.0064
791.5896	-0.0085
791.7612	0.0026
791.9328	0.0082
792.1044	0.0017
792.2759	-0.0123
792.4474	0.0078
792.619	-0.0051
792.7905	-0.0016
792.9619	-0.0037
793.1334	0.013
793.3048	0.0062
793.4762	0.009
793.6476	0.0087
793.819	-0.0083
793.9904	-0.0014
794.1617	-0.0006
794.333	0.0096
794.5043	-0.0138
794.6756	0.0025
794.8469	0.0033
795.0181	-0.0088
795.1893	-0.0041
795.3605	0.02
795.5317	-0.0093
795.7029	0.0093
795.874	0.0031
796.0452	-0.0187
796.2163	0.0025
796.3873	0.0187
796.5584	0.0022
796.7294	0.0011
796.9005	0.0195
797.0715	0.0008
797.2425	-0.0059
797.4134	0.0158
797.5844	0.0125
797.7553	0.0073
797.9262	0.0003
798.0971	0.0047
798.2679	0.0031
798.4388	-0.0202
798.6096	0.0058
798.7804	-0.0016
798.9512	-0.0044
799.122	-0.005
799.2927	0.0033
799.4635	0.0089
799.6342	-0.0118
799.8049	0.0011
799.9755	-0.0037
800.1462	0.0204
800.3168	0.012
800.4874	0.0067
800.658	0.0249
800.8286	-0.0034
800.9991	0.0118
801.1696	0.0213
801.3402	0.0129
801.5106	0.0009
801.6811	0.0171
801.8516	0.0126
802.022	0.0142
802.1924	0.0223
802.3628	0.0147
802.5332	0.004
802.7035	0.0241
802.8739	0.0033
803.0442	0.0005
803.2145	0.0216
803.3847	-0.0034
803.555	0.0139
803.7252	0.0008
803.8954	0.0032
804.0656	-0.0074
804.2358	0.0158
804.4059	0.0385
804.5761	0.0148
804.7462	0.0162
804.9163	-0.0098
805.0864	-0.0093
805.2564	-0.0048
805.4264	0.0108
805.5965	-0.001
805.7665	-0.0003
805.9364	0.0046
806.1064	0.0304
806.2763	0.0098
806.4462	0.0237
806.6161	0.0097
806.786	0.0163
806.9559	0.0127
807.1257	-0.0034
807.2955	0.0074
807.4653	0.0068
807.6351	-0.0046
807.8048	0.0048
807.9746	0.0135
808.1443	0.0215
808.314	-0.018
808.4837	0.0099
808.6533	0.0018
808.8229	0.0283
808.9926	0.0051
809.1622	0.0088
809.3317	0.0119
809.5013	0.0056
809.6708	-0.0033
809.8403	0.0053
810.0098	0.0132
810.1793	0.0116
810.3488	0.0139
810.5182	-0.0082
810.6876	0.0077
810.857	-0.0235
811.0264	0.0284
811.1958	0.0084
811.3651	0.0072
811.5344	0.0124
811.7037	-0.0007
811.873	-0.0103
812.0422	0.0009
812.2115	0.0102
812.3807	0.003
812.5499	0.0105
812.7191	0.0185
812.8882	0.0055
813.0574	0.0001
813.2265	-0.0148
813.3956	0.0066
813.5646	0.0147
813.7337	0.0027
813.9027	0.0069
814.0718	0.0275
814.2407	0.0129
814.4097	0.0054
814.5787	-0.0105
814.7476	-0.0211
814.9165	0.0172
815.0854	-0.0063
815.2543	0.0145
815.4232	0.0108
815.592	0.022
815.7608	0.0136
815.9296	0.0126
816.0984	0.0171
816.2671	0.001
816.4359	0.0007
816.6046	0.0099
816.7733	0.0026
816.942	0.0036
817.1106	0.0182
817.2793	0.0135
817.4479	0.0054
817.6165	0.0283
817.785	0.0198
817.9536	0.0108
818.1221	-0.0005
818.2906	0.0198
818.4591	-0.0121
818.6276	-0.0029
818.7961	0.0031
818.9645	0.0068
819.1329	0.0216
819.3013	0.0174
819.4697	0.0284
819.638	-0.019
819.8064	0.0337
819.9747	0.0448
820.143	0.0215
820.3113	-0.0063
820.4795	-0.0016
820.6477	0.006
820.816	0.029
820.9842	0.0253
821.1523	-0.0027
821.3205	0.0124
821.4886	0.0012
821.6567	-0.0073
821.8248	0.0298
821.9929	0.032
822.1609	0.0002
822.329	0.0271
822.497	0.0341
822.665	-0.0108
822.833	0.0151
823.0009	0.002
823.1688	0.0155
823.3367	0.0592
823.5046	0.0315
823.6725	0.0298
823.8404	0.0037
824.0082	0.0021
824.176	0.0199
824.3438	-0.0018
824.5116	0.0052
824.6793	0.026
824.847	0.0183
825.0147	-0.0015
825.1824	0.026
825.3501	0.0317
825.5177	-0.0064
825.6854	-0.0015
825.853	0.009
826.0206	0.0011
826.1881	0.0333
826.3557	0.005
826.5232	0.013
826.6907	-0.0243
826.8582	-0.0025
827.0257	-0.0053
827.1931	0.0066
827.3605	-0.0034
827.528	0.0044
827.6953	-0.0436
827.8627	0.0169
828.03	0.0128
828.1974	0.0288
828.3647	-0.016
828.532	-0.0037
828.6992	-0.0144
828.8665	0.0118
829.0337	-0.0225
829.2009	0.0394
829.3681	0.0059
829.5352	0.0011
829.7024	-0.0314
829.8695	-0.0363
830.0366	0.0103
830.2037	0.0017
830.3707	0.0022
830.5378	0.0034
830.7048	-0.0014
830.8718	0.018
831.0388	-0.0475
831.2057	0.0226
831.3727	0.0315
831.5396	0.0206
831.7065	-0.0183
831.8734	0.0345
832.0402	-0.0144
832.2071	-0.0087
832.3739	-0.0393
832.5407	0.0063
832.7075	-0.0334
832.8742	-0.0148
833.041	-0.06
833.2077	-0.0082
833.3744	0.0026
833.541	0.0206
833.7077	-0.0139
833.8743	-0.0239
834.0409	0.0039
834.2075	-0.0067
834.3741	-0.0022
834.5407	0.0119
834.7072	0.0264
834.8737	-0.0292
835.0402	0.0112
835.2067	0.0469
835.3731	0.011
835.5395	0.0246
835.706	0.0283
835.8723	0.0187
836.0387	0.0473
836.2051	-0.0247
836.3714	-0.0011
836.5377	0.0086
836.704	-0.0199
836.8703	-0.0058
837.0365	-0.0004
837.2027	-0.0189
837.3689	0.012
837.5351	-0.0585
837.7013	-0.0236
837.8674	-0.0508
838.0335	0.025
838.1997	0.0086
838.3657	-0.055
838.5318	-0.014
838.6978	0.027
838.8639	0.0335
839.0299	0.0477
839.1958	-0.0036
839.3618	0.0464
839.5277	-0.027
839.6937	0.0163
839.8596	-0.0452
840.0254	0.0079
840.1913	0.0037
840.3571	0.0146
840.523	0.0085
840.6888	-0.0116
840.8545	-0.0427
841.0203	-0.0276
841.186	0.0351
841.3517	0.0349
841.5174	0.003
841.6831	-0.0052
841.8488	0.0254
842.0144	-0.0024
842.18	0.0278
842.3456	0.0522
842.5112	-0.0056
842.6767	0.0226
842.8422	-0.0006
843.0077	0.0172
843.1732	-0.0593
843.3387	-0.0216
843.5042	-0.0354
843.6696	-0.023
843.835	-0.0278
844.0004	-0.0121
844.1657	0.0263
844.3311	-0.1039
844.4964	-0.0663
844.6617	-0.043
844.827	-0.0155
844.9923	0.0121
845.1575	0.0053
845.3227	-0.0075
845.4879	0.0308
845.6531	-0.0778
845.8183	-0.0789
845.9834	-0.0007
846.1485	0.0171
846.3136	-0.0632
846.4787	-0.0697
846.6438	0.0675
846.8088	-0.0455
846.9738	-0.1171
847.1388	-0.0133
847.3038	-0.0412
847.4687	0.0122
847.6337	0.0044
847.7986	-0.0164
847.9635	-0.0223
848.1284	0.0006
848.2932	0.0567
848.458	-0.067
848.6228	0.0746
848.7876	0.0997
848.9524	-0.0558
849.1172	-0.0791
849.2819	0.0572
849.4466	-0.1516
849.6113	-0.1247
849.7759	-0.0572
849.9406	-0.048
850.1052	0.0821
850.2698	-0.0268
850.4344	-0.0698
850.599	-0.1104
850.7635	0.0173
850.928	0.0093
851.0925	0.0496
851.257	0.0596
851.4215	0.0727
851.5859	-0.0308
851.7503	0.0908
851.9147	-0.0233
852.0791	-0.0508
852.2434	-0.0303
852.4078	0.0024
852.5721	0.0485
852.7364	0.007
852.9007	-0.2154
853.0649	0.021
853.2291	0.0189
853.3934	-0.0694
853.5575	0.0814
853.7217	-0.0385
853.8859	-0.0666
854.05	-0.012
854.2141	0.017
854.3782	-0.0646
854.5423	-0.1343
854.7063	0.0715
854.8703	-0.0485
855.0343	-0.052
855.1983	-0.1653
855.3623	0.1441
855.5262	0.0151
855.6901	-0.0134
855.854	-0.0272
856.0179	0.0332
856.1818	0.1102
856.3456	-0.1565
856.5094	-0.0606
856.6732	-0.079
856.837	-0.1078
857.0008	0.0365
857.1645	-0.0476
857.3282	0.115
857.4919	0.011
857.6556	0.347
857.8192	-0.0571
857.9828	0.0216
858.1465	-0.0963
858.31	-0.0183
858.4736	-0.1445
858.6372	-0.2418
858.8007	-0.1607
858.9642	0.0991
859.1277	0.0458
859.2911	0.0161
859.4546	0.0247
859.618	-0.3616
859.7814	0.0476
859.9448	0.1449
860.1081	-0.0479
860.2715	0.0768
860.4348	-0.0954
860.5981	-0.0678
860.7614	0.0581
860.9246	-0.3065
861.0879	-0.0802
861.2511	0.017
861.4143	-0.0458
861.5774	0.1139
861.7406	-0.1991
861.9037	0.1256
862.0668	-0.0654
862.2299	-0.3236
862.393	-0.634
862.556	0.0279
862.7191	-0.3681
862.8821	0.0437
863.0451	-0.0447
863.208	-0.0066
863.371	-0.0409
863.5339	-0.2228
863.6968	-0.0313
863.8597	0.3325
864.0225	0.276
864.1854	-0.0936
864.3482	0.2627
864.511	0.1988
864.6737	-0.0756
864.8365	-0.026
864.9992	-0.4792
865.1619	-0.4792
865.3246	0.0522
865.4873	0.0436
865.65	-0.1385
865.8126	-0.0628
865.9752	0.1736
866.1378	-0.2032
866.3004	-0.0596
866.4629	0.074
866.6254	-0.0695
866.7879	-0.4049
866.9504	-0.0823
867.1129	-0.8541
867.2753	-0.0309
867.4377	0.6115
867.6001	-0.1761
867.7625	0.2526
867.9249	-0.3372
868.0872	-0.1175
868.2495	-0.1362
868.4118	-0.3938
868.5741	-0.5656
868.7363	-0.2049
868.8986	-0.2817
869.0608	-0.2176
869.223	0.1427
869.3851	0.8832
869.5473	-0
869.7094	0.0503
869.8715	0.1959
870.0336	-0
870.1957	-0.5922
870.3577	0.1663
870.5197	0.1352
870.6817	-0.4359
870.8437	-0.0985
871.0057	-0
871.1676	-0.0983
871.3295	-0.0782
871.4914	-0
871.6533	-0.4074
871.8151	-0.412
871.977	-0
872.1388	-0
872.3006	0.0202
872.4623	0.4794
872.6241	0.6035
872.7858	-0.1716
872.9475	1.2777
873.1092	-0.2031
873.2709	-0
873.4325	0.0583
873.5941	-0.4804
873.7557	-0
873.9173	-0
874.0789	0.0165
874.2404	0.6123
874.4019	0.3206
874.5634	-0.2204
874.7249	0.0228
874.8863	-0.0861
875.0478	0.052
875.2092	-0
875.3706	0.4478
875.5319	-1.1486
875.6933	-0
875.8546	0.5229
876.0159	-0
876.1772	-0
876.3385	-0
876.4997	0.2421
876.6609	-0.2606
876.8221	-0.2265
876.9833	0.6939
877.1445	-0
877.3056	0.0025
877.4667	-0.4257
877.6278	-0
877.7889	-0.603
877.9499	-0
878.111	0.1392
878.272	-0
878.433	-0
878.5939	-0
878.7549	0.0431
878.9158	-0.9278
879.0767	0.8463
879.2376	0.8757
879.3984	0.1873
879.5593	-0
879.7201	0.0566
879.8809	-0.5211
880.0417	-0.396
880.2024	0.8694
880.3632	-0
880.5239	0.3382
880.6846	-0.0074
880.8452	-2.4836
881.0059	-0
881.1665	0.3175
881.3271	-0
881.4877	-0.8237
881.6483	-0.705
881.8088	-0.3533
881.9693	-0
882.1298	-0
882.2903	-0
