Data from MonoPyChalIsomerACN10uM360nmA_Absorbance_13-57-24-304.txt Node
Date: Fri Jul 05 13:57:24 BST 2024
User: LASERRRRR
Spectrometer: FLMT03099
Trigger mode: 0
Integration Time (sec): 1.000000E-1
Scans to average: 1
Electric dark correction enabled: true
Nonlinearity correction enabled: false
Boxcar width: 0
XAxis mode: Wavelengths
Number of Pixels in Spectrum: 3648
>>>>>Begin Spectral Data<<<<<
179.3399	-0.4551
179.5586	-0.4551
179.7771	-0.4551
179.9957	0.4467
180.2143	-0
180.4329	-0.3342
180.6514	-0
180.8699	0.0046
181.0885	-0.263
181.307	0.0203
181.5255	-0
181.744	-0.5208
181.9625	-0
182.181	-1.0322
182.3994	1.0136
182.6179	-0
182.8363	1.1034
183.0547	-0.2702
183.2732	0.0594
183.4916	0.2988
183.71	0.205
183.9284	0.3844
184.1467	-0.0322
184.3651	0.0496
184.5835	-0.101
184.8018	0.1714
185.0201	0.0618
185.2385	-0.084
185.4568	0.0993
185.6751	0.0744
185.8934	0.4421
186.1117	0.0858
186.3299	0.229
186.5482	0.0992
186.7664	0.1793
186.9847	0.0373
187.2029	0.0587
187.4211	-0.0161
187.6393	-0.0459
187.8575	-0.0565
188.0757	0.1839
188.2939	0.0476
188.512	0.087
188.7302	0.023
188.9483	0.5703
189.1665	0.1302
189.3846	0.0662
189.6027	0.1451
189.8208	0.1654
190.0389	0.1117
190.257	0.0881
190.475	0.1605
190.6931	0.153
190.9111	0.6806
191.1292	0.1334
191.3472	0.3501
191.5652	0.2526
191.7832	0.4494
192.0012	0.5252
192.2192	0.4809
192.4371	0.424
192.6551	0.3299
192.873	0.5706
193.091	0.6878
193.3089	0.8259
193.5268	0.3642
193.7447	0.5957
193.9626	0.4244
194.1805	0.4455
194.3984	0.9266
194.6162	0.4696
194.8341	0.5761
195.0519	0.6259
195.2697	0.7584
195.4875	0.5277
195.7054	0.6429
195.9231	0.5694
196.1409	0.5211
196.3587	0.5683
196.5765	0.7304
196.7942	0.6656
197.012	0.5685
197.2297	0.5164
197.4474	0.6843
197.6651	0.5947
197.8828	0.5214
198.1005	0.781
198.3182	0.4124
198.5358	0.7919
198.7535	0.6019
198.9711	0.5489
199.1888	0.731
199.4064	0.6893
199.624	0.6068
199.8416	0.6624
200.0592	0.7015
200.2767	0.7103
200.4943	0.5975
200.7119	0.6904
200.9294	0.681
201.1469	0.5528
201.3645	0.5481
201.582	0.5572
201.7995	0.6947
202.017	0.6646
202.2344	0.522
202.4519	0.7561
202.6694	0.7198
202.8868	0.7567
203.1042	0.6987
203.3217	0.7021
203.5391	0.6183
203.7565	0.5273
203.9739	0.6341
204.1913	0.5851
204.4086	0.6583
204.626	0.6487
204.8433	0.6563
205.0607	0.6761
205.278	0.6647
205.4953	0.6832
205.7126	0.7724
205.9299	0.7066
206.1472	0.7328
206.3644	0.6518
206.5817	0.7222
206.7989	0.7471
207.0162	0.644
207.2334	0.6462
207.4506	0.6175
207.6678	0.5829
207.885	0.681
208.1022	0.6821
208.3194	0.6164
208.5365	0.658
208.7537	0.6288
208.9708	0.557
209.1879	0.5981
209.405	0.6178
209.6222	0.7082
209.8392	0.6123
210.0563	0.6052
210.2734	0.6065
210.4905	0.6416
210.7075	0.6175
210.9245	0.5852
211.1416	0.6605
211.3586	0.6198
211.5756	0.5869
211.7926	0.5417
212.0096	0.5804
212.2265	0.5157
212.4435	0.5632
212.6604	0.5762
212.8774	0.6064
213.0943	0.6243
213.3112	0.5674
213.5281	0.553
213.745	0.4631
213.9619	0.4984
214.1788	0.4761
214.3956	0.4584
214.6125	0.4784
214.8293	0.447
215.0461	0.4875
215.2629	0.4556
215.4798	0.4784
215.6965	0.4405
215.9133	0.4358
216.1301	0.4239
216.3469	0.4563
216.5636	0.4064
216.7803	0.3586
216.9971	0.4267
217.2138	0.3973
217.4305	0.3783
217.6472	0.3911
217.8639	0.3622
218.0805	0.3585
218.2972	0.3363
218.5138	0.3185
218.7305	0.3117
218.9471	0.3076
219.1637	0.2767
219.3803	0.2948
219.5969	0.2951
219.8135	0.2647
220.0301	0.3056
220.2466	0.2955
220.4632	0.2489
220.6797	0.2282
220.8962	0.2703
221.1127	0.2798
221.3292	0.2663
221.5457	0.2431
221.7622	0.2412
221.9787	0.2546
222.1951	0.2679
222.4116	0.2692
222.628	0.2689
222.8444	0.277
223.0608	0.2914
223.2772	0.2738
223.4936	0.2647
223.71	0.2528
223.9264	0.278
224.1427	0.2523
224.3591	0.2553
224.5754	0.2962
224.7917	0.2715
225.008	0.2765
225.2243	0.2649
225.4406	0.3056
225.6569	0.2786
225.8732	0.2627
226.0894	0.2773
226.3057	0.2732
226.5219	0.2887
226.7381	0.2805
226.9543	0.2948
227.1705	0.3014
227.3867	0.2929
227.6029	0.3085
227.8191	0.3179
228.0352	0.3075
228.2513	0.315
228.4675	0.3289
228.6836	0.3173
228.8997	0.314
229.1158	0.3178
229.3319	0.3176
229.548	0.3093
229.764	0.3423
229.9801	0.3461
230.1961	0.3308
230.4121	0.3628
230.6282	0.3509
230.8442	0.3292
231.0602	0.3708
231.2761	0.3454
231.4921	0.3698
231.7081	0.3598
231.924	0.3549
232.14	0.3559
232.3559	0.3448
232.5718	0.3776
232.7877	0.3696
233.0036	0.3549
233.2195	0.361
233.4353	0.3886
233.6512	0.3549
233.867	0.374
234.0829	0.3692
234.2987	0.3692
234.5145	0.3831
234.7303	0.3602
234.9461	0.4011
235.1619	0.3747
235.3776	0.3866
235.5934	0.3983
235.8091	0.38
236.0249	0.3937
236.2406	0.3963
236.4563	0.3819
236.672	0.3889
236.8877	0.3861
237.1034	0.4013
237.319	0.4043
237.5347	0.4056
237.7503	0.4189
237.966	0.4217
238.1816	0.4318
238.3972	0.4203
238.6128	0.4212
238.8284	0.4081
239.0439	0.4236
239.2595	0.4084
239.475	0.4298
239.6906	0.4103
239.9061	0.4026
240.1216	0.3914
240.3371	0.4261
240.5526	0.4078
240.7681	0.4014
240.9836	0.3908
241.199	0.3929
241.4145	0.3799
241.6299	0.3775
241.8453	0.3833
242.0607	0.4012
242.2761	0.3523
242.4915	0.3696
242.7069	0.3659
242.9223	0.3678
243.1376	0.3467
243.353	0.3555
243.5683	0.3506
243.7836	0.32
243.9989	0.3281
244.2142	0.3039
244.4295	0.3096
244.6448	0.2995
244.86	0.3003
245.0753	0.2692
245.2905	0.2872
245.5057	0.2775
245.721	0.2719
245.9362	0.2679
246.1514	0.2785
246.3665	0.2574
246.5817	0.2438
246.7969	0.2499
247.012	0.2388
247.2271	0.2386
247.4423	0.244
247.6574	0.2493
247.8725	0.2355
248.0876	0.2092
248.3026	0.2258
248.5177	0.2214
248.7328	0.215
248.9478	0.2008
249.1628	0.2145
249.3779	0.2122
249.5929	0.2039
249.8079	0.2237
250.0228	0.2085
250.2378	0.1868
250.4528	0.1939
250.6677	0.1797
250.8827	0.1987
251.0976	0.1884
251.3125	0.1813
251.5274	0.1623
251.7423	0.1885
251.9572	0.185
252.172	0.1645
252.3869	0.1867
252.6017	0.1869
252.8166	0.1791
253.0314	0.1713
253.2462	0.1649
253.461	0.1658
253.6758	0.1688
253.8906	0.1698
254.1053	0.1658
254.3201	0.167
254.5348	0.1759
254.7496	0.177
254.9643	0.1682
255.179	0.171
255.3937	0.1613
255.6083	0.1757
255.823	0.1661
256.0377	0.1686
256.2523	0.1625
256.467	0.1537
256.6816	0.1722
256.8962	0.1519
257.1108	0.1636
257.3254	0.1742
257.54	0.1543
257.7545	0.1679
257.9691	0.179
258.1836	0.1802
258.3981	0.1766
258.6127	0.1807
258.8272	0.1746
259.0417	0.1556
259.2561	0.1614
259.4706	0.1566
259.6851	0.1623
259.8995	0.1672
260.114	0.1742
260.3284	0.1654
260.5428	0.162
260.7572	0.1687
260.9716	0.1841
261.186	0.158
261.4003	0.164
261.6147	0.1711
261.829	0.1657
262.0433	0.1738
262.2577	0.1599
262.472	0.1645
262.6863	0.1632
262.9005	0.17
263.1148	0.1708
263.3291	0.1502
263.5433	0.169
263.7576	0.1597
263.9718	0.1756
264.186	0.1665
264.4002	0.1567
264.6144	0.1566
264.8286	0.1705
265.0427	0.1623
265.2569	0.1591
265.471	0.156
265.6851	0.1672
265.8993	0.1505
266.1134	0.1609
266.3275	0.1501
266.5415	0.1591
266.7556	0.1642
266.9697	0.1651
267.1837	0.1546
267.3978	0.1569
267.6118	0.1693
267.8258	0.1695
268.0398	0.1605
268.2538	0.165
268.4677	0.1721
268.6817	0.1679
268.8957	0.1576
269.1096	0.1714
269.3235	0.1553
269.5374	0.154
269.7514	0.1426
269.9652	0.1512
270.1791	0.1485
270.393	0.1628
270.6068	0.1486
270.8207	0.1437
271.0345	0.1444
271.2483	0.1499
271.4622	0.1292
271.676	0.158
271.8897	0.1338
272.1035	0.1349
272.3173	0.1433
272.531	0.1328
272.7448	0.1465
272.9585	0.1336
273.1722	0.1535
273.3859	0.144
273.5996	0.1248
273.8133	0.151
274.0269	0.1419
274.2406	0.1353
274.4542	0.1408
274.6679	0.1263
274.8815	0.1448
275.0951	0.147
275.3087	0.1479
275.5223	0.1492
275.7358	0.1429
275.9494	0.1478
276.1629	0.1362
276.3765	0.1432
276.59	0.1446
276.8035	0.1426
277.017	0.1399
277.2305	0.1328
277.444	0.1397
277.6574	0.1383
277.8709	0.1501
278.0843	0.132
278.2978	0.1481
278.5112	0.1313
278.7246	0.1343
278.938	0.1418
279.1513	0.1487
279.3647	0.1553
279.5781	0.1442
279.7914	0.1395
280.0047	0.152
280.2181	0.1491
280.4314	0.1446
280.6447	0.1549
280.8579	0.1419
281.0712	0.15
281.2845	0.152
281.4977	0.15
281.711	0.1488
281.9242	0.1484
282.1374	0.1549
282.3506	0.1513
282.5638	0.1579
282.7769	0.1468
282.9901	0.1623
283.2033	0.1563
283.4164	0.1475
283.6295	0.1477
283.8426	0.1477
284.0557	0.1501
284.2688	0.1615
284.4819	0.1557
284.695	0.1557
284.908	0.1567
285.1211	0.139
285.3341	0.1601
285.5471	0.1653
285.7601	0.1609
285.9731	0.156
286.1861	0.1448
286.3991	0.17
286.612	0.1697
286.825	0.157
287.0379	0.1702
287.2508	0.1578
287.4637	0.1688
287.6766	0.1502
287.8895	0.1768
288.1024	0.1839
288.3152	0.1712
288.5281	0.1626
288.7409	0.1667
288.9538	0.1716
289.1666	0.1681
289.3794	0.1771
289.5922	0.1622
289.8049	0.1709
290.0177	0.1678
290.2304	0.1737
290.4432	0.1665
290.6559	0.1751
290.8686	0.1747
291.0813	0.1654
291.294	0.1748
291.5067	0.1794
291.7194	0.1733
291.932	0.1737
292.1447	0.1724
292.3573	0.1735
292.5699	0.1731
292.7825	0.1679
292.9951	0.1611
293.2077	0.1697
293.4203	0.1716
293.6328	0.1556
293.8454	0.174
294.0579	0.1726
294.2704	0.1711
294.4829	0.1727
294.6954	0.1716
294.9079	0.1708
295.1204	0.1717
295.3328	0.1735
295.5453	0.1794
295.7577	0.1738
295.9701	0.1627
296.1825	0.1757
296.3949	0.1602
296.6073	0.1744
296.8197	0.1662
297.0321	0.1782
297.2444	0.152
297.4567	0.1692
297.6691	0.1725
297.8814	0.1732
298.0937	0.1669
298.306	0.1807
298.5182	0.181
298.7305	0.1665
298.9428	0.1641
299.155	0.174
299.3672	0.179
299.5794	0.1746
299.7916	0.1757
300.0038	0.1791
300.216	0.1705
300.4282	0.1771
300.6403	0.1743
300.8525	0.1762
301.0646	0.1611
301.2767	0.1732
301.4888	0.1728
301.7009	0.166
301.913	0.1685
302.125	0.1826
302.3371	0.1707
302.5491	0.1602
302.7612	0.1687
302.9732	0.1691
303.1852	0.1823
303.3972	0.1612
303.6092	0.1617
303.8211	0.1616
304.0331	0.1667
304.245	0.1667
304.457	0.163
304.6689	0.1544
304.8808	0.1782
305.0927	0.153
305.3046	0.1646
305.5164	0.1643
305.7283	0.1493
305.9401	0.1575
306.152	0.1509
306.3638	0.1659
306.5756	0.158
306.7874	0.1436
306.9992	0.1384
307.2109	0.1552
307.4227	0.1427
307.6344	0.1372
307.8462	0.1429
308.0579	0.1417
308.2696	0.1373
308.4813	0.1337
308.693	0.1358
308.9046	0.1423
309.1163	0.1313
309.328	0.1325
309.5396	0.1292
309.7512	0.1211
309.9628	0.1238
310.1744	0.1293
310.386	0.1274
310.5976	0.1195
310.8091	0.1313
311.0207	0.1216
311.2322	0.1226
311.4437	0.1174
311.6552	0.1112
311.8667	0.1116
312.0782	0.0994
312.2897	0.1009
312.5012	0.1067
312.7126	0.1014
312.924	0.099
313.1355	0.1131
313.3469	0.1092
313.5583	0.1105
313.7696	0.1064
313.981	0.1073
314.1924	0.0966
314.4037	0.1012
314.6151	0.1026
314.8264	0.0921
315.0377	0.1026
315.249	0.1131
315.4603	0.1126
315.6716	0.0998
315.8828	0.0812
316.0941	0.1061
316.3053	0.1008
316.5165	0.0929
316.7277	0.0874
316.9389	0.1034
317.1501	0.1016
317.3613	0.1015
317.5724	0.0789
317.7836	0.1003
317.9947	0.0969
318.2058	0.1005
318.417	0.0919
318.6281	0.0852
318.8391	0.0921
319.0502	0.0925
319.2613	0.0891
319.4723	0.1032
319.6834	0.104
319.8944	0.087
320.1054	0.0919
320.3164	0.0918
320.5274	0.0888
320.7383	0.0898
320.9493	0.0936
321.1602	0.1017
321.3712	0.0842
321.5821	0.1022
321.793	0.0987
322.0039	0.0903
322.2148	0.0947
322.4257	0.1023
322.6365	0.1047
322.8474	0.0962
323.0582	0.0953
323.269	0.0951
323.4798	0.107
323.6906	0.0977
323.9014	0.1009
324.1122	0.1093
324.3229	0.0928
324.5337	0.1085
324.7444	0.092
324.9551	0.1055
325.1658	0.0919
325.3765	0.1041
325.5872	0.0958
325.7979	0.0985
326.0085	0.0964
326.2192	0.115
326.4298	0.0917
326.6404	0.089
326.851	0.085
327.0616	0.0918
327.2722	0.1039
327.4828	0.1077
327.6933	0.0976
327.9039	0.0976
328.1144	0.1168
328.3249	0.094
328.5354	0.0967
328.7459	0.1047
328.9564	0.0995
329.1669	0.1017
329.3773	0.0929
329.5878	0.0936
329.7982	0.0863
330.0086	0.098
330.219	0.0952
330.4294	0.1039
330.6398	0.0986
330.8502	0.0888
331.0605	0.1091
331.2708	0.0994
331.4812	0.1061
331.6915	0.1052
331.9018	0.1064
332.1121	0.0918
332.3224	0.1102
332.5326	0.1008
332.7429	0.101
332.9531	0.1031
333.1633	0.1087
333.3735	0.0975
333.5837	0.1051
333.7939	0.099
334.0041	0.1079
334.2143	0.101
334.4244	0.1072
334.6346	0.0896
334.8447	0.1174
335.0548	0.1021
335.2649	0.0975
335.475	0.1162
335.685	0.0966
335.8951	0.1066
336.1051	0.1151
336.3152	0.1091
336.5252	0.1105
336.7352	0.1188
336.9452	0.1107
337.1552	0.1039
337.3652	0.0985
337.5751	0.1039
337.7851	0.1044
337.995	0.1064
338.2049	0.1187
338.4148	0.107
338.6247	0.1181
338.8346	0.1064
339.0445	0.1096
339.2543	0.1002
339.4642	0.1102
339.674	0.1044
339.8838	0.1082
340.0936	0.1035
340.3034	0.1282
340.5132	0.1172
340.7229	0.116
340.9327	0.1094
341.1424	0.1182
341.3522	0.13
341.5619	0.1226
341.7716	0.1108
341.9813	0.107
342.1909	0.1104
342.4006	0.1328
342.6102	0.1168
342.8199	0.1171
343.0295	0.1161
343.2391	0.1205
343.4487	0.1323
343.6583	0.109
343.8679	0.123
344.0774	0.1307
344.287	0.1214
344.4965	0.1137
344.706	0.13
344.9155	0.1248
345.125	0.1242
345.3345	0.1308
345.544	0.1305
345.7534	0.1225
345.9629	0.1225
346.1723	0.1309
346.3817	0.1126
346.5911	0.1225
346.8005	0.1297
347.0099	0.126
347.2193	0.1426
347.4286	0.1306
347.638	0.1375
347.8473	0.1303
348.0566	0.126
348.2659	0.1343
348.4752	0.121
348.6845	0.1296
348.8937	0.1288
349.103	0.1505
349.3122	0.131
349.5214	0.1247
349.7306	0.1314
349.9398	0.1339
350.149	0.1517
350.3582	0.1277
350.5674	0.1468
350.7765	0.1444
350.9856	0.1381
351.1948	0.1465
351.4039	0.1212
351.613	0.1297
351.822	0.1471
352.0311	0.1514
352.2402	0.1322
352.4492	0.1474
352.6582	0.1471
352.8672	0.1481
353.0762	0.1568
353.2852	0.1452
353.4942	0.1448
353.7032	0.1586
353.9121	0.1637
354.1211	0.1548
354.33	0.1489
354.5389	0.1635
354.7478	0.1419
354.9567	0.1539
355.1655	0.1402
355.3744	0.1584
355.5833	0.1593
355.7921	0.1617
356.0009	0.1549
356.2097	0.1854
356.4185	0.1605
356.6273	0.1498
356.8361	0.1564
357.0448	0.1628
357.2536	0.1582
357.4623	0.1502
357.671	0.1688
357.8797	0.1707
358.0884	0.1696
358.2971	0.1571
358.5057	0.168
358.7144	0.1718
358.923	0.1712
359.1316	0.1583
359.3402	0.1734
359.5488	0.167
359.7574	0.1651
359.966	0.1788
360.1746	0.1742
360.3831	0.1757
360.5916	0.1621
360.8002	0.1604
361.0087	0.1958
361.2172	0.1683
361.4256	0.1866
361.6341	0.1745
361.8426	0.1746
362.051	0.1898
362.2594	0.1856
362.4678	0.1709
362.6762	0.2024
362.8846	0.1993
363.093	0.1818
363.3014	0.1864
363.5097	0.185
363.718	0.1903
363.9264	0.1783
364.1347	0.1819
364.343	0.2068
364.5513	0.1946
364.7595	0.2083
364.9678	0.2065
365.176	0.2136
365.3842	0.1886
365.5925	0.199
365.8007	0.1983
366.0089	0.202
366.217	0.1872
366.4252	0.2065
366.6333	0.2326
366.8415	0.2022
367.0496	0.198
367.2577	0.2215
367.4658	0.2056
367.6739	0.2377
367.882	0.2124
368.09	0.1998
368.2981	0.2144
368.5061	0.2035
368.7141	0.2111
368.9221	0.1997
369.1301	0.2194
369.3381	0.2208
369.5461	0.2089
369.754	0.2133
369.962	0.2185
370.1699	0.2133
370.3778	0.2321
370.5857	0.2041
370.7936	0.2202
371.0015	0.2278
371.2093	0.2294
371.4172	0.2297
371.625	0.2133
371.8328	0.234
372.0406	0.224
372.2484	0.2197
372.4562	0.2438
372.664	0.2375
372.8717	0.2427
373.0795	0.2303
373.2872	0.2474
373.4949	0.2357
373.7026	0.2434
373.9103	0.2419
374.118	0.2565
374.3256	0.2276
374.5333	0.2483
374.7409	0.2254
374.9485	0.2603
375.1561	0.2458
375.3637	0.2453
375.5713	0.2586
375.7789	0.2505
375.9864	0.2258
376.194	0.2397
376.4015	0.2491
376.609	0.2564
376.8165	0.2457
377.024	0.2413
377.2315	0.2544
377.4389	0.2486
377.6464	0.2566
377.8538	0.2598
378.0612	0.2712
378.2686	0.2667
378.476	0.2645
378.6834	0.265
378.8908	0.2662
379.0981	0.262
379.3055	0.268
379.5128	0.2492
379.7201	0.2656
379.9274	0.2379
380.1347	0.2758
380.342	0.2662
380.5492	0.249
380.7565	0.2657
380.9637	0.2655
381.1709	0.2582
381.3781	0.2606
381.5853	0.2647
381.7925	0.274
381.9997	0.2697
382.2068	0.2761
382.4139	0.2713
382.6211	0.2635
382.8282	0.2745
383.0353	0.2692
383.2424	0.2558
383.4494	0.2834
383.6565	0.2462
383.8635	0.2629
384.0706	0.2645
384.2776	0.2898
384.4846	0.2567
384.6916	0.2797
384.8986	0.2625
385.1055	0.2878
385.3125	0.2729
385.5194	0.2425
385.7263	0.2873
385.9333	0.3055
386.1402	0.2669
386.347	0.2564
386.5539	0.2878
386.7608	0.2896
386.9676	0.2628
387.1744	0.2659
387.3813	0.27
387.5881	0.2868
387.7948	0.2547
388.0016	0.2559
388.2084	0.2774
388.4151	0.2738
388.6219	0.2778
388.8286	0.2666
389.0353	0.2722
389.242	0.287
389.4487	0.2612
389.6553	0.2597
389.862	0.2465
390.0686	0.2562
390.2753	0.2706
390.4819	0.2772
390.6885	0.2606
390.8951	0.2584
391.1016	0.2541
391.3082	0.2451
391.5147	0.2535
391.7213	0.2573
391.9278	0.2487
392.1343	0.2349
392.3408	0.2575
392.5473	0.2691
392.7537	0.2536
392.9602	0.2556
393.1666	0.2543
393.373	0.2377
393.5794	0.2635
393.7858	0.2517
393.9922	0.2351
394.1986	0.2448
394.4049	0.2401
394.6113	0.2458
394.8176	0.2268
395.0239	0.2476
395.2302	0.2257
395.4365	0.2279
395.6428	0.2401
395.8491	0.2257
396.0553	0.2318
396.2615	0.225
396.4678	0.2294
396.674	0.21
396.8802	0.2463
397.0863	0.2562
397.2925	0.2327
397.4987	0.2218
397.7048	0.2438
397.9109	0.2373
398.117	0.2176
398.3231	0.2244
398.5292	0.2449
398.7353	0.2379
398.9413	0.2307
399.1474	0.2357
399.3534	0.2179
399.5594	0.2245
399.7654	0.2235
399.9714	0.2412
400.1774	0.2356
400.3833	0.2302
400.5893	0.2235
400.7952	0.2232
401.0011	0.2452
401.207	0.2296
401.4129	0.2233
401.6188	0.2266
401.8247	0.2336
402.0305	0.2269
402.2364	0.2285
402.4422	0.2625
402.648	0.2197
402.8538	0.2452
403.0596	0.2287
403.2654	0.23
403.4711	0.242
403.6768	0.2361
403.8826	0.242
404.0883	0.2399
404.294	0.2249
404.4997	0.239
404.7054	0.2145
404.911	0.2149
405.1167	0.2209
405.3223	0.245
405.5279	0.2578
405.7335	0.2484
405.9391	0.2417
406.1447	0.2259
406.3502	0.2597
406.5558	0.2251
406.7613	0.2454
406.9668	0.2355
407.1724	0.2129
407.3778	0.217
407.5833	0.2224
407.7888	0.2267
407.9942	0.2437
408.1997	0.2219
408.4051	0.2262
408.6105	0.2205
408.8159	0.2371
409.0213	0.204
409.2267	0.2159
409.432	0.2267
409.6374	0.2386
409.8427	0.2377
410.048	0.234
410.2533	0.2261
410.4586	0.2248
410.6639	0.2189
410.8691	0.2206
411.0744	0.2332
411.2796	0.2078
411.4848	0.2322
411.69	0.2464
411.8952	0.2277
412.1004	0.2242
412.3056	0.2302
412.5107	0.2322
412.7158	0.2419
412.921	0.2278
413.1261	0.2225
413.3312	0.2177
413.5362	0.2173
413.7413	0.215
413.9464	0.2151
414.1514	0.2237
414.3564	0.2292
414.5614	0.217
414.7664	0.2267
414.9714	0.2066
415.1764	0.2234
415.3813	0.2324
415.5863	0.2182
415.7912	0.226
415.9961	0.2033
416.201	0.2249
416.4059	0.2319
416.6108	0.2152
416.8156	0.2278
417.0205	0.227
417.2253	0.2118
417.4301	0.2373
417.6349	0.2105
417.8397	0.2214
418.0445	0.2346
418.2492	0.2385
418.454	0.1956
418.6587	0.2048
418.8634	0.2108
419.0681	0.2106
419.2728	0.2121
419.4775	0.2037
419.6822	0.2227
419.8868	0.1986
420.0915	0.2096
420.2961	0.1877
420.5007	0.2066
420.7053	0.2167
420.9099	0.2071
421.1144	0.2157
421.319	0.191
421.5235	0.2194
421.728	0.2169
421.9325	0.2053
422.137	0.2132
422.3415	0.1991
422.546	0.2168
422.7504	0.204
422.9549	0.2064
423.1593	0.1968
423.3637	0.2187
423.5681	0.2044
423.7725	0.1956
423.9769	0.1978
424.1812	0.1866
424.3856	0.2122
424.5899	0.2018
424.7942	0.1862
424.9985	0.2019
425.2028	0.1826
425.4071	0.1942
425.6113	0.1839
425.8156	0.2035
426.0198	0.1932
426.224	0.1785
426.4282	0.1797
426.6324	0.1596
426.8366	0.1847
427.0407	0.1947
427.2449	0.1815
427.449	0.1915
427.6531	0.1628
427.8572	0.1858
428.0613	0.1741
428.2654	0.1892
428.4694	0.1722
428.6735	0.1768
428.8775	0.1854
429.0815	0.1837
429.2855	0.1645
429.4895	0.1843
429.6935	0.173
429.8975	0.1691
430.1014	0.1634
430.3053	0.15
430.5093	0.1605
430.7132	0.1601
430.9171	0.1671
431.1209	0.1646
431.3248	0.1562
431.5286	0.1642
431.7325	0.1457
431.9363	0.1374
432.1401	0.1621
432.3439	0.1347
432.5477	0.1162
432.7514	0.1555
432.9552	0.1482
433.1589	0.1366
433.3627	0.1338
433.5664	0.1256
433.7701	0.1218
433.9737	0.1156
434.1774	0.1178
434.3811	0.1138
434.5847	0.1366
434.7883	0.1323
434.9919	0.12
435.1955	0.1252
435.3991	0.1217
435.6027	0.1213
435.8062	0.1263
436.0098	0.1077
436.2133	0.1023
436.4168	0.1128
436.6203	0.1322
436.8238	0.1286
437.0272	0.1139
437.2307	0.1131
437.4341	0.1292
437.6375	0.1155
437.841	0.0965
438.0443	0.1175
438.2477	0.1044
438.4511	0.097
438.6545	0.1029
438.8578	0.1179
439.0611	0.1
439.2644	0.0961
439.4677	0.0763
439.671	0.0917
439.8743	0.0918
440.0775	0.0918
440.2808	0.0856
440.484	0.0809
440.6872	0.065
440.8904	0.0686
441.0936	0.0976
441.2967	0.0788
441.4999	0.0838
441.703	0.0797
441.9062	0.0788
442.1093	0.0751
442.3124	0.0745
442.5155	0.0669
442.7185	0.0773
442.9216	0.0548
443.1246	0.0817
443.3276	0.0577
443.5307	0.0732
443.7337	0.0733
443.9366	0.0673
444.1396	0.0604
444.3426	0.0634
444.5455	0.0566
444.7484	0.0584
444.9513	0.0495
445.1542	0.0619
445.3571	0.0492
445.56	0.0658
445.7628	0.039
445.9657	0.0445
446.1685	0.0534
446.3713	0.0379
446.5741	0.0608
446.7769	0.0411
446.9797	0.0453
447.1824	0.0632
447.3852	0.0481
447.5879	0.0534
447.7906	0.061
447.9933	0.0502
448.196	0.0337
448.3986	0.0513
448.6013	0.0363
448.8039	0.0264
449.0066	0.0323
449.2092	0.0438
449.4118	0.0346
449.6143	0.0412
449.8169	0.0388
450.0195	0.0322
450.222	0.0179
450.4245	0.0186
450.627	0.0372
450.8295	0.0295
451.032	0.0357
451.2345	0.0281
451.4369	0.0471
451.6394	0.0334
451.8418	0.0076
452.0442	0.0182
452.2466	0.0305
452.449	0.0107
452.6513	0.02
452.8537	0.0299
453.056	0.0187
453.2583	0.0173
453.4607	0.0183
453.663	0.0205
453.8652	0.0373
454.0675	0.0185
454.2697	0.0349
454.472	0.0074
454.6742	0.0279
454.8764	0.0113
455.0786	0.0217
455.2808	0.0196
455.4829	0.0112
455.6851	0.0195
455.8872	0.0217
456.0893	0.0292
456.2915	0.0223
456.4935	0.0233
456.6956	0.0116
456.8977	0.0164
457.0997	0.017
457.3018	0.0089
457.5038	0.0264
457.7058	0.0092
457.9078	0.0135
458.1098	0.0151
458.3117	0.0052
458.5137	0.005
458.7156	0.0124
458.9175	-0.0057
459.1194	0.0195
459.3213	0.0109
459.5232	0.0077
459.725	-0.0037
459.9269	0.0091
460.1287	0.0035
460.3305	0.0076
460.5323	0.0126
460.7341	0.0033
460.9359	0.0147
461.1376	0.012
461.3394	-0.0044
461.5411	0.0159
461.7428	-0.002
461.9445	0.0185
462.1462	0.0063
462.3479	0.0023
462.5495	0.0036
462.7512	0.015
462.9528	0.0058
463.1544	-0.0026
463.356	0.0029
463.5576	0.0025
463.7592	-0.0141
463.9607	0.0145
464.1623	0.0187
464.3638	0.0333
464.5653	-0.0038
464.7668	-0.0066
464.9683	0.0016
465.1697	0.0214
465.3712	-0.0009
465.5726	-0.0032
465.7741	0.0054
465.9755	-0.0043
466.1769	-0.0103
466.3782	0.0089
466.5796	-0.0062
466.7809	0.0076
466.9823	0.0035
467.1836	0.0083
467.3849	0.0068
467.5862	0.0039
467.7875	0.008
467.9887	0.0146
468.19	-0.016
468.3912	0.0037
468.5924	0.0027
468.7936	0.0041
468.9948	-0.0029
469.196	0.0138
469.3972	-0.0172
469.5983	0.0048
469.7994	-0.0023
470.0006	0.0015
470.2017	-0.0128
470.4027	-0.0052
470.6038	0.0027
470.8049	-0.0116
471.0059	-0.0055
471.2069	-0.0052
471.408	0.012
471.6089	0.0021
471.8099	0.0015
472.0109	0.0046
472.2119	-0
472.4128	-0.0073
472.6137	0.0084
472.8146	-0.0008
473.0155	-0.0123
473.2164	-0.0043
473.4173	-0.0009
473.6181	0.0067
473.819	0.0167
474.0198	-0.0092
474.2206	0.0061
474.4214	-0.0036
474.6222	0.0003
474.8229	-0.0018
475.0237	-0.0143
475.2244	-0.0097
475.4251	-0.0055
475.6258	0.0079
475.8265	-0.0006
476.0272	0.0026
476.2278	0.0065
476.4285	-0.0061
476.6291	-0.0047
476.8297	-0.0127
477.0303	-0.0126
477.2309	-0.0053
477.4315	-0.0088
477.632	-0.0053
477.8326	-0.0082
478.0331	0.0046
478.2336	0.0052
478.4341	0.0012
478.6346	0.0042
478.8351	0.0006
479.0355	0.0022
479.236	-0.006
479.4364	0.0011
479.6368	-0.0022
479.8372	-0.0136
480.0376	-0.0006
480.2379	-0.0282
480.4383	0.0016
480.6386	0.0014
480.8389	0.0044
481.0392	-0.0108
481.2395	0.0001
481.4398	0.0214
481.6401	0.0125
481.8403	0.0008
482.0405	-0.0127
482.2408	0.0003
482.441	0.0075
482.6411	-0.0122
482.8413	-0.0106
483.0415	0.0016
483.2416	0.002
483.4417	-0.0053
483.6419	0.0025
483.8419	0.0023
484.042	0.0078
484.2421	-0.0015
484.4422	0.0049
484.6422	0.0036
484.8422	0.0025
485.0422	-0.0125
485.2422	0.004
485.4422	-0.0063
485.6422	-0.0138
485.8421	0.0009
486.042	0.0089
486.242	-0.0019
486.4419	0.0018
486.6417	-0.0049
486.8416	0.0018
487.0415	0.003
487.2413	0.0023
487.4411	-0.0017
487.641	-0.0108
487.8408	-0.001
488.0405	-0.0087
488.2403	0.0008
488.4401	0.0047
488.6398	0.0007
488.8395	-0.0124
489.0392	0.0029
489.2389	-0.0065
489.4386	0.0037
489.6383	-0.0041
489.8379	0.0073
490.0376	0.0053
490.2372	-0.0063
490.4368	-0.0099
490.6364	-0.0091
490.836	-0.0104
491.0355	-0.0042
491.2351	-0.0017
491.4346	-0.0135
491.6341	-0.0127
491.8336	-0.0002
492.0331	-0.0139
492.2326	-0.0056
492.432	0.0068
492.6315	-0
492.8309	-0.0113
493.0303	-0.0148
493.2297	-0.0115
493.4291	-0.0021
493.6284	-0.003
493.8278	0.0006
494.0271	-0.0037
494.2264	-0.0054
494.4257	-0.0098
494.625	-0.0114
494.8243	-0.0105
495.0236	-0.0152
495.2228	-0.0083
495.422	0.0051
495.6213	-0.0027
495.8205	-0.0034
496.0196	-0.0084
496.2188	0.0051
496.418	-0.0077
496.6171	-0.0009
496.8162	-0.0038
497.0153	-0.0036
497.2144	-0.0042
497.4135	-0.0061
497.6126	-0.0149
497.8116	-0.012
498.0107	-0.0048
498.2097	-0.0108
498.4087	-0.0069
498.6077	-0.0006
498.8067	-0.0038
499.0056	-0.005
499.2046	-0.0043
499.4035	-0.0259
499.6024	-0.0066
499.8013	-0.0063
500.0002	-0.0136
500.199	-0.0103
500.3979	-0.0053
500.5967	-0.0237
500.7956	0.0019
500.9944	-0.0106
501.1932	-0.0061
501.3919	-0.0137
501.5907	-0.0149
501.7895	-0.0032
501.9882	-0.0111
502.1869	-0.0193
502.3856	-0.0044
502.5843	-0.0159
502.783	-0.0135
502.9816	-0.0099
503.1803	-0.0143
503.3789	0.0031
503.5775	0.005
503.7761	-0.0091
503.9747	-0.0093
504.1732	-0.0066
504.3718	-0.005
504.5703	-0.01
504.7689	-0.0018
504.9674	-0.0016
505.1658	-0.0002
505.3643	-0.0027
505.5628	-0.0111
505.7612	-0.0069
505.9597	0.0053
506.1581	-0.0061
506.3565	0.002
506.5549	0.0049
506.7532	-0.0117
506.9516	-0.0132
507.1499	-0.0018
507.3482	-0.0221
507.5465	-0.0079
507.7448	-0.0049
507.9431	-0.0014
508.1414	0.0001
508.3396	0.0031
508.5379	0.0015
508.7361	-0.0101
508.9343	-0.0044
509.1325	0.0046
509.3306	-0.0103
509.5288	0.0031
509.7269	-0.0063
509.9251	-0.0071
510.1232	-0.0116
510.3213	0.0026
510.5193	0.0007
510.7174	-0.0046
510.9154	-0.0046
511.1135	-0.0003
511.3115	-0.0117
511.5095	-0.0085
511.7075	-0.0032
511.9055	-0.0013
512.1034	-0.0094
512.3014	-0.0027
512.4993	0.001
512.6972	0.0062
512.8951	-0.0118
513.093	0.0009
513.2908	0.0019
513.4887	-0.0083
513.6865	-0.0084
513.8844	-0.0064
514.0822	-0.0084
514.2799	-0.0063
514.4777	-0.0025
514.6755	-0.009
514.8732	-0.0029
515.0709	-0.0017
515.2687	-0.0027
515.4664	-0.001
515.664	-0.0064
515.8617	-0.0084
516.0594	-0.0082
516.257	-0.0046
516.4546	-0.007
516.6522	0.0057
516.8498	-0.0028
517.0474	-0.0055
517.2449	-0.0016
517.4425	-0.0178
517.64	-0.0035
517.8375	0.0091
518.035	-0.0014
518.2325	-0.0065
518.43	-0.0129
518.6274	-0.007
518.8249	-0.0126
519.0223	0.0034
519.2197	-0.0017
519.4171	-0.0147
519.6145	-0.0046
519.8118	-0.0009
520.0092	-0.0102
520.2065	-0.0094
520.4038	-0.0066
520.6011	0.0035
520.7984	0.0015
520.9956	-0.0111
521.1929	-0.003
521.3901	-0.0061
521.5874	-0.011
521.7846	0.0023
521.9818	-0.0096
522.1789	-0.0089
522.3761	0.0041
522.5732	-0.0032
522.7704	-0.0042
522.9675	-0.0002
523.1646	-0.0091
523.3617	-0.0119
523.5587	-0.0056
523.7558	-0.0074
523.9528	-0.0075
524.1498	-0.0006
524.3468	-0.0036
524.5438	-0.0019
524.7408	-0.0018
524.9378	0.0159
525.1347	0.0008
525.3316	-0.0063
525.5285	-0.0095
525.7254	-0.0038
525.9223	-0.0055
526.1192	-0.0069
526.316	-0.0101
526.5129	0.0063
526.7097	-0.0058
526.9065	-0.005
527.1033	-0.0059
527.3	0.0089
527.4968	-0.0005
527.6935	-0.0062
527.8903	-0.01
528.087	-0.0182
528.2837	-0.0032
528.4804	-0.0039
528.677	-0.0073
528.8737	0.0037
529.0703	0.0053
529.2669	-0.0081
529.4635	-0.0041
529.6601	-0.0077
529.8567	-0.0001
530.0532	-0.0082
530.2498	-0.0042
530.4463	0.0059
530.6428	-0.0043
530.8393	0.0038
531.0358	-0.0014
531.2322	-0.0054
531.4287	0.008
531.6251	-0.0117
531.8215	0.0151
532.0179	-0.002
532.2143	0.0016
532.4107	0.0079
532.607	-0.0061
532.8034	0.0028
532.9997	-0.0067
533.196	-0.003
533.3923	-0.0108
533.5886	-0.0004
533.7848	-0.0021
533.9811	-0.0031
534.1773	-0.0004
534.3735	0.0018
534.5697	-0.0008
534.7659	-0.0054
534.9621	-0.012
535.1582	0.0008
535.3544	-0.0072
535.5505	-0.0063
535.7466	-0.0017
535.9427	-0.0016
536.1387	-0.0175
536.3348	-0.0084
536.5308	0.0043
536.7269	-0.0175
536.9229	0.0068
537.1189	-0.0012
537.3148	-0.0003
537.5108	-0.0047
537.7068	-0.0027
537.9027	0.0035
538.0986	-0.0007
538.2945	-0.0047
538.4904	-0.0158
538.6863	-0.0059
538.8821	-0.0046
539.078	-0.0081
539.2738	0.0004
539.4696	-0.0041
539.6654	0.0019
539.8611	0.0151
540.0569	-0.0093
540.2526	-0.0012
540.4484	-0.0082
540.6441	0.0092
540.8398	-0.0023
541.0355	-0.0023
541.2311	-0.0022
541.4268	-0.0059
541.6224	-0.0005
541.818	0.0016
542.0136	-0.0117
542.2092	0.0047
542.4048	0.0037
542.6003	-0.0039
542.7959	-0.0077
542.9914	-0.0012
543.1869	0.0049
543.3824	0.0003
543.5779	-0.0028
543.7734	0.0033
543.9688	-0.0104
544.1642	0.0034
544.3596	-0.0076
544.555	-0.0046
544.7504	-0.0013
544.9458	-0.0029
545.1411	0.0021
545.3365	-0.0048
545.5318	0.0027
545.7271	0.0022
545.9224	-0.0087
546.1177	-0.0008
546.3129	0.0016
546.5081	0.0038
546.7034	-0.0053
546.8986	-0.0008
547.0938	-0.0085
547.289	0.0046
547.4841	-0.0022
547.6793	0.0076
547.8744	-0.0042
548.0695	0.0041
548.2646	-0.0008
548.4597	0.009
548.6548	0.0003
548.8498	0.0047
549.0448	-0.001
549.2399	0.0028
549.4349	0.0004
549.6298	0.0002
549.8248	0.001
550.0198	-0.002
550.2147	0.0074
550.4096	-0.0038
550.6045	0.0054
550.7994	0.0057
550.9943	0.0067
551.1892	-0.0002
551.384	0.0003
551.5788	-0.0028
551.7737	0.0048
551.9685	-0.0023
552.1632	0.0025
552.358	-0.0034
552.5528	-0.0057
552.7475	0.0012
552.9422	-0.0009
553.1369	-0.0007
553.3316	0.0003
553.5263	-0.0085
553.7209	0.0102
553.9156	-0.0088
554.1102	-0.005
554.3048	-0.0034
554.4994	0.015
554.694	-0.0044
554.8885	0.0132
555.0831	-0.0081
555.2776	-0.0059
555.4721	0.0015
555.6666	0.0007
555.8611	0.0105
556.0555	0.0036
556.25	0.0065
556.4444	-0.005
556.6388	-0.0022
556.8332	0.0035
557.0276	0.0063
557.222	-0.0007
557.4163	0.0055
557.6107	-0.0081
557.805	0.0056
557.9993	-0.0025
558.1936	0.0006
558.3879	0.0088
558.5821	0.0061
558.7764	0.0009
558.9706	0.0029
559.1648	0.0082
559.359	-0.0007
559.5532	0.0057
559.7473	-0.0015
559.9415	0.0046
560.1356	-0.0067
560.3297	-0.0061
560.5238	-0.0012
560.7179	-0.0026
560.9119	-0.0019
561.106	-0
561.3	-0.0084
561.494	0.0041
561.688	-0.0025
561.882	-0.0114
562.076	-0.0007
562.2699	0.0003
562.4639	-0.0019
562.6578	0.004
562.8517	-0.0014
563.0456	0.0033
563.2395	0.0011
563.4333	-0.0025
563.6272	0.0078
563.821	0.0005
564.0148	0.0022
564.2086	-0.01
564.4024	-0.001
564.5961	-0.0022
564.7899	0.014
564.9836	-0.0011
565.1773	-0.0028
565.371	0.0179
565.5647	0.0172
565.7584	0.0003
565.952	0.0027
566.1456	0.0022
566.3393	-0.0021
566.5329	-0.006
566.7264	-0.0018
566.92	0.0025
567.1136	-0.0001
567.3071	-0.0039
567.5006	0.002
567.6941	0.0044
567.8876	0.0041
568.0811	0.0103
568.2745	0.0017
568.468	0.0067
568.6614	0.0071
568.8548	0.0013
569.0482	-0.0018
569.2416	0.0131
569.4349	0.002
569.6283	0.0074
569.8216	-0.0014
570.0149	-0.0012
570.2082	0.0101
570.4015	0.0148
570.5947	0.006
570.788	0.0088
570.9812	0.0064
571.1744	0.0058
571.3676	-0.0076
571.5608	0.0013
571.754	0.003
571.9471	0.0025
572.1402	0.0086
572.3333	-0.004
572.5264	0.0031
572.7195	-0.0001
572.9126	-0.0009
573.1057	0.0073
573.2987	0.0041
573.4917	0.0076
573.6847	-0.0047
573.8777	0.005
574.0707	0.0122
574.2636	-0.0009
574.4566	-0.0052
574.6495	0.0065
574.8424	0.0012
575.0353	0.0026
575.2281	0.0134
575.421	-0.0001
575.6138	0.0072
575.8067	0.0039
575.9995	0.0072
576.1923	0.0054
576.385	0.0082
576.5778	0.0037
576.7706	0.0036
576.9633	0.0045
577.156	0.0097
577.3487	0.0074
577.5414	0.0039
577.734	0.0003
577.9267	0.0069
578.1193	-0.0043
578.3119	-0.0007
578.5045	0.0079
578.6971	0.0083
578.8897	0.0113
579.0822	0.0025
579.2747	0.0107
579.4673	0.0042
579.6598	0.0006
579.8522	-0.0033
580.0447	0.0045
580.2372	-0.002
580.4296	0.0087
580.622	-0.0007
580.8144	0.0062
581.0068	0.0043
581.1992	-0.0055
581.3915	-0.0001
581.5839	-0.0025
581.7762	-0.0078
581.9685	-0.0004
582.1608	0.0056
582.353	-0.0023
582.5453	0.0067
582.7375	0.0064
582.9298	0.0099
583.122	0.0007
583.3142	-0.0013
583.5063	0.0047
583.6985	0.0004
583.8906	-0.001
584.0827	-0.0022
584.2749	0.0078
584.4669	0.0051
584.659	0.0049
584.8511	0.0033
585.0431	0.0059
585.2352	0.0071
585.4272	0.0054
585.6192	0.0035
585.8111	0.0053
586.0031	0.0003
586.195	-0.0019
586.387	0.0084
586.5789	0.0004
586.7708	0.0045
586.9627	0.0078
587.1545	-0.0017
587.3464	0.0067
587.5382	0.0098
587.73	0.0089
587.9218	0.0027
588.1136	-0.0017
588.3053	0.014
588.4971	-0.003
588.6888	-0.0101
588.8805	0.0045
589.0722	0.0158
589.2639	0.0042
589.4556	0.0119
589.6472	0.0047
589.8389	-0.0012
590.0305	-0.0033
590.2221	-0.0017
590.4137	-0.0108
590.6052	0.0086
590.7968	0.0057
590.9883	0.0069
591.1798	0.0016
591.3713	-0.0021
591.5628	0.0109
591.7543	0.0074
591.9458	0.0081
592.1372	0.0125
592.3286	0.0091
592.52	0.0093
592.7114	0.0006
592.9028	0.0064
593.0941	0.0025
593.2855	0.0114
593.4768	-0.0016
593.6681	-0.0055
593.8594	0.005
594.0506	0.0076
594.2419	0.0149
594.4331	0.0106
594.6244	0.0153
594.8156	-0.0009
595.0067	0.0052
595.1979	0.0059
595.3891	0.0079
595.5802	-0.0036
595.7713	-0.0049
595.9624	-0.0075
596.1535	0.0052
596.3446	0.0008
596.5357	-0.0023
596.7267	0.0147
596.9177	0.0019
597.1087	-0.0054
597.2997	-0.0016
597.4907	0.0022
597.6817	0.0026
597.8726	0.0098
598.0635	-0.0019
598.2544	0.0048
598.4453	0.0035
598.6362	0.0021
598.827	0.0064
599.0179	0.009
599.2087	-0.0003
599.3995	0.0035
599.5903	0.001
599.7811	0.0044
599.9718	-0.0006
600.1626	-0.0022
600.3533	0.001
600.544	-0.0019
600.7347	0.0012
600.9254	0.006
601.116	-0.0084
601.3067	0.0002
601.4973	-0.0058
601.6879	0.0102
601.8785	0.0027
602.0691	0.0116
602.2596	0.0019
602.4502	0.0077
602.6407	0.0038
602.8312	0.0053
603.0217	-0.0069
603.2122	0.0004
603.4027	0.0036
603.5931	0.0011
603.7835	-0.0015
603.9739	-0.0018
604.1643	-0.0012
604.3547	-0.002
604.5451	0.0042
604.7354	0.0073
604.9257	0.0041
605.116	0.0004
605.3063	0.0124
605.4966	0.0071
605.6869	0.0024
605.8771	0.0002
606.0673	0.0091
606.2575	0.0107
606.4477	0.0116
606.6379	0.0058
606.8281	0.009
607.0182	0.0001
607.2083	0.0113
607.3985	-0.0032
607.5885	0.0008
607.7786	0.0102
607.9687	0.0029
608.1587	0.0079
608.3488	0.0026
608.5388	0.0058
608.7288	-0.0029
608.9187	-0.0037
609.1087	0.0011
609.2986	-0.0011
609.4886	0.0086
609.6785	-0.0026
609.8684	0.0067
610.0582	0.0038
610.2481	0.0072
610.4379	0.0043
610.6278	-0.0005
610.8176	0.0054
611.0074	0.008
611.1971	-0.0029
611.3869	0.0037
611.5766	-0.0008
611.7664	0.0101
611.9561	0.0087
612.1458	0.0084
612.3354	-0.0059
612.5251	0.0081
612.7147	0.0087
612.9044	0.0149
613.094	-0.0002
613.2836	0.0091
613.4731	-0.0023
613.6627	0.0013
613.8522	0.0021
614.0417	0.0097
614.2313	0.0004
614.4207	0.0019
614.6102	0.0047
614.7997	0.0041
614.9891	-0.0001
615.1785	0.0048
615.3679	0.0016
615.5573	0.007
615.7467	0.0001
615.9361	-0.0012
616.1254	0.0026
616.3147	0.0022
616.504	0.0009
616.6933	0.0076
616.8826	0.0089
617.0718	0.0085
617.2611	0.0126
617.4503	0.0018
617.6395	0.0049
617.8287	0.0012
618.0179	0.0103
618.207	0.0128
618.3961	0.0053
618.5853	0.0065
618.7744	0.0098
618.9634	0.0105
619.1525	0.0116
619.3416	0.0133
619.5306	0.0077
619.7196	0.0069
619.9086	0.0043
620.0976	0.0065
620.2866	0.0055
620.4755	0.0102
620.6645	0.0055
620.8534	0.0146
621.0423	0.0124
621.2312	0.0108
621.42	-0.0004
621.6089	0.0026
621.7977	0.0082
621.9865	-0.0029
622.1753	0.008
622.3641	0.0036
622.5529	0.0134
622.7416	0.013
622.9303	0.0022
623.1191	0.007
623.3078	0.0115
623.4964	0.0087
623.6851	0.0029
623.8737	0.0039
624.0624	0.0065
624.251	0.0011
624.4396	0.0036
624.6282	0.0002
624.8167	0.0006
625.0053	0.0084
625.1938	0.0068
625.3823	0.0125
625.5708	0.0059
625.7593	-0.0009
625.9477	0.004
626.1362	0.0017
626.3246	0.0048
626.513	0.0076
626.7014	0.0118
626.8898	-0.0003
627.0781	-0.0004
627.2665	-0.0009
627.4548	0.001
627.6431	0.0105
627.8314	0.0071
628.0197	0.0068
628.2079	-0.003
628.3962	-0.0059
628.5844	0.008
628.7726	0.0082
628.9608	0.0053
629.1489	-0.0002
629.3371	0.0078
629.5252	0.0004
629.7134	0.0129
629.9015	-0.0002
630.0895	0.0078
630.2776	0.0082
630.4657	0.0049
630.6537	0.0036
630.8417	-0.001
631.0297	0.0058
631.2177	0.0043
631.4057	0.0015
631.5936	0.007
631.7815	0.0047
631.9695	-0.0016
632.1574	0.0094
632.3452	0.0158
632.5331	0.0031
632.7209	0.0068
632.9088	0.0121
633.0966	0.0128
633.2844	0.0006
633.4722	0.0029
633.6599	0.0092
633.8477	0.0054
634.0354	0.004
634.2231	-0.0016
634.4108	0.0104
634.5985	0.0082
634.7861	0.0032
634.9738	0.0027
635.1614	0.0052
635.349	0.0106
635.5366	0.0006
635.7242	0.0052
635.9117	0.004
636.0993	0.0038
636.2868	0.0037
636.4743	-0.0021
636.6618	0.011
636.8492	0.0011
637.0367	0.007
637.2241	0.0009
637.4115	-0.001
637.5989	0.0031
637.7863	0.0035
637.9737	0.0013
638.161	0.0049
638.3484	0.0026
638.5357	0.0026
638.723	0.0007
638.9103	0.0076
639.0975	0.0097
639.2848	0.0044
639.472	0.004
639.6592	0.0107
639.8464	0.0161
640.0336	0.0094
640.2208	0.0069
640.4079	0.0005
640.595	0.0064
640.7821	0.0067
640.9692	0.0067
641.1563	0.0068
641.3434	0.0054
641.5304	0.0053
641.7174	0.0035
641.9044	0.0086
642.0914	0.0089
642.2784	0.0043
642.4653	0.0096
642.6523	0.0063
642.8392	0.0028
643.0261	0.0095
643.213	0.0054
643.3999	0.0004
643.5867	-0.0032
643.7735	0.0032
643.9604	-0.0066
644.1472	-0.0005
644.3339	-0.001
644.5207	0.0058
644.7075	-0.0034
644.8942	-0.0019
645.0809	0.0108
645.2676	-0.0007
645.4543	0.0034
645.6409	0.007
645.8276	0.0047
646.0142	0.0092
646.2008	-0.0069
646.3874	0.0008
646.574	0.0047
646.7605	0.0015
646.9471	-0.0069
647.1336	0.0026
647.3201	0.0071
647.5066	0.0011
647.6931	0.0109
647.8795	0.0024
648.0659	0.0133
648.2524	0.0092
648.4388	0.0022
648.6252	0.0053
648.8115	0.0012
648.9979	0.0015
649.1842	0.0071
649.3705	0.0075
649.5568	0.0086
649.7431	0.0164
649.9294	0.0003
650.1156	0.0148
650.3018	0.0016
650.488	0.0104
650.6742	0.0088
650.8604	0.0077
651.0466	0.0079
651.2327	0.0077
651.4188	0.0058
651.6049	0.012
651.791	0.0055
651.9771	0.0077
652.1632	0.01
652.3492	0.0069
652.5352	0.0141
652.7212	0.0026
652.9072	0.0097
653.0932	-0.0006
653.2791	-0.0018
653.465	-0.0013
653.651	-0.0015
653.8369	0.0015
654.0227	-0.0002
654.2086	-0.0016
654.3944	0.0118
654.5803	0.0048
654.7661	-0.0038
654.9519	0.0006
655.1377	0.0041
655.3234	0.0024
655.5092	-0.0016
655.6949	-0.0037
655.8806	0.0018
656.0663	-0.0037
656.2519	0.0028
656.4376	0.0002
656.6232	0.0071
656.8088	0.0062
656.9945	0.0102
657.18	0.0027
657.3656	0.0047
657.5511	0.0006
657.7367	0.0034
657.9222	0.0088
658.1077	0.0052
658.2932	0.0092
658.4786	-0.0021
658.6641	0.0066
658.8495	0.002
659.0349	0.0058
659.2203	0.0104
659.4057	0.0032
659.591	0.0144
659.7764	0.0005
659.9617	0.0048
660.147	0.005
660.3323	0.0036
660.5176	0.0191
660.7028	0.0093
660.888	0.0051
661.0733	0.012
661.2585	-0.0001
661.4436	0.0035
661.6288	-0.0046
661.8139	0.0019
661.9991	0.0039
662.1842	0.0057
662.3693	0.0077
662.5544	0.0042
662.7394	0.0049
662.9245	0.0007
663.1095	0.0071
663.2945	0.0115
663.4795	0.0112
663.6644	0.0132
663.8494	0.0122
664.0343	0.0083
664.2193	-0.0043
664.4042	0.0026
664.589	-0.0035
664.7739	0.0025
664.9587	-0.0021
665.1436	0.0017
665.3284	0.01
665.5132	0.0044
665.698	0.0082
665.8827	0.0121
666.0675	0.0156
666.2522	0.0011
666.4369	0.0097
666.6216	0.0144
666.8063	0.0051
666.9909	0.0045
667.1756	0.0021
667.3602	0.0041
667.5448	0.0043
667.7294	0.0123
667.9139	0.0011
668.0985	0.0175
668.283	0.0071
668.4675	0.0102
668.652	0.003
668.8365	0.0027
669.0209	0.0084
669.2054	0.0175
669.3898	0.0064
669.5742	0.0094
669.7586	0.0151
669.943	0.0063
670.1273	0.0065
670.3117	0.0117
670.496	0.0206
670.6803	0.017
670.8646	0.0097
671.0488	0.002
671.2331	0.0159
671.4173	0.0133
671.6015	0.0023
671.7857	0.0128
671.9699	0.0109
672.1541	0.0046
672.3382	0.0069
672.5223	0.0139
672.7064	0.0104
672.8905	0.0147
673.0746	0.0131
673.2587	0.0026
673.4427	0.0121
673.6267	0.0178
673.8107	0.0148
673.9947	0.0095
674.1787	0.0109
674.3626	0.0019
674.5465	0.0085
674.7304	0.0054
674.9143	0.0092
675.0982	0.008
675.2821	-0.0011
675.4659	0.0051
675.6497	0.0098
675.8335	-0.0024
676.0173	0.0052
676.2011	0.0018
676.3849	0.0041
676.5686	-0.0078
676.7523	0.008
676.936	0.001
677.1197	0.0019
677.3034	-0.0013
677.487	0.0109
677.6706	0.0054
677.8542	0.0031
678.0378	0.004
678.2214	0.0024
678.405	-0.0042
678.5885	0.0018
678.772	-0.0046
678.9555	-0.0103
679.139	-0.0038
679.3225	0.0047
679.5059	-0.002
679.6894	0.0061
679.8728	0.0071
680.0562	-0.0047
680.2395	0.0026
680.4229	0.0049
680.6062	0.0041
680.7896	0.0054
680.9729	-0.0035
681.1562	0.0051
681.3394	-0.0022
681.5227	-0.0049
681.7059	0.0025
681.8891	-0.0035
682.0723	0.0112
682.2555	0.006
682.4387	0.0021
682.6218	-0.0058
682.805	0.0001
682.9881	0.008
683.1712	-0.0033
683.3542	-0.0005
683.5373	0.0083
683.7203	-0.0007
683.9034	0.0046
684.0864	-0.0022
684.2694	0.0033
684.4523	0.0086
684.6353	-0.0051
684.8182	0.0026
685.0011	-0.0019
685.184	0.0037
685.3669	0.0048
685.5498	0.0028
685.7326	0.0094
685.9154	-0.0033
686.0982	0.0079
686.281	0.0104
686.4638	0.0046
686.6465	-0.0057
686.8293	0.0041
687.012	0.0047
687.1947	-0.0032
687.3774	0.0105
687.56	0.0063
687.7427	0.0069
687.9253	0.0041
688.1079	0.0072
688.2905	0.0159
688.4731	0.0034
688.6556	0.0129
688.8382	0.0055
689.0207	0.0069
689.2032	0.0034
689.3857	0.0057
689.5681	0.0084
689.7506	0.0064
689.933	0.0045
690.1154	0.0035
690.2978	0.0024
690.4802	0.0043
690.6626	-0.0034
690.8449	0.0057
691.0272	0.0121
691.2095	0.0028
691.3918	-0.0003
691.5741	0.0108
691.7563	0.0077
691.9386	0.0034
692.1208	0.0022
692.303	0.0134
692.4852	0.0028
692.6673	0.0049
692.8495	0.0058
693.0316	0.0038
693.2137	0.0069
693.3958	0.001
693.5778	0.0114
693.7599	0.0058
693.9419	0.0014
694.1239	0.0034
694.3059	-0.0005
694.4879	0.0098
694.6699	0.0144
694.8518	-0.0021
695.0337	0.0042
695.2157	0.0097
695.3975	0.0073
695.5794	0.0115
695.7613	0.0083
695.9431	0.0016
696.1249	0.0128
696.3067	0.0103
696.4885	0.0105
696.6703	-0.0056
696.852	0.0076
697.0337	0.0057
697.2154	0.0024
697.3971	0.0128
697.5788	0.0087
697.7605	0.0073
697.9421	0.0077
698.1237	0.004
698.3053	0.0058
698.4869	0.0011
698.6685	-0.0028
698.85	-0.0009
699.0315	0.0027
699.213	-0.0073
699.3945	0.0068
699.576	0.0137
699.7575	0.006
699.9389	0.0122
700.1203	0.0088
700.3017	0.0012
700.4831	-0.0054
700.6645	0.0067
700.8458	0.0047
701.0271	-0.0015
701.2084	0.0081
701.3897	0.0043
701.571	0.0055
701.7523	-0.0013
701.9335	0.0029
702.1147	0.0058
702.2959	-0.0009
702.4771	0.0071
702.6583	0.0011
702.8394	0.0057
703.0205	0.009
703.2016	0.0018
703.3827	0.0047
703.5638	0.0112
703.7449	0.0066
703.9259	0.009
704.1069	-0.0023
704.2879	0.0024
704.4689	0.002
704.6499	-0.0059
704.8308	0.0067
705.0117	0.0002
705.1927	0.0045
705.3735	-0.0039
705.5544	-0.0057
705.7353	0.0032
705.9161	0.0033
706.0969	-0.0019
706.2777	0.0072
706.4585	0.0028
706.6393	0.0084
706.82	0.002
707.0007	0.0131
707.1815	0.008
707.3621	0.0187
707.5428	0.0083
707.7235	0.0056
707.9041	0.0131
708.0847	-0.0062
708.2653	0.0016
708.4459	-0.0023
708.6265	0.0017
708.807	0.0073
708.9875	-0.0029
709.168	-0.0037
709.3485	-0.0069
709.529	-0.0023
709.7095	-0.0037
709.8899	0.0063
710.0703	0.0008
710.2507	0.0058
710.4311	-0.0002
710.6115	-0.0087
710.7918	-0.0023
710.9721	0.0006
711.1524	-0.0074
711.3327	-0.001
711.513	0.0043
711.6932	0.0083
711.8735	0.0089
712.0537	0.0016
712.2339	-0.0011
712.4141	-0.0101
712.5942	0.0033
712.7744	0.0031
712.9545	-0.001
713.1346	0.0017
713.3147	-0.002
713.4947	-0.0035
713.6748	0.002
713.8548	-0.0026
714.0348	-0.0028
714.2148	-0
714.3948	0.0116
714.5748	0.002
714.7547	-0.0025
714.9346	0.0088
715.1145	-0.0019
715.2944	-0.0027
715.4743	0.0015
715.6541	-0.0037
715.834	0.0043
716.0138	-0.003
716.1936	-0.003
716.3733	-0.0053
716.5531	0.0095
716.7328	-0.0032
716.9126	-0.0018
717.0923	0.0079
717.2719	0.0045
717.4516	0.0015
717.6312	0.009
717.8109	0.0002
717.9905	0.0066
718.1701	0.0084
718.3496	-0.0063
718.5292	0.0027
718.7087	0.0065
718.8882	0.001
719.0677	0.007
719.2472	0.0033
719.4267	0.0005
719.6061	0.0055
719.7856	0.0064
719.965	0.0162
720.1443	-0.0034
720.3237	0.01
720.5031	0.0038
720.6824	0.0157
720.8617	0.0021
721.041	0.0022
721.2203	0.0125
721.3995	-0.0001
721.5788	0.0124
721.758	0.0008
721.9372	0.0059
722.1164	0.0012
722.2956	0.0108
722.4747	0.0082
722.6538	0.009
722.8329	0.0128
723.012	0.0014
723.1911	0.0111
723.3702	0.0099
723.5492	0.0102
723.7282	0.0041
723.9072	0.0013
724.0862	0.003
724.2652	0.0013
724.4441	0.0097
724.623	-0.0009
724.8019	-0.0009
724.9808	0.0053
725.1597	-0.0012
725.3385	0.0046
725.5174	0.0062
725.6962	-0.0007
725.875	0.0022
726.0538	0.0088
726.2325	-0.0059
726.4112	-0.0052
726.59	-0.0011
726.7687	-0.0025
726.9474	0.0031
727.126	0.0023
727.3047	-0
727.4833	-0.0061
727.6619	-0.0104
727.8405	-0.0032
728.0191	-0.0033
728.1976	0.0033
728.3762	0.0002
728.5547	0.0123
728.7332	-0.0063
728.9116	0.0035
729.0901	0.0127
729.2686	-0.0025
729.447	0.002
729.6254	-0.0032
729.8038	0.0055
729.9821	-0.0049
730.1605	0.0073
730.3388	0.0027
730.5171	-0.0012
730.6954	0.0056
730.8737	0.0024
731.0519	0.006
731.2302	-0.0008
731.4084	0.0123
731.5866	0.0104
731.7648	0.0057
731.9429	0.0012
732.1211	0.0023
732.2992	0.0088
732.4773	-0
732.6554	0.0016
732.8335	0.0058
733.0115	0.014
733.1896	0.0131
733.3676	-0.0072
733.5456	0.0072
733.7235	0.0094
733.9015	0.0005
734.0794	0.0063
734.2574	0.0003
734.4353	0.007
734.6131	0.0132
734.791	0.007
734.9689	0.0043
735.1467	0.0076
735.3245	-0.0056
735.5023	0.0033
735.68	0.0068
735.8578	0.0171
736.0355	-0.0029
736.2132	-0.0011
736.3909	0.009
736.5686	-0.0037
736.7463	0.0112
736.9239	0.004
737.1015	0.0032
737.2791	0.0133
737.4567	0.0066
737.6343	0.0057
737.8118	0.0095
737.9894	0.0029
738.1669	0.0005
738.3444	0.0026
738.5218	0.0111
738.6993	0.0095
738.8767	0.0045
739.0541	0.0152
739.2315	-0.0037
739.4089	0.0011
739.5863	0.0039
739.7636	0.0015
739.9409	-0.0035
740.1182	0.0108
740.2955	0.0078
740.4728	0.0046
740.65	0.0028
740.8272	0.0041
741.0044	-0.0105
741.1816	-0.0018
741.3588	-0.0017
741.5359	-0.0013
741.7131	-0.005
741.8902	-0.0015
742.0673	-0.0055
742.2444	-0.0086
742.4214	0.001
742.5985	-0.002
742.7755	-0.0003
742.9525	-0.0111
743.1295	0.0087
743.3064	0.008
743.4834	0.0113
743.6603	0.0003
743.8372	0.0026
744.0141	0.006
744.191	0.0051
744.3678	0.0022
744.5446	0.0077
744.7215	0.01
744.8982	0.0016
745.075	-0.0082
745.2518	0.0003
745.4285	0.0011
745.6052	0.0012
745.7819	0.0022
745.9586	-0.0004
746.1353	-0.0007
746.3119	-0.0093
746.4885	-0.0011
746.6651	-0.0026
746.8417	0.0026
747.0183	-0.0022
747.1948	-0.0066
747.3714	0.0002
747.5479	0.0048
747.7244	-0.005
747.9008	0.003
748.0773	-0.0011
748.2537	-0.0021
748.4301	-0.0005
748.6065	0.0059
748.7829	0.0091
748.9593	0.0056
749.1356	-0.0005
749.3119	0.015
749.4882	-0.0051
749.6645	0.0103
749.8408	-0.0034
750.017	0.0005
750.1933	0.0046
750.3695	-0.0132
750.5457	0.0075
750.7218	-0.0015
750.898	-0.0038
751.0741	0.0013
751.2502	0.005
751.4263	-0.0002
751.6024	0.0058
751.7784	0.001
751.9545	-0.003
752.1305	0.0018
752.3065	-0.0061
752.4825	0.0096
752.6584	0.0003
752.8344	0.0049
753.0103	0.0007
753.1862	0.001
753.3621	-0.0053
753.5379	-0.0046
753.7138	0.001
753.8896	-0.0007
754.0654	0.0019
754.2412	0.0096
754.417	0.0079
754.5927	0.0025
754.7685	-0.0002
754.9442	0.0076
755.1199	0.0154
755.2956	0.0074
755.4712	0.0192
755.6469	0.002
755.8225	0.0046
755.9981	-0.0043
756.1736	0.0051
756.3492	0.0034
756.5248	0.0056
756.7003	-0.0002
756.8758	0.0038
757.0513	-0.0114
757.2267	-0.005
757.4022	0.0043
757.5776	-0.0044
757.753	0.0041
757.9284	0.0058
758.1038	-0.0018
758.2791	0.0159
758.4545	-0.0101
758.6298	-0.0056
758.8051	0.0033
758.9803	0.0046
759.1556	-0.0094
759.3308	-0.015
759.506	0.0099
759.6812	0.0001
759.8564	0.0156
760.0316	-0
760.2067	0.0075
760.3819	0.0157
760.557	0.0165
760.732	0.0133
760.9071	-0.0057
761.0821	0.0025
761.2572	0.0122
761.4322	0.0034
761.6072	0.0003
761.7821	0.0007
761.9571	0.0033
762.132	-0.0009
762.3069	-0.0106
762.4818	0.0015
762.6567	-0.0069
762.8316	0.0014
763.0064	-0.0032
763.1812	0.0024
763.356	-0.0157
763.5308	0.0037
763.7055	0.0127
763.8803	-0.0038
764.055	0.0051
764.2297	-0
764.4044	0.0033
764.579	-0.0014
764.7537	-0.0017
764.9283	0.0113
765.1029	-0.0025
765.2775	0.0071
765.4521	0.002
765.6266	-0.0019
765.8011	0.002
765.9756	0.0096
766.1501	0.0079
766.3246	0.003
766.4991	0.0047
766.6735	0.0101
766.8479	0.0045
767.0223	0.0204
767.1967	0.0068
767.371	0.0079
767.5454	0.0014
767.7197	0.006
767.894	0.0048
768.0683	-0.0011
768.2425	-0.0006
768.4168	-0.0006
768.591	0.0082
768.7652	-0.0047
768.9394	0.0026
769.1135	0.0001
769.2877	0.0046
769.4618	-0.0008
769.6359	0.0026
769.81	0.0075
769.984	0.0005
770.1581	0.0009
770.3321	0.0004
770.5061	-0.0081
770.6801	-0.0061
770.8541	0.0031
771.028	0.0092
771.202	-0.0005
771.3759	0.0036
771.5498	0.0027
771.7236	0.0074
771.8975	0.0011
772.0713	-0
772.2451	0.0089
772.4189	0.0115
772.5927	0.0127
772.7665	0.0031
772.9402	0.0084
773.1139	0.0143
773.2876	0.0013
773.4613	0.0201
773.635	0.0099
773.8086	-0.0035
773.9822	0.0068
774.1558	0.0119
774.3294	-0.0075
774.503	0.0096
774.6765	0.0078
774.8501	0.0107
775.0236	0.0126
775.1971	0.0243
775.3705	-0.0069
775.544	0.0088
775.7174	0.005
775.8908	0.0079
776.0642	0.0094
776.2376	0.0121
776.4109	-0.0079
776.5843	0.0162
776.7576	0.0196
776.9309	0.0173
777.1041	0.0141
777.2774	0.0182
777.4506	0.0082
777.6238	-0.0049
777.797	0.0092
777.9702	0.0154
778.1434	0.0034
778.3165	-0.0077
778.4896	0.0031
778.6627	0.0077
778.8358	-0.0001
779.0089	0.0027
779.1819	-0.0001
779.3549	0.0179
779.5279	0.0092
779.7009	0.0081
779.8739	0.0049
780.0468	0.0014
780.2197	0.0155
780.3926	-0.0047
780.5655	-0.0009
780.7384	0.005
780.9112	0.0035
781.0841	-0.0097
781.2569	0.0035
781.4297	0.0032
781.6024	0.0011
781.7752	0.0169
781.9479	0.0086
782.1206	0.0091
782.2933	-0.0168
782.466	0.0149
782.6386	0.0039
782.8113	0.0002
782.9839	0.0111
783.1565	0.025
783.329	0.0061
783.5016	0.0165
783.6741	0.0201
783.8466	-0.0024
784.0191	0.0214
784.1916	0.0139
784.3641	0.027
784.5365	0.0182
784.7089	0.0017
784.8813	0.0044
785.0537	0.0117
785.2261	-0.0002
785.3984	0.0051
785.5707	-0.001
785.743	0.0109
785.9153	0.0029
786.0876	0.0121
786.2598	0.0067
786.432	-0.003
786.6042	0.0065
786.7764	-0.0047
786.9486	0.0152
787.1207	0.0017
787.2928	0.0097
787.4649	0.0107
787.637	0.0129
787.8091	0.0123
787.9811	-0.0191
788.1532	0.0157
788.3252	0.0114
788.4972	-0.0031
788.6691	0.0042
788.8411	0.0079
789.013	-0.009
789.1849	0.0169
789.3568	0.0048
789.5287	0.0121
789.7005	0.0068
789.8723	0.0039
790.0442	0.0257
790.2159	0.0171
790.3877	0.0236
790.5595	0.0155
790.7312	0.0097
790.9029	0.0177
791.0746	0.0077
791.2463	0.0054
791.4179	0.0138
791.5896	-0.0065
791.7612	-0.002
791.9328	0.0154
792.1044	-0.0119
792.2759	-0.0052
792.4474	-0
792.619	0.0125
792.7905	0.0116
792.9619	0.0172
793.1334	0.0179
793.3048	0.0097
793.4762	0.0087
793.6476	0.0092
793.819	0.004
793.9904	0.0177
794.1617	0.0037
794.333	-0.0046
794.5043	0.0097
794.6756	0.006
794.8469	0.0036
795.0181	-0.0068
795.1893	0.0006
795.3605	0.0117
795.5317	0.0083
795.7029	0.0065
795.874	0.0061
796.0452	0.0068
796.2163	-0.0133
796.3873	0.024
796.5584	0.0157
796.7294	0.0001
796.9005	0.0098
797.0715	0.024
797.2425	-0.0086
797.4134	0.0146
797.5844	0.0038
797.7553	0.002
797.9262	0.0105
798.0971	-0.0076
798.2679	0.0015
798.4388	-0.0056
798.6096	0.0023
798.7804	0.0123
798.9512	-0.0204
799.122	-0.0047
799.2927	0.0069
799.4635	0.0184
799.6342	-0.0229
799.8049	-0.0033
799.9755	0.0008
800.1462	0.0157
800.3168	0.0225
800.4874	-0.0002
800.658	0.0326
800.8286	0.0144
800.9991	0.0038
801.1696	0.0063
801.3402	0.0077
801.5106	0.002
801.6811	0.0176
801.8516	0.0256
802.022	0.0057
802.1924	0.019
802.3628	0.014
802.5332	0.0222
802.7035	0.0353
802.8739	0.0072
803.0442	0.0074
803.2145	0.0207
803.3847	-0.0072
803.555	0.0112
803.7252	0.0022
803.8954	0.0062
804.0656	0.0103
804.2358	0.0177
804.4059	0.027
804.5761	0.0087
804.7462	0.0115
804.9163	0.0081
805.0864	-0.0094
805.2564	-0.0092
805.4264	0.0062
805.5965	-0.0128
805.7665	0.0019
805.9364	-0.0007
806.1064	0.0253
806.2763	0.0226
806.4462	0.0242
806.6161	-0.0058
806.786	0.0304
806.9559	0.0038
807.1257	0.0132
807.2955	0.0079
807.4653	-0.007
807.6351	-0.0145
807.8048	0.0116
807.9746	0.0088
808.1443	0.0009
808.314	0.0183
808.4837	0.0165
808.6533	0.0147
808.8229	0.0384
808.9926	0.0105
809.1622	0.0146
809.3317	-0.01
809.5013	0.0118
809.6708	0.0143
809.8403	0.0261
810.0098	-0.0093
810.1793	-0.0154
810.3488	0.005
810.5182	-0.0019
810.6876	0.004
810.857	0.0091
811.0264	0.0204
811.1958	0.018
811.3651	0.0284
811.5344	0.018
811.7037	0.0087
811.873	0.0117
812.0422	0.0125
812.2115	0.0167
812.3807	-0
812.5499	0.0223
812.7191	0.018
812.8882	0.0103
813.0574	0.0137
813.2265	0.006
813.3956	-0.0073
813.5646	0.0036
813.7337	-0.0021
813.9027	0.0317
814.0718	0.0243
814.2407	0.0217
814.4097	-0.0086
814.5787	0.0038
814.7476	0.0082
814.9165	0.0101
815.0854	0.0083
815.2543	-0.0026
815.4232	0.0027
815.592	0.0233
815.7608	0.0208
815.9296	0.0121
816.0984	0.0372
816.2671	-0.0003
816.4359	0.0122
816.6046	0.0175
816.7733	-0.0094
816.942	0.0189
817.1106	0.033
817.2793	0.0247
817.4479	0.0006
817.6165	0.0165
817.785	0.0115
817.9536	0.0049
818.1221	-0.0023
818.2906	0.0176
818.4591	0.0062
818.6276	0.0088
818.7961	0.0237
818.9645	0.0413
819.1329	0.0296
819.3013	0.0322
819.4697	0.0552
819.638	0.0142
819.8064	0.0273
819.9747	0.008
820.143	0.0146
820.3113	0.0007
820.4795	0.0152
820.6477	0.0358
820.816	0.0105
820.9842	0.012
821.1523	0.0124
821.3205	0.0042
821.4886	0.0275
821.6567	-0.0113
821.8248	0.0158
821.9929	0.053
822.1609	0.0033
822.329	0.0295
822.497	0.0139
822.665	-0.0028
822.833	-0.0043
823.0009	0.0242
823.1688	0.0513
823.3367	0.0333
823.5046	0.0239
823.6725	0.0403
823.8404	0.0087
824.0082	0.0294
824.176	0.0035
824.3438	0.0157
824.5116	0.0088
824.6793	0.0045
824.847	0.0198
825.0147	-0.0056
825.1824	0.0124
825.3501	0.0099
825.5177	-0.0106
825.6854	0.0069
825.853	0.0365
826.0206	0.017
826.1881	0.0316
826.3557	-0.0218
826.5232	0.0194
826.6907	-0.0275
826.8582	0.0207
827.0257	0.0207
827.1931	0.0255
827.3605	-0.0014
827.528	0.0413
827.6953	-0.0276
827.8627	0.0023
828.03	0.0125
828.1974	0.0138
828.3647	-0.0188
828.532	0.0206
828.6992	0.0074
828.8665	0.0057
829.0337	-0.0242
829.2009	0.0214
829.3681	0.0235
829.5352	0.034
829.7024	-0.0144
829.8695	-0.0057
830.0366	0.0396
830.2037	0.0234
830.3707	0.0094
830.5378	-0.0143
830.7048	0.0205
830.8718	0.0104
831.0388	-0.0219
831.2057	0.001
831.3727	0.0207
831.5396	-0.0063
831.7065	0.0211
831.8734	0.0181
832.0402	-0.0261
832.2071	0.0044
832.3739	-0.0078
832.5407	0.0145
832.7075	-0.0032
832.8742	0.0024
833.041	-0.0272
833.2077	-0.018
833.3744	0.0459
833.541	0.0171
833.7077	0.0263
833.8743	-0.0098
834.0409	0.006
834.2075	0.005
834.3741	0.0285
834.5407	0.0082
834.7072	-0.012
834.8737	0.0147
835.0402	-0.0101
835.2067	0.0451
835.3731	0.0209
835.5395	0.0283
835.706	0.0231
835.8723	0.0212
836.0387	0.0242
836.2051	0.0227
836.3714	0.0124
836.5377	0.0153
836.704	-0.0008
836.8703	0.003
837.0365	0.0201
837.2027	-0.0024
837.3689	0.0484
837.5351	0.0074
837.7013	-0.0241
837.8674	-0.0513
838.0335	-0.0161
838.1997	0.0064
838.3657	-0.0258
838.5318	0.0162
838.6978	0.0794
838.8639	0.0543
839.0299	-0.0001
839.1958	0.0248
839.3618	0.0383
839.5277	-0.0371
839.6937	0.046
839.8596	-0.0498
840.0254	0.0184
840.1913	0.0432
840.3571	0.0269
840.523	-0.0148
840.6888	-0.0221
840.8545	-0.0011
841.0203	0.0241
841.186	0.0068
841.3517	0.0362
841.5174	0.0241
841.6831	-0.024
841.8488	-0.0019
842.0144	0.0512
842.18	0.0836
842.3456	0.0411
842.5112	0.0164
842.6767	-0.0203
842.8422	-0.038
843.0077	0.0113
843.1732	-0.0162
843.3387	0.0078
843.5042	-0.0048
843.6696	-0.0459
843.835	0.0197
844.0004	0.0772
844.1657	0.0419
844.3311	-0.0526
844.4964	-0.0131
844.6617	-0.0271
844.827	-0.0128
844.9923	-0.0214
845.1575	-0.0399
845.3227	0.0127
845.4879	0.0066
845.6531	-0.0705
845.8183	-0.0999
845.9834	-0.0015
846.1485	0.0131
846.3136	-0.0296
846.4787	-0.0244
846.6438	0.0397
846.8088	-0.0533
846.9738	-0.043
847.1388	0.035
847.3038	0.0105
847.4687	-0.1828
847.6337	0.032
847.7986	0.0202
847.9635	-0.0502
848.1284	0.0488
848.2932	-0.0033
848.458	0.0014
848.6228	0.0753
848.7876	0.0456
848.9524	-0.0088
849.1172	-0.0621
849.2819	-0.0126
849.4466	-0.139
849.6113	-0.083
849.7759	-0.0494
849.9406	-0.0138
850.1052	0.0601
850.2698	-0.0653
850.4344	-0.0967
850.599	-0.0236
850.7635	0.0724
850.928	0.0038
851.0925	-0.03
851.257	0.0834
851.4215	0.0261
851.5859	-0.0441
851.7503	-0.0048
851.9147	0.003
852.0791	-0.0051
852.2434	-0.0207
852.4078	0.0166
852.5721	0.0528
852.7364	-0.0336
852.9007	-0.1149
853.0649	-0.0176
853.2291	-0.0223
853.3934	-0.014
853.5575	-0.0249
853.7217	-0.045
853.8859	-0.0957
854.05	-0.0688
854.2141	0.0291
854.3782	-0.0661
854.5423	-0.0056
854.7063	0.0609
854.8703	0.0813
855.0343	-0.0806
855.1983	-0.1181
855.3623	0.1095
855.5262	0.0582
855.6901	0.0404
855.854	-0.0672
856.0179	0.1743
856.1818	0.1594
856.3456	-0.0039
856.5094	-0.0825
856.6732	-0.0624
856.837	-0.0892
857.0008	-0.017
857.1645	0.0309
857.3282	-0.2548
857.4919	0.137
857.6556	-0.2603
857.8192	0.2217
857.9828	0.0411
858.1465	0.1098
858.31	-0.1067
858.4736	0.0897
858.6372	-0.2082
858.8007	-0.2417
858.9642	-0.0797
859.1277	0.1118
859.2911	-0.0232
859.4546	0.0574
859.618	-0.301
859.7814	-0.0235
859.9448	0.1856
860.1081	-0.0507
860.2715	0.1664
860.4348	-0.0451
860.5981	-0.0497
860.7614	0.2782
860.9246	0.0391
861.0879	-0.2926
861.2511	0.1615
861.4143	-0.3508
861.5774	0.0847
861.7406	-0.1395
861.9037	-0.0836
862.0668	0.0124
862.2299	-0.3256
862.393	-0.556
862.556	0.0464
862.7191	-0.4646
862.8821	-0.0199
863.0451	0.2929
863.208	0.034
863.371	0.0129
863.5339	0.0588
863.6968	-0.0339
863.8597	-0.1842
864.0225	-0.1704
864.1854	-0.0523
864.3482	-0.0785
864.511	0.0704
864.6737	-0.0621
864.8365	-0.1456
864.9992	-0.412
865.1619	-0.587
865.3246	-0.104
865.4873	-0.1458
865.65	-0.2607
865.8126	0.0066
865.9752	0.0447
866.1378	-0.2222
866.3004	0.6921
866.4629	0.1633
866.6254	-0.149
866.7879	0.1588
866.9504	-0.2613
867.1129	-0
867.2753	-0.0411
867.4377	0.1397
867.6001	-0.5218
867.7625	0.7793
867.9249	-0
868.0872	0.2044
868.2495	0.1479
868.4118	-0.2607
868.5741	-0.4869
868.7363	-0.3367
868.8986	-0.7591
869.0608	-0.2205
869.223	-0.0058
869.3851	0.726
869.5473	0.2722
869.7094	0.3518
869.8715	0.2199
870.0336	-1.1569
870.1957	-0
870.3577	-0.4901
870.5197	0.0345
870.6817	0.1126
870.8437	-0.0453
871.0057	-0
871.1676	-0.2791
871.3295	-0
871.4914	-0
871.6533	-0.106
871.8151	-0.4381
871.977	-0
872.1388	-0
872.3006	-0
872.4623	-0
872.6241	0.6179
872.7858	-0
872.9475	-0.0396
873.1092	-0.3833
873.2709	-0
873.4325	-0.026
873.5941	-0
873.7557	-0
873.9173	0.6721
874.0789	-0
874.2404	-0
874.4019	1.0539
874.5634	0.2254
874.7249	-0.0451
874.8863	0.0572
875.0478	0.3297
875.2092	-0
875.3706	0.2246
875.5319	-0.7828
875.6933	0.2229
875.8546	0.0695
876.0159	-0.2669
876.1772	0.0179
876.3385	-0
876.4997	0.0646
876.6609	-0.4141
876.8221	-0
876.9833	-0.0441
877.1445	-0
877.3056	-0.1744
877.4667	0.2204
877.6278	-0
877.7889	-0.0078
877.9499	-0.4323
878.111	-0
878.272	-0
878.433	-0
878.5939	0.0631
878.7549	-0.2294
878.9158	-0.9031
879.0767	-0
879.2376	-0
879.3984	-0
879.5593	-0
879.7201	-0.0365
879.8809	-0.7198
880.0417	-0
880.2024	-0.0702
880.3632	-1.0322
880.5239	0.1557
880.6846	0.8066
880.8452	-2.5132
881.0059	0.0969
881.1665	-0
881.3271	-0
881.4877	-0.0472
881.6483	-0.4753
881.8088	-0.509
881.9693	-0
882.1298	-0
882.2903	-0
