Data from MonoPyChalIsomerACN10uM360nmA_Absorbance_13-57-27-704.txt Node
Date: Fri Jul 05 13:57:27 BST 2024
User: LASERRRRR
Spectrometer: FLMT03099
Trigger mode: 0
Integration Time (sec): 1.000000E-1
Scans to average: 1
Electric dark correction enabled: true
Nonlinearity correction enabled: false
Boxcar width: 0
XAxis mode: Wavelengths
Number of Pixels in Spectrum: 3648
>>>>>Begin Spectral Data<<<<<
179.3399	-0.0219
179.5586	-0.0219
179.7771	-0.0219
179.9957	0.5125
180.2143	-0.2925
180.4329	0.0617
180.6514	-0
180.8699	-0
181.0885	0.6847
181.307	0.5423
181.5255	-0
181.744	-0.8005
181.9625	-0.6476
182.181	-0.8638
182.3994	0.3693
182.6179	-0
182.8363	0.0953
183.0547	-0.2742
183.2732	0.1055
183.4916	0.0844
183.71	0.0599
183.9284	0.0521
184.1467	-0.0953
184.3651	-0.0689
184.5835	0.0545
184.8018	0.1272
185.0201	-0.0358
185.2385	-0.1695
185.4568	0.1876
185.6751	0.3098
185.8934	0.2186
186.1117	0.0364
186.3299	0.1476
186.5482	0.2565
186.7664	0.0631
186.9847	0.147
187.2029	-0.0335
187.4211	0.0272
187.6393	0.1836
187.8575	-0.192
188.0757	0.4144
188.2939	0.1732
188.512	-0.1165
188.7302	0.3539
188.9483	0.0566
189.1665	-0.002
189.3846	0.0737
189.6027	0.2098
189.8208	0.0713
190.0389	0.1573
190.257	0.3464
190.475	0.3665
190.6931	0.0869
190.9111	0.4455
191.1292	-0.0484
191.3472	0.257
191.5652	0.2576
191.7832	0.2919
192.0012	0.6352
192.2192	0.357
192.4371	0.5248
192.6551	0.4044
192.873	0.5364
193.091	0.3197
193.3089	0.4894
193.5268	0.6717
193.7447	0.5172
193.9626	0.4348
194.1805	0.6179
194.3984	0.6836
194.6162	0.5563
194.8341	0.5146
195.0519	0.3638
195.2697	0.7067
195.4875	0.6884
195.7054	0.5236
195.9231	0.4433
196.1409	0.5857
196.3587	0.6929
196.5765	0.5358
196.7942	0.5718
197.012	0.4983
197.2297	0.518
197.4474	0.7877
197.6651	0.6148
197.8828	0.6695
198.1005	0.4991
198.3182	0.6156
198.5358	0.7896
198.7535	0.5423
198.9711	0.5905
199.1888	0.6511
199.4064	0.8483
199.624	0.5767
199.8416	0.5776
200.0592	0.6616
200.2767	0.4957
200.4943	0.8001
200.7119	0.8192
200.9294	0.6794
201.1469	0.5584
201.3645	0.6715
201.582	0.5841
201.7995	0.5552
202.017	0.5551
202.2344	0.5526
202.4519	0.6246
202.6694	0.6344
202.8868	0.6151
203.1042	0.7902
203.3217	0.8856
203.5391	0.6241
203.7565	0.5526
203.9739	0.5851
204.1913	0.6409
204.4086	0.6203
204.626	0.6732
204.8433	0.6118
205.0607	0.5844
205.278	0.6394
205.4953	0.622
205.7126	0.6927
205.9299	0.6872
206.1472	0.7502
206.3644	0.6769
206.5817	0.6747
206.7989	0.669
207.0162	0.5962
207.2334	0.6869
207.4506	0.641
207.6678	0.6445
207.885	0.5742
208.1022	0.6398
208.3194	0.6427
208.5365	0.7077
208.7537	0.5747
208.9708	0.5702
209.1879	0.6345
209.405	0.69
209.6222	0.6125
209.8392	0.6073
210.0563	0.5559
210.2734	0.7058
210.4905	0.638
210.7075	0.6111
210.9245	0.6096
211.1416	0.7179
211.3586	0.5998
211.5756	0.602
211.7926	0.5571
212.0096	0.5925
212.2265	0.5539
212.4435	0.5468
212.6604	0.5648
212.8774	0.6248
213.0943	0.5925
213.3112	0.5167
213.5281	0.5266
213.745	0.4952
213.9619	0.4653
214.1788	0.4521
214.3956	0.469
214.6125	0.4729
214.8293	0.4831
215.0461	0.4791
215.2629	0.4581
215.4798	0.4658
215.6965	0.4462
215.9133	0.4457
216.1301	0.4097
216.3469	0.4252
216.5636	0.4085
216.7803	0.3901
216.9971	0.4238
217.2138	0.347
217.4305	0.3655
217.6472	0.3629
217.8639	0.3487
218.0805	0.3483
218.2972	0.3408
218.5138	0.3296
218.7305	0.315
218.9471	0.3057
219.1637	0.2946
219.3803	0.2988
219.5969	0.3058
219.8135	0.2521
220.0301	0.2809
220.2466	0.2812
220.4632	0.269
220.6797	0.2438
220.8962	0.2496
221.1127	0.2685
221.3292	0.2363
221.5457	0.258
221.7622	0.2312
221.9787	0.2486
222.1951	0.2468
222.4116	0.2789
222.628	0.2537
222.8444	0.2525
223.0608	0.2417
223.2772	0.2591
223.4936	0.2869
223.71	0.2409
223.9264	0.2903
224.1427	0.2678
224.3591	0.2449
224.5754	0.2849
224.7917	0.2723
225.008	0.2782
225.2243	0.2602
225.4406	0.2786
225.6569	0.2848
225.8732	0.2808
226.0894	0.2623
226.3057	0.2927
226.5219	0.2937
226.7381	0.2842
226.9543	0.2805
227.1705	0.2791
227.3867	0.289
227.6029	0.2988
227.8191	0.3094
228.0352	0.2848
228.2513	0.3115
228.4675	0.31
228.6836	0.3217
228.8997	0.307
229.1158	0.3085
229.3319	0.3093
229.548	0.3084
229.764	0.3273
229.9801	0.3314
230.1961	0.3425
230.4121	0.3273
230.6282	0.3446
230.8442	0.3222
231.0602	0.3676
231.2761	0.3484
231.4921	0.3433
231.7081	0.3563
231.924	0.3508
232.14	0.3822
232.3559	0.3288
232.5718	0.3628
232.7877	0.3577
233.0036	0.3483
233.2195	0.3641
233.4353	0.3706
233.6512	0.371
233.867	0.3752
234.0829	0.3614
234.2987	0.3669
234.5145	0.3708
234.7303	0.3681
234.9461	0.399
235.1619	0.3822
235.3776	0.387
235.5934	0.3921
235.8091	0.3853
236.0249	0.3861
236.2406	0.3801
236.4563	0.386
236.672	0.4019
236.8877	0.3815
237.1034	0.4032
237.319	0.3977
237.5347	0.4031
237.7503	0.3872
237.966	0.4091
238.1816	0.4121
238.3972	0.3978
238.6128	0.3876
238.8284	0.4103
239.0439	0.4054
239.2595	0.4046
239.475	0.4199
239.6906	0.4246
239.9061	0.4109
240.1216	0.4184
240.3371	0.4224
240.5526	0.4037
240.7681	0.4115
240.9836	0.3694
241.199	0.398
241.4145	0.4024
241.6299	0.3876
241.8453	0.3771
242.0607	0.3841
242.2761	0.3778
242.4915	0.3702
242.7069	0.3714
242.9223	0.3459
243.1376	0.3436
243.353	0.3432
243.5683	0.3505
243.7836	0.3039
243.9989	0.3278
244.2142	0.3282
244.4295	0.3131
244.6448	0.3014
244.86	0.2966
245.0753	0.2896
245.2905	0.2896
245.5057	0.2695
245.721	0.2709
245.9362	0.2559
246.1514	0.279
246.3665	0.263
246.5817	0.257
246.7969	0.2448
247.012	0.2449
247.2271	0.2477
247.4423	0.2411
247.6574	0.2566
247.8725	0.239
248.0876	0.2148
248.3026	0.2255
248.5177	0.2186
248.7328	0.2154
248.9478	0.2092
249.1628	0.2161
249.3779	0.2323
249.5929	0.2003
249.8079	0.2132
250.0228	0.2057
250.2378	0.1972
250.4528	0.1995
250.6677	0.1939
250.8827	0.1834
251.0976	0.191
251.3125	0.1867
251.5274	0.1773
251.7423	0.1955
251.9572	0.1898
252.172	0.1796
252.3869	0.1775
252.6017	0.1816
252.8166	0.1738
253.0314	0.1668
253.2462	0.1641
253.461	0.1716
253.6758	0.1585
253.8906	0.18
254.1053	0.16
254.3201	0.1661
254.5348	0.1663
254.7496	0.1827
254.9643	0.1626
255.179	0.1732
255.3937	0.1658
255.6083	0.1733
255.823	0.1746
256.0377	0.1666
256.2523	0.1711
256.467	0.1606
256.6816	0.1734
256.8962	0.1729
257.1108	0.1554
257.3254	0.1759
257.54	0.1634
257.7545	0.1629
257.9691	0.1669
258.1836	0.1574
258.3981	0.1807
258.6127	0.1679
258.8272	0.1675
259.0417	0.1678
259.2561	0.1548
259.4706	0.1543
259.6851	0.1687
259.8995	0.1666
260.114	0.1579
260.3284	0.1707
260.5428	0.1485
260.7572	0.1728
260.9716	0.1728
261.186	0.1519
261.4003	0.1616
261.6147	0.1527
261.829	0.1731
262.0433	0.1669
262.2577	0.155
262.472	0.1697
262.6863	0.1525
262.9005	0.16
263.1148	0.1612
263.3291	0.1477
263.5433	0.1565
263.7576	0.1656
263.9718	0.1665
264.186	0.1601
264.4002	0.1592
264.6144	0.1549
264.8286	0.1749
265.0427	0.1757
265.2569	0.1576
265.471	0.1599
265.6851	0.1507
265.8993	0.1529
266.1134	0.154
266.3275	0.1612
266.5415	0.1533
266.7556	0.1671
266.9697	0.1669
267.1837	0.1583
267.3978	0.1619
267.6118	0.1667
267.8258	0.1705
268.0398	0.1542
268.2538	0.1571
268.4677	0.1678
268.6817	0.1605
268.8957	0.1726
269.1096	0.1562
269.3235	0.1665
269.5374	0.1597
269.7514	0.1632
269.9652	0.1628
270.1791	0.1492
270.393	0.1484
270.6068	0.1561
270.8207	0.1419
271.0345	0.1557
271.2483	0.1579
271.4622	0.148
271.676	0.1506
271.8897	0.1439
272.1035	0.1387
272.3173	0.1443
272.531	0.1463
272.7448	0.1415
272.9585	0.1331
273.1722	0.1485
273.3859	0.1589
273.5996	0.1418
273.8133	0.1431
274.0269	0.1478
274.2406	0.1435
274.4542	0.1483
274.6679	0.1354
274.8815	0.1355
275.0951	0.1359
275.3087	0.1582
275.5223	0.1473
275.7358	0.1587
275.9494	0.1444
276.1629	0.1292
276.3765	0.1458
276.59	0.1524
276.8035	0.1477
277.017	0.1562
277.2305	0.1488
277.444	0.1498
277.6574	0.1491
277.8709	0.1453
278.0843	0.1408
278.2978	0.1458
278.5112	0.1428
278.7246	0.1462
278.938	0.1481
279.1513	0.1586
279.3647	0.1532
279.5781	0.1529
279.7914	0.1372
280.0047	0.1634
280.2181	0.1569
280.4314	0.1468
280.6447	0.1541
280.8579	0.1533
281.0712	0.1569
281.2845	0.1514
281.4977	0.1469
281.711	0.139
281.9242	0.158
282.1374	0.157
282.3506	0.1507
282.5638	0.1591
282.7769	0.1556
282.9901	0.1415
283.2033	0.1667
283.4164	0.1585
283.6295	0.1443
283.8426	0.1475
284.0557	0.1458
284.2688	0.1692
284.4819	0.165
284.695	0.1554
284.908	0.1554
285.1211	0.1539
285.3341	0.1615
285.5471	0.1548
285.7601	0.1568
285.9731	0.1473
286.1861	0.1561
286.3991	0.1733
286.612	0.1711
286.825	0.1666
287.0379	0.1615
287.2508	0.1673
287.4637	0.1648
287.6766	0.1567
287.8895	0.1655
288.1024	0.1824
288.3152	0.1674
288.5281	0.1448
288.7409	0.1589
288.9538	0.1596
289.1666	0.1652
289.3794	0.159
289.5922	0.1483
289.8049	0.1603
290.0177	0.1556
290.2304	0.157
290.4432	0.1674
290.6559	0.1667
290.8686	0.1649
291.0813	0.1669
291.294	0.1616
291.5067	0.1757
291.7194	0.1689
291.932	0.1785
292.1447	0.1648
292.3573	0.1554
292.5699	0.1636
292.7825	0.1651
292.9951	0.1583
293.2077	0.1641
293.4203	0.1579
293.6328	0.1572
293.8454	0.1765
294.0579	0.1622
294.2704	0.1634
294.4829	0.1565
294.6954	0.1715
294.9079	0.1602
295.1204	0.1607
295.3328	0.169
295.5453	0.1628
295.7577	0.1614
295.9701	0.1552
296.1825	0.1614
296.3949	0.1548
296.6073	0.1637
296.8197	0.1573
297.0321	0.1715
297.2444	0.1642
297.4567	0.1674
297.6691	0.1659
297.8814	0.1574
298.0937	0.1588
298.306	0.1617
298.5182	0.1614
298.7305	0.1744
298.9428	0.1524
299.155	0.1597
299.3672	0.1593
299.5794	0.1467
299.7916	0.1637
300.0038	0.1599
300.216	0.1669
300.4282	0.1707
300.6403	0.1482
300.8525	0.1703
301.0646	0.156
301.2767	0.1683
301.4888	0.1635
301.7009	0.1676
301.913	0.1636
302.125	0.1669
302.3371	0.157
302.5491	0.1624
302.7612	0.1738
302.9732	0.1688
303.1852	0.16
303.3972	0.1631
303.6092	0.1551
303.8211	0.1458
304.0331	0.1474
304.245	0.1515
304.457	0.1484
304.6689	0.1544
304.8808	0.1587
305.0927	0.1471
305.3046	0.152
305.5164	0.1541
305.7283	0.138
305.9401	0.1478
306.152	0.1568
306.3638	0.152
306.5756	0.1432
306.7874	0.1467
306.9992	0.1553
307.2109	0.144
307.4227	0.1347
307.6344	0.1487
307.8462	0.1317
308.0579	0.136
308.2696	0.1359
308.4813	0.1247
308.693	0.1311
308.9046	0.142
309.1163	0.1276
309.328	0.1209
309.5396	0.1166
309.7512	0.122
309.9628	0.1085
310.1744	0.1207
310.386	0.1214
310.5976	0.1193
310.8091	0.1173
311.0207	0.1074
311.2322	0.1185
311.4437	0.1077
311.6552	0.1164
311.8667	0.1165
312.0782	0.1075
312.2897	0.0967
312.5012	0.1165
312.7126	0.1081
312.924	0.1008
313.1355	0.1251
313.3469	0.1055
313.5583	0.1053
313.7696	0.1074
313.981	0.1097
314.1924	0.0962
314.4037	0.0991
314.6151	0.1044
314.8264	0.0924
315.0377	0.1039
315.249	0.098
315.4603	0.1055
315.6716	0.0962
315.8828	0.0903
316.0941	0.0972
316.3053	0.0953
316.5165	0.0997
316.7277	0.0889
316.9389	0.1015
317.1501	0.0903
317.3613	0.105
317.5724	0.088
317.7836	0.0985
317.9947	0.095
318.2058	0.1057
318.417	0.0844
318.6281	0.0853
318.8391	0.0935
319.0502	0.1093
319.2613	0.101
319.4723	0.0997
319.6834	0.1021
319.8944	0.0868
320.1054	0.0989
320.3164	0.1019
320.5274	0.087
320.7383	0.1001
320.9493	0.0922
321.1602	0.1179
321.3712	0.0847
321.5821	0.1035
321.793	0.096
322.0039	0.0937
322.2148	0.1034
322.4257	0.1011
322.6365	0.1067
322.8474	0.104
323.0582	0.0994
323.269	0.097
323.4798	0.1162
323.6906	0.1017
323.9014	0.0964
324.1122	0.1038
324.3229	0.1055
324.5337	0.0913
324.7444	0.0933
324.9551	0.1155
325.1658	0.1094
325.3765	0.1145
325.5872	0.0951
325.7979	0.0996
326.0085	0.1085
326.2192	0.1123
326.4298	0.1001
326.6404	0.0964
326.851	0.0903
327.0616	0.1067
327.2722	0.1052
327.4828	0.116
327.6933	0.0987
327.9039	0.1105
328.1144	0.1054
328.3249	0.1116
328.5354	0.0972
328.7459	0.1033
328.9564	0.1088
329.1669	0.0973
329.3773	0.0976
329.5878	0.1032
329.7982	0.1027
330.0086	0.1008
330.219	0.107
330.4294	0.1001
330.6398	0.1114
330.8502	0.0972
331.0605	0.1045
331.2708	0.1217
331.4812	0.1008
331.6915	0.118
331.9018	0.1057
332.1121	0.1088
332.3224	0.0998
332.5326	0.1049
332.7429	0.1101
332.9531	0.1166
333.1633	0.1004
333.3735	0.1053
333.5837	0.1078
333.7939	0.1024
334.0041	0.1161
334.2143	0.1079
334.4244	0.1028
334.6346	0.0852
334.8447	0.1231
335.0548	0.105
335.2649	0.1013
335.475	0.1231
335.685	0.1022
335.8951	0.1192
336.1051	0.1121
336.3152	0.1136
336.5252	0.1093
336.7352	0.1032
336.9452	0.1188
337.1552	0.1037
337.3652	0.1182
337.5751	0.1123
337.7851	0.1091
337.995	0.1032
338.2049	0.1115
338.4148	0.1162
338.6247	0.1105
338.8346	0.0999
339.0445	0.0954
339.2543	0.1127
339.4642	0.1068
339.674	0.1046
339.8838	0.1191
340.0936	0.1122
340.3034	0.1232
340.5132	0.1204
340.7229	0.1235
340.9327	0.1038
341.1424	0.1204
341.3522	0.1246
341.5619	0.1156
341.7716	0.1278
341.9813	0.1264
342.1909	0.1234
342.4006	0.1222
342.6102	0.1305
342.8199	0.1221
343.0295	0.1243
343.2391	0.1232
343.4487	0.1244
343.6583	0.1129
343.8679	0.1272
344.0774	0.1211
344.287	0.1264
344.4965	0.1156
344.706	0.1317
344.9155	0.1256
345.125	0.1263
345.3345	0.1371
345.544	0.1307
345.7534	0.1193
345.9629	0.1236
346.1723	0.1255
346.3817	0.1187
346.5911	0.1177
346.8005	0.147
347.0099	0.1211
347.2193	0.1341
347.4286	0.1261
347.638	0.1285
347.8473	0.1372
348.0566	0.1366
348.2659	0.1509
348.4752	0.1307
348.6845	0.1338
348.8937	0.1251
349.103	0.1405
349.3122	0.1222
349.5214	0.1255
349.7306	0.1455
349.9398	0.1452
350.149	0.1449
350.3582	0.1304
350.5674	0.1632
350.7765	0.1397
350.9856	0.1499
351.1948	0.1482
351.4039	0.1206
351.613	0.1382
351.822	0.1391
352.0311	0.1409
352.2402	0.1444
352.4492	0.1523
352.6582	0.1499
352.8672	0.152
353.0762	0.145
353.2852	0.15
353.4942	0.1313
353.7032	0.1426
353.9121	0.1583
354.1211	0.1618
354.33	0.1576
354.5389	0.148
354.7478	0.1529
354.9567	0.1438
355.1655	0.1379
355.3744	0.1614
355.5833	0.1659
355.7921	0.1603
356.0009	0.1497
356.2097	0.1718
356.4185	0.1657
356.6273	0.1569
356.8361	0.1622
357.0448	0.1573
357.2536	0.1576
357.4623	0.1574
357.671	0.1667
357.8797	0.1556
358.0884	0.1619
358.2971	0.1575
358.5057	0.1647
358.7144	0.1664
358.923	0.1755
359.1316	0.1531
359.3402	0.1633
359.5488	0.1585
359.7574	0.1548
359.966	0.1594
360.1746	0.1722
360.3831	0.1791
360.5916	0.1653
360.8002	0.1737
361.0087	0.1822
361.2172	0.1806
361.4256	0.1715
361.6341	0.194
361.8426	0.1767
362.051	0.1711
362.2594	0.1697
362.4678	0.1648
362.6762	0.1876
362.8846	0.1956
363.093	0.1826
363.3014	0.1734
363.5097	0.1681
363.718	0.183
363.9264	0.1836
364.1347	0.1784
364.343	0.1881
364.5513	0.2001
364.7595	0.1974
364.9678	0.1823
365.176	0.1953
365.3842	0.2007
365.5925	0.1882
365.8007	0.1878
366.0089	0.2072
366.217	0.1893
366.4252	0.1922
366.6333	0.2097
366.8415	0.1983
367.0496	0.1991
367.2577	0.2063
367.4658	0.2145
367.6739	0.225
367.882	0.2045
368.09	0.1872
368.2981	0.2032
368.5061	0.2032
368.7141	0.2027
368.9221	0.2093
369.1301	0.2016
369.3381	0.1979
369.5461	0.2034
369.754	0.2173
369.962	0.2319
370.1699	0.2142
370.3778	0.2117
370.5857	0.2018
370.7936	0.222
371.0015	0.2019
371.2093	0.2037
371.4172	0.2158
371.625	0.2204
371.8328	0.2082
372.0406	0.2297
372.2484	0.2099
372.4562	0.227
372.664	0.2299
372.8717	0.2164
373.0795	0.2108
373.2872	0.2293
373.4949	0.2274
373.7026	0.2268
373.9103	0.2313
374.118	0.229
374.3256	0.2208
374.5333	0.2283
374.7409	0.2208
374.9485	0.2459
375.1561	0.2364
375.3637	0.2392
375.5713	0.2361
375.7789	0.2302
375.9864	0.2371
376.194	0.235
376.4015	0.2305
376.609	0.2481
376.8165	0.2282
377.024	0.2484
377.2315	0.2318
377.4389	0.2235
377.6464	0.2432
377.8538	0.2351
378.0612	0.221
378.2686	0.242
378.476	0.2544
378.6834	0.2318
378.8908	0.2457
379.0981	0.2389
379.3055	0.2686
379.5128	0.2543
379.7201	0.2546
379.9274	0.2407
380.1347	0.2454
380.342	0.2598
380.5492	0.2427
380.7565	0.2515
380.9637	0.2435
381.1709	0.2442
381.3781	0.2522
381.5853	0.2616
381.7925	0.2495
381.9997	0.2612
382.2068	0.26
382.4139	0.2508
382.6211	0.2429
382.8282	0.2446
383.0353	0.2517
383.2424	0.2447
383.4494	0.2616
383.6565	0.2445
383.8635	0.2361
384.0706	0.2485
384.2776	0.2575
384.4846	0.246
384.6916	0.261
384.8986	0.2535
385.1055	0.247
385.3125	0.2488
385.5194	0.2477
385.7263	0.2549
385.9333	0.2612
386.1402	0.2726
386.347	0.2613
386.5539	0.2438
386.7608	0.2622
386.9676	0.2437
387.1744	0.2564
387.3813	0.2457
387.5881	0.2628
387.7948	0.2434
388.0016	0.2572
388.2084	0.2443
388.4151	0.2538
388.6219	0.2351
388.8286	0.248
389.0353	0.2561
389.242	0.2472
389.4487	0.2304
389.6553	0.2377
389.862	0.221
390.0686	0.24
390.2753	0.2507
390.4819	0.2406
390.6885	0.2551
390.8951	0.2272
391.1016	0.223
391.3082	0.2183
391.5147	0.237
391.7213	0.2364
391.9278	0.2196
392.1343	0.2256
392.3408	0.2314
392.5473	0.2316
392.7537	0.2215
392.9602	0.2282
393.1666	0.2229
393.373	0.2347
393.5794	0.2345
393.7858	0.2078
393.9922	0.214
394.1986	0.2365
394.4049	0.2329
394.6113	0.2224
394.8176	0.21
395.0239	0.2221
395.2302	0.2175
395.4365	0.2179
395.6428	0.2152
395.8491	0.2206
396.0553	0.2182
396.2615	0.2052
396.4678	0.2081
396.674	0.2054
396.8802	0.1974
397.0863	0.2168
397.2925	0.1999
397.4987	0.2093
397.7048	0.2057
397.9109	0.2325
398.117	0.2003
398.3231	0.2039
398.5292	0.21
398.7353	0.2317
398.9413	0.2174
399.1474	0.2006
399.3534	0.2004
399.5594	0.1962
399.7654	0.2153
399.9714	0.2236
400.1774	0.231
400.3833	0.2008
400.5893	0.2157
400.7952	0.2089
401.0011	0.2074
401.207	0.2307
401.4129	0.2085
401.6188	0.2104
401.8247	0.2059
402.0305	0.2187
402.2364	0.1971
402.4422	0.2143
402.648	0.2061
402.8538	0.2325
403.0596	0.2046
403.2654	0.2126
403.4711	0.1981
403.6768	0.2078
403.8826	0.2298
404.0883	0.2304
404.294	0.2164
404.4997	0.2073
404.7054	0.2003
404.911	0.1843
405.1167	0.2157
405.3223	0.2291
405.5279	0.2142
405.7335	0.2304
405.9391	0.2237
406.1447	0.1994
406.3502	0.2222
406.5558	0.2093
406.7613	0.2183
406.9668	0.2021
407.1724	0.2064
407.3778	0.2067
407.5833	0.1962
407.7888	0.2096
407.9942	0.2336
408.1997	0.214
408.4051	0.2092
408.6105	0.2007
408.8159	0.1918
409.0213	0.2105
409.2267	0.2324
409.432	0.1981
409.6374	0.1999
409.8427	0.2027
410.048	0.2236
410.2533	0.2168
410.4586	0.2163
410.6639	0.2068
410.8691	0.2092
411.0744	0.2014
411.2796	0.2014
411.4848	0.2124
411.69	0.1923
411.8952	0.2241
412.1004	0.1949
412.3056	0.2125
412.5107	0.2054
412.7158	0.2172
412.921	0.2087
413.1261	0.2012
413.3312	0.1933
413.5362	0.191
413.7413	0.204
413.9464	0.2132
414.1514	0.1983
414.3564	0.2008
414.5614	0.1967
414.7664	0.2021
414.9714	0.2052
415.1764	0.1994
415.3813	0.2267
415.5863	0.2211
415.7912	0.2062
415.9961	0.2061
416.201	0.2027
416.4059	0.2201
416.6108	0.2129
416.8156	0.2121
417.0205	0.1996
417.2253	0.1867
417.4301	0.2242
417.6349	0.1994
417.8397	0.203
418.0445	0.2029
418.2492	0.1899
418.454	0.1881
418.6587	0.1809
418.8634	0.1895
419.0681	0.1722
419.2728	0.1977
419.4775	0.1772
419.6822	0.1777
419.8868	0.1802
420.0915	0.1915
420.2961	0.2005
420.5007	0.1761
420.7053	0.1986
420.9099	0.2189
421.1144	0.1917
421.319	0.1886
421.5235	0.188
421.728	0.185
421.9325	0.1823
422.137	0.1978
422.3415	0.1807
422.546	0.1993
422.7504	0.1737
422.9549	0.1977
423.1593	0.1762
423.3637	0.1827
423.5681	0.164
423.7725	0.1733
423.9769	0.1785
424.1812	0.1641
424.3856	0.1669
424.5899	0.1837
424.7942	0.1796
424.9985	0.1588
425.2028	0.1781
425.4071	0.1964
425.6113	0.1795
425.8156	0.1735
426.0198	0.1706
426.224	0.1734
426.4282	0.1683
426.6324	0.149
426.8366	0.1785
427.0407	0.1681
427.2449	0.1649
427.449	0.1716
427.6531	0.1488
427.8572	0.1606
428.0613	0.1581
428.2654	0.1573
428.4694	0.1503
428.6735	0.1567
428.8775	0.1715
429.0815	0.1654
429.2855	0.1398
429.4895	0.1583
429.6935	0.1463
429.8975	0.1557
430.1014	0.1583
430.3053	0.129
430.5093	0.1496
430.7132	0.1333
430.9171	0.135
431.1209	0.1423
431.3248	0.1284
431.5286	0.1513
431.7325	0.1443
431.9363	0.1241
432.1401	0.1481
432.3439	0.1225
432.5477	0.1105
432.7514	0.1134
432.9552	0.1328
433.1589	0.1157
433.3627	0.1091
433.5664	0.1196
433.7701	0.096
433.9737	0.112
434.1774	0.1199
434.3811	0.1073
434.5847	0.1001
434.7883	0.0974
434.9919	0.1083
435.1955	0.1055
435.3991	0.1002
435.6027	0.1043
435.8062	0.1045
436.0098	0.0927
436.2133	0.1088
436.4168	0.0894
436.6203	0.093
436.8238	0.1002
437.0272	0.0939
437.2307	0.091
437.4341	0.0916
437.6375	0.0904
437.841	0.0863
438.0443	0.1021
438.2477	0.0992
438.4511	0.0798
438.6545	0.0842
438.8578	0.1033
439.0611	0.0883
439.2644	0.0858
439.4677	0.072
439.671	0.0846
439.8743	0.087
440.0775	0.0883
440.2808	0.0745
440.484	0.0614
440.6872	0.0701
440.8904	0.0642
441.0936	0.0854
441.2967	0.076
441.4999	0.0789
441.703	0.073
441.9062	0.0574
442.1093	0.0684
442.3124	0.0732
442.5155	0.0491
442.7185	0.0498
442.9216	0.0454
443.1246	0.0664
443.3276	0.0482
443.5307	0.0524
443.7337	0.0552
443.9366	0.0577
444.1396	0.0634
444.3426	0.0538
444.5455	0.0548
444.7484	0.0432
444.9513	0.0403
445.1542	0.0488
445.3571	0.0427
445.56	0.0472
445.7628	0.0275
445.9657	0.0425
446.1685	0.0511
446.3713	0.0598
446.5741	0.0433
446.7769	0.0314
446.9797	0.0425
447.1824	0.0436
447.3852	0.0385
447.5879	0.0588
447.7906	0.0432
447.9933	0.0362
448.196	0.0269
448.3986	0.035
448.6013	0.0273
448.8039	0.0274
449.0066	0.0423
449.2092	0.0305
449.4118	0.028
449.6143	0.0391
449.8169	0.0279
450.0195	0.026
450.222	0.0054
450.4245	0.0297
450.627	0.0405
450.8295	0.0281
451.032	0.0299
451.2345	0.0383
451.4369	0.033
451.6394	0.034
451.8418	0.002
452.0442	0.0235
452.2466	0.0312
452.449	0.0206
452.6513	0.0066
452.8537	0.0085
453.056	0.0111
453.2583	0.0244
453.4607	0.0223
453.663	0.0098
453.8652	0.015
454.0675	0.0079
454.2697	0.0298
454.472	0.0055
454.6742	0.0204
454.8764	0.0052
455.0786	0.032
455.2808	0.024
455.4829	0.012
455.6851	0.0075
455.8872	0.013
456.0893	0.0192
456.2915	-0.0026
456.4935	0.0304
456.6956	0.0101
456.8977	0.0182
457.0997	0.0016
457.3018	0.0002
457.5038	0.0238
457.7058	0.0075
457.9078	0.0032
458.1098	0.0052
458.3117	0.0178
458.5137	0.0104
458.7156	0.0125
458.9175	-0.0109
459.1194	0.0119
459.3213	0.0108
459.5232	0.003
459.725	-0.0006
459.9269	-0.0019
460.1287	-0.0011
460.3305	0.0088
460.5323	0.0107
460.7341	0.0057
460.9359	-0.0088
461.1376	0.0134
461.3394	-0.005
461.5411	0.0239
461.7428	-0.0064
461.9445	0.012
462.1462	0.0145
462.3479	0.0107
462.5495	0.0009
462.7512	0.0081
462.9528	0.0039
463.1544	-0.0025
463.356	0.0021
463.5576	0.0162
463.7592	-0.002
463.9607	0.0146
464.1623	0.0188
464.3638	0.0147
464.5653	-0.0189
464.7668	-0.0007
464.9683	0.005
465.1697	0.0209
465.3712	-0.0031
465.5726	0.0008
465.7741	0.0065
465.9755	-0.0018
466.1769	-0.0022
466.3782	-0.0003
466.5796	0.0022
466.7809	0.0021
466.9823	-0.0025
467.1836	-0.0039
467.3849	-0.0065
467.5862	0.0047
467.7875	-0.0065
467.9887	0.0032
468.19	0.0001
468.3912	-0.0073
468.5924	0.0009
468.7936	0.0047
468.9948	0.0125
469.196	0.0074
469.3972	-0.0244
469.5983	0.0017
469.7994	-0.0184
470.0006	-0.0082
470.2017	-0.0176
470.4027	-0.0097
470.6038	0.0029
470.8049	-0.0155
471.0059	-0.0144
471.2069	-0.0254
471.408	0.0015
471.6089	-0.0027
471.8099	-0.0026
472.0109	-0.0055
472.2119	0.0042
472.4128	-0.0088
472.6137	0.0171
472.8146	-0.0147
473.0155	-0.0045
473.2164	-0.0031
473.4173	0.0197
473.6181	0.0008
473.819	0.0029
474.0198	-0.0214
474.2206	0.0038
474.4214	-0.0034
474.6222	-0.0021
474.8229	-0.009
475.0237	-0.0033
475.2244	-0.021
475.4251	-0.0092
475.6258	0.0045
475.8265	-0.0001
476.0272	0.0104
476.2278	-0.0005
476.4285	-0.0053
476.6291	-0.0159
476.8297	-0.0158
477.0303	-0.0071
477.2309	-0.0055
477.4315	-0.0135
477.632	-0.0078
477.8326	-0.0029
478.0331	0.0088
478.2336	0.0081
478.4341	-0.0142
478.6346	-0.0074
478.8351	0.0028
479.0355	-0.0046
479.236	0.0012
479.4364	0.005
479.6368	0.0049
479.8372	-0.0181
480.0376	-0.0047
480.2379	-0.0186
480.4383	-0.007
480.6386	0.0003
480.8389	-0.0085
481.0392	-0.0135
481.2395	-0.0091
481.4398	0.0093
481.6401	-0.0041
481.8403	-0.0109
482.0405	-0.0035
482.2408	0.0025
482.441	0.0025
482.6411	-0.0067
482.8413	-0.0078
483.0415	-0.0087
483.2416	-0.0178
483.4417	-0.0021
483.6419	-0.0117
483.8419	-0.0022
484.042	0.0149
484.2421	0.0041
484.4422	-0.0115
484.6422	-0.0099
484.8422	-0.005
485.0422	-0.0036
485.2422	0.0128
485.4422	-0.0147
485.6422	-0.0095
485.8421	0.0063
486.042	-0.0087
486.242	-0.0013
486.4419	-0.0194
486.6417	-0.0189
486.8416	-0.0035
487.0415	-0.0044
487.2413	-0.0054
487.4411	-0.0009
487.641	-0.014
487.8408	0.0084
488.0405	-0.0148
488.2403	-0.0059
488.4401	0.007
488.6398	-0.0022
488.8395	-0.0086
489.0392	-0.0038
489.2389	-0.0026
489.4386	-0.0156
489.6383	-0.0004
489.8379	-0.0024
490.0376	-0.0018
490.2372	-0.0105
490.4368	-0.0112
490.6364	-0.0111
490.836	-0.005
491.0355	-0.0047
491.2351	-0.0159
491.4346	-0.0126
491.6341	-0.0153
491.8336	-0.0038
492.0331	-0.014
492.2326	-0.0164
492.432	0.0042
492.6315	-0.0058
492.8309	-0.0154
493.0303	-0.0119
493.2297	-0.0153
493.4291	-0.0097
493.6284	-0.0074
493.8278	-0.0079
494.0271	0.0017
494.2264	0.004
494.4257	-0.0175
494.625	0.0003
494.8243	-0.0181
495.0236	-0.0158
495.2228	-0.0111
495.422	0.0011
495.6213	-0.0102
495.8205	-0.0022
496.0196	-0.0026
496.2188	-0.0047
496.418	-0.0175
496.6171	-0.0039
496.8162	-0.0085
497.0153	0.0044
497.2144	-0.0059
497.4135	0.0008
497.6126	-0.0105
497.8116	-0.007
498.0107	-0.0082
498.2097	-0.0216
498.4087	-0.0051
498.6077	0.0065
498.8067	-0.0146
499.0056	0.0045
499.2046	-0.0113
499.4035	-0.015
499.6024	-0.0107
499.8013	-0.007
500.0002	-0.014
500.199	-0.0043
500.3979	-0.0107
500.5967	-0.0264
500.7956	-0.0024
500.9944	0.0006
501.1932	-0.0141
501.3919	-0.0106
501.5907	-0.0131
501.7895	-0.0108
501.9882	-0.0217
502.1869	-0.0023
502.3856	-0.0111
502.5843	-0.0108
502.783	-0.0107
502.9816	-0.0021
503.1803	-0.0191
503.3789	-0.0165
503.5775	-0.0007
503.7761	-0.0074
503.9747	-0.003
504.1732	-0.0144
504.3718	0.0003
504.5703	-0.0102
504.7689	-0.0055
504.9674	-0.004
505.1658	-0.0126
505.3643	-0.0112
505.5628	-0.0058
505.7612	-0.0005
505.9597	-0.0048
506.1581	-0.0101
506.3565	0.0016
506.5549	-0.0047
506.7532	-0.0186
506.9516	0.007
507.1499	-0.0075
507.3482	-0.0215
507.5465	-0.0098
507.7448	-0.0003
507.9431	0.0022
508.1414	-0.0008
508.3396	-0.0094
508.5379	-0.0103
508.7361	-0.0089
508.9343	-0.0092
509.1325	-0.0017
509.3306	-0.0036
509.5288	-0.0019
509.7269	-0.0044
509.9251	-0.0001
510.1232	-0.0069
510.3213	0.0007
510.5193	-0.0018
510.7174	-0.0137
510.9154	-0.0132
511.1135	-0.0134
511.3115	-0.0171
511.5095	0.0056
511.7075	-0.0083
511.9055	-0.0036
512.1034	-0.0108
512.3014	0.0042
512.4993	0.0014
512.6972	-0.0041
512.8951	-0.0146
513.093	-0.0036
513.2908	-0.005
513.4887	-0.0002
513.6865	-0.0131
513.8844	-0.0071
514.0822	-0.0098
514.2799	-0.007
514.4777	-0.0054
514.6755	-0.0095
514.8732	-0.0121
515.0709	-0.0103
515.2687	-0.0115
515.4664	-0.002
515.664	-0.0077
515.8617	-0.0086
516.0594	-0.0136
516.257	0.0019
516.4546	-0.0132
516.6522	0.0001
516.8498	0.0014
517.0474	-0.0014
517.2449	0.0017
517.4425	-0.0157
517.64	-0.015
517.8375	0.001
518.035	-0.007
518.2325	-0.0199
518.43	-0.0196
518.6274	-0.0033
518.8249	-0.0168
519.0223	-0.0056
519.2197	-0.0045
519.4171	-0.0136
519.6145	-0.0088
519.8118	-0.0057
520.0092	-0.0111
520.2065	-0.0099
520.4038	-0.0245
520.6011	-0.0063
520.7984	-0.0055
520.9956	-0.0062
521.1929	-0.0066
521.3901	-0.0079
521.5874	-0.0054
521.7846	-0.0061
521.9818	-0.0061
522.1789	-0.016
522.3761	-0.0118
522.5732	-0.007
522.7704	-0.0077
522.9675	-0.0007
523.1646	-0.0043
523.3617	-0.0058
523.5587	-0.0026
523.7558	-0.0041
523.9528	-0.009
524.1498	-0.0043
524.3468	-0.001
524.5438	-0.0102
524.7408	-0.0071
524.9378	-0.0052
525.1347	-0.0054
525.3316	-0.0044
525.5285	-0.0129
525.7254	-0.0094
525.9223	-0.0022
526.1192	-0.0119
526.316	-0.0169
526.5129	0.009
526.7097	-0.0099
526.9065	-0.0035
527.1033	-0.0104
527.3	-0.0037
527.4968	0.0001
527.6935	-0.0025
527.8903	-0.0116
528.087	0.0053
528.2837	-0.0061
528.4804	-0.0053
528.677	-0.0109
528.8737	0.0006
529.0703	0
529.2669	-0.0061
529.4635	-0.003
529.6601	0.0057
529.8567	-0.0122
530.0532	-0.0108
530.2498	-0.0099
530.4463	0.0064
530.6428	-0.0076
530.8393	-0.0011
531.0358	-0.0206
531.2322	-0.005
531.4287	-0.0014
531.6251	-0.0154
531.8215	0.0009
532.0179	-0.0032
532.2143	0.004
532.4107	-0.0086
532.607	-0.0055
532.8034	0.0021
532.9997	-0.002
533.196	-0.0131
533.3923	-0.0133
533.5886	0.007
533.7848	0.0014
533.9811	-0.0024
534.1773	-0.0076
534.3735	-0.0003
534.5697	-0.0043
534.7659	-0.0134
534.9621	0.003
535.1582	-0.011
535.3544	-0.0091
535.5505	-0.0051
535.7466	-0.0098
535.9427	-0.0027
536.1387	-0.0019
536.3348	0.0019
536.5308	0.0044
536.7269	-0.0101
536.9229	-0.0035
537.1189	0.0024
537.3148	-0.005
537.5108	-0.0123
537.7068	0.0071
537.9027	-0.0035
538.0986	0.0032
538.2945	-0.0062
538.4904	-0.0086
538.6863	0.0012
538.8821	-0.0031
539.078	-0.0049
539.2738	-0.0001
539.4696	-0.003
539.6654	0.0002
539.8611	0.0066
540.0569	-0.0044
540.2526	-0.0027
540.4484	-0.0038
540.6441	0.0017
540.8398	-0.0025
541.0355	0.0011
541.2311	-0.0004
541.4268	-0.0077
541.6224	0.0034
541.818	-0.0078
542.0136	-0.0117
542.2092	0.0037
542.4048	0.0096
542.6003	-0.0019
542.7959	-0.0004
542.9914	-0.0015
543.1869	0.004
543.3824	-0.0124
543.5779	-0.0173
543.7734	-0.0017
543.9688	-0.0077
544.1642	0.0001
544.3596	0.0023
544.555	-0.0024
544.7504	-0.0033
544.9458	-0.0053
545.1411	-0.0013
545.3365	0.0039
545.5318	-0.0088
545.7271	-0.0066
545.9224	-0.0053
546.1177	0.0071
546.3129	0.0038
546.5081	-0.003
546.7034	-0.0083
546.8986	-0.0072
547.0938	-0.0021
547.289	-0.0109
547.4841	-0.0025
547.6793	0.0093
547.8744	-0.0086
548.0695	-0.0033
548.2646	-0.0028
548.4597	-0.0054
548.6548	0.0002
548.8498	-0.0005
549.0448	0.005
549.2399	0.0045
549.4349	0.0057
549.6298	0.0047
549.8248	-0.0014
550.0198	0.0013
550.2147	0.0017
550.4096	-0.0086
550.6045	-0.0072
550.7994	0.0027
550.9943	-0.0037
551.1892	-0.0023
551.384	-0.002
551.5788	-0.0105
551.7737	-0.0048
551.9685	-0.0004
552.1632	0.0027
552.358	-0.0022
552.5528	-0.0012
552.7475	0.0001
552.9422	-0
553.1369	-0.0046
553.3316	0.0047
553.5263	-0.008
553.7209	0.0107
553.9156	0.0033
554.1102	-0.0148
554.3048	-0.011
554.4994	0.0099
554.694	-0.0031
554.8885	0.0039
555.0831	-0.0095
555.2776	-0.0092
555.4721	-0.0052
555.6666	-0.0012
555.8611	0.0134
556.0555	0.0032
556.25	-0.001
556.4444	-0.0107
556.6388	0.0021
556.8332	-0.0006
557.0276	-0.0045
557.222	-0.0042
557.4163	0.0027
557.6107	-0.002
557.805	-0.0019
557.9993	0.0001
558.1936	0.0022
558.3879	0.0009
558.5821	0.0019
558.7764	-0.0044
558.9706	-0.0002
559.1648	-0.0004
559.359	-0.0017
559.5532	0.0052
559.7473	0.0032
559.9415	0.0026
560.1356	0.0023
560.3297	-0.0067
560.5238	-0.0096
560.7179	0.0016
560.9119	-0.0007
561.106	-0.0006
561.3	-0.0023
561.494	0.0037
561.688	-0.0037
561.882	-0.0108
562.076	-0.0027
562.2699	0.0031
562.4639	-0.0003
562.6578	-0.0057
562.8517	-0.0076
563.0456	0.0016
563.2395	0.005
563.4333	0.0015
563.6272	0.0083
563.821	-0.0092
564.0148	-0.0043
564.2086	-0.0015
564.4024	-0.006
564.5961	-0.0099
564.7899	0.0025
564.9836	-0.0034
565.1773	-0.0014
565.371	0.0019
565.5647	0.0051
565.7584	0.0058
565.952	-0.0022
566.1456	0.0025
566.3393	-0.0018
566.5329	-0.0075
566.7264	-0.0082
566.92	-0.0058
567.1136	0.0046
567.3071	-0.0078
567.5006	-0.0031
567.6941	0.008
567.8876	0.0041
568.0811	-0.0017
568.2745	0.0028
568.468	0.0052
568.6614	0.0062
568.8548	0.0037
569.0482	0.0016
569.2416	0.0041
569.4349	0.0024
569.6283	0.0092
569.8216	0.0046
570.0149	-0.0052
570.2082	0.0061
570.4015	0.0039
570.5947	0.0084
570.788	0.007
570.9812	0.0046
571.1744	-0.0034
571.3676	-0.0062
571.5608	-0.0048
571.754	0.0053
571.9471	0.0068
572.1402	0.0015
572.3333	-0.0017
572.5264	-0.003
572.7195	0.0043
572.9126	0.0049
573.1057	-0.0013
573.2987	0.0006
573.4917	-0.0049
573.6847	0.0029
573.8777	0.0103
574.0707	0.0036
574.2636	-0.0027
574.4566	-0.0036
574.6495	-0.0003
574.8424	-0.0002
575.0353	-0.0033
575.2281	0.0093
575.421	0.003
575.6138	0.0057
575.8067	-0.0002
575.9995	-0.0016
576.1923	0.0137
576.385	-0.0021
576.5778	-0.0019
576.7706	-0.0011
576.9633	0.0026
577.156	0.0024
577.3487	-0.0007
577.5414	-0.0004
577.734	-0.0053
577.9267	0.0002
578.1193	-0.007
578.3119	-0.0002
578.5045	-0.0015
578.6971	0.0035
578.8897	0.0071
579.0822	-0.0023
579.2747	-0.0027
579.4673	-0.0028
579.6598	-0.0033
579.8522	0.0004
580.0447	-0.0023
580.2372	-0.006
580.4296	0.0077
580.622	-0.0011
580.8144	0.0016
581.0068	0.0028
581.1992	-0.0076
581.3915	-0.0034
581.5839	-0.0056
581.7762	-0.0035
581.9685	-0.0037
582.1608	0.0038
582.353	-0.0014
582.5453	0.0027
582.7375	0.002
582.9298	0.0038
583.122	0.0013
583.3142	0.0043
583.5063	0.0065
583.6985	-0.0008
583.8906	0.0011
584.0827	-0.0039
584.2749	0.0047
584.4669	0.0078
584.659	0.0012
584.8511	-0.0011
585.0431	-0.0035
585.2352	0.0041
585.4272	0.0045
585.6192	0.0059
585.8111	0.0055
586.0031	0.0036
586.195	0.0024
586.387	0.0055
586.5789	-0.0016
586.7708	0.0063
586.9627	0.0045
587.1545	-0.0027
587.3464	0.0065
587.5382	0.0013
587.73	-0.003
587.9218	0.0051
588.1136	0.0002
588.3053	0.011
588.4971	-0.0041
588.6888	-0.0079
588.8805	-0.0018
589.0722	0.005
589.2639	0.0022
589.4556	0.0029
589.6472	0.0042
589.8389	-0.0076
590.0305	-0.0083
590.2221	0.0029
590.4137	-0.0041
590.6052	0.0048
590.7968	0.0052
590.9883	0.0011
591.1798	0.0043
591.3713	0.0017
591.5628	0.0014
591.7543	0.0054
591.9458	0.0008
592.1372	0.01
592.3286	0.0116
592.52	0.006
592.7114	-0.0002
592.9028	-0.0031
593.0941	-0.0024
593.2855	0.0014
593.4768	-0.0009
593.6681	-0.0085
593.8594	-0.0016
594.0506	0.0019
594.2419	0.0065
594.4331	0.0079
594.6244	0.0054
594.8156	-0.003
595.0067	0.0012
595.1979	0.0024
595.3891	0.0026
595.5802	-0.0029
595.7713	-0.0055
595.9624	-0.0001
596.1535	-0.0001
596.3446	0.0072
596.5357	0.0004
596.7267	0.0082
596.9177	-0.003
597.1087	-0.0081
597.2997	-0.0021
597.4907	0.0042
597.6817	-0.0048
597.8726	0.0033
598.0635	0.0001
598.2544	0.0049
598.4453	0.0017
598.6362	0.004
598.827	0.0053
599.0179	0.0054
599.2087	0.0041
599.3995	-0.0039
599.5903	-0.0005
599.7811	-0.0014
599.9718	-0.0022
600.1626	-0.0012
600.3533	-0.004
600.544	0.0034
600.7347	-0.0049
600.9254	0.0029
601.116	-0.0086
601.3067	0.0031
601.4973	-0.0002
601.6879	0.0073
601.8785	-0.0096
602.0691	0.0082
602.2596	0.0055
602.4502	0.01
602.6407	0.0089
602.8312	0.0021
603.0217	-0.0028
603.2122	0.0072
603.4027	0.0036
603.5931	-0.001
603.7835	-0.0099
603.9739	-0.0033
604.1643	-0.0037
604.3547	-0.0056
604.5451	0.0012
604.7354	-0.0006
604.9257	0.0048
605.116	0.0022
605.3063	0.0097
605.4966	0.0018
605.6869	-0.0022
605.8771	0.0086
606.0673	0.0064
606.2575	0.0094
606.4477	0.0038
606.6379	0.0013
606.8281	-0.0028
607.0182	-0.0031
607.2083	0.0116
607.3985	-0.0012
607.5885	-0.003
607.7786	0.001
607.9687	-0.0052
608.1587	0.0063
608.3488	0.0035
608.5388	0.0011
608.7288	-0.0011
608.9187	-0.0046
609.1087	-0.0035
609.2986	-0.0078
609.4886	0.0027
609.6785	0.0002
609.8684	0.0042
610.0582	0.0043
610.2481	0.0077
610.4379	0.0002
610.6278	-0.0033
610.8176	0.0018
611.0074	-0.0038
611.1971	0.0006
611.3869	0.0075
611.5766	-0.0012
611.7664	0.0063
611.9561	0.0071
612.1458	0.0038
612.3354	-0.0009
612.5251	0.0057
612.7147	0.0026
612.9044	0.0143
613.094	-0.003
613.2836	0.0035
613.4731	0.0019
613.6627	0.0003
613.8522	0.0019
614.0417	0.0027
614.2313	0.0008
614.4207	0.0001
614.6102	0.0005
614.7997	0.0019
614.9891	-0.001
615.1785	0.002
615.3679	0.0008
615.5573	0.0117
615.7467	-0.0002
615.9361	-0.005
616.1254	0.0017
616.3147	0.004
616.504	-0.005
616.6933	0.009
616.8826	0.0006
617.0718	0.0039
617.2611	0.0028
617.4503	0.001
617.6395	0.0003
617.8287	0.0005
618.0179	0.0005
618.207	0.0084
618.3961	0.0098
618.5853	0.0005
618.7744	0.0042
618.9634	0.01
619.1525	0.0044
619.3416	0.0099
619.5306	0.0125
619.7196	0.0098
619.9086	0.0079
620.0976	0.0081
620.2866	0.0044
620.4755	0.0033
620.6645	0.007
620.8534	0.006
621.0423	0.0131
621.2312	0.0034
621.42	-0.0006
621.6089	0.0047
621.7977	0.0074
621.9865	-0.0048
622.1753	0.0162
622.3641	-0.0012
622.5529	0.0086
622.7416	0.0094
622.9303	0.0058
623.1191	0.0092
623.3078	-0.0021
623.4964	0.0035
623.6851	-0.0019
623.8737	0.0027
624.0624	0.0049
624.251	0.0034
624.4396	0.0043
624.6282	-0.0031
624.8167	-0.0054
625.0053	0.0022
625.1938	0.0143
625.3823	0.0006
625.5708	0.0045
625.7593	-0.0056
625.9477	0.0014
626.1362	0.0052
626.3246	0.0057
626.513	0.0098
626.7014	0.0117
626.8898	0.0068
627.0781	0.0069
627.2665	-0.0159
627.4548	0.0064
627.6431	-0.0038
627.8314	0.0025
628.0197	0.0086
628.2079	-0.0017
628.3962	-0.0075
628.5844	-0.0009
628.7726	0.0027
628.9608	0.0066
629.1489	-0.0073
629.3371	0.001
629.5252	-0.0006
629.7134	0.0118
629.9015	-0.0022
630.0895	0.0057
630.2776	0.0038
630.4657	-0.0019
630.6537	-0.0018
630.8417	0.0035
631.0297	0.0023
631.2177	0.0034
631.4057	-0.0044
631.5936	0.0047
631.7815	0.0037
631.9695	0.004
632.1574	0.0077
632.3452	0.007
632.5331	0.0086
632.7209	-0.0023
632.9088	0.0092
633.0966	0.0025
633.2844	0.0031
633.4722	0.0111
633.6599	0.0046
633.8477	0.0037
634.0354	0.0025
634.2231	-0.0002
634.4108	0.0017
634.5985	0.0071
634.7861	0.0004
634.9738	0.0006
635.1614	-0.0009
635.349	0.0039
635.5366	0.0015
635.7242	0.0042
635.9117	0.0051
636.0993	0.0015
636.2868	0.0051
636.4743	-0.0025
636.6618	0.0094
636.8492	0.0027
637.0367	-0.0002
637.2241	-0.0039
637.4115	0.0011
637.5989	-0.0052
637.7863	0.002
637.9737	-0.0018
638.161	0.0062
638.3484	0.0027
638.5357	0.0053
638.723	-0.001
638.9103	0.0028
639.0975	0.0078
639.2848	0.0054
639.472	0.0075
639.6592	0.0062
639.8464	0.0136
640.0336	0.0134
640.2208	-0.0023
640.4079	-0.0003
640.595	0.0073
640.7821	-0.0042
640.9692	0.001
641.1563	0.0008
641.3434	0.0061
641.5304	0.0014
641.7174	-0.0019
641.9044	0.0022
642.0914	-0.0004
642.2784	0.0038
642.4653	0.0064
642.6523	0.0026
642.8392	-0.0024
643.0261	-0.0014
643.213	0.0047
643.3999	0.0047
643.5867	-0.0069
643.7735	-0.0004
643.9604	-0.0063
644.1472	-0.0054
644.3339	0.0043
644.5207	0.0013
644.7075	-0.0051
644.8942	0.0078
645.0809	0.0113
645.2676	0.0104
645.4543	0.0044
645.6409	0.0009
645.8276	0.0012
646.0142	0.0108
646.2008	0.0009
646.3874	-0.0033
646.574	-0.002
646.7605	0.0028
646.9471	-0.0059
647.1336	-0.003
647.3201	0.0054
647.5066	-0.0006
647.6931	0.0144
647.8795	0.0024
648.0659	0.0119
648.2524	0.0086
648.4388	-0.0028
648.6252	-0.002
648.8115	0.0044
648.9979	0.0001
649.1842	0.0055
649.3705	0.009
649.5568	0.0123
649.7431	0.0104
649.9294	-0.0042
650.1156	0.0102
650.3018	0.0016
650.488	0.0068
650.6742	0.0086
650.8604	0.0034
651.0466	0.0055
651.2327	0.0028
651.4188	0.0066
651.6049	0.0029
651.791	-0.0027
651.9771	0.0122
652.1632	0.0118
652.3492	0.0028
652.5352	0.0043
652.7212	0.0005
652.9072	0.0016
653.0932	0.0064
653.2791	-0.0021
653.465	0.0003
653.651	-0.0038
653.8369	0.0039
654.0227	0.003
654.2086	0.0038
654.3944	0.0048
654.5803	0.0023
654.7661	-0
654.9519	-0.0031
655.1377	-0.002
655.3234	0.0005
655.5092	-0.0018
655.6949	0.0006
655.8806	-0.0016
656.0663	-0.0024
656.2519	0.0033
656.4376	-0.0025
656.6232	0.0015
656.8088	-0.0027
656.9945	0.0005
657.18	0.0024
657.3656	0.0049
657.5511	-0.0038
657.7367	-0.001
657.9222	0.0057
658.1077	-0.0043
658.2932	0.0101
658.4786	-0.0039
658.6641	-0.0027
658.8495	0.0066
659.0349	0.0016
659.2203	0.0034
659.4057	0.0064
659.591	0.0027
659.7764	0.0005
659.9617	0.0024
660.147	0.0046
660.3323	-0.0017
660.5176	0.0134
660.7028	0.0065
660.888	0.0131
661.0733	0.0047
661.2585	-0.0054
661.4436	0.002
661.6288	0.006
661.8139	0.0042
661.9991	0.0094
662.1842	-0.0003
662.3693	0.0029
662.5544	-0.001
662.7394	0.0046
662.9245	0.004
663.1095	0.0052
663.2945	0.0102
663.4795	0.0006
663.6644	0.0047
663.8494	0.0093
664.0343	0.013
664.2193	-0.0062
664.4042	0.0076
664.589	-0.0037
664.7739	0.0016
664.9587	-0.0012
665.1436	0.003
665.3284	0.008
665.5132	0.0024
665.698	0.0054
665.8827	0.0115
666.0675	0.0055
666.2522	-0.0044
666.4369	0.0077
666.6216	0.0054
666.8063	0.0049
666.9909	0.0052
667.1756	0.0039
667.3602	-0.0013
667.5448	0.0045
667.7294	0.0117
667.9139	0.0042
668.0985	0.0125
668.283	0.0103
668.4675	0.0046
668.652	0.0024
668.8365	0.0032
669.0209	0.0102
669.2054	0.0151
669.3898	0.005
669.5742	0.0102
669.7586	0.0051
669.943	0.0158
670.1273	0.0125
670.3117	0.0054
670.496	0.007
670.6803	0.0115
670.8646	0.0106
671.0488	0.007
671.2331	0.0113
671.4173	0.0094
671.6015	0.0002
671.7857	0.0046
671.9699	0.0075
672.1541	0.0103
672.3382	0.0087
672.5223	0.0106
672.7064	0.0108
672.8905	0.0132
673.0746	0.0107
673.2587	0.0023
673.4427	0.015
673.6267	0.0108
673.8107	0.0097
673.9947	0.0016
674.1787	0.0179
674.3626	-0.0054
674.5465	0.0054
674.7304	0.0048
674.9143	0.0054
675.0982	0.0087
675.2821	-0.0045
675.4659	0.0102
675.6497	0.0013
675.8335	-0.0048
676.0173	0.0014
676.2011	0.0066
676.3849	0.0074
676.5686	0.0026
676.7523	0.0108
676.936	0.0044
677.1197	0.0004
677.3034	0.002
677.487	0.0009
677.6706	0.0064
677.8542	0.01
678.0378	0.0075
678.2214	0.0026
678.405	-0.0008
678.5885	-0.003
678.772	-0.0028
678.9555	-0.0061
679.139	-0.0024
679.3225	-0.0055
679.5059	-0.0062
679.6894	-0.0037
679.8728	0.0035
680.0562	-0.0043
680.2395	0.0025
680.4229	0.0001
680.6062	0.0121
680.7896	0.0012
680.9729	-0.0102
681.1562	0.0073
681.3394	0.003
681.5227	-0.0079
681.7059	0.0043
681.8891	-0.0004
682.0723	0.008
682.2555	0.0019
682.4387	0.001
682.6218	-0.001
682.805	0.0073
682.9881	0.0003
683.1712	-0.0061
683.3542	0.0001
683.5373	0.0065
683.7203	-0.0037
683.9034	0.0025
684.0864	-0.004
684.2694	0.0021
684.4523	0.0089
684.6353	-0.0106
684.8182	0.0027
685.0011	-0.006
685.184	-0.0042
685.3669	0.0039
685.5498	-0.0001
685.7326	-0.0023
685.9154	-0.0026
686.0982	0.0101
686.281	0.0077
686.4638	0.0057
686.6465	0.0063
686.8293	-0.0025
687.012	0.0018
687.1947	-0.0015
687.3774	0.0067
687.56	-0.0012
687.7427	0.0126
687.9253	-0.0034
688.1079	0.0049
688.2905	0.0029
688.4731	0.0048
688.6556	0.0026
688.8382	0.0027
689.0207	0.01
689.2032	-0.0053
689.3857	0.0044
689.5681	0.0039
689.7506	-0.0063
689.933	0.0028
690.1154	0.0049
690.2978	0.0091
690.4802	0.007
690.6626	-0.0048
690.8449	-0.0015
691.0272	0.0077
691.2095	-0.0015
691.3918	-0.0026
691.5741	0.0042
691.7563	0.0014
691.9386	0.0077
692.1208	0.003
692.303	0.0069
692.4852	-0.003
692.6673	-0.0008
692.8495	0.0003
693.0316	0.0058
693.2137	0.0032
693.3958	0.0141
693.5778	0.0013
693.7599	-0.001
693.9419	0.0009
694.1239	0.004
694.3059	-0.0004
694.4879	0.0045
694.6699	0.0098
694.8518	0.003
695.0337	-0.0038
695.2157	0.0107
695.3975	0.0055
695.5794	0.0026
695.7613	0.0013
695.9431	-0.0036
696.1249	0.0046
696.3067	-0.0015
696.4885	0.0073
696.6703	-0.0059
696.852	0.0054
697.0337	0.0023
697.2154	0.0081
697.3971	0.002
697.5788	-0.0039
697.7605	0.0017
697.9421	0.0052
698.1237	0.0008
698.3053	0.0008
698.4869	0.005
698.6685	-0.0093
698.85	-0.0023
699.0315	0.0017
699.213	0.0051
699.3945	0.0072
699.576	0.0086
699.7575	0.0032
699.9389	0.011
700.1203	0.0041
700.3017	-0.0006
700.4831	-0.0062
700.6645	-0.0015
700.8458	0.0095
701.0271	0.0095
701.2084	0.0052
701.3897	0.0011
701.571	0.003
701.7523	0.0052
701.9335	0.0093
702.1147	0.0028
702.2959	0.0074
702.4771	0.0047
702.6583	0.0091
702.8394	-0.003
703.0205	0.002
703.2016	-0.0091
703.3827	0.0052
703.5638	0.0103
703.7449	0.0019
703.9259	0.0133
704.1069	0.0001
704.2879	-0
704.4689	0.0037
704.6499	0.0084
704.8308	-0.0034
705.0117	0.0013
705.1927	-0.0093
705.3735	-0.0034
705.5544	-0.0073
705.7353	0.0002
705.9161	-0.0064
706.0969	-0.0057
706.2777	-0.0014
706.4585	-0.0005
706.6393	0.0035
706.82	-0.0015
707.0007	0.0084
707.1815	0.0052
707.3621	0.0156
707.5428	0.0141
707.7235	0.0103
707.9041	0.0147
708.0847	-0.0068
708.2653	-0.0017
708.4459	-0.0077
708.6265	0.0072
708.807	0.0049
708.9875	-0.0004
709.168	-0.0053
709.3485	0.0005
709.529	-0.0042
709.7095	-0.0108
709.8899	-0.0035
710.0703	-0.0115
710.2507	-0.0053
710.4311	-0.0078
710.6115	-0.0111
710.7918	-0.0075
710.9721	-0.002
711.1524	-0.003
711.3327	0.0036
711.513	0.0094
711.6932	-0.003
711.8735	0.0098
712.0537	-0.0068
712.2339	-0.0048
712.4141	-0.0024
712.5942	-0.0026
712.7744	-0.0019
712.9545	-0.006
713.1346	-0.0048
713.3147	-0.0001
713.4947	-0.0021
713.6748	-0.0016
713.8548	-0.0129
714.0348	-0.0062
714.2148	0.0069
714.3948	0.0032
714.5748	-0.0082
714.7547	0.0009
714.9346	0.0085
715.1145	-0.0016
715.2944	-0.0076
715.4743	-0
715.6541	0.0028
715.834	0.0074
716.0138	-0.0024
716.1936	-0.0137
716.3733	0.0001
716.5531	0.0103
716.7328	-0.0019
716.9126	-0.0072
717.0923	0.0041
717.2719	-0.002
717.4516	0.0053
717.6312	0.0072
717.8109	-0.0115
717.9905	-0.001
718.1701	-0.0055
718.3496	-0.0057
718.5292	-0.0042
718.7087	0.0052
718.8882	0.0087
719.0677	0.0026
719.2472	-0.0018
719.4267	-0.0045
719.6061	0.0079
719.7856	0.0036
719.965	0.0053
720.1443	0.0008
720.3237	0.0132
720.5031	0.0013
720.6824	0.0112
720.8617	0.0051
721.041	-0.0016
721.2203	0.0095
721.3995	-0.0008
721.5788	-0.0046
721.758	0.0099
721.9372	0.0069
722.1164	0.0063
722.2956	0.0076
722.4747	0.0069
722.6538	-0.0032
722.8329	0.0085
723.012	0.0136
723.1911	0.0072
723.3702	0.011
723.5492	0.0115
723.7282	0.0056
723.9072	0.0012
724.0862	0.005
724.2652	-0.0052
724.4441	-0.0035
724.623	-0.0046
724.8019	-0.004
724.9808	0.0025
725.1597	-0.0057
725.3385	0.0057
725.5174	-0.001
725.6962	-0.002
725.875	0.0034
726.0538	0.0102
726.2325	0.0004
726.4112	0.0012
726.59	-0.0051
726.7687	0.0017
726.9474	0.0016
727.126	-0.0026
727.3047	-0.015
727.4833	0.0077
727.6619	-0.0076
727.8405	-0.0105
728.0191	-0.0023
728.1976	0.0075
728.3762	-0.0035
728.5547	0.0051
728.7332	-0.0014
728.9116	-0.0005
729.0901	0.0092
729.2686	-0.0049
729.447	0.0003
729.6254	-0.004
729.8038	-0.0037
729.9821	-0.0118
730.1605	0.0008
730.3388	-0.0063
730.5171	-0.0024
730.6954	-0.0032
730.8737	-0.0016
731.0519	0.0058
731.2302	0
731.4084	0.0183
731.5866	0.0117
731.7648	-0.002
731.9429	0.0051
732.1211	-0.0059
732.2992	0.0016
732.4773	-0.0007
732.6554	0.0021
732.8335	-0.0003
733.0115	-0.0006
733.1896	0.0074
733.3676	0.0062
733.5456	0.0027
733.7235	0.006
733.9015	0.0024
734.0794	0.0072
734.2574	0.0011
734.4353	0.0066
734.6131	0.0074
734.791	0.0048
734.9689	0.0058
735.1467	0.0112
735.3245	0.0051
735.5023	0.0051
735.68	0.011
735.8578	0.0159
736.0355	-0.0039
736.2132	0.0017
736.3909	0.0032
736.5686	-0.0055
736.7463	0.01
736.9239	0.0014
737.1015	-0.0047
737.2791	0.015
737.4567	-0.0013
737.6343	-0.0013
737.8118	0.0024
737.9894	0.0056
738.1669	-0.0117
738.3444	-0.0023
738.5218	0.001
738.6993	-0.0063
738.8767	-0.0014
739.0541	0.0117
739.2315	-0.0074
739.4089	0.0068
739.5863	0.0062
739.7636	-0.0043
739.9409	0.0024
740.1182	0.0122
740.2955	0.0053
740.4728	0.0002
740.65	-0.001
740.8272	0.0017
741.0044	-0.0046
741.1816	0.0004
741.3588	-0.0043
741.5359	0.0007
741.7131	-0.0071
741.8902	-0.0083
742.0673	-0.003
742.2444	-0.0054
742.4214	-0.0079
742.5985	-0.007
742.7755	0.0029
742.9525	-0.0243
743.1295	0.0004
743.3064	-0.0006
743.4834	0.0026
743.6603	-0.0066
743.8372	-0.0065
744.0141	0.0083
744.191	0.0038
744.3678	0.0019
744.5446	0.0035
744.7215	0.0064
744.8982	-0.0076
745.075	-0.0132
745.2518	-0.0001
745.4285	-0.0001
745.6052	-0.0052
745.7819	-0.0108
745.9586	-0.0017
746.1353	-0.0033
746.3119	-0.0096
746.4885	-0.0077
746.6651	-0.0062
746.8417	-0.0065
747.0183	-0.0025
747.1948	-0.0034
747.3714	0.0037
747.5479	0.0009
747.7244	-0.0046
747.9008	0.001
748.0773	0.0059
748.2537	-0.0026
748.4301	0.0004
748.6065	0.0074
748.7829	0.0023
748.9593	0.0012
749.1356	0.003
749.3119	0.0077
749.4882	-0.0126
749.6645	0.0124
749.8408	-0.0058
750.017	-0.0069
750.1933	0.0013
750.3695	-0.0099
750.5457	-0.0017
750.7218	0.0053
750.898	0.0054
751.0741	-0.0033
751.2502	0.0002
751.4263	-0.0036
751.6024	0.0001
751.7784	-0.0009
751.9545	0.0058
752.1305	0.0011
752.3065	-0.0102
752.4825	0.014
752.6584	-0.0001
752.8344	-0.0054
753.0103	-0.0029
753.1862	0.0007
753.3621	-0.0083
753.5379	-0.0127
753.7138	0.0014
753.8896	-0.0022
754.0654	0.0039
754.2412	0.0049
754.417	-0.001
754.5927	-0.0024
754.7685	-0.0012
754.9442	-0.0033
755.1199	0.0083
755.2956	0.0111
755.4712	0.0087
755.6469	0.0065
755.8225	-0.0043
755.9981	-0.0055
756.1736	0.0009
756.3492	-0.0017
756.5248	-0.0024
756.7003	-0.0012
756.8758	0.0069
757.0513	-0.0139
757.2267	-0.0044
757.4022	0.0023
757.5776	-0.0063
757.753	0.0026
757.9284	-0.0024
758.1038	0.005
758.2791	0.0072
758.4545	-0.0086
758.6298	-0.0086
758.8051	0.0027
758.9803	0.0025
759.1556	-0.0073
759.3308	-0.0069
759.506	0.0028
759.6812	-0.0095
759.8564	0.0027
760.0316	-0.0066
760.2067	0.0022
760.3819	0.0033
760.557	0.0166
760.732	-0.0004
760.9071	-0.0044
761.0821	0.0108
761.2572	0.0122
761.4322	0.0049
761.6072	-0.002
761.7821	0.0013
761.9571	0.0061
762.132	-0.0043
762.3069	-0.0044
762.4818	-0.0069
762.6567	0.0026
762.8316	-0.0019
763.0064	-0.0095
763.1812	-0.0104
763.356	-0.0089
763.5308	0.0016
763.7055	0.0003
763.8803	-0.0035
764.055	-0.0064
764.2297	-0.0002
764.4044	-0.0036
764.579	-0.0078
764.7537	-0.0147
764.9283	0.0009
765.1029	-0.0047
765.2775	0.0027
765.4521	0.0029
765.6266	-0.0074
765.8011	-0.0001
765.9756	0.0115
766.1501	0.0088
766.3246	-0.0004
766.4991	0.0034
766.6735	0.008
766.8479	-0.0099
767.0223	0.0231
767.1967	0.0142
767.371	-0.0047
767.5454	0.0065
767.7197	0.0009
767.894	-0.0063
768.0683	-0.0042
768.2425	0.0094
768.4168	0.0024
768.591	0.0041
768.7652	0.013
768.9394	-0.0049
769.1135	-0.0006
769.2877	0.0071
769.4618	-0.0006
769.6359	-0.0071
769.81	0.0081
769.984	0.0023
770.1581	-0.0094
770.3321	0.0045
770.5061	-0.0056
770.6801	0.0027
770.8541	-0.0044
771.028	0.0098
771.202	-0.0116
771.3759	-0.002
771.5498	-0.0067
771.7236	0.0017
771.8975	-0.0006
772.0713	0.0024
772.2451	0.0048
772.4189	0.0067
772.5927	0.0111
772.7665	-0.0039
772.9402	0.0066
773.1139	0.0119
773.2876	0.0019
773.4613	0.0217
773.635	0.0048
773.8086	-0.0043
773.9822	0.0083
774.1558	0.0027
774.3294	-0.0208
774.503	0.0057
774.6765	0.002
774.8501	0.0136
775.0236	0.0111
775.1971	0.0159
775.3705	-0.0016
775.544	0.0226
775.7174	-0.0035
775.8908	0.0076
776.0642	0.0034
776.2376	-0.0009
776.4109	0.0037
776.5843	0.0016
776.7576	0.0239
776.9309	0.0185
777.1041	0.0145
777.2774	0.0189
777.4506	0.0162
777.6238	0.0031
777.797	-0.0009
777.9702	0.0025
778.1434	0.0148
778.3165	-0.0101
778.4896	-0.0007
778.6627	0.0178
778.8358	0.004
779.0089	-0.0064
779.1819	-0.0064
779.3549	0.0097
779.5279	-0.0027
779.7009	-0.0032
779.8739	-0.0051
780.0468	0.0003
780.2197	0.0027
780.3926	-0.0138
780.5655	0.0085
780.7384	-0.0098
780.9112	0.0044
781.0841	-0.0125
781.2569	0.0006
781.4297	-0.001
781.6024	-0.0096
781.7752	-0.0006
781.9479	0.006
782.1206	0.012
782.2933	-0.0078
782.466	0.0051
782.6386	0.0187
782.8113	0.008
782.9839	0.0021
783.1565	0.0159
783.329	0.024
783.5016	0.0171
783.6741	0.0119
783.8466	0.0109
784.0191	0.0265
784.1916	0.0038
784.3641	0.0257
784.5365	0.0162
784.7089	0.0057
784.8813	-0.0172
785.0537	-0.0004
785.2261	0.0036
785.3984	-0.0039
785.5707	0.0104
785.743	0.008
785.9153	0.0132
786.0876	-0.0008
786.2598	-0.0016
786.432	-0.007
786.6042	0.0166
786.7764	-0.0044
786.9486	0.0076
787.1207	-0.0091
787.2928	0.0139
787.4649	0.0114
787.637	0.012
787.8091	0.0027
787.9811	-0.0011
788.1532	0.0025
788.3252	0.0156
788.4972	-0.0077
788.6691	0.0035
788.8411	0.0086
789.013	0.0101
789.1849	0.0017
789.3568	0.0077
789.5287	-0.0006
789.7005	0.0102
789.8723	-0.0002
790.0442	0.0152
790.2159	0.0124
790.3877	0.0029
790.5595	-0.0068
790.7312	0.0061
790.9029	0.016
791.0746	0.0152
791.2463	0.006
791.4179	0.0087
791.5896	-0.0089
791.7612	-0.0026
791.9328	0.0071
792.1044	-0.0072
792.2759	-0.0128
792.4474	-0.011
792.619	0.0016
792.7905	0.0055
792.9619	-0.0041
793.1334	0.0188
793.3048	0.0226
793.4762	0.01
793.6476	0.006
793.819	0.0021
793.9904	0.004
794.1617	-0.0104
794.333	0.0101
794.5043	-0.0062
794.6756	0.0051
794.8469	0.0056
795.0181	-0.0004
795.1893	0.0024
795.3605	0.007
795.5317	0.0024
795.7029	-0.0044
795.874	0.0085
796.0452	-0.0051
796.2163	-0.0048
796.3873	0.0109
796.5584	0.0239
796.7294	0.0006
796.9005	0.0191
797.0715	0.0103
797.2425	-0.01
797.4134	0.0072
797.5844	0.0151
797.7553	-0.018
797.9262	0.0039
798.0971	0.0051
798.2679	-0.0018
798.4388	-0.003
798.6096	-0.003
798.7804	0.0071
798.9512	0.0068
799.122	-0.0101
799.2927	0.0001
799.4635	0.0197
799.6342	-0.0225
799.8049	0.0006
799.9755	-0.0021
800.1462	-0.003
800.3168	0.008
800.4874	0.0016
800.658	0.0153
800.8286	0.0073
800.9991	0.0114
801.1696	0.0113
801.3402	-0.0085
801.5106	0.0056
801.6811	0.0071
801.8516	0.0046
802.022	0.0136
802.1924	0.0058
802.3628	0.0175
802.5332	0.0017
802.7035	0.0253
802.8739	-0.0131
803.0442	-0.0021
803.2145	0.0152
803.3847	-0.0086
803.555	0.013
803.7252	-0.005
803.8954	-0.0039
804.0656	0.0043
804.2358	-0.0064
804.4059	0.017
804.5761	-0.0082
804.7462	0.0034
804.9163	0.0031
805.0864	-0.0108
805.2564	-0.0004
805.4264	-0.0045
805.5965	-0.0013
805.7665	0.0076
805.9364	0.0146
806.1064	0.0301
806.2763	-0.0016
806.4462	0.027
806.6161	0.0092
806.786	0.0226
806.9559	0.0074
807.1257	0.0119
807.2955	-0.01
807.4653	-0.0138
807.6351	-0.0011
807.8048	-0.0023
807.9746	0.0145
808.1443	0.0028
808.314	0.0047
808.4837	0.0077
808.6533	0.0001
808.8229	0.0417
808.9926	-0.0039
809.1622	0.0202
809.3317	0.0091
809.5013	0.0056
809.6708	0.014
809.8403	0.0297
810.0098	-0.005
810.1793	0.0253
810.3488	0.0133
810.5182	-0.0077
810.6876	-0.0101
810.857	-0.0028
811.0264	0.0159
811.1958	0.0123
811.3651	0.0205
811.5344	0.014
811.7037	-0.0038
811.873	-0.0101
812.0422	0.0227
812.2115	-0.0055
812.3807	0.0015
812.5499	0.0014
812.7191	0.0304
812.8882	-0.0019
813.0574	0.0164
813.2265	0.0103
813.3956	0.0214
813.5646	0.0184
813.7337	-0.0083
813.9027	0.0155
814.0718	0.0236
814.2407	0.0275
814.4097	0.0032
814.5787	-0.0091
814.7476	0.011
814.9165	0.014
815.0854	0.0037
815.2543	0.0177
815.4232	0.0071
815.592	0.0315
815.7608	0.0323
815.9296	0.0165
816.0984	0.0102
816.2671	0.0085
816.4359	0.0298
816.6046	-0.0046
816.7733	-0.0017
816.942	-0.0033
817.1106	0.0381
817.2793	0.0109
817.4479	0.0122
817.6165	0.0312
817.785	0.0081
817.9536	0.0031
818.1221	0.0185
818.2906	0.0403
818.4591	-0.0102
818.6276	-0.0029
818.7961	0.0084
818.9645	0.0188
819.1329	0.0258
819.3013	0.0202
819.4697	0.0277
819.638	0.0259
819.8064	0.0168
819.9747	0.0001
820.143	-0.0109
820.3113	-0.0114
820.4795	0.0054
820.6477	-0.003
820.816	0.0075
820.9842	0.0005
821.1523	-0.0074
821.3205	-0.0006
821.4886	-0.0078
821.6567	0.0026
821.8248	0.0196
821.9929	0.0141
822.1609	-0.0103
822.329	0.0351
822.497	0.0232
822.665	-0.0054
822.833	-0.0117
823.0009	0.0069
823.1688	0.0386
823.3367	0.0466
823.5046	0.0406
823.6725	0.0365
823.8404	-0.0104
824.0082	0.045
824.176	0.0057
824.3438	0.0209
824.5116	0.0305
824.6793	0.0338
824.847	0.0192
825.0147	-0.0049
825.1824	0.0571
825.3501	0.0351
825.5177	-0.0086
825.6854	-0.0054
825.853	0.0052
826.0206	0.0134
826.1881	0.0254
826.3557	0.019
826.5232	0.0626
826.6907	-0.0048
826.8582	0.0061
827.0257	0.0053
827.1931	-0.0034
827.3605	0.0176
827.528	0.0016
827.6953	-0.0101
827.8627	-0.0226
828.03	0.0432
828.1974	-0.0245
828.3647	-0.012
828.532	0.0219
828.6992	-0.0139
828.8665	0.036
829.0337	-0.0054
829.2009	0.0118
829.3681	-0.0019
829.5352	0.0404
829.7024	-0.0284
829.8695	-0.0004
830.0366	0.0644
830.2037	0.0058
830.3707	0.023
830.5378	0.0399
830.7048	-0.0074
830.8718	0.0057
831.0388	-0.0233
831.2057	0.0226
831.3727	0.0337
831.5396	-0.0182
831.7065	-0.0038
831.8734	0.0362
832.0402	-0.0314
832.2071	0.0053
832.3739	-0.0209
832.5407	0.0179
832.7075	-0.0054
832.8742	-0.0254
833.041	-0.0325
833.2077	-0.0482
833.3744	0.0238
833.541	0.0038
833.7077	-0.0127
833.8743	0.0048
834.0409	0.002
834.2075	-0.0073
834.3741	-0.0095
834.5407	0.0184
834.7072	0.0131
834.8737	-0.0603
835.0402	0.0146
835.2067	0.0167
835.3731	0.0484
835.5395	-0.0017
835.706	0.0317
835.8723	-0.0323
836.0387	0.0077
836.2051	-0.0208
836.3714	0.0366
836.5377	0.0272
836.704	-0.0267
836.8703	0.0407
837.0365	0.0205
837.2027	0.0048
837.3689	-0.0265
837.5351	0.004
837.7013	-0.0372
837.8674	-0.0301
838.0335	-0.0014
838.1997	-0.0126
838.3657	-0.0262
838.5318	0.0083
838.6978	0.006
838.8639	0.0255
839.0299	-0.0313
839.1958	-0.0263
839.3618	0.0178
839.5277	0.0081
839.6937	-0.0103
839.8596	-0.0387
840.0254	0.0267
840.1913	0.051
840.3571	0.0416
840.523	0.0335
840.6888	0.0041
840.8545	-0.0167
841.0203	-0.0227
841.186	0.0205
841.3517	0.0328
841.5174	0.0339
841.6831	0.0041
841.8488	0.003
842.0144	-0.0382
842.18	0.0184
842.3456	0.0224
842.5112	-0.0067
842.6767	0.0003
842.8422	-0.0346
843.0077	-0.0178
843.1732	-0.0019
843.3387	-0.083
843.5042	0.0195
843.6696	-0.0103
843.835	0.0091
844.0004	0.0233
844.1657	-0.0056
844.3311	-0.052
844.4964	-0.0894
844.6617	-0.04
844.827	-0.0353
844.9923	-0.0197
845.1575	0.0261
845.3227	0.039
845.4879	0.0247
845.6531	0.0004
845.8183	-0.0314
845.9834	-0.0131
846.1485	-0.0392
846.3136	-0.06
846.4787	-0.0382
846.6438	0.0101
846.8088	0.0247
846.9738	-0.0766
847.1388	0.0593
847.3038	-0.0769
847.4687	-0.109
847.6337	0.0083
847.7986	-0.0254
847.9635	0.0278
848.1284	0.0684
848.2932	0.0952
848.458	-0.0028
848.6228	0.0336
848.7876	0.0236
848.9524	-0.0795
849.1172	-0.0704
849.2819	0.0264
849.4466	-0.0558
849.6113	-0.091
849.7759	0.0108
849.9406	0.0199
850.1052	0.0435
850.2698	-0.041
850.4344	0.0312
850.599	-0.0555
850.7635	0.1156
850.928	-0.0579
851.0925	0.0473
851.257	0.0866
851.4215	0.0637
851.5859	-0.0351
851.7503	0.0177
851.9147	0.0139
852.0791	-0.0757
852.2434	-0.0216
852.4078	0.0967
852.5721	0.0519
852.7364	-0.0193
852.9007	-0.1304
853.0649	-0.0912
853.2291	-0.0187
853.3934	0.1048
853.5575	0.1574
853.7217	-0.0413
853.8859	-0.0416
854.05	0.0143
854.2141	-0.109
854.3782	-0.0721
854.5423	-0.0483
854.7063	0.0121
854.8703	-0.0681
855.0343	0.0918
855.1983	-0.1405
855.3623	0.0664
855.5262	0.0009
855.6901	-0.0648
855.854	-0.0463
856.0179	0.003
856.1818	0.0439
856.3456	-0.059
856.5094	-0.0911
856.6732	-0.1378
856.837	-0.0439
857.0008	0.068
857.1645	0.0492
857.3282	-0.1178
857.4919	0.4923
857.6556	-0.0068
857.8192	0.0318
857.9828	0.0751
858.1465	0.1174
858.31	-0.2162
858.4736	-0.008
858.6372	-0.2756
858.8007	-0.2315
858.9642	0.0499
859.1277	-0.2047
859.2911	0.0352
859.4546	0.1148
859.618	-0.2609
859.7814	-0.0731
859.9448	-0.0705
860.1081	0.2001
860.2715	0.1183
860.4348	-0.1314
860.5981	0.0464
860.7614	0.1712
860.9246	-0.2088
861.0879	-0.1204
861.2511	0.0748
861.4143	-0.1767
861.5774	0.3135
861.7406	-0.2128
861.9037	0.1199
862.0668	-0.149
862.2299	-0.1643
862.393	-0.6473
862.556	-0.0226
862.7191	-0.1609
862.8821	0.0981
863.0451	0.0362
863.208	-0.0821
863.371	-0.0726
863.5339	-0.2234
863.6968	0.0066
863.8597	-0.1412
864.0225	-0.1306
864.1854	0.1534
864.3482	-0.0632
864.511	0.2495
864.6737	0.1145
864.8365	-0.1036
864.9992	-0.24
865.1619	-0.3196
865.3246	-0.0748
865.4873	0.1541
865.65	-0.0666
865.8126	0.0026
865.9752	0.293
866.1378	0.042
866.3004	0.6591
866.4629	0.221
866.6254	-0.3367
866.7879	0.6201
866.9504	-0.0402
867.1129	-0
867.2753	0.8009
867.4377	0.2989
867.6001	-0.5383
867.7625	-0.0505
867.9249	-0
868.0872	-0.1908
868.2495	-0.0215
868.4118	-0.2208
868.5741	-0.3435
868.7363	-0.0098
868.8986	-0.3923
869.0608	-0.2949
869.223	0.1089
869.3851	-0.2088
869.5473	-0
869.7094	0.1807
869.8715	-0.141
870.0336	-1.0126
870.1957	-0.8369
870.3577	-0.2374
870.5197	-0.3363
870.6817	-0.1634
870.8437	-0.2422
871.0057	-0
871.1676	-0.6634
871.3295	-0.591
871.4914	-0
871.6533	0.0608
871.8151	-0.0175
871.977	-0
872.1388	-0
872.3006	0.1461
872.4623	-0.0351
872.6241	0.167
872.7858	0.2325
872.9475	-0.1768
873.1092	-0.2374
873.2709	0.699
873.4325	-0.1849
873.5941	-0.6133
873.7557	-0
873.9173	-0
874.0789	-0.6582
874.2404	-0
874.4019	0.1646
874.5634	0.0173
874.7249	-0.081
874.8863	-0
875.0478	-0
875.2092	-0
875.3706	0.4739
875.5319	-0.6055
875.6933	0.4465
875.8546	0.1113
876.0159	-0
876.1772	0.4527
876.3385	-0
876.4997	0.9583
876.6609	-0.5517
876.8221	0.0276
876.9833	0.1894
877.1445	-0.2013
877.3056	0.2533
877.4667	-0.5565
877.6278	-0
877.7889	-0.888
877.9499	-0
878.111	-0
878.272	-0
878.433	-0
878.5939	0.0095
878.7549	-0.1478
878.9158	-0.1807
879.0767	1.1389
879.2376	0.3766
879.3984	-0.1907
879.5593	-0
879.7201	0.1296
879.8809	-0.6246
880.0417	-0
880.2024	0.5114
880.3632	-0
880.5239	0.2856
880.6846	-0
880.8452	-2.281
881.0059	-1.3385
881.1665	0.3457
881.3271	-0.2426
881.4877	-0.911
881.6483	-0.6274
881.8088	-0.4928
881.9693	-0
882.1298	-0
882.2903	-0
