Data from MonoPyChalIsomerACN10uM360nmA_Absorbance_13-57-28-804.txt Node
Date: Fri Jul 05 13:57:28 BST 2024
User: LASERRRRR
Spectrometer: FLMT03099
Trigger mode: 0
Integration Time (sec): 1.000000E-1
Scans to average: 1
Electric dark correction enabled: true
Nonlinearity correction enabled: false
Boxcar width: 0
XAxis mode: Wavelengths
Number of Pixels in Spectrum: 3648
>>>>>Begin Spectral Data<<<<<
179.3399	0.4232
179.5586	0.4232
179.7771	0.4232
179.9957	-0
180.2143	1.2333
180.4329	-0.2146
180.6514	-0
180.8699	-0
181.0885	0.1372
181.307	-0.0713
181.5255	-0.7607
181.744	-0
181.9625	-0
182.181	-0.6303
182.3994	0.2404
182.6179	-0
182.8363	-0.2322
183.0547	-0.1711
183.2732	-0.1369
183.4916	0.1392
183.71	0.0449
183.9284	0.2996
184.1467	-0.1014
184.3651	-0.0456
184.5835	-0.0934
184.8018	0.2663
185.0201	0.1631
185.2385	-0.1976
185.4568	0.2145
185.6751	0.24
185.8934	0.1537
186.1117	0.0072
186.3299	-0.1286
186.5482	0.2004
186.7664	-0.1238
186.9847	-0.0049
187.2029	0.119
187.4211	0.0159
187.6393	0.1347
187.8575	-0.0508
188.0757	0.2459
188.2939	0.082
188.512	0.349
188.7302	-0.1265
188.9483	0.0465
189.1665	0.0727
189.3846	-0.2743
189.6027	0.0871
189.8208	0.1576
190.0389	0.0656
190.257	0.0706
190.475	-0.0035
190.6931	1.2673
190.9111	0.5406
191.1292	0.04
191.3472	0.3247
191.5652	0.1738
191.7832	0.0906
192.0012	0.4067
192.2192	0.4094
192.4371	0.6024
192.6551	0.1757
192.873	0.4867
193.091	0.4103
193.3089	0.3875
193.5268	0.2939
193.7447	0.5863
193.9626	0.4582
194.1805	0.5651
194.3984	1.0552
194.6162	0.5143
194.8341	0.7407
195.0519	0.4321
195.2697	0.7171
195.4875	0.5444
195.7054	0.5706
195.9231	0.5263
196.1409	0.7156
196.3587	0.6342
196.5765	0.616
196.7942	0.5414
197.012	0.4693
197.2297	0.5468
197.4474	0.721
197.6651	0.6022
197.8828	0.4875
198.1005	0.5657
198.3182	0.584
198.5358	0.7164
198.7535	0.7238
198.9711	0.5688
199.1888	0.5865
199.4064	0.6117
199.624	0.5634
199.8416	0.676
200.0592	0.6015
200.2767	0.5894
200.4943	0.7107
200.7119	0.7301
200.9294	0.5698
201.1469	0.5924
201.3645	0.5758
201.582	0.5225
201.7995	0.6371
202.017	0.543
202.2344	0.63
202.4519	0.6989
202.6694	0.6333
202.8868	0.6345
203.1042	0.5884
203.3217	0.6855
203.5391	0.5606
203.7565	0.572
203.9739	0.6056
204.1913	0.6237
204.4086	0.6407
204.626	0.6406
204.8433	0.712
205.0607	0.6763
205.278	0.6406
205.4953	0.6293
205.7126	0.6451
205.9299	0.6258
206.1472	0.7307
206.3644	0.6021
206.5817	0.623
206.7989	0.6682
207.0162	0.6442
207.2334	0.7342
207.4506	0.6192
207.6678	0.6577
207.885	0.6585
208.1022	0.6198
208.3194	0.7199
208.5365	0.7088
208.7537	0.626
208.9708	0.6056
209.1879	0.6744
209.405	0.6856
209.6222	0.66
209.8392	0.6705
210.0563	0.5763
210.2734	0.6263
210.4905	0.6124
210.7075	0.6049
210.9245	0.5783
211.1416	0.6228
211.3586	0.5967
211.5756	0.6242
211.7926	0.5599
212.0096	0.5805
212.2265	0.5378
212.4435	0.559
212.6604	0.5691
212.8774	0.5838
213.0943	0.6373
213.3112	0.5576
213.5281	0.4862
213.745	0.46
213.9619	0.5121
214.1788	0.5133
214.3956	0.5026
214.6125	0.4661
214.8293	0.4236
215.0461	0.4498
215.2629	0.3986
215.4798	0.4556
215.6965	0.4262
215.9133	0.4434
216.1301	0.4095
216.3469	0.4313
216.5636	0.4522
216.7803	0.4183
216.9971	0.3893
217.2138	0.3862
217.4305	0.3739
217.6472	0.3321
217.8639	0.396
218.0805	0.3389
218.2972	0.3275
218.5138	0.3373
218.7305	0.3366
218.9471	0.2868
219.1637	0.2953
219.3803	0.2705
219.5969	0.2948
219.8135	0.245
220.0301	0.2774
220.2466	0.2826
220.4632	0.2535
220.6797	0.2496
220.8962	0.2467
221.1127	0.2523
221.3292	0.2585
221.5457	0.2231
221.7622	0.234
221.9787	0.2855
222.1951	0.2517
222.4116	0.259
222.628	0.2508
222.8444	0.2743
223.0608	0.2701
223.2772	0.2681
223.4936	0.2576
223.71	0.2462
223.9264	0.2715
224.1427	0.246
224.3591	0.2597
224.5754	0.269
224.7917	0.2863
225.008	0.2747
225.2243	0.2609
225.4406	0.2891
225.6569	0.284
225.8732	0.2652
226.0894	0.2709
226.3057	0.2668
226.5219	0.295
226.7381	0.2748
226.9543	0.282
227.1705	0.3074
227.3867	0.269
227.6029	0.2947
227.8191	0.3062
228.0352	0.2912
228.2513	0.3119
228.4675	0.3246
228.6836	0.2922
228.8997	0.3027
229.1158	0.3092
229.3319	0.3286
229.548	0.3263
229.764	0.3382
229.9801	0.333
230.1961	0.3152
230.4121	0.3346
230.6282	0.3287
230.8442	0.3232
231.0602	0.3373
231.2761	0.3536
231.4921	0.3331
231.7081	0.3434
231.924	0.3629
232.14	0.373
232.3559	0.3502
232.5718	0.3624
232.7877	0.3608
233.0036	0.3552
233.2195	0.3523
233.4353	0.3517
233.6512	0.3645
233.867	0.3661
234.0829	0.3548
234.2987	0.37
234.5145	0.3905
234.7303	0.3788
234.9461	0.3997
235.1619	0.3657
235.3776	0.3801
235.5934	0.3813
235.8091	0.3676
236.0249	0.3854
236.2406	0.3847
236.4563	0.3886
236.672	0.3968
236.8877	0.4033
237.1034	0.4025
237.319	0.3912
237.5347	0.411
237.7503	0.3876
237.966	0.4122
238.1816	0.3996
238.3972	0.4006
238.6128	0.4031
238.8284	0.4118
239.0439	0.4215
239.2595	0.4004
239.475	0.4084
239.6906	0.4201
239.9061	0.3863
240.1216	0.4028
240.3371	0.4113
240.5526	0.3886
240.7681	0.4147
240.9836	0.3913
241.199	0.3837
241.4145	0.3987
241.6299	0.386
241.8453	0.3869
242.0607	0.3725
242.2761	0.3466
242.4915	0.3819
242.7069	0.362
242.9223	0.3516
243.1376	0.3507
243.353	0.3462
243.5683	0.3329
243.7836	0.3159
243.9989	0.3417
244.2142	0.3109
244.4295	0.3181
244.6448	0.327
244.86	0.2941
245.0753	0.2857
245.2905	0.2862
245.5057	0.2673
245.721	0.2864
245.9362	0.2542
246.1514	0.2724
246.3665	0.271
246.5817	0.2512
246.7969	0.244
247.012	0.2547
247.2271	0.2298
247.4423	0.2424
247.6574	0.2462
247.8725	0.242
248.0876	0.2319
248.3026	0.2313
248.5177	0.2196
248.7328	0.2257
248.9478	0.2094
249.1628	0.2136
249.3779	0.2185
249.5929	0.2038
249.8079	0.2209
250.0228	0.2002
250.2378	0.2074
250.4528	0.2096
250.6677	0.1889
250.8827	0.2064
251.0976	0.1987
251.3125	0.194
251.5274	0.1918
251.7423	0.1746
251.9572	0.1877
252.172	0.1856
252.3869	0.1716
252.6017	0.1732
252.8166	0.1682
253.0314	0.1664
253.2462	0.1581
253.461	0.1724
253.6758	0.1614
253.8906	0.1808
254.1053	0.1621
254.3201	0.1641
254.5348	0.1752
254.7496	0.169
254.9643	0.1631
255.179	0.162
255.3937	0.1538
255.6083	0.1582
255.823	0.1701
256.0377	0.1702
256.2523	0.1724
256.467	0.1448
256.6816	0.1818
256.8962	0.1638
257.1108	0.1583
257.3254	0.1772
257.54	0.1638
257.7545	0.1717
257.9691	0.167
258.1836	0.1692
258.3981	0.1718
258.6127	0.1709
258.8272	0.1823
259.0417	0.1597
259.2561	0.1624
259.4706	0.1614
259.6851	0.1672
259.8995	0.1767
260.114	0.1559
260.3284	0.1682
260.5428	0.1491
260.7572	0.1658
260.9716	0.1711
261.186	0.1733
261.4003	0.1697
261.6147	0.1758
261.829	0.1718
262.0433	0.1589
262.2577	0.1599
262.472	0.1694
262.6863	0.1638
262.9005	0.1639
263.1148	0.1593
263.3291	0.1506
263.5433	0.163
263.7576	0.1841
263.9718	0.1627
264.186	0.1668
264.4002	0.1657
264.6144	0.1562
264.8286	0.1682
265.0427	0.1653
265.2569	0.1618
265.471	0.168
265.6851	0.1598
265.8993	0.1505
266.1134	0.1529
266.3275	0.1564
266.5415	0.1454
266.7556	0.1778
266.9697	0.1573
267.1837	0.1558
267.3978	0.1734
267.6118	0.1647
267.8258	0.1669
268.0398	0.1551
268.2538	0.1664
268.4677	0.1687
268.6817	0.1632
268.8957	0.1631
269.1096	0.1738
269.3235	0.1543
269.5374	0.1572
269.7514	0.1601
269.9652	0.1532
270.1791	0.1551
270.393	0.1498
270.6068	0.1698
270.8207	0.1478
271.0345	0.1439
271.2483	0.1619
271.4622	0.1397
271.676	0.1474
271.8897	0.1461
272.1035	0.1541
272.3173	0.1451
272.531	0.1481
272.7448	0.1438
272.9585	0.1403
273.1722	0.1486
273.3859	0.1496
273.5996	0.1384
273.8133	0.1451
274.0269	0.1495
274.2406	0.1373
274.4542	0.1432
274.6679	0.1336
274.8815	0.1406
275.0951	0.1585
275.3087	0.1599
275.5223	0.1523
275.7358	0.1423
275.9494	0.1531
276.1629	0.1397
276.3765	0.14
276.59	0.1467
276.8035	0.1545
277.017	0.1389
277.2305	0.1538
277.444	0.1512
277.6574	0.1445
277.8709	0.1506
278.0843	0.1464
278.2978	0.1471
278.5112	0.1424
278.7246	0.1495
278.938	0.1521
279.1513	0.1503
279.3647	0.1634
279.5781	0.1418
279.7914	0.1579
280.0047	0.1573
280.2181	0.148
280.4314	0.1618
280.6447	0.1629
280.8579	0.1482
281.0712	0.1625
281.2845	0.165
281.4977	0.1571
281.711	0.1474
281.9242	0.1615
282.1374	0.1604
282.3506	0.1467
282.5638	0.1554
282.7769	0.1527
282.9901	0.1477
283.2033	0.164
283.4164	0.1713
283.6295	0.143
283.8426	0.156
284.0557	0.165
284.2688	0.1633
284.4819	0.1526
284.695	0.158
284.908	0.172
285.1211	0.1543
285.3341	0.1578
285.5471	0.1682
285.7601	0.1556
285.9731	0.1574
286.1861	0.1525
286.3991	0.1596
286.612	0.1715
286.825	0.1458
287.0379	0.1666
287.2508	0.1577
287.4637	0.1641
287.6766	0.1584
287.8895	0.1625
288.1024	0.1651
288.3152	0.1681
288.5281	0.1466
288.7409	0.1638
288.9538	0.168
289.1666	0.1616
289.3794	0.158
289.5922	0.1603
289.8049	0.1664
290.0177	0.1681
290.2304	0.167
290.4432	0.1607
290.6559	0.1603
290.8686	0.1754
291.0813	0.1657
291.294	0.1637
291.5067	0.1767
291.7194	0.166
291.932	0.1785
292.1447	0.1661
292.3573	0.1518
292.5699	0.1679
292.7825	0.1625
292.9951	0.1653
293.2077	0.1658
293.4203	0.1577
293.6328	0.1581
293.8454	0.1771
294.0579	0.1733
294.2704	0.167
294.4829	0.1646
294.6954	0.1684
294.9079	0.1639
295.1204	0.1683
295.3328	0.1607
295.5453	0.1624
295.7577	0.1605
295.9701	0.16
296.1825	0.1674
296.3949	0.164
296.6073	0.1571
296.8197	0.1599
297.0321	0.1876
297.2444	0.1536
297.4567	0.1683
297.6691	0.1659
297.8814	0.1463
298.0937	0.1628
298.306	0.1666
298.5182	0.1534
298.7305	0.1726
298.9428	0.1538
299.155	0.1622
299.3672	0.1577
299.5794	0.1706
299.7916	0.1501
300.0038	0.1735
300.216	0.1608
300.4282	0.1627
300.6403	0.1585
300.8525	0.1615
301.0646	0.1446
301.2767	0.169
301.4888	0.162
301.7009	0.1626
301.913	0.1578
302.125	0.1673
302.3371	0.1476
302.5491	0.1553
302.7612	0.1754
302.9732	0.1622
303.1852	0.1607
303.3972	0.163
303.6092	0.1635
303.8211	0.1538
304.0331	0.1598
304.245	0.1489
304.457	0.1523
304.6689	0.1558
304.8808	0.1679
305.0927	0.1574
305.3046	0.1468
305.5164	0.1526
305.7283	0.1482
305.9401	0.144
306.152	0.1471
306.3638	0.1551
306.5756	0.1475
306.7874	0.147
306.9992	0.1493
307.2109	0.1512
307.4227	0.1304
307.6344	0.1417
307.8462	0.1381
308.0579	0.1394
308.2696	0.1314
308.4813	0.134
308.693	0.1409
308.9046	0.1259
309.1163	0.1217
309.328	0.1263
309.5396	0.1211
309.7512	0.1245
309.9628	0.1157
310.1744	0.1164
310.386	0.1128
310.5976	0.1244
310.8091	0.1217
311.0207	0.1202
311.2322	0.1174
311.4437	0.1058
311.6552	0.1105
311.8667	0.1167
312.0782	0.1039
312.2897	0.0983
312.5012	0.114
312.7126	0.1062
312.924	0.0994
313.1355	0.116
313.3469	0.11
313.5583	0.1116
313.7696	0.1054
313.981	0.1072
314.1924	0.1007
314.4037	0.1035
314.6151	0.1077
314.8264	0.0919
315.0377	0.101
315.249	0.1083
315.4603	0.1105
315.6716	0.099
315.8828	0.0996
316.0941	0.1023
316.3053	0.1003
316.5165	0.0915
316.7277	0.0838
316.9389	0.1031
317.1501	0.0902
317.3613	0.1011
317.5724	0.0925
317.7836	0.1051
317.9947	0.1013
318.2058	0.0906
318.417	0.0949
318.6281	0.0919
318.8391	0.1022
319.0502	0.0971
319.2613	0.1022
319.4723	0.112
319.6834	0.1057
319.8944	0.0926
320.1054	0.1055
320.3164	0.1001
320.5274	0.0918
320.7383	0.0878
320.9493	0.0929
321.1602	0.1059
321.3712	0.0823
321.5821	0.1012
321.793	0.0968
322.0039	0.1005
322.2148	0.1036
322.4257	0.0926
322.6365	0.1058
322.8474	0.1043
323.0582	0.0973
323.269	0.1064
323.4798	0.1134
323.6906	0.1018
323.9014	0.0991
324.1122	0.1028
324.3229	0.0958
324.5337	0.0944
324.7444	0.1017
324.9551	0.1153
325.1658	0.1078
325.3765	0.1103
325.5872	0.1009
325.7979	0.0976
326.0085	0.0999
326.2192	0.1092
326.4298	0.106
326.6404	0.0948
326.851	0.1039
327.0616	0.1012
327.2722	0.1083
327.4828	0.1194
327.6933	0.1015
327.9039	0.1149
328.1144	0.1068
328.3249	0.107
328.5354	0.0954
328.7459	0.0974
328.9564	0.1042
329.1669	0.1125
329.3773	0.1014
329.5878	0.1076
329.7982	0.1052
330.0086	0.1008
330.219	0.1054
330.4294	0.0996
330.6398	0.1069
330.8502	0.1001
331.0605	0.1088
331.2708	0.1005
331.4812	0.1054
331.6915	0.1107
331.9018	0.1057
332.1121	0.1099
332.3224	0.1157
332.5326	0.1109
332.7429	0.1093
332.9531	0.1196
333.1633	0.1102
333.3735	0.102
333.5837	0.1033
333.7939	0.1117
334.0041	0.1188
334.2143	0.1133
334.4244	0.1175
334.6346	0.0817
334.8447	0.1102
335.0548	0.105
335.2649	0.1027
335.475	0.116
335.685	0.0989
335.8951	0.1139
336.1051	0.1096
336.3152	0.1114
336.5252	0.097
336.7352	0.1144
336.9452	0.1169
337.1552	0.1166
337.3652	0.1065
337.5751	0.1118
337.7851	0.1206
337.995	0.0909
338.2049	0.1189
338.4148	0.1102
338.6247	0.11
338.8346	0.1085
339.0445	0.1127
339.2543	0.0986
339.4642	0.11
339.674	0.1059
339.8838	0.1177
340.0936	0.1209
340.3034	0.1361
340.5132	0.113
340.7229	0.1066
340.9327	0.1204
341.1424	0.109
341.3522	0.1317
341.5619	0.118
341.7716	0.1171
341.9813	0.1182
342.1909	0.1022
342.4006	0.1296
342.6102	0.1311
342.8199	0.1283
343.0295	0.1246
343.2391	0.1303
343.4487	0.1338
343.6583	0.1116
343.8679	0.1218
344.0774	0.1148
344.287	0.1245
344.4965	0.1227
344.706	0.1279
344.9155	0.1154
345.125	0.1121
345.3345	0.1356
345.544	0.12
345.7534	0.1327
345.9629	0.1222
346.1723	0.129
346.3817	0.1217
346.5911	0.1232
346.8005	0.1393
347.0099	0.1291
347.2193	0.1275
347.4286	0.1387
347.638	0.1252
347.8473	0.1331
348.0566	0.1438
348.2659	0.1326
348.4752	0.1423
348.6845	0.1434
348.8937	0.1393
349.103	0.1518
349.3122	0.1303
349.5214	0.1393
349.7306	0.1304
349.9398	0.1402
350.149	0.1334
350.3582	0.1298
350.5674	0.1519
350.7765	0.1432
350.9856	0.1471
351.1948	0.1513
351.4039	0.1282
351.613	0.133
351.822	0.1427
352.0311	0.1533
352.2402	0.1413
352.4492	0.1453
352.6582	0.1456
352.8672	0.1287
353.0762	0.1545
353.2852	0.1451
353.4942	0.134
353.7032	0.1477
353.9121	0.1409
354.1211	0.1512
354.33	0.136
354.5389	0.1502
354.7478	0.1449
354.9567	0.1433
355.1655	0.1549
355.3744	0.1516
355.5833	0.1501
355.7921	0.1753
356.0009	0.16
356.2097	0.1621
356.4185	0.1686
356.6273	0.1745
356.8361	0.1582
357.0448	0.1584
357.2536	0.1485
357.4623	0.1507
357.671	0.1599
357.8797	0.1623
358.0884	0.1626
358.2971	0.1559
358.5057	0.1662
358.7144	0.1685
358.923	0.1624
359.1316	0.1671
359.3402	0.1689
359.5488	0.1615
359.7574	0.1746
359.966	0.1638
360.1746	0.16
360.3831	0.173
360.5916	0.1751
360.8002	0.1679
361.0087	0.1795
361.2172	0.1742
361.4256	0.1675
361.6341	0.181
361.8426	0.1835
362.051	0.1809
362.2594	0.174
362.4678	0.1707
362.6762	0.1929
362.8846	0.1899
363.093	0.1866
363.3014	0.1754
363.5097	0.1617
363.718	0.1827
363.9264	0.1854
364.1347	0.1691
364.343	0.1893
364.5513	0.1946
364.7595	0.1853
364.9678	0.2048
365.176	0.2014
365.3842	0.1913
365.5925	0.1892
365.8007	0.202
366.0089	0.1953
366.217	0.1726
366.4252	0.2001
366.6333	0.2051
366.8415	0.1925
367.0496	0.2016
367.2577	0.2025
367.4658	0.1958
367.6739	0.2041
367.882	0.2042
368.09	0.1943
368.2981	0.1962
368.5061	0.1986
368.7141	0.207
368.9221	0.2252
369.1301	0.2073
369.3381	0.2151
369.5461	0.2157
369.754	0.2147
369.962	0.2187
370.1699	0.2032
370.3778	0.2188
370.5857	0.2074
370.7936	0.2129
371.0015	0.2092
371.2093	0.2086
371.4172	0.2132
371.625	0.2127
371.8328	0.2037
372.0406	0.2138
372.2484	0.212
372.4562	0.2165
372.664	0.2009
372.8717	0.231
373.0795	0.2011
373.2872	0.2223
373.4949	0.2192
373.7026	0.2267
373.9103	0.2325
374.118	0.21
374.3256	0.2362
374.5333	0.2077
374.7409	0.2205
374.9485	0.2432
375.1561	0.2315
375.3637	0.2231
375.5713	0.2326
375.7789	0.2166
375.9864	0.2293
376.194	0.222
376.4015	0.2268
376.609	0.2297
376.8165	0.2273
377.024	0.2317
377.2315	0.2216
377.4389	0.2368
377.6464	0.228
377.8538	0.2246
378.0612	0.2266
378.2686	0.2345
378.476	0.2578
378.6834	0.2465
378.8908	0.2381
379.0981	0.2328
379.3055	0.2404
379.5128	0.2427
379.7201	0.2552
379.9274	0.247
380.1347	0.2392
380.342	0.2663
380.5492	0.2378
380.7565	0.2355
380.9637	0.2498
381.1709	0.2459
381.3781	0.2417
381.5853	0.2592
381.7925	0.2476
381.9997	0.2564
382.2068	0.261
382.4139	0.2592
382.6211	0.2237
382.8282	0.2373
383.0353	0.242
383.2424	0.2472
383.4494	0.2749
383.6565	0.2564
383.8635	0.2319
384.0706	0.2526
384.2776	0.2515
384.4846	0.2441
384.6916	0.2702
384.8986	0.2342
385.1055	0.2616
385.3125	0.2453
385.5194	0.2517
385.7263	0.2682
385.9333	0.2518
386.1402	0.2419
386.347	0.2339
386.5539	0.2401
386.7608	0.2604
386.9676	0.2361
387.1744	0.2503
387.3813	0.2297
387.5881	0.2422
387.7948	0.2413
388.0016	0.2389
388.2084	0.2354
388.4151	0.2235
388.6219	0.2543
388.8286	0.2411
389.0353	0.2588
389.242	0.2512
389.4487	0.2583
389.6553	0.2347
389.862	0.2276
390.0686	0.2272
390.2753	0.2459
390.4819	0.2572
390.6885	0.2249
390.8951	0.2333
391.1016	0.2372
391.3082	0.2241
391.5147	0.2215
391.7213	0.2215
391.9278	0.2101
392.1343	0.2264
392.3408	0.2318
392.5473	0.2372
392.7537	0.2281
392.9602	0.2293
393.1666	0.2173
393.373	0.2204
393.5794	0.2243
393.7858	0.2232
393.9922	0.2167
394.1986	0.2324
394.4049	0.2152
394.6113	0.2173
394.8176	0.2049
395.0239	0.2149
395.2302	0.2183
395.4365	0.1995
395.6428	0.208
395.8491	0.2054
396.0553	0.214
396.2615	0.2162
396.4678	0.2147
396.674	0.1937
396.8802	0.2003
397.0863	0.2298
397.2925	0.2108
397.4987	0.2047
397.7048	0.2132
397.9109	0.1976
398.117	0.2044
398.3231	0.2058
398.5292	0.2115
398.7353	0.2077
398.9413	0.2042
399.1474	0.2015
399.3534	0.1999
399.5594	0.1905
399.7654	0.2235
399.9714	0.2119
400.1774	0.192
400.3833	0.192
400.5893	0.2031
400.7952	0.1986
401.0011	0.2086
401.207	0.2103
401.4129	0.2025
401.6188	0.2131
401.8247	0.2071
402.0305	0.1992
402.2364	0.1957
402.4422	0.2178
402.648	0.2091
402.8538	0.2258
403.0596	0.1993
403.2654	0.1959
403.4711	0.2038
403.6768	0.2121
403.8826	0.2031
404.0883	0.2085
404.294	0.2088
404.4997	0.1951
404.7054	0.2078
404.911	0.188
405.1167	0.209
405.3223	0.2177
405.5279	0.2105
405.7335	0.2097
405.9391	0.204
406.1447	0.1984
406.3502	0.2392
406.5558	0.2133
406.7613	0.2143
406.9668	0.2263
407.1724	0.1946
407.3778	0.2017
407.5833	0.2
407.7888	0.2033
407.9942	0.215
408.1997	0.1871
408.4051	0.1996
408.6105	0.1961
408.8159	0.2056
409.0213	0.1808
409.2267	0.2097
409.432	0.2035
409.6374	0.2059
409.8427	0.1903
410.048	0.2138
410.2533	0.204
410.4586	0.1987
410.6639	0.1861
410.8691	0.2057
411.0744	0.1911
411.2796	0.1938
411.4848	0.2004
411.69	0.1961
411.8952	0.2146
412.1004	0.1993
412.3056	0.196
412.5107	0.208
412.7158	0.1985
412.921	0.1987
413.1261	0.2135
413.3312	0.1816
413.5362	0.1895
413.7413	0.2054
413.9464	0.196
414.1514	0.1891
414.3564	0.2022
414.5614	0.1732
414.7664	0.1793
414.9714	0.2006
415.1764	0.2095
415.3813	0.2207
415.5863	0.1906
415.7912	0.1985
415.9961	0.2021
416.201	0.1931
416.4059	0.2071
416.6108	0.1779
416.8156	0.1972
417.0205	0.1732
417.2253	0.1775
417.4301	0.1894
417.6349	0.1897
417.8397	0.1891
418.0445	0.1954
418.2492	0.1858
418.454	0.1946
418.6587	0.1881
418.8634	0.1938
419.0681	0.1959
419.2728	0.1679
419.4775	0.195
419.6822	0.1727
419.8868	0.1711
420.0915	0.1949
420.2961	0.177
420.5007	0.1985
420.7053	0.1858
420.9099	0.1902
421.1144	0.192
421.319	0.171
421.5235	0.2012
421.728	0.1818
421.9325	0.1838
422.137	0.1925
422.3415	0.1953
422.546	0.1863
422.7504	0.1713
422.9549	0.1801
423.1593	0.1781
423.3637	0.1905
423.5681	0.1733
423.7725	0.1626
423.9769	0.164
424.1812	0.1621
424.3856	0.1711
424.5899	0.1778
424.7942	0.168
424.9985	0.1855
425.2028	0.1853
425.4071	0.1873
425.6113	0.1518
425.8156	0.1687
426.0198	0.1712
426.224	0.1475
426.4282	0.1746
426.6324	0.1562
426.8366	0.1525
427.0407	0.1521
427.2449	0.1683
427.449	0.1644
427.6531	0.1318
427.8572	0.154
428.0613	0.1555
428.2654	0.1645
428.4694	0.1352
428.6735	0.1606
428.8775	0.1628
429.0815	0.1563
429.2855	0.1439
429.4895	0.148
429.6935	0.153
429.8975	0.1489
430.1014	0.1407
430.3053	0.1354
430.5093	0.1408
430.7132	0.1409
430.9171	0.1274
431.1209	0.1279
431.3248	0.1436
431.5286	0.1376
431.7325	0.142
431.9363	0.114
432.1401	0.1397
432.3439	0.1105
432.5477	0.1079
432.7514	0.1009
432.9552	0.1312
433.1589	0.1099
433.3627	0.1026
433.5664	0.1193
433.7701	0.09
433.9737	0.1206
434.1774	0.1251
434.3811	0.1162
434.5847	0.1195
434.7883	0.1118
434.9919	0.0953
435.1955	0.1323
435.3991	0.1242
435.6027	0.1081
435.8062	0.0811
436.0098	0.0951
436.2133	0.1178
436.4168	0.1026
436.6203	0.1107
436.8238	0.1021
437.0272	0.0891
437.2307	0.1016
437.4341	0.1082
437.6375	0.108
437.841	0.0775
438.0443	0.1028
438.2477	0.0936
438.4511	0.082
438.6545	0.0861
438.8578	0.0935
439.0611	0.0831
439.2644	0.0869
439.4677	0.0763
439.671	0.072
439.8743	0.0785
440.0775	0.0884
440.2808	0.0688
440.484	0.0536
440.6872	0.0538
440.8904	0.063
441.0936	0.0886
441.2967	0.0723
441.4999	0.0731
441.703	0.074
441.9062	0.0593
442.1093	0.0662
442.3124	0.0764
442.5155	0.0545
442.7185	0.0524
442.9216	0.0286
443.1246	0.0807
443.3276	0.0479
443.5307	0.0545
443.7337	0.056
443.9366	0.0561
444.1396	0.0621
444.3426	0.0464
444.5455	0.0619
444.7484	0.049
444.9513	0.047
445.1542	0.0489
445.3571	0.0489
445.56	0.0625
445.7628	0.0444
445.9657	0.0331
446.1685	0.0552
446.3713	0.0462
446.5741	0.0429
446.7769	0.0324
446.9797	0.0451
447.1824	0.0491
447.3852	0.0256
447.5879	0.0427
447.7906	0.0316
447.9933	0.0389
448.196	0.0268
448.3986	0.0261
448.6013	0.0285
448.8039	0.0111
449.0066	0.0458
449.2092	0.0577
449.4118	0.0358
449.6143	0.0308
449.8169	0.0273
450.0195	0.0177
450.222	0.018
450.4245	0.0257
450.627	0.0299
450.8295	0.015
451.032	0.0181
451.2345	0.0263
451.4369	0.0364
451.6394	0.0349
451.8418	0.0079
452.0442	0.0189
452.2466	0.038
452.449	0.0143
452.6513	0.0253
452.8537	0.0204
453.056	0.0106
453.2583	0.0281
453.4607	0.007
453.663	0.0255
453.8652	0.0163
454.0675	-0.0012
454.2697	0.0172
454.472	-0.007
454.6742	0.0236
454.8764	-0.0039
455.0786	0.0043
455.2808	0.0061
455.4829	0.0199
455.6851	0.0112
455.8872	0.0098
456.0893	0.0131
456.2915	0.0042
456.4935	0.0142
456.6956	0.0073
456.8977	0.0053
457.0997	0.0074
457.3018	0.0096
457.5038	0.0172
457.7058	0.0053
457.9078	-0.005
458.1098	0.0141
458.3117	0.0079
458.5137	0.0031
458.7156	0.0092
458.9175	-0.0031
459.1194	-0.0039
459.3213	-0.0005
459.5232	0.0013
459.725	-0.0067
459.9269	-0.0065
460.1287	-0.006
460.3305	0.0062
460.5323	0.0058
460.7341	0.0142
460.9359	-0.0075
461.1376	0.0077
461.3394	0.0033
461.5411	0.0029
461.7428	-0.0011
461.9445	0.0079
462.1462	0.0109
462.3479	-0.0027
462.5495	0.0276
462.7512	0.0119
462.9528	0.0058
463.1544	-0.0168
463.356	0.0007
463.5576	0.012
463.7592	0.0023
463.9607	0.0035
464.1623	0.0171
464.3638	0.0202
464.5653	-0.0074
464.7668	-0.0035
464.9683	0.0042
465.1697	0.0123
465.3712	0.0036
465.5726	-0.0152
465.7741	-0.0012
465.9755	0.0015
466.1769	0.0001
466.3782	-0.0003
466.5796	-0.0053
466.7809	0.0062
466.9823	0.0077
467.1836	0.0035
467.3849	-0.0093
467.5862	-0.0046
467.7875	-0.0041
467.9887	0.0156
468.19	-0.0008
468.3912	-0.0197
468.5924	0.0047
468.7936	-0.0099
468.9948	-0.0039
469.196	0.0137
469.3972	-0.0163
469.5983	0.0181
469.7994	-0.0101
470.0006	0.0116
470.2017	-0.0075
470.4027	0.0017
470.6038	-0.0033
470.8049	-0.0131
471.0059	-0.018
471.2069	-0.0287
471.408	0.0018
471.6089	-0.01
471.8099	-0.0013
472.0109	0.0023
472.2119	-0.0043
472.4128	-0.012
472.6137	0.0072
472.8146	-0.0222
473.0155	-0.005
473.2164	-0.0177
473.4173	0.0021
473.6181	0.0078
473.819	0.0026
474.0198	-0.007
474.2206	-0.0002
474.4214	-0.0095
474.6222	-0.0042
474.8229	-0.003
475.0237	-0.0118
475.2244	-0.0051
475.4251	-0.0015
475.6258	0.0048
475.8265	-0.002
476.0272	0.0012
476.2278	0.0012
476.4285	-0.0011
476.6291	-0.0057
476.8297	-0.0085
477.0303	-0.0141
477.2309	-0.0005
477.4315	-0.0099
477.632	0.0048
477.8326	0.008
478.0331	0.0018
478.2336	0.0064
478.4341	-0.0056
478.6346	-0.0068
478.8351	-0.0025
479.0355	0.0002
479.236	-0.0013
479.4364	0.0031
479.6368	0.0067
479.8372	-0.0017
480.0376	-0.0023
480.2379	-0.0112
480.4383	-0.0173
480.6386	0.0053
480.8389	-0.0043
481.0392	-0.0127
481.2395	-0.0097
481.4398	0.011
481.6401	-0.0014
481.8403	-0.0002
482.0405	-0.0029
482.2408	-0.0079
482.441	-0.002
482.6411	-0.0027
482.8413	-0.0031
483.0415	-0.0128
483.2416	-0.0105
483.4417	0.0035
483.6419	-0.0126
483.8419	-0.0113
484.042	0.0115
484.2421	0.0153
484.4422	0.0036
484.6422	-0.0043
484.8422	-0.0045
485.0422	-0.0076
485.2422	0.007
485.4422	-0.0153
485.6422	-0.0103
485.8421	-0.0076
486.042	-0.0011
486.242	-0.012
486.4419	-0.0083
486.6417	-0.0014
486.8416	-0.0014
487.0415	-0
487.2413	-0.0045
487.4411	0.0043
487.641	-0.0151
487.8408	-0.0039
488.0405	-0.0066
488.2403	-0.0115
488.4401	0.0054
488.6398	0.0018
488.8395	-0.0109
489.0392	-0.0067
489.2389	0.0027
489.4386	0.0017
489.6383	-0.0036
489.8379	0.0077
490.0376	-0.0084
490.2372	-0.0123
490.4368	-0.0038
490.6364	-0.0019
490.836	0.0001
491.0355	-0.0053
491.2351	-0.0138
491.4346	-0.0095
491.6341	-0.0141
491.8336	0.0004
492.0331	-0.0113
492.2326	-0.0134
492.432	-0.0115
492.6315	-0.0111
492.8309	-0.0177
493.0303	-0.0156
493.2297	-0.0078
493.4291	0.0022
493.6284	-0.0073
493.8278	0.0003
494.0271	-0.0059
494.2264	0.0007
494.4257	-0.0096
494.625	-0.0005
494.8243	-0.0163
495.0236	-0.0096
495.2228	-0.0101
495.422	-0.0023
495.6213	-0.0033
495.8205	0.0003
496.0196	-0.0031
496.2188	0.0042
496.418	-0.007
496.6171	0.0032
496.8162	-0.0064
497.0153	0.0022
497.2144	-0.0043
497.4135	-0.0017
497.6126	-0.0121
497.8116	-0.0113
498.0107	-0.0065
498.2097	-0.0162
498.4087	-0.0121
498.6077	0.0049
498.8067	-0.0155
499.0056	-0.0026
499.2046	-0.0032
499.4035	-0.019
499.6024	-0.0048
499.8013	-0.0094
500.0002	-0.0041
500.199	-0.0068
500.3979	-0.0088
500.5967	-0.0186
500.7956	0.0009
500.9944	-0.0036
501.1932	-0.0113
501.3919	-0.009
501.5907	-0.012
501.7895	-0.0095
501.9882	-0.0083
502.1869	-0.0102
502.3856	-0.0112
502.5843	-0.0053
502.783	-0.0106
502.9816	-0.006
503.1803	-0.0147
503.3789	-0.0023
503.5775	-0.004
503.7761	-0.0099
503.9747	-0.0002
504.1732	-0.0082
504.3718	-0.0055
504.5703	-0.0128
504.7689	-0.0116
504.9674	-0.0074
505.1658	-0.0187
505.3643	-0.01
505.5628	-0.0034
505.7612	-0.0115
505.9597	-0.0014
506.1581	-0.0073
506.3565	0.0033
506.5549	-0.0071
506.7532	-0.0219
506.9516	-0.0057
507.1499	-0.0023
507.3482	-0.0183
507.5465	-0.0095
507.7448	-0.0081
507.9431	-0.0098
508.1414	0.0014
508.3396	-0.0094
508.5379	-0.0066
508.7361	-0.0037
508.9343	-0.007
509.1325	-0.0022
509.3306	-0.0066
509.5288	-0.0044
509.7269	-0.0061
509.9251	0.0088
510.1232	-0.0112
510.3213	0.0009
510.5193	-0.0007
510.7174	-0.0161
510.9154	-0.0043
511.1135	-0.0024
511.3115	-0.0162
511.5095	-0.0038
511.7075	-0.0052
511.9055	-0.0096
512.1034	-0.0082
512.3014	0.002
512.4993	0.0049
512.6972	0.0018
512.8951	-0.0176
513.093	-0.0057
513.2908	-0.0007
513.4887	-0.0065
513.6865	-0.0063
513.8844	-0.0088
514.0822	-0.0062
514.2799	-0.0125
514.4777	-0.0128
514.6755	-0.0104
514.8732	-0.0134
515.0709	-0.0025
515.2687	-0.0086
515.4664	-0.0035
515.664	-0.0088
515.8617	-0.0135
516.0594	-0.02
516.257	-0.0005
516.4546	-0.0073
516.6522	-0.0025
516.8498	0.001
517.0474	0.0014
517.2449	-0.0059
517.4425	-0.0124
517.64	-0.0079
517.8375	0.0014
518.035	-0.0047
518.2325	-0.0049
518.43	-0.0069
518.6274	-0.0039
518.8249	-0.0183
519.0223	-0.0063
519.2197	-0.0073
519.4171	-0.0127
519.6145	-0.009
519.8118	0.0005
520.0092	-0.0099
520.2065	-0.0152
520.4038	-0.019
520.6011	0.0033
520.7984	-0.0108
520.9956	-0.0099
521.1929	-0.0069
521.3901	-0.0049
521.5874	0.0007
521.7846	0.0033
521.9818	-0.0154
522.1789	-0.0117
522.3761	-0.0033
522.5732	-0.011
522.7704	-0.0022
522.9675	0.0047
523.1646	-0.0089
523.3617	0.0013
523.5587	-0.0036
523.7558	-0.0028
523.9528	-0.0057
524.1498	-0.0096
524.3468	0.0033
524.5438	-0.0121
524.7408	0.0027
524.9378	-0.0046
525.1347	-0.0045
525.3316	0.0041
525.5285	-0.0068
525.7254	0.0004
525.9223	-0.0068
526.1192	-0.0023
526.316	-0.0184
526.5129	0.0041
526.7097	-0.0071
526.9065	-0.0055
527.1033	-0.0012
527.3	-0.0092
527.4968	-0.0207
527.6935	-0.0035
527.8903	-0.0121
528.087	-0.0075
528.2837	-0.0064
528.4804	-0.0023
528.677	-0.0101
528.8737	0.005
529.0703	-0.0025
529.2669	-0.0007
529.4635	-0.0133
529.6601	-0.0018
529.8567	-0.0027
530.0532	-0.0122
530.2498	0.0031
530.4463	0.0117
530.6428	-0.0063
530.8393	0.0041
531.0358	0.0012
531.2322	0.0006
531.4287	-0.0091
531.6251	-0.007
531.8215	0.0063
532.0179	0.0055
532.2143	-0.0029
532.4107	-0.0037
532.607	0.0012
532.8034	-0.0016
532.9997	-0.0037
533.196	0.005
533.3923	-0.0011
533.5886	-0.0072
533.7848	-0.0087
533.9811	-0.0082
534.1773	-0.0021
534.3735	0.0006
534.5697	-0.0083
534.7659	-0.0025
534.9621	-0.0059
535.1582	-0.0028
535.3544	-0.0046
535.5505	-0.0062
535.7466	0.0008
535.9427	-0.0118
536.1387	-0.011
536.3348	-0.0099
536.5308	0.0013
536.7269	-0.0156
536.9229	0.0041
537.1189	-0.0059
537.3148	-0.0026
537.5108	-0.0129
537.7068	-0.0084
537.9027	0.0059
538.0986	0.0008
538.2945	-0.0075
538.4904	-0.0076
538.6863	0.001
538.8821	-0.0068
539.078	-0.0086
539.2738	-0.009
539.4696	-0.008
539.6654	0.0046
539.8611	0.0105
540.0569	-0.0089
540.2526	-0.0117
540.4484	-0.0015
540.6441	0.0042
540.8398	-0.0012
541.0355	0.0019
541.2311	-0.0032
541.4268	-0.0148
541.6224	0.0055
541.818	-0.0097
542.0136	0.0012
542.2092	0.0002
542.4048	0.001
542.6003	-0.0017
542.7959	-0.0084
542.9914	-0.0082
543.1869	0.0034
543.3824	-0.0058
543.5779	-0.0026
543.7734	-0.0039
543.9688	-0.0084
544.1642	-0.0107
544.3596	0.0029
544.555	-0.0083
544.7504	0.0022
544.9458	-0.0108
545.1411	-0.0056
545.3365	0.0015
545.5318	-0.0125
545.7271	-0.0045
545.9224	-0.0006
546.1177	0.0039
546.3129	0.0049
546.5081	-0.0069
546.7034	-0.0032
546.8986	-0.0077
547.0938	-0.0055
547.289	-0.0031
547.4841	0.0036
547.6793	0.0026
547.8744	-0.0122
548.0695	0.0048
548.2646	-0.0063
548.4597	0.0096
548.6548	-0.0014
548.8498	-0.0118
549.0448	0.0043
549.2399	-0.0075
549.4349	0.007
549.6298	0.003
549.8248	0.0055
550.0198	-0.0081
550.2147	0.003
550.4096	-0.0096
550.6045	-0.0009
550.7994	0.0018
550.9943	-0.0011
551.1892	-0.0081
551.384	-0.001
551.5788	-0.0154
551.7737	-0.0059
551.9685	-0.007
552.1632	-0.004
552.358	-0.0069
552.5528	0.0044
552.7475	0.0012
552.9422	-0.0023
553.1369	-0.0036
553.3316	-0.0014
553.5263	-0.0127
553.7209	0.0097
553.9156	-0.0042
554.1102	-0.0073
554.3048	-0.0054
554.4994	0.0053
554.694	0.0039
554.8885	0.0013
555.0831	-0.0095
555.2776	-0.0079
555.4721	-0.0002
555.6666	-0.0021
555.8611	0.0084
556.0555	0.0074
556.25	-0.0044
556.4444	-0.0088
556.6388	-0.0031
556.8332	0.0071
557.0276	-0.0036
557.222	-0.0085
557.4163	0.0002
557.6107	-0.008
557.805	0.0105
557.9993	-0.0048
558.1936	-0.0058
558.3879	0.0014
558.5821	-0.0001
558.7764	0.0005
558.9706	0.0032
559.1648	-0.0028
559.359	-0.0044
559.5532	-0.01
559.7473	0.0049
559.9415	-0.0057
560.1356	-0.0074
560.3297	-0.0113
560.5238	-0.002
560.7179	-0.0078
560.9119	-0.0108
561.106	0.0035
561.3	-0.0101
561.494	0.0009
561.688	-0.0018
561.882	-0.0075
562.076	-0.0059
562.2699	0.0036
562.4639	-0.0018
562.6578	0.0002
562.8517	-0.0063
563.0456	-0.0039
563.2395	0.0001
563.4333	-0.0012
563.6272	0.0018
563.821	-0.0028
564.0148	-0.0039
564.2086	-0.0137
564.4024	-0.0034
564.5961	-0.0015
564.7899	0.0071
564.9836	-0.0009
565.1773	0.0072
565.371	0.007
565.5647	-0.0019
565.7584	-0.0009
565.952	0.0021
566.1456	0.0077
566.3393	-0.0008
566.5329	-0.0017
566.7264	-0.0026
566.92	0.001
567.1136	0.0015
567.3071	-0.0037
567.5006	-0.0005
567.6941	0.0032
567.8876	0.0011
568.0811	-0.0001
568.2745	0.0054
568.468	0.0071
568.6614	0.0076
568.8548	0.0052
569.0482	-0.0008
569.2416	0.001
569.4349	0.006
569.6283	0.0096
569.8216	0.0003
570.0149	-0.0053
570.2082	0.0122
570.4015	0.0069
570.5947	0.0097
570.788	0.0039
570.9812	0.0116
571.1744	0.0013
571.3676	-0.0028
571.5608	0.0016
571.754	0.0024
571.9471	-0.0047
572.1402	0.0042
572.3333	-0.0053
572.5264	0.0003
572.7195	0.0007
572.9126	0.007
573.1057	0.0032
573.2987	-0.0022
573.4917	0.0009
573.6847	-0.0106
573.8777	0.0056
574.0707	0.0105
574.2636	0.0024
574.4566	-0.0086
574.6495	0.0059
574.8424	-0.0003
575.0353	0.001
575.2281	0.0088
575.421	0.0007
575.6138	0.0048
575.8067	-0.0011
575.9995	0.0004
576.1923	0.0073
576.385	0.0028
576.5778	-0.0027
576.7706	-0.007
576.9633	-0.0046
577.156	0.0036
577.3487	-0.0049
577.5414	0.0051
577.734	-0.0025
577.9267	0.0072
578.1193	-0.0097
578.3119	-0.0012
578.5045	0.0032
578.6971	0.0042
578.8897	0.0125
579.0822	0.001
579.2747	0.0026
579.4673	-0.0024
579.6598	-0.0083
579.8522	-0.003
580.0447	-0.0039
580.2372	0.0002
580.4296	0.0103
580.622	0.0023
580.8144	0.0063
581.0068	-0.0006
581.1992	-0.0065
581.3915	-0.0041
581.5839	-0.0039
581.7762	-0.0009
581.9685	-0.0037
582.1608	0.0045
582.353	-0.0046
582.5453	0.0011
582.7375	0.0014
582.9298	-0.0023
583.122	0.0035
583.3142	0.0013
583.5063	0.0016
583.6985	-0.0054
583.8906	-0.0014
584.0827	0.0005
584.2749	0.0026
584.4669	0.0025
584.659	0.0025
584.8511	0.0011
585.0431	0.0009
585.2352	0.0029
585.4272	-0.0006
585.6192	0.0086
585.8111	0.0034
586.0031	0.0036
586.195	-0
586.387	0.0037
586.5789	0.0033
586.7708	0.0044
586.9627	0.0018
587.1545	-0.0035
587.3464	-0.0021
587.5382	0.0001
587.73	-0.0063
587.9218	0.0065
588.1136	0.0069
588.3053	0.0038
588.4971	-0.0006
588.6888	-0.0083
588.8805	0.0062
589.0722	0.0032
589.2639	0.0085
589.4556	-0.0009
589.6472	-0.003
589.8389	-0.0042
590.0305	-0.0073
590.2221	0.0081
590.4137	-0.0032
590.6052	0.0048
590.7968	0.003
590.9883	0.0035
591.1798	-0.0014
591.3713	0.0039
591.5628	0.0089
591.7543	0.0077
591.9458	0.0089
592.1372	0.0084
592.3286	0.008
592.52	0.0042
592.7114	-0.0015
592.9028	0.0058
593.0941	-0.002
593.2855	0.0019
593.4768	-0.0024
593.6681	-0.0039
593.8594	-0.001
594.0506	-0.0009
594.2419	0.0103
594.4331	0.0014
594.6244	0.0053
594.8156	-0.0025
595.0067	0.0071
595.1979	0.0048
595.3891	0.0042
595.5802	-0.0045
595.7713	-0.0052
595.9624	-0.009
596.1535	0.0056
596.3446	0.0007
596.5357	0.0018
596.7267	0.0058
596.9177	0.001
597.1087	-0.003
597.2997	0.0004
597.4907	-0.0019
597.6817	-0.0071
597.8726	-0.0017
598.0635	-0.0005
598.2544	0.0017
598.4453	0.0071
598.6362	-0.0053
598.827	0.0011
599.0179	0.0043
599.2087	0.0043
599.3995	-0.0059
599.5903	0.0007
599.7811	0.0006
599.9718	0.0038
600.1626	-0.0039
600.3533	-0.0022
600.544	0.0059
600.7347	-0.0026
600.9254	-0.0018
601.116	-0.007
601.3067	-0.0058
601.4973	0.003
601.6879	-0.0021
601.8785	0.0011
602.0691	0.0054
602.2596	0.0014
602.4502	0.0073
602.6407	-0.001
602.8312	0.0018
603.0217	-0.0036
603.2122	0.0005
603.4027	-0.0046
603.5931	-0.0018
603.7835	-0.0065
603.9739	-0.0063
604.1643	0.0019
604.3547	-0.0067
604.5451	0.0048
604.7354	-0.0052
604.9257	0.0066
605.116	0.002
605.3063	0.0092
605.4966	0.0099
605.6869	0.0024
605.8771	0.0074
606.0673	0.0037
606.2575	0.0089
606.4477	0.0113
606.6379	0.0044
606.8281	0.0012
607.0182	0.0022
607.2083	0.0088
607.3985	0.0027
607.5885	-0.003
607.7786	0.0016
607.9687	-0.0024
608.1587	0.0043
608.3488	0.0028
608.5388	-0.0046
608.7288	-0.0026
608.9187	-0.0017
609.1087	0.0042
609.2986	-0.0023
609.4886	0.0029
609.6785	0.0018
609.8684	0.0083
610.0582	0.0031
610.2481	0.0005
610.4379	0.0041
610.6278	0.0002
610.8176	0.0005
611.0074	-0.0016
611.1971	-0.0042
611.3869	0.003
611.5766	-0.0027
611.7664	0.0088
611.9561	0.0051
612.1458	0.0037
612.3354	-0.0018
612.5251	0.0011
612.7147	0.007
612.9044	0.0055
613.094	-0.0072
613.2836	0.0024
613.4731	0.0024
613.6627	-0.002
613.8522	0.0041
614.0417	0.0076
614.2313	-0.007
614.4207	-0.0018
614.6102	0.0044
614.7997	0.0021
614.9891	-0.0005
615.1785	0.0059
615.3679	-0.0031
615.5573	0.0038
615.7467	-0.0018
615.9361	0.0003
616.1254	0.0002
616.3147	0.0055
616.504	-0.0019
616.6933	0.0021
616.8826	0.0063
617.0718	0.0043
617.2611	0.0029
617.4503	-0.001
617.6395	0.0035
617.8287	0.0018
618.0179	-0.0025
618.207	0.0067
618.3961	0.0021
618.5853	-0.0004
618.7744	0.0118
618.9634	0.0062
619.1525	0.0039
619.3416	0.0039
619.5306	0.0084
619.7196	0.0053
619.9086	0.0094
620.0976	0.0113
620.2866	0.0034
620.4755	0.0051
620.6645	0.0113
620.8534	0.0071
621.0423	0.006
621.2312	0.0043
621.42	0.0104
621.6089	0.0051
621.7977	-0.0005
621.9865	-0.0047
622.1753	0.0056
622.3641	0.0034
622.5529	0.0128
622.7416	0.0082
622.9303	0.0017
623.1191	0.0088
623.3078	0.0034
623.4964	0.0084
623.6851	0.0056
623.8737	0.0044
624.0624	0.0122
624.251	0.0046
624.4396	-0.0014
624.6282	0.0002
624.8167	0.0031
625.0053	0.0037
625.1938	0.0077
625.3823	0.0054
625.5708	0.0039
625.7593	0.0005
625.9477	0.0009
626.1362	-0.0003
626.3246	0.0016
626.513	0.0073
626.7014	0.0115
626.8898	0.0081
627.0781	-0.0017
627.2665	-0.0014
627.4548	0.0093
627.6431	-0.0004
627.8314	0.0032
628.0197	0.0022
628.2079	-0.0058
628.3962	-0.0081
628.5844	0.0032
628.7726	0.0085
628.9608	0.0079
629.1489	-0.0001
629.3371	0.001
629.5252	-0.0023
629.7134	0.011
629.9015	-0.0005
630.0895	-0.0027
630.2776	0.0065
630.4657	-0.001
630.6537	0.0039
630.8417	-0.0001
631.0297	-0.0069
631.2177	0.0043
631.4057	-0.0064
631.5936	0.0072
631.7815	0.0067
631.9695	0.0082
632.1574	0.0024
632.3452	0.0101
632.5331	0.007
632.7209	0.0025
632.9088	0.0149
633.0966	0.0098
633.2844	0.0017
633.4722	0.0017
633.6599	0.0089
633.8477	0.0027
634.0354	-0.0029
634.2231	0.0022
634.4108	0.0065
634.5985	0.009
634.7861	0.0045
634.9738	-0.0036
635.1614	0.0044
635.349	0.0024
635.5366	0.0033
635.7242	0.0031
635.9117	0.0005
636.0993	0.0012
636.2868	-0.0009
636.4743	-0.0079
636.6618	0.0078
636.8492	0.004
637.0367	0.0046
637.2241	-0.0031
637.4115	-0.0055
637.5989	0.0031
637.7863	0.0011
637.9737	0.0012
638.161	0.002
638.3484	-0.0017
638.5357	0.0099
638.723	-0.0001
638.9103	0.0033
639.0975	0.0074
639.2848	0.0027
639.472	0.0042
639.6592	0.0068
639.8464	0.0072
640.0336	0.0055
640.2208	-0.003
640.4079	0.0004
640.595	0
640.7821	0.0016
640.9692	0.0022
641.1563	0.0079
641.3434	0.0043
641.5304	0.0083
641.7174	0.0049
641.9044	0.0037
642.0914	0.0094
642.2784	0.005
642.4653	0.0056
642.6523	-0.0004
642.8392	0.0032
643.0261	0.0066
643.213	0.0031
643.3999	-0.0045
643.5867	0.0023
643.7735	0.0056
643.9604	-0.0044
644.1472	0.0001
644.3339	0.0072
644.5207	-0.0031
644.7075	0.001
644.8942	0.0097
645.0809	0.0046
645.2676	0.0111
645.4543	0.0085
645.6409	0.0093
645.8276	0.0013
646.0142	0.0102
646.2008	0.0009
646.3874	0.0008
646.574	0.004
646.7605	0.0011
646.9471	-0.0079
647.1336	0.0014
647.3201	0.002
647.5066	-0.0011
647.6931	0.0155
647.8795	0.0048
648.0659	0.0124
648.2524	0.0133
648.4388	-0.0025
648.6252	0.0017
648.8115	0
648.9979	0.0097
649.1842	0.0023
649.3705	0.0052
649.5568	-0.0019
649.7431	0.0046
649.9294	-0.0037
650.1156	0.0036
650.3018	0.0039
650.488	0.0047
650.6742	0.0098
650.8604	0.0061
651.0466	-0.0048
651.2327	-0.0006
651.4188	0.0027
651.6049	0.0004
651.791	-0.0005
651.9771	0.0097
652.1632	0.0077
652.3492	0.0032
652.5352	0.0049
652.7212	0.0047
652.9072	0.0041
653.0932	-0.0018
653.2791	-0.0031
653.465	0.004
653.651	-0.0066
653.8369	-0.002
654.0227	0.0083
654.2086	0.0049
654.3944	0.0066
654.5803	0.0058
654.7661	0.0037
654.9519	0.0054
655.1377	-0.0009
655.3234	0.0029
655.5092	-0.0028
655.6949	-0.0044
655.8806	-0.002
656.0663	-0.0025
656.2519	0.0009
656.4376	-0.0045
656.6232	0.0046
656.8088	-0.0007
656.9945	0.0009
657.18	0.003
657.3656	0.0021
657.5511	-0.001
657.7367	-0.0047
657.9222	0.0075
658.1077	0.0011
658.2932	0.0035
658.4786	-0.0031
658.6641	0.0051
658.8495	0.0022
659.0349	-0.0017
659.2203	0.0104
659.4057	0.008
659.591	0.0068
659.7764	0.0032
659.9617	0.0053
660.147	0.0026
660.3323	0.007
660.5176	0.0155
660.7028	0.0082
660.888	0.0098
661.0733	0.0072
661.2585	-0.0069
661.4436	-0.0027
661.6288	-0.0019
661.8139	0.0053
661.9991	0.0052
662.1842	0.008
662.3693	0.009
662.5544	0.0016
662.7394	0.0065
662.9245	0.0024
663.1095	0.0018
663.2945	0.0093
663.4795	-0.0015
663.6644	0.0133
663.8494	0.0064
664.0343	0.0081
664.2193	0.0053
664.4042	0.0026
664.589	-0.0038
664.7739	0.0071
664.9587	-0.0048
665.1436	0.0035
665.3284	-0.0004
665.5132	-0.0016
665.698	0.0097
665.8827	0.0029
666.0675	0.0085
666.2522	-0.0013
666.4369	0.0086
666.6216	0.0039
666.8063	0.0047
666.9909	0.0033
667.1756	0.0045
667.3602	0.0026
667.5448	0.0079
667.7294	0.01
667.9139	0.0052
668.0985	0.0123
668.283	0.0041
668.4675	0.0033
668.652	0.0045
668.8365	0.0028
669.0209	0.0062
669.2054	0.0093
669.3898	0.0021
669.5742	0.0073
669.7586	0.0065
669.943	0.0066
670.1273	0.0097
670.3117	0.0063
670.496	0.0102
670.6803	0.023
670.8646	0.0086
671.0488	0.0046
671.2331	0.0079
671.4173	0.0089
671.6015	0.0034
671.7857	0.0144
671.9699	0.0088
672.1541	0.012
672.3382	0.0013
672.5223	0.0126
672.7064	0.0095
672.8905	0.0085
673.0746	0.0028
673.2587	0.0034
673.4427	0.0055
673.6267	0.0063
673.8107	0.0154
673.9947	0.0136
674.1787	0.0069
674.3626	0.0013
674.5465	0.0132
674.7304	-0.0002
674.9143	0.0014
675.0982	0.0107
675.2821	-0.0013
675.4659	-0.0011
675.6497	-0.0005
675.8335	-0.0013
676.0173	0.0038
676.2011	0.0034
676.3849	-0.0031
676.5686	-0.0034
676.7523	0.0078
676.936	0.0014
677.1197	0.0073
677.3034	-0.0048
677.487	0.0071
677.6706	0.0066
677.8542	0
678.0378	0.0014
678.2214	0.0029
678.405	0.0054
678.5885	-0.0073
678.772	-0.0033
678.9555	-0.0034
679.139	-0.0017
679.3225	0.0004
679.5059	-0.0001
679.6894	0.0051
679.8728	-0.0042
680.0562	-0.0025
680.2395	-0.0009
680.4229	0.0046
680.6062	0.0077
680.7896	-0.0005
680.9729	-0.0062
681.1562	0.0106
681.3394	0.0035
681.5227	-0.0047
681.7059	0.0025
681.8891	0.0056
682.0723	0.0037
682.2555	0.0098
682.4387	0.0059
682.6218	-0.0025
682.805	0.0079
682.9881	0.0019
683.1712	0.0024
683.3542	-0.0038
683.5373	0.0012
683.7203	-0.0057
683.9034	-0.0023
684.0864	-0.0094
684.2694	-0.0043
684.4523	0.0029
684.6353	-0.0072
684.8182	-0.0006
685.0011	-0.0039
685.184	-0.0027
685.3669	0.0021
685.5498	0.0015
685.7326	0.0054
685.9154	-0.0039
686.0982	0.0066
686.281	0.007
686.4638	0.0005
686.6465	-0.0049
686.8293	0.0078
687.012	0.0072
687.1947	0.001
687.3774	0.0057
687.56	-0.0007
687.7427	0.0095
687.9253	-0.0026
688.1079	-0.0002
688.2905	0.0059
688.4731	0.0003
688.6556	0.0069
688.8382	0.005
689.0207	0.007
689.2032	-0.0032
689.3857	0.0015
689.5681	0.0009
689.7506	-0.0023
689.933	-0.0007
690.1154	0.0001
690.2978	-0.0031
690.4802	0.008
690.6626	0.0015
690.8449	0.0023
691.0272	0.01
691.2095	-0.0013
691.3918	0.0022
691.5741	0.0062
691.7563	0.0035
691.9386	0.0032
692.1208	0.003
692.303	0.0049
692.4852	-0.0021
692.6673	0.0003
692.8495	0.0052
693.0316	-0.0014
693.2137	0.0017
693.3958	0.0078
693.5778	0.0089
693.7599	-0.0005
693.9419	0.0059
694.1239	0.0102
694.3059	0.0037
694.4879	0.0089
694.6699	0.0037
694.8518	0.003
695.0337	-0.0008
695.2157	0.0047
695.3975	0.0017
695.5794	0.0043
695.7613	-0.0014
695.9431	-0.0089
696.1249	-0.0004
696.3067	0.0082
696.4885	0.0079
696.6703	-0.0135
696.852	-0.0026
697.0337	0.0089
697.2154	0.001
697.3971	0.0003
697.5788	0.0061
697.7605	-0.0021
697.9421	0.0072
698.1237	0.0038
698.3053	0.0007
698.4869	-0.0005
698.6685	-0.0092
698.85	-0.0037
699.0315	0.0082
699.213	-0.0062
699.3945	0.0104
699.576	0.0073
699.7575	0.0148
699.9389	0.0062
700.1203	0.0011
700.3017	-0.0004
700.4831	-0.0068
700.6645	0.0028
700.8458	0.0015
701.0271	-0.0024
701.2084	0.0084
701.3897	0.005
701.571	0.0086
701.7523	0.0003
701.9335	0.0108
702.1147	0.0059
702.2959	0.0091
702.4771	0.0066
702.6583	0.0036
702.8394	-0.008
703.0205	0.0093
703.2016	0.0011
703.3827	-0.0021
703.5638	0.0073
703.7449	-0.0018
703.9259	0.0134
704.1069	-0.0005
704.2879	0.0056
704.4689	-0.0034
704.6499	0.0001
704.8308	-0.008
705.0117	0.002
705.1927	-0.0022
705.3735	-0.0049
705.5544	-0.002
705.7353	-0.0038
705.9161	-0.0028
706.0969	-0.007
706.2777	0.0026
706.4585	-0.0002
706.6393	0.0066
706.82	0.0003
707.0007	0.0028
707.1815	0.0096
707.3621	0.0189
707.5428	0.0088
707.7235	0.013
707.9041	0.01
708.0847	-0.0097
708.2653	0.0011
708.4459	-0.0088
708.6265	0.009
708.807	-0.0008
708.9875	-0.0022
709.168	-0.0027
709.3485	0.0015
709.529	-0.005
709.7095	-0.0075
709.8899	0.0009
710.0703	-0.0061
710.2507	-0.0011
710.4311	0.0043
710.6115	-0.0039
710.7918	0.0015
710.9721	-0.0019
711.1524	-0.0047
711.3327	0.0004
711.513	0.0057
711.6932	-0.0002
711.8735	0.0063
712.0537	0.0005
712.2339	-0.0086
712.4141	-0.0079
712.5942	-0.0001
712.7744	-0.0075
712.9545	-0.0007
713.1346	0.0047
713.3147	0.0001
713.4947	-0.0024
713.6748	0.0013
713.8548	0.0003
714.0348	-0.0014
714.2148	-0.0051
714.3948	0.0033
714.5748	0.0058
714.7547	0.0059
714.9346	-0.0032
715.1145	-0.0038
715.2944	-0.0065
715.4743	0.0028
715.6541	0.0014
715.834	-0.0024
716.0138	-0.0027
716.1936	-0.007
716.3733	-0.008
716.5531	0.0045
716.7328	-0.006
716.9126	-0.0023
717.0923	0.0088
717.2719	0.001
717.4516	0.0037
717.6312	0.0054
717.8109	-0.0071
717.9905	0.0008
718.1701	0.0071
718.3496	-0.0033
718.5292	0.0062
718.7087	0.0023
718.8882	-0.002
719.0677	0.0096
719.2472	-0.0001
719.4267	-0.0037
719.6061	-0.0018
719.7856	-0.0045
719.965	0.0022
720.1443	0.0027
720.3237	0.0099
720.5031	0.0058
720.6824	0.0098
720.8617	0.001
721.041	-0.0013
721.2203	0.006
721.3995	0.0004
721.5788	0.0053
721.758	-0.001
721.9372	-0.001
722.1164	0.0012
722.2956	0.0031
722.4747	0.0117
722.6538	-0.0032
722.8329	0.016
723.012	0.0088
723.1911	0.0022
723.3702	0.0117
723.5492	0.0077
723.7282	-0.0021
723.9072	0.0033
724.0862	-0.0071
724.2652	0.0013
724.4441	0.0021
724.623	0.0007
724.8019	0.003
724.9808	-0.0003
725.1597	-0.0128
725.3385	0.0044
725.5174	0.0049
725.6962	-0.0013
725.875	0.0001
726.0538	0.0013
726.2325	-0.0045
726.4112	-0.0006
726.59	-0.0008
726.7687	-0.003
726.9474	0.0046
727.126	-0.0023
727.3047	-0.0103
727.4833	-0.0034
727.6619	-0.0019
727.8405	-0.003
728.0191	-0.0072
728.1976	-0.0031
728.3762	0.0003
728.5547	-0.0057
728.7332	-0.011
728.9116	0.0032
729.0901	0.002
729.2686	-0.0003
729.447	0.0043
729.6254	-0.0081
729.8038	-0.0087
729.9821	-0.013
730.1605	0.0052
730.3388	-0.0067
730.5171	-0.0024
730.6954	-0.0019
730.8737	0.0032
731.0519	0.0019
731.2302	0.0026
731.4084	0.0162
731.5866	0.0113
731.7648	-0.0001
731.9429	0.0097
732.1211	0.0003
732.2992	0.0068
732.4773	-0.0006
732.6554	-0.006
732.8335	-0.0014
733.0115	0.0117
733.1896	0.0046
733.3676	-0.0001
733.5456	0.008
733.7235	0.0095
733.9015	0.0046
734.0794	0.003
734.2574	0.0075
734.4353	0.0103
734.6131	0.0088
734.791	0.0074
734.9689	-0.0024
735.1467	0.0112
735.3245	0.0031
735.5023	-0.0023
735.68	0.0064
735.8578	0.0116
736.0355	-0.0107
736.2132	-0.0013
736.3909	0.0012
736.5686	-0.0053
736.7463	0.0139
736.9239	0.0014
737.1015	0.0016
737.2791	0.0113
737.4567	0.0045
737.6343	-0
737.8118	0.0039
737.9894	0.0118
738.1669	-0.0054
738.3444	-0.0012
738.5218	0.0018
738.6993	0.0013
738.8767	-0.0057
739.0541	0.0053
739.2315	-0.0123
739.4089	-0.0022
739.5863	0.0137
739.7636	-0.0012
739.9409	0.0005
740.1182	0.0093
740.2955	0.0111
740.4728	0.0088
740.65	0.005
740.8272	-0.0037
741.0044	-0.0057
741.1816	-0.0029
741.3588	0.0022
741.5359	0.003
741.7131	-0.007
741.8902	-0.0037
742.0673	-0.0018
742.2444	-0.0012
742.4214	-0.0044
742.5985	0.0042
742.7755	-0.002
742.9525	-0.0098
743.1295	0.0039
743.3064	-0.0001
743.4834	-0.0021
743.6603	0.0043
743.8372	-0.0076
744.0141	0.0063
744.191	0.0034
744.3678	-0.0037
744.5446	0.0044
744.7215	0.0045
744.8982	-0.0056
745.075	-0.0111
745.2518	0.0054
745.4285	-0.0003
745.6052	-0.0045
745.7819	-0.0064
745.9586	0.0013
746.1353	-0.0029
746.3119	-0.004
746.4885	-0.0048
746.6651	-0.0034
746.8417	-0.0027
747.0183	-0.0029
747.1948	-0.0043
747.3714	-0.0015
747.5479	-0.006
747.7244	-0.0014
747.9008	0.0084
748.0773	-0.0032
748.2537	-0.0021
748.4301	-0.0017
748.6065	0.0025
748.7829	0.0041
748.9593	0.0003
749.1356	0.0098
749.3119	0.0053
749.4882	0.0016
749.6645	0.0024
749.8408	0.0015
750.017	-0.007
750.1933	0.0009
750.3695	-0.0021
750.5457	-0.0059
750.7218	0.0057
750.898	0.0045
751.0741	-0.0092
751.2502	-0.0027
751.4263	-0.0061
751.6024	0.0047
751.7784	0.0037
751.9545	-0.0077
752.1305	0.0007
752.3065	-0.0006
752.4825	0.0008
752.6584	-0.0081
752.8344	-0.0027
753.0103	-0.0009
753.1862	-0.0051
753.3621	-0.0069
753.5379	-0.0128
753.7138	-0.003
753.8896	0.0064
754.0654	0.0073
754.2412	0.0135
754.417	-0.0021
754.5927	-0.001
754.7685	0.001
754.9442	-0.0036
755.1199	0.0157
755.2956	-0.0007
755.4712	0.0057
755.6469	0.0021
755.8225	-0.0052
755.9981	-0.0017
756.1736	0.0119
756.3492	-0.0072
756.5248	-0.005
756.7003	-0.0024
756.8758	0.01
757.0513	-0.0103
757.2267	-0.0063
757.4022	0.004
757.5776	-0.0051
757.753	-0.0052
757.9284	-0.0005
758.1038	0.0062
758.2791	0.0128
758.4545	-0.0119
758.6298	0.0074
758.8051	-0.005
758.9803	-0.0061
759.1556	-0.0074
759.3308	-0.0059
759.506	0.0024
759.6812	0.0078
759.8564	0.0085
760.0316	0.0084
760.2067	0.0128
760.3819	0.0047
760.557	0.0159
760.732	0.0056
760.9071	-0.0086
761.0821	0.0088
761.2572	0.0066
761.4322	0.0007
761.6072	0.0017
761.7821	-0.0068
761.9571	0.0031
762.132	-0.0005
762.3069	-0.013
762.4818	-0.0118
762.6567	-0.0051
762.8316	0.0039
763.0064	-0.0009
763.1812	0.0026
763.356	-0.0111
763.5308	-0.0146
763.7055	-0.0005
763.8803	-0.0101
764.055	-0.0009
764.2297	-0.008
764.4044	-0.004
764.579	-0.0029
764.7537	-0.0118
764.9283	0.0058
765.1029	-0.0017
765.2775	-0.004
765.4521	-0.0052
765.6266	-0.0003
765.8011	0.0006
765.9756	-0.0013
766.1501	0.0015
766.3246	0.0068
766.4991	0.0009
766.6735	-0.002
766.8479	0.0043
767.0223	0.016
767.1967	0.0159
767.371	0.0067
767.5454	-0.0007
767.7197	0.0079
767.894	-0.0075
768.0683	-0.0136
768.2425	0.0042
768.4168	0.0095
768.591	0.0073
768.7652	0.001
768.9394	0.0021
769.1135	0.0039
769.2877	0.0053
769.4618	0.0007
769.6359	0.0003
769.81	0.008
769.984	0.0018
770.1581	-0.0033
770.3321	0.0053
770.5061	-0.0097
770.6801	-0.0083
770.8541	0.0117
771.028	0.0021
771.202	-0.011
771.3759	0.0108
771.5498	-0.0127
771.7236	0.0119
771.8975	0.0098
772.0713	0.0035
772.2451	0.0079
772.4189	0.0113
772.5927	0.0085
772.7665	0.0053
772.9402	0.0084
773.1139	0.0106
773.2876	-0.0023
773.4613	0.0042
773.635	0.0073
773.8086	-0.0041
773.9822	0.0077
774.1558	0.0038
774.3294	-0.0191
774.503	0.0046
774.6765	0.0046
774.8501	0.0083
775.0236	0.0061
775.1971	0.0105
775.3705	0.0052
775.544	0.0056
775.7174	-0.0008
775.8908	0.0067
776.0642	0.0035
776.2376	0.008
776.4109	-0.0013
776.5843	-0.0009
776.7576	0.009
776.9309	0.0154
777.1041	0.0157
777.2774	0.0202
777.4506	0.0154
777.6238	0.0021
777.797	0.0157
777.9702	0.002
778.1434	0.0044
778.3165	-0.0111
778.4896	-0.015
778.6627	0.0006
778.8358	-0.0021
779.0089	-0.012
779.1819	-0.0028
779.3549	0.0135
779.5279	0.0074
779.7009	0.0011
779.8739	0.0038
780.0468	-0.0094
780.2197	-0.009
780.3926	0.0102
780.5655	0.001
780.7384	-0.0063
780.9112	0.0023
781.0841	0.0015
781.2569	-0.0063
781.4297	-0.003
781.6024	0.0032
781.7752	-0.0107
781.9479	0.013
782.1206	-0.0041
782.2933	-0.0057
782.466	0.0115
782.6386	0.0009
782.8113	0.0091
782.9839	0.0178
783.1565	0.0199
783.329	0.0019
783.5016	0.014
783.6741	0.0122
783.8466	0.0036
784.0191	0.0168
784.1916	0.002
784.3641	0.009
784.5365	0.0066
784.7089	0.0069
784.8813	0.0044
785.0537	0.0191
785.2261	-0.0029
785.3984	0.0055
785.5707	0.0143
785.743	-0.0008
785.9153	0.0032
786.0876	0.0103
786.2598	0.0003
786.432	-0.0075
786.6042	0.005
786.7764	-0.0002
786.9486	0.0044
787.1207	-0.0145
787.2928	0.0112
787.4649	0.0076
787.637	0.0145
787.8091	-0.0007
787.9811	-0.0034
788.1532	0.0107
788.3252	0.0052
788.4972	-0.013
788.6691	-0.0044
788.8411	-0.0028
789.013	-0.0096
789.1849	0.0071
789.3568	0.0058
789.5287	0.0067
789.7005	-0.0086
789.8723	0.0101
790.0442	0.0196
790.2159	0.0128
790.3877	0.0073
790.5595	-0.0003
790.7312	0.0047
790.9029	0.0143
791.0746	0.0011
791.2463	0.0037
791.4179	0.0046
791.5896	-0.0071
791.7612	-0.0014
791.9328	-0.002
792.1044	-0.0164
792.2759	-0.0154
792.4474	-0.0143
792.619	0.0037
792.7905	-0.01
792.9619	0.0035
793.1334	0.0173
793.3048	0.017
793.4762	0.0087
793.6476	-0.0014
793.819	-0.0051
793.9904	0.0104
794.1617	-0.0124
794.333	0.0003
794.5043	-0.0097
794.6756	-0.0023
794.8469	0.0079
795.0181	0.0036
795.1893	-0.0157
795.3605	0.0143
795.5317	0.0154
795.7029	-0.0109
795.874	0.0022
796.0452	-0.011
796.2163	0.0115
796.3873	0.0121
796.5584	-0.0039
796.7294	0.0032
796.9005	-0.0005
797.0715	0.0189
797.2425	-0.0067
797.4134	0.0009
797.5844	0.0085
797.7553	-0.0071
797.9262	0.0145
798.0971	-0.009
798.2679	0.0037
798.4388	-0.0064
798.6096	-0.0032
798.7804	0.0118
798.9512	-0.0032
799.122	-0.0004
799.2927	-0.004
799.4635	0.0132
799.6342	-0.0138
799.8049	-0.0033
799.9755	0.0051
800.1462	0.0029
800.3168	0.0099
800.4874	-0.0039
800.658	0.0218
800.8286	0.0025
800.9991	0.0203
801.1696	0.0045
801.3402	0.0285
801.5106	0.0022
801.6811	0.002
801.8516	0.0231
802.022	0.016
802.1924	0.0145
802.3628	0.0223
802.5332	0.0237
802.7035	0.0219
802.8739	0.0199
803.0442	-0.0115
803.2145	0.0098
803.3847	-0.0026
803.555	0.0216
803.7252	-0.0074
803.8954	-0.0112
804.0656	-0.0002
804.2358	0.0019
804.4059	0.0347
804.5761	-0.0024
804.7462	0.0022
804.9163	0.0059
805.0864	-0.0168
805.2564	0.0007
805.4264	-0.0083
805.5965	-0.0045
805.7665	0.0124
805.9364	-0.0104
806.1064	0.0418
806.2763	0.0023
806.4462	0.0171
806.6161	0.0061
806.786	0.0288
806.9559	-0.0206
807.1257	0.0115
807.2955	-0.0045
807.4653	-0.0046
807.6351	-0.0227
807.8048	-0.0068
807.9746	0.0086
808.1443	-0.0044
808.314	0.0129
808.4837	0.0057
808.6533	0.0212
808.8229	0.0423
808.9926	0.0228
809.1622	0.0141
809.3317	-0.0066
809.5013	0.0134
809.6708	0.0154
809.8403	0.0202
810.0098	-0.0068
810.1793	0.0071
810.3488	0.006
810.5182	-0.0134
810.6876	0.0071
810.857	-0.0157
811.0264	0.0373
811.1958	0.0072
811.3651	0.0133
811.5344	0.0048
811.7037	-0.0112
811.873	-0.0201
812.0422	0.0274
812.2115	0.0035
812.3807	-0.0209
812.5499	0.0176
812.7191	0.0067
812.8882	-0.0062
813.0574	0.0005
813.2265	0.0082
813.3956	0.0046
813.5646	-0.0022
813.7337	-0.0061
813.9027	0.0046
814.0718	0.0252
814.2407	0.0164
814.4097	-0.0341
814.5787	-0.029
814.7476	0.0126
814.9165	0.0059
815.0854	-0.005
815.2543	0.0087
815.4232	0.0122
815.592	0.0222
815.7608	0.0101
815.9296	0.0263
816.0984	0.0185
816.2671	-0
816.4359	0.0082
816.6046	0.0101
816.7733	0.0033
816.942	0.0114
817.1106	0.0153
817.2793	0.0022
817.4479	0.022
817.6165	0.0381
817.785	0.0063
817.9536	0.0039
818.1221	0.0035
818.2906	0.0226
818.4591	-0.0017
818.6276	0.012
818.7961	0.0332
818.9645	0.0193
819.1329	0.0121
819.3013	0.0261
819.4697	0.0313
819.638	0.0386
819.8064	0.0223
819.9747	0.008
820.143	-0.0117
820.3113	0.0025
820.4795	-0.0104
820.6477	0.0204
820.816	-0.0059
820.9842	0.0098
821.1523	-0.0068
821.3205	-0.0085
821.4886	0.008
821.6567	0.0112
821.8248	0.0238
821.9929	0.0374
822.1609	0.0168
822.329	0.0083
822.497	0.0316
822.665	0.0051
822.833	-0.0241
823.0009	0.0251
823.1688	0.0095
823.3367	0.0611
823.5046	0.0093
823.6725	0.0348
823.8404	-0.0071
824.0082	0.0266
824.176	0.043
824.3438	0.0162
824.5116	-0.0005
824.6793	0.0458
824.847	0.0117
825.0147	0.0025
825.1824	0.0386
825.3501	0.0214
825.5177	-0.0071
825.6854	-0.0182
825.853	0.0231
826.0206	-0.0258
826.1881	0.0043
826.3557	-0.0213
826.5232	0.0564
826.6907	-0.0207
826.8582	-0.0077
827.0257	0.0037
827.1931	-0.0009
827.3605	-0.0014
827.528	0.0122
827.6953	-0.0285
827.8627	-0.0084
828.03	0.0199
828.1974	0.0221
828.3647	-0.0246
828.532	0.0005
828.6992	-0.003
828.8665	-0.0015
829.0337	-0.0159
829.2009	0.0479
829.3681	-0.0141
829.5352	0.0123
829.7024	-0.0301
829.8695	-0.0303
830.0366	0.0443
830.2037	0.023
830.3707	0.015
830.5378	0.0119
830.7048	-0.0038
830.8718	0.0143
831.0388	-0.0175
831.2057	0.0201
831.3727	0.0169
831.5396	-0.0168
831.7065	0.0023
831.8734	-0.0022
832.0402	0.0096
832.2071	-0.0258
832.3739	-0.0418
832.5407	0.0328
832.7075	0.0101
832.8742	0.0049
833.041	-0.0259
833.2077	-0.0127
833.3744	0.0242
833.541	0.0178
833.7077	-0.0038
833.8743	0.0085
834.0409	0.0092
834.2075	-0.0187
834.3741	0.0266
834.5407	0.0188
834.7072	0.0012
834.8737	-0.006
835.0402	0.0006
835.2067	0.0431
835.3731	-0.0194
835.5395	0.0408
835.706	-0.0096
835.8723	0.0014
836.0387	0.0109
836.2051	0.0041
836.3714	0.0238
836.5377	-0.0082
836.704	-0.0317
836.8703	-0.0107
837.0365	-0.0066
837.2027	-0.0031
837.3689	-0.0151
837.5351	-0.036
837.7013	0.0042
837.8674	-0.0441
838.0335	-0.033
838.1997	-0.0215
838.3657	-0.038
838.5318	-0.0269
838.6978	0.0198
838.8639	0.0158
839.0299	-0.012
839.1958	0.0216
839.3618	-0.0136
839.5277	-0.0789
839.6937	0.0066
839.8596	-0.0073
840.0254	0.0334
840.1913	0.0159
840.3571	0.0298
840.523	-0.0409
840.6888	-0.0184
840.8545	0.0106
841.0203	-0.0214
841.186	0.0228
841.3517	0.0163
841.5174	-0.0272
841.6831	-0.001
841.8488	0.0026
842.0144	0.0139
842.18	-0.0027
842.3456	0.0834
842.5112	0.0347
842.6767	-0.0698
842.8422	-0.0054
843.0077	-0.0162
843.1732	-0.0901
843.3387	-0.0493
843.5042	-0.0348
843.6696	-0.0337
843.835	0.0086
844.0004	0.0364
844.1657	0.0131
844.3311	-0.0103
844.4964	-0.0531
844.6617	-0.0207
844.827	-0.0172
844.9923	-0.0267
845.1575	0.0371
845.3227	-0.0092
845.4879	-0.0284
845.6531	-0.0159
845.8183	-0.0245
845.9834	0.0164
846.1485	-0.0406
846.3136	-0.0236
846.4787	-0.0935
846.6438	0.0668
846.8088	-0.0155
846.9738	-0.0722
847.1388	0.0056
847.3038	-0.0646
847.4687	-0.1316
847.6337	-0.0001
847.7986	-0.0246
847.9635	-0.0693
848.1284	0.0138
848.2932	0.0172
848.458	0.0465
848.6228	0.0315
848.7876	0.0536
848.9524	-0.0489
849.1172	-0.1434
849.2819	0.0155
849.4466	-0.1236
849.6113	-0.0756
849.7759	-0.0598
849.9406	-0.0347
850.1052	0.0415
850.2698	-0.0569
850.4344	0.041
850.599	-0.0169
850.7635	0.0505
850.928	0.0234
851.0925	-0.0369
851.257	-0.0581
851.4215	0.0344
851.5859	-0.1065
851.7503	-0.0017
851.9147	0.0149
852.0791	-0.1202
852.2434	-0.0241
852.4078	0.1084
852.5721	0.1199
852.7364	0.0517
852.9007	-0.1557
853.0649	0.0841
853.2291	0.0527
853.3934	-0.0048
853.5575	0.0591
853.7217	-0.0942
853.8859	-0.1051
854.05	-0.0731
854.2141	-0.0539
854.3782	-0.1186
854.5423	-0.1256
854.7063	0.1865
854.8703	-0.0398
855.0343	0.019
855.1983	-0.1286
855.3623	0.0502
855.5262	0.0584
855.6901	-0.0636
855.854	-0.0978
856.0179	0.0465
856.1818	0.1274
856.3456	-0.086
856.5094	-0.17
856.6732	0.0223
856.837	0.026
857.0008	0.0083
857.1645	-0.0976
857.3282	0.0907
857.4919	0.0193
857.6556	-0.0718
857.8192	-0.0528
857.9828	-0.0919
858.1465	-0.0884
858.31	-0.0768
858.4736	0.0616
858.6372	-0.2171
858.8007	-0.2415
858.9642	0.074
859.1277	-0.1177
859.2911	0.086
859.4546	0.0262
859.618	-0.4733
859.7814	-0.1096
859.9448	-0.1005
860.1081	0.1206
860.2715	0.1743
860.4348	-0.0687
860.5981	-0.0408
860.7614	-0.0419
860.9246	-0.1153
861.0879	-0.0767
861.2511	0.0661
861.4143	-0.2321
861.5774	0.0561
861.7406	-0.2637
861.9037	0.1074
862.0668	-0.0682
862.2299	0.0216
862.393	-0.7152
862.556	-0.0293
862.7191	-0.3948
862.8821	-0.1945
863.0451	0.0051
863.208	0.087
863.371	-0.0306
863.5339	-0.2262
863.6968	0.3405
863.8597	-0.2524
864.0225	-0.0911
864.1854	-0.1251
864.3482	-0.2144
864.511	-0.0421
864.6737	0.0128
864.8365	0.0223
864.9992	-0.4665
865.1619	-0.4577
865.3246	-0.1252
865.4873	0.0095
865.65	-0.1441
865.8126	-0.0795
865.9752	0.0218
866.1378	-0.0675
866.3004	0.3399
866.4629	0.2056
866.6254	-0.0011
866.7879	-0.0287
866.9504	-0.4013
867.1129	-0
867.2753	0.1476
867.4377	0.1285
867.6001	-0.4425
867.7625	0.2224
867.9249	-0.7715
868.0872	0.0353
868.2495	-0.0407
868.4118	0.0144
868.5741	-0.616
868.7363	-0.0158
868.8986	0.2486
869.0608	-0.3048
869.223	0.1258
869.3851	-0
869.5473	-0
869.7094	0.0887
869.8715	0.365
870.0336	-0
870.1957	-0.7655
870.3577	0.3882
870.5197	-0.2692
870.6817	-0.0935
870.8437	-0.2082
871.0057	-0
871.1676	-0.2296
871.3295	-0
871.4914	-0
871.6533	-0.4049
871.8151	-0.3132
871.977	0.4916
872.1388	-0
872.3006	0.1193
872.4623	0.6255
872.6241	0.2899
872.7858	-0.0519
872.9475	-0.0386
873.1092	-0.0535
873.2709	-0.1685
873.4325	-0.2943
873.5941	-0.3712
873.7557	-0
873.9173	-0
874.0789	-0.2585
874.2404	-0.6532
874.4019	1.2836
874.5634	-0.1588
874.7249	-0.1205
874.8863	0.1419
875.0478	-0
875.2092	-0
875.3706	-0.105
875.5319	-0.4701
875.6933	-0
875.8546	-0.5386
876.0159	0.0734
876.1772	-0
876.3385	-0
876.4997	0.3051
876.6609	-0.4135
876.8221	-0
876.9833	-0
877.1445	-0
877.3056	0.2932
877.4667	-0.3125
877.6278	-0
877.7889	-0.2746
877.9499	-0
878.111	-0.2032
878.272	-0
878.433	-0
878.5939	-0
878.7549	-0.1514
878.9158	-0.5712
879.0767	-0
879.2376	0.0144
879.3984	-0.1692
879.5593	-0
879.7201	-0.0128
879.8809	-0.8269
880.0417	-0.0024
880.2024	0.2188
880.3632	-0
880.5239	0.3592
880.6846	-0
880.8452	-2.3936
881.0059	-1.3284
881.1665	-0
881.3271	0.7355
881.4877	-0.044
881.6483	-0.5456
881.8088	-0.3487
881.9693	-0
882.1298	-0
882.2903	-0
