Data from MonoPyChalIsomerACN10uM440nmA_Absorbance_15-27-10-494.txt Node
Date: Fri Jul 05 15:27:10 BST 2024
User: LASERRRRR
Spectrometer: FLMT03099
Trigger mode: 0
Integration Time (sec): 1.000000E-1
Scans to average: 1
Electric dark correction enabled: true
Nonlinearity correction enabled: false
Boxcar width: 0
XAxis mode: Wavelengths
Number of Pixels in Spectrum: 3648
>>>>>Begin Spectral Data<<<<<
179.3399	0.8479
179.5586	0.8479
179.7771	0.8479
179.9957	0.5368
180.2143	-0.479
180.4329	0.0328
180.6514	-0
180.8699	-0
181.0885	-0.012
181.307	0.0748
181.5255	-0
181.744	-0.9338
181.9625	-0
182.181	-0.9274
182.3994	-0
182.6179	-0
182.8363	0.9651
183.0547	-0.0708
183.2732	0.0929
183.4916	0.1573
183.71	-0.0344
183.9284	0.0905
184.1467	-0.066
184.3651	-0.1096
184.5835	-0.0436
184.8018	0.0048
185.0201	0.1555
185.2385	0.0147
185.4568	0.4043
185.6751	-0.1821
185.8934	0.3757
186.1117	0.0768
186.3299	0.1606
186.5482	0.1859
186.7664	-0.0868
186.9847	-0.0142
187.2029	0.3893
187.4211	0.0753
187.6393	0.2779
187.8575	-0.0668
188.0757	0.2404
188.2939	0.1119
188.512	-0.0679
188.7302	0.1432
188.9483	0.1868
189.1665	0.0724
189.3846	0.024
189.6027	0.4445
189.8208	0.1453
190.0389	0.2742
190.257	0.1721
190.475	0.446
190.6931	0.3329
190.9111	0.6947
191.1292	0.0942
191.3472	0.6158
191.5652	0.2053
191.7832	0.2842
192.0012	0.3499
192.2192	0.2833
192.4371	0.4097
192.6551	0.2721
192.873	0.5989
193.091	0.3288
193.3089	0.6147
193.5268	0.7167
193.7447	0.4472
193.9626	0.4424
194.1805	0.3999
194.3984	0.5852
194.6162	0.5447
194.8341	0.696
195.0519	0.5109
195.2697	0.905
195.4875	0.5698
195.7054	0.6619
195.9231	0.6304
196.1409	0.7507
196.3587	0.6251
196.5765	0.6931
196.7942	0.5481
197.012	0.5027
197.2297	0.6098
197.4474	0.6944
197.6651	0.3992
197.8828	0.5343
198.1005	0.6457
198.3182	0.628
198.5358	1.183
198.7535	0.5806
198.9711	0.4925
199.1888	0.6284
199.4064	0.7263
199.624	0.7775
199.8416	0.4758
200.0592	0.607
200.2767	0.6609
200.4943	0.6237
200.7119	0.6209
200.9294	0.7164
201.1469	0.5995
201.3645	0.5979
201.582	0.5394
201.7995	0.5684
202.017	0.5895
202.2344	0.5769
202.4519	0.7131
202.6694	0.5762
202.8868	0.6184
203.1042	0.8318
203.3217	0.6312
203.5391	0.6617
203.7565	0.6635
203.9739	0.6448
204.1913	0.5619
204.4086	0.7838
204.626	0.7256
204.8433	0.6755
205.0607	0.6253
205.278	0.6857
205.4953	0.5939
205.7126	0.7617
205.9299	0.7161
206.1472	0.6598
206.3644	0.609
206.5817	0.6318
206.7989	0.7538
207.0162	0.6816
207.2334	0.6444
207.4506	0.6452
207.6678	0.6368
207.885	0.6676
208.1022	0.6749
208.3194	0.7465
208.5365	0.7203
208.7537	0.6441
208.9708	0.5786
209.1879	0.617
209.405	0.589
209.6222	0.7006
209.8392	0.6704
210.0563	0.6364
210.2734	0.6349
210.4905	0.6503
210.7075	0.6306
210.9245	0.5922
211.1416	0.6241
211.3586	0.6238
211.5756	0.662
211.7926	0.6093
212.0096	0.5943
212.2265	0.5877
212.4435	0.5956
212.6604	0.5786
212.8774	0.5892
213.0943	0.5941
213.3112	0.5487
213.5281	0.5224
213.745	0.5553
213.9619	0.5176
214.1788	0.5141
214.3956	0.4799
214.6125	0.5019
214.8293	0.4499
215.0461	0.5227
215.2629	0.4486
215.4798	0.4963
215.6965	0.4458
215.9133	0.4517
216.1301	0.4188
216.3469	0.439
216.5636	0.4328
216.7803	0.4026
216.9971	0.3927
217.2138	0.4076
217.4305	0.3872
217.6472	0.3591
217.8639	0.4056
218.0805	0.3294
218.2972	0.3312
218.5138	0.3136
218.7305	0.3082
218.9471	0.3063
219.1637	0.2863
219.3803	0.2907
219.5969	0.2678
219.8135	0.265
220.0301	0.2711
220.2466	0.2806
220.4632	0.2377
220.6797	0.2535
220.8962	0.2231
221.1127	0.2462
221.3292	0.2399
221.5457	0.2394
221.7622	0.2346
221.9787	0.2475
222.1951	0.2148
222.4116	0.245
222.628	0.2348
222.8444	0.2577
223.0608	0.2461
223.2772	0.2478
223.4936	0.2606
223.71	0.2528
223.9264	0.2644
224.1427	0.2596
224.3591	0.2584
224.5754	0.2717
224.7917	0.2605
225.008	0.2672
225.2243	0.2455
225.4406	0.2915
225.6569	0.2745
225.8732	0.27
226.0894	0.2534
226.3057	0.2813
226.5219	0.2803
226.7381	0.2591
226.9543	0.2817
227.1705	0.2644
227.3867	0.2765
227.6029	0.3085
227.8191	0.2771
228.0352	0.2934
228.2513	0.3046
228.4675	0.2933
228.6836	0.3014
228.8997	0.282
229.1158	0.3098
229.3319	0.3222
229.548	0.3217
229.764	0.3355
229.9801	0.3199
230.1961	0.326
230.4121	0.3337
230.6282	0.3209
230.8442	0.3207
231.0602	0.3445
231.2761	0.3608
231.4921	0.3328
231.7081	0.3461
231.924	0.3418
232.14	0.3339
232.3559	0.3404
232.5718	0.3706
232.7877	0.3519
233.0036	0.3421
233.2195	0.3718
233.4353	0.3565
233.6512	0.3547
233.867	0.379
234.0829	0.3474
234.2987	0.3622
234.5145	0.3723
234.7303	0.3594
234.9461	0.3823
235.1619	0.3951
235.3776	0.3626
235.5934	0.3801
235.8091	0.356
236.0249	0.3857
236.2406	0.3594
236.4563	0.3976
236.672	0.4068
236.8877	0.4022
237.1034	0.4033
237.319	0.3906
237.5347	0.4165
237.7503	0.4027
237.966	0.399
238.1816	0.3988
238.3972	0.4108
238.6128	0.3989
238.8284	0.3934
239.0439	0.419
239.2595	0.3886
239.475	0.4138
239.6906	0.4154
239.9061	0.4004
240.1216	0.3992
240.3371	0.4126
240.5526	0.3876
240.7681	0.3956
240.9836	0.3893
241.199	0.3974
241.4145	0.3838
241.6299	0.3514
241.8453	0.3587
242.0607	0.3796
242.2761	0.3563
242.4915	0.3561
242.7069	0.3584
242.9223	0.3572
243.1376	0.3387
243.353	0.331
243.5683	0.345
243.7836	0.3208
243.9989	0.3203
244.2142	0.2967
244.4295	0.2894
244.6448	0.3062
244.86	0.2769
245.0753	0.2788
245.2905	0.2726
245.5057	0.2605
245.721	0.2631
245.9362	0.2611
246.1514	0.2503
246.3665	0.2509
246.5817	0.2453
246.7969	0.2409
247.012	0.2358
247.2271	0.2343
247.4423	0.2368
247.6574	0.2263
247.8725	0.2308
248.0876	0.2153
248.3026	0.2087
248.5177	0.2078
248.7328	0.2181
248.9478	0.2062
249.1628	0.1989
249.3779	0.2217
249.5929	0.2056
249.8079	0.2099
250.0228	0.1899
250.2378	0.1878
250.4528	0.1911
250.6677	0.172
250.8827	0.1833
251.0976	0.1826
251.3125	0.1785
251.5274	0.1827
251.7423	0.1719
251.9572	0.1762
252.172	0.1701
252.3869	0.174
252.6017	0.1804
252.8166	0.1754
253.0314	0.1622
253.2462	0.1576
253.461	0.1633
253.6758	0.1559
253.8906	0.1779
254.1053	0.1572
254.3201	0.1725
254.5348	0.1828
254.7496	0.1755
254.9643	0.164
255.179	0.1552
255.3937	0.161
255.6083	0.1614
255.823	0.1795
256.0377	0.1545
256.2523	0.1635
256.467	0.1589
256.6816	0.1518
256.8962	0.1763
257.1108	0.1473
257.3254	0.1697
257.54	0.1521
257.7545	0.1576
257.9691	0.1676
258.1836	0.1689
258.3981	0.1723
258.6127	0.1625
258.8272	0.1595
259.0417	0.1687
259.2561	0.1617
259.4706	0.156
259.6851	0.1551
259.8995	0.1536
260.114	0.1647
260.3284	0.1577
260.5428	0.1437
260.7572	0.1532
260.9716	0.1595
261.186	0.1602
261.4003	0.1555
261.6147	0.1653
261.829	0.1583
262.0433	0.1542
262.2577	0.1598
262.472	0.1637
262.6863	0.153
262.9005	0.1739
263.1148	0.1522
263.3291	0.136
263.5433	0.1605
263.7576	0.1598
263.9718	0.1524
264.186	0.1634
264.4002	0.1546
264.6144	0.1548
264.8286	0.1715
265.0427	0.1525
265.2569	0.1575
265.471	0.1475
265.6851	0.1396
265.8993	0.1605
266.1134	0.1432
266.3275	0.1474
266.5415	0.1496
266.7556	0.1648
266.9697	0.1533
267.1837	0.1511
267.3978	0.1618
267.6118	0.1724
267.8258	0.1592
268.0398	0.1451
268.2538	0.161
268.4677	0.1557
268.6817	0.1443
268.8957	0.1493
269.1096	0.1503
269.3235	0.146
269.5374	0.1483
269.7514	0.1424
269.9652	0.1492
270.1791	0.1456
270.393	0.1224
270.6068	0.1408
270.8207	0.1263
271.0345	0.1366
271.2483	0.1336
271.4622	0.1303
271.676	0.15
271.8897	0.1219
272.1035	0.1394
272.3173	0.1228
272.531	0.1328
272.7448	0.1302
272.9585	0.1216
273.1722	0.1382
273.3859	0.1324
273.5996	0.1176
273.8133	0.1286
274.0269	0.1322
274.2406	0.1247
274.4542	0.1244
274.6679	0.1429
274.8815	0.1392
275.0951	0.1409
275.3087	0.138
275.5223	0.136
275.7358	0.1345
275.9494	0.1271
276.1629	0.1287
276.3765	0.1282
276.59	0.1347
276.8035	0.1373
277.017	0.1391
277.2305	0.1197
277.444	0.1339
277.6574	0.1218
277.8709	0.1339
278.0843	0.1317
278.2978	0.1343
278.5112	0.1259
278.7246	0.1431
278.938	0.1383
279.1513	0.1382
279.3647	0.1457
279.5781	0.1291
279.7914	0.1388
280.0047	0.1471
280.2181	0.1319
280.4314	0.1384
280.6447	0.1458
280.8579	0.153
281.0712	0.1455
281.2845	0.1362
281.4977	0.1428
281.711	0.1266
281.9242	0.141
282.1374	0.1397
282.3506	0.1408
282.5638	0.1429
282.7769	0.1469
282.9901	0.135
283.2033	0.1492
283.4164	0.1441
283.6295	0.1339
283.8426	0.1353
284.0557	0.147
284.2688	0.1678
284.4819	0.1508
284.695	0.1563
284.908	0.1476
285.1211	0.1404
285.3341	0.1453
285.5471	0.1565
285.7601	0.1496
285.9731	0.1385
286.1861	0.1471
286.3991	0.1461
286.612	0.1633
286.825	0.1633
287.0379	0.1558
287.2508	0.1464
287.4637	0.148
287.6766	0.1454
287.8895	0.1588
288.1024	0.1686
288.3152	0.1551
288.5281	0.1556
288.7409	0.1699
288.9538	0.1595
289.1666	0.1493
289.3794	0.1512
289.5922	0.142
289.8049	0.1649
290.0177	0.1609
290.2304	0.169
290.4432	0.1606
290.6559	0.1604
290.8686	0.1759
291.0813	0.1587
291.294	0.1731
291.5067	0.1741
291.7194	0.1599
291.932	0.1719
292.1447	0.167
292.3573	0.1664
292.5699	0.1634
292.7825	0.1672
292.9951	0.1606
293.2077	0.1637
293.4203	0.1569
293.6328	0.16
293.8454	0.1763
294.0579	0.1561
294.2704	0.1584
294.4829	0.1628
294.6954	0.1747
294.9079	0.165
295.1204	0.1645
295.3328	0.1642
295.5453	0.1615
295.7577	0.1717
295.9701	0.1657
296.1825	0.1629
296.3949	0.1539
296.6073	0.161
296.8197	0.158
297.0321	0.179
297.2444	0.1477
297.4567	0.1616
297.6691	0.1668
297.8814	0.1611
298.0937	0.172
298.306	0.1722
298.5182	0.156
298.7305	0.1774
298.9428	0.1475
299.155	0.168
299.3672	0.1614
299.5794	0.1642
299.7916	0.1528
300.0038	0.175
300.216	0.1546
300.4282	0.1714
300.6403	0.1566
300.8525	0.1679
301.0646	0.1522
301.2767	0.1632
301.4888	0.1729
301.7009	0.1647
301.913	0.1698
302.125	0.162
302.3371	0.1538
302.5491	0.1652
302.7612	0.1713
302.9732	0.1648
303.1852	0.1697
303.3972	0.1679
303.6092	0.1604
303.8211	0.1661
304.0331	0.1623
304.245	0.1586
304.457	0.1469
304.6689	0.1616
304.8808	0.1658
305.0927	0.1559
305.3046	0.1553
305.5164	0.1514
305.7283	0.1479
305.9401	0.1609
306.152	0.1456
306.3638	0.142
306.5756	0.1413
306.7874	0.1489
306.9992	0.1484
307.2109	0.1363
307.4227	0.1215
307.6344	0.1397
307.8462	0.129
308.0579	0.1275
308.2696	0.1282
308.4813	0.1289
308.693	0.1335
308.9046	0.1291
309.1163	0.1183
309.328	0.1231
309.5396	0.1267
309.7512	0.1177
309.9628	0.1068
310.1744	0.1158
310.386	0.1054
310.5976	0.1231
310.8091	0.1112
311.0207	0.1063
311.2322	0.1169
311.4437	0.1108
311.6552	0.1083
311.8667	0.1152
312.0782	0.0957
312.2897	0.0957
312.5012	0.108
312.7126	0.0955
312.924	0.0879
313.1355	0.1018
313.3469	0.0996
313.5583	0.1016
313.7696	0.1075
313.981	0.1062
314.1924	0.0884
314.4037	0.102
314.6151	0.1087
314.8264	0.0987
315.0377	0.0796
315.249	0.0975
315.4603	0.0995
315.6716	0.0887
315.8828	0.0874
316.0941	0.0952
316.3053	0.0867
316.5165	0.0793
316.7277	0.0847
316.9389	0.0905
317.1501	0.0842
317.3613	0.0884
317.5724	0.0753
317.7836	0.0836
317.9947	0.0877
318.2058	0.0826
318.417	0.0806
318.6281	0.0872
318.8391	0.0822
319.0502	0.0922
319.2613	0.0879
319.4723	0.0954
319.6834	0.0932
319.8944	0.0798
320.1054	0.0864
320.3164	0.0915
320.5274	0.0781
320.7383	0.0825
320.9493	0.0876
321.1602	0.0893
321.3712	0.0777
321.5821	0.1
321.793	0.0909
322.0039	0.0904
322.2148	0.0814
322.4257	0.0932
322.6365	0.0947
322.8474	0.0842
323.0582	0.0875
323.269	0.0851
323.4798	0.0914
323.6906	0.088
323.9014	0.0816
324.1122	0.0879
324.3229	0.0887
324.5337	0.0812
324.7444	0.0852
324.9551	0.099
325.1658	0.0973
325.3765	0.0926
325.5872	0.104
325.7979	0.0935
326.0085	0.0988
326.2192	0.092
326.4298	0.0882
326.6404	0.0868
326.851	0.0847
327.0616	0.0873
327.2722	0.0838
327.4828	0.0937
327.6933	0.0971
327.9039	0.0915
328.1144	0.1075
328.3249	0.0957
328.5354	0.0941
328.7459	0.0912
328.9564	0.0789
329.1669	0.0907
329.3773	0.0933
329.5878	0.0835
329.7982	0.0878
330.0086	0.0905
330.219	0.0866
330.4294	0.0892
330.6398	0.0943
330.8502	0.0921
331.0605	0.0966
331.2708	0.1002
331.4812	0.099
331.6915	0.0986
331.9018	0.0964
332.1121	0.0948
332.3224	0.0927
332.5326	0.0994
332.7429	0.0906
332.9531	0.1201
333.1633	0.0943
333.3735	0.0928
333.5837	0.0998
333.7939	0.0894
334.0041	0.1032
334.2143	0.106
334.4244	0.095
334.6346	0.0679
334.8447	0.1024
335.0548	0.0988
335.2649	0.0909
335.475	0.0983
335.685	0.083
335.8951	0.1128
336.1051	0.0956
336.3152	0.1049
336.5252	0.0941
336.7352	0.1039
336.9452	0.0999
337.1552	0.1063
337.3652	0.0985
337.5751	0.0964
337.7851	0.0971
337.995	0.0872
338.2049	0.0988
338.4148	0.0979
338.6247	0.1003
338.8346	0.0914
339.0445	0.1006
339.2543	0.0979
339.4642	0.1123
339.674	0.0954
339.8838	0.1087
340.0936	0.1037
340.3034	0.1282
340.5132	0.1077
340.7229	0.1072
340.9327	0.0991
341.1424	0.0992
341.3522	0.1216
341.5619	0.1029
341.7716	0.1076
341.9813	0.1127
342.1909	0.1073
342.4006	0.1156
342.6102	0.1137
342.8199	0.1183
343.0295	0.1194
343.2391	0.0992
343.4487	0.1233
343.6583	0.1078
343.8679	0.1124
344.0774	0.1171
344.287	0.1195
344.4965	0.1094
344.706	0.1133
344.9155	0.1188
345.125	0.1188
345.3345	0.1263
345.544	0.1158
345.7534	0.1095
345.9629	0.1048
346.1723	0.1197
346.3817	0.113
346.5911	0.117
346.8005	0.1275
347.0099	0.1259
347.2193	0.1203
347.4286	0.1112
347.638	0.1331
347.8473	0.133
348.0566	0.1239
348.2659	0.1196
348.4752	0.1312
348.6845	0.1234
348.8937	0.1259
349.103	0.1327
349.3122	0.1192
349.5214	0.1219
349.7306	0.1367
349.9398	0.1194
350.149	0.121
350.3582	0.1277
350.5674	0.1461
350.7765	0.1367
350.9856	0.1256
351.1948	0.1321
351.4039	0.1178
351.613	0.127
351.822	0.1277
352.0311	0.1415
352.2402	0.1435
352.4492	0.1396
352.6582	0.1465
352.8672	0.1377
353.0762	0.1479
353.2852	0.1412
353.4942	0.1463
353.7032	0.1446
353.9121	0.1412
354.1211	0.1432
354.33	0.1318
354.5389	0.1429
354.7478	0.1458
354.9567	0.1409
355.1655	0.1323
355.3744	0.1465
355.5833	0.154
355.7921	0.1738
356.0009	0.1397
356.2097	0.1604
356.4185	0.1636
356.6273	0.165
356.8361	0.1548
357.0448	0.1526
357.2536	0.1419
357.4623	0.159
357.671	0.1623
357.8797	0.1568
358.0884	0.1702
358.2971	0.1581
358.5057	0.164
358.7144	0.1517
358.923	0.1645
359.1316	0.1578
359.3402	0.1664
359.5488	0.178
359.7574	0.1594
359.966	0.1648
360.1746	0.161
360.3831	0.1779
360.5916	0.1681
360.8002	0.157
361.0087	0.1887
361.2172	0.1804
361.4256	0.1838
361.6341	0.1888
361.8426	0.1596
362.051	0.179
362.2594	0.173
362.4678	0.1762
362.6762	0.2058
362.8846	0.182
363.093	0.1881
363.3014	0.1886
363.5097	0.1718
363.718	0.1816
363.9264	0.1733
364.1347	0.1765
364.343	0.1896
364.5513	0.2069
364.7595	0.1932
364.9678	0.1971
365.176	0.2068
365.3842	0.1877
365.5925	0.1943
365.8007	0.1914
366.0089	0.1994
366.217	0.1957
366.4252	0.2058
366.6333	0.2096
366.8415	0.2032
367.0496	0.186
367.2577	0.2094
367.4658	0.2157
367.6739	0.2093
367.882	0.2118
368.09	0.1926
368.2981	0.2216
368.5061	0.2031
368.7141	0.2161
368.9221	0.2111
369.1301	0.2118
369.3381	0.2027
369.5461	0.2129
369.754	0.2161
369.962	0.2171
370.1699	0.2173
370.3778	0.2315
370.5857	0.2056
370.7936	0.2262
371.0015	0.2088
371.2093	0.2246
371.4172	0.2196
371.625	0.2224
371.8328	0.2182
372.0406	0.2351
372.2484	0.215
372.4562	0.2466
372.664	0.2324
372.8717	0.234
373.0795	0.2064
373.2872	0.2507
373.4949	0.2354
373.7026	0.2319
373.9103	0.2478
374.118	0.2317
374.3256	0.2255
374.5333	0.2246
374.7409	0.2176
374.9485	0.2449
375.1561	0.2521
375.3637	0.2422
375.5713	0.244
375.7789	0.24
375.9864	0.2457
376.194	0.2525
376.4015	0.2645
376.609	0.255
376.8165	0.2412
377.024	0.2336
377.2315	0.2515
377.4389	0.2484
377.6464	0.2557
377.8538	0.2485
378.0612	0.2436
378.2686	0.2552
378.476	0.2611
378.6834	0.2541
378.8908	0.2572
379.0981	0.2594
379.3055	0.258
379.5128	0.2422
379.7201	0.2508
379.9274	0.252
380.1347	0.2596
380.342	0.2826
380.5492	0.2659
380.7565	0.2702
380.9637	0.2613
381.1709	0.2757
381.3781	0.27
381.5853	0.2606
381.7925	0.2699
381.9997	0.2832
382.2068	0.2747
382.4139	0.2753
382.6211	0.2564
382.8282	0.2677
383.0353	0.2809
383.2424	0.2548
383.4494	0.2964
383.6565	0.2769
383.8635	0.2744
384.0706	0.2856
384.2776	0.2821
384.4846	0.259
384.6916	0.247
384.8986	0.2693
385.1055	0.2596
385.3125	0.279
385.5194	0.2546
385.7263	0.2787
385.9333	0.2906
386.1402	0.2735
386.347	0.272
386.5539	0.264
386.7608	0.2954
386.9676	0.241
387.1744	0.2664
387.3813	0.2574
387.5881	0.2723
387.7948	0.2631
388.0016	0.2731
388.2084	0.2745
388.4151	0.26
388.6219	0.2716
388.8286	0.2568
389.0353	0.2844
389.242	0.2636
389.4487	0.2682
389.6553	0.2471
389.862	0.2523
390.0686	0.2519
390.2753	0.2691
390.4819	0.262
390.6885	0.2436
390.8951	0.2586
391.1016	0.2548
391.3082	0.2436
391.5147	0.2601
391.7213	0.2516
391.9278	0.2404
392.1343	0.2569
392.3408	0.2498
392.5473	0.2447
392.7537	0.2433
392.9602	0.2446
393.1666	0.2448
393.373	0.2437
393.5794	0.2487
393.7858	0.2418
393.9922	0.225
394.1986	0.2333
394.4049	0.2337
394.6113	0.24
394.8176	0.2312
395.0239	0.2363
395.2302	0.2284
395.4365	0.2467
395.6428	0.2369
395.8491	0.2205
396.0553	0.2323
396.2615	0.2333
396.4678	0.2443
396.674	0.2148
396.8802	0.2383
397.0863	0.2387
397.2925	0.2198
397.4987	0.2212
397.7048	0.226
397.9109	0.236
398.117	0.206
398.3231	0.2201
398.5292	0.2453
398.7353	0.252
398.9413	0.2377
399.1474	0.2247
399.3534	0.2211
399.5594	0.2139
399.7654	0.2296
399.9714	0.2396
400.1774	0.2237
400.3833	0.2348
400.5893	0.2346
400.7952	0.2343
401.0011	0.2354
401.207	0.2345
401.4129	0.2462
401.6188	0.2283
401.8247	0.2197
402.0305	0.2197
402.2364	0.2278
402.4422	0.239
402.648	0.2341
402.8538	0.2237
403.0596	0.2213
403.2654	0.247
403.4711	0.2214
403.6768	0.2292
403.8826	0.2372
404.0883	0.2503
404.294	0.229
404.4997	0.2251
404.7054	0.2372
404.911	0.2331
405.1167	0.2259
405.3223	0.2371
405.5279	0.2381
405.7335	0.2361
405.9391	0.2384
406.1447	0.2269
406.3502	0.2412
406.5558	0.2198
406.7613	0.2285
406.9668	0.2397
407.1724	0.2317
407.3778	0.2355
407.5833	0.2296
407.7888	0.2252
407.9942	0.2414
408.1997	0.2239
408.4051	0.2192
408.6105	0.2188
408.8159	0.2332
409.0213	0.2241
409.2267	0.2273
409.432	0.2178
409.6374	0.23
409.8427	0.22
410.048	0.2205
410.2533	0.236
410.4586	0.2243
410.6639	0.2023
410.8691	0.2203
411.0744	0.213
411.2796	0.2213
411.4848	0.2348
411.69	0.2232
411.8952	0.2444
412.1004	0.209
412.3056	0.2285
412.5107	0.2136
412.7158	0.2326
412.921	0.2317
413.1261	0.231
413.3312	0.2303
413.5362	0.2148
413.7413	0.2303
413.9464	0.2219
414.1514	0.2154
414.3564	0.2184
414.5614	0.2027
414.7664	0.2212
414.9714	0.2292
415.1764	0.2315
415.3813	0.226
415.5863	0.2321
415.7912	0.2319
415.9961	0.2349
416.201	0.2146
416.4059	0.2199
416.6108	0.203
416.8156	0.2273
417.0205	0.2075
417.2253	0.1994
417.4301	0.2174
417.6349	0.2162
417.8397	0.2125
418.0445	0.2056
418.2492	0.2169
418.454	0.2149
418.6587	0.2242
418.8634	0.2181
419.0681	0.2227
419.2728	0.2215
419.4775	0.205
419.6822	0.2035
419.8868	0.1801
420.0915	0.2153
420.2961	0.1898
420.5007	0.2168
420.7053	0.2155
420.9099	0.2118
421.1144	0.2099
421.319	0.2044
421.5235	0.2149
421.728	0.2051
421.9325	0.2129
422.137	0.2166
422.3415	0.1826
422.546	0.1876
422.7504	0.2209
422.9549	0.2067
423.1593	0.1928
423.3637	0.2258
423.5681	0.1939
423.7725	0.1895
423.9769	0.187
424.1812	0.1925
424.3856	0.193
424.5899	0.1968
424.7942	0.195
424.9985	0.1864
425.2028	0.1965
425.4071	0.206
425.6113	0.1829
425.8156	0.1835
426.0198	0.1845
426.224	0.1797
426.4282	0.1834
426.6324	0.1735
426.8366	0.1871
427.0407	0.172
427.2449	0.1704
427.449	0.1655
427.6531	0.1557
427.8572	0.1652
428.0613	0.1801
428.2654	0.1596
428.4694	0.1653
428.6735	0.179
428.8775	0.1923
429.0815	0.1721
429.2855	0.1526
429.4895	0.1678
429.6935	0.1653
429.8975	0.168
430.1014	0.1584
430.3053	0.1584
430.5093	0.1619
430.7132	0.1414
430.9171	0.1514
431.1209	0.1558
431.3248	0.1499
431.5286	0.1681
431.7325	0.1453
431.9363	0.129
432.1401	0.1433
432.3439	0.151
432.5477	0.1279
432.7514	0.135
432.9552	0.132
433.1589	0.1322
433.3627	0.1315
433.5664	0.142
433.7701	0.1315
433.9737	0.1171
434.1774	0.1075
434.3811	0.1371
434.5847	0.1527
434.7883	0.1302
434.9919	0.1072
435.1955	0.1181
435.3991	0.1204
435.6027	0.1159
435.8062	0.1215
436.0098	0.1001
436.2133	0.1279
436.4168	0.1173
436.6203	0.1028
436.8238	0.112
437.0272	0.1013
437.2307	0.1137
437.4341	0.1134
437.6375	0.1102
437.841	0.1
438.0443	0.1068
438.2477	0.1046
438.4511	0.0883
438.6545	0.1012
438.8578	0.0977
439.0611	0.0765
439.2644	0.0844
439.4677	0.0716
439.671	0.0724
439.8743	0.0906
440.0775	0.0819
440.2808	0.0699
440.484	0.0749
440.6872	0.061
440.8904	0.068
441.0936	0.087
441.2967	0.0812
441.4999	0.0745
441.703	0.0793
441.9062	0.0817
442.1093	0.0733
442.3124	0.0774
442.5155	0.0642
442.7185	0.0652
442.9216	0.0404
443.1246	0.0718
443.3276	0.0646
443.5307	0.0657
443.7337	0.0647
443.9366	0.061
444.1396	0.0585
444.3426	0.0541
444.5455	0.0588
444.7484	0.0688
444.9513	0.0495
445.1542	0.0711
445.3571	0.0426
445.56	0.0611
445.7628	0.0383
445.9657	0.0411
446.1685	0.0565
446.3713	0.0489
446.5741	0.0469
446.7769	0.0442
446.9797	0.038
447.1824	0.0426
447.3852	0.0329
447.5879	0.0477
447.7906	0.0446
447.9933	0.0311
448.196	0.0314
448.3986	0.0506
448.6013	0.0386
448.8039	0.0053
449.0066	0.0257
449.2092	0.0248
449.4118	0.0392
449.6143	0.0362
449.8169	0.0278
450.0195	0.0192
450.222	0.012
450.4245	0.0371
450.627	0.0419
450.8295	0.0211
451.032	0.0201
451.2345	0.0189
451.4369	0.0237
451.6394	0.0252
451.8418	0.0121
452.0442	0.0301
452.2466	0.0213
452.449	0.0128
452.6513	0.0242
452.8537	0.004
453.056	0.0037
453.2583	0.0088
453.4607	0.0084
453.663	0.0083
453.8652	0.0214
454.0675	-0.0019
454.2697	0.0238
454.472	0.0151
454.6742	0.0219
454.8764	0.0229
455.0786	0.0156
455.2808	0.0094
455.4829	0.008
455.6851	0.0282
455.8872	0.0242
456.0893	0.0427
456.2915	0.0062
456.4935	0.0071
456.6956	-0.001
456.8977	0.0144
457.0997	0.0058
457.3018	-0.0067
457.5038	0.0145
457.7058	0.004
457.9078	0.0045
458.1098	0.0163
458.3117	0.0208
458.5137	0.0139
458.7156	0.0105
458.9175	-0.0102
459.1194	0.011
459.3213	0.0021
459.5232	-0.0078
459.725	-0.0168
459.9269	-0.0088
460.1287	-0.0093
460.3305	-0.0025
460.5323	0.0079
460.7341	0.0053
460.9359	-0.0011
461.1376	0.0047
461.3394	-0.0095
461.5411	-0.0064
461.7428	0.0008
461.9445	0.0101
462.1462	0.0244
462.3479	0.0017
462.5495	0.0014
462.7512	0.0112
462.9528	0.011
463.1544	-0.012
463.356	0.0055
463.5576	-0.0004
463.7592	-0.0064
463.9607	0.0092
464.1623	0.0049
464.3638	0.0276
464.5653	-0.0153
464.7668	0.001
464.9683	0.0058
465.1697	0.0114
465.3712	-0.0127
465.5726	-0.0003
465.7741	0.0013
465.9755	-0.0013
466.1769	-0.0072
466.3782	-0.0107
466.5796	-0.0012
466.7809	0.0113
466.9823	-0.0046
467.1836	-0.0018
467.3849	-0.0282
467.5862	0.0092
467.7875	-0.0008
467.9887	0.012
468.19	-0.0058
468.3912	-0.0247
468.5924	0.0056
468.7936	0.0094
468.9948	0.0143
469.196	-0.0036
469.3972	-0.018
469.5983	-0.0079
469.7994	-0.0154
470.0006	-0.0071
470.2017	-0.0172
470.4027	-0.0028
470.6038	-0.0029
470.8049	-0.024
471.0059	-0.003
471.2069	-0.019
471.408	0.009
471.6089	0.0131
471.8099	-0.0118
472.0109	0.007
472.2119	-0.0091
472.4128	-0.0198
472.6137	-0.0053
472.8146	-0.0222
473.0155	-0.0081
473.2164	-0.0179
473.4173	0.0092
473.6181	-0
473.819	0.0056
474.0198	-0.0026
474.2206	-0.0027
474.4214	-0.0087
474.6222	-0.0087
474.8229	-0.0072
475.0237	-0.0258
475.2244	-0.0159
475.4251	-0.0074
475.6258	0.0103
475.8265	-0.0106
476.0272	-0.0022
476.2278	-0.0072
476.4285	-0.0101
476.6291	-0.0065
476.8297	0.0016
477.0303	-0.0196
477.2309	-0.0103
477.4315	-0.0226
477.632	-0.0076
477.8326	-0.0054
478.0331	-0.0014
478.2336	0.0172
478.4341	-0.0033
478.6346	0.0008
478.8351	-0.0095
479.0355	-0.0021
479.236	-0.0047
479.4364	-0.0043
479.6368	-0.0048
479.8372	-0.0155
480.0376	0.0011
480.2379	-0.0404
480.4383	0.0014
480.6386	0.0012
480.8389	-0.0029
481.0392	-0.0089
481.2395	-0.0225
481.4398	0.0001
481.6401	0.0073
481.8403	-0.0094
482.0405	-0.0082
482.2408	0.0024
482.441	-0
482.6411	-0.0062
482.8413	-0.0065
483.0415	-0.0175
483.2416	-0.0201
483.4417	-0.0094
483.6419	-0.0132
483.8419	-0.0088
484.042	0.005
484.2421	-0.0088
484.4422	-0.0061
484.6422	-0.0031
484.8422	-0.0054
485.0422	-0.0163
485.2422	0.0081
485.4422	-0.0136
485.6422	-0.0086
485.8421	-0.0151
486.042	-0.0072
486.242	-0.0053
486.4419	-0.0036
486.6417	-0.0126
486.8416	-0.0085
487.0415	-0.0016
487.2413	-0.0071
487.4411	-0.0098
487.641	-0.0031
487.8408	0.0036
488.0405	-0.0059
488.2403	-0.0083
488.4401	-0.0067
488.6398	0.0012
488.8395	-0.0061
489.0392	0.0028
489.2389	-0.0242
489.4386	-0.0023
489.6383	-0.0045
489.8379	0.0058
490.0376	0.0009
490.2372	-0.0159
490.4368	-0.0128
490.6364	-0.0026
490.836	-0.011
491.0355	-0.0013
491.2351	-0.0136
491.4346	0.0001
491.6341	-0.0149
491.8336	0.0077
492.0331	-0.0215
492.2326	-0.0127
492.432	-0.004
492.6315	-0.0136
492.8309	-0.0095
493.0303	-0.0171
493.2297	-0.0077
493.4291	-0.0048
493.6284	-0.0025
493.8278	0.0028
494.0271	-0.0006
494.2264	0.0059
494.4257	-0.0168
494.625	-0.0091
494.8243	-0.0162
495.0236	-0.0143
495.2228	-0.014
495.422	-0.0012
495.6213	-0.0008
495.8205	-0.0035
496.0196	-0.0054
496.2188	0.0003
496.418	-0.01
496.6171	-0.005
496.8162	-0.0158
497.0153	-0.0023
497.2144	-0.0105
497.4135	-0.0018
497.6126	-0.0129
497.8116	-0.0103
498.0107	0.0033
498.2097	-0.0098
498.4087	-0.0093
498.6077	-0.0077
498.8067	-0.0052
499.0056	0.0053
499.2046	-0.0051
499.4035	-0.0195
499.6024	-0.005
499.8013	0.0003
500.0002	-0.0053
500.199	-0.0102
500.3979	-0.0048
500.5967	-0.0249
500.7956	-0.0053
500.9944	-0.009
501.1932	-0.0091
501.3919	-0.0149
501.5907	-0.0116
501.7895	-0.0112
501.9882	-0.0077
502.1869	-0.0082
502.3856	-0.0178
502.5843	-0.0063
502.783	-0.0103
502.9816	-0.0105
503.1803	-0.0169
503.3789	-0.0143
503.5775	-0.0046
503.7761	-0.0101
503.9747	0.0003
504.1732	-0.0018
504.3718	0.0045
504.5703	-0.0011
504.7689	-0.0121
504.9674	0.0052
505.1658	-0.0097
505.3643	-0.0012
505.5628	-0.0048
505.7612	-0.0135
505.9597	-0.0009
506.1581	-0.0144
506.3565	0.0042
506.5549	-0.0007
506.7532	-0.0183
506.9516	-0.009
507.1499	-0.0069
507.3482	-0.0111
507.5465	-0.0148
507.7448	-0.0036
507.9431	0.0029
508.1414	0.0031
508.3396	-0.0086
508.5379	-0.0083
508.7361	-0.0153
508.9343	-0.0047
509.1325	-0.0078
509.3306	-0.0055
509.5288	-0.0025
509.7269	-0.0119
509.9251	-0.0013
510.1232	-0.019
510.3213	-0.0004
510.5193	0.0009
510.7174	-0.0121
510.9154	-0.0141
511.1135	-0.008
511.3115	-0.0115
511.5095	-0.0046
511.7075	-0.0062
511.9055	-0.0072
512.1034	-0.006
512.3014	-0.0097
512.4993	-0.0032
512.6972	-0.0068
512.8951	-0.0146
513.093	-0.0083
513.2908	-0.0048
513.4887	-0.0004
513.6865	-0.0104
513.8844	-0.0046
514.0822	-0.0017
514.2799	-0.0091
514.4777	-0.0125
514.6755	-0.009
514.8732	-0.0128
515.0709	-0.0064
515.2687	-0.0065
515.4664	0.001
515.664	-0.0044
515.8617	-0.0103
516.0594	-0.0157
516.257	-0.0048
516.4546	-0.0172
516.6522	-0.0022
516.8498	-0.0069
517.0474	-0.0048
517.2449	0.0031
517.4425	-0.0117
517.64	-0.0076
517.8375	0.0002
518.035	-0.0009
518.2325	-0.01
518.43	-0.0104
518.6274	-0.0021
518.8249	-0.0151
519.0223	-0.0001
519.2197	-0.0057
519.4171	-0.0117
519.6145	-0.0137
519.8118	-0.0038
520.0092	-0.0126
520.2065	0.0001
520.4038	-0.0138
520.6011	-0.0106
520.7984	-0.0134
520.9956	-0.012
521.1929	-0.013
521.3901	-0.0022
521.5874	-0
521.7846	-0.0099
521.9818	-0.0146
522.1789	-0.0113
522.3761	-0.0021
522.5732	-0.0085
522.7704	-0.0118
522.9675	-0.0032
523.1646	-0.0101
523.3617	-0.0057
523.5587	0.0024
523.7558	0.0061
523.9528	-0.0099
524.1498	-0.0092
524.3468	-0.0147
524.5438	-0.0033
524.7408	-0.005
524.9378	0.0126
525.1347	-0.0003
525.3316	0.0075
525.5285	-0.0118
525.7254	-0.008
525.9223	-0.0007
526.1192	-0.0091
526.316	-0.0133
526.5129	-0.0017
526.7097	-0.0011
526.9065	-0.0134
527.1033	0.0027
527.3	0.0071
527.4968	-0.0022
527.6935	-0.0028
527.8903	-0.0133
528.087	-0.0072
528.2837	-0.0066
528.4804	-0.0056
528.677	-0.0053
528.8737	0.0036
529.0703	0.0005
529.2669	-0.0109
529.4635	-0.0045
529.6601	-0.0032
529.8567	-0.0079
530.0532	-0.0065
530.2498	0.0014
530.4463	-0.0022
530.6428	0.0019
530.8393	0.0098
531.0358	-0.0148
531.2322	-0.0076
531.4287	-0.004
531.6251	-0.0136
531.8215	0.0067
532.0179	0.0021
532.2143	0.0018
532.4107	-0.0038
532.607	0.0011
532.8034	0.0004
532.9997	0.0009
533.196	-0.0071
533.3923	-0.0101
533.5886	-0.0034
533.7848	-0.0027
533.9811	0.0032
534.1773	-0.0088
534.3735	0.0099
534.5697	-0.0036
534.7659	-0.0081
534.9621	0.0034
535.1582	-0.0007
535.3544	-0.0118
535.5505	-0.0142
535.7466	-0.0045
535.9427	-0.0097
536.1387	-0.0082
536.3348	-0.0106
536.5308	-0.002
536.7269	-0.0071
536.9229	-0.0056
537.1189	0.0006
537.3148	0.0007
537.5108	-0.011
537.7068	0.0061
537.9027	-0.0012
538.0986	-0.002
538.2945	-0.0094
538.4904	-0.0062
538.6863	-0.0085
538.8821	-0.0031
539.078	-0.0076
539.2738	0.0031
539.4696	-0.0063
539.6654	0.0014
539.8611	0.0066
540.0569	-0.0038
540.2526	-0.0081
540.4484	0.002
540.6441	0.0108
540.8398	-0.0098
541.0355	0.0001
541.2311	-0.011
541.4268	-0.015
541.6224	0.0008
541.818	-0.0009
542.0136	-0.01
542.2092	-0.0092
542.4048	-0.005
542.6003	-0.0081
542.7959	0.0034
542.9914	0.0001
543.1869	-0.0028
543.3824	-0.0007
543.5779	-0.0094
543.7734	-0.0039
543.9688	-0.0057
544.1642	-0.0048
544.3596	-0.0067
544.555	-0.0002
544.7504	-0.0037
544.9458	-0.0085
545.1411	-0.0068
545.3365	-0.0011
545.5318	-0.0038
545.7271	-0.007
545.9224	-0.0042
546.1177	-0.0025
546.3129	0.0016
546.5081	-0.0073
546.7034	-0.0027
546.8986	-0.0015
547.0938	-0.0104
547.289	-0.0012
547.4841	-0.008
547.6793	0.0049
547.8744	-0.0087
548.0695	-0.0048
548.2646	-0.0044
548.4597	0.0012
548.6548	-0.004
548.8498	-0.0058
549.0448	0.0052
549.2399	-0.0084
549.4349	0.009
549.6298	0.001
549.8248	0.0031
550.0198	-0.0048
550.2147	-0.0073
550.4096	-0.0168
550.6045	-0.0063
550.7994	0.0011
550.9943	-0.0024
551.1892	-0.0005
551.384	0.007
551.5788	-0.0046
551.7737	-0.001
551.9685	-0.0082
552.1632	0.0031
552.358	-0.0123
552.5528	-0.0002
552.7475	-0.0021
552.9422	0.0047
553.1369	-0.0025
553.3316	0.0041
553.5263	-0.0137
553.7209	0.0016
553.9156	-0.0081
554.1102	-0.0062
554.3048	-0.0015
554.4994	0.0036
554.694	-0.0042
554.8885	0.0026
555.0831	-0.0103
555.2776	-0.004
555.4721	-0.0073
555.6666	-0.0073
555.8611	0.0051
556.0555	0.0019
556.25	-0.0041
556.4444	-0.0095
556.6388	-0.0007
556.8332	-0.0038
557.0276	0.0002
557.222	-0.0052
557.4163	-0.0036
557.6107	-0.0074
557.805	0.0018
557.9993	-0.0036
558.1936	-0.0083
558.3879	-0.0064
558.5821	0.0018
558.7764	-0.0074
558.9706	0.0015
559.1648	0.0027
559.359	-0.0031
559.5532	-0.0045
559.7473	-0.0098
559.9415	0.0043
560.1356	-0.0074
560.3297	-0.0073
560.5238	-0.0057
560.7179	-0.003
560.9119	-0.0001
561.106	-0.0035
561.3	-0.0073
561.494	0.0003
561.688	-0.0026
561.882	-0.0116
562.076	-0.0037
562.2699	0.0071
562.4639	-0.0091
562.6578	0.0039
562.8517	-0.0032
563.0456	0.0001
563.2395	0.0025
563.4333	0.0052
563.6272	-0.0005
563.821	-0.0006
564.0148	-0.0063
564.2086	-0.0031
564.4024	0.0011
564.5961	-0.0054
564.7899	-0.0024
564.9836	0.0055
565.1773	0.0039
565.371	0.01
565.5647	-0.0076
565.7584	0.0031
565.952	0.0024
566.1456	0.0031
566.3393	-0.005
566.5329	-0.0041
566.7264	0.0001
566.92	-0.0007
567.1136	-0.009
567.3071	-0.0066
567.5006	-0.0027
567.6941	-0.0047
567.8876	0.0025
568.0811	-0.0035
568.2745	0.0059
568.468	0.0018
568.6614	-0.0044
568.8548	-0.0035
569.0482	-0.0034
569.2416	0.0002
569.4349	-0.0021
569.6283	0.0059
569.8216	-0.0014
570.0149	0.003
570.2082	0.0045
570.4015	0.0112
570.5947	0.0043
570.788	0.0035
570.9812	0.0005
571.1744	-0.0021
571.3676	-0.0068
571.5608	-0.0015
571.754	0.0007
571.9471	-0.0004
572.1402	0.0062
572.3333	-0.0015
572.5264	-0.0049
572.7195	-0.0014
572.9126	-0.0002
573.1057	0.0043
573.2987	0.0015
573.4917	0.0017
573.6847	-0.0084
573.8777	0.0007
574.0707	0.0124
574.2636	-0.0032
574.4566	-0.0013
574.6495	0.0086
574.8424	-0.0054
575.0353	-0.0052
575.2281	0.0049
575.421	0.0008
575.6138	0.0013
575.8067	-0
575.9995	0.0031
576.1923	0.0039
576.385	-0.0021
576.5778	0.0017
576.7706	-0.0053
576.9633	-0.0035
577.156	0.0009
577.3487	0.0024
577.5414	-0.0013
577.734	-0.003
577.9267	-0.0019
578.1193	-0.0049
578.3119	-0.0059
578.5045	-0.0003
578.6971	-0.0027
578.8897	0.0039
579.0822	-0.002
579.2747	-0.0026
579.4673	-0.0048
579.6598	-0.0052
579.8522	-0.0053
580.0447	-0.0088
580.2372	-0.0066
580.4296	-0.0008
580.622	-0.0002
580.8144	-0.0015
581.0068	-0.0041
581.1992	-0.0115
581.3915	-0.01
581.5839	-0.0087
581.7762	-0.0076
581.9685	-0.006
582.1608	0.0007
582.353	-0.005
582.5453	0.0012
582.7375	-0.0004
582.9298	0.0047
583.122	-0.0023
583.3142	-0.0039
583.5063	-0.0079
583.6985	-0.009
583.8906	0.0011
584.0827	-0.0133
584.2749	0.001
584.4669	0.0025
584.659	-0.0006
584.8511	-0.0058
585.0431	-0.0044
585.2352	0.0012
585.4272	0.0001
585.6192	0.0046
585.8111	-0.0037
586.0031	-0.0006
586.195	-0.0009
586.387	0.0022
586.5789	0.0026
586.7708	0.0009
586.9627	0.0006
587.1545	-0.0044
587.3464	0.0025
587.5382	0.0059
587.73	0.0043
587.9218	0.0083
588.1136	-0.0025
588.3053	0.0095
588.4971	-0.0045
588.6888	-0.0068
588.8805	0.002
589.0722	0.0052
589.2639	-0.0073
589.4556	-0.0024
589.6472	0.0005
589.8389	-0.002
590.0305	-0.0068
590.2221	-0.0001
590.4137	-0.0103
590.6052	0.0031
590.7968	-0.0095
590.9883	0.0015
591.1798	-0.0059
591.3713	-0.0053
591.5628	0.0051
591.7543	0.0036
591.9458	-0.0042
592.1372	0.0019
592.3286	0.0059
592.52	0.0043
592.7114	-0.001
592.9028	-0.0049
593.0941	0.0031
593.2855	-0.0021
593.4768	-0.0077
593.6681	-0.0042
593.8594	-0.0016
594.0506	0.0026
594.2419	0.0029
594.4331	0.0001
594.6244	0.0051
594.8156	-0.0132
595.0067	-0.0019
595.1979	-0.0054
595.3891	0.009
595.5802	-0.0073
595.7713	0.0026
595.9624	-0.0031
596.1535	0.0029
596.3446	-0.0018
596.5357	0.0013
596.7267	0.0107
596.9177	-0.0032
597.1087	0.0004
597.2997	0.0036
597.4907	-0.0003
597.6817	0.0012
597.8726	-0.0009
598.0635	-0.0097
598.2544	-0.0005
598.4453	0.0001
598.6362	-0.0036
598.827	-0.0002
599.0179	0.0029
599.2087	0.0012
599.3995	0.0056
599.5903	-0.0008
599.7811	0.0003
599.9718	-0.0014
600.1626	-0.0053
600.3533	-0.0035
600.544	0.0011
600.7347	-0.0022
600.9254	0.0061
601.116	-0.0094
601.3067	-0.0063
601.4973	-0.0039
601.6879	0.0017
601.8785	-0.0035
602.0691	0.0006
602.2596	0.0066
602.4502	0.0065
602.6407	-0.0014
602.8312	0.0037
603.0217	-0.0088
603.2122	-0.004
603.4027	0.0009
603.5931	-0.0011
603.7835	-0.0021
603.9739	-0.0057
604.1643	-0.002
604.3547	-0.0086
604.5451	-0.0017
604.7354	-0.001
604.9257	0.0002
605.116	-0.0042
605.3063	0.0025
605.4966	0.0027
605.6869	0.0059
605.8771	0.0053
606.0673	0.0052
606.2575	0.0054
606.4477	0.0056
606.6379	0.0025
606.8281	-0.0019
607.0182	-0.0006
607.2083	0.0102
607.3985	-0.0058
607.5885	-0.0073
607.7786	0.0011
607.9687	-0.0074
608.1587	-0.0037
608.3488	0.0013
608.5388	0.003
608.7288	-0.0022
608.9187	-0.0036
609.1087	-0.0109
609.2986	-0.0017
609.4886	-0.0073
609.6785	0.0001
609.8684	-0.0017
610.0582	0.0051
610.2481	-0.0013
610.4379	-0.0062
610.6278	-0.0096
610.8176	-0.0035
611.0074	-0.0046
611.1971	-0.0027
611.3869	0.0022
611.5766	-0.0061
611.7664	0.005
611.9561	0.0028
612.1458	0.0009
612.3354	-0.0005
612.5251	0.0049
612.7147	0.0013
612.9044	0.016
613.094	-0.0044
613.2836	0.0048
613.4731	0.0031
613.6627	-0.0001
613.8522	0.0021
614.0417	0.0042
614.2313	-0.0032
614.4207	-0.0008
614.6102	0.0013
614.7997	0.0002
614.9891	-0.0021
615.1785	-0.0015
615.3679	-0.0016
615.5573	0.0057
615.7467	0.003
615.9361	-0.0021
616.1254	0.0026
616.3147	0.0034
616.504	0.0024
616.6933	0.0089
616.8826	0.0147
617.0718	0.0099
617.2611	0.0062
617.4503	-0.0002
617.6395	0.0062
617.8287	0.0058
618.0179	0.0024
618.207	0.0161
618.3961	0.0027
618.5853	0.0016
618.7744	0.0034
618.9634	0.0063
619.1525	0.0022
619.3416	0.0018
619.5306	-0.0021
619.7196	0.0048
619.9086	-0.0017
620.0976	0.0076
620.2866	-0.0017
620.4755	0.0034
620.6645	0.0046
620.8534	0.0057
621.0423	0.0066
621.2312	0.0082
621.42	0.0053
621.6089	0.0075
621.7977	0.0039
621.9865	-0.0058
622.1753	0.0067
622.3641	-0.0011
622.5529	0.0063
622.7416	0.0109
622.9303	-0.0069
623.1191	0.0053
623.3078	0.0001
623.4964	0.0014
623.6851	-0.0016
623.8737	-0.0024
624.0624	0.002
624.251	-0.0014
624.4396	-0.0024
624.6282	-0.0067
624.8167	0.0009
625.0053	0.0038
625.1938	0.0083
625.3823	-0.0001
625.5708	0.0009
625.7593	-0.0069
625.9477	-0.007
626.1362	-0.0033
626.3246	0.004
626.513	0.0078
626.7014	0.0092
626.8898	0.0014
627.0781	0.0045
627.2665	-0.0017
627.4548	0.0087
627.6431	0.0056
627.8314	0.011
628.0197	0.0028
628.2079	-0.0005
628.3962	-0.0014
628.5844	0.0074
628.7726	0.0094
628.9608	0.0055
629.1489	-0.0028
629.3371	-0.0001
629.5252	-0.0007
629.7134	0.0045
629.9015	-0.0007
630.0895	-0.0002
630.2776	0.0043
630.4657	-0.0003
630.6537	0.0027
630.8417	-0.0009
631.0297	-0.0069
631.2177	0.0011
631.4057	-0.0073
631.5936	0.0072
631.7815	0.0044
631.9695	0.0097
632.1574	0.0072
632.3452	0.0124
632.5331	0.0028
632.7209	0.0004
632.9088	0.0082
633.0966	0.0045
633.2844	0.0004
633.4722	0.0074
633.6599	0.0129
633.8477	0.0065
634.0354	0.0022
634.2231	-0.0037
634.4108	0.0045
634.5985	0.0077
634.7861	0.0046
634.9738	0.0009
635.1614	0.0053
635.349	0.0042
635.5366	-0.0013
635.7242	0.0018
635.9117	-0.0009
636.0993	-0.0023
636.2868	0.0065
636.4743	-0.0016
636.6618	0.0126
636.8492	0.0063
637.0367	0.0061
637.2241	0.0027
637.4115	0.0001
637.5989	0.0034
637.7863	0.0041
637.9737	-0.0024
638.161	0.0038
638.3484	0.0004
638.5357	0.0068
638.723	-0.0013
638.9103	0.0026
639.0975	0.0009
639.2848	0.0047
639.472	0.0063
639.6592	0.0067
639.8464	0.007
640.0336	-0.0008
640.2208	-0.0008
640.4079	-0.0013
640.595	0.0017
640.7821	-0.0013
640.9692	-0.0019
641.1563	0.0086
641.3434	0.0057
641.5304	0.0001
641.7174	0.0062
641.9044	-0.0008
642.0914	0.0042
642.2784	0.0044
642.4653	0.0074
642.6523	0.0074
642.8392	0.0071
643.0261	0.0078
643.213	0.0019
643.3999	-0.0015
643.5867	0.0006
643.7735	0.0063
643.9604	-0.0028
644.1472	0.0053
644.3339	0.0017
644.5207	0.006
644.7075	0.0036
644.8942	0.0082
645.0809	0.0092
645.2676	0.0098
645.4543	-0.0046
645.6409	0.0065
645.8276	0.0046
646.0142	0.003
646.2008	-0.0008
646.3874	-0.0014
646.574	-0.0013
646.7605	0.0041
646.9471	-0.004
647.1336	0.0003
647.3201	-0.0001
647.5066	-0.0013
647.6931	0.0079
647.8795	0.0017
648.0659	0.0102
648.2524	0.0047
648.4388	-0.0104
648.6252	0.0013
648.8115	0.0023
648.9979	-0.0021
649.1842	0.0008
649.3705	0.0046
649.5568	0.0055
649.7431	0.0039
649.9294	0.0013
650.1156	0.0026
650.3018	-0.0071
650.488	0.0058
650.6742	-0.002
650.8604	0.0039
651.0466	-0.0075
651.2327	0.0057
651.4188	0.0045
651.6049	-0.0009
651.791	-0.0018
651.9771	0.0047
652.1632	0.0103
652.3492	0.0045
652.5352	0.0027
652.7212	0.0043
652.9072	0.0055
653.0932	-0.0017
653.2791	0.0001
653.465	0.003
653.651	-0.0043
653.8369	-0.0035
654.0227	-0.0036
654.2086	0.0061
654.3944	0.0077
654.5803	0.0026
654.7661	0.0043
654.9519	-0.001
655.1377	-0.0052
655.3234	0.0017
655.5092	-0.004
655.6949	-0.0062
655.8806	-0.0028
656.0663	-0.0068
656.2519	-0.0014
656.4376	-0.0019
656.6232	0.0007
656.8088	0.0002
656.9945	-0.005
657.18	-0.0009
657.3656	-0.0049
657.5511	-0.0064
657.7367	-0.0061
657.9222	0.0018
658.1077	0.0003
658.2932	0.0026
658.4786	-0.0112
658.6641	-0.0056
658.8495	-0.0016
659.0349	-0.0068
659.2203	0.002
659.4057	0.0004
659.591	0.0014
659.7764	-0.0041
659.9617	0.0043
660.147	0.0066
660.3323	0.0002
660.5176	0.0176
660.7028	0.0039
660.888	0.0021
661.0733	0.0069
661.2585	-0.0009
661.4436	0.0025
661.6288	-0.0016
661.8139	-0.0004
661.9991	0.0028
662.1842	0.0003
662.3693	0.0043
662.5544	-0.0059
662.7394	-0.0037
662.9245	0.0037
663.1095	-0.0037
663.2945	0.0055
663.4795	-0.0036
663.6644	0.0039
663.8494	-0.0021
664.0343	0.0022
664.2193	-0.0043
664.4042	-0.0009
664.589	-0.0106
664.7739	-0.0005
664.9587	-0.0174
665.1436	-0.0003
665.3284	0.0035
665.5132	0.0021
665.698	-0.0006
665.8827	0.0019
666.0675	-0.0058
666.2522	-0.0053
666.4369	0.006
666.6216	0.007
666.8063	-0.0013
666.9909	0.0056
667.1756	0.0004
667.3602	0.0015
667.5448	-0.0028
667.7294	0.0113
667.9139	0.0091
668.0985	0.0106
668.283	0.0116
668.4675	-0.0007
668.652	0.0083
668.8365	0.0032
669.0209	0.0078
669.2054	0.0119
669.3898	0.0039
669.5742	0.0072
669.7586	0.0063
669.943	0.0155
670.1273	0.0148
670.3117	0.0065
670.496	0.0033
670.6803	0.0133
670.8646	0.0071
671.0488	0.0055
671.2331	0.0072
671.4173	0.0039
671.6015	-0.0018
671.7857	0.0056
671.9699	0.0013
672.1541	0.0038
672.3382	0.0016
672.5223	0.0061
672.7064	-0.0005
672.8905	0.003
673.0746	0.0002
673.2587	-0.0032
673.4427	0.002
673.6267	0.0032
673.8107	0.0062
673.9947	0.0053
674.1787	0.0072
674.3626	-0.0007
674.5465	0.0069
674.7304	0.006
674.9143	0.0056
675.0982	0.0119
675.2821	-0.0031
675.4659	0.0025
675.6497	0.0046
675.8335	0.0009
676.0173	0.0097
676.2011	0.0044
676.3849	0
676.5686	-0.0039
676.7523	0.0018
676.936	-0.0002
677.1197	-0.0005
677.3034	-0.0059
677.487	0.0032
677.6706	0.0094
677.8542	0.0055
678.0378	-0.0039
678.2214	0.0021
678.405	0.0026
678.5885	-0.0073
678.772	0.0063
678.9555	-0.0039
679.139	0.0006
679.3225	-0.0048
679.5059	-0.003
679.6894	0.0036
679.8728	-0.0019
680.0562	-0.0089
680.2395	0.0071
680.4229	0.0006
680.6062	0.006
680.7896	-0.0005
680.9729	-0.0005
681.1562	-0.0002
681.3394	0.0089
681.5227	-0.0054
681.7059	-0.0031
681.8891	0.0018
682.0723	0.0117
682.2555	0.0007
682.4387	-0.002
682.6218	-0.0083
682.805	0.0011
682.9881	0.0072
683.1712	0.0023
683.3542	0.0062
683.5373	0.0091
683.7203	-0.0047
683.9034	-0.0007
684.0864	-0.0088
684.2694	0.0052
684.4523	0.0039
684.6353	-0.0036
684.8182	-0.003
685.0011	-0.006
685.184	0.0056
685.3669	0.0068
685.5498	0.0048
685.7326	0.0018
685.9154	-0.0044
686.0982	0.0006
686.281	0.0056
686.4638	0.0012
686.6465	-0.0044
686.8293	-0.0047
687.012	0.0058
687.1947	-0.0069
687.3774	-0.0032
687.56	0.0045
687.7427	0.0073
687.9253	-0.0053
688.1079	0.0043
688.2905	0.012
688.4731	-0.002
688.6556	-0.0005
688.8382	0.0051
689.0207	0.001
689.2032	-0.0107
689.3857	-0.0071
689.5681	-0.0015
689.7506	0.0001
689.933	-0.0046
690.1154	-0.0033
690.2978	-0.0016
690.4802	-0.0026
690.6626	-0.0189
690.8449	-0.0085
691.0272	0.0032
691.2095	-0.0078
691.3918	-0.0102
691.5741	0.0011
691.7563	0.004
691.9386	0.0055
692.1208	-0.005
692.303	0.0014
692.4852	0.002
692.6673	0.007
692.8495	-0.0064
693.0316	-0.0019
693.2137	-0.0008
693.3958	0.0034
693.5778	0.0088
693.7599	0.0038
693.9419	-0.0103
694.1239	0.0041
694.3059	0.0002
694.4879	0.0032
694.6699	0.0081
694.8518	0.003
695.0337	0.0002
695.2157	0.0102
695.3975	-0.0007
695.5794	0.0066
695.7613	0.0069
695.9431	0.0078
696.1249	0.0019
696.3067	0.0064
696.4885	0.0073
696.6703	0.003
696.852	0.0104
697.0337	0.0019
697.2154	0.0013
697.3971	0.003
697.5788	-0.0002
697.7605	-0.0003
697.9421	0.0057
698.1237	0.0054
698.3053	0.0086
698.4869	-0.0016
698.6685	-0.0069
698.85	0.0018
699.0315	0.0041
699.213	0.0044
699.3945	0.0029
699.576	0.0034
699.7575	0.0071
699.9389	0.006
700.1203	-0.0064
700.3017	-0.0102
700.4831	-0.0004
700.6645	0.0026
700.8458	-0.0017
701.0271	-0.0066
701.2084	0.0077
701.3897	-0.0022
701.571	-0.0052
701.7523	0
701.9335	0.0066
702.1147	-0.0028
702.2959	0.0045
702.4771	0.0023
702.6583	0.001
702.8394	-0.0074
703.0205	0.0045
703.2016	-0.0027
703.3827	-0.0013
703.5638	0.0087
703.7449	-0.0032
703.9259	0.0156
704.1069	-0.0028
704.2879	0.0023
704.4689	0.0029
704.6499	-0.0022
704.8308	-0.006
705.0117	0.0077
705.1927	-0.0034
705.3735	-0.0004
705.5544	-0.0078
705.7353	-0.0025
705.9161	-0.004
706.0969	0.0018
706.2777	0.0017
706.4585	-0.0035
706.6393	0.0046
706.82	0.0045
707.0007	-0.004
707.1815	0.0033
707.3621	0.0051
707.5428	-0.0013
707.7235	-0.0056
707.9041	0.0006
708.0847	-0.0086
708.2653	-0.0098
708.4459	-0.0147
708.6265	0.0006
708.807	0.0002
708.9875	-0.0131
709.168	-0.004
709.3485	-0.0106
709.529	-0.0099
709.7095	-0.0058
709.8899	-0.0019
710.0703	-0.012
710.2507	-0.0035
710.4311	0.0006
710.6115	-0.0053
710.7918	-0.0056
710.9721	-0.0009
711.1524	-0.0107
711.3327	-0.0035
711.513	0.0056
711.6932	0.0031
711.8735	0.0153
712.0537	0.0035
712.2339	-0.0056
712.4141	-0.01
712.5942	0.0015
712.7744	0.0029
712.9545	-0.0038
713.1346	-0.0095
713.3147	-0.0047
713.4947	-0.0056
713.6748	-0.0026
713.8548	0.0026
714.0348	0.0035
714.2148	-0.0055
714.3948	-0.0008
714.5748	-0.0076
714.7547	-0.002
714.9346	0.0041
715.1145	-0.0003
715.2944	-0.0034
715.4743	0.0014
715.6541	-0.0065
715.834	-0.0058
716.0138	-0.0025
716.1936	-0.0107
716.3733	-0.0057
716.5531	0.0048
716.7328	-0.0056
716.9126	-0.006
717.0923	0.0086
717.2719	0.001
717.4516	-0.0017
717.6312	0.0058
717.8109	-0.011
717.9905	-0.0015
718.1701	-0.0052
718.3496	-0.0141
718.5292	-0.003
718.7087	-0.0096
718.8882	0.004
719.0677	0.0039
719.2472	-0.0024
719.4267	-0.0022
719.6061	-0.0041
719.7856	0.0042
719.965	0.0049
720.1443	-0.0072
720.3237	0.0057
720.5031	-0.0041
720.6824	0.0003
720.8617	-0.0004
721.041	0.0026
721.2203	0.0076
721.3995	0.0031
721.5788	0.0005
721.758	0.0144
721.9372	-0.0005
722.1164	-0.0014
722.2956	0.0002
722.4747	-0.0013
722.6538	0.0007
722.8329	0.0177
723.012	0.0072
723.1911	-0.0052
723.3702	-0.0079
723.5492	0.0041
723.7282	-0.0066
723.9072	-0.0009
724.0862	-0.0021
724.2652	-0.0059
724.4441	-0.0047
724.623	-0.0068
724.8019	-0.0033
724.9808	0.0013
725.1597	-0.0045
725.3385	0.0133
725.5174	0.0003
725.6962	0.0028
725.875	0.005
726.0538	0.0057
726.2325	-0.0037
726.4112	0.0045
726.59	-0.0078
726.7687	-0.0072
726.9474	0.0031
727.126	0.0031
727.3047	-0.0062
727.4833	-0.0035
727.6619	-0.016
727.8405	-0.0063
728.0191	-0.0044
728.1976	-0.0007
728.3762	-0.0021
728.5547	-0.0013
728.7332	-0.0123
728.9116	-0.0026
729.0901	0.0013
729.2686	-0.0049
729.447	0.0052
729.6254	0.0023
729.8038	-0.0004
729.9821	-0.0029
730.1605	-0.0012
730.3388	-0.0005
730.5171	0.0019
730.6954	-0.0061
730.8737	-0.0002
731.0519	0.0068
731.2302	-0.0061
731.4084	0.0078
731.5866	0.0094
731.7648	-0.004
731.9429	-0.0021
732.1211	-0.0032
732.2992	0.0014
732.4773	-0.0017
732.6554	-0.0028
732.8335	-0.004
733.0115	0.0016
733.1896	-0.0022
733.3676	-0.0068
733.5456	0.004
733.7235	0.009
733.9015	0.0036
734.0794	0.0013
734.2574	-0.0077
734.4353	0.0045
734.6131	0.011
734.791	0.0054
734.9689	-0.0028
735.1467	0.0011
735.3245	-0.0098
735.5023	-0.012
735.68	0.0026
735.8578	0.0141
736.0355	-0.024
736.2132	-0.0086
736.3909	-0.0099
736.5686	-0.0065
736.7463	0.0017
736.9239	-0.0066
737.1015	-0.0063
737.2791	0.0017
737.4567	0.0094
737.6343	-0.0019
737.8118	0.0049
737.9894	0.0078
738.1669	0.0091
738.3444	0.0047
738.5218	-0.0026
738.6993	0.0019
738.8767	0.005
739.0541	0.0086
739.2315	0.0032
739.4089	-0.0034
739.5863	0.0099
739.7636	-0.0003
739.9409	0.0027
740.1182	0.0081
740.2955	0.0059
740.4728	0.0009
740.65	-0.0084
740.8272	-0.0037
741.0044	-0.0072
741.1816	0.0029
741.3588	-0.0002
741.5359	-0.0016
741.7131	-0.0052
741.8902	0.0017
742.0673	0.0035
742.2444	-0.008
742.4214	-0.0158
742.5985	-0.0046
742.7755	0.0006
742.9525	-0.0156
743.1295	0.0049
743.3064	0.0035
743.4834	0.0134
743.6603	0.0017
743.8372	-0.0009
744.0141	0.0144
744.191	0.0067
744.3678	0.0068
744.5446	0.0122
744.7215	0.0032
744.8982	-0.0007
745.075	-0.0029
745.2518	0.0077
745.4285	0.006
745.6052	-0.0026
745.7819	-0.0079
745.9586	-0.0045
746.1353	0.0051
746.3119	-0.0005
746.4885	-0.0027
746.6651	-0.0076
746.8417	-0.0061
747.0183	0.0009
747.1948	-0.0019
747.3714	0.0036
747.5479	0.0048
747.7244	-0.0058
747.9008	0.0125
748.0773	-0.0038
748.2537	-0.0009
748.4301	-0.0043
748.6065	0.0065
748.7829	0.0029
748.9593	-0.0019
749.1356	-0.0019
749.3119	0.0048
749.4882	-0.0146
749.6645	0.0021
749.8408	-0.0073
750.017	-0.0033
750.1933	0.0021
750.3695	-0.0139
750.5457	0.0051
750.7218	-0.0014
750.898	0.0065
751.0741	-0.0025
751.2502	-0.0023
751.4263	-0.0033
751.6024	-0.0052
751.7784	-0.0109
751.9545	-0.0105
752.1305	-0.003
752.3065	-0.0073
752.4825	-0.0007
752.6584	-0.0101
752.8344	-0.0032
753.0103	-0.0135
753.1862	-0.0042
753.3621	-0.0046
753.5379	-0.006
753.7138	-0.0012
753.8896	-0.0062
754.0654	-0.0083
754.2412	0.0078
754.417	-0.0042
754.5927	-0.0053
754.7685	-0.0108
754.9442	0.0033
755.1199	0.0098
755.2956	0.0004
755.4712	0.001
755.6469	0.0057
755.8225	0.0005
755.9981	0.0013
756.1736	0.0093
756.3492	-0.0019
756.5248	-0.0062
756.7003	-0.0002
756.8758	0.0126
757.0513	-0.008
757.2267	-0.004
757.4022	0.0008
757.5776	-0.0049
757.753	0.0024
757.9284	0.0034
758.1038	0.01
758.2791	0.0047
758.4545	-0.0112
758.6298	0.0001
758.8051	0.01
758.9803	-0.0023
759.1556	-0.0034
759.3308	-0.0063
759.506	0.0059
759.6812	0.0054
759.8564	0.0138
760.0316	0.0023
760.2067	0.0088
760.3819	0.0085
760.557	0.017
760.732	0.0058
760.9071	-0.0118
761.0821	0.0031
761.2572	0.0201
761.4322	0.0069
761.6072	-0.0002
761.7821	-0.009
761.9571	0.0074
762.132	0.0005
762.3069	-0.0127
762.4818	-0.0034
762.6567	-0.0032
762.8316	-0.0027
763.0064	-0.014
763.1812	-0.0086
763.356	-0.0101
763.5308	-0.0002
763.7055	-0.0043
763.8803	-0.0088
764.055	-0.0036
764.2297	0.0007
764.4044	-0.0172
764.579	-0.0143
764.7537	-0.0181
764.9283	0.0097
765.1029	-0.0055
765.2775	0.0018
765.4521	-0.0045
765.6266	-0.0066
765.8011	-0.0083
765.9756	0.0036
766.1501	0.002
766.3246	0.0064
766.4991	-0.0003
766.6735	0.0055
766.8479	-0.012
767.0223	0.0077
767.1967	-0.0039
767.371	0.0004
767.5454	-0.0089
767.7197	0.012
767.894	-0.0079
768.0683	-0.0098
768.2425	0.0014
768.4168	-0.0016
768.591	0.0037
768.7652	0.0031
768.9394	-0.0003
769.1135	0.0103
769.2877	0.01
769.4618	0.002
769.6359	0.0004
769.81	0.0069
769.984	-0.0008
770.1581	-0.0063
770.3321	0.004
770.5061	-0.0047
770.6801	-0.0088
770.8541	-0.0027
771.028	0.0008
771.202	-0.017
771.3759	0.0036
771.5498	-0.0122
771.7236	-0.0002
771.8975	0.0027
772.0713	0.0013
772.2451	-0.0058
772.4189	0.0154
772.5927	0.0093
772.7665	0.008
772.9402	-0.0098
773.1139	0.0082
773.2876	-0.0009
773.4613	0.0053
773.635	0.0072
773.8086	-0.008
773.9822	-0.003
774.1558	-0.0011
774.3294	0.0032
774.503	-0.0008
774.6765	0.003
774.8501	-0.0164
775.0236	0.0035
775.1971	-0.0016
775.3705	-0.0026
775.544	0.0021
775.7174	-0.001
775.8908	-0.0095
776.0642	-0.0076
776.2376	0.0042
776.4109	-0.0006
776.5843	-0.0082
776.7576	0.001
776.9309	0.0147
777.1041	0.0147
777.2774	-0.0013
777.4506	-0.0014
777.6238	0.0048
777.797	-0.0049
777.9702	0.0043
778.1434	-0
778.3165	-0.0168
778.4896	-0.0169
778.6627	0.0086
778.8358	-0.0052
779.0089	-0.0104
779.1819	-0.0044
779.3549	0.0054
779.5279	0.012
779.7009	-0.0196
779.8739	0.0005
780.0468	-0.0014
780.2197	0.0023
780.3926	-0.0044
780.5655	-0.0083
780.7384	0.0052
780.9112	-0
781.0841	-0.0046
781.2569	0.0017
781.4297	0.0069
781.6024	0.0172
781.7752	0.01
781.9479	0.0146
782.1206	0.0037
782.2933	-0.0138
782.466	0.0096
782.6386	0.0001
782.8113	-0.0027
782.9839	0.0006
783.1565	0.0144
783.329	-0.0002
783.5016	0.0013
783.6741	0.0102
783.8466	-0.0143
784.0191	0.0169
784.1916	-0.0068
784.3641	0.0006
784.5365	0.0042
784.7089	-0.0044
784.8813	-0.0044
785.0537	-0.0135
785.2261	-0.0041
785.3984	-0.0097
785.5707	-0.0175
785.743	-0.0083
785.9153	-0.0105
786.0876	0.0064
786.2598	-0.0079
786.432	-0.0159
786.6042	-0.0008
786.7764	-0.0144
786.9486	-0.008
787.1207	-0.0161
787.2928	0.0022
787.4649	-0.0071
787.637	-0.0044
787.8091	-0.0151
787.9811	-0.0123
788.1532	-0.0112
788.3252	-0.0067
788.4972	-0.0077
788.6691	-0.0171
788.8411	-0.0026
789.013	-0.0195
789.1849	0.0019
789.3568	-0.0045
789.5287	-0.0024
789.7005	-0.0188
789.8723	-0.0076
790.0442	0.0109
790.2159	-0.0014
790.3877	0.0003
790.5595	-0.0213
790.7312	-0
790.9029	-0.0173
791.0746	-0.0199
791.2463	-0.0048
791.4179	-0.0127
791.5896	-0.0257
791.7612	-0.0088
791.9328	0.0133
792.1044	-0.0225
792.2759	-0.0153
792.4474	-0.0035
792.619	-0.0005
792.7905	0.0009
792.9619	0.0056
793.1334	0.002
793.3048	0.0084
793.4762	0.0003
793.6476	0.0015
793.819	-0.0033
793.9904	0.0095
794.1617	-0.0149
794.333	-0.0013
794.5043	-0.0185
794.6756	-0.0079
794.8469	0.0008
795.0181	-0.0107
795.1893	-0.0068
795.3605	-0.009
795.5317	0.0056
795.7029	-0.0034
795.874	-0.0026
796.0452	-0.0078
796.2163	-0.0046
796.3873	0.0148
796.5584	-0.0056
796.7294	-0.0011
796.9005	0.0089
797.0715	-0.0042
797.2425	-0.0137
797.4134	-0.0161
797.5844	-0.0034
797.7553	-0.0247
797.9262	-0.0031
798.0971	-0.0114
798.2679	0.0032
798.4388	-0.0179
798.6096	-0.0098
798.7804	0.0032
798.9512	-0.0032
799.122	-0.0038
799.2927	0.0027
799.4635	0.0137
799.6342	-0.0048
799.8049	0.0041
799.9755	0.0069
800.1462	0.0007
800.3168	0.0117
800.4874	0.0017
800.658	0.0112
800.8286	0.0096
800.9991	0.0127
801.1696	0.0023
801.3402	0.0116
801.5106	0.002
801.6811	-0.0028
801.8516	0.0094
802.022	-0.0067
802.1924	0.012
802.3628	0.0184
802.5332	0.013
802.7035	0.008
802.8739	0.0113
803.0442	-0.0132
803.2145	0.0134
803.3847	-0.014
803.555	0.0081
803.7252	-0.0173
803.8954	-0.0168
804.0656	-0.0045
804.2358	-0.0007
804.4059	0.0069
804.5761	0.0078
804.7462	0.0041
804.9163	0.0037
805.0864	-0.0237
805.2564	-0.005
805.4264	-0.0133
805.5965	-0.0161
805.7665	-0.0056
805.9364	-0.0113
806.1064	0.0135
806.2763	0.0015
806.4462	0.0108
806.6161	-0.0028
806.786	0.0237
806.9559	-0.0075
807.1257	-0.0017
807.2955	-0.0153
807.4653	-0.0137
807.6351	-0.0134
807.8048	-0.0077
807.9746	0.0081
808.1443	0.0048
808.314	-0.0003
808.4837	0.0117
808.6533	0.0084
808.8229	0.0142
808.9926	0.0084
809.1622	-0.0008
809.3317	-0.0132
809.5013	0.0186
809.6708	0.0002
809.8403	0.0155
810.0098	-0.0026
810.1793	0.0002
810.3488	0.0065
810.5182	-0.013
810.6876	0.0078
810.857	-0.0227
811.0264	0.0145
811.1958	0.0186
811.3651	0.0087
811.5344	-0.0066
811.7037	-0.0078
811.873	-0.0381
812.0422	-0.0034
812.2115	-0.0075
812.3807	-0.0198
812.5499	0.0073
812.7191	-0.0085
812.8882	-0.0208
813.0574	-0.0093
813.2265	-0.03
813.3956	-0.0014
813.5646	-0.0036
813.7337	-0.0018
813.9027	0.0095
814.0718	0.0165
814.2407	0.0172
814.4097	-0.0064
814.5787	-0.0228
814.7476	-0.0288
814.9165	0.0008
815.0854	-0.0062
815.2543	-0.0148
815.4232	-0.0007
815.592	0.0161
815.7608	0.0008
815.9296	0.0062
816.0984	0.0103
816.2671	0.0032
816.4359	-0.0128
816.6046	-0.0041
816.7733	-0.0007
816.942	-0.02
817.1106	-0.0093
817.2793	0.0082
817.4479	0.0015
817.6165	0.0033
817.785	-0.0116
817.9536	-0.0046
818.1221	-0.0086
818.2906	0.0077
818.4591	0.0049
818.6276	-0.013
818.7961	0.0073
818.9645	0.0231
819.1329	0.0107
819.3013	0.0363
819.4697	0.0414
819.638	-0.0214
819.8064	0.0205
819.9747	0.0152
820.143	0.0054
820.3113	0.004
820.4795	-0.0042
820.6477	0.0072
820.816	-0.0307
820.9842	-0.0173
821.1523	-0.004
821.3205	-0.0272
821.4886	-0.015
821.6567	0.0007
821.8248	-0.0079
821.9929	0.0329
822.1609	-0.0083
822.329	0.0156
822.497	0.0271
822.665	-0.0216
822.833	-0.01
823.0009	0.0067
823.1688	-0.0004
823.3367	0.0207
823.5046	0.0215
823.6725	0.0141
823.8404	0.0184
824.0082	-0.0036
824.176	0.0234
824.3438	0.01
824.5116	0.0192
824.6793	0.0288
824.847	-0.0151
825.0147	-0.0106
825.1824	0.0262
825.3501	-0.0063
825.5177	-0.0041
825.6854	-0.0115
825.853	-0.003
826.0206	-0.032
826.1881	0.0095
826.3557	-0.0513
826.5232	0.0052
826.6907	-0.0125
826.8582	-0.0019
827.0257	-0.0083
827.1931	-0.0143
827.3605	-0.022
827.528	0.0046
827.6953	-0.0302
827.8627	-0.0079
828.03	0.0246
828.1974	-0.0126
828.3647	-0.0108
828.532	-0.0151
828.6992	0.0024
828.8665	-0.0156
829.0337	-0.0061
829.2009	0.024
829.3681	-0.0062
829.5352	0.029
829.7024	-0.0246
829.8695	-0.0345
830.0366	0.0228
830.2037	-0.0001
830.3707	0.0175
830.5378	-0.0199
830.7048	0.0182
830.8718	-0.03
831.0388	-0.0164
831.2057	0.0102
831.3727	0.0267
831.5396	0.0245
831.7065	-0.0142
831.8734	-0.0081
832.0402	-0.0238
832.2071	-0.0035
832.3739	-0.0286
832.5407	0.009
832.7075	0.0204
832.8742	0.0005
833.041	-0.0347
833.2077	0.0054
833.3744	0.01
833.541	-0.023
833.7077	-0.0014
833.8743	-0.0413
834.0409	-0.0227
834.2075	-0.0051
834.3741	0.0011
834.5407	0.0254
834.7072	-0.0052
834.8737	0.0113
835.0402	-0.0015
835.2067	0.0177
835.3731	0.0321
835.5395	0.0276
835.706	0.0321
835.8723	-0.0072
836.0387	0.0033
836.2051	-0.0456
836.3714	-0.0234
836.5377	-0.0103
836.704	-0.0422
836.8703	-0.0153
837.0365	-0.0066
837.2027	-0.0279
837.3689	0.0107
837.5351	-0.0076
837.7013	-0.0618
837.8674	-0.0613
838.0335	-0.0644
838.1997	-0.0285
838.3657	-0.0381
838.5318	0.0028
838.6978	0.0145
838.8639	-0.0023
839.0299	-0.0293
839.1958	0.0134
839.3618	-0.0275
839.5277	0.03
839.6937	-0.0211
839.8596	0.0165
840.0254	0.0167
840.1913	0.0552
840.3571	-0.037
840.523	-0.0177
840.6888	0.0008
840.8545	-0.0254
841.0203	-0.0148
841.186	0.0085
841.3517	0.0343
841.5174	0.0141
841.6831	-0.002
841.8488	-0.0064
842.0144	0.0119
842.18	-0.0141
842.3456	-0.0212
842.5112	-0.0032
842.6767	-0.0673
842.8422	-0.0674
843.0077	-0.0271
843.1732	-0.0649
843.3387	-0.0114
843.5042	-0.0424
843.6696	0.0469
843.835	-0.0472
844.0004	0.0726
844.1657	0.011
844.3311	-0.0433
844.4964	-0.1306
844.6617	-0.0623
844.827	-0.0628
844.9923	0.0079
845.1575	0.0168
845.3227	0.0033
845.4879	-0.0358
845.6531	-0.0981
845.8183	-0.074
845.9834	-0.0574
846.1485	0.0164
846.3136	-0.0516
846.4787	-0.1422
846.6438	0.0332
846.8088	-0.0629
846.9738	-0.0457
847.1388	-0.0406
847.3038	-0.0851
847.4687	-0.1725
847.6337	0.132
847.7986	0.0011
847.9635	0.0398
848.1284	-0.0189
848.2932	0.0091
848.458	-0.0664
848.6228	0.0528
848.7876	0.0917
848.9524	-0.0845
849.1172	-0.0606
849.2819	0.0183
849.4466	-0.0647
849.6113	-0.1158
849.7759	-0.0312
849.9406	-0.1022
850.1052	0.0514
850.2698	-0.0384
850.4344	-0.0251
850.599	-0.03
850.7635	0.0251
850.928	-0.0971
851.0925	-0.0209
851.257	0.0503
851.4215	0.0028
851.5859	-0.0217
851.7503	-0.037
851.9147	0.0097
852.0791	-0.0885
852.2434	-0.0207
852.4078	-0.0322
852.5721	0.0212
852.7364	-0.0503
852.9007	-0.2167
853.0649	-0.0521
853.2291	0.0497
853.3934	-0.0358
853.5575	0.0229
853.7217	-0.1203
853.8859	-0.2844
854.05	-0.0929
854.2141	-0.0329
854.3782	-0.0636
854.5423	-0.0935
854.7063	0.1456
854.8703	0.0461
855.0343	0.009
855.1983	-0.0784
855.3623	0.1614
855.5262	0.0135
855.6901	0.0045
855.854	0.0017
856.0179	0.0903
856.1818	0.2083
856.3456	-0.0516
856.5094	-0.1385
856.6732	-0.149
856.837	-0.0149
857.0008	0.0797
857.1645	-0.0065
857.3282	-0.1157
857.4919	0.0573
857.6556	0.0467
857.8192	-0.0673
857.9828	-0.0252
858.1465	0.0667
858.31	-0.0009
858.4736	-0.0592
858.6372	-0.0961
858.8007	-0.2446
858.9642	-0.0835
859.1277	-0.0998
859.2911	0.2808
859.4546	-0.1173
859.618	-0.4422
859.7814	-0.0801
859.9448	0.0747
860.1081	0.288
860.2715	0.0659
860.4348	0.047
860.5981	-0.1978
860.7614	0.0089
860.9246	-0.1038
861.0879	-0.0632
861.2511	0.0803
861.4143	-0.0513
861.5774	0.0323
861.7406	-0.0668
861.9037	0.0197
862.0668	0.1481
862.2299	-0.0223
862.393	-0.5763
862.556	-0.1063
862.7191	-0.2175
862.8821	-0.224
863.0451	0.3038
863.208	0.0969
863.371	0.0772
863.5339	-0.213
863.6968	-0.1422
863.8597	-0.0747
864.0225	-0.2338
864.1854	-0.2433
864.3482	-0.0253
864.511	0.137
864.6737	-0.1155
864.8365	-0.1402
864.9992	-0
865.1619	-0.5237
865.3246	-0.3858
865.4873	-0.1013
865.65	-0.4497
865.8126	0.0665
865.9752	-0.0322
866.1378	-0.2364
866.3004	-0.2333
866.4629	0.1149
866.6254	-0.203
866.7879	0.0385
866.9504	-0
867.1129	-0
867.2753	0.4074
867.4377	0.0639
867.6001	-0.2502
867.7625	-0.0597
867.9249	-0.301
868.0872	-0.1935
868.2495	0.1652
868.4118	0.013
868.5741	-0.59
868.7363	-0.0954
868.8986	-0.2764
869.0608	-0.2302
869.223	0.2839
869.3851	0.2287
869.5473	0.2722
869.7094	0.0642
869.8715	-0.4377
870.0336	-0
870.1957	-0.6771
870.3577	-0.6746
870.5197	-0.1649
870.6817	-0.2101
870.8437	-0.2806
871.0057	-0
871.1676	-0.1178
871.3295	-0.3674
871.4914	0.12
871.6533	-0.3677
871.8151	-0.1204
871.977	-0
872.1388	-0
872.3006	0.8865
872.4623	0.0046
872.6241	-0.1127
872.7858	-0
872.9475	-0.0629
873.1092	-0.1011
873.2709	-0.1037
873.4325	-0
873.5941	-0
873.7557	0.3237
873.9173	-0
874.0789	-0.618
874.2404	-0
874.4019	0.7376
874.5634	-0.2248
874.7249	-0.353
874.8863	-0.248
875.0478	0.0326
875.2092	-0
875.3706	0.4887
875.5319	-1.0298
875.6933	0.1636
875.8546	-0.3833
876.0159	-0
876.1772	-0
876.3385	-0
876.4997	0.6134
876.6609	-0.5038
876.8221	-0.1316
876.9833	1.3324
877.1445	-0
877.3056	0.0172
877.4667	-0.4217
877.6278	-0
877.7889	-0.8255
877.9499	-0
878.111	-0.8225
878.272	-0
878.433	-0
878.5939	-0
878.7549	-0.002
878.9158	-0.7391
879.0767	0.339
879.2376	-0
879.3984	-0.1972
879.5593	-0
879.7201	-0.0474
879.8809	-0.6195
880.0417	-0.058
880.2024	-0.0142
880.3632	-1.2805
880.5239	0.3302
880.6846	0.6128
880.8452	-2.5289
881.0059	-0
881.1665	0.1802
881.3271	-0.115
881.4877	-0.6195
881.6483	-0.5909
881.8088	-0.2347
881.9693	-0
882.1298	-0
882.2903	-0
