Data from MonoPyChalIsomerACN10uM440nmA_Absorbance_15-27-13-994.txt Node
Date: Fri Jul 05 15:27:13 BST 2024
User: LASERRRRR
Spectrometer: FLMT03099
Trigger mode: 0
Integration Time (sec): 1.000000E-1
Scans to average: 1
Electric dark correction enabled: true
Nonlinearity correction enabled: false
Boxcar width: 0
XAxis mode: Wavelengths
Number of Pixels in Spectrum: 3648
>>>>>Begin Spectral Data<<<<<
179.3399	-0.2246
179.5586	-0.2246
179.7771	-0.2246
179.9957	0.7477
180.2143	0.243
180.4329	-0.2393
180.6514	-0
180.8699	-0
181.0885	0.3498
181.307	0.134
181.5255	-0.7931
181.744	-0
181.9625	-0
182.181	-0
182.3994	0.1742
182.6179	-0
182.8363	0.6085
183.0547	-0
183.2732	-0.1141
183.4916	0.1366
183.71	0.2092
183.9284	0.0887
184.1467	0.0801
184.3651	-0.153
184.5835	0.0817
184.8018	0.0387
185.0201	0.4103
185.2385	-0.0812
185.4568	0.1675
185.6751	0.2562
185.8934	0.2321
186.1117	-0.0056
186.3299	0.1284
186.5482	0.1905
186.7664	-0.0996
186.9847	-0.0771
187.2029	0.065
187.4211	0.0932
187.6393	0.3387
187.8575	-0.003
188.0757	0.3274
188.2939	0.1468
188.512	0.3244
188.7302	-0.0256
188.9483	-0.0396
189.1665	0.1675
189.3846	0.1978
189.6027	0.0569
189.8208	0.2707
190.0389	0.1067
190.257	0.2074
190.475	0.1013
190.6931	0.468
190.9111	0.2489
191.1292	0.1711
191.3472	0.3107
191.5652	0.3824
191.7832	0.2675
192.0012	0.4753
192.2192	0.4791
192.4371	0.4738
192.6551	0.2865
192.873	0.4803
193.091	0.3426
193.3089	0.6296
193.5268	0.4564
193.7447	0.6141
193.9626	0.4862
194.1805	0.631
194.3984	0.8253
194.6162	0.5432
194.8341	0.6075
195.0519	0.5756
195.2697	0.6304
195.4875	0.6452
195.7054	0.6904
195.9231	0.4642
196.1409	0.7805
196.3587	0.7145
196.5765	0.6034
196.7942	0.5296
197.012	0.42
197.2297	0.5777
197.4474	0.6586
197.6651	0.6547
197.8828	0.6701
198.1005	0.6062
198.3182	0.688
198.5358	0.6778
198.7535	0.6167
198.9711	0.5831
199.1888	0.6872
199.4064	0.6607
199.624	0.5363
199.8416	0.5648
200.0592	0.5538
200.2767	0.6357
200.4943	0.6963
200.7119	0.8242
200.9294	0.7255
201.1469	0.5771
201.3645	0.5141
201.582	0.5258
201.7995	0.5628
202.017	0.7471
202.2344	0.6892
202.4519	0.724
202.6694	0.689
202.8868	0.6244
203.1042	0.8743
203.3217	0.7245
203.5391	0.6659
203.7565	0.6558
203.9739	0.6462
204.1913	0.6671
204.4086	0.6644
204.626	0.7425
204.8433	0.6858
205.0607	0.5976
205.278	0.6778
205.4953	0.6535
205.7126	0.6209
205.9299	0.766
206.1472	0.7799
206.3644	0.6246
206.5817	0.7305
206.7989	0.8374
207.0162	0.6663
207.2334	0.6474
207.4506	0.6265
207.6678	0.6517
207.885	0.6293
208.1022	0.6535
208.3194	0.6277
208.5365	0.6246
208.7537	0.6858
208.9708	0.6642
209.1879	0.6442
209.405	0.7054
209.6222	0.6695
209.8392	0.6338
210.0563	0.5574
210.2734	0.6858
210.4905	0.5493
210.7075	0.6783
210.9245	0.6351
211.1416	0.7131
211.3586	0.661
211.5756	0.6302
211.7926	0.625
212.0096	0.5789
212.2265	0.5552
212.4435	0.6105
212.6604	0.6366
212.8774	0.5703
213.0943	0.6159
213.3112	0.5651
213.5281	0.5627
213.745	0.5223
213.9619	0.5099
214.1788	0.4898
214.3956	0.4937
214.6125	0.5009
214.8293	0.4395
215.0461	0.4824
215.2629	0.4769
215.4798	0.456
215.6965	0.4456
215.9133	0.4592
216.1301	0.4289
216.3469	0.4467
216.5636	0.4257
216.7803	0.4111
216.9971	0.3972
217.2138	0.3965
217.4305	0.3555
217.6472	0.3519
217.8639	0.3914
218.0805	0.3515
218.2972	0.3343
218.5138	0.306
218.7305	0.3429
218.9471	0.2967
219.1637	0.3096
219.3803	0.3001
219.5969	0.2867
219.8135	0.2691
220.0301	0.2817
220.2466	0.2839
220.4632	0.2474
220.6797	0.2221
220.8962	0.2514
221.1127	0.238
221.3292	0.2521
221.5457	0.24
221.7622	0.2371
221.9787	0.229
222.1951	0.2363
222.4116	0.2443
222.628	0.2356
222.8444	0.266
223.0608	0.2493
223.2772	0.2626
223.4936	0.2772
223.71	0.2356
223.9264	0.2751
224.1427	0.2564
224.3591	0.2354
224.5754	0.2569
224.7917	0.2616
225.008	0.2615
225.2243	0.2643
225.4406	0.3099
225.6569	0.2727
225.8732	0.2688
226.0894	0.2632
226.3057	0.2491
226.5219	0.278
226.7381	0.2632
226.9543	0.2755
227.1705	0.2848
227.3867	0.273
227.6029	0.3009
227.8191	0.2848
228.0352	0.3009
228.2513	0.3032
228.4675	0.2996
228.6836	0.301
228.8997	0.2893
229.1158	0.3038
229.3319	0.3002
229.548	0.3003
229.764	0.3323
229.9801	0.3249
230.1961	0.3225
230.4121	0.3122
230.6282	0.3272
230.8442	0.3013
231.0602	0.3237
231.2761	0.3527
231.4921	0.3524
231.7081	0.3458
231.924	0.3568
232.14	0.3618
232.3559	0.3436
232.5718	0.3691
232.7877	0.3695
233.0036	0.346
233.2195	0.3609
233.4353	0.3653
233.6512	0.3722
233.867	0.3536
234.0829	0.3653
234.2987	0.364
234.5145	0.3761
234.7303	0.3552
234.9461	0.3785
235.1619	0.3693
235.3776	0.3813
235.5934	0.3916
235.8091	0.3659
236.0249	0.3703
236.2406	0.373
236.4563	0.376
236.672	0.3885
236.8877	0.3969
237.1034	0.3839
237.319	0.4048
237.5347	0.4098
237.7503	0.3856
237.966	0.4197
238.1816	0.4064
238.3972	0.402
238.6128	0.392
238.8284	0.4163
239.0439	0.3967
239.2595	0.4094
239.475	0.3953
239.6906	0.4281
239.9061	0.3983
240.1216	0.4155
240.3371	0.3937
240.5526	0.3885
240.7681	0.4031
240.9836	0.3857
241.199	0.3999
241.4145	0.393
241.6299	0.3794
241.8453	0.373
242.0607	0.387
242.2761	0.3727
242.4915	0.3624
242.7069	0.3742
242.9223	0.3574
243.1376	0.3508
243.353	0.3456
243.5683	0.3419
243.7836	0.3358
243.9989	0.325
244.2142	0.3112
244.4295	0.3132
244.6448	0.3269
244.86	0.3089
245.0753	0.292
245.2905	0.2826
245.5057	0.2845
245.721	0.2752
245.9362	0.2664
246.1514	0.2666
246.3665	0.2522
246.5817	0.2612
246.7969	0.2577
247.012	0.2496
247.2271	0.2455
247.4423	0.2499
247.6574	0.2453
247.8725	0.2358
248.0876	0.2269
248.3026	0.2156
248.5177	0.2149
248.7328	0.2129
248.9478	0.2119
249.1628	0.2015
249.3779	0.2103
249.5929	0.205
249.8079	0.2018
250.0228	0.1941
250.2378	0.2041
250.4528	0.1948
250.6677	0.1844
250.8827	0.1965
251.0976	0.1973
251.3125	0.1905
251.5274	0.1678
251.7423	0.1845
251.9572	0.1904
252.172	0.1837
252.3869	0.1868
252.6017	0.1732
252.8166	0.1753
253.0314	0.181
253.2462	0.1614
253.461	0.1732
253.6758	0.1624
253.8906	0.184
254.1053	0.1783
254.3201	0.1695
254.5348	0.1698
254.7496	0.175
254.9643	0.1727
255.179	0.164
255.3937	0.1633
255.6083	0.1778
255.823	0.1702
256.0377	0.1564
256.2523	0.17
256.467	0.1499
256.6816	0.1731
256.8962	0.1692
257.1108	0.1609
257.3254	0.1772
257.54	0.1522
257.7545	0.1743
257.9691	0.1649
258.1836	0.1627
258.3981	0.1963
258.6127	0.1772
258.8272	0.1614
259.0417	0.1603
259.2561	0.1515
259.4706	0.1593
259.6851	0.1683
259.8995	0.1531
260.114	0.1583
260.3284	0.1792
260.5428	0.1555
260.7572	0.1846
260.9716	0.1708
261.186	0.1623
261.4003	0.1632
261.6147	0.159
261.829	0.167
262.0433	0.1489
262.2577	0.167
262.472	0.1636
262.6863	0.1656
262.9005	0.1716
263.1148	0.1694
263.3291	0.1392
263.5433	0.156
263.7576	0.1573
263.9718	0.1627
264.186	0.164
264.4002	0.1726
264.6144	0.1547
264.8286	0.1605
265.0427	0.1598
265.2569	0.1612
265.471	0.1648
265.6851	0.1542
265.8993	0.1617
266.1134	0.151
266.3275	0.1591
266.5415	0.1585
266.7556	0.1686
266.9697	0.164
267.1837	0.1511
267.3978	0.1664
267.6118	0.1689
267.8258	0.1713
268.0398	0.1459
268.2538	0.1639
268.4677	0.1657
268.6817	0.1505
268.8957	0.1557
269.1096	0.1752
269.3235	0.1617
269.5374	0.1619
269.7514	0.1492
269.9652	0.1543
270.1791	0.1593
270.393	0.1527
270.6068	0.1532
270.8207	0.1416
271.0345	0.135
271.2483	0.1478
271.4622	0.1365
271.676	0.1568
271.8897	0.1438
272.1035	0.1432
272.3173	0.1486
272.531	0.1504
272.7448	0.1376
272.9585	0.141
273.1722	0.1475
273.3859	0.1471
273.5996	0.1352
273.8133	0.1418
274.0269	0.1397
274.2406	0.1223
274.4542	0.1456
274.6679	0.1335
274.8815	0.1493
275.0951	0.1389
275.3087	0.155
275.5223	0.1524
275.7358	0.1388
275.9494	0.152
276.1629	0.1301
276.3765	0.14
276.59	0.1384
276.8035	0.1474
277.017	0.1478
277.2305	0.144
277.444	0.1546
277.6574	0.1405
277.8709	0.1459
278.0843	0.1466
278.2978	0.1404
278.5112	0.1371
278.7246	0.1412
278.938	0.1543
279.1513	0.1389
279.3647	0.1498
279.5781	0.146
279.7914	0.1397
280.0047	0.1583
280.2181	0.1511
280.4314	0.1507
280.6447	0.1571
280.8579	0.1473
281.0712	0.1456
281.2845	0.1527
281.4977	0.1487
281.711	0.1298
281.9242	0.146
282.1374	0.1472
282.3506	0.1522
282.5638	0.1468
282.7769	0.1597
282.9901	0.1621
283.2033	0.1577
283.4164	0.1633
283.6295	0.1483
283.8426	0.137
284.0557	0.1544
284.2688	0.1702
284.4819	0.1609
284.695	0.1378
284.908	0.1676
285.1211	0.1522
285.3341	0.1559
285.5471	0.1637
285.7601	0.1512
285.9731	0.151
286.1861	0.1423
286.3991	0.1615
286.612	0.1658
286.825	0.1591
287.0379	0.1681
287.2508	0.1658
287.4637	0.1605
287.6766	0.1473
287.8895	0.176
288.1024	0.1742
288.3152	0.1707
288.5281	0.1513
288.7409	0.1582
288.9538	0.158
289.1666	0.1587
289.3794	0.1638
289.5922	0.1561
289.8049	0.1687
290.0177	0.1555
290.2304	0.1511
290.4432	0.1623
290.6559	0.1623
290.8686	0.1617
291.0813	0.173
291.294	0.1552
291.5067	0.174
291.7194	0.1591
291.932	0.1746
292.1447	0.1633
292.3573	0.1622
292.5699	0.1646
292.7825	0.173
292.9951	0.1608
293.2077	0.1582
293.4203	0.1637
293.6328	0.1569
293.8454	0.1687
294.0579	0.166
294.2704	0.1654
294.4829	0.153
294.6954	0.1677
294.9079	0.1642
295.1204	0.1565
295.3328	0.1567
295.5453	0.1639
295.7577	0.1581
295.9701	0.1486
296.1825	0.1631
296.3949	0.1657
296.6073	0.1583
296.8197	0.1546
297.0321	0.1697
297.2444	0.1471
297.4567	0.1602
297.6691	0.1614
297.8814	0.1594
298.0937	0.1616
298.306	0.1655
298.5182	0.1592
298.7305	0.1655
298.9428	0.1545
299.155	0.1682
299.3672	0.1543
299.5794	0.1595
299.7916	0.1523
300.0038	0.1644
300.216	0.1653
300.4282	0.1698
300.6403	0.1643
300.8525	0.1635
301.0646	0.1537
301.2767	0.165
301.4888	0.1584
301.7009	0.1624
301.913	0.1541
302.125	0.1682
302.3371	0.1642
302.5491	0.1561
302.7612	0.1538
302.9732	0.1621
303.1852	0.1647
303.3972	0.1628
303.6092	0.1565
303.8211	0.1426
304.0331	0.1483
304.245	0.1513
304.457	0.1433
304.6689	0.1532
304.8808	0.1554
305.0927	0.15
305.3046	0.1451
305.5164	0.1541
305.7283	0.1488
305.9401	0.1527
306.152	0.1433
306.3638	0.1607
306.5756	0.144
306.7874	0.1469
306.9992	0.1528
307.2109	0.1465
307.4227	0.131
307.6344	0.143
307.8462	0.1295
308.0579	0.1311
308.2696	0.1318
308.4813	0.1259
308.693	0.1247
308.9046	0.1337
309.1163	0.1254
309.328	0.1354
309.5396	0.1144
309.7512	0.1201
309.9628	0.112
310.1744	0.1244
310.386	0.1187
310.5976	0.1192
310.8091	0.1158
311.0207	0.1115
311.2322	0.1259
311.4437	0.1156
311.6552	0.1152
311.8667	0.1123
312.0782	0.095
312.2897	0.1018
312.5012	0.1166
312.7126	0.1014
312.924	0.1013
313.1355	0.1137
313.3469	0.1068
313.5583	0.116
313.7696	0.1031
313.981	0.1172
314.1924	0.1065
314.4037	0.1014
314.6151	0.105
314.8264	0.0951
315.0377	0.1019
315.249	0.0997
315.4603	0.1047
315.6716	0.0927
315.8828	0.092
316.0941	0.1044
316.3053	0.0989
316.5165	0.0925
316.7277	0.094
316.9389	0.1051
317.1501	0.0916
317.3613	0.0989
317.5724	0.0814
317.7836	0.1025
317.9947	0.0991
318.2058	0.0955
318.417	0.0849
318.6281	0.09
318.8391	0.0909
319.0502	0.1018
319.2613	0.1089
319.4723	0.1051
319.6834	0.0948
319.8944	0.0812
320.1054	0.1009
320.3164	0.1009
320.5274	0.0958
320.7383	0.0917
320.9493	0.0982
321.1602	0.107
321.3712	0.0909
321.5821	0.0913
321.793	0.1072
322.0039	0.0962
322.2148	0.0958
322.4257	0.0968
322.6365	0.1012
322.8474	0.1089
323.0582	0.0959
323.269	0.1028
323.4798	0.1074
323.6906	0.1062
323.9014	0.0949
324.1122	0.0884
324.3229	0.1004
324.5337	0.0868
324.7444	0.081
324.9551	0.119
325.1658	0.1006
325.3765	0.1058
325.5872	0.1025
325.7979	0.1028
326.0085	0.108
326.2192	0.11
326.4298	0.1086
326.6404	0.096
326.851	0.0979
327.0616	0.0986
327.2722	0.1029
327.4828	0.1039
327.6933	0.0903
327.9039	0.102
328.1144	0.1094
328.3249	0.0961
328.5354	0.101
328.7459	0.0867
328.9564	0.0944
329.1669	0.1072
329.3773	0.0971
329.5878	0.1079
329.7982	0.1031
330.0086	0.0971
330.219	0.1091
330.4294	0.0997
330.6398	0.1086
330.8502	0.1048
331.0605	0.101
331.2708	0.1089
331.4812	0.1041
331.6915	0.1063
331.9018	0.1096
332.1121	0.1019
332.3224	0.1114
332.5326	0.1046
332.7429	0.0943
332.9531	0.1215
333.1633	0.1115
333.3735	0.1087
333.5837	0.1008
333.7939	0.1084
334.0041	0.1232
334.2143	0.106
334.4244	0.1052
334.6346	0.0952
334.8447	0.1184
335.0548	0.1035
335.2649	0.097
335.475	0.1163
335.685	0.0993
335.8951	0.1006
336.1051	0.106
336.3152	0.1122
336.5252	0.1007
336.7352	0.1244
336.9452	0.117
337.1552	0.1097
337.3652	0.1147
337.5751	0.1048
337.7851	0.1079
337.995	0.1069
338.2049	0.1193
338.4148	0.1176
338.6247	0.1162
338.8346	0.1192
339.0445	0.1137
339.2543	0.113
339.4642	0.1097
339.674	0.103
339.8838	0.1138
340.0936	0.1164
340.3034	0.1301
340.5132	0.1252
340.7229	0.1162
340.9327	0.1141
341.1424	0.1232
341.3522	0.1276
341.5619	0.1193
341.7716	0.1204
341.9813	0.1261
342.1909	0.1218
342.4006	0.1223
342.6102	0.1285
342.8199	0.1209
343.0295	0.1208
343.2391	0.1231
343.4487	0.1321
343.6583	0.1101
343.8679	0.1299
344.0774	0.1349
344.287	0.1248
344.4965	0.1202
344.706	0.1214
344.9155	0.1277
345.125	0.1422
345.3345	0.1278
345.544	0.1267
345.7534	0.1227
345.9629	0.1189
346.1723	0.126
346.3817	0.1201
346.5911	0.1238
346.8005	0.1303
347.0099	0.1198
347.2193	0.1355
347.4286	0.1214
347.638	0.1415
347.8473	0.1337
348.0566	0.1284
348.2659	0.1445
348.4752	0.1405
348.6845	0.1248
348.8937	0.14
349.103	0.1435
349.3122	0.1248
349.5214	0.1249
349.7306	0.1398
349.9398	0.1368
350.149	0.1487
350.3582	0.1385
350.5674	0.1459
350.7765	0.1294
350.9856	0.1213
351.1948	0.15
351.4039	0.1216
351.613	0.1234
351.822	0.1401
352.0311	0.1528
352.2402	0.1415
352.4492	0.1433
352.6582	0.1389
352.8672	0.1465
353.0762	0.1397
353.2852	0.144
353.4942	0.1404
353.7032	0.1589
353.9121	0.1582
354.1211	0.1538
354.33	0.1578
354.5389	0.1562
354.7478	0.169
354.9567	0.1545
355.1655	0.1488
355.3744	0.1426
355.5833	0.1531
355.7921	0.1627
356.0009	0.1354
356.2097	0.1715
356.4185	0.1671
356.6273	0.173
356.8361	0.1584
357.0448	0.1461
357.2536	0.1425
357.4623	0.1556
357.671	0.1683
357.8797	0.168
358.0884	0.1642
358.2971	0.1728
358.5057	0.1829
358.7144	0.1845
358.923	0.1723
359.1316	0.1754
359.3402	0.1684
359.5488	0.1713
359.7574	0.1666
359.966	0.1701
360.1746	0.177
360.3831	0.1841
360.5916	0.1887
360.8002	0.1645
361.0087	0.189
361.2172	0.1789
361.4256	0.1761
361.6341	0.1864
361.8426	0.1748
362.051	0.1774
362.2594	0.1866
362.4678	0.1804
362.6762	0.2087
362.8846	0.1868
363.093	0.1887
363.3014	0.1846
363.5097	0.1674
363.718	0.1765
363.9264	0.1728
364.1347	0.1833
364.343	0.1978
364.5513	0.2134
364.7595	0.2002
364.9678	0.1969
365.176	0.2095
365.3842	0.1899
365.5925	0.1902
365.8007	0.1941
366.0089	0.1971
366.217	0.185
366.4252	0.19
366.6333	0.2064
366.8415	0.2007
367.0496	0.1991
367.2577	0.2212
367.4658	0.2032
367.6739	0.2215
367.882	0.2217
368.09	0.1925
368.2981	0.2039
368.5061	0.2061
368.7141	0.2054
368.9221	0.2334
369.1301	0.2005
369.3381	0.2042
369.5461	0.2019
369.754	0.2225
369.962	0.2314
370.1699	0.2111
370.3778	0.2272
370.5857	0.2007
370.7936	0.214
371.0015	0.2129
371.2093	0.2311
371.4172	0.2191
371.625	0.2124
371.8328	0.2214
372.0406	0.225
372.2484	0.2207
372.4562	0.2215
372.664	0.2029
372.8717	0.2296
373.0795	0.1983
373.2872	0.2321
373.4949	0.2285
373.7026	0.219
373.9103	0.2242
374.118	0.2466
374.3256	0.2363
374.5333	0.2198
374.7409	0.2263
374.9485	0.2407
375.1561	0.2227
375.3637	0.2347
375.5713	0.2296
375.7789	0.2281
375.9864	0.2263
376.194	0.2331
376.4015	0.2479
376.609	0.2501
376.8165	0.2402
377.024	0.238
377.2315	0.2407
377.4389	0.2439
377.6464	0.2478
377.8538	0.2384
378.0612	0.2394
378.2686	0.2464
378.476	0.2578
378.6834	0.2301
378.8908	0.2569
379.0981	0.249
379.3055	0.2601
379.5128	0.2516
379.7201	0.2534
379.9274	0.2461
380.1347	0.2495
380.342	0.2609
380.5492	0.2465
380.7565	0.2532
380.9637	0.242
381.1709	0.2477
381.3781	0.2324
381.5853	0.2509
381.7925	0.2428
381.9997	0.2628
382.2068	0.2687
382.4139	0.2625
382.6211	0.2666
382.8282	0.2614
383.0353	0.2398
383.2424	0.2536
383.4494	0.2564
383.6565	0.2502
383.8635	0.2516
384.0706	0.2488
384.2776	0.2639
384.4846	0.2445
384.6916	0.2613
384.8986	0.2418
385.1055	0.2615
385.3125	0.2541
385.5194	0.2393
385.7263	0.2642
385.9333	0.2566
386.1402	0.249
386.347	0.257
386.5539	0.2422
386.7608	0.2797
386.9676	0.2286
387.1744	0.2466
387.3813	0.2635
387.5881	0.2458
387.7948	0.2419
388.0016	0.237
388.2084	0.2534
388.4151	0.2434
388.6219	0.246
388.8286	0.2698
389.0353	0.2741
389.242	0.2524
389.4487	0.2478
389.6553	0.2399
389.862	0.243
390.0686	0.241
390.2753	0.2543
390.4819	0.253
390.6885	0.2418
390.8951	0.2485
391.1016	0.2509
391.3082	0.249
391.5147	0.2463
391.7213	0.2344
391.9278	0.2313
392.1343	0.2377
392.3408	0.2337
392.5473	0.241
392.7537	0.2257
392.9602	0.219
393.1666	0.2413
393.373	0.236
393.5794	0.2374
393.7858	0.2539
393.9922	0.2195
394.1986	0.2301
394.4049	0.209
394.6113	0.2329
394.8176	0.2108
395.0239	0.2251
395.2302	0.2058
395.4365	0.2346
395.6428	0.2249
395.8491	0.223
396.0553	0.2131
396.2615	0.2186
396.4678	0.2228
396.674	0.2003
396.8802	0.2178
397.0863	0.2292
397.2925	0.2127
397.4987	0.2029
397.7048	0.2144
397.9109	0.2162
398.117	0.2065
398.3231	0.217
398.5292	0.2332
398.7353	0.2333
398.9413	0.217
399.1474	0.2263
399.3534	0.2107
399.5594	0.2077
399.7654	0.2162
399.9714	0.2185
400.1774	0.2087
400.3833	0.2137
400.5893	0.2075
400.7952	0.2098
401.0011	0.2101
401.207	0.225
401.4129	0.2026
401.6188	0.2265
401.8247	0.2168
402.0305	0.2035
402.2364	0.2117
402.4422	0.2272
402.648	0.2116
402.8538	0.2255
403.0596	0.2039
403.2654	0.2129
403.4711	0.2035
403.6768	0.2173
403.8826	0.224
404.0883	0.2222
404.294	0.2415
404.4997	0.2137
404.7054	0.2111
404.911	0.1997
405.1167	0.2191
405.3223	0.2217
405.5279	0.2305
405.7335	0.2325
405.9391	0.2106
406.1447	0.2196
406.3502	0.2439
406.5558	0.2236
406.7613	0.2215
406.9668	0.2254
407.1724	0.1948
407.3778	0.193
407.5833	0.2001
407.7888	0.2114
407.9942	0.2215
408.1997	0.2103
408.4051	0.2169
408.6105	0.2034
408.8159	0.2079
409.0213	0.203
409.2267	0.2151
409.432	0.2063
409.6374	0.2205
409.8427	0.2072
410.048	0.2194
410.2533	0.1905
410.4586	0.2084
410.6639	0.1989
410.8691	0.1766
411.0744	0.1971
411.2796	0.1891
411.4848	0.2037
411.69	0.2054
411.8952	0.209
412.1004	0.1977
412.3056	0.2344
412.5107	0.215
412.7158	0.2396
412.921	0.1996
413.1261	0.2083
413.3312	0.2059
413.5362	0.1953
413.7413	0.1961
413.9464	0.2231
414.1514	0.2046
414.3564	0.2115
414.5614	0.1944
414.7664	0.2026
414.9714	0.2088
415.1764	0.2002
415.3813	0.2063
415.5863	0.1936
415.7912	0.1967
415.9961	0.2226
416.201	0.2042
416.4059	0.2121
416.6108	0.1918
416.8156	0.2124
417.0205	0.2047
417.2253	0.216
417.4301	0.2128
417.6349	0.2115
417.8397	0.1942
418.0445	0.209
418.2492	0.2046
418.454	0.2013
418.6587	0.2151
418.8634	0.1868
419.0681	0.1718
419.2728	0.1886
419.4775	0.1976
419.6822	0.2006
419.8868	0.1714
420.0915	0.1952
420.2961	0.181
420.5007	0.1672
420.7053	0.1933
420.9099	0.1869
421.1144	0.1897
421.319	0.1833
421.5235	0.205
421.728	0.1852
421.9325	0.1858
422.137	0.1937
422.3415	0.1805
422.546	0.1821
422.7504	0.1731
422.9549	0.1831
423.1593	0.1817
423.3637	0.1942
423.5681	0.1791
423.7725	0.1736
423.9769	0.1862
424.1812	0.1924
424.3856	0.1951
424.5899	0.1724
424.7942	0.1825
424.9985	0.1727
425.2028	0.1698
425.4071	0.1962
425.6113	0.1596
425.8156	0.1755
426.0198	0.187
426.224	0.1588
426.4282	0.1692
426.6324	0.1781
426.8366	0.1831
427.0407	0.1559
427.2449	0.1533
427.449	0.1512
427.6531	0.1378
427.8572	0.1512
428.0613	0.1654
428.2654	0.1514
428.4694	0.1509
428.6735	0.1643
428.8775	0.1615
429.0815	0.1574
429.2855	0.1586
429.4895	0.1576
429.6935	0.1378
429.8975	0.1555
430.1014	0.1437
430.3053	0.126
430.5093	0.1326
430.7132	0.1265
430.9171	0.1444
431.1209	0.1528
431.3248	0.1442
431.5286	0.1387
431.7325	0.143
431.9363	0.1307
432.1401	0.1291
432.3439	0.1284
432.5477	0.106
432.7514	0.1188
432.9552	0.132
433.1589	0.1138
433.3627	0.1151
433.5664	0.127
433.7701	0.1127
433.9737	0.1175
434.1774	0.0954
434.3811	0.1278
434.5847	0.1264
434.7883	0.119
434.9919	0.1015
435.1955	0.0994
435.3991	0.1042
435.6027	0.1082
435.8062	0.1
436.0098	0.0976
436.2133	0.1102
436.4168	0.0956
436.6203	0.0896
436.8238	0.1068
437.0272	0.1076
437.2307	0.1058
437.4341	0.1212
437.6375	0.0946
437.841	0.0954
438.0443	0.0844
438.2477	0.0985
438.4511	0.0905
438.6545	0.1015
438.8578	0.1025
439.0611	0.0896
439.2644	0.0739
439.4677	0.0852
439.671	0.0733
439.8743	0.0859
440.0775	0.0722
440.2808	0.071
440.484	0.0749
440.6872	0.0513
440.8904	0.07
441.0936	0.0855
441.2967	0.0736
441.4999	0.0748
441.703	0.0662
441.9062	0.0661
442.1093	0.0679
442.3124	0.077
442.5155	0.0546
442.7185	0.0543
442.9216	0.053
443.1246	0.0669
443.3276	0.057
443.5307	0.0548
443.7337	0.0739
443.9366	0.0628
444.1396	0.0551
444.3426	0.048
444.5455	0.0464
444.7484	0.0518
444.9513	0.0515
445.1542	0.0531
445.3571	0.0539
445.56	0.0611
445.7628	0.0365
445.9657	0.0556
446.1685	0.0545
446.3713	0.047
446.5741	0.0528
446.7769	0.0445
446.9797	0.0603
447.1824	0.0467
447.3852	0.0297
447.5879	0.0514
447.7906	0.061
447.9933	0.0326
448.196	0.0296
448.3986	0.0422
448.6013	0.0323
448.8039	0.0198
449.0066	0.0384
449.2092	0.0402
449.4118	0.0371
449.6143	0.0314
449.8169	0.0248
450.0195	0.0281
450.222	0.0092
450.4245	0.026
450.627	0.0332
450.8295	0.0343
451.032	0.0275
451.2345	0.0159
451.4369	0.0168
451.6394	0.0365
451.8418	0.0159
452.0442	0.0204
452.2466	0.0451
452.449	0.0159
452.6513	0.0271
452.8537	0.0231
453.056	0.0138
453.2583	0.0243
453.4607	0.0058
453.663	0.0157
453.8652	0.0216
454.0675	0.0136
454.2697	0.0262
454.472	0.0055
454.6742	0.0246
454.8764	0.0216
455.0786	0.0197
455.2808	0.0134
455.4829	0.0154
455.6851	0.0167
455.8872	0.0164
456.0893	0.0275
456.2915	-0.0067
456.4935	0.0208
456.6956	0.0093
456.8977	0.0212
457.0997	0.0124
457.3018	-0.0004
457.5038	0.0253
457.7058	0.0052
457.9078	0.0112
458.1098	0.0212
458.3117	0.007
458.5137	0.0144
458.7156	0.0111
458.9175	-0.0067
459.1194	0.0017
459.3213	0.021
459.5232	-0.0027
459.725	-0.0008
459.9269	0.0067
460.1287	-0.0021
460.3305	0.013
460.5323	0.0075
460.7341	0.0064
460.9359	0.0085
461.1376	0.0084
461.3394	-0.0032
461.5411	0.0099
461.7428	0.0013
461.9445	0.0233
462.1462	0.0178
462.3479	-0.0001
462.5495	-0.0075
462.7512	0.0153
462.9528	-0.0004
463.1544	-0.0072
463.356	0.0148
463.5576	0.0166
463.7592	-0.0053
463.9607	0.0238
464.1623	0.0102
464.3638	0.0067
464.5653	-0.0089
464.7668	0.0032
464.9683	0.0113
465.1697	0.015
465.3712	-0.0023
465.5726	-0.0028
465.7741	0.0051
465.9755	-0.0016
466.1769	-0.0046
466.3782	0.0098
466.5796	-0.003
466.7809	0.0168
466.9823	-0.0045
467.1836	-0.007
467.3849	-0.011
467.5862	0.0144
467.7875	0.0046
467.9887	0.01
468.19	0.0054
468.3912	-0.0065
468.5924	-0.0038
468.7936	0.0012
468.9948	0.0024
469.196	0.0069
469.3972	0.0017
469.5983	0.0013
469.7994	-0.0153
470.0006	0.0071
470.2017	-0.0197
470.4027	-0.0101
470.6038	0.007
470.8049	-0.0015
471.0059	0.0011
471.2069	-0.0274
471.408	-0.0022
471.6089	-0.0009
471.8099	-0.0058
472.0109	0.0118
472.2119	0.0002
472.4128	-0.0208
472.6137	0.0059
472.8146	-0.0164
473.0155	-0.0138
473.2164	0.0058
473.4173	0.0227
473.6181	0.006
473.819	0.0022
474.0198	0.0011
474.2206	0.0059
474.4214	-0.0001
474.6222	0.0019
474.8229	-0.0058
475.0237	-0.0001
475.2244	0.0024
475.4251	0.0041
475.6258	0.0017
475.8265	0.009
476.0272	0.0107
476.2278	0.001
476.4285	-0.0103
476.6291	-0.0028
476.8297	0.0048
477.0303	0.0025
477.2309	-0.0039
477.4315	-0.0135
477.632	-0.0051
477.8326	-0.0099
478.0331	-0.0056
478.2336	0.0024
478.4341	-0.0113
478.6346	-0.0018
478.8351	0.0039
479.0355	0.0022
479.236	-0.011
479.4364	-0.0043
479.6368	0.004
479.8372	-0.0156
480.0376	-0.0001
480.2379	-0.0112
480.4383	-0.0062
480.6386	0.0066
480.8389	0.0031
481.0392	0.0026
481.2395	-0.0061
481.4398	0.0063
481.6401	0.0023
481.8403	-0.0057
482.0405	-0.0077
482.2408	-0.0041
482.441	0.0012
482.6411	0.0008
482.8413	-0.0103
483.0415	-0.0111
483.2416	-0.0021
483.4417	-0.0018
483.6419	-0.0029
483.8419	-0.0055
484.042	0.0049
484.2421	0.0017
484.4422	-0.0029
484.6422	-0.0014
484.8422	-0.0059
485.0422	-0.0071
485.2422	0.005
485.4422	-0.0066
485.6422	-0.0103
485.8421	-0.0102
486.042	-0.0047
486.242	-0.0031
486.4419	0.001
486.6417	-0.0101
486.8416	-0.0052
487.0415	-0.0092
487.2413	-0.0039
487.4411	-0.0029
487.641	-0.0113
487.8408	0.0079
488.0405	-0.0039
488.2403	-0.0054
488.4401	0.0037
488.6398	-0.0044
488.8395	-0.0041
489.0392	0.0044
489.2389	0.0011
489.4386	-0.0083
489.6383	0.0031
489.8379	0.0008
490.0376	0.0034
490.2372	-0.0216
490.4368	-0.0013
490.6364	0.0031
490.836	-0.0087
491.0355	-0.0038
491.2351	-0.0085
491.4346	-0.0052
491.6341	-0.0096
491.8336	-0.0035
492.0331	-0.0092
492.2326	-0.0102
492.432	0.0083
492.6315	-0.0058
492.8309	-0.0164
493.0303	-0.0074
493.2297	-0.0116
493.4291	-0.002
493.6284	-0.0071
493.8278	-0.0046
494.0271	0.0019
494.2264	0.0005
494.4257	-0.0162
494.625	-0.0068
494.8243	-0.0054
495.0236	-0.0071
495.2228	-0.0037
495.422	0.0012
495.6213	-0.0022
495.8205	-0.0002
496.0196	-0.0019
496.2188	0.0041
496.418	-0.0072
496.6171	-0.0062
496.8162	-0.0062
497.0153	0.008
497.2144	-0.0027
497.4135	-0.0023
497.6126	-0.0034
497.8116	-0.0052
498.0107	0.0034
498.2097	-0.0119
498.4087	-0.008
498.6077	0.0011
498.8067	-0.0091
499.0056	0.0108
499.2046	-0.001
499.4035	-0.0221
499.6024	0.0048
499.8013	-0.0005
500.0002	-0.0023
500.199	-0.0082
500.3979	-0.0157
500.5967	-0.0215
500.7956	0.0017
500.9944	0.0037
501.1932	-0.0147
501.3919	-0.0063
501.5907	-0.0085
501.7895	0.0031
501.9882	-0.0071
502.1869	-0.0014
502.3856	-0.0043
502.5843	-0.0064
502.783	-0.0015
502.9816	-0.0022
503.1803	-0.0154
503.3789	-0.0035
503.5775	0.0027
503.7761	-0.0113
503.9747	0.0071
504.1732	-0.0024
504.3718	-0.0046
504.5703	-0.0101
504.7689	-0.0137
504.9674	-0.0073
505.1658	-0.0057
505.3643	-0.0174
505.5628	-0.011
505.7612	-0.0063
505.9597	0.0106
506.1581	-0.0032
506.3565	0.0124
506.5549	-0.0056
506.7532	-0.0101
506.9516	0.0001
507.1499	0.0024
507.3482	-0.0012
507.5465	0.0014
507.7448	-0.0033
507.9431	0.0001
508.1414	0.0001
508.3396	0.0035
508.5379	0.0045
508.7361	-0.0016
508.9343	-0.0013
509.1325	0.0003
509.3306	-0.0034
509.5288	0.0004
509.7269	-0.0108
509.9251	-0.0073
510.1232	-0.0043
510.3213	0.0007
510.5193	0.0073
510.7174	-0.0101
510.9154	-0.0124
511.1135	-0.0041
511.3115	-0.0115
511.5095	-0.0086
511.7075	-0.0161
511.9055	-0.0057
512.1034	-0.0078
512.3014	-0.0021
512.4993	0.0151
512.6972	0.0003
512.8951	-0.0117
513.093	-0.0038
513.2908	-0.0088
513.4887	0.0008
513.6865	-0.0096
513.8844	-0.0041
514.0822	-0.0121
514.2799	-0.0002
514.4777	-0.008
514.6755	-0.0048
514.8732	-0.0084
515.0709	0.0006
515.2687	-0.0034
515.4664	0.0089
515.664	0.0012
515.8617	-0.0016
516.0594	-0.0157
516.257	0.0037
516.4546	-0.0021
516.6522	0.0041
516.8498	-0.0072
517.0474	0.0089
517.2449	0.0084
517.4425	-0.0136
517.64	-0.0156
517.8375	0.0038
518.035	0.0062
518.2325	-0.0077
518.43	0.0053
518.6274	-0.001
518.8249	-0.009
519.0223	0.0024
519.2197	0.0045
519.4171	0.0041
519.6145	-0.0074
519.8118	0.002
520.0092	-0.0067
520.2065	-0.0143
520.4038	-0.0057
520.6011	0.0005
520.7984	-0.0152
520.9956	-0.0017
521.1929	0.0015
521.3901	0.005
521.5874	0.0053
521.7846	-0.0046
521.9818	-0.0053
522.1789	0.0006
522.3761	-0.0013
522.5732	-0.004
522.7704	0.0105
522.9675	-0.0004
523.1646	-0.0041
523.3617	-0.0048
523.5587	0.0076
523.7558	0.0064
523.9528	-0.0003
524.1498	0.0013
524.3468	-0.0015
524.5438	-0.0084
524.7408	-0.0042
524.9378	0.0064
525.1347	-0.0055
525.3316	0.0014
525.5285	0.0034
525.7254	0.0011
525.9223	0.0026
526.1192	-0.0041
526.316	-0.0127
526.5129	-0.0028
526.7097	0.0002
526.9065	-0.0017
527.1033	-0.0068
527.3	0.0005
527.4968	0.0018
527.6935	0.0038
527.8903	-0.0044
528.087	0.0031
528.2837	0.0006
528.4804	0.0016
528.677	-0.003
528.8737	0.0112
529.0703	0.0049
529.2669	0.0033
529.4635	-0.0092
529.6601	-0.0022
529.8567	-0.0011
530.0532	-0.0205
530.2498	0.0026
530.4463	0.0083
530.6428	-0.0017
530.8393	0.0152
531.0358	-0.0034
531.2322	-0.0045
531.4287	0.0023
531.6251	-0.0051
531.8215	0.0099
532.0179	0.0008
532.2143	0.0155
532.4107	0.003
532.607	0.0011
532.8034	0.0056
532.9997	0.0042
533.196	0.0006
533.3923	-0.0015
533.5886	0.0126
533.7848	0.0076
533.9811	-0.0018
534.1773	-0.0018
534.3735	0.0009
534.5697	-0.0097
534.7659	0.0039
534.9621	0.0058
535.1582	-0.0038
535.3544	0.001
535.5505	-0.0087
535.7466	0.0004
535.9427	-0.0021
536.1387	-0.001
536.3348	0.0048
536.5308	0.0065
536.7269	-0.0123
536.9229	0.0079
537.1189	-0.0058
537.3148	0.0012
537.5108	0.0006
537.7068	0.0014
537.9027	0.007
538.0986	0.0013
538.2945	-0.0084
538.4904	-0.0059
538.6863	-0.0034
538.8821	0.0022
539.078	0.0035
539.2738	0.0002
539.4696	-0.0157
539.6654	0.0042
539.8611	0.0062
540.0569	0.0004
540.2526	-0.0077
540.4484	-0.0059
540.6441	0.0119
540.8398	0.001
541.0355	-0.0011
541.2311	-0.004
541.4268	-0.01
541.6224	-0.0003
541.818	0.002
542.0136	0.0036
542.2092	-0.0009
542.4048	0.0017
542.6003	0.0042
542.7959	-0.0058
542.9914	0.0044
543.1869	0.0053
543.3824	0.0031
543.5779	-0.01
543.7734	0.0002
543.9688	-0.0055
544.1642	0.0069
544.3596	0.0021
544.555	0.002
544.7504	0.0053
544.9458	-0.013
545.1411	0.0062
545.3365	0.0091
545.5318	0.0048
545.7271	-0.0063
545.9224	-0.0037
546.1177	0.0011
546.3129	-0.0041
546.5081	-0.0003
546.7034	-0.0006
546.8986	-0.0053
547.0938	-0.0003
547.289	-0.001
547.4841	0.0043
547.6793	0.0133
547.8744	0.0003
548.0695	0.0023
548.2646	-0.0049
548.4597	-0.0002
548.6548	-0.0006
548.8498	0.0105
549.0448	-0.0033
549.2399	-0.0037
549.4349	0.015
549.6298	0.0142
549.8248	-0.0051
550.0198	-0.0022
550.2147	-0
550.4096	-0.0052
550.6045	0.0028
550.7994	0.0063
550.9943	0.0016
551.1892	-0.0002
551.384	0.0149
551.5788	-0.0056
551.7737	-0.0008
551.9685	-0
552.1632	0.0073
552.358	0.0024
552.5528	0.0025
552.7475	-0.0059
552.9422	-0.006
553.1369	0.0052
553.3316	0.0051
553.5263	-0.006
553.7209	0.0038
553.9156	-0.0112
554.1102	-0.003
554.3048	0.0023
554.4994	0.0024
554.694	-0.0103
554.8885	-0.0012
555.0831	-0.0022
555.2776	-0.0074
555.4721	-0.0037
555.6666	-0.006
555.8611	0.005
556.0555	-0.0026
556.25	-0.0021
556.4444	-0.0098
556.6388	0.0135
556.8332	-0.0058
557.0276	0.0005
557.222	-0.0042
557.4163	-0.0079
557.6107	-0.0058
557.805	0.0107
557.9993	-0.0061
558.1936	0.0039
558.3879	0.0056
558.5821	0.0043
558.7764	0.0025
558.9706	-0.0022
559.1648	-0.0067
559.359	-0.002
559.5532	-0.0008
559.7473	0.007
559.9415	0.0074
560.1356	-0.0029
560.3297	-0.0038
560.5238	0.0018
560.7179	-0.0047
560.9119	-0.0045
561.106	-0.0051
561.3	0.0054
561.494	-0.0036
561.688	0.0064
561.882	-0.0073
562.076	-0.0029
562.2699	0.0059
562.4639	0.0055
562.6578	0.004
562.8517	0.0003
563.0456	0.0077
563.2395	0.0066
563.4333	0.0055
563.6272	0.0157
563.821	0.0011
564.0148	-0.005
564.2086	-0.0068
564.4024	-0.0049
564.5961	-0.0022
564.7899	0.0052
564.9836	-0.0067
565.1773	-0.0015
565.371	0.0117
565.5647	-0.0002
565.7584	0.0019
565.952	0.0027
566.1456	0.0049
566.3393	-0.0028
566.5329	-0.0019
566.7264	-0.0033
566.92	-0.0068
567.1136	0.0153
567.3071	-0.0022
567.5006	0.0055
567.6941	0.0071
567.8876	0.0067
568.0811	-0.0008
568.2745	0
568.468	0.0104
568.6614	0.0036
568.8548	0.0015
569.0482	0.0003
569.2416	0.004
569.4349	0.0106
569.6283	0.0082
569.8216	0.0024
570.0149	-0.0048
570.2082	0.009
570.4015	0.0126
570.5947	0.0036
570.788	0.0054
570.9812	0.0085
571.1744	0.0073
571.3676	-0.012
571.5608	-0.0035
571.754	-0.0018
571.9471	0.0059
572.1402	0.0081
572.3333	0.0024
572.5264	0.004
572.7195	-0.0052
572.9126	0.0084
573.1057	-0.0023
573.2987	0.0012
573.4917	0.0008
573.6847	-0.0035
573.8777	0.0086
574.0707	0.0052
574.2636	-0.0037
574.4566	0.0045
574.6495	0.0044
574.8424	-0.0036
575.0353	0.0022
575.2281	0.0127
575.421	0.0062
575.6138	0.0074
575.8067	0.0058
575.9995	0.0039
576.1923	0.0081
576.385	0.0044
576.5778	0.0012
576.7706	0.0037
576.9633	0.0029
577.156	0.0057
577.3487	0.0036
577.5414	0.0038
577.734	-0.0032
577.9267	0.0052
578.1193	-0.0058
578.3119	-0.0001
578.5045	-0.0044
578.6971	0.0034
578.8897	0.0067
579.0822	0.0046
579.2747	-0.0007
579.4673	0.0006
579.6598	-0.0084
579.8522	0.0014
580.0447	0.0002
580.2372	0.0003
580.4296	0.0091
580.622	0.0052
580.8144	0.0054
581.0068	-0.0016
581.1992	-0.0058
581.3915	-0.0054
581.5839	-0.0064
581.7762	-0.0053
581.9685	0.0048
582.1608	0.0074
582.353	0.0031
582.5453	0.0058
582.7375	0.0007
582.9298	0.0048
583.122	0.0001
583.3142	0.0014
583.5063	0.0106
583.6985	0.003
583.8906	0.0029
584.0827	0.0035
584.2749	0.0072
584.4669	0.003
584.659	0.0009
584.8511	-0.0032
585.0431	-0.0075
585.2352	0.0068
585.4272	-0.0024
585.6192	0.0022
585.8111	0.001
586.0031	0.0017
586.195	0.0041
586.387	0.0067
586.5789	0.0011
586.7708	0.0027
586.9627	0.0027
587.1545	-0.001
587.3464	0.0056
587.5382	0.0079
587.73	0.0019
587.9218	0.0049
588.1136	0.0047
588.3053	0.0035
588.4971	0.0002
588.6888	-0.0019
588.8805	0.0023
589.0722	0.0056
589.2639	-0.0032
589.4556	0.0104
589.6472	0.0034
589.8389	-0.0027
590.0305	-0.0062
590.2221	0.0101
590.4137	-0.0098
590.6052	0.0059
590.7968	0.0059
590.9883	-0.0008
591.1798	-0.004
591.3713	0.0039
591.5628	0.0027
591.7543	0.004
591.9458	-0.0018
592.1372	0.0074
592.3286	0.0022
592.52	0.0115
592.7114	0.0013
592.9028	0.0023
593.0941	0.0033
593.2855	-0.0018
593.4768	0.0012
593.6681	0.0054
593.8594	-0.0026
594.0506	0.006
594.2419	0.006
594.4331	0.0083
594.6244	0.0074
594.8156	0.0005
595.0067	0.0006
595.1979	0.0065
595.3891	0.0092
595.5802	-0.0032
595.7713	0.0001
595.9624	0.0039
596.1535	0.011
596.3446	0.0046
596.5357	0.0041
596.7267	0.0059
596.9177	0.0054
597.1087	-0.0021
597.2997	-0.0015
597.4907	0.0064
597.6817	0.0065
597.8726	0.0059
598.0635	-0.0042
598.2544	0.005
598.4453	0.0031
598.6362	0.0004
598.827	0.0001
599.0179	0.0047
599.2087	0.0036
599.3995	0.0051
599.5903	-0.0029
599.7811	0.0069
599.9718	0.0001
600.1626	-0.0052
600.3533	-0.0059
600.544	0.0053
600.7347	0.0048
600.9254	0.0051
601.116	-0.005
601.3067	0.0019
601.4973	0.0036
601.6879	0.0066
601.8785	-0.0027
602.0691	0.0088
602.2596	0.0048
602.4502	0.001
602.6407	0.0043
602.8312	0.0006
603.0217	-0.0024
603.2122	0.0008
603.4027	-0.0006
603.5931	0.0051
603.7835	0.0003
603.9739	0.0032
604.1643	0.0021
604.3547	-0.0075
604.5451	0.0052
604.7354	0.0009
604.9257	0.0033
605.116	-0.0021
605.3063	0.0091
605.4966	-0.0022
605.6869	0.0016
605.8771	0.0067
606.0673	0.0041
606.2575	0.0042
606.4477	0.005
606.6379	0.0041
606.8281	0.0045
607.0182	-0.0014
607.2083	0.0174
607.3985	0.001
607.5885	-0.0002
607.7786	0.004
607.9687	-0.0059
608.1587	0.0036
608.3488	0.0003
608.5388	-0.0005
608.7288	0.0015
608.9187	0.0041
609.1087	-0.0056
609.2986	-0.0054
609.4886	0.0002
609.6785	0.0024
609.8684	0.0045
610.0582	0.0011
610.2481	0.0047
610.4379	0.0049
610.6278	0.0031
610.8176	0.0026
611.0074	0.0029
611.1971	0.003
611.3869	-0.0001
611.5766	-0.0042
611.7664	0.0091
611.9561	0.0028
612.1458	0.0066
612.3354	-0.0008
612.5251	0.0085
612.7147	0.0051
612.9044	0.0176
613.094	-0.0029
613.2836	0.0059
613.4731	0.0048
613.6627	0.0007
613.8522	-0.0004
614.0417	0.0098
614.2313	-0.0002
614.4207	0.0036
614.6102	0.0065
614.7997	0.0005
614.9891	0
615.1785	0.0037
615.3679	-0.0017
615.5573	0.0172
615.7467	0.0067
615.9361	0.0053
616.1254	0.0073
616.3147	0.0089
616.504	0.0117
616.6933	0.0096
616.8826	0.0081
617.0718	0.0131
617.2611	0.0048
617.4503	0.0007
617.6395	-0.0002
617.8287	0.01
618.0179	0.0041
618.207	0.0126
618.3961	0.0158
618.5853	-0.0006
618.7744	0.0081
618.9634	-0.0004
619.1525	0.0034
619.3416	0.0016
619.5306	0.0126
619.7196	0.0047
619.9086	0.0041
620.0976	0.0058
620.2866	0.008
620.4755	0.0046
620.6645	-0.0005
620.8534	0.0118
621.0423	0.0092
621.2312	0.0095
621.42	0.002
621.6089	0.0014
621.7977	0.0113
621.9865	0.0059
622.1753	0.009
622.3641	0.0006
622.5529	0.0121
622.7416	0.0104
622.9303	0.0024
623.1191	0.0035
623.3078	0.0029
623.4964	0.009
623.6851	0.0064
623.8737	0.0057
624.0624	0.0187
624.251	0.0023
624.4396	0.0002
624.6282	0
624.8167	0.0044
625.0053	0.0044
625.1938	0.0019
625.3823	0.0023
625.5708	0.0007
625.7593	0.0017
625.9477	-0.0063
626.1362	-0.0026
626.3246	0.0076
626.513	0.0091
626.7014	0.0123
626.8898	0.0052
627.0781	0.0125
627.2665	-0.0008
627.4548	0.0092
627.6431	0.0087
627.8314	0.0087
628.0197	0.0117
628.2079	-0.0015
628.3962	-0.0001
628.5844	0.0009
628.7726	0.0072
628.9608	0.0061
629.1489	-0.0008
629.3371	0.0092
629.5252	0.0002
629.7134	0.0141
629.9015	-0.0001
630.0895	0.0019
630.2776	0.0066
630.4657	0.0002
630.6537	0.0056
630.8417	0.0025
631.0297	0.0011
631.2177	0.0045
631.4057	-0.0042
631.5936	0.0087
631.7815	0.008
631.9695	0.005
632.1574	0.0143
632.3452	0.0086
632.5331	0.0047
632.7209	0.0104
632.9088	0.0215
633.0966	0.0156
633.2844	0.0054
633.4722	0.0081
633.6599	0.0143
633.8477	0.0147
634.0354	0.0024
634.2231	0.0104
634.4108	0.0175
634.5985	0.0154
634.7861	0.0165
634.9738	0.0029
635.1614	0.0123
635.349	0.007
635.5366	0.0049
635.7242	0.0078
635.9117	0.0076
636.0993	0.0016
636.2868	0.0021
636.4743	0.0013
636.6618	0.0169
636.8492	0.0031
637.0367	0.0077
637.2241	0.0075
637.4115	0.0019
637.5989	0.0053
637.7863	0
637.9737	0.0013
638.161	0.0066
638.3484	0.0029
638.5357	0.0054
638.723	-0.0022
638.9103	0.007
639.0975	0.0122
639.2848	0.0085
639.472	0.0067
639.6592	0.007
639.8464	0.0061
640.0336	0.0046
640.2208	0.0011
640.4079	-0.005
640.595	0.006
640.7821	0.0099
640.9692	0.0028
641.1563	0.0051
641.3434	0.009
641.5304	0.0077
641.7174	0.0091
641.9044	0.0061
642.0914	0.0066
642.2784	0.0056
642.4653	0.0156
642.6523	0.0067
642.8392	0.0008
643.0261	0.0093
643.213	0.0106
643.3999	0.0065
643.5867	0.0072
643.7735	0.0069
643.9604	0.0004
644.1472	0.0044
644.3339	0.0133
644.5207	0.0039
644.7075	0.0078
644.8942	0.0082
645.0809	0.0112
645.2676	0.0103
645.4543	0.0084
645.6409	0.0171
645.8276	0.0112
646.0142	0.0068
646.2008	-0.0001
646.3874	0.0007
646.574	0.0029
646.7605	0.0007
646.9471	-0.0125
647.1336	0.0027
647.3201	0.0054
647.5066	-0.0037
647.6931	0.0042
647.8795	0.0071
648.0659	0.0022
648.2524	0.0115
648.4388	-0.0007
648.6252	0.0052
648.8115	0.0067
648.9979	0.0019
649.1842	0.0018
649.3705	0.0091
649.5568	0.0051
649.7431	0.0059
649.9294	0.0028
650.1156	0.0053
650.3018	0.0017
650.488	0.0101
650.6742	0.0072
650.8604	-0.001
651.0466	0.0007
651.2327	0.0053
651.4188	0.0067
651.6049	0.0024
651.791	0.003
651.9771	0.0159
652.1632	0.0038
652.3492	0.0055
652.5352	0.009
652.7212	0.0047
652.9072	0.0143
653.0932	0.002
653.2791	0.0005
653.465	0.0048
653.651	0.0035
653.8369	0.0024
654.0227	0.0025
654.2086	0.009
654.3944	0.0141
654.5803	0.0059
654.7661	0.0039
654.9519	0.0071
655.1377	0.0036
655.3234	0.0031
655.5092	-0.0031
655.6949	-0.0042
655.8806	-0.0027
656.0663	0.0028
656.2519	0.0018
656.4376	-0.0023
656.6232	0.0075
656.8088	0.0009
656.9945	0.0027
657.18	0.002
657.3656	0.0103
657.5511	0.0079
657.7367	-0.0047
657.9222	0.0077
658.1077	0.0064
658.2932	0.0044
658.4786	0.0003
658.6641	0.0014
658.8495	-0.0032
659.0349	-0.0038
659.2203	0.0074
659.4057	0.0057
659.591	0.0002
659.7764	0.0076
659.9617	0.0062
660.147	0.0069
660.3323	0.0099
660.5176	0.0173
660.7028	0.0084
660.888	0.0093
661.0733	0.0159
661.2585	0.0008
661.4436	0.0051
661.6288	0.0003
661.8139	-0.0028
661.9991	0.0079
662.1842	-0.0049
662.3693	0.0002
662.5544	-0.0018
662.7394	0.0046
662.9245	-0.0033
663.1095	0.0027
663.2945	0.0045
663.4795	0.003
663.6644	0.0033
663.8494	0.0056
664.0343	0.0036
664.2193	0
664.4042	0.0028
664.589	-0.0059
664.7739	0.0063
664.9587	-0.0039
665.1436	-0.0001
665.3284	0.005
665.5132	-0.0054
665.698	0.0014
665.8827	0.0075
666.0675	-0.0025
666.2522	-0.0008
666.4369	0.0026
666.6216	0.008
666.8063	0.0017
666.9909	0.0038
667.1756	-0.0024
667.3602	0.0058
667.5448	0.0031
667.7294	0.012
667.9139	0.014
668.0985	0.0218
668.283	0.0056
668.4675	0.0069
668.652	0.0035
668.8365	0.0081
669.0209	0.0175
669.2054	0.0182
669.3898	0.0064
669.5742	0.0147
669.7586	0.009
669.943	0.0163
670.1273	0.0093
670.3117	0.0057
670.496	0.0145
670.6803	0.0216
670.8646	0.0078
671.0488	0.0027
671.2331	0.0082
671.4173	0.013
671.6015	0.0008
671.7857	0.0065
671.9699	0.0114
672.1541	0.0081
672.3382	0.0035
672.5223	0.0137
672.7064	0.0101
672.8905	0.0106
673.0746	0.0097
673.2587	0.0023
673.4427	0.0002
673.6267	0.0059
673.8107	0.0065
673.9947	-0
674.1787	0.0064
674.3626	0.0009
674.5465	0.0028
674.7304	0.0066
674.9143	0.0155
675.0982	0.011
675.2821	0.0044
675.4659	0.0091
675.6497	0.0041
675.8335	0.0044
676.0173	0.0042
676.2011	0.0081
676.3849	0.0052
676.5686	-0.0021
676.7523	0.0037
676.936	0.0004
677.1197	0.0017
677.3034	-0.0034
677.487	0.0074
677.6706	0.0021
677.8542	0.0036
678.0378	0.0105
678.2214	0.0044
678.405	0.0054
678.5885	-0.0086
678.772	0.0047
678.9555	-0.0016
679.139	0.0038
679.3225	0.0094
679.5059	0.0077
679.6894	0.0084
679.8728	-0.0012
680.0562	-0.0059
680.2395	-0.0015
680.4229	-0.0016
680.6062	0.0024
680.7896	0.0078
680.9729	-0.0036
681.1562	0.0114
681.3394	0.0046
681.5227	-0.007
681.7059	0.0022
681.8891	0.007
682.0723	0.0116
682.2555	0.0071
682.4387	-0.0028
682.6218	0.0017
682.805	0.0057
682.9881	0.0055
683.1712	-0.0026
683.3542	-0.002
683.5373	0.0049
683.7203	-0.0041
683.9034	0.0054
684.0864	-0.0048
684.2694	-0.0015
684.4523	0.0099
684.6353	0.0001
684.8182	0.0044
685.0011	-0.0064
685.184	0.003
685.3669	0.0019
685.5498	0.0147
685.7326	0.0024
685.9154	-0.0024
686.0982	0.0148
686.281	0.0078
686.4638	0.0072
686.6465	0.0032
686.8293	0.002
687.012	0.0068
687.1947	-0.0012
687.3774	0.0072
687.56	-0.0053
687.7427	0.0096
687.9253	0.0049
688.1079	0.0024
688.2905	0.0116
688.4731	0.0029
688.6556	0.0008
688.8382	0.0097
689.0207	0.0027
689.2032	-0.0078
689.3857	0.0005
689.5681	0.0001
689.7506	-0.0108
689.933	0.0013
690.1154	0.0027
690.2978	-0.0048
690.4802	-0.0014
690.6626	-0.0127
690.8449	-0.0052
691.0272	0.0023
691.2095	0.0013
691.3918	0.0007
691.5741	0.0027
691.7563	0.0044
691.9386	0.0005
692.1208	-0.0028
692.303	0.0006
692.4852	0.0039
692.6673	0.0055
692.8495	0.0059
693.0316	0.003
693.2137	0.0076
693.3958	0.0042
693.5778	0.0035
693.7599	0.0064
693.9419	0.0017
694.1239	0.0079
694.3059	0.0055
694.4879	0.0085
694.6699	0.0143
694.8518	0.0085
695.0337	0.0004
695.2157	0.0092
695.3975	0.0072
695.5794	0.0098
695.7613	0.0099
695.9431	0.0034
696.1249	0.0138
696.3067	0.0097
696.4885	0.0137
696.6703	0.0056
696.852	0.0106
697.0337	0.0071
697.2154	0.0037
697.3971	0.0053
697.5788	0.0016
697.7605	0.0063
697.9421	0.0023
698.1237	0.0088
698.3053	0.0057
698.4869	0.0138
698.6685	-0.0001
698.85	-0.008
699.0315	0.0132
699.213	-0.0017
699.3945	0.0085
699.576	0.0098
699.7575	0.0049
699.9389	0.0164
700.1203	0.0025
700.3017	0.0034
700.4831	0.0015
700.6645	0.0025
700.8458	0.0069
701.0271	0.0076
701.2084	0.0151
701.3897	-0.0013
701.571	0.0093
701.7523	-0.0046
701.9335	0.005
702.1147	0.0062
702.2959	0.0041
702.4771	0.0047
702.6583	0.013
702.8394	-0.0024
703.0205	0.0108
703.2016	0.0012
703.3827	0.0036
703.5638	0.0129
703.7449	0.0076
703.9259	0.0195
704.1069	-0.0045
704.2879	0.0019
704.4689	0.0054
704.6499	0.0051
704.8308	0.0046
705.0117	0.0046
705.1927	0.0062
705.3735	0.0004
705.5544	-0.0039
705.7353	0.0101
705.9161	0.0011
706.0969	0.0012
706.2777	-0.0001
706.4585	-0.0055
706.6393	0.0069
706.82	-0.0009
707.0007	-0.0009
707.1815	0.0053
707.3621	0.0051
707.5428	-0.0027
707.7235	0.0013
707.9041	0.0041
708.0847	-0.0118
708.2653	-0.003
708.4459	-0.0119
708.6265	0.0047
708.807	-0.0044
708.9875	-0.0004
709.168	-0.0078
709.3485	-0.0047
709.529	-0.0063
709.7095	-0.0143
709.8899	-0.0015
710.0703	-0.0164
710.2507	0.0022
710.4311	0.0027
710.6115	-0.0092
710.7918	-0.0052
710.9721	0.0015
711.1524	-0.0019
711.3327	-0.0025
711.513	0.0003
711.6932	0.006
711.8735	0.0056
712.0537	0.0027
712.2339	-0.0022
712.4141	-0.0026
712.5942	0.002
712.7744	-0.0015
712.9545	-0.0025
713.1346	0.0006
713.3147	0.0034
713.4947	-0.0022
713.6748	0.0011
713.8548	-0.0013
714.0348	0.0029
714.2148	0
714.3948	0.0077
714.5748	-0.0033
714.7547	0.0044
714.9346	0.0167
715.1145	0.0053
715.2944	0.0015
715.4743	0.004
715.6541	0.0035
715.834	0.0045
716.0138	-0.0021
716.1936	-0.0037
716.3733	-0.0034
716.5531	0.0012
716.7328	-0.0019
716.9126	0.0021
717.0923	0.0104
717.2719	-0.0005
717.4516	0.0026
717.6312	0.0023
717.8109	-0.0078
717.9905	-0.0017
718.1701	-0.0034
718.3496	-0.0061
718.5292	-0.0048
718.7087	-0.0079
718.8882	-0.0016
719.0677	0.0141
719.2472	0.0057
719.4267	0.0005
719.6061	0.001
719.7856	0.0106
719.965	0.0126
720.1443	0.0011
720.3237	0.0126
720.5031	0.005
720.6824	0.0119
720.8617	-0.0023
721.041	-0.0005
721.2203	0.0097
721.3995	-0.0038
721.5788	0.0059
721.758	0.0081
721.9372	0.0032
722.1164	0.0029
722.2956	0.0061
722.4747	0.0074
722.6538	0.0071
722.8329	0.0125
723.012	0.011
723.1911	-0.0011
723.3702	-0.0012
723.5492	0.0065
723.7282	0.0004
723.9072	0.01
724.0862	-0.0012
724.2652	0.0028
724.4441	-0.001
724.623	0.0029
724.8019	0.0062
724.9808	0.007
725.1597	-0.0111
725.3385	0.0124
725.5174	0.0088
725.6962	0.006
725.875	-0.0065
726.0538	0.0059
726.2325	0.0039
726.4112	0.0031
726.59	0.0015
726.7687	-0.0017
726.9474	-0.0004
727.126	-0.0016
727.3047	-0.0032
727.4833	0.0049
727.6619	-0.0066
727.8405	-0.0005
728.0191	0.004
728.1976	0.0089
728.3762	0.003
728.5547	0.0091
728.7332	-0.0065
728.9116	0.0008
729.0901	0.0103
729.2686	-0.0057
729.447	0.0012
729.6254	0.0078
729.8038	0.004
729.9821	-0.0065
730.1605	0.0081
730.3388	0.0057
730.5171	0.0037
730.6954	0.0002
730.8737	0.0126
731.0519	0.0056
731.2302	0
731.4084	0.0163
731.5866	0.0121
731.7648	0.0043
731.9429	0.0076
732.1211	-0.0049
732.2992	-0.0017
732.4773	-0.0032
732.6554	-0.0026
732.8335	-0.0029
733.0115	0.0064
733.1896	0.0066
733.3676	-0.0028
733.5456	0.0062
733.7235	0.0102
733.9015	-0.0068
734.0794	0.0049
734.2574	0.0032
734.4353	0.0125
734.6131	0.0076
734.791	0.0023
734.9689	0.0054
735.1467	0.0071
735.3245	-0.0066
735.5023	-0.0037
735.68	0.002
735.8578	0.0052
736.0355	-0.0153
736.2132	0.0057
736.3909	-0.0029
736.5686	-0.01
736.7463	0.0021
736.9239	-0.0025
737.1015	0.0012
737.2791	0.0106
737.4567	-0.0005
737.6343	0.0026
737.8118	0.0127
737.9894	0.0059
738.1669	0.0044
738.3444	0.0072
738.5218	0.0074
738.6993	-0.0051
738.8767	0.0023
739.0541	0.0078
739.2315	-0.0015
739.4089	0.001
739.5863	0.0077
739.7636	-0.0068
739.9409	0.0084
740.1182	0.0014
740.2955	0.0131
740.4728	-0.0011
740.65	-0.0098
740.8272	0.0042
741.0044	-0.0028
741.1816	0.0032
741.3588	-0.0031
741.5359	0.0033
741.7131	-0.0041
741.8902	0.0088
742.0673	0.0088
742.2444	0.0012
742.4214	0.0015
742.5985	-0.0053
742.7755	0.0015
742.9525	-0.0126
743.1295	0.0061
743.3064	0.0027
743.4834	0.0067
743.6603	0.0033
743.8372	-0.0025
744.0141	0.0125
744.191	0.0053
744.3678	0.0069
744.5446	0.0085
744.7215	0.0007
744.8982	0.0037
745.075	-0.01
745.2518	0.0089
745.4285	0.014
745.6052	0.0026
745.7819	0.0011
745.9586	0.003
746.1353	-0.0002
746.3119	-0.0027
746.4885	-0.003
746.6651	-0.0056
746.8417	0.0008
747.0183	0.009
747.1948	-0.0009
747.3714	0.0066
747.5479	0.0058
747.7244	-0.0026
747.9008	0.0222
748.0773	0.0098
748.2537	0.0099
748.4301	-0.008
748.6065	0.0073
748.7829	0.008
748.9593	-0.0067
749.1356	-0.0005
749.3119	0.0119
749.4882	-0.0057
749.6645	-0.0031
749.8408	-0.004
750.017	-0.0019
750.1933	0.0013
750.3695	0.0023
750.5457	0.0091
750.7218	0.0029
750.898	0.0049
751.0741	-0.0045
751.2502	0.0086
751.4263	-0.0025
751.6024	0.0071
751.7784	0.0029
751.9545	0.0074
752.1305	0.0029
752.3065	0.0106
752.4825	0.0051
752.6584	0.0024
752.8344	-0.0073
753.0103	-0.0063
753.1862	-0.0069
753.3621	-0.0069
753.5379	0.0036
753.7138	0.0017
753.8896	-0.0039
754.0654	0.0075
754.2412	0.004
754.417	0.0088
754.5927	-0.0053
754.7685	0.0012
754.9442	0.0037
755.1199	0.0097
755.2956	0.002
755.4712	0.0125
755.6469	0.0041
755.8225	0.0025
755.9981	0.0096
756.1736	0.0123
756.3492	0.0019
756.5248	-0.0014
756.7003	-0.0009
756.8758	0.0108
757.0513	-0.0121
757.2267	-0.0003
757.4022	0.0068
757.5776	0.0027
757.753	0.0031
757.9284	0.0127
758.1038	0.0132
758.2791	0.0101
758.4545	0.0066
758.6298	0.0025
758.8051	0.012
758.9803	0.0038
759.1556	0.0041
759.3308	0.0002
759.506	0.0108
759.6812	0.002
759.8564	0.0109
760.0316	0.0043
760.2067	0.0153
760.3819	0.0071
760.557	0.0098
760.732	0.0092
760.9071	-0.0026
761.0821	0.0014
761.2572	0.0229
761.4322	0.0007
761.6072	0.0114
761.7821	0.0072
761.9571	0.0069
762.132	-0.0037
762.3069	-0.004
762.4818	-0.0018
762.6567	-0.0001
762.8316	0.0083
763.0064	-0.0033
763.1812	0.0055
763.356	-0.0053
763.5308	0.0028
763.7055	0.0015
763.8803	0.0015
764.055	0.0048
764.2297	0.0025
764.4044	-0.007
764.579	-0.0024
764.7537	-0.0105
764.9283	0.0115
765.1029	-0.0109
765.2775	-0.0001
765.4521	-0.0005
765.6266	-0.0088
765.8011	-0.0059
765.9756	0.0014
766.1501	0.0167
766.3246	0.001
766.4991	0.0023
766.6735	-0.0004
766.8479	-0.0034
767.0223	0.0173
767.1967	0.0131
767.371	0.003
767.5454	-0.002
767.7197	0.0089
767.894	-0.0049
768.0683	-0.0062
768.2425	0.0145
768.4168	0.0169
768.591	0.0115
768.7652	0.0136
768.9394	0.0092
769.1135	0.0039
769.2877	0.0054
769.4618	0.0056
769.6359	0.0072
769.81	0.0109
769.984	-0.0003
770.1581	-0.0044
770.3321	0.0047
770.5061	-0.004
770.6801	-0.0059
770.8541	-0.0057
771.028	0.0011
771.202	-0.0128
771.3759	0.0014
771.5498	-0.0062
771.7236	-0.0048
771.8975	-0.0042
772.0713	0.0079
772.2451	0.0047
772.4189	0.0021
772.5927	0.0122
772.7665	0.0026
772.9402	-0.0035
773.1139	0.0023
773.2876	0.0023
773.4613	-0.0008
773.635	0.0139
773.8086	-0.001
773.9822	0.0152
774.1558	0.004
774.3294	-0.0203
774.503	0.001
774.6765	0.0117
774.8501	0.0137
775.0236	0.0102
775.1971	0.0054
775.3705	-0.0077
775.544	0.007
775.7174	-0.0006
775.8908	0.0003
776.0642	0.0006
776.2376	0.0018
776.4109	-0.0122
776.5843	-0.0025
776.7576	0.0181
776.9309	0.0017
777.1041	0.0098
777.2774	0.0116
777.4506	-0.0028
777.6238	-0.0059
777.797	-0.0009
777.9702	-0.0075
778.1434	-0.0083
778.3165	-0.0083
778.4896	-0.0054
778.6627	0.0193
778.8358	-0.0021
779.0089	0.0022
779.1819	-0.0033
779.3549	0.0041
779.5279	0.0082
779.7009	0.0069
779.8739	0.0042
780.0468	0.0036
780.2197	0.0071
780.3926	-0.0008
780.5655	0.0041
780.7384	0.008
780.9112	-0.0038
781.0841	-0.01
781.2569	0.0063
781.4297	0.0159
781.6024	0.018
781.7752	0.0033
781.9479	-0.0016
782.1206	0.0074
782.2933	-0.0008
782.466	0.0079
782.6386	0.0088
782.8113	-0.0012
782.9839	-0.0033
783.1565	0.0003
783.329	-0.0005
783.5016	0.006
783.6741	0.0107
783.8466	-0.0009
784.0191	0.0159
784.1916	-0.0009
784.3641	0.0049
784.5365	-0.0039
784.7089	-0.003
784.8813	-0.0043
785.0537	-0.0063
785.2261	0.0018
785.3984	-0.0153
785.5707	-0.0111
785.743	0.0067
785.9153	-0.0143
786.0876	0.0099
786.2598	-0.003
786.432	0.0035
786.6042	-0.0014
786.7764	0.0031
786.9486	-0.0154
787.1207	-0.0034
787.2928	0.0039
787.4649	0.0015
787.637	-0.0012
787.8091	0.0057
787.9811	-0.0029
788.1532	-0.0143
788.3252	0.008
788.4972	-0.0155
788.6691	-0.0129
788.8411	0.0083
789.013	-0.0088
789.1849	0.0026
789.3568	-0.0019
789.5287	0.0025
789.7005	-0.011
789.8723	0.0017
790.0442	0.0115
790.2159	-0.0028
790.3877	0.0104
790.5595	-0.0066
790.7312	-0.0049
790.9029	-0.0007
791.0746	-0.0051
791.2463	-0.0105
791.4179	-0.0154
791.5896	-0.0114
791.7612	0.0021
791.9328	0.0041
792.1044	-0.0136
792.2759	-0.0196
792.4474	0.0017
792.619	0.0074
792.7905	0.0124
792.9619	-0.0012
793.1334	0.0078
793.3048	0.0106
793.4762	0.0022
793.6476	0.015
793.819	-0.011
793.9904	0.0074
794.1617	-0.0154
794.333	0.0112
794.5043	-0.0107
794.6756	-0.006
794.8469	-0.0027
795.0181	-0.0083
795.1893	-0.0002
795.3605	0.0134
795.5317	-0.0063
795.7029	-0.0049
795.874	-0.0011
796.0452	-0.0095
796.2163	0.0011
796.3873	-0.0003
796.5584	0.0208
796.7294	-0.0035
796.9005	0.0152
797.0715	0.0075
797.2425	0.0039
797.4134	0.0054
797.5844	0.0046
797.7553	-0.0066
797.9262	0.0101
798.0971	-0.0207
798.2679	-0.001
798.4388	-0.0011
798.6096	-0.0077
798.7804	0.005
798.9512	-0.0171
799.122	-0.0141
799.2927	0.0009
799.4635	0.0084
799.6342	-0.0089
799.8049	-0.0053
799.9755	0.0055
800.1462	-0.0047
800.3168	0.0011
800.4874	-0.003
800.658	0.0227
800.8286	-0.0047
800.9991	0.017
801.1696	0.0108
801.3402	0.0104
801.5106	0.0071
801.6811	-0.0029
801.8516	0.0112
802.022	0.005
802.1924	0.0054
802.3628	0.0009
802.5332	0.0214
802.7035	0.021
802.8739	0.0106
803.0442	0.0106
803.2145	0.0007
803.3847	-0.0042
803.555	0.0014
803.7252	-0.009
803.8954	-0.0071
804.0656	0.0075
804.2358	-0.0027
804.4059	0.0014
804.5761	-0.0059
804.7462	0.0054
804.9163	-0.0036
805.0864	-0.0244
805.2564	-0.0039
805.4264	0.0003
805.5965	-0.0015
805.7665	-0.0067
805.9364	-0.0032
806.1064	0.0163
806.2763	0.007
806.4462	0.0108
806.6161	0.0139
806.786	0.0152
806.9559	-0.0139
807.1257	0.0121
807.2955	-0.0088
807.4653	0.004
807.6351	-0.0015
807.8048	0.0008
807.9746	0.0128
808.1443	0.0148
808.314	0.0115
808.4837	-0.0015
808.6533	0.0056
808.8229	0.023
808.9926	0.0051
809.1622	0.0074
809.3317	0.0009
809.5013	0.0001
809.6708	0.0095
809.8403	0.018
810.0098	-0.0084
810.1793	0.0029
810.3488	0.0034
810.5182	-0.0118
810.6876	0.0153
810.857	0.0028
811.0264	0.0281
811.1958	0.0121
811.3651	0.0167
811.5344	-0.0111
811.7037	-0.0082
811.873	-0.0095
812.0422	0.0054
812.2115	-0.0189
812.3807	-0.0106
812.5499	0.0108
812.7191	-0.0107
812.8882	0.0004
813.0574	0.0133
813.2265	0.0073
813.3956	0.005
813.5646	0.0063
813.7337	-0.0113
813.9027	0.0119
814.0718	0.0256
814.2407	0.0205
814.4097	-0.0206
814.5787	-0.0245
814.7476	-0.0257
814.9165	0.0032
815.0854	0.0152
815.2543	0.0033
815.4232	-0.0106
815.592	0.0263
815.7608	-0.0007
815.9296	0.0187
816.0984	0.0255
816.2671	0.0192
816.4359	0.0084
816.6046	0.0055
816.7733	0.0113
816.942	-0.0095
817.1106	0.0195
817.2793	-0.0014
817.4479	0.0151
817.6165	0.0193
817.785	-0.0135
817.9536	0.0148
818.1221	0.0116
818.2906	0.0289
818.4591	0.0168
818.6276	-0.0302
818.7961	0.0146
818.9645	0.0133
819.1329	0.012
819.3013	0.0111
819.4697	0.0305
819.638	0.0015
819.8064	0.0232
819.9747	0.0282
820.143	0.013
820.3113	-0.0002
820.4795	0.0012
820.6477	0.0002
820.816	0.0094
820.9842	0.0085
821.1523	-0.0178
821.3205	-0.0158
821.4886	0.0274
821.6567	-0.0104
821.8248	0.0273
821.9929	0.0075
822.1609	-0.0289
822.329	0.0103
822.497	0.0539
822.665	-0.0111
822.833	0.0104
823.0009	0.0066
823.1688	0.0222
823.3367	0.0154
823.5046	0.0111
823.6725	0.0322
823.8404	-0.0065
824.0082	-0.001
824.176	0.0561
824.3438	0.0135
824.5116	0.0006
824.6793	0.037
824.847	0.0289
825.0147	-0.0206
825.1824	0.0371
825.3501	0.0225
825.5177	0.0092
825.6854	-0.0159
825.853	-0.0031
826.0206	-0.0277
826.1881	0.0024
826.3557	-0.0391
826.5232	0.0252
826.6907	-0.0614
826.8582	0.0075
827.0257	-0.0147
827.1931	-0.0153
827.3605	0.0172
827.528	-0.009
827.6953	-0.0222
827.8627	-0.0049
828.03	0.0559
828.1974	0.0107
828.3647	-0.0174
828.532	0.0012
828.6992	-0.0012
828.8665	0.0228
829.0337	-0.0117
829.2009	0.0228
829.3681	0.0244
829.5352	0.041
829.7024	-0.0368
829.8695	-0.0124
830.0366	0.0596
830.2037	0.0064
830.3707	-0.0076
830.5378	-0.0024
830.7048	0.0085
830.8718	0.0192
831.0388	0.0043
831.2057	-0.0108
831.3727	0.0227
831.5396	-0.002
831.7065	-0.0177
831.8734	0.0096
832.0402	-0.0091
832.2071	0.0083
832.3739	0.0156
832.5407	0.0319
832.7075	-0.024
832.8742	-0.0015
833.041	-0.0318
833.2077	-0.024
833.3744	0.0258
833.541	-0.0027
833.7077	-0.0368
833.8743	-0.0214
834.0409	-0.0064
834.2075	-0.0035
834.3741	0.0009
834.5407	-0.0147
834.7072	0.0003
834.8737	-0.0217
835.0402	-0.0321
835.2067	0.0442
835.3731	0.0144
835.5395	-0.0016
835.706	0.0367
835.8723	0.015
836.0387	0.0282
836.2051	-0.0167
836.3714	-0.0236
836.5377	-0.0078
836.704	-0.0144
836.8703	0.0043
837.0365	0.0085
837.2027	-0.0324
837.3689	0.0105
837.5351	-0.0129
837.7013	-0.0228
837.8674	-0.06
838.0335	-0.038
838.1997	-0.0053
838.3657	-0.0588
838.5318	-0.0244
838.6978	0.021
838.8639	0.0304
839.0299	0.0299
839.1958	0.0012
839.3618	0.0242
839.5277	-0.0237
839.6937	0.0046
839.8596	-0.0147
840.0254	-0.011
840.1913	0.0224
840.3571	0.0183
840.523	-0.0199
840.6888	-0.0224
840.8545	-0.0504
841.0203	0.022
841.186	0.0408
841.3517	0.0388
841.5174	0.0013
841.6831	-0.0535
841.8488	0.0489
842.0144	-0.0104
842.18	0.0058
842.3456	-0.0061
842.5112	-0.0448
842.6767	0.0145
842.8422	-0.0111
843.0077	-0.0388
843.1732	-0.0221
843.3387	-0.0467
843.5042	-0.0041
843.6696	-0.0591
843.835	-0.0236
844.0004	0.0402
844.1657	-0.0162
844.3311	-0.0209
844.4964	-0.0827
844.6617	-0.018
844.827	0.0245
844.9923	-0.0501
845.1575	0.0066
845.3227	0.0342
845.4879	-0.0017
845.6531	-0.0316
845.8183	-0.0777
845.9834	-0.0213
846.1485	-0.0049
846.3136	0.0295
846.4787	-0.1184
846.6438	0.0525
846.8088	-0.0467
846.9738	-0.0677
847.1388	0.0151
847.3038	-0.0704
847.4687	-0.1774
847.6337	-0.0109
847.7986	0.0454
847.9635	-0.0414
848.1284	0.0275
848.2932	0.1295
848.458	0.0309
848.6228	0.0134
848.7876	0.0514
848.9524	-0.1003
849.1172	-0.0716
849.2819	-0.0076
849.4466	-0.1797
849.6113	-0.0443
849.7759	0.0091
849.9406	0.0423
850.1052	-0.0145
850.2698	-0.0458
850.4344	0.0422
850.599	-0.0431
850.7635	0.0363
850.928	-0.063
851.0925	0.0371
851.257	0.0062
851.4215	0.0605
851.5859	0.0168
851.7503	-0.0346
851.9147	-0.0216
852.0791	-0.0548
852.2434	0.0009
852.4078	0.05
852.5721	0.0652
852.7364	-0.0972
852.9007	-0.2309
853.0649	-0.0126
853.2291	-0.0658
853.3934	-0.0344
853.5575	0.022
853.7217	-0.1313
853.8859	-0.0868
854.05	-0.0558
854.2141	0.2075
854.3782	-0.0644
854.5423	-0.1066
854.7063	0.1141
854.8703	0.0183
855.0343	-0.0518
855.1983	-0.1747
855.3623	0.0826
855.5262	0.0896
855.6901	-0.0909
855.854	0.04
856.0179	0.0682
856.1818	-0.0043
856.3456	-0.1167
856.5094	-0.1585
856.6732	-0.222
856.837	-0.099
857.0008	0.1028
857.1645	-0.0788
857.3282	0.1376
857.4919	0.2438
857.6556	0.0881
857.8192	0.005
857.9828	0.0159
858.1465	0.0179
858.31	-0.2093
858.4736	-0.0648
858.6372	-0.0038
858.8007	-0.1775
858.9642	0.1611
859.1277	-0.0256
859.2911	0.036
859.4546	0.0531
859.618	-0.245
859.7814	-0.1107
859.9448	0.1454
860.1081	-0.0839
860.2715	0.0863
860.4348	-0.2166
860.5981	-0.0594
860.7614	0.0656
860.9246	-0.1294
861.0879	0.0392
861.2511	-0.0616
861.4143	-0.1684
861.5774	0.0504
861.7406	-0.2536
861.9037	-0.0326
862.0668	-0.1889
862.2299	-0.3022
862.393	-0.6712
862.556	0.023
862.7191	-0.2912
862.8821	-0.1464
863.0451	0.1156
863.208	-0.0455
863.371	-0.011
863.5339	-0.0873
863.6968	-0.04
863.8597	0.1397
864.0225	-0.0883
864.1854	-0.1845
864.3482	-0.029
864.511	0.0843
864.6737	0.0597
864.8365	-0.1527
864.9992	-0.4343
865.1619	-0.0125
865.3246	0.1241
865.4873	-0.04
865.65	-0.1376
865.8126	-0.0117
865.9752	0.3899
866.1378	-0.1714
866.3004	-0
866.4629	0.47
866.6254	0.1333
866.7879	-0.0142
866.9504	-0
867.1129	-0
867.2753	0.3676
867.4377	0.1038
867.6001	-0.2159
867.7625	-0.1022
867.9249	-0.359
868.0872	-0.3317
868.2495	0.003
868.4118	-0.1262
868.5741	-0.3408
868.7363	0.3979
868.8986	1.0374
869.0608	-0.227
869.223	0.4262
869.3851	0.304
869.5473	-0
869.7094	0.3711
869.8715	-0.4289
870.0336	-1.1425
870.1957	0.2539
870.3577	-0.8617
870.5197	0.1361
870.6817	-0.0837
870.8437	-0.2099
871.0057	-0
871.1676	-0.5327
871.3295	-0.3167
871.4914	-0
871.6533	-0.2477
871.8151	-0.6406
871.977	-0
872.1388	-0
872.3006	-0
872.4623	-0
872.6241	0.0218
872.7858	0.05
872.9475	-0.209
873.1092	-0.1047
873.2709	-0.0112
873.4325	0.0595
873.5941	-0
873.7557	0.4698
873.9173	0.0923
874.0789	-0.3262
874.2404	-0.2116
874.4019	0.484
874.5634	-0
874.7249	-0.2222
874.8863	-0.211
875.0478	-0.0269
875.2092	-0.4721
875.3706	0.1052
875.5319	0.4914
875.6933	-0
875.8546	0.0115
876.0159	-0
876.1772	0.0394
876.3385	-0
876.4997	1.0989
876.6609	-0.4638
876.8221	-0
876.9833	-0
877.1445	-0
877.3056	0.2143
877.4667	-0.3746
877.6278	-0
877.7889	-0
877.9499	-0
878.111	-0.6226
878.272	-0
878.433	-0
878.5939	-0
878.7549	-0.1464
878.9158	0.2872
879.0767	0.2616
879.2376	0.6964
879.3984	-0.0837
879.5593	-0
879.7201	0.086
879.8809	-0.367
880.0417	-0
880.2024	0.5181
880.3632	-0
880.5239	0.3532
880.6846	0.0916
880.8452	-1.5315
881.0059	-1.7259
881.1665	-0.1645
881.3271	0.026
881.4877	-0.671
881.6483	-0.6635
881.8088	-0.0485
881.9693	-0
882.1298	-0
882.2903	-0
