Data from MonoPyChalIsomerACN10uM440nmA_Absorbance_15-27-15-794.txt Node
Date: Fri Jul 05 15:27:15 BST 2024
User: LASERRRRR
Spectrometer: FLMT03099
Trigger mode: 0
Integration Time (sec): 1.000000E-1
Scans to average: 1
Electric dark correction enabled: true
Nonlinearity correction enabled: false
Boxcar width: 0
XAxis mode: Wavelengths
Number of Pixels in Spectrum: 3648
>>>>>Begin Spectral Data<<<<<
179.3399	-0.0165
179.5586	-0.0165
179.7771	-0.0165
179.9957	0.0625
180.2143	0.2737
180.4329	0.1661
180.6514	-0
180.8699	-0
181.0885	0.6401
181.307	0.2352
181.5255	0.1648
181.744	-0.3366
181.9625	-0
182.181	-0.5195
182.3994	0.5852
182.6179	-0
182.8363	0.4946
183.0547	-0.2441
183.2732	0.0334
183.4916	-0.0768
183.71	0.1106
183.9284	-0.0568
184.1467	-0.1459
184.3651	-0.0495
184.5835	-0.0045
184.8018	0.0419
185.0201	0.2246
185.2385	-0.079
185.4568	0.0144
185.6751	-0.0693
185.8934	0.2752
186.1117	-0.0183
186.3299	0.0224
186.5482	0.0422
186.7664	-0.0822
186.9847	0.2695
187.2029	-0.0434
187.4211	0.0684
187.6393	0.0564
187.8575	0.0778
188.0757	0.2463
188.2939	0.0955
188.512	0.2997
188.7302	-0.0228
188.9483	-0.1628
189.1665	0.1698
189.3846	0.0996
189.6027	0.1225
189.8208	0.0383
190.0389	0.0903
190.257	0.2003
190.475	0.1161
190.6931	0.1823
190.9111	0.1673
191.1292	0.1303
191.3472	0.2852
191.5652	0.2772
191.7832	0.3113
192.0012	0.4786
192.2192	0.2339
192.4371	0.5352
192.6551	0.2966
192.873	0.3831
193.091	0.2706
193.3089	0.4495
193.5268	0.5787
193.7447	0.351
193.9626	0.5195
194.1805	0.8066
194.3984	0.6752
194.6162	0.6365
194.8341	0.4087
195.0519	0.3578
195.2697	0.7111
195.4875	0.776
195.7054	0.6579
195.9231	0.5777
196.1409	0.5719
196.3587	0.536
196.5765	0.4582
196.7942	1.0427
197.012	0.4723
197.2297	0.6482
197.4474	0.8115
197.6651	0.5109
197.8828	0.4924
198.1005	0.5528
198.3182	0.6739
198.5358	0.8163
198.7535	0.4691
198.9711	0.535
199.1888	0.5948
199.4064	0.6759
199.624	0.7235
199.8416	0.5932
200.0592	0.6164
200.2767	0.6031
200.4943	0.6729
200.7119	0.7037
200.9294	0.6663
201.1469	0.5295
201.3645	0.5505
201.582	0.6055
201.7995	0.7435
202.017	0.5998
202.2344	0.586
202.4519	0.7665
202.6694	0.6904
202.8868	0.5865
203.1042	0.6295
203.3217	0.7979
203.5391	0.5508
203.7565	0.5647
203.9739	0.566
204.1913	0.5657
204.4086	0.6409
204.626	0.6681
204.8433	0.6264
205.0607	0.608
205.278	0.6199
205.4953	0.6546
205.7126	0.6413
205.9299	0.754
206.1472	0.6983
206.3644	0.6405
206.5817	0.6413
206.7989	0.6815
207.0162	0.6512
207.2334	0.5858
207.4506	0.5829
207.6678	0.6141
207.885	0.6794
208.1022	0.8354
208.3194	0.63
208.5365	0.6465
208.7537	0.6798
208.9708	0.5597
209.1879	0.634
209.405	0.7025
209.6222	0.7028
209.8392	0.6707
210.0563	0.6336
210.2734	0.6768
210.4905	0.6433
210.7075	0.6428
210.9245	0.5784
211.1416	0.6857
211.3586	0.6308
211.5756	0.5907
211.7926	0.6256
212.0096	0.6174
212.2265	0.572
212.4435	0.5666
212.6604	0.5936
212.8774	0.553
213.0943	0.5932
213.3112	0.5586
213.5281	0.5226
213.745	0.4776
213.9619	0.4675
214.1788	0.4978
214.3956	0.4792
214.6125	0.452
214.8293	0.4181
215.0461	0.4588
215.2629	0.4773
215.4798	0.4662
215.6965	0.4473
215.9133	0.4469
216.1301	0.4177
216.3469	0.4288
216.5636	0.4149
216.7803	0.3935
216.9971	0.4383
217.2138	0.3691
217.4305	0.3751
217.6472	0.3637
217.8639	0.3749
218.0805	0.3737
218.2972	0.3393
218.5138	0.3199
218.7305	0.3109
218.9471	0.2902
219.1637	0.3098
219.3803	0.2858
219.5969	0.2758
219.8135	0.2375
220.0301	0.2738
220.2466	0.2666
220.4632	0.2597
220.6797	0.2232
220.8962	0.2349
221.1127	0.2631
221.3292	0.2697
221.5457	0.2428
221.7622	0.2298
221.9787	0.2495
222.1951	0.2508
222.4116	0.2543
222.628	0.2316
222.8444	0.2391
223.0608	0.247
223.2772	0.2556
223.4936	0.272
223.71	0.242
223.9264	0.279
224.1427	0.2649
224.3591	0.228
224.5754	0.2609
224.7917	0.2677
225.008	0.2748
225.2243	0.2466
225.4406	0.2704
225.6569	0.2619
225.8732	0.2735
226.0894	0.2591
226.3057	0.2605
226.5219	0.2756
226.7381	0.2847
226.9543	0.2715
227.1705	0.2743
227.3867	0.2502
227.6029	0.2921
227.8191	0.2793
228.0352	0.2943
228.2513	0.318
228.4675	0.308
228.6836	0.2908
228.8997	0.2794
229.1158	0.2962
229.3319	0.2879
229.548	0.2952
229.764	0.308
229.9801	0.3038
230.1961	0.323
230.4121	0.3349
230.6282	0.3353
230.8442	0.3009
231.0602	0.3398
231.2761	0.3632
231.4921	0.3261
231.7081	0.3377
231.924	0.3452
232.14	0.3537
232.3559	0.3303
232.5718	0.3541
232.7877	0.3509
233.0036	0.334
233.2195	0.3391
233.4353	0.3482
233.6512	0.3607
233.867	0.3702
234.0829	0.3396
234.2987	0.3684
234.5145	0.3594
234.7303	0.3712
234.9461	0.3873
235.1619	0.3675
235.3776	0.3692
235.5934	0.39
235.8091	0.3642
236.0249	0.3612
236.2406	0.385
236.4563	0.3761
236.672	0.39
236.8877	0.3817
237.1034	0.3992
237.319	0.3792
237.5347	0.4094
237.7503	0.3954
237.966	0.4003
238.1816	0.4079
238.3972	0.389
238.6128	0.4037
238.8284	0.3883
239.0439	0.4048
239.2595	0.397
239.475	0.4223
239.6906	0.4069
239.9061	0.408
240.1216	0.3912
240.3371	0.3845
240.5526	0.3863
240.7681	0.3917
240.9836	0.3896
241.199	0.4062
241.4145	0.4072
241.6299	0.3853
241.8453	0.366
242.0607	0.3923
242.2761	0.3453
242.4915	0.3595
242.7069	0.358
242.9223	0.3485
243.1376	0.3545
243.353	0.351
243.5683	0.3647
243.7836	0.3336
243.9989	0.3324
244.2142	0.3134
244.4295	0.3253
244.6448	0.3066
244.86	0.3055
245.0753	0.2953
245.2905	0.2875
245.5057	0.2891
245.721	0.2765
245.9362	0.2516
246.1514	0.275
246.3665	0.2583
246.5817	0.2536
246.7969	0.2545
247.012	0.2472
247.2271	0.2403
247.4423	0.2488
247.6574	0.2336
247.8725	0.2397
248.0876	0.222
248.3026	0.2278
248.5177	0.2274
248.7328	0.2087
248.9478	0.2032
249.1628	0.2055
249.3779	0.2256
249.5929	0.2006
249.8079	0.2058
250.0228	0.1953
250.2378	0.207
250.4528	0.1996
250.6677	0.1838
250.8827	0.1915
251.0976	0.1944
251.3125	0.1901
251.5274	0.1808
251.7423	0.1848
251.9572	0.1854
252.172	0.1848
252.3869	0.1823
252.6017	0.1777
252.8166	0.1645
253.0314	0.1801
253.2462	0.1677
253.461	0.1827
253.6758	0.1621
253.8906	0.179
254.1053	0.166
254.3201	0.1682
254.5348	0.1736
254.7496	0.1846
254.9643	0.1643
255.179	0.1804
255.3937	0.1691
255.6083	0.1595
255.823	0.1638
256.0377	0.1629
256.2523	0.1616
256.467	0.1448
256.6816	0.1704
256.8962	0.174
257.1108	0.1675
257.3254	0.1673
257.54	0.146
257.7545	0.1679
257.9691	0.1669
258.1836	0.1604
258.3981	0.1722
258.6127	0.1768
258.8272	0.158
259.0417	0.1653
259.2561	0.1674
259.4706	0.1602
259.6851	0.1689
259.8995	0.166
260.114	0.1641
260.3284	0.1589
260.5428	0.1543
260.7572	0.1605
260.9716	0.1811
261.186	0.1684
261.4003	0.153
261.6147	0.1768
261.829	0.1592
262.0433	0.1543
262.2577	0.1594
262.472	0.1641
262.6863	0.1599
262.9005	0.1661
263.1148	0.1622
263.3291	0.1445
263.5433	0.1583
263.7576	0.1613
263.9718	0.1549
264.186	0.1574
264.4002	0.1629
264.6144	0.1615
264.8286	0.169
265.0427	0.1752
265.2569	0.1587
265.471	0.1649
265.6851	0.1461
265.8993	0.1696
266.1134	0.1544
266.3275	0.1635
266.5415	0.1621
266.7556	0.1666
266.9697	0.1717
267.1837	0.1686
267.3978	0.1604
267.6118	0.1678
267.8258	0.1789
268.0398	0.1476
268.2538	0.1679
268.4677	0.1747
268.6817	0.139
268.8957	0.1555
269.1096	0.1572
269.3235	0.1576
269.5374	0.1612
269.7514	0.1524
269.9652	0.1555
270.1791	0.1562
270.393	0.1511
270.6068	0.1638
270.8207	0.1505
271.0345	0.1494
271.2483	0.1464
271.4622	0.1394
271.676	0.1483
271.8897	0.1337
272.1035	0.1414
272.3173	0.1519
272.531	0.1521
272.7448	0.146
272.9585	0.1417
273.1722	0.1493
273.3859	0.1487
273.5996	0.145
273.8133	0.1421
274.0269	0.1423
274.2406	0.1437
274.4542	0.143
274.6679	0.142
274.8815	0.149
275.0951	0.1511
275.3087	0.1501
275.5223	0.1561
275.7358	0.1412
275.9494	0.1572
276.1629	0.1431
276.3765	0.1467
276.59	0.1473
276.8035	0.1436
277.017	0.1448
277.2305	0.1339
277.444	0.1544
277.6574	0.1359
277.8709	0.1477
278.0843	0.1429
278.2978	0.151
278.5112	0.1405
278.7246	0.1556
278.938	0.1495
279.1513	0.1492
279.3647	0.1568
279.5781	0.1396
279.7914	0.1431
280.0047	0.1632
280.2181	0.1491
280.4314	0.1501
280.6447	0.1526
280.8579	0.1567
281.0712	0.1549
281.2845	0.163
281.4977	0.165
281.711	0.147
281.9242	0.1557
282.1374	0.1384
282.3506	0.155
282.5638	0.1548
282.7769	0.1632
282.9901	0.1528
283.2033	0.1518
283.4164	0.1642
283.6295	0.1551
283.8426	0.1537
284.0557	0.1544
284.2688	0.1592
284.4819	0.1578
284.695	0.1471
284.908	0.175
285.1211	0.156
285.3341	0.1593
285.5471	0.1652
285.7601	0.1558
285.9731	0.1588
286.1861	0.1547
286.3991	0.1615
286.612	0.165
286.825	0.1628
287.0379	0.1724
287.2508	0.1538
287.4637	0.1651
287.6766	0.1577
287.8895	0.1599
288.1024	0.1713
288.3152	0.1752
288.5281	0.1566
288.7409	0.1524
288.9538	0.1614
289.1666	0.1492
289.3794	0.1533
289.5922	0.151
289.8049	0.1661
290.0177	0.1473
290.2304	0.1587
290.4432	0.1712
290.6559	0.1532
290.8686	0.1566
291.0813	0.1554
291.294	0.1611
291.5067	0.1618
291.7194	0.1588
291.932	0.1708
292.1447	0.148
292.3573	0.1555
292.5699	0.1525
292.7825	0.1549
292.9951	0.1635
293.2077	0.16
293.4203	0.152
293.6328	0.1425
293.8454	0.1662
294.0579	0.1553
294.2704	0.1756
294.4829	0.1564
294.6954	0.1665
294.9079	0.1529
295.1204	0.1496
295.3328	0.164
295.5453	0.1657
295.7577	0.1593
295.9701	0.1474
296.1825	0.1662
296.3949	0.1587
296.6073	0.1484
296.8197	0.1632
297.0321	0.1583
297.2444	0.1376
297.4567	0.1661
297.6691	0.1684
297.8814	0.152
298.0937	0.1659
298.306	0.1645
298.5182	0.1541
298.7305	0.1576
298.9428	0.1588
299.155	0.1609
299.3672	0.146
299.5794	0.1617
299.7916	0.1607
300.0038	0.1579
300.216	0.1705
300.4282	0.1561
300.6403	0.1462
300.8525	0.1662
301.0646	0.1461
301.2767	0.1574
301.4888	0.1533
301.7009	0.1712
301.913	0.1597
302.125	0.1584
302.3371	0.1598
302.5491	0.1608
302.7612	0.1692
302.9732	0.1631
303.1852	0.1621
303.3972	0.1533
303.6092	0.1519
303.8211	0.1548
304.0331	0.1565
304.245	0.1487
304.457	0.1357
304.6689	0.1435
304.8808	0.1648
305.0927	0.1469
305.3046	0.148
305.5164	0.1565
305.7283	0.1431
305.9401	0.1438
306.152	0.148
306.3638	0.1475
306.5756	0.141
306.7874	0.1447
306.9992	0.1437
307.2109	0.135
307.4227	0.12
307.6344	0.1402
307.8462	0.1272
308.0579	0.1345
308.2696	0.1281
308.4813	0.1308
308.693	0.127
308.9046	0.138
309.1163	0.1309
309.328	0.1212
309.5396	0.1225
309.7512	0.1257
309.9628	0.1253
310.1744	0.1206
310.386	0.1212
310.5976	0.1133
310.8091	0.114
311.0207	0.1053
311.2322	0.1154
311.4437	0.1017
311.6552	0.1098
311.8667	0.1055
312.0782	0.1046
312.2897	0.0959
312.5012	0.1093
312.7126	0.1002
312.924	0.1066
313.1355	0.1143
313.3469	0.1086
313.5583	0.1106
313.7696	0.1021
313.981	0.0985
314.1924	0.1065
314.4037	0.1059
314.6151	0.1033
314.8264	0.0922
315.0377	0.0943
315.249	0.0972
315.4603	0.1117
315.6716	0.0986
315.8828	0.0949
316.0941	0.0962
316.3053	0.0999
316.5165	0.0906
316.7277	0.087
316.9389	0.1022
317.1501	0.0956
317.3613	0.1046
317.5724	0.0895
317.7836	0.1111
317.9947	0.1045
318.2058	0.0985
318.417	0.0873
318.6281	0.0786
318.8391	0.1001
319.0502	0.0936
319.2613	0.0963
319.4723	0.1002
319.6834	0.1031
319.8944	0.0865
320.1054	0.0998
320.3164	0.0983
320.5274	0.0933
320.7383	0.1021
320.9493	0.0921
321.1602	0.1092
321.3712	0.099
321.5821	0.099
321.793	0.0951
322.0039	0.1032
322.2148	0.1004
322.4257	0.0988
322.6365	0.1161
322.8474	0.1035
323.0582	0.0933
323.269	0.1065
323.4798	0.1173
323.6906	0.1049
323.9014	0.0991
324.1122	0.1036
324.3229	0.1047
324.5337	0.1063
324.7444	0.0865
324.9551	0.1102
325.1658	0.1052
325.3765	0.1072
325.5872	0.1171
325.7979	0.0992
326.0085	0.1141
326.2192	0.1097
326.4298	0.1125
326.6404	0.0966
326.851	0.0911
327.0616	0.0922
327.2722	0.1059
327.4828	0.1086
327.6933	0.0901
327.9039	0.1072
328.1144	0.1197
328.3249	0.1299
328.5354	0.0877
328.7459	0.0982
328.9564	0.0907
329.1669	0.1127
329.3773	0.1066
329.5878	0.1141
329.7982	0.103
330.0086	0.1016
330.219	0.1017
330.4294	0.094
330.6398	0.0947
330.8502	0.1105
331.0605	0.1061
331.2708	0.1106
331.4812	0.1134
331.6915	0.113
331.9018	0.1064
332.1121	0.102
332.3224	0.1138
332.5326	0.1072
332.7429	0.0987
332.9531	0.1178
333.1633	0.1084
333.3735	0.1079
333.5837	0.1079
333.7939	0.1083
334.0041	0.1194
334.2143	0.1088
334.4244	0.1055
334.6346	0.0975
334.8447	0.1194
335.0548	0.1074
335.2649	0.0882
335.475	0.1173
335.685	0.1008
335.8951	0.1224
336.1051	0.1137
336.3152	0.1204
336.5252	0.1096
336.7352	0.1126
336.9452	0.1241
337.1552	0.1106
337.3652	0.1103
337.5751	0.1081
337.7851	0.1054
337.995	0.1143
338.2049	0.1134
338.4148	0.1127
338.6247	0.113
338.8346	0.1089
339.0445	0.1087
339.2543	0.102
339.4642	0.1164
339.674	0.1103
339.8838	0.1155
340.0936	0.1106
340.3034	0.1311
340.5132	0.1175
340.7229	0.1156
340.9327	0.1181
341.1424	0.1177
341.3522	0.126
341.5619	0.123
341.7716	0.126
341.9813	0.1298
342.1909	0.1163
342.4006	0.1318
342.6102	0.1284
342.8199	0.1095
343.0295	0.1266
343.2391	0.1261
343.4487	0.1255
343.6583	0.113
343.8679	0.1201
344.0774	0.1237
344.287	0.1221
344.4965	0.1134
344.706	0.1301
344.9155	0.1188
345.125	0.1252
345.3345	0.1245
345.544	0.1265
345.7534	0.1235
345.9629	0.1295
346.1723	0.1223
346.3817	0.1315
346.5911	0.1236
346.8005	0.1407
347.0099	0.1305
347.2193	0.137
347.4286	0.1333
347.638	0.1347
347.8473	0.1301
348.0566	0.1293
348.2659	0.1394
348.4752	0.1368
348.6845	0.1293
348.8937	0.1343
349.103	0.1511
349.3122	0.1277
349.5214	0.1379
349.7306	0.1376
349.9398	0.1444
350.149	0.1353
350.3582	0.1335
350.5674	0.1483
350.7765	0.1318
350.9856	0.1367
351.1948	0.1357
351.4039	0.125
351.613	0.1358
351.822	0.1449
352.0311	0.1447
352.2402	0.1484
352.4492	0.1537
352.6582	0.1552
352.8672	0.1401
353.0762	0.1443
353.2852	0.1404
353.4942	0.1413
353.7032	0.1619
353.9121	0.1388
354.1211	0.1466
354.33	0.1533
354.5389	0.1569
354.7478	0.1424
354.9567	0.1403
355.1655	0.1348
355.3744	0.1509
355.5833	0.1559
355.7921	0.1636
356.0009	0.1543
356.2097	0.1536
356.4185	0.1763
356.6273	0.1515
356.8361	0.1556
357.0448	0.1604
357.2536	0.1482
357.4623	0.1517
357.671	0.1523
357.8797	0.1704
358.0884	0.1748
358.2971	0.1632
358.5057	0.1645
358.7144	0.171
358.923	0.1523
359.1316	0.1644
359.3402	0.1551
359.5488	0.1698
359.7574	0.1652
359.966	0.1849
360.1746	0.1691
360.3831	0.1647
360.5916	0.1538
360.8002	0.1655
361.0087	0.1719
361.2172	0.2038
361.4256	0.1697
361.6341	0.1881
361.8426	0.1763
362.051	0.1889
362.2594	0.1714
362.4678	0.1783
362.6762	0.1958
362.8846	0.1908
363.093	0.18
363.3014	0.1888
363.5097	0.1695
363.718	0.1822
363.9264	0.1774
364.1347	0.1854
364.343	0.1933
364.5513	0.1995
364.7595	0.177
364.9678	0.1974
365.176	0.1993
365.3842	0.2028
365.5925	0.192
365.8007	0.1953
366.0089	0.1905
366.217	0.2014
366.4252	0.1977
366.6333	0.2013
366.8415	0.1995
367.0496	0.1905
367.2577	0.2066
367.4658	0.1943
367.6739	0.2077
367.882	0.2202
368.09	0.1915
368.2981	0.2078
368.5061	0.1906
368.7141	0.2203
368.9221	0.2088
369.1301	0.1909
369.3381	0.2045
369.5461	0.2121
369.754	0.2079
369.962	0.2275
370.1699	0.1958
370.3778	0.2303
370.5857	0.202
370.7936	0.1906
371.0015	0.2216
371.2093	0.2151
371.4172	0.2167
371.625	0.1908
371.8328	0.2037
372.0406	0.2118
372.2484	0.221
372.4562	0.2193
372.664	0.2236
372.8717	0.2401
373.0795	0.1968
373.2872	0.2055
373.4949	0.2143
373.7026	0.2157
373.9103	0.2171
374.118	0.2208
374.3256	0.226
374.5333	0.2171
374.7409	0.2081
374.9485	0.2322
375.1561	0.237
375.3637	0.2338
375.5713	0.227
375.7789	0.227
375.9864	0.2297
376.194	0.2115
376.4015	0.2207
376.609	0.2424
376.8165	0.2172
377.024	0.2127
377.2315	0.2081
377.4389	0.2285
377.6464	0.2457
377.8538	0.2389
378.0612	0.215
378.2686	0.2332
378.476	0.2529
378.6834	0.2295
378.8908	0.2259
379.0981	0.2409
379.3055	0.2512
379.5128	0.2176
379.7201	0.2372
379.9274	0.2345
380.1347	0.2334
380.342	0.2418
380.5492	0.235
380.7565	0.2338
380.9637	0.2394
381.1709	0.2251
381.3781	0.2294
381.5853	0.2468
381.7925	0.2332
381.9997	0.235
382.2068	0.2477
382.4139	0.2503
382.6211	0.2502
382.8282	0.241
383.0353	0.2278
383.2424	0.2597
383.4494	0.2547
383.6565	0.2367
383.8635	0.242
384.0706	0.2392
384.2776	0.2538
384.4846	0.2273
384.6916	0.2473
384.8986	0.2537
385.1055	0.2513
385.3125	0.2449
385.5194	0.2347
385.7263	0.2675
385.9333	0.2599
386.1402	0.2448
386.347	0.2609
386.5539	0.243
386.7608	0.256
386.9676	0.2338
387.1744	0.2385
387.3813	0.2362
387.5881	0.2476
387.7948	0.2465
388.0016	0.2398
388.2084	0.2567
388.4151	0.2481
388.6219	0.2392
388.8286	0.2467
389.0353	0.2548
389.242	0.2414
389.4487	0.2401
389.6553	0.2214
389.862	0.2182
390.0686	0.2322
390.2753	0.259
390.4819	0.2341
390.6885	0.2417
390.8951	0.2458
391.1016	0.2345
391.3082	0.2474
391.5147	0.2323
391.7213	0.2284
391.9278	0.2242
392.1343	0.2251
392.3408	0.2174
392.5473	0.2244
392.7537	0.2172
392.9602	0.2078
393.1666	0.2259
393.373	0.216
393.5794	0.2271
393.7858	0.214
393.9922	0.2041
394.1986	0.236
394.4049	0.2235
394.6113	0.2006
394.8176	0.2113
395.0239	0.2283
395.2302	0.2188
395.4365	0.2037
395.6428	0.2225
395.8491	0.2122
396.0553	0.2004
396.2615	0.1986
396.4678	0.2141
396.674	0.1831
396.8802	0.2139
397.0863	0.2208
397.2925	0.1934
397.4987	0.2059
397.7048	0.1895
397.9109	0.2186
398.117	0.1924
398.3231	0.2066
398.5292	0.2056
398.7353	0.2012
398.9413	0.2028
399.1474	0.1824
399.3534	0.1964
399.5594	0.1917
399.7654	0.2272
399.9714	0.2132
400.1774	0.2068
400.3833	0.1909
400.5893	0.2006
400.7952	0.2012
401.0011	0.2109
401.207	0.2058
401.4129	0.2103
401.6188	0.206
401.8247	0.2012
402.0305	0.1942
402.2364	0.1845
402.4422	0.2053
402.648	0.2025
402.8538	0.2058
403.0596	0.2093
403.2654	0.2135
403.4711	0.2015
403.6768	0.2122
403.8826	0.2031
404.0883	0.1908
404.294	0.199
404.4997	0.2018
404.7054	0.2068
404.911	0.191
405.1167	0.1972
405.3223	0.2149
405.5279	0.2137
405.7335	0.2072
405.9391	0.2156
406.1447	0.2127
406.3502	0.2095
406.5558	0.2102
406.7613	0.2043
406.9668	0.2082
407.1724	0.2042
407.3778	0.2062
407.5833	0.2056
407.7888	0.2125
407.9942	0.2255
408.1997	0.1982
408.4051	0.1966
408.6105	0.2196
408.8159	0.1906
409.0213	0.1982
409.2267	0.2121
409.432	0.1932
409.6374	0.2233
409.8427	0.1984
410.048	0.2163
410.2533	0.2028
410.4586	0.2026
410.6639	0.1883
410.8691	0.1939
411.0744	0.2048
411.2796	0.1912
411.4848	0.1904
411.69	0.1894
411.8952	0.2057
412.1004	0.1876
412.3056	0.1882
412.5107	0.1944
412.7158	0.1987
412.921	0.2055
413.1261	0.1978
413.3312	0.1965
413.5362	0.1806
413.7413	0.1825
413.9464	0.197
414.1514	0.1955
414.3564	0.1993
414.5614	0.19
414.7664	0.208
414.9714	0.1991
415.1764	0.1986
415.3813	0.2121
415.5863	0.1856
415.7912	0.1865
415.9961	0.2038
416.201	0.191
416.4059	0.1983
416.6108	0.1881
416.8156	0.1965
417.0205	0.1815
417.2253	0.18
417.4301	0.1919
417.6349	0.1946
417.8397	0.2002
418.0445	0.1972
418.2492	0.2026
418.454	0.1862
418.6587	0.1947
418.8634	0.1872
419.0681	0.1724
419.2728	0.1799
419.4775	0.1909
419.6822	0.1965
419.8868	0.1458
420.0915	0.1842
420.2961	0.1661
420.5007	0.1775
420.7053	0.1856
420.9099	0.1896
421.1144	0.1906
421.319	0.1618
421.5235	0.1863
421.728	0.1837
421.9325	0.1686
422.137	0.1786
422.3415	0.1744
422.546	0.1799
422.7504	0.1717
422.9549	0.1736
423.1593	0.1812
423.3637	0.1752
423.5681	0.1642
423.7725	0.1664
423.9769	0.1659
424.1812	0.1482
424.3856	0.1608
424.5899	0.1761
424.7942	0.1663
424.9985	0.1563
425.2028	0.1633
425.4071	0.1805
425.6113	0.1468
425.8156	0.1585
426.0198	0.1701
426.224	0.1509
426.4282	0.1632
426.6324	0.1657
426.8366	0.1598
427.0407	0.1514
427.2449	0.1607
427.449	0.1517
427.6531	0.1368
427.8572	0.1558
428.0613	0.1413
428.2654	0.1639
428.4694	0.1432
428.6735	0.125
428.8775	0.1585
429.0815	0.1542
429.2855	0.1439
429.4895	0.1438
429.6935	0.1389
429.8975	0.1434
430.1014	0.1234
430.3053	0.1252
430.5093	0.1379
430.7132	0.1321
430.9171	0.1415
431.1209	0.1468
431.3248	0.1393
431.5286	0.1263
431.7325	0.1399
431.9363	0.1099
432.1401	0.1275
432.3439	0.1162
432.5477	0.0923
432.7514	0.1075
432.9552	0.11
433.1589	0.1126
433.3627	0.1131
433.5664	0.1045
433.7701	0.1138
433.9737	0.1147
434.1774	0.1033
434.3811	0.0989
434.5847	0.1002
434.7883	0.1339
434.9919	0.0925
435.1955	0.104
435.3991	0.0956
435.6027	0.1029
435.8062	0.1077
436.0098	0.081
436.2133	0.0947
436.4168	0.0884
436.6203	0.0915
436.8238	0.1067
437.0272	0.0875
437.2307	0.089
437.4341	0.1043
437.6375	0.1047
437.841	0.0781
438.0443	0.0865
438.2477	0.0803
438.4511	0.0796
438.6545	0.0795
438.8578	0.0937
439.0611	0.0802
439.2644	0.0792
439.4677	0.0533
439.671	0.0711
439.8743	0.0766
440.0775	0.0753
440.2808	0.0746
440.484	0.057
440.6872	0.0532
440.8904	0.0723
441.0936	0.0728
441.2967	0.0657
441.4999	0.0532
441.703	0.0726
441.9062	0.0643
442.1093	0.0528
442.3124	0.0617
442.5155	0.0463
442.7185	0.0609
442.9216	0.0406
443.1246	0.068
443.3276	0.0454
443.5307	0.0535
443.7337	0.0639
443.9366	0.0617
444.1396	0.0432
444.3426	0.0497
444.5455	0.0511
444.7484	0.046
444.9513	0.0481
445.1542	0.0543
445.3571	0.047
445.56	0.044
445.7628	0.0325
445.9657	0.0369
446.1685	0.0397
446.3713	0.0619
446.5741	0.0382
446.7769	0.0321
446.9797	0.04
447.1824	0.0349
447.3852	0.0268
447.5879	0.0472
447.7906	0.0369
447.9933	0.0306
448.196	0.0303
448.3986	0.0421
448.6013	0.0354
448.8039	0.0218
449.0066	0.0264
449.2092	0.0431
449.4118	0.0501
449.6143	0.0317
449.8169	0.0252
450.0195	0.0204
450.222	0.0112
450.4245	0.0066
450.627	0.0253
450.8295	0.0184
451.032	0.009
451.2345	0.0237
451.4369	0.0143
451.6394	0.042
451.8418	0.0143
452.0442	0.0158
452.2466	0.0307
452.449	0.0124
452.6513	0.0227
452.8537	0.0136
453.056	-0
453.2583	0.0189
453.4607	0.0003
453.663	0.0025
453.8652	0.0241
454.0675	-0.0057
454.2697	0.026
454.472	-0.0039
454.6742	0.0107
454.8764	0.0061
455.0786	0.0293
455.2808	0.0121
455.4829	0.0202
455.6851	0.0247
455.8872	0.0186
456.0893	0.0229
456.2915	-0.002
456.4935	0.025
456.6956	0.0082
456.8977	0.0225
457.0997	0.0163
457.3018	0.0039
457.5038	0.0045
457.7058	0.0024
457.9078	0.0067
458.1098	0.0126
458.3117	0.0178
458.5137	-0.0054
458.7156	0.0039
458.9175	0.0015
459.1194	-0.005
459.3213	0.0154
459.5232	0.0122
459.725	0.0039
459.9269	0.0051
460.1287	-0.0022
460.3305	-0.0055
460.5323	0.0099
460.7341	0.0057
460.9359	-0.0014
461.1376	-0.0038
461.3394	0.0088
461.5411	0.0054
461.7428	0.0062
461.9445	0.0095
462.1462	0.0264
462.3479	0.0034
462.5495	0.0136
462.7512	0.0063
462.9528	-0.0054
463.1544	-0.0132
463.356	0.0059
463.5576	0.0153
463.7592	-0.0042
463.9607	0.0059
464.1623	0.0277
464.3638	0.0136
464.5653	-0.0016
464.7668	-0.0049
464.9683	-0.0059
465.1697	0.0045
465.3712	0.0079
465.5726	-0.0103
465.7741	0.0007
465.9755	-0.0029
466.1769	-0.0052
466.3782	0.0078
466.5796	-0.0139
466.7809	-0.0003
466.9823	0.0021
467.1836	-0.0096
467.3849	-0.0065
467.5862	0.004
467.7875	-0.0006
467.9887	0.0283
468.19	0.0018
468.3912	-0.0021
468.5924	0.0134
468.7936	-0.006
468.9948	0.0147
469.196	0.0087
469.3972	-0.0163
469.5983	0.0079
469.7994	-0.0206
470.0006	0.0022
470.2017	-0.0122
470.4027	-0.0023
470.6038	0.0069
470.8049	-0.0136
471.0059	0.0003
471.2069	-0.0281
471.408	0.0072
471.6089	-0.0029
471.8099	0.0067
472.0109	0.0073
472.2119	-0.0012
472.4128	-0.0161
472.6137	0.0074
472.8146	-0.0073
473.0155	-0.0105
473.2164	-0.0036
473.4173	0.0034
473.6181	0.001
473.819	0.007
474.0198	0.0002
474.2206	-0.009
474.4214	-0.0003
474.6222	-0.0027
474.8229	-0.0104
475.0237	-0.0025
475.2244	-0.0102
475.4251	0.0046
475.6258	-0.0005
475.8265	-0.007
476.0272	0.0129
476.2278	0.001
476.4285	0.0013
476.6291	-0.0171
476.8297	0.0024
477.0303	-0.0125
477.2309	0.0029
477.4315	-0.0056
477.632	0.0014
477.8326	-0.0028
478.0331	0.0091
478.2336	0.0026
478.4341	-0.006
478.6346	-0.0156
478.8351	-0.005
479.0355	-0.0044
479.236	-0.019
479.4364	0.0008
479.6368	-0.0126
479.8372	-0.0096
480.0376	-0.0064
480.2379	-0.0231
480.4383	-0.0052
480.6386	0.0051
480.8389	0.0072
481.0392	-0.0032
481.2395	-0.0083
481.4398	0.0011
481.6401	-0.0047
481.8403	-0.0073
482.0405	-0.0021
482.2408	-0.0056
482.441	0.0089
482.6411	-0.0014
482.8413	-0.0057
483.0415	-0.0002
483.2416	-0.0086
483.4417	-0.0161
483.6419	-0.0039
483.8419	-0.0007
484.042	0.0038
484.2421	-0.0022
484.4422	0.0008
484.6422	-0.0007
484.8422	-0.0057
485.0422	-0.0194
485.2422	-0.0009
485.4422	-0.0107
485.6422	-0.0115
485.8421	-0.0078
486.042	-0.0076
486.242	-0.007
486.4419	-0.0086
486.6417	-0.0104
486.8416	-0.0092
487.0415	-0.0109
487.2413	-0.0001
487.4411	-0.009
487.641	-0.0059
487.8408	-0.0037
488.0405	-0.0009
488.2403	0.0004
488.4401	0.0101
488.6398	0.0102
488.8395	-0.0082
489.0392	-0.0023
489.2389	-0.015
489.4386	-0.0096
489.6383	-0.0006
489.8379	0.0059
490.0376	-0.0006
490.2372	-0.0092
490.4368	-0.0044
490.6364	-0.0029
490.836	-0.0043
491.0355	-0.0133
491.2351	-0.0056
491.4346	0.0021
491.6341	-0.0128
491.8336	-0.0026
492.0331	-0.0068
492.2326	-0.0127
492.432	-0.0036
492.6315	-0.0115
492.8309	-0.0188
493.0303	-0.0152
493.2297	-0.0071
493.4291	-0.0028
493.6284	-0.0035
493.8278	-0.0035
494.0271	0.0021
494.2264	0.0016
494.4257	-0.0077
494.625	0.0043
494.8243	-0.0204
495.0236	-0.01
495.2228	-0.0025
495.422	0.0051
495.6213	-0.006
495.8205	-0.007
496.0196	0.0085
496.2188	0.0103
496.418	-0.0053
496.6171	-0.0082
496.8162	-0.0145
497.0153	0.0048
497.2144	-0.0008
497.4135	0.0035
497.6126	-0.0164
497.8116	0.0026
498.0107	0.0029
498.2097	-0.0109
498.4087	-0.0009
498.6077	0.003
498.8067	-0.0066
499.0056	0.0025
499.2046	-0.0054
499.4035	-0.0173
499.6024	-0
499.8013	-0.002
500.0002	-0.0071
500.199	-0.0078
500.3979	-0.0068
500.5967	-0.0163
500.7956	0.0081
500.9944	-0.0098
501.1932	0.0003
501.3919	-0.0039
501.5907	-0.0098
501.7895	-0.0063
501.9882	-0.0096
502.1869	-0.0089
502.3856	-0.0011
502.5843	-0.0136
502.783	-0.005
502.9816	-0.0058
503.1803	-0.013
503.3789	0.0044
503.5775	0.0038
503.7761	-0.0121
503.9747	-0.0036
504.1732	-0.0065
504.3718	-0.0038
504.5703	-0.0042
504.7689	-0.0059
504.9674	0.0048
505.1658	-0.0107
505.3643	-0.0105
505.5628	-0.0004
505.7612	0.0009
505.9597	0.0052
506.1581	0.0005
506.3565	0.012
506.5549	-0.0081
506.7532	-0.0139
506.9516	-0.0061
507.1499	-0.0034
507.3482	-0.0087
507.5465	-0.009
507.7448	-0.002
507.9431	-0.0135
508.1414	-0.0031
508.3396	-0.0057
508.5379	-0.0047
508.7361	-0.0091
508.9343	-0.0031
509.1325	0.0079
509.3306	-0.0115
509.5288	0.0004
509.7269	-0.0125
509.9251	-0.0049
510.1232	-0.0116
510.3213	0.0014
510.5193	-0.0012
510.7174	-0.0071
510.9154	-0.0096
511.1135	-0.0156
511.3115	-0.0041
511.5095	-0.002
511.7075	-0.0088
511.9055	0.0027
512.1034	-0.0079
512.3014	-0.0041
512.4993	-0.0024
512.6972	-0.0096
512.8951	-0.0207
513.093	0.0052
513.2908	-0.0004
513.4887	-0.0074
513.6865	-0.0053
513.8844	-0.0024
514.0822	-0.0022
514.2799	-0.0082
514.4777	-0.008
514.6755	-0.005
514.8732	-0.0083
515.0709	0.004
515.2687	-0.0093
515.4664	-0.003
515.664	-0.0066
515.8617	-0.0154
516.0594	-0.0036
516.257	-0.0011
516.4546	-0.0104
516.6522	0.0019
516.8498	-0.0064
517.0474	0.0028
517.2449	-0.009
517.4425	-0.0008
517.64	-0.0065
517.8375	0.0142
518.035	-0.0055
518.2325	-0.0086
518.43	0.0016
518.6274	-0.0049
518.8249	-0.0107
519.0223	-0.0055
519.2197	-0.0023
519.4171	-0.0095
519.6145	-0.0063
519.8118	-0.0011
520.0092	-0.0047
520.2065	-0.0117
520.4038	-0.0046
520.6011	-0.0018
520.7984	-0.007
520.9956	0.0011
521.1929	-0.0119
521.3901	0.0072
521.5874	-0.0018
521.7846	-0.0048
521.9818	-0.0114
522.1789	0.0015
522.3761	-0.0047
522.5732	-0.0055
522.7704	0.0027
522.9675	0.0055
523.1646	-0.0067
523.3617	0.0006
523.5587	0.0002
523.7558	0.0002
523.9528	-0.0018
524.1498	0.0067
524.3468	-0.0098
524.5438	-0.0093
524.7408	-0.0013
524.9378	0.0073
525.1347	0.0054
525.3316	-0.0024
525.5285	-0.0043
525.7254	-0.0077
525.9223	-0.001
526.1192	0.0013
526.316	-0.0041
526.5129	-0.0025
526.7097	0.0028
526.9065	-0.0078
527.1033	-0.0096
527.3	-0.0046
527.4968	-0.0115
527.6935	0.004
527.8903	-0.0093
528.087	-0.0051
528.2837	-0.01
528.4804	-0.0033
528.677	-0.0056
528.8737	-0.0039
529.0703	-0.0027
529.2669	-0.0066
529.4635	-0.0076
529.6601	0.0041
529.8567	0.0096
530.0532	-0.006
530.2498	0.001
530.4463	0.0041
530.6428	-0.0167
530.8393	0.0145
531.0358	-0.0107
531.2322	-0.0052
531.4287	0.0012
531.6251	-0.0029
531.8215	0.0016
532.0179	0.0019
532.2143	0.0037
532.4107	-0.003
532.607	-0.0053
532.8034	-0.0032
532.9997	0.0043
533.196	-0.0012
533.3923	-0.0136
533.5886	0.0032
533.7848	0.0068
533.9811	-0.0012
534.1773	0.0111
534.3735	0.0042
534.5697	0.0052
534.7659	0.0079
534.9621	0.0109
535.1582	-0.0128
535.3544	0.0019
535.5505	-0.0099
535.7466	-0.0004
535.9427	0.0008
536.1387	0.0003
536.3348	0.0046
536.5308	0.0024
536.7269	-0.0067
536.9229	0.0045
537.1189	-0.0061
537.3148	-0.0016
537.5108	-0.0068
537.7068	-0.0002
537.9027	0.0031
538.0986	0.0035
538.2945	-0.0049
538.4904	-0.0026
538.6863	-0.0014
538.8821	-0.0003
539.078	-0.0031
539.2738	0.0052
539.4696	-0.0048
539.6654	0.0091
539.8611	0.0161
540.0569	0.0031
540.2526	-0.0036
540.4484	-0.0011
540.6441	0.0079
540.8398	0.0036
541.0355	0.0063
541.2311	0.0034
541.4268	-0.0006
541.6224	0.0079
541.818	-0.0029
542.0136	-0.0052
542.2092	0.0009
542.4048	0.004
542.6003	-0.0006
542.7959	-0.0041
542.9914	-0.0003
543.1869	-0.0056
543.3824	0.0055
543.5779	0.0021
543.7734	0.0016
543.9688	-0.0105
544.1642	0.0018
544.3596	0.0012
544.555	-0.0052
544.7504	-0.0016
544.9458	-0.0021
545.1411	-0.0007
545.3365	-0.0036
545.5318	-0.0142
545.7271	0.0024
545.9224	-0.0019
546.1177	-0.0044
546.3129	0.0015
546.5081	-0.0093
546.7034	-0.0063
546.8986	-0.002
547.0938	-0.0061
547.289	-0.0033
547.4841	0.0111
547.6793	0.01
547.8744	-0.0064
548.0695	-0.0061
548.2646	0.0045
548.4597	0.0002
548.6548	-0.0029
548.8498	0.0069
549.0448	0.0075
549.2399	0.0032
549.4349	0.0068
549.6298	0.0068
549.8248	0.0138
550.0198	0.007
550.2147	0.0046
550.4096	0.0038
550.6045	-0.0006
550.7994	0.0015
550.9943	0.004
551.1892	0.0054
551.384	0.0094
551.5788	-0.0069
551.7737	0.0045
551.9685	0.0012
552.1632	0.004
552.358	-0.0041
552.5528	0.0054
552.7475	-0.0004
552.9422	0.0048
553.1369	0.0032
553.3316	0.013
553.5263	-0.0012
553.7209	0.0043
553.9156	0.0009
554.1102	-0.0053
554.3048	-0.0028
554.4994	0.0127
554.694	-0.0005
554.8885	0.0043
555.0831	-0.0015
555.2776	-0.01
555.4721	-0.0077
555.6666	0.0014
555.8611	0.0045
556.0555	-0.0095
556.25	0.0001
556.4444	-0.0101
556.6388	0.003
556.8332	-0.0005
557.0276	-0.0077
557.222	-0.0034
557.4163	0.0023
557.6107	-0.0096
557.805	0.0027
557.9993	-0.0071
558.1936	-0.0011
558.3879	0.0058
558.5821	0.009
558.7764	0.0011
558.9706	0.0015
559.1648	0.0063
559.359	0.0036
559.5532	-0.0088
559.7473	0.0002
559.9415	-0.0059
560.1356	-0.0004
560.3297	-0.0018
560.5238	0.0006
560.7179	-0.0036
560.9119	0.0027
561.106	-0.0053
561.3	-0.006
561.494	0.0024
561.688	-0.0027
561.882	-0.0087
562.076	-0.0051
562.2699	0.0022
562.4639	-0.0037
562.6578	-0.0043
562.8517	-0.0007
563.0456	-0.0037
563.2395	0.0073
563.4333	0.0013
563.6272	0.0079
563.821	-0.0028
564.0148	-0.0038
564.2086	-0.0059
564.4024	-0
564.5961	0.0033
564.7899	0.0106
564.9836	-0.0002
565.1773	0.0041
565.371	0.0109
565.5647	0.0136
565.7584	-0.0031
565.952	0.0012
566.1456	-0.0005
566.3393	0.0028
566.5329	-0.0014
566.7264	-0.0077
566.92	-0.0043
567.1136	0.0084
567.3071	-0.0032
567.5006	0.0085
567.6941	0.0048
567.8876	0.0007
568.0811	0.0016
568.2745	0.0038
568.468	0.0043
568.6614	-0
568.8548	-0.0006
569.0482	-0.01
569.2416	0.0009
569.4349	0.0016
569.6283	0.0077
569.8216	-0.0026
570.0149	0.0009
570.2082	0.005
570.4015	0.0132
570.5947	0.0103
570.788	0.0049
570.9812	0.0042
571.1744	0.0013
571.3676	-0.0042
571.5608	-0.005
571.754	0.0031
571.9471	0.0007
572.1402	0.0039
572.3333	0.0021
572.5264	0.0006
572.7195	-0.0015
572.9126	-0.0002
573.1057	-0.0044
573.2987	-0.0005
573.4917	0.0018
573.6847	-0.0052
573.8777	0.0057
574.0707	0.0025
574.2636	-0.0001
574.4566	-0.005
574.6495	0.0054
574.8424	-0.0033
575.0353	-0.0006
575.2281	0.0077
575.421	0.0041
575.6138	0.0068
575.8067	0.0031
575.9995	0.0044
576.1923	0.0068
576.385	0.0009
576.5778	0.0061
576.7706	0.0005
576.9633	-0.0004
577.156	0.0048
577.3487	0.0034
577.5414	0.0045
577.734	-0.0081
577.9267	-0.0007
578.1193	-0.0117
578.3119	-0.0036
578.5045	0.0004
578.6971	-0.0026
578.8897	0.0005
579.0822	0.0012
579.2747	-0.0014
579.4673	-0.0028
579.6598	-0.0034
579.8522	0.0014
580.0447	0.0012
580.2372	0.0009
580.4296	0.0061
580.622	-0.0026
580.8144	0.0028
581.0068	-0.0043
581.1992	-0.0058
581.3915	-0.0021
581.5839	-0.0037
581.7762	-0.0028
581.9685	0
582.1608	0.0098
582.353	-0.0006
582.5453	0.0051
582.7375	-0.0043
582.9298	0.0043
583.122	0.0079
583.3142	0.0001
583.5063	-0.0017
583.6985	0.0025
583.8906	-0.0074
584.0827	-0.0023
584.2749	0.0026
584.4669	0.0062
584.659	0.005
584.8511	0.0038
585.0431	-0.0002
585.2352	0.0043
585.4272	0.0031
585.6192	0.0085
585.8111	0.0026
586.0031	0.0017
586.195	-0.0009
586.387	0.0094
586.5789	0.0034
586.7708	0.0085
586.9627	0.003
587.1545	-0.0115
587.3464	0.0046
587.5382	0.0041
587.73	0.0081
587.9218	0.0084
588.1136	0.0039
588.3053	0.0055
588.4971	-0.0022
588.6888	-0.0071
588.8805	0.0068
589.0722	0.0067
589.2639	0.0011
589.4556	0.003
589.6472	-0.0036
589.8389	-0.0117
590.0305	-0.0072
590.2221	-0.0046
590.4137	-0.0069
590.6052	0.0039
590.7968	-0.0008
590.9883	-0.0012
591.1798	-0.0002
591.3713	-0.0037
591.5628	0.0011
591.7543	0.0082
591.9458	0.0072
592.1372	0.005
592.3286	0.0036
592.52	0.0038
592.7114	0.0016
592.9028	-0.0005
593.0941	0.0016
593.2855	0.001
593.4768	0.0015
593.6681	-0.0035
593.8594	-0.0012
594.0506	0.0058
594.2419	0.0087
594.4331	0.0002
594.6244	0.0085
594.8156	-0.0033
595.0067	0.0014
595.1979	0.0027
595.3891	0.0026
595.5802	0.0047
595.7713	-0.0006
595.9624	0.0004
596.1535	0.0134
596.3446	0.0053
596.5357	0.006
596.7267	0.0043
596.9177	-0.0008
597.1087	-0.0075
597.2997	-0.0071
597.4907	-0.0007
597.6817	0.003
597.8726	0.0016
598.0635	0.0024
598.2544	0.0025
598.4453	0.0028
598.6362	-0.0057
598.827	-0.0024
599.0179	0.0111
599.2087	0.0051
599.3995	-0.0007
599.5903	0.0026
599.7811	0.0031
599.9718	-0.0028
600.1626	-0.0065
600.3533	-0.0018
600.544	0.0008
600.7347	0.0008
600.9254	0.0039
601.116	-0.0049
601.3067	-0.001
601.4973	0.0053
601.6879	0.0121
601.8785	-0.0016
602.0691	0.0062
602.2596	0.0045
602.4502	0.0067
602.6407	0.0062
602.8312	0.0054
603.0217	0.0015
603.2122	-0.001
603.4027	0.001
603.5931	0.0015
603.7835	-0.0071
603.9739	-0.0008
604.1643	-0.0033
604.3547	-0.0064
604.5451	0.001
604.7354	0.0006
604.9257	0.0025
605.116	-0.004
605.3063	0.0064
605.4966	0.0051
605.6869	0.0026
605.8771	0.0039
606.0673	0.0037
606.2575	0.0056
606.4477	0.0054
606.6379	0.0045
606.8281	-0.0033
607.0182	0.0045
607.2083	0.0076
607.3985	-0.0027
607.5885	-0.0057
607.7786	0.0058
607.9687	-0.0057
608.1587	0.0091
608.3488	0.0057
608.5388	0.0084
608.7288	-0.0001
608.9187	0.0002
609.1087	-0.0053
609.2986	-0.0077
609.4886	0.0017
609.6785	0.0014
609.8684	0.0066
610.0582	0.0044
610.2481	0.0016
610.4379	0.0068
610.6278	0.0019
610.8176	0.0049
611.0074	-0.0031
611.1971	-0.0025
611.3869	-0.0005
611.5766	-0.0046
611.7664	0.0032
611.9561	0.0112
612.1458	0.0053
612.3354	-0.0038
612.5251	0.0025
612.7147	-0.0018
612.9044	0.0163
613.094	-0.0051
613.2836	-0.0005
613.4731	-0.0023
613.6627	-0.0005
613.8522	0.0053
614.0417	0.0067
614.2313	-0.0023
614.4207	-0.0021
614.6102	0.0019
614.7997	0.003
614.9891	-0.0016
615.1785	0.0067
615.3679	-0.0054
615.5573	0.0088
615.7467	0.0001
615.9361	-0.0007
616.1254	0.0016
616.3147	0.0068
616.504	0.0059
616.6933	0.0057
616.8826	0.0126
617.0718	0.0091
617.2611	0.0076
617.4503	0.0027
617.6395	0.0068
617.8287	0.0011
618.0179	0.0031
618.207	0.0124
618.3961	0.004
618.5853	0.0029
618.7744	0.0091
618.9634	0.0076
619.1525	0.0032
619.3416	0.0069
619.5306	0.0004
619.7196	0.0004
619.9086	0.0022
620.0976	0.0071
620.2866	0.0081
620.4755	0.0088
620.6645	0.0115
620.8534	0.0062
621.0423	0.0012
621.2312	0.0144
621.42	0.0126
621.6089	0.0078
621.7977	0.0046
621.9865	-0.0066
622.1753	0.0087
622.3641	0.0012
622.5529	0.0117
622.7416	0.0105
622.9303	0.007
623.1191	0.0051
623.3078	0.0072
623.4964	0.005
623.6851	0.002
623.8737	0.0013
624.0624	0.0062
624.251	0.0027
624.4396	0.0052
624.6282	-0.0069
624.8167	0.0043
625.0053	0.0053
625.1938	0.0081
625.3823	0.0018
625.5708	-0.0009
625.7593	0.003
625.9477	0.0035
626.1362	0.0063
626.3246	0.0057
626.513	0.0121
626.7014	0.0025
626.8898	0.003
627.0781	0.0008
627.2665	0.0001
627.4548	0.0026
627.6431	0.0143
627.8314	0.0152
628.0197	0.0086
628.2079	-0.0071
628.3962	0.0033
628.5844	0.0059
628.7726	0.0063
628.9608	0.0127
629.1489	-0.0063
629.3371	-0.0003
629.5252	0.0002
629.7134	0.0063
629.9015	0.0069
630.0895	0.0009
630.2776	0.0097
630.4657	0.0067
630.6537	0.0101
630.8417	0.0028
631.0297	-0.002
631.2177	0.0067
631.4057	-0.0068
631.5936	0.007
631.7815	0.003
631.9695	0.0078
632.1574	0.0119
632.3452	0.0124
632.5331	0.0053
632.7209	0.007
632.9088	0.0141
633.0966	0.0173
633.2844	0.0048
633.4722	0.0054
633.6599	0.01
633.8477	0.0045
634.0354	0.0024
634.2231	0.0015
634.4108	0.0019
634.5985	0.0083
634.7861	0.0071
634.9738	0.0084
635.1614	0.0114
635.349	0.0099
635.5366	0.0066
635.7242	0.0085
635.9117	0.0082
636.0993	0.0063
636.2868	0.0101
636.4743	0.002
636.6618	0.0143
636.8492	0.0176
637.0367	0.0049
637.2241	0.0048
637.4115	0.0048
637.5989	0.006
637.7863	0.0077
637.9737	-0.0032
638.161	0.0028
638.3484	-0.0001
638.5357	0.0086
638.723	0.0037
638.9103	0.0115
639.0975	0.0158
639.2848	0.0073
639.472	0.0064
639.6592	0.0082
639.8464	0.0045
640.0336	0.0132
640.2208	-0.001
640.4079	-0.0013
640.595	0.0009
640.7821	0.0008
640.9692	0.0024
641.1563	0.0064
641.3434	0.0067
641.5304	0.0047
641.7174	0.0041
641.9044	0.0003
642.0914	0.0108
642.2784	0.0103
642.4653	0.0071
642.6523	0.0055
642.8392	0.0026
643.0261	0.0114
643.213	-0.0009
643.3999	-0.0031
643.5867	0.0003
643.7735	0.0014
643.9604	0.0029
644.1472	0.0013
644.3339	-0
644.5207	0.0096
644.7075	0.0024
644.8942	0.0117
645.0809	0.0106
645.2676	0.0118
645.4543	0.0048
645.6409	0.01
645.8276	0.0037
646.0142	0.0069
646.2008	0.0014
646.3874	0.0022
646.574	0.0051
646.7605	0.0022
646.9471	-0.0105
647.1336	0.005
647.3201	-0.0005
647.5066	-0.0004
647.6931	0.0066
647.8795	-0
648.0659	0.005
648.2524	0.0042
648.4388	-0.0009
648.6252	0.0024
648.8115	0.0058
648.9979	0.0085
649.1842	0.0035
649.3705	0.001
649.5568	0.0058
649.7431	0.0048
649.9294	-0.0024
650.1156	0.0038
650.3018	0.0011
650.488	0.0109
650.6742	0.0095
650.8604	0.0103
651.0466	-0
651.2327	0.0023
651.4188	0.0071
651.6049	-0.0033
651.791	0.0027
651.9771	0.0076
652.1632	0.0026
652.3492	0.0039
652.5352	0.0056
652.7212	0.0028
652.9072	0.0101
653.0932	0.0018
653.2791	0.0007
653.465	0.0125
653.651	-0.0023
653.8369	-0.0002
654.0227	0.0022
654.2086	0.0076
654.3944	0.0043
654.5803	0.0066
654.7661	0.0016
654.9519	0.004
655.1377	0.0015
655.3234	0.0025
655.5092	-0.0054
655.6949	-0.0021
655.8806	-0.0033
656.0663	0.0005
656.2519	-0.0043
656.4376	0.0016
656.6232	0.0048
656.8088	0.0047
656.9945	0.0019
657.18	-0.0004
657.3656	0.0054
657.5511	0.0071
657.7367	-0.0016
657.9222	0.0039
658.1077	0.0054
658.2932	0.0104
658.4786	0.0003
658.6641	0.0023
658.8495	0.0038
659.0349	-0.0009
659.2203	0.0068
659.4057	0.0064
659.591	0.0027
659.7764	-0.0009
659.9617	0.0068
660.147	0.0019
660.3323	0.0018
660.5176	0.0138
660.7028	0.0094
660.888	0.008
661.0733	0.0038
661.2585	0.001
661.4436	0.0055
661.6288	0.0041
661.8139	-0.0048
661.9991	0.0068
662.1842	-0.0029
662.3693	0.0041
662.5544	0.001
662.7394	0.0048
662.9245	0.0004
663.1095	0.0052
663.2945	0.0072
663.4795	0.009
663.6644	0.0087
663.8494	0.0081
664.0343	0.002
664.2193	-0.0023
664.4042	-0.0015
664.589	-0.0007
664.7739	-0.0013
664.9587	-0.0051
665.1436	0.0044
665.3284	0.0031
665.5132	-0.0111
665.698	0.0051
665.8827	0.0068
666.0675	0.0029
666.2522	-0.0055
666.4369	0.0037
666.6216	0.0068
666.8063	0.0087
666.9909	0.0051
667.1756	-0.0044
667.3602	0.0033
667.5448	0.0054
667.7294	0.01
667.9139	0.0141
668.0985	0.0199
668.283	0.0065
668.4675	0.0036
668.652	0.002
668.8365	0.0046
669.0209	0.0119
669.2054	0.0189
669.3898	0.0064
669.5742	0.0086
669.7586	0.0149
669.943	0.0117
670.1273	0.0125
670.3117	0.0079
670.496	0.0094
670.6803	0.015
670.8646	0.0082
671.0488	0.0024
671.2331	0.009
671.4173	0.0132
671.6015	0.0056
671.7857	0.0047
671.9699	0.0086
672.1541	0.0067
672.3382	0.0092
672.5223	0.0056
672.7064	0.0042
672.8905	0.0084
673.0746	0.001
673.2587	0.0008
673.4427	0.0108
673.6267	0.0078
673.8107	0.0052
673.9947	0.009
674.1787	0.0106
674.3626	0.0006
674.5465	0.0026
674.7304	0.0085
674.9143	0.0037
675.0982	0.0219
675.2821	-0
675.4659	0.01
675.6497	0.0122
675.8335	0.0027
676.0173	0.0059
676.2011	0.0047
676.3849	0.0022
676.5686	-0.0062
676.7523	0.0014
676.936	0.003
677.1197	0.0009
677.3034	0.0032
677.487	0.0038
677.6706	0.0061
677.8542	0.0031
678.0378	-0.0001
678.2214	0.0054
678.405	-0.0002
678.5885	-0.0044
678.772	0.0066
678.9555	-0.0002
679.139	0.0028
679.3225	0.0037
679.5059	-0.0026
679.6894	0.003
679.8728	0.0044
680.0562	0.0014
680.2395	0.0042
680.4229	0.0042
680.6062	0.0051
680.7896	0.0029
680.9729	-0.0002
681.1562	0.0048
681.3394	0.0043
681.5227	-0.0014
681.7059	-0.0017
681.8891	-0.0006
682.0723	0.0072
682.2555	0.0067
682.4387	0.0093
682.6218	0.0005
682.805	0.008
682.9881	0.0027
683.1712	-0.0044
683.3542	0.0004
683.5373	0.0036
683.7203	-0.0048
683.9034	0.0038
684.0864	-0.0012
684.2694	-0.0004
684.4523	0.0024
684.6353	-0.0007
684.8182	0.0051
685.0011	0.0026
685.184	0.0018
685.3669	0.0071
685.5498	0.0039
685.7326	-0.0029
685.9154	-0.0019
686.0982	0.0068
686.281	0.0045
686.4638	0.0091
686.6465	0.0007
686.8293	-0.0014
687.012	0.0026
687.1947	-0.0072
687.3774	0.0132
687.56	-0.0014
687.7427	0.0004
687.9253	-0.0026
688.1079	0.0084
688.2905	0.0127
688.4731	0.006
688.6556	0.0001
688.8382	0.0008
689.0207	0.0028
689.2032	-0.0027
689.3857	0.003
689.5681	0.0036
689.7506	-0.0011
689.933	-0.005
690.1154	0.0008
690.2978	-0.0054
690.4802	-0.0001
690.6626	-0.0057
690.8449	-0.0057
691.0272	0.0017
691.2095	-0.0019
691.3918	-0.0033
691.5741	0.0043
691.7563	0.0022
691.9386	0.0042
692.1208	0.0043
692.303	0.0075
692.4852	0.0046
692.6673	0.0051
692.8495	0.0003
693.0316	0.0026
693.2137	0.0017
693.3958	0.0085
693.5778	0.0013
693.7599	0.0025
693.9419	0.0058
694.1239	0.0023
694.3059	0.0007
694.4879	0.0103
694.6699	0.0117
694.8518	0.0001
695.0337	0.0022
695.2157	0.0087
695.3975	0.0093
695.5794	0.0074
695.7613	0.0074
695.9431	0.0022
696.1249	0.0073
696.3067	0.0056
696.4885	0.0072
696.6703	0.0001
696.852	0.0075
697.0337	0.0075
697.2154	0.0046
697.3971	0.002
697.5788	0.0045
697.7605	0.0033
697.9421	0.0055
698.1237	0.0051
698.3053	0.0035
698.4869	-0.0009
698.6685	-0.0071
698.85	0.0016
699.0315	0.0076
699.213	0.0006
699.3945	0.0006
699.576	0.0098
699.7575	0.0051
699.9389	0.0131
700.1203	0.0071
700.3017	-0.004
700.4831	-0.0001
700.6645	-0.0041
700.8458	0.0165
701.0271	0.0038
701.2084	0.0173
701.3897	0.004
701.571	0.0127
701.7523	0.0035
701.9335	0.0115
702.1147	-0.0023
702.2959	0.0036
702.4771	0.0056
702.6583	0.0028
702.8394	-0.0074
703.0205	0.007
703.2016	-0.0037
703.3827	-0.0019
703.5638	0.0089
703.7449	0.009
703.9259	0.0104
704.1069	0.0062
704.2879	0.0065
704.4689	0.0018
704.6499	-0.0014
704.8308	0.0038
705.0117	0.0051
705.1927	0.0092
705.3735	0.0018
705.5544	-0.0016
705.7353	0.0029
705.9161	-0.0036
706.0969	0.0021
706.2777	0.0033
706.4585	0.0003
706.6393	0.0002
706.82	0.0047
707.0007	-0.0009
707.1815	0.0011
707.3621	0.0005
707.5428	0.0032
707.7235	0.0025
707.9041	0.0037
708.0847	-0.0053
708.2653	-0.0036
708.4459	-0.0179
708.6265	-0.0027
708.807	-0.0075
708.9875	-0.0084
709.168	-0.008
709.3485	-0.0041
709.529	-0.0124
709.7095	-0.0155
709.8899	-0.0007
710.0703	-0.0054
710.2507	-0.0008
710.4311	0.0033
710.6115	-0.0069
710.7918	-0.0038
710.9721	0.0072
711.1524	-0.0062
711.3327	-0.0035
711.513	0.0019
711.6932	-0.0029
711.8735	0.0149
712.0537	0.0008
712.2339	0.0091
712.4141	-0.0089
712.5942	0.0018
712.7744	-0.0031
712.9545	0.0002
713.1346	-0.0088
713.3147	-0.0036
713.4947	-0.0043
713.6748	-0.0048
713.8548	-0.0006
714.0348	0.0037
714.2148	-0.0003
714.3948	0.0119
714.5748	0.0019
714.7547	0.0063
714.9346	0.0155
715.1145	-0.0002
715.2944	0.0023
715.4743	0.0026
715.6541	0.0095
715.834	0.0119
716.0138	-0.003
716.1936	-0.0069
716.3733	-0.0069
716.5531	0.0023
716.7328	-0.0008
716.9126	-0.0051
717.0923	-0.0004
717.2719	0.0011
717.4516	0.0044
717.6312	0.0009
717.8109	-0.0163
717.9905	-0.0041
718.1701	-0.0081
718.3496	-0.0055
718.5292	-0.0053
718.7087	-0.002
718.8882	0.0106
719.0677	0.0023
719.2472	0.0021
719.4267	0.0106
719.6061	0.0026
719.7856	0.0069
719.965	0.0084
720.1443	-0.0016
720.3237	0.0102
720.5031	0.0024
720.6824	-0.0041
720.8617	-0.0047
721.041	0.0024
721.2203	0.0142
721.3995	0.0073
721.5788	0.0064
721.758	0.0095
721.9372	-0.0023
722.1164	0.0011
722.2956	0.0083
722.4747	0.0043
722.6538	-0.0033
722.8329	0.0083
723.012	0.0013
723.1911	0.0025
723.3702	0.0026
723.5492	0.0046
723.7282	0.0024
723.9072	0.0031
724.0862	-0.0062
724.2652	-0.006
724.4441	-0.0029
724.623	0.002
724.8019	0.011
724.9808	0.0046
725.1597	-0.0097
725.3385	-0.0007
725.5174	0.0035
725.6962	0.0025
725.875	0.0008
726.0538	0.0074
726.2325	-0.003
726.4112	0.0016
726.59	0.0026
726.7687	-0.0075
726.9474	-0.0037
727.126	-0.0046
727.3047	-0.0045
727.4833	0.0087
727.6619	0.0005
727.8405	-0.0122
728.0191	-0.0048
728.1976	0.0014
728.3762	0.0072
728.5547	-0.0032
728.7332	-0.004
728.9116	-0.0059
729.0901	-0.0011
729.2686	0.0034
729.447	0.0037
729.6254	-0.0008
729.8038	0.0061
729.9821	-0.0048
730.1605	0.0031
730.3388	0.0065
730.5171	0.0036
730.6954	-0.0018
730.8737	0.0107
731.0519	0.0066
731.2302	0.0079
731.4084	0.0211
731.5866	0.008
731.7648	0.0022
731.9429	0.0047
732.1211	-0.0044
732.2992	0.0015
732.4773	-0.0037
732.6554	0.0021
732.8335	0.003
733.0115	0.0046
733.1896	0.0084
733.3676	-0.0086
733.5456	0.0093
733.7235	0.0009
733.9015	-0.0047
734.0794	0.0026
734.2574	-0.003
734.4353	0.0004
734.6131	0.0068
734.791	0.0073
734.9689	0.0065
735.1467	0.0136
735.3245	-0.0087
735.5023	-0.003
735.68	0.0004
735.8578	0.0061
736.0355	-0.0109
736.2132	0.0037
736.3909	-0.0024
736.5686	-0.0101
736.7463	0.0044
736.9239	0.0021
737.1015	0.0008
737.2791	0.0105
737.4567	0.0034
737.6343	-0.0019
737.8118	0.0099
737.9894	0.0048
738.1669	-0.0038
738.3444	-0.006
738.5218	0.009
738.6993	0.0046
738.8767	0.0071
739.0541	0.0099
739.2315	-0.0058
739.4089	0.0006
739.5863	0.0073
739.7636	0.0067
739.9409	-0.0024
740.1182	0.01
740.2955	0.0025
740.4728	-0.0027
740.65	-0.0053
740.8272	0.0022
741.0044	-0.0007
741.1816	0.008
741.3588	-0.0042
741.5359	0.0024
741.7131	-0.0017
741.8902	0.0051
742.0673	0.0038
742.2444	-0.0049
742.4214	-0.0027
742.5985	0.0005
742.7755	-0.0015
742.9525	-0.0135
743.1295	0.0089
743.3064	-0.0003
743.4834	0.0048
743.6603	-0.0026
743.8372	0.0015
744.0141	0.0143
744.191	0.0103
744.3678	0.0001
744.5446	0.0023
744.7215	0.0095
744.8982	0.0054
745.075	-0.0066
745.2518	0.011
745.4285	0.0047
745.6052	-0.0022
745.7819	-0.0023
745.9586	-0.0059
746.1353	-0.0001
746.3119	-0.0018
746.4885	0.0034
746.6651	-0.0058
746.8417	0.0028
747.0183	-0.0028
747.1948	0.0082
747.3714	0.0119
747.5479	0.011
747.7244	0.0007
747.9008	0.0146
748.0773	-0.002
748.2537	-0.0041
748.4301	-0.0025
748.6065	0.0094
748.7829	0.0069
748.9593	-0.001
749.1356	0.007
749.3119	0.0091
749.4882	-0.0084
749.6645	0.0006
749.8408	-0.0018
750.017	-0.0045
750.1933	0.0078
750.3695	-0.0072
750.5457	0.0051
750.7218	-0.0004
750.898	0.0051
751.0741	0.0004
751.2502	0.0084
751.4263	0.0005
751.6024	0.0058
751.7784	-0.0065
751.9545	-0.0019
752.1305	0.0021
752.3065	-0.0102
752.4825	0.0029
752.6584	-0.0007
752.8344	-0.009
753.0103	-0.0063
753.1862	0.003
753.3621	0.0017
753.5379	-0.0085
753.7138	0.0033
753.8896	-0.0014
754.0654	0.0018
754.2412	0.0048
754.417	0.0013
754.5927	-0.0038
754.7685	0.0016
754.9442	0.0034
755.1199	0.0078
755.2956	-0.0013
755.4712	0.0096
755.6469	0.0001
755.8225	-0.001
755.9981	0.0023
756.1736	0.0123
756.3492	0.0014
756.5248	-0.0011
756.7003	-0.0026
756.8758	0.0135
757.0513	0.0012
757.2267	0.0021
757.4022	0.0077
757.5776	0.0043
757.753	0.0166
757.9284	0.01
758.1038	0.0144
758.2791	0.0111
758.4545	0.0004
758.6298	-0.0016
758.8051	0.0048
758.9803	0.0023
759.1556	0.0022
759.3308	0.0014
759.506	0.015
759.6812	0.0023
759.8564	0.0151
760.0316	0.007
760.2067	0.0124
760.3819	0.0108
760.557	0.025
760.732	0.0034
760.9071	-0.0009
761.0821	0.0012
761.2572	0.0076
761.4322	-0.0006
761.6072	0.0022
761.7821	0.0008
761.9571	0.0159
762.132	0.0012
762.3069	-0.0056
762.4818	0.0023
762.6567	0.0076
762.8316	-0.0026
763.0064	-0.0062
763.1812	-0.0012
763.356	-0.0094
763.5308	-0.0027
763.7055	0.001
763.8803	0.0007
764.055	-0.0007
764.2297	-0.002
764.4044	-0.0034
764.579	-0.0082
764.7537	-0.0117
764.9283	0.0066
765.1029	-0.0029
765.2775	-0.0007
765.4521	-0.0075
765.6266	0.0001
765.8011	-0.0054
765.9756	0.0016
766.1501	0.0037
766.3246	-0.0054
766.4991	-0.0002
766.6735	0.0101
766.8479	-0.0043
767.0223	0.0202
767.1967	0.0078
767.371	0.0015
767.5454	0.0023
767.7197	0.0015
767.894	-0.005
768.0683	-0.0009
768.2425	0.0038
768.4168	0.0033
768.591	0.0099
768.7652	0.0073
768.9394	0.0062
769.1135	0.0054
769.2877	-0.0007
769.4618	-0.0024
769.6359	-0.0022
769.81	-0.0073
769.984	-0.0087
770.1581	-0.0026
770.3321	-0.0052
770.5061	-0.0019
770.6801	-0.0112
770.8541	-0.001
771.028	-0.0037
771.202	-0.0125
771.3759	-0.0052
771.5498	-0.0114
771.7236	0.0066
771.8975	0.0004
772.0713	0.0034
772.2451	0.0055
772.4189	0.0142
772.5927	0.0147
772.7665	0.0024
772.9402	-0.0027
773.1139	0.0063
773.2876	-0.0074
773.4613	0.0004
773.635	0.0113
773.8086	0.0022
773.9822	-0.0048
774.1558	0.01
774.3294	-0.0067
774.503	0.0113
774.6765	0.0129
774.8501	0.011
775.0236	0.0077
775.1971	0.019
775.3705	-0.0082
775.544	0.0083
775.7174	-0.0052
775.8908	-0.001
776.0642	-0.009
776.2376	0.0052
776.4109	0.0035
776.5843	-0
776.7576	0.0102
776.9309	0.0148
777.1041	0.0094
777.2774	0.0153
777.4506	-0.009
777.6238	-0.019
777.797	0.003
777.9702	0.0028
778.1434	-0.0044
778.3165	-0.011
778.4896	-0.0065
778.6627	0.015
778.8358	0.0023
779.0089	0.0049
779.1819	-0.0025
779.3549	0.0066
779.5279	0.0101
779.7009	0.0009
779.8739	-0.0061
780.0468	-0.0045
780.2197	-0.0042
780.3926	-0.004
780.5655	0.0068
780.7384	0.0097
780.9112	0.0072
781.0841	0.0014
781.2569	0.0116
781.4297	0.0084
781.6024	0.0153
781.7752	0.0164
781.9479	0.0101
782.1206	0.0115
782.2933	0.0009
782.466	0.0087
782.6386	-0.0032
782.8113	0.0018
782.9839	0.0037
783.1565	0.0189
783.329	-0.0025
783.5016	0.0083
783.6741	0.0036
783.8466	-0.0007
784.0191	0.0132
784.1916	-0.0102
784.3641	-0.0025
784.5365	-0.0165
784.7089	0.0019
784.8813	-0.0089
785.0537	-0.0089
785.2261	-0.0121
785.3984	-0.0132
785.5707	-0.0068
785.743	-0.0074
785.9153	-0.0054
786.0876	0.0038
786.2598	-0.0155
786.432	-0.0173
786.6042	0.0054
786.7764	-0.0154
786.9486	-0.0016
787.1207	-0.0096
787.2928	0.015
787.4649	0.0021
787.637	-0
787.8091	0.0008
787.9811	-0.0058
788.1532	-0.007
788.3252	-0.0032
788.4972	-0.0069
788.6691	0.0008
788.8411	-0
789.013	-0.0103
789.1849	0.0082
789.3568	-0.0025
789.5287	0.003
789.7005	-0.0079
789.8723	0.0006
790.0442	0.0134
790.2159	-0.0014
790.3877	0.005
790.5595	-0.0106
790.7312	0.0096
790.9029	-0.0058
791.0746	-0.0071
791.2463	-0.0074
791.4179	-0.0044
791.5896	-0.0177
791.7612	-0.008
791.9328	0.0019
792.1044	-0.0192
792.2759	-0.004
792.4474	-0.0203
792.619	-0.0008
792.7905	0.0045
792.9619	-0.0071
793.1334	0.0071
793.3048	0.0154
793.4762	0.0015
793.6476	-0.0033
793.819	-0.005
793.9904	0.0006
794.1617	-0.0125
794.333	0.0051
794.5043	-0.0222
794.6756	-0.0123
794.8469	-0.0079
795.0181	-0.0031
795.1893	0.0002
795.3605	-0.0003
795.5317	-0.0149
795.7029	-0.0043
795.874	-0.0068
796.0452	-0.0045
796.2163	-0.0097
796.3873	0.0134
796.5584	0.0044
796.7294	0.0052
796.9005	0.0152
797.0715	0.0026
797.2425	-0.0002
797.4134	-0.0047
797.5844	-0.0117
797.7553	-0.0075
797.9262	-0.0058
798.0971	-0.0305
798.2679	-0.0197
798.4388	-0.0167
798.6096	-0.0013
798.7804	-0.0043
798.9512	0.0049
799.122	0.0048
799.2927	0.0067
799.4635	0.0104
799.6342	-0.0032
799.8049	-0.0134
799.9755	-0.0022
800.1462	-0.0019
800.3168	0.0096
800.4874	-0.0063
800.658	0.0343
800.8286	0.0138
800.9991	0.0185
801.1696	0.0027
801.3402	0.0127
801.5106	-0.0026
801.6811	0.0121
801.8516	0.0078
802.022	0.012
802.1924	0.0112
802.3628	-0.0082
802.5332	0.0027
802.7035	0.0349
802.8739	-0.0109
803.0442	-0.0039
803.2145	0.0134
803.3847	-0.0045
803.555	0.0036
803.7252	-0.0081
803.8954	-0.0148
804.0656	-0.0177
804.2358	-0.0017
804.4059	0.0059
804.5761	0.0015
804.7462	0.0055
804.9163	0.0079
805.0864	-0.0144
805.2564	0.0029
805.4264	0.0125
805.5965	-0.0113
805.7665	0.0015
805.9364	0.0027
806.1064	0.0265
806.2763	0.008
806.4462	0.0111
806.6161	-0.0163
806.786	-0.002
806.9559	-0.0103
807.1257	0.012
807.2955	0.0007
807.4653	0.009
807.6351	-0.0183
807.8048	-0.0014
807.9746	0.0098
808.1443	0.0269
808.314	0.0034
808.4837	-0.0132
808.6533	-0.0052
808.8229	0.029
808.9926	-0.0064
809.1622	0.0053
809.3317	-0.0083
809.5013	0.0015
809.6708	0.0184
809.8403	0.0035
810.0098	-0.0145
810.1793	-0.0154
810.3488	-0.001
810.5182	-0.023
810.6876	0.0061
810.857	-0.0173
811.0264	0.009
811.1958	0.0218
811.3651	0.009
811.5344	-0.0071
811.7037	-0.0139
811.873	-0.026
812.0422	-0.0088
812.2115	-0.0027
812.3807	-0.0062
812.5499	0.0093
812.7191	-0.0077
812.8882	-0.0129
813.0574	-0.0241
813.2265	0.0172
813.3956	-0.0164
813.5646	-0.0049
813.7337	-0.0165
813.9027	0.0005
814.0718	0.0266
814.2407	0.0081
814.4097	0.0011
814.5787	0.0178
814.7476	0.0126
814.9165	0.0042
815.0854	-0.0111
815.2543	0.0096
815.4232	-0.0186
815.592	0.0198
815.7608	0.0033
815.9296	0.0065
816.0984	0.0074
816.2671	0.009
816.4359	0.0076
816.6046	0.0082
816.7733	-0.0103
816.942	-0.0059
817.1106	0.0128
817.2793	0.0198
817.4479	-0.0018
817.6165	0.0143
817.785	0.0154
817.9536	-0.0136
818.1221	-0.0213
818.2906	0.0257
818.4591	-0.0026
818.6276	-0.003
818.7961	-0
818.9645	0.0299
819.1329	0.0094
819.3013	0.0141
819.4697	0.0195
819.638	0.0157
819.8064	0.0103
819.9747	-0.0093
820.143	0.0062
820.3113	-0.009
820.4795	0.0021
820.6477	0.0219
820.816	0.012
820.9842	0.0154
821.1523	-0.0089
821.3205	-0.0147
821.4886	0.0073
821.6567	0.0153
821.8248	-0.0041
821.9929	0.0055
822.1609	-0.0177
822.329	0.0068
822.497	0.0351
822.665	0.0052
822.833	0.0004
823.0009	0.0041
823.1688	0.043
823.3367	0.0089
823.5046	0.0105
823.6725	0.0161
823.8404	-0.0055
824.0082	0.0099
824.176	0.0315
824.3438	0.0283
824.5116	-0.0013
824.6793	0.0142
824.847	0.0113
825.0147	0.0043
825.1824	0.0202
825.3501	0.0068
825.5177	-0.0157
825.6854	-0.0259
825.853	0.0034
826.0206	-0.0301
826.1881	0.0096
826.3557	-0.047
826.5232	0.0278
826.6907	-0.0181
826.8582	-0.0009
827.0257	-0.0046
827.1931	0.0222
827.3605	0.0156
827.528	-0.0151
827.6953	-0.0151
827.8627	0.025
828.03	0.0225
828.1974	0.0105
828.3647	-0.0389
828.532	0.009
828.6992	-0.0034
828.8665	-0
829.0337	-0.009
829.2009	0.0268
829.3681	0.0145
829.5352	0.0276
829.7024	-0.0225
829.8695	-0.0229
830.0366	0.0392
830.2037	0.0161
830.3707	0.043
830.5378	-0.0193
830.7048	0.0055
830.8718	0.0404
831.0388	-0.0342
831.2057	0.007
831.3727	0.0279
831.5396	-0.0068
831.7065	-0.0091
831.8734	-0.0159
832.0402	-0.05
832.2071	-0.0204
832.3739	-0.0066
832.5407	0.0407
832.7075	-0.0507
832.8742	-0.0568
833.041	-0.0443
833.2077	-0.0055
833.3744	0.0175
833.541	-0.028
833.7077	-0.0037
833.8743	-0
834.0409	-0.0197
834.2075	0.0288
834.3741	-0.0079
834.5407	-0.0247
834.7072	-0.0069
834.8737	-0.0201
835.0402	0.0199
835.2067	0.0337
835.3731	-0.0162
835.5395	-0.0273
835.706	0.0098
835.8723	-0.0078
836.0387	0.0243
836.2051	-0.015
836.3714	0.0334
836.5377	-0.0494
836.704	-0.0188
836.8703	-0.0038
837.0365	-0.0269
837.2027	-0.0264
837.3689	0.0392
837.5351	-0.0212
837.7013	-0.0428
837.8674	-0.0401
838.0335	-0.0538
838.1997	-0.0104
838.3657	-0.0363
838.5318	-0.0495
838.6978	0.0368
838.8639	0.0236
839.0299	0.0069
839.1958	0.0135
839.3618	0.0256
839.5277	-0
839.6937	0.0025
839.8596	-0.0373
840.0254	0.0169
840.1913	0.016
840.3571	0.0356
840.523	-0.0118
840.6888	-0.0496
840.8545	-0.0534
841.0203	0.0088
841.186	0.0238
841.3517	0.01
841.5174	-0.018
841.6831	-0.0514
841.8488	-0.0124
842.0144	-0.0117
842.18	-0.0079
842.3456	0.0019
842.5112	-0.0406
842.6767	-0.057
842.8422	-0.0388
843.0077	-0.0336
843.1732	-0.0421
843.3387	-0.069
843.5042	-0.0271
843.6696	-0.0891
843.835	0.0022
844.0004	-0.0039
844.1657	0.0355
844.3311	-0.0501
844.4964	-0.094
844.6617	-0.0383
844.827	-0.0534
844.9923	0.0235
845.1575	-0.0441
845.3227	0.0105
845.4879	-0.0356
845.6531	-0.0481
845.8183	-0.0244
845.9834	-0.0313
846.1485	-0.016
846.3136	-0.0446
846.4787	-0.0443
846.6438	0.0479
846.8088	-0.0093
846.9738	-0.1006
847.1388	-0.0056
847.3038	-0.0697
847.4687	-0.1707
847.6337	0.0078
847.7986	-0.0026
847.9635	-0.0073
848.1284	-0.0538
848.2932	0.1202
848.458	-0.0134
848.6228	0.0316
848.7876	0.0099
848.9524	-0.0757
849.1172	-0.0694
849.2819	0.0303
849.4466	-0.1561
849.6113	-0.1188
849.7759	-0.0138
849.9406	0.032
850.1052	0.0402
850.2698	-0.0131
850.4344	-0.0248
850.599	-0.0948
850.7635	0.1258
850.928	-0.0123
851.0925	0.0039
851.257	0.0774
851.4215	0.0345
851.5859	-0.0235
851.7503	-0.0151
851.9147	-0
852.0791	-0.0959
852.2434	-0.0794
852.4078	0.0186
852.5721	0.0301
852.7364	-0.0997
852.9007	-0.2001
853.0649	-0.034
853.2291	-0.0561
853.3934	-0.0136
853.5575	-0.0293
853.7217	-0.0082
853.8859	-0.1786
854.05	-0.0569
854.2141	0.0268
854.3782	-0.103
854.5423	0.0643
854.7063	0.1238
854.8703	-0.12
855.0343	-0.0532
855.1983	-0.131
855.3623	0.1647
855.5262	0.0343
855.6901	-0.1112
855.854	0.0042
856.0179	0.0204
856.1818	0.0797
856.3456	-0.1357
856.5094	-0.149
856.6732	-0.0878
856.837	-0.0515
857.0008	0.0476
857.1645	-0.0876
857.3282	-0.0934
857.4919	0.0196
857.6556	-0.02
857.8192	0.1808
857.9828	0.0324
858.1465	-0.0374
858.31	-0.0103
858.4736	-0.05
858.6372	-0.3369
858.8007	-0.2498
858.9642	-0.0675
859.1277	-0.2167
859.2911	0.0754
859.4546	-0.0113
859.618	-0.4216
859.7814	0.0102
859.9448	0.0705
860.1081	0.1973
860.2715	0.1343
860.4348	-0.2024
860.5981	-0.0891
860.7614	-0.0691
860.9246	-0.1089
861.0879	-0.1866
861.2511	-0.0494
861.4143	-0.2729
861.5774	0.1075
861.7406	-0.2476
861.9037	-0.027
862.0668	-0.1995
862.2299	-0.0347
862.393	-0.5498
862.556	-0.1741
862.7191	-0.0548
862.8821	-0.1563
863.0451	-0.1703
863.208	0.0485
863.371	-0.1236
863.5339	-0.2943
863.6968	0.0693
863.8597	0.4304
864.0225	-0.1932
864.1854	-0.0089
864.3482	-0.2138
864.511	0.087
864.6737	0.0341
864.8365	-0.0074
864.9992	-0.6853
865.1619	-0.5726
865.3246	-0
865.4873	0.0254
865.65	-0.2239
865.8126	-0.1569
865.9752	0.0579
866.1378	-0.3291
866.3004	0.3128
866.4629	0.4009
866.6254	-0.3911
866.7879	-0.2212
866.9504	-0.3582
867.1129	-0
867.2753	-0.0767
867.4377	0.0266
867.6001	-0.2208
867.7625	0.1108
867.9249	-0.7796
868.0872	-0.1001
868.2495	0.0248
868.4118	-0.3149
868.5741	-0.4484
868.7363	-0.1497
868.8986	-0.4664
869.0608	-0.2197
869.223	0.3474
869.3851	0.0365
869.5473	0.3044
869.7094	0.0206
869.8715	0.7494
870.0336	-0
870.1957	-0.6756
870.3577	-0
870.5197	0.0456
870.6817	-0.5387
870.8437	-0.1362
871.0057	-0.737
871.1676	-0
871.3295	-0.5869
871.4914	-0
871.6533	-0.3495
871.8151	-0.625
871.977	-0
872.1388	-0
872.3006	0.2737
872.4623	-0
872.6241	0.4497
872.7858	0.0279
872.9475	-0.1244
873.1092	-0.1611
873.2709	1.2156
873.4325	-0.3182
873.5941	-0.3529
873.7557	-0
873.9173	0
874.0789	-0.4728
874.2404	-0
874.4019	0.0168
874.5634	-0.3063
874.7249	-0.1199
874.8863	-0.0619
875.0478	0.3336
875.2092	-0
875.3706	-0.0886
875.5319	-0.7208
875.6933	1.4378
875.8546	-0.5179
876.0159	-0
876.1772	-0
876.3385	-0
876.4997	0.1606
876.6609	-0.6357
876.8221	0.3505
876.9833	-0
877.1445	-0
877.3056	-0.0231
877.4667	-0.3355
877.6278	-0
877.7889	-0.6307
877.9499	-0
878.111	-0.7663
878.272	-0
878.433	-0
878.5939	-0
878.7549	-0.2138
878.9158	-0
879.0767	-0
879.2376	-0
879.3984	0.2062
879.5593	-0
879.7201	-0.0868
879.8809	-0.7575
880.0417	0.0614
880.2024	0.1629
880.3632	-0
880.5239	0.5353
880.6846	0.2511
880.8452	-2.5855
881.0059	-1.5237
881.1665	-0
881.3271	-0
881.4877	0.0951
881.6483	-0.5449
881.8088	-0.2782
881.9693	-0
882.1298	-0
882.2903	-0
