Data from MonoPyChalIsomerACN10uM440nmA_Absorbance_15-27-16-094.txt Node
Date: Fri Jul 05 15:27:16 BST 2024
User: LASERRRRR
Spectrometer: FLMT03099
Trigger mode: 0
Integration Time (sec): 1.000000E-1
Scans to average: 1
Electric dark correction enabled: true
Nonlinearity correction enabled: false
Boxcar width: 0
XAxis mode: Wavelengths
Number of Pixels in Spectrum: 3648
>>>>>Begin Spectral Data<<<<<
179.3399	-0.1008
179.5586	-0.1008
179.7771	-0.1008
179.9957	0.1406
180.2143	-0
180.4329	-0.0823
180.6514	-0
180.8699	-0
181.0885	-0
181.307	-0.0287
181.5255	0.8808
181.744	-0
181.9625	-0
182.181	-0
182.3994	0.1372
182.6179	-0.1542
182.8363	0.0299
183.0547	1.8451
183.2732	0.041
183.4916	0.1382
183.71	0.0994
183.9284	0.0692
184.1467	0.1157
184.3651	-0.0753
184.5835	-0.0792
184.8018	0.1079
185.0201	0.3889
185.2385	-0.2078
185.4568	0.2055
185.6751	0.0537
185.8934	0.2336
186.1117	0.2912
186.3299	-0.0152
186.5482	0.1337
186.7664	0.0438
186.9847	0.137
187.2029	0.0621
187.4211	0.2057
187.6393	0.2575
187.8575	0.042
188.0757	0.2155
188.2939	0.2303
188.512	0.2506
188.7302	-0.0297
188.9483	0.3505
189.1665	0.0375
189.3846	0.1117
189.6027	0.2658
189.8208	0.2317
190.0389	0.0263
190.257	0.1807
190.475	0.1024
190.6931	0.1762
190.9111	0.4408
191.1292	0.168
191.3472	0.3282
191.5652	0.2111
191.7832	0.1274
192.0012	0.458
192.2192	0.3174
192.4371	0.6085
192.6551	0.5789
192.873	0.6478
193.091	0.3175
193.3089	0.4362
193.5268	0.5026
193.7447	0.4575
193.9626	0.4672
194.1805	0.7526
194.3984	1.2114
194.6162	0.6763
194.8341	0.6289
195.0519	0.7959
195.2697	0.5852
195.4875	0.5479
195.7054	0.7531
195.9231	0.6571
196.1409	0.4825
196.3587	0.7377
196.5765	0.6753
196.7942	0.656
197.012	0.5962
197.2297	0.6884
197.4474	0.748
197.6651	0.6317
197.8828	0.6604
198.1005	0.4725
198.3182	0.5347
198.5358	0.9378
198.7535	0.6442
198.9711	0.4839
199.1888	0.6223
199.4064	0.8608
199.624	0.6165
199.8416	0.8183
200.0592	0.5417
200.2767	0.6997
200.4943	0.5536
200.7119	0.7767
200.9294	0.6537
201.1469	0.6067
201.3645	0.5646
201.582	0.7009
201.7995	0.6753
202.017	0.6017
202.2344	0.6627
202.4519	0.7591
202.6694	0.6012
202.8868	0.7658
203.1042	0.7273
203.3217	0.6262
203.5391	0.6368
203.7565	0.6193
203.9739	0.6855
204.1913	0.6976
204.4086	0.6743
204.626	0.7205
204.8433	0.7591
205.0607	0.6037
205.278	0.7578
205.4953	0.633
205.7126	0.6781
205.9299	0.7887
206.1472	0.7856
206.3644	0.6883
206.5817	0.6877
206.7989	0.7469
207.0162	0.6947
207.2334	0.6533
207.4506	0.5988
207.6678	0.7041
207.885	0.7476
208.1022	0.7005
208.3194	0.6311
208.5365	0.6511
208.7537	0.6272
208.9708	0.6166
209.1879	0.6478
209.405	0.7439
209.6222	0.7333
209.8392	0.7096
210.0563	0.559
210.2734	0.7522
210.4905	0.6697
210.7075	0.561
210.9245	0.6239
211.1416	0.7257
211.3586	0.621
211.5756	0.6201
211.7926	0.6434
212.0096	0.586
212.2265	0.6052
212.4435	0.599
212.6604	0.6074
212.8774	0.6121
213.0943	0.6083
213.3112	0.5584
213.5281	0.5837
213.745	0.5381
213.9619	0.5056
214.1788	0.5045
214.3956	0.4897
214.6125	0.4835
214.8293	0.4565
215.0461	0.4972
215.2629	0.4619
215.4798	0.4909
215.6965	0.456
215.9133	0.4523
216.1301	0.4383
216.3469	0.4442
216.5636	0.4075
216.7803	0.4125
216.9971	0.416
217.2138	0.3662
217.4305	0.3668
217.6472	0.3724
217.8639	0.4236
218.0805	0.3548
218.2972	0.3288
218.5138	0.3262
218.7305	0.3206
218.9471	0.3323
219.1637	0.3004
219.3803	0.2784
219.5969	0.2818
219.8135	0.2631
220.0301	0.2484
220.2466	0.284
220.4632	0.2759
220.6797	0.2295
220.8962	0.2283
221.1127	0.2355
221.3292	0.2602
221.5457	0.2331
221.7622	0.2465
221.9787	0.2472
222.1951	0.2419
222.4116	0.2468
222.628	0.2405
222.8444	0.2564
223.0608	0.2559
223.2772	0.2503
223.4936	0.2584
223.71	0.2528
223.9264	0.2674
224.1427	0.2365
224.3591	0.2621
224.5754	0.2546
224.7917	0.2561
225.008	0.2465
225.2243	0.2544
225.4406	0.2663
225.6569	0.2675
225.8732	0.2563
226.0894	0.265
226.3057	0.2677
226.5219	0.2761
226.7381	0.266
226.9543	0.2817
227.1705	0.2773
227.3867	0.2779
227.6029	0.3159
227.8191	0.3139
228.0352	0.263
228.2513	0.3364
228.4675	0.3055
228.6836	0.2849
228.8997	0.2993
229.1158	0.3106
229.3319	0.3024
229.548	0.3093
229.764	0.3269
229.9801	0.3155
230.1961	0.3294
230.4121	0.3266
230.6282	0.3441
230.8442	0.3218
231.0602	0.3657
231.2761	0.3513
231.4921	0.3342
231.7081	0.3382
231.924	0.3426
232.14	0.3521
232.3559	0.3442
232.5718	0.3568
232.7877	0.3551
233.0036	0.3495
233.2195	0.3491
233.4353	0.3699
233.6512	0.3541
233.867	0.3569
234.0829	0.3745
234.2987	0.3603
234.5145	0.3717
234.7303	0.3666
234.9461	0.3989
235.1619	0.3622
235.3776	0.3874
235.5934	0.3826
235.8091	0.3448
236.0249	0.3685
236.2406	0.379
236.4563	0.3864
236.672	0.4014
236.8877	0.3927
237.1034	0.3966
237.319	0.4081
237.5347	0.3965
237.7503	0.3804
237.966	0.4061
238.1816	0.406
238.3972	0.4021
238.6128	0.3975
238.8284	0.4099
239.0439	0.4078
239.2595	0.4024
239.475	0.4176
239.6906	0.3964
239.9061	0.4039
240.1216	0.3919
240.3371	0.4011
240.5526	0.4062
240.7681	0.3971
240.9836	0.4039
241.199	0.3974
241.4145	0.3848
241.6299	0.3707
241.8453	0.3788
242.0607	0.3694
242.2761	0.3823
242.4915	0.3731
242.7069	0.3661
242.9223	0.346
243.1376	0.3411
243.353	0.3521
243.5683	0.3418
243.7836	0.3299
243.9989	0.3252
244.2142	0.3167
244.4295	0.3126
244.6448	0.3176
244.86	0.2919
245.0753	0.2949
245.2905	0.2924
245.5057	0.2793
245.721	0.2727
245.9362	0.2802
246.1514	0.2849
246.3665	0.2669
246.5817	0.2448
246.7969	0.2519
247.012	0.2541
247.2271	0.2394
247.4423	0.2451
247.6574	0.2515
247.8725	0.2292
248.0876	0.2103
248.3026	0.2337
248.5177	0.2308
248.7328	0.22
248.9478	0.2065
249.1628	0.2129
249.3779	0.218
249.5929	0.2027
249.8079	0.2057
250.0228	0.1923
250.2378	0.2187
250.4528	0.1994
250.6677	0.1944
250.8827	0.1805
251.0976	0.1953
251.3125	0.185
251.5274	0.1787
251.7423	0.1877
251.9572	0.19
252.172	0.1797
252.3869	0.1956
252.6017	0.1878
252.8166	0.1606
253.0314	0.1646
253.2462	0.1586
253.461	0.1833
253.6758	0.1611
253.8906	0.1823
254.1053	0.1557
254.3201	0.1799
254.5348	0.1739
254.7496	0.1806
254.9643	0.1697
255.179	0.1745
255.3937	0.1682
255.6083	0.1689
255.823	0.1779
256.0377	0.1641
256.2523	0.1736
256.467	0.149
256.6816	0.1761
256.8962	0.1674
257.1108	0.1594
257.3254	0.1673
257.54	0.1604
257.7545	0.1637
257.9691	0.1789
258.1836	0.1557
258.3981	0.1747
258.6127	0.1671
258.8272	0.1573
259.0417	0.1586
259.2561	0.1582
259.4706	0.1676
259.6851	0.1744
259.8995	0.1614
260.114	0.1524
260.3284	0.152
260.5428	0.1528
260.7572	0.1739
260.9716	0.1697
261.186	0.147
261.4003	0.1575
261.6147	0.1735
261.829	0.1683
262.0433	0.159
262.2577	0.1682
262.472	0.1645
262.6863	0.1536
262.9005	0.1683
263.1148	0.1559
263.3291	0.1373
263.5433	0.1654
263.7576	0.1594
263.9718	0.1665
264.186	0.1584
264.4002	0.1604
264.6144	0.1598
264.8286	0.169
265.0427	0.1655
265.2569	0.1613
265.471	0.1506
265.6851	0.1504
265.8993	0.1557
266.1134	0.1556
266.3275	0.1511
266.5415	0.1552
266.7556	0.1681
266.9697	0.1603
267.1837	0.1612
267.3978	0.17
267.6118	0.1721
267.8258	0.1774
268.0398	0.1532
268.2538	0.1695
268.4677	0.1639
268.6817	0.1612
268.8957	0.1592
269.1096	0.1736
269.3235	0.1606
269.5374	0.1497
269.7514	0.1627
269.9652	0.1474
270.1791	0.1517
270.393	0.1509
270.6068	0.1612
270.8207	0.1423
271.0345	0.1396
271.2483	0.1451
271.4622	0.1533
271.676	0.1502
271.8897	0.1408
272.1035	0.1553
272.3173	0.1558
272.531	0.1388
272.7448	0.1439
272.9585	0.1502
273.1722	0.1471
273.3859	0.1449
273.5996	0.132
273.8133	0.1444
274.0269	0.1392
274.2406	0.1493
274.4542	0.1472
274.6679	0.1377
274.8815	0.1502
275.0951	0.1494
275.3087	0.1559
275.5223	0.1456
275.7358	0.1577
275.9494	0.1546
276.1629	0.1257
276.3765	0.152
276.59	0.165
276.8035	0.1424
277.017	0.1489
277.2305	0.1436
277.444	0.1512
277.6574	0.143
277.8709	0.1581
278.0843	0.1438
278.2978	0.1486
278.5112	0.1432
278.7246	0.1457
278.938	0.1539
279.1513	0.1518
279.3647	0.1627
279.5781	0.1445
279.7914	0.1572
280.0047	0.1592
280.2181	0.1511
280.4314	0.1666
280.6447	0.1612
280.8579	0.159
281.0712	0.1627
281.2845	0.1607
281.4977	0.1578
281.711	0.1498
281.9242	0.1525
282.1374	0.1675
282.3506	0.1542
282.5638	0.1591
282.7769	0.1534
282.9901	0.1575
283.2033	0.1595
283.4164	0.1683
283.6295	0.1442
283.8426	0.147
284.0557	0.158
284.2688	0.1718
284.4819	0.1587
284.695	0.1578
284.908	0.1658
285.1211	0.1613
285.3341	0.1631
285.5471	0.1706
285.7601	0.148
285.9731	0.1474
286.1861	0.1612
286.3991	0.1605
286.612	0.1712
286.825	0.1624
287.0379	0.1628
287.2508	0.1635
287.4637	0.1591
287.6766	0.1622
287.8895	0.1636
288.1024	0.1694
288.3152	0.1694
288.5281	0.1475
288.7409	0.1635
288.9538	0.1657
289.1666	0.1557
289.3794	0.1609
289.5922	0.1559
289.8049	0.1649
290.0177	0.1503
290.2304	0.1617
290.4432	0.1742
290.6559	0.1498
290.8686	0.1669
291.0813	0.1611
291.294	0.154
291.5067	0.1528
291.7194	0.1487
291.932	0.1798
292.1447	0.1711
292.3573	0.1517
292.5699	0.172
292.7825	0.1558
292.9951	0.1589
293.2077	0.1644
293.4203	0.1579
293.6328	0.1534
293.8454	0.1736
294.0579	0.1649
294.2704	0.1632
294.4829	0.1451
294.6954	0.172
294.9079	0.1601
295.1204	0.158
295.3328	0.1672
295.5453	0.157
295.7577	0.16
295.9701	0.1577
296.1825	0.1551
296.3949	0.1504
296.6073	0.1645
296.8197	0.1569
297.0321	0.1837
297.2444	0.1615
297.4567	0.1584
297.6691	0.1626
297.8814	0.1533
298.0937	0.1545
298.306	0.1616
298.5182	0.1638
298.7305	0.1591
298.9428	0.1573
299.155	0.1653
299.3672	0.1522
299.5794	0.1539
299.7916	0.162
300.0038	0.1483
300.216	0.1669
300.4282	0.1651
300.6403	0.1508
300.8525	0.1709
301.0646	0.1543
301.2767	0.1562
301.4888	0.16
301.7009	0.1642
301.913	0.1531
302.125	0.1624
302.3371	0.1636
302.5491	0.1576
302.7612	0.1542
302.9732	0.168
303.1852	0.1656
303.3972	0.1619
303.6092	0.1525
303.8211	0.1399
304.0331	0.1506
304.245	0.1539
304.457	0.1499
304.6689	0.1499
304.8808	0.1631
305.0927	0.156
305.3046	0.1412
305.5164	0.159
305.7283	0.1439
305.9401	0.1484
306.152	0.1602
306.3638	0.1462
306.5756	0.1386
306.7874	0.1465
306.9992	0.1464
307.2109	0.146
307.4227	0.1299
307.6344	0.151
307.8462	0.1305
308.0579	0.1351
308.2696	0.1429
308.4813	0.125
308.693	0.1292
308.9046	0.137
309.1163	0.1297
309.328	0.1249
309.5396	0.126
309.7512	0.1169
309.9628	0.1179
310.1744	0.1235
310.386	0.114
310.5976	0.1256
310.8091	0.1189
311.0207	0.1079
311.2322	0.1201
311.4437	0.1158
311.6552	0.1058
311.8667	0.1138
312.0782	0.0991
312.2897	0.1055
312.5012	0.112
312.7126	0.1025
312.924	0.1067
313.1355	0.1028
313.3469	0.108
313.5583	0.1139
313.7696	0.0944
313.981	0.1086
314.1924	0.0944
314.4037	0.1046
314.6151	0.1139
314.8264	0.0996
315.0377	0.1007
315.249	0.1022
315.4603	0.1122
315.6716	0.1067
315.8828	0.0967
316.0941	0.1082
316.3053	0.0938
316.5165	0.0888
316.7277	0.0967
316.9389	0.1071
317.1501	0.0953
317.3613	0.1053
317.5724	0.0879
317.7836	0.1082
317.9947	0.093
318.2058	0.0957
318.417	0.0954
318.6281	0.0869
318.8391	0.094
319.0502	0.0936
319.2613	0.0975
319.4723	0.0915
319.6834	0.1017
319.8944	0.0953
320.1054	0.1036
320.3164	0.1078
320.5274	0.0995
320.7383	0.1002
320.9493	0.0971
321.1602	0.1063
321.3712	0.0967
321.5821	0.1088
321.793	0.103
322.0039	0.0971
322.2148	0.0963
322.4257	0.0903
322.6365	0.1132
322.8474	0.1101
323.0582	0.1054
323.269	0.1041
323.4798	0.1067
323.6906	0.1026
323.9014	0.0981
324.1122	0.0969
324.3229	0.0982
324.5337	0.103
324.7444	0.0811
324.9551	0.1064
325.1658	0.1085
325.3765	0.1138
325.5872	0.1057
325.7979	0.1037
326.0085	0.1116
326.2192	0.112
326.4298	0.1036
326.6404	0.104
326.851	0.0938
327.0616	0.0969
327.2722	0.1097
327.4828	0.1122
327.6933	0.112
327.9039	0.115
328.1144	0.1203
328.3249	0.1087
328.5354	0.1057
328.7459	0.0958
328.9564	0.0988
329.1669	0.1105
329.3773	0.1116
329.5878	0.1062
329.7982	0.1013
330.0086	0.105
330.219	0.1128
330.4294	0.101
330.6398	0.113
330.8502	0.0965
331.0605	0.1137
331.2708	0.1137
331.4812	0.1085
331.6915	0.1042
331.9018	0.105
332.1121	0.1028
332.3224	0.1088
332.5326	0.1184
332.7429	0.102
332.9531	0.1183
333.1633	0.1063
333.3735	0.1105
333.5837	0.1006
333.7939	0.1098
334.0041	0.1199
334.2143	0.1138
334.4244	0.1057
334.6346	0.0921
334.8447	0.1088
335.0548	0.1034
335.2649	0.0984
335.475	0.1068
335.685	0.1066
335.8951	0.1251
336.1051	0.1124
336.3152	0.1135
336.5252	0.1039
336.7352	0.1084
336.9452	0.1212
337.1552	0.1217
337.3652	0.1124
337.5751	0.108
337.7851	0.1154
337.995	0.1089
338.2049	0.1163
338.4148	0.1056
338.6247	0.1219
338.8346	0.0962
339.0445	0.0954
339.2543	0.1113
339.4642	0.1245
339.674	0.1173
339.8838	0.1108
340.0936	0.1189
340.3034	0.1312
340.5132	0.1236
340.7229	0.1264
340.9327	0.1242
341.1424	0.1131
341.3522	0.1224
341.5619	0.1281
341.7716	0.118
341.9813	0.1306
342.1909	0.1082
342.4006	0.1199
342.6102	0.1323
342.8199	0.1172
343.0295	0.129
343.2391	0.1304
343.4487	0.1394
343.6583	0.1228
343.8679	0.1268
344.0774	0.1342
344.287	0.1411
344.4965	0.1163
344.706	0.1477
344.9155	0.1259
345.125	0.1239
345.3345	0.1345
345.544	0.1144
345.7534	0.1177
345.9629	0.1212
346.1723	0.1284
346.3817	0.1251
346.5911	0.1417
346.8005	0.1292
347.0099	0.14
347.2193	0.1374
347.4286	0.1273
347.638	0.1437
347.8473	0.131
348.0566	0.1335
348.2659	0.1474
348.4752	0.13
348.6845	0.1303
348.8937	0.1423
349.103	0.1468
349.3122	0.126
349.5214	0.1345
349.7306	0.1366
349.9398	0.1351
350.149	0.1413
350.3582	0.1385
350.5674	0.1403
350.7765	0.1378
350.9856	0.1426
351.1948	0.1445
351.4039	0.1387
351.613	0.1379
351.822	0.1537
352.0311	0.1381
352.2402	0.146
352.4492	0.1451
352.6582	0.1549
352.8672	0.1383
353.0762	0.1583
353.2852	0.1396
353.4942	0.1395
353.7032	0.1527
353.9121	0.1441
354.1211	0.1479
354.33	0.15
354.5389	0.1558
354.7478	0.1488
354.9567	0.1469
355.1655	0.1358
355.3744	0.1544
355.5833	0.1561
355.7921	0.1818
356.0009	0.1507
356.2097	0.1554
356.4185	0.1805
356.6273	0.1553
356.8361	0.1639
357.0448	0.1532
357.2536	0.1699
357.4623	0.1606
357.671	0.1678
357.8797	0.1619
358.0884	0.1613
358.2971	0.1534
358.5057	0.1691
358.7144	0.1706
358.923	0.1635
359.1316	0.1756
359.3402	0.1687
359.5488	0.1699
359.7574	0.172
359.966	0.1791
360.1746	0.1742
360.3831	0.1713
360.5916	0.1634
360.8002	0.1674
361.0087	0.1817
361.2172	0.1811
361.4256	0.1832
361.6341	0.186
361.8426	0.178
362.051	0.1804
362.2594	0.1758
362.4678	0.182
362.6762	0.2096
362.8846	0.1976
363.093	0.178
363.3014	0.1745
363.5097	0.1658
363.718	0.1836
363.9264	0.1759
364.1347	0.1746
364.343	0.1962
364.5513	0.2021
364.7595	0.1995
364.9678	0.2029
365.176	0.1892
365.3842	0.1877
365.5925	0.1819
365.8007	0.1915
366.0089	0.1949
366.217	0.1897
366.4252	0.2052
366.6333	0.1985
366.8415	0.2052
367.0496	0.1792
367.2577	0.2071
367.4658	0.2045
367.6739	0.2187
367.882	0.2079
368.09	0.1983
368.2981	0.1927
368.5061	0.1889
368.7141	0.2119
368.9221	0.2256
369.1301	0.2029
369.3381	0.2117
369.5461	0.2037
369.754	0.2017
369.962	0.2421
370.1699	0.1988
370.3778	0.236
370.5857	0.1989
370.7936	0.1947
371.0015	0.2286
371.2093	0.2286
371.4172	0.2181
371.625	0.1956
371.8328	0.2142
372.0406	0.2159
372.2484	0.2082
372.4562	0.2261
372.664	0.2183
372.8717	0.2185
373.0795	0.1887
373.2872	0.2275
373.4949	0.2179
373.7026	0.2271
373.9103	0.2434
374.118	0.2317
374.3256	0.2321
374.5333	0.2211
374.7409	0.213
374.9485	0.248
375.1561	0.2385
375.3637	0.2262
375.5713	0.2288
375.7789	0.2342
375.9864	0.2314
376.194	0.2307
376.4015	0.2263
376.609	0.2372
376.8165	0.2229
377.024	0.2224
377.2315	0.2252
377.4389	0.2353
377.6464	0.2357
377.8538	0.2382
378.0612	0.2278
378.2686	0.2359
378.476	0.2351
378.6834	0.2235
378.8908	0.2388
379.0981	0.2421
379.3055	0.2554
379.5128	0.2269
379.7201	0.2334
379.9274	0.2362
380.1347	0.2326
380.342	0.2655
380.5492	0.2444
380.7565	0.2504
380.9637	0.2509
381.1709	0.2309
381.3781	0.2415
381.5853	0.259
381.7925	0.2527
381.9997	0.2517
382.2068	0.2626
382.4139	0.2551
382.6211	0.2276
382.8282	0.2359
383.0353	0.2321
383.2424	0.242
383.4494	0.2551
383.6565	0.245
383.8635	0.2475
384.0706	0.2431
384.2776	0.2579
384.4846	0.232
384.6916	0.2246
384.8986	0.2498
385.1055	0.2445
385.3125	0.2458
385.5194	0.2209
385.7263	0.2597
385.9333	0.2532
386.1402	0.235
386.347	0.2484
386.5539	0.2236
386.7608	0.2538
386.9676	0.2173
387.1744	0.2517
387.3813	0.2385
387.5881	0.2447
387.7948	0.2384
388.0016	0.2436
388.2084	0.242
388.4151	0.2263
388.6219	0.2529
388.8286	0.2523
389.0353	0.2483
389.242	0.2493
389.4487	0.2536
389.6553	0.2358
389.862	0.2137
390.0686	0.2494
390.2753	0.2491
390.4819	0.2338
390.6885	0.2311
390.8951	0.2355
391.1016	0.2285
391.3082	0.2238
391.5147	0.2293
391.7213	0.2372
391.9278	0.2305
392.1343	0.2334
392.3408	0.2241
392.5473	0.2176
392.7537	0.2149
392.9602	0.2089
393.1666	0.2234
393.373	0.2101
393.5794	0.2274
393.7858	0.217
393.9922	0.1943
394.1986	0.2207
394.4049	0.208
394.6113	0.2014
394.8176	0.1976
395.0239	0.2257
395.2302	0.2255
395.4365	0.2054
395.6428	0.2127
395.8491	0.2019
396.0553	0.2167
396.2615	0.2019
396.4678	0.2115
396.674	0.2071
396.8802	0.2087
397.0863	0.2134
397.2925	0.2018
397.4987	0.2105
397.7048	0.2007
397.9109	0.2179
398.117	0.2014
398.3231	0.1972
398.5292	0.2083
398.7353	0.2213
398.9413	0.2001
399.1474	0.2045
399.3534	0.2024
399.5594	0.1946
399.7654	0.2131
399.9714	0.2196
400.1774	0.2041
400.3833	0.1976
400.5893	0.2108
400.7952	0.2124
401.0011	0.2082
401.207	0.2041
401.4129	0.2041
401.6188	0.2319
401.8247	0.2057
402.0305	0.1948
402.2364	0.1942
402.4422	0.2233
402.648	0.1992
402.8538	0.2002
403.0596	0.194
403.2654	0.2243
403.4711	0.1948
403.6768	0.2107
403.8826	0.212
404.0883	0.2051
404.294	0.1985
404.4997	0.2069
404.7054	0.1997
404.911	0.1902
405.1167	0.2006
405.3223	0.2122
405.5279	0.2183
405.7335	0.2056
405.9391	0.2261
406.1447	0.2042
406.3502	0.2235
406.5558	0.1936
406.7613	0.207
406.9668	0.2086
407.1724	0.2156
407.3778	0.2141
407.5833	0.199
407.7888	0.173
407.9942	0.2103
408.1997	0.202
408.4051	0.1963
408.6105	0.2068
408.8159	0.201
409.0213	0.1979
409.2267	0.2057
409.432	0.1901
409.6374	0.2099
409.8427	0.1978
410.048	0.1987
410.2533	0.1995
410.4586	0.2124
410.6639	0.1799
410.8691	0.2059
411.0744	0.1966
411.2796	0.1783
411.4848	0.1949
411.69	0.185
411.8952	0.1967
412.1004	0.1898
412.3056	0.2191
412.5107	0.2053
412.7158	0.2133
412.921	0.1907
413.1261	0.2039
413.3312	0.1882
413.5362	0.201
413.7413	0.1906
413.9464	0.2005
414.1514	0.2131
414.3564	0.1865
414.5614	0.1739
414.7664	0.196
414.9714	0.2091
415.1764	0.1947
415.3813	0.1872
415.5863	0.2076
415.7912	0.1921
415.9961	0.1934
416.201	0.1997
416.4059	0.2268
416.6108	0.1886
416.8156	0.1897
417.0205	0.1995
417.2253	0.1737
417.4301	0.1944
417.6349	0.1815
417.8397	0.1767
418.0445	0.1879
418.2492	0.1809
418.454	0.2037
418.6587	0.1736
418.8634	0.195
419.0681	0.1666
419.2728	0.1879
419.4775	0.1833
419.6822	0.1864
419.8868	0.1751
420.0915	0.1656
420.2961	0.1926
420.5007	0.1846
420.7053	0.1856
420.9099	0.1951
421.1144	0.1863
421.319	0.175
421.5235	0.171
421.728	0.181
421.9325	0.183
422.137	0.1899
422.3415	0.1728
422.546	0.1811
422.7504	0.1753
422.9549	0.1916
423.1593	0.1776
423.3637	0.19
423.5681	0.1759
423.7725	0.1676
423.9769	0.1731
424.1812	0.1562
424.3856	0.1596
424.5899	0.1634
424.7942	0.1559
424.9985	0.1739
425.2028	0.1518
425.4071	0.1847
425.6113	0.1608
425.8156	0.1596
426.0198	0.1694
426.224	0.1481
426.4282	0.1625
426.6324	0.1502
426.8366	0.1651
427.0407	0.1477
427.2449	0.1622
427.449	0.1731
427.6531	0.1464
427.8572	0.1531
428.0613	0.1423
428.2654	0.1756
428.4694	0.1444
428.6735	0.1531
428.8775	0.1703
429.0815	0.1695
429.2855	0.1453
429.4895	0.1613
429.6935	0.1624
429.8975	0.139
430.1014	0.1432
430.3053	0.1295
430.5093	0.1423
430.7132	0.1304
430.9171	0.1262
431.1209	0.141
431.3248	0.1273
431.5286	0.1285
431.7325	0.1352
431.9363	0.1185
432.1401	0.1395
432.3439	0.1209
432.5477	0.1339
432.7514	0.1087
432.9552	0.1158
433.1589	0.1156
433.3627	0.1167
433.5664	0.1158
433.7701	0.1073
433.9737	0.1003
434.1774	0.1007
434.3811	0.1076
434.5847	0.117
434.7883	0.0963
434.9919	0.1065
435.1955	0.1187
435.3991	0.1003
435.6027	0.1082
435.8062	0.1046
436.0098	0.0829
436.2133	0.1001
436.4168	0.0935
436.6203	0.0937
436.8238	0.0978
437.0272	0.0998
437.2307	0.1002
437.4341	0.1018
437.6375	0.0954
437.841	0.0877
438.0443	0.0963
438.2477	0.0919
438.4511	0.0909
438.6545	0.0966
438.8578	0.096
439.0611	0.0811
439.2644	0.076
439.4677	0.06
439.671	0.0627
439.8743	0.0696
440.0775	0.0666
440.2808	0.0751
440.484	0.0666
440.6872	0.0713
440.8904	0.0652
441.0936	0.0738
441.2967	0.0839
441.4999	0.0716
441.703	0.0509
441.9062	0.071
442.1093	0.0586
442.3124	0.0722
442.5155	0.0504
442.7185	0.0572
442.9216	0.0365
443.1246	0.0723
443.3276	0.0516
443.5307	0.0563
443.7337	0.0575
443.9366	0.0574
444.1396	0.0457
444.3426	0.0415
444.5455	0.0589
444.7484	0.0432
444.9513	0.0562
445.1542	0.0603
445.3571	0.0495
445.56	0.0555
445.7628	0.028
445.9657	0.0359
446.1685	0.0624
446.3713	0.0435
446.5741	0.0455
446.7769	0.0292
446.9797	0.0325
447.1824	0.0377
447.3852	0.0314
447.5879	0.0506
447.7906	0.0378
447.9933	0.0466
448.196	0.0241
448.3986	0.0365
448.6013	0.0237
448.8039	0.0227
449.0066	0.0429
449.2092	0.0427
449.4118	0.0339
449.6143	0.0464
449.8169	0.0347
450.0195	0.0102
450.222	0.0099
450.4245	0.038
450.627	0.0365
450.8295	0.0375
451.032	0.022
451.2345	0.0232
451.4369	0.0251
451.6394	0.0323
451.8418	-0.0036
452.0442	0.0164
452.2466	0.0296
452.449	0.0113
452.6513	0.0289
452.8537	0.0065
453.056	-0.0052
453.2583	0.015
453.4607	0.0104
453.663	0.0097
453.8652	0.0129
454.0675	0.0103
454.2697	0.0314
454.472	-0.0102
454.6742	0.0148
454.8764	0.0296
455.0786	0.0001
455.2808	0.005
455.4829	0.017
455.6851	0.0145
455.8872	0.0057
456.0893	0.0246
456.2915	0.0038
456.4935	0.0329
456.6956	0.0028
456.8977	0.0183
457.0997	0.0075
457.3018	-0.0024
457.5038	0.0146
457.7058	0.0161
457.9078	0.0216
458.1098	0.018
458.3117	0.0174
458.5137	0.0188
458.7156	0.009
458.9175	-0.0065
459.1194	0.0158
459.3213	0.0161
459.5232	0.0042
459.725	-0.0014
459.9269	0.0103
460.1287	-0.0091
460.3305	0.0086
460.5323	0.0079
460.7341	0.0053
460.9359	0.0172
461.1376	0.0068
461.3394	0.0069
461.5411	0.0083
461.7428	0.0008
461.9445	0.0162
462.1462	0.0166
462.3479	0.0091
462.5495	0.0024
462.7512	0.0105
462.9528	0.0035
463.1544	0.0008
463.356	0.0271
463.5576	0.0035
463.7592	0.0023
463.9607	-0.0066
464.1623	0.0227
464.3638	0.0121
464.5653	-0.007
464.7668	0.0083
464.9683	0.013
465.1697	0.0149
465.3712	-0.0138
465.5726	-0.0115
465.7741	-0.0035
465.9755	-0.0071
466.1769	0.0069
466.3782	0.0033
466.5796	-0.0068
466.7809	0.0219
466.9823	-0.0046
467.1836	0.0118
467.3849	-0.0002
467.5862	-0.0024
467.7875	0.0004
467.9887	0.0182
468.19	0.0014
468.3912	-0.0085
468.5924	-0.0129
468.7936	-0.0015
468.9948	-0.0036
469.196	0.0113
469.3972	-0.0063
469.5983	-0.0064
469.7994	0.0062
470.0006	0.0011
470.2017	-0.0084
470.4027	0.002
470.6038	0.018
470.8049	-0.0052
471.0059	-0.0047
471.2069	-0.031
471.408	0.0065
471.6089	0.0037
471.8099	-0.0077
472.0109	0.0073
472.2119	-0.0164
472.4128	-0.0144
472.6137	0.0018
472.8146	-0.0103
473.0155	-0.0079
473.2164	0.0152
473.4173	0.0057
473.6181	0.0035
473.819	0.0137
474.0198	-0.0128
474.2206	-0.0111
474.4214	0.0007
474.6222	-0.0006
474.8229	-0.0168
475.0237	-0.0092
475.2244	-0.0056
475.4251	-0.0022
475.6258	-0.0068
475.8265	-0.0026
476.0272	0.008
476.2278	-0.0135
476.4285	-0.0075
476.6291	-0.006
476.8297	0.0021
477.0303	-0.0043
477.2309	0.0061
477.4315	-0.0087
477.632	0.006
477.8326	-0.0041
478.0331	0.0032
478.2336	-0.0059
478.4341	-0.0078
478.6346	0.0008
478.8351	-0.0013
479.0355	-0.005
479.236	0.003
479.4364	0.0044
479.6368	0.005
479.8372	-0.0061
480.0376	-0.0017
480.2379	-0.0243
480.4383	-0.0176
480.6386	-0.0009
480.8389	0.0049
481.0392	-0.0072
481.2395	-0.0021
481.4398	0.0087
481.6401	0.0031
481.8403	-0.0102
482.0405	-0.0024
482.2408	-0.008
482.441	-0.0021
482.6411	-0.0041
482.8413	-0.0104
483.0415	-0.0134
483.2416	-0.0056
483.4417	-0.0015
483.6419	-0.0037
483.8419	0.0048
484.042	0.0049
484.2421	0.0006
484.4422	0.0026
484.6422	-0.0051
484.8422	-0.0057
485.0422	-0.0127
485.2422	0.0062
485.4422	-0.0042
485.6422	-0.0053
485.8421	-0.0072
486.042	-0.0073
486.242	-0.0014
486.4419	-0.0128
486.6417	-0.0106
486.8416	0.0035
487.0415	-0.001
487.2413	-0.0143
487.4411	-0.0047
487.641	-0.0127
487.8408	0.0083
488.0405	-0.0042
488.2403	-0.0044
488.4401	0.0038
488.6398	0.0061
488.8395	-0.01
489.0392	-0.0002
489.2389	0.0034
489.4386	-0.0088
489.6383	-0.0074
489.8379	0.003
490.0376	-0.0086
490.2372	-0.0063
490.4368	-0.0032
490.6364	-0.0146
490.836	-0.0016
491.0355	-0.0028
491.2351	-0.0063
491.4346	-0.0031
491.6341	-0.0061
491.8336	-0.003
492.0331	-0.0187
492.2326	-0.0051
492.432	-0.0018
492.6315	0.0015
492.8309	-0.0117
493.0303	-0.003
493.2297	-0.0071
493.4291	0.0111
493.6284	-0.0071
493.8278	0.003
494.0271	0.0042
494.2264	0.0047
494.4257	-0.0152
494.625	-0.0044
494.8243	-0.0134
495.0236	-0.0046
495.2228	-0.0099
495.422	-0.002
495.6213	-0.0062
495.8205	0.0044
496.0196	0.004
496.2188	0.0166
496.418	-0.0126
496.6171	-0.0042
496.8162	-0.0131
497.0153	0.0145
497.2144	-0.0112
497.4135	-0.0063
497.6126	-0.0136
497.8116	-0.019
498.0107	0.0001
498.2097	-0.0072
498.4087	-0.0095
498.6077	-0.0002
498.8067	-0.0063
499.0056	0.0086
499.2046	-0.001
499.4035	-0.0111
499.6024	-0.0054
499.8013	0.011
500.0002	0.0011
500.199	0.0003
500.3979	-0.003
500.5967	-0.0047
500.7956	0.0085
500.9944	-0.0081
501.1932	-0.0124
501.3919	-0.0063
501.5907	-0.0085
501.7895	0.0025
501.9882	-0.0088
502.1869	-0.0093
502.3856	-0.0055
502.5843	-0.0093
502.783	-0.0066
502.9816	-0.0015
503.1803	-0.0188
503.3789	-0.0079
503.5775	0.0017
503.7761	-0.0063
503.9747	-0.0021
504.1732	-0.0066
504.3718	-0.0032
504.5703	-0.0085
504.7689	-0.0087
504.9674	-0.0042
505.1658	-0.0114
505.3643	-0.0035
505.5628	-0.0015
505.7612	-0.0036
505.9597	0.0129
506.1581	-0.0071
506.3565	0.0066
506.5549	0.0024
506.7532	-0.0087
506.9516	-0.0051
507.1499	-0.0005
507.3482	-0.0111
507.5465	-0.0071
507.7448	-0.0038
507.9431	0.0004
508.1414	-0.0012
508.3396	-0.0066
508.5379	0.0097
508.7361	-0.0072
508.9343	-0.0093
509.1325	0.0115
509.3306	-0.0103
509.5288	-0.0023
509.7269	0.0016
509.9251	-0.0046
510.1232	-0.01
510.3213	0.0037
510.5193	0.0053
510.7174	-0.0145
510.9154	-0.0014
511.1135	-0.0114
511.3115	-0.0089
511.5095	-0.0005
511.7075	-0.0082
511.9055	0.0046
512.1034	-0.0082
512.3014	0.007
512.4993	0.0094
512.6972	-0.0068
512.8951	-0.0098
513.093	-0.0008
513.2908	0.0015
513.4887	-0.0038
513.6865	-0.0138
513.8844	-0.0046
514.0822	-0.0015
514.2799	-0.0096
514.4777	-0.0064
514.6755	-0.0031
514.8732	-0.007
515.0709	0.0045
515.2687	-0.0115
515.4664	0.0031
515.664	-0.0069
515.8617	-0.0002
516.0594	-0.0124
516.257	0.0031
516.4546	-0.0069
516.6522	0.0026
516.8498	0.0008
517.0474	0.0093
517.2449	0.009
517.4425	-0.0227
517.64	-0.0029
517.8375	0.009
518.035	0.0014
518.2325	-0.0089
518.43	-0.0053
518.6274	0.0003
518.8249	-0.0051
519.0223	0.0062
519.2197	-0.0095
519.4171	-0.0196
519.6145	-0.0123
519.8118	0.0001
520.0092	-0.001
520.2065	-0.0075
520.4038	-0.0128
520.6011	0.0062
520.7984	-0.0053
520.9956	-0.0072
521.1929	-0.0077
521.3901	-0.0025
521.5874	-0.0031
521.7846	0.0014
521.9818	-0.0035
522.1789	-0.0013
522.3761	-0.0059
522.5732	-0.0081
522.7704	-0.0086
522.9675	0.0026
523.1646	0.0044
523.3617	0.0017
523.5587	-0.0021
523.7558	0.0024
523.9528	-0.0052
524.1498	-0.0012
524.3468	-0.0036
524.5438	-0.0119
524.7408	-0.0087
524.9378	-0.0019
525.1347	0.0021
525.3316	0.0063
525.5285	-0.0037
525.7254	-0.0059
525.9223	0.0044
526.1192	0.0018
526.316	-0.0034
526.5129	-0.0011
526.7097	-0.0018
526.9065	-0.0013
527.1033	-0.0026
527.3	0.0015
527.4968	0.0055
527.6935	-0.0033
527.8903	-0.0044
528.087	-0.0007
528.2837	0.001
528.4804	-0.0002
528.677	0.0011
528.8737	0.008
529.0703	0.0088
529.2669	-0.0023
529.4635	-0.0032
529.6601	0.003
529.8567	0.0013
530.0532	-0.0054
530.2498	0.0091
530.4463	0.0068
530.6428	-0.0019
530.8393	0.0038
531.0358	-0.01
531.2322	-0.0005
531.4287	-0.0025
531.6251	-0.003
531.8215	0.0044
532.0179	0.0035
532.2143	0.004
532.4107	-0.0032
532.607	-0.0042
532.8034	-0.0028
532.9997	0.002
533.196	-0.0053
533.3923	-0.0142
533.5886	0.0046
533.7848	0.0016
533.9811	0.0043
534.1773	0.007
534.3735	0.0044
534.5697	0.0086
534.7659	0.0013
534.9621	0.0041
535.1582	-0.0137
535.3544	-0.0028
535.5505	-0.0049
535.7466	-0.0047
535.9427	-0.0013
536.1387	-0.0089
536.3348	-0.0031
536.5308	0.0026
536.7269	-0.0115
536.9229	0.0103
537.1189	0.0016
537.3148	0.0066
537.5108	-0.0054
537.7068	0.009
537.9027	-0.0015
538.0986	0.0027
538.2945	-0.0026
538.4904	-0.0014
538.6863	0.0007
538.8821	-0.0012
539.078	-0.0017
539.2738	-0.0028
539.4696	-0.0027
539.6654	0.0061
539.8611	0.0108
540.0569	-0.004
540.2526	-0.0002
540.4484	-0.0051
540.6441	-0.0006
540.8398	-0.0021
541.0355	-0.0012
541.2311	0.0021
541.4268	-0.0073
541.6224	0.0058
541.818	0.002
542.0136	-0.0049
542.2092	-0.0071
542.4048	-0.0019
542.6003	0.0083
542.7959	0.0021
542.9914	0.0088
543.1869	0.0109
543.3824	0.0061
543.5779	0.0012
543.7734	0.0011
543.9688	0.0005
544.1642	0.0101
544.3596	0.003
544.555	-0.0059
544.7504	0.0011
544.9458	-0.0021
545.1411	-0.0022
545.3365	0.0015
545.5318	-0.0017
545.7271	0.0027
545.9224	-0.001
546.1177	-0.0104
546.3129	0.0097
546.5081	-0.0055
546.7034	-0.0032
546.8986	0.0063
547.0938	0.0014
547.289	-0.0016
547.4841	0.001
547.6793	0.01
547.8744	-0.008
548.0695	0.0004
548.2646	-0.011
548.4597	0.0081
548.6548	-0.0094
548.8498	0.0058
549.0448	-0.0012
549.2399	-0.0023
549.4349	0.0014
549.6298	-0.0052
549.8248	0.0057
550.0198	-0.0002
550.2147	-0.0006
550.4096	-0.0101
550.6045	0.0041
550.7994	0.0078
550.9943	0.0057
551.1892	0.0074
551.384	0.0081
551.5788	-0.0005
551.7737	0.0126
551.9685	-0.0012
552.1632	0.0072
552.358	-0.0047
552.5528	0.0042
552.7475	-0.0002
552.9422	0.0121
553.1369	-0.0015
553.3316	0.0079
553.5263	-0.0082
553.7209	0.0047
553.9156	-0.0033
554.1102	-0.0065
554.3048	-0.0043
554.4994	0.0075
554.694	0.0019
554.8885	0.0038
555.0831	-0.0073
555.2776	-0.0094
555.4721	0.0009
555.6666	-0.0052
555.8611	0.0055
556.0555	-0
556.25	0.005
556.4444	-0.0105
556.6388	0.0027
556.8332	-0.0061
557.0276	-0.0031
557.222	-0.0038
557.4163	0.0041
557.6107	-0.0057
557.805	0.0103
557.9993	-0.006
558.1936	0.0022
558.3879	0.0048
558.5821	-0.0007
558.7764	0.005
558.9706	-0.0004
559.1648	0.0058
559.359	-0.0093
559.5532	-0.0124
559.7473	-0.0046
559.9415	-0.0052
560.1356	-0.0045
560.3297	-0.0046
560.5238	-0.0089
560.7179	-0.001
560.9119	0.0018
561.106	-0.0019
561.3	-0.0089
561.494	0.0028
561.688	-0.002
561.882	-0.0075
562.076	-0.0053
562.2699	0.0078
562.4639	-0.0029
562.6578	0.006
562.8517	0.0045
563.0456	-0.0022
563.2395	0.0097
563.4333	0.004
563.6272	0.0089
563.821	-0.0029
564.0148	-0.0066
564.2086	-0.0092
564.4024	-0.0002
564.5961	-0.0034
564.7899	-0.0018
564.9836	-0.0001
565.1773	-0.0044
565.371	0.0031
565.5647	0.0124
565.7584	0.0033
565.952	0.0016
566.1456	-0.0015
566.3393	-0.0033
566.5329	0.0023
566.7264	0.0011
566.92	-0.0024
567.1136	0.0067
567.3071	0.0019
567.5006	0.0059
567.6941	0.0018
567.8876	0.0112
568.0811	0.0004
568.2745	0.0052
568.468	0.0024
568.6614	-0.0012
568.8548	-0.0022
569.0482	-0.0052
569.2416	-0.0046
569.4349	0.0109
569.6283	0.013
569.8216	-0.0008
570.0149	0.0011
570.2082	0.0082
570.4015	0.0119
570.5947	0.0114
570.788	0.0139
570.9812	0.0051
571.1744	0.0003
571.3676	-0.0025
571.5608	-0.0013
571.754	0.0088
571.9471	0.0053
572.1402	0.0067
572.3333	-0.0022
572.5264	-0.0005
572.7195	-0.0008
572.9126	0.0029
573.1057	0.0037
573.2987	-0.0038
573.4917	0.0096
573.6847	-0.0106
573.8777	0.0055
574.0707	0.0032
574.2636	0.0007
574.4566	0.0043
574.6495	0.002
574.8424	0.0021
575.0353	0.0043
575.2281	0.0089
575.421	0.0006
575.6138	0.0045
575.8067	0.001
575.9995	0.0043
576.1923	0.0079
576.385	0.0087
576.5778	0.0014
576.7706	0.0055
576.9633	0.0002
577.156	0.0063
577.3487	-0.0044
577.5414	0.0044
577.734	-0.0048
577.9267	0.0054
578.1193	-0.0109
578.3119	-0.0006
578.5045	0.0027
578.6971	-0.001
578.8897	0.0059
579.0822	0.0014
579.2747	-0.0004
579.4673	-0.0051
579.6598	-0.0022
579.8522	-0.0002
580.0447	-0.0062
580.2372	-0.0037
580.4296	0.007
580.622	0.0073
580.8144	0.002
581.0068	-0.0038
581.1992	-0.0077
581.3915	-0.0031
581.5839	-0.0039
581.7762	-0
581.9685	0.0013
582.1608	-0.0015
582.353	-0.0034
582.5453	0.0005
582.7375	-0.0018
582.9298	-0.0001
583.122	0.0059
583.3142	0.0018
583.5063	-0.0027
583.6985	0.0011
583.8906	0.0014
584.0827	-0.0005
584.2749	0.008
584.4669	0.002
584.659	0.0003
584.8511	-0.0037
585.0431	-0.0015
585.2352	0.0042
585.4272	0.0016
585.6192	0.0078
585.8111	0.0038
586.0031	0.0021
586.195	0.0067
586.387	0.0082
586.5789	0.0011
586.7708	0.0067
586.9627	0.0117
587.1545	0.0013
587.3464	0.0026
587.5382	0.003
587.73	0.0037
587.9218	0.008
588.1136	-0.0001
588.3053	0.0087
588.4971	-0.0048
588.6888	-0.0073
588.8805	0.0054
589.0722	0.0083
589.2639	0.0015
589.4556	0.0034
589.6472	-0.0032
589.8389	-0.0065
590.0305	-0.0082
590.2221	0.003
590.4137	-0.0047
590.6052	0.0005
590.7968	-0.0026
590.9883	-0.0023
591.1798	0.0019
591.3713	0.0003
591.5628	0.003
591.7543	0.0025
591.9458	0.0008
592.1372	0.0052
592.3286	0.0015
592.52	0.0016
592.7114	-0.0006
592.9028	-0.0005
593.0941	0.0044
593.2855	0.0019
593.4768	-0.0026
593.6681	-0.0006
593.8594	0.0019
594.0506	0.0066
594.2419	0.0106
594.4331	0.0063
594.6244	0.0053
594.8156	-0.003
595.0067	0.0043
595.1979	0.0079
595.3891	0.0035
595.5802	0.0033
595.7713	-0.0001
595.9624	-0.0068
596.1535	0.0094
596.3446	0.0045
596.5357	0.0049
596.7267	0.0108
596.9177	0.0011
597.1087	-0.0028
597.2997	-0.0059
597.4907	0.0114
597.6817	-0.0045
597.8726	-0.0026
598.0635	0.0031
598.2544	0.0032
598.4453	-0.0014
598.6362	-0.0055
598.827	0.0007
599.0179	0.0078
599.2087	0.0005
599.3995	-0.0024
599.5903	0.0033
599.7811	0.0063
599.9718	0.0017
600.1626	-0.0034
600.3533	-0.0037
600.544	0.0023
600.7347	0.0015
600.9254	0.0071
601.116	-0.0091
601.3067	0.0048
601.4973	-0.0006
601.6879	0.0023
601.8785	-0.0046
602.0691	-0.0009
602.2596	0.0097
602.4502	0.0087
602.6407	0.0015
602.8312	0.003
603.0217	0.0074
603.2122	0.0004
603.4027	0.0051
603.5931	0.0051
603.7835	-0.0036
603.9739	0.0008
604.1643	-0.0057
604.3547	-0.0044
604.5451	0.0066
604.7354	-0.0045
604.9257	0.0019
605.116	-0.0029
605.3063	0.0064
605.4966	-0.0005
605.6869	0.0022
605.8771	0.0103
606.0673	0.0084
606.2575	0.0076
606.4477	0.0071
606.6379	0.0032
606.8281	0.0072
607.0182	0
607.2083	0.0114
607.3985	-0.0031
607.5885	-0.0013
607.7786	0.0004
607.9687	-0.003
608.1587	0.0028
608.3488	0.0108
608.5388	0.0015
608.7288	-0.0013
608.9187	-0.0045
609.1087	-0.001
609.2986	-0.0059
609.4886	0.0023
609.6785	0.0001
609.8684	0.0077
610.0582	0.0062
610.2481	0.0068
610.4379	0.0006
610.6278	-0.0011
610.8176	-0.0003
611.0074	-0.0012
611.1971	0.0032
611.3869	0.0017
611.5766	-0.0047
611.7664	0.0058
611.9561	0.0073
612.1458	0.0075
612.3354	0.0008
612.5251	0.0084
612.7147	0.0052
612.9044	0.0058
613.094	-0.001
613.2836	0.0083
613.4731	0.0007
613.6627	0.0018
613.8522	0.003
614.0417	0.0035
614.2313	-0.0011
614.4207	-0.0003
614.6102	0.003
614.7997	0.0008
614.9891	-0.0019
615.1785	0.0022
615.3679	-0.0021
615.5573	0.011
615.7467	0.0067
615.9361	0.006
616.1254	0.0013
616.3147	0.0135
616.504	0.0118
616.6933	0.0101
616.8826	0.015
617.0718	0.0112
617.2611	0.0115
617.4503	0.0033
617.6395	0.0011
617.8287	0.0061
618.0179	0.0033
618.207	0.0136
618.3961	0.0039
618.5853	0.0046
618.7744	0.0088
618.9634	0.0107
619.1525	-0.0002
619.3416	0.002
619.5306	0.0049
619.7196	0.0067
619.9086	0.0021
620.0976	0.0081
620.2866	0.0051
620.4755	0.015
620.6645	0.0057
620.8534	0.01
621.0423	0.0061
621.2312	0.0166
621.42	0.0091
621.6089	0.004
621.7977	0.0029
621.9865	0.0001
622.1753	0.0064
622.3641	0.0037
622.5529	0.0119
622.7416	0.0056
622.9303	0.002
623.1191	0.0103
623.3078	0.0003
623.4964	0.0049
623.6851	-0.0004
623.8737	0.0026
624.0624	0.0115
624.251	-0.0024
624.4396	0.0004
624.6282	-0.0024
624.8167	0.0011
625.0053	0.0088
625.1938	0.011
625.3823	0.0105
625.5708	0.0046
625.7593	0.002
625.9477	0.0048
626.1362	0.0026
626.3246	0.0062
626.513	0.0099
626.7014	0.0123
626.8898	0.0045
627.0781	0.0039
627.2665	-0.0009
627.4548	0.0093
627.6431	0.0052
627.8314	0.0047
628.0197	0.0141
628.2079	-0.0004
628.3962	-0.0053
628.5844	0.0115
628.7726	0.0046
628.9608	0.0056
629.1489	0.0026
629.3371	0.0053
629.5252	-0.0042
629.7134	0.0134
629.9015	0.0031
630.0895	0.0034
630.2776	0.0093
630.4657	0.0023
630.6537	0.0051
630.8417	0.0009
631.0297	-0.0021
631.2177	0.0108
631.4057	-0.0026
631.5936	0.0028
631.7815	0.0123
631.9695	0.0049
632.1574	0.013
632.3452	0.0187
632.5331	0.0076
632.7209	0.0008
632.9088	0.0139
633.0966	0.0177
633.2844	0.0077
633.4722	0.008
633.6599	0.0094
633.8477	0.0061
634.0354	0.0101
634.2231	0.0017
634.4108	0.0064
634.5985	0.0118
634.7861	0.0072
634.9738	0.0082
635.1614	0.0064
635.349	0.0128
635.5366	0.005
635.7242	0.005
635.9117	0.0152
636.0993	0.0125
636.2868	0.0133
636.4743	0.0045
636.6618	0.0195
636.8492	0.0102
637.0367	0.0064
637.2241	0.0014
637.4115	0.004
637.5989	0.0024
637.7863	0.0008
637.9737	0.0037
638.161	0.0019
638.3484	0.0027
638.5357	0.0013
638.723	0.0044
638.9103	0.0142
639.0975	0.009
639.2848	0.0077
639.472	0.0019
639.6592	0.014
639.8464	0.0138
640.0336	0.0091
640.2208	0.0075
640.4079	-0.0017
640.595	-0.0006
640.7821	0.0002
640.9692	0.0017
641.1563	0.0084
641.3434	0.0083
641.5304	0.0011
641.7174	0.0059
641.9044	0.003
642.0914	0.0084
642.2784	0.0094
642.4653	0.0069
642.6523	0.0087
642.8392	-0.0019
643.0261	0.008
643.213	0.0043
643.3999	0.0059
643.5867	0.0032
643.7735	0.0055
643.9604	-0.0021
644.1472	0.0095
644.3339	0.0075
644.5207	0.0079
644.7075	0.0026
644.8942	0.0009
645.0809	0.0084
645.2676	0.0126
645.4543	0.0027
645.6409	0.0133
645.8276	0.005
646.0142	0.0059
646.2008	0.0009
646.3874	0.0022
646.574	-0.0032
646.7605	0.0016
646.9471	-0.0127
647.1336	0.0009
647.3201	0.0013
647.5066	-0.0004
647.6931	0.0079
647.8795	-0.0015
648.0659	0.0071
648.2524	0.0066
648.4388	-0.0034
648.6252	0.0052
648.8115	0.0012
648.9979	0.0008
649.1842	0.0046
649.3705	0.0025
649.5568	0.0076
649.7431	0.0079
649.9294	0.0001
650.1156	0.0047
650.3018	-0.0029
650.488	0.0086
650.6742	0.005
650.8604	0.0079
651.0466	-0.0032
651.2327	0.0035
651.4188	0.0106
651.6049	0.0028
651.791	0.0067
651.9771	0.0119
652.1632	0.0082
652.3492	0.0109
652.5352	0.0075
652.7212	0.0033
652.9072	0.011
653.0932	0.0043
653.2791	-0.0035
653.465	0.0033
653.651	-0.0009
653.8369	0.0096
654.0227	0.0044
654.2086	0.0048
654.3944	0.012
654.5803	0.0104
654.7661	-0.0022
654.9519	0.0087
655.1377	-0.0009
655.3234	0.0014
655.5092	-0.0026
655.6949	-0.0038
655.8806	-0.0037
656.0663	-0.0044
656.2519	0.0014
656.4376	0.0008
656.6232	0.0036
656.8088	-0.0012
656.9945	0.0088
657.18	0.0075
657.3656	0.0097
657.5511	0.0001
657.7367	-0.002
657.9222	0.0079
658.1077	0.0047
658.2932	0.0036
658.4786	-0.0046
658.6641	-0.0007
658.8495	0.0007
659.0349	0.0002
659.2203	0.0103
659.4057	0.0033
659.591	0.0133
659.7764	0.0023
659.9617	0.0035
660.147	0.0125
660.3323	0.008
660.5176	0.0092
660.7028	0.0096
660.888	0.01
661.0733	0.0093
661.2585	-0.0071
661.4436	0.01
661.6288	-0.0005
661.8139	-0.0018
661.9991	0.005
662.1842	-0.0041
662.3693	-0.0014
662.5544	-0.0021
662.7394	-0.0031
662.9245	-0.003
663.1095	0.011
663.2945	0.0033
663.4795	0.0091
663.6644	0.0065
663.8494	0.0039
664.0343	0.0014
664.2193	-0.005
664.4042	0.0032
664.589	-0.0031
664.7739	0.0049
664.9587	-0.01
665.1436	-0.0034
665.3284	0.0107
665.5132	0.0032
665.698	0.0013
665.8827	0.01
666.0675	0.0022
666.2522	-0.0019
666.4369	0.0042
666.6216	0.0073
666.8063	-0.001
666.9909	0.0049
667.1756	-0.0037
667.3602	0.0034
667.5448	0.002
667.7294	0.0128
667.9139	0.0109
668.0985	0.0199
668.283	0.0061
668.4675	0.0076
668.652	0.0069
668.8365	0.0067
669.0209	0.016
669.2054	0.0087
669.3898	0.0068
669.5742	0.0122
669.7586	0.014
669.943	0.0208
670.1273	0.0095
670.3117	0.0105
670.496	0.0131
670.6803	0.0164
670.8646	0.0111
671.0488	0.0002
671.2331	-0.0008
671.4173	0.0058
671.6015	0.0046
671.7857	0.0052
671.9699	0.0094
672.1541	0.0083
672.3382	0.0081
672.5223	0.0113
672.7064	0.0085
672.8905	0.0154
673.0746	0.0025
673.2587	0.0025
673.4427	0.0079
673.6267	0.0101
673.8107	0.0098
673.9947	0.0079
674.1787	0.006
674.3626	0.0012
674.5465	0.0069
674.7304	0.0055
674.9143	0.0044
675.0982	0.011
675.2821	-0.0004
675.4659	0.0134
675.6497	0.0126
675.8335	-0.0033
676.0173	0.0049
676.2011	0.0004
676.3849	0.0082
676.5686	-0.0014
676.7523	0.0002
676.936	0.0035
677.1197	0.0007
677.3034	-0.0018
677.487	0.011
677.6706	0.004
677.8542	0.0039
678.0378	0.0055
678.2214	0.0026
678.405	0.0122
678.5885	0.0018
678.772	0.0036
678.9555	-0.003
679.139	0.0065
679.3225	0.0091
679.5059	-0.0011
679.6894	0.0023
679.8728	0.0033
680.0562	-0.0041
680.2395	-0.0016
680.4229	0.0012
680.6062	0.0085
680.7896	-0.0012
680.9729	-0.0059
681.1562	0.001
681.3394	0.0034
681.5227	-0.0073
681.7059	0.002
681.8891	-0.0003
682.0723	0.0166
682.2555	0.0108
682.4387	-0.0003
682.6218	0.0002
682.805	0.0057
682.9881	0.0064
683.1712	-0.0008
683.3542	0.0026
683.5373	0.0041
683.7203	-0.002
683.9034	0.0048
684.0864	-0.0081
684.2694	-0.0076
684.4523	0.0058
684.6353	0.0002
684.8182	0.0045
685.0011	-0.0008
685.184	0.0034
685.3669	-0.0003
685.5498	0.0024
685.7326	0.0048
685.9154	-0.0009
686.0982	0.0084
686.281	0.0072
686.4638	0.0039
686.6465	0.0057
686.8293	-0.0012
687.012	0.007
687.1947	-0.0061
687.3774	0.007
687.56	-0.0045
687.7427	0.0058
687.9253	-0.0013
688.1079	0.0037
688.2905	0.0117
688.4731	0.007
688.6556	0.0033
688.8382	0.0041
689.0207	0.001
689.2032	-0.0078
689.3857	-0.0038
689.5681	-0.0005
689.7506	-0.001
689.933	-0.0048
690.1154	-0.0051
690.2978	-0.0054
690.4802	0.0004
690.6626	-0.0135
690.8449	-0.0035
691.0272	0.0079
691.2095	-0.0019
691.3918	-0.0099
691.5741	0.0068
691.7563	0.0005
691.9386	0.0084
692.1208	0.004
692.303	0.0042
692.4852	-0.0062
692.6673	0.0049
692.8495	0.0043
693.0316	0.0099
693.2137	0.0032
693.3958	0.0091
693.5778	0.0046
693.7599	0.0059
693.9419	0.0046
694.1239	0.0031
694.3059	0.0026
694.4879	0.0061
694.6699	0.0078
694.8518	0.0084
695.0337	0.0047
695.2157	0.0067
695.3975	0.0061
695.5794	0.0082
695.7613	0.0075
695.9431	0.0124
696.1249	0.0075
696.3067	0.0061
696.4885	0.0121
696.6703	-0.0041
696.852	0.0105
697.0337	0.0089
697.2154	0.0045
697.3971	0.0045
697.5788	0.0049
697.7605	0.005
697.9421	0.0114
698.1237	0.0086
698.3053	0.0145
698.4869	0.0084
698.6685	-0.0021
698.85	-0.0006
699.0315	0.0051
699.213	0.0032
699.3945	0.0085
699.576	0.0065
699.7575	0.0115
699.9389	0.0134
700.1203	-0.0009
700.3017	-0.0016
700.4831	-0.0008
700.6645	0.0012
700.8458	0.0089
701.0271	0.0057
701.2084	0.0129
701.3897	-0.0038
701.571	0.0094
701.7523	0
701.9335	-0.0005
702.1147	0.0011
702.2959	0.0058
702.4771	0.0004
702.6583	0.0043
702.8394	-0.0008
703.0205	0.01
703.2016	-0.0032
703.3827	0.0028
703.5638	0.0192
703.7449	0.0062
703.9259	0.0091
704.1069	0.0028
704.2879	0.0114
704.4689	0.0079
704.6499	0.0059
704.8308	0.0093
705.0117	0.0042
705.1927	0.0066
705.3735	0.0085
705.5544	-0.0054
705.7353	0.0076
705.9161	0.005
706.0969	-0.0005
706.2777	0.003
706.4585	0.0014
706.6393	0.0035
706.82	-0.007
707.0007	0.0046
707.1815	0.0028
707.3621	0.0044
707.5428	0.0041
707.7235	-0.0007
707.9041	0.0069
708.0847	-0.0131
708.2653	-0.0109
708.4459	-0.0122
708.6265	-0.0022
708.807	-0.0068
708.9875	-0.0045
709.168	-0.007
709.3485	-0.0039
709.529	-0.0049
709.7095	-0.0084
709.8899	-0.0006
710.0703	-0.0109
710.2507	0.0024
710.4311	0.0055
710.6115	-0.002
710.7918	-0.0057
710.9721	0.0022
711.1524	-0.0061
711.3327	-0.0047
711.513	0.0032
711.6932	0.0016
711.8735	0.0143
712.0537	0.0001
712.2339	-0.0008
712.4141	-0.0059
712.5942	-0.0032
712.7744	0.0044
712.9545	-0.0104
713.1346	0.0005
713.3147	-0.0066
713.4947	-0.0039
713.6748	0.0024
713.8548	0.0012
714.0348	0.001
714.2148	0.0023
714.3948	0.0063
714.5748	0.003
714.7547	-0.0042
714.9346	0.0054
715.1145	0.0028
715.2944	-0.0041
715.4743	0.0044
715.6541	-0.0033
715.834	0.0094
716.0138	-0.0015
716.1936	-0.0099
716.3733	-0.0082
716.5531	0.0151
716.7328	-0.0099
716.9126	-0
717.0923	0.0045
717.2719	0.001
717.4516	-0.0072
717.6312	0.01
717.8109	-0.0007
717.9905	0.0028
718.1701	-0.0025
718.3496	-0.0097
718.5292	-0.0016
718.7087	-0.0012
718.8882	-0.003
719.0677	0.0043
719.2472	-0.003
719.4267	0.0045
719.6061	0.0034
719.7856	0.0002
719.965	0.0054
720.1443	-0.0047
720.3237	0.0118
720.5031	0.0023
720.6824	0.0104
720.8617	-0.004
721.041	-0.002
721.2203	0.0047
721.3995	0.0036
721.5788	0.0049
721.758	0.01
721.9372	0.0077
722.1164	0.0099
722.2956	0.0057
722.4747	0.001
722.6538	-0.0003
722.8329	0.0033
723.012	0.0044
723.1911	-0.0024
723.3702	-0.0011
723.5492	0.0079
723.7282	0.0029
723.9072	0.0056
724.0862	0.0029
724.2652	-0.0061
724.4441	0.0003
724.623	-0.003
724.8019	-0.0105
724.9808	0.0052
725.1597	-0.0047
725.3385	0.0083
725.5174	0.0057
725.6962	-0.0021
725.875	0.0001
726.0538	-0.0007
726.2325	-0.0089
726.4112	0.0028
726.59	-0.0042
726.7687	0.0026
726.9474	0.0005
727.126	0.0035
727.3047	-0.0085
727.4833	-0.0006
727.6619	0.0019
727.8405	0.0011
728.0191	-0.0044
728.1976	0.0125
728.3762	-0.0067
728.5547	0.0056
728.7332	-0.0081
728.9116	0.0032
729.0901	0.0065
729.2686	-0.0011
729.447	-0.0006
729.6254	0.0086
729.8038	0.0027
729.9821	-0.0054
730.1605	0.0104
730.3388	0.0005
730.5171	0.0129
730.6954	0.001
730.8737	0.0046
731.0519	0.0127
731.2302	0.0059
731.4084	0.0159
731.5866	0.0101
731.7648	0.0013
731.9429	0.0072
732.1211	-0.0071
732.2992	0.0003
732.4773	-0.0046
732.6554	0.0029
732.8335	0.0008
733.0115	0.011
733.1896	0.012
733.3676	-0.0103
733.5456	0.0039
733.7235	0.0162
733.9015	0.0036
734.0794	0.0021
734.2574	-0.0067
734.4353	0.0008
734.6131	0.009
734.791	0.0076
734.9689	0.0073
735.1467	-0.0046
735.3245	0.0041
735.5023	-0.0022
735.68	-0.0005
735.8578	0.0089
736.0355	-0.012
736.2132	-0.0015
736.3909	0.0029
736.5686	-0.0081
736.7463	0.0065
736.9239	0.0023
737.1015	0.0014
737.2791	0.0095
737.4567	0.0138
737.6343	0.0007
737.8118	0.0062
737.9894	0.0074
738.1669	-0.002
738.3444	-0.0056
738.5218	0.0114
738.6993	0.0023
738.8767	0.0041
739.0541	0.0072
739.2315	-0.0068
739.4089	0.0034
739.5863	0.0049
739.7636	-0.0007
739.9409	0.0001
740.1182	0.0065
740.2955	0.0101
740.4728	0.0024
740.65	0.0033
740.8272	0.0024
741.0044	-0.0013
741.1816	0.0074
741.3588	0.0041
741.5359	-0.0007
741.7131	-0.0021
741.8902	0.0009
742.0673	0.0033
742.2444	0.0001
742.4214	-0.0031
742.5985	-0.0087
742.7755	0.0032
742.9525	-0.0209
743.1295	0.0004
743.3064	0.004
743.4834	0.0113
743.6603	0.0092
743.8372	0.0114
744.0141	0.0075
744.191	0.012
744.3678	0.0057
744.5446	0.0055
744.7215	0.0092
744.8982	-0.0009
745.075	-0.0065
745.2518	0.014
745.4285	0.0049
745.6052	0.0003
745.7819	0.0066
745.9586	-0.0012
746.1353	0.0067
746.3119	-0.0019
746.4885	-0.0093
746.6651	0.0012
746.8417	0.0006
747.0183	0.0076
747.1948	0.0005
747.3714	0.0035
747.5479	0.0047
747.7244	-0.0109
747.9008	0.0144
748.0773	0.0079
748.2537	0.0049
748.4301	-0.0047
748.6065	0.0117
748.7829	0.0089
748.9593	-0.0037
749.1356	0.0042
749.3119	0.011
749.4882	-0.012
749.6645	0.0094
749.8408	-0.0029
750.017	-0.007
750.1933	0.0011
750.3695	-0.0024
750.5457	0.008
750.7218	0.0016
750.898	0.0076
751.0741	0.0015
751.2502	0.0009
751.4263	0.0027
751.6024	0.0048
751.7784	-0.0014
751.9545	-0.0032
752.1305	0.0034
752.3065	-0.0026
752.4825	0.0046
752.6584	-0.0016
752.8344	-0.0039
753.0103	-0.011
753.1862	-0.0052
753.3621	0.0044
753.5379	-0.0059
753.7138	0.0036
753.8896	0.0024
754.0654	0.0047
754.2412	0.0088
754.417	0.0013
754.5927	-0.0051
754.7685	0.0021
754.9442	-0.0015
755.1199	0.0174
755.2956	0.0033
755.4712	0.0062
755.6469	0.0001
755.8225	0.0084
755.9981	0.0062
756.1736	0.0112
756.3492	-0.0015
756.5248	0.0021
756.7003	-0.0004
756.8758	0.0121
757.0513	-0.0046
757.2267	-0.0009
757.4022	0.0078
757.5776	-0.0022
757.753	0.0056
757.9284	0.0095
758.1038	0.0156
758.2791	0.0094
758.4545	-0.0058
758.6298	0.0053
758.8051	0.0094
758.9803	0.0012
759.1556	0.005
759.3308	-0.007
759.506	-0.0019
759.6812	0.0014
759.8564	0.0146
760.0316	-0.003
760.2067	0.0132
760.3819	0.0065
760.557	0.0214
760.732	0.0139
760.9071	0.0047
761.0821	0.0044
761.2572	0.011
761.4322	0.0036
761.6072	0.0042
761.7821	0.0045
761.9571	0.0177
762.132	0.0041
762.3069	-0.0078
762.4818	-0.0045
762.6567	-0.0046
762.8316	0.0035
763.0064	-0.0078
763.1812	0.008
763.356	-0.0035
763.5308	0.0029
763.7055	0.0032
763.8803	-0.0052
764.055	0.0023
764.2297	0.0021
764.4044	-0.0026
764.579	-0.0016
764.7537	-0.0141
764.9283	-0
765.1029	0.0022
765.2775	-0.0014
765.4521	-0.007
765.6266	-0.0031
765.8011	-0.0028
765.9756	0.0001
766.1501	0.0086
766.3246	0.0003
766.4991	0.0098
766.6735	0.0077
766.8479	-0.005
767.0223	0.0085
767.1967	0.0129
767.371	0.0051
767.5454	-0.0077
767.7197	0.0091
767.894	-0.0095
768.0683	-0.0042
768.2425	0.001
768.4168	0.0062
768.591	0.0072
768.7652	0.012
768.9394	0.0079
769.1135	0.002
769.2877	0.0178
769.4618	-0.0023
769.6359	0.0161
769.81	0.0116
769.984	-0.0024
770.1581	-0.012
770.3321	-0.0016
770.5061	-0.0019
770.6801	-0.0001
770.8541	-0.0088
771.028	0.0051
771.202	-0.0188
771.3759	-0.0001
771.5498	-0.0071
771.7236	0.0004
771.8975	0.006
772.0713	0.0093
772.2451	0.0036
772.4189	-0.0003
772.5927	0.006
772.7665	0.0007
772.9402	-0.0002
773.1139	0.0069
773.2876	-0.0067
773.4613	0.0088
773.635	0.003
773.8086	-0.0043
773.9822	0.0027
774.1558	0.0051
774.3294	-0.0071
774.503	0.0086
774.6765	0.0035
774.8501	0.0047
775.0236	0.0153
775.1971	0.0221
775.3705	-0.0113
775.544	0.0134
775.7174	-0.0006
775.8908	0.0094
776.0642	0.0005
776.2376	-0.0058
776.4109	-0.0087
776.5843	0.0009
776.7576	-0.0008
776.9309	0.0035
777.1041	0.006
777.2774	0.0237
777.4506	-0.0003
777.6238	-0.0007
777.797	0.0019
777.9702	-0.0035
778.1434	0.0026
778.3165	-0.0158
778.4896	-0.0094
778.6627	0.0176
778.8358	-0.0013
779.0089	0.0001
779.1819	-0
779.3549	0.0178
779.5279	0.0122
779.7009	-0.0072
779.8739	-0.0024
780.0468	0.0054
780.2197	0.005
780.3926	-0.0057
780.5655	0.0019
780.7384	0.0031
780.9112	0.0133
781.0841	-0.0035
781.2569	-0.0002
781.4297	-0.0017
781.6024	0.0118
781.7752	0.0128
781.9479	0.0102
782.1206	0.0043
782.2933	-0.0083
782.466	0.0047
782.6386	0.0078
782.8113	-0.0052
782.9839	-0.0085
783.1565	0.0065
783.329	-0.0045
783.5016	0.0035
783.6741	0.0028
783.8466	-0.0019
784.0191	0.0126
784.1916	-0.0014
784.3641	0.0048
784.5365	0.0063
784.7089	0.0004
784.8813	-0.0122
785.0537	-0.002
785.2261	-0.003
785.3984	-0.0105
785.5707	0.0017
785.743	0.0051
785.9153	-0.0094
786.0876	-0.0132
786.2598	-0.0076
786.432	-0.0185
786.6042	0.0031
786.7764	-0.0099
786.9486	-0.0014
787.1207	-0.0039
787.2928	0.0095
787.4649	0.0047
787.637	0.0015
787.8091	-0.013
787.9811	0.0028
788.1532	-0.012
788.3252	0.0072
788.4972	-0.0058
788.6691	0.0057
788.8411	-0.0119
789.013	-0.0049
789.1849	0.0072
789.3568	-0.0015
789.5287	-0.0096
789.7005	-0.0181
789.8723	-0.0045
790.0442	0.0173
790.2159	0.0038
790.3877	-0.0006
790.5595	-0.0143
790.7312	0.0034
790.9029	0.0087
791.0746	-0.0072
791.2463	-0.0007
791.4179	0.0003
791.5896	-0.0181
791.7612	0.0034
791.9328	0.0067
792.1044	-0.0042
792.2759	-0.0172
792.4474	-0.0215
792.619	0.0008
792.7905	0.01
792.9619	0.004
793.1334	0.0158
793.3048	0.0007
793.4762	0.0154
793.6476	0.0037
793.819	-0.0119
793.9904	0.007
794.1617	-0.0105
794.333	0.0019
794.5043	-0.0136
794.6756	-0.016
794.8469	0.008
795.0181	-0.0054
795.1893	0.0016
795.3605	0.0106
795.5317	-0.0071
795.7029	-0.006
795.874	0.0044
796.0452	-0.0078
796.2163	0.004
796.3873	0.0215
796.5584	0.0054
796.7294	0.0095
796.9005	0.0227
797.0715	0.0107
797.2425	-0.0014
797.4134	-0.008
797.5844	-0.0038
797.7553	-0.0203
797.9262	0.007
798.0971	-0.0168
798.2679	-0.0067
798.4388	-0.0096
798.6096	-0.0074
798.7804	0.0123
798.9512	0.0094
799.122	-0.0068
799.2927	-0.0002
799.4635	0.018
799.6342	-0.0054
799.8049	0.0005
799.9755	0.0031
800.1462	0.0095
800.3168	0.0073
800.4874	0.0117
800.658	0.0439
800.8286	0.015
800.9991	0.0019
801.1696	0.0152
801.3402	0.0054
801.5106	0.0026
801.6811	-0.0004
801.8516	0.0125
802.022	-0.0021
802.1924	0.0099
802.3628	0.0163
802.5332	0.0088
802.7035	0.0137
802.8739	0.0053
803.0442	-0.0035
803.2145	-0.0015
803.3847	-0.0119
803.555	0.0038
803.7252	-0.0175
803.8954	0.0008
804.0656	-0.0143
804.2358	0.0008
804.4059	0.0134
804.5761	0.0082
804.7462	0.0137
804.9163	0.0059
805.0864	0.0045
805.2564	-0.0096
805.4264	0.001
805.5965	-0.0117
805.7665	-0.0096
805.9364	-0.0146
806.1064	0.0343
806.2763	0.0123
806.4462	0.0154
806.6161	0.0008
806.786	0.009
806.9559	0.0015
807.1257	0.0004
807.2955	0.0022
807.4653	0.0059
807.6351	-0.0083
807.8048	0.0044
807.9746	-0.0022
808.1443	0.0071
808.314	0.0178
808.4837	-0.0098
808.6533	-0.0001
808.8229	0.0392
808.9926	-0.0013
809.1622	0.0086
809.3317	0.0087
809.5013	-0.006
809.6708	0.0181
809.8403	0.0152
810.0098	0.0175
810.1793	0.018
810.3488	0.0158
810.5182	-0.0099
810.6876	0.0063
810.857	0.0005
811.0264	0.0127
811.1958	-0.0079
811.3651	0.0076
811.5344	0.0131
811.7037	-0.0061
811.873	-0.0165
812.0422	0.001
812.2115	0.0002
812.3807	-0.0049
812.5499	-0.0067
812.7191	0.0133
812.8882	-0.0113
813.0574	-0.0042
813.2265	-0.0148
813.3956	0.0151
813.5646	0.0117
813.7337	-0.007
813.9027	0.0117
814.0718	0.0085
814.2407	0.0158
814.4097	0.0019
814.5787	-0.0001
814.7476	-0.0159
814.9165	0.0061
815.0854	-0.0062
815.2543	-0.0018
815.4232	-0.0079
815.592	0.0221
815.7608	0.0165
815.9296	0.0167
816.0984	0.0073
816.2671	0.005
816.4359	-0.0067
816.6046	0.0155
816.7733	-0.0097
816.942	-0.0007
817.1106	0.0112
817.2793	0.0123
817.4479	0.0127
817.6165	0.0258
817.785	0.0163
817.9536	-0.0111
818.1221	-0.0046
818.2906	-0.0067
818.4591	-0.0024
818.6276	-0.0071
818.7961	0.015
818.9645	0.0096
819.1329	0.0303
819.3013	0.025
819.4697	0.0488
819.638	0.0103
819.8064	-0.0108
819.9747	0.0242
820.143	0.0064
820.3113	-0.0207
820.4795	-0.0046
820.6477	0.0211
820.816	0.0325
820.9842	0.0255
821.1523	-0.0012
821.3205	-0.0054
821.4886	0.0214
821.6567	0.0215
821.8248	0.0083
821.9929	0.0161
822.1609	0.0227
822.329	0.023
822.497	0.0396
822.665	0.0015
822.833	-0.026
823.0009	0.0298
823.1688	0.031
823.3367	0.0259
823.5046	0.0076
823.6725	0.0252
823.8404	0.016
824.0082	0.0332
824.176	0.0019
824.3438	0.027
824.5116	-0.0182
824.6793	0.0158
824.847	-0.0079
825.0147	-0.0148
825.1824	0.0381
825.3501	0.0144
825.5177	0.0166
825.6854	-0.0349
825.853	-0.0026
826.0206	-0.0294
826.1881	0.0166
826.3557	-0.0136
826.5232	0.024
826.6907	-0.025
826.8582	-0.0247
827.0257	-0.0079
827.1931	0.0141
827.3605	0.0067
827.528	-0.0084
827.6953	-0.0306
827.8627	-0.0029
828.03	0.0264
828.1974	0.0027
828.3647	-0.0168
828.532	-0.0055
828.6992	-0.0113
828.8665	-0.0006
829.0337	0.0096
829.2009	0.0049
829.3681	-0.033
829.5352	0.0421
829.7024	-0.0322
829.8695	-0.0315
830.0366	0.0329
830.2037	0.0159
830.3707	0.0311
830.5378	0.0235
830.7048	0.0059
830.8718	0.0176
831.0388	-0.038
831.2057	0.0145
831.3727	0.0141
831.5396	0.005
831.7065	-0.0137
831.8734	0.0197
832.0402	-0.0469
832.2071	0.0142
832.3739	0.0017
832.5407	-0.0049
832.7075	0.0322
832.8742	-0.0044
833.041	-0.0372
833.2077	-0.0116
833.3744	0.0632
833.541	-0.0103
833.7077	-0.0332
833.8743	-0.0124
834.0409	0.0091
834.2075	0.0114
834.3741	-0.0123
834.5407	0.0082
834.7072	-0.0065
834.8737	0.016
835.0402	-0.0114
835.2067	0.0112
835.3731	-0.0035
835.5395	-0.0096
835.706	0.021
835.8723	-0.0052
836.0387	0.0087
836.2051	-0.0291
836.3714	-0.0375
836.5377	0.0054
836.704	-0.0072
836.8703	-0.0131
837.0365	-0.0009
837.2027	-0.0054
837.3689	-0.0002
837.5351	-0.0214
837.7013	-0.0298
837.8674	-0.0363
838.0335	-0.0386
838.1997	0.0147
838.3657	-0.0685
838.5318	-0.0229
838.6978	0.0421
838.8639	0.0242
839.0299	0.0024
839.1958	-0.0156
839.3618	0.0015
839.5277	-0.0087
839.6937	-0.0196
839.8596	0.0507
840.0254	-0.0084
840.1913	0.0262
840.3571	0.0241
840.523	-0.0365
840.6888	-0.0177
840.8545	-0.0163
841.0203	0.0204
841.186	0.0155
841.3517	0.0706
841.5174	0.0566
841.6831	0.0112
841.8488	0.0238
842.0144	-0.0277
842.18	-0.0235
842.3456	0.0209
842.5112	0.0379
842.6767	-0.0051
842.8422	-0.0045
843.0077	0.0187
843.1732	-0.0798
843.3387	-0.0515
843.5042	-0.0702
843.6696	-0.0192
843.835	-0.0305
844.0004	0.0383
844.1657	0.0203
844.3311	-0.0584
844.4964	-0.0158
844.6617	-0.0436
844.827	-0.0038
844.9923	-0.0659
845.1575	0.0241
845.3227	-0.0378
845.4879	0.0312
845.6531	-0.0649
845.8183	-0.0606
845.9834	-0.043
846.1485	-0.0225
846.3136	-0.0274
846.4787	-0.0447
846.6438	0.1043
846.8088	-0.045
846.9738	-0.0497
847.1388	-0.029
847.3038	-0.0225
847.4687	-0.1013
847.6337	0.001
847.7986	0.0327
847.9635	-0.0329
848.1284	0.0135
848.2932	0.0468
848.458	-0.041
848.6228	0.0495
848.7876	0.1165
848.9524	-0.0775
849.1172	-0.0698
849.2819	0.0345
849.4466	-0.105
849.6113	-0.1386
849.7759	-0.0104
849.9406	-0.0444
850.1052	0.0811
850.2698	-0.0999
850.4344	0.0074
850.599	-0.0668
850.7635	0.142
850.928	0.0597
851.0925	0.0376
851.257	0.0288
851.4215	0.0103
851.5859	-0.026
851.7503	0.0298
851.9147	-0.0085
852.0791	-0.0585
852.2434	-0.0368
852.4078	0.0714
852.5721	0.0656
852.7364	-0.0486
852.9007	-0.1535
853.0649	0.0321
853.2291	-0.1101
853.3934	0.0111
853.5575	-0.0746
853.7217	-0.0143
853.8859	-0.2004
854.05	-0.0575
854.2141	0.0206
854.3782	-0.0876
854.5423	-0.0788
854.7063	0.0722
854.8703	0.0679
855.0343	-0.0648
855.1983	-0.1859
855.3623	0.145
855.5262	-0.0273
855.6901	-0.015
855.854	0.0406
856.0179	-0.0115
856.1818	0.0617
856.3456	0.038
856.5094	0.0605
856.6732	-0.1029
856.837	0.0574
857.0008	0.005
857.1645	-0.0243
857.3282	-0.0068
857.4919	0.0643
857.6556	0.0374
857.8192	-0.0041
857.9828	0.0471
858.1465	0.0664
858.31	-0.1231
858.4736	0.2439
858.6372	-0.3013
858.8007	-0.1307
858.9642	0.0572
859.1277	0.0479
859.2911	0.1081
859.4546	0.0227
859.618	-0.2877
859.7814	-0.069
859.9448	-0.0653
860.1081	-0.0013
860.2715	0.166
860.4348	-0.054
860.5981	-0.0977
860.7614	0.3552
860.9246	-0.0458
861.0879	0.0415
861.2511	0.1067
861.4143	-0.2393
861.5774	0.506
861.7406	-0.2869
861.9037	0.0965
862.0668	-0.1517
862.2299	-0.1419
862.393	-0.495
862.556	-0.0347
862.7191	-0.0144
862.8821	-0.3153
863.0451	0.3029
863.208	-0.052
863.371	-0.0476
863.5339	-0.1849
863.6968	0.0346
863.8597	-0.1209
864.0225	-0.0356
864.1854	-0.3318
864.3482	-0
864.511	0.2527
864.6737	-0.116
864.8365	0.0887
864.9992	-0.0961
865.1619	-0.509
865.3246	0.129
865.4873	-0.2377
865.65	-0.3017
865.8126	1.0079
865.9752	0.1604
866.1378	-0.2769
866.3004	0.6235
866.4629	0.3023
866.6254	-0.2037
866.7879	-0.1609
866.9504	-0.4592
867.1129	-0
867.2753	0.166
867.4377	0.1699
867.6001	-0.3542
867.7625	0.0578
867.9249	-0.182
868.0872	-0.0191
868.2495	0.2627
868.4118	-0.1233
868.5741	0.16
868.7363	-0.3639
868.8986	-0.2899
869.0608	-0.2059
869.223	0.1247
869.3851	-0
869.5473	-0
869.7094	0.4522
869.8715	-0.4516
870.0336	-0
870.1957	-0.4614
870.3577	-0.8698
870.5197	-0.194
870.6817	0.1668
870.8437	-0.2251
871.0057	-0.8833
871.1676	-0.0868
871.3295	-0
871.4914	-0
871.6533	-0.0033
871.8151	-0.6802
871.977	-0
872.1388	-0
872.3006	-0
872.4623	-0
872.6241	0.271
872.7858	1.8876
872.9475	-0.3391
873.1092	-0.0431
873.2709	-0
873.4325	0.1081
873.5941	-0.2403
873.7557	-0.5462
873.9173	0.1471
874.0789	-0.3398
874.2404	-0.2022
874.4019	0.0021
874.5634	0.1285
874.7249	0.0671
874.8863	-0.1507
875.0478	0.4049
875.2092	-0
875.3706	0.1479
875.5319	-1.089
875.6933	-0.0321
875.8546	-0.0482
876.0159	0.2728
876.1772	-0
876.3385	-0
876.4997	0.057
876.6609	-0.164
876.8221	1.2688
876.9833	1.1421
877.1445	0.7874
877.3056	-0.0189
877.4667	0.7011
877.6278	-0
877.7889	-0
877.9499	-0
878.111	-0
878.272	-0.5552
878.433	1.0517
878.5939	0.2439
878.7549	-0.0793
878.9158	-0.3045
879.0767	0.282
879.2376	-0
879.3984	0.9424
879.5593	-0
879.7201	0.0475
879.8809	-0.0504
880.0417	-0
880.2024	-0
880.3632	-0
880.5239	1.1062
880.6846	-0
880.8452	-2.3738
881.0059	-0
881.1665	0.1817
881.3271	-0
881.4877	-0
881.6483	-0
881.8088	-0.2236
881.9693	-0
882.1298	-0
882.2903	-0
