Data from MonoPyChalIsomerACN10uM440nmA_Absorbance_15-27-16-694.txt Node
Date: Fri Jul 05 15:27:16 BST 2024
User: LASERRRRR
Spectrometer: FLMT03099
Trigger mode: 0
Integration Time (sec): 1.000000E-1
Scans to average: 1
Electric dark correction enabled: true
Nonlinearity correction enabled: false
Boxcar width: 0
XAxis mode: Wavelengths
Number of Pixels in Spectrum: 3648
>>>>>Begin Spectral Data<<<<<
179.3399	-0.1246
179.5586	-0.1246
179.7771	-0.1246
179.9957	0.0528
180.2143	-0
180.4329	-0.3032
180.6514	-0
180.8699	-0
181.0885	0.2095
181.307	0.0982
181.5255	-0
181.744	-0.293
181.9625	-0
182.181	-0.2185
182.3994	-0
182.6179	-0.151
182.8363	-0
183.0547	-0.3316
183.2732	-0.0472
183.4916	0.0349
183.71	0.2161
183.9284	-0.0018
184.1467	-0.1475
184.3651	0.0536
184.5835	0.026
184.8018	-0.0024
185.0201	0.1751
185.2385	-0.0072
185.4568	0.3562
185.6751	0.0727
185.8934	0.2201
186.1117	-0.0639
186.3299	0.078
186.5482	0.0501
186.7664	-0.1286
186.9847	-0.1663
187.2029	-0.011
187.4211	0.0083
187.6393	-0.0611
187.8575	0.1778
188.0757	0.3157
188.2939	0.0016
188.512	-0.0033
188.7302	0.1928
188.9483	-0.19
189.1665	0.0862
189.3846	0.1256
189.6027	0.1686
189.8208	0.1769
190.0389	-0.0127
190.257	0.0523
190.475	0.5022
190.6931	0.4323
190.9111	0.5577
191.1292	0.1923
191.3472	0.4206
191.5652	0.1702
191.7832	0.2259
192.0012	0.2904
192.2192	0.2631
192.4371	0.4582
192.6551	0.3514
192.873	0.3443
193.091	0.3169
193.3089	0.7329
193.5268	0.4161
193.7447	0.5182
193.9626	0.5253
194.1805	0.5794
194.3984	0.9464
194.6162	0.5171
194.8341	0.8965
195.0519	0.5209
195.2697	0.5746
195.4875	0.7457
195.7054	0.7462
195.9231	0.515
196.1409	0.5503
196.3587	0.514
196.5765	0.7102
196.7942	0.7459
197.012	0.4178
197.2297	0.5931
197.4474	0.7247
197.6651	0.5797
197.8828	0.5981
198.1005	0.5056
198.3182	0.6843
198.5358	0.9303
198.7535	0.6334
198.9711	0.5939
199.1888	0.6457
199.4064	0.8056
199.624	0.6093
199.8416	0.5977
200.0592	0.6429
200.2767	0.6792
200.4943	0.6424
200.7119	0.7876
200.9294	0.5936
201.1469	0.5163
201.3645	0.5538
201.582	0.5847
201.7995	0.6811
202.017	0.5938
202.2344	0.6148
202.4519	0.6549
202.6694	0.5961
202.8868	0.5733
203.1042	0.7675
203.3217	0.7071
203.5391	0.6871
203.7565	0.6106
203.9739	0.6486
204.1913	0.5614
204.4086	0.7082
204.626	0.6737
204.8433	0.6904
205.0607	0.637
205.278	0.6687
205.4953	0.5823
205.7126	0.6229
205.9299	0.862
206.1472	0.721
206.3644	0.6532
206.5817	0.7517
206.7989	0.7023
207.0162	0.6719
207.2334	0.6661
207.4506	0.7002
207.6678	0.6432
207.885	0.6844
208.1022	0.6337
208.3194	0.7102
208.5365	0.6216
208.7537	0.5711
208.9708	0.568
209.1879	0.7111
209.405	0.6688
209.6222	0.6527
209.8392	0.6524
210.0563	0.6375
210.2734	0.6541
210.4905	0.6835
210.7075	0.7092
210.9245	0.6339
211.1416	0.7236
211.3586	0.5926
211.5756	0.6085
211.7926	0.6327
212.0096	0.5536
212.2265	0.5661
212.4435	0.5481
212.6604	0.5675
212.8774	0.6251
213.0943	0.5842
213.3112	0.5592
213.5281	0.4945
213.745	0.4912
213.9619	0.5394
214.1788	0.5256
214.3956	0.4551
214.6125	0.4687
214.8293	0.4303
215.0461	0.502
215.2629	0.4604
215.4798	0.461
215.6965	0.4436
215.9133	0.4745
216.1301	0.4105
216.3469	0.4521
216.5636	0.4171
216.7803	0.3796
216.9971	0.3862
217.2138	0.3942
217.4305	0.3842
217.6472	0.3539
217.8639	0.3887
218.0805	0.3653
218.2972	0.3092
218.5138	0.3073
218.7305	0.3205
218.9471	0.2908
219.1637	0.2845
219.3803	0.2582
219.5969	0.2737
219.8135	0.2316
220.0301	0.2729
220.2466	0.284
220.4632	0.2352
220.6797	0.2328
220.8962	0.2266
221.1127	0.256
221.3292	0.263
221.5457	0.2602
221.7622	0.2414
221.9787	0.2465
222.1951	0.2391
222.4116	0.2409
222.628	0.2547
222.8444	0.251
223.0608	0.2305
223.2772	0.2399
223.4936	0.2569
223.71	0.2377
223.9264	0.2523
224.1427	0.24
224.3591	0.2325
224.5754	0.2563
224.7917	0.2495
225.008	0.2476
225.2243	0.2583
225.4406	0.2801
225.6569	0.2727
225.8732	0.2472
226.0894	0.2505
226.3057	0.2659
226.5219	0.2676
226.7381	0.2569
226.9543	0.2983
227.1705	0.2753
227.3867	0.2611
227.6029	0.2872
227.8191	0.303
228.0352	0.2917
228.2513	0.2926
228.4675	0.2858
228.6836	0.3057
228.8997	0.2849
229.1158	0.3069
229.3319	0.295
229.548	0.3012
229.764	0.312
229.9801	0.3091
230.1961	0.3165
230.4121	0.3279
230.6282	0.3214
230.8442	0.3115
231.0602	0.3466
231.2761	0.3398
231.4921	0.3553
231.7081	0.332
231.924	0.3309
232.14	0.3634
232.3559	0.342
232.5718	0.379
232.7877	0.3521
233.0036	0.335
233.2195	0.3395
233.4353	0.3393
233.6512	0.3584
233.867	0.3657
234.0829	0.3434
234.2987	0.3718
234.5145	0.3644
234.7303	0.3542
234.9461	0.3918
235.1619	0.3889
235.3776	0.3765
235.5934	0.3885
235.8091	0.363
236.0249	0.3829
236.2406	0.3888
236.4563	0.3915
236.672	0.3956
236.8877	0.391
237.1034	0.37
237.319	0.384
237.5347	0.3939
237.7503	0.3799
237.966	0.3984
238.1816	0.4146
238.3972	0.4132
238.6128	0.3867
238.8284	0.3848
239.0439	0.4042
239.2595	0.3843
239.475	0.4134
239.6906	0.3995
239.9061	0.3906
240.1216	0.3959
240.3371	0.4198
240.5526	0.3949
240.7681	0.3998
240.9836	0.3912
241.199	0.4007
241.4145	0.3917
241.6299	0.3851
241.8453	0.3686
242.0607	0.3798
242.2761	0.3654
242.4915	0.3558
242.7069	0.3688
242.9223	0.3611
243.1376	0.3495
243.353	0.321
243.5683	0.3301
243.7836	0.3148
243.9989	0.3425
244.2142	0.3092
244.4295	0.3196
244.6448	0.3014
244.86	0.3179
245.0753	0.2885
245.2905	0.2937
245.5057	0.2688
245.721	0.2695
245.9362	0.2796
246.1514	0.2739
246.3665	0.2453
246.5817	0.256
246.7969	0.2541
247.012	0.2474
247.2271	0.2431
247.4423	0.2479
247.6574	0.245
247.8725	0.2328
248.0876	0.2255
248.3026	0.2237
248.5177	0.2187
248.7328	0.2358
248.9478	0.2175
249.1628	0.211
249.3779	0.2088
249.5929	0.1896
249.8079	0.2066
250.0228	0.1978
250.2378	0.2002
250.4528	0.1982
250.6677	0.1913
250.8827	0.1874
251.0976	0.1881
251.3125	0.1801
251.5274	0.1721
251.7423	0.1812
251.9572	0.1767
252.172	0.1867
252.3869	0.175
252.6017	0.1758
252.8166	0.1726
253.0314	0.1639
253.2462	0.1617
253.461	0.17
253.6758	0.1581
253.8906	0.1817
254.1053	0.1678
254.3201	0.1674
254.5348	0.1846
254.7496	0.1803
254.9643	0.1728
255.179	0.1695
255.3937	0.1642
255.6083	0.1655
255.823	0.1619
256.0377	0.1522
256.2523	0.1668
256.467	0.153
256.6816	0.1655
256.8962	0.1638
257.1108	0.1524
257.3254	0.17
257.54	0.1581
257.7545	0.1737
257.9691	0.1786
258.1836	0.1701
258.3981	0.1691
258.6127	0.1728
258.8272	0.1531
259.0417	0.1622
259.2561	0.1737
259.4706	0.1648
259.6851	0.1661
259.8995	0.1655
260.114	0.1687
260.3284	0.1557
260.5428	0.1563
260.7572	0.1728
260.9716	0.1632
261.186	0.1587
261.4003	0.1607
261.6147	0.1758
261.829	0.1596
262.0433	0.1632
262.2577	0.1668
262.472	0.1636
262.6863	0.154
262.9005	0.1711
263.1148	0.1774
263.3291	0.1446
263.5433	0.1683
263.7576	0.1663
263.9718	0.1658
264.186	0.1568
264.4002	0.1587
264.6144	0.1706
264.8286	0.1689
265.0427	0.1614
265.2569	0.1493
265.471	0.1476
265.6851	0.1665
265.8993	0.151
266.1134	0.1477
266.3275	0.1526
266.5415	0.1631
266.7556	0.166
266.9697	0.159
267.1837	0.1606
267.3978	0.1614
267.6118	0.1652
267.8258	0.1644
268.0398	0.1523
268.2538	0.1794
268.4677	0.1645
268.6817	0.1547
268.8957	0.1673
269.1096	0.1669
269.3235	0.1624
269.5374	0.1448
269.7514	0.153
269.9652	0.1549
270.1791	0.1456
270.393	0.1436
270.6068	0.156
270.8207	0.1479
271.0345	0.1549
271.2483	0.1456
271.4622	0.15
271.676	0.1573
271.8897	0.1438
272.1035	0.1487
272.3173	0.1476
272.531	0.151
272.7448	0.1523
272.9585	0.1429
273.1722	0.1576
273.3859	0.1485
273.5996	0.1307
273.8133	0.1572
274.0269	0.1364
274.2406	0.1338
274.4542	0.1443
274.6679	0.1379
274.8815	0.1467
275.0951	0.144
275.3087	0.161
275.5223	0.1623
275.7358	0.1525
275.9494	0.1518
276.1629	0.1364
276.3765	0.1496
276.59	0.1538
276.8035	0.1429
277.017	0.145
277.2305	0.139
277.444	0.1547
277.6574	0.1444
277.8709	0.14
278.0843	0.1381
278.2978	0.1528
278.5112	0.1396
278.7246	0.1437
278.938	0.1563
279.1513	0.1597
279.3647	0.1568
279.5781	0.1506
279.7914	0.1544
280.0047	0.1616
280.2181	0.1535
280.4314	0.1584
280.6447	0.1531
280.8579	0.1571
281.0712	0.162
281.2845	0.1537
281.4977	0.1542
281.711	0.1341
281.9242	0.1504
282.1374	0.1531
282.3506	0.1482
282.5638	0.1623
282.7769	0.1473
282.9901	0.1555
283.2033	0.1631
283.4164	0.1658
283.6295	0.1548
283.8426	0.152
284.0557	0.1503
284.2688	0.1614
284.4819	0.1562
284.695	0.1602
284.908	0.1664
285.1211	0.1641
285.3341	0.1545
285.5471	0.1602
285.7601	0.1607
285.9731	0.1584
286.1861	0.1514
286.3991	0.1651
286.612	0.1646
286.825	0.1683
287.0379	0.1726
287.2508	0.1586
287.4637	0.1633
287.6766	0.1438
287.8895	0.167
288.1024	0.1736
288.3152	0.1649
288.5281	0.151
288.7409	0.1583
288.9538	0.158
289.1666	0.1492
289.3794	0.1587
289.5922	0.1499
289.8049	0.1555
290.0177	0.1643
290.2304	0.1636
290.4432	0.159
290.6559	0.1499
290.8686	0.1679
291.0813	0.1605
291.294	0.1596
291.5067	0.1639
291.7194	0.1574
291.932	0.1712
292.1447	0.1512
292.3573	0.1474
292.5699	0.1637
292.7825	0.1553
292.9951	0.1612
293.2077	0.1564
293.4203	0.1525
293.6328	0.1559
293.8454	0.1616
294.0579	0.1548
294.2704	0.1672
294.4829	0.145
294.6954	0.1619
294.9079	0.164
295.1204	0.1597
295.3328	0.1611
295.5453	0.1546
295.7577	0.1632
295.9701	0.1621
296.1825	0.1521
296.3949	0.1555
296.6073	0.1458
296.8197	0.1552
297.0321	0.1667
297.2444	0.1441
297.4567	0.1591
297.6691	0.1654
297.8814	0.1557
298.0937	0.1474
298.306	0.1631
298.5182	0.1533
298.7305	0.1574
298.9428	0.1461
299.155	0.1673
299.3672	0.1531
299.5794	0.153
299.7916	0.1544
300.0038	0.1636
300.216	0.1527
300.4282	0.1595
300.6403	0.1554
300.8525	0.157
301.0646	0.1538
301.2767	0.155
301.4888	0.1565
301.7009	0.1544
301.913	0.1475
302.125	0.1561
302.3371	0.151
302.5491	0.1535
302.7612	0.1601
302.9732	0.1494
303.1852	0.1587
303.3972	0.1542
303.6092	0.1532
303.8211	0.1401
304.0331	0.152
304.245	0.1409
304.457	0.1515
304.6689	0.1419
304.8808	0.1594
305.0927	0.1369
305.3046	0.164
305.5164	0.1491
305.7283	0.1462
305.9401	0.1405
306.152	0.1489
306.3638	0.1409
306.5756	0.1391
306.7874	0.1489
306.9992	0.143
307.2109	0.1362
307.4227	0.1177
307.6344	0.1309
307.8462	0.13
308.0579	0.1327
308.2696	0.1344
308.4813	0.1312
308.693	0.1295
308.9046	0.126
309.1163	0.1242
309.328	0.1168
309.5396	0.1118
309.7512	0.1236
309.9628	0.1177
310.1744	0.1176
310.386	0.1212
310.5976	0.1132
310.8091	0.1118
311.0207	0.1229
311.2322	0.1233
311.4437	0.1039
311.6552	0.1037
311.8667	0.1185
312.0782	0.0912
312.2897	0.0919
312.5012	0.1217
312.7126	0.0961
312.924	0.105
313.1355	0.1148
313.3469	0.1074
313.5583	0.1144
313.7696	0.1072
313.981	0.1011
314.1924	0.1014
314.4037	0.1038
314.6151	0.1096
314.8264	0.0976
315.0377	0.0962
315.249	0.0991
315.4603	0.1083
315.6716	0.1071
315.8828	0.0954
316.0941	0.1089
316.3053	0.0991
316.5165	0.0997
316.7277	0.0976
316.9389	0.1075
317.1501	0.0957
317.3613	0.0956
317.5724	0.0925
317.7836	0.1107
317.9947	0.0926
318.2058	0.0939
318.417	0.0776
318.6281	0.0949
318.8391	0.0948
319.0502	0.0869
319.2613	0.106
319.4723	0.1121
319.6834	0.1104
319.8944	0.093
320.1054	0.1021
320.3164	0.1079
320.5274	0.1006
320.7383	0.0977
320.9493	0.0998
321.1602	0.1063
321.3712	0.0874
321.5821	0.1082
321.793	0.1095
322.0039	0.0939
322.2148	0.0934
322.4257	0.0899
322.6365	0.1018
322.8474	0.1124
323.0582	0.0985
323.269	0.1033
323.4798	0.116
323.6906	0.1053
323.9014	0.1119
324.1122	0.1071
324.3229	0.0979
324.5337	0.0945
324.7444	0.0993
324.9551	0.1142
325.1658	0.1114
325.3765	0.1089
325.5872	0.1081
325.7979	0.1061
326.0085	0.1009
326.2192	0.1123
326.4298	0.1022
326.6404	0.0936
326.851	0.1058
327.0616	0.0993
327.2722	0.1012
327.4828	0.1043
327.6933	0.0998
327.9039	0.1121
328.1144	0.1146
328.3249	0.1141
328.5354	0.1018
328.7459	0.1068
328.9564	0.1009
329.1669	0.094
329.3773	0.1137
329.5878	0.103
329.7982	0.1043
330.0086	0.0918
330.219	0.1119
330.4294	0.1016
330.6398	0.0951
330.8502	0.0977
331.0605	0.1158
331.2708	0.114
331.4812	0.1063
331.6915	0.1085
331.9018	0.1063
332.1121	0.0982
332.3224	0.1067
332.5326	0.1094
332.7429	0.1149
332.9531	0.1198
333.1633	0.1008
333.3735	0.1159
333.5837	0.1125
333.7939	0.0966
334.0041	0.1161
334.2143	0.1206
334.4244	0.1073
334.6346	0.1017
334.8447	0.1175
335.0548	0.1011
335.2649	0.0925
335.475	0.1154
335.685	0.1027
335.8951	0.1179
336.1051	0.1082
336.3152	0.1128
336.5252	0.1075
336.7352	0.1135
336.9452	0.1121
337.1552	0.1145
337.3652	0.1067
337.5751	0.1047
337.7851	0.1179
337.995	0.1074
338.2049	0.1179
338.4148	0.1038
338.6247	0.1195
338.8346	0.1136
339.0445	0.099
339.2543	0.1164
339.4642	0.1215
339.674	0.1084
339.8838	0.1223
340.0936	0.1114
340.3034	0.1277
340.5132	0.1103
340.7229	0.1222
340.9327	0.1186
341.1424	0.1249
341.3522	0.1266
341.5619	0.1224
341.7716	0.1244
341.9813	0.1212
342.1909	0.1117
342.4006	0.1203
342.6102	0.1219
342.8199	0.1231
343.0295	0.1125
343.2391	0.1192
343.4487	0.1288
343.6583	0.1125
343.8679	0.1345
344.0774	0.1311
344.287	0.1406
344.4965	0.1275
344.706	0.1325
344.9155	0.1273
345.125	0.1273
345.3345	0.1447
345.544	0.1242
345.7534	0.131
345.9629	0.1423
346.1723	0.1249
346.3817	0.1274
346.5911	0.1338
346.8005	0.1307
347.0099	0.129
347.2193	0.1263
347.4286	0.1303
347.638	0.1415
347.8473	0.1419
348.0566	0.1436
348.2659	0.1404
348.4752	0.1293
348.6845	0.1284
348.8937	0.1391
349.103	0.139
349.3122	0.1307
349.5214	0.1288
349.7306	0.1513
349.9398	0.1359
350.149	0.1342
350.3582	0.13
350.5674	0.1453
350.7765	0.1464
350.9856	0.137
351.1948	0.1438
351.4039	0.126
351.613	0.1403
351.822	0.15
352.0311	0.1457
352.2402	0.1423
352.4492	0.1507
352.6582	0.1524
352.8672	0.1344
353.0762	0.154
353.2852	0.1317
353.4942	0.1338
353.7032	0.1623
353.9121	0.1563
354.1211	0.1524
354.33	0.1478
354.5389	0.1495
354.7478	0.1588
354.9567	0.1472
355.1655	0.1354
355.3744	0.1627
355.5833	0.1608
355.7921	0.1683
356.0009	0.1551
356.2097	0.175
356.4185	0.1651
356.6273	0.1571
356.8361	0.1581
357.0448	0.149
357.2536	0.1452
357.4623	0.1458
357.671	0.1681
357.8797	0.1519
358.0884	0.1709
358.2971	0.162
358.5057	0.1501
358.7144	0.1601
358.923	0.1657
359.1316	0.1707
359.3402	0.1597
359.5488	0.1764
359.7574	0.1557
359.966	0.1724
360.1746	0.1686
360.3831	0.1863
360.5916	0.1672
360.8002	0.1484
361.0087	0.1874
361.2172	0.1846
361.4256	0.1784
361.6341	0.1856
361.8426	0.1776
362.051	0.183
362.2594	0.1763
362.4678	0.1852
362.6762	0.2061
362.8846	0.1838
363.093	0.1658
363.3014	0.1928
363.5097	0.1707
363.718	0.1816
363.9264	0.1755
364.1347	0.1813
364.343	0.193
364.5513	0.191
364.7595	0.2062
364.9678	0.1926
365.176	0.179
365.3842	0.1986
365.5925	0.1752
365.8007	0.1871
366.0089	0.2063
366.217	0.1735
366.4252	0.2038
366.6333	0.2107
366.8415	0.2033
367.0496	0.1807
367.2577	0.2047
367.4658	0.2075
367.6739	0.1996
367.882	0.2086
368.09	0.1885
368.2981	0.1978
368.5061	0.1968
368.7141	0.2002
368.9221	0.2128
369.1301	0.2042
369.3381	0.2027
369.5461	0.204
369.754	0.1987
369.962	0.2113
370.1699	0.2037
370.3778	0.217
370.5857	0.2037
370.7936	0.2076
371.0015	0.2117
371.2093	0.2169
371.4172	0.2229
371.625	0.2078
371.8328	0.2028
372.0406	0.2175
372.2484	0.204
372.4562	0.2126
372.664	0.2176
372.8717	0.2082
373.0795	0.1923
373.2872	0.2102
373.4949	0.2077
373.7026	0.2182
373.9103	0.2207
374.118	0.2304
374.3256	0.2244
374.5333	0.2231
374.7409	0.2124
374.9485	0.2237
375.1561	0.2119
375.3637	0.2298
375.5713	0.2186
375.7789	0.2225
375.9864	0.2318
376.194	0.2196
376.4015	0.2235
376.609	0.2421
376.8165	0.2284
377.024	0.2387
377.2315	0.2238
377.4389	0.237
377.6464	0.229
377.8538	0.2351
378.0612	0.2271
378.2686	0.2436
378.476	0.2482
378.6834	0.2374
378.8908	0.2344
379.0981	0.2389
379.3055	0.2334
379.5128	0.2448
379.7201	0.2331
379.9274	0.228
380.1347	0.2187
380.342	0.2553
380.5492	0.2382
380.7565	0.2324
380.9637	0.2515
381.1709	0.2416
381.3781	0.2432
381.5853	0.2425
381.7925	0.2534
381.9997	0.2447
382.2068	0.2512
382.4139	0.2404
382.6211	0.2298
382.8282	0.2509
383.0353	0.2305
383.2424	0.2302
383.4494	0.2433
383.6565	0.2422
383.8635	0.2512
384.0706	0.253
384.2776	0.2422
384.4846	0.2173
384.6916	0.2377
384.8986	0.2401
385.1055	0.2468
385.3125	0.2415
385.5194	0.2183
385.7263	0.2429
385.9333	0.2242
386.1402	0.2268
386.347	0.2336
386.5539	0.2386
386.7608	0.2422
386.9676	0.2334
387.1744	0.2244
387.3813	0.2269
387.5881	0.2402
387.7948	0.2353
388.0016	0.2449
388.2084	0.2455
388.4151	0.2048
388.6219	0.2325
388.8286	0.2415
389.0353	0.255
389.242	0.2444
389.4487	0.2289
389.6553	0.2227
389.862	0.217
390.0686	0.2302
390.2753	0.256
390.4819	0.226
390.6885	0.2426
390.8951	0.24
391.1016	0.2145
391.3082	0.2301
391.5147	0.2214
391.7213	0.2155
391.9278	0.2121
392.1343	0.215
392.3408	0.2264
392.5473	0.2157
392.7537	0.2356
392.9602	0.2111
393.1666	0.2097
393.373	0.2284
393.5794	0.2318
393.7858	0.2174
393.9922	0.2066
394.1986	0.1973
394.4049	0.2177
394.6113	0.1987
394.8176	0.2023
395.0239	0.2092
395.2302	0.2031
395.4365	0.2157
395.6428	0.2079
395.8491	0.2026
396.0553	0.2034
396.2615	0.2079
396.4678	0.2
396.674	0.1929
396.8802	0.2153
397.0863	0.2147
397.2925	0.2087
397.4987	0.2025
397.7048	0.1941
397.9109	0.2204
398.117	0.1923
398.3231	0.2107
398.5292	0.1936
398.7353	0.22
398.9413	0.2064
399.1474	0.1977
399.3534	0.1992
399.5594	0.1939
399.7654	0.2012
399.9714	0.214
400.1774	0.1909
400.3833	0.1921
400.5893	0.2033
400.7952	0.2051
401.0011	0.1912
401.207	0.2096
401.4129	0.1893
401.6188	0.2169
401.8247	0.2168
402.0305	0.1889
402.2364	0.1935
402.4422	0.195
402.648	0.2078
402.8538	0.2105
403.0596	0.1896
403.2654	0.2003
403.4711	0.1918
403.6768	0.1998
403.8826	0.2021
404.0883	0.2085
404.294	0.2067
404.4997	0.1847
404.7054	0.2091
404.911	0.1949
405.1167	0.2005
405.3223	0.2013
405.5279	0.1977
405.7335	0.2141
405.9391	0.2006
406.1447	0.1902
406.3502	0.2155
406.5558	0.2009
406.7613	0.2092
406.9668	0.1824
407.1724	0.2177
407.3778	0.1847
407.5833	0.2069
407.7888	0.1981
407.9942	0.201
408.1997	0.1763
408.4051	0.1924
408.6105	0.1974
408.8159	0.1928
409.0213	0.1903
409.2267	0.2192
409.432	0.1943
409.6374	0.2347
409.8427	0.1891
410.048	0.185
410.2533	0.1894
410.4586	0.1934
410.6639	0.1875
410.8691	0.1826
411.0744	0.1937
411.2796	0.1898
411.4848	0.1778
411.69	0.1956
411.8952	0.2187
412.1004	0.1868
412.3056	0.2121
412.5107	0.1824
412.7158	0.1971
412.921	0.197
413.1261	0.1711
413.3312	0.1971
413.5362	0.2019
413.7413	0.1918
413.9464	0.195
414.1514	0.1878
414.3564	0.1912
414.5614	0.1741
414.7664	0.1757
414.9714	0.1895
415.1764	0.1946
415.3813	0.2081
415.5863	0.2068
415.7912	0.1838
415.9961	0.1884
416.201	0.1825
416.4059	0.1868
416.6108	0.1783
416.8156	0.1868
417.0205	0.1809
417.2253	0.193
417.4301	0.1844
417.6349	0.1814
417.8397	0.1873
418.0445	0.1862
418.2492	0.1892
418.454	0.1811
418.6587	0.1936
418.8634	0.1742
419.0681	0.163
419.2728	0.1674
419.4775	0.1775
419.6822	0.175
419.8868	0.155
420.0915	0.1791
420.2961	0.1665
420.5007	0.1753
420.7053	0.1818
420.9099	0.1703
421.1144	0.177
421.319	0.179
421.5235	0.1678
421.728	0.183
421.9325	0.1759
422.137	0.1705
422.3415	0.1705
422.546	0.1819
422.7504	0.1733
422.9549	0.1784
423.1593	0.1698
423.3637	0.1759
423.5681	0.154
423.7725	0.1638
423.9769	0.1594
424.1812	0.1558
424.3856	0.1578
424.5899	0.1638
424.7942	0.1631
424.9985	0.1612
425.2028	0.1593
425.4071	0.1802
425.6113	0.143
425.8156	0.1582
426.0198	0.1629
426.224	0.1628
426.4282	0.1554
426.6324	0.1493
426.8366	0.1604
427.0407	0.1662
427.2449	0.1479
427.449	0.1472
427.6531	0.1283
427.8572	0.1541
428.0613	0.1366
428.2654	0.1388
428.4694	0.1484
428.6735	0.1529
428.8775	0.1531
429.0815	0.1405
429.2855	0.1332
429.4895	0.1492
429.6935	0.1449
429.8975	0.1321
430.1014	0.1308
430.3053	0.132
430.5093	0.1359
430.7132	0.12
430.9171	0.126
431.1209	0.1391
431.3248	0.1252
431.5286	0.1503
431.7325	0.1373
431.9363	0.1155
432.1401	0.1428
432.3439	0.112
432.5477	0.1087
432.7514	0.1088
432.9552	0.1214
433.1589	0.1055
433.3627	0.1117
433.5664	0.1058
433.7701	0.1035
433.9737	0.1016
434.1774	0.1047
434.3811	0.1049
434.5847	0.1064
434.7883	0.1093
434.9919	0.1057
435.1955	0.1078
435.3991	0.1156
435.6027	0.0972
435.8062	0.0939
436.0098	0.0948
436.2133	0.1065
436.4168	0.0862
436.6203	0.0889
436.8238	0.0904
437.0272	0.0901
437.2307	0.0859
437.4341	0.1038
437.6375	0.0914
437.841	0.0925
438.0443	0.0974
438.2477	0.0799
438.4511	0.0776
438.6545	0.0864
438.8578	0.0784
439.0611	0.0711
439.2644	0.0743
439.4677	0.0588
439.671	0.0642
439.8743	0.0615
440.0775	0.0851
440.2808	0.0582
440.484	0.0561
440.6872	0.0438
440.8904	0.0781
441.0936	0.0783
441.2967	0.0755
441.4999	0.0602
441.703	0.0549
441.9062	0.0486
442.1093	0.0539
442.3124	0.0756
442.5155	0.0431
442.7185	0.0452
442.9216	0.0443
443.1246	0.0793
443.3276	0.0509
443.5307	0.0447
443.7337	0.0544
443.9366	0.0547
444.1396	0.0436
444.3426	0.0457
444.5455	0.0532
444.7484	0.0513
444.9513	0.0388
445.1542	0.0548
445.3571	0.0569
445.56	0.0499
445.7628	0.0415
445.9657	0.0367
446.1685	0.0474
446.3713	0.043
446.5741	0.0442
446.7769	0.0188
446.9797	0.0336
447.1824	0.0402
447.3852	0.0382
447.5879	0.0438
447.7906	0.0503
447.9933	0.0369
448.196	0.0247
448.3986	0.039
448.6013	0.026
448.8039	0.0128
449.0066	0.0187
449.2092	0.0476
449.4118	0.0312
449.6143	0.0291
449.8169	0.029
450.0195	0.0194
450.222	0.0043
450.4245	0.0218
450.627	0.0352
450.8295	0.0405
451.032	0.0024
451.2345	0.0171
451.4369	0.0282
451.6394	0.0208
451.8418	0.0019
452.0442	0.0132
452.2466	0.0289
452.449	0.0146
452.6513	0.0188
452.8537	0.0337
453.056	0.0072
453.2583	0.0199
453.4607	-0.0001
453.663	0.0196
453.8652	0.0264
454.0675	0.0051
454.2697	0.0203
454.472	-0.0056
454.6742	0.0197
454.8764	0.0114
455.0786	0.014
455.2808	0.0099
455.4829	0.0213
455.6851	0.0169
455.8872	0.0135
456.0893	0.0249
456.2915	0.0147
456.4935	0.0175
456.6956	-0.0079
456.8977	0.0167
457.0997	0.002
457.3018	-0.0058
457.5038	0.0293
457.7058	0.0062
457.9078	0.0206
458.1098	0.0203
458.3117	0.0098
458.5137	0.0082
458.7156	0.0138
458.9175	-0.013
459.1194	0.0098
459.3213	0.0148
459.5232	0.007
459.725	-0.0039
459.9269	-0.0095
460.1287	0.0049
460.3305	0.0128
460.5323	0.0074
460.7341	0.0067
460.9359	-0.0001
461.1376	0.0082
461.3394	0.0032
461.5411	0.0047
461.7428	-0.0043
461.9445	0.0135
462.1462	0.0219
462.3479	0.0021
462.5495	0.0059
462.7512	0.0048
462.9528	0.0008
463.1544	-0.0111
463.356	-0.0089
463.5576	0.007
463.7592	0.0025
463.9607	-0.003
464.1623	0.0163
464.3638	0.0149
464.5653	-0.0099
464.7668	0.0051
464.9683	0.0051
465.1697	0.0127
465.3712	-0.0106
465.5726	-0.0057
465.7741	0.0106
465.9755	-0.0115
466.1769	-0.0141
466.3782	-0.0058
466.5796	-0.0086
466.7809	0.012
466.9823	0.0004
467.1836	-0.0018
467.3849	-0.0046
467.5862	-0.002
467.7875	-0.0038
467.9887	0.0041
468.19	0.0027
468.3912	-0.009
468.5924	-0.0101
468.7936	-0.0015
468.9948	0.0073
469.196	0.0156
469.3972	-0.0217
469.5983	-0.0027
469.7994	-0.0189
470.0006	-0.0104
470.2017	-0.0094
470.4027	-0.0117
470.6038	0.0035
470.8049	-0.0195
471.0059	-0.0042
471.2069	-0.0315
471.408	0.0126
471.6089	-0.0041
471.8099	-0.0073
472.0109	-0.0004
472.2119	-0.0117
472.4128	-0.0254
472.6137	-0.0028
472.8146	-0.0069
473.0155	-0.0019
473.2164	-0.0143
473.4173	0.0012
473.6181	0.0069
473.819	0.0133
474.0198	-0.0029
474.2206	-0.0083
474.4214	-0.0131
474.6222	0.0011
474.8229	-0.0014
475.0237	-0.0044
475.2244	-0.01
475.4251	-0.0018
475.6258	-0.0042
475.8265	-0.0089
476.0272	0.0083
476.2278	-0.0017
476.4285	-0.0033
476.6291	0.0004
476.8297	-0.0031
477.0303	-0.0002
477.2309	-0.0112
477.4315	-0.0048
477.632	-0.0052
477.8326	0.0092
478.0331	0.0027
478.2336	0.0085
478.4341	-0.0088
478.6346	-0.0078
478.8351	0.0035
479.0355	-0.0065
479.236	0.0019
479.4364	0.0095
479.6368	0.0047
479.8372	-0.0091
480.0376	-0.0024
480.2379	-0.0103
480.4383	-0.0086
480.6386	-0.0092
480.8389	0.0015
481.0392	-0.0163
481.2395	-0.0117
481.4398	0.0032
481.6401	-0.006
481.8403	0.004
482.0405	-0.0036
482.2408	-0.0053
482.441	0.0019
482.6411	0.0039
482.8413	-0.0053
483.0415	-0.0009
483.2416	0.0044
483.4417	0.0005
483.6419	0.0033
483.8419	-0.011
484.042	0.0007
484.2421	0.001
484.4422	0.0047
484.6422	-0.008
484.8422	-0.0052
485.0422	-0.0056
485.2422	0.004
485.4422	-0.0064
485.6422	-0.017
485.8421	-0.0086
486.042	-0.0039
486.242	-0.009
486.4419	-0.0022
486.6417	-0.0104
486.8416	-0.0019
487.0415	-0.0016
487.2413	0.0023
487.4411	0.0001
487.641	-0.0027
487.8408	0.0049
488.0405	-0.0098
488.2403	-0.002
488.4401	0.0043
488.6398	-0.0099
488.8395	-0.0063
489.0392	0.0038
489.2389	-0.0041
489.4386	-0.0023
489.6383	-0.0046
489.8379	-0.006
490.0376	-0.0039
490.2372	-0.0216
490.4368	-0.0096
490.6364	0.0107
490.836	-0.0106
491.0355	0.0069
491.2351	-0.0014
491.4346	-0.0093
491.6341	-0.0194
491.8336	0.0032
492.0331	-0.0058
492.2326	0.0002
492.432	0.0054
492.6315	-0.0125
492.8309	-0.0052
493.0303	-0.0071
493.2297	0.0027
493.4291	-0.0034
493.6284	-0.0097
493.8278	-0.002
494.0271	-0.0069
494.2264	0.0015
494.4257	-0.0168
494.625	-0.0064
494.8243	-0.0196
495.0236	-0.0095
495.2228	-0.0112
495.422	0.0014
495.6213	-0.0058
495.8205	0.0079
496.0196	0.0025
496.2188	0.0011
496.418	-0.0149
496.6171	-0.0071
496.8162	-0.0108
497.0153	0.0041
497.2144	-0.004
497.4135	0.0077
497.6126	-0.0141
497.8116	-0.0028
498.0107	-0.001
498.2097	-0.003
498.4087	-0.0113
498.6077	0.0005
498.8067	-0.0093
499.0056	0.0035
499.2046	-0.0074
499.4035	-0.0136
499.6024	0.001
499.8013	0.0103
500.0002	-0.0032
500.199	-0.0005
500.3979	-0.0066
500.5967	-0.0179
500.7956	-0.0035
500.9944	-0.0024
501.1932	-0.0049
501.3919	-0.0111
501.5907	-0.0087
501.7895	0.0073
501.9882	-0.0093
502.1869	-0.014
502.3856	-0.0199
502.5843	-0.0113
502.783	-0.0152
502.9816	-0.0109
503.1803	-0.0138
503.3789	-0.0024
503.5775	-0.0014
503.7761	-0.0095
503.9747	-0.0037
504.1732	-0.0103
504.3718	-0.0113
504.5703	-0.0095
504.7689	-0.0109
504.9674	-0.0015
505.1658	-0.0047
505.3643	0.0052
505.5628	-0.0033
505.7612	-0.0127
505.9597	0.0124
506.1581	-0.0052
506.3565	0.0053
506.5549	0.004
506.7532	-0.0172
506.9516	0.0039
507.1499	0.0033
507.3482	-0.0096
507.5465	-0.005
507.7448	0.0053
507.9431	0.0023
508.1414	-0.0046
508.3396	-0.0097
508.5379	0.0082
508.7361	0.0055
508.9343	-0.0101
509.1325	0.0044
509.3306	0.0018
509.5288	0.0038
509.7269	-0.002
509.9251	-0.0066
510.1232	-0.0097
510.3213	-0.0016
510.5193	-0.0009
510.7174	-0.0161
510.9154	-0.0089
511.1135	-0.0025
511.3115	-0.0075
511.5095	-0.0026
511.7075	-0.0017
511.9055	-0.0013
512.1034	-0.0148
512.3014	-0.0015
512.4993	0.0002
512.6972	-0.0097
512.8951	-0.0193
513.093	-0.0019
513.2908	0.0026
513.4887	-0.0047
513.6865	0.0024
513.8844	-0.0103
514.0822	-0.0177
514.2799	-0.0082
514.4777	-0.0127
514.6755	-0.0069
514.8732	-0.0129
515.0709	-0.0028
515.2687	-0.0089
515.4664	0.0037
515.664	0.0047
515.8617	-0.009
516.0594	-0.0112
516.257	-0.0057
516.4546	-0.0177
516.6522	0.001
516.8498	-0.0033
517.0474	-0.0003
517.2449	0.0113
517.4425	-0.012
517.64	0.0009
517.8375	0.0036
518.035	0.0001
518.2325	-0.0051
518.43	-0.0054
518.6274	-0.0068
518.8249	-0.0122
519.0223	-0.0097
519.2197	-0.0035
519.4171	-0.0075
519.6145	-0.0086
519.8118	0.0035
520.0092	0.0006
520.2065	-0.0126
520.4038	-0.016
520.6011	-0.0002
520.7984	-0.0033
520.9956	-0.0021
521.1929	-0.001
521.3901	-0.0013
521.5874	-0.0015
521.7846	0.0056
521.9818	0.0017
522.1789	-0.0129
522.3761	0.0104
522.5732	-0.0049
522.7704	-0.01
522.9675	0.0015
523.1646	-0.0135
523.3617	0.0107
523.5587	0.0008
523.7558	-0.0007
523.9528	-0.0059
524.1498	-0.0033
524.3468	-0.01
524.5438	-0.0038
524.7408	-0.0082
524.9378	0.0031
525.1347	-0.0051
525.3316	0.0044
525.5285	-0.0048
525.7254	-0.0051
525.9223	0.0037
526.1192	-0.0005
526.316	-0.0091
526.5129	0.0145
526.7097	-0.0028
526.9065	-0.0098
527.1033	0.0013
527.3	-0.0032
527.4968	-0.0069
527.6935	-0.0005
527.8903	0.0045
528.087	-0.0128
528.2837	-0.0035
528.4804	-0.0049
528.677	0.0034
528.8737	0.0074
529.0703	0.0083
529.2669	-0.0026
529.4635	-0.0025
529.6601	0.0025
529.8567	-0.0114
530.0532	-0.0084
530.2498	0.0037
530.4463	-0.0033
530.6428	-0.0109
530.8393	-0.0011
531.0358	-0.0037
531.2322	-0.0048
531.4287	-0.0034
531.6251	-0.0157
531.8215	0.0069
532.0179	0.0021
532.2143	0.0022
532.4107	-0.0021
532.607	-0.0029
532.8034	-0.0017
532.9997	0.0017
533.196	-0.0119
533.3923	-0.0062
533.5886	0.0058
533.7848	0.0018
533.9811	-0.0003
534.1773	0.0036
534.3735	0.0056
534.5697	-0.0022
534.7659	0.001
534.9621	0.0093
535.1582	0.0014
535.3544	-0.0053
535.5505	-0.0088
535.7466	-0.0028
535.9427	-0.0098
536.1387	-0.0105
536.3348	-0.0049
536.5308	0.0049
536.7269	-0.0106
536.9229	-0.0014
537.1189	-0.0039
537.3148	-0.0028
537.5108	-0.0131
537.7068	-0.0015
537.9027	0.0068
538.0986	-0.0051
538.2945	-0.0009
538.4904	-0.0042
538.6863	0.0001
538.8821	-0.0029
539.078	-0.0066
539.2738	0.0016
539.4696	-0.0048
539.6654	0.0023
539.8611	0.0105
540.0569	-0.0057
540.2526	-0.0085
540.4484	0.0065
540.6441	0.0099
540.8398	0.0001
541.0355	0.0003
541.2311	-0.0015
541.4268	-0.0148
541.6224	0.0062
541.818	-0.0012
542.0136	-0.0029
542.2092	-0.0065
542.4048	0.0001
542.6003	0.0001
542.7959	-0.0044
542.9914	-0.003
543.1869	0.0054
543.3824	-0.0014
543.5779	-0
543.7734	-0.0043
543.9688	-0.0052
544.1642	0.0029
544.3596	-0.0028
544.555	-0.0034
544.7504	-0.0095
544.9458	-0.0041
545.1411	-0
545.3365	-0.0045
545.5318	-0.0068
545.7271	0.0011
545.9224	0.0046
546.1177	-0.0003
546.3129	0.0025
546.5081	-0.0019
546.7034	-0.0024
546.8986	-0.0119
547.0938	-0.0102
547.289	-0.0024
547.4841	0.0018
547.6793	0.0147
547.8744	-0.0155
548.0695	-0.008
548.2646	-0.0059
548.4597	0.0045
548.6548	-0.0009
548.8498	0.0044
549.0448	-0
549.2399	-0.0092
549.4349	0.0068
549.6298	-0.0021
549.8248	0.001
550.0198	0.0038
550.2147	-0.0059
550.4096	-0.0064
550.6045	0.0024
550.7994	0.0053
550.9943	-0.0053
551.1892	-0.0027
551.384	0.007
551.5788	-0.0127
551.7737	0.0012
551.9685	0.0024
552.1632	-0.0027
552.358	0.0072
552.5528	-0.0002
552.7475	-0.0037
552.9422	-0.0096
553.1369	0.0078
553.3316	0.0131
553.5263	-0.0071
553.7209	-0.001
553.9156	-0.0092
554.1102	-0.0075
554.3048	-0.0028
554.4994	0.0031
554.694	0.0066
554.8885	0.0155
555.0831	-0.0005
555.2776	-0.0015
555.4721	-0.0057
555.6666	-0.0024
555.8611	0.0063
556.0555	-0.0005
556.25	0.0058
556.4444	-0.0128
556.6388	-0.0042
556.8332	0.0006
557.0276	-0.0013
557.222	-0.0046
557.4163	0.0024
557.6107	-0.0109
557.805	0.0006
557.9993	-0.0095
558.1936	-0.0008
558.3879	0
558.5821	-0.0024
558.7764	-0.0072
558.9706	-0.0069
559.1648	0.0055
559.359	-0.0091
559.5532	0.0007
559.7473	0.0025
559.9415	0.0066
560.1356	-0.001
560.3297	-0.0128
560.5238	-0.0019
560.7179	0.0036
560.9119	0.0027
561.106	-0.0057
561.3	-0.0049
561.494	0.0059
561.688	-0.0113
561.882	-0.0131
562.076	-0.006
562.2699	0.0043
562.4639	0.0027
562.6578	0.0019
562.8517	0.003
563.0456	-0.0012
563.2395	0.0034
563.4333	0.0012
563.6272	-0.0004
563.821	-0.0056
564.0148	-0.0045
564.2086	-0.0046
564.4024	-0.0016
564.5961	-0.0078
564.7899	0.0056
564.9836	-0.0006
565.1773	-0.0035
565.371	0.0132
565.5647	0.0023
565.7584	0.0104
565.952	0.002
566.1456	-0.002
566.3393	0.0007
566.5329	-0.0059
566.7264	-0.0014
566.92	-0.0054
567.1136	0.0049
567.3071	0.0012
567.5006	0.0059
567.6941	0.0015
567.8876	0.0105
568.0811	0.0036
568.2745	-0.0043
568.468	0.0107
568.6614	0.0032
568.8548	-0.0019
569.0482	-0.0013
569.2416	0.004
569.4349	0.0032
569.6283	0.0023
569.8216	-0.0013
570.0149	-0.0108
570.2082	0.0114
570.4015	0.0102
570.5947	0.0076
570.788	0.0064
570.9812	0.0114
571.1744	-0.0064
571.3676	-0.001
571.5608	-0.0036
571.754	-0.0009
571.9471	0.0029
572.1402	0.0065
572.3333	-0.0044
572.5264	0.0021
572.7195	0.0005
572.9126	-0.0006
573.1057	0.0047
573.2987	-0.005
573.4917	0.0058
573.6847	-0.0109
573.8777	0.0084
574.0707	0.0025
574.2636	0.0011
574.4566	-0.0047
574.6495	0.0082
574.8424	-0.0023
575.0353	0.0028
575.2281	0.0176
575.421	0.0047
575.6138	0.005
575.8067	0.0022
575.9995	0.0029
576.1923	0.0082
576.385	0.0059
576.5778	0.0013
576.7706	0.0057
576.9633	0.0013
577.156	0.002
577.3487	-0.0002
577.5414	0.0048
577.734	-0.0013
577.9267	0.0069
578.1193	-0.007
578.3119	-0.0025
578.5045	-0.0021
578.6971	0.0032
578.8897	0.0036
579.0822	-0.0061
579.2747	-0.0011
579.4673	-0.004
579.6598	-0.0044
579.8522	-0.0009
580.0447	-0.0029
580.2372	0.001
580.4296	0.0033
580.622	-0.0022
580.8144	-0.0008
581.0068	-0.0035
581.1992	-0.0086
581.3915	-0.001
581.5839	-0.0025
581.7762	-0.0066
581.9685	0.0017
582.1608	0.0001
582.353	-0.0003
582.5453	-0.0038
582.7375	0.0065
582.9298	0.0069
583.122	0.0017
583.3142	0.0054
583.5063	0.0042
583.6985	-0.0026
583.8906	-0.0035
584.0827	-0.0031
584.2749	0.0071
584.4669	0.0025
584.659	0.0047
584.8511	-0.0045
585.0431	-0.0006
585.2352	0.0044
585.4272	-0.0021
585.6192	0.0052
585.8111	0.0008
586.0031	0.0022
586.195	-0.0044
586.387	0.006
586.5789	0.008
586.7708	-0.0055
586.9627	0.006
587.1545	0.0047
587.3464	0.0072
587.5382	0.002
587.73	-0.001
587.9218	0.0068
588.1136	0.0058
588.3053	0.001
588.4971	-0.0055
588.6888	-0.0079
588.8805	0.0042
589.0722	0.0033
589.2639	-0.001
589.4556	0.0031
589.6472	-0.0015
589.8389	-0.0011
590.0305	-0.0098
590.2221	0.0053
590.4137	-0.0101
590.6052	0.0039
590.7968	0.0065
590.9883	-0.0041
591.1798	0.001
591.3713	-0.004
591.5628	0.0027
591.7543	-0.0016
591.9458	0
592.1372	0.0018
592.3286	0.0097
592.52	0.0068
592.7114	-0.0077
592.9028	-0.0036
593.0941	0.0001
593.2855	0.0016
593.4768	-0.0076
593.6681	-0.0015
593.8594	-0.0019
594.0506	0.0041
594.2419	0.0126
594.4331	0.0008
594.6244	-0.0007
594.8156	0.0014
595.0067	0.0015
595.1979	0.0054
595.3891	-0.0014
595.5802	-0.0007
595.7713	-0.0028
595.9624	-0.0025
596.1535	0.0097
596.3446	0.003
596.5357	0.0064
596.7267	0.007
596.9177	-0.0005
597.1087	-0.0069
597.2997	-0.0036
597.4907	0.0057
597.6817	0.0015
597.8726	0.0013
598.0635	-0.0012
598.2544	0.001
598.4453	0.0055
598.6362	-0.0005
598.827	-0.0056
599.0179	0.0037
599.2087	0.0061
599.3995	0.0041
599.5903	0.0003
599.7811	0.0029
599.9718	0.0039
600.1626	-0.0033
600.3533	-0.0039
600.544	0.0015
600.7347	-0.0008
600.9254	0.0035
601.116	-0.006
601.3067	-0.0034
601.4973	0.0025
601.6879	0.0048
601.8785	0.0011
602.0691	0.0076
602.2596	0.0038
602.4502	0.0055
602.6407	0.0075
602.8312	0.0027
603.0217	-0.0032
603.2122	0.0105
603.4027	-0.0032
603.5931	-0.002
603.7835	0.0012
603.9739	-0.0023
604.1643	-0.0026
604.3547	-0.0075
604.5451	0.0088
604.7354	0.0029
604.9257	-0.0025
605.116	0.0017
605.3063	0.0063
605.4966	0.0097
605.6869	0.0063
605.8771	0.0043
606.0673	0.004
606.2575	0.0133
606.4477	0.0034
606.6379	0.0067
606.8281	-0.0008
607.0182	0.004
607.2083	0.011
607.3985	-0.0022
607.5885	-0.0002
607.7786	0.0031
607.9687	0.0023
608.1587	0.0028
608.3488	0.0006
608.5388	-0.0026
608.7288	-0.0078
608.9187	-0.0046
609.1087	-0.0029
609.2986	-0.0059
609.4886	0.0013
609.6785	0.0037
609.8684	0.0082
610.0582	0.0037
610.2481	0.0059
610.4379	-0.0019
610.6278	0.0016
610.8176	-0.0009
611.0074	0.0008
611.1971	0.0052
611.3869	-0.0001
611.5766	-0.0025
611.7664	0.0086
611.9561	0.0075
612.1458	0.0084
612.3354	0.0005
612.5251	0.0046
612.7147	0.0044
612.9044	0.009
613.094	-0.0058
613.2836	0.0054
613.4731	-0.0011
613.6627	0.0013
613.8522	0.0111
614.0417	0.0052
614.2313	0.0037
614.4207	-0.0052
614.6102	0.0044
614.7997	0
614.9891	-0.0081
615.1785	0.0059
615.3679	-0.0001
615.5573	0.011
615.7467	0.0008
615.9361	-0.0023
616.1254	0.001
616.3147	0.0048
616.504	0.0087
616.6933	0.0064
616.8826	0.0065
617.0718	0.0108
617.2611	0.0076
617.4503	0.0026
617.6395	0.0064
617.8287	0.0039
618.0179	-0.0009
618.207	0.0096
618.3961	-0.0007
618.5853	0.0002
618.7744	0.0019
618.9634	0.0094
619.1525	0.0016
619.3416	0.0088
619.5306	0.0076
619.7196	0.0034
619.9086	-0.0034
620.0976	0.007
620.2866	0.0114
620.4755	0.0081
620.6645	0.0047
620.8534	0.0052
621.0423	0.0064
621.2312	0.0096
621.42	0.0002
621.6089	0.0056
621.7977	0.01
621.9865	0.0022
622.1753	0.013
622.3641	0
622.5529	0.0045
622.7416	0.0069
622.9303	-0
623.1191	0.0042
623.3078	-0.0028
623.4964	0.0031
623.6851	-0.0025
623.8737	0.0027
624.0624	0.0062
624.251	0.0053
624.4396	0.0061
624.6282	-0.0027
624.8167	-0.0009
625.0053	0.0008
625.1938	0.0035
625.3823	0.0026
625.5708	-0.0005
625.7593	-0.0059
625.9477	-0.0039
626.1362	0.0026
626.3246	0.0054
626.513	0.004
626.7014	0.0042
626.8898	0.0049
627.0781	0.0122
627.2665	-0.0029
627.4548	0.0046
627.6431	0.0105
627.8314	0.0063
628.0197	0.0117
628.2079	-0.0058
628.3962	0.0055
628.5844	0.0064
628.7726	0.0014
628.9608	-0
629.1489	0.001
629.3371	0.0057
629.5252	0.0006
629.7134	0.0031
629.9015	0.0053
630.0895	0.0022
630.2776	0.0128
630.4657	0.0037
630.6537	0.0037
630.8417	0.0059
631.0297	0.0041
631.2177	-0.0013
631.4057	-0.0004
631.5936	0.0089
631.7815	-0.0015
631.9695	0.0065
632.1574	0.0135
632.3452	0.016
632.5331	0.008
632.7209	0.0088
632.9088	0.0176
633.0966	0.01
633.2844	0.0014
633.4722	0.0097
633.6599	0.0064
633.8477	0.0077
634.0354	0.0076
634.2231	0.0034
634.4108	0.0056
634.5985	0.0133
634.7861	0.0038
634.9738	0.0049
635.1614	0.004
635.349	0.0075
635.5366	0.0056
635.7242	0.0076
635.9117	0.0095
636.0993	0.0044
636.2868	0.0086
636.4743	-0.0011
636.6618	0.0119
636.8492	0.0078
637.0367	0.0032
637.2241	-0.0029
637.4115	-0.0003
637.5989	0.0025
637.7863	0.0009
637.9737	0.0039
638.161	0.0064
638.3484	0.0047
638.5357	0.0068
638.723	0.0035
638.9103	0.0116
639.0975	0.0091
639.2848	0.0025
639.472	0.0096
639.6592	0.0056
639.8464	0.0126
640.0336	0.0061
640.2208	0.0015
640.4079	-0.0049
640.595	0.0035
640.7821	-0.0051
640.9692	0.0058
641.1563	0.015
641.3434	0.0133
641.5304	0.0054
641.7174	0.0053
641.9044	0.0092
642.0914	0.0102
642.2784	0.0034
642.4653	0.0154
642.6523	0.0058
642.8392	0.0003
643.0261	0.0042
643.213	-0.0027
643.3999	-0.0003
643.5867	0.0025
643.7735	0.0105
643.9604	-0.0038
644.1472	0.0053
644.3339	0.0104
644.5207	0.0039
644.7075	0.0028
644.8942	0.0063
645.0809	0.01
645.2676	0.0138
645.4543	0.0069
645.6409	0.0089
645.8276	0.0091
646.0142	0.0071
646.2008	-0.0006
646.3874	0.0013
646.574	0.0043
646.7605	0.0007
646.9471	-0.0164
647.1336	-0.0048
647.3201	0.0001
647.5066	-0.0068
647.6931	0.0089
647.8795	0.0039
648.0659	0.007
648.2524	0.0081
648.4388	0.0054
648.6252	0.0013
648.8115	-0.0012
648.9979	-0.0016
649.1842	0.0062
649.3705	0.0073
649.5568	0.0021
649.7431	0.0066
649.9294	-0.0001
650.1156	0.0066
650.3018	-0.0008
650.488	0.011
650.6742	0.0091
650.8604	0.0092
651.0466	0.0001
651.2327	0.0014
651.4188	0.007
651.6049	-0.0001
651.791	0.0057
651.9771	0.0097
652.1632	0.0048
652.3492	0.0078
652.5352	0.0041
652.7212	0.0071
652.9072	0.0029
653.0932	-0.0006
653.2791	0.0017
653.465	0.0105
653.651	0.0021
653.8369	0.0021
654.0227	0.001
654.2086	0.0061
654.3944	0.0088
654.5803	0.006
654.7661	0.008
654.9519	-0.0015
655.1377	-0.0009
655.3234	-0.0009
655.5092	-0.0043
655.6949	-0.005
655.8806	-0.0033
656.0663	-0.0019
656.2519	-0.0045
656.4376	0.0046
656.6232	0.0033
656.8088	0.0013
656.9945	0.0001
657.18	0.0042
657.3656	0.0047
657.5511	0.0036
657.7367	-0.0042
657.9222	0.0087
658.1077	0.0055
658.2932	0.0047
658.4786	0.0017
658.6641	0.0014
658.8495	0.0046
659.0349	0.001
659.2203	0.0064
659.4057	0.0042
659.591	0.0055
659.7764	0.0057
659.9617	0.0173
660.147	0.0059
660.3323	0.0048
660.5176	0.017
660.7028	0.0162
660.888	0.0027
661.0733	0.0129
661.2585	-0.0023
661.4436	0.0041
661.6288	-0.0002
661.8139	-0.0072
661.9991	0.0027
662.1842	-0.004
662.3693	0.0018
662.5544	-0.0031
662.7394	0.0081
662.9245	0.0004
663.1095	0.0013
663.2945	0
663.4795	0.0004
663.6644	0.0054
663.8494	0.0035
664.0343	0.0039
664.2193	0.0011
664.4042	0.0059
664.589	-0.0004
664.7739	0.0017
664.9587	-0.0058
665.1436	-0.0043
665.3284	0.006
665.5132	-0.001
665.698	0.0021
665.8827	0.0001
666.0675	0.0051
666.2522	-0.0015
666.4369	0.0126
666.6216	0.0049
666.8063	0.0021
666.9909	0.0034
667.1756	-0.0013
667.3602	0.0046
667.5448	-0.0073
667.7294	0.011
667.9139	0.0067
668.0985	0.0103
668.283	0.0039
668.4675	0.0076
668.652	0.0038
668.8365	0.007
669.0209	0.0112
669.2054	0.015
669.3898	0.0053
669.5742	0.0159
669.7586	0.0095
669.943	0.0151
670.1273	0.0075
670.3117	0.006
670.496	0.0088
670.6803	0.0146
670.8646	0.0057
671.0488	-0.0036
671.2331	0.0024
671.4173	0.004
671.6015	0.0056
671.7857	0.0023
671.9699	0.0136
672.1541	0.0131
672.3382	0.0021
672.5223	0.0103
672.7064	0.007
672.8905	0.0048
673.0746	0.0017
673.2587	0.0005
673.4427	0.0056
673.6267	0.0061
673.8107	0.0086
673.9947	0.0084
674.1787	0.006
674.3626	-0.0021
674.5465	0.0045
674.7304	0.0054
674.9143	0.0056
675.0982	0.0126
675.2821	-0.0003
675.4659	0.0105
675.6497	0.0032
675.8335	0.0029
676.0173	0.0087
676.2011	0.0024
676.3849	0.0093
676.5686	-0.0016
676.7523	-0.0009
676.936	0.0064
677.1197	0.003
677.3034	-0.002
677.487	0.0066
677.6706	0.001
677.8542	-0.0012
678.0378	0.0053
678.2214	-0.0007
678.405	0.0062
678.5885	-0.0077
678.772	0.002
678.9555	-0.0006
679.139	0.0038
679.3225	-0.0006
679.5059	0.0052
679.6894	0.0074
679.8728	-0.0011
680.0562	-0.0112
680.2395	-0.0041
680.4229	0.0012
680.6062	0.0038
680.7896	0.0018
680.9729	-0
681.1562	0.0054
681.3394	0.0011
681.5227	-0.0017
681.7059	0.0011
681.8891	0.0024
682.0723	0.0057
682.2555	0.0048
682.4387	0.0003
682.6218	-0.0006
682.805	0.0031
682.9881	0.0111
683.1712	-0.0013
683.3542	-0.0043
683.5373	0.0085
683.7203	-0.0042
683.9034	0.0036
684.0864	-0.0061
684.2694	0.0031
684.4523	0
684.6353	-0.009
684.8182	0.0014
685.0011	-0.0023
685.184	0.0053
685.3669	0.0063
685.5498	0.005
685.7326	0.006
685.9154	-0.0046
686.0982	0.0115
686.281	0.0059
686.4638	0.0041
686.6465	-0.0026
686.8293	-0.0014
687.012	0.0053
687.1947	-0.002
687.3774	0.0036
687.56	0.0002
687.7427	0.0119
687.9253	0.0059
688.1079	0.0051
688.2905	0.0128
688.4731	0.0064
688.6556	0.0001
688.8382	-0.0024
689.0207	0.0067
689.2032	-0.0094
689.3857	-0.0088
689.5681	-0.0029
689.7506	-0.0054
689.933	-0.0059
690.1154	-0.0026
690.2978	-0.0082
690.4802	-0.0025
690.6626	-0.0057
690.8449	-0.0061
691.0272	0.001
691.2095	-0.0068
691.3918	-0.0034
691.5741	0.0046
691.7563	0.001
691.9386	0.0026
692.1208	-0.0016
692.303	0.002
692.4852	0.002
692.6673	0.0022
692.8495	0.0009
693.0316	0.002
693.2137	-0.0051
693.3958	0.0035
693.5778	0.0065
693.7599	0.0049
693.9419	0.0057
694.1239	0.0066
694.3059	0.0015
694.4879	0.012
694.6699	0.0085
694.8518	0.0041
695.0337	0.0019
695.2157	0.0117
695.3975	0.0111
695.5794	0.0007
695.7613	0.0053
695.9431	0.0051
696.1249	0.0085
696.3067	0.0056
696.4885	0.0106
696.6703	-0.0003
696.852	0.0119
697.0337	0.0082
697.2154	-0.0007
697.3971	0.0069
697.5788	0.0072
697.7605	0.0026
697.9421	0.0073
698.1237	0.0016
698.3053	0.0083
698.4869	0.0039
698.6685	-0.0055
698.85	-0.0076
699.0315	0.0089
699.213	-0.0005
699.3945	0.0023
699.576	0.011
699.7575	0.0053
699.9389	0.0112
700.1203	0.0053
700.3017	-0.0024
700.4831	-0.0046
700.6645	0.0012
700.8458	0.0128
701.0271	0.0058
701.2084	0.0164
701.3897	0.0022
701.571	0.0078
701.7523	-0.0045
701.9335	0.0001
702.1147	0.0049
702.2959	-0.0001
702.4771	0.0078
702.6583	-0.0019
702.8394	-0.001
703.0205	0.0092
703.2016	0.0003
703.3827	0.0015
703.5638	0.0105
703.7449	0.0056
703.9259	0.0109
704.1069	0.0015
704.2879	0.0037
704.4689	0.0072
704.6499	0.0055
704.8308	0.0032
705.0117	0.0068
705.1927	0.001
705.3735	0.0029
705.5544	-0.0034
705.7353	-0.0038
705.9161	-0.0032
706.0969	-0.0029
706.2777	-0.0001
706.4585	0.0035
706.6393	0.0018
706.82	-0.0093
707.0007	-0.0013
707.1815	0.0025
707.3621	0.0036
707.5428	-0.0008
707.7235	0.0073
707.9041	0.0021
708.0847	-0.0043
708.2653	-0.0028
708.4459	-0.0139
708.6265	-0.0013
708.807	-0.0005
708.9875	-0.0048
709.168	-0.0031
709.3485	-0.0103
709.529	-0.0071
709.7095	-0.0116
709.8899	-0.003
710.0703	-0.011
710.2507	0.0071
710.4311	0.0046
710.6115	-0.0173
710.7918	-0.0066
710.9721	-0.0026
711.1524	0.0004
711.3327	-0.0064
711.513	0.0008
711.6932	-0.0028
711.8735	0.0192
712.0537	-0.001
712.2339	0.0029
712.4141	-0.0046
712.5942	-0.005
712.7744	0.0018
712.9545	-0.0077
713.1346	-0.0006
713.3147	-0.003
713.4947	0.0008
713.6748	-0.0058
713.8548	-0.0048
714.0348	-0.0005
714.2148	-0.0045
714.3948	0.0032
714.5748	-0.003
714.7547	0.0001
714.9346	0.0003
715.1145	0.0043
715.2944	-0.0046
715.4743	0.0006
715.6541	-0.0028
715.834	0.0005
716.0138	0.0009
716.1936	-0.0035
716.3733	-0.0064
716.5531	0.0128
716.7328	-0.0113
716.9126	-0.0012
717.0923	0.0074
717.2719	-0.0106
717.4516	0.004
717.6312	0.0002
717.8109	-0.0009
717.9905	0.0045
718.1701	-0.007
718.3496	-0.0058
718.5292	0.0041
718.7087	-0.0013
718.8882	-0.0074
719.0677	0.0085
719.2472	-0.0027
719.4267	0.0023
719.6061	0.0067
719.7856	0.0132
719.965	0.0131
720.1443	-0.0067
720.3237	0.0148
720.5031	0.0031
720.6824	0.0059
720.8617	-0.0039
721.041	0.0018
721.2203	0.006
721.3995	-0.0003
721.5788	0.0061
721.758	0.0044
721.9372	0.0009
722.1164	0.0101
722.2956	-0.0003
722.4747	0.0047
722.6538	-0.0031
722.8329	0.0089
723.012	0.0093
723.1911	-0.0066
723.3702	-0.0006
723.5492	0.0049
723.7282	0.0041
723.9072	-0.0021
724.0862	-0.0021
724.2652	0.0026
724.4441	-0.001
724.623	-0.0076
724.8019	0.0024
724.9808	0.0002
725.1597	-0.0075
725.3385	0.0042
725.5174	-0.0003
725.6962	-0.0035
725.875	0.0126
726.0538	0.0004
726.2325	-0.001
726.4112	-0.001
726.59	-0.0003
726.7687	0.0004
726.9474	0.01
727.126	0.0004
727.3047	-0.0018
727.4833	-0.0006
727.6619	-0.009
727.8405	-0.0055
728.0191	-0.0045
728.1976	0.0039
728.3762	-0.0075
728.5547	-0.0023
728.7332	-0.0066
728.9116	-0.0008
729.0901	-0.0006
729.2686	-0.0046
729.447	0.0058
729.6254	0.0041
729.8038	0.0075
729.9821	-0.0075
730.1605	0.0025
730.3388	0.0071
730.5171	0.0107
730.6954	-0.0004
730.8737	0.0176
731.0519	0.0054
731.2302	-0.0022
731.4084	0.0139
731.5866	0.0098
731.7648	-0.0006
731.9429	0.0007
732.1211	-0.0011
732.2992	-0.0004
732.4773	-0.0049
732.6554	-0.0045
732.8335	-0.0037
733.0115	-0.0016
733.1896	0.0045
733.3676	-0.0091
733.5456	0.0037
733.7235	0.0028
733.9015	-0.009
734.0794	0.0099
734.2574	-0.008
734.4353	-0.0018
734.6131	0.0103
734.791	0.0072
734.9689	0.008
735.1467	0.0066
735.3245	-0.006
735.5023	0.001
735.68	0.0057
735.8578	0.0033
736.0355	-0.0131
736.2132	-0.008
736.3909	0.0036
736.5686	0.0032
736.7463	0.0042
736.9239	0.0019
737.1015	-0.0015
737.2791	0.0091
737.4567	0.006
737.6343	-0.0034
737.8118	0.0021
737.9894	0.0134
738.1669	-0.0022
738.3444	-0.0009
738.5218	0.004
738.6993	0.0019
738.8767	0.0044
739.0541	0.0112
739.2315	-0.0106
739.4089	0.0043
739.5863	0.0141
739.7636	-0.0109
739.9409	0.0064
740.1182	0.0103
740.2955	-0.0008
740.4728	-0.0037
740.65	-0.0045
740.8272	-0.0008
741.0044	-0.0085
741.1816	0.0053
741.3588	-0.0105
741.5359	0.0002
741.7131	-0.0089
741.8902	0.0018
742.0673	0.0038
742.2444	-0.0116
742.4214	-0.004
742.5985	-0.0011
742.7755	-0.0054
742.9525	-0.0194
743.1295	0.0051
743.3064	0.005
743.4834	0.0064
743.6603	0.0051
743.8372	-0.0021
744.0141	0.0093
744.191	0.0078
744.3678	0.0082
744.5446	0.0138
744.7215	0.012
744.8982	-0.0004
745.075	-0.004
745.2518	0.0117
745.4285	0.0026
745.6052	0.0002
745.7819	0.0008
745.9586	-0.0008
746.1353	-0.0001
746.3119	-0.0139
746.4885	-0.005
746.6651	-0.0016
746.8417	-0.0026
747.0183	-0.0003
747.1948	0.0134
747.3714	0.0016
747.5479	0.0028
747.7244	-0.0025
747.9008	0.0114
748.0773	0.0021
748.2537	0.0038
748.4301	-0.0062
748.6065	0.0035
748.7829	0.012
748.9593	-0.0056
749.1356	0.0026
749.3119	0.0002
749.4882	-0.0041
749.6645	0.0084
749.8408	-0.009
750.017	-0.0072
750.1933	-0.0013
750.3695	0.0037
750.5457	0.0058
750.7218	-0.0031
750.898	0.0006
751.0741	0.002
751.2502	0.0068
751.4263	0.0029
751.6024	0.0038
751.7784	-0.0013
751.9545	-0.0045
752.1305	-0.0028
752.3065	-0
752.4825	-0.0016
752.6584	-0.0003
752.8344	-0.004
753.0103	0.0004
753.1862	-0.0082
753.3621	-0.0064
753.5379	-0.0107
753.7138	0.0031
753.8896	0.0068
754.0654	-0.0011
754.2412	0.0074
754.417	0.0049
754.5927	-0.0029
754.7685	-0.0023
754.9442	0.0017
755.1199	0.0113
755.2956	0.0063
755.4712	0.0109
755.6469	0.0039
755.8225	-0.0026
755.9981	-0.0008
756.1736	0.007
756.3492	0.0048
756.5248	0.0004
756.7003	0.0037
756.8758	0.017
757.0513	-0.0104
757.2267	-0.0064
757.4022	0.0037
757.5776	-0.003
757.753	-0.0001
757.9284	0.0074
758.1038	0.0135
758.2791	0.0105
758.4545	0.0001
758.6298	-0.0044
758.8051	0.0036
758.9803	0.0083
759.1556	-0.004
759.3308	0.0036
759.506	0.0117
759.6812	-0.0003
759.8564	0.0057
760.0316	0.0045
760.2067	0.0061
760.3819	0.0124
760.557	0.0125
760.732	0.0103
760.9071	-0.0048
761.0821	0.0012
761.2572	0.0146
761.4322	-0.0016
761.6072	0.0065
761.7821	-0.0001
761.9571	0.0116
762.132	0.0097
762.3069	-0.0056
762.4818	-0.0035
762.6567	0.0054
762.8316	-0.0041
763.0064	0.002
763.1812	0.0013
763.356	-0.0083
763.5308	-0.0058
763.7055	0.0023
763.8803	0.0066
764.055	0.0069
764.2297	-0.0064
764.4044	-0.0012
764.579	0.0015
764.7537	-0.0137
764.9283	-0.0017
765.1029	-0.0052
765.2775	-0.0091
765.4521	-0.0032
765.6266	-0.0033
765.8011	-0.0024
765.9756	0.0042
766.1501	0.0085
766.3246	0.0016
766.4991	0.0004
766.6735	0.0047
766.8479	-0.0023
767.0223	0.0145
767.1967	0.0029
767.371	0.0016
767.5454	0.006
767.7197	0.0056
767.894	-0.0086
768.0683	-0.0002
768.2425	-0.0011
768.4168	-0.0017
768.591	0.0027
768.7652	0.0064
768.9394	-0.0009
769.1135	-0.0001
769.2877	0.0071
769.4618	-0.0079
769.6359	-0.0055
769.81	-0.0012
769.984	0.006
770.1581	-0.0062
770.3321	-0.0024
770.5061	-0.0056
770.6801	-0.0082
770.8541	0.0023
771.028	0.0002
771.202	-0.0105
771.3759	-0.0102
771.5498	-0.0051
771.7236	0.0028
771.8975	-0.0027
772.0713	0.0086
772.2451	0.0015
772.4189	0.0045
772.5927	-0.0006
772.7665	-0.0019
772.9402	0.0037
773.1139	-0.0043
773.2876	-0.0059
773.4613	0.001
773.635	0.0166
773.8086	-0.0105
773.9822	0.011
774.1558	0.0195
774.3294	-0.0147
774.503	0.0122
774.6765	-0.0016
774.8501	0.0078
775.0236	0.0176
775.1971	0.0047
775.3705	-0.0042
775.544	0.0027
775.7174	0.0043
775.8908	-0.0042
776.0642	-0.003
776.2376	-0.0078
776.4109	-0.0025
776.5843	0.0028
776.7576	0.0037
776.9309	0.0178
777.1041	0.006
777.2774	0.0131
777.4506	0.0016
777.6238	-0.0064
777.797	-0.0019
777.9702	-0.0039
778.1434	0.0016
778.3165	-0.0083
778.4896	-0.0088
778.6627	0.0036
778.8358	-0.0036
779.0089	0.0004
779.1819	-0.0079
779.3549	0.0118
779.5279	0.0115
779.7009	0.0073
779.8739	0.0107
780.0468	0.0068
780.2197	0.0104
780.3926	-0.0072
780.5655	-0.0037
780.7384	0.0016
780.9112	-0.0079
781.0841	-0.0024
781.2569	0.0006
781.4297	0.0145
781.6024	0.019
781.7752	0.0083
781.9479	0.0084
782.1206	-0.0017
782.2933	-0.0021
782.466	0.0057
782.6386	0.0076
782.8113	-0.0068
782.9839	-0.0008
783.1565	0.01
783.329	-0.0087
783.5016	-0.0004
783.6741	-0.0094
783.8466	-0.0131
784.0191	-0.0016
784.1916	0.0069
784.3641	0.0044
784.5365	0.0024
784.7089	0.003
784.8813	-0.0159
785.0537	-0.0099
785.2261	-0.0075
785.3984	-0.0153
785.5707	-0.0055
785.743	-0.0055
785.9153	-0.0082
786.0876	-0.0053
786.2598	-0.0048
786.432	-0.0191
786.6042	0.0097
786.7764	-0.005
786.9486	-0.0013
787.1207	-0.0059
787.2928	-0.0023
787.4649	0.0022
787.637	0.004
787.8091	-0.0082
787.9811	0.0043
788.1532	-0.0039
788.3252	0.0111
788.4972	-0.0155
788.6691	-0.0037
788.8411	0.006
789.013	-0.0073
789.1849	0.0011
789.3568	-0.0099
789.5287	-0.0008
789.7005	-0.0126
789.8723	-0.0019
790.0442	0.0179
790.2159	-0.011
790.3877	-0.0052
790.5595	0.0002
790.7312	-0.0053
790.9029	0.0012
791.0746	-0.0086
791.2463	-0.0087
791.4179	-0.0087
791.5896	-0.0153
791.7612	0.0083
791.9328	0.007
792.1044	-0.0033
792.2759	-0.0073
792.4474	-0.0051
792.619	-0.004
792.7905	-0.0027
792.9619	-0.0021
793.1334	0.0001
793.3048	0.0045
793.4762	0.0151
793.6476	-0.0029
793.819	-0.0039
793.9904	0.005
794.1617	-0.0104
794.333	-0.0021
794.5043	-0.0135
794.6756	-0.0162
794.8469	-0.0012
795.0181	-0.0107
795.1893	0.007
795.3605	0.0048
795.5317	-0.0084
795.7029	-0.0151
795.874	0.0058
796.0452	-0.0018
796.2163	0.001
796.3873	0.0017
796.5584	-0.0108
796.7294	0.0031
796.9005	0.0089
797.0715	0.0082
797.2425	-0.0177
797.4134	-0.0073
797.5844	-0.0058
797.7553	-0.0008
797.9262	-0.0044
798.0971	-0.0165
798.2679	-0.0055
798.4388	-0.0211
798.6096	-0.0041
798.7804	0.0044
798.9512	0.0052
799.122	0.0045
799.2927	0.0133
799.4635	0.0274
799.6342	-0.0304
799.8049	-0.0087
799.9755	-0.0036
800.1462	-0.0037
800.3168	-0.0033
800.4874	0.0028
800.658	0.0232
800.8286	-0.0001
800.9991	0.0134
801.1696	0.0062
801.3402	0.0018
801.5106	-0.0019
801.6811	-0.0027
801.8516	0.0188
802.022	0.0016
802.1924	0.0098
802.3628	0.0036
802.5332	-0.0033
802.7035	0.0121
802.8739	0.0172
803.0442	-0.0128
803.2145	0.0076
803.3847	-0.0246
803.555	0.01
803.7252	-0.0073
803.8954	-0.0095
804.0656	-0.0224
804.2358	-0.0005
804.4059	0.021
804.5761	0.0166
804.7462	0.0041
804.9163	-0.0089
805.0864	-0.018
805.2564	-0.0092
805.4264	0.0115
805.5965	-0.0185
805.7665	0.0086
805.9364	-0.0098
806.1064	0.0196
806.2763	0.0096
806.4462	0.0031
806.6161	-0.0042
806.786	0.0211
806.9559	0.0049
807.1257	-0.0221
807.2955	0.0165
807.4653	-0.004
807.6351	-0.0168
807.8048	0.0101
807.9746	0.0032
808.1443	0.0059
808.314	-0.0058
808.4837	0.0027
808.6533	-0.0086
808.8229	0.0052
808.9926	0.0041
809.1622	0.0091
809.3317	-0.0123
809.5013	0.0156
809.6708	0.014
809.8403	0.0086
810.0098	-0.0021
810.1793	0.0009
810.3488	0.0137
810.5182	-0.0218
810.6876	0.0148
810.857	-0.0109
811.0264	0.018
811.1958	-0.0082
811.3651	0.003
811.5344	0.0084
811.7037	-0.0053
811.873	-0.0266
812.0422	-0.0053
812.2115	0.0111
812.3807	-0.0226
812.5499	0.0161
812.7191	-0.0065
812.8882	-0.0144
813.0574	0.0142
813.2265	0.0004
813.3956	-0.0007
813.5646	-0.019
813.7337	-0.0153
813.9027	-0.0055
814.0718	0.0314
814.2407	0.0219
814.4097	-0.0087
814.5787	-0.0116
814.7476	-0.0091
814.9165	0.0092
815.0854	-0.0237
815.2543	-0.009
815.4232	-0.0076
815.592	0.0063
815.7608	0.0122
815.9296	0.0028
816.0984	-0.001
816.2671	-0.0077
816.4359	0.0203
816.6046	0.0135
816.7733	-0.0071
816.942	0.0014
817.1106	-0.0073
817.2793	0.0158
817.4479	-0.011
817.6165	0.0051
817.785	-0.0098
817.9536	-0.02
818.1221	0.0018
818.2906	0.0028
818.4591	-0.0165
818.6276	-0.017
818.7961	0.0009
818.9645	0.0161
819.1329	-0.0149
819.3013	0.0182
819.4697	0.0184
819.638	-0.0036
819.8064	0.006
819.9747	0.0205
820.143	0.0186
820.3113	-0.012
820.4795	0.0287
820.6477	-0.011
820.816	0.0243
820.9842	0.0145
821.1523	0.0197
821.3205	0.0006
821.4886	0.0228
821.6567	-0.0026
821.8248	0.004
821.9929	0.0114
822.1609	-0.0069
822.329	0.0241
822.497	0.033
822.665	-0.0126
822.833	-0.0036
823.0009	-0.0065
823.1688	-0.0091
823.3367	0.0045
823.5046	0.0162
823.6725	0.0439
823.8404	0.007
824.0082	0.0053
824.176	0.0147
824.3438	0.0095
824.5116	-0.0134
824.6793	0.0153
824.847	-0.0039
825.0147	-0.0023
825.1824	0.0291
825.3501	0.0062
825.5177	-0.0033
825.6854	0.0033
825.853	0.0239
826.0206	-0.0108
826.1881	0.0011
826.3557	-0.0026
826.5232	0.0175
826.6907	-0.0343
826.8582	-0.026
827.0257	-0.0011
827.1931	-0.0161
827.3605	0.0131
827.528	-0.0126
827.6953	-0.032
827.8627	-0.0076
828.03	0.0365
828.1974	0.005
828.3647	-0.0558
828.532	0.0048
828.6992	-0.0167
828.8665	0.0159
829.0337	-0.0248
829.2009	-0.0007
829.3681	-0.0033
829.5352	0.0175
829.7024	-0.0561
829.8695	-0.0253
830.0366	0.0162
830.2037	0.0132
830.3707	-0.0085
830.5378	-0.0029
830.7048	-0.0094
830.8718	-0.0078
831.0388	-0.0177
831.2057	0.0172
831.3727	0.0435
831.5396	0.0009
831.7065	0.0096
831.8734	0.0113
832.0402	-0.0085
832.2071	-0.0025
832.3739	-0.0144
832.5407	0.01
832.7075	0.0182
832.8742	-0.0367
833.041	-0.0433
833.2077	0.0313
833.3744	0.036
833.541	0.0064
833.7077	0.0111
833.8743	0.0171
834.0409	-0.0063
834.2075	-0.0128
834.3741	-0.01
834.5407	-0.0015
834.7072	0.0016
834.8737	-0.0395
835.0402	-0.0443
835.2067	-0.0101
835.3731	0.0186
835.5395	0.0062
835.706	0.027
835.8723	-0.0227
836.0387	0.0065
836.2051	-0.0126
836.3714	-0.042
836.5377	-0.0051
836.704	-0.0564
836.8703	0.017
837.0365	-0.0327
837.2027	0.0089
837.3689	0.0161
837.5351	-0.0018
837.7013	-0.0186
837.8674	-0.025
838.0335	-0.0146
838.1997	0.0005
838.3657	-0.0276
838.5318	-0.0097
838.6978	0.0026
838.8639	0.0272
839.0299	-0.008
839.1958	0.0028
839.3618	0.0065
839.5277	-0.0632
839.6937	-0.0093
839.8596	0.02
840.0254	-0.0028
840.1913	-0.0036
840.3571	0.0076
840.523	-0.0519
840.6888	-0.0041
840.8545	-0.0381
841.0203	-0.042
841.186	-0.008
841.3517	0.0226
841.5174	-0.0012
841.6831	-0.0399
841.8488	0.0236
842.0144	-0.0094
842.18	-0.0203
842.3456	0.0347
842.5112	-0.0617
842.6767	-0.0335
842.8422	-0.0079
843.0077	-0.0517
843.1732	-0.0286
843.3387	-0.0394
843.5042	-0.0395
843.6696	0.0105
843.835	-0.0047
844.0004	0.0489
844.1657	0.0254
844.3311	-0.046
844.4964	-0.0465
844.6617	-0.0887
844.827	-0.0231
844.9923	-0.0016
845.1575	0.0091
845.3227	0.0088
845.4879	-0.0432
845.6531	-0.0558
845.8183	-0.0991
845.9834	0.0427
846.1485	-0.0112
846.3136	0.0216
846.4787	-0.1242
846.6438	0.0407
846.8088	-0.0205
846.9738	-0.055
847.1388	-0.0646
847.3038	-0.0638
847.4687	-0.1817
847.6337	-0.0031
847.7986	-0.0398
847.9635	-0.029
848.1284	0.0077
848.2932	0.0025
848.458	0.0274
848.6228	0.0603
848.7876	0.039
848.9524	-0.1083
849.1172	0.0099
849.2819	-0.0129
849.4466	-0.0963
849.6113	-0.1244
849.7759	-0.0516
849.9406	-0.0584
850.1052	0.002
850.2698	-0.0864
850.4344	0.0131
850.599	-0.0445
850.7635	-0.0019
850.928	-0.0753
851.0925	-0.0375
851.257	0.0136
851.4215	0.029
851.5859	-0.0346
851.7503	-0.0201
851.9147	-0.0262
852.0791	-0.0525
852.2434	-0.0193
852.4078	0.083
852.5721	0.0058
852.7364	0.0032
852.9007	-0.1379
853.0649	-0.0542
853.2291	-0.0229
853.3934	0.0452
853.5575	-0.0749
853.7217	-0.1145
853.8859	-0.216
854.05	-0.1399
854.2141	0.0483
854.3782	-0.0642
854.5423	-0.043
854.7063	0.0403
854.8703	-0.0481
855.0343	-0.0733
855.1983	-0.1721
855.3623	0.1113
855.5262	-0.012
855.6901	-0.0293
855.854	0.0033
856.0179	-0.0287
856.1818	0.0106
856.3456	-0.1317
856.5094	-0.1646
856.6732	-0.0672
856.837	0.0364
857.0008	-0.0758
857.1645	0.0236
857.3282	-0.1827
857.4919	0.0182
857.6556	0.0192
857.8192	0.0327
857.9828	0.0191
858.1465	-0.0169
858.31	-0.1467
858.4736	-0.0926
858.6372	-0.2623
858.8007	-0.2863
858.9642	0.0616
859.1277	0.2838
859.2911	0.1013
859.4546	-0.0207
859.618	-0.4057
859.7814	-0.0429
859.9448	0.0249
860.1081	-0.1593
860.2715	-0.0036
860.4348	-0.0554
860.5981	0.0373
860.7614	-0.04
860.9246	0.1202
861.0879	-0.1667
861.2511	0.0049
861.4143	-0.3658
861.5774	-0.0353
861.7406	-0.1939
861.9037	0.0313
862.0668	-0.0701
862.2299	-0.116
862.393	-0.7477
862.556	-0.0262
862.7191	-0.1073
862.8821	-0.031
863.0451	0.0752
863.208	0.1879
863.371	-0.1114
863.5339	-0.267
863.6968	0.0029
863.8597	0.1106
864.0225	-0.0526
864.1854	0.1315
864.3482	-0.1866
864.511	0.2286
864.6737	0.0038
864.8365	-0.1827
864.9992	-0.3286
865.1619	-0.7502
865.3246	0.1454
865.4873	-0.0864
865.65	-0.1994
865.8126	0.0377
865.9752	-0.0076
866.1378	-0.2842
866.3004	-0.1147
866.4629	-0.053
866.6254	-0.4448
866.7879	-0.1877
866.9504	-0.2914
867.1129	-0
867.2753	-0.1587
867.4377	0.0934
867.6001	-0.1635
867.7625	-0.1587
867.9249	-0.2806
868.0872	-0.1029
868.2495	-0.1399
868.4118	-0.1795
868.5741	-0.2067
868.7363	-0.256
868.8986	-0.5231
869.0608	-0.1585
869.223	0.1509
869.3851	-0
869.5473	-0
869.7094	0.1827
869.8715	-0.441
870.0336	-0
870.1957	-0.6117
870.3577	-0
870.5197	-0.2708
870.6817	-0.5169
870.8437	-0.0976
871.0057	-0
871.1676	-0
871.3295	0.2778
871.4914	-0.6257
871.6533	-0.2396
871.8151	-0.4688
871.977	-0
872.1388	-0
872.3006	0.1344
872.4623	-0
872.6241	0.1226
872.7858	0.0513
872.9475	-0.3341
873.1092	0.1802
873.2709	0.6214
873.4325	-0.1747
873.5941	-0.0159
873.7557	0.0188
873.9173	-0
874.0789	-0.1972
874.2404	-0.1262
874.4019	0.2257
874.5634	-0.3562
874.7249	-0.2272
874.8863	0.1219
875.0478	0.5291
875.2092	-0
875.3706	0.4524
875.5319	-0.6406
875.6933	0.1997
875.8546	-0.2029
876.0159	-0
876.1772	-0.216
876.3385	-0
876.4997	0.1569
876.6609	-0.1033
876.8221	-0.4483
876.9833	-0
877.1445	-0
877.3056	0.0749
877.4667	-0.5256
877.6278	-0.3101
877.7889	-0.9104
877.9499	-0
878.111	-0.0337
878.272	-0
878.433	-0
878.5939	-0
878.7549	-0.2312
878.9158	-0.7862
879.0767	-0
879.2376	0.5699
879.3984	-0.1305
879.5593	-0
879.7201	0.1337
879.8809	-0.7752
880.0417	-0.1729
880.2024	0.1923
880.3632	-0
880.5239	0.1359
880.6846	-0.0747
880.8452	-2.6679
881.0059	-0
881.1665	0.4967
881.3271	0.542
881.4877	-0.3269
881.6483	-0.5198
881.8088	-0.4845
881.9693	-0
882.1298	-0
882.2903	-0
