Data from MonoPyChalIsomerACN10uM440nmA_Absorbance_15-27-12-194.txt Node
Date: Fri Jul 05 15:27:12 BST 2024
User: LASERRRRR
Spectrometer: FLMT03099
Trigger mode: 0
Integration Time (sec): 1.000000E-1
Scans to average: 1
Electric dark correction enabled: true
Nonlinearity correction enabled: false
Boxcar width: 0
XAxis mode: Wavelengths
Number of Pixels in Spectrum: 3648
>>>>>Begin Spectral Data<<<<<
179.3399	-0.3843
179.5586	-0.3843
179.7771	-0.3843
179.9957	0.1828
180.2143	-0
180.4329	-0.4406
180.6514	-0
180.8699	-0
181.0885	-0.2206
181.307	0.0124
181.5255	-0.3696
181.744	-0.2292
181.9625	-0.4547
182.181	-0
182.3994	0.0924
182.6179	-0.173
182.8363	0.1047
183.0547	-0.4009
183.2732	-0.0319
183.4916	0.3543
183.71	0.2045
183.9284	0.1233
184.1467	-0.0846
184.3651	0.0438
184.5835	-0.1705
184.8018	-0.1157
185.0201	-0.1447
185.2385	-0.0402
185.4568	0.496
185.6751	-0.0347
185.8934	0.1223
186.1117	0.1438
186.3299	0.07
186.5482	0.0876
186.7664	-0.1099
186.9847	-0.0319
187.2029	0.1056
187.4211	-0.0372
187.6393	0.3534
187.8575	-0.0245
188.0757	0.2767
188.2939	0.1789
188.512	0.0061
188.7302	0.2857
188.9483	0.0899
189.1665	0.0179
189.3846	-0.2754
189.6027	0.3898
189.8208	0.0896
190.0389	0.1077
190.257	0.2233
190.475	0.1947
190.6931	0.1006
190.9111	0.4027
191.1292	0.2477
191.3472	0.7152
191.5652	0.2624
191.7832	0.1568
192.0012	0.3307
192.2192	0.2636
192.4371	0.2698
192.6551	0.2565
192.873	0.4555
193.091	0.3034
193.3089	0.5488
193.5268	0.5709
193.7447	0.5532
193.9626	0.4301
194.1805	0.678
194.3984	0.4667
194.6162	0.5677
194.8341	0.6778
195.0519	0.4929
195.2697	0.8291
195.4875	0.685
195.7054	0.6615
195.9231	0.5189
196.1409	0.5356
196.3587	0.6036
196.5765	0.5529
196.7942	0.4913
197.012	0.5855
197.2297	0.5938
197.4474	0.5785
197.6651	0.5344
197.8828	0.5665
198.1005	0.7645
198.3182	0.6849
198.5358	0.6579
198.7535	0.6111
198.9711	0.5487
199.1888	0.6223
199.4064	0.7221
199.624	0.6033
199.8416	0.5654
200.0592	0.694
200.2767	0.7659
200.4943	0.6783
200.7119	0.6569
200.9294	0.5071
201.1469	0.5504
201.3645	0.5798
201.582	0.5615
201.7995	0.5756
202.017	0.6017
202.2344	0.6012
202.4519	0.6256
202.6694	0.6279
202.8868	0.6412
203.1042	0.8165
203.3217	0.6508
203.5391	0.6666
203.7565	0.6235
203.9739	0.6951
204.1913	0.6567
204.4086	0.679
204.626	0.7108
204.8433	0.5995
205.0607	0.5518
205.278	0.6784
205.4953	0.69
205.7126	0.741
205.9299	0.7775
206.1472	0.7105
206.3644	0.6695
206.5817	0.7474
206.7989	0.6043
207.0162	0.6947
207.2334	0.6626
207.4506	0.6639
207.6678	0.67
207.885	0.7129
208.1022	0.6026
208.3194	0.7347
208.5365	0.7362
208.7537	0.7036
208.9708	0.5877
209.1879	0.6526
209.405	0.7215
209.6222	0.7414
209.8392	0.6194
210.0563	0.6196
210.2734	0.6621
210.4905	0.6473
210.7075	0.6319
210.9245	0.6354
211.1416	0.7492
211.3586	0.6318
211.5756	0.6188
211.7926	0.6706
212.0096	0.6134
212.2265	0.5522
212.4435	0.6472
212.6604	0.5921
212.8774	0.6204
213.0943	0.5658
213.3112	0.5574
213.5281	0.5432
213.745	0.4947
213.9619	0.511
214.1788	0.4834
214.3956	0.4982
214.6125	0.4355
214.8293	0.4476
215.0461	0.5149
215.2629	0.4591
215.4798	0.5181
215.6965	0.4332
215.9133	0.4231
216.1301	0.4069
216.3469	0.4624
216.5636	0.4258
216.7803	0.4025
216.9971	0.4105
217.2138	0.3973
217.4305	0.3957
217.6472	0.3476
217.8639	0.3926
218.0805	0.3643
218.2972	0.3279
218.5138	0.3171
218.7305	0.337
218.9471	0.2793
219.1637	0.3013
219.3803	0.2668
219.5969	0.2734
219.8135	0.246
220.0301	0.2678
220.2466	0.284
220.4632	0.2589
220.6797	0.2261
220.8962	0.2487
221.1127	0.2571
221.3292	0.2368
221.5457	0.2451
221.7622	0.2259
221.9787	0.2559
222.1951	0.2251
222.4116	0.2764
222.628	0.2324
222.8444	0.258
223.0608	0.2497
223.2772	0.2493
223.4936	0.2551
223.71	0.2544
223.9264	0.2592
224.1427	0.2648
224.3591	0.2329
224.5754	0.2747
224.7917	0.2647
225.008	0.2642
225.2243	0.2655
225.4406	0.2831
225.6569	0.2629
225.8732	0.2494
226.0894	0.2618
226.3057	0.2642
226.5219	0.2878
226.7381	0.2728
226.9543	0.2896
227.1705	0.3017
227.3867	0.2742
227.6029	0.2795
227.8191	0.2843
228.0352	0.3009
228.2513	0.3119
228.4675	0.3132
228.6836	0.3113
228.8997	0.3117
229.1158	0.3126
229.3319	0.2935
229.548	0.2964
229.764	0.3023
229.9801	0.3292
230.1961	0.3305
230.4121	0.3337
230.6282	0.3151
230.8442	0.3196
231.0602	0.3554
231.2761	0.3228
231.4921	0.3271
231.7081	0.3618
231.924	0.3269
232.14	0.351
232.3559	0.3305
232.5718	0.3324
232.7877	0.3668
233.0036	0.3329
233.2195	0.3472
233.4353	0.3396
233.6512	0.374
233.867	0.335
234.0829	0.3418
234.2987	0.3746
234.5145	0.3612
234.7303	0.3568
234.9461	0.3682
235.1619	0.3993
235.3776	0.3768
235.5934	0.3829
235.8091	0.3493
236.0249	0.3786
236.2406	0.3918
236.4563	0.3829
236.672	0.4023
236.8877	0.4032
237.1034	0.3939
237.319	0.3781
237.5347	0.4121
237.7503	0.4186
237.966	0.419
238.1816	0.4188
238.3972	0.4005
238.6128	0.3826
238.8284	0.3887
239.0439	0.4131
239.2595	0.3988
239.475	0.4124
239.6906	0.4021
239.9061	0.4074
240.1216	0.3759
240.3371	0.4019
240.5526	0.3981
240.7681	0.4082
240.9836	0.3782
241.199	0.404
241.4145	0.3789
241.6299	0.3734
241.8453	0.3673
242.0607	0.3687
242.2761	0.3721
242.4915	0.3451
242.7069	0.3538
242.9223	0.3554
243.1376	0.3553
243.353	0.3474
243.5683	0.3302
243.7836	0.3056
243.9989	0.3205
244.2142	0.2945
244.4295	0.2989
244.6448	0.2987
244.86	0.2728
245.0753	0.2851
245.2905	0.265
245.5057	0.2685
245.721	0.2683
245.9362	0.2656
246.1514	0.2658
246.3665	0.2441
246.5817	0.2607
246.7969	0.2462
247.012	0.2413
247.2271	0.2236
247.4423	0.2494
247.6574	0.2257
247.8725	0.2188
248.0876	0.221
248.3026	0.2236
248.5177	0.2223
248.7328	0.2099
248.9478	0.1973
249.1628	0.2095
249.3779	0.2102
249.5929	0.1944
249.8079	0.2121
250.0228	0.1947
250.2378	0.2016
250.4528	0.2021
250.6677	0.1907
250.8827	0.1907
251.0976	0.1843
251.3125	0.1833
251.5274	0.1789
251.7423	0.1818
251.9572	0.1866
252.172	0.1674
252.3869	0.1746
252.6017	0.1759
252.8166	0.1654
253.0314	0.1707
253.2462	0.1587
253.461	0.1688
253.6758	0.1662
253.8906	0.1804
254.1053	0.1658
254.3201	0.1689
254.5348	0.1768
254.7496	0.179
254.9643	0.1566
255.179	0.1667
255.3937	0.159
255.6083	0.1739
255.823	0.1727
256.0377	0.1577
256.2523	0.1609
256.467	0.1623
256.6816	0.1665
256.8962	0.1527
257.1108	0.1523
257.3254	0.1669
257.54	0.1635
257.7545	0.1577
257.9691	0.1728
258.1836	0.1562
258.3981	0.1709
258.6127	0.1695
258.8272	0.1466
259.0417	0.1594
259.2561	0.1598
259.4706	0.158
259.6851	0.169
259.8995	0.153
260.114	0.1533
260.3284	0.1603
260.5428	0.1539
260.7572	0.1657
260.9716	0.1607
261.186	0.1545
261.4003	0.1553
261.6147	0.1617
261.829	0.1609
262.0433	0.1528
262.2577	0.1544
262.472	0.171
262.6863	0.1505
262.9005	0.1672
263.1148	0.1566
263.3291	0.1525
263.5433	0.1487
263.7576	0.1631
263.9718	0.1715
264.186	0.1628
264.4002	0.1616
264.6144	0.1527
264.8286	0.1606
265.0427	0.1616
265.2569	0.1574
265.471	0.156
265.6851	0.1544
265.8993	0.1522
266.1134	0.1525
266.3275	0.1529
266.5415	0.1629
266.7556	0.1563
266.9697	0.1508
267.1837	0.1559
267.3978	0.1559
267.6118	0.1591
267.8258	0.1759
268.0398	0.1409
268.2538	0.1569
268.4677	0.1526
268.6817	0.1477
268.8957	0.1551
269.1096	0.1604
269.3235	0.1684
269.5374	0.153
269.7514	0.1489
269.9652	0.1465
270.1791	0.1453
270.393	0.1384
270.6068	0.1501
270.8207	0.1423
271.0345	0.1281
271.2483	0.1422
271.4622	0.1318
271.676	0.1482
271.8897	0.1251
272.1035	0.1326
272.3173	0.1432
272.531	0.1485
272.7448	0.1325
272.9585	0.1304
273.1722	0.1352
273.3859	0.1417
273.5996	0.1231
273.8133	0.135
274.0269	0.1252
274.2406	0.1215
274.4542	0.1402
274.6679	0.1232
274.8815	0.1366
275.0951	0.1294
275.3087	0.1464
275.5223	0.145
275.7358	0.1365
275.9494	0.142
276.1629	0.1223
276.3765	0.1381
276.59	0.1383
276.8035	0.1416
277.017	0.1274
277.2305	0.131
277.444	0.1427
277.6574	0.1405
277.8709	0.143
278.0843	0.1384
278.2978	0.1351
278.5112	0.1295
278.7246	0.1365
278.938	0.1381
279.1513	0.1432
279.3647	0.1505
279.5781	0.1372
279.7914	0.1379
280.0047	0.1455
280.2181	0.1417
280.4314	0.137
280.6447	0.1488
280.8579	0.1422
281.0712	0.1431
281.2845	0.1575
281.4977	0.1444
281.711	0.1278
281.9242	0.1355
282.1374	0.1487
282.3506	0.1489
282.5638	0.1364
282.7769	0.146
282.9901	0.1448
283.2033	0.1562
283.4164	0.1525
283.6295	0.1371
283.8426	0.1474
284.0557	0.1479
284.2688	0.1604
284.4819	0.1514
284.695	0.1516
284.908	0.1582
285.1211	0.1437
285.3341	0.156
285.5471	0.1643
285.7601	0.152
285.9731	0.1479
286.1861	0.1403
286.3991	0.1566
286.612	0.1649
286.825	0.1556
287.0379	0.1651
287.2508	0.1529
287.4637	0.1539
287.6766	0.1481
287.8895	0.1598
288.1024	0.1623
288.3152	0.1546
288.5281	0.1538
288.7409	0.1554
288.9538	0.1638
289.1666	0.1603
289.3794	0.1663
289.5922	0.1572
289.8049	0.1483
290.0177	0.1523
290.2304	0.1616
290.4432	0.1674
290.6559	0.1649
290.8686	0.1608
291.0813	0.1558
291.294	0.1655
291.5067	0.1715
291.7194	0.1654
291.932	0.1672
292.1447	0.1665
292.3573	0.1624
292.5699	0.167
292.7825	0.1564
292.9951	0.1684
293.2077	0.167
293.4203	0.1558
293.6328	0.1565
293.8454	0.1606
294.0579	0.1689
294.2704	0.1643
294.4829	0.159
294.6954	0.166
294.9079	0.1698
295.1204	0.1609
295.3328	0.1657
295.5453	0.1637
295.7577	0.1679
295.9701	0.162
296.1825	0.1606
296.3949	0.1668
296.6073	0.157
296.8197	0.1584
297.0321	0.1794
297.2444	0.1572
297.4567	0.159
297.6691	0.1639
297.8814	0.1571
298.0937	0.1588
298.306	0.1602
298.5182	0.1568
298.7305	0.1745
298.9428	0.1499
299.155	0.1652
299.3672	0.1637
299.5794	0.1581
299.7916	0.167
300.0038	0.1671
300.216	0.1763
300.4282	0.1784
300.6403	0.1598
300.8525	0.1711
301.0646	0.1621
301.2767	0.1576
301.4888	0.1679
301.7009	0.1579
301.913	0.1617
302.125	0.1671
302.3371	0.1519
302.5491	0.1602
302.7612	0.1758
302.9732	0.1649
303.1852	0.1741
303.3972	0.1627
303.6092	0.1557
303.8211	0.1492
304.0331	0.156
304.245	0.1594
304.457	0.1524
304.6689	0.159
304.8808	0.1704
305.0927	0.1466
305.3046	0.1574
305.5164	0.1558
305.7283	0.1415
305.9401	0.146
306.152	0.1436
306.3638	0.1571
306.5756	0.1549
306.7874	0.1494
306.9992	0.1443
307.2109	0.1393
307.4227	0.1297
307.6344	0.1306
307.8462	0.1319
308.0579	0.1325
308.2696	0.126
308.4813	0.1214
308.693	0.1294
308.9046	0.1313
309.1163	0.1336
309.328	0.1219
309.5396	0.127
309.7512	0.1161
309.9628	0.1222
310.1744	0.124
310.386	0.113
310.5976	0.1108
310.8091	0.1172
311.0207	0.1106
311.2322	0.1177
311.4437	0.1066
311.6552	0.1065
311.8667	0.1188
312.0782	0.0906
312.2897	0.096
312.5012	0.1111
312.7126	0.0957
312.924	0.0937
313.1355	0.105
313.3469	0.0981
313.5583	0.1
313.7696	0.1069
313.981	0.1086
314.1924	0.0968
314.4037	0.0975
314.6151	0.093
314.8264	0.0944
315.0377	0.1091
315.249	0.0986
315.4603	0.1071
315.6716	0.0982
315.8828	0.0903
316.0941	0.0913
316.3053	0.0871
316.5165	0.088
316.7277	0.0884
316.9389	0.1035
317.1501	0.0878
317.3613	0.0885
317.5724	0.0791
317.7836	0.0938
317.9947	0.0898
318.2058	0.1006
318.417	0.0777
318.6281	0.0749
318.8391	0.0886
319.0502	0.0881
319.2613	0.0889
319.4723	0.1072
319.6834	0.1057
319.8944	0.0758
320.1054	0.0895
320.3164	0.0863
320.5274	0.0744
320.7383	0.0843
320.9493	0.0954
321.1602	0.1078
321.3712	0.0735
321.5821	0.102
321.793	0.0951
322.0039	0.0907
322.2148	0.0961
322.4257	0.0961
322.6365	0.0983
322.8474	0.0839
323.0582	0.0881
323.269	0.0973
323.4798	0.1021
323.6906	0.0895
323.9014	0.0951
324.1122	0.0967
324.3229	0.0791
324.5337	0.097
324.7444	0.0879
324.9551	0.1092
325.1658	0.0916
325.3765	0.1063
325.5872	0.1062
325.7979	0.0885
326.0085	0.0992
326.2192	0.0871
326.4298	0.0933
326.6404	0.0896
326.851	0.0919
327.0616	0.1043
327.2722	0.1024
327.4828	0.1088
327.6933	0.0885
327.9039	0.1054
328.1144	0.1072
328.3249	0.1094
328.5354	0.0901
328.7459	0.1048
328.9564	0.0884
329.1669	0.0965
329.3773	0.0895
329.5878	0.0946
329.7982	0.0934
330.0086	0.095
330.219	0.0958
330.4294	0.0943
330.6398	0.1132
330.8502	0.0812
331.0605	0.1045
331.2708	0.098
331.4812	0.1024
331.6915	0.0965
331.9018	0.1019
332.1121	0.0937
332.3224	0.0982
332.5326	0.099
332.7429	0.0924
332.9531	0.1075
333.1633	0.0899
333.3735	0.1065
333.5837	0.1061
333.7939	0.1113
334.0041	0.1116
334.2143	0.1058
334.4244	0.1067
334.6346	0.0826
334.8447	0.1159
335.0548	0.0871
335.2649	0.0897
335.475	0.1118
335.685	0.0954
335.8951	0.1073
336.1051	0.1088
336.3152	0.1219
336.5252	0.0954
336.7352	0.1102
336.9452	0.1108
337.1552	0.1085
337.3652	0.1105
337.5751	0.1033
337.7851	0.1029
337.995	0.0965
338.2049	0.0998
338.4148	0.1014
338.6247	0.1156
338.8346	0.0999
339.0445	0.0998
339.2543	0.1026
339.4642	0.1
339.674	0.0974
339.8838	0.1108
340.0936	0.1086
340.3034	0.1155
340.5132	0.1138
340.7229	0.1161
340.9327	0.107
341.1424	0.1074
341.3522	0.1106
341.5619	0.1243
341.7716	0.1123
341.9813	0.1127
342.1909	0.1057
342.4006	0.1267
342.6102	0.1193
342.8199	0.1105
343.0295	0.1231
343.2391	0.1135
343.4487	0.1149
343.6583	0.1121
343.8679	0.1144
344.0774	0.1257
344.287	0.1244
344.4965	0.1131
344.706	0.124
344.9155	0.1158
345.125	0.1168
345.3345	0.1162
345.544	0.1127
345.7534	0.1288
345.9629	0.1178
346.1723	0.1285
346.3817	0.1093
346.5911	0.1154
346.8005	0.1307
347.0099	0.1159
347.2193	0.1259
347.4286	0.116
347.638	0.1281
347.8473	0.1357
348.0566	0.1349
348.2659	0.1237
348.4752	0.1303
348.6845	0.1213
348.8937	0.1319
349.103	0.1267
349.3122	0.1316
349.5214	0.1332
349.7306	0.1344
349.9398	0.1289
350.149	0.1376
350.3582	0.1254
350.5674	0.1462
350.7765	0.1365
350.9856	0.13
351.1948	0.1319
351.4039	0.1245
351.613	0.1318
351.822	0.137
352.0311	0.1406
352.2402	0.1443
352.4492	0.1383
352.6582	0.1358
352.8672	0.1357
353.0762	0.1402
353.2852	0.144
353.4942	0.131
353.7032	0.1452
353.9121	0.1524
354.1211	0.1513
354.33	0.1436
354.5389	0.1395
354.7478	0.1508
354.9567	0.1431
355.1655	0.1428
355.3744	0.1528
355.5833	0.1546
355.7921	0.1655
356.0009	0.1503
356.2097	0.1624
356.4185	0.1591
356.6273	0.1651
356.8361	0.1605
357.0448	0.1511
357.2536	0.1478
357.4623	0.1422
357.671	0.1469
357.8797	0.1709
358.0884	0.1689
358.2971	0.1551
358.5057	0.1721
358.7144	0.167
358.923	0.1664
359.1316	0.1749
359.3402	0.1486
359.5488	0.179
359.7574	0.1631
359.966	0.1717
360.1746	0.171
360.3831	0.1845
360.5916	0.1671
360.8002	0.1525
361.0087	0.1744
361.2172	0.1773
361.4256	0.171
361.6341	0.1761
361.8426	0.179
362.051	0.1948
362.2594	0.179
362.4678	0.185
362.6762	0.2129
362.8846	0.1786
363.093	0.1774
363.3014	0.1787
363.5097	0.1762
363.718	0.1812
363.9264	0.1918
364.1347	0.1844
364.343	0.1945
364.5513	0.2016
364.7595	0.1924
364.9678	0.1833
365.176	0.1863
365.3842	0.1998
365.5925	0.1982
365.8007	0.1867
366.0089	0.193
366.217	0.1872
366.4252	0.1958
366.6333	0.2105
366.8415	0.2039
367.0496	0.194
367.2577	0.2188
367.4658	0.2122
367.6739	0.2089
367.882	0.2096
368.09	0.2023
368.2981	0.2119
368.5061	0.1919
368.7141	0.2189
368.9221	0.2242
369.1301	0.2184
369.3381	0.2062
369.5461	0.2155
369.754	0.226
369.962	0.2224
370.1699	0.2187
370.3778	0.2116
370.5857	0.2064
370.7936	0.2093
371.0015	0.204
371.2093	0.2375
371.4172	0.2454
371.625	0.2123
371.8328	0.2163
372.0406	0.2167
372.2484	0.2232
372.4562	0.2138
372.664	0.2111
372.8717	0.2387
373.0795	0.2161
373.2872	0.2273
373.4949	0.2203
373.7026	0.2296
373.9103	0.2562
374.118	0.2295
374.3256	0.2372
374.5333	0.2172
374.7409	0.2176
374.9485	0.238
375.1561	0.2361
375.3637	0.2385
375.5713	0.2444
375.7789	0.2437
375.9864	0.2396
376.194	0.2182
376.4015	0.2522
376.609	0.2375
376.8165	0.2241
377.024	0.2344
377.2315	0.2377
377.4389	0.2537
377.6464	0.2575
377.8538	0.2408
378.0612	0.2339
378.2686	0.2469
378.476	0.2618
378.6834	0.2585
378.8908	0.264
379.0981	0.2512
379.3055	0.252
379.5128	0.2314
379.7201	0.2482
379.9274	0.241
380.1347	0.269
380.342	0.2692
380.5492	0.2508
380.7565	0.26
380.9637	0.2583
381.1709	0.2525
381.3781	0.2629
381.5853	0.2661
381.7925	0.2678
381.9997	0.269
382.2068	0.2724
382.4139	0.2583
382.6211	0.2666
382.8282	0.2485
383.0353	0.2513
383.2424	0.265
383.4494	0.2695
383.6565	0.2487
383.8635	0.2648
384.0706	0.2526
384.2776	0.2602
384.4846	0.262
384.6916	0.2668
384.8986	0.2523
385.1055	0.2594
385.3125	0.2747
385.5194	0.2478
385.7263	0.2805
385.9333	0.2671
386.1402	0.2606
386.347	0.2686
386.5539	0.2529
386.7608	0.2512
386.9676	0.2547
387.1744	0.2653
387.3813	0.2633
387.5881	0.2723
387.7948	0.2512
388.0016	0.261
388.2084	0.2676
388.4151	0.2402
388.6219	0.2761
388.8286	0.2727
389.0353	0.2734
389.242	0.2591
389.4487	0.2624
389.6553	0.2521
389.862	0.2436
390.0686	0.2438
390.2753	0.2672
390.4819	0.2709
390.6885	0.2467
390.8951	0.2617
391.1016	0.25
391.3082	0.2578
391.5147	0.2502
391.7213	0.2467
391.9278	0.2417
392.1343	0.2389
392.3408	0.2551
392.5473	0.2473
392.7537	0.2388
392.9602	0.2365
393.1666	0.2411
393.373	0.2274
393.5794	0.2512
393.7858	0.2362
393.9922	0.2254
394.1986	0.2346
394.4049	0.248
394.6113	0.2341
394.8176	0.2268
395.0239	0.2348
395.2302	0.2343
395.4365	0.2401
395.6428	0.2309
395.8491	0.2257
396.0553	0.2118
396.2615	0.2259
396.4678	0.212
396.674	0.2071
396.8802	0.2401
397.0863	0.2297
397.2925	0.2313
397.4987	0.2107
397.7048	0.2205
397.9109	0.2146
398.117	0.2046
398.3231	0.2125
398.5292	0.2281
398.7353	0.2477
398.9413	0.2266
399.1474	0.2318
399.3534	0.207
399.5594	0.1984
399.7654	0.2192
399.9714	0.2358
400.1774	0.2205
400.3833	0.2151
400.5893	0.2325
400.7952	0.2222
401.0011	0.2171
401.207	0.2325
401.4129	0.2297
401.6188	0.2098
401.8247	0.2331
402.0305	0.2009
402.2364	0.2247
402.4422	0.2261
402.648	0.2315
402.8538	0.2262
403.0596	0.2099
403.2654	0.2357
403.4711	0.2187
403.6768	0.2356
403.8826	0.2252
404.0883	0.2211
404.294	0.2281
404.4997	0.2267
404.7054	0.2233
404.911	0.2219
405.1167	0.2309
405.3223	0.241
405.5279	0.2332
405.7335	0.2474
405.9391	0.2252
406.1447	0.2209
406.3502	0.2377
406.5558	0.2163
406.7613	0.2331
406.9668	0.2262
407.1724	0.2193
407.3778	0.2126
407.5833	0.2219
407.7888	0.2095
407.9942	0.2349
408.1997	0.202
408.4051	0.2066
408.6105	0.2168
408.8159	0.2176
409.0213	0.225
409.2267	0.2365
409.432	0.2079
409.6374	0.2218
409.8427	0.2111
410.048	0.2118
410.2533	0.2095
410.4586	0.2271
410.6639	0.225
410.8691	0.2091
411.0744	0.2001
411.2796	0.214
411.4848	0.2246
411.69	0.2153
411.8952	0.219
412.1004	0.196
412.3056	0.215
412.5107	0.2087
412.7158	0.2218
412.921	0.2062
413.1261	0.2084
413.3312	0.2175
413.5362	0.2087
413.7413	0.2342
413.9464	0.2164
414.1514	0.2115
414.3564	0.2029
414.5614	0.2103
414.7664	0.2009
414.9714	0.216
415.1764	0.22
415.3813	0.2201
415.5863	0.2034
415.7912	0.2111
415.9961	0.2159
416.201	0.207
416.4059	0.207
416.6108	0.2014
416.8156	0.2145
417.0205	0.2152
417.2253	0.2033
417.4301	0.226
417.6349	0.2055
417.8397	0.2262
418.0445	0.2035
418.2492	0.2187
418.454	0.2162
418.6587	0.2165
418.8634	0.2121
419.0681	0.183
419.2728	0.1994
419.4775	0.1945
419.6822	0.1918
419.8868	0.1782
420.0915	0.2101
420.2961	0.1858
420.5007	0.1902
420.7053	0.2076
420.9099	0.2076
421.1144	0.2061
421.319	0.2029
421.5235	0.2006
421.728	0.2094
421.9325	0.2085
422.137	0.2027
422.3415	0.1855
422.546	0.1933
422.7504	0.1915
422.9549	0.196
423.1593	0.1932
423.3637	0.1909
423.5681	0.1999
423.7725	0.1875
423.9769	0.1777
424.1812	0.1773
424.3856	0.178
424.5899	0.1838
424.7942	0.1894
424.9985	0.1793
425.2028	0.1755
425.4071	0.1965
425.6113	0.1637
425.8156	0.1698
426.0198	0.1701
426.224	0.1561
426.4282	0.1804
426.6324	0.1739
426.8366	0.193
427.0407	0.171
427.2449	0.1806
427.449	0.1905
427.6531	0.1589
427.8572	0.1595
428.0613	0.1561
428.2654	0.1679
428.4694	0.139
428.6735	0.1589
428.8775	0.1718
429.0815	0.1649
429.2855	0.1481
429.4895	0.1569
429.6935	0.1528
429.8975	0.1653
430.1014	0.1471
430.3053	0.1353
430.5093	0.1387
430.7132	0.1475
430.9171	0.1354
431.1209	0.1493
431.3248	0.1438
431.5286	0.1449
431.7325	0.155
431.9363	0.1191
432.1401	0.145
432.3439	0.137
432.5477	0.1253
432.7514	0.1095
432.9552	0.1311
433.1589	0.1189
433.3627	0.1119
433.5664	0.1266
433.7701	0.1079
433.9737	0.1173
434.1774	0.114
434.3811	0.1146
434.5847	0.1231
434.7883	0.1164
434.9919	0.1004
435.1955	0.1135
435.3991	0.1138
435.6027	0.1191
435.8062	0.113
436.0098	0.0976
436.2133	0.1045
436.4168	0.0885
436.6203	0.0977
436.8238	0.1066
437.0272	0.1034
437.2307	0.1019
437.4341	0.1069
437.6375	0.11
437.841	0.1028
438.0443	0.1085
438.2477	0.095
438.4511	0.0829
438.6545	0.0992
438.8578	0.102
439.0611	0.0922
439.2644	0.0916
439.4677	0.0835
439.671	0.0714
439.8743	0.0906
440.0775	0.0802
440.2808	0.0669
440.484	0.0773
440.6872	0.0576
440.8904	0.0674
441.0936	0.0837
441.2967	0.0766
441.4999	0.0709
441.703	0.0695
441.9062	0.0611
442.1093	0.0651
442.3124	0.0655
442.5155	0.0596
442.7185	0.0645
442.9216	0.0423
443.1246	0.0725
443.3276	0.0641
443.5307	0.0647
443.7337	0.0683
443.9366	0.0561
444.1396	0.0537
444.3426	0.0574
444.5455	0.0607
444.7484	0.0467
444.9513	0.0433
445.1542	0.054
445.3571	0.0492
445.56	0.0504
445.7628	0.0385
445.9657	0.0477
446.1685	0.042
446.3713	0.0395
446.5741	0.0462
446.7769	0.0314
446.9797	0.0377
447.1824	0.0516
447.3852	0.0374
447.5879	0.0381
447.7906	0.0438
447.9933	0.0361
448.196	0.0276
448.3986	0.0409
448.6013	0.0297
448.8039	0.0248
449.0066	0.0229
449.2092	0.0427
449.4118	0.0332
449.6143	0.0356
449.8169	0.0421
450.0195	0.0256
450.222	0.012
450.4245	0.0199
450.627	0.0377
450.8295	0.0244
451.032	0.0241
451.2345	0.0253
451.4369	0.0444
451.6394	0.0204
451.8418	0.0121
452.0442	0.0068
452.2466	0.0403
452.449	0.0046
452.6513	0.0263
452.8537	0.011
453.056	0.0251
453.2583	0.0259
453.4607	0.0175
453.663	0.012
453.8652	0.0217
454.0675	0.0199
454.2697	0.0209
454.472	0.005
454.6742	0.0264
454.8764	0.0114
455.0786	0.0238
455.2808	0.0188
455.4829	0.0244
455.6851	0.0261
455.8872	0.0194
456.0893	0.006
456.2915	0.0118
456.4935	0.0191
456.6956	0.0028
456.8977	0.0203
457.0997	0.0067
457.3018	0.003
457.5038	0.0075
457.7058	0.0014
457.9078	0.0045
458.1098	0.0095
458.3117	0.0037
458.5137	0.008
458.7156	0.0103
458.9175	-0.0017
459.1194	-0.0081
459.3213	0.0065
459.5232	0.0075
459.725	-0.0142
459.9269	0.0034
460.1287	-0.0076
460.3305	0.0059
460.5323	0.0191
460.7341	-0.0046
460.9359	0.0007
461.1376	0.0164
461.3394	-0.0066
461.5411	0.0047
461.7428	0.0042
461.9445	0.0179
462.1462	0.027
462.3479	-0.0018
462.5495	0.0109
462.7512	0.0077
462.9528	0.0015
463.1544	-0.0099
463.356	0.0029
463.5576	0.0084
463.7592	0.0035
463.9607	0.0116
464.1623	0.0219
464.3638	0.0134
464.5653	-0.0127
464.7668	-0.0109
464.9683	0.0032
465.1697	0.0074
465.3712	-0.0071
465.5726	-0.0174
465.7741	0.0047
465.9755	-0.0098
466.1769	-0.0038
466.3782	0.006
466.5796	-0.0081
466.7809	0.0188
466.9823	-0.007
467.1836	0.0041
467.3849	0.0009
467.5862	0.0017
467.7875	-0.0087
467.9887	0.0184
468.19	0.0071
468.3912	-0.0132
468.5924	0.0055
468.7936	0.0051
468.9948	0.0004
469.196	0.0034
469.3972	-0.0123
469.5983	0.0039
469.7994	0.0003
470.0006	-0.0131
470.2017	-0.0157
470.4027	0.0021
470.6038	0.0198
470.8049	-0.0156
471.0059	-0.0075
471.2069	-0.0268
471.408	0.0047
471.6089	0.0057
471.8099	-0.004
472.0109	0.0026
472.2119	-0.0062
472.4128	-0.0214
472.6137	-0
472.8146	-0.0044
473.0155	-0.0229
473.2164	-0.0121
473.4173	-0.0039
473.6181	0.0085
473.819	0.0022
474.0198	0.0036
474.2206	-0.0038
474.4214	-0.0069
474.6222	0.0088
474.8229	-0.0049
475.0237	-0.0038
475.2244	-0.011
475.4251	0.0047
475.6258	-0.0027
475.8265	-0.0066
476.0272	0.0001
476.2278	-0.0044
476.4285	-0.0035
476.6291	-0.0043
476.8297	0.0005
477.0303	-0.005
477.2309	-0.0027
477.4315	-0.0184
477.632	0.0034
477.8326	0.0069
478.0331	0.0024
478.2336	0.0018
478.4341	-0.0064
478.6346	-0.0044
478.8351	-0.0097
479.0355	0.0009
479.236	-0.0035
479.4364	-0.0085
479.6368	-0.0025
479.8372	-0.0108
480.0376	-0.0065
480.2379	-0.0246
480.4383	-0.0071
480.6386	-0.0001
480.8389	-0.0078
481.0392	-0.0061
481.2395	-0.006
481.4398	0.0136
481.6401	-0.0042
481.8403	-0.0028
482.0405	-0.0063
482.2408	-0.0054
482.441	0.0063
482.6411	-0
482.8413	-0.0089
483.0415	-0.0169
483.2416	-0.0132
483.4417	-0.0003
483.6419	-0.0125
483.8419	-0.0119
484.042	0.0023
484.2421	-0.0027
484.4422	-0.0094
484.6422	-0.0011
484.8422	-0.0069
485.0422	-0.0074
485.2422	-0.0031
485.4422	-0.0099
485.6422	-0.0126
485.8421	-0.005
486.042	-0.0013
486.242	0.0036
486.4419	-0.0106
486.6417	-0.0096
486.8416	0.0017
487.0415	-0.0042
487.2413	-0.0037
487.4411	-0.0019
487.641	-0.0105
487.8408	0.0018
488.0405	-0.0106
488.2403	0.0071
488.4401	0.013
488.6398	-0.0077
488.8395	-0.0088
489.0392	-0.0042
489.2389	-0.0118
489.4386	-0.0134
489.6383	0.0015
489.8379	0.0106
490.0376	-0.0054
490.2372	-0.0112
490.4368	-0.0058
490.6364	-0.0119
490.836	-0.0068
491.0355	-0.0102
491.2351	-0.0118
491.4346	0.0154
491.6341	-0.0185
491.8336	0.0028
492.0331	-0.016
492.2326	-0.009
492.432	-0.0066
492.6315	-0.0131
492.8309	-0.0085
493.0303	-0.0123
493.2297	-0.0054
493.4291	-0.0044
493.6284	-0.0088
493.8278	-0.0173
494.0271	0.0001
494.2264	-0.003
494.4257	-0.0222
494.625	-0.0129
494.8243	-0.0224
495.0236	-0.0021
495.2228	-0.0214
495.422	0.0004
495.6213	-0.0037
495.8205	-0.0053
496.0196	0.0038
496.2188	0.005
496.418	-0.0067
496.6171	-0.0115
496.8162	-0.0063
497.0153	-0.0033
497.2144	-0.0078
497.4135	0.0066
497.6126	-0.0123
497.8116	-0.0088
498.0107	-0.0027
498.2097	-0.0136
498.4087	-0.0081
498.6077	-0.0028
498.8067	-0.0049
499.0056	-0.0004
499.2046	-0.0178
499.4035	-0.0219
499.6024	0.0118
499.8013	-0.0058
500.0002	-0.0122
500.199	-0.0069
500.3979	-0.0044
500.5967	-0.0294
500.7956	0.0032
500.9944	-0.0037
501.1932	-0.0023
501.3919	-0.0131
501.5907	-0.0063
501.7895	-0.0061
501.9882	-0.0086
502.1869	-0.0181
502.3856	-0.0166
502.5843	-0.0075
502.783	-0.0018
502.9816	-0.0013
503.1803	-0.0101
503.3789	-0.0116
503.5775	0.0154
503.7761	-0.0126
503.9747	-0.0044
504.1732	-0.0024
504.3718	-0.0019
504.5703	-0.0104
504.7689	-0.0122
504.9674	0.004
505.1658	-0.0184
505.3643	-0.005
505.5628	-0.0078
505.7612	-0.0088
505.9597	0.002
506.1581	-0.0087
506.3565	0.0038
506.5549	-0.0004
506.7532	-0.0229
506.9516	-0.0041
507.1499	0.0051
507.3482	-0.0055
507.5465	-0.0042
507.7448	0.0036
507.9431	-0.0047
508.1414	0.01
508.3396	-0
508.5379	-0.0062
508.7361	-0.0023
508.9343	0.0019
509.1325	-0.0119
509.3306	-0.0075
509.5288	-0.0042
509.7269	-0.0105
509.9251	0.0038
510.1232	-0.0058
510.3213	-0.0041
510.5193	-0.0004
510.7174	-0.0175
510.9154	-0.007
511.1135	-0.0094
511.3115	-0.0061
511.5095	-0.0072
511.7075	-0.0093
511.9055	-0.012
512.1034	-0.0077
512.3014	0.0018
512.4993	0.0029
512.6972	-0.0219
512.8951	-0.0086
513.093	0.0047
513.2908	0.0035
513.4887	0.0023
513.6865	-0.0021
513.8844	-0.0028
514.0822	-0.0004
514.2799	-0.0127
514.4777	-0.0143
514.6755	-0.0133
514.8732	-0.0085
515.0709	-0.0079
515.2687	-0.0093
515.4664	-0.0021
515.664	-0.0026
515.8617	-0.011
516.0594	-0.0147
516.257	-0.0017
516.4546	-0.0107
516.6522	-0.0062
516.8498	-0.0004
517.0474	-0.0006
517.2449	-0.0005
517.4425	-0.0157
517.64	-0.0065
517.8375	0.0054
518.035	-0.0064
518.2325	-0.0119
518.43	-0.0065
518.6274	-0.0066
518.8249	-0.0056
519.0223	-0.0058
519.2197	-0.0012
519.4171	-0.0147
519.6145	-0.0046
519.8118	-0.0022
520.0092	-0.0062
520.2065	-0.0117
520.4038	-0.0136
520.6011	0.0002
520.7984	-0.0015
520.9956	-0.0047
521.1929	-0.0062
521.3901	0.0017
521.5874	0.0064
521.7846	0.0016
521.9818	-0.0104
522.1789	-0.0067
522.3761	-0.0056
522.5732	-0.0031
522.7704	-0.0016
522.9675	0.0026
523.1646	-0.0033
523.3617	-0.0036
523.5587	-0.0019
523.7558	0.0015
523.9528	-0.0094
524.1498	-0.0001
524.3468	-0.0005
524.5438	-0.0084
524.7408	-0.007
524.9378	0.0017
525.1347	-0.0055
525.3316	0.0005
525.5285	-0.0089
525.7254	-0.0096
525.9223	-0.006
526.1192	-0.0085
526.316	-0.0159
526.5129	0.0005
526.7097	-0.0043
526.9065	0.0076
527.1033	-0.0091
527.3	-0.0001
527.4968	-0.0027
527.6935	0.0036
527.8903	-0.0153
528.087	-0.0025
528.2837	-0.0043
528.4804	-0.0076
528.677	-0.0062
528.8737	0.0063
529.0703	0.002
529.2669	0.0008
529.4635	-0.0111
529.6601	0.0017
529.8567	-0.0032
530.0532	-0.0167
530.2498	-0.003
530.4463	0.0098
530.6428	-0.0092
530.8393	0.0064
531.0358	0.0012
531.2322	-0.0091
531.4287	-0.001
531.6251	0.0058
531.8215	0.0034
532.0179	0.0021
532.2143	0.0048
532.4107	-0.0071
532.607	-0.0005
532.8034	0.0053
532.9997	0.0001
533.196	-0.0012
533.3923	-0.0133
533.5886	0.0048
533.7848	0.0058
533.9811	-0.0043
534.1773	0.0003
534.3735	0.0031
534.5697	0.0013
534.7659	-0.0009
534.9621	0.0014
535.1582	-0.0028
535.3544	-0.0038
535.5505	-0.0071
535.7466	-0.0142
535.9427	-0.007
536.1387	-0.0011
536.3348	0.001
536.5308	0.0023
536.7269	-0.0196
536.9229	-0.0016
537.1189	0.0021
537.3148	-0.0038
537.5108	-0.0068
537.7068	-0.0001
537.9027	-0.0016
538.0986	0.0048
538.2945	-0.0039
538.4904	0.0079
538.6863	-0.0022
538.8821	0.0042
539.078	-0.0011
539.2738	-0.0006
539.4696	-0.0045
539.6654	0.0105
539.8611	0.0065
540.0569	-0.0066
540.2526	-0.004
540.4484	-0.0084
540.6441	0.0025
540.8398	-0.003
541.0355	-0.0025
541.2311	-0.0084
541.4268	-0.0074
541.6224	-0.0023
541.818	0.0055
542.0136	-0.0049
542.2092	0.0009
542.4048	-0.0038
542.6003	0.0016
542.7959	0.0002
542.9914	-0.0048
543.1869	-0.0014
543.3824	0.0005
543.5779	-0.0025
543.7734	-0.0059
543.9688	-0.0128
544.1642	0.0026
544.3596	-0.0031
544.555	-0.0054
544.7504	0.0011
544.9458	-0.004
545.1411	-0.0013
545.3365	-0.0059
545.5318	-0.0053
545.7271	-0.0166
545.9224	-0.0014
546.1177	-0.0094
546.3129	-0.0031
546.5081	-0.0018
546.7034	-0.0026
546.8986	-0.0078
547.0938	-0.0002
547.289	-0.0041
547.4841	0.0011
547.6793	0.0026
547.8744	-0.0111
548.0695	0.0004
548.2646	-0.0092
548.4597	0.0019
548.6548	-0.0019
548.8498	-0.0018
549.0448	0.0058
549.2399	0.0025
549.4349	0.0067
549.6298	-0.0017
549.8248	-0.0041
550.0198	0.0004
550.2147	0.0032
550.4096	-0.01
550.6045	-0.0021
550.7994	-0.0004
550.9943	0.0124
551.1892	0.0002
551.384	0.0116
551.5788	-0.0049
551.7737	0.0118
551.9685	-0.0064
552.1632	0.004
552.358	0.0019
552.5528	0.0057
552.7475	-0.0028
552.9422	0.0013
553.1369	0.0106
553.3316	0.0018
553.5263	-0.0024
553.7209	0.0009
553.9156	-0.0019
554.1102	0.0007
554.3048	-0.0006
554.4994	0.0077
554.694	-0.0072
554.8885	0.0014
555.0831	-0.0049
555.2776	0.0008
555.4721	0.0016
555.6666	-0.0003
555.8611	0.0149
556.0555	0.0046
556.25	-0.001
556.4444	-0.0087
556.6388	-0.0005
556.8332	0.0012
557.0276	-0.0036
557.222	-0.0087
557.4163	-0.0042
557.6107	-0.007
557.805	0.0057
557.9993	-0.0044
558.1936	-0.0027
558.3879	0.0016
558.5821	0.0009
558.7764	-0.0002
558.9706	-0.0028
559.1648	0.0076
559.359	0.0019
559.5532	-0.0105
559.7473	-0.0068
559.9415	-0.0052
560.1356	-0.0036
560.3297	-0.0075
560.5238	0.002
560.7179	-0.0055
560.9119	0.0015
561.106	0.0037
561.3	-0.0022
561.494	-0.0045
561.688	-0.0011
561.882	-0.0098
562.076	-0.0106
562.2699	0.005
562.4639	-0.0113
562.6578	-0.0006
562.8517	-0.0071
563.0456	-0.0012
563.2395	-0.0007
563.4333	-0.0047
563.6272	-0.0016
563.821	0.0007
564.0148	0.0011
564.2086	-0.0018
564.4024	-0.0067
564.5961	-0.0025
564.7899	0.0087
564.9836	-0.0045
565.1773	-0.0023
565.371	0.0049
565.5647	0.0081
565.7584	0.0092
565.952	-0.0048
566.1456	0.0012
566.3393	-0.0014
566.5329	-0.0005
566.7264	0.0055
566.92	-0.0055
567.1136	0.0013
567.3071	-0.0085
567.5006	-0.0078
567.6941	0.0052
567.8876	0.0022
568.0811	-0.0011
568.2745	-0
568.468	0.0086
568.6614	0.0046
568.8548	0.003
569.0482	-0.0046
569.2416	-0.0031
569.4349	0.0107
569.6283	0.0048
569.8216	-0.0012
570.0149	0.004
570.2082	0.0048
570.4015	0.0101
570.5947	0.0044
570.788	0.0116
570.9812	0.0052
571.1744	0.0003
571.3676	-0.0069
571.5608	-0.0038
571.754	0.009
571.9471	0.0001
572.1402	0.0002
572.3333	0
572.5264	-0.0001
572.7195	-0.0033
572.9126	-0.0008
573.1057	0.0022
573.2987	0.0004
573.4917	0.0008
573.6847	-0.01
573.8777	-0.0024
574.0707	0.0053
574.2636	-0.0039
574.4566	-0.0016
574.6495	0.0054
574.8424	0.0014
575.0353	-0.0056
575.2281	0.0095
575.421	0.0033
575.6138	0.0075
575.8067	-0.0008
575.9995	0.0017
576.1923	0.0014
576.385	0.0015
576.5778	0.0031
576.7706	-0.0061
576.9633	0.0026
577.156	0.004
577.3487	-0.0034
577.5414	0.0019
577.734	-0.0024
577.9267	0.0027
578.1193	-0.0062
578.3119	-0.0094
578.5045	0.001
578.6971	-0.0037
578.8897	0.009
579.0822	-0.0016
579.2747	-0.0024
579.4673	-0.01
579.6598	-0.0041
579.8522	-0.0009
580.0447	-0.005
580.2372	-0.0068
580.4296	0.0006
580.622	-0.0015
580.8144	-0.0011
581.0068	-0.0034
581.1992	-0.006
581.3915	-0.0046
581.5839	-0.0009
581.7762	-0.0081
581.9685	-0.0027
582.1608	0.0026
582.353	0
582.5453	-0.0033
582.7375	-0.0011
582.9298	0.0041
583.122	0.0006
583.3142	-0.0017
583.5063	-0.0035
583.6985	0.0008
583.8906	-0.0008
584.0827	-0.0017
584.2749	0.0058
584.4669	0.0045
584.659	-0.0019
584.8511	-0.0008
585.0431	-0.0001
585.2352	0.0015
585.4272	0.0017
585.6192	0.0082
585.8111	0.0002
586.0031	0.0017
586.195	-0.0031
586.387	0.0079
586.5789	0.0017
586.7708	0.0045
586.9627	0.0009
587.1545	-0.0005
587.3464	0.0032
587.5382	0.0018
587.73	0.0034
587.9218	0.0013
588.1136	-0.0011
588.3053	0.0032
588.4971	-0.0047
588.6888	-0.0062
588.8805	0.0014
589.0722	0.0064
589.2639	-0.0049
589.4556	0.0022
589.6472	0.0015
589.8389	-0.0026
590.0305	-0.0067
590.2221	0.002
590.4137	-0.0068
590.6052	0.0053
590.7968	0.0013
590.9883	-0.0024
591.1798	0.0009
591.3713	0.0005
591.5628	-0.0043
591.7543	0.0021
591.9458	-0.0003
592.1372	0.0072
592.3286	0.0115
592.52	0.0033
592.7114	-0.0027
592.9028	-0.0003
593.0941	0.0046
593.2855	0.0022
593.4768	-0.0036
593.6681	-0.0026
593.8594	-0.0026
594.0506	0.0004
594.2419	0.005
594.4331	-0.0008
594.6244	0.0037
594.8156	-0.0009
595.0067	-0.0046
595.1979	-0.0016
595.3891	0.0007
595.5802	0.0003
595.7713	-0.0064
595.9624	-0.0007
596.1535	0.0001
596.3446	0.0023
596.5357	-0.0011
596.7267	0.0044
596.9177	-0.007
597.1087	-0.0025
597.2997	-0.0005
597.4907	0.0046
597.6817	-0.0081
597.8726	0.0028
598.0635	-0.0065
598.2544	-0.0004
598.4453	-0.004
598.6362	-0.0048
598.827	-0.0049
599.0179	0.0047
599.2087	0.0035
599.3995	0.0023
599.5903	0.0017
599.7811	0.0049
599.9718	0.0032
600.1626	-0.0065
600.3533	-0.001
600.544	0.0095
600.7347	-0.0006
600.9254	-0.0029
601.116	-0.0083
601.3067	-0.0008
601.4973	-0.0023
601.6879	0.0054
601.8785	-0.003
602.0691	0.0013
602.2596	0.0082
602.4502	0.0043
602.6407	0.0025
602.8312	0.0017
603.0217	-0.0031
603.2122	0.005
603.4027	0.0045
603.5931	0.0008
603.7835	0.0001
603.9739	-0.0008
604.1643	-0.006
604.3547	-0.0112
604.5451	0.0004
604.7354	-0.0027
604.9257	-0.0028
605.116	-0.0025
605.3063	0.0017
605.4966	-0.0005
605.6869	0.0016
605.8771	0.0072
606.0673	0.0037
606.2575	0.011
606.4477	0.0082
606.6379	-0.001
606.8281	-0.0021
607.0182	0.0015
607.2083	0.0128
607.3985	-0.0038
607.5885	0.0031
607.7786	-0.0007
607.9687	0.0002
608.1587	-0.001
608.3488	-0.0029
608.5388	-0.0018
608.7288	0.0001
608.9187	-0.0057
609.1087	-0.0049
609.2986	-0.0056
609.4886	-0.0024
609.6785	0.0021
609.8684	-0.0004
610.0582	0.001
610.2481	-0.0004
610.4379	0.0037
610.6278	-0.0049
610.8176	-0.0056
611.0074	-0.0044
611.1971	-0.0047
611.3869	0.0017
611.5766	-0.0097
611.7664	0.009
611.9561	0.0027
612.1458	-0.0013
612.3354	-0.0072
612.5251	0.0042
612.7147	0.0057
612.9044	0.0142
613.094	-0.0022
613.2836	0.0022
613.4731	-0.0072
613.6627	-0.0016
613.8522	0.0078
614.0417	0.0072
614.2313	-0.0034
614.4207	-0.0091
614.6102	0.0035
614.7997	-0.0005
614.9891	-0.0082
615.1785	0.0024
615.3679	-0.0066
615.5573	0.0143
615.7467	0.0097
615.9361	0.0016
616.1254	0.0052
616.3147	0.0067
616.504	0.0122
616.6933	0.0078
616.8826	0.0122
617.0718	0.0106
617.2611	0.0058
617.4503	-0.0034
617.6395	0.0049
617.8287	0.0055
618.0179	0.0031
618.207	0.0152
618.3961	0.0041
618.5853	0.0008
618.7744	0.0136
618.9634	0.0109
619.1525	0.008
619.3416	0.0059
619.5306	0.0109
619.7196	0.0066
619.9086	0.0034
620.0976	0.0066
620.2866	0.0027
620.4755	0.0039
620.6645	0.0078
620.8534	0.0092
621.0423	0.0092
621.2312	0.0216
621.42	0.0019
621.6089	-0.0035
621.7977	0.0049
621.9865	-0.0085
622.1753	0.0095
622.3641	0.0063
622.5529	0.0076
622.7416	0.003
622.9303	0.003
623.1191	0.0111
623.3078	-0.0047
623.4964	0.0068
623.6851	-0.0083
623.8737	-0.0034
624.0624	-0.0027
624.251	-0.0022
624.4396	-0.0035
624.6282	-0.0005
624.8167	-0.0048
625.0053	0.0026
625.1938	0.0044
625.3823	0.0079
625.5708	0.0031
625.7593	-0.0074
625.9477	-0.0068
626.1362	-0.0011
626.3246	0.0059
626.513	0.0082
626.7014	0.0091
626.8898	0.0048
627.0781	0.0013
627.2665	0.0023
627.4548	0.0058
627.6431	0.0029
627.8314	0.0074
628.0197	-0.0008
628.2079	-0.0056
628.3962	-0.0024
628.5844	-0.0019
628.7726	0.0125
628.9608	0.0045
629.1489	-0.0057
629.3371	0.0018
629.5252	-0.0021
629.7134	0.0076
629.9015	0.005
630.0895	0.0014
630.2776	0.004
630.4657	0.0029
630.6537	0.0015
630.8417	0.0002
631.0297	-0.0014
631.2177	0.0052
631.4057	-0.007
631.5936	0.0047
631.7815	-0.0031
631.9695	0.0054
632.1574	0.0106
632.3452	0.016
632.5331	-0.0019
632.7209	-0.0023
632.9088	0.0119
633.0966	0.0154
633.2844	0.0017
633.4722	0.0042
633.6599	0.0079
633.8477	0.0042
634.0354	0.0075
634.2231	-0.001
634.4108	0.0022
634.5985	0.0057
634.7861	0.0086
634.9738	0.0012
635.1614	0.0041
635.349	0.0073
635.5366	0.0085
635.7242	0.0026
635.9117	0.0058
636.0993	0.0033
636.2868	0.0099
636.4743	0.0019
636.6618	0.0119
636.8492	0.0077
637.0367	0.0095
637.2241	-0.0038
637.4115	-0.0005
637.5989	0.0032
637.7863	0.0001
637.9737	-0.0039
638.161	0.0043
638.3484	0.0035
638.5357	0.0103
638.723	0.0039
638.9103	0.0015
639.0975	0.011
639.2848	0.011
639.472	0.0057
639.6592	0.0029
639.8464	0.0103
640.0336	0.0088
640.2208	0.002
640.4079	0.0002
640.595	0.0057
640.7821	0.0024
640.9692	0.0023
641.1563	0.0085
641.3434	0.0058
641.5304	0.004
641.7174	0.001
641.9044	-0.0007
642.0914	0.0005
642.2784	-0.0002
642.4653	0.0111
642.6523	0.0049
642.8392	0.0067
643.0261	0.0088
643.213	0.0092
643.3999	-0.0009
643.5867	-0.0011
643.7735	0.0033
643.9604	-0.0031
644.1472	0.0088
644.3339	0.0053
644.5207	0.007
644.7075	0.0047
644.8942	0.0151
645.0809	0.0093
645.2676	0.0133
645.4543	0.0038
645.6409	0.0034
645.8276	0.0108
646.0142	0.0049
646.2008	-0.0024
646.3874	-0.0015
646.574	0.0023
646.7605	-0.0055
646.9471	-0.0153
647.1336	0.0004
647.3201	-0.0029
647.5066	-0.0031
647.6931	0.0113
647.8795	-0.0035
648.0659	-0.0016
648.2524	0.0143
648.4388	-0.006
648.6252	0.0018
648.8115	-0.0006
648.9979	-0.0036
649.1842	0.0002
649.3705	0.0084
649.5568	0.0025
649.7431	0.0056
649.9294	-0.0046
650.1156	0.0044
650.3018	-0.0049
650.488	0.0119
650.6742	0.0038
650.8604	0.0031
651.0466	-0.0006
651.2327	0.0006
651.4188	0.0113
651.6049	0.0023
651.791	-0.0005
651.9771	0.0038
652.1632	0.0054
652.3492	0.0038
652.5352	0.004
652.7212	0.0058
652.9072	0.0102
653.0932	0.0018
653.2791	0.0051
653.465	0.0006
653.651	0.0001
653.8369	-0.0023
654.0227	0.0023
654.2086	0.006
654.3944	0.0077
654.5803	0.0031
654.7661	-0.0022
654.9519	0.0085
655.1377	0.0033
655.3234	0.0014
655.5092	-0.0021
655.6949	-0.0038
655.8806	-0.0058
656.0663	-0.0033
656.2519	0.0015
656.4376	-0.0017
656.6232	0.0014
656.8088	0.0039
656.9945	0.0059
657.18	0.0061
657.3656	0.0017
657.5511	0.0026
657.7367	-0.0039
657.9222	0.007
658.1077	0.0067
658.2932	0.0054
658.4786	-0.0072
658.6641	-0.0003
658.8495	0.0021
659.0349	-0.0061
659.2203	0.0074
659.4057	0.0041
659.591	0.0047
659.7764	0.0035
659.9617	-0.001
660.147	0.0022
660.3323	0.0089
660.5176	0.0157
660.7028	0.0126
660.888	0.0108
661.0733	0.0068
661.2585	-0.0042
661.4436	-0.0014
661.6288	-0.0011
661.8139	-0.0002
661.9991	0.0069
662.1842	0.0007
662.3693	0.0013
662.5544	-0.0034
662.7394	0.0021
662.9245	-0.0007
663.1095	0.007
663.2945	0.0026
663.4795	0.0036
663.6644	0.0076
663.8494	0.002
664.0343	0.0061
664.2193	0.0007
664.4042	0.0006
664.589	-0.0027
664.7739	-0.0075
664.9587	-0.0026
665.1436	0.0036
665.3284	0.0017
665.5132	-0.005
665.698	-0.0065
665.8827	0.0042
666.0675	0.0018
666.2522	-0.0078
666.4369	0.0046
666.6216	0.0101
666.8063	0.0042
666.9909	0.0043
667.1756	0.0013
667.3602	0.01
667.5448	0.003
667.7294	0.0121
667.9139	0.0017
668.0985	0.0172
668.283	-0.0001
668.4675	0.0093
668.652	0.0105
668.8365	-0.0009
669.0209	0.0109
669.2054	0.0105
669.3898	0.0056
669.5742	0.0079
669.7586	0.0026
669.943	0.0087
670.1273	0.0082
670.3117	0.0154
670.496	0.0094
670.6803	0.0136
670.8646	0.0029
671.0488	-0.0001
671.2331	0.0139
671.4173	0.0117
671.6015	0.0057
671.7857	0.0048
671.9699	0.0033
672.1541	0.0073
672.3382	0.006
672.5223	0.0031
672.7064	0.0015
672.8905	0.0051
673.0746	0.0004
673.2587	-0.0021
673.4427	0.0069
673.6267	-0.003
673.8107	0.0078
673.9947	0.0037
674.1787	0.0106
674.3626	0.0031
674.5465	0.0089
674.7304	0.0056
674.9143	0.0113
675.0982	0.0085
675.2821	-0.0003
675.4659	0.0134
675.6497	0.0052
675.8335	0.0009
676.0173	0.0011
676.2011	0.0034
676.3849	-0.0025
676.5686	-0.0072
676.7523	0.0007
676.936	0.0036
677.1197	-0.005
677.3034	-0.0043
677.487	0.0062
677.6706	-0.0026
677.8542	0.0038
678.0378	0.0076
678.2214	0.005
678.405	0.0007
678.5885	-0.0086
678.772	0.0058
678.9555	0.0009
679.139	0.0027
679.3225	0.0018
679.5059	0.0004
679.6894	0.0011
679.8728	-0.0019
680.0562	-0.0077
680.2395	-0.0007
680.4229	-0.0036
680.6062	0.0064
680.7896	0.0014
680.9729	-0.0048
681.1562	0.0081
681.3394	0.0009
681.5227	-0.0056
681.7059	-0.0049
681.8891	0.0006
682.0723	0.0077
682.2555	0.0073
682.4387	-0.0014
682.6218	0.0022
682.805	0.0075
682.9881	0.0006
683.1712	-0.0009
683.3542	0.004
683.5373	0.0025
683.7203	-0.0085
683.9034	0.0016
684.0864	-0.006
684.2694	-0.003
684.4523	0.0094
684.6353	-0.0002
684.8182	-0.0035
685.0011	-0.0052
685.184	-0.0006
685.3669	0.0035
685.5498	0.001
685.7326	0.0041
685.9154	-0.0026
686.0982	0.0063
686.281	0.0068
686.4638	0.0045
686.6465	0.0079
686.8293	0.0039
687.012	0.0063
687.1947	-0.0091
687.3774	0.0052
687.56	-0.002
687.7427	0.0034
687.9253	0.0014
688.1079	0.0023
688.2905	0.0104
688.4731	0.0094
688.6556	0.0053
688.8382	0.0007
689.0207	0.0028
689.2032	-0.0031
689.3857	-0.0055
689.5681	-0.001
689.7506	0.0018
689.933	-0.0046
690.1154	-0.0076
690.2978	-0.0062
690.4802	-0.0023
690.6626	-0.0098
690.8449	-0.0004
691.0272	0.0012
691.2095	-0.0033
691.3918	-0.0075
691.5741	-0.0033
691.7563	-0.0038
691.9386	0.0058
692.1208	0.0024
692.303	0.0042
692.4852	-0.0036
692.6673	0.007
692.8495	0.0053
693.0316	0.0048
693.2137	0.0049
693.3958	0.0026
693.5778	-0.0012
693.7599	0.0107
693.9419	0.0037
694.1239	0.0022
694.3059	-0.004
694.4879	0.0075
694.6699	0.0174
694.8518	0.0035
695.0337	0.003
695.2157	0.0107
695.3975	-0.0014
695.5794	0.0018
695.7613	0.0095
695.9431	-0.0045
696.1249	0.0042
696.3067	0.0151
696.4885	0.0165
696.6703	-0.0023
696.852	0.0036
697.0337	0.0083
697.2154	-0.0033
697.3971	0.0098
697.5788	0.0011
697.7605	0.0051
697.9421	0.0073
698.1237	0.0041
698.3053	0.008
698.4869	0.0086
698.6685	-0.0076
698.85	0.0007
699.0315	0.009
699.213	-0.0005
699.3945	0.0064
699.576	0.0099
699.7575	-0.0011
699.9389	0.0118
700.1203	0.0008
700.3017	0.0005
700.4831	0.0025
700.6645	-0.0014
700.8458	0.0048
701.0271	-0.0004
701.2084	0.0128
701.3897	-0.0022
701.571	0.0112
701.7523	-0.004
701.9335	0.0054
702.1147	0.006
702.2959	0.0034
702.4771	0.0028
702.6583	0.0039
702.8394	-0.0063
703.0205	-0.005
703.2016	0.0017
703.3827	0.0031
703.5638	0.0072
703.7449	0.0088
703.9259	0.0124
704.1069	-0.0004
704.2879	0.0003
704.4689	0.0009
704.6499	0.0063
704.8308	0.0096
705.0117	0.0056
705.1927	0.0007
705.3735	-0.0019
705.5544	-0.0047
705.7353	0.0006
705.9161	-0.0009
706.0969	-0.0005
706.2777	0.003
706.4585	-0.0023
706.6393	0.0037
706.82	-0.0051
707.0007	0.0016
707.1815	0.0013
707.3621	0.0019
707.5428	-0.0022
707.7235	-0.0123
707.9041	-0.0008
708.0847	-0.0092
708.2653	-0.0035
708.4459	-0.0152
708.6265	0.0017
708.807	-0.0043
708.9875	-0.0052
709.168	-0.004
709.3485	-0.0099
709.529	-0.0003
709.7095	-0.0199
709.8899	-0.0041
710.0703	-0.0105
710.2507	-0.0047
710.4311	0.0009
710.6115	-0.0112
710.7918	-0.0019
710.9721	-0.0074
711.1524	-0.0082
711.3327	-0.007
711.513	-0.0009
711.6932	-0.0063
711.8735	0.0076
712.0537	0.0025
712.2339	-0.0056
712.4141	-0.0017
712.5942	-0.0003
712.7744	0.0039
712.9545	-0.0076
713.1346	0.0008
713.3147	0.0036
713.4947	-0.0029
713.6748	-0.0018
713.8548	0.0005
714.0348	-0.0062
714.2148	-0.0019
714.3948	0.0044
714.5748	-0.0074
714.7547	0.0002
714.9346	0.005
715.1145	0.0009
715.2944	-0.0052
715.4743	0.0057
715.6541	-0.0099
715.834	0.003
716.0138	-0.0055
716.1936	-0.0172
716.3733	-0.0028
716.5531	0.0041
716.7328	0.0035
716.9126	0.0006
717.0923	-0.0004
717.2719	0.002
717.4516	-0.0029
717.6312	-0.0039
717.8109	-0.0072
717.9905	-0.0047
718.1701	-0.0107
718.3496	-0.01
718.5292	-0.0001
718.7087	-0.003
718.8882	-0.0006
719.0677	0.0033
719.2472	0.0068
719.4267	-0.0019
719.6061	-0.0037
719.7856	0.0023
719.965	0.0056
720.1443	-0.0013
720.3237	0.0085
720.5031	-0.0022
720.6824	0.0105
720.8617	0.0022
721.041	0.0026
721.2203	0.0069
721.3995	0.0024
721.5788	0.0026
721.758	0.0048
721.9372	0.0009
722.1164	-0.0007
722.2956	0.0088
722.4747	0
722.6538	0.0009
722.8329	0.0121
723.012	0.0038
723.1911	-0.0065
723.3702	0.0027
723.5492	0.0058
723.7282	-0.007
723.9072	0.0092
724.0862	0.0008
724.2652	0.0055
724.4441	0.0017
724.623	0.005
724.8019	0.0022
724.9808	-0.0009
725.1597	-0.0072
725.3385	0.007
725.5174	0.0041
725.6962	-0.0009
725.875	0.0011
726.0538	0.0006
726.2325	-0.0011
726.4112	0.0012
726.59	-0.0035
726.7687	-0.0069
726.9474	0.0042
727.126	-0.0057
727.3047	-0.0055
727.4833	-0.0082
727.6619	-0.0062
727.8405	-0.0053
728.0191	-0.0062
728.1976	0.003
728.3762	0.0054
728.5547	0.0001
728.7332	-0.0059
728.9116	-0.0033
729.0901	0.011
729.2686	-0.0007
729.447	0.0008
729.6254	-0.0011
729.8038	0.0029
729.9821	-0.0088
730.1605	0.0044
730.3388	0.0058
730.5171	0.0026
730.6954	-0.0048
730.8737	0.0072
731.0519	0.0095
731.2302	0.0037
731.4084	0.0053
731.5866	0.0061
731.7648	-0.0031
731.9429	0.0044
732.1211	-0.0087
732.2992	0.0067
732.4773	-0.0016
732.6554	0.0009
732.8335	-0.0019
733.0115	0.0034
733.1896	0.0075
733.3676	-0.0026
733.5456	0.0032
733.7235	0.0072
733.9015	-0.0064
734.0794	0.0036
734.2574	-0.012
734.4353	-0.0002
734.6131	0.0065
734.791	0.0063
734.9689	0.0052
735.1467	0.0014
735.3245	0.0002
735.5023	-0.0044
735.68	0.0012
735.8578	0.0057
736.0355	-0.0158
736.2132	-0.0007
736.3909	-0.0056
736.5686	-0.0045
736.7463	0.0051
736.9239	-0.0095
737.1015	0.001
737.2791	0.0088
737.4567	0.0055
737.6343	-0.0086
737.8118	0.0057
737.9894	0.0079
738.1669	-0.0048
738.3444	0.001
738.5218	0.0103
738.6993	0.0099
738.8767	-0.0001
739.0541	0.0114
739.2315	-0.0152
739.4089	0.003
739.5863	0.0031
739.7636	0.0014
739.9409	0.0044
740.1182	0.0095
740.2955	0.0025
740.4728	0.0037
740.65	-0.0106
740.8272	-0.0066
741.0044	-0.0064
741.1816	0.0093
741.3588	-0.0075
741.5359	-0
741.7131	-0.0074
741.8902	0.0093
742.0673	0.0061
742.2444	-0.0113
742.4214	-0.0088
742.5985	-0.0036
742.7755	-0.0051
742.9525	-0.0129
743.1295	-0.0032
743.3064	0.0024
743.4834	0.0021
743.6603	0.0041
743.8372	0.0066
744.0141	0.0163
744.191	0.0112
744.3678	0.0018
744.5446	0.0038
744.7215	0.0029
744.8982	0.0009
745.075	-0.0076
745.2518	0.0091
745.4285	0.0104
745.6052	0.0015
745.7819	0.0003
745.9586	0.0071
746.1353	0.0035
746.3119	-0.0032
746.4885	-0.0013
746.6651	-0.0021
746.8417	0.0062
747.0183	-0.0043
747.1948	0.0015
747.3714	0.0032
747.5479	0.0057
747.7244	-0.0008
747.9008	0.0145
748.0773	-0.0011
748.2537	0.0009
748.4301	-0.0095
748.6065	0.0044
748.7829	-0.0033
748.9593	-0.0057
749.1356	0.0008
749.3119	0.0122
749.4882	-0.0117
749.6645	0.0082
749.8408	-0.0073
750.017	-0.0061
750.1933	0.0022
750.3695	-0.0074
750.5457	0.0112
750.7218	-0.0101
750.898	0.0022
751.0741	-0.0066
751.2502	0.003
751.4263	0.0018
751.6024	0.003
751.7784	0.0007
751.9545	-0.0009
752.1305	0.0039
752.3065	-0.0093
752.4825	0.0057
752.6584	-0.0056
752.8344	-0.0031
753.0103	-0.0081
753.1862	-0.0097
753.3621	0.001
753.5379	-0.0089
753.7138	0.0029
753.8896	0.0004
754.0654	0.003
754.2412	0.0061
754.417	0.0051
754.5927	-0.0058
754.7685	-0.0036
754.9442	-0.0017
755.1199	0.01
755.2956	0.0001
755.4712	0.0114
755.6469	0.0111
755.8225	0.004
755.9981	-0.002
756.1736	0.0117
756.3492	-0.0045
756.5248	0.0044
756.7003	0.008
756.8758	0.0142
757.0513	-0.0173
757.2267	0.0059
757.4022	0.0078
757.5776	-0
757.753	0.0087
757.9284	0.0085
758.1038	0.0217
758.2791	0.004
758.4545	-0.0177
758.6298	0.0108
758.8051	0.004
758.9803	-0.0043
759.1556	0.0017
759.3308	-0.0024
759.506	0.0115
759.6812	-0.002
759.8564	0.0176
760.0316	0.0045
760.2067	0.0017
760.3819	0.0052
760.557	0.013
760.732	-0.001
760.9071	-0.0021
761.0821	0.0121
761.2572	0.013
761.4322	0.0094
761.6072	0.0019
761.7821	-0.006
761.9571	0.0146
762.132	-0.0011
762.3069	-0.0121
762.4818	-0.0033
762.6567	-0.0099
762.8316	-0.0007
763.0064	0.0084
763.1812	-0.0003
763.356	-0.0107
763.5308	-0.0027
763.7055	0.0056
763.8803	-0.0064
764.055	0.0006
764.2297	0.0043
764.4044	-0.0164
764.579	-0.0056
764.7537	-0.0087
764.9283	-0.007
765.1029	0.0021
765.2775	-0.0141
765.4521	-0.0109
765.6266	-0.0022
765.8011	-0.0117
765.9756	0.0008
766.1501	0.0099
766.3246	0.0088
766.4991	0.0021
766.6735	-0.0008
766.8479	-0.0072
767.0223	0.0094
767.1967	0.0042
767.371	0.0039
767.5454	-0.0015
767.7197	-0.0014
767.894	0.0067
768.0683	-0.015
768.2425	0.0003
768.4168	0.003
768.591	0.0099
768.7652	-0.0021
768.9394	0.0044
769.1135	0.0021
769.2877	0.0092
769.4618	-0.0003
769.6359	0.0012
769.81	0.0162
769.984	0.004
770.1581	-0.0016
770.3321	0.0003
770.5061	-0.0025
770.6801	-0.0091
770.8541	-0.0037
771.028	-0.0009
771.202	-0.0188
771.3759	-0.0022
771.5498	0.0023
771.7236	-0.0127
771.8975	-0.008
772.0713	0.0114
772.2451	0.0007
772.4189	0.0077
772.5927	0.0054
772.7665	-0.0033
772.9402	-0.0038
773.1139	0.0006
773.2876	-0.0074
773.4613	0.0078
773.635	0.0096
773.8086	-0.0112
773.9822	0.0008
774.1558	0.0098
774.3294	-0.0149
774.503	0.0087
774.6765	0.0054
774.8501	0.0067
775.0236	0.0079
775.1971	0.0098
775.3705	-0.008
775.544	-0.0015
775.7174	-0.0047
775.8908	-0.0034
776.0642	-0.0014
776.2376	-0.0043
776.4109	0.0085
776.5843	0.0007
776.7576	0.0103
776.9309	0.0037
777.1041	-0.0004
777.2774	0.0182
777.4506	-0.002
777.6238	-0.0031
777.797	-0.0079
777.9702	0.0053
778.1434	-0.0001
778.3165	-0.0135
778.4896	-0.01
778.6627	0.0013
778.8358	-0.0148
779.0089	-0.006
779.1819	-0.006
779.3549	0.0115
779.5279	0.0086
779.7009	0.0065
779.8739	0.0084
780.0468	-0.0056
780.2197	0.0067
780.3926	0.009
780.5655	0.0023
780.7384	0.0031
780.9112	-0.0049
781.0841	0.0052
781.2569	0.0037
781.4297	0.0132
781.6024	0.0044
781.7752	0.0136
781.9479	0.0017
782.1206	0.0012
782.2933	-0.0121
782.466	0.0026
782.6386	-0.0008
782.8113	-0.0022
782.9839	0.0094
783.1565	0.0092
783.329	-0.0048
783.5016	0.0117
783.6741	0.0069
783.8466	-0.0144
784.0191	0.0082
784.1916	-0.013
784.3641	-0.0006
784.5365	-0.0032
784.7089	-0.0077
784.8813	-0.0117
785.0537	-0.0006
785.2261	-0.0173
785.3984	-0.0079
785.5707	-0.0026
785.743	-0.0055
785.9153	-0.0102
786.0876	0.0005
786.2598	-0.0126
786.432	-0.0083
786.6042	-0.0133
786.7764	-0.021
786.9486	0.0106
787.1207	-0.018
787.2928	0.0118
787.4649	0.0093
787.637	0.0091
787.8091	-0.0028
787.9811	-0.0184
788.1532	-0.0131
788.3252	-0.0003
788.4972	-0.0108
788.6691	-0.0038
788.8411	-0.0045
789.013	-0.0138
789.1849	0.0028
789.3568	-0.0109
789.5287	-0.0029
789.7005	-0.0088
789.8723	-0.0015
790.0442	0.024
790.2159	-0.0022
790.3877	-0.0053
790.5595	-0.0232
790.7312	-0.0057
790.9029	-0.0047
791.0746	-0.01
791.2463	-0.003
791.4179	-0.0149
791.5896	-0.0194
791.7612	-0.0041
791.9328	0.0053
792.1044	-0.0208
792.2759	-0.0255
792.4474	-0.0004
792.619	-0.0048
792.7905	0.0161
792.9619	-0.0071
793.1334	0.0155
793.3048	0.0121
793.4762	0.0029
793.6476	0.0108
793.819	-0.0016
793.9904	-0.0003
794.1617	-0.0171
794.333	-0.0063
794.5043	-0.0113
794.6756	-0.0172
794.8469	0.0003
795.0181	-0.0069
795.1893	-0.0147
795.3605	0.0106
795.5317	-0.0097
795.7029	0.0051
795.874	-0.0011
796.0452	0.0045
796.2163	0.0008
796.3873	0.0235
796.5584	0.0017
796.7294	-0.0127
796.9005	0.004
797.0715	0.0026
797.2425	-0.0204
797.4134	-0.0105
797.5844	-0.0049
797.7553	-0.017
797.9262	0.0029
798.0971	-0.0145
798.2679	-0.0187
798.4388	-0.0232
798.6096	-0.0044
798.7804	0.0003
798.9512	-0.0043
799.122	0.0061
799.2927	0.0055
799.4635	0.0127
799.6342	-0.0194
799.8049	-0.0163
799.9755	0.0132
800.1462	0.0107
800.3168	-0.0002
800.4874	-0.0039
800.658	0.0252
800.8286	0.0126
800.9991	0.0031
801.1696	0.0019
801.3402	0.0122
801.5106	-0.0065
801.6811	0.0049
801.8516	0.0269
802.022	0.003
802.1924	0.009
802.3628	0.0026
802.5332	0.0143
802.7035	0.0026
802.8739	-0.0013
803.0442	-0.0149
803.2145	0.006
803.3847	-0.0203
803.555	-0.0037
803.7252	-0.004
803.8954	-0.0187
804.0656	-0.0087
804.2358	-0.0046
804.4059	0.0029
804.5761	-0.0069
804.7462	0.0117
804.9163	-0.0011
805.0864	-0.0347
805.2564	-0.0079
805.4264	0.0079
805.5965	-0.0195
805.7665	0.0073
805.9364	-0.0154
806.1064	0.0233
806.2763	0.0006
806.4462	0.0055
806.6161	-0.009
806.786	0.0137
806.9559	-0.0313
807.1257	0.0013
807.2955	0.0142
807.4653	-0.0055
807.6351	-0.009
807.8048	0.0006
807.9746	0.0018
808.1443	0.0048
808.314	0.0019
808.4837	-0.0142
808.6533	-0.0067
808.8229	0.0358
808.9926	0.0032
809.1622	0.0023
809.3317	0.0039
809.5013	-0.0181
809.6708	0.0116
809.8403	0.0107
810.0098	0.005
810.1793	0.0104
810.3488	-0.0016
810.5182	-0.0205
810.6876	0.0117
810.857	-0.0114
811.0264	0.0056
811.1958	0.0145
811.3651	0.0157
811.5344	-0.012
811.7037	-0.0117
811.873	-0.0113
812.0422	0.0063
812.2115	-0.0049
812.3807	-0.0288
812.5499	0.0108
812.7191	0.0239
812.8882	-0.0198
813.0574	-0.0066
813.2265	-0.0081
813.3956	-0.0097
813.5646	0.0021
813.7337	-0.005
813.9027	0.0185
814.0718	0.0259
814.2407	-0.003
814.4097	-0.0105
814.5787	-0.031
814.7476	0.0102
814.9165	-0.0009
815.0854	0.0092
815.2543	-0.0075
815.4232	-0.0025
815.592	0.004
815.7608	0.0008
815.9296	0.0197
816.0984	0.0212
816.2671	-0.0039
816.4359	-0.0213
816.6046	-0.013
816.7733	0.0221
816.942	-0.0063
817.1106	0.009
817.2793	-0.0176
817.4479	-0.0025
817.6165	-0.0092
817.785	-0.0116
817.9536	-0.0246
818.1221	-0.0026
818.2906	-0.0004
818.4591	-0.0117
818.6276	-0.0199
818.7961	0.0032
818.9645	0.0103
819.1329	-0.0007
819.3013	0.0344
819.4697	0.0208
819.638	-0.0011
819.8064	0.0054
819.9747	0.0187
820.143	0.0046
820.3113	-0.0186
820.4795	0.0232
820.6477	0.0157
820.816	0.0239
820.9842	0.009
821.1523	-0.0111
821.3205	-0.0019
821.4886	0.0046
821.6567	-0.0036
821.8248	0.015
821.9929	0.0171
822.1609	0.0129
822.329	0.0337
822.497	0.0149
822.665	-0.0056
822.833	0.0105
823.0009	0.0048
823.1688	0.0238
823.3367	0.0092
823.5046	0.0207
823.6725	0.0006
823.8404	0.0083
824.0082	0.0195
824.176	0.018
824.3438	0.0132
824.5116	-0.0245
824.6793	0.0257
824.847	0.002
825.0147	-0.0181
825.1824	0.0205
825.3501	0.0135
825.5177	0.0075
825.6854	-0.0182
825.853	0.0182
826.0206	-0.049
826.1881	0.0229
826.3557	-0.0236
826.5232	0.0199
826.6907	-0.022
826.8582	-0.0068
827.0257	-0.0347
827.1931	-0.0121
827.3605	0.0178
827.528	-0.0219
827.6953	-0.0191
827.8627	-0.0094
828.03	0.0224
828.1974	-0.0185
828.3647	-0.0178
828.532	0.0083
828.6992	-0.0288
828.8665	0.0023
829.0337	0.0091
829.2009	0.0401
829.3681	-0.0117
829.5352	0.0279
829.7024	-0.0484
829.8695	-0.0112
830.0366	0.0474
830.2037	0.0024
830.3707	0.0024
830.5378	-0.0285
830.7048	0.0131
830.8718	-0.0001
831.0388	-0.038
831.2057	-0.0132
831.3727	0.0088
831.5396	-0.0372
831.7065	0.008
831.8734	0.0209
832.0402	-0.0107
832.2071	-0.0018
832.3739	-0.0019
832.5407	-0.0019
832.7075	-0.0197
832.8742	-0.0158
833.041	-0.0378
833.2077	-0.0008
833.3744	0.0124
833.541	-0.0014
833.7077	-0.0088
833.8743	0.0111
834.0409	-0.0297
834.2075	-0.0058
834.3741	-0.031
834.5407	0.022
834.7072	-0.0058
834.8737	-0.0271
835.0402	-0.0532
835.2067	0.0125
835.3731	0.0215
835.5395	0.0011
835.706	0.0397
835.8723	-0.0073
836.0387	-0.0148
836.2051	-0.0232
836.3714	-0.0215
836.5377	-0.0177
836.704	-0.0455
836.8703	-0.0063
837.0365	-0.0472
837.2027	-0.0223
837.3689	0.0466
837.5351	-0.0171
837.7013	0.0006
837.8674	-0.0513
838.0335	-0.0517
838.1997	-0.0154
838.3657	-0.0461
838.5318	-0.0152
838.6978	0.0461
838.8639	0.0058
839.0299	0.0129
839.1958	0.0006
839.3618	-0.0053
839.5277	-0.0244
839.6937	0.0175
839.8596	-0.0249
840.0254	0.0515
840.1913	0.0279
840.3571	0.0344
840.523	-0.0282
840.6888	-0.0067
840.8545	-0.0098
841.0203	-0.0131
841.186	-0.0186
841.3517	0.047
841.5174	0.041
841.6831	-0.0483
841.8488	-0.0065
842.0144	-0.0128
842.18	-0.0392
842.3456	-0.003
842.5112	-0.039
842.6767	-0.0546
842.8422	0.0183
843.0077	-0.0677
843.1732	-0.0836
843.3387	-0.0256
843.5042	-0.035
843.6696	0.0009
843.835	-0.0244
844.0004	0.0268
844.1657	0.013
844.3311	-0.0751
844.4964	-0.0715
844.6617	-0.0355
844.827	-0.0185
844.9923	-0.0509
845.1575	0.0009
845.3227	-0.0037
845.4879	-0.0531
845.6531	-0.0579
845.8183	-0.0916
845.9834	-0.0281
846.1485	-0.0205
846.3136	-0.0079
846.4787	-0.1181
846.6438	0.0583
846.8088	-0.0051
846.9738	-0.0736
847.1388	-0.0263
847.3038	-0.0167
847.4687	-0.1416
847.6337	-0.0315
847.7986	-0.0492
847.9635	-0.0794
848.1284	0.0564
848.2932	0.1514
848.458	0.0241
848.6228	0.0066
848.7876	0.0646
848.9524	-0.0702
849.1172	-0.1083
849.2819	-0.0674
849.4466	-0.0961
849.6113	-0.0649
849.7759	-0.0238
849.9406	-0.0843
850.1052	-0.0142
850.2698	-0.0638
850.4344	-0.0487
850.599	-0.038
850.7635	0.1439
850.928	-0.082
851.0925	-0.0494
851.257	0.0049
851.4215	-0.0108
851.5859	-0.024
851.7503	0.0534
851.9147	-0.0149
852.0791	-0.0867
852.2434	-0.0244
852.4078	0.0656
852.5721	0.0713
852.7364	-0.0357
852.9007	-0.2007
853.0649	-0.0921
853.2291	0.0666
853.3934	-0.0074
853.5575	-0.0251
853.7217	-0.0901
853.8859	-0.1926
854.05	-0.1139
854.2141	0.0459
854.3782	-0.09
854.5423	-0.1141
854.7063	0.1125
854.8703	-0.0575
855.0343	-0.0987
855.1983	-0.2423
855.3623	0.0629
855.5262	0.0076
855.6901	-0.1192
855.854	-0.0914
856.0179	0.0847
856.1818	0.0294
856.3456	-0.0518
856.5094	-0.1764
856.6732	-0.13
856.837	-0.0804
857.0008	-0.0007
857.1645	-0.0548
857.3282	-0.033
857.4919	0.0154
857.6556	0.0418
857.8192	0.1193
857.9828	0.0137
858.1465	0.0399
858.31	0.1246
858.4736	-0.072
858.6372	-0.1087
858.8007	-0.2832
858.9642	-0.0526
859.1277	-0.0908
859.2911	0.1022
859.4546	-0.1261
859.618	-0.4489
859.7814	0.127
859.9448	0.0166
860.1081	0.0315
860.2715	0.0999
860.4348	-0.0778
860.5981	-0.0824
860.7614	0.1825
860.9246	-0.3692
861.0879	-0.188
861.2511	-0.0582
861.4143	-0.2686
861.5774	-0.0631
861.7406	-0.1976
861.9037	-0.0166
862.0668	-0.1072
862.2299	-0.3049
862.393	-0.6455
862.556	-0.1105
862.7191	0.073
862.8821	-0.3287
863.0451	0.1395
863.208	0.0663
863.371	0.0079
863.5339	0.0709
863.6968	-0.1055
863.8597	0.5241
864.0225	-0.22
864.1854	-0.2333
864.3482	0.4643
864.511	0.0498
864.6737	0.1181
864.8365	0.4765
864.9992	-0.3266
865.1619	-0.0535
865.3246	-0.287
865.4873	-0.1281
865.65	-0.2353
865.8126	-0.2241
865.9752	0.0688
866.1378	-0.0692
866.3004	0.9601
866.4629	0.1461
866.6254	-0.3403
866.7879	-0.0211
866.9504	-0.4503
867.1129	-0
867.2753	-0.0287
867.4377	0.1636
867.6001	-0.251
867.7625	-0.0479
867.9249	-0.6247
868.0872	-0.1828
868.2495	-0.0305
868.4118	-0.4767
868.5741	-0.8255
868.7363	-0.5009
868.8986	-0
869.0608	-0.3054
869.223	0.2737
869.3851	-0
869.5473	-0
869.7094	0.1917
869.8715	-0.4993
870.0336	-0
870.1957	-0.542
870.3577	-0.7614
870.5197	-0.1828
870.6817	-0.3503
870.8437	-0.1422
871.0057	-0.1139
871.1676	-0.61
871.3295	-0.5497
871.4914	-0
871.6533	-0.549
871.8151	-0.0323
871.977	-0
872.1388	-0
872.3006	-0
872.4623	-0
872.6241	0.6514
872.7858	0.0694
872.9475	-0.1643
873.1092	-0.25
873.2709	-0
873.4325	-0
873.5941	-0.374
873.7557	-0
873.9173	-0
874.0789	-0.3572
874.2404	-0
874.4019	0.6591
874.5634	0.3456
874.7249	-0.2476
874.8863	-0.2359
875.0478	-0.2846
875.2092	-0
875.3706	0.2232
875.5319	-0.7976
875.6933	0.4787
875.8546	-0.4532
876.0159	-0
876.1772	-0
876.3385	-0
876.4997	0.0857
876.6609	-0.5612
876.8221	-0
876.9833	-0
877.1445	-0
877.3056	-0.0723
877.4667	-0.2339
877.6278	0.1182
877.7889	-0.3685
877.9499	-0
878.111	-0.836
878.272	-1.0503
878.433	-0
878.5939	-0
878.7549	-0.2705
878.9158	-0.5968
879.0767	-0
879.2376	0.6424
879.3984	-0.2236
879.5593	-0
879.7201	-0.1528
879.8809	-0.6305
880.0417	-0.1697
880.2024	-0.0604
880.3632	0.1845
880.5239	0.1732
880.6846	-0
880.8452	-2.5521
881.0059	-0
881.1665	0.0413
881.3271	-0
881.4877	-0
881.6483	-0.3024
881.8088	0.0375
881.9693	0.0946
882.1298	0.0946
882.2903	0.0946
