Data from MonoPyChalIsomerACN10uM440nmA_Absorbance_15-27-18-094.txt Node
Date: Fri Jul 05 15:27:18 BST 2024
User: LASERRRRR
Spectrometer: FLMT03099
Trigger mode: 0
Integration Time (sec): 1.000000E-1
Scans to average: 1
Electric dark correction enabled: true
Nonlinearity correction enabled: false
Boxcar width: 0
XAxis mode: Wavelengths
Number of Pixels in Spectrum: 3648
>>>>>Begin Spectral Data<<<<<
179.3399	-0.3629
179.5586	-0.3629
179.7771	-0.3629
179.9957	0.1612
180.2143	-0
180.4329	-0.0211
180.6514	0.4159
180.8699	-0
181.0885	0.2056
181.307	-0.0154
181.5255	-0.033
181.744	-0.2292
181.9625	-0
182.181	-0.9524
182.3994	0.698
182.6179	0.7874
182.8363	-0.11
183.0547	0.2769
183.2732	-0.0537
183.4916	0.2406
183.71	0.1571
183.9284	0.1175
184.1467	-0.0425
184.3651	0.0084
184.5835	-0.01
184.8018	0.0341
185.0201	0.1025
185.2385	0.0586
185.4568	0.1423
185.6751	-0.0014
185.8934	0.18
186.1117	0.1438
186.3299	-0.0222
186.5482	0.2936
186.7664	-0.1555
186.9847	0.0034
187.2029	0.219
187.4211	0.1062
187.6393	0.187
187.8575	-0.0132
188.0757	0.1375
188.2939	0.1013
188.512	-0.1495
188.7302	-0.086
188.9483	0.0822
189.1665	0.2475
189.3846	-0.1331
189.6027	0.0275
189.8208	0.3592
190.0389	0.1895
190.257	0.0562
190.475	0.0982
190.6931	0.2169
190.9111	0.5389
191.1292	0.2429
191.3472	0.6402
191.5652	0.2693
191.7832	0.6913
192.0012	0.3543
192.2192	0.4701
192.4371	0.5336
192.6551	0.4227
192.873	0.3894
193.091	0.4008
193.3089	0.6907
193.5268	0.487
193.7447	0.6154
193.9626	0.5297
194.1805	0.5337
194.3984	0.7261
194.6162	0.6702
194.8341	0.5123
195.0519	0.5482
195.2697	0.8467
195.4875	1.0385
195.7054	0.6714
195.9231	0.7276
196.1409	0.575
196.3587	0.68
196.5765	0.5497
196.7942	0.581
197.012	0.5962
197.2297	0.5861
197.4474	0.7778
197.6651	0.5734
197.8828	0.4848
198.1005	0.8206
198.3182	0.812
198.5358	0.8891
198.7535	0.5894
198.9711	0.576
199.1888	0.5356
199.4064	1.0178
199.624	0.7534
199.8416	0.6244
200.0592	0.5924
200.2767	0.6929
200.4943	0.6662
200.7119	0.7193
200.9294	0.7128
201.1469	0.5593
201.3645	0.6237
201.582	0.7041
201.7995	0.5731
202.017	0.6672
202.2344	0.5789
202.4519	0.74
202.6694	0.7074
202.8868	0.6273
203.1042	0.6534
203.3217	0.7105
203.5391	0.6769
203.7565	0.5698
203.9739	0.6468
204.1913	0.5961
204.4086	0.6447
204.626	0.699
204.8433	0.6479
205.0607	0.6252
205.278	0.6927
205.4953	0.6519
205.7126	0.6591
205.9299	0.733
206.1472	0.7464
206.3644	0.684
206.5817	0.738
206.7989	0.6661
207.0162	0.6759
207.2334	0.7496
207.4506	0.7201
207.6678	0.6469
207.885	0.6527
208.1022	0.7528
208.3194	0.6592
208.5365	0.6753
208.7537	0.6629
208.9708	0.6081
209.1879	0.6542
209.405	0.6569
209.6222	0.7374
209.8392	0.7393
210.0563	0.6317
210.2734	0.6862
210.4905	0.6487
210.7075	0.629
210.9245	0.6004
211.1416	0.7067
211.3586	0.6541
211.5756	0.5832
211.7926	0.6153
212.0096	0.6615
212.2265	0.5641
212.4435	0.6096
212.6604	0.5997
212.8774	0.6005
213.0943	0.6207
213.3112	0.5574
213.5281	0.566
213.745	0.511
213.9619	0.5681
214.1788	0.4704
214.3956	0.4438
214.6125	0.4761
214.8293	0.4748
215.0461	0.5235
215.2629	0.4944
215.4798	0.4675
215.6965	0.4078
215.9133	0.4311
216.1301	0.4026
216.3469	0.428
216.5636	0.429
216.7803	0.4189
216.9971	0.4136
217.2138	0.3569
217.4305	0.398
217.6472	0.3662
217.8639	0.3731
218.0805	0.3595
218.2972	0.3137
218.5138	0.3358
218.7305	0.3139
218.9471	0.2892
219.1637	0.2725
219.3803	0.2948
219.5969	0.2738
219.8135	0.2508
220.0301	0.2498
220.2466	0.2606
220.4632	0.2457
220.6797	0.2408
220.8962	0.2263
221.1127	0.2533
221.3292	0.2553
221.5457	0.2397
221.7622	0.2475
221.9787	0.2284
222.1951	0.2272
222.4116	0.2536
222.628	0.2456
222.8444	0.2486
223.0608	0.2562
223.2772	0.2427
223.4936	0.2535
223.71	0.2287
223.9264	0.2647
224.1427	0.2541
224.3591	0.2352
224.5754	0.2766
224.7917	0.2697
225.008	0.266
225.2243	0.2394
225.4406	0.2864
225.6569	0.2533
225.8732	0.2646
226.0894	0.2624
226.3057	0.2642
226.5219	0.2772
226.7381	0.266
226.9543	0.2891
227.1705	0.2854
227.3867	0.2862
227.6029	0.2828
227.8191	0.2761
228.0352	0.2967
228.2513	0.3125
228.4675	0.3044
228.6836	0.2983
228.8997	0.2956
229.1158	0.3061
229.3319	0.3047
229.548	0.3107
229.764	0.3207
229.9801	0.3011
230.1961	0.3302
230.4121	0.3219
230.6282	0.3424
230.8442	0.3079
231.0602	0.3248
231.2761	0.3401
231.4921	0.3257
231.7081	0.3592
231.924	0.3501
232.14	0.355
232.3559	0.3297
232.5718	0.3596
232.7877	0.3495
233.0036	0.3405
233.2195	0.3419
233.4353	0.3738
233.6512	0.3808
233.867	0.3682
234.0829	0.37
234.2987	0.3689
234.5145	0.3695
234.7303	0.3821
234.9461	0.3916
235.1619	0.3609
235.3776	0.3758
235.5934	0.3818
235.8091	0.3476
236.0249	0.354
236.2406	0.3777
236.4563	0.3598
236.672	0.3886
236.8877	0.3874
237.1034	0.3991
237.319	0.3859
237.5347	0.4018
237.7503	0.3956
237.966	0.3902
238.1816	0.4106
238.3972	0.4042
238.6128	0.4165
238.8284	0.4078
239.0439	0.4147
239.2595	0.4086
239.475	0.4022
239.6906	0.4185
239.9061	0.3946
240.1216	0.4072
240.3371	0.4145
240.5526	0.3978
240.7681	0.3964
240.9836	0.3873
241.199	0.3956
241.4145	0.388
241.6299	0.3958
241.8453	0.3833
242.0607	0.3741
242.2761	0.3716
242.4915	0.3703
242.7069	0.3639
242.9223	0.3681
243.1376	0.354
243.353	0.3517
243.5683	0.3489
243.7836	0.3266
243.9989	0.3554
244.2142	0.3249
244.4295	0.322
244.6448	0.3137
244.86	0.28
245.0753	0.2994
245.2905	0.2922
245.5057	0.2883
245.721	0.2888
245.9362	0.2774
246.1514	0.282
246.3665	0.2563
246.5817	0.2577
246.7969	0.2528
247.012	0.2546
247.2271	0.246
247.4423	0.2654
247.6574	0.2567
247.8725	0.2411
248.0876	0.233
248.3026	0.2242
248.5177	0.2226
248.7328	0.2164
248.9478	0.216
249.1628	0.2217
249.3779	0.2134
249.5929	0.2104
249.8079	0.2129
250.0228	0.1845
250.2378	0.2062
250.4528	0.1977
250.6677	0.1834
250.8827	0.1961
251.0976	0.1936
251.3125	0.202
251.5274	0.1794
251.7423	0.1857
251.9572	0.207
252.172	0.1796
252.3869	0.1806
252.6017	0.1795
252.8166	0.1672
253.0314	0.165
253.2462	0.1589
253.461	0.1747
253.6758	0.1598
253.8906	0.1719
254.1053	0.1805
254.3201	0.1752
254.5348	0.1826
254.7496	0.1842
254.9643	0.1691
255.179	0.1599
255.3937	0.1603
255.6083	0.1726
255.823	0.1748
256.0377	0.1648
256.2523	0.1746
256.467	0.149
256.6816	0.1827
256.8962	0.1666
257.1108	0.1556
257.3254	0.1691
257.54	0.1652
257.7545	0.1646
257.9691	0.1703
258.1836	0.1706
258.3981	0.169
258.6127	0.1673
258.8272	0.1683
259.0417	0.1681
259.2561	0.1674
259.4706	0.1659
259.6851	0.1695
259.8995	0.1625
260.114	0.1605
260.3284	0.1663
260.5428	0.1591
260.7572	0.1692
260.9716	0.1642
261.186	0.1589
261.4003	0.1524
261.6147	0.1713
261.829	0.1647
262.0433	0.1626
262.2577	0.1596
262.472	0.1606
262.6863	0.1634
262.9005	0.1575
263.1148	0.1655
263.3291	0.1438
263.5433	0.1597
263.7576	0.1719
263.9718	0.1696
264.186	0.148
264.4002	0.1544
264.6144	0.1612
264.8286	0.1762
265.0427	0.1517
265.2569	0.151
265.471	0.1631
265.6851	0.1608
265.8993	0.1496
266.1134	0.1615
266.3275	0.1614
266.5415	0.1531
266.7556	0.1746
266.9697	0.1612
267.1837	0.1608
267.3978	0.1673
267.6118	0.1701
267.8258	0.1826
268.0398	0.1564
268.2538	0.1712
268.4677	0.167
268.6817	0.1514
268.8957	0.1672
269.1096	0.1705
269.3235	0.1581
269.5374	0.1545
269.7514	0.1602
269.9652	0.1602
270.1791	0.1533
270.393	0.1493
270.6068	0.1562
270.8207	0.147
271.0345	0.1515
271.2483	0.1487
271.4622	0.149
271.676	0.1534
271.8897	0.1507
272.1035	0.1509
272.3173	0.1472
272.531	0.1487
272.7448	0.163
272.9585	0.1482
273.1722	0.1604
273.3859	0.1557
273.5996	0.1382
273.8133	0.1513
274.0269	0.1436
274.2406	0.1457
274.4542	0.1508
274.6679	0.1446
274.8815	0.1462
275.0951	0.1605
275.3087	0.1464
275.5223	0.1484
275.7358	0.1606
275.9494	0.1617
276.1629	0.1362
276.3765	0.1491
276.59	0.1509
276.8035	0.1553
277.017	0.1467
277.2305	0.1427
277.444	0.1539
277.6574	0.1436
277.8709	0.16
278.0843	0.1485
278.2978	0.1502
278.5112	0.1566
278.7246	0.1458
278.938	0.1545
279.1513	0.1528
279.3647	0.1677
279.5781	0.1472
279.7914	0.157
280.0047	0.1596
280.2181	0.1497
280.4314	0.161
280.6447	0.1546
280.8579	0.1526
281.0712	0.1677
281.2845	0.1694
281.4977	0.1631
281.711	0.1592
281.9242	0.1589
282.1374	0.1553
282.3506	0.1537
282.5638	0.159
282.7769	0.1609
282.9901	0.1564
283.2033	0.1624
283.4164	0.1518
283.6295	0.1533
283.8426	0.1582
284.0557	0.1549
284.2688	0.1692
284.4819	0.1663
284.695	0.1646
284.908	0.1632
285.1211	0.1574
285.3341	0.1601
285.5471	0.1654
285.7601	0.1615
285.9731	0.1496
286.1861	0.1591
286.3991	0.1541
286.612	0.1674
286.825	0.1628
287.0379	0.1641
287.2508	0.1548
287.4637	0.1679
287.6766	0.1538
287.8895	0.1651
288.1024	0.1883
288.3152	0.1614
288.5281	0.1589
288.7409	0.1667
288.9538	0.1552
289.1666	0.1532
289.3794	0.1504
289.5922	0.139
289.8049	0.1547
290.0177	0.1539
290.2304	0.1655
290.4432	0.1646
290.6559	0.1557
290.8686	0.1676
291.0813	0.1528
291.294	0.1595
291.5067	0.1725
291.7194	0.1545
291.932	0.1772
292.1447	0.1536
292.3573	0.1474
292.5699	0.1591
292.7825	0.1625
292.9951	0.1545
293.2077	0.159
293.4203	0.1609
293.6328	0.1427
293.8454	0.1581
294.0579	0.1575
294.2704	0.1545
294.4829	0.1471
294.6954	0.1634
294.9079	0.1485
295.1204	0.1518
295.3328	0.1582
295.5453	0.166
295.7577	0.1569
295.9701	0.1449
296.1825	0.1695
296.3949	0.1593
296.6073	0.1546
296.8197	0.1538
297.0321	0.1717
297.2444	0.1436
297.4567	0.1597
297.6691	0.1475
297.8814	0.1447
298.0937	0.1531
298.306	0.161
298.5182	0.1445
298.7305	0.1586
298.9428	0.1513
299.155	0.1639
299.3672	0.1471
299.5794	0.1545
299.7916	0.1535
300.0038	0.1523
300.216	0.1663
300.4282	0.1599
300.6403	0.1499
300.8525	0.1623
301.0646	0.1466
301.2767	0.1587
301.4888	0.1618
301.7009	0.1509
301.913	0.1573
302.125	0.1639
302.3371	0.1545
302.5491	0.153
302.7612	0.1526
302.9732	0.1592
303.1852	0.1592
303.3972	0.1544
303.6092	0.1573
303.8211	0.1377
304.0331	0.1467
304.245	0.1422
304.457	0.1391
304.6689	0.1481
304.8808	0.1591
305.0927	0.1417
305.3046	0.142
305.5164	0.145
305.7283	0.1369
305.9401	0.1538
306.152	0.1387
306.3638	0.1518
306.5756	0.1348
306.7874	0.1429
306.9992	0.1405
307.2109	0.1378
307.4227	0.1215
307.6344	0.1457
307.8462	0.1296
308.0579	0.1314
308.2696	0.1365
308.4813	0.125
308.693	0.1366
308.9046	0.1344
309.1163	0.1284
309.328	0.1254
309.5396	0.1163
309.7512	0.1316
309.9628	0.1194
310.1744	0.1145
310.386	0.1181
310.5976	0.1159
310.8091	0.1263
311.0207	0.1149
311.2322	0.1201
311.4437	0.1148
311.6552	0.1095
311.8667	0.1163
312.0782	0.1029
312.2897	0.1041
312.5012	0.1073
312.7126	0.1018
312.924	0.099
313.1355	0.113
313.3469	0.1116
313.5583	0.1065
313.7696	0.1109
313.981	0.1051
314.1924	0.108
314.4037	0.1059
314.6151	0.1055
314.8264	0.0965
315.0377	0.0923
315.249	0.0997
315.4603	0.1189
315.6716	0.0987
315.8828	0.1019
316.0941	0.1127
316.3053	0.0999
316.5165	0.1015
316.7277	0.0846
316.9389	0.1042
317.1501	0.1016
317.3613	0.1017
317.5724	0.0882
317.7836	0.1149
317.9947	0.0902
318.2058	0.0978
318.417	0.0939
318.6281	0.0848
318.8391	0.0952
319.0502	0.1005
319.2613	0.1009
319.4723	0.1004
319.6834	0.1046
319.8944	0.0986
320.1054	0.0976
320.3164	0.1049
320.5274	0.097
320.7383	0.0899
320.9493	0.0909
321.1602	0.1079
321.3712	0.0944
321.5821	0.1093
321.793	0.106
322.0039	0.1087
322.2148	0.1008
322.4257	0.1061
322.6365	0.1208
322.8474	0.0999
323.0582	0.0969
323.269	0.1062
323.4798	0.1095
323.6906	0.1131
323.9014	0.1041
324.1122	0.1031
324.3229	0.1072
324.5337	0.1063
324.7444	0.0968
324.9551	0.1121
325.1658	0.1109
325.3765	0.1059
325.5872	0.1081
325.7979	0.1105
326.0085	0.1032
326.2192	0.1164
326.4298	0.1145
326.6404	0.0941
326.851	0.0998
327.0616	0.0974
327.2722	0.1169
327.4828	0.1027
327.6933	0.1044
327.9039	0.1095
328.1144	0.1194
328.3249	0.1159
328.5354	0.1069
328.7459	0.113
328.9564	0.1042
329.1669	0.1137
329.3773	0.1053
329.5878	0.1062
329.7982	0.1131
330.0086	0.1068
330.219	0.1098
330.4294	0.1042
330.6398	0.1107
330.8502	0.1121
331.0605	0.1133
331.2708	0.1087
331.4812	0.1189
331.6915	0.1141
331.9018	0.1093
332.1121	0.1033
332.3224	0.1212
332.5326	0.1219
332.7429	0.1143
332.9531	0.1186
333.1633	0.1144
333.3735	0.1063
333.5837	0.1112
333.7939	0.1005
334.0041	0.1253
334.2143	0.1134
334.4244	0.1142
334.6346	0.0931
334.8447	0.1168
335.0548	0.1004
335.2649	0.102
335.475	0.1101
335.685	0.1117
335.8951	0.1214
336.1051	0.1177
336.3152	0.1147
336.5252	0.1095
336.7352	0.1093
336.9452	0.1261
337.1552	0.1128
337.3652	0.109
337.5751	0.1136
337.7851	0.1212
337.995	0.1099
338.2049	0.1267
338.4148	0.1269
338.6247	0.1258
338.8346	0.1133
339.0445	0.1073
339.2543	0.1095
339.4642	0.1162
339.674	0.105
339.8838	0.1161
340.0936	0.1139
340.3034	0.1342
340.5132	0.1189
340.7229	0.1179
340.9327	0.1201
341.1424	0.126
341.3522	0.1328
341.5619	0.1288
341.7716	0.1237
341.9813	0.1281
342.1909	0.1248
342.4006	0.1142
342.6102	0.1355
342.8199	0.1364
343.0295	0.1293
343.2391	0.1331
343.4487	0.1356
343.6583	0.1271
343.8679	0.1414
344.0774	0.1258
344.287	0.1453
344.4965	0.1274
344.706	0.1182
344.9155	0.1367
345.125	0.1366
345.3345	0.1339
345.544	0.1245
345.7534	0.1292
345.9629	0.1268
346.1723	0.1268
346.3817	0.1134
346.5911	0.1345
346.8005	0.1282
347.0099	0.1338
347.2193	0.1275
347.4286	0.1349
347.638	0.1368
347.8473	0.1366
348.0566	0.1431
348.2659	0.1418
348.4752	0.1368
348.6845	0.1367
348.8937	0.1344
349.103	0.1554
349.3122	0.1288
349.5214	0.1326
349.7306	0.1354
349.9398	0.1511
350.149	0.1371
350.3582	0.1398
350.5674	0.1579
350.7765	0.1418
350.9856	0.1397
351.1948	0.1384
351.4039	0.1344
351.613	0.1385
351.822	0.1471
352.0311	0.1505
352.2402	0.1517
352.4492	0.1526
352.6582	0.1513
352.8672	0.1463
353.0762	0.1424
353.2852	0.1449
353.4942	0.1319
353.7032	0.15
353.9121	0.1495
354.1211	0.1464
354.33	0.1559
354.5389	0.158
354.7478	0.1608
354.9567	0.1551
355.1655	0.1358
355.3744	0.1481
355.5833	0.1596
355.7921	0.1691
356.0009	0.1493
356.2097	0.1663
356.4185	0.1654
356.6273	0.166
356.8361	0.1634
357.0448	0.1558
357.2536	0.1438
357.4623	0.155
357.671	0.1649
357.8797	0.1596
358.0884	0.1547
358.2971	0.1571
358.5057	0.1463
358.7144	0.1627
358.923	0.1677
359.1316	0.1803
359.3402	0.1676
359.5488	0.1652
359.7574	0.1617
359.966	0.1688
360.1746	0.1693
360.3831	0.1716
360.5916	0.1666
360.8002	0.1658
361.0087	0.1899
361.2172	0.1895
361.4256	0.1655
361.6341	0.189
361.8426	0.1882
362.051	0.174
362.2594	0.1836
362.4678	0.1686
362.6762	0.1997
362.8846	0.196
363.093	0.1935
363.3014	0.1799
363.5097	0.1757
363.718	0.1754
363.9264	0.1953
364.1347	0.1797
364.343	0.1854
364.5513	0.2007
364.7595	0.1984
364.9678	0.2006
365.176	0.1862
365.3842	0.1858
365.5925	0.1964
365.8007	0.1919
366.0089	0.1943
366.217	0.198
366.4252	0.1958
366.6333	0.1994
366.8415	0.1916
367.0496	0.1965
367.2577	0.1918
367.4658	0.1937
367.6739	0.2044
367.882	0.2051
368.09	0.18
368.2981	0.2032
368.5061	0.1877
368.7141	0.2137
368.9221	0.208
369.1301	0.1967
369.3381	0.2006
369.5461	0.2066
369.754	0.2182
369.962	0.2121
370.1699	0.2074
370.3778	0.2083
370.5857	0.1999
370.7936	0.2013
371.0015	0.2022
371.2093	0.2185
371.4172	0.2177
371.625	0.198
371.8328	0.2043
372.0406	0.2209
372.2484	0.2001
372.4562	0.2269
372.664	0.2007
372.8717	0.2231
373.0795	0.1876
373.2872	0.225
373.4949	0.1943
373.7026	0.2142
373.9103	0.2168
374.118	0.2199
374.3256	0.218
374.5333	0.2076
374.7409	0.202
374.9485	0.224
375.1561	0.2185
375.3637	0.2271
375.5713	0.229
375.7789	0.2159
375.9864	0.211
376.194	0.2007
376.4015	0.2312
376.609	0.232
376.8165	0.2227
377.024	0.2082
377.2315	0.2168
377.4389	0.2274
377.6464	0.2269
377.8538	0.2231
378.0612	0.2193
378.2686	0.2144
378.476	0.2375
378.6834	0.2231
378.8908	0.2336
379.0981	0.2469
379.3055	0.2256
379.5128	0.2216
379.7201	0.2267
379.9274	0.2258
380.1347	0.2445
380.342	0.2432
380.5492	0.2332
380.7565	0.2411
380.9637	0.2213
381.1709	0.2307
381.3781	0.2355
381.5853	0.237
381.7925	0.2295
381.9997	0.243
382.2068	0.2563
382.4139	0.252
382.6211	0.2215
382.8282	0.225
383.0353	0.2359
383.2424	0.2385
383.4494	0.2435
383.6565	0.2494
383.8635	0.2385
384.0706	0.2428
384.2776	0.2426
384.4846	0.2314
384.6916	0.2347
384.8986	0.235
385.1055	0.2333
385.3125	0.2406
385.5194	0.2282
385.7263	0.2397
385.9333	0.2304
386.1402	0.2215
386.347	0.2356
386.5539	0.234
386.7608	0.2443
386.9676	0.2216
387.1744	0.2343
387.3813	0.2303
387.5881	0.2375
387.7948	0.2272
388.0016	0.2083
388.2084	0.2358
388.4151	0.2202
388.6219	0.2248
388.8286	0.2326
389.0353	0.2333
389.242	0.249
389.4487	0.2321
389.6553	0.2128
389.862	0.2097
390.0686	0.2151
390.2753	0.2291
390.4819	0.2265
390.6885	0.2192
390.8951	0.2364
391.1016	0.2158
391.3082	0.2219
391.5147	0.2282
391.7213	0.2005
391.9278	0.202
392.1343	0.214
392.3408	0.2155
392.5473	0.2163
392.7537	0.2067
392.9602	0.2131
393.1666	0.1999
393.373	0.2348
393.5794	0.2223
393.7858	0.2213
393.9922	0.1889
394.1986	0.2186
394.4049	0.2029
394.6113	0.1884
394.8176	0.2046
395.0239	0.2101
395.2302	0.2006
395.4365	0.2105
395.6428	0.2095
395.8491	0.1839
396.0553	0.1993
396.2615	0.1975
396.4678	0.1981
396.674	0.1898
396.8802	0.194
397.0863	0.2073
397.2925	0.1882
397.4987	0.2038
397.7048	0.1897
397.9109	0.1942
398.117	0.1969
398.3231	0.1911
398.5292	0.2112
398.7353	0.203
398.9413	0.1783
399.1474	0.2037
399.3534	0.1846
399.5594	0.1857
399.7654	0.2021
399.9714	0.2035
400.1774	0.1961
400.3833	0.1893
400.5893	0.1926
400.7952	0.2041
401.0011	0.1931
401.207	0.2115
401.4129	0.1953
401.6188	0.2039
401.8247	0.2089
402.0305	0.173
402.2364	0.1853
402.4422	0.2106
402.648	0.1911
402.8538	0.2074
403.0596	0.1844
403.2654	0.1959
403.4711	0.1824
403.6768	0.2081
403.8826	0.2002
404.0883	0.2065
404.294	0.1903
404.4997	0.1955
404.7054	0.1976
404.911	0.1772
405.1167	0.1887
405.3223	0.1903
405.5279	0.1992
405.7335	0.203
405.9391	0.2037
406.1447	0.2002
406.3502	0.2064
406.5558	0.1841
406.7613	0.1918
406.9668	0.1881
407.1724	0.1834
407.3778	0.1912
407.5833	0.1942
407.7888	0.168
407.9942	0.1976
408.1997	0.1781
408.4051	0.193
408.6105	0.1984
408.8159	0.1915
409.0213	0.1911
409.2267	0.2034
409.432	0.1901
409.6374	0.2125
409.8427	0.1864
410.048	0.1996
410.2533	0.1911
410.4586	0.196
410.6639	0.1868
410.8691	0.1873
411.0744	0.1773
411.2796	0.1698
411.4848	0.1964
411.69	0.1782
411.8952	0.2038
412.1004	0.1824
412.3056	0.2093
412.5107	0.1868
412.7158	0.1984
412.921	0.192
413.1261	0.1845
413.3312	0.1765
413.5362	0.1949
413.7413	0.1773
413.9464	0.1733
414.1514	0.1923
414.3564	0.1918
414.5614	0.1716
414.7664	0.1842
414.9714	0.1959
415.1764	0.1875
415.3813	0.1926
415.5863	0.1792
415.7912	0.1906
415.9961	0.1901
416.201	0.1719
416.4059	0.1719
416.6108	0.1673
416.8156	0.1959
417.0205	0.1673
417.2253	0.1698
417.4301	0.1817
417.6349	0.1711
417.8397	0.1854
418.0445	0.1807
418.2492	0.1787
418.454	0.1774
418.6587	0.1763
418.8634	0.184
419.0681	0.1791
419.2728	0.1794
419.4775	0.1763
419.6822	0.1802
419.8868	0.1753
420.0915	0.1632
420.2961	0.1726
420.5007	0.1649
420.7053	0.16
420.9099	0.1765
421.1144	0.1867
421.319	0.1592
421.5235	0.167
421.728	0.1771
421.9325	0.1656
422.137	0.184
422.3415	0.1626
422.546	0.1661
422.7504	0.1904
422.9549	0.1739
423.1593	0.1671
423.3637	0.1636
423.5681	0.1751
423.7725	0.1527
423.9769	0.1491
424.1812	0.1545
424.3856	0.162
424.5899	0.1532
424.7942	0.1572
424.9985	0.1659
425.2028	0.1559
425.4071	0.1857
425.6113	0.1452
425.8156	0.1389
426.0198	0.1566
426.224	0.1381
426.4282	0.1583
426.6324	0.1524
426.8366	0.1353
427.0407	0.1472
427.2449	0.1288
427.449	0.1519
427.6531	0.1368
427.8572	0.1489
428.0613	0.1384
428.2654	0.1528
428.4694	0.1424
428.6735	0.1529
428.8775	0.1493
429.0815	0.167
429.2855	0.1429
429.4895	0.1358
429.6935	0.1462
429.8975	0.1383
430.1014	0.118
430.3053	0.1189
430.5093	0.1225
430.7132	0.1179
430.9171	0.1146
431.1209	0.1316
431.3248	0.1279
431.5286	0.1416
431.7325	0.1317
431.9363	0.1355
432.1401	0.1254
432.3439	0.1213
432.5477	0.0926
432.7514	0.1023
432.9552	0.1101
433.1589	0.1071
433.3627	0.1017
433.5664	0.0984
433.7701	0.112
433.9737	0.0949
434.1774	0.0971
434.3811	0.1055
434.5847	0.1126
434.7883	0.089
434.9919	0.1061
435.1955	0.1137
435.3991	0.1083
435.6027	0.0952
435.8062	0.0825
436.0098	0.0869
436.2133	0.0859
436.4168	0.0914
436.6203	0.0785
436.8238	0.1023
437.0272	0.0882
437.2307	0.0882
437.4341	0.0923
437.6375	0.0949
437.841	0.0704
438.0443	0.0909
438.2477	0.0889
438.4511	0.0761
438.6545	0.0774
438.8578	0.0785
439.0611	0.0732
439.2644	0.0542
439.4677	0.0677
439.671	0.067
439.8743	0.0741
440.0775	0.0769
440.2808	0.0831
440.484	0.0651
440.6872	0.0504
440.8904	0.0626
441.0936	0.083
441.2967	0.0522
441.4999	0.0743
441.703	0.0545
441.9062	0.0669
442.1093	0.0676
442.3124	0.0571
442.5155	0.0582
442.7185	0.059
442.9216	0.0496
443.1246	0.0528
443.3276	0.059
443.5307	0.0509
443.7337	0.0515
443.9366	0.0536
444.1396	0.0555
444.3426	0.0469
444.5455	0.0447
444.7484	0.0323
444.9513	0.0369
445.1542	0.056
445.3571	0.0419
445.56	0.0469
445.7628	0.0353
445.9657	0.04
446.1685	0.0484
446.3713	0.0412
446.5741	0.0662
446.7769	0.0374
446.9797	0.0463
447.1824	0.0399
447.3852	0.0317
447.5879	0.0345
447.7906	0.0449
447.9933	0.0276
448.196	0.0339
448.3986	0.0324
448.6013	0.0321
448.8039	0.0194
449.0066	0.0263
449.2092	0.0317
449.4118	0.0304
449.6143	0.0407
449.8169	0.0379
450.0195	0.0232
450.222	0.0073
450.4245	0.0151
450.627	0.0394
450.8295	0.0116
451.032	0.0141
451.2345	0.027
451.4369	0.033
451.6394	0.0307
451.8418	-0.0044
452.0442	0.0337
452.2466	0.0256
452.449	0.0207
452.6513	0.0334
452.8537	0.0179
453.056	0.0093
453.2583	0.0148
453.4607	0.0085
453.663	0.0082
453.8652	0.0369
454.0675	0.0142
454.2697	0.0254
454.472	0.01
454.6742	0.0167
454.8764	0.0175
455.0786	0.0182
455.2808	0.0161
455.4829	0.0225
455.6851	0.0259
455.8872	0.0207
456.0893	0.0124
456.2915	0.0028
456.4935	0.0224
456.6956	0.0055
456.8977	0.0121
457.0997	0.0065
457.3018	-0.0031
457.5038	0.006
457.7058	0.0048
457.9078	-0.0037
458.1098	0.0085
458.3117	0.0056
458.5137	0.0148
458.7156	0.0189
458.9175	-0.001
459.1194	0.0119
459.3213	0.0227
459.5232	0.0009
459.725	-0.0024
459.9269	0.0023
460.1287	0.0135
460.3305	0.0076
460.5323	0.0071
460.7341	0.0069
460.9359	0.0177
461.1376	0.0068
461.3394	0.0096
461.5411	0.0076
461.7428	0.0104
461.9445	0.0119
462.1462	0.0276
462.3479	-0.0039
462.5495	0.0068
462.7512	0.0176
462.9528	-0.0032
463.1544	-0.0068
463.356	-0.0035
463.5576	0.0072
463.7592	-0.0029
463.9607	-0.001
464.1623	0.0126
464.3638	0.0229
464.5653	-0.0007
464.7668	0.0013
464.9683	0.0186
465.1697	0.0199
465.3712	-0.0005
465.5726	-0.0122
465.7741	0.0017
465.9755	-0.003
466.1769	0.0039
466.3782	0.0098
466.5796	-0.0038
466.7809	-0.0008
466.9823	-0.0062
467.1836	0.0149
467.3849	-0.001
467.5862	-0.0024
467.7875	-0.0017
467.9887	0.0146
468.19	0.0046
468.3912	-0.0178
468.5924	-0.0023
468.7936	0.0049
468.9948	-0.0013
469.196	0.0042
469.3972	-0.0217
469.5983	0.0057
469.7994	-0.024
470.0006	-0.0123
470.2017	-0.009
470.4027	0.004
470.6038	0.0045
470.8049	-0.014
471.0059	-0.0161
471.2069	-0.0218
471.408	0.0191
471.6089	-0.0109
471.8099	-0.0048
472.0109	-0.0053
472.2119	0.0006
472.4128	-0.0398
472.6137	-0.0009
472.8146	-0.019
473.0155	0.0032
473.2164	0.0001
473.4173	0.0021
473.6181	0.0097
473.819	-0.0077
474.0198	-0.0081
474.2206	0.0014
474.4214	-0.0069
474.6222	-0.0048
474.8229	-0.007
475.0237	-0.0167
475.2244	-0.0149
475.4251	-0.0027
475.6258	-0.0033
475.8265	0.0001
476.0272	0.0144
476.2278	0.0025
476.4285	0.0009
476.6291	-0.0082
476.8297	-0.0156
477.0303	-0.0033
477.2309	-0.0003
477.4315	-0.0131
477.632	0.0039
477.8326	-0.0011
478.0331	-0.0007
478.2336	0.0013
478.4341	0.004
478.6346	-0.0109
478.8351	0.0001
479.0355	-0.0029
479.236	-0.0032
479.4364	-0
479.6368	0.0077
479.8372	-0.0091
480.0376	-0.0072
480.2379	-0.0217
480.4383	-0.0084
480.6386	0.0028
480.8389	-0.0012
481.0392	-0.0077
481.2395	-0.01
481.4398	0.0081
481.6401	0.0089
481.8403	-0.0072
482.0405	-0.0135
482.2408	-0.0083
482.441	0.0137
482.6411	-0.0064
482.8413	-0.0037
483.0415	-0.0077
483.2416	-0.0081
483.4417	-0.011
483.6419	-0.0142
483.8419	-0.0036
484.042	0.0107
484.2421	0.01
484.4422	0.0067
484.6422	-0.01
484.8422	-0.0047
485.0422	-0.0034
485.2422	-0.0076
485.4422	-0.0114
485.6422	-0.0135
485.8421	-0.0006
486.042	0.0108
486.242	-0.0078
486.4419	-0.0148
486.6417	-0.0118
486.8416	-0.0055
487.0415	-0.0148
487.2413	-0.0104
487.4411	-0.0026
487.641	-0.0035
487.8408	0.0044
488.0405	-0.0079
488.2403	-0.0113
488.4401	0.0042
488.6398	-0.0035
488.8395	-0.0084
489.0392	0.0025
489.2389	0.0009
489.4386	-0.0081
489.6383	-0.0006
489.8379	0.0041
490.0376	-0.0044
490.2372	-0.0042
490.4368	-0.0166
490.6364	-0.0087
490.836	-0.0031
491.0355	0.0006
491.2351	-0.0082
491.4346	-0.0092
491.6341	-0.0157
491.8336	0.0049
492.0331	-0.0086
492.2326	-0.0084
492.432	-0.0059
492.6315	-0
492.8309	-0.0124
493.0303	-0.0123
493.2297	-0.0003
493.4291	0.0023
493.6284	-0.0105
493.8278	-0.0007
494.0271	0.0033
494.2264	0.0085
494.4257	-0.0176
494.625	-0.0032
494.8243	-0.0092
495.0236	-0.0057
495.2228	0.0009
495.422	-0.001
495.6213	0.0018
495.8205	0.0001
496.0196	-0.0039
496.2188	0.0045
496.418	-0.0064
496.6171	-0.0092
496.8162	-0
497.0153	-0.001
497.2144	-0.0037
497.4135	-0.0018
497.6126	-0.0149
497.8116	-0.0064
498.0107	0.0043
498.2097	-0.0048
498.4087	-0.0099
498.6077	0.0042
498.8067	-0.0027
499.0056	0.0133
499.2046	-0.0122
499.4035	-0.0197
499.6024	-0.0025
499.8013	-0.0054
500.0002	0.0007
500.199	0.007
500.3979	-0.0036
500.5967	-0.0117
500.7956	0.0025
500.9944	-0.0078
501.1932	-0.0089
501.3919	-0.0021
501.5907	-0.0102
501.7895	-0.0019
501.9882	-0.0103
502.1869	-0.004
502.3856	-0.0062
502.5843	-0.0023
502.783	-0.0068
502.9816	-0.0048
503.1803	-0.0101
503.3789	-0.0053
503.5775	0.0092
503.7761	-0.0114
503.9747	0.0041
504.1732	-0.0048
504.3718	-0.0005
504.5703	-0.0083
504.7689	-0.0047
504.9674	-0.004
505.1658	-0.0073
505.3643	-0.0053
505.5628	-0.002
505.7612	-0.0082
505.9597	0.0108
506.1581	-0.0168
506.3565	0.0048
506.5549	-0.0087
506.7532	-0.0131
506.9516	-0.0008
507.1499	-0.0181
507.3482	-0.0094
507.5465	-0.0047
507.7448	0.0083
507.9431	-0.0009
508.1414	0.0013
508.3396	0.005
508.5379	0.0024
508.7361	-0.0157
508.9343	-0.0009
509.1325	-0.0006
509.3306	-0.0026
509.5288	-0.0066
509.7269	-0.0171
509.9251	-0.0076
510.1232	-0.0094
510.3213	0.0029
510.5193	0.0102
510.7174	-0.015
510.9154	-0.0044
511.1135	-0.0057
511.3115	-0.0052
511.5095	0.0005
511.7075	0.006
511.9055	-0.0041
512.1034	-0.008
512.3014	-0.003
512.4993	0.0024
512.6972	-0.0091
512.8951	-0.0102
513.093	0.0042
513.2908	0.0002
513.4887	0.0043
513.6865	-0.0042
513.8844	0.001
514.0822	-0.007
514.2799	-0.0157
514.4777	-0.0054
514.6755	-0.0066
514.8732	-0.0051
515.0709	-0.0029
515.2687	-0.0034
515.4664	0.0035
515.664	0.0016
515.8617	-0.002
516.0594	-0.0068
516.257	-0.0009
516.4546	-0.0148
516.6522	-0.0022
516.8498	0.0003
517.0474	0.0092
517.2449	0.0011
517.4425	-0.0182
517.64	-0.0065
517.8375	0.0064
518.035	0.0038
518.2325	-0.0044
518.43	0.0024
518.6274	-0.0053
518.8249	-0.0143
519.0223	-0.0007
519.2197	-0.006
519.4171	0.0015
519.6145	-0.0061
519.8118	-0.0024
520.0092	0.006
520.2065	-0.0046
520.4038	-0.0053
520.6011	0.0037
520.7984	-0.0038
520.9956	-0.0048
521.1929	-0.0071
521.3901	0.0014
521.5874	-0.0067
521.7846	0.0068
521.9818	-0.0052
522.1789	-0.0034
522.3761	-0.0096
522.5732	-0.0087
522.7704	-0.0009
522.9675	0.0018
523.1646	-0.0034
523.3617	-0.0067
523.5587	0.0004
523.7558	0.0057
523.9528	-0.004
524.1498	-0.001
524.3468	-0.0107
524.5438	-0.0026
524.7408	0.0032
524.9378	0.0093
525.1347	-0.0038
525.3316	-0
525.5285	-0.0064
525.7254	0.0018
525.9223	0.0065
526.1192	0.0043
526.316	-0.0073
526.5129	0.0005
526.7097	-0.0026
526.9065	0.0018
527.1033	0.0026
527.3	0.0047
527.4968	-0.0057
527.6935	-0.0064
527.8903	-0.0035
528.087	-0.0066
528.2837	-0.0046
528.4804	-0.0037
528.677	-0.0121
528.8737	0.0073
529.0703	-0.0015
529.2669	0.0048
529.4635	-0.0027
529.6601	0.0024
529.8567	-0.0051
530.0532	-0.0035
530.2498	-0.005
530.4463	0.0112
530.6428	0.0002
530.8393	0.0068
531.0358	-0.0075
531.2322	-0.0028
531.4287	0.0018
531.6251	-0.0078
531.8215	0.0042
532.0179	0.0068
532.2143	0.0095
532.4107	-0.0026
532.607	-0.005
532.8034	0.0051
532.9997	0.003
533.196	-0.0009
533.3923	0.0009
533.5886	0.0029
533.7848	-0.0052
533.9811	-0.0029
534.1773	0.0054
534.3735	0.0081
534.5697	-0.0048
534.7659	0.0018
534.9621	-0.0021
535.1582	-0.0099
535.3544	-0.002
535.5505	-0.014
535.7466	-0.0004
535.9427	0.0027
536.1387	-0.0071
536.3348	0.0075
536.5308	-0.0017
536.7269	-0.0097
536.9229	0.0006
537.1189	0.0026
537.3148	-0.0002
537.5108	-0.0037
537.7068	0.0066
537.9027	-0.0011
538.0986	-0.0055
538.2945	0.0006
538.4904	-0.0043
538.6863	0.0001
538.8821	-0.0042
539.078	-0.0008
539.2738	0.0022
539.4696	0.0022
539.6654	0.0093
539.8611	0.0084
540.0569	-0.0067
540.2526	0.0024
540.4484	-0.0029
540.6441	0.0121
540.8398	0.0069
541.0355	0.0054
541.2311	-0.0029
541.4268	-0.0071
541.6224	0.0055
541.818	-0
542.0136	-0.006
542.2092	0.0083
542.4048	-0.0039
542.6003	0.0005
542.7959	-0.0003
542.9914	0.0049
543.1869	0.0077
543.3824	0.0036
543.5779	-0.0105
543.7734	-0.0088
543.9688	-0.0097
544.1642	0.0022
544.3596	0.0021
544.555	-0.0073
544.7504	0.0008
544.9458	-0.0071
545.1411	-0.0014
545.3365	-0.0012
545.5318	0.0093
545.7271	0.0034
545.9224	-0.0068
546.1177	0.0054
546.3129	0.0007
546.5081	-0.0112
546.7034	0.0015
546.8986	-0.0057
547.0938	-0.0025
547.289	-0.0007
547.4841	0.0066
547.6793	0.0112
547.8744	-0.0005
548.0695	0.0013
548.2646	-0.0069
548.4597	-0.0064
548.6548	0.0076
548.8498	0.0099
549.0448	0.0104
549.2399	-0.0059
549.4349	0.0018
549.6298	0.0046
549.8248	0.0083
550.0198	-0.005
550.2147	-0.0077
550.4096	-0.0027
550.6045	0.0027
550.7994	0.0063
550.9943	0.0037
551.1892	-0.0062
551.384	-0.0006
551.5788	-0.0051
551.7737	0.0017
551.9685	0.0036
552.1632	0.0068
552.358	-0.0056
552.5528	0.0034
552.7475	-0.0012
552.9422	-0.0011
553.1369	-0.0006
553.3316	-0.0024
553.5263	-0.008
553.7209	0.0089
553.9156	-0.0034
554.1102	-0.0094
554.3048	-0.0049
554.4994	0.0052
554.694	0.0002
554.8885	0.0057
555.0831	-0.0083
555.2776	-0.0078
555.4721	-0.003
555.6666	-0.0085
555.8611	0.0064
556.0555	0.0005
556.25	-0.0021
556.4444	-0.0071
556.6388	0.0027
556.8332	-0.0024
557.0276	0.0073
557.222	-0.0064
557.4163	-0.005
557.6107	-0.009
557.805	0.0069
557.9993	-0.0068
558.1936	-0.0021
558.3879	0.0002
558.5821	0.0029
558.7764	-0.0023
558.9706	0.0042
559.1648	0.0039
559.359	0.0043
559.5532	-0.0053
559.7473	-0.0105
559.9415	0.0066
560.1356	-0.005
560.3297	-0.0064
560.5238	-0.0065
560.7179	0.0071
560.9119	-0.0014
561.106	-0.0021
561.3	-0.004
561.494	0.0043
561.688	-0.0046
561.882	-0.011
562.076	-0.0063
562.2699	0.0033
562.4639	-0.0001
562.6578	0.0098
562.8517	0.0041
563.0456	0.0017
563.2395	0.0022
563.4333	-0.0048
563.6272	0.0041
563.821	-0.0029
564.0148	-0.0044
564.2086	-0.011
564.4024	-0.0067
564.5961	-0.0009
564.7899	0.0057
564.9836	-0.0012
565.1773	0.0027
565.371	0.0072
565.5647	0.0117
565.7584	-0.0011
565.952	0.0033
566.1456	-0.0026
566.3393	0.0026
566.5329	-0.0017
566.7264	0.0041
566.92	-0.0042
567.1136	-0
567.3071	-0.005
567.5006	0.0117
567.6941	0.0087
567.8876	0.0061
568.0811	-0.0068
568.2745	0.0016
568.468	0.0072
568.6614	0.003
568.8548	0.0028
569.0482	-0.0001
569.2416	0.0042
569.4349	-0.0035
569.6283	0.007
569.8216	-0.0015
570.0149	0.0042
570.2082	0.0086
570.4015	0.0087
570.5947	0.0188
570.788	0.0095
570.9812	0.0088
571.1744	0.0034
571.3676	-0.0102
571.5608	-0.0028
571.754	-0.0001
571.9471	-0.0035
572.1402	-0.003
572.3333	0.0006
572.5264	0.0004
572.7195	0.0042
572.9126	0.0112
573.1057	-0.001
573.2987	0.0056
573.4917	0.007
573.6847	-0.0089
573.8777	0.0098
574.0707	0.0094
574.2636	-0.0047
574.4566	0.0029
574.6495	0.0071
574.8424	-0.0003
575.0353	0.0018
575.2281	0.0069
575.421	0.0026
575.6138	0.0055
575.8067	-0.0006
575.9995	-0.0019
576.1923	0.0041
576.385	0.0038
576.5778	-0.0027
576.7706	-0.0022
576.9633	0.0014
577.156	0.0017
577.3487	-0.0005
577.5414	-0.0028
577.734	-0.0025
577.9267	0.0021
578.1193	-0.0053
578.3119	-0.0049
578.5045	0.0015
578.6971	-0
578.8897	0.0081
579.0822	-0.0033
579.2747	-0.0028
579.4673	0.0026
579.6598	-0.0007
579.8522	-0.0013
580.0447	-0.0038
580.2372	0.0001
580.4296	0.0064
580.622	-0.0047
580.8144	0.0009
581.0068	-0.0072
581.1992	-0.0097
581.3915	-0.0083
581.5839	-0.0043
581.7762	-0.0022
581.9685	-0.0015
582.1608	0.0042
582.353	-0.0027
582.5453	-0.0011
582.7375	0.0041
582.9298	0.0036
583.122	0.0022
583.3142	-0.0011
583.5063	0.0044
583.6985	0.0026
583.8906	0.0059
584.0827	0.0014
584.2749	0.0041
584.4669	0.0008
584.659	0.0005
584.8511	-0.0019
585.0431	0.0005
585.2352	0.0022
585.4272	-0.0013
585.6192	0.0077
585.8111	0.0085
586.0031	0.0014
586.195	0.0001
586.387	0.0044
586.5789	0.0022
586.7708	0.0021
586.9627	0.0041
587.1545	0.0022
587.3464	0.0079
587.5382	0.0024
587.73	0.0045
587.9218	0.008
588.1136	0.0016
588.3053	0.0075
588.4971	-0.0019
588.6888	-0.0038
588.8805	0.0055
589.0722	0.0058
589.2639	-0.0034
589.4556	0.0031
589.6472	-0.0001
589.8389	-0.0115
590.0305	-0.0056
590.2221	0.0076
590.4137	-0.0074
590.6052	-0.0012
590.7968	-0.0016
590.9883	-0.003
591.1798	-0.0038
591.3713	0.0033
591.5628	0.0033
591.7543	0.0066
591.9458	-0.0021
592.1372	0.0024
592.3286	0.0102
592.52	0.0061
592.7114	-0.0026
592.9028	-0.005
593.0941	0.0003
593.2855	0.0064
593.4768	-0.0052
593.6681	-0.0049
593.8594	-0.0096
594.0506	0.0021
594.2419	0.008
594.4331	0.0053
594.6244	0.0037
594.8156	-0.0131
595.0067	-0.0022
595.1979	0.006
595.3891	0.0044
595.5802	-0.0011
595.7713	-0.0074
595.9624	0.0005
596.1535	0.0123
596.3446	0.0051
596.5357	0.0032
596.7267	0.0083
596.9177	-0.0001
597.1087	-0.0027
597.2997	-0.0014
597.4907	0.0045
597.6817	0.0004
597.8726	0.0063
598.0635	0.0023
598.2544	0.0036
598.4453	0.0004
598.6362	0.0009
598.827	-0.005
599.0179	0.0045
599.2087	0.0065
599.3995	0.0099
599.5903	-0.004
599.7811	0.003
599.9718	0.0014
600.1626	-0.0054
600.3533	-0.0013
600.544	-0.0014
600.7347	0.0012
600.9254	0.0045
601.116	-0.0095
601.3067	0.0018
601.4973	-0.0018
601.6879	0.006
601.8785	-0.0026
602.0691	0.0059
602.2596	0.0048
602.4502	0.0061
602.6407	0.0079
602.8312	0.0066
603.0217	-0.0026
603.2122	0.0058
603.4027	0.0106
603.5931	0.0026
603.7835	0.0005
603.9739	-0.0023
604.1643	0.002
604.3547	-0.0055
604.5451	0.0034
604.7354	-0.0076
604.9257	0.0001
605.116	-0.003
605.3063	0.004
605.4966	0.0037
605.6869	0.0021
605.8771	0.0033
606.0673	0.0065
606.2575	0.0054
606.4477	0.0066
606.6379	0.0054
606.8281	-0.0037
607.0182	-0.0038
607.2083	0.007
607.3985	-0.0029
607.5885	-0.0051
607.7786	0.0021
607.9687	-0.0062
608.1587	0.0026
608.3488	-0.0058
608.5388	0.0054
608.7288	0.0006
608.9187	-0.0031
609.1087	-0.0017
609.2986	-0.0078
609.4886	0.0011
609.6785	0.0055
609.8684	0.0037
610.0582	0.0037
610.2481	0.008
610.4379	0.0046
610.6278	0.0042
610.8176	-0.0011
611.0074	0.0043
611.1971	-0.0073
611.3869	-0.002
611.5766	-0.0045
611.7664	0.0077
611.9561	0.0051
612.1458	-0.0008
612.3354	-0.0019
612.5251	0.002
612.7147	0.0081
612.9044	0.007
613.094	0.0002
613.2836	0.008
613.4731	-0.0075
613.6627	-0.0041
613.8522	0.0038
614.0417	0.0074
614.2313	-0.0042
614.4207	0.0027
614.6102	-0.002
614.7997	-0.0011
614.9891	-0.007
615.1785	0.0066
615.3679	-0.002
615.5573	0.0078
615.7467	0.0012
615.9361	-0.0018
616.1254	0.0031
616.3147	0.0044
616.504	0.0113
616.6933	0.0045
616.8826	0.0052
617.0718	0.0069
617.2611	-0.0004
617.4503	-0.0022
617.6395	0.0022
617.8287	-0.0033
618.0179	-0.0031
618.207	0.0102
618.3961	0.0017
618.5853	-0.0005
618.7744	0.0076
618.9634	0.0077
619.1525	0.0094
619.3416	0.009
619.5306	0.0084
619.7196	0.0008
619.9086	0.0002
620.0976	0.0093
620.2866	-0.0029
620.4755	0.0131
620.6645	0.0106
620.8534	0.0083
621.0423	0.0062
621.2312	0.0136
621.42	-0.0034
621.6089	0.008
621.7977	0.0076
621.9865	-0.0046
622.1753	0.0078
622.3641	0.0041
622.5529	0.0057
622.7416	0.0068
622.9303	0.0017
623.1191	0.0113
623.3078	-0.0006
623.4964	0.0072
623.6851	-0.0031
623.8737	0.0014
624.0624	0.0043
624.251	0.0017
624.4396	0.0026
624.6282	-0.0008
624.8167	-0.0009
625.0053	0.0087
625.1938	0.0038
625.3823	0.0044
625.5708	0.0026
625.7593	-0.0023
625.9477	-0.0022
626.1362	0.0012
626.3246	0.0025
626.513	0.0088
626.7014	-0.002
626.8898	0.0058
627.0781	0.009
627.2665	0.0029
627.4548	0.0113
627.6431	0.0116
627.8314	0.0062
628.0197	0.015
628.2079	-0.0036
628.3962	-0.0025
628.5844	0.0094
628.7726	0.0071
628.9608	0.0092
629.1489	-0.001
629.3371	0.0022
629.5252	0.0008
629.7134	0.0115
629.9015	-0.0063
630.0895	-0.0025
630.2776	0.0135
630.4657	-0.0006
630.6537	0.0005
630.8417	0.0025
631.0297	-0.0001
631.2177	-0.0014
631.4057	-0.0083
631.5936	0.0007
631.7815	-0.0044
631.9695	0.0067
632.1574	0.0085
632.3452	0.0143
632.5331	0.0062
632.7209	0.003
632.9088	0.0118
633.0966	0.004
633.2844	-0.0012
633.4722	0.0056
633.6599	0.0108
633.8477	0.012
634.0354	0.0027
634.2231	0.0026
634.4108	0.0119
634.5985	0.0144
634.7861	0.0058
634.9738	0.0082
635.1614	0.0074
635.349	0.009
635.5366	0.0091
635.7242	0.01
635.9117	0.0089
636.0993	0.0014
636.2868	0.0087
636.4743	0.0049
636.6618	0.0148
636.8492	0.0071
637.0367	0.0059
637.2241	0.0099
637.4115	0.0034
637.5989	0.0042
637.7863	-0.0017
637.9737	-0.0035
638.161	-0.0024
638.3484	0.0079
638.5357	0.0116
638.723	-0.0019
638.9103	0.0054
639.0975	0.0088
639.2848	0.0107
639.472	0.0093
639.6592	0.0144
639.8464	0.0143
640.0336	0.0096
640.2208	0.0004
640.4079	0.0044
640.595	0.0045
640.7821	0.005
640.9692	-0.0021
641.1563	0.0028
641.3434	0.0098
641.5304	0.0031
641.7174	0.0059
641.9044	0.0051
642.0914	0.0111
642.2784	0.0061
642.4653	0.0075
642.6523	-0.0015
642.8392	0.0021
643.0261	0.0058
643.213	0.005
643.3999	0.0009
643.5867	0.0022
643.7735	-0.0006
643.9604	-0.0039
644.1472	0.0027
644.3339	0.0045
644.5207	0.012
644.7075	0.0049
644.8942	0.0129
645.0809	0.0092
645.2676	0.009
645.4543	0.0075
645.6409	0.0126
645.8276	0.0008
646.0142	0.0059
646.2008	-0.0006
646.3874	-0.0001
646.574	0.002
646.7605	-0.0044
646.9471	-0.0098
647.1336	0.0007
647.3201	0.0009
647.5066	-0.0023
647.6931	0.0104
647.8795	0.0051
648.0659	0.005
648.2524	0.0102
648.4388	-0.0022
648.6252	-0.0027
648.8115	-0.0011
648.9979	-0.0005
649.1842	0.0021
649.3705	0.0019
649.5568	0.0026
649.7431	0.0092
649.9294	-0.0004
650.1156	0.0005
650.3018	0.0059
650.488	0.0061
650.6742	0.0175
650.8604	0.0045
651.0466	0.0011
651.2327	0.0026
651.4188	0.005
651.6049	0.006
651.791	0.0042
651.9771	0.0072
652.1632	0.0096
652.3492	0.0074
652.5352	0.0034
652.7212	0.0024
652.9072	0.0145
653.0932	0.0037
653.2791	0.0035
653.465	0.0044
653.651	-0.0071
653.8369	-0.003
654.0227	0.0026
654.2086	0.01
654.3944	0.0102
654.5803	-0.0004
654.7661	-0
654.9519	0.0063
655.1377	-0.0025
655.3234	0.0019
655.5092	-0.0049
655.6949	-0.0024
655.8806	-0.0011
656.0663	-0.0015
656.2519	-0.0025
656.4376	-0.0047
656.6232	0.0016
656.8088	0.0023
656.9945	0.0031
657.18	0.0007
657.3656	0.0058
657.5511	0.0042
657.7367	0.0026
657.9222	0.0105
658.1077	0.0011
658.2932	0.0132
658.4786	-0.004
658.6641	-0.0012
658.8495	0.0062
659.0349	-0.0034
659.2203	0.0061
659.4057	0
659.591	0.008
659.7764	-0.0001
659.9617	0.0083
660.147	0.0054
660.3323	0.0094
660.5176	0.0177
660.7028	0.0115
660.888	0.0102
661.0733	0.0001
661.2585	-0.0021
661.4436	-0.0033
661.6288	-0.0034
661.8139	-0.0064
661.9991	0.0009
662.1842	-0.0014
662.3693	0.0109
662.5544	0.0002
662.7394	0.005
662.9245	-0
663.1095	-0.0007
663.2945	0.0064
663.4795	-0.0009
663.6644	0.0058
663.8494	-0.0004
664.0343	0.0056
664.2193	-0.0073
664.4042	-0.0037
664.589	0.003
664.7739	0.0001
664.9587	-0.0028
665.1436	-0.0018
665.3284	0.003
665.5132	-0.0011
665.698	0.0004
665.8827	0.0047
666.0675	0.0061
666.2522	-0.0017
666.4369	0.0097
666.6216	0.0025
666.8063	0.01
666.9909	0.0032
667.1756	0.0047
667.3602	-0.0012
667.5448	0.007
667.7294	0.0059
667.9139	0.0045
668.0985	0.0141
668.283	0.0076
668.4675	0.0049
668.652	0.0042
668.8365	0.0048
669.0209	0.0092
669.2054	0.0071
669.3898	0.0049
669.5742	0.0075
669.7586	0.0115
669.943	0.0115
670.1273	0.0172
670.3117	0.0058
670.496	0.0077
670.6803	0.018
670.8646	0.0103
671.0488	-0.0012
671.2331	0.0106
671.4173	0.0087
671.6015	0.0055
671.7857	0.0018
671.9699	0.0085
672.1541	0.0076
672.3382	0.006
672.5223	0.0012
672.7064	-0.0018
672.8905	0.0069
673.0746	0.0024
673.2587	0.0015
673.4427	0.0093
673.6267	0.0117
673.8107	0.0071
673.9947	0.004
674.1787	-0.0002
674.3626	0.0054
674.5465	0.0059
674.7304	0.0061
674.9143	0
675.0982	0.0035
675.2821	-0.0083
675.4659	0.0105
675.6497	0.0066
675.8335	0.0034
676.0173	0.0058
676.2011	0.0014
676.3849	0.0056
676.5686	-0.0036
676.7523	-0.001
676.936	0.0026
677.1197	-0.0013
677.3034	0.0002
677.487	0.0016
677.6706	0.0006
677.8542	0.0071
678.0378	0.0017
678.2214	0.0005
678.405	0.0059
678.5885	-0.004
678.772	0.0071
678.9555	-0.0067
679.139	-0.0009
679.3225	0.005
679.5059	0.0065
679.6894	0.0027
679.8728	-0.0015
680.0562	-0.003
680.2395	0.0023
680.4229	-0.0055
680.6062	0.0036
680.7896	0.0052
680.9729	-0.0046
681.1562	0.0015
681.3394	0.0025
681.5227	-0.0081
681.7059	-0.0023
681.8891	0.0041
682.0723	0.0101
682.2555	0.0111
682.4387	0.0008
682.6218	-0.0027
682.805	0.0054
682.9881	0.0035
683.1712	-0.0005
683.3542	-0.0061
683.5373	0.0009
683.7203	-0.0021
683.9034	0.0006
684.0864	-0.0038
684.2694	-0.0016
684.4523	0.0012
684.6353	0.0051
684.8182	-0.0004
685.0011	-0.0058
685.184	0.0047
685.3669	0.0023
685.5498	0.0013
685.7326	0.0017
685.9154	-0.0007
686.0982	0.0104
686.281	0.0042
686.4638	0.0069
686.6465	0.004
686.8293	0.0021
687.012	0.0059
687.1947	0.0006
687.3774	0.0105
687.56	-0.0051
687.7427	0.0036
687.9253	-0.0017
688.1079	0.0062
688.2905	0.0103
688.4731	0.0018
688.6556	0.0052
688.8382	0.001
689.0207	0.0003
689.2032	-0.0073
689.3857	-0.0051
689.5681	-0.0067
689.7506	-0.0057
689.933	-0.0058
690.1154	-0.0047
690.2978	-0.0139
690.4802	-0.0055
690.6626	-0.0113
690.8449	-0.008
691.0272	-0.0026
691.2095	-0.0055
691.3918	-0.0008
691.5741	0.0081
691.7563	0.0026
691.9386	0.0067
692.1208	0.0091
692.303	0.0073
692.4852	0.0028
692.6673	-0.0024
692.8495	-0.0015
693.0316	0.0025
693.2137	0.0027
693.3958	0.0079
693.5778	0.0011
693.7599	0.0054
693.9419	0.0104
694.1239	0.009
694.3059	-0.0006
694.4879	0.0031
694.6699	0.0166
694.8518	0.0037
695.0337	0.0029
695.2157	0.0183
695.3975	0.0046
695.5794	0.0065
695.7613	0.0122
695.9431	-0.0054
696.1249	0.0029
696.3067	0.005
696.4885	0.0114
696.6703	-0.0041
696.852	0.0083
697.0337	0.0029
697.2154	0.0033
697.3971	0.0118
697.5788	0.0003
697.7605	0.0005
697.9421	0.0102
698.1237	0.0002
698.3053	0.0086
698.4869	-0.0031
698.6685	-0.0096
698.85	0.0004
699.0315	0.0122
699.213	0.0028
699.3945	0.0026
699.576	0.0129
699.7575	0.0082
699.9389	0.0015
700.1203	0.0043
700.3017	0.0011
700.4831	-0.0007
700.6645	0.002
700.8458	0.0096
701.0271	0.0022
701.2084	0.0066
701.3897	0.0048
701.571	0.009
701.7523	-0.0001
701.9335	0.0074
702.1147	0.0017
702.2959	0.0061
702.4771	0.0074
702.6583	-0.001
702.8394	-0.0029
703.0205	0.0107
703.2016	0.0013
703.3827	0.0039
703.5638	0.004
703.7449	-0.0002
703.9259	0.0135
704.1069	-0.002
704.2879	-0.0005
704.4689	0.0075
704.6499	0.0078
704.8308	0.0086
705.0117	0.0021
705.1927	0.0048
705.3735	0.0021
705.5544	-0.0007
705.7353	0.0018
705.9161	-0.0013
706.0969	0.0021
706.2777	-0.0031
706.4585	0.0014
706.6393	-0.0001
706.82	-0.0005
707.0007	0.0024
707.1815	0.0061
707.3621	0.0029
707.5428	-0.0022
707.7235	-0.0029
707.9041	-0.0023
708.0847	-0.0069
708.2653	-0.0122
708.4459	-0.0153
708.6265	-0.0005
708.807	-0.0085
708.9875	-0.0102
709.168	-0.0033
709.3485	-0.0086
709.529	-0.0037
709.7095	-0.0135
709.8899	0.0036
710.0703	-0.0108
710.2507	0.0046
710.4311	-0.007
710.6115	-0.0043
710.7918	-0.0127
710.9721	-0.0038
711.1524	-0.0114
711.3327	0.0002
711.513	0.0059
711.6932	-0.0036
711.8735	0.0099
712.0537	0.0027
712.2339	0.0034
712.4141	-0.0036
712.5942	0.0043
712.7744	-0.002
712.9545	-0.0082
713.1346	-0.0002
713.3147	-0.0005
713.4947	-0.0038
713.6748	-0.0056
713.8548	0.0006
714.0348	-0.0015
714.2148	-0.0019
714.3948	0.0058
714.5748	-0.0035
714.7547	-0.0001
714.9346	0.0088
715.1145	0.0021
715.2944	-0.0035
715.4743	0.0049
715.6541	0.0007
715.834	0.0037
716.0138	-0.0019
716.1936	-0.0073
716.3733	-0.0008
716.5531	0.0041
716.7328	-0.0027
716.9126	-0.0107
717.0923	0.0041
717.2719	-0.0031
717.4516	-0.0036
717.6312	-0.0026
717.8109	-0.0113
717.9905	0.0016
718.1701	-0.0049
718.3496	-0.0143
718.5292	0.0012
718.7087	-0.0011
718.8882	0.001
719.0677	0.0068
719.2472	-0
719.4267	-0.0027
719.6061	0.0022
719.7856	0.0017
719.965	0.0012
720.1443	0.0006
720.3237	0.0026
720.5031	0.0027
720.6824	0.005
720.8617	-0.0058
721.041	0.0056
721.2203	0.0094
721.3995	-0.0027
721.5788	0.0006
721.758	0.0062
721.9372	0.0015
722.1164	0.001
722.2956	0.006
722.4747	0.0008
722.6538	-0.0002
722.8329	0.0069
723.012	0.0002
723.1911	0.0008
723.3702	0.0051
723.5492	0.0036
723.7282	0.0011
723.9072	0.0077
724.0862	-0.0033
724.2652	-0.0027
724.4441	-0.0039
724.623	0.0013
724.8019	-0.0041
724.9808	0.0098
725.1597	-0.0013
725.3385	0.0031
725.5174	0.0117
725.6962	0.0004
725.875	0.0029
726.0538	0.001
726.2325	0.003
726.4112	0.0033
726.59	-0.0045
726.7687	-0.0122
726.9474	0.007
727.126	-0.0041
727.3047	-0.0066
727.4833	0.0001
727.6619	0.0037
727.8405	-0.0039
728.0191	-0.006
728.1976	0.0035
728.3762	0.005
728.5547	0.0046
728.7332	-0.0029
728.9116	0.0017
729.0901	0.0108
729.2686	0.0081
729.447	-0.0035
729.6254	0.0063
729.8038	0.0112
729.9821	-0.005
730.1605	0.005
730.3388	0.0023
730.5171	0.0044
730.6954	0.0068
730.8737	0.0049
731.0519	0.0168
731.2302	0.003
731.4084	0.0117
731.5866	0.0056
731.7648	0.0065
731.9429	0.0026
732.1211	-0.0114
732.2992	0.0004
732.4773	-0.0024
732.6554	-0.0008
732.8335	-0.0028
733.0115	0.0032
733.1896	0.0029
733.3676	-0.0075
733.5456	0.0027
733.7235	0.0108
733.9015	-0.0033
734.0794	0.0001
734.2574	-0.0013
734.4353	0.0033
734.6131	0.0063
734.791	0.0032
734.9689	0.0011
735.1467	0.008
735.3245	0.0036
735.5023	-0.0041
735.68	0.0013
735.8578	0.0084
736.0355	-0.0199
736.2132	0.0004
736.3909	0.0034
736.5686	-0.0047
736.7463	0.0033
736.9239	0.0045
737.1015	0.0045
737.2791	0.011
737.4567	0.0129
737.6343	-0.0004
737.8118	0.0101
737.9894	0.0054
738.1669	-0.0037
738.3444	0.0026
738.5218	0.0019
738.6993	0.0034
738.8767	-0.0045
739.0541	0.007
739.2315	-0.011
739.4089	-0.0032
739.5863	0.0026
739.7636	-0
739.9409	0.0053
740.1182	0.015
740.2955	0.0055
740.4728	0.0035
740.65	0.0015
740.8272	0.0011
741.0044	-0.0003
741.1816	0.006
741.3588	-0.0008
741.5359	-0.0004
741.7131	-0.01
741.8902	0.0002
742.0673	0.0018
742.2444	0.0025
742.4214	0.0048
742.5985	0.0006
742.7755	-0.0085
742.9525	-0.012
743.1295	0.0049
743.3064	-0.0074
743.4834	0.0047
743.6603	0.0001
743.8372	0.004
744.0141	0.0045
744.191	0.0126
744.3678	0.0043
744.5446	0.0124
744.7215	0.0081
744.8982	-0.0002
745.075	-0.0014
745.2518	0.0068
745.4285	0.0088
745.6052	-0.002
745.7819	0.0022
745.9586	0.0045
746.1353	0.0053
746.3119	-0.0111
746.4885	0.0006
746.6651	-0.008
746.8417	-0.0006
747.0183	0.0016
747.1948	0.0065
747.3714	0.0032
747.5479	0.0035
747.7244	-0.0064
747.9008	0.0031
748.0773	0.0023
748.2537	0.0023
748.4301	0.0047
748.6065	-0.0007
748.7829	0.0018
748.9593	-0.0052
749.1356	-0.002
749.3119	0.0118
749.4882	-0.0029
749.6645	0.0081
749.8408	-0.005
750.017	-0
750.1933	0.0017
750.3695	-0.0039
750.5457	-0.0005
750.7218	-0.0079
750.898	-0.0018
751.0741	-0.0029
751.2502	0.0022
751.4263	-0.0039
751.6024	0.0064
751.7784	0.0092
751.9545	-0.0005
752.1305	0.003
752.3065	-0.0084
752.4825	0.0029
752.6584	-0.0069
752.8344	-0.0061
753.0103	-0.0035
753.1862	0.0012
753.3621	-0.0056
753.5379	-0.0057
753.7138	-0.0035
753.8896	-0.0035
754.0654	0.0072
754.2412	0.0038
754.417	-0.0009
754.5927	-0.0031
754.7685	-0.0063
754.9442	0.0066
755.1199	0.011
755.2956	0.0065
755.4712	0.0101
755.6469	-0.0005
755.8225	0.0064
755.9981	-0
756.1736	0.0108
756.3492	0.0029
756.5248	-0.0052
756.7003	0.0066
756.8758	0.0146
757.0513	-0.0018
757.2267	0.002
757.4022	0.0091
757.5776	0.0012
757.753	0.0082
757.9284	0.0024
758.1038	0.0176
758.2791	0.005
758.4545	-0.0068
758.6298	-0.0011
758.8051	0.0054
758.9803	0.0019
759.1556	0.001
759.3308	-0.0097
759.506	0.0143
759.6812	0.0024
759.8564	0.0131
760.0316	0.0037
760.2067	0.0057
760.3819	0.0158
760.557	0.0216
760.732	0.0067
760.9071	-0.006
761.0821	0.0024
761.2572	0.0072
761.4322	0.0008
761.6072	0.0028
761.7821	0.0052
761.9571	0.0066
762.132	0.0003
762.3069	-0.0022
762.4818	-0.0002
762.6567	-0.0045
762.8316	-0.0022
763.0064	-0.0053
763.1812	-0.0035
763.356	-0.0062
763.5308	0.0034
763.7055	-0.0068
763.8803	0.0056
764.055	-0.0036
764.2297	-0.0065
764.4044	-0.0074
764.579	-0.0099
764.7537	-0.0084
764.9283	0.0015
765.1029	-0.0059
765.2775	-0.002
765.4521	-0.0109
765.6266	-0.0031
765.8011	0.0048
765.9756	-0.0044
766.1501	0.0093
766.3246	0.0038
766.4991	0.0068
766.6735	0.0044
766.8479	0.0008
767.0223	0.0055
767.1967	0.0052
767.371	0.0036
767.5454	0.0102
767.7197	0.0014
767.894	0.0025
768.0683	-0.0106
768.2425	0.0085
768.4168	0.0103
768.591	0.0059
768.7652	0.001
768.9394	0.0013
769.1135	0.0061
769.2877	0.0154
769.4618	0.003
769.6359	-0.0016
769.81	0.0008
769.984	0.0076
770.1581	-0.0141
770.3321	0.0077
770.5061	-0.0011
770.6801	-0.015
770.8541	-0.0082
771.028	-0.0024
771.202	-0.0201
771.3759	-0.0004
771.5498	-0.006
771.7236	-0.0053
771.8975	0.0013
772.0713	0.0101
772.2451	0.0042
772.4189	0.009
772.5927	0.0045
772.7665	0.0043
772.9402	-0.0006
773.1139	-0.0003
773.2876	-0.0105
773.4613	-0.0004
773.635	0.0046
773.8086	-0.0001
773.9822	0.0061
774.1558	0.0153
774.3294	-0.0116
774.503	0.0018
774.6765	-0.0002
774.8501	0.0067
775.0236	0.0067
775.1971	0.013
775.3705	-0.0046
775.544	0.0056
775.7174	-0.0015
775.8908	-0.0024
776.0642	0.0043
776.2376	0.007
776.4109	-0.0152
776.5843	-0.0064
776.7576	0.0092
776.9309	0.0117
777.1041	0.0015
777.2774	0.0015
777.4506	-0.0048
777.6238	-0.0017
777.797	0.0064
777.9702	0.0007
778.1434	-0.0031
778.3165	-0.0105
778.4896	-0.0076
778.6627	0.0128
778.8358	-0.0038
779.0089	-0.009
779.1819	0.001
779.3549	0.0027
779.5279	0.0049
779.7009	0.0043
779.8739	0.0068
780.0468	0.0086
780.2197	0.0126
780.3926	0.0029
780.5655	0.0053
780.7384	0.0033
780.9112	0.0029
781.0841	0.0057
781.2569	0.0108
781.4297	0.0042
781.6024	0.019
781.7752	0.0106
781.9479	0.0115
782.1206	0.0038
782.2933	-0.0175
782.466	0.0189
782.6386	0.0021
782.8113	-0.0059
782.9839	-0.0054
783.1565	0.0141
783.329	0.0085
783.5016	0.0013
783.6741	0.0067
783.8466	-0.019
784.0191	0.0172
784.1916	0.0014
784.3641	0.007
784.5365	-0.0052
784.7089	0.0094
784.8813	0.0005
785.0537	-0.006
785.2261	-0.0061
785.3984	-0.0182
785.5707	-0.01
785.743	-0.0055
785.9153	0.0005
786.0876	0.0031
786.2598	-0.0068
786.432	-0.0085
786.6042	0.0016
786.7764	-0.0098
786.9486	-0.0009
787.1207	-0.0102
787.2928	-0.0024
787.4649	-0.0002
787.637	0.0022
787.8091	-0.0048
787.9811	-0.007
788.1532	0.0107
788.3252	0.012
788.4972	-0.003
788.6691	0.0054
788.8411	0.0106
789.013	0.0022
789.1849	0.0072
789.3568	-0.0011
789.5287	-0.003
789.7005	0.0179
789.8723	0.0031
790.0442	0.0138
790.2159	0.0064
790.3877	0.0078
790.5595	-0.0129
790.7312	-0.0024
790.9029	-0.0042
791.0746	-0.0061
791.2463	-0.0024
791.4179	-0.0026
791.5896	-0.0068
791.7612	-0.0013
791.9328	0.002
792.1044	-0.0073
792.2759	-0.0196
792.4474	-0.0153
792.619	0.0068
792.7905	-0.0047
792.9619	0.0091
793.1334	0.0111
793.3048	-0.0002
793.4762	0.0058
793.6476	0.0116
793.819	-0.0011
793.9904	0.0047
794.1617	-0.0202
794.333	-0.0128
794.5043	-0.0145
794.6756	-0.0071
794.8469	-0.0063
795.0181	0.0027
795.1893	-0.0024
795.3605	0.0099
795.5317	-0.0072
795.7029	-0.0145
795.874	0.0003
796.0452	-0.0025
796.2163	-0.0042
796.3873	0.0184
796.5584	0.0085
796.7294	0.006
796.9005	0.0021
797.0715	0.0012
797.2425	-0.0132
797.4134	0.0049
797.5844	-0.0004
797.7553	-0.0121
797.9262	0.0036
798.0971	-0.0116
798.2679	-0.0102
798.4388	-0.0081
798.6096	0.011
798.7804	0.002
798.9512	0.0052
799.122	-0.0124
799.2927	0.0057
799.4635	0.0205
799.6342	-0.0241
799.8049	-0.006
799.9755	-0.0008
800.1462	0.007
800.3168	0.0117
800.4874	-0.0016
800.658	0.0256
800.8286	0.0068
800.9991	0.0211
801.1696	0.0116
801.3402	0.0174
801.5106	0.0094
801.6811	0.0033
801.8516	0.0129
802.022	-0.0041
802.1924	-0.0025
802.3628	-0.0005
802.5332	0.009
802.7035	0.0221
802.8739	-0.0032
803.0442	0.0015
803.2145	0.0133
803.3847	-0.019
803.555	0.0114
803.7252	0.0017
803.8954	0.0046
804.0656	-0.0139
804.2358	0.0004
804.4059	-0.0017
804.5761	0.0182
804.7462	-0.0029
804.9163	-0.0072
805.0864	-0.0142
805.2564	-0.0087
805.4264	0.0048
805.5965	-0.0137
805.7665	-0.0043
805.9364	-0.0056
806.1064	0.0185
806.2763	-0.0013
806.4462	0.0115
806.6161	0.0002
806.786	0.0063
806.9559	0.0068
807.1257	-0.0124
807.2955	0.0027
807.4653	0.0059
807.6351	-0.002
807.8048	0.0047
807.9746	0.0085
808.1443	-0.0003
808.314	0.0028
808.4837	0.0092
808.6533	0.0167
808.8229	0.0379
808.9926	0.0049
809.1622	0.0178
809.3317	-0.005
809.5013	0.0032
809.6708	0.0071
809.8403	0.0022
810.0098	-0.0011
810.1793	0.0156
810.3488	-0.0006
810.5182	-0.0081
810.6876	0.0076
810.857	-0.0109
811.0264	0.0137
811.1958	0.0204
811.3651	0.0192
811.5344	0.0058
811.7037	-0.0073
811.873	0.0078
812.0422	-0.0089
812.2115	-0.012
812.3807	-0.0001
812.5499	-0.0025
812.7191	0.0144
812.8882	-0.0233
813.0574	0.0002
813.2265	-0.01
813.3956	0.0087
813.5646	0.0024
813.7337	-0.0135
813.9027	0.017
814.0718	0.0284
814.2407	-0.0073
814.4097	-0.0003
814.5787	-0.0181
814.7476	0.0022
814.9165	0.0061
815.0854	-0.0132
815.2543	0.0037
815.4232	-0.0084
815.592	0.0155
815.7608	-0.0007
815.9296	0.0103
816.0984	0.02
816.2671	-0.024
816.4359	-0.0043
816.6046	-0.0081
816.7733	0.0067
816.942	-0.0032
817.1106	0.0152
817.2793	0.0191
817.4479	0.0245
817.6165	0.0162
817.785	-0.0101
817.9536	0.0319
818.1221	-0.0042
818.2906	0.0202
818.4591	0.0238
818.6276	-0.0038
818.7961	0.012
818.9645	0.013
819.1329	0.0134
819.3013	0.0221
819.4697	0.0347
819.638	0.0009
819.8064	-0.0008
819.9747	0.0335
820.143	-0.004
820.3113	0.0017
820.4795	0.0284
820.6477	0.0261
820.816	0.0134
820.9842	-0.003
821.1523	-0.0191
821.3205	0.0042
821.4886	0.0109
821.6567	0.0211
821.8248	0.0223
821.9929	0.0211
822.1609	0.0071
822.329	0.0242
822.497	0.032
822.665	-0.0025
822.833	0.0089
823.0009	0.0128
823.1688	0.0262
823.3367	0.0255
823.5046	0.0235
823.6725	0.0179
823.8404	-0.0001
824.0082	0.017
824.176	0.0369
824.3438	0.0232
824.5116	-0.0022
824.6793	0.012
824.847	0.0125
825.0147	-0.0052
825.1824	0.0522
825.3501	0.0039
825.5177	0.012
825.6854	-0.012
825.853	-0.0096
826.0206	-0.0285
826.1881	-0.0162
826.3557	-0.0333
826.5232	-0.0049
826.6907	-0.0347
826.8582	0.0146
827.0257	-0.0208
827.1931	0.0072
827.3605	0.0081
827.528	-0.0152
827.6953	-0.0268
827.8627	-0.029
828.03	0.0321
828.1974	-0.0029
828.3647	-0.0286
828.532	-0.0113
828.6992	0.0332
828.8665	0.0219
829.0337	-0.0031
829.2009	0.0293
829.3681	0.0133
829.5352	0.0225
829.7024	-0.0332
829.8695	-0.009
830.0366	0.0242
830.2037	-0.021
830.3707	0.018
830.5378	-0.006
830.7048	-0.0198
830.8718	-0.0203
831.0388	0.0068
831.2057	0.0068
831.3727	-0.0048
831.5396	-0.0201
831.7065	-0.0081
831.8734	0.008
832.0402	-0.0426
832.2071	0.0326
832.3739	-0.0452
832.5407	0.0321
832.7075	-0.0179
832.8742	0.0023
833.041	-0.0266
833.2077	0.0078
833.3744	-0.0101
833.541	0.0376
833.7077	-0.0286
833.8743	-0.0206
834.0409	-0.0134
834.2075	0.0226
834.3741	-0.0316
834.5407	0.005
834.7072	-0.0121
834.8737	-0.0132
835.0402	-0.0008
835.2067	0.0112
835.3731	0.0005
835.5395	0.0289
835.706	0.0327
835.8723	-0.0171
836.0387	0.0012
836.2051	-0.0225
836.3714	-0.0182
836.5377	0.0231
836.704	-0.0506
836.8703	-0.0048
837.0365	0.0139
837.2027	-0.0158
837.3689	0.0266
837.5351	-0.0285
837.7013	0.0207
837.8674	-0.056
838.0335	0.0041
838.1997	0.0232
838.3657	-0.0308
838.5318	-0.0331
838.6978	0.0382
838.8639	0.041
839.0299	0.0165
839.1958	0.0117
839.3618	0.0217
839.5277	-0.0011
839.6937	-0.0132
839.8596	-0.0334
840.0254	0.0056
840.1913	0.0192
840.3571	-0.0054
840.523	0.0721
840.6888	-0.0413
840.8545	-0.0172
841.0203	0.0086
841.186	0.0373
841.3517	0.0342
841.5174	0.014
841.6831	-0.0258
841.8488	0.0432
842.0144	-0.0021
842.18	-0.026
842.3456	-0.0104
842.5112	-0.0325
842.6767	-0.0194
842.8422	0.0194
843.0077	-0.0281
843.1732	-0.063
843.3387	-0.0424
843.5042	-0.0621
843.6696	-0.0122
843.835	0.0276
844.0004	0.0299
844.1657	-0.0082
844.3311	-0.0663
844.4964	-0.0659
844.6617	-0.0036
844.827	-0.0668
844.9923	-0.0104
845.1575	-0.0189
845.3227	0.0186
845.4879	-0.0211
845.6531	-0.0263
845.8183	-0.0905
845.9834	-0.0327
846.1485	-0.0544
846.3136	-0.0297
846.4787	-0.0571
846.6438	0.023
846.8088	-0.0478
846.9738	-0.0431
847.1388	0.0333
847.3038	-0.0489
847.4687	-0.103
847.6337	0.0195
847.7986	0.0214
847.9635	-0.0233
848.1284	-0.0242
848.2932	0.068
848.458	-0.0187
848.6228	0.0388
848.7876	0.0745
848.9524	-0.0335
849.1172	-0.1449
849.2819	-0.0031
849.4466	-0.0467
849.6113	-0.0832
849.7759	0.071
849.9406	0.003
850.1052	0.0022
850.2698	-0.0638
850.4344	-0.0121
850.599	-0.0237
850.7635	0.0308
850.928	-0.0169
851.0925	0.0092
851.257	-0.0144
851.4215	-0.0351
851.5859	-0.0135
851.7503	0.1501
851.9147	0.0427
852.0791	0.0018
852.2434	0.0371
852.4078	0.0376
852.5721	0.06
852.7364	-0.0936
852.9007	-0.2303
853.0649	0.0237
853.2291	-0.0696
853.3934	-0.0628
853.5575	0.0361
853.7217	-0.0946
853.8859	-0.0131
854.05	-0.0823
854.2141	-0.0543
854.3782	-0.0334
854.5423	-0.0403
854.7063	0.0722
854.8703	-0.0811
855.0343	0.0055
855.1983	-0.1995
855.3623	0.1192
855.5262	-0.0088
855.6901	-0.0079
855.854	0.0711
856.0179	0.0688
856.1818	-0.0289
856.3456	0.0493
856.5094	-0.0901
856.6732	-0.0851
856.837	0.0574
857.0008	0.2038
857.1645	-0.0008
857.3282	-0.1405
857.4919	0.099
857.6556	0.0602
857.8192	-0.1399
857.9828	0.1501
858.1465	-0.1226
858.31	-0.1231
858.4736	-0.0637
858.6372	-0.0019
858.8007	-0.0665
858.9642	0.1433
859.1277	-0.0297
859.2911	0.3264
859.4546	0.1937
859.618	-0.3014
859.7814	-0.0661
859.9448	-0.08
860.1081	-0.0416
860.2715	0.2818
860.4348	0.2518
860.5981	0.1231
860.7614	0.1084
860.9246	0.0384
861.0879	-0.0638
861.2511	0.0655
861.4143	-0.0231
861.5774	0.0887
861.7406	-0.1649
861.9037	-0.1449
862.0668	-0.1325
862.2299	-0.1367
862.393	-0.5512
862.556	-0.1403
862.7191	-0.2521
862.8821	-0.3198
863.0451	0.4299
863.208	0.0291
863.371	-0.0229
863.5339	-0.1122
863.6968	0.0293
863.8597	0.3165
864.0225	-0.1461
864.1854	-0.1195
864.3482	-0
864.511	0.0077
864.6737	0.352
864.8365	-0.051
864.9992	0.8515
865.1619	-0.5743
865.3246	0.2642
865.4873	-0.0433
865.65	-0
865.8126	0.0306
865.9752	0.0323
866.1378	0.343
866.3004	-0
866.4629	0.0529
866.6254	0.1023
866.7879	0.1056
866.9504	-0.3021
867.1129	-0
867.2753	0.325
867.4377	0.196
867.6001	-0.5806
867.7625	-0
867.9249	-0
868.0872	-0.0432
868.2495	0.5931
868.4118	-0.2075
868.5741	-0.532
868.7363	-0.1523
868.8986	-0.0715
869.0608	-0.09
869.223	0.1314
869.3851	0.4614
869.5473	-0
869.7094	0.1263
869.8715	-0
870.0336	-0
870.1957	0.8559
870.3577	-1.4576
870.5197	0.0529
870.6817	-0.402
870.8437	-0.0211
871.0057	-0
871.1676	-0.4308
871.3295	-0.3883
871.4914	-0
871.6533	-0.1268
871.8151	0.081
871.977	-0
872.1388	-0
872.3006	0.1747
872.4623	0.1357
872.6241	0.1024
872.7858	0.3798
872.9475	-0.2458
873.1092	-0.1539
873.2709	-0.0274
873.4325	-0
873.5941	-0.476
873.7557	-0
873.9173	-0
874.0789	-0.0461
874.2404	-0.6555
874.4019	0.0937
874.5634	-0.2329
874.7249	-0.174
874.8863	0.4989
875.0478	0.4989
875.2092	-0
875.3706	-0.2548
875.5319	-0.5278
875.6933	-0
875.8546	-0.1051
876.0159	-0
876.1772	0.9056
876.3385	-0
876.4997	0.4304
876.6609	-0.0831
876.8221	0.0101
876.9833	-0
877.1445	-0
877.3056	0.2912
877.4667	0.1407
877.6278	-0
877.7889	-0.0117
877.9499	-0
878.111	-0
878.272	-0
878.433	0.8391
878.5939	-0
878.7549	-0.0589
878.9158	-0.9979
879.0767	0.4501
879.2376	-0
879.3984	-0.0795
879.5593	-0
879.7201	-0.003
879.8809	-0.0106
880.0417	-0.4363
880.2024	-0.1389
880.3632	-0.9524
880.5239	0.3291
880.6846	0.7999
880.8452	-2.3627
881.0059	-1.6542
881.1665	-0.0432
881.3271	-0
881.4877	-0
881.6483	-0.7463
881.8088	-0.27
881.9693	0.8744
882.1298	0.8744
882.2903	0.8744
