Data from MonoPyChalIsomerACN10uM440nmA_Absorbance_15-27-17-394.txt Node
Date: Fri Jul 05 15:27:17 BST 2024
User: LASERRRRR
Spectrometer: FLMT03099
Trigger mode: 0
Integration Time (sec): 1.000000E-1
Scans to average: 1
Electric dark correction enabled: true
Nonlinearity correction enabled: false
Boxcar width: 0
XAxis mode: Wavelengths
Number of Pixels in Spectrum: 3648
>>>>>Begin Spectral Data<<<<<
179.3399	0.8101
179.5586	0.8101
179.7771	0.8101
179.9957	1.1737
180.2143	1.1083
180.4329	-0.4252
180.6514	-0
180.8699	0.2453
181.0885	-0.2657
181.307	0.4925
181.5255	-0
181.744	-0
181.9625	-0
182.181	-0.6185
182.3994	0.7328
182.6179	-0.1226
182.8363	0.6842
183.0547	0.0335
183.2732	-0.0112
183.4916	-0.0124
183.71	0.0547
183.9284	0.014
184.1467	-0.1294
184.3651	-0.0655
184.5835	0.3298
184.8018	-0.0267
185.0201	0.2259
185.2385	-0.0335
185.4568	0.0352
185.6751	-0.1614
185.8934	0.056
186.1117	-0.0455
186.3299	-0.0102
186.5482	-0.1094
186.7664	0.0733
186.9847	-0.0629
187.2029	-0.0488
187.4211	0.0509
187.6393	0.1294
187.8575	-0.1485
188.0757	0.1554
188.2939	-0.0572
188.512	0.0903
188.7302	-0.0274
188.9483	0.1523
189.1665	0.2034
189.3846	-0.0792
189.6027	0.2814
189.8208	0.2535
190.0389	-0.0767
190.257	0.1605
190.475	0.0999
190.6931	0.3215
190.9111	0.4523
191.1292	0.2079
191.3472	0.4032
191.5652	0.3465
191.7832	0.1859
192.0012	0.7872
192.2192	0.4286
192.4371	0.3416
192.6551	0.3448
192.873	0.3766
193.091	0.4297
193.3089	0.5444
193.5268	0.5925
193.7447	0.3657
193.9626	0.4373
194.1805	0.4349
194.3984	0.6129
194.6162	0.41
194.8341	0.5553
195.0519	0.5826
195.2697	0.6866
195.4875	0.7916
195.7054	0.5599
195.9231	0.4752
196.1409	0.5979
196.3587	0.6053
196.5765	0.64
196.7942	0.5318
197.012	0.5765
197.2297	0.7873
197.4474	0.6126
197.6651	0.6575
197.8828	0.6618
198.1005	0.5344
198.3182	0.5476
198.5358	0.7096
198.7535	0.5446
198.9711	0.557
199.1888	0.6895
199.4064	0.7013
199.624	0.6716
199.8416	0.6022
200.0592	0.7252
200.2767	0.5745
200.4943	0.6035
200.7119	0.8185
200.9294	0.6638
201.1469	0.5014
201.3645	0.5269
201.582	0.5934
201.7995	0.6155
202.017	0.5115
202.2344	0.6209
202.4519	0.8673
202.6694	0.6443
202.8868	0.6765
203.1042	0.6444
203.3217	0.6224
203.5391	0.7684
203.7565	0.582
203.9739	0.5574
204.1913	0.6642
204.4086	0.7526
204.626	0.7848
204.8433	0.694
205.0607	0.6953
205.278	0.6433
205.4953	0.6099
205.7126	0.6517
205.9299	0.7391
206.1472	0.6254
206.3644	0.6096
206.5817	0.7555
206.7989	0.7014
207.0162	0.6429
207.2334	0.6523
207.4506	0.6149
207.6678	0.6671
207.885	0.7076
208.1022	0.7328
208.3194	0.7076
208.5365	0.6272
208.7537	0.7207
208.9708	0.6331
209.1879	0.6028
209.405	0.6508
209.6222	0.7282
209.8392	0.6501
210.0563	0.6772
210.2734	0.6504
210.4905	0.6196
210.7075	0.64
210.9245	0.6181
211.1416	0.7142
211.3586	0.6034
211.5756	0.6118
211.7926	0.5813
212.0096	0.5729
212.2265	0.5613
212.4435	0.5925
212.6604	0.6066
212.8774	0.5583
213.0943	0.5513
213.3112	0.5256
213.5281	0.5038
213.745	0.5131
213.9619	0.5602
214.1788	0.4772
214.3956	0.4509
214.6125	0.4298
214.8293	0.4666
215.0461	0.4751
215.2629	0.4267
215.4798	0.4883
215.6965	0.4093
215.9133	0.426
216.1301	0.409
216.3469	0.4309
216.5636	0.3896
216.7803	0.4121
216.9971	0.4219
217.2138	0.3987
217.4305	0.3692
217.6472	0.37
217.8639	0.3639
218.0805	0.3672
218.2972	0.3514
218.5138	0.3058
218.7305	0.3032
218.9471	0.3069
219.1637	0.2646
219.3803	0.2745
219.5969	0.2831
219.8135	0.255
220.0301	0.2734
220.2466	0.2757
220.4632	0.2368
220.6797	0.221
220.8962	0.2427
221.1127	0.2552
221.3292	0.2468
221.5457	0.2254
221.7622	0.2318
221.9787	0.2435
222.1951	0.2389
222.4116	0.2553
222.628	0.2421
222.8444	0.2643
223.0608	0.2477
223.2772	0.2434
223.4936	0.244
223.71	0.2329
223.9264	0.2551
224.1427	0.2542
224.3591	0.2442
224.5754	0.2603
224.7917	0.2689
225.008	0.2552
225.2243	0.2562
225.4406	0.2895
225.6569	0.2631
225.8732	0.2614
226.0894	0.256
226.3057	0.2614
226.5219	0.2691
226.7381	0.2546
226.9543	0.2624
227.1705	0.281
227.3867	0.2884
227.6029	0.293
227.8191	0.288
228.0352	0.2856
228.2513	0.2959
228.4675	0.2993
228.6836	0.288
228.8997	0.309
229.1158	0.29
229.3319	0.305
229.548	0.3032
229.764	0.3114
229.9801	0.3117
230.1961	0.3098
230.4121	0.3302
230.6282	0.3314
230.8442	0.3329
231.0602	0.3314
231.2761	0.3405
231.4921	0.3324
231.7081	0.3548
231.924	0.3455
232.14	0.3568
232.3559	0.3154
232.5718	0.3588
232.7877	0.3568
233.0036	0.3499
233.2195	0.3457
233.4353	0.3585
233.6512	0.3591
233.867	0.3691
234.0829	0.3451
234.2987	0.352
234.5145	0.3627
234.7303	0.3836
234.9461	0.3859
235.1619	0.3788
235.3776	0.3837
235.5934	0.3816
235.8091	0.3626
236.0249	0.3768
236.2406	0.3775
236.4563	0.365
236.672	0.3868
236.8877	0.3888
237.1034	0.3816
237.319	0.3915
237.5347	0.3701
237.7503	0.3946
237.966	0.4086
238.1816	0.3981
238.3972	0.3928
238.6128	0.3891
238.8284	0.3955
239.0439	0.3907
239.2595	0.4077
239.475	0.4047
239.6906	0.395
239.9061	0.3992
240.1216	0.3928
240.3371	0.408
240.5526	0.3892
240.7681	0.4007
240.9836	0.3822
241.199	0.396
241.4145	0.3884
241.6299	0.3831
241.8453	0.3915
242.0607	0.3816
242.2761	0.3649
242.4915	0.369
242.7069	0.3667
242.9223	0.3714
243.1376	0.3433
243.353	0.3431
243.5683	0.3611
243.7836	0.3288
243.9989	0.3332
244.2142	0.3089
244.4295	0.3166
244.6448	0.3233
244.86	0.2942
245.0753	0.2875
245.2905	0.2906
245.5057	0.2747
245.721	0.2807
245.9362	0.2731
246.1514	0.2721
246.3665	0.2663
246.5817	0.2482
246.7969	0.2544
247.012	0.2438
247.2271	0.2402
247.4423	0.2396
247.6574	0.2505
247.8725	0.2389
248.0876	0.2296
248.3026	0.2391
248.5177	0.2151
248.7328	0.2095
248.9478	0.219
249.1628	0.2186
249.3779	0.2247
249.5929	0.2002
249.8079	0.2181
250.0228	0.1997
250.2378	0.2038
250.4528	0.2127
250.6677	0.1823
250.8827	0.1975
251.0976	0.1984
251.3125	0.198
251.5274	0.1639
251.7423	0.1801
251.9572	0.1983
252.172	0.1834
252.3869	0.1904
252.6017	0.1759
252.8166	0.163
253.0314	0.1656
253.2462	0.1626
253.461	0.185
253.6758	0.1665
253.8906	0.1788
254.1053	0.174
254.3201	0.1657
254.5348	0.1726
254.7496	0.1816
254.9643	0.1771
255.179	0.165
255.3937	0.1601
255.6083	0.1816
255.823	0.1831
256.0377	0.1648
256.2523	0.1591
256.467	0.1499
256.6816	0.1783
256.8962	0.1655
257.1108	0.1494
257.3254	0.1771
257.54	0.1617
257.7545	0.1653
257.9691	0.1673
258.1836	0.1653
258.3981	0.1669
258.6127	0.1657
258.8272	0.1619
259.0417	0.163
259.2561	0.142
259.4706	0.1617
259.6851	0.1673
259.8995	0.1639
260.114	0.1576
260.3284	0.1615
260.5428	0.1523
260.7572	0.163
260.9716	0.1814
261.186	0.1638
261.4003	0.154
261.6147	0.1621
261.829	0.1585
262.0433	0.1678
262.2577	0.1606
262.472	0.1744
262.6863	0.1597
262.9005	0.1644
263.1148	0.1625
263.3291	0.1489
263.5433	0.1665
263.7576	0.1644
263.9718	0.1604
264.186	0.1565
264.4002	0.1648
264.6144	0.1617
264.8286	0.1705
265.0427	0.1548
265.2569	0.1588
265.471	0.149
265.6851	0.1524
265.8993	0.1597
266.1134	0.1617
266.3275	0.167
266.5415	0.1513
266.7556	0.1689
266.9697	0.1618
267.1837	0.1574
267.3978	0.1615
267.6118	0.1753
267.8258	0.1839
268.0398	0.1638
268.2538	0.1734
268.4677	0.1668
268.6817	0.1687
268.8957	0.1678
269.1096	0.1623
269.3235	0.1654
269.5374	0.1461
269.7514	0.1487
269.9652	0.1502
270.1791	0.1571
270.393	0.1463
270.6068	0.1596
270.8207	0.1453
271.0345	0.1386
271.2483	0.1598
271.4622	0.1455
271.676	0.1481
271.8897	0.1398
272.1035	0.1468
272.3173	0.141
272.531	0.1498
272.7448	0.1412
272.9585	0.1486
273.1722	0.1449
273.3859	0.1422
273.5996	0.1493
273.8133	0.1506
274.0269	0.1484
274.2406	0.131
274.4542	0.1458
274.6679	0.1373
274.8815	0.1506
275.0951	0.1445
275.3087	0.1615
275.5223	0.158
275.7358	0.1627
275.9494	0.1506
276.1629	0.1398
276.3765	0.1496
276.59	0.1384
276.8035	0.1567
277.017	0.1462
277.2305	0.1477
277.444	0.1543
277.6574	0.1505
277.8709	0.1429
278.0843	0.1534
278.2978	0.1493
278.5112	0.1487
278.7246	0.1483
278.938	0.1498
279.1513	0.1495
279.3647	0.1584
279.5781	0.146
279.7914	0.1616
280.0047	0.1665
280.2181	0.1557
280.4314	0.1515
280.6447	0.1616
280.8579	0.1573
281.0712	0.155
281.2845	0.1546
281.4977	0.1623
281.711	0.1532
281.9242	0.1673
282.1374	0.1642
282.3506	0.1534
282.5638	0.163
282.7769	0.155
282.9901	0.1588
283.2033	0.1573
283.4164	0.1627
283.6295	0.1503
283.8426	0.1499
284.0557	0.1577
284.2688	0.164
284.4819	0.1605
284.695	0.1434
284.908	0.1513
285.1211	0.1576
285.3341	0.157
285.5471	0.167
285.7601	0.1543
285.9731	0.1474
286.1861	0.1461
286.3991	0.1592
286.612	0.1713
286.825	0.153
287.0379	0.1634
287.2508	0.1575
287.4637	0.1578
287.6766	0.1549
287.8895	0.1779
288.1024	0.1719
288.3152	0.171
288.5281	0.161
288.7409	0.1646
288.9538	0.1549
289.1666	0.1581
289.3794	0.1468
289.5922	0.1629
289.8049	0.1594
290.0177	0.1475
290.2304	0.1621
290.4432	0.1495
290.6559	0.1556
290.8686	0.1584
291.0813	0.1605
291.294	0.1621
291.5067	0.1521
291.7194	0.163
291.932	0.1733
292.1447	0.1542
292.3573	0.1487
292.5699	0.1615
292.7825	0.1551
292.9951	0.1557
293.2077	0.1655
293.4203	0.1517
293.6328	0.1499
293.8454	0.1681
294.0579	0.1639
294.2704	0.1629
294.4829	0.1507
294.6954	0.1549
294.9079	0.1597
295.1204	0.1618
295.3328	0.1536
295.5453	0.1578
295.7577	0.1575
295.9701	0.1504
296.1825	0.1524
296.3949	0.1464
296.6073	0.1391
296.8197	0.1403
297.0321	0.1727
297.2444	0.1492
297.4567	0.1591
297.6691	0.1459
297.8814	0.1477
298.0937	0.1567
298.306	0.1614
298.5182	0.1577
298.7305	0.1548
298.9428	0.1508
299.155	0.1617
299.3672	0.1543
299.5794	0.1463
299.7916	0.1537
300.0038	0.156
300.216	0.1584
300.4282	0.1635
300.6403	0.1474
300.8525	0.1536
301.0646	0.1491
301.2767	0.1551
301.4888	0.1528
301.7009	0.1552
301.913	0.1499
302.125	0.1555
302.3371	0.1567
302.5491	0.1503
302.7612	0.1618
302.9732	0.156
303.1852	0.16
303.3972	0.1512
303.6092	0.1534
303.8211	0.1345
304.0331	0.1473
304.245	0.1445
304.457	0.143
304.6689	0.159
304.8808	0.1558
305.0927	0.1447
305.3046	0.1452
305.5164	0.1493
305.7283	0.1311
305.9401	0.1473
306.152	0.1405
306.3638	0.1539
306.5756	0.1252
306.7874	0.1402
306.9992	0.1416
307.2109	0.136
307.4227	0.1327
307.6344	0.1346
307.8462	0.127
308.0579	0.1312
308.2696	0.1347
308.4813	0.1254
308.693	0.1243
308.9046	0.1266
309.1163	0.1312
309.328	0.1215
309.5396	0.1175
309.7512	0.1182
309.9628	0.1147
310.1744	0.117
310.386	0.1277
310.5976	0.116
310.8091	0.1182
311.0207	0.119
311.2322	0.1116
311.4437	0.1059
311.6552	0.1121
311.8667	0.1137
312.0782	0.0961
312.2897	0.0965
312.5012	0.1137
312.7126	0.1025
312.924	0.1098
313.1355	0.1122
313.3469	0.1086
313.5583	0.1039
313.7696	0.109
313.981	0.0987
314.1924	0.116
314.4037	0.0996
314.6151	0.1055
314.8264	0.0998
315.0377	0.0907
315.249	0.0989
315.4603	0.1155
315.6716	0.1007
315.8828	0.0968
316.0941	0.094
316.3053	0.1018
316.5165	0.093
316.7277	0.092
316.9389	0.1098
317.1501	0.0978
317.3613	0.1072
317.5724	0.0879
317.7836	0.0973
317.9947	0.0928
318.2058	0.0931
318.417	0.0866
318.6281	0.0984
318.8391	0.0997
319.0502	0.0956
319.2613	0.0987
319.4723	0.1013
319.6834	0.1036
319.8944	0.0881
320.1054	0.1051
320.3164	0.0951
320.5274	0.0875
320.7383	0.0918
320.9493	0.1028
321.1602	0.1054
321.3712	0.0906
321.5821	0.1046
321.793	0.1012
322.0039	0.1002
322.2148	0.099
322.4257	0.1013
322.6365	0.102
322.8474	0.1035
323.0582	0.1021
323.269	0.099
323.4798	0.1065
323.6906	0.1009
323.9014	0.0971
324.1122	0.1096
324.3229	0.0967
324.5337	0.1076
324.7444	0.0965
324.9551	0.1112
325.1658	0.1117
325.3765	0.1058
325.5872	0.096
325.7979	0.0928
326.0085	0.1152
326.2192	0.103
326.4298	0.1074
326.6404	0.0971
326.851	0.1063
327.0616	0.0943
327.2722	0.1079
327.4828	0.1112
327.6933	0.1028
327.9039	0.1064
328.1144	0.1111
328.3249	0.1076
328.5354	0.0918
328.7459	0.1114
328.9564	0.0992
329.1669	0.1038
329.3773	0.1011
329.5878	0.1081
329.7982	0.1051
330.0086	0.1083
330.219	0.1024
330.4294	0.1066
330.6398	0.1057
330.8502	0.1022
331.0605	0.1098
331.2708	0.0994
331.4812	0.118
331.6915	0.1017
331.9018	0.1116
332.1121	0.0958
332.3224	0.1017
332.5326	0.0984
332.7429	0.0946
332.9531	0.1178
333.1633	0.1106
333.3735	0.1145
333.5837	0.1009
333.7939	0.1055
334.0041	0.1182
334.2143	0.1163
334.4244	0.1079
334.6346	0.1029
334.8447	0.1199
335.0548	0.1008
335.2649	0.0846
335.475	0.1128
335.685	0.1027
335.8951	0.1231
336.1051	0.12
336.3152	0.1114
336.5252	0.1148
336.7352	0.1205
336.9452	0.1161
337.1552	0.1053
337.3652	0.112
337.5751	0.1152
337.7851	0.1191
337.995	0.1066
338.2049	0.1217
338.4148	0.1076
338.6247	0.1155
338.8346	0.1043
339.0445	0.1073
339.2543	0.1086
339.4642	0.1139
339.674	0.1067
339.8838	0.1146
340.0936	0.1231
340.3034	0.1313
340.5132	0.1305
340.7229	0.1143
340.9327	0.1179
341.1424	0.1173
341.3522	0.1324
341.5619	0.1274
341.7716	0.1123
341.9813	0.1198
342.1909	0.1193
342.4006	0.1279
342.6102	0.126
342.8199	0.1279
343.0295	0.1323
343.2391	0.1266
343.4487	0.1303
343.6583	0.1311
343.8679	0.1265
344.0774	0.1317
344.287	0.1347
344.4965	0.1255
344.706	0.1395
344.9155	0.1231
345.125	0.1178
345.3345	0.1297
345.544	0.1259
345.7534	0.1249
345.9629	0.136
346.1723	0.131
346.3817	0.1231
346.5911	0.1251
346.8005	0.137
347.0099	0.1286
347.2193	0.1376
347.4286	0.1312
347.638	0.1428
347.8473	0.1352
348.0566	0.1431
348.2659	0.1337
348.4752	0.1334
348.6845	0.1282
348.8937	0.1401
349.103	0.1513
349.3122	0.1293
349.5214	0.1377
349.7306	0.1322
349.9398	0.1229
350.149	0.1432
350.3582	0.1317
350.5674	0.1441
350.7765	0.1542
350.9856	0.1442
351.1948	0.1387
351.4039	0.1258
351.613	0.1324
351.822	0.1432
352.0311	0.1549
352.2402	0.1434
352.4492	0.1449
352.6582	0.1571
352.8672	0.1386
353.0762	0.15
353.2852	0.1357
353.4942	0.1415
353.7032	0.1491
353.9121	0.1452
354.1211	0.1519
354.33	0.1517
354.5389	0.1479
354.7478	0.145
354.9567	0.1547
355.1655	0.1369
355.3744	0.1497
355.5833	0.1529
355.7921	0.1672
356.0009	0.166
356.2097	0.1613
356.4185	0.1585
356.6273	0.163
356.8361	0.1653
357.0448	0.1368
357.2536	0.15
357.4623	0.1513
357.671	0.1679
357.8797	0.1685
358.0884	0.1681
358.2971	0.1506
358.5057	0.1709
358.7144	0.1655
358.923	0.1578
359.1316	0.1539
359.3402	0.161
359.5488	0.1617
359.7574	0.1664
359.966	0.1655
360.1746	0.1698
360.3831	0.1751
360.5916	0.1529
360.8002	0.1512
361.0087	0.1803
361.2172	0.1818
361.4256	0.1617
361.6341	0.1834
361.8426	0.1805
362.051	0.166
362.2594	0.1764
362.4678	0.1872
362.6762	0.1972
362.8846	0.177
363.093	0.1835
363.3014	0.1808
363.5097	0.1737
363.718	0.1689
363.9264	0.1721
364.1347	0.1841
364.343	0.1877
364.5513	0.1957
364.7595	0.2044
364.9678	0.1878
365.176	0.1816
365.3842	0.1917
365.5925	0.1911
365.8007	0.2039
366.0089	0.1879
366.217	0.179
366.4252	0.192
366.6333	0.2089
366.8415	0.2058
367.0496	0.1746
367.2577	0.1922
367.4658	0.2069
367.6739	0.2107
367.882	0.1922
368.09	0.1962
368.2981	0.2086
368.5061	0.2045
368.7141	0.2157
368.9221	0.2031
369.1301	0.2157
369.3381	0.2026
369.5461	0.1934
369.754	0.2011
369.962	0.2152
370.1699	0.206
370.3778	0.217
370.5857	0.1931
370.7936	0.1952
371.0015	0.2092
371.2093	0.2263
371.4172	0.2038
371.625	0.1933
371.8328	0.2117
372.0406	0.2027
372.2484	0.2037
372.4562	0.2235
372.664	0.2169
372.8717	0.2141
373.0795	0.1995
373.2872	0.2191
373.4949	0.2206
373.7026	0.2188
373.9103	0.2147
374.118	0.2229
374.3256	0.21
374.5333	0.2197
374.7409	0.2075
374.9485	0.2249
375.1561	0.2214
375.3637	0.2272
375.5713	0.2359
375.7789	0.2232
375.9864	0.2198
376.194	0.221
376.4015	0.2296
376.609	0.238
376.8165	0.2263
377.024	0.2227
377.2315	0.2098
377.4389	0.2197
377.6464	0.2383
377.8538	0.2338
378.0612	0.2222
378.2686	0.2284
378.476	0.2409
378.6834	0.2312
378.8908	0.2321
379.0981	0.228
379.3055	0.2319
379.5128	0.2368
379.7201	0.2285
379.9274	0.2188
380.1347	0.2307
380.342	0.2479
380.5492	0.2139
380.7565	0.2307
380.9637	0.2419
381.1709	0.2398
381.3781	0.2277
381.5853	0.2417
381.7925	0.2449
381.9997	0.2485
382.2068	0.2393
382.4139	0.2362
382.6211	0.2242
382.8282	0.2406
383.0353	0.2445
383.2424	0.2403
383.4494	0.264
383.6565	0.2107
383.8635	0.2354
384.0706	0.2422
384.2776	0.2363
384.4846	0.2264
384.6916	0.2282
384.8986	0.2382
385.1055	0.2425
385.3125	0.2353
385.5194	0.2173
385.7263	0.2593
385.9333	0.2403
386.1402	0.2365
386.347	0.238
386.5539	0.2276
386.7608	0.2472
386.9676	0.2212
387.1744	0.2523
387.3813	0.239
387.5881	0.2271
387.7948	0.241
388.0016	0.2282
388.2084	0.2361
388.4151	0.23
388.6219	0.2381
388.8286	0.2233
389.0353	0.2525
389.242	0.2453
389.4487	0.2308
389.6553	0.2198
389.862	0.2206
390.0686	0.2233
390.2753	0.229
390.4819	0.215
390.6885	0.2366
390.8951	0.2148
391.1016	0.221
391.3082	0.2246
391.5147	0.2142
391.7213	0.2162
391.9278	0.2191
392.1343	0.2297
392.3408	0.2237
392.5473	0.2226
392.7537	0.2052
392.9602	0.2067
393.1666	0.2043
393.373	0.2198
393.5794	0.2075
393.7858	0.2056
393.9922	0.1862
394.1986	0.2125
394.4049	0.2161
394.6113	0.2059
394.8176	0.207
395.0239	0.21
395.2302	0.1959
395.4365	0.2002
395.6428	0.2143
395.8491	0.1907
396.0553	0.2079
396.2615	0.1899
396.4678	0.1995
396.674	0.1951
396.8802	0.1982
397.0863	0.2217
397.2925	0.1995
397.4987	0.1959
397.7048	0.2044
397.9109	0.1977
398.117	0.1901
398.3231	0.1936
398.5292	0.2058
398.7353	0.2123
398.9413	0.1968
399.1474	0.1877
399.3534	0.1903
399.5594	0.1872
399.7654	0.21
399.9714	0.202
400.1774	0.2036
400.3833	0.1731
400.5893	0.1971
400.7952	0.2033
401.0011	0.1877
401.207	0.195
401.4129	0.2002
401.6188	0.2036
401.8247	0.1892
402.0305	0.1758
402.2364	0.2107
402.4422	0.197
402.648	0.1983
402.8538	0.2186
403.0596	0.195
403.2654	0.2046
403.4711	0.191
403.6768	0.1919
403.8826	0.2051
404.0883	0.2043
404.294	0.2171
404.4997	0.194
404.7054	0.1921
404.911	0.1896
405.1167	0.2084
405.3223	0.1832
405.5279	0.1959
405.7335	0.2113
405.9391	0.2065
406.1447	0.2001
406.3502	0.2318
406.5558	0.1804
406.7613	0.2093
406.9668	0.1913
407.1724	0.1765
407.3778	0.182
407.5833	0.1763
407.7888	0.1958
407.9942	0.2009
408.1997	0.1932
408.4051	0.1907
408.6105	0.1857
408.8159	0.1918
409.0213	0.1844
409.2267	0.1972
409.432	0.1864
409.6374	0.2117
409.8427	0.1975
410.048	0.1943
410.2533	0.1927
410.4586	0.1815
410.6639	0.1898
410.8691	0.1997
411.0744	0.1817
411.2796	0.1723
411.4848	0.1859
411.69	0.1757
411.8952	0.2149
412.1004	0.1828
412.3056	0.1901
412.5107	0.1902
412.7158	0.1985
412.921	0.1849
413.1261	0.1787
413.3312	0.1789
413.5362	0.1777
413.7413	0.1912
413.9464	0.1877
414.1514	0.1877
414.3564	0.1976
414.5614	0.1708
414.7664	0.1654
414.9714	0.1831
415.1764	0.1953
415.3813	0.2179
415.5863	0.174
415.7912	0.177
415.9961	0.176
416.201	0.2066
416.4059	0.1953
416.6108	0.1747
416.8156	0.2026
417.0205	0.1846
417.2253	0.174
417.4301	0.1862
417.6349	0.17
417.8397	0.176
418.0445	0.1818
418.2492	0.1931
418.454	0.1778
418.6587	0.1654
418.8634	0.1968
419.0681	0.1636
419.2728	0.1748
419.4775	0.1638
419.6822	0.1749
419.8868	0.1657
420.0915	0.16
420.2961	0.1659
420.5007	0.1682
420.7053	0.1857
420.9099	0.186
421.1144	0.1715
421.319	0.1735
421.5235	0.1638
421.728	0.1742
421.9325	0.192
422.137	0.1638
422.3415	0.1517
422.546	0.176
422.7504	0.1591
422.9549	0.1657
423.1593	0.185
423.3637	0.189
423.5681	0.1764
423.7725	0.144
423.9769	0.1574
424.1812	0.159
424.3856	0.1482
424.5899	0.1765
424.7942	0.1585
424.9985	0.1615
425.2028	0.1538
425.4071	0.174
425.6113	0.1453
425.8156	0.1594
426.0198	0.1729
426.224	0.1466
426.4282	0.1438
426.6324	0.138
426.8366	0.155
427.0407	0.1612
427.2449	0.1293
427.449	0.1463
427.6531	0.1197
427.8572	0.1317
428.0613	0.1493
428.2654	0.14
428.4694	0.1397
428.6735	0.1366
428.8775	0.1556
429.0815	0.1442
429.2855	0.122
429.4895	0.1418
429.6935	0.1431
429.8975	0.1285
430.1014	0.1311
430.3053	0.1143
430.5093	0.1435
430.7132	0.1232
430.9171	0.1081
431.1209	0.1182
431.3248	0.1149
431.5286	0.1307
431.7325	0.128
431.9363	0.1105
432.1401	0.1335
432.3439	0.115
432.5477	0.1046
432.7514	0.1057
432.9552	0.1144
433.1589	0.098
433.3627	0.1082
433.5664	0.1091
433.7701	0.108
433.9737	0.1044
434.1774	0.088
434.3811	0.1094
434.5847	0.1094
434.7883	0.0984
434.9919	0.0939
435.1955	0.1079
435.3991	0.0832
435.6027	0.1083
435.8062	0.0959
436.0098	0.0812
436.2133	0.0874
436.4168	0.0948
436.6203	0.0805
436.8238	0.0923
437.0272	0.0868
437.2307	0.0931
437.4341	0.1039
437.6375	0.0885
437.841	0.0806
438.0443	0.0904
438.2477	0.0732
438.4511	0.0692
438.6545	0.0794
438.8578	0.0843
439.0611	0.0806
439.2644	0.0783
439.4677	0.0544
439.671	0.0581
439.8743	0.0599
440.0775	0.082
440.2808	0.0704
440.484	0.0654
440.6872	0.047
440.8904	0.0564
441.0936	0.0879
441.2967	0.07
441.4999	0.0736
441.703	0.0494
441.9062	0.0478
442.1093	0.0668
442.3124	0.0542
442.5155	0.0401
442.7185	0.0637
442.9216	0.0422
443.1246	0.0642
443.3276	0.0386
443.5307	0.0521
443.7337	0.0584
443.9366	0.0609
444.1396	0.0432
444.3426	0.0458
444.5455	0.0376
444.7484	0.0377
444.9513	0.0462
445.1542	0.0542
445.3571	0.0344
445.56	0.0539
445.7628	0.029
445.9657	0.0221
446.1685	0.0562
446.3713	0.0448
446.5741	0.039
446.7769	0.0249
446.9797	0.0407
447.1824	0.0462
447.3852	0.021
447.5879	0.0493
447.7906	0.0378
447.9933	0.0207
448.196	0.0272
448.3986	0.0382
448.6013	0.0293
448.8039	0.0269
449.0066	0.0256
449.2092	0.0369
449.4118	0.0363
449.6143	0.0269
449.8169	0.026
450.0195	0.0106
450.222	-0.0074
450.4245	0.0085
450.627	0.0358
450.8295	0.0137
451.032	0.0223
451.2345	0.0152
451.4369	0.0305
451.6394	0.0195
451.8418	0.0078
452.0442	0.0106
452.2466	0.0297
452.449	0.0019
452.6513	0.0331
452.8537	0.0122
453.056	-0.0035
453.2583	0.0154
453.4607	0.0274
453.663	0.008
453.8652	0.0196
454.0675	-0.0072
454.2697	0.0304
454.472	0.0047
454.6742	0.0267
454.8764	0.0206
455.0786	0.0127
455.2808	0.0132
455.4829	0.0142
455.6851	0.0223
455.8872	0.0183
456.0893	0.0194
456.2915	0.0024
456.4935	0.0187
456.6956	0.0078
456.8977	0.0178
457.0997	0.0192
457.3018	-0.006
457.5038	0.0137
457.7058	0.0058
457.9078	-0.0006
458.1098	0.0145
458.3117	0.0126
458.5137	0.0162
458.7156	0.0113
458.9175	0.0081
459.1194	0.003
459.3213	-0.0089
459.5232	0.0046
459.725	-0.0011
459.9269	-0.0089
460.1287	0.008
460.3305	-0.0102
460.5323	0.0051
460.7341	0.0052
460.9359	0.0021
461.1376	0.015
461.3394	-0.0102
461.5411	0.0102
461.7428	0.0076
461.9445	0.025
462.1462	0.0119
462.3479	0.0002
462.5495	0.0099
462.7512	0.0184
462.9528	0.009
463.1544	-0.0088
463.356	-0.0008
463.5576	-0.0005
463.7592	-0.0104
463.9607	-0.0037
464.1623	0.0244
464.3638	0.025
464.5653	-0.0064
464.7668	0.0008
464.9683	0.0056
465.1697	0.0209
465.3712	0.0002
465.5726	-0.0117
465.7741	0.0019
465.9755	-0.0006
466.1769	-0.0067
466.3782	-0.0011
466.5796	-0.0181
466.7809	0.0074
466.9823	0.0023
467.1836	-0.0041
467.3849	-0.0034
467.5862	0.012
467.7875	0.0026
467.9887	0.0186
468.19	-0.0003
468.3912	0.0131
468.5924	-0.0022
468.7936	0.0017
468.9948	0.0095
469.196	0.0152
469.3972	-0.0193
469.5983	0.0047
469.7994	-0.0041
470.0006	-0.009
470.2017	-0.0024
470.4027	-0.0147
470.6038	-0.0046
470.8049	-0.0124
471.0059	-0.0048
471.2069	-0.0145
471.408	0.0139
471.6089	0.0005
471.8099	-0.0044
472.0109	0.0064
472.2119	-0.0103
472.4128	-0.017
472.6137	0.004
472.8146	-0.0064
473.0155	-0.0109
473.2164	-0.0007
473.4173	0.0045
473.6181	0.009
473.819	0.0064
474.0198	-0.0108
474.2206	0.0041
474.4214	-0.004
474.6222	-0.0035
474.8229	-0.0114
475.0237	-0.007
475.2244	-0.0148
475.4251	-0.01
475.6258	-0.0123
475.8265	-0.0154
476.0272	0.0078
476.2278	0.008
476.4285	-0.0038
476.6291	-0.0029
476.8297	-0.0092
477.0303	-0.014
477.2309	0.0047
477.4315	-0.016
477.632	-0.0062
477.8326	-0.0043
478.0331	0.0119
478.2336	0.0003
478.4341	-0.0133
478.6346	0.0008
478.8351	-0.0078
479.0355	-0.0014
479.236	0.0044
479.4364	-0.0031
479.6368	0.0017
479.8372	-0.0148
480.0376	-0.0014
480.2379	-0.0265
480.4383	-0.0145
480.6386	-0.0033
480.8389	0.0075
481.0392	-0.0073
481.2395	-0.0146
481.4398	-0.0031
481.6401	-0.0076
481.8403	-0.0032
482.0405	-0.0054
482.2408	-0.0026
482.441	0.0006
482.6411	-0.0052
482.8413	0.0006
483.0415	-0.0096
483.2416	-0.0125
483.4417	-0.0104
483.6419	-0.0053
483.8419	-0.004
484.042	0.0036
484.2421	0.0024
484.4422	0.0019
484.6422	-0.0045
484.8422	-0.0039
485.0422	-0.0115
485.2422	0.0073
485.4422	-0.0116
485.6422	-0.016
485.8421	-0.0044
486.042	-0.0015
486.242	-0.0115
486.4419	-0.0178
486.6417	-0.0133
486.8416	-0.0009
487.0415	-0.0078
487.2413	-0.0018
487.4411	-0.0125
487.641	0.0007
487.8408	0.0079
488.0405	-0.013
488.2403	0.002
488.4401	0.0078
488.6398	0.0025
488.8395	-0.006
489.0392	0.0005
489.2389	-0.0079
489.4386	-0.0063
489.6383	-0.0109
489.8379	0.0043
490.0376	-0.002
490.2372	-0.0135
490.4368	-0.0145
490.6364	-0.0077
490.836	-0.0102
491.0355	-0.0132
491.2351	-0.0131
491.4346	0.005
491.6341	-0.0224
491.8336	-0.0004
492.0331	-0.0218
492.2326	-0.0138
492.432	-0.0023
492.6315	-0.0081
492.8309	-0.0064
493.0303	-0.0208
493.2297	-0.0048
493.4291	0.001
493.6284	-0.0102
493.8278	0.0022
494.0271	0.0029
494.2264	-0.0014
494.4257	-0.0194
494.625	-0.0011
494.8243	-0.0145
495.0236	-0.0043
495.2228	-0.0065
495.422	0.0075
495.6213	-0.0066
495.8205	-0.0003
496.0196	-0.0062
496.2188	0.0074
496.418	-0.0143
496.6171	-0.0119
496.8162	-0.0029
497.0153	0.0035
497.2144	-0.0137
497.4135	-0.0025
497.6126	-0.0067
497.8116	-0.0167
498.0107	0.0072
498.2097	-0.0125
498.4087	-0.0154
498.6077	0.0021
498.8067	-0.0039
499.0056	0.0035
499.2046	-0.0057
499.4035	-0.0221
499.6024	-0.0052
499.8013	0.0106
500.0002	-0.0079
500.199	-0.011
500.3979	-0.0045
500.5967	-0.016
500.7956	0.0099
500.9944	-0.0029
501.1932	-0.0063
501.3919	-0.0115
501.5907	-0.0121
501.7895	-0.0078
501.9882	-0.0045
502.1869	-0.0015
502.3856	-0.0064
502.5843	-0.0053
502.783	-0.0121
502.9816	-0.0009
503.1803	-0.0086
503.3789	-0.0119
503.5775	-0.0017
503.7761	0
503.9747	-0.0012
504.1732	-0.0036
504.3718	-0.0001
504.5703	-0.007
504.7689	-0.0102
504.9674	-0.0058
505.1658	-0.0138
505.3643	-0.003
505.5628	-0.0014
505.7612	0.0017
505.9597	0.0069
506.1581	-0.0122
506.3565	0.0125
506.5549	0.0001
506.7532	-0.0203
506.9516	-0.0024
507.1499	-0.0029
507.3482	-0.0138
507.5465	-0.0078
507.7448	0.0003
507.9431	-0.0054
508.1414	-0.0088
508.3396	-0.0096
508.5379	-0.0026
508.7361	-0.0083
508.9343	-0.0067
509.1325	0
509.3306	-0.0067
509.5288	-0.0037
509.7269	-0.0148
509.9251	0
510.1232	-0.0065
510.3213	-0.0055
510.5193	-0.0017
510.7174	-0.0093
510.9154	-0.0163
511.1135	-0.0133
511.3115	-0.0095
511.5095	-0.0025
511.7075	-0.0038
511.9055	-0.0058
512.1034	-0.0119
512.3014	-0.0033
512.4993	0.0016
512.6972	-0.0068
512.8951	-0.0194
513.093	-0.0005
513.2908	-0.0044
513.4887	-0.0023
513.6865	-0.0039
513.8844	-0.0157
514.0822	-0.0041
514.2799	-0.0135
514.4777	-0.0077
514.6755	-0.0072
514.8732	-0.0115
515.0709	-0.0039
515.2687	-0.0139
515.4664	0.0062
515.664	-0.0007
515.8617	-0.0061
516.0594	-0.0098
516.257	0.0003
516.4546	-0.015
516.6522	-0.0003
516.8498	-0.0033
517.0474	0.0057
517.2449	0.0027
517.4425	-0.0153
517.64	-0.0096
517.8375	-0.0013
518.035	-0.0064
518.2325	-0.0064
518.43	0.0011
518.6274	-0.003
518.8249	-0.015
519.0223	0.0037
519.2197	-0.0058
519.4171	-0.0059
519.6145	-0.0124
519.8118	-0.0024
520.0092	-0.0134
520.2065	-0.0119
520.4038	-0.0058
520.6011	-0.0016
520.7984	-0.0147
520.9956	-0.0067
521.1929	-0.0028
521.3901	0.003
521.5874	0.0004
521.7846	-0.0033
521.9818	-0.0002
522.1789	0.0009
522.3761	-0.0103
522.5732	-0.0027
522.7704	0.002
522.9675	-0.0009
523.1646	-0.0056
523.3617	0.0071
523.5587	0.0011
523.7558	-0.0096
523.9528	-0.0103
524.1498	-0.0122
524.3468	-0.0081
524.5438	-0.0007
524.7408	-0.0034
524.9378	0.0087
525.1347	-0.0024
525.3316	0.0038
525.5285	-0.0037
525.7254	-0.0006
525.9223	-0.0047
526.1192	-0.0038
526.316	-0.0082
526.5129	-0.0002
526.7097	0.0008
526.9065	-0.007
527.1033	-0.016
527.3	-0.0014
527.4968	-0.0037
527.6935	-0.0016
527.8903	-0.0158
528.087	-0.0022
528.2837	-0.0067
528.4804	-0.01
528.677	-0.0025
528.8737	0.0048
529.0703	0.0048
529.2669	0.0024
529.4635	-0.0105
529.6601	-0.0061
529.8567	0.0012
530.0532	-0.0104
530.2498	0.0009
530.4463	0.0028
530.6428	-0.0068
530.8393	0.0027
531.0358	-0.0075
531.2322	-0.0044
531.4287	-0.0141
531.6251	-0.0113
531.8215	0.0102
532.0179	0.0088
532.2143	0.0009
532.4107	0.0022
532.607	0.0013
532.8034	-0.002
532.9997	-0.0034
533.196	-0.0023
533.3923	-0.0029
533.5886	-0.0035
533.7848	0.0071
533.9811	-0.0034
534.1773	0.0006
534.3735	0.0033
534.5697	-0.0004
534.7659	0.0013
534.9621	-0.0026
535.1582	-0.0066
535.3544	-0.014
535.5505	-0.0116
535.7466	-0.0003
535.9427	0.0045
536.1387	-0.0118
536.3348	-0.0109
536.5308	0.005
536.7269	-0.0099
536.9229	0.0031
537.1189	-0.0042
537.3148	-0.0083
537.5108	-0.01
537.7068	0.0013
537.9027	0.0017
538.0986	0.0043
538.2945	-0.0009
538.4904	-0.003
538.6863	-0.0007
538.8821	-0.0066
539.078	-0.0041
539.2738	0.0018
539.4696	0.0003
539.6654	0.0072
539.8611	0.0125
540.0569	0.0015
540.2526	-0.0077
540.4484	0
540.6441	0.0131
540.8398	-0.0045
541.0355	0.0022
541.2311	-0.0074
541.4268	-0.0064
541.6224	-0.0019
541.818	0.0065
542.0136	-0.0095
542.2092	0.0016
542.4048	0.0092
542.6003	0.0096
542.7959	-0.0032
542.9914	-0.0101
543.1869	0.0045
543.3824	0.0027
543.5779	-0.0027
543.7734	0.0016
543.9688	-0.0049
544.1642	0.0057
544.3596	0.0059
544.555	-0.0022
544.7504	-0.0046
544.9458	-0.0062
545.1411	-0.0026
545.3365	-0.0079
545.5318	-0.0027
545.7271	-0.0015
545.9224	-0.0042
546.1177	0.005
546.3129	-0.0027
546.5081	-0.0035
546.7034	-0.0056
546.8986	-0.0023
547.0938	-0.0012
547.289	-0.0038
547.4841	-0.0003
547.6793	0.0114
547.8744	-0.0018
548.0695	0.0081
548.2646	-0.0149
548.4597	-0.0068
548.6548	-0.0042
548.8498	0.0082
549.0448	0.0061
549.2399	0.0006
549.4349	0.0086
549.6298	-0.0006
549.8248	-0.0023
550.0198	0.0005
550.2147	-0.0042
550.4096	0.0046
550.6045	-0.0062
550.7994	0.0052
550.9943	0.0031
551.1892	0.0002
551.384	0.0106
551.5788	-0.007
551.7737	-0.0007
551.9685	-0.0035
552.1632	0.007
552.358	0.0005
552.5528	0.0032
552.7475	-0.0071
552.9422	0.0012
553.1369	-0.006
553.3316	0.0058
553.5263	-0.0104
553.7209	0.009
553.9156	-0.0102
554.1102	-0.0095
554.3048	-0.0006
554.4994	0.0113
554.694	0.0086
554.8885	0.0011
555.0831	-0.0077
555.2776	-0.002
555.4721	-0.0027
555.6666	-0.0055
555.8611	0.0098
556.0555	-0.0026
556.25	0.0009
556.4444	-0.0071
556.6388	0.0031
556.8332	-0.004
557.0276	-0.0049
557.222	0
557.4163	-0.0065
557.6107	-0.0128
557.805	0.0004
557.9993	-0.0039
558.1936	0.0068
558.3879	0.0017
558.5821	0.0014
558.7764	-0.0041
558.9706	0.0096
559.1648	0.0033
559.359	-0.0034
559.5532	-0.0009
559.7473	-0.0043
559.9415	-0.002
560.1356	-0.0096
560.3297	-0.0054
560.5238	0.0072
560.7179	-0.002
560.9119	0.0034
561.106	-0.004
561.3	-0.0103
561.494	0.0012
561.688	-0.0018
561.882	-0.0128
562.076	-0.0082
562.2699	-0.0017
562.4639	0.0036
562.6578	-0.0028
562.8517	-0.0015
563.0456	0.0045
563.2395	0.0024
563.4333	0.0026
563.6272	-0.002
563.821	-0.005
564.0148	0.0026
564.2086	-0.0086
564.4024	-0.0041
564.5961	-0.0116
564.7899	0.0081
564.9836	0.0058
565.1773	0.002
565.371	0.0095
565.5647	0.0055
565.7584	0.0067
565.952	-0.0043
566.1456	-0.0072
566.3393	-0.0015
566.5329	-0.0057
566.7264	-0.0036
566.92	-0.0134
567.1136	0.0048
567.3071	-0.0067
567.5006	0.0035
567.6941	0.001
567.8876	-0.0004
568.0811	0.0046
568.2745	0.0094
568.468	0.0024
568.6614	-0.0013
568.8548	0.0007
569.0482	-0.0042
569.2416	-0.0033
569.4349	0.0048
569.6283	0.0053
569.8216	-0.0015
570.0149	-0.0035
570.2082	0.0099
570.4015	0.0047
570.5947	0.0054
570.788	0.0025
570.9812	0.0049
571.1744	0.0027
571.3676	-0.0065
571.5608	0.0016
571.754	0.0038
571.9471	0.0024
572.1402	0.0039
572.3333	-0.0043
572.5264	-0.0005
572.7195	-0.0039
572.9126	-0.0003
573.1057	0.0038
573.2987	-0.003
573.4917	0.0039
573.6847	-0.0067
573.8777	0.0032
574.0707	0.0041
574.2636	0.0009
574.4566	0.003
574.6495	0.0001
574.8424	-0.0047
575.0353	-0.0021
575.2281	0.0111
575.421	0.0052
575.6138	0.0005
575.8067	0.0057
575.9995	0.0044
576.1923	0.0085
576.385	0.0042
576.5778	-0.0027
576.7706	-0.0008
576.9633	0.0015
577.156	0.007
577.3487	-0.0001
577.5414	0.0048
577.734	-0.0027
577.9267	0.0044
578.1193	-0.0043
578.3119	0.0007
578.5045	0.0028
578.6971	0.0038
578.8897	0.0018
579.0822	0.0035
579.2747	0.0043
579.4673	-0.0039
579.6598	-0.0074
579.8522	-0.0043
580.0447	-0.002
580.2372	-0.0019
580.4296	0.0078
580.622	-0.0016
580.8144	-0.0006
581.0068	-0.004
581.1992	-0.012
581.3915	-0.008
581.5839	-0.0052
581.7762	-0.0034
581.9685	-0.0008
582.1608	0.001
582.353	-0.0036
582.5453	0.0002
582.7375	-0.0054
582.9298	0.0065
583.122	-0.0018
583.3142	0.0051
583.5063	0.0033
583.6985	-0.0049
583.8906	0.0029
584.0827	-0.0017
584.2749	0.0037
584.4669	0.002
584.659	-0.0007
584.8511	-0.0045
585.0431	-0.0029
585.2352	0.0017
585.4272	-0.0005
585.6192	0.0097
585.8111	0.0059
586.0031	-0.002
586.195	-0.0017
586.387	0.0054
586.5789	0.0042
586.7708	0.0045
586.9627	0.003
587.1545	-0.0037
587.3464	0.0074
587.5382	0.008
587.73	-0.0048
587.9218	0.0014
588.1136	0.0003
588.3053	0.0051
588.4971	-0.0081
588.6888	-0.0031
588.8805	-0.0015
589.0722	0.0096
589.2639	0.0022
589.4556	-0.0063
589.6472	-0.0016
589.8389	-0.0047
590.0305	-0.0059
590.2221	0.0002
590.4137	-0.0054
590.6052	0.0081
590.7968	-0.0043
590.9883	0.0061
591.1798	0.0013
591.3713	-0.0037
591.5628	0.006
591.7543	0.0058
591.9458	0.0001
592.1372	0.0028
592.3286	0.0104
592.52	0.0059
592.7114	-0.0019
592.9028	-0.0041
593.0941	-0.0061
593.2855	0.0017
593.4768	-0.0061
593.6681	-0.0014
593.8594	-0.0047
594.0506	0.0007
594.2419	0.012
594.4331	0.0043
594.6244	0.0035
594.8156	-0.005
595.0067	0.0038
595.1979	0.004
595.3891	0.0032
595.5802	-0.0095
595.7713	0.001
595.9624	-0.001
596.1535	0.0112
596.3446	-0.0001
596.5357	0.005
596.7267	0.0032
596.9177	0.0079
597.1087	0.0005
597.2997	-0.0068
597.4907	0.0053
597.6817	-0.0047
597.8726	0.0038
598.0635	-0.0083
598.2544	0.0035
598.4453	0.0029
598.6362	-0.0037
598.827	-0.0046
599.0179	0.0023
599.2087	0.0009
599.3995	0.0021
599.5903	0.0016
599.7811	0.0028
599.9718	0.0015
600.1626	0.0046
600.3533	-0.0026
600.544	0.0009
600.7347	0.0001
600.9254	0.0035
601.116	-0.0078
601.3067	0.0021
601.4973	-0.0001
601.6879	0.0069
601.8785	0.0001
602.0691	-0.0018
602.2596	0.0028
602.4502	0.0039
602.6407	0.0018
602.8312	0.0055
603.0217	0.0026
603.2122	0.0043
603.4027	-0.0052
603.5931	0.0013
603.7835	-0.0008
603.9739	-0.0032
604.1643	-0.0039
604.3547	-0.0017
604.5451	-0.0017
604.7354	-0.0063
604.9257	0.0041
605.116	-0.005
605.3063	0.0028
605.4966	0.0032
605.6869	0.0038
605.8771	0.0007
606.0673	0.0018
606.2575	0.0064
606.4477	0.0119
606.6379	0.004
606.8281	0.0018
607.0182	-0.0002
607.2083	0.0113
607.3985	-0.0029
607.5885	0.0016
607.7786	-0.0015
607.9687	-0.0001
608.1587	0.0038
608.3488	0.0001
608.5388	0.0032
608.7288	0.0012
608.9187	-0.0054
609.1087	-0.0023
609.2986	0.0012
609.4886	-0.0002
609.6785	0.0012
609.8684	-0.0003
610.0582	0.0066
610.2481	0.0064
610.4379	0.0024
610.6278	0.0044
610.8176	0.003
611.0074	-0.0053
611.1971	0.002
611.3869	0.0009
611.5766	-0.0023
611.7664	0.0047
611.9561	0.0055
612.1458	0.0031
612.3354	-0.0016
612.5251	-0.0025
612.7147	0.0102
612.9044	0.0073
613.094	-0.0092
613.2836	0.0005
613.4731	-0.0023
613.6627	-0.0037
613.8522	0.0043
614.0417	0.0066
614.2313	-0.0009
614.4207	-0.0045
614.6102	0.0004
614.7997	-0.0021
614.9891	-0.006
615.1785	0.0063
615.3679	0.001
615.5573	0.0054
615.7467	0.0033
615.9361	0.0017
616.1254	0.0013
616.3147	0.0014
616.504	0.0061
616.6933	0.0034
616.8826	0.0063
617.0718	0.0069
617.2611	0.0037
617.4503	-0.0015
617.6395	-0.0003
617.8287	-0.0028
618.0179	0.0027
618.207	0.0093
618.3961	-0.0012
618.5853	0.0012
618.7744	0.0046
618.9634	0.0098
619.1525	0.0062
619.3416	0.0073
619.5306	0.0043
619.7196	0.0021
619.9086	0.0017
620.0976	0.0028
620.2866	-0.0014
620.4755	0.0096
620.6645	0.0055
620.8534	0.0066
621.0423	0.0093
621.2312	0.0118
621.42	-0.0009
621.6089	0.0072
621.7977	0.0062
621.9865	0.0008
622.1753	0.0039
622.3641	-0.004
622.5529	0.0123
622.7416	0.0053
622.9303	-0.0022
623.1191	0.0031
623.3078	0.0002
623.4964	0.009
623.6851	0.0013
623.8737	0.0031
624.0624	0.0101
624.251	0.0008
624.4396	0.0032
624.6282	-0.0031
624.8167	0.0046
625.0053	0.0043
625.1938	0.0008
625.3823	0.0074
625.5708	-0.008
625.7593	-0.006
625.9477	-0.0108
626.1362	-0.0044
626.3246	-0.0015
626.513	0.0019
626.7014	0.0061
626.8898	0.001
627.0781	0.0083
627.2665	-0.0002
627.4548	0.014
627.6431	0.0063
627.8314	0.0014
628.0197	0.0097
628.2079	0.0032
628.3962	0.0006
628.5844	0.0081
628.7726	0.0035
628.9608	0.0075
629.1489	-0.0005
629.3371	0.0026
629.5252	-0.0053
629.7134	0.004
629.9015	0.0018
630.0895	-0.0051
630.2776	0.0056
630.4657	0.0039
630.6537	0.0068
630.8417	-0.0016
631.0297	-0.0041
631.2177	0.0021
631.4057	0.0031
631.5936	0.001
631.7815	0.0082
631.9695	0.0046
632.1574	0.0116
632.3452	0.0151
632.5331	0.0095
632.7209	0.0035
632.9088	0.013
633.0966	0.0193
633.2844	0.003
633.4722	0.0104
633.6599	0.005
633.8477	-0.0013
634.0354	0.0044
634.2231	0.0047
634.4108	0.006
634.5985	0.0066
634.7861	0.0094
634.9738	0.0072
635.1614	0.0072
635.349	0.0028
635.5366	-0.0032
635.7242	0.0009
635.9117	0.0137
636.0993	0.007
636.2868	0.0074
636.4743	0.0029
636.6618	0.0152
636.8492	0.0099
637.0367	0.009
637.2241	0.0042
637.4115	-0.0034
637.5989	-0.0014
637.7863	0.0014
637.9737	-0.0006
638.161	0.0004
638.3484	0.0008
638.5357	0.0098
638.723	0.0001
638.9103	0.0087
639.0975	0.0082
639.2848	0.0096
639.472	-0.001
639.6592	0.0112
639.8464	0.0118
640.0336	0.0031
640.2208	-0.001
640.4079	-0.0038
640.595	0.006
640.7821	0.0041
640.9692	0.0007
641.1563	0.0066
641.3434	0.0102
641.5304	0.0072
641.7174	0.0058
641.9044	-0.0007
642.0914	0.0085
642.2784	0.0026
642.4653	0.0031
642.6523	0.0032
642.8392	-0.003
643.0261	0.0076
643.213	0.0032
643.3999	0.0019
643.5867	0.0008
643.7735	0.0039
643.9604	-0.0043
644.1472	0.0052
644.3339	0.0046
644.5207	0.0049
644.7075	0.0084
644.8942	0.0016
645.0809	0.0072
645.2676	0.0102
645.4543	0.0002
645.6409	0.0043
645.8276	-0.0014
646.0142	0.0074
646.2008	-0.0018
646.3874	-0.0024
646.574	-0.0009
646.7605	-0.0025
646.9471	-0.0116
647.1336	0.0008
647.3201	0.0016
647.5066	-0.0022
647.6931	0.0046
647.8795	0.0002
648.0659	0.0098
648.2524	0.0071
648.4388	-0.0033
648.6252	-0.0035
648.8115	0.001
648.9979	-0.0021
649.1842	0.0063
649.3705	-0.0034
649.5568	0.0044
649.7431	0.0074
649.9294	-0.0025
650.1156	0.0054
650.3018	-0.0002
650.488	0.0039
650.6742	0.0089
650.8604	0.0069
651.0466	-0.0003
651.2327	0.0054
651.4188	0.0025
651.6049	0.0031
651.791	0.0062
651.9771	0.0099
652.1632	0.0097
652.3492	0.005
652.5352	0.0043
652.7212	0
652.9072	0.0091
653.0932	0.0024
653.2791	0.0021
653.465	0.007
653.651	-0.0009
653.8369	0.0084
654.0227	0.0079
654.2086	0.0039
654.3944	0.0076
654.5803	0.0051
654.7661	0.0019
654.9519	0.0008
655.1377	-0.0022
655.3234	0.0001
655.5092	-0.0018
655.6949	-0.0023
655.8806	-0.0057
656.0663	-0.001
656.2519	-0.0013
656.4376	0.0001
656.6232	0.0049
656.8088	-0.0014
656.9945	0.0031
657.18	0.0029
657.3656	0.0017
657.5511	0.0018
657.7367	-0.0049
657.9222	0.0098
658.1077	0.0035
658.2932	0.0032
658.4786	-0.0064
658.6641	0.0009
658.8495	0.0024
659.0349	0.0062
659.2203	0.004
659.4057	0.0009
659.591	0.0013
659.7764	0.003
659.9617	0.0011
660.147	0.0055
660.3323	0.0041
660.5176	0.0154
660.7028	0.0024
660.888	0.0066
661.0733	0.0039
661.2585	0.0014
661.4436	-0.0001
661.6288	-0.0011
661.8139	-0.0057
661.9991	0.0017
662.1842	-0.0056
662.3693	0.0052
662.5544	-0.0047
662.7394	-0.0019
662.9245	-0.0018
663.1095	0.0045
663.2945	0.002
663.4795	-0.0013
663.6644	0.0005
663.8494	0.0017
664.0343	0.0039
664.2193	0.0035
664.4042	0.0048
664.589	-0.0077
664.7739	0.0022
664.9587	-0.0065
665.1436	0
665.3284	0.0044
665.5132	0.0019
665.698	0.0037
665.8827	0.0039
666.0675	0.0096
666.2522	-0.0035
666.4369	0.0059
666.6216	0.006
666.8063	-0.0025
666.9909	0.0009
667.1756	0.0043
667.3602	0.0006
667.5448	0.0029
667.7294	0.013
667.9139	0.0039
668.0985	0.0173
668.283	0.0049
668.4675	0.0061
668.652	0.0039
668.8365	0.0033
669.0209	0.0126
669.2054	0.016
669.3898	0.0088
669.5742	0.0149
669.7586	0.0103
669.943	0.0119
670.1273	0.0049
670.3117	0.0165
670.496	0.015
670.6803	0.0157
670.8646	0.0028
671.0488	0.0002
671.2331	0.0104
671.4173	0.0058
671.6015	0.0004
671.7857	0.0038
671.9699	0.0057
672.1541	0.0038
672.3382	0.0015
672.5223	0.0031
672.7064	0.0012
672.8905	0.0118
673.0746	0.0021
673.2587	0.0061
673.4427	0.0086
673.6267	0.0143
673.8107	0.0122
673.9947	0.0063
674.1787	0.004
674.3626	0.0021
674.5465	0.0066
674.7304	0.0061
674.9143	0.0101
675.0982	0.0118
675.2821	-0.0029
675.4659	0.0073
675.6497	0.0048
675.8335	0.0035
676.0173	0.007
676.2011	0.0049
676.3849	0.0079
676.5686	0.0001
676.7523	-0.0033
676.936	-0.0053
677.1197	-0.0026
677.3034	-0.0003
677.487	0.0072
677.6706	0.0022
677.8542	0.0071
678.0378	0.0039
678.2214	-0.0011
678.405	-0.0035
678.5885	0.0016
678.772	0.0011
678.9555	-0.0054
679.139	-0.0012
679.3225	0.0116
679.5059	-0.0028
679.6894	0.0001
679.8728	0.0045
680.0562	-0.004
680.2395	-0.0057
680.4229	-0.0017
680.6062	0.0066
680.7896	-0.0023
680.9729	-0.0057
681.1562	0.0026
681.3394	-0.0005
681.5227	-0.0044
681.7059	-0.0005
681.8891	0.0062
682.0723	0.0088
682.2555	0.0053
682.4387	-0.0005
682.6218	-0.0041
682.805	0.0124
682.9881	0.0062
683.1712	-0.0017
683.3542	-0
683.5373	0.0094
683.7203	-0.0053
683.9034	0.0011
684.0864	-0.008
684.2694	0.0068
684.4523	0.0086
684.6353	-0.0037
684.8182	0.0027
685.0011	-0.0045
685.184	0.0046
685.3669	-0.0011
685.5498	0.0064
685.7326	0.0063
685.9154	-0.0014
686.0982	0.0104
686.281	0.0015
686.4638	0.0108
686.6465	0.0023
686.8293	0.0034
687.012	0.0046
687.1947	-0.0075
687.3774	0.0041
687.56	-0.0017
687.7427	0.0048
687.9253	-0.0035
688.1079	0.0011
688.2905	0.0048
688.4731	0.0036
688.6556	0.0033
688.8382	0.0025
689.0207	0.0037
689.2032	-0.0063
689.3857	-0.0064
689.5681	-0.0085
689.7506	-0.0074
689.933	-0.0095
690.1154	-0.0039
690.2978	-0.0047
690.4802	-0.0045
690.6626	-0.0137
690.8449	-0.0046
691.0272	0.004
691.2095	-0.0011
691.3918	-0.0087
691.5741	0.0039
691.7563	0.0042
691.9386	0.0021
692.1208	-0.0016
692.303	0.0013
692.4852	-0.0014
692.6673	0.0039
692.8495	0.0009
693.0316	0.0065
693.2137	0.0052
693.3958	0.0092
693.5778	0.0016
693.7599	0.0027
693.9419	-0.0062
694.1239	0.0025
694.3059	-0.0062
694.4879	0.0137
694.6699	0.0095
694.8518	0.0004
695.0337	-0.0005
695.2157	0.0034
695.3975	0.0058
695.5794	0.0105
695.7613	0.0061
695.9431	-0.0021
696.1249	0.0051
696.3067	0.0067
696.4885	0.0056
696.6703	-0.0012
696.852	0.0058
697.0337	0.001
697.2154	0.0019
697.3971	0.0028
697.5788	0.0023
697.7605	0.0041
697.9421	0.0078
698.1237	0.0061
698.3053	0.0026
698.4869	0.0029
698.6685	-0.0068
698.85	0.0043
699.0315	0.0101
699.213	0.0076
699.3945	-0.0012
699.576	0.0075
699.7575	0.0022
699.9389	0.0187
700.1203	-0.0047
700.3017	-0.0024
700.4831	-0.0023
700.6645	-0.0007
700.8458	0.0117
701.0271	0.0034
701.2084	0.007
701.3897	0.0026
701.571	0.0069
701.7523	-0.0056
701.9335	0.0055
702.1147	-0
702.2959	0.0075
702.4771	0.0041
702.6583	0.0036
702.8394	-0.0008
703.0205	0.011
703.2016	0.0008
703.3827	0.0109
703.5638	0.01
703.7449	-0.0023
703.9259	0.0127
704.1069	-0.001
704.2879	0.0117
704.4689	0.0084
704.6499	-0.0021
704.8308	0.0046
705.0117	0.0033
705.1927	0.0064
705.3735	0.008
705.5544	-0.005
705.7353	0.0024
705.9161	-0.0064
706.0969	0.0032
706.2777	0.0003
706.4585	-0.0023
706.6393	0.0029
706.82	-0.0021
707.0007	0.001
707.1815	-0.0007
707.3621	0.0015
707.5428	-0.0004
707.7235	-0.0004
707.9041	0.0031
708.0847	-0.0098
708.2653	-0.0004
708.4459	-0.0162
708.6265	-0.0031
708.807	-0.0078
708.9875	-0.0084
709.168	-0.0067
709.3485	-0.0052
709.529	-0.0034
709.7095	-0.0128
709.8899	-0.0085
710.0703	-0.0119
710.2507	-0.0006
710.4311	-0.0034
710.6115	-0.012
710.7918	-0.0056
710.9721	-0.0003
711.1524	-0.009
711.3327	-0.0031
711.513	0.0005
711.6932	-0.0025
711.8735	0.0035
712.0537	0.0034
712.2339	0.0105
712.4141	-0.0027
712.5942	-0.0001
712.7744	-0.002
712.9545	-0.0089
713.1346	-0.0079
713.3147	-0.0033
713.4947	-0.0023
713.6748	-0.0113
713.8548	0.0024
714.0348	0.0077
714.2148	-0.0034
714.3948	0.0066
714.5748	-0.0013
714.7547	0.0004
714.9346	0.0039
715.1145	0.0016
715.2944	-0.0025
715.4743	0.0022
715.6541	0.002
715.834	0.0054
716.0138	-0.0058
716.1936	-0.0107
716.3733	-0.0016
716.5531	0.0058
716.7328	-0.0016
716.9126	0.0036
717.0923	0.0005
717.2719	-0.005
717.4516	0.0033
717.6312	0.0028
717.8109	-0.0091
717.9905	0.0011
718.1701	-0.0162
718.3496	-0.0014
718.5292	0.0021
718.7087	0.0055
718.8882	0.0008
719.0677	0.0059
719.2472	-0.0062
719.4267	0.0008
719.6061	0.0001
719.7856	0.0049
719.965	0.006
720.1443	-0.0103
720.3237	0.0119
720.5031	0.0022
720.6824	0.0011
720.8617	-0.0001
721.041	-0.0051
721.2203	0.0057
721.3995	0.0031
721.5788	-0.0035
721.758	0.0061
721.9372	0.0056
722.1164	0.001
722.2956	0.0052
722.4747	0.0022
722.6538	-0.0005
722.8329	0.0131
723.012	0.0035
723.1911	-0.004
723.3702	-0.0051
723.5492	0.0047
723.7282	-0.0028
723.9072	-0.0026
724.0862	-0.002
724.2652	-0.0055
724.4441	0.0008
724.623	0.0016
724.8019	0.002
724.9808	0.003
725.1597	-0.0115
725.3385	0.0041
725.5174	-0.0012
725.6962	-0.0033
725.875	-0.0027
726.0538	0.0023
726.2325	0.0027
726.4112	0.0047
726.59	0.0005
726.7687	-0.0064
726.9474	0.0098
727.126	-0.0038
727.3047	-0.0093
727.4833	-0.0032
727.6619	-0.0109
727.8405	-0.0016
728.0191	-0.0027
728.1976	0
728.3762	-0.0003
728.5547	0.0006
728.7332	-0.0053
728.9116	0.0021
729.0901	0.0028
729.2686	-0.0139
729.447	0.0027
729.6254	0.0041
729.8038	0.0032
729.9821	-0.0024
730.1605	0.0023
730.3388	0.0045
730.5171	0.0056
730.6954	0.0014
730.8737	0.0043
731.0519	0.0123
731.2302	0.0051
731.4084	0.0173
731.5866	0.007
731.7648	0.0069
731.9429	0.0006
732.1211	-0.013
732.2992	0.0041
732.4773	-0.0029
732.6554	-0.0022
732.8335	0.002
733.0115	-0.0069
733.1896	0.0036
733.3676	-0.0024
733.5456	-0.0015
733.7235	-0.0007
733.9015	-0.003
734.0794	-0.0026
734.2574	0.002
734.4353	0.0001
734.6131	0.0077
734.791	0.0044
734.9689	0.0056
735.1467	0.0099
735.3245	0.0011
735.5023	-0.0049
735.68	-0.0024
735.8578	0.006
736.0355	-0.0144
736.2132	-0.0067
736.3909	0.0021
736.5686	-0.011
736.7463	0.001
736.9239	-0.0052
737.1015	-0.0029
737.2791	0.0104
737.4567	0.0071
737.6343	0.0052
737.8118	0.013
737.9894	0.0125
738.1669	-0.003
738.3444	-0.0026
738.5218	0.0111
738.6993	-0.0005
738.8767	0.0006
739.0541	0.0137
739.2315	-0.0063
739.4089	0.0059
739.5863	0.0033
739.7636	-0.0033
739.9409	0.0053
740.1182	0
740.2955	-0.005
740.4728	-0.005
740.65	-0.0006
740.8272	0.0009
741.0044	-0.0094
741.1816	0.0039
741.3588	0.0018
741.5359	-0.0025
741.7131	-0.0042
741.8902	0.0005
742.0673	0.0023
742.2444	-0.0037
742.4214	-0.0106
742.5985	0.0023
742.7755	-0.0038
742.9525	-0.0139
743.1295	-0.0006
743.3064	0.0037
743.4834	0.0154
743.6603	-0.0016
743.8372	0.0037
744.0141	0.0107
744.191	0.0073
744.3678	-0.0009
744.5446	0.004
744.7215	0.0053
744.8982	0.0034
745.075	-0.0047
745.2518	0.0068
745.4285	0.0029
745.6052	0.0048
745.7819	-0.0062
745.9586	-0.0018
746.1353	0.0019
746.3119	-0.0081
746.4885	-0.0018
746.6651	-0.0006
746.8417	-0.0001
747.0183	0.001
747.1948	-0.0043
747.3714	0.0026
747.5479	0
747.7244	-0.0042
747.9008	0.0048
748.0773	0.0004
748.2537	0.0042
748.4301	-0.0084
748.6065	0.0035
748.7829	0.0028
748.9593	-0.0041
749.1356	0.0017
749.3119	0.0048
749.4882	-0.008
749.6645	0.0013
749.8408	-0.0092
750.017	-0.0036
750.1933	-0.0049
750.3695	-0.0064
750.5457	-0.0042
750.7218	-0.0003
750.898	-0.0004
751.0741	-0.0084
751.2502	0.0066
751.4263	-0.0021
751.6024	-0.0042
751.7784	0.0043
751.9545	0.0011
752.1305	0.0005
752.3065	-0.0054
752.4825	0.0046
752.6584	-0.0056
752.8344	-0.0021
753.0103	-0.0097
753.1862	0.0034
753.3621	0.0044
753.5379	-0.0085
753.7138	0.0002
753.8896	0.0048
754.0654	0.0023
754.2412	0.0042
754.417	0.007
754.5927	0.0043
754.7685	-0.0017
754.9442	0.0111
755.1199	0.0128
755.2956	0.0012
755.4712	0.0153
755.6469	0.0094
755.8225	0.0015
755.9981	0.0067
756.1736	0.0171
756.3492	0.0035
756.5248	-0.0046
756.7003	0
756.8758	0.0077
757.0513	-0.0027
757.2267	0.0055
757.4022	0.0078
757.5776	0.0031
757.753	0.0091
757.9284	0.0037
758.1038	0.0109
758.2791	0.013
758.4545	-0.0069
758.6298	0.0056
758.8051	0.0016
758.9803	-0.0045
759.1556	0.0107
759.3308	-0.0036
759.506	0.0048
759.6812	0.0013
759.8564	0.0091
760.0316	0.0011
760.2067	0.0118
760.3819	0.0063
760.557	0.0132
760.732	0.0097
760.9071	-0.0094
761.0821	0.0035
761.2572	0.0121
761.4322	0.0079
761.6072	0.0014
761.7821	0.0025
761.9571	0.012
762.132	0.0035
762.3069	-0.0029
762.4818	-0.0058
762.6567	0.007
762.8316	-0.0051
763.0064	0.0083
763.1812	0.0017
763.356	-0.0079
763.5308	0.0027
763.7055	-0.0017
763.8803	0.0008
764.055	-0.0082
764.2297	-0.0084
764.4044	-0.0063
764.579	-0.0056
764.7537	-0.0154
764.9283	-0.004
765.1029	0.0037
765.2775	-0.001
765.4521	-0.0108
765.6266	-0.0095
765.8011	-0.0014
765.9756	-0.0116
766.1501	-0.0037
766.3246	-0.0075
766.4991	-0.0052
766.6735	0.0071
766.8479	-0.0136
767.0223	0.0107
767.1967	-0.0045
767.371	0.0029
767.5454	0.0015
767.7197	0.0108
767.894	-0.0043
768.0683	-0.0038
768.2425	0.0152
768.4168	0.0061
768.591	0.007
768.7652	0.0004
768.9394	0.0054
769.1135	0.0087
769.2877	0.0057
769.4618	0.0036
769.6359	0.0065
769.81	-0.0044
769.984	-0.006
770.1581	-0.0022
770.3321	0.004
770.5061	0.0005
770.6801	-0.002
770.8541	-0.0104
771.028	0.003
771.202	-0.0162
771.3759	0.006
771.5498	-0.0122
771.7236	-0.0008
771.8975	-0.001
772.0713	0.009
772.2451	0.0083
772.4189	-0.002
772.5927	-0.0011
772.7665	0.0023
772.9402	-0.0032
773.1139	0.0081
773.2876	-0.0135
773.4613	0.0067
773.635	0.0095
773.8086	-0.0092
773.9822	0.0073
774.1558	0.0039
774.3294	-0.0152
774.503	0.0014
774.6765	0.0069
774.8501	0.0067
775.0236	0.0065
775.1971	0.0132
775.3705	-0.0012
775.544	0.0107
775.7174	-0.0032
775.8908	0.0017
776.0642	0.0027
776.2376	-0.0001
776.4109	-0.0018
776.5843	-0.0056
776.7576	0.0159
776.9309	0.0129
777.1041	0.0133
777.2774	0.0114
777.4506	0.0043
777.6238	-0.0018
777.797	0.0122
777.9702	0.0043
778.1434	-0.0064
778.3165	-0.0248
778.4896	-0.0046
778.6627	0.0084
778.8358	-0.0028
779.0089	-0.0045
779.1819	-0.0045
779.3549	0.0098
779.5279	-0.0121
779.7009	-0.0045
779.8739	0.0027
780.0468	0.0032
780.2197	-0.0009
780.3926	-0.0095
780.5655	-0.0062
780.7384	-0.0079
780.9112	0.0109
781.0841	-0.0017
781.2569	0.0099
781.4297	0.0024
781.6024	0.0052
781.7752	0.0157
781.9479	0.0063
782.1206	-0.0001
782.2933	-0.0103
782.466	0.0099
782.6386	0.0109
782.8113	0.0078
782.9839	0.0053
783.1565	0.001
783.329	-0.0088
783.5016	0.0068
783.6741	0.006
783.8466	-0.0017
784.0191	0.0108
784.1916	-0.0069
784.3641	0.0028
784.5365	-0.0058
784.7089	-0.0108
784.8813	-0.0136
785.0537	-0.0078
785.2261	-0.0224
785.3984	-0.0124
785.5707	-0.0125
785.743	0.0077
785.9153	-0.0152
786.0876	0.0047
786.2598	-0.0068
786.432	-0.0148
786.6042	0.0091
786.7764	-0.0139
786.9486	-0.0021
787.1207	-0.0128
787.2928	0.0145
787.4649	0.0013
787.637	0.0013
787.8091	-0.0021
787.9811	0.0005
788.1532	-0.0124
788.3252	0.0016
788.4972	-0.006
788.6691	0.0024
788.8411	0.0035
789.013	-0.0073
789.1849	0.005
789.3568	-0.0043
789.5287	-0.0037
789.7005	-0.0121
789.8723	-0.0015
790.0442	0.0022
790.2159	0.0018
790.3877	-0.0042
790.5595	-0.0234
790.7312	0.0049
790.9029	0.0094
791.0746	0.002
791.2463	-0.0029
791.4179	-0.0111
791.5896	-0.0111
791.7612	-0.0069
791.9328	0.0042
792.1044	-0.0167
792.2759	-0.0191
792.4474	-0.0077
792.619	-0.0109
792.7905	0.0076
792.9619	0.0035
793.1334	0.0107
793.3048	0.0164
793.4762	0.0002
793.6476	0.001
793.819	-0.0049
793.9904	-0.001
794.1617	-0.0122
794.333	-0.0207
794.5043	-0.01
794.6756	-0.0088
794.8469	-0.006
795.0181	-0.0013
795.1893	-0.0142
795.3605	0.006
795.5317	0.0012
795.7029	-0.0125
795.874	0.0067
796.0452	0.0009
796.2163	0.0101
796.3873	0.0011
796.5584	0
796.7294	-0.0039
796.9005	0.0079
797.0715	-0.0043
797.2425	-0.0173
797.4134	-0.0034
797.5844	-0.0078
797.7553	-0.0175
797.9262	0.0015
798.0971	-0.0027
798.2679	-0.0123
798.4388	-0.0086
798.6096	0.0029
798.7804	0.003
798.9512	-0.0013
799.122	-0.0002
799.2927	0.026
799.4635	0.0104
799.6342	-0.0072
799.8049	-0.0147
799.9755	0.0004
800.1462	-0.0133
800.3168	0.0055
800.4874	0.0066
800.658	0.018
800.8286	-0.0011
800.9991	0.0108
801.1696	0.0153
801.3402	0.0097
801.5106	0
801.6811	0.0166
801.8516	-0.0036
802.022	0.0011
802.1924	-0.018
802.3628	0.0105
802.5332	0.0197
802.7035	0.0038
802.8739	0.0019
803.0442	-0.007
803.2145	0.0021
803.3847	-0.0135
803.555	-0.0117
803.7252	0.0074
803.8954	-0.0148
804.0656	-0.0183
804.2358	-0.0024
804.4059	0.0083
804.5761	-0.0045
804.7462	0.0084
804.9163	-0.0008
805.0864	-0.0122
805.2564	0.0027
805.4264	0.013
805.5965	-0.0177
805.7665	0.0113
805.9364	-0.0064
806.1064	0.0085
806.2763	-0.0105
806.4462	0.0115
806.6161	-0.0062
806.786	0.0066
806.9559	-0.012
807.1257	0.0049
807.2955	-0.0053
807.4653	0.001
807.6351	-0.0112
807.8048	-0.0002
807.9746	0.0186
808.1443	0.0202
808.314	-0.0033
808.4837	-0.0116
808.6533	0.0082
808.8229	0.0323
808.9926	0.0068
809.1622	-0.0035
809.3317	-0.0157
809.5013	-0.0032
809.6708	0.0104
809.8403	0.006
810.0098	0.0044
810.1793	0.0026
810.3488	0.0143
810.5182	-0.0257
810.6876	0.0059
810.857	-0.017
811.0264	0.0164
811.1958	0.0029
811.3651	-0.0005
811.5344	-0.0052
811.7037	-0.0169
811.873	-0.0193
812.0422	-0.0067
812.2115	0.0055
812.3807	-0.0109
812.5499	0.0132
812.7191	0.0098
812.8882	0.0023
813.0574	-0.0041
813.2265	-0.0094
813.3956	-0.0064
813.5646	-0.0076
813.7337	-0.0273
813.9027	0.008
814.0718	0.0335
814.2407	0.0207
814.4097	-0.006
814.5787	-0.0298
814.7476	0.0055
814.9165	0.0209
815.0854	-0.0341
815.2543	-0.0051
815.4232	0.0086
815.592	0.0238
815.7608	-0.0176
815.9296	0.0141
816.0984	-0.0095
816.2671	-0.0205
816.4359	-0.0122
816.6046	-0.0159
816.7733	-0.0054
816.942	-0.0056
817.1106	0.0089
817.2793	-0.0105
817.4479	-0.0027
817.6165	0.0075
817.785	0.0142
817.9536	-0.0288
818.1221	-0.017
818.2906	0.0084
818.4591	0.0056
818.6276	0.0028
818.7961	-0.0029
818.9645	0.0218
819.1329	0.0074
819.3013	0.0058
819.4697	0.0236
819.638	0.0175
819.8064	0.0132
819.9747	0.0124
820.143	0.0165
820.3113	-0.005
820.4795	0.0071
820.6477	-0.0074
820.816	-0.0013
820.9842	-0.0067
821.1523	-0.0078
821.3205	0.0001
821.4886	0.0048
821.6567	0.0084
821.8248	0.0011
821.9929	0.0159
822.1609	-0.01
822.329	0.0378
822.497	0.0291
822.665	0.0016
822.833	-0.0287
823.0009	0.0012
823.1688	0.0019
823.3367	0.0298
823.5046	0.036
823.6725	0.0417
823.8404	0.0294
824.0082	0.0052
824.176	0.0211
824.3438	0.028
824.5116	0.0098
824.6793	0.0034
824.847	-0.0012
825.0147	-0.0113
825.1824	0.0071
825.3501	0.0088
825.5177	-0.0061
825.6854	0.004
825.853	0.0167
826.0206	-0.0114
826.1881	0.0185
826.3557	-0.0093
826.5232	0.0137
826.6907	-0.0337
826.8582	-0.0071
827.0257	-0.0349
827.1931	0.011
827.3605	0.0037
827.528	-0.0146
827.6953	-0.0454
827.8627	-0.0196
828.03	0.0288
828.1974	-0.0415
828.3647	-0.0341
828.532	-0.0019
828.6992	-0.0235
828.8665	-0.0047
829.0337	-0.0129
829.2009	0.0258
829.3681	-0.0194
829.5352	0.0163
829.7024	-0.0053
829.8695	-0.0416
830.0366	0.0275
830.2037	-0.0095
830.3707	0.0218
830.5378	-0.0057
830.7048	0.0173
830.8718	-0.0048
831.0388	-0.0005
831.2057	0.0164
831.3727	0.0297
831.5396	-0.0155
831.7065	-0.0245
831.8734	0.011
832.0402	-0.0259
832.2071	0.0233
832.3739	-0.0384
832.5407	0.0013
832.7075	-0.0224
832.8742	-0.0214
833.041	-0.0549
833.2077	-0.0149
833.3744	0.0313
833.541	0.0099
833.7077	-0.0283
833.8743	-0.0411
834.0409	0.0112
834.2075	0.0026
834.3741	-0.0382
834.5407	-0.024
834.7072	-0.013
834.8737	-0.0281
835.0402	-0.0046
835.2067	0.0205
835.3731	0.0021
835.5395	0.0197
835.706	0.0106
835.8723	0.0155
836.0387	0.0223
836.2051	-0.0122
836.3714	-0.0173
836.5377	-0.0317
836.704	-0.0201
836.8703	0.0009
837.0365	0.006
837.2027	-0.0006
837.3689	0.0055
837.5351	-0.0413
837.7013	-0.0302
837.8674	-0.0723
838.0335	-0.0359
838.1997	0.0133
838.3657	-0.056
838.5318	-0.0375
838.6978	-0.002
838.8639	0.0122
839.0299	0.0195
839.1958	0.0243
839.3618	-0.0158
839.5277	-0.0007
839.6937	0.0026
839.8596	-0.0097
840.0254	0.0119
840.1913	-0.0089
840.3571	0.0144
840.523	-0.0116
840.6888	-0.0155
840.8545	-0.0359
841.0203	-0.0376
841.186	-0.0125
841.3517	0.0346
841.5174	-0.0136
841.6831	-0.0488
841.8488	0.002
842.0144	-0.008
842.18	-0.0181
842.3456	-0.0017
842.5112	-0.0245
842.6767	-0.0611
842.8422	-0.0248
843.0077	-0.0429
843.1732	-0.0842
843.3387	-0.0859
843.5042	-0.017
843.6696	-0.0093
843.835	-0.0219
844.0004	0.006
844.1657	-0.0373
844.3311	-0.0811
844.4964	-0.0517
844.6617	-0.062
844.827	-0.0056
844.9923	-0.0339
845.1575	0.0098
845.3227	0.0107
845.4879	-0.0175
845.6531	-0.0621
845.8183	-0.1038
845.9834	-0.0346
846.1485	-0.089
846.3136	-0.0624
846.4787	-0.062
846.6438	0.0148
846.8088	-0.0745
846.9738	-0.1039
847.1388	-0.0297
847.3038	-0.0102
847.4687	-0.0843
847.6337	-0.0049
847.7986	-0.0077
847.9635	-0.0537
848.1284	0.0016
848.2932	0.0225
848.458	-0.0789
848.6228	0.0379
848.7876	0.0993
848.9524	-0.0652
849.1172	-0.1104
849.2819	-0.0149
849.4466	-0.1358
849.6113	-0.0565
849.7759	0.0423
849.9406	-0.0312
850.1052	0.0591
850.2698	-0.0182
850.4344	-0.0263
850.599	-0.082
850.7635	0.0328
850.928	-0.0395
851.0925	0.0448
851.257	0.0093
851.4215	-0.0028
851.5859	-0.0722
851.7503	-0.0294
851.9147	0.0153
852.0791	-0.0427
852.2434	0.0118
852.4078	0.0241
852.5721	0.0051
852.7364	-0.0442
852.9007	-0.2021
853.0649	-0.0703
853.2291	-0.0579
853.3934	-0.0872
853.5575	0.0291
853.7217	-0.1025
853.8859	-0.1043
854.05	-0.1111
854.2141	-0.0907
854.3782	-0.1747
854.5423	-0.1032
854.7063	0.0342
854.8703	-0.0237
855.0343	-0.1361
855.1983	-0.1755
855.3623	-0.011
855.5262	-0.0262
855.6901	-0.063
855.854	0.0024
856.0179	-0.0615
856.1818	-0.0024
856.3456	-0.0384
856.5094	-0.106
856.6732	-0.2705
856.837	0.0117
857.0008	-0.0815
857.1645	-0.1183
857.3282	-0.1226
857.4919	0.0005
857.6556	-0.0674
857.8192	-0.0188
857.9828	0.0679
858.1465	-0.0509
858.31	-0.1407
858.4736	-0.1972
858.6372	-0.2341
858.8007	-0.1581
858.9642	-0.0427
859.1277	0.001
859.2911	0.1677
859.4546	-0.0108
859.618	-0.3854
859.7814	-0.1063
859.9448	-0.0407
860.1081	0.0396
860.2715	0.1077
860.4348	-0.0822
860.5981	-0.111
860.7614	-0.0208
860.9246	-0.2143
861.0879	-0.2782
861.2511	-0.0056
861.4143	-0.0482
861.5774	0.0491
861.7406	-0.1773
861.9037	-0.0483
862.0668	-0.0433
862.2299	-0.1345
862.393	-0.7143
862.556	0.0483
862.7191	-0.2687
862.8821	-0.1486
863.0451	0.0177
863.208	-0.0895
863.371	0.0632
863.5339	-0.3868
863.6968	-0.0841
863.8597	-0.0618
864.0225	-0.1771
864.1854	-0.1026
864.3482	0.1966
864.511	-0.0207
864.6737	0.0964
864.8365	-0.0277
864.9992	-0.4896
865.1619	-0.4466
865.3246	-0.4448
865.4873	0.0477
865.65	-0.4015
865.8126	-0.2268
865.9752	0.0779
866.1378	1.0812
866.3004	0.0166
866.4629	0.2135
866.6254	0.8084
866.7879	0.2746
866.9504	-0.3674
867.1129	-0
867.2753	0.3464
867.4377	-0.1188
867.6001	-0.5104
867.7625	0.3022
867.9249	0.1339
868.0872	0.47
868.2495	0.3398
868.4118	-0.1523
868.5741	-0.6138
868.7363	-0.1786
868.8986	-0.4309
869.0608	-0.4047
869.223	0.0953
869.3851	-0
869.5473	0.494
869.7094	0.4168
869.8715	-0.2159
870.0336	-0.3259
870.1957	-0.3545
870.3577	-0
870.5197	-0.3603
870.6817	-0.2307
870.8437	-0.0372
871.0057	-0
871.1676	-0.1068
871.3295	-0.3842
871.4914	-0
871.6533	-0.3931
871.8151	-0.2827
871.977	-0
872.1388	-0
872.3006	0.0292
872.4623	-0
872.6241	0.6298
872.7858	-0
872.9475	-0.3824
873.1092	-0.0504
873.2709	-0.1324
873.4325	-0.0873
873.5941	-0.4572
873.7557	-0
873.9173	-0
874.0789	-0.6148
874.2404	-0.0478
874.4019	0.1547
874.5634	-0.1099
874.7249	-0.2185
874.8863	-0.1852
875.0478	0.2312
875.2092	-0
875.3706	-0.0361
875.5319	-0.8888
875.6933	-0
875.8546	-0.1646
876.0159	-0
876.1772	0.2294
876.3385	-0
876.4997	0.2612
876.6609	-0.5527
876.8221	-0
876.9833	-0.1085
877.1445	-0
877.3056	0.2845
877.4667	-0.3674
877.6278	0.1373
877.7889	-0.786
877.9499	-0
878.111	-0
878.272	-0
878.433	-0
878.5939	0.489
878.7549	-0.227
878.9158	-0.6847
879.0767	-0
879.2376	-0
879.3984	0.0469
879.5593	-0
879.7201	-0.4373
879.8809	0.3082
880.0417	0.4027
880.2024	0.342
880.3632	-0
880.5239	0.5389
880.6846	-0.0346
880.8452	-2.4314
881.0059	-0
881.1665	0.1393
881.3271	0.4579
881.4877	-0
881.6483	-0.4716
881.8088	-0.2058
881.9693	0.7297
882.1298	0.7297
882.2903	0.7297
