Data from MonoPyChalIsomerACN10uM440nmA_Absorbance_15-27-17-294.txt Node
Date: Fri Jul 05 15:27:17 BST 2024
User: LASERRRRR
Spectrometer: FLMT03099
Trigger mode: 0
Integration Time (sec): 1.000000E-1
Scans to average: 1
Electric dark correction enabled: true
Nonlinearity correction enabled: false
Boxcar width: 0
XAxis mode: Wavelengths
Number of Pixels in Spectrum: 3648
>>>>>Begin Spectral Data<<<<<
179.3399	-0.3094
179.5586	-0.3094
179.7771	-0.3094
179.9957	-0
180.2143	-0.1135
180.4329	0.4308
180.6514	0.8022
180.8699	-0
181.0885	-0.2385
181.307	-0.0597
181.5255	-0
181.744	-0.1032
181.9625	-0
182.181	-0
182.3994	-0
182.6179	-0.1157
182.8363	0.5013
183.0547	0.3399
183.2732	0.0548
183.4916	0.0127
183.71	0.1927
183.9284	0.6518
184.1467	-0.1308
184.3651	0.0088
184.5835	0.0836
184.8018	0.2253
185.0201	0.6211
185.2385	-0.1241
185.4568	0.0087
185.6751	0.6904
185.8934	0.4631
186.1117	-0.008
186.3299	0.0661
186.5482	0.1791
186.7664	-0.1451
186.9847	-0.0983
187.2029	0.006
187.4211	0.0605
187.6393	0.2128
187.8575	-0.001
188.0757	0.3749
188.2939	-0.0289
188.512	0.0773
188.7302	-0.1136
188.9483	-0.0258
189.1665	0.0834
189.3846	-0.0721
189.6027	0.4542
189.8208	0.1909
190.0389	0.1349
190.257	0.2287
190.475	0.3627
190.6931	0.293
190.9111	0.4496
191.1292	0.126
191.3472	0.3545
191.5652	0.2946
191.7832	0.2138
192.0012	0.3797
192.2192	0.2334
192.4371	0.5666
192.6551	0.3716
192.873	0.6418
193.091	0.3882
193.3089	0.5975
193.5268	0.3171
193.7447	0.7072
193.9626	0.5337
194.1805	0.627
194.3984	0.8282
194.6162	0.4545
194.8341	0.6397
195.0519	0.8036
195.2697	0.5807
195.4875	0.5878
195.7054	0.5703
195.9231	0.5928
196.1409	0.5795
196.3587	0.5838
196.5765	0.5903
196.7942	0.6703
197.012	0.4773
197.2297	0.6746
197.4474	0.7099
197.6651	0.5603
197.8828	0.6858
198.1005	0.7104
198.3182	0.4756
198.5358	0.7122
198.7535	0.7153
198.9711	0.5736
199.1888	0.6255
199.4064	0.7225
199.624	0.5289
199.8416	0.5928
200.0592	0.6599
200.2767	0.6081
200.4943	0.7631
200.7119	0.8299
200.9294	0.7232
201.1469	0.6327
201.3645	0.6239
201.582	0.5572
201.7995	0.6455
202.017	0.7109
202.2344	0.6348
202.4519	0.6582
202.6694	0.5852
202.8868	0.6656
203.1042	0.7749
203.3217	0.6216
203.5391	0.6772
203.7565	0.5428
203.9739	0.6491
204.1913	0.6547
204.4086	0.6816
204.626	0.6634
204.8433	0.6542
205.0607	0.6154
205.278	0.632
205.4953	0.6832
205.7126	0.6676
205.9299	0.9241
206.1472	0.7021
206.3644	0.6657
206.5817	0.6817
206.7989	0.8015
207.0162	0.7066
207.2334	0.7083
207.4506	0.7045
207.6678	0.6738
207.885	0.6529
208.1022	0.6609
208.3194	0.6911
208.5365	0.6283
208.7537	0.6932
208.9708	0.5364
209.1879	0.6846
209.405	0.7835
209.6222	0.712
209.8392	0.6753
210.0563	0.641
210.2734	0.6733
210.4905	0.6668
210.7075	0.6291
210.9245	0.5945
211.1416	0.6213
211.3586	0.6198
211.5756	0.6151
211.7926	0.6461
212.0096	0.6401
212.2265	0.5935
212.4435	0.605
212.6604	0.5774
212.8774	0.6158
213.0943	0.6555
213.3112	0.5766
213.5281	0.5243
213.745	0.5217
213.9619	0.5547
214.1788	0.5481
214.3956	0.4576
214.6125	0.461
214.8293	0.4455
215.0461	0.4981
215.2629	0.45
215.4798	0.457
215.6965	0.4141
215.9133	0.471
216.1301	0.4227
216.3469	0.457
216.5636	0.4136
216.7803	0.3774
216.9971	0.4058
217.2138	0.3752
217.4305	0.3951
217.6472	0.3471
217.8639	0.3796
218.0805	0.3564
218.2972	0.3178
218.5138	0.3303
218.7305	0.3022
218.9471	0.3209
219.1637	0.288
219.3803	0.2645
219.5969	0.2912
219.8135	0.2654
220.0301	0.2818
220.2466	0.2821
220.4632	0.2797
220.6797	0.2377
220.8962	0.2336
221.1127	0.2769
221.3292	0.2578
221.5457	0.2276
221.7622	0.2304
221.9787	0.2546
222.1951	0.2426
222.4116	0.2407
222.628	0.2336
222.8444	0.2536
223.0608	0.265
223.2772	0.2552
223.4936	0.2684
223.71	0.2615
223.9264	0.2568
224.1427	0.2532
224.3591	0.2535
224.5754	0.2523
224.7917	0.2524
225.008	0.2287
225.2243	0.2513
225.4406	0.2721
225.6569	0.263
225.8732	0.2827
226.0894	0.2593
226.3057	0.2613
226.5219	0.2845
226.7381	0.2564
226.9543	0.2773
227.1705	0.2668
227.3867	0.2932
227.6029	0.2738
227.8191	0.292
228.0352	0.2879
228.2513	0.2877
228.4675	0.3082
228.6836	0.2892
228.8997	0.2973
229.1158	0.2975
229.3319	0.3091
229.548	0.3066
229.764	0.3077
229.9801	0.3177
230.1961	0.3322
230.4121	0.3139
230.6282	0.3081
230.8442	0.3129
231.0602	0.3445
231.2761	0.3468
231.4921	0.3493
231.7081	0.3353
231.924	0.3457
232.14	0.3572
232.3559	0.3297
232.5718	0.3706
232.7877	0.3451
233.0036	0.3335
233.2195	0.3634
233.4353	0.3444
233.6512	0.3746
233.867	0.3366
234.0829	0.3408
234.2987	0.3619
234.5145	0.3591
234.7303	0.3783
234.9461	0.4003
235.1619	0.3785
235.3776	0.3825
235.5934	0.3744
235.8091	0.3743
236.0249	0.3808
236.2406	0.3826
236.4563	0.3729
236.672	0.3798
236.8877	0.3927
237.1034	0.3872
237.319	0.388
237.5347	0.4029
237.7503	0.3983
237.966	0.4165
238.1816	0.427
238.3972	0.4021
238.6128	0.3776
238.8284	0.4012
239.0439	0.4009
239.2595	0.3947
239.475	0.413
239.6906	0.4048
239.9061	0.3917
240.1216	0.3894
240.3371	0.3976
240.5526	0.4221
240.7681	0.3909
240.9836	0.4001
241.199	0.4074
241.4145	0.3662
241.6299	0.3705
241.8453	0.3824
242.0607	0.3965
242.2761	0.3552
242.4915	0.3715
242.7069	0.3772
242.9223	0.3667
243.1376	0.3415
243.353	0.3481
243.5683	0.35
243.7836	0.3384
243.9989	0.3325
244.2142	0.3049
244.4295	0.3256
244.6448	0.3131
244.86	0.3175
245.0753	0.2736
245.2905	0.293
245.5057	0.2739
245.721	0.2831
245.9362	0.2727
246.1514	0.2713
246.3665	0.2587
246.5817	0.2548
246.7969	0.2557
247.012	0.257
247.2271	0.2369
247.4423	0.2438
247.6574	0.2372
247.8725	0.2314
248.0876	0.2292
248.3026	0.223
248.5177	0.2199
248.7328	0.2178
248.9478	0.2083
249.1628	0.2008
249.3779	0.2189
249.5929	0.2045
249.8079	0.2267
250.0228	0.2055
250.2378	0.1951
250.4528	0.2124
250.6677	0.1871
250.8827	0.2036
251.0976	0.1948
251.3125	0.186
251.5274	0.1867
251.7423	0.1899
251.9572	0.1942
252.172	0.1874
252.3869	0.1839
252.6017	0.177
252.8166	0.1823
253.0314	0.1767
253.2462	0.1624
253.461	0.1869
253.6758	0.179
253.8906	0.175
254.1053	0.1746
254.3201	0.1784
254.5348	0.1773
254.7496	0.1799
254.9643	0.1566
255.179	0.1695
255.3937	0.1718
255.6083	0.164
255.823	0.1741
256.0377	0.1592
256.2523	0.1869
256.467	0.1517
256.6816	0.1703
256.8962	0.1726
257.1108	0.1518
257.3254	0.1602
257.54	0.1644
257.7545	0.169
257.9691	0.1688
258.1836	0.1726
258.3981	0.1642
258.6127	0.1731
258.8272	0.1731
259.0417	0.1702
259.2561	0.1734
259.4706	0.1587
259.6851	0.1616
259.8995	0.1684
260.114	0.1602
260.3284	0.1715
260.5428	0.1557
260.7572	0.157
260.9716	0.1654
261.186	0.1537
261.4003	0.1683
261.6147	0.1732
261.829	0.1593
262.0433	0.158
262.2577	0.163
262.472	0.1642
262.6863	0.1652
262.9005	0.1606
263.1148	0.1611
263.3291	0.1426
263.5433	0.1669
263.7576	0.1634
263.9718	0.1688
264.186	0.1623
264.4002	0.1569
264.6144	0.1682
264.8286	0.1797
265.0427	0.1601
265.2569	0.1477
265.471	0.1526
265.6851	0.1515
265.8993	0.1631
266.1134	0.1504
266.3275	0.1667
266.5415	0.1629
266.7556	0.1616
266.9697	0.1613
267.1837	0.1584
267.3978	0.1534
267.6118	0.1673
267.8258	0.164
268.0398	0.1611
268.2538	0.1602
268.4677	0.1642
268.6817	0.1552
268.8957	0.162
269.1096	0.1518
269.3235	0.1684
269.5374	0.1527
269.7514	0.1581
269.9652	0.1461
270.1791	0.1546
270.393	0.154
270.6068	0.1584
270.8207	0.1489
271.0345	0.1535
271.2483	0.1507
271.4622	0.1469
271.676	0.1638
271.8897	0.1512
272.1035	0.136
272.3173	0.1402
272.531	0.1526
272.7448	0.1492
272.9585	0.1446
273.1722	0.1478
273.3859	0.1502
273.5996	0.1459
273.8133	0.1498
274.0269	0.1509
274.2406	0.1514
274.4542	0.1436
274.6679	0.1355
274.8815	0.1469
275.0951	0.149
275.3087	0.1594
275.5223	0.1537
275.7358	0.1544
275.9494	0.1404
276.1629	0.1472
276.3765	0.149
276.59	0.1462
276.8035	0.1472
277.017	0.1462
277.2305	0.1374
277.444	0.1441
277.6574	0.1339
277.8709	0.1593
278.0843	0.1446
278.2978	0.1374
278.5112	0.149
278.7246	0.162
278.938	0.1529
279.1513	0.1553
279.3647	0.1614
279.5781	0.1587
279.7914	0.1481
280.0047	0.1724
280.2181	0.1634
280.4314	0.1571
280.6447	0.1651
280.8579	0.1568
281.0712	0.1471
281.2845	0.1594
281.4977	0.1636
281.711	0.1453
281.9242	0.1445
282.1374	0.1644
282.3506	0.1525
282.5638	0.1585
282.7769	0.14
282.9901	0.1521
283.2033	0.1628
283.4164	0.1587
283.6295	0.1574
283.8426	0.1544
284.0557	0.1572
284.2688	0.1652
284.4819	0.1611
284.695	0.1613
284.908	0.1801
285.1211	0.1516
285.3341	0.1601
285.5471	0.1665
285.7601	0.1487
285.9731	0.1574
286.1861	0.1597
286.3991	0.168
286.612	0.1612
286.825	0.1633
287.0379	0.1643
287.2508	0.1578
287.4637	0.158
287.6766	0.1515
287.8895	0.1625
288.1024	0.1764
288.3152	0.1675
288.5281	0.1467
288.7409	0.1582
288.9538	0.1604
289.1666	0.1527
289.3794	0.1631
289.5922	0.1498
289.8049	0.1544
290.0177	0.1505
290.2304	0.1612
290.4432	0.1677
290.6559	0.1553
290.8686	0.1672
291.0813	0.166
291.294	0.1618
291.5067	0.1685
291.7194	0.1686
291.932	0.1654
292.1447	0.1545
292.3573	0.1542
292.5699	0.1514
292.7825	0.1732
292.9951	0.1548
293.2077	0.155
293.4203	0.1585
293.6328	0.1528
293.8454	0.1686
294.0579	0.1517
294.2704	0.1643
294.4829	0.1471
294.6954	0.1634
294.9079	0.1545
295.1204	0.1546
295.3328	0.1649
295.5453	0.1556
295.7577	0.1526
295.9701	0.1459
296.1825	0.1568
296.3949	0.1492
296.6073	0.1562
296.8197	0.1458
297.0321	0.1625
297.2444	0.1488
297.4567	0.1544
297.6691	0.1601
297.8814	0.1392
298.0937	0.1553
298.306	0.1639
298.5182	0.1632
298.7305	0.1647
298.9428	0.1355
299.155	0.1595
299.3672	0.1626
299.5794	0.1618
299.7916	0.145
300.0038	0.1581
300.216	0.1554
300.4282	0.1573
300.6403	0.149
300.8525	0.1546
301.0646	0.149
301.2767	0.1569
301.4888	0.1521
301.7009	0.1495
301.913	0.1587
302.125	0.1674
302.3371	0.1487
302.5491	0.1495
302.7612	0.1709
302.9732	0.1626
303.1852	0.1516
303.3972	0.1611
303.6092	0.1547
303.8211	0.152
304.0331	0.1574
304.245	0.1516
304.457	0.1501
304.6689	0.1494
304.8808	0.1537
305.0927	0.1427
305.3046	0.1509
305.5164	0.1464
305.7283	0.1442
305.9401	0.1466
306.152	0.1459
306.3638	0.1451
306.5756	0.1343
306.7874	0.1432
306.9992	0.1497
307.2109	0.1408
307.4227	0.1192
307.6344	0.1274
307.8462	0.1311
308.0579	0.1243
308.2696	0.1297
308.4813	0.1255
308.693	0.1269
308.9046	0.1291
309.1163	0.1323
309.328	0.1253
309.5396	0.1136
309.7512	0.1218
309.9628	0.113
310.1744	0.1182
310.386	0.1177
310.5976	0.1224
310.8091	0.1183
311.0207	0.1145
311.2322	0.1171
311.4437	0.1154
311.6552	0.1062
311.8667	0.1213
312.0782	0.102
312.2897	0.0997
312.5012	0.1091
312.7126	0.1087
312.924	0.0985
313.1355	0.1084
313.3469	0.1004
313.5583	0.1118
313.7696	0.1042
313.981	0.1057
314.1924	0.1148
314.4037	0.0988
314.6151	0.1115
314.8264	0.1109
315.0377	0.1038
315.249	0.1098
315.4603	0.1104
315.6716	0.0967
315.8828	0.0907
316.0941	0.0975
316.3053	0.1044
316.5165	0.0945
316.7277	0.0903
316.9389	0.1093
317.1501	0.0955
317.3613	0.1033
317.5724	0.0855
317.7836	0.1023
317.9947	0.1029
318.2058	0.0974
318.417	0.0992
318.6281	0.0804
318.8391	0.0933
319.0502	0.0921
319.2613	0.1037
319.4723	0.0992
319.6834	0.108
319.8944	0.0847
320.1054	0.0983
320.3164	0.1079
320.5274	0.0934
320.7383	0.096
320.9493	0.1017
321.1602	0.1151
321.3712	0.0932
321.5821	0.1004
321.793	0.1024
322.0039	0.1031
322.2148	0.1094
322.4257	0.0962
322.6365	0.107
322.8474	0.1034
323.0582	0.0948
323.269	0.1039
323.4798	0.1047
323.6906	0.1097
323.9014	0.1048
324.1122	0.1025
324.3229	0.0999
324.5337	0.1026
324.7444	0.0886
324.9551	0.1123
325.1658	0.1201
325.3765	0.1222
325.5872	0.1071
325.7979	0.103
326.0085	0.1006
326.2192	0.101
326.4298	0.1038
326.6404	0.0916
326.851	0.1023
327.0616	0.1008
327.2722	0.1127
327.4828	0.1104
327.6933	0.1111
327.9039	0.1014
328.1144	0.1222
328.3249	0.1159
328.5354	0.1027
328.7459	0.1099
328.9564	0.1017
329.1669	0.1004
329.3773	0.1137
329.5878	0.1053
329.7982	0.089
330.0086	0.1085
330.219	0.1169
330.4294	0.1049
330.6398	0.1168
330.8502	0.1079
331.0605	0.1063
331.2708	0.1096
331.4812	0.1107
331.6915	0.1139
331.9018	0.1163
332.1121	0.101
332.3224	0.1182
332.5326	0.1188
332.7429	0.1017
332.9531	0.1133
333.1633	0.11
333.3735	0.1182
333.5837	0.0982
333.7939	0.1098
334.0041	0.1108
334.2143	0.1171
334.4244	0.1081
334.6346	0.0948
334.8447	0.1266
335.0548	0.1058
335.2649	0.102
335.475	0.1194
335.685	0.1074
335.8951	0.1232
336.1051	0.1032
336.3152	0.1278
336.5252	0.1046
336.7352	0.1094
336.9452	0.1248
337.1552	0.1143
337.3652	0.1018
337.5751	0.1088
337.7851	0.1295
337.995	0.1059
338.2049	0.1236
338.4148	0.1168
338.6247	0.1231
338.8346	0.1132
339.0445	0.1142
339.2543	0.1044
339.4642	0.1211
339.674	0.1091
339.8838	0.1164
340.0936	0.1247
340.3034	0.129
340.5132	0.1198
340.7229	0.1245
340.9327	0.1117
341.1424	0.1163
341.3522	0.1343
341.5619	0.1246
341.7716	0.1278
341.9813	0.1374
342.1909	0.1176
342.4006	0.1292
342.6102	0.1426
342.8199	0.1276
343.0295	0.1313
343.2391	0.1215
343.4487	0.1181
343.6583	0.1255
343.8679	0.1292
344.0774	0.1318
344.287	0.1423
344.4965	0.1277
344.706	0.1281
344.9155	0.1188
345.125	0.1355
345.3345	0.1252
345.544	0.1202
345.7534	0.1341
345.9629	0.1339
346.1723	0.1347
346.3817	0.1266
346.5911	0.1145
346.8005	0.1333
347.0099	0.1299
347.2193	0.131
347.4286	0.1334
347.638	0.1381
347.8473	0.1483
348.0566	0.1404
348.2659	0.1371
348.4752	0.1363
348.6845	0.1362
348.8937	0.1298
349.103	0.1486
349.3122	0.127
349.5214	0.1322
349.7306	0.1382
349.9398	0.1416
350.149	0.1463
350.3582	0.1477
350.5674	0.1505
350.7765	0.1299
350.9856	0.1447
351.1948	0.1399
351.4039	0.1493
351.613	0.1298
351.822	0.1388
352.0311	0.1473
352.2402	0.1476
352.4492	0.1483
352.6582	0.1589
352.8672	0.141
353.0762	0.1552
353.2852	0.148
353.4942	0.1452
353.7032	0.1489
353.9121	0.1456
354.1211	0.1542
354.33	0.1602
354.5389	0.1505
354.7478	0.1606
354.9567	0.1513
355.1655	0.1364
355.3744	0.1453
355.5833	0.1593
355.7921	0.1822
356.0009	0.1605
356.2097	0.17
356.4185	0.1611
356.6273	0.1549
356.8361	0.1692
357.0448	0.1607
357.2536	0.1514
357.4623	0.1626
357.671	0.1733
357.8797	0.1544
358.0884	0.1738
358.2971	0.1678
358.5057	0.1688
358.7144	0.1656
358.923	0.1715
359.1316	0.1689
359.3402	0.1656
359.5488	0.1729
359.7574	0.1633
359.966	0.1682
360.1746	0.1779
360.3831	0.1755
360.5916	0.1587
360.8002	0.1781
361.0087	0.1794
361.2172	0.1788
361.4256	0.1743
361.6341	0.1899
361.8426	0.1717
362.051	0.1774
362.2594	0.1692
362.4678	0.1801
362.6762	0.1991
362.8846	0.1773
363.093	0.1829
363.3014	0.1834
363.5097	0.1687
363.718	0.1767
363.9264	0.1828
364.1347	0.1737
364.343	0.1997
364.5513	0.186
364.7595	0.1928
364.9678	0.1876
365.176	0.1883
365.3842	0.1856
365.5925	0.1906
365.8007	0.2018
366.0089	0.1921
366.217	0.1772
366.4252	0.201
366.6333	0.1977
366.8415	0.1927
367.0496	0.194
367.2577	0.2142
367.4658	0.2083
367.6739	0.2045
367.882	0.2063
368.09	0.1873
368.2981	0.2195
368.5061	0.1897
368.7141	0.2096
368.9221	0.2154
369.1301	0.1892
369.3381	0.2062
369.5461	0.2089
369.754	0.1929
369.962	0.2226
370.1699	0.2143
370.3778	0.2081
370.5857	0.2027
370.7936	0.1979
371.0015	0.2028
371.2093	0.2145
371.4172	0.2124
371.625	0.199
371.8328	0.2039
372.0406	0.2126
372.2484	0.2162
372.4562	0.2065
372.664	0.2204
372.8717	0.2194
373.0795	0.1963
373.2872	0.2252
373.4949	0.2017
373.7026	0.2063
373.9103	0.211
374.118	0.2227
374.3256	0.2308
374.5333	0.211
374.7409	0.2239
374.9485	0.2265
375.1561	0.2289
375.3637	0.2256
375.5713	0.2259
375.7789	0.2346
375.9864	0.2208
376.194	0.2437
376.4015	0.2301
376.609	0.2292
376.8165	0.2354
377.024	0.2127
377.2315	0.2207
377.4389	0.224
377.6464	0.2368
377.8538	0.2339
378.0612	0.2333
378.2686	0.2383
378.476	0.2452
378.6834	0.234
378.8908	0.2392
379.0981	0.2152
379.3055	0.2328
379.5128	0.2302
379.7201	0.2363
379.9274	0.2283
380.1347	0.2486
380.342	0.2417
380.5492	0.2307
380.7565	0.2276
380.9637	0.2493
381.1709	0.2342
381.3781	0.2292
381.5853	0.2414
381.7925	0.258
381.9997	0.2413
382.2068	0.2633
382.4139	0.2363
382.6211	0.2151
382.8282	0.2208
383.0353	0.2379
383.2424	0.2395
383.4494	0.2502
383.6565	0.2287
383.8635	0.2364
384.0706	0.2376
384.2776	0.2416
384.4846	0.2505
384.6916	0.2576
384.8986	0.239
385.1055	0.2525
385.3125	0.2411
385.5194	0.2364
385.7263	0.2386
385.9333	0.2363
386.1402	0.2383
386.347	0.2345
386.5539	0.2152
386.7608	0.251
386.9676	0.2328
387.1744	0.2453
387.3813	0.2304
387.5881	0.254
387.7948	0.234
388.0016	0.2337
388.2084	0.2371
388.4151	0.233
388.6219	0.2508
388.8286	0.2445
389.0353	0.2322
389.242	0.2322
389.4487	0.2285
389.6553	0.2294
389.862	0.211
390.0686	0.2239
390.2753	0.2285
390.4819	0.2297
390.6885	0.2238
390.8951	0.2394
391.1016	0.2306
391.3082	0.2148
391.5147	0.219
391.7213	0.2116
391.9278	0.2125
392.1343	0.2195
392.3408	0.245
392.5473	0.2151
392.7537	0.2178
392.9602	0.2091
393.1666	0.2149
393.373	0.2157
393.5794	0.2155
393.7858	0.1973
393.9922	0.2049
394.1986	0.2145
394.4049	0.2175
394.6113	0.2069
394.8176	0.2044
395.0239	0.2086
395.2302	0.2045
395.4365	0.2117
395.6428	0.2075
395.8491	0.2069
396.0553	0.2105
396.2615	0.2035
396.4678	0.2005
396.674	0.2013
396.8802	0.1966
397.0863	0.2223
397.2925	0.1981
397.4987	0.2071
397.7048	0.1985
397.9109	0.213
398.117	0.1932
398.3231	0.1974
398.5292	0.2111
398.7353	0.2092
398.9413	0.1965
399.1474	0.1944
399.3534	0.2049
399.5594	0.1919
399.7654	0.2097
399.9714	0.2134
400.1774	0.1865
400.3833	0.1838
400.5893	0.1991
400.7952	0.207
401.0011	0.2115
401.207	0.2055
401.4129	0.2204
401.6188	0.2026
401.8247	0.1992
402.0305	0.1981
402.2364	0.1983
402.4422	0.1996
402.648	0.2069
402.8538	0.2153
403.0596	0.1878
403.2654	0.1885
403.4711	0.198
403.6768	0.2005
403.8826	0.2002
404.0883	0.1945
404.294	0.2042
404.4997	0.2083
404.7054	0.1895
404.911	0.182
405.1167	0.1857
405.3223	0.2186
405.5279	0.213
405.7335	0.2088
405.9391	0.2055
406.1447	0.1944
406.3502	0.2135
406.5558	0.2038
406.7613	0.2014
406.9668	0.2022
407.1724	0.1956
407.3778	0.2049
407.5833	0.1839
407.7888	0.1991
407.9942	0.2029
408.1997	0.1997
408.4051	0.209
408.6105	0.1909
408.8159	0.1824
409.0213	0.1906
409.2267	0.2145
409.432	0.1649
409.6374	0.2033
409.8427	0.1792
410.048	0.2162
410.2533	0.1995
410.4586	0.1861
410.6639	0.1764
410.8691	0.1927
411.0744	0.188
411.2796	0.1771
411.4848	0.1875
411.69	0.1971
411.8952	0.2237
412.1004	0.1832
412.3056	0.205
412.5107	0.1754
412.7158	0.2197
412.921	0.1837
413.1261	0.1969
413.3312	0.1836
413.5362	0.1828
413.7413	0.1801
413.9464	0.1844
414.1514	0.1845
414.3564	0.1976
414.5614	0.176
414.7664	0.1795
414.9714	0.1864
415.1764	0.1781
415.3813	0.1872
415.5863	0.1934
415.7912	0.1836
415.9961	0.1884
416.201	0.1699
416.4059	0.2199
416.6108	0.1754
416.8156	0.195
417.0205	0.1821
417.2253	0.1909
417.4301	0.1911
417.6349	0.176
417.8397	0.1859
418.0445	0.1893
418.2492	0.1898
418.454	0.1829
418.6587	0.182
418.8634	0.1728
419.0681	0.1614
419.2728	0.1674
419.4775	0.1806
419.6822	0.1826
419.8868	0.1656
420.0915	0.1842
420.2961	0.1654
420.5007	0.162
420.7053	0.1838
420.9099	0.1712
421.1144	0.1885
421.319	0.1608
421.5235	0.1706
421.728	0.1771
421.9325	0.1777
422.137	0.1872
422.3415	0.1756
422.546	0.1773
422.7504	0.1664
422.9549	0.1795
423.1593	0.1792
423.3637	0.1621
423.5681	0.1669
423.7725	0.1588
423.9769	0.1579
424.1812	0.17
424.3856	0.165
424.5899	0.1636
424.7942	0.1617
424.9985	0.1668
425.2028	0.1566
425.4071	0.1873
425.6113	0.1496
425.8156	0.1694
426.0198	0.1728
426.224	0.1511
426.4282	0.1579
426.6324	0.1573
426.8366	0.1424
427.0407	0.1314
427.2449	0.1487
427.449	0.1552
427.6531	0.1372
427.8572	0.1412
428.0613	0.1339
428.2654	0.1485
428.4694	0.1542
428.6735	0.1322
428.8775	0.1495
429.0815	0.1523
429.2855	0.1336
429.4895	0.1537
429.6935	0.1478
429.8975	0.1509
430.1014	0.1356
430.3053	0.1205
430.5093	0.1303
430.7132	0.1235
430.9171	0.1279
431.1209	0.1342
431.3248	0.125
431.5286	0.1412
431.7325	0.1435
431.9363	0.1303
432.1401	0.1275
432.3439	0.1137
432.5477	0.0969
432.7514	0.0993
432.9552	0.1077
433.1589	0.1112
433.3627	0.1081
433.5664	0.118
433.7701	0.101
433.9737	0.1295
434.1774	0.0734
434.3811	0.1087
434.5847	0.1089
434.7883	0.1171
434.9919	0.1022
435.1955	0.0878
435.3991	0.1067
435.6027	0.1265
435.8062	0.0947
436.0098	0.0824
436.2133	0.0929
436.4168	0.098
436.6203	0.0881
436.8238	0.1106
437.0272	0.1028
437.2307	0.0975
437.4341	0.0875
437.6375	0.1047
437.841	0.0855
438.0443	0.0854
438.2477	0.0939
438.4511	0.0711
438.6545	0.0714
438.8578	0.0865
439.0611	0.0701
439.2644	0.0909
439.4677	0.058
439.671	0.0707
439.8743	0.0726
440.0775	0.0758
440.2808	0.0555
440.484	0.0629
440.6872	0.0635
440.8904	0.0521
441.0936	0.0843
441.2967	0.0648
441.4999	0.0652
441.703	0.0651
441.9062	0.0682
442.1093	0.0697
442.3124	0.0621
442.5155	0.043
442.7185	0.0459
442.9216	0.0362
443.1246	0.0572
443.3276	0.0435
443.5307	0.0475
443.7337	0.054
443.9366	0.0618
444.1396	0.0618
444.3426	0.0415
444.5455	0.0521
444.7484	0.0346
444.9513	0.0521
445.1542	0.06
445.3571	0.0504
445.56	0.0489
445.7628	0.0402
445.9657	0.0483
446.1685	0.0641
446.3713	0.0392
446.5741	0.0403
446.7769	0.031
446.9797	0.0369
447.1824	0.0421
447.3852	0.0327
447.5879	0.047
447.7906	0.0503
447.9933	0.0242
448.196	0.0321
448.3986	0.0279
448.6013	0.0211
448.8039	0.0108
449.0066	0.028
449.2092	0.0352
449.4118	0.0259
449.6143	0.0224
449.8169	0.0479
450.0195	0.0213
450.222	-0.0062
450.4245	0.0119
450.627	0.0329
450.8295	0.0246
451.032	0.0118
451.2345	0.0144
451.4369	0.0439
451.6394	0.0354
451.8418	-0.0101
452.0442	0.0266
452.2466	0.0374
452.449	0.0036
452.6513	0.0277
452.8537	0.0105
453.056	0.0054
453.2583	0.0178
453.4607	0.0018
453.663	0.0093
453.8652	0.026
454.0675	0.014
454.2697	0.0318
454.472	0.002
454.6742	0.0153
454.8764	0.0148
455.0786	0.0175
455.2808	0.0126
455.4829	0.0093
455.6851	0.0251
455.8872	0.0265
456.0893	0.016
456.2915	0.0006
456.4935	0.0128
456.6956	-0.0022
456.8977	0.0147
457.0997	-0.008
457.3018	0.0085
457.5038	0.0058
457.7058	0.0033
457.9078	0.006
458.1098	0.0143
458.3117	0.0233
458.5137	0.0129
458.7156	0.0115
458.9175	0.0052
459.1194	0.0073
459.3213	0.006
459.5232	-0.0073
459.725	-0.0185
459.9269	-0.0128
460.1287	0.0096
460.3305	0.0061
460.5323	0.0022
460.7341	0.0052
460.9359	0.007
461.1376	0.0133
461.3394	0.0005
461.5411	-0.0015
461.7428	-0.007
461.9445	0.0141
462.1462	0.0278
462.3479	0.0073
462.5495	0.0086
462.7512	-0.0091
462.9528	0.0115
463.1544	-0.013
463.356	-0.0041
463.5576	0.001
463.7592	0.0032
463.9607	0.0031
464.1623	0.021
464.3638	0.0092
464.5653	-0.0174
464.7668	-0.0008
464.9683	0.0029
465.1697	0.0103
465.3712	-0.0048
465.5726	-0.0008
465.7741	-0.0153
465.9755	-0.0092
466.1769	-0.0024
466.3782	-0.0021
466.5796	-0.0066
466.7809	0.0154
466.9823	-0.0174
467.1836	0.003
467.3849	-0.0028
467.5862	0.0046
467.7875	0.0108
467.9887	0.0102
468.19	0.0063
468.3912	-0.0012
468.5924	-0.0061
468.7936	0.001
468.9948	0.0057
469.196	-0.0005
469.3972	-0.0087
469.5983	0.0168
469.7994	-0.0078
470.0006	0.0096
470.2017	-0.0165
470.4027	-0.0055
470.6038	0.0223
470.8049	-0.0207
471.0059	-0.0034
471.2069	-0.018
471.408	-0.0031
471.6089	0.0051
471.8099	-0.0089
472.0109	0.0011
472.2119	0.0006
472.4128	-0.0153
472.6137	0.01
472.8146	-0.0187
473.0155	0.0035
473.2164	-0.0112
473.4173	0.0038
473.6181	0.0088
473.819	0.0026
474.0198	-0.0053
474.2206	-0.0054
474.4214	0.0047
474.6222	-0.004
474.8229	-0.0014
475.0237	-0.0071
475.2244	-0.0085
475.4251	-0.0014
475.6258	-0.0134
475.8265	-0.0066
476.0272	0.0101
476.2278	0.0158
476.4285	-0.0068
476.6291	-0.0042
476.8297	-0.006
477.0303	-0.0101
477.2309	0.0012
477.4315	-0.0152
477.632	0.0003
477.8326	0.004
478.0331	0.003
478.2336	-0
478.4341	0.0036
478.6346	0.0009
478.8351	-0.0034
479.0355	0.0063
479.236	-0.0041
479.4364	0.004
479.6368	0.0008
479.8372	-0.0114
480.0376	-0.0154
480.2379	-0.0228
480.4383	-0.0021
480.6386	0.0073
480.8389	-0.0028
481.0392	-0.0052
481.2395	-0.0035
481.4398	0.0045
481.6401	-0
481.8403	-0.0051
482.0405	0.0069
482.2408	-0.0092
482.441	0.0076
482.6411	0.0003
482.8413	0.0002
483.0415	-0.0055
483.2416	-0.006
483.4417	-0.005
483.6419	-0.0061
483.8419	-0.0072
484.042	0.0048
484.2421	0.011
484.4422	0.0049
484.6422	-0.0044
484.8422	-0.0052
485.0422	-0.0117
485.2422	-0.0011
485.4422	-0.0127
485.6422	-0.0079
485.8421	-0.0033
486.042	-0.0025
486.242	-0.0091
486.4419	-0.0149
486.6417	-0.0104
486.8416	-0.0065
487.0415	-0.008
487.2413	-0.0112
487.4411	-0.0036
487.641	-0.0017
487.8408	-0.0023
488.0405	-0.0015
488.2403	-0.0025
488.4401	-0.0045
488.6398	0.0069
488.8395	-0.0041
489.0392	-0.0048
489.2389	-0.0054
489.4386	-0.0065
489.6383	-0.0007
489.8379	0.0009
490.0376	-0.0004
490.2372	-0.0077
490.4368	-0.0068
490.6364	-0.0004
490.836	-0.01
491.0355	0.0017
491.2351	-0.0114
491.4346	0.0093
491.6341	-0.0122
491.8336	-0.0005
492.0331	-0.0186
492.2326	-0.0089
492.432	0.0049
492.6315	-0.0095
492.8309	-0.0159
493.0303	-0.0181
493.2297	-0.0038
493.4291	-0.0048
493.6284	-0.0047
493.8278	-0.008
494.0271	-0.0041
494.2264	0.0156
494.4257	-0.0102
494.625	0.0004
494.8243	-0.0133
495.0236	-0.0056
495.2228	-0.0118
495.422	0.0016
495.6213	0.001
495.8205	-0.0024
496.0196	-0.0088
496.2188	0.0104
496.418	-0.0091
496.6171	-0.0029
496.8162	-0.0156
497.0153	0.002
497.2144	-0.0114
497.4135	-0.0021
497.6126	-0.0063
497.8116	-0.0095
498.0107	-0.0025
498.2097	-0.0126
498.4087	0.0036
498.6077	0.0059
498.8067	-0.0073
499.0056	-0.0017
499.2046	0.0008
499.4035	-0.0155
499.6024	-0.002
499.8013	0.0102
500.0002	-0.0116
500.199	-0.0002
500.3979	0.0006
500.5967	-0.0175
500.7956	0.0035
500.9944	-0.0085
501.1932	-0.0092
501.3919	-0.0081
501.5907	0.0033
501.7895	0.0015
501.9882	-0.0144
502.1869	-0.0044
502.3856	-0.0018
502.5843	-0.0098
502.783	-0.0042
502.9816	-0.0036
503.1803	-0.0156
503.3789	-0.0102
503.5775	-0.002
503.7761	-0.0094
503.9747	0.0015
504.1732	-0.0074
504.3718	-0.0065
504.5703	-0.0051
504.7689	-0.0054
504.9674	-0.0056
505.1658	-0.0122
505.3643	-0.0068
505.5628	-0.0049
505.7612	-0.0087
505.9597	0.0096
506.1581	-0.0074
506.3565	0.0132
506.5549	-0.0048
506.7532	-0.0152
506.9516	-0.0019
507.1499	-0.0016
507.3482	-0.0174
507.5465	-0.0081
507.7448	0.0067
507.9431	0.0018
508.1414	0.0017
508.3396	0.0007
508.5379	0.0009
508.7361	-0.0058
508.9343	-0.004
509.1325	0.0014
509.3306	-0.0107
509.5288	-0.0064
509.7269	-0.0096
509.9251	-0.0108
510.1232	-0.0123
510.3213	-0.0086
510.5193	0.0069
510.7174	-0.0106
510.9154	-0.0105
511.1135	-0.0102
511.3115	-0.0073
511.5095	0.0064
511.7075	-0.0016
511.9055	-0.0018
512.1034	-0.0089
512.3014	0.0053
512.4993	0.0026
512.6972	-0.006
512.8951	-0.0116
513.093	-0.0041
513.2908	0.0015
513.4887	-0.0004
513.6865	0.006
513.8844	-0.0115
514.0822	-0.0096
514.2799	-0.0056
514.4777	-0.0074
514.6755	-0.0088
514.8732	-0.0083
515.0709	-0.0134
515.2687	-0.0026
515.4664	-0.0012
515.664	-0.0034
515.8617	-0.0055
516.0594	-0.0188
516.257	-0.0033
516.4546	-0.0127
516.6522	0.0043
516.8498	-0.0019
517.0474	-0.0015
517.2449	-0.0005
517.4425	-0.0083
517.64	-0.0064
517.8375	0.0089
518.035	0.0012
518.2325	-0.0027
518.43	-0.0068
518.6274	-0.0033
518.8249	-0.0164
519.0223	0.0009
519.2197	-0.0169
519.4171	-0.0135
519.6145	-0.0058
519.8118	-0.0068
520.0092	-0.001
520.2065	-0.0103
520.4038	-0.0146
520.6011	-0.0021
520.7984	-0.0001
520.9956	-0.0079
521.1929	-0.0114
521.3901	-0.001
521.5874	-0.0079
521.7846	-0.0074
521.9818	-0.0135
522.1789	-0.0153
522.3761	-0.0102
522.5732	0.0021
522.7704	-0.001
522.9675	-0.0067
523.1646	-0.0047
523.3617	0.0038
523.5587	0.0015
523.7558	-0.0049
523.9528	0.0051
524.1498	-0.0018
524.3468	-0.0106
524.5438	-0.0086
524.7408	-0.0016
524.9378	0.0045
525.1347	-0.0031
525.3316	0.0087
525.5285	-0.0124
525.7254	-0.0025
525.9223	-0.0049
526.1192	-0.0003
526.316	-0.0012
526.5129	0.0075
526.7097	0.0044
526.9065	0.0009
527.1033	-0.0089
527.3	0.0132
527.4968	0.0013
527.6935	0.0005
527.8903	-0.0119
528.087	0.0021
528.2837	0.0001
528.4804	0.0037
528.677	-0.0058
528.8737	0.0086
529.0703	0.0011
529.2669	-0.0027
529.4635	0.0058
529.6601	-0.0064
529.8567	0.0016
530.0532	-0.0036
530.2498	-0
530.4463	0.0042
530.6428	0.0008
530.8393	0.0062
531.0358	-0.0154
531.2322	0.0044
531.4287	-0.0091
531.6251	-0.0024
531.8215	0.009
532.0179	0.0079
532.2143	0.0087
532.4107	-0.0067
532.607	-0.0026
532.8034	0.0012
532.9997	0.0012
533.196	-0.0021
533.3923	-0.0078
533.5886	0.0028
533.7848	0.0029
533.9811	-0.0006
534.1773	-0.0052
534.3735	0.0094
534.5697	-0.0023
534.7659	0.0032
534.9621	0.0064
535.1582	-0.0033
535.3544	-0.009
535.5505	-0.004
535.7466	-0.003
535.9427	-0.007
536.1387	-0.0053
536.3348	-0.0022
536.5308	0.0091
536.7269	-0.0035
536.9229	0.001
537.1189	0.0026
537.3148	0.0014
537.5108	-0.0085
537.7068	0.0017
537.9027	0.0043
538.0986	-0.0035
538.2945	-0.0088
538.4904	-0.002
538.6863	-0.0018
538.8821	-0.0048
539.078	-0.0069
539.2738	-0.002
539.4696	-0.0089
539.6654	0.0015
539.8611	0.008
540.0569	-0.0042
540.2526	-0.0099
540.4484	0.0012
540.6441	0.0121
540.8398	0.0006
541.0355	0.0016
541.2311	0.0016
541.4268	-0.0064
541.6224	-0.0023
541.818	0.0026
542.0136	0.0012
542.2092	-0.0021
542.4048	0.0005
542.6003	0.0011
542.7959	-0.0062
542.9914	0.0015
543.1869	0.0064
543.3824	0.0048
543.5779	0.0105
543.7734	-0.0016
543.9688	-0.0003
544.1642	-0.0003
544.3596	0.002
544.555	-0.0054
544.7504	-0.003
544.9458	-0.0065
545.1411	-0.0017
545.3365	0.0028
545.5318	-0.0005
545.7271	0.0006
545.9224	-0.005
546.1177	0.008
546.3129	0.0037
546.5081	-0.0048
546.7034	-0.0017
546.8986	-0.0019
547.0938	-0.0067
547.289	-0.0015
547.4841	0.0003
547.6793	0.0126
547.8744	-0.0134
548.0695	0.0022
548.2646	-0.0031
548.4597	-0.0029
548.6548	-0.0013
548.8498	0.0084
549.0448	0.007
549.2399	-0.0055
549.4349	0.0064
549.6298	-0.0016
549.8248	-0.0045
550.0198	0.0038
550.2147	0.0034
550.4096	-0.006
550.6045	0.0015
550.7994	0.0009
550.9943	0.0058
551.1892	-0.0038
551.384	0.0046
551.5788	-0.0038
551.7737	-0.0025
551.9685	0.0048
552.1632	0.009
552.358	-0.0068
552.5528	0.0026
552.7475	-0.0022
552.9422	-0.0075
553.1369	0.006
553.3316	0.0009
553.5263	-0.0121
553.7209	0.0057
553.9156	-0.0039
554.1102	-0.0075
554.3048	-0.0136
554.4994	0.0028
554.694	-0.0005
554.8885	0.0034
555.0831	-0.0029
555.2776	-0.0061
555.4721	-0.0016
555.6666	-0
555.8611	0.0044
556.0555	-0.0039
556.25	-0.0016
556.4444	-0.0061
556.6388	-0.0032
556.8332	0.0001
557.0276	-0.0002
557.222	-0.0046
557.4163	0.001
557.6107	-0.0053
557.805	0.0082
557.9993	0.0004
558.1936	0.0012
558.3879	0.0132
558.5821	-0.0059
558.7764	0.0016
558.9706	0.0033
559.1648	0.0091
559.359	-0.0026
559.5532	0.001
559.7473	-0.0031
559.9415	0.0053
560.1356	-0.0049
560.3297	-0.0107
560.5238	0.0002
560.7179	-0.0059
560.9119	-0.0017
561.106	-0.0089
561.3	-0.0043
561.494	0.0002
561.688	-0.0065
561.882	-0.0079
562.076	-0.0071
562.2699	0.0021
562.4639	-0.004
562.6578	-0.0043
562.8517	0.0008
563.0456	-0.0032
563.2395	0.0058
563.4333	0.0047
563.6272	0.0092
563.821	-0.0023
564.0148	-0.0021
564.2086	-0.0129
564.4024	0.0007
564.5961	-0.0088
564.7899	0.0161
564.9836	0.0053
565.1773	-0.0038
565.371	0.0073
565.5647	0.0031
565.7584	0.0029
565.952	0.0023
566.1456	-0.0017
566.3393	0.0001
566.5329	-0.0047
566.7264	0.0002
566.92	-0.0031
567.1136	0.0058
567.3071	-0.0017
567.5006	0.0031
567.6941	0.003
567.8876	0.0099
568.0811	-0.0039
568.2745	0.0072
568.468	0.0022
568.6614	0.0019
568.8548	-0.0043
569.0482	0.0016
569.2416	0.0057
569.4349	0.001
569.6283	0.0016
569.8216	-0.0027
570.0149	-0.003
570.2082	0.0084
570.4015	0.009
570.5947	0.0034
570.788	0.003
570.9812	0.0068
571.1744	0.0019
571.3676	-0.0007
571.5608	0.0023
571.754	0.0021
571.9471	0.0022
572.1402	0.0031
572.3333	0.0068
572.5264	-0.0013
572.7195	0.0029
572.9126	0.0043
573.1057	-0.0057
573.2987	0.0015
573.4917	0.0065
573.6847	-0.0074
573.8777	0.0013
574.0707	0.0014
574.2636	-0.001
574.4566	0.0021
574.6495	0.0026
574.8424	0.0007
575.0353	-0.0026
575.2281	0.0149
575.421	0.0015
575.6138	0.0103
575.8067	-0.0001
575.9995	0.0071
576.1923	0.0033
576.385	0.0087
576.5778	0.002
576.7706	0.0015
576.9633	-0.0039
577.156	0.0039
577.3487	0.0061
577.5414	-0.0001
577.734	-0.0016
577.9267	0.0033
578.1193	-0.01
578.3119	-0.0025
578.5045	-0.0053
578.6971	0.0025
578.8897	0.0043
579.0822	-0.0028
579.2747	0.0018
579.4673	-0.0026
579.6598	-0.0019
579.8522	0.0043
580.0447	-0.0068
580.2372	0.0028
580.4296	0.0069
580.622	0.0016
580.8144	0.0008
581.0068	-0.0026
581.1992	-0.0134
581.3915	-0.0038
581.5839	-0.0083
581.7762	-0.0051
581.9685	-0.0017
582.1608	0.0016
582.353	-0.0014
582.5453	0.0038
582.7375	-0.0012
582.9298	0.0015
583.122	0.0045
583.3142	-0.0028
583.5063	-0.0002
583.6985	-0.002
583.8906	0.0004
584.0827	0.0031
584.2749	0.0074
584.4669	0.004
584.659	0.0012
584.8511	-0.0006
585.0431	-0.0019
585.2352	0.0014
585.4272	0.0019
585.6192	0.0012
585.8111	0.0027
586.0031	0.0039
586.195	-0.0005
586.387	0.0113
586.5789	-0.0028
586.7708	0.003
586.9627	0.001
587.1545	-0.0012
587.3464	0.0016
587.5382	0.0094
587.73	0.0037
587.9218	0.0049
588.1136	-0.0077
588.3053	0.0095
588.4971	0.003
588.6888	-0.0042
588.8805	-0.0005
589.0722	0.0058
589.2639	0.0009
589.4556	0.004
589.6472	0.0011
589.8389	-0.0063
590.0305	-0.0058
590.2221	0.0004
590.4137	-0.0057
590.6052	0.0072
590.7968	0.0019
590.9883	-0.0018
591.1798	-0.0006
591.3713	0.0056
591.5628	0.0035
591.7543	0.0077
591.9458	0.003
592.1372	0.0079
592.3286	0.0075
592.52	0.0086
592.7114	-0.0005
592.9028	-0.0016
593.0941	0.0021
593.2855	-0.0004
593.4768	-0.0038
593.6681	-0.0043
593.8594	-0.0027
594.0506	-0.0003
594.2419	0.0094
594.4331	0.0047
594.6244	0.0047
594.8156	-0.0028
595.0067	0.0009
595.1979	0.0039
595.3891	0.0076
595.5802	0.0009
595.7713	-0.0021
595.9624	0.0027
596.1535	0.0108
596.3446	0.0019
596.5357	0.001
596.7267	0.0058
596.9177	-0.0015
597.1087	-0.0011
597.2997	-0.0016
597.4907	0.0049
597.6817	0.0035
597.8726	-0.0045
598.0635	0.0046
598.2544	0.0054
598.4453	-0.0013
598.6362	-0.0023
598.827	-0.008
599.0179	0.0015
599.2087	0.0012
599.3995	0.0044
599.5903	-0.0006
599.7811	0.0018
599.9718	0.0031
600.1626	-0.0028
600.3533	-0.0028
600.544	0.0072
600.7347	0.0012
600.9254	0.0038
601.116	-0.0066
601.3067	-0.0031
601.4973	-0.002
601.6879	0.0068
601.8785	-0.0034
602.0691	0.0115
602.2596	0.0008
602.4502	0.0061
602.6407	0.0045
602.8312	-0.0004
603.0217	-0.0041
603.2122	0.0032
603.4027	0.005
603.5931	0.0006
603.7835	-0.0084
603.9739	-0.0055
604.1643	-0.0036
604.3547	-0.0081
604.5451	0
604.7354	0.0005
604.9257	0.0036
605.116	0.0007
605.3063	0.005
605.4966	0.0003
605.6869	0.0012
605.8771	0.0021
606.0673	0.0065
606.2575	0.0085
606.4477	0.0058
606.6379	0.004
606.8281	-0.0005
607.0182	-0.0067
607.2083	0.0108
607.3985	0.0026
607.5885	-0.0032
607.7786	0.0062
607.9687	-0.0048
608.1587	0.0052
608.3488	0.0068
608.5388	0.0052
608.7288	0.0011
608.9187	-0.0023
609.1087	-0.0069
609.2986	-0.0049
609.4886	-0
609.6785	0.0027
609.8684	0.0045
610.0582	0.0078
610.2481	0.0058
610.4379	0.0051
610.6278	-0.0033
610.8176	-0.0009
611.0074	-0.0018
611.1971	0.0003
611.3869	0.0066
611.5766	-0.0041
611.7664	0.0003
611.9561	0.01
612.1458	0.0044
612.3354	-0.0051
612.5251	-0.0032
612.7147	0.0049
612.9044	0.0087
613.094	-0.001
613.2836	-0.0024
613.4731	0.0017
613.6627	0.0033
613.8522	0.0061
614.0417	0.0082
614.2313	-0.0059
614.4207	-0.0015
614.6102	0.0033
614.7997	0.0023
614.9891	0.0003
615.1785	-0.005
615.3679	0.0012
615.5573	0.0062
615.7467	-0.0007
615.9361	0.0038
616.1254	0.0022
616.3147	0.0023
616.504	0.0066
616.6933	0.0064
616.8826	0.0111
617.0718	0.0048
617.2611	0.0039
617.4503	0.0039
617.6395	0.0034
617.8287	0.0027
618.0179	0.0017
618.207	0.0135
618.3961	0.0035
618.5853	0.0018
618.7744	-0.0013
618.9634	0.013
619.1525	-0.0004
619.3416	0.0093
619.5306	0.0055
619.7196	0.0021
619.9086	-0.005
620.0976	0.0057
620.2866	-0.0026
620.4755	0.0049
620.6645	0.0061
620.8534	0.0039
621.0423	0.0027
621.2312	0.0048
621.42	0.0074
621.6089	0.0057
621.7977	0.0057
621.9865	0.0003
622.1753	0.0049
622.3641	0.0006
622.5529	0.0144
622.7416	0.0026
622.9303	0.006
623.1191	0.0037
623.3078	-0.0023
623.4964	0.0048
623.6851	-0.0012
623.8737	-0.0015
624.0624	-0.0027
624.251	0.0025
624.4396	0.0049
624.6282	-0.0033
624.8167	0.004
625.0053	0.0053
625.1938	0
625.3823	0.0026
625.5708	0.0087
625.7593	-0.0011
625.9477	0.0012
626.1362	0.0037
626.3246	0.0042
626.513	0.0129
626.7014	0.0132
626.8898	-0.0006
627.0781	0.0077
627.2665	-0.0018
627.4548	0.0082
627.6431	0.0069
627.8314	0.0158
628.0197	0.0132
628.2079	0.002
628.3962	0.0002
628.5844	0.0012
628.7726	0.0047
628.9608	0.0023
629.1489	0.0006
629.3371	0.0109
629.5252	-0
629.7134	0.0057
629.9015	0.0047
630.0895	0.001
630.2776	0.0069
630.4657	0.0055
630.6537	0.0032
630.8417	0.0025
631.0297	0.0031
631.2177	0.0051
631.4057	-0.0023
631.5936	0.0001
631.7815	0.0058
631.9695	0.0091
632.1574	0.011
632.3452	0.0185
632.5331	0.0053
632.7209	0.0007
632.9088	0.0077
633.0966	0.0161
633.2844	0.0022
633.4722	-0.0009
633.6599	0.0084
633.8477	0.0063
634.0354	0.0043
634.2231	0.0064
634.4108	0.0058
634.5985	0.0048
634.7861	0.0017
634.9738	0.0071
635.1614	0.0063
635.349	0.0065
635.5366	0.0082
635.7242	0.0012
635.9117	0.0076
636.0993	0.0043
636.2868	0.0208
636.4743	0.0105
636.6618	0.012
636.8492	0.0082
637.0367	0.0001
637.2241	0.0031
637.4115	0.0025
637.5989	0.0045
637.7863	-0.0035
637.9737	-0.0013
638.161	-0.0019
638.3484	0.0031
638.5357	0.0104
638.723	0.004
638.9103	0.0044
639.0975	0.0138
639.2848	0.0114
639.472	0.0036
639.6592	0.0065
639.8464	0.0083
640.0336	0.0125
640.2208	-0.0007
640.4079	0.003
640.595	-0.0026
640.7821	0.0038
640.9692	0.0041
641.1563	0.0116
641.3434	0.01
641.5304	0.0037
641.7174	0
641.9044	-0.001
642.0914	0.0009
642.2784	0.0099
642.4653	0.0116
642.6523	0.0059
642.8392	-0.0086
643.0261	-0.0023
643.213	0.0117
643.3999	0.0017
643.5867	0.0035
643.7735	0.0066
643.9604	-0.0043
644.1472	0.0033
644.3339	0.0041
644.5207	0.0063
644.7075	0.0051
644.8942	0.0082
645.0809	0.0114
645.2676	0.0096
645.4543	0.0038
645.6409	0.0103
645.8276	0.0059
646.0142	0.0154
646.2008	0.0014
646.3874	-0.0027
646.574	0.0006
646.7605	0.0026
646.9471	-0.0063
647.1336	-0.0012
647.3201	-0.0018
647.5066	-0.0026
647.6931	0.0065
647.8795	0.0018
648.0659	0.0098
648.2524	0.0093
648.4388	0.0013
648.6252	0.0109
648.8115	-0.0044
648.9979	0.001
649.1842	0.0009
649.3705	0.0019
649.5568	0.0011
649.7431	0.0096
649.9294	-0.0026
650.1156	0.0022
650.3018	-0.0035
650.488	0.0063
650.6742	0.0055
650.8604	0.0041
651.0466	0.0026
651.2327	0.0098
651.4188	0.0044
651.6049	-0.0013
651.791	0.003
651.9771	0.0082
652.1632	0.0155
652.3492	0.0036
652.5352	-0.0003
652.7212	0.0023
652.9072	0.0083
653.0932	0.0052
653.2791	0.0011
653.465	0.0082
653.651	0.0048
653.8369	0.0072
654.0227	0.0028
654.2086	0.0023
654.3944	0.0017
654.5803	0.0046
654.7661	0.0103
654.9519	0.0026
655.1377	-0.0004
655.3234	0.003
655.5092	-0.005
655.6949	-0.007
655.8806	-0.0036
656.0663	0.0006
656.2519	-0.0022
656.4376	-0.0026
656.6232	0.0011
656.8088	0.0042
656.9945	0.0048
657.18	0.004
657.3656	0.0022
657.5511	0.0011
657.7367	-0.0025
657.9222	0.013
658.1077	0.0034
658.2932	0.0063
658.4786	-0.0068
658.6641	-0.0048
658.8495	-0.0001
659.0349	-0
659.2203	0.0076
659.4057	-0.0018
659.591	0.0049
659.7764	-0.0056
659.9617	0.0125
660.147	0.0013
660.3323	0.0066
660.5176	0.0103
660.7028	0.0099
660.888	0.0121
661.0733	0.0005
661.2585	-0.0016
661.4436	0.0021
661.6288	-0.0036
661.8139	-0.0068
661.9991	0.0028
662.1842	0.0004
662.3693	-0.0012
662.5544	-0.0041
662.7394	0.0012
662.9245	0.0036
663.1095	0.0041
663.2945	0.0024
663.4795	0.0054
663.6644	0.0086
663.8494	-0.0002
664.0343	0.0047
664.2193	0.0018
664.4042	0.0011
664.589	-0.0063
664.7739	-0.0048
664.9587	-0.0055
665.1436	0.0002
665.3284	0.004
665.5132	-0.0097
665.698	0.0055
665.8827	0.0037
666.0675	0.002
666.2522	-0.0037
666.4369	0.0075
666.6216	0.0057
666.8063	0.0014
666.9909	-0.0025
667.1756	-0.0043
667.3602	0.0043
667.5448	0.0032
667.7294	0.0147
667.9139	0.0064
668.0985	0.0137
668.283	0.0074
668.4675	0.0004
668.652	0.0085
668.8365	0.0057
669.0209	0.0149
669.2054	0.0182
669.3898	0.0052
669.5742	0.0086
669.7586	0.0101
669.943	0.0087
670.1273	0.0049
670.3117	0.0124
670.496	0.0102
670.6803	0.0116
670.8646	0.0082
671.0488	0.0037
671.2331	0.0074
671.4173	0.0119
671.6015	0.0034
671.7857	0.0106
671.9699	0.0039
672.1541	0.0064
672.3382	0.0103
672.5223	0.0079
672.7064	0.0139
672.8905	0.0088
673.0746	0.0087
673.2587	-0.0011
673.4427	0.0024
673.6267	0.0075
673.8107	0.0147
673.9947	0.005
674.1787	0.0147
674.3626	0.0024
674.5465	0.0054
674.7304	0.0116
674.9143	0.0106
675.0982	0.0114
675.2821	0.0007
675.4659	0.0077
675.6497	0.0014
675.8335	0.0019
676.0173	0.0026
676.2011	-0
676.3849	0.0034
676.5686	0.0003
676.7523	0.0054
676.936	0.0032
677.1197	-0.0043
677.3034	-0.0045
677.487	0.0006
677.6706	0.0011
677.8542	0.0074
678.0378	0.0008
678.2214	0.0005
678.405	0.011
678.5885	-0.0036
678.772	0.005
678.9555	-0.0008
679.139	0.0066
679.3225	0.0028
679.5059	0.0017
679.6894	0.0017
679.8728	-0.0007
680.0562	-0.0022
680.2395	-0.0114
680.4229	-0.0005
680.6062	0.0084
680.7896	0.0044
680.9729	-0.0008
681.1562	-0.0032
681.3394	0.0018
681.5227	-0.0032
681.7059	0.0029
681.8891	0.0008
682.0723	0.0081
682.2555	0.0036
682.4387	-0.0014
682.6218	0.0012
682.805	0.0058
682.9881	0.0034
683.1712	0.0079
683.3542	-0.0003
683.5373	0.0049
683.7203	0
683.9034	0.0094
684.0864	-0.0079
684.2694	0.0015
684.4523	0.009
684.6353	0.0006
684.8182	0.0045
685.0011	-0.0056
685.184	0.0073
685.3669	-0.0016
685.5498	0.0036
685.7326	0.0023
685.9154	-0.0021
686.0982	0.0108
686.281	0.0094
686.4638	0.006
686.6465	-0.0015
686.8293	0.0049
687.012	0.0033
687.1947	-0.0026
687.3774	0.0102
687.56	0.0016
687.7427	0.0074
687.9253	-0.002
688.1079	-0.002
688.2905	0.0145
688.4731	0.0053
688.6556	-0.0027
688.8382	0.0057
689.0207	0.0051
689.2032	-0.0077
689.3857	-0.0048
689.5681	-0.0056
689.7506	-0.0046
689.933	-0.0069
690.1154	-0.0034
690.2978	-0.006
690.4802	-0.0028
690.6626	-0.0125
690.8449	-0.0046
691.0272	0.0031
691.2095	-0.004
691.3918	0.0007
691.5741	0.0109
691.7563	0.0031
691.9386	0.0043
692.1208	0.0012
692.303	0.0061
692.4852	0.001
692.6673	0.0022
692.8495	0.0042
693.0316	-0.0034
693.2137	0.0055
693.3958	0.0069
693.5778	0.002
693.7599	0.0026
693.9419	0.0024
694.1239	0.0054
694.3059	0.0028
694.4879	0.0143
694.6699	0.0106
694.8518	0.0038
695.0337	-0.0003
695.2157	0.0069
695.3975	0.0054
695.5794	0.0062
695.7613	0.0093
695.9431	0.0061
696.1249	-0.0009
696.3067	0.0055
696.4885	0.0067
696.6703	-0.0026
696.852	0.009
697.0337	0.0056
697.2154	0.0119
697.3971	0.0004
697.5788	0.0014
697.7605	0.0011
697.9421	0.009
698.1237	0.0058
698.3053	0.0083
698.4869	0.0066
698.6685	-0.0088
698.85	0.0011
699.0315	0.0036
699.213	-0.0016
699.3945	0.0045
699.576	0.0113
699.7575	0.0071
699.9389	0.0127
700.1203	-0.0032
700.3017	-0.0013
700.4831	-0.0015
700.6645	-0.0052
700.8458	0.0094
701.0271	0.0077
701.2084	0.009
701.3897	-0.0027
701.571	0.0113
701.7523	-0.0058
701.9335	0.0022
702.1147	0.0011
702.2959	0.0054
702.4771	-0.0007
702.6583	0.005
702.8394	-0.0005
703.0205	0.0076
703.2016	0.002
703.3827	0.0018
703.5638	0.0091
703.7449	0.0066
703.9259	0.0037
704.1069	0.0046
704.2879	0.0034
704.4689	0.0065
704.6499	0.0013
704.8308	0.009
705.0117	0.0072
705.1927	0.0097
705.3735	0.0018
705.5544	-0.0055
705.7353	-0.0008
705.9161	-0.0072
706.0969	-0.0061
706.2777	0.0011
706.4585	0.0002
706.6393	0.0067
706.82	0.0021
707.0007	0.0022
707.1815	0.0046
707.3621	0.011
707.5428	0.0048
707.7235	-0.0015
707.9041	0.0066
708.0847	-0.0058
708.2653	-0.0054
708.4459	-0.0084
708.6265	-0.0006
708.807	-0.001
708.9875	-0.0069
709.168	-0.0045
709.3485	-0.0101
709.529	-0.0084
709.7095	-0.0117
709.8899	-0.0002
710.0703	-0.0135
710.2507	-0.0019
710.4311	-0.0044
710.6115	-0.0109
710.7918	-0.0141
710.9721	-0.0023
711.1524	-0.007
711.3327	-0.0038
711.513	-0.0028
711.6932	0.0045
711.8735	0.0092
712.0537	0.0031
712.2339	0.0006
712.4141	-0.0019
712.5942	-0.0002
712.7744	0.0003
712.9545	-0.0067
713.1346	0.0029
713.3147	0.0006
713.4947	-0.0071
713.6748	-0.0029
713.8548	-0.0011
714.0348	-0.007
714.2148	0.0045
714.3948	0.0046
714.5748	-0.0028
714.7547	-0.0018
714.9346	0.0083
715.1145	0.0013
715.2944	-0.0025
715.4743	0.0011
715.6541	-0.0012
715.834	0.0052
716.0138	0.0007
716.1936	-0.0079
716.3733	-0.0072
716.5531	0.0045
716.7328	-0.0074
716.9126	-0.0023
717.0923	0.0004
717.2719	-0.0027
717.4516	0.0032
717.6312	-0.0016
717.8109	-0.0094
717.9905	-0.0001
718.1701	-0.0038
718.3496	-0.0081
718.5292	-0.0032
718.7087	-0.0041
718.8882	-0.002
719.0677	0.0004
719.2472	-0.0054
719.4267	0.0082
719.6061	0.0017
719.7856	0.0081
719.965	-0.0022
720.1443	-0.0038
720.3237	0.0091
720.5031	0.0042
720.6824	0.0104
720.8617	-0.0042
721.041	0.0001
721.2203	0.0072
721.3995	-0.0007
721.5788	0.0066
721.758	0.0127
721.9372	0.0019
722.1164	0.0114
722.2956	-0.0031
722.4747	0.0089
722.6538	0.0009
722.8329	0.0095
723.012	0.0053
723.1911	-0.0016
723.3702	0.0071
723.5492	0.0075
723.7282	0.0001
723.9072	0.0025
724.0862	-0.0054
724.2652	-0.0033
724.4441	0.0033
724.623	0.0058
724.8019	0.002
724.9808	-0.0007
725.1597	-0.01
725.3385	0.0101
725.5174	0.0007
725.6962	-0.0051
725.875	0.0004
726.0538	0.0051
726.2325	-0.0022
726.4112	0.0061
726.59	-0.008
726.7687	-0.0055
726.9474	0.0043
727.126	0.0033
727.3047	-0.0056
727.4833	-0.005
727.6619	-0.0096
727.8405	-0.0058
728.0191	-0.0023
728.1976	0.0043
728.3762	0.0003
728.5547	0.0015
728.7332	-0.0102
728.9116	0.0026
729.0901	0.0025
729.2686	-0.0029
729.447	-0.0002
729.6254	0.0006
729.8038	0.0033
729.9821	-0.0006
730.1605	0.0084
730.3388	0.0053
730.5171	0.0054
730.6954	-0.0029
730.8737	0.0099
731.0519	0.0089
731.2302	0.0095
731.4084	0.0116
731.5866	0.0005
731.7648	0.0095
731.9429	-0.0015
732.1211	-0.0056
732.2992	0.0017
732.4773	-0.0075
732.6554	-0.0007
732.8335	0.0041
733.0115	0.0039
733.1896	0.0055
733.3676	-0.0036
733.5456	0.0034
733.7235	0.0094
733.9015	0.0003
734.0794	0.002
734.2574	-0.0022
734.4353	-0.0015
734.6131	0.0058
734.791	0.0099
734.9689	0.008
735.1467	0.0031
735.3245	-0.0049
735.5023	0.0009
735.68	0.0067
735.8578	0.0138
736.0355	-0.0189
736.2132	-0.0018
736.3909	-0.0002
736.5686	-0.0078
736.7463	0.0092
736.9239	-0.0041
737.1015	-0.0004
737.2791	0.0094
737.4567	0.0006
737.6343	0.0038
737.8118	0.01
737.9894	0.0054
738.1669	-0.0031
738.3444	0.0052
738.5218	0.0084
738.6993	0.0059
738.8767	-0.001
739.0541	0.0098
739.2315	-0.0073
739.4089	0.001
739.5863	0.0068
739.7636	-0.0018
739.9409	-0
740.1182	-0.0013
740.2955	0.0068
740.4728	0.0013
740.65	-0.0001
740.8272	-0.0004
741.0044	-0.0046
741.1816	-0.0004
741.3588	0.0011
741.5359	-0.0019
741.7131	-0.0023
741.8902	0.0014
742.0673	0.0053
742.2444	0.0015
742.4214	-0.0067
742.5985	-0.0052
742.7755	-0.0059
742.9525	-0.0142
743.1295	0.0013
743.3064	0.008
743.4834	0.0149
743.6603	-0.0057
743.8372	0.001
744.0141	0.0088
744.191	0.0061
744.3678	0.0011
744.5446	0.0025
744.7215	0.0049
744.8982	0.0038
745.075	-0.006
745.2518	0.0102
745.4285	0.0048
745.6052	-0.0008
745.7819	0.0016
745.9586	0.0027
746.1353	-0.0021
746.3119	0.0035
746.4885	0.0026
746.6651	-0.0095
746.8417	-0.0012
747.0183	-0.0033
747.1948	-0.0066
747.3714	0.0048
747.5479	0.0063
747.7244	-0.0045
747.9008	0.0102
748.0773	0.0065
748.2537	0.0018
748.4301	-0.0017
748.6065	0.0034
748.7829	0.0094
748.9593	0.0053
749.1356	0.0027
749.3119	0.0065
749.4882	-0.0034
749.6645	0.0028
749.8408	-0.0103
750.017	-0.0063
750.1933	0.0017
750.3695	-0.0024
750.5457	0.0056
750.7218	0.0016
750.898	0.0075
751.0741	0.0035
751.2502	-0.0004
751.4263	-0.0036
751.6024	0.0069
751.7784	0.0006
751.9545	-0.002
752.1305	0.0027
752.3065	0.0026
752.4825	0.0015
752.6584	-0.0124
752.8344	-0.0027
753.0103	-0.0046
753.1862	0.0082
753.3621	0.0009
753.5379	0.0011
753.7138	0.0104
753.8896	0.0042
754.0654	0.0069
754.2412	0.0151
754.417	0.0066
754.5927	-0.0053
754.7685	-0.0021
754.9442	0.0007
755.1199	0.0126
755.2956	0.0016
755.4712	0.0088
755.6469	0.0013
755.8225	0.0041
755.9981	-0.0063
756.1736	0.0102
756.3492	0.0148
756.5248	0.0047
756.7003	0.0068
756.8758	0.02
757.0513	-0.0034
757.2267	-0.003
757.4022	0.0064
757.5776	0.0006
757.753	0.0057
757.9284	0.0061
758.1038	0.0141
758.2791	0.004
758.4545	-0.0033
758.6298	0.0003
758.8051	0.0076
758.9803	0.0036
759.1556	0.0024
759.3308	-0.0039
759.506	0.0191
759.6812	0.0101
759.8564	0.0091
760.0316	0.0005
760.2067	0.0103
760.3819	0.0118
760.557	0.0129
760.732	0.0099
760.9071	-0.0029
761.0821	0.0062
761.2572	0.0217
761.4322	0.0062
761.6072	0.005
761.7821	-0.0032
761.9571	0.0091
762.132	0.0027
762.3069	-0.0069
762.4818	-0.0071
762.6567	0.0028
762.8316	-0.0041
763.0064	0.0082
763.1812	-0.0129
763.356	-0.0096
763.5308	0.002
763.7055	0.0055
763.8803	0.0021
764.055	0.0007
764.2297	-0.005
764.4044	-0.0117
764.579	-0.0041
764.7537	-0.0074
764.9283	0.0026
765.1029	-0.0058
765.2775	-0.0049
765.4521	0.0053
765.6266	-0.0046
765.8011	-0.0029
765.9756	-0.0049
766.1501	0.0101
766.3246	-0.0043
766.4991	-0.0013
766.6735	0.0026
766.8479	-0.0003
767.0223	0.0253
767.1967	0.0112
767.371	-0.0016
767.5454	-0.0076
767.7197	0.0121
767.894	0.0023
768.0683	0.0047
768.2425	-0.0033
768.4168	0.0023
768.591	0.0158
768.7652	0.0078
768.9394	0.0021
769.1135	0.0096
769.2877	0.0034
769.4618	-0.0131
769.6359	0.0008
769.81	0.0183
769.984	0.0076
770.1581	-0.0135
770.3321	0.0006
770.5061	-0.0033
770.6801	-0.0062
770.8541	-0.0056
771.028	0.0035
771.202	-0.0161
771.3759	0.0039
771.5498	-0.0096
771.7236	0.0104
771.8975	0.0016
772.0713	0.0057
772.2451	0.0086
772.4189	0.0132
772.5927	0.0058
772.7665	-0.0047
772.9402	-0.0046
773.1139	0.0011
773.2876	0.0038
773.4613	0.0138
773.635	0.0091
773.8086	-0.0121
773.9822	-0.0008
774.1558	0.0096
774.3294	-0.0099
774.503	-0.0011
774.6765	0.0106
774.8501	0.0046
775.0236	0.0079
775.1971	0.0098
775.3705	0.005
775.544	0.0062
775.7174	-0.0059
775.8908	-0.0015
776.0642	0.0085
776.2376	-0.0001
776.4109	0.0029
776.5843	-0.0035
776.7576	0.0102
776.9309	0.0103
777.1041	0.0073
777.2774	0.0141
777.4506	0.0085
777.6238	-0.006
777.797	0.0027
777.9702	-0.0036
778.1434	-0.0116
778.3165	-0.0142
778.4896	-0.005
778.6627	0.006
778.8358	-0.0045
779.0089	-0.0102
779.1819	0.0029
779.3549	0.0108
779.5279	0.0049
779.7009	0.0038
779.8739	0.0095
780.0468	0.0019
780.2197	0.0069
780.3926	0.0022
780.5655	-0.0045
780.7384	-0.0031
780.9112	-0.0029
781.0841	-0.0096
781.2569	0.0093
781.4297	0.0045
781.6024	0.0161
781.7752	0.0105
781.9479	0.0121
782.1206	0.0045
782.2933	-0.0021
782.466	0.0046
782.6386	0.0056
782.8113	-0.0108
782.9839	0.0007
783.1565	0.0081
783.329	0.0018
783.5016	-0.0005
783.6741	0.0006
783.8466	-0.0022
784.0191	0.009
784.1916	-0.0048
784.3641	0.0032
784.5365	-0.0027
784.7089	-0.0115
784.8813	-0.0114
785.0537	-0.0091
785.2261	-0.0158
785.3984	-0.0121
785.5707	-0.0017
785.743	0.0001
785.9153	-0.0098
786.0876	0.0034
786.2598	-0.0016
786.432	-0.0178
786.6042	0.0005
786.7764	-0.0074
786.9486	-0.0034
787.1207	-0.0117
787.2928	0.0044
787.4649	-0.0028
787.637	0.004
787.8091	0.0077
787.9811	0.0023
788.1532	-0.0066
788.3252	0.0082
788.4972	-0.0115
788.6691	-0.0049
788.8411	0.0022
789.013	-0.0215
789.1849	-0.0041
789.3568	-0.0022
789.5287	0.0042
789.7005	0.0007
789.8723	0.0033
790.0442	0.0063
790.2159	0.0173
790.3877	0.0003
790.5595	-0.0266
790.7312	-0.01
790.9029	0.006
791.0746	-0.0076
791.2463	-0.0148
791.4179	-0
791.5896	-0.0095
791.7612	-0.0079
791.9328	-0.0033
792.1044	-0.005
792.2759	-0.0254
792.4474	0.0037
792.619	0.0073
792.7905	-0.0042
792.9619	-0.0104
793.1334	0.0058
793.3048	0.0087
793.4762	0.0298
793.6476	0.0091
793.819	-0.0094
793.9904	-0.0039
794.1617	-0.0166
794.333	-0.0084
794.5043	-0.0207
794.6756	-0.0045
794.8469	-0.007
795.0181	0.0074
795.1893	-0.0076
795.3605	-0.0021
795.5317	-0.0105
795.7029	-0.0185
795.874	-0.0068
796.0452	-0.0067
796.2163	0.0097
796.3873	0.0195
796.5584	0.0108
796.7294	-0.0099
796.9005	0.0218
797.0715	0.0065
797.2425	-0.0243
797.4134	-0.0112
797.5844	-0.0043
797.7553	-0.0154
797.9262	-0.004
798.0971	-0.0032
798.2679	-0.0069
798.4388	-0.0219
798.6096	-0.0132
798.7804	-0.0075
798.9512	0.0035
799.122	0.0002
799.2927	0.0225
799.4635	0.0223
799.6342	-0.0075
799.8049	0.0029
799.9755	0.0035
800.1462	0.0072
800.3168	0.0091
800.4874	0.0125
800.658	0.0021
800.8286	0.0068
800.9991	0.0189
801.1696	0.0069
801.3402	0.0152
801.5106	0.0026
801.6811	0.005
801.8516	0.0102
802.022	0.0051
802.1924	0.0059
802.3628	0.0098
802.5332	0.0153
802.7035	0.0109
802.8739	-0.0009
803.0442	-0.0043
803.2145	0.0089
803.3847	-0.0229
803.555	-0.0062
803.7252	-0.0005
803.8954	-0.0105
804.0656	-0.0108
804.2358	-0.0076
804.4059	0.0069
804.5761	0.0006
804.7462	-0.002
804.9163	-0.0003
805.0864	-0.0081
805.2564	-0.0054
805.4264	0.01
805.5965	-0.0104
805.7665	0.0049
805.9364	-0.0065
806.1064	0.0278
806.2763	0.0086
806.4462	0.0154
806.6161	-0.0007
806.786	0.0184
806.9559	-0.0178
807.1257	0.0021
807.2955	-0.0005
807.4653	-0.0019
807.6351	-0.0031
807.8048	-0.0012
807.9746	0.0076
808.1443	0.0106
808.314	-0.0031
808.4837	-0.0026
808.6533	-0.0026
808.8229	0.0284
808.9926	0.01
809.1622	0.0021
809.3317	-0.0127
809.5013	0.0065
809.6708	0.0041
809.8403	0.0189
810.0098	-0.0116
810.1793	0.0201
810.3488	-0.0132
810.5182	-0.019
810.6876	-0.0068
810.857	-0.0003
811.0264	0.017
811.1958	0.0028
811.3651	0.0066
811.5344	0.0021
811.7037	-0.0243
811.873	-0.0102
812.0422	-0.0097
812.2115	-0.0038
812.3807	-0.0113
812.5499	0.0109
812.7191	0.0092
812.8882	-0.0126
813.0574	-0.0053
813.2265	-0.01
813.3956	-0.0078
813.5646	0.0163
813.7337	-0.0118
813.9027	0.0098
814.0718	0.0219
814.2407	0.0183
814.4097	-0.0039
814.5787	-0.0197
814.7476	-0.0142
814.9165	0.0013
815.0854	-0.0137
815.2543	0.0149
815.4232	-0.0152
815.592	0.011
815.7608	0.0041
815.9296	0.0185
816.0984	0.0038
816.2671	0.0017
816.4359	0.0163
816.6046	0.0006
816.7733	0.0049
816.942	-0.0149
817.1106	0.0131
817.2793	0.0198
817.4479	-0.0028
817.6165	0.0337
817.785	0.0031
817.9536	-0.0233
818.1221	-0.0068
818.2906	-0.0029
818.4591	-0.0075
818.6276	0.0186
818.7961	0.022
818.9645	-0.0205
819.1329	0.0023
819.3013	0.0116
819.4697	0.0044
819.638	-0.0007
819.8064	0.0138
819.9747	0.0202
820.143	0.0021
820.3113	-0.0158
820.4795	0.0189
820.6477	0.024
820.816	-0.0035
820.9842	-0.0068
821.1523	0.0244
821.3205	-0.0133
821.4886	0.0287
821.6567	0.0082
821.8248	0.0154
821.9929	0.0168
822.1609	0.0251
822.329	0.0311
822.497	0.0234
822.665	0.0239
822.833	-0.0205
823.0009	0.0029
823.1688	0.0152
823.3367	0.0325
823.5046	0.0231
823.6725	0.0312
823.8404	0.0027
824.0082	0.0203
824.176	0.0043
824.3438	0.0343
824.5116	-0.0241
824.6793	-0.0134
824.847	-0.0046
825.0147	-0.0073
825.1824	0.0372
825.3501	-0.0186
825.5177	-0.0076
825.6854	-0.0219
825.853	0.0054
826.0206	-0.025
826.1881	0.0051
826.3557	-0.0513
826.5232	0.0154
826.6907	-0.0072
826.8582	0.0128
827.0257	-0.0195
827.1931	-0.0204
827.3605	0.016
827.528	0.0084
827.6953	0.0031
827.8627	-0.0307
828.03	0.0322
828.1974	-0.018
828.3647	-0.0266
828.532	0.0044
828.6992	-0.0094
828.8665	0.013
829.0337	-0.0071
829.2009	0.0501
829.3681	0.0113
829.5352	0.0537
829.7024	-0.0206
829.8695	-0.0267
830.0366	0.0538
830.2037	0.0192
830.3707	-0.0016
830.5378	0.0096
830.7048	-0.0082
830.8718	-0.0017
831.0388	-0.0148
831.2057	-0.0012
831.3727	-0.0104
831.5396	-0.0168
831.7065	-0.0159
831.8734	0.0048
832.0402	-0.0083
832.2071	0.0005
832.3739	-0.0031
832.5407	-0.0101
832.7075	-0.0014
832.8742	-0.0092
833.041	-0.0432
833.2077	0.0322
833.3744	0.0198
833.541	-0.0155
833.7077	0.0217
833.8743	0.0179
834.0409	0.0129
834.2075	0.0233
834.3741	-0.0406
834.5407	0.0148
834.7072	0.0082
834.8737	0.0189
835.0402	0.0262
835.2067	0.0223
835.3731	0.014
835.5395	0.0235
835.706	-0.0008
835.8723	-0.0212
836.0387	0.0372
836.2051	-0.0124
836.3714	-0.0109
836.5377	-0.0049
836.704	-0.0114
836.8703	-0.0063
837.0365	0.0262
837.2027	-0.0128
837.3689	0.0186
837.5351	-0.0199
837.7013	-0.0529
837.8674	-0.0131
838.0335	0.0024
838.1997	0.0381
838.3657	-0.0174
838.5318	-0.0116
838.6978	-0.0253
838.8639	0.0282
839.0299	0.0086
839.1958	0.0118
839.3618	0.0129
839.5277	-0.0394
839.6937	0.0271
839.8596	-0.0265
840.0254	-0.0281
840.1913	0.0158
840.3571	-0.0215
840.523	-0.0148
840.6888	-0.0103
840.8545	-0.0134
841.0203	0.0297
841.186	0.0218
841.3517	0.0181
841.5174	0.0269
841.6831	-0.0067
841.8488	-0.0073
842.0144	0.0091
842.18	0.0446
842.3456	0.021
842.5112	-0.0122
842.6767	-0.0296
842.8422	-0.0023
843.0077	0.0009
843.1732	-0.0599
843.3387	-0.0244
843.5042	0.0069
843.6696	-0.0168
843.835	-0.0129
844.0004	0.0321
844.1657	0.0235
844.3311	-0.029
844.4964	-0.1148
844.6617	-0.0894
844.827	-0.0195
844.9923	-0.0467
845.1575	0.0582
845.3227	-0.0281
845.4879	0.01
845.6531	-0.0471
845.8183	-0.05
845.9834	0.0137
846.1485	-0.0387
846.3136	-0.0078
846.4787	-0.0936
846.6438	0.0723
846.8088	-0.0656
846.9738	-0.043
847.1388	-0.0606
847.3038	-0.0569
847.4687	-0.0976
847.6337	-0.0015
847.7986	0.016
847.9635	-0.0554
848.1284	0.0265
848.2932	0.0646
848.458	0.0153
848.6228	0.0623
848.7876	0.1185
848.9524	0.0263
849.1172	-0.1013
849.2819	0.0082
849.4466	-0.0759
849.6113	-0.1257
849.7759	-0.0617
849.9406	-0.0349
850.1052	0.0386
850.2698	-0.0604
850.4344	-0.0195
850.599	-0.041
850.7635	0.0473
850.928	-0.0167
851.0925	0.0681
851.257	0.1032
851.4215	-0.0391
851.5859	-0.03
851.7503	0.057
851.9147	-0.01
852.0791	-0.0541
852.2434	-0.0331
852.4078	0.1772
852.5721	0.0079
852.7364	-0.0885
852.9007	-0.0973
853.0649	0.0076
853.2291	-0.1762
853.3934	0.0089
853.5575	-0.1111
853.7217	-0.0922
853.8859	-0.0891
854.05	-0.1867
854.2141	-0.0182
854.3782	-0.0436
854.5423	-0.0081
854.7063	0.0354
854.8703	0.0164
855.0343	-0.1205
855.1983	-0.1443
855.3623	0.088
855.5262	0.1187
855.6901	-0.1318
855.854	-0.0244
856.0179	0.0488
856.1818	0.1679
856.3456	-0.0425
856.5094	-0.0972
856.6732	-0.1734
856.837	-0.0422
857.0008	0.0226
857.1645	-0.1282
857.3282	-0.2165
857.4919	0.036
857.6556	0.0289
857.8192	-0.0352
857.9828	-0.0306
858.1465	0.1807
858.31	-0.0985
858.4736	-0.1289
858.6372	-0.1637
858.8007	-0.2697
858.9642	-0.1091
859.1277	-0.1685
859.2911	0.1393
859.4546	0.0706
859.618	-0.4389
859.7814	0.0645
859.9448	0.0261
860.1081	-0.1201
860.2715	0.1066
860.4348	0.0573
860.5981	-0.0742
860.7614	0.1553
860.9246	-0.059
861.0879	-0.091
861.2511	-0.0607
861.4143	0.031
861.5774	0.1158
861.7406	-0.2678
861.9037	-0.0702
862.0668	-0.1787
862.2299	-0.0616
862.393	-0.5235
862.556	0.0355
862.7191	-0.2175
862.8821	-0.109
863.0451	0.315
863.208	0.1022
863.371	-0.063
863.5339	-0.3545
863.6968	-0.0247
863.8597	-0.301
864.0225	0.1801
864.1854	-0.0191
864.3482	0.402
864.511	0.1746
864.6737	0.0547
864.8365	0.3785
864.9992	-0.0516
865.1619	-0.3816
865.3246	-0.3422
865.4873	-0.0854
865.65	-0.1871
865.8126	-0.1353
865.9752	0.0447
866.1378	-0.2826
866.3004	-0
866.4629	0.1357
866.6254	-0.0408
866.7879	0.2025
866.9504	-0.5161
867.1129	-0
867.2753	0.3116
867.4377	0.1281
867.6001	-0.309
867.7625	0.0276
867.9249	-0.5553
868.0872	0.1522
868.2495	-0.0187
868.4118	-0.0984
868.5741	-0.223
868.7363	-0.2194
868.8986	-0.3355
869.0608	-0.0477
869.223	0.052
869.3851	-0
869.5473	-0.1881
869.7094	0.2422
869.8715	0.5623
870.0336	-0.4323
870.1957	-0.8812
870.3577	-0
870.5197	0.0162
870.6817	0.0393
870.8437	-0.063
871.0057	-0.301
871.1676	-0
871.3295	0.2892
871.4914	-0
871.6533	-0.2223
871.8151	-0.375
871.977	-0
872.1388	-0
872.3006	-0.3336
872.4623	1.3757
872.6241	0.2567
872.7858	0.4932
872.9475	-0.1812
873.1092	-0.3535
873.2709	0.7597
873.4325	-0.2756
873.5941	-0
873.7557	0.3237
873.9173	0.6721
874.0789	-0.1377
874.2404	-0
874.4019	-0.2297
874.5634	-0.3317
874.7249	-0.0997
874.8863	-0.1948
875.0478	0.5787
875.2092	-0
875.3706	-0
875.5319	-0.6548
875.6933	0.3733
875.8546	-0.3926
876.0159	-0
876.1772	0.522
876.3385	-0
876.4997	-0.0839
876.6609	-0.6162
876.8221	-0.4375
876.9833	1.7304
877.1445	-0
877.3056	0.0627
877.4667	-0.0516
877.6278	0.8253
877.7889	-0.6099
877.9499	-0.4856
878.111	-0.5257
878.272	-0
878.433	-0
878.5939	0.5037
878.7549	-0.1169
878.9158	-0.3779
879.0767	0.181
879.2376	-0
879.3984	0.4048
879.5593	-0
879.7201	-0.1605
879.8809	-0
880.0417	-0.5542
880.2024	0.0501
880.3632	-0.301
880.5239	1.0383
880.6846	-0
880.8452	-1.9912
881.0059	-1.4713
881.1665	-0
881.3271	0.1411
881.4877	0.4843
881.6483	0.0651
881.8088	-0.4173
881.9693	-0
882.1298	-0
882.2903	-0
