Data from MonoPyChalIsomerACN10uM440nmA_Absorbance_15-27-12-394.txt Node
Date: Fri Jul 05 15:27:12 BST 2024
User: LASERRRRR
Spectrometer: FLMT03099
Trigger mode: 0
Integration Time (sec): 1.000000E-1
Scans to average: 1
Electric dark correction enabled: true
Nonlinearity correction enabled: false
Boxcar width: 0
XAxis mode: Wavelengths
Number of Pixels in Spectrum: 3648
>>>>>Begin Spectral Data<<<<<
179.3399	0.2242
179.5586	0.2242
179.7771	0.2242
179.9957	0.3158
180.2143	-0.4647
180.4329	0.0667
180.6514	0.1478
180.8699	-0.3617
181.0885	0.0528
181.307	0.0645
181.5255	-0.2463
181.744	-0.7267
181.9625	-0
182.181	0.1362
182.3994	-0
182.6179	1.5798
182.8363	0.3414
183.0547	-0.2801
183.2732	0.0819
183.4916	0.1955
183.71	0.1291
183.9284	0.1166
184.1467	-0.1475
184.3651	0.2473
184.5835	0.0357
184.8018	-0.0506
185.0201	0.1204
185.2385	-0.0268
185.4568	0.1681
185.6751	0.0273
185.8934	0.4499
186.1117	0.1378
186.3299	-0.0158
186.5482	0.0257
186.7664	-0.1756
186.9847	-0.0109
187.2029	0.1532
187.4211	0.1096
187.6393	0.2282
187.8575	-0.1593
188.0757	0.3732
188.2939	0.0589
188.512	-0.0764
188.7302	0.2838
188.9483	0.7006
189.1665	0.4846
189.3846	0.093
189.6027	0.2522
189.8208	0.1812
190.0389	0.0415
190.257	0.1454
190.475	0.237
190.6931	0.4068
190.9111	0.7055
191.1292	0.0512
191.3472	0.4879
191.5652	0.1702
191.7832	0.3605
192.0012	0.5608
192.2192	0.4593
192.4371	0.6073
192.6551	0.3332
192.873	0.7023
193.091	0.3391
193.3089	0.6587
193.5268	0.7146
193.7447	0.7523
193.9626	0.3873
194.1805	0.5428
194.3984	0.574
194.6162	0.6177
194.8341	0.5841
195.0519	0.7128
195.2697	0.7946
195.4875	0.7391
195.7054	0.6755
195.9231	0.5878
196.1409	0.6505
196.3587	0.6197
196.5765	0.5213
196.7942	0.724
197.012	0.4849
197.2297	0.6688
197.4474	0.6831
197.6651	0.612
197.8828	0.6704
198.1005	0.5085
198.3182	0.62
198.5358	0.6925
198.7535	0.5919
198.9711	0.5181
199.1888	0.6613
199.4064	1.009
199.624	0.6193
199.8416	0.4606
200.0592	0.7465
200.2767	0.6695
200.4943	0.6686
200.7119	0.8555
200.9294	0.7292
201.1469	0.5796
201.3645	0.6695
201.582	0.541
201.7995	0.6506
202.017	0.5445
202.2344	0.6244
202.4519	0.7819
202.6694	0.6778
202.8868	0.6179
203.1042	0.9426
203.3217	0.769
203.5391	0.656
203.7565	0.5867
203.9739	0.5932
204.1913	0.6291
204.4086	0.6208
204.626	0.7152
204.8433	0.7184
205.0607	0.6495
205.278	0.6464
205.4953	0.6068
205.7126	0.6485
205.9299	0.8688
206.1472	0.6424
206.3644	0.6103
206.5817	0.7085
206.7989	0.7228
207.0162	0.6629
207.2334	0.6421
207.4506	0.7138
207.6678	0.5901
207.885	0.6709
208.1022	0.6817
208.3194	0.6872
208.5365	0.6031
208.7537	0.7403
208.9708	0.6337
209.1879	0.7148
209.405	0.7036
209.6222	0.7172
209.8392	0.64
210.0563	0.6629
210.2734	0.6173
210.4905	0.6398
210.7075	0.5975
210.9245	0.6339
211.1416	0.7064
211.3586	0.6302
211.5756	0.5926
211.7926	0.5864
212.0096	0.5847
212.2265	0.5851
212.4435	0.5716
212.6604	0.6312
212.8774	0.6565
213.0943	0.58
213.3112	0.5408
213.5281	0.4954
213.745	0.5342
213.9619	0.5297
214.1788	0.5095
214.3956	0.474
214.6125	0.5192
214.8293	0.4708
215.0461	0.4996
215.2629	0.4568
215.4798	0.4666
215.6965	0.4298
215.9133	0.4767
216.1301	0.4408
216.3469	0.4596
216.5636	0.4003
216.7803	0.4181
216.9971	0.3897
217.2138	0.3989
217.4305	0.3944
217.6472	0.3569
217.8639	0.3987
218.0805	0.3398
218.2972	0.32
218.5138	0.3078
218.7305	0.3355
218.9471	0.3067
219.1637	0.2866
219.3803	0.2629
219.5969	0.2825
219.8135	0.2493
220.0301	0.2624
220.2466	0.2906
220.4632	0.2421
220.6797	0.2322
220.8962	0.2539
221.1127	0.2553
221.3292	0.2563
221.5457	0.245
221.7622	0.23
221.9787	0.2542
222.1951	0.2351
222.4116	0.2672
222.628	0.2541
222.8444	0.2311
223.0608	0.243
223.2772	0.2402
223.4936	0.2472
223.71	0.2525
223.9264	0.2754
224.1427	0.2632
224.3591	0.2683
224.5754	0.2516
224.7917	0.2596
225.008	0.2692
225.2243	0.2672
225.4406	0.2905
225.6569	0.2663
225.8732	0.262
226.0894	0.2441
226.3057	0.2627
226.5219	0.2946
226.7381	0.2671
226.9543	0.272
227.1705	0.2978
227.3867	0.2739
227.6029	0.2923
227.8191	0.2881
228.0352	0.3071
228.2513	0.3143
228.4675	0.2839
228.6836	0.2972
228.8997	0.2923
229.1158	0.3111
229.3319	0.3027
229.548	0.3071
229.764	0.3131
229.9801	0.311
230.1961	0.3316
230.4121	0.3301
230.6282	0.3432
230.8442	0.3223
231.0602	0.3447
231.2761	0.3599
231.4921	0.3193
231.7081	0.351
231.924	0.3293
232.14	0.3823
232.3559	0.3351
232.5718	0.3553
232.7877	0.3482
233.0036	0.3609
233.2195	0.3617
233.4353	0.3505
233.6512	0.3622
233.867	0.3756
234.0829	0.3574
234.2987	0.3603
234.5145	0.3546
234.7303	0.3763
234.9461	0.3671
235.1619	0.3682
235.3776	0.389
235.5934	0.3868
235.8091	0.3586
236.0249	0.3791
236.2406	0.3799
236.4563	0.3742
236.672	0.3883
236.8877	0.4005
237.1034	0.3818
237.319	0.3858
237.5347	0.3986
237.7503	0.414
237.966	0.3886
238.1816	0.4024
238.3972	0.4044
238.6128	0.3859
238.8284	0.3786
239.0439	0.3936
239.2595	0.3967
239.475	0.4172
239.6906	0.4033
239.9061	0.3998
240.1216	0.3972
240.3371	0.4118
240.5526	0.4174
240.7681	0.409
240.9836	0.3882
241.199	0.4063
241.4145	0.3796
241.6299	0.3794
241.8453	0.3503
242.0607	0.3745
242.2761	0.3505
242.4915	0.3519
242.7069	0.3514
242.9223	0.3495
243.1376	0.3367
243.353	0.3501
243.5683	0.3462
243.7836	0.3267
243.9989	0.3327
244.2142	0.2988
244.4295	0.3248
244.6448	0.3006
244.86	0.2976
245.0753	0.2741
245.2905	0.2673
245.5057	0.2719
245.721	0.2727
245.9362	0.2681
246.1514	0.2772
246.3665	0.2611
246.5817	0.2491
246.7969	0.2388
247.012	0.2481
247.2271	0.2433
247.4423	0.2327
247.6574	0.2285
247.8725	0.2181
248.0876	0.2262
248.3026	0.2227
248.5177	0.2274
248.7328	0.2153
248.9478	0.2006
249.1628	0.1974
249.3779	0.2043
249.5929	0.1905
249.8079	0.2111
250.0228	0.1993
250.2378	0.2017
250.4528	0.1941
250.6677	0.1825
250.8827	0.1843
251.0976	0.1973
251.3125	0.1857
251.5274	0.169
251.7423	0.1691
251.9572	0.1827
252.172	0.1649
252.3869	0.1781
252.6017	0.1819
252.8166	0.1633
253.0314	0.1769
253.2462	0.1599
253.461	0.1724
253.6758	0.164
253.8906	0.1862
254.1053	0.1715
254.3201	0.1556
254.5348	0.1696
254.7496	0.176
254.9643	0.1745
255.179	0.1631
255.3937	0.1665
255.6083	0.1781
255.823	0.1646
256.0377	0.1556
256.2523	0.1695
256.467	0.1511
256.6816	0.1663
256.8962	0.1671
257.1108	0.1531
257.3254	0.1686
257.54	0.1564
257.7545	0.1674
257.9691	0.17
258.1836	0.1663
258.3981	0.1708
258.6127	0.1714
258.8272	0.1544
259.0417	0.1665
259.2561	0.1633
259.4706	0.1699
259.6851	0.158
259.8995	0.1665
260.114	0.1651
260.3284	0.1674
260.5428	0.165
260.7572	0.1626
260.9716	0.1654
261.186	0.1724
261.4003	0.1579
261.6147	0.172
261.829	0.163
262.0433	0.1675
262.2577	0.1569
262.472	0.1668
262.6863	0.1626
262.9005	0.1671
263.1148	0.1652
263.3291	0.1345
263.5433	0.1617
263.7576	0.161
263.9718	0.1618
264.186	0.1459
264.4002	0.1555
264.6144	0.1516
264.8286	0.1684
265.0427	0.1667
265.2569	0.1584
265.471	0.1573
265.6851	0.1589
265.8993	0.1559
266.1134	0.1558
266.3275	0.1526
266.5415	0.1486
266.7556	0.1591
266.9697	0.1459
267.1837	0.1597
267.3978	0.1555
267.6118	0.1538
267.8258	0.1762
268.0398	0.1449
268.2538	0.1599
268.4677	0.1573
268.6817	0.1517
268.8957	0.1539
269.1096	0.1626
269.3235	0.1684
269.5374	0.1547
269.7514	0.1384
269.9652	0.1423
270.1791	0.1609
270.393	0.147
270.6068	0.1546
270.8207	0.1513
271.0345	0.1449
271.2483	0.153
271.4622	0.1399
271.676	0.1466
271.8897	0.138
272.1035	0.1384
272.3173	0.1382
272.531	0.1308
272.7448	0.1476
272.9585	0.128
273.1722	0.1356
273.3859	0.1493
273.5996	0.1421
273.8133	0.1425
274.0269	0.1264
274.2406	0.1257
274.4542	0.1404
274.6679	0.1271
274.8815	0.1378
275.0951	0.1386
275.3087	0.1419
275.5223	0.1451
275.7358	0.1438
275.9494	0.1443
276.1629	0.1328
276.3765	0.1366
276.59	0.138
276.8035	0.141
277.017	0.1401
277.2305	0.133
277.444	0.1493
277.6574	0.1356
277.8709	0.1471
278.0843	0.1402
278.2978	0.1399
278.5112	0.133
278.7246	0.1397
278.938	0.1466
279.1513	0.14
279.3647	0.1487
279.5781	0.146
279.7914	0.1406
280.0047	0.152
280.2181	0.1363
280.4314	0.1412
280.6447	0.1398
280.8579	0.1496
281.0712	0.1565
281.2845	0.1483
281.4977	0.1405
281.711	0.1378
281.9242	0.1347
282.1374	0.1567
282.3506	0.1474
282.5638	0.1485
282.7769	0.1509
282.9901	0.1507
283.2033	0.1604
283.4164	0.1593
283.6295	0.1456
283.8426	0.1442
284.0557	0.148
284.2688	0.1616
284.4819	0.1616
284.695	0.146
284.908	0.1575
285.1211	0.1468
285.3341	0.1521
285.5471	0.1554
285.7601	0.148
285.9731	0.1464
286.1861	0.1456
286.3991	0.1707
286.612	0.1642
286.825	0.1671
287.0379	0.1708
287.2508	0.1538
287.4637	0.1651
287.6766	0.1604
287.8895	0.1743
288.1024	0.1805
288.3152	0.1699
288.5281	0.1584
288.7409	0.1593
288.9538	0.1658
289.1666	0.1642
289.3794	0.16
289.5922	0.1639
289.8049	0.1625
290.0177	0.1588
290.2304	0.1574
290.4432	0.1619
290.6559	0.1658
290.8686	0.1726
291.0813	0.1553
291.294	0.172
291.5067	0.1753
291.7194	0.1616
291.932	0.1738
292.1447	0.161
292.3573	0.1449
292.5699	0.1709
292.7825	0.1674
292.9951	0.1655
293.2077	0.1686
293.4203	0.1793
293.6328	0.1518
293.8454	0.1795
294.0579	0.1587
294.2704	0.1617
294.4829	0.1569
294.6954	0.1713
294.9079	0.1728
295.1204	0.1631
295.3328	0.1693
295.5453	0.1708
295.7577	0.1754
295.9701	0.1555
296.1825	0.1707
296.3949	0.1623
296.6073	0.1689
296.8197	0.1485
297.0321	0.1713
297.2444	0.1434
297.4567	0.1702
297.6691	0.1642
297.8814	0.1566
298.0937	0.1746
298.306	0.1673
298.5182	0.1504
298.7305	0.1595
298.9428	0.1653
299.155	0.1705
299.3672	0.1553
299.5794	0.1456
299.7916	0.1664
300.0038	0.1708
300.216	0.1736
300.4282	0.1689
300.6403	0.1507
300.8525	0.1657
301.0646	0.162
301.2767	0.1634
301.4888	0.1706
301.7009	0.1519
301.913	0.1701
302.125	0.1648
302.3371	0.1621
302.5491	0.1516
302.7612	0.1719
302.9732	0.171
303.1852	0.1666
303.3972	0.1554
303.6092	0.1606
303.8211	0.1563
304.0331	0.1482
304.245	0.1484
304.457	0.1505
304.6689	0.158
304.8808	0.1614
305.0927	0.1533
305.3046	0.1581
305.5164	0.1623
305.7283	0.1436
305.9401	0.155
306.152	0.1424
306.3638	0.1525
306.5756	0.1347
306.7874	0.1498
306.9992	0.1518
307.2109	0.1339
307.4227	0.1336
307.6344	0.1433
307.8462	0.1391
308.0579	0.1346
308.2696	0.111
308.4813	0.126
308.693	0.1254
308.9046	0.1359
309.1163	0.1209
309.328	0.1244
309.5396	0.1216
309.7512	0.1157
309.9628	0.1073
310.1744	0.1168
310.386	0.1164
310.5976	0.1196
310.8091	0.1204
311.0207	0.1156
311.2322	0.1258
311.4437	0.1059
311.6552	0.1131
311.8667	0.1205
312.0782	0.0952
312.2897	0.0949
312.5012	0.112
312.7126	0.104
312.924	0.101
313.1355	0.1095
313.3469	0.1079
313.5583	0.0935
313.7696	0.1066
313.981	0.1086
314.1924	0.0947
314.4037	0.0972
314.6151	0.1011
314.8264	0.0915
315.0377	0.0981
315.249	0.1016
315.4603	0.1128
315.6716	0.1001
315.8828	0.0896
316.0941	0.1023
316.3053	0.0948
316.5165	0.0917
316.7277	0.0893
316.9389	0.1046
317.1501	0.0881
317.3613	0.103
317.5724	0.0927
317.7836	0.0919
317.9947	0.0918
318.2058	0.0884
318.417	0.0826
318.6281	0.0952
318.8391	0.0918
319.0502	0.0824
319.2613	0.093
319.4723	0.1058
319.6834	0.1011
319.8944	0.0832
320.1054	0.1051
320.3164	0.0936
320.5274	0.0821
320.7383	0.0841
320.9493	0.0932
321.1602	0.0986
321.3712	0.0792
321.5821	0.0819
321.793	0.1095
322.0039	0.0892
322.2148	0.0949
322.4257	0.1053
322.6365	0.1039
322.8474	0.0943
323.0582	0.0878
323.269	0.0987
323.4798	0.1073
323.6906	0.0955
323.9014	0.1002
324.1122	0.0988
324.3229	0.0827
324.5337	0.0987
324.7444	0.0952
324.9551	0.1116
325.1658	0.1043
325.3765	0.099
325.5872	0.0947
325.7979	0.0989
326.0085	0.0951
326.2192	0.0997
326.4298	0.0954
326.6404	0.0995
326.851	0.085
327.0616	0.0863
327.2722	0.099
327.4828	0.0945
327.6933	0.0981
327.9039	0.1128
328.1144	0.1004
328.3249	0.0955
328.5354	0.0954
328.7459	0.0982
328.9564	0.0919
329.1669	0.0989
329.3773	0.0903
329.5878	0.1005
329.7982	0.1
330.0086	0.1055
330.219	0.1064
330.4294	0.1018
330.6398	0.1032
330.8502	0.091
331.0605	0.0945
331.2708	0.0966
331.4812	0.0977
331.6915	0.1054
331.9018	0.0966
332.1121	0.0957
332.3224	0.0981
332.5326	0.1041
332.7429	0.108
332.9531	0.1064
333.1633	0.1017
333.3735	0.1008
333.5837	0.0939
333.7939	0.1025
334.0041	0.1126
334.2143	0.1156
334.4244	0.0979
334.6346	0.0911
334.8447	0.1069
335.0548	0.1101
335.2649	0.0908
335.475	0.103
335.685	0.0932
335.8951	0.107
336.1051	0.1101
336.3152	0.1177
336.5252	0.1017
336.7352	0.0995
336.9452	0.1124
337.1552	0.1021
337.3652	0.0974
337.5751	0.1128
337.7851	0.1041
337.995	0.0977
338.2049	0.1101
338.4148	0.1093
338.6247	0.1134
338.8346	0.1139
339.0445	0.103
339.2543	0.1026
339.4642	0.1085
339.674	0.1109
339.8838	0.1063
340.0936	0.118
340.3034	0.1183
340.5132	0.1188
340.7229	0.1158
340.9327	0.1015
341.1424	0.1074
341.3522	0.1216
341.5619	0.1104
341.7716	0.1256
341.9813	0.1219
342.1909	0.113
342.4006	0.1302
342.6102	0.1309
342.8199	0.1188
343.0295	0.1292
343.2391	0.1229
343.4487	0.116
343.6583	0.1064
343.8679	0.1224
344.0774	0.1202
344.287	0.1199
344.4965	0.1285
344.706	0.1248
344.9155	0.1298
345.125	0.1258
345.3345	0.1327
345.544	0.1313
345.7534	0.1204
345.9629	0.1235
346.1723	0.1278
346.3817	0.1127
346.5911	0.124
346.8005	0.1204
347.0099	0.118
347.2193	0.1351
347.4286	0.1247
347.638	0.1393
347.8473	0.1208
348.0566	0.1323
348.2659	0.1392
348.4752	0.1345
348.6845	0.1366
348.8937	0.1322
349.103	0.1397
349.3122	0.1324
349.5214	0.1432
349.7306	0.1302
349.9398	0.1298
350.149	0.146
350.3582	0.1295
350.5674	0.1406
350.7765	0.1349
350.9856	0.1312
351.1948	0.1386
351.4039	0.1182
351.613	0.1419
351.822	0.1357
352.0311	0.1442
352.2402	0.1528
352.4492	0.1447
352.6582	0.1482
352.8672	0.1372
353.0762	0.1434
353.2852	0.1435
353.4942	0.1272
353.7032	0.151
353.9121	0.1526
354.1211	0.1438
354.33	0.1602
354.5389	0.1554
354.7478	0.1464
354.9567	0.153
355.1655	0.1345
355.3744	0.1542
355.5833	0.1532
355.7921	0.1621
356.0009	0.1697
356.2097	0.1665
356.4185	0.1637
356.6273	0.1568
356.8361	0.1605
357.0448	0.1638
357.2536	0.1496
357.4623	0.1484
357.671	0.1673
357.8797	0.1719
358.0884	0.1637
358.2971	0.1628
358.5057	0.1621
358.7144	0.1473
358.923	0.1662
359.1316	0.1543
359.3402	0.1695
359.5488	0.1734
359.7574	0.1637
359.966	0.1659
360.1746	0.1624
360.3831	0.1745
360.5916	0.1766
360.8002	0.1639
361.0087	0.1732
361.2172	0.1712
361.4256	0.1832
361.6341	0.1989
361.8426	0.1718
362.051	0.1849
362.2594	0.1817
362.4678	0.1823
362.6762	0.1962
362.8846	0.1793
363.093	0.1734
363.3014	0.193
363.5097	0.1718
363.718	0.1867
363.9264	0.1895
364.1347	0.1738
364.343	0.184
364.5513	0.1969
364.7595	0.2058
364.9678	0.1874
365.176	0.1961
365.3842	0.1981
365.5925	0.1891
365.8007	0.2065
366.0089	0.2006
366.217	0.1891
366.4252	0.2206
366.6333	0.2124
366.8415	0.2101
367.0496	0.1895
367.2577	0.2132
367.4658	0.2039
367.6739	0.2118
367.882	0.2173
368.09	0.2015
368.2981	0.2196
368.5061	0.2021
368.7141	0.2174
368.9221	0.225
369.1301	0.2038
369.3381	0.2004
369.5461	0.2044
369.754	0.2156
369.962	0.2227
370.1699	0.2129
370.3778	0.2191
370.5857	0.2088
370.7936	0.2189
371.0015	0.215
371.2093	0.2187
371.4172	0.2324
371.625	0.2201
371.8328	0.214
372.0406	0.2267
372.2484	0.2168
372.4562	0.2211
372.664	0.2218
372.8717	0.2256
373.0795	0.2143
373.2872	0.2316
373.4949	0.2325
373.7026	0.2352
373.9103	0.2358
374.118	0.2392
374.3256	0.2307
374.5333	0.2303
374.7409	0.2206
374.9485	0.2562
375.1561	0.227
375.3637	0.2426
375.5713	0.2505
375.7789	0.2563
375.9864	0.24
376.194	0.2264
376.4015	0.2442
376.609	0.2463
376.8165	0.2515
377.024	0.2278
377.2315	0.2352
377.4389	0.2665
377.6464	0.2371
377.8538	0.2554
378.0612	0.2505
378.2686	0.2589
378.476	0.249
378.6834	0.2593
378.8908	0.2608
379.0981	0.2548
379.3055	0.234
379.5128	0.2395
379.7201	0.26
379.9274	0.238
380.1347	0.2573
380.342	0.268
380.5492	0.2483
380.7565	0.2611
380.9637	0.2534
381.1709	0.252
381.3781	0.2587
381.5853	0.2888
381.7925	0.2504
381.9997	0.2651
382.2068	0.2662
382.4139	0.2517
382.6211	0.2531
382.8282	0.274
383.0353	0.2663
383.2424	0.2565
383.4494	0.2889
383.6565	0.2366
383.8635	0.265
384.0706	0.2606
384.2776	0.2548
384.4846	0.2529
384.6916	0.2809
384.8986	0.2716
385.1055	0.2802
385.3125	0.2543
385.5194	0.2434
385.7263	0.2812
385.9333	0.2698
386.1402	0.2449
386.347	0.2673
386.5539	0.255
386.7608	0.2637
386.9676	0.2379
387.1744	0.2398
387.3813	0.2773
387.5881	0.273
387.7948	0.2786
388.0016	0.2481
388.2084	0.2664
388.4151	0.2457
388.6219	0.2544
388.8286	0.2408
389.0353	0.271
389.242	0.262
389.4487	0.2619
389.6553	0.2571
389.862	0.2388
390.0686	0.2367
390.2753	0.2642
390.4819	0.2716
390.6885	0.2433
390.8951	0.2531
391.1016	0.2505
391.3082	0.2527
391.5147	0.2438
391.7213	0.2487
391.9278	0.2293
392.1343	0.2346
392.3408	0.259
392.5473	0.2333
392.7537	0.2448
392.9602	0.245
393.1666	0.2392
393.373	0.2363
393.5794	0.2525
393.7858	0.2362
393.9922	0.2459
394.1986	0.2459
394.4049	0.2381
394.6113	0.228
394.8176	0.2211
395.0239	0.2393
395.2302	0.2242
395.4365	0.2269
395.6428	0.224
395.8491	0.2261
396.0553	0.2173
396.2615	0.2173
396.4678	0.2247
396.674	0.2099
396.8802	0.2232
397.0863	0.2503
397.2925	0.2105
397.4987	0.2153
397.7048	0.2275
397.9109	0.2377
398.117	0.2229
398.3231	0.2166
398.5292	0.2399
398.7353	0.2326
398.9413	0.2198
399.1474	0.2129
399.3534	0.2307
399.5594	0.211
399.7654	0.2217
399.9714	0.2375
400.1774	0.2173
400.3833	0.2
400.5893	0.2313
400.7952	0.2273
401.0011	0.2157
401.207	0.2055
401.4129	0.2228
401.6188	0.2325
401.8247	0.2237
402.0305	0.2015
402.2364	0.2292
402.4422	0.2283
402.648	0.2275
402.8538	0.2321
403.0596	0.222
403.2654	0.2266
403.4711	0.2184
403.6768	0.2242
403.8826	0.2275
404.0883	0.2232
404.294	0.2134
404.4997	0.2339
404.7054	0.2355
404.911	0.2177
405.1167	0.2136
405.3223	0.2438
405.5279	0.2214
405.7335	0.2425
405.9391	0.2275
406.1447	0.1962
406.3502	0.2297
406.5558	0.1954
406.7613	0.2371
406.9668	0.2306
407.1724	0.2225
407.3778	0.227
407.5833	0.227
407.7888	0.2139
407.9942	0.2438
408.1997	0.2188
408.4051	0.2008
408.6105	0.2313
408.8159	0.2173
409.0213	0.2192
409.2267	0.2329
409.432	0.2218
409.6374	0.2421
409.8427	0.2074
410.048	0.2355
410.2533	0.2118
410.4586	0.2154
410.6639	0.185
410.8691	0.222
411.0744	0.2194
411.2796	0.2106
411.4848	0.2206
411.69	0.2061
411.8952	0.2259
412.1004	0.1992
412.3056	0.241
412.5107	0.2096
412.7158	0.2255
412.921	0.2047
413.1261	0.2284
413.3312	0.2074
413.5362	0.2285
413.7413	0.2107
413.9464	0.2081
414.1514	0.221
414.3564	0.212
414.5614	0.2077
414.7664	0.2354
414.9714	0.2147
415.1764	0.2005
415.3813	0.2064
415.5863	0.208
415.7912	0.2098
415.9961	0.2086
416.201	0.2225
416.4059	0.2254
416.6108	0.1952
416.8156	0.2142
417.0205	0.1969
417.2253	0.2258
417.4301	0.2144
417.6349	0.2059
417.8397	0.209
418.0445	0.1932
418.2492	0.1924
418.454	0.2151
418.6587	0.1977
418.8634	0.2006
419.0681	0.2025
419.2728	0.2028
419.4775	0.2014
419.6822	0.1967
419.8868	0.1827
420.0915	0.2115
420.2961	0.1897
420.5007	0.1998
420.7053	0.1926
420.9099	0.1953
421.1144	0.1943
421.319	0.1852
421.5235	0.2098
421.728	0.2001
421.9325	0.2089
422.137	0.1961
422.3415	0.2038
422.546	0.1917
422.7504	0.1844
422.9549	0.1915
423.1593	0.1889
423.3637	0.1964
423.5681	0.1784
423.7725	0.1861
423.9769	0.1924
424.1812	0.1819
424.3856	0.1869
424.5899	0.1824
424.7942	0.1734
424.9985	0.1852
425.2028	0.1818
425.4071	0.2091
425.6113	0.169
425.8156	0.1755
426.0198	0.1789
426.224	0.1561
426.4282	0.1643
426.6324	0.1783
426.8366	0.18
427.0407	0.1736
427.2449	0.1734
427.449	0.1691
427.6531	0.1507
427.8572	0.1675
428.0613	0.1602
428.2654	0.1645
428.4694	0.1677
428.6735	0.1699
428.8775	0.1726
429.0815	0.1655
429.2855	0.1603
429.4895	0.1593
429.6935	0.166
429.8975	0.1579
430.1014	0.1607
430.3053	0.1439
430.5093	0.1466
430.7132	0.1423
430.9171	0.1362
431.1209	0.1466
431.3248	0.144
431.5286	0.1654
431.7325	0.1561
431.9363	0.1313
432.1401	0.1405
432.3439	0.1363
432.5477	0.1207
432.7514	0.1194
432.9552	0.1155
433.1589	0.1123
433.3627	0.1346
433.5664	0.1198
433.7701	0.1103
433.9737	0.125
434.1774	0.1248
434.3811	0.1206
434.5847	0.137
434.7883	0.1164
434.9919	0.0983
435.1955	0.1264
435.3991	0.1117
435.6027	0.1064
435.8062	0.1023
436.0098	0.0982
436.2133	0.1098
436.4168	0.1079
436.6203	0.1005
436.8238	0.1034
437.0272	0.0939
437.2307	0.1123
437.4341	0.1161
437.6375	0.1015
437.841	0.0996
438.0443	0.0955
438.2477	0.1006
438.4511	0.0806
438.6545	0.0933
438.8578	0.1051
439.0611	0.0975
439.2644	0.0861
439.4677	0.0793
439.671	0.0862
439.8743	0.0763
440.0775	0.0904
440.2808	0.073
440.484	0.0745
440.6872	0.068
440.8904	0.0756
441.0936	0.086
441.2967	0.0645
441.4999	0.0803
441.703	0.0641
441.9062	0.0582
442.1093	0.0736
442.3124	0.062
442.5155	0.0568
442.7185	0.0568
442.9216	0.041
443.1246	0.0724
443.3276	0.0726
443.5307	0.0708
443.7337	0.0795
443.9366	0.0679
444.1396	0.054
444.3426	0.0512
444.5455	0.0607
444.7484	0.0482
444.9513	0.0435
445.1542	0.0668
445.3571	0.0469
445.56	0.0612
445.7628	0.0347
445.9657	0.0478
446.1685	0.0537
446.3713	0.0508
446.5741	0.0475
446.7769	0.0285
446.9797	0.0577
447.1824	0.0392
447.3852	0.036
447.5879	0.0475
447.7906	0.0518
447.9933	0.038
448.196	0.038
448.3986	0.0334
448.6013	0.0199
448.8039	0.0206
449.0066	0.0304
449.2092	0.0373
449.4118	0.0369
449.6143	0.0364
449.8169	0.0432
450.0195	0.0341
450.222	0.0192
450.4245	0.0287
450.627	0.0312
450.8295	0.0317
451.032	0.0284
451.2345	0.0235
451.4369	0.0294
451.6394	0.0295
451.8418	0.0057
452.0442	0.0259
452.2466	0.0224
452.449	0.0156
452.6513	0.0172
452.8537	0.0265
453.056	0.0204
453.2583	0.0289
453.4607	0.0178
453.663	0.0089
453.8652	0.0299
454.0675	0.0115
454.2697	0.0173
454.472	0.0012
454.6742	0.017
454.8764	0.0058
455.0786	0.0315
455.2808	0.017
455.4829	0.0247
455.6851	0.0167
455.8872	0.0229
456.0893	0.0313
456.2915	-0.0012
456.4935	0.0258
456.6956	0.0088
456.8977	0.0159
457.0997	0.012
457.3018	0.0111
457.5038	0.016
457.7058	0.0082
457.9078	0.0135
458.1098	0.006
458.3117	0.0148
458.5137	0.0049
458.7156	0.0189
458.9175	-0.0019
459.1194	0.0122
459.3213	0.0085
459.5232	0.0201
459.725	-0.0041
459.9269	0.0158
460.1287	0.0099
460.3305	0.0119
460.5323	0.0033
460.7341	0.011
460.9359	0.0085
461.1376	0.0023
461.3394	0.0017
461.5411	0.0119
461.7428	0.0038
461.9445	0.013
462.1462	0.0174
462.3479	0.006
462.5495	0.0161
462.7512	-0.0002
462.9528	0.0036
463.1544	0.002
463.356	0.0049
463.5576	0.0142
463.7592	-0.0074
463.9607	0.0026
464.1623	0.0182
464.3638	0.0206
464.5653	-0.0035
464.7668	0.0071
464.9683	0.0068
465.1697	0.0072
465.3712	-0.005
465.5726	-0.0142
465.7741	0.0082
465.9755	-0.0204
466.1769	-0.0066
466.3782	-0.0021
466.5796	-0.0048
466.7809	0.0082
466.9823	-0.0028
467.1836	-0.0058
467.3849	-0.0056
467.5862	0.0187
467.7875	-0.0035
467.9887	0.0089
468.19	-0.0009
468.3912	-0.012
468.5924	-0.0028
468.7936	-0.0024
468.9948	0.0022
469.196	0.0098
469.3972	-0.0082
469.5983	0.006
469.7994	-0.017
470.0006	0.0001
470.2017	-0.0001
470.4027	-0.0085
470.6038	-0.0044
470.8049	-0.0188
471.0059	0.0119
471.2069	-0.0182
471.408	0.0034
471.6089	0.0176
471.8099	-0.005
472.0109	0.0069
472.2119	-0.0044
472.4128	-0.0199
472.6137	-0.0013
472.8146	-0.0144
473.0155	0.0105
473.2164	-0.0033
473.4173	0.0169
473.6181	0.0112
473.819	-0.0007
474.0198	0.0046
474.2206	-0.0049
474.4214	-0.0185
474.6222	-0.0027
474.8229	-0.0135
475.0237	-0.0206
475.2244	-0.001
475.4251	0.0009
475.6258	-0.0015
475.8265	-0.0009
476.0272	0.0037
476.2278	-0.0062
476.4285	0.0037
476.6291	-0.001
476.8297	-0.0012
477.0303	-0.0026
477.2309	0.0082
477.4315	-0.0174
477.632	-0.0021
477.8326	0.0005
478.0331	-0.0026
478.2336	0.0014
478.4341	-0.0043
478.6346	-0.0224
478.8351	-0.0006
479.0355	0.0019
479.236	-0.0034
479.4364	-0.0052
479.6368	-0.0077
479.8372	-0.0107
480.0376	-0.0003
480.2379	-0.0156
480.4383	-0.0045
480.6386	-0.0058
480.8389	0.0097
481.0392	-0.018
481.2395	-0.0118
481.4398	0.008
481.6401	-0.0003
481.8403	0.0015
482.0405	-0.0018
482.2408	-0.0048
482.441	0.0077
482.6411	-0.0103
482.8413	0.0019
483.0415	0.0089
483.2416	-0.0044
483.4417	-0.0043
483.6419	-0.0054
483.8419	-0.0037
484.042	-0.0001
484.2421	0.0031
484.4422	0.003
484.6422	-0.0115
484.8422	-0.011
485.0422	-0.0091
485.2422	0.0034
485.4422	-0.0112
485.6422	-0.0057
485.8421	-0.0007
486.042	-0.0066
486.242	-0.0101
486.4419	-0.0119
486.6417	-0.005
486.8416	-0.0111
487.0415	-0.0085
487.2413	-0.0095
487.4411	-0.0063
487.641	-0.0127
487.8408	0.0021
488.0405	-0.0108
488.2403	-0.0031
488.4401	-0.0019
488.6398	0.005
488.8395	-0.0076
489.0392	-0.0025
489.2389	-0.0079
489.4386	0.002
489.6383	0.0088
489.8379	-0.0037
490.0376	-0.0035
490.2372	-0.0107
490.4368	-0.0053
490.6364	0.0007
490.836	0.0048
491.0355	-0.0015
491.2351	-0.0027
491.4346	0.0117
491.6341	0.0015
491.8336	-0.0053
492.0331	-0.0192
492.2326	-0.0088
492.432	0.0022
492.6315	-0.0122
492.8309	-0.0092
493.0303	-0.0063
493.2297	-0.0053
493.4291	-0.0098
493.6284	0.0021
493.8278	0.001
494.0271	0.0059
494.2264	0.0069
494.4257	-0.0134
494.625	-0.0023
494.8243	-0.0172
495.0236	-0.0088
495.2228	-0.0071
495.422	0.0007
495.6213	0.0016
495.8205	-0.0051
496.0196	-0.0001
496.2188	0.013
496.418	-0.0049
496.6171	-0.0075
496.8162	-0.0121
497.0153	-0.001
497.2144	-0.0051
497.4135	0.0072
497.6126	-0.0028
497.8116	0.0012
498.0107	0.0062
498.2097	-0.0098
498.4087	-0.0061
498.6077	-0.0079
498.8067	-0.0003
499.0056	0.0053
499.2046	-0.0001
499.4035	-0.0176
499.6024	-0.0031
499.8013	0.0061
500.0002	-0.008
500.199	0.0057
500.3979	0.0015
500.5967	-0.013
500.7956	-0
500.9944	-0.0003
501.1932	-0.0049
501.3919	-0.0163
501.5907	-0.007
501.7895	-0.003
501.9882	-0.0074
502.1869	0.0058
502.3856	-0.0094
502.5843	-0.0079
502.783	-0.0072
502.9816	0.0031
503.1803	-0.0091
503.3789	-0.0076
503.5775	0.0105
503.7761	-0.008
503.9747	-0.0052
504.1732	-0.0021
504.3718	-0.0034
504.5703	-0.0096
504.7689	-0.0039
504.9674	0.0002
505.1658	-0.0162
505.3643	-0.0142
505.5628	-0.0048
505.7612	-0.0148
505.9597	0.0072
506.1581	-0.0097
506.3565	0.0079
506.5549	-0.0057
506.7532	-0.0109
506.9516	-0.0112
507.1499	0.0014
507.3482	-0.0072
507.5465	-0.0141
507.7448	-0.0061
507.9431	-0.0067
508.1414	-0.0066
508.3396	0.0015
508.5379	-0.0053
508.7361	-0.0038
508.9343	-0.0007
509.1325	0.0064
509.3306	-0.0027
509.5288	0.0009
509.7269	0.0021
509.9251	-0.0034
510.1232	-0.0124
510.3213	0.0026
510.5193	0.0016
510.7174	-0.0113
510.9154	-0.0111
511.1135	0.0017
511.3115	-0.0146
511.5095	-0.008
511.7075	-0.004
511.9055	0.0008
512.1034	-0.0129
512.3014	-0.0004
512.4993	0.0008
512.6972	-0.01
512.8951	-0.0061
513.093	0.0075
513.2908	-0.0046
513.4887	0.0006
513.6865	-0.0028
513.8844	-0.0031
514.0822	-0.0167
514.2799	-0.0037
514.4777	0.0005
514.6755	-0.0055
514.8732	-0.0108
515.0709	0.0005
515.2687	0.0044
515.4664	0.0098
515.664	-0.0014
515.8617	-0.004
516.0594	-0.0136
516.257	0.0002
516.4546	-0.0184
516.6522	-0.0024
516.8498	0.0008
517.0474	0.0013
517.2449	-0.0019
517.4425	-0.0093
517.64	0.0015
517.8375	-0.0018
518.035	0.0066
518.2325	-0.0085
518.43	-0.0078
518.6274	0.0021
518.8249	-0.0074
519.0223	-0.0074
519.2197	0.0026
519.4171	0.0023
519.6145	-0.0038
519.8118	0.0031
520.0092	-0.0054
520.2065	-0.011
520.4038	-0.0181
520.6011	0.0048
520.7984	-0.0152
520.9956	-0.0104
521.1929	-0.0069
521.3901	-0.0071
521.5874	-0.0014
521.7846	0.0079
521.9818	-0.0087
522.1789	-0.0043
522.3761	-0.0019
522.5732	0.0021
522.7704	-0.0034
522.9675	-0.0055
523.1646	-0.0049
523.3617	0.0049
523.5587	0.001
523.7558	0.0038
523.9528	-0.0097
524.1498	0.0015
524.3468	-0.0076
524.5438	-0.0012
524.7408	0.0012
524.9378	0.0096
525.1347	-0.002
525.3316	0.0021
525.5285	-0.008
525.7254	0.0068
525.9223	0.0088
526.1192	0.0013
526.316	-0.0042
526.5129	0.0006
526.7097	0.0057
526.9065	-0.0023
527.1033	-0.0092
527.3	-0.0022
527.4968	-0.0126
527.6935	-0.0013
527.8903	-0.013
528.087	-0.0003
528.2837	-0.0034
528.4804	-0.0008
528.677	0.0035
528.8737	-0.0002
529.0703	0.0033
529.2669	-0.005
529.4635	-0.005
529.6601	-0.0048
529.8567	-0.0038
530.0532	-0.0117
530.2498	0.0117
530.4463	0.004
530.6428	-0.0086
530.8393	0.006
531.0358	-0.0098
531.2322	-0.0111
531.4287	-0.0079
531.6251	-0.0094
531.8215	0.0093
532.0179	-0.0002
532.2143	0.0082
532.4107	-0.006
532.607	-0.0078
532.8034	-0.0088
532.9997	0.0057
533.196	0.0028
533.3923	-0.0084
533.5886	0.0067
533.7848	0.0011
533.9811	-0.004
534.1773	0.0031
534.3735	0.0065
534.5697	0.0012
534.7659	0.0014
534.9621	0.0027
535.1582	-0.0104
535.3544	-0.0085
535.5505	0.0033
535.7466	0.0036
535.9427	-0.008
536.1387	-0.0099
536.3348	-0.0014
536.5308	0.0109
536.7269	-0.0125
536.9229	0.0009
537.1189	-0.0025
537.3148	-0.0014
537.5108	-0.0058
537.7068	0.0022
537.9027	0.0037
538.0986	-0.0055
538.2945	-0.0112
538.4904	-0.0089
538.6863	-0.01
538.8821	-0.0042
539.078	-0.0111
539.2738	0.0122
539.4696	-0.0075
539.6654	0.0044
539.8611	0.0052
540.0569	0.0009
540.2526	-0.0068
540.4484	0.0005
540.6441	0.0161
540.8398	0.001
541.0355	-0.0017
541.2311	0.0012
541.4268	-0.0061
541.6224	0.0132
541.818	0.0066
542.0136	-0.016
542.2092	-0.0019
542.4048	0.0037
542.6003	0.0003
542.7959	-0.005
542.9914	-0.0015
543.1869	0.0007
543.3824	-0.0028
543.5779	-0.0003
543.7734	-0.005
543.9688	-0.0028
544.1642	0.0085
544.3596	-0.0036
544.555	-0.0079
544.7504	-0.0033
544.9458	-0.0037
545.1411	0.0022
545.3365	0.0031
545.5318	-0.0078
545.7271	0.0069
545.9224	-0.0075
546.1177	0.0064
546.3129	0.0069
546.5081	-0.0056
546.7034	-0.0015
546.8986	-0.0006
547.0938	-0.0112
547.289	-0.0011
547.4841	-0.0046
547.6793	0.0041
547.8744	-0.004
548.0695	-0.0027
548.2646	-0.0039
548.4597	-0.0019
548.6548	0.0023
548.8498	-0.0006
549.0448	0.0149
549.2399	0.0035
549.4349	0.0116
549.6298	-0.0006
549.8248	0.0096
550.0198	-0.0117
550.2147	-0.0006
550.4096	0.0029
550.6045	0.0084
550.7994	0.0067
550.9943	0.0048
551.1892	-0.0082
551.384	0.0077
551.5788	-0.0034
551.7737	0.003
551.9685	0.0004
552.1632	0.0011
552.358	0.001
552.5528	0.0004
552.7475	-0.0004
552.9422	-0.0043
553.1369	0.0008
553.3316	0.0056
553.5263	-0.0056
553.7209	0.0063
553.9156	-0.0054
554.1102	-0.0029
554.3048	-0.0018
554.4994	0.0052
554.694	-0.0061
554.8885	-0.0073
555.0831	-0.0065
555.2776	-0.005
555.4721	-0.0038
555.6666	-0.0034
555.8611	0.002
556.0555	-0.0042
556.25	-0.001
556.4444	-0.0128
556.6388	0.0081
556.8332	0.0036
557.0276	-0.001
557.222	0.0009
557.4163	0.0033
557.6107	-0.0018
557.805	-0.0056
557.9993	-0.0091
558.1936	0.0029
558.3879	0.0038
558.5821	0.0082
558.7764	-0.008
558.9706	0.0019
559.1648	-0.0001
559.359	-0.0058
559.5532	0.0013
559.7473	-0.0032
559.9415	0.006
560.1356	-0.0036
560.3297	-0.003
560.5238	0.0026
560.7179	-0.0043
560.9119	0.0048
561.106	-0.006
561.3	-0.0051
561.494	-0.0038
561.688	-0.0002
561.882	-0.0073
562.076	-0.0068
562.2699	0.0072
562.4639	-0.0011
562.6578	0.0049
562.8517	-0.0054
563.0456	0.0022
563.2395	0.0087
563.4333	0.005
563.6272	0.003
563.821	-0.0037
564.0148	-0.0002
564.2086	-0.0047
564.4024	-0.0003
564.5961	0.0007
564.7899	0.0132
564.9836	0.0099
565.1773	0.0065
565.371	0.0038
565.5647	0.0041
565.7584	0.0053
565.952	0.0016
566.1456	0.0031
566.3393	0.005
566.5329	-0.0069
566.7264	0.0039
566.92	-0.0006
567.1136	0.0045
567.3071	0.0011
567.5006	-0.0013
567.6941	0.008
567.8876	0.0042
568.0811	-0.0023
568.2745	0.0024
568.468	0.0011
568.6614	0.0038
568.8548	0.0002
569.0482	0.0011
569.2416	0.0061
569.4349	-0.0043
569.6283	0.0062
569.8216	-0.0012
570.0149	-0.0014
570.2082	0.0049
570.4015	0.0076
570.5947	0.0144
570.788	0.0062
570.9812	0.0027
571.1744	-0.0028
571.3676	-0.0073
571.5608	-0.0041
571.754	0.0025
571.9471	-0.0006
572.1402	0.0037
572.3333	-0.0047
572.5264	0.0058
572.7195	-0.0015
572.9126	0.0023
573.1057	0
573.2987	-0.0046
573.4917	0.0022
573.6847	-0.0074
573.8777	0.0014
574.0707	0.0052
574.2636	-0.004
574.4566	-0.0062
574.6495	0.0043
574.8424	0.0002
575.0353	0.0038
575.2281	0.0024
575.421	0.0038
575.6138	0.0083
575.8067	-0.0043
575.9995	0.0046
576.1923	0.0043
576.385	0.0066
576.5778	-0.0008
576.7706	-0.0012
576.9633	0.001
577.156	0.0014
577.3487	0.0037
577.5414	0.003
577.734	0.0013
577.9267	0.0069
578.1193	-0.0028
578.3119	-0.0065
578.5045	-0.0041
578.6971	-0.0001
578.8897	0.0054
579.0822	-0.0019
579.2747	0.0007
579.4673	-0.0088
579.6598	-0.0003
579.8522	0.0041
580.0447	-0.001
580.2372	-0.0043
580.4296	0.0016
580.622	0.0038
580.8144	-0.0012
581.0068	0.0014
581.1992	-0.0056
581.3915	0.0015
581.5839	-0.0036
581.7762	-0.0067
581.9685	-0.0032
582.1608	0.0014
582.353	-0.0009
582.5453	0.0006
582.7375	-0.0051
582.9298	0.0009
583.122	0.0069
583.3142	-0.0027
583.5063	0.0086
583.6985	-0.0013
583.8906	-0.0027
584.0827	0.0015
584.2749	0.0034
584.4669	0.0036
584.659	0.0048
584.8511	-0.0045
585.0431	-0.0059
585.2352	0.0027
585.4272	-0.0001
585.6192	0.0072
585.8111	0.0014
586.0031	0.0024
586.195	-0.001
586.387	0.0078
586.5789	-0.0004
586.7708	0.0045
586.9627	0.0015
587.1545	-0.0014
587.3464	0.0006
587.5382	-0.0027
587.73	0.0039
587.9218	0.006
588.1136	-0.0042
588.3053	0.0041
588.4971	-0.0041
588.6888	-0.0062
588.8805	0.0041
589.0722	0.01
589.2639	0.002
589.4556	0.0017
589.6472	-0.003
589.8389	-0.0005
590.0305	-0.0087
590.2221	0.0072
590.4137	-0.0056
590.6052	0.0057
590.7968	0.0022
590.9883	-0.0017
591.1798	-0.0039
591.3713	-0.0013
591.5628	-0.0043
591.7543	0.0059
591.9458	0.0037
592.1372	-0.0011
592.3286	0.0077
592.52	0.0064
592.7114	-0.0058
592.9028	-0.0037
593.0941	-0.0002
593.2855	0.0064
593.4768	-0.0107
593.6681	-0.0059
593.8594	-0.0057
594.0506	0.0018
594.2419	0.0089
594.4331	0.0063
594.6244	0.008
594.8156	-0.0067
595.0067	-0.0025
595.1979	0.003
595.3891	0.0014
595.5802	0.0026
595.7713	-0.0019
595.9624	0.0002
596.1535	0.0083
596.3446	0.0039
596.5357	0.0011
596.7267	0.0023
596.9177	0.0042
597.1087	0.0034
597.2997	-0.0042
597.4907	-0.0012
597.6817	-0.0063
597.8726	0.0003
598.0635	-0.0101
598.2544	0.0037
598.4453	-0.0033
598.6362	-0.0042
598.827	-0.0034
599.0179	0.0035
599.2087	-0.0028
599.3995	-0.0006
599.5903	-0.0004
599.7811	0.0095
599.9718	0.0047
600.1626	-0.007
600.3533	-0.0025
600.544	0.0003
600.7347	-0.0003
600.9254	-0.0005
601.116	-0.0076
601.3067	-0
601.4973	-0.0017
601.6879	0.0027
601.8785	-0.004
602.0691	0.0029
602.2596	0.0063
602.4502	0.0071
602.6407	0.0008
602.8312	0.0052
603.0217	-0.0034
603.2122	0.0028
603.4027	-0.0004
603.5931	0.0011
603.7835	-0.0002
603.9739	-0.0088
604.1643	0.0011
604.3547	-0.0027
604.5451	-0.0059
604.7354	-0.0086
604.9257	-0.0005
605.116	-0.0001
605.3063	0.0006
605.4966	0
605.6869	0.0018
605.8771	0.0021
606.0673	0.004
606.2575	0.0034
606.4477	0.0069
606.6379	0.0021
606.8281	0.0022
607.0182	0.0003
607.2083	0.012
607.3985	-0.0055
607.5885	-0.0002
607.7786	0.0033
607.9687	-0.0014
608.1587	-0
608.3488	-0.0012
608.5388	0.0007
608.7288	0.0023
608.9187	-0.0022
609.1087	-0.0034
609.2986	-0.0043
609.4886	-0.0019
609.6785	0.0006
609.8684	0.0009
610.0582	0.0031
610.2481	0.0035
610.4379	-0.0016
610.6278	-0.0025
610.8176	0.0013
611.0074	0.002
611.1971	-0.0013
611.3869	-0.0022
611.5766	-0.0107
611.7664	0.0071
611.9561	0.0084
612.1458	0.0041
612.3354	-0.0046
612.5251	0.0051
612.7147	0.0016
612.9044	0.0091
613.094	-0.004
613.2836	0.0027
613.4731	0.0037
613.6627	0.0036
613.8522	0.0072
614.0417	0.0027
614.2313	-0.0003
614.4207	0.0014
614.6102	0.0027
614.7997	0.0043
614.9891	0.0009
615.1785	0.0003
615.3679	0.0037
615.5573	0.0073
615.7467	0.0046
615.9361	0.0019
616.1254	0.0007
616.3147	0.0097
616.504	0.012
616.6933	0.0044
616.8826	0.0047
617.0718	0.011
617.2611	0.0073
617.4503	0.0066
617.6395	0.0069
617.8287	0.0103
618.0179	0.0042
618.207	0.0162
618.3961	0.0061
618.5853	-0.0008
618.7744	0.0031
618.9634	0.0054
619.1525	0.0071
619.3416	0.0017
619.5306	0.0053
619.7196	-0.0025
619.9086	-0.001
620.0976	0.0034
620.2866	0.0005
620.4755	0.0096
620.6645	0.0018
620.8534	0.0066
621.0423	0.0028
621.2312	0.0068
621.42	0.0036
621.6089	0.0029
621.7977	0.01
621.9865	-0.002
622.1753	0.0092
622.3641	0.0048
622.5529	0.0086
622.7416	0.0165
622.9303	0.0045
623.1191	0.0037
623.3078	0.0016
623.4964	-0.0005
623.6851	0.003
623.8737	0.0004
624.0624	0.0103
624.251	0.002
624.4396	0.0006
624.6282	-0.0073
624.8167	0.0022
625.0053	0.0031
625.1938	0.0085
625.3823	0.0039
625.5708	0.0058
625.7593	0.0005
625.9477	0.0002
626.1362	0.0003
626.3246	0.0013
626.513	0.0064
626.7014	0.0133
626.8898	0.0055
627.0781	0.0045
627.2665	0.0007
627.4548	0.017
627.6431	0.0084
627.8314	0.003
628.0197	0.0123
628.2079	-0.007
628.3962	-0
628.5844	0.0047
628.7726	0.0041
628.9608	0.0028
629.1489	-0.0008
629.3371	0.0006
629.5252	-0.0021
629.7134	0.0054
629.9015	0.002
630.0895	0.0033
630.2776	0.0057
630.4657	0.0006
630.6537	0.0077
630.8417	0.0051
631.0297	0.0037
631.2177	0.0048
631.4057	-0.0019
631.5936	0.004
631.7815	0.0073
631.9695	0.0036
632.1574	0.0084
632.3452	0.0155
632.5331	0.0084
632.7209	0.0051
632.9088	0.0127
633.0966	0.014
633.2844	-0.002
633.4722	0.0082
633.6599	0.0109
633.8477	0.0088
634.0354	0.0066
634.2231	0.0026
634.4108	0.0022
634.5985	0.0182
634.7861	0.0034
634.9738	0.0035
635.1614	0.0054
635.349	0.0075
635.5366	0.0032
635.7242	0.0082
635.9117	0.0144
636.0993	0.0074
636.2868	0.0076
636.4743	0.0049
636.6618	0.0131
636.8492	0.0059
637.0367	0.0018
637.2241	0.0052
637.4115	0.0042
637.5989	-0.002
637.7863	0.0032
637.9737	0.0039
638.161	0.0057
638.3484	0.0014
638.5357	0.0087
638.723	0.0061
638.9103	0.0065
639.0975	0.0088
639.2848	0.008
639.472	0.0066
639.6592	0.0073
639.8464	0.0056
640.0336	0.0113
640.2208	0.0006
640.4079	0.0014
640.595	0.006
640.7821	0.0037
640.9692	-0.0007
641.1563	0.0041
641.3434	0.0123
641.5304	0.0076
641.7174	-0.0006
641.9044	0.0031
642.0914	0.0057
642.2784	0.0095
642.4653	0.0119
642.6523	0.0015
642.8392	0.0026
643.0261	0.0094
643.213	0.0064
643.3999	-0.0016
643.5867	-0.0007
643.7735	0.0031
643.9604	0.0023
644.1472	0.0019
644.3339	0.0087
644.5207	0.0053
644.7075	0.0038
644.8942	0.0103
645.0809	0.0151
645.2676	0.0046
645.4543	0.0059
645.6409	0.0099
645.8276	0.0003
646.0142	0.0071
646.2008	0.0063
646.3874	-0.003
646.574	0.0048
646.7605	-0.0041
646.9471	-0.0088
647.1336	-0.0031
647.3201	-0.0024
647.5066	-0.0047
647.6931	0.011
647.8795	0.0068
648.0659	0.0067
648.2524	0.0083
648.4388	-0.0031
648.6252	0.002
648.8115	-0.001
648.9979	0.0039
649.1842	0.0023
649.3705	0.0005
649.5568	-0
649.7431	0.0025
649.9294	0.0009
650.1156	0.0029
650.3018	-0.0017
650.488	0.0088
650.6742	0.0074
650.8604	0.0049
651.0466	-0.0018
651.2327	0.002
651.4188	0.0044
651.6049	0.0024
651.791	0.0025
651.9771	0.015
652.1632	0.0031
652.3492	0.0148
652.5352	0.0073
652.7212	0.0092
652.9072	0.0059
653.0932	0.0109
653.2791	-0.003
653.465	0.0085
653.651	0.0009
653.8369	0.0015
654.0227	0.0069
654.2086	0.0115
654.3944	0.0073
654.5803	0.0046
654.7661	0.0037
654.9519	0.0045
655.1377	-0.0041
655.3234	0.0017
655.5092	-0.0039
655.6949	-0.0063
655.8806	-0.0046
656.0663	-0.004
656.2519	-0.0046
656.4376	-0.0001
656.6232	0.004
656.8088	0.0013
656.9945	-0.0018
657.18	0.0065
657.3656	0.0092
657.5511	0.0049
657.7367	-0.0059
657.9222	0.008
658.1077	0.0039
658.2932	0.0036
658.4786	-0.0014
658.6641	-0.0031
658.8495	-0.0022
659.0349	-0.0001
659.2203	0.0061
659.4057	0.0034
659.591	0.0084
659.7764	0.0025
659.9617	0.0073
660.147	0.0075
660.3323	0.0052
660.5176	0.0094
660.7028	0.0061
660.888	0.0113
661.0733	0.0059
661.2585	0.0034
661.4436	0.0009
661.6288	0.0026
661.8139	-0.0011
661.9991	0.0058
662.1842	-0.0039
662.3693	0.0077
662.5544	-0.0022
662.7394	-0.0018
662.9245	0.0079
663.1095	-0.0008
663.2945	0.0008
663.4795	0.0008
663.6644	0.0057
663.8494	0.0071
664.0343	0.0035
664.2193	-0.0062
664.4042	-0.0008
664.589	-0.0046
664.7739	-0.0014
664.9587	-0.0112
665.1436	0.0027
665.3284	0.007
665.5132	-0.0047
665.698	0.0001
665.8827	0.0109
666.0675	0.003
666.2522	-0.0042
666.4369	0.0041
666.6216	0.0079
666.8063	0.0041
666.9909	0.0026
667.1756	-0.0008
667.3602	0.0054
667.5448	-0.002
667.7294	0.0036
667.9139	0.0183
668.0985	0.0185
668.283	0.0043
668.4675	0.0015
668.652	0.0034
668.8365	0.0084
669.0209	0.0176
669.2054	0.0184
669.3898	0.0025
669.5742	0.0108
669.7586	0.0134
669.943	0.0195
670.1273	0.0143
670.3117	0.0098
670.496	0.0048
670.6803	0.0148
670.8646	0.003
671.0488	0.0016
671.2331	0.0081
671.4173	0.0067
671.6015	0.0033
671.7857	0.0034
671.9699	0.012
672.1541	0.0041
672.3382	0.0037
672.5223	0.0087
672.7064	0.0014
672.8905	0.0034
673.0746	-0.0023
673.2587	0.0038
673.4427	0.0069
673.6267	0.0073
673.8107	0.0045
673.9947	0.0002
674.1787	0.0069
674.3626	-0.0007
674.5465	0.0073
674.7304	0.0067
674.9143	0.0148
675.0982	0.0123
675.2821	-0.0001
675.4659	0.0056
675.6497	0.0079
675.8335	0.0025
676.0173	0.0011
676.2011	-0.0017
676.3849	0.0061
676.5686	-0.0053
676.7523	-0.0058
676.936	-0.0005
677.1197	0.0025
677.3034	-0.0032
677.487	0.0052
677.6706	0.007
677.8542	0.0004
678.0378	-0.002
678.2214	0.004
678.405	0.008
678.5885	-0.009
678.772	0.0054
678.9555	0.0018
679.139	0.0066
679.3225	0.0051
679.5059	0.0018
679.6894	0.0034
679.8728	0.0086
680.0562	-0.0057
680.2395	-0.0027
680.4229	-0.0027
680.6062	0.0041
680.7896	0.0009
680.9729	-0.0049
681.1562	0.0072
681.3394	0.0017
681.5227	-0.0066
681.7059	-0.0047
681.8891	-0.0017
682.0723	0.0076
682.2555	0.0047
682.4387	0.0015
682.6218	-0.0012
682.805	0.0103
682.9881	0.0041
683.1712	0.0039
683.3542	0.0063
683.5373	0.0091
683.7203	0.0004
683.9034	-0.0007
684.0864	-0.0038
684.2694	0.0029
684.4523	0.0098
684.6353	0.0009
684.8182	0.0007
685.0011	-0.0053
685.184	0.0088
685.3669	0.0021
685.5498	0.0055
685.7326	0.006
685.9154	0.0044
686.0982	0.0091
686.281	0.0078
686.4638	0.0032
686.6465	-0.0041
686.8293	0.0059
687.012	0.0061
687.1947	-0.0003
687.3774	0.0035
687.56	0.0029
687.7427	0.008
687.9253	-0.0023
688.1079	-0.0009
688.2905	0.0093
688.4731	0.0058
688.6556	-0.0013
688.8382	0.003
689.0207	0.0108
689.2032	-0.0001
689.3857	-0.0082
689.5681	0.0015
689.7506	0.0004
689.933	-0.0071
690.1154	0.0008
690.2978	-0.0098
690.4802	0.003
690.6626	-0.0107
690.8449	-0.0062
691.0272	0.0026
691.2095	-0.0045
691.3918	-0.0002
691.5741	0.0009
691.7563	0.007
691.9386	0.0056
692.1208	-0.0028
692.303	-0.001
692.4852	-0.0018
692.6673	0.007
692.8495	0.0047
693.0316	0.0009
693.2137	0.0081
693.3958	0.012
693.5778	0.0058
693.7599	0.005
693.9419	0.0036
694.1239	0.0067
694.3059	0.0009
694.4879	0.0084
694.6699	0.0062
694.8518	0.0082
695.0337	0.0059
695.2157	0.0145
695.3975	0.0035
695.5794	0.0054
695.7613	0.0087
695.9431	-0.0013
696.1249	0.0014
696.3067	0.0098
696.4885	0.0111
696.6703	-0.0072
696.852	0.0082
697.0337	0.0035
697.2154	0.0025
697.3971	0.0063
697.5788	0.0009
697.7605	0.0023
697.9421	0.0092
698.1237	0.0092
698.3053	0.0041
698.4869	0.0059
698.6685	0.0001
698.85	0.0049
699.0315	0.0077
699.213	0.0033
699.3945	0.004
699.576	0.0101
699.7575	0.0097
699.9389	0.011
700.1203	0.0067
700.3017	0.0028
700.4831	-0.0038
700.6645	-0.0037
700.8458	0.0079
701.0271	-0.0007
701.2084	0.0111
701.3897	0.001
701.571	0.0027
701.7523	0.0027
701.9335	0.0042
702.1147	0.0071
702.2959	0.0059
702.4771	-0.001
702.6583	0.0032
702.8394	-0.001
703.0205	0.0037
703.2016	-0.0057
703.3827	-0.0043
703.5638	0.015
703.7449	0.0033
703.9259	0.011
704.1069	-0.0036
704.2879	0.0032
704.4689	0.0067
704.6499	0.0027
704.8308	0.0023
705.0117	0.005
705.1927	0.0026
705.3735	-0.0004
705.5544	-0.0001
705.7353	0.0033
705.9161	-0.0058
706.0969	0.0035
706.2777	-0.0014
706.4585	0.0014
706.6393	0.0075
706.82	-0.0116
707.0007	0.0003
707.1815	0.0015
707.3621	0.0066
707.5428	0.0026
707.7235	0.0043
707.9041	-0.0014
708.0847	-0.0007
708.2653	0.0001
708.4459	-0.0094
708.6265	-0.0051
708.807	-0.0065
708.9875	-0.0087
709.168	-0.0125
709.3485	-0.0066
709.529	-0.0102
709.7095	-0.009
709.8899	-0.0062
710.0703	-0.0045
710.2507	-0.0064
710.4311	-0.0028
710.6115	-0.0138
710.7918	-0.0045
710.9721	0.0009
711.1524	-0.0045
711.3327	0.0008
711.513	-0.0045
711.6932	0.0029
711.8735	0.0156
712.0537	0.0016
712.2339	-0.0007
712.4141	-0.0032
712.5942	-0.0075
712.7744	0.0048
712.9545	-0.0105
713.1346	-0.0006
713.3147	-0.0018
713.4947	-0.0021
713.6748	-0.0011
713.8548	0.0029
714.0348	-0.0015
714.2148	-0.0027
714.3948	0.0054
714.5748	-0.0004
714.7547	-0.0022
714.9346	0.0097
715.1145	0.0038
715.2944	0.0038
715.4743	-0.0001
715.6541	-0.002
715.834	0.0046
716.0138	0.005
716.1936	-0.0106
716.3733	0.0056
716.5531	0.0046
716.7328	0.0005
716.9126	-0.0005
717.0923	0.0007
717.2719	0.001
717.4516	0.0092
717.6312	-0.0061
717.8109	-0.0085
717.9905	-0.0023
718.1701	-0.013
718.3496	-0.0062
718.5292	0.0033
718.7087	-0.001
718.8882	0.0002
719.0677	0.0055
719.2472	0.0065
719.4267	0.0028
719.6061	-0.0002
719.7856	0.0138
719.965	-0.0007
720.1443	-0.0117
720.3237	0.0169
720.5031	-0.0007
720.6824	0.0038
720.8617	0.0042
721.041	0.0047
721.2203	0.0091
721.3995	0.0056
721.5788	0.0034
721.758	0.0087
721.9372	-0.0018
722.1164	0.0078
722.2956	0.0059
722.4747	0.0061
722.6538	0.0075
722.8329	0.0122
723.012	0.0092
723.1911	0.0081
723.3702	0.0028
723.5492	0.003
723.7282	0.0012
723.9072	0.004
724.0862	-0.0061
724.2652	-0.0026
724.4441	0.0038
724.623	-0.0002
724.8019	0.0015
724.9808	0.0021
725.1597	-0.0047
725.3385	0.0054
725.5174	0.005
725.6962	0.0043
725.875	-0.0043
726.0538	0.003
726.2325	-0.0047
726.4112	0.0016
726.59	-0.0056
726.7687	-0.0046
726.9474	0.0051
727.126	-0.0036
727.3047	-0.0051
727.4833	0.0024
727.6619	-0.0021
727.8405	-0.0047
728.0191	0.0011
728.1976	0.0014
728.3762	-0.0016
728.5547	0.0025
728.7332	-0.0096
728.9116	0.0052
729.0901	0.0023
729.2686	-0.0019
729.447	0.0011
729.6254	0.0036
729.8038	0.0008
729.9821	-0.0052
730.1605	0.0058
730.3388	0.0057
730.5171	0.007
730.6954	0.0007
730.8737	0.0013
731.0519	0.0101
731.2302	0.0035
731.4084	0.0065
731.5866	0.0045
731.7648	-0.0037
731.9429	0.0007
732.1211	-0.0038
732.2992	0.0035
732.4773	-0.006
732.6554	-0.0006
732.8335	-0.0013
733.0115	-0.003
733.1896	0.0015
733.3676	-0.0086
733.5456	0.0058
733.7235	0.0041
733.9015	0.0007
734.0794	0.0028
734.2574	-0.0012
734.4353	0.0099
734.6131	0.0099
734.791	0.0029
734.9689	0.0031
735.1467	0.0111
735.3245	0.0024
735.5023	-0.0014
735.68	-0.0009
735.8578	0.0101
736.0355	-0.0133
736.2132	0.0003
736.3909	-0.0032
736.5686	-0.0085
736.7463	0.005
736.9239	0.0036
737.1015	-0.0048
737.2791	0.0032
737.4567	0.0058
737.6343	-0.0007
737.8118	0.0048
737.9894	0.0084
738.1669	0.0059
738.3444	-0.0042
738.5218	0.0107
738.6993	0.0009
738.8767	0.0012
739.0541	0.012
739.2315	0.001
739.4089	-0
739.5863	0.0039
739.7636	-0.0036
739.9409	-0.0029
740.1182	0.0047
740.2955	0.0052
740.4728	-0.0085
740.65	-0.0047
740.8272	0.0014
741.0044	-0.0071
741.1816	0.0045
741.3588	0.0013
741.5359	0.0106
741.7131	-0.0035
741.8902	-0.0004
742.0673	0.0037
742.2444	-0.005
742.4214	-0.002
742.5985	-0.0058
742.7755	0.0024
742.9525	-0.0029
743.1295	-0.0012
743.3064	0
743.4834	0.0053
743.6603	-0.0004
743.8372	-0.0022
744.0141	0.0043
744.191	0.0079
744.3678	0.0088
744.5446	0.0073
744.7215	0.0142
744.8982	-0.003
745.075	-0.0079
745.2518	0.0147
745.4285	0.0026
745.6052	0.0062
745.7819	0.0009
745.9586	0.0008
746.1353	-0.0001
746.3119	-0.0074
746.4885	-0.0041
746.6651	-0.0048
746.8417	0.0014
747.0183	0.0017
747.1948	0.0055
747.3714	0.0005
747.5479	0.0073
747.7244	0.0003
747.9008	0.0156
748.0773	0.0029
748.2537	-0.0022
748.4301	-0.0048
748.6065	0.0093
748.7829	0.0087
748.9593	-0.0057
749.1356	0.0036
749.3119	0.0117
749.4882	-0.0057
749.6645	0.0047
749.8408	0.0005
750.017	0.0041
750.1933	-0.0001
750.3695	0.0047
750.5457	0.0058
750.7218	0.0006
750.898	-0.004
751.0741	-0.0028
751.2502	-0.0003
751.4263	-0.0011
751.6024	0.0078
751.7784	-0.0006
751.9545	0.0009
752.1305	0.0029
752.3065	-0.0012
752.4825	0.0006
752.6584	-0.0079
752.8344	-0.0011
753.0103	-0.0033
753.1862	-0.0067
753.3621	0.0017
753.5379	0.0023
753.7138	-0.0009
753.8896	0.0026
754.0654	0.0039
754.2412	0.0071
754.417	-0.002
754.5927	-0.0057
754.7685	-0.0073
754.9442	0.0098
755.1199	0.0155
755.2956	0.0074
755.4712	0.0126
755.6469	0.0049
755.8225	-0.0009
755.9981	-0.0028
756.1736	0.0062
756.3492	0.0034
756.5248	-0.0013
756.7003	0.004
756.8758	0.0047
757.0513	0.0071
757.2267	0.006
757.4022	0.014
757.5776	-0.0023
757.753	0.0073
757.9284	0.0102
758.1038	0.0155
758.2791	0.0135
758.4545	-0.0069
758.6298	0.0043
758.8051	0.0071
758.9803	0.0023
759.1556	0.0028
759.3308	-0.006
759.506	0.0156
759.6812	0.0104
759.8564	0.0059
760.0316	0.0058
760.2067	0.0093
760.3819	0
760.557	0.0139
760.732	0.0027
760.9071	-0.0045
761.0821	0.0076
761.2572	0.0105
761.4322	0.0021
761.6072	0.0093
761.7821	0.0016
761.9571	0.0093
762.132	-0.0016
762.3069	-0.0063
762.4818	-0.0003
762.6567	0.0001
762.8316	-0.0051
763.0064	-0.0009
763.1812	-0.0036
763.356	-0.0042
763.5308	-0.009
763.7055	-0.0032
763.8803	-0.0096
764.055	-0.0028
764.2297	0.0061
764.4044	-0.0084
764.579	-0.0093
764.7537	-0.0129
764.9283	0.0012
765.1029	-0.0167
765.2775	-0.0002
765.4521	0.0005
765.6266	0.0026
765.8011	-0.0065
765.9756	0.0055
766.1501	0.0123
766.3246	0.0007
766.4991	-0.0001
766.6735	0.0082
766.8479	-0.006
767.0223	0.0102
767.1967	-0
767.371	0.0016
767.5454	-0.0036
767.7197	0.0039
767.894	-0.004
768.0683	-0.0071
768.2425	0.0036
768.4168	0.0067
768.591	-0.0019
768.7652	0.0007
768.9394	0.0064
769.1135	0.0062
769.2877	0.0099
769.4618	-0.0003
769.6359	-0.002
769.81	0.0107
769.984	0.0015
770.1581	0.0018
770.3321	0.0036
770.5061	0.0064
770.6801	-0.0029
770.8541	0.003
771.028	0.0089
771.202	-0.0185
771.3759	0.0053
771.5498	-0.0095
771.7236	0.0085
771.8975	-0.0023
772.0713	0.0107
772.2451	0.0003
772.4189	0.0041
772.5927	0.012
772.7665	-0.0005
772.9402	0.0145
773.1139	0.0034
773.2876	-0.0073
773.4613	0.0129
773.635	0.0136
773.8086	-0.0122
773.9822	0.0128
774.1558	0.016
774.3294	-0.0092
774.503	-0.0113
774.6765	0.0031
774.8501	0.0083
775.0236	0.0087
775.1971	0.0169
775.3705	-0.0068
775.544	0.0135
775.7174	-0.0048
775.8908	0.0057
776.0642	0.0042
776.2376	-0.0096
776.4109	-0.0134
776.5843	-0.0063
776.7576	0.0089
776.9309	0.0083
777.1041	0.0111
777.2774	0.0123
777.4506	0.0017
777.6238	-0.0154
777.797	-0.0028
777.9702	-0.0145
778.1434	-0.0127
778.3165	-0.0076
778.4896	-0.0099
778.6627	0.0034
778.8358	-0.005
779.0089	-0.007
779.1819	-0.003
779.3549	0.0091
779.5279	0.0109
779.7009	-0.0035
779.8739	0.0057
780.0468	0.0083
780.2197	0.0101
780.3926	0.0014
780.5655	0.0007
780.7384	0.0021
780.9112	0.0094
781.0841	-0.0064
781.2569	0.0081
781.4297	-0.0028
781.6024	0.016
781.7752	0.0099
781.9479	0.0123
782.1206	0.0029
782.2933	-0.0053
782.466	0.0012
782.6386	0.0104
782.8113	0.0053
782.9839	0.0049
783.1565	0.0221
783.329	-0.012
783.5016	0.002
783.6741	0.0081
783.8466	0.0064
784.0191	0.0065
784.1916	0.0013
784.3641	-0.0084
784.5365	0.0026
784.7089	-0.0078
784.8813	-0.0079
785.0537	-0.0027
785.2261	0.0006
785.3984	-0.0138
785.5707	-0.0034
785.743	0.0038
785.9153	-0.007
786.0876	0.0058
786.2598	-0.0015
786.432	-0.0096
786.6042	0.0031
786.7764	-0.0152
786.9486	0.0033
787.1207	-0.0088
787.2928	-0.0048
787.4649	-0.0051
787.637	-0.0003
787.8091	-0.0072
787.9811	-0.0049
788.1532	-0.0003
788.3252	0.0009
788.4972	-0.0025
788.6691	0.0006
788.8411	-0.0132
789.013	-0.0112
789.1849	0.0017
789.3568	0.0059
789.5287	-0.0041
789.7005	0.0007
789.8723	0.0037
790.0442	0.0206
790.2159	0.0062
790.3877	0.0161
790.5595	-0.0144
790.7312	-0.0062
790.9029	-0.0205
791.0746	-0.0072
791.2463	-0.0091
791.4179	-0.0055
791.5896	-0.0151
791.7612	-0.0091
791.9328	0.0029
792.1044	-0.0161
792.2759	-0.0155
792.4474	-0.0029
792.619	0.0049
792.7905	-0.0019
792.9619	0.0006
793.1334	0.0062
793.3048	0.0137
793.4762	0.0067
793.6476	0.0135
793.819	-0.0113
793.9904	-0.0023
794.1617	-0.0225
794.333	0.0012
794.5043	-0.0153
794.6756	-0.0018
794.8469	-0.0022
795.0181	-0.0112
795.1893	0.0016
795.3605	0.0009
795.5317	-0.0099
795.7029	-0.0082
795.874	0.004
796.0452	-0.0049
796.2163	-0.0067
796.3873	0.0022
796.5584	0.0043
796.7294	-0.0104
796.9005	0.0144
797.0715	0.019
797.2425	-0.0125
797.4134	-0.005
797.5844	0.0125
797.7553	-0.0224
797.9262	-0.0034
798.0971	-0.0003
798.2679	-0.0025
798.4388	-0.0211
798.6096	-0.0061
798.7804	0.0001
798.9512	-0.0165
799.122	-0.0124
799.2927	-0.0101
799.4635	0.0154
799.6342	-0.0166
799.8049	-0.0005
799.9755	-0.0054
800.1462	-0.0012
800.3168	0.0144
800.4874	0.0077
800.658	0.0284
800.8286	0.0213
800.9991	0.0111
801.1696	0.0191
801.3402	0.0114
801.5106	0.0161
801.6811	0.0031
801.8516	0.0079
802.022	-0.0005
802.1924	0.0145
802.3628	-0.0009
802.5332	0.0038
802.7035	0.0267
802.8739	-0.0099
803.0442	-0.0105
803.2145	0.0219
803.3847	-0.0172
803.555	0.0025
803.7252	0.0041
803.8954	-0.0089
804.0656	-0.0173
804.2358	0.0091
804.4059	0.0073
804.5761	0.0021
804.7462	0.0021
804.9163	-0.0094
805.0864	-0.0149
805.2564	-0.0116
805.4264	0.0149
805.5965	-0.0034
805.7665	-0.0071
805.9364	-0.0078
806.1064	0.0174
806.2763	0.0103
806.4462	0.0284
806.6161	0.0056
806.786	-0.0042
806.9559	0.0033
807.1257	-0.0143
807.2955	0.0044
807.4653	0.0036
807.6351	-0.0111
807.8048	0.0191
807.9746	0.0032
808.1443	-0.0033
808.314	0.0121
808.4837	-0.0101
808.6533	0.0271
808.8229	0.011
808.9926	0.0026
809.1622	0.0113
809.3317	-0.0008
809.5013	0.0059
809.6708	0.0258
809.8403	0.0263
810.0098	-0.0071
810.1793	0.013
810.3488	-0.0053
810.5182	-0.0329
810.6876	0.0052
810.857	-0.002
811.0264	0.0074
811.1958	0.0066
811.3651	-0.0027
811.5344	-0.0067
811.7037	-0.0133
811.873	-0.0248
812.0422	-0.004
812.2115	0.0092
812.3807	-0.0213
812.5499	-0.0052
812.7191	0.0182
812.8882	-0.0209
813.0574	-0.0067
813.2265	-0.0017
813.3956	0.0012
813.5646	-0.0018
813.7337	0.0025
813.9027	0.0235
814.0718	0.0221
814.2407	0.0149
814.4097	-0.0114
814.5787	-0.0175
814.7476	-0.0077
814.9165	0.0146
815.0854	-0.0054
815.2543	0.0028
815.4232	0.0047
815.592	0.0136
815.7608	0.0067
815.9296	0.007
816.0984	0.0079
816.2671	-0.0138
816.4359	0.0023
816.6046	0.0043
816.7733	0.0035
816.942	0.0139
817.1106	0.0087
817.2793	0.0207
817.4479	-0.021
817.6165	0.0051
817.785	0.0124
817.9536	0.0022
818.1221	-0.0144
818.2906	-0.0102
818.4591	0.0061
818.6276	-0.0028
818.7961	0.0018
818.9645	0.0086
819.1329	0.0124
819.3013	0.0358
819.4697	0.0063
819.638	0.0191
819.8064	0.0154
819.9747	0.0065
820.143	0.0141
820.3113	0.0028
820.4795	0.009
820.6477	-0.0012
820.816	-0.0146
820.9842	0.0197
821.1523	0.0038
821.3205	-0.0233
821.4886	0.0142
821.6567	0.0056
821.8248	0.0207
821.9929	0.0033
822.1609	0.0124
822.329	0.0114
822.497	0.0477
822.665	-0.0033
822.833	-0.0242
823.0009	0.0124
823.1688	0.0132
823.3367	0.023
823.5046	0.0107
823.6725	0.0382
823.8404	-0.0076
824.0082	0.0149
824.176	0.0183
824.3438	0.0223
824.5116	-0.0039
824.6793	0.0291
824.847	-0.0039
825.0147	-0.033
825.1824	0.0191
825.3501	-0.0041
825.5177	-0.0094
825.6854	-0.0162
825.853	-0.0431
826.0206	-0.0385
826.1881	0.0264
826.3557	-0.0259
826.5232	-0.0023
826.6907	-0.0139
826.8582	0.0366
827.0257	-0.0407
827.1931	-0.0038
827.3605	0.0025
827.528	-0.0098
827.6953	-0.0033
827.8627	-0.0135
828.03	0.0321
828.1974	0.0112
828.3647	-0.0154
828.532	-0.0036
828.6992	-0.0032
828.8665	0.0104
829.0337	-0.0122
829.2009	0.0099
829.3681	-0.0068
829.5352	0.0385
829.7024	-0.0119
829.8695	0.0014
830.0366	0.058
830.2037	0.0008
830.3707	0.0252
830.5378	-0.0134
830.7048	0.0086
830.8718	-0.0099
831.0388	0.0015
831.2057	0.0106
831.3727	0.0135
831.5396	0.0043
831.7065	-0.002
831.8734	0.0231
832.0402	-0.0097
832.2071	-0.0075
832.3739	-0.0219
832.5407	0.01
832.7075	-0.0304
832.8742	0.0053
833.041	0.0064
833.2077	0.001
833.3744	0.0373
833.541	-0.0044
833.7077	-0.0356
833.8743	-0.0251
834.0409	-0.0003
834.2075	-0.0072
834.3741	-0.0009
834.5407	-0.0009
834.7072	-0.0047
834.8737	-0.0279
835.0402	-0.0333
835.2067	0.0526
835.3731	0.0384
835.5395	0.0042
835.706	0.027
835.8723	-0.0067
836.0387	0.0276
836.2051	-0.022
836.3714	-0.0242
836.5377	-0.0224
836.704	-0.0129
836.8703	0.0146
837.0365	-0.0025
837.2027	-0.0674
837.3689	0.0516
837.5351	-0.0143
837.7013	-0.0186
837.8674	-0.0793
838.0335	-0.0012
838.1997	0.037
838.3657	0.0149
838.5318	-0.0319
838.6978	0.0349
838.8639	0.0352
839.0299	0.0393
839.1958	0.0084
839.3618	0.0065
839.5277	-0.0317
839.6937	-0.0133
839.8596	-0.004
840.0254	0.008
840.1913	-0.0003
840.3571	0.0371
840.523	0.0158
840.6888	-0.0337
840.8545	-0.0071
841.0203	-0.0004
841.186	0.0288
841.3517	0.0078
841.5174	0.0248
841.6831	0.014
841.8488	-0.0154
842.0144	-0.0278
842.18	-0.0065
842.3456	0.0267
842.5112	-0.0373
842.6767	-0.0101
842.8422	0.0006
843.0077	0.0131
843.1732	-0.0198
843.3387	-0.0225
843.5042	0.0272
843.6696	-0.0451
843.835	0.0274
844.0004	0.0094
844.1657	0.0296
844.3311	-0.0353
844.4964	-0.0627
844.6617	-0.0538
844.827	-0.0372
844.9923	-0.0084
845.1575	0.0227
845.3227	-0.037
845.4879	-0.0483
845.6531	-0.0651
845.8183	-0.042
845.9834	-0.0716
846.1485	0.0106
846.3136	0.002
846.4787	-0.0747
846.6438	0.0447
846.8088	-0.0536
846.9738	-0.0894
847.1388	-0.0131
847.3038	-0.0842
847.4687	-0.1371
847.6337	0.0073
847.7986	-0.0097
847.9635	-0.0006
848.1284	0.0934
848.2932	0.033
848.458	0.0096
848.6228	0.0416
848.7876	0.0709
848.9524	-0.069
849.1172	-0.1071
849.2819	0.0107
849.4466	-0.0619
849.6113	-0.1309
849.7759	-0.0724
849.9406	-0.0175
850.1052	0.0085
850.2698	-0.0283
850.4344	-0.0679
850.599	-0.0506
850.7635	0.0867
850.928	0.0033
851.0925	-0.0065
851.257	-0.0281
851.4215	0.01
851.5859	-0.0639
851.7503	0.0165
851.9147	0.001
852.0791	-0.0127
852.2434	0.0347
852.4078	0.085
852.5721	0.0806
852.7364	-0.0188
852.9007	-0.1617
853.0649	0.0091
853.2291	0.0142
853.3934	0.0227
853.5575	0.0302
853.7217	-0.033
853.8859	-0.0998
854.05	-0.0783
854.2141	0.063
854.3782	-0.0926
854.5423	-0.0311
854.7063	0.0875
854.8703	0.1151
855.0343	-0.1065
855.1983	-0.1321
855.3623	0.0647
855.5262	0.0301
855.6901	-0.1063
855.854	-0.044
856.0179	-0.045
856.1818	0.0351
856.3456	-0.1242
856.5094	-0.1477
856.6732	-0.137
856.837	0.1438
857.0008	0.019
857.1645	0.0048
857.3282	-0.2906
857.4919	-0.0076
857.6556	0.0836
857.8192	0.062
857.9828	0.0862
858.1465	-0.0495
858.31	-0.1158
858.4736	-0.2285
858.6372	-0.3783
858.8007	-0.2278
858.9642	-0.0109
859.1277	0.0601
859.2911	0.0315
859.4546	-0.0096
859.618	-0.2976
859.7814	-0.0808
859.9448	0.0999
860.1081	0.1182
860.2715	0.0622
860.4348	-0.2737
860.5981	-0.0203
860.7614	0.1325
860.9246	-0.1114
861.0879	0.0309
861.2511	0.0175
861.4143	-0.2752
861.5774	0.2671
861.7406	-0.0743
861.9037	-0.0745
862.0668	-0.1709
862.2299	0.0191
862.393	-0.4714
862.556	0.1041
862.7191	-0.4534
862.8821	-0.2781
863.0451	0.0687
863.208	0.1815
863.371	-0.0678
863.5339	-0.1786
863.6968	0.1488
863.8597	0.648
864.0225	-0.1115
864.1854	-0.1957
864.3482	0.8114
864.511	0.0742
864.6737	-0.0691
864.8365	-0.1924
864.9992	-0.2214
865.1619	-0.4046
865.3246	0.0889
865.4873	-0.0441
865.65	0.2571
865.8126	-0.0945
865.9752	0.0087
866.1378	-0.202
866.3004	-0.1252
866.4629	0.342
866.6254	0.2877
866.7879	0.1418
866.9504	-0
867.1129	-0
867.2753	0.2941
867.4377	0.0385
867.6001	-0.2868
867.7625	-0.0906
867.9249	-0.601
868.0872	0.0712
868.2495	0.0035
868.4118	0.0251
868.5741	-0.3709
868.7363	-0.2801
868.8986	-0.3995
869.0608	-0.2118
869.223	0.0506
869.3851	0.0851
869.5473	0.1511
869.7094	0.2579
869.8715	-0
870.0336	-0.1928
870.1957	1.2413
870.3577	-0
870.5197	-0.1358
870.6817	-0.3036
870.8437	-0.0347
871.0057	-0
871.1676	-0.3466
871.3295	-0.3271
871.4914	-0
871.6533	0.4569
871.8151	-0.3302
871.977	-0
872.1388	-0
872.3006	-0
872.4623	-0.2384
872.6241	0.2095
872.7858	0.2155
872.9475	-0
873.1092	0.7468
873.2709	0.4027
873.4325	0.8849
873.5941	-0
873.7557	0.0188
873.9173	-0
874.0789	-0.2656
874.2404	-0.2085
874.4019	0.2121
874.5634	-0.1617
874.7249	-0.0867
874.8863	-0.2239
875.0478	0.054
875.2092	-0
875.3706	0.2371
875.5319	-0
875.6933	-0
875.8546	-0.2029
876.0159	-0
876.1772	-0
876.3385	-0
876.4997	0.6884
876.6609	-0.4403
876.8221	-0
876.9833	0.0303
877.1445	-0
877.3056	-0.1206
877.4667	-0
877.6278	-0
877.7889	-0.6461
877.9499	-0
878.111	-0.4506
878.272	-0
878.433	-0
878.5939	-0
878.7549	-0.2779
878.9158	-0.2683
879.0767	0.6045
879.2376	-0
879.3984	-0.1598
879.5593	-0
879.7201	0.2242
879.8809	-0.3835
880.0417	-0
880.2024	0.212
880.3632	-0.5441
880.5239	-0
880.6846	-0
880.8452	-2.4646
881.0059	-0
881.1665	0.4266
881.3271	0.0616
881.4877	0.1887
881.6483	0.0949
881.8088	0.0565
881.9693	-0
882.1298	-0
882.2903	-0
