Data from MonoPyChalIsomerACN10uM440nmA_Absorbance_15-27-14-094.txt Node
Date: Fri Jul 05 15:27:14 BST 2024
User: LASERRRRR
Spectrometer: FLMT03099
Trigger mode: 0
Integration Time (sec): 1.000000E-1
Scans to average: 1
Electric dark correction enabled: true
Nonlinearity correction enabled: false
Boxcar width: 0
XAxis mode: Wavelengths
Number of Pixels in Spectrum: 3648
>>>>>Begin Spectral Data<<<<<
179.3399	0.2584
179.5586	0.2584
179.7771	0.2584
179.9957	0.8463
180.2143	-0
180.4329	-0.2781
180.6514	0.4984
180.8699	-0
181.0885	0.1903
181.307	0.2653
181.5255	-0
181.744	-0.5845
181.9625	-0
182.181	-0.2382
182.3994	0.2714
182.6179	-0
182.8363	-0.0965
183.0547	0.2961
183.2732	-0.0332
183.4916	0.3222
183.71	0.0342
183.9284	0.11
184.1467	-0.0905
184.3651	0.0317
184.5835	-0.0767
184.8018	0.2408
185.0201	-0.1281
185.2385	0.2164
185.4568	0.0164
185.6751	-0.14
185.8934	0.2576
186.1117	-0.0708
186.3299	0.024
186.5482	0.0019
186.7664	-0.1566
186.9847	-0.0659
187.2029	0.0046
187.4211	0.0518
187.6393	-0.0286
187.8575	0.1103
188.0757	0.013
188.2939	-0.0069
188.512	-0.0972
188.7302	-0.078
188.9483	-0.0458
189.1665	0.1717
189.3846	0.0458
189.6027	0.0412
189.8208	0.1436
190.0389	0.0314
190.257	0.2367
190.475	0.2534
190.6931	0.142
190.9111	0.3457
191.1292	0.1707
191.3472	0.5118
191.5652	0.2349
191.7832	0.191
192.0012	0.6748
192.2192	0.6041
192.4371	0.5014
192.6551	0.346
192.873	0.4141
193.091	0.3618
193.3089	0.5539
193.5268	0.4068
193.7447	0.6346
193.9626	0.5102
194.1805	0.3877
194.3984	0.6251
194.6162	0.3515
194.8341	0.4226
195.0519	0.4849
195.2697	0.9434
195.4875	0.8486
195.7054	0.7058
195.9231	0.5385
196.1409	0.5946
196.3587	0.6933
196.5765	0.4974
196.7942	0.5192
197.012	0.6404
197.2297	0.5087
197.4474	0.6179
197.6651	0.6114
197.8828	0.6627
198.1005	0.5542
198.3182	0.4847
198.5358	1.005
198.7535	0.5677
198.9711	0.5383
199.1888	0.6099
199.4064	0.8386
199.624	0.4987
199.8416	0.5269
200.0592	0.6207
200.2767	0.536
200.4943	0.6067
200.7119	0.7116
200.9294	0.6859
201.1469	0.5389
201.3645	0.4253
201.582	0.5214
201.7995	0.5484
202.017	0.6163
202.2344	0.6566
202.4519	0.7032
202.6694	0.7004
202.8868	0.6475
203.1042	0.6401
203.3217	0.6814
203.5391	0.6289
203.7565	0.6719
203.9739	0.6776
204.1913	0.5825
204.4086	0.6418
204.626	0.7172
204.8433	0.6082
205.0607	0.6166
205.278	0.646
205.4953	0.7284
205.7126	0.6441
205.9299	0.6171
206.1472	0.7599
206.3644	0.6245
206.5817	0.685
206.7989	0.8081
207.0162	0.5753
207.2334	0.6715
207.4506	0.5649
207.6678	0.6658
207.885	0.7061
208.1022	0.6724
208.3194	0.7577
208.5365	0.6166
208.7537	0.6388
208.9708	0.6233
209.1879	0.6488
209.405	0.6581
209.6222	0.6329
209.8392	0.5907
210.0563	0.6514
210.2734	0.6857
210.4905	0.6254
210.7075	0.5865
210.9245	0.6171
211.1416	0.7449
211.3586	0.5874
211.5756	0.6288
211.7926	0.5793
212.0096	0.6422
212.2265	0.5404
212.4435	0.5939
212.6604	0.5817
212.8774	0.5944
213.0943	0.5555
213.3112	0.5304
213.5281	0.5093
213.745	0.4828
213.9619	0.5191
214.1788	0.4856
214.3956	0.4511
214.6125	0.4558
214.8293	0.4323
215.0461	0.4953
215.2629	0.4511
215.4798	0.4744
215.6965	0.4509
215.9133	0.4396
216.1301	0.4129
216.3469	0.45
216.5636	0.4194
216.7803	0.4129
216.9971	0.4073
217.2138	0.3929
217.4305	0.3881
217.6472	0.3372
217.8639	0.3919
218.0805	0.362
218.2972	0.3122
218.5138	0.3224
218.7305	0.3155
218.9471	0.3207
219.1637	0.2563
219.3803	0.2831
219.5969	0.2998
219.8135	0.2477
220.0301	0.2873
220.2466	0.2664
220.4632	0.2624
220.6797	0.2516
220.8962	0.2268
221.1127	0.2504
221.3292	0.2577
221.5457	0.244
221.7622	0.211
221.9787	0.2509
222.1951	0.2365
222.4116	0.2704
222.628	0.2534
222.8444	0.2719
223.0608	0.2481
223.2772	0.2328
223.4936	0.2432
223.71	0.2135
223.9264	0.2615
224.1427	0.2494
224.3591	0.2425
224.5754	0.2824
224.7917	0.2651
225.008	0.2553
225.2243	0.256
225.4406	0.2728
225.6569	0.2558
225.8732	0.2545
226.0894	0.2563
226.3057	0.2635
226.5219	0.2872
226.7381	0.2687
226.9543	0.2836
227.1705	0.296
227.3867	0.2649
227.6029	0.2731
227.8191	0.2883
228.0352	0.2972
228.2513	0.3037
228.4675	0.3199
228.6836	0.3065
228.8997	0.3085
229.1158	0.2941
229.3319	0.3096
229.548	0.2995
229.764	0.3189
229.9801	0.314
230.1961	0.3318
230.4121	0.3278
230.6282	0.33
230.8442	0.3179
231.0602	0.3567
231.2761	0.3376
231.4921	0.3507
231.7081	0.353
231.924	0.3422
232.14	0.3615
232.3559	0.3436
232.5718	0.3679
232.7877	0.3494
233.0036	0.3295
233.2195	0.3474
233.4353	0.3486
233.6512	0.3647
233.867	0.3573
234.0829	0.3533
234.2987	0.3859
234.5145	0.355
234.7303	0.3549
234.9461	0.3988
235.1619	0.3711
235.3776	0.3909
235.5934	0.3956
235.8091	0.3712
236.0249	0.3645
236.2406	0.3941
236.4563	0.3708
236.672	0.3928
236.8877	0.3897
237.1034	0.3806
237.319	0.3819
237.5347	0.4161
237.7503	0.388
237.966	0.4132
238.1816	0.4294
238.3972	0.3865
238.6128	0.3915
238.8284	0.4037
239.0439	0.3848
239.2595	0.3954
239.475	0.4191
239.6906	0.4065
239.9061	0.403
240.1216	0.3974
240.3371	0.3972
240.5526	0.3975
240.7681	0.3953
240.9836	0.3786
241.199	0.3963
241.4145	0.386
241.6299	0.3721
241.8453	0.378
242.0607	0.386
242.2761	0.3595
242.4915	0.3594
242.7069	0.3572
242.9223	0.3479
243.1376	0.3253
243.353	0.3581
243.5683	0.3594
243.7836	0.3284
243.9989	0.3212
244.2142	0.3067
244.4295	0.3087
244.6448	0.2917
244.86	0.2872
245.0753	0.2836
245.2905	0.2613
245.5057	0.2796
245.721	0.2761
245.9362	0.272
246.1514	0.2702
246.3665	0.2582
246.5817	0.2594
246.7969	0.2491
247.012	0.2589
247.2271	0.2302
247.4423	0.2319
247.6574	0.2345
247.8725	0.2279
248.0876	0.2241
248.3026	0.2174
248.5177	0.2089
248.7328	0.2135
248.9478	0.2126
249.1628	0.2077
249.3779	0.2212
249.5929	0.2057
249.8079	0.2198
250.0228	0.2005
250.2378	0.2082
250.4528	0.2061
250.6677	0.1773
250.8827	0.1971
251.0976	0.197
251.3125	0.19
251.5274	0.1715
251.7423	0.1835
251.9572	0.1818
252.172	0.1726
252.3869	0.1774
252.6017	0.1809
252.8166	0.1616
253.0314	0.1714
253.2462	0.1549
253.461	0.1856
253.6758	0.1526
253.8906	0.1938
254.1053	0.1647
254.3201	0.1667
254.5348	0.1801
254.7496	0.1766
254.9643	0.1667
255.179	0.1656
255.3937	0.1552
255.6083	0.1676
255.823	0.1793
256.0377	0.1611
256.2523	0.1747
256.467	0.1519
256.6816	0.1744
256.8962	0.164
257.1108	0.1577
257.3254	0.1747
257.54	0.1589
257.7545	0.1647
257.9691	0.1602
258.1836	0.1606
258.3981	0.1755
258.6127	0.164
258.8272	0.1565
259.0417	0.157
259.2561	0.1696
259.4706	0.1713
259.6851	0.1723
259.8995	0.152
260.114	0.1602
260.3284	0.1679
260.5428	0.1556
260.7572	0.1644
260.9716	0.1685
261.186	0.1612
261.4003	0.162
261.6147	0.1701
261.829	0.1532
262.0433	0.1598
262.2577	0.1636
262.472	0.1627
262.6863	0.1476
262.9005	0.1749
263.1148	0.1642
263.3291	0.162
263.5433	0.1705
263.7576	0.1651
263.9718	0.1666
264.186	0.1546
264.4002	0.159
264.6144	0.1614
264.8286	0.1735
265.0427	0.149
265.2569	0.1628
265.471	0.1571
265.6851	0.1539
265.8993	0.168
266.1134	0.1573
266.3275	0.1538
266.5415	0.1543
266.7556	0.1621
266.9697	0.162
267.1837	0.1697
267.3978	0.1679
267.6118	0.1714
267.8258	0.1628
268.0398	0.1693
268.2538	0.1722
268.4677	0.1538
268.6817	0.1595
268.8957	0.1668
269.1096	0.1654
269.3235	0.1613
269.5374	0.1602
269.7514	0.1616
269.9652	0.1465
270.1791	0.1446
270.393	0.1365
270.6068	0.1627
270.8207	0.1466
271.0345	0.1234
271.2483	0.1472
271.4622	0.1452
271.676	0.1548
271.8897	0.1311
272.1035	0.1393
272.3173	0.1385
272.531	0.1347
272.7448	0.1362
272.9585	0.1279
273.1722	0.1457
273.3859	0.1519
273.5996	0.1382
273.8133	0.1505
274.0269	0.1316
274.2406	0.1335
274.4542	0.1461
274.6679	0.1304
274.8815	0.1446
275.0951	0.1501
275.3087	0.1594
275.5223	0.1453
275.7358	0.1387
275.9494	0.1448
276.1629	0.1458
276.3765	0.1355
276.59	0.1426
276.8035	0.143
277.017	0.1403
277.2305	0.1402
277.444	0.1457
277.6574	0.1276
277.8709	0.1385
278.0843	0.1302
278.2978	0.1465
278.5112	0.1278
278.7246	0.143
278.938	0.1473
279.1513	0.1463
279.3647	0.1552
279.5781	0.1349
279.7914	0.1487
280.0047	0.1569
280.2181	0.155
280.4314	0.1417
280.6447	0.1395
280.8579	0.1609
281.0712	0.1625
281.2845	0.1529
281.4977	0.155
281.711	0.1402
281.9242	0.1452
282.1374	0.1454
282.3506	0.1515
282.5638	0.1634
282.7769	0.1573
282.9901	0.1557
283.2033	0.1556
283.4164	0.1607
283.6295	0.151
283.8426	0.1483
284.0557	0.1625
284.2688	0.1672
284.4819	0.1462
284.695	0.1643
284.908	0.1582
285.1211	0.1416
285.3341	0.1579
285.5471	0.158
285.7601	0.1575
285.9731	0.1604
286.1861	0.1579
286.3991	0.1684
286.612	0.1619
286.825	0.1485
287.0379	0.1568
287.2508	0.168
287.4637	0.1572
287.6766	0.1533
287.8895	0.1605
288.1024	0.1769
288.3152	0.165
288.5281	0.157
288.7409	0.1693
288.9538	0.1575
289.1666	0.1638
289.3794	0.1545
289.5922	0.1596
289.8049	0.1629
290.0177	0.1603
290.2304	0.1582
290.4432	0.1711
290.6559	0.1581
290.8686	0.1644
291.0813	0.1561
291.294	0.1711
291.5067	0.1709
291.7194	0.1613
291.932	0.1823
292.1447	0.1547
292.3573	0.1498
292.5699	0.1676
292.7825	0.1761
292.9951	0.161
293.2077	0.1667
293.4203	0.1539
293.6328	0.1558
293.8454	0.172
294.0579	0.1708
294.2704	0.1551
294.4829	0.1552
294.6954	0.1634
294.9079	0.1679
295.1204	0.1597
295.3328	0.1575
295.5453	0.169
295.7577	0.1627
295.9701	0.1601
296.1825	0.1579
296.3949	0.1603
296.6073	0.1595
296.8197	0.1615
297.0321	0.1679
297.2444	0.1611
297.4567	0.1697
297.6691	0.1593
297.8814	0.1582
298.0937	0.1583
298.306	0.1658
298.5182	0.1562
298.7305	0.1726
298.9428	0.1443
299.155	0.1752
299.3672	0.1597
299.5794	0.1585
299.7916	0.1635
300.0038	0.1615
300.216	0.1727
300.4282	0.1705
300.6403	0.1652
300.8525	0.1654
301.0646	0.1564
301.2767	0.1681
301.4888	0.1569
301.7009	0.1656
301.913	0.1599
302.125	0.1679
302.3371	0.1488
302.5491	0.1612
302.7612	0.169
302.9732	0.1673
303.1852	0.1628
303.3972	0.1571
303.6092	0.16
303.8211	0.153
304.0331	0.155
304.245	0.1447
304.457	0.1533
304.6689	0.152
304.8808	0.1681
305.0927	0.1388
305.3046	0.1525
305.5164	0.1686
305.7283	0.1462
305.9401	0.1468
306.152	0.1419
306.3638	0.1452
306.5756	0.1379
306.7874	0.1489
306.9992	0.143
307.2109	0.1484
307.4227	0.1288
307.6344	0.1459
307.8462	0.1399
308.0579	0.1261
308.2696	0.131
308.4813	0.1269
308.693	0.1313
308.9046	0.1363
309.1163	0.1236
309.328	0.1295
309.5396	0.111
309.7512	0.1154
309.9628	0.1278
310.1744	0.1187
310.386	0.1186
310.5976	0.1242
310.8091	0.1107
311.0207	0.1112
311.2322	0.113
311.4437	0.1152
311.6552	0.1022
311.8667	0.1223
312.0782	0.095
312.2897	0.1085
312.5012	0.1076
312.7126	0.1
312.924	0.1095
313.1355	0.106
313.3469	0.1003
313.5583	0.1109
313.7696	0.1013
313.981	0.1075
314.1924	0.0948
314.4037	0.0959
314.6151	0.111
314.8264	0.102
315.0377	0.0974
315.249	0.1031
315.4603	0.1087
315.6716	0.097
315.8828	0.0939
316.0941	0.0962
316.3053	0.0907
316.5165	0.087
316.7277	0.0983
316.9389	0.1078
317.1501	0.0997
317.3613	0.101
317.5724	0.0869
317.7836	0.0925
317.9947	0.089
318.2058	0.0948
318.417	0.0889
318.6281	0.087
318.8391	0.0959
319.0502	0.0943
319.2613	0.0977
319.4723	0.1033
319.6834	0.1036
319.8944	0.0892
320.1054	0.0993
320.3164	0.0908
320.5274	0.0874
320.7383	0.0898
320.9493	0.0859
321.1602	0.1024
321.3712	0.0858
321.5821	0.1074
321.793	0.1024
322.0039	0.0953
322.2148	0.0831
322.4257	0.0976
322.6365	0.1141
322.8474	0.1015
323.0582	0.093
323.269	0.0999
323.4798	0.1011
323.6906	0.1005
323.9014	0.0935
324.1122	0.0941
324.3229	0.0942
324.5337	0.1039
324.7444	0.0882
324.9551	0.1203
325.1658	0.1078
325.3765	0.1033
325.5872	0.1049
325.7979	0.0906
326.0085	0.1006
326.2192	0.1037
326.4298	0.0984
326.6404	0.0943
326.851	0.0927
327.0616	0.096
327.2722	0.1079
327.4828	0.1101
327.6933	0.0968
327.9039	0.1045
328.1144	0.1099
328.3249	0.1027
328.5354	0.0889
328.7459	0.0986
328.9564	0.0902
329.1669	0.0924
329.3773	0.0988
329.5878	0.0992
329.7982	0.0919
330.0086	0.1099
330.219	0.1079
330.4294	0.1024
330.6398	0.1049
330.8502	0.1023
331.0605	0.1068
331.2708	0.0927
331.4812	0.1111
331.6915	0.1089
331.9018	0.1081
332.1121	0.0984
332.3224	0.101
332.5326	0.1069
332.7429	0.1119
332.9531	0.1165
333.1633	0.1085
333.3735	0.1067
333.5837	0.1069
333.7939	0.1026
334.0041	0.113
334.2143	0.1133
334.4244	0.0971
334.6346	0.0824
334.8447	0.1107
335.0548	0.1037
335.2649	0.0966
335.475	0.1105
335.685	0.1066
335.8951	0.1066
336.1051	0.1039
336.3152	0.1218
336.5252	0.1024
336.7352	0.1028
336.9452	0.1129
337.1552	0.1179
337.3652	0.1042
337.5751	0.1133
337.7851	0.1111
337.995	0.1007
338.2049	0.1123
338.4148	0.112
338.6247	0.1216
338.8346	0.1019
339.0445	0.1045
339.2543	0.1014
339.4642	0.1128
339.674	0.0891
339.8838	0.112
340.0936	0.1105
340.3034	0.1153
340.5132	0.1124
340.7229	0.1093
340.9327	0.104
341.1424	0.1105
341.3522	0.1256
341.5619	0.114
341.7716	0.1118
341.9813	0.1278
342.1909	0.1152
342.4006	0.1338
342.6102	0.1274
342.8199	0.1234
343.0295	0.1286
343.2391	0.1103
343.4487	0.1155
343.6583	0.1238
343.8679	0.1196
344.0774	0.1245
344.287	0.1252
344.4965	0.1131
344.706	0.1217
344.9155	0.1245
345.125	0.1184
345.3345	0.1218
345.544	0.1251
345.7534	0.1246
345.9629	0.1245
346.1723	0.1347
346.3817	0.1186
346.5911	0.1396
346.8005	0.1277
347.0099	0.1265
347.2193	0.1269
347.4286	0.1257
347.638	0.1273
347.8473	0.1318
348.0566	0.1464
348.2659	0.1339
348.4752	0.1246
348.6845	0.1402
348.8937	0.1285
349.103	0.1305
349.3122	0.1349
349.5214	0.1375
349.7306	0.145
349.9398	0.1381
350.149	0.1364
350.3582	0.1382
350.5674	0.144
350.7765	0.14
350.9856	0.1369
351.1948	0.1378
351.4039	0.1292
351.613	0.1386
351.822	0.1264
352.0311	0.1374
352.2402	0.1391
352.4492	0.1466
352.6582	0.1404
352.8672	0.1393
353.0762	0.1512
353.2852	0.1363
353.4942	0.1473
353.7032	0.1543
353.9121	0.1489
354.1211	0.1406
354.33	0.1508
354.5389	0.1513
354.7478	0.1466
354.9567	0.1454
355.1655	0.1347
355.3744	0.1465
355.5833	0.1453
355.7921	0.1759
356.0009	0.1473
356.2097	0.1737
356.4185	0.1677
356.6273	0.1661
356.8361	0.1699
357.0448	0.1562
357.2536	0.1582
357.4623	0.1638
357.671	0.1499
357.8797	0.1724
358.0884	0.1586
358.2971	0.1616
358.5057	0.1741
358.7144	0.1635
358.923	0.169
359.1316	0.1705
359.3402	0.1764
359.5488	0.1815
359.7574	0.1651
359.966	0.174
360.1746	0.1745
360.3831	0.1775
360.5916	0.1699
360.8002	0.1545
361.0087	0.1783
361.2172	0.1803
361.4256	0.1673
361.6341	0.1788
361.8426	0.1829
362.051	0.1865
362.2594	0.1727
362.4678	0.1937
362.6762	0.1902
362.8846	0.1872
363.093	0.1871
363.3014	0.1734
363.5097	0.1806
363.718	0.1921
363.9264	0.1858
364.1347	0.1747
364.343	0.1888
364.5513	0.1912
364.7595	0.197
364.9678	0.2013
365.176	0.1908
365.3842	0.1893
365.5925	0.1906
365.8007	0.1952
366.0089	0.1963
366.217	0.1902
366.4252	0.2019
366.6333	0.215
366.8415	0.2029
367.0496	0.1825
367.2577	0.2172
367.4658	0.2129
367.6739	0.2119
367.882	0.2103
368.09	0.2056
368.2981	0.2138
368.5061	0.2026
368.7141	0.2184
368.9221	0.21
369.1301	0.2187
369.3381	0.2194
369.5461	0.205
369.754	0.2099
369.962	0.2178
370.1699	0.2285
370.3778	0.206
370.5857	0.2093
370.7936	0.2304
371.0015	0.2105
371.2093	0.2388
371.4172	0.2358
371.625	0.2167
371.8328	0.208
372.0406	0.2248
372.2484	0.2209
372.4562	0.217
372.664	0.2138
372.8717	0.2228
373.0795	0.2095
373.2872	0.2195
373.4949	0.218
373.7026	0.2371
373.9103	0.2371
374.118	0.2439
374.3256	0.2275
374.5333	0.2144
374.7409	0.2236
374.9485	0.244
375.1561	0.2366
375.3637	0.2452
375.5713	0.2379
375.7789	0.2369
375.9864	0.2351
376.194	0.2302
376.4015	0.2402
376.609	0.242
376.8165	0.2334
377.024	0.2225
377.2315	0.2227
377.4389	0.2481
377.6464	0.2315
377.8538	0.2421
378.0612	0.2398
378.2686	0.2429
378.476	0.2417
378.6834	0.2536
378.8908	0.2486
379.0981	0.2401
379.3055	0.2409
379.5128	0.2466
379.7201	0.2494
379.9274	0.2429
380.1347	0.2483
380.342	0.26
380.5492	0.2278
380.7565	0.2536
380.9637	0.2529
381.1709	0.2418
381.3781	0.2591
381.5853	0.2527
381.7925	0.2619
381.9997	0.2608
382.2068	0.2682
382.4139	0.2515
382.6211	0.2677
382.8282	0.2565
383.0353	0.2466
383.2424	0.2647
383.4494	0.2715
383.6565	0.2355
383.8635	0.2439
384.0706	0.2573
384.2776	0.2415
384.4846	0.255
384.6916	0.2562
384.8986	0.2463
385.1055	0.2521
385.3125	0.2663
385.5194	0.2426
385.7263	0.2686
385.9333	0.2524
386.1402	0.2456
386.347	0.2646
386.5539	0.2365
386.7608	0.2379
386.9676	0.2543
387.1744	0.2601
387.3813	0.2395
387.5881	0.2599
387.7948	0.235
388.0016	0.2381
388.2084	0.2468
388.4151	0.2543
388.6219	0.2478
388.8286	0.2379
389.0353	0.2671
389.242	0.2484
389.4487	0.2364
389.6553	0.249
389.862	0.2359
390.0686	0.2459
390.2753	0.2493
390.4819	0.2257
390.6885	0.2319
390.8951	0.2568
391.1016	0.2413
391.3082	0.2324
391.5147	0.2335
391.7213	0.2394
391.9278	0.2263
392.1343	0.2194
392.3408	0.2376
392.5473	0.2362
392.7537	0.2162
392.9602	0.2304
393.1666	0.2419
393.373	0.2356
393.5794	0.2291
393.7858	0.2255
393.9922	0.2179
394.1986	0.2449
394.4049	0.226
394.6113	0.2288
394.8176	0.2369
395.0239	0.2148
395.2302	0.2161
395.4365	0.2301
395.6428	0.2204
395.8491	0.2055
396.0553	0.2146
396.2615	0.2189
396.4678	0.2055
396.674	0.2104
396.8802	0.2207
397.0863	0.233
397.2925	0.2056
397.4987	0.2064
397.7048	0.2211
397.9109	0.2084
398.117	0.2017
398.3231	0.1967
398.5292	0.2195
398.7353	0.2267
398.9413	0.2161
399.1474	0.2076
399.3534	0.2061
399.5594	0.2032
399.7654	0.2221
399.9714	0.2269
400.1774	0.2239
400.3833	0.2042
400.5893	0.202
400.7952	0.21
401.0011	0.2063
401.207	0.2331
401.4129	0.1984
401.6188	0.2246
401.8247	0.2068
402.0305	0.1912
402.2364	0.2067
402.4422	0.2161
402.648	0.2181
402.8538	0.2194
403.0596	0.2041
403.2654	0.2129
403.4711	0.1886
403.6768	0.2235
403.8826	0.2244
404.0883	0.2224
404.294	0.208
404.4997	0.1989
404.7054	0.2205
404.911	0.208
405.1167	0.2122
405.3223	0.2289
405.5279	0.2212
405.7335	0.2255
405.9391	0.2198
406.1447	0.2015
406.3502	0.2282
406.5558	0.2053
406.7613	0.2245
406.9668	0.2148
407.1724	0.2089
407.3778	0.2083
407.5833	0.1998
407.7888	0.2121
407.9942	0.2208
408.1997	0.2199
408.4051	0.1926
408.6105	0.2175
408.8159	0.2007
409.0213	0.2098
409.2267	0.2359
409.432	0.2017
409.6374	0.2122
409.8427	0.2053
410.048	0.2303
410.2533	0.2153
410.4586	0.2252
410.6639	0.1989
410.8691	0.2115
411.0744	0.1983
411.2796	0.2032
411.4848	0.1997
411.69	0.1885
411.8952	0.2296
412.1004	0.1927
412.3056	0.2239
412.5107	0.2016
412.7158	0.225
412.921	0.2082
413.1261	0.2158
413.3312	0.1954
413.5362	0.2152
413.7413	0.2124
413.9464	0.215
414.1514	0.2003
414.3564	0.2053
414.5614	0.1901
414.7664	0.2028
414.9714	0.2183
415.1764	0.2024
415.3813	0.2114
415.5863	0.2127
415.7912	0.223
415.9961	0.2158
416.201	0.2047
416.4059	0.2123
416.6108	0.1913
416.8156	0.2071
417.0205	0.1979
417.2253	0.1889
417.4301	0.1955
417.6349	0.1891
417.8397	0.1878
418.0445	0.2095
418.2492	0.2112
418.454	0.2018
418.6587	0.1992
418.8634	0.2046
419.0681	0.1815
419.2728	0.1683
419.4775	0.1986
419.6822	0.1761
419.8868	0.1881
420.0915	0.2016
420.2961	0.1961
420.5007	0.1832
420.7053	0.2036
420.9099	0.1959
421.1144	0.1951
421.319	0.1843
421.5235	0.199
421.728	0.184
421.9325	0.1971
422.137	0.2093
422.3415	0.1776
422.546	0.188
422.7504	0.1761
422.9549	0.1919
423.1593	0.2006
423.3637	0.1897
423.5681	0.1734
423.7725	0.1805
423.9769	0.1723
424.1812	0.1819
424.3856	0.1703
424.5899	0.1709
424.7942	0.1828
424.9985	0.1935
425.2028	0.1617
425.4071	0.2095
425.6113	0.1623
425.8156	0.1766
426.0198	0.1832
426.224	0.1576
426.4282	0.1609
426.6324	0.1586
426.8366	0.1535
427.0407	0.146
427.2449	0.1508
427.449	0.1623
427.6531	0.1567
427.8572	0.1557
428.0613	0.1572
428.2654	0.1651
428.4694	0.1561
428.6735	0.1649
428.8775	0.1559
429.0815	0.1742
429.2855	0.1533
429.4895	0.1529
429.6935	0.1502
429.8975	0.1521
430.1014	0.1482
430.3053	0.1377
430.5093	0.1587
430.7132	0.1484
430.9171	0.1463
431.1209	0.1545
431.3248	0.1488
431.5286	0.1383
431.7325	0.1439
431.9363	0.1226
432.1401	0.1432
432.3439	0.1316
432.5477	0.1085
432.7514	0.1273
432.9552	0.1153
433.1589	0.1109
433.3627	0.1321
433.5664	0.1117
433.7701	0.1149
433.9737	0.1062
434.1774	0.1232
434.3811	0.0957
434.5847	0.1123
434.7883	0.1104
434.9919	0.1223
435.1955	0.1199
435.3991	0.1091
435.6027	0.1095
435.8062	0.1008
436.0098	0.1063
436.2133	0.1115
436.4168	0.0919
436.6203	0.0912
436.8238	0.1038
437.0272	0.0885
437.2307	0.0851
437.4341	0.1116
437.6375	0.1064
437.841	0.0774
438.0443	0.1018
438.2477	0.0889
438.4511	0.0804
438.6545	0.0844
438.8578	0.083
439.0611	0.0857
439.2644	0.08
439.4677	0.0779
439.671	0.0881
439.8743	0.0944
440.0775	0.0822
440.2808	0.0855
440.484	0.0704
440.6872	0.055
440.8904	0.0514
441.0936	0.0905
441.2967	0.0772
441.4999	0.0728
441.703	0.0604
441.9062	0.0558
442.1093	0.0681
442.3124	0.048
442.5155	0.0472
442.7185	0.0653
442.9216	0.0371
443.1246	0.0644
443.3276	0.051
443.5307	0.0525
443.7337	0.0783
443.9366	0.055
444.1396	0.0599
444.3426	0.0528
444.5455	0.0531
444.7484	0.0523
444.9513	0.0598
445.1542	0.0578
445.3571	0.051
445.56	0.0573
445.7628	0.0394
445.9657	0.0417
446.1685	0.0501
446.3713	0.0406
446.5741	0.0541
446.7769	0.0354
446.9797	0.0501
447.1824	0.0509
447.3852	0.0183
447.5879	0.0431
447.7906	0.0403
447.9933	0.0401
448.196	0.0338
448.3986	0.0287
448.6013	0.0395
448.8039	0.0173
449.0066	0.0307
449.2092	0.0405
449.4118	0.0252
449.6143	0.0241
449.8169	0.0342
450.0195	0.0163
450.222	0.015
450.4245	0.0135
450.627	0.0472
450.8295	0.0268
451.032	0.0307
451.2345	0.0459
451.4369	0.0365
451.6394	0.0159
451.8418	0.0072
452.0442	0.0248
452.2466	0.0199
452.449	0.0134
452.6513	0.0345
452.8537	0.0039
453.056	0.0204
453.2583	0.0257
453.4607	0.0126
453.663	0.0105
453.8652	0.0392
454.0675	-0.0004
454.2697	0.0253
454.472	0.0097
454.6742	0.0163
454.8764	0.0203
455.0786	0.0255
455.2808	0.0184
455.4829	0.0299
455.6851	0.0153
455.8872	0.0241
456.0893	0.0194
456.2915	0.0044
456.4935	0.0131
456.6956	0.0057
456.8977	0.0111
457.0997	0.0152
457.3018	-0.0071
457.5038	0.0271
457.7058	0.0202
457.9078	0.0032
458.1098	0.0152
458.3117	0.0175
458.5137	0.0225
458.7156	0.0121
458.9175	-0.0131
459.1194	-0.0022
459.3213	-0.0031
459.5232	0.0115
459.725	-0.0107
459.9269	0.0045
460.1287	-0.0014
460.3305	0.0007
460.5323	0.0063
460.7341	0.0037
460.9359	0.0158
461.1376	0.0111
461.3394	0.004
461.5411	0.023
461.7428	0.018
461.9445	0.0219
462.1462	0.0204
462.3479	0.012
462.5495	0.0131
462.7512	0.017
462.9528	0.0061
463.1544	-0.0124
463.356	-0.0028
463.5576	0.0083
463.7592	0.0024
463.9607	-0.0013
464.1623	0.0169
464.3638	0.0212
464.5653	0.0004
464.7668	-0.0004
464.9683	0.0157
465.1697	0.0224
465.3712	-0.0104
465.5726	-0.0113
465.7741	0.0034
465.9755	0.0049
466.1769	0.0026
466.3782	0.0024
466.5796	-0.0017
466.7809	0.0079
466.9823	-0.0058
467.1836	0.0007
467.3849	0.008
467.5862	-0.0031
467.7875	-0.0069
467.9887	0.0147
468.19	0.0171
468.3912	-0.0105
468.5924	-0.0012
468.7936	0.0044
468.9948	-0.0036
469.196	0.0176
469.3972	-0.0196
469.5983	0.0109
469.7994	-0.0165
470.0006	-0.015
470.2017	-0.0029
470.4027	-0.0106
470.6038	-0.0009
470.8049	-0.0091
471.0059	-0.0016
471.2069	-0.0203
471.408	0.0023
471.6089	0.0179
471.8099	0.0057
472.0109	-0.0011
472.2119	-0.0047
472.4128	-0.0033
472.6137	0.0093
472.8146	-0.0066
473.0155	-0.0071
473.2164	-0.0038
473.4173	0.0064
473.6181	0.0027
473.819	0.006
474.0198	0.0066
474.2206	-0.0081
474.4214	-0.0023
474.6222	0.0025
474.8229	-0.0148
475.0237	-0.018
475.2244	-0.0001
475.4251	-0.014
475.6258	-0.0022
475.8265	-0.0061
476.0272	0.0089
476.2278	-0.0031
476.4285	0.0078
476.6291	0.0006
476.8297	-0.0042
477.0303	-0.0126
477.2309	0.0072
477.4315	-0.0078
477.632	-0.0008
477.8326	-0.0052
478.0331	0.0002
478.2336	0.002
478.4341	-0.0102
478.6346	-0.0091
478.8351	-0.0044
479.0355	-0.0028
479.236	-0.0035
479.4364	0.0002
479.6368	0.0065
479.8372	-0.0006
480.0376	0.0017
480.2379	-0.0238
480.4383	0.0082
480.6386	0.0034
480.8389	-0.0027
481.0392	-0.0122
481.2395	-0.0046
481.4398	-0.0006
481.6401	0.0072
481.8403	-0.0088
482.0405	0.0045
482.2408	-0.0006
482.441	0.0041
482.6411	-0.0019
482.8413	-0.0185
483.0415	-0.0077
483.2416	-0.0073
483.4417	0
483.6419	-0.0015
483.8419	-0.0051
484.042	0.0015
484.2421	0.0013
484.4422	0.0027
484.6422	-0.0093
484.8422	0.0019
485.0422	-0.0045
485.2422	0.0016
485.4422	-0.012
485.6422	-0.0141
485.8421	-0.0113
486.042	-0.0022
486.242	-0.0008
486.4419	-0.0212
486.6417	-0.0109
486.8416	0.0018
487.0415	-0.0062
487.2413	-0.0019
487.4411	-0.0034
487.641	-0.0092
487.8408	-0.0057
488.0405	-0.0087
488.2403	-0.0002
488.4401	-0.0006
488.6398	-0.0059
488.8395	-0.004
489.0392	0.0006
489.2389	-0.0061
489.4386	-0.0095
489.6383	-0.0021
489.8379	0.0034
490.0376	0.0056
490.2372	-0.003
490.4368	-0.0165
490.6364	-0.0028
490.836	-0.0141
491.0355	0.0092
491.2351	-0.0013
491.4346	0.0012
491.6341	-0.0114
491.8336	0.0018
492.0331	-0.0076
492.2326	-0.0106
492.432	0.0014
492.6315	0.0003
492.8309	-0.0127
493.0303	-0.0091
493.2297	-0.0069
493.4291	-0.0039
493.6284	-0.0055
493.8278	-0.0048
494.0271	0.0028
494.2264	-0.0001
494.4257	-0.0155
494.625	-0.0008
494.8243	-0.0106
495.0236	-0.0014
495.2228	-0.0092
495.422	-0.0002
495.6213	-0.0033
495.8205	0.0051
496.0196	-0.0019
496.2188	0.0018
496.418	-0.0083
496.6171	-0.0046
496.8162	-0.0085
497.0153	0.0033
497.2144	-0.0044
497.4135	-0.0029
497.6126	-0.0046
497.8116	-0.0106
498.0107	0.0092
498.2097	-0.0066
498.4087	-0.0078
498.6077	-0.0017
498.8067	-0.0017
499.0056	-0.0101
499.2046	-0.0082
499.4035	-0.0138
499.6024	-0.0083
499.8013	0.0009
500.0002	-0.001
500.199	-0.0019
500.3979	-0.0132
500.5967	-0.0148
500.7956	-0.0001
500.9944	-0.0095
501.1932	-0.0086
501.3919	-0.0138
501.5907	-0.0018
501.7895	-0.0069
501.9882	-0.0088
502.1869	-0.0067
502.3856	-0.016
502.5843	-0.0093
502.783	-0.0061
502.9816	-0.0022
503.1803	-0.0039
503.3789	-0.007
503.5775	0.0062
503.7761	-0.0081
503.9747	0.0016
504.1732	-0.0064
504.3718	0.0085
504.5703	-0.004
504.7689	-0.0059
504.9674	-0.0023
505.1658	-0.003
505.3643	-0.0034
505.5628	-0.0072
505.7612	-0.0019
505.9597	0.0079
506.1581	-0.0052
506.3565	0.0053
506.5549	-0.0021
506.7532	-0.0128
506.9516	-0.007
507.1499	0.0018
507.3482	-0.0083
507.5465	-0.0058
507.7448	-0.0024
507.9431	0.0004
508.1414	0.0018
508.3396	-0.0103
508.5379	-0.0046
508.7361	-0.0154
508.9343	0.0049
509.1325	-0.001
509.3306	-0.0115
509.5288	-0.0158
509.7269	-0.0057
509.9251	-0.0014
510.1232	-0.0002
510.3213	-0.0059
510.5193	0.0052
510.7174	-0.0104
510.9154	-0.0081
511.1135	-0.0098
511.3115	-0.005
511.5095	-0.0081
511.7075	-0.0013
511.9055	-0.0013
512.1034	-0.0138
512.3014	0.0042
512.4993	-0.0025
512.6972	-0.013
512.8951	-0.0033
513.093	-0.0035
513.2908	-0.0018
513.4887	0.0019
513.6865	0.0019
513.8844	-0.0053
514.0822	-0.0059
514.2799	-0.0065
514.4777	-0.0044
514.6755	-0.0084
514.8732	-0.0084
515.0709	0.0047
515.2687	-0.0059
515.4664	-0.0046
515.664	-0.0122
515.8617	0.0031
516.0594	-0.0142
516.257	0.0035
516.4546	-0.0151
516.6522	0.0011
516.8498	-0.0061
517.0474	0.0037
517.2449	0.0006
517.4425	-0.0105
517.64	0.0011
517.8375	0.0086
518.035	0.0031
518.2325	-0.0099
518.43	-0.007
518.6274	-0.0007
518.8249	-0.0102
519.0223	-0.0031
519.2197	-0.0026
519.4171	-0.0113
519.6145	-0.0083
519.8118	-0.0018
520.0092	-0.0095
520.2065	-0.0002
520.4038	-0.0164
520.6011	0.0041
520.7984	-0.01
520.9956	-0.014
521.1929	-0.008
521.3901	0.0113
521.5874	-0.0004
521.7846	0.0001
521.9818	-0.0043
522.1789	-0.0043
522.3761	-0.0026
522.5732	-0.0114
522.7704	-0.0141
522.9675	0.0003
523.1646	-0.0055
523.3617	-0.0055
523.5587	0.0016
523.7558	0.0061
523.9528	-0.0026
524.1498	-0.0017
524.3468	-0.0048
524.5438	0.0008
524.7408	0.0009
524.9378	0.0096
525.1347	-0.0069
525.3316	0.0009
525.5285	-0.0067
525.7254	0.007
525.9223	-0.0054
526.1192	-0.0027
526.316	0.0007
526.5129	0.0055
526.7097	0.001
526.9065	0.0026
527.1033	-0.0085
527.3	-0.0017
527.4968	0.0045
527.6935	-0.002
527.8903	-0.0072
528.087	-0.0055
528.2837	-0.0035
528.4804	-0.0007
528.677	-0.0165
528.8737	0.0049
529.0703	0.002
529.2669	0.0001
529.4635	-0.0092
529.6601	-0.002
529.8567	0.0021
530.0532	-0.0041
530.2498	-0.0019
530.4463	0.0027
530.6428	-0.0032
530.8393	0.0099
531.0358	0.0037
531.2322	0.0015
531.4287	-0.0092
531.6251	-0.0099
531.8215	0.0036
532.0179	-0.0072
532.2143	0.0059
532.4107	-0.005
532.607	-0.0028
532.8034	0.0071
532.9997	-0.0008
533.196	-0.004
533.3923	0.0016
533.5886	0.0133
533.7848	0.0069
533.9811	0.0025
534.1773	-0.0013
534.3735	0.0085
534.5697	0.0038
534.7659	0.0055
534.9621	0.0041
535.1582	-0.0123
535.3544	-0.0087
535.5505	-0.0101
535.7466	0.0068
535.9427	0.0044
536.1387	-0.0082
536.3348	-0.0032
536.5308	0.0072
536.7269	-0.0155
536.9229	0.0061
537.1189	0.0014
537.3148	0.0016
537.5108	-0.0067
537.7068	0.0043
537.9027	0.0027
538.0986	0.0071
538.2945	0.0008
538.4904	0.0075
538.6863	-0.0022
538.8821	-0.0044
539.078	0.0041
539.2738	0.0085
539.4696	0.0075
539.6654	0.0059
539.8611	0.0134
540.0569	-0.0032
540.2526	-0.0083
540.4484	0
540.6441	0.0125
540.8398	-0.0011
541.0355	-0.0029
541.2311	0.0024
541.4268	-0.0079
541.6224	-0.0026
541.818	0.0073
542.0136	-0.0029
542.2092	0.0062
542.4048	0.0052
542.6003	-0.0026
542.7959	0.0021
542.9914	-0.0021
543.1869	0.0058
543.3824	-0.001
543.5779	-0.0022
543.7734	-0.0008
543.9688	-0.0055
544.1642	0.0121
544.3596	-0.003
544.555	-0.0001
544.7504	0.006
544.9458	0.005
545.1411	-0.0023
545.3365	0.0017
545.5318	-0.0012
545.7271	-0.0029
545.9224	-0.0003
546.1177	0.0006
546.3129	0.0042
546.5081	-0.0058
546.7034	0.0001
546.8986	-0.0112
547.0938	0.0006
547.289	-0.0006
547.4841	-0.0014
547.6793	0.0173
547.8744	-0.0057
548.0695	0.0003
548.2646	-0.0101
548.4597	0.003
548.6548	0.0015
548.8498	0.0018
549.0448	0.0055
549.2399	0
549.4349	0.0108
549.6298	-0.0017
549.8248	0.0009
550.0198	-0.0045
550.2147	-0.002
550.4096	0.0016
550.6045	-0.0052
550.7994	-0.0007
550.9943	0.0019
551.1892	0.0039
551.384	0.0012
551.5788	0.0002
551.7737	0.0019
551.9685	0.0066
552.1632	-0.0016
552.358	-0.0017
552.5528	0.0029
552.7475	-0.0044
552.9422	0.0049
553.1369	-0.0005
553.3316	0.0023
553.5263	-0.0059
553.7209	0.0078
553.9156	-0.0007
554.1102	-0.01
554.3048	-0.01
554.4994	0.0063
554.694	-0.0039
554.8885	0.0026
555.0831	-0.0076
555.2776	-0.0084
555.4721	-0.0042
555.6666	-0.0015
555.8611	0.0053
556.0555	0.0062
556.25	0.004
556.4444	-0.0023
556.6388	0.0037
556.8332	0.0036
557.0276	-0.0025
557.222	0.0084
557.4163	-0.0075
557.6107	0.0019
557.805	0.0124
557.9993	0.0028
558.1936	0.0079
558.3879	0.0084
558.5821	0.0024
558.7764	-0.0072
558.9706	0.0062
559.1648	-0.0008
559.359	-0.0028
559.5532	-0.0042
559.7473	0.0002
559.9415	-0.0001
560.1356	-0.002
560.3297	-0.0114
560.5238	-0.0045
560.7179	-0.002
560.9119	0.0053
561.106	-0.0038
561.3	0.0012
561.494	-0.0007
561.688	-0.0036
561.882	-0.0064
562.076	-0.0101
562.2699	0.0055
562.4639	-0.0021
562.6578	-0.0081
562.8517	-0.0023
563.0456	0.0027
563.2395	0.0026
563.4333	0.0064
563.6272	0.0107
563.821	-0.0014
564.0148	0.0055
564.2086	-0.0023
564.4024	0.0028
564.5961	-0.0023
564.7899	0.0028
564.9836	-0.0008
565.1773	0.0032
565.371	0.01
565.5647	0.0017
565.7584	0.0002
565.952	-0.005
566.1456	0.0037
566.3393	-0.0001
566.5329	-0.0009
566.7264	0.0009
566.92	-0.0037
567.1136	-0.0007
567.3071	0.0036
567.5006	0.0061
567.6941	-0
567.8876	0.0042
568.0811	-0.0067
568.2745	-0.0001
568.468	0.0059
568.6614	0.0048
568.8548	0.0021
569.0482	-0.0097
569.2416	0.0017
569.4349	-0.0009
569.6283	0.012
569.8216	0.0028
570.0149	-0.0088
570.2082	0.0121
570.4015	0.012
570.5947	0.0095
570.788	0.0057
570.9812	0.0023
571.1744	0.0054
571.3676	-0.0013
571.5608	-0.0009
571.754	0.0081
571.9471	0.0016
572.1402	0.0045
572.3333	-0.0028
572.5264	0.0021
572.7195	-0.003
572.9126	0.008
573.1057	0.0006
573.2987	0.0018
573.4917	0.0023
573.6847	0.0019
573.8777	0.0086
574.0707	0.0101
574.2636	-0.0069
574.4566	0.0017
574.6495	0.0064
574.8424	-0.0009
575.0353	0.0041
575.2281	0.0131
575.421	0.0056
575.6138	0.0045
575.8067	0.0011
575.9995	0.0039
576.1923	0.0085
576.385	0.0049
576.5778	-0.0005
576.7706	0.0025
576.9633	-0.0025
577.156	0.0016
577.3487	0.0043
577.5414	-0.0066
577.734	-0.0021
577.9267	0.0063
578.1193	-0.0053
578.3119	-0.0007
578.5045	-0.0008
578.6971	0.001
578.8897	0.0053
579.0822	0.0037
579.2747	-0.0012
579.4673	-0.0023
579.6598	-0.006
579.8522	-0.0036
580.0447	-0.0067
580.2372	-0.0032
580.4296	0.0036
580.622	0.0018
580.8144	0.0039
581.0068	-0.0013
581.1992	-0.005
581.3915	-0.0045
581.5839	0.0001
581.7762	-0.0067
581.9685	0.0006
582.1608	0.0045
582.353	0.0043
582.5453	-0
582.7375	0.0034
582.9298	0.0014
583.122	0.0059
583.3142	0.0015
583.5063	0.002
583.6985	-0.0018
583.8906	-0.0049
584.0827	-0.0017
584.2749	0.003
584.4669	0.0016
584.659	0.0034
584.8511	-0.0035
585.0431	0.0004
585.2352	0.0066
585.4272	-0.0016
585.6192	0.0093
585.8111	0.0059
586.0031	-0.0003
586.195	0.0065
586.387	0.0059
586.5789	0.0078
586.7708	0.0107
586.9627	-0.0008
587.1545	0.0037
587.3464	0.0018
587.5382	0.0082
587.73	0.0062
587.9218	0.0038
588.1136	-0.0047
588.3053	0.0078
588.4971	-0.0016
588.6888	-0.0098
588.8805	-0.0013
589.0722	0.0087
589.2639	0.0013
589.4556	0.0042
589.6472	-0.0015
589.8389	-0.0047
590.0305	-0.0033
590.2221	0.0012
590.4137	0.0008
590.6052	0.0046
590.7968	0.0039
590.9883	-0.0014
591.1798	-0.0047
591.3713	0.0015
591.5628	0.0036
591.7543	0.001
591.9458	0.0019
592.1372	0.0082
592.3286	0.004
592.52	0.0021
592.7114	0.0029
592.9028	-0.0036
593.0941	-0.0041
593.2855	0.0033
593.4768	-0.0032
593.6681	0.0022
593.8594	0.0022
594.0506	0.0009
594.2419	0.0067
594.4331	0.0069
594.6244	0.0032
594.8156	-0.0065
595.0067	0.0027
595.1979	0.0061
595.3891	-0.0001
595.5802	0.0006
595.7713	0.0074
595.9624	-0.0041
596.1535	0.0033
596.3446	0.0059
596.5357	0.0009
596.7267	0.0039
596.9177	0.0024
597.1087	0.001
597.2997	-0.0021
597.4907	0.0097
597.6817	0.0013
597.8726	0.0043
598.0635	-0.0012
598.2544	0
598.4453	-0.0005
598.6362	-0.0043
598.827	-0.0048
599.0179	0.0054
599.2087	0.0095
599.3995	0.0052
599.5903	0.002
599.7811	0.0011
599.9718	0.0021
600.1626	-0.0059
600.3533	-0.0042
600.544	0.006
600.7347	0.0008
600.9254	0.0005
601.116	-0.0072
601.3067	0.0045
601.4973	-0.0002
601.6879	0.003
601.8785	-0.0026
602.0691	0.0062
602.2596	0.0071
602.4502	0.0022
602.6407	0.0087
602.8312	0.0077
603.0217	-0.0022
603.2122	0.0018
603.4027	0.0042
603.5931	-0.0013
603.7835	-0.0017
603.9739	0.0041
604.1643	-0.0004
604.3547	0.0031
604.5451	0.0083
604.7354	0.0005
604.9257	-0.0036
605.116	-0.0048
605.3063	0.0001
605.4966	-0.0026
605.6869	0.0017
605.8771	0.0041
606.0673	0.0037
606.2575	0.006
606.4477	0.0061
606.6379	0.0036
606.8281	0.007
607.0182	0.0063
607.2083	0.0144
607.3985	-0.0048
607.5885	0.0016
607.7786	0.0028
607.9687	-0.0057
608.1587	0.0054
608.3488	0.0091
608.5388	-0.0001
608.7288	0.0032
608.9187	0.0006
609.1087	-0.0035
609.2986	-0.0072
609.4886	-0.0011
609.6785	0.0035
609.8684	0.0078
610.0582	0.0054
610.2481	0.0053
610.4379	0.0054
610.6278	0.0012
610.8176	0.006
611.0074	0.0019
611.1971	0.0044
611.3869	-0.004
611.5766	0.0051
611.7664	0.01
611.9561	0.0077
612.1458	0.0095
612.3354	-0.0029
612.5251	0.0004
612.7147	0.0045
612.9044	0.0088
613.094	-0.0004
613.2836	0.0088
613.4731	-0.0025
613.6627	-0.0031
613.8522	0.0095
614.0417	0.0073
614.2313	0.0005
614.4207	0.0007
614.6102	0.0006
614.7997	0.0066
614.9891	-0.0012
615.1785	-0.0007
615.3679	-0.004
615.5573	0.013
615.7467	0.0072
615.9361	0.001
616.1254	0.003
616.3147	0.0091
616.504	0.011
616.6933	0.005
616.8826	0.0121
617.0718	0.011
617.2611	0.0076
617.4503	0.0001
617.6395	0.0005
617.8287	0.0045
618.0179	0.0032
618.207	0.0152
618.3961	0.0084
618.5853	0.0014
618.7744	0.007
618.9634	0.0101
619.1525	0.0004
619.3416	0.0047
619.5306	0.0114
619.7196	-0.0002
619.9086	0.001
620.0976	0.0034
620.2866	0.0039
620.4755	0.0044
620.6645	0.0085
620.8534	0.0076
621.0423	0.0066
621.2312	0.0078
621.42	0.0105
621.6089	0.0061
621.7977	0.0082
621.9865	-0.0037
622.1753	0.0097
622.3641	-0.0043
622.5529	0.0078
622.7416	0.0132
622.9303	0.0078
623.1191	0.0101
623.3078	-0.001
623.4964	0.0016
623.6851	0.0016
623.8737	0.003
624.0624	0.0061
624.251	0.0059
624.4396	0.005
624.6282	-0.0015
624.8167	0.0015
625.0053	0.0006
625.1938	0.0074
625.3823	0.0064
625.5708	0.0052
625.7593	-0.0044
625.9477	0.0025
626.1362	0.0022
626.3246	0.0047
626.513	0.0119
626.7014	0.0122
626.8898	0.0063
627.0781	-0.0001
627.2665	0.0146
627.4548	0.0143
627.6431	0.0114
627.8314	0.0082
628.0197	0.0077
628.2079	-0.0025
628.3962	-0.0003
628.5844	0.0024
628.7726	0.0035
628.9608	0.0033
629.1489	0.0068
629.3371	0.0074
629.5252	0.0032
629.7134	0.0011
629.9015	0.0054
630.0895	0.0009
630.2776	0.0081
630.4657	0.0049
630.6537	0.0029
630.8417	0.0081
631.0297	-0.0059
631.2177	0.0039
631.4057	0.0015
631.5936	0.0045
631.7815	0.002
631.9695	0.0105
632.1574	0.0101
632.3452	0.0156
632.5331	0.0074
632.7209	0.0008
632.9088	0.0198
633.0966	0.0114
633.2844	0.0076
633.4722	0.0069
633.6599	0.0112
633.8477	0.0131
634.0354	-0.0024
634.2231	0.0087
634.4108	0.0057
634.5985	0.0085
634.7861	0.0082
634.9738	0.0036
635.1614	0.0059
635.349	0.0128
635.5366	-0.0007
635.7242	0.0095
635.9117	0.0141
636.0993	0.0012
636.2868	0.0067
636.4743	0.0003
636.6618	0.0171
636.8492	0.0093
637.0367	0.0132
637.2241	0.0046
637.4115	0.0066
637.5989	0.0005
637.7863	0.0081
637.9737	-0.0038
638.161	-0.0027
638.3484	0.0058
638.5357	0.0055
638.723	0.0009
638.9103	0.0125
639.0975	0.0168
639.2848	0.0076
639.472	0.0067
639.6592	0.0107
639.8464	0.0124
640.0336	0.0155
640.2208	0.0018
640.4079	-0.003
640.595	0.0063
640.7821	-0.0006
640.9692	0.009
641.1563	0.0082
641.3434	0.0077
641.5304	0.0099
641.7174	0.0066
641.9044	0.0056
642.0914	0.0122
642.2784	0.0044
642.4653	0.0121
642.6523	0.003
642.8392	0.0083
643.0261	-0.0001
643.213	0.008
643.3999	0.0033
643.5867	0.0091
643.7735	0.0076
643.9604	-0.0044
644.1472	0.0055
644.3339	0.0041
644.5207	0.0058
644.7075	0.0083
644.8942	0.0048
645.0809	0.0102
645.2676	0.0099
645.4543	0.0053
645.6409	0.0098
645.8276	0.0042
646.0142	0.0041
646.2008	-0.0014
646.3874	-0.0021
646.574	-0.0008
646.7605	-0.0065
646.9471	-0.0062
647.1336	0.0041
647.3201	0.0023
647.5066	-0.0042
647.6931	0.0109
647.8795	0.0037
648.0659	0.0111
648.2524	0.0086
648.4388	0.0004
648.6252	0.0054
648.8115	0.0007
648.9979	0.0029
649.1842	0.0034
649.3705	0.002
649.5568	0.0093
649.7431	0.004
649.9294	0
650.1156	0.0105
650.3018	-0.0062
650.488	0.0077
650.6742	0.0092
650.8604	0.0046
651.0466	-0.0003
651.2327	0.0044
651.4188	0.0048
651.6049	0.0018
651.791	0.0039
651.9771	0.0173
652.1632	0.0106
652.3492	0.003
652.5352	0.0054
652.7212	0.0011
652.9072	0.0078
653.0932	0.0081
653.2791	0.0021
653.465	0.0109
653.651	0.0025
653.8369	-0.002
654.0227	0.0038
654.2086	0.0037
654.3944	0.0108
654.5803	0.0072
654.7661	-0.0013
654.9519	0.0083
655.1377	0.0015
655.3234	0.004
655.5092	-0.0014
655.6949	-0.0029
655.8806	-0.0044
656.0663	0.0003
656.2519	0.0002
656.4376	0.0019
656.6232	0.0056
656.8088	0.0094
656.9945	0.0089
657.18	0.0036
657.3656	0.0005
657.5511	0.0046
657.7367	0.0014
657.9222	0.0087
658.1077	0.0091
658.2932	0.0002
658.4786	-0.0058
658.6641	-0.0039
658.8495	0.001
659.0349	0.0001
659.2203	0.0099
659.4057	-0.001
659.591	0.0066
659.7764	0.0009
659.9617	0.0066
660.147	0.0048
660.3323	0.007
660.5176	0.0149
660.7028	0.0127
660.888	0.0068
661.0733	0.0053
661.2585	0.0075
661.4436	0.0085
661.6288	0.0043
661.8139	0.0046
661.9991	0.0091
662.1842	-0.005
662.3693	0.0013
662.5544	-0.0015
662.7394	0.0057
662.9245	0.0001
663.1095	0.0024
663.2945	0.0053
663.4795	0.0013
663.6644	0.0013
663.8494	0.0026
664.0343	0.0112
664.2193	-0.0015
664.4042	0.0026
664.589	-0.0034
664.7739	0.0001
664.9587	-0.0086
665.1436	-0.0001
665.3284	-0.0014
665.5132	-0.0015
665.698	0.003
665.8827	0.0028
666.0675	0.0022
666.2522	-0.0048
666.4369	0.0117
666.6216	0.0082
666.8063	-0.0004
666.9909	0.0023
667.1756	-0.0028
667.3602	0.0031
667.5448	0.0031
667.7294	0.0114
667.9139	0.0094
668.0985	0.02
668.283	0.0084
668.4675	0.003
668.652	0.0086
668.8365	0.0075
669.0209	0.0137
669.2054	0.0143
669.3898	0.0057
669.5742	0.0124
669.7586	0.0103
669.943	0.0149
670.1273	0.0086
670.3117	0.0099
670.496	0.0185
670.6803	0.0136
670.8646	0.0104
671.0488	-0.0014
671.2331	0.006
671.4173	0.0121
671.6015	-0.0023
671.7857	0.0045
671.9699	0.006
672.1541	0.0129
672.3382	0.008
672.5223	0.0069
672.7064	0.0065
672.8905	0.0094
673.0746	0.0011
673.2587	0.0026
673.4427	0.0049
673.6267	0.0124
673.8107	0.013
673.9947	0.0104
674.1787	0.0017
674.3626	0.0076
674.5465	0.014
674.7304	0.0087
674.9143	0.0151
675.0982	0.01
675.2821	-0.0002
675.4659	0.0124
675.6497	0.0054
675.8335	0.0047
676.0173	0.002
676.2011	-0.0021
676.3849	0.0005
676.5686	-0.0017
676.7523	0.0026
676.936	0.0029
677.1197	0.0021
677.3034	0.0023
677.487	0.005
677.6706	0.0078
677.8542	0.0017
678.0378	0.0044
678.2214	0
678.405	0.0046
678.5885	-0.0052
678.772	0.0036
678.9555	0.0032
679.139	0.0003
679.3225	0.0098
679.5059	0.0037
679.6894	0.0102
679.8728	0.0109
680.0562	-0.0011
680.2395	0.0042
680.4229	-0.0032
680.6062	0.0067
680.7896	0.0015
680.9729	-0.0065
681.1562	0.0081
681.3394	-0.007
681.5227	-0.0088
681.7059	0.0035
681.8891	-0.0006
682.0723	0.0084
682.2555	0.0052
682.4387	-0.0039
682.6218	-0.004
682.805	0.006
682.9881	0.0085
683.1712	0.0054
683.3542	0.0004
683.5373	0.0038
683.7203	-0.0002
683.9034	0.0052
684.0864	-0.0034
684.2694	-0.0004
684.4523	0.0044
684.6353	-0.0068
684.8182	0.0071
685.0011	0.0003
685.184	0.0062
685.3669	0.0007
685.5498	0.0049
685.7326	0.0091
685.9154	-0.0018
686.0982	0.0126
686.281	0.0035
686.4638	0.002
686.6465	-0.0044
686.8293	-0.0008
687.012	0.0091
687.1947	-0.0054
687.3774	0.0074
687.56	-0.0078
687.7427	0.0027
687.9253	-0.0008
688.1079	0.0009
688.2905	0.0119
688.4731	0.0061
688.6556	0.0046
688.8382	0.0091
689.0207	0.0119
689.2032	-0.0074
689.3857	-0.0084
689.5681	0.002
689.7506	-0.0034
689.933	-0.0019
690.1154	-0.0025
690.2978	0.0014
690.4802	-0.0015
690.6626	-0.0096
690.8449	-0.0039
691.0272	0.0107
691.2095	-0.0032
691.3918	0.0051
691.5741	0.0038
691.7563	0.0019
691.9386	0.0048
692.1208	-0.0007
692.303	0.0045
692.4852	0.0004
692.6673	0.0046
692.8495	0.0014
693.0316	0.0064
693.2137	0.0002
693.3958	0.0119
693.5778	-0.0028
693.7599	0.0044
693.9419	0.0046
694.1239	0.007
694.3059	0.0023
694.4879	0.0097
694.6699	0.0118
694.8518	0.0031
695.0337	0.0044
695.2157	0.0117
695.3975	0.0048
695.5794	0.0073
695.7613	0.0046
695.9431	0.0022
696.1249	0.0081
696.3067	0.0022
696.4885	0.0104
696.6703	-0.0023
696.852	0.0063
697.0337	0.002
697.2154	0.0076
697.3971	0.008
697.5788	0.007
697.7605	-0.0021
697.9421	0.0135
698.1237	0.0119
698.3053	0.0038
698.4869	0.0028
698.6685	-0.001
698.85	0.0041
699.0315	0.0092
699.213	-0.0057
699.3945	0.0021
699.576	0.0075
699.7575	0.0031
699.9389	0.0106
700.1203	0.004
700.3017	-0.0103
700.4831	-0.0007
700.6645	0.0059
700.8458	0.0078
701.0271	0.0065
701.2084	0.0085
701.3897	0.0024
701.571	0.0064
701.7523	-0.0003
701.9335	0.0041
702.1147	0.0077
702.2959	0.0069
702.4771	0.0042
702.6583	0.0046
702.8394	0
703.0205	0.007
703.2016	-0.0015
703.3827	-0.0016
703.5638	0.01
703.7449	0.0062
703.9259	0.0103
704.1069	0.0015
704.2879	0.0098
704.4689	0.0092
704.6499	0.0058
704.8308	0.0077
705.0117	0.0003
705.1927	0.0073
705.3735	0.0035
705.5544	0.0002
705.7353	0.0031
705.9161	-0.0003
706.0969	-0.0059
706.2777	0
706.4585	-0.0016
706.6393	0.0029
706.82	0.0004
707.0007	0.0026
707.1815	0.004
707.3621	0.0027
707.5428	0.0035
707.7235	0.0036
707.9041	0.0021
708.0847	-0.0083
708.2653	-0.0015
708.4459	-0.0135
708.6265	-0.0064
708.807	-0.0118
708.9875	-0.0091
709.168	-0.0069
709.3485	-0.004
709.529	-0.0032
709.7095	-0.0189
709.8899	-0.0059
710.0703	-0.0103
710.2507	0.0027
710.4311	0.0002
710.6115	-0.0141
710.7918	-0.0027
710.9721	0.0073
711.1524	-0.01
711.3327	0.0047
711.513	-0.0065
711.6932	0.0001
711.8735	0.0066
712.0537	0.0033
712.2339	-0.0021
712.4141	-0.0023
712.5942	-0.0104
712.7744	-0.0013
712.9545	-0.0058
713.1346	-0.0058
713.3147	0.0007
713.4947	-0.0054
713.6748	-0.0043
713.8548	-0.0005
714.0348	-0.0008
714.2148	0.0004
714.3948	0.0137
714.5748	0.0019
714.7547	-0.0005
714.9346	0.0081
715.1145	-0.0052
715.2944	0.0006
715.4743	0.003
715.6541	0.0049
715.834	0.0118
716.0138	-0.0001
716.1936	-0.0086
716.3733	-0.0048
716.5531	0.0064
716.7328	0.0012
716.9126	-0.0083
717.0923	0.0012
717.2719	0.0006
717.4516	0.0031
717.6312	0.0071
717.8109	-0.0038
717.9905	-0.0081
718.1701	-0
718.3496	-0.0127
718.5292	0.0006
718.7087	0.0044
718.8882	0.0038
719.0677	-0.0032
719.2472	0.0042
719.4267	0.0061
719.6061	0.0019
719.7856	0.0054
719.965	0.0042
720.1443	-0.0032
720.3237	0.0118
720.5031	0.0077
720.6824	0.0111
720.8617	0.0015
721.041	0.0039
721.2203	0.0062
721.3995	0.0066
721.5788	0.0033
721.758	0.0097
721.9372	-0.0023
722.1164	0.0067
722.2956	0.004
722.4747	0.0116
722.6538	0.0036
722.8329	0.0097
723.012	0.0053
723.1911	-0.0034
723.3702	0.001
723.5492	0.0075
723.7282	-0.0018
723.9072	0.006
724.0862	-0.0009
724.2652	0.0017
724.4441	-0.0048
724.623	-0.0002
724.8019	-0.0032
724.9808	0.0064
725.1597	-0.0045
725.3385	0.0044
725.5174	0.0044
725.6962	-0.0012
725.875	0.0002
726.0538	0.0091
726.2325	0.0022
726.4112	0.0028
726.59	-0.0093
726.7687	-0.0039
726.9474	0.0078
727.126	-0.004
727.3047	-0.0054
727.4833	0.0016
727.6619	0.0004
727.8405	-0.0115
728.0191	-0.0011
728.1976	0.0024
728.3762	0.0058
728.5547	-0.0023
728.7332	-0.009
728.9116	0.0004
729.0901	0.0067
729.2686	-0.0023
729.447	0.0034
729.6254	-0.0028
729.8038	0.0087
729.9821	-0.0009
730.1605	0.0036
730.3388	-0.0008
730.5171	0.0057
730.6954	-0.0003
730.8737	0.0089
731.0519	0.0112
731.2302	0.0065
731.4084	0.0139
731.5866	0.0152
731.7648	-0.0024
731.9429	0.0023
732.1211	-0.0096
732.2992	0.003
732.4773	-0.0078
732.6554	0.0004
732.8335	0.0018
733.0115	-0.0011
733.1896	0.0104
733.3676	-0.002
733.5456	0.0052
733.7235	0.0047
733.9015	0.0051
734.0794	-0.0021
734.2574	0.0004
734.4353	0.0025
734.6131	0.0109
734.791	0.0051
734.9689	0.01
735.1467	0.0111
735.3245	-0.0057
735.5023	-0.0067
735.68	0.0011
735.8578	0.0056
736.0355	-0.0146
736.2132	-0.0093
736.3909	-0.0014
736.5686	-0.0009
736.7463	0.0067
736.9239	0.0035
737.1015	0.0051
737.2791	0.0076
737.4567	0.0058
737.6343	-0.0006
737.8118	0.0046
737.9894	0.0121
738.1669	-0.0068
738.3444	-0.003
738.5218	0.0001
738.6993	0.0094
738.8767	-0.002
739.0541	0.0113
739.2315	-0.0092
739.4089	0.011
739.5863	0.0011
739.7636	-0.0112
739.9409	0.0007
740.1182	0.0103
740.2955	0.0045
740.4728	0.001
740.65	-0.0102
740.8272	-0.0004
741.0044	-0.0075
741.1816	0.0045
741.3588	0.0002
741.5359	-0.0007
741.7131	-0.006
741.8902	0.0044
742.0673	0.0012
742.2444	-0.0063
742.4214	-0.0025
742.5985	0.0018
742.7755	0.0016
742.9525	-0.0148
743.1295	0.0015
743.3064	-0.0039
743.4834	0.0128
743.6603	0.0045
743.8372	0.008
744.0141	0.0087
744.191	0.0115
744.3678	0.0072
744.5446	0.0067
744.7215	0.015
744.8982	0.0064
745.075	0.0051
745.2518	0.0061
745.4285	0.0013
745.6052	0.0043
745.7819	-0.0025
745.9586	0.0019
746.1353	0.0045
746.3119	0.0023
746.4885	-0.0034
746.6651	-0.0011
746.8417	0.0027
747.0183	0.006
747.1948	0.0028
747.3714	0.009
747.5479	0.0016
747.7244	0
747.9008	0.0139
748.0773	0.0078
748.2537	0.0036
748.4301	-0.0083
748.6065	0.0127
748.7829	0.0056
748.9593	-0.0048
749.1356	-0.0021
749.3119	0.0046
749.4882	-0.007
749.6645	0.0049
749.8408	-0.0075
750.017	-0.0061
750.1933	0.004
750.3695	-0.0011
750.5457	0.0034
750.7218	0
750.898	0.0029
751.0741	0.0007
751.2502	-0.0017
751.4263	-0.0055
751.6024	0.0017
751.7784	0.0032
751.9545	-0.002
752.1305	-0.0079
752.3065	-0.0037
752.4825	0.0034
752.6584	0.0005
752.8344	0.0018
753.0103	-0.0116
753.1862	-0.0086
753.3621	-0.0008
753.5379	0.006
753.7138	0.0006
753.8896	0.0036
754.0654	0.009
754.2412	0.0164
754.417	0.0073
754.5927	-0.0038
754.7685	-0.0042
754.9442	0.0062
755.1199	0.0099
755.2956	0.001
755.4712	0.0118
755.6469	0.0086
755.8225	0.0037
755.9981	0.0035
756.1736	0.0035
756.3492	0.0121
756.5248	0.0014
756.7003	0.0028
756.8758	0.0064
757.0513	-0.0029
757.2267	-0
757.4022	0.0091
757.5776	0.0022
757.753	-0.005
757.9284	0.0065
758.1038	0.0089
758.2791	0.005
758.4545	-0.0085
758.6298	-0.0024
758.8051	0.0014
758.9803	0.0024
759.1556	-0.0065
759.3308	-0.0038
759.506	0.0124
759.6812	0.0086
759.8564	0.0057
760.0316	-0.0004
760.2067	0.0057
760.3819	0.0066
760.557	0.0119
760.732	0.0078
760.9071	0.0047
761.0821	0.0085
761.2572	0.0137
761.4322	-0.0017
761.6072	0.0018
761.7821	0.0044
761.9571	0.0127
762.132	-0.002
762.3069	-0.003
762.4818	0.0022
762.6567	0.0005
762.8316	0.0036
763.0064	-0.006
763.1812	-0.0036
763.356	0.0021
763.5308	-0.0009
763.7055	0.011
763.8803	-0.0023
764.055	0.0082
764.2297	-0.0056
764.4044	-0.0079
764.579	-0.009
764.7537	-0.0111
764.9283	0.0121
765.1029	-0.0023
765.2775	-0.0014
765.4521	-0.0073
765.6266	-0.0044
765.8011	-0.0109
765.9756	0.0037
766.1501	0.0096
766.3246	0.0082
766.4991	0.001
766.6735	0.0059
766.8479	-0.0049
767.0223	0.0139
767.1967	0.0029
767.371	0.0013
767.5454	0.0022
767.7197	0.0128
767.894	0.0025
768.0683	-0.0049
768.2425	0.0087
768.4168	0.0081
768.591	0.0043
768.7652	0.0003
768.9394	0.0044
769.1135	0.0089
769.2877	0.0144
769.4618	-0.0036
769.6359	0.0029
769.81	0.0003
769.984	-0.0037
770.1581	-0.002
770.3321	0.0015
770.5061	-0.0053
770.6801	-0.009
770.8541	0.0043
771.028	0
771.202	-0.0165
771.3759	-0.0046
771.5498	-0.003
771.7236	-0.0083
771.8975	0.0032
772.0713	0.0025
772.2451	-0.0016
772.4189	0.0119
772.5927	0.0113
772.7665	-0.0003
772.9402	0.0034
773.1139	0.0032
773.2876	-0.0142
773.4613	0.0029
773.635	0.0013
773.8086	0.0029
773.9822	0.0078
774.1558	0.0044
774.3294	-0.0026
774.503	0.0014
774.6765	0.0064
774.8501	-0.0019
775.0236	0.0103
775.1971	0.0125
775.3705	-0.0025
775.544	0.0138
775.7174	-0.0048
775.8908	0.0025
776.0642	0.0034
776.2376	0.0041
776.4109	-0.0077
776.5843	0.0067
776.7576	0.0081
776.9309	0.0147
777.1041	0.0092
777.2774	0.0043
777.4506	0.0036
777.6238	-0.0086
777.797	-0.0002
777.9702	-0.0069
778.1434	-0.0015
778.3165	-0.009
778.4896	-0.0027
778.6627	0.0061
778.8358	-0.0089
779.0089	-0.0009
779.1819	-0.0052
779.3549	0.0144
779.5279	0.0184
779.7009	0.0025
779.8739	-0.0106
780.0468	-0.0024
780.2197	0.005
780.3926	0.0092
780.5655	0.0131
780.7384	-0.0035
780.9112	0.0035
781.0841	0.0043
781.2569	0.0077
781.4297	0.0146
781.6024	0.0045
781.7752	-0.0036
781.9479	0.0162
782.1206	-0.0013
782.2933	-0.0074
782.466	0.0158
782.6386	-0.0006
782.8113	0.0119
782.9839	0.0037
783.1565	0.0091
783.329	-0.0061
783.5016	0.0094
783.6741	0.0048
783.8466	0.0006
784.0191	0.015
784.1916	-0.0066
784.3641	-0.0029
784.5365	-0.0022
784.7089	-0.0007
784.8813	-0.0106
785.0537	-0.0051
785.2261	-0.0122
785.3984	-0.0191
785.5707	-0.0066
785.743	-0.0084
785.9153	-0.0008
786.0876	0.0024
786.2598	-0.0068
786.432	-0.0147
786.6042	0.0056
786.7764	-0.0128
786.9486	-0.0047
787.1207	-0.016
787.2928	0.0125
787.4649	0.0057
787.637	0.0001
787.8091	-0.0079
787.9811	-0.0189
788.1532	0.0107
788.3252	0.0003
788.4972	-0.0111
788.6691	0.0003
788.8411	-0.0049
789.013	-0.0072
789.1849	0.0076
789.3568	-0.0035
789.5287	0.0014
789.7005	0.0044
789.8723	0.0049
790.0442	0.0118
790.2159	0.0049
790.3877	0.0017
790.5595	-0.012
790.7312	-0.0059
790.9029	-0.012
791.0746	-0.0185
791.2463	-0.0119
791.4179	-0.0056
791.5896	-0.0217
791.7612	-0.0032
791.9328	-0.0052
792.1044	-0.0049
792.2759	-0.019
792.4474	-0.0107
792.619	-0.0025
792.7905	0.0052
792.9619	0.0041
793.1334	0.0162
793.3048	0.008
793.4762	0.0146
793.6476	0.0007
793.819	-0.0069
793.9904	0.0066
794.1617	-0.0181
794.333	-0.0091
794.5043	-0.012
794.6756	-0.0092
794.8469	0.0017
795.0181	-0.0055
795.1893	0.0061
795.3605	0.0059
795.5317	-0.0111
795.7029	-0.0116
795.874	-0.0045
796.0452	-0.0156
796.2163	-0.0106
796.3873	-0.0025
796.5584	-0.0006
796.7294	-0.0086
796.9005	0.0182
797.0715	0.0013
797.2425	-0.0185
797.4134	-0.0146
797.5844	-0.0024
797.7553	-0.0167
797.9262	-0.0063
798.0971	-0.0082
798.2679	0.0006
798.4388	-0.0198
798.6096	-0.0073
798.7804	0.0142
798.9512	0.008
799.122	-0.0056
799.2927	0.0041
799.4635	-0.0012
799.6342	-0.0157
799.8049	-0.009
799.9755	-0.0005
800.1462	0.015
800.3168	0.0231
800.4874	0.0065
800.658	0.0088
800.8286	0.005
800.9991	0.0114
801.1696	0.0009
801.3402	0.0203
801.5106	-0.0032
801.6811	0.0003
801.8516	0.0198
802.022	0.0038
802.1924	0.0063
802.3628	0.0137
802.5332	0.0023
802.7035	0.0305
802.8739	-0.0068
803.0442	-0.0006
803.2145	0.0019
803.3847	-0.01
803.555	-0.002
803.7252	-0.0082
803.8954	-0.0141
804.0656	-0.0252
804.2358	-0.0008
804.4059	0.0105
804.5761	0.0077
804.7462	0.0065
804.9163	0.0021
805.0864	-0.0101
805.2564	0.0152
805.4264	0.0012
805.5965	-0.0109
805.7665	-0.0029
805.9364	-0.0046
806.1064	0.0182
806.2763	0.0046
806.4462	0.0149
806.6161	0.0207
806.786	0.0116
806.9559	0.0024
807.1257	-0.0027
807.2955	0.0039
807.4653	-0.0158
807.6351	-0.0134
807.8048	0.0046
807.9746	0.0015
808.1443	-0.0013
808.314	0.0088
808.4837	0.0032
808.6533	0.0107
808.8229	0.0258
808.9926	-0.0031
809.1622	0.0073
809.3317	0.0071
809.5013	0.0112
809.6708	-0.0052
809.8403	0.0124
810.0098	0.0014
810.1793	0.0119
810.3488	0.0016
810.5182	-0.0095
810.6876	0.0101
810.857	-0.0107
811.0264	0.0252
811.1958	0.005
811.3651	0.0038
811.5344	-0.003
811.7037	-0.011
811.873	-0.0116
812.0422	-0.0266
812.2115	-0.0007
812.3807	-0.0039
812.5499	0.0214
812.7191	0.0071
812.8882	-0.0094
813.0574	0.0009
813.2265	0.0103
813.3956	-0.0106
813.5646	0.0099
813.7337	-0.0217
813.9027	0.0281
814.0718	0.0066
814.2407	0.0093
814.4097	0.0049
814.5787	-0.0037
814.7476	0.0128
814.9165	-0.0232
815.0854	-0.006
815.2543	0.0109
815.4232	-0.0153
815.592	0.0148
815.7608	-0.0055
815.9296	0.0072
816.0984	0.0298
816.2671	-0.0034
816.4359	-0.0097
816.6046	-0.0122
816.7733	-0.0071
816.942	-0.0002
817.1106	0.0092
817.2793	0.0058
817.4479	0.0014
817.6165	0.0176
817.785	0.0241
817.9536	-0.006
818.1221	0.0043
818.2906	0.0027
818.4591	0.0074
818.6276	-0.0102
818.7961	0.0068
818.9645	0.0153
819.1329	0.0035
819.3013	0.035
819.4697	0.0066
819.638	-0.0053
819.8064	0.0154
819.9747	0.0068
820.143	0.007
820.3113	-0.0049
820.4795	0.003
820.6477	-0.0012
820.816	0.0037
820.9842	0.0081
821.1523	0.0049
821.3205	0.0066
821.4886	-0.0084
821.6567	0.0099
821.8248	0.048
821.9929	0.0163
822.1609	-0.0032
822.329	-0.0132
822.497	0.0232
822.665	-0.0127
822.833	-0.0079
823.0009	0.0058
823.1688	0.0158
823.3367	0.0118
823.5046	0.0307
823.6725	0.0302
823.8404	-0.0104
824.0082	0.0185
824.176	0.0241
824.3438	0.016
824.5116	-0.0227
824.6793	0.0127
824.847	0.0073
825.0147	-0.0182
825.1824	0.0212
825.3501	0.0146
825.5177	0.0051
825.6854	-0.0007
825.853	0.0112
826.0206	-0.0167
826.1881	0.0098
826.3557	-0.043
826.5232	-0.0105
826.6907	-0.0047
826.8582	-0.0167
827.0257	-0.0076
827.1931	-0.0175
827.3605	-0.0087
827.528	-0.0176
827.6953	-0.0214
827.8627	-0.0054
828.03	0.0419
828.1974	-0.0063
828.3647	-0.0214
828.532	0.0082
828.6992	0.0143
828.8665	0.0138
829.0337	-0.0063
829.2009	0.0527
829.3681	0.0147
829.5352	0.0263
829.7024	-0.0062
829.8695	-0.0424
830.0366	0.0494
830.2037	-0.0158
830.3707	0.0261
830.5378	-0.0196
830.7048	0.0002
830.8718	-0.0277
831.0388	-0.0166
831.2057	0.0323
831.3727	0.0492
831.5396	-0.011
831.7065	-0.0161
831.8734	0.0073
832.0402	-0.0313
832.2071	-0.0175
832.3739	-0.0355
832.5407	-0.0258
832.7075	-0.042
832.8742	0.0146
833.041	-0.0452
833.2077	0.0108
833.3744	-0.0074
833.541	-0.0186
833.7077	-0.0145
833.8743	-0.0252
834.0409	-0.0355
834.2075	0.0131
834.3741	-0.0237
834.5407	-0.0257
834.7072	0.0184
834.8737	-0.0486
835.0402	0.0043
835.2067	0.0168
835.3731	0.009
835.5395	-0.0136
835.706	0.0022
835.8723	0.0025
836.0387	-0.0464
836.2051	-0.0107
836.3714	-0.0072
836.5377	-0.0072
836.704	-0.0333
836.8703	0.0176
837.0365	-0.0026
837.2027	-0.0057
837.3689	0.0313
837.5351	-0.0181
837.7013	-0.0252
837.8674	-0.0168
838.0335	-0.0294
838.1997	-0.0164
838.3657	-0.0169
838.5318	-0.0182
838.6978	0.0655
838.8639	0.0523
839.0299	-0.0141
839.1958	0.0163
839.3618	0.0187
839.5277	-0.0498
839.6937	0.0163
839.8596	0.0123
840.0254	0.0259
840.1913	0.0087
840.3571	-0.0057
840.523	0.0177
840.6888	-0.0171
840.8545	-0.0175
841.0203	0.0065
841.186	-0.0005
841.3517	-0.0076
841.5174	0.0397
841.6831	-0.0005
841.8488	-0.0014
842.0144	0.0268
842.18	-0.0014
842.3456	0.0206
842.5112	-0.0175
842.6767	-0.029
842.8422	-0.0038
843.0077	-0.0417
843.1732	-0.0427
843.3387	-0.0498
843.5042	-0.0418
843.6696	-0.032
843.835	0.0192
844.0004	0.0203
844.1657	-0.0046
844.3311	-0.0936
844.4964	-0.0047
844.6617	-0.0675
844.827	-0.054
844.9923	0.0074
845.1575	-0.0066
845.3227	0.0005
845.4879	0.0296
845.6531	-0.0113
845.8183	-0.0288
845.9834	0.0043
846.1485	-0.0017
846.3136	0.02
846.4787	-0.1028
846.6438	0.0314
846.8088	-0.0998
846.9738	-0.0825
847.1388	-0.0803
847.3038	-0.0272
847.4687	-0.1701
847.6337	-0.0367
847.7986	0.021
847.9635	-0.0334
848.1284	0.0915
848.2932	0.0411
848.458	0.0235
848.6228	0.0205
848.7876	0.0875
848.9524	-0.0722
849.1172	-0.0835
849.2819	-0.0064
849.4466	-0.0605
849.6113	-0.0891
849.7759	-0.0091
849.9406	-0.0449
850.1052	0.0465
850.2698	-0.074
850.4344	0.023
850.599	-0.0194
850.7635	0.0467
850.928	-0.0877
851.0925	-0.0125
851.257	0.0475
851.4215	-0.0054
851.5859	-0.0449
851.7503	-0.0085
851.9147	0.0107
852.0791	-0.1247
852.2434	-0.0391
852.4078	0.048
852.5721	0.0256
852.7364	-0.0925
852.9007	-0.1464
853.0649	-0.024
853.2291	-0.0617
853.3934	-0.0082
853.5575	-0.0399
853.7217	-0.1063
853.8859	-0.2567
854.05	-0.056
854.2141	-0.0041
854.3782	-0.0497
854.5423	-0.0795
854.7063	0.1979
854.8703	0.1328
855.0343	-0.0142
855.1983	-0.2114
855.3623	0.1575
855.5262	0.0538
855.6901	-0.0604
855.854	-0.0536
856.0179	-0.0629
856.1818	0.0191
856.3456	-0.0762
856.5094	-0.0606
856.6732	0.02
856.837	-0.1021
857.0008	-0.0072
857.1645	-0.0281
857.3282	-0.109
857.4919	0.181
857.6556	0.0928
857.8192	-0.0052
857.9828	0.0336
858.1465	-0.0323
858.31	-0.1583
858.4736	-0.2086
858.6372	-0.2418
858.8007	-0.1282
858.9642	-0.0248
859.1277	0.0726
859.2911	0.0509
859.4546	0.1151
859.618	-0.4202
859.7814	0.1485
859.9448	0.0429
860.1081	0.0902
860.2715	0.0988
860.4348	0.1204
860.5981	-0.1315
860.7614	0.0616
860.9246	-0.1888
861.0879	-0.2499
861.2511	0.0468
861.4143	-0.2532
861.5774	0.1004
861.7406	-0.2295
861.9037	-0.0545
862.0668	-0.0537
862.2299	-0.0385
862.393	-0.4787
862.556	-0.0629
862.7191	-0.1521
862.8821	-0.2689
863.0451	0.2196
863.208	-0.0147
863.371	-0.098
863.5339	-0.039
863.6968	-0.0173
863.8597	-0
864.0225	-0.0208
864.1854	-0.2799
864.3482	0.361
864.511	0.3456
864.6737	0.0903
864.8365	-0.2429
864.9992	-0.3963
865.1619	-0.5489
865.3246	-0.1514
865.4873	-0.1874
865.65	-0.0785
865.8126	0.1007
865.9752	0.0482
866.1378	-0.2252
866.3004	0.817
866.4629	0.1553
866.6254	0.2834
866.7879	0.0447
866.9504	-0.4957
867.1129	-0
867.2753	-0.1595
867.4377	0.1678
867.6001	-0.3043
867.7625	-0.2919
867.9249	-0.6762
868.0872	0.6304
868.2495	0.0539
868.4118	0.1542
868.5741	-0.5938
868.7363	-0.3969
868.8986	-0.3509
869.0608	-0.0434
869.223	0.1864
869.3851	-0
869.5473	-0.08
869.7094	0.0981
869.8715	-0
870.0336	-0
870.1957	-0.6718
870.3577	-1.1878
870.5197	-0.1673
870.6817	0.4963
870.8437	-0.2061
871.0057	-0
871.1676	0.0652
871.3295	-0.1515
871.4914	-0
871.6533	-0.4176
871.8151	-0.4324
871.977	-0
872.1388	-0
872.3006	-0
872.4623	0.1484
872.6241	-0
872.7858	-0.223
872.9475	0.0774
873.1092	-0.2899
873.2709	0.5229
873.4325	-0.0532
873.5941	-0
873.7557	-0
873.9173	-0.6009
874.0789	-0.5931
874.2404	0.026
874.4019	1.211
874.5634	-0.34
874.7249	0.0327
874.8863	0.1051
875.0478	-0
875.2092	-0
875.3706	0.7558
875.5319	-0.7454
875.6933	0.4982
875.8546	-0.3057
876.0159	-0
876.1772	-0
876.3385	-0
876.4997	-0.0655
876.6609	-0.4717
876.8221	-0.1191
876.9833	-0
877.1445	0.4794
877.3056	-0.1389
877.4667	-0.5629
877.6278	-0
877.7889	-0.5113
877.9499	-0
878.111	-0.6804
878.272	-0.7879
878.433	-0
878.5939	-0
878.7549	-0
878.9158	-0.7454
879.0767	1.1225
879.2376	-0
879.3984	-0.1896
879.5593	-0
879.7201	-0.1879
879.8809	-0.7973
880.0417	0.0754
880.2024	-0.1923
880.3632	-0
880.5239	0.4126
880.6846	0.7043
880.8452	-2.5617
881.0059	-0.1761
881.1665	0.5881
881.3271	1.3153
881.4877	-0.5338
881.6483	-0.3392
881.8088	-0.3053
881.9693	-0
882.1298	-0
882.2903	-0
