Data from MonoPyChalIsomerACN10uM440nmA_Absorbance_15-27-12-594.txt Node
Date: Fri Jul 05 15:27:12 BST 2024
User: LASERRRRR
Spectrometer: FLMT03099
Trigger mode: 0
Integration Time (sec): 1.000000E-1
Scans to average: 1
Electric dark correction enabled: true
Nonlinearity correction enabled: false
Boxcar width: 0
XAxis mode: Wavelengths
Number of Pixels in Spectrum: 3648
>>>>>Begin Spectral Data<<<<<
179.3399	0.0411
179.5586	0.0411
179.7771	0.0411
179.9957	-0
180.2143	-0.1817
180.4329	-0.2475
180.6514	-0
180.8699	-0
181.0885	-0.0503
181.307	0.0493
181.5255	-0
181.744	-0
181.9625	-0.0741
182.181	-0
182.3994	-0
182.6179	-0
182.8363	-0.2227
183.0547	0.4437
183.2732	0.0971
183.4916	0.1824
183.71	0.1191
183.9284	0.2262
184.1467	0.1922
184.3651	-0.1212
184.5835	0.1227
184.8018	0.1375
185.0201	0.0723
185.2385	0.114
185.4568	0.27
185.6751	-0
185.8934	0.1471
186.1117	0.0337
186.3299	0.11
186.5482	0.2204
186.7664	-0.0063
186.9847	-0.1061
187.2029	0.3082
187.4211	0.0085
187.6393	0.0484
187.8575	0.1442
188.0757	0.4564
188.2939	0.1826
188.512	0.2354
188.7302	-0.0019
188.9483	0.2481
189.1665	0.2311
189.3846	-0.1521
189.6027	0.3567
189.8208	0.3784
190.0389	0.1225
190.257	0.3229
190.475	0.21
190.6931	0.4696
190.9111	0.6025
191.1292	0.1254
191.3472	0.9536
191.5652	0.2455
191.7832	0.2491
192.0012	0.6573
192.2192	0.7071
192.4371	0.6984
192.6551	0.4504
192.873	0.7583
193.091	0.4818
193.3089	0.5407
193.5268	0.5074
193.7447	0.6414
193.9626	0.7664
194.1805	0.5691
194.3984	0.785
194.6162	0.7144
194.8341	0.6035
195.0519	0.725
195.2697	0.7089
195.4875	0.8592
195.7054	0.6515
195.9231	0.5921
196.1409	0.8615
196.3587	0.6997
196.5765	0.5897
196.7942	0.6466
197.012	0.5481
197.2297	0.6601
197.4474	0.8092
197.6651	0.5158
197.8828	0.5552
198.1005	0.5058
198.3182	0.6274
198.5358	0.8501
198.7535	0.6508
198.9711	0.6481
199.1888	0.6429
199.4064	0.7495
199.624	0.6096
199.8416	0.6242
200.0592	0.6036
200.2767	0.6274
200.4943	0.6905
200.7119	0.8164
200.9294	0.7581
201.1469	0.5659
201.3645	0.7595
201.582	0.65
201.7995	0.7007
202.017	0.7924
202.2344	0.7098
202.4519	0.7962
202.6694	0.6033
202.8868	0.607
203.1042	0.7331
203.3217	0.9049
203.5391	0.5934
203.7565	0.5986
203.9739	0.6877
204.1913	0.6631
204.4086	0.7373
204.626	0.6401
204.8433	0.6729
205.0607	0.6433
205.278	0.6998
205.4953	0.709
205.7126	0.7094
205.9299	0.7971
206.1472	0.7039
206.3644	0.7098
206.5817	0.7946
206.7989	0.779
207.0162	0.6666
207.2334	0.7517
207.4506	0.6762
207.6678	0.668
207.885	0.6692
208.1022	0.7119
208.3194	0.7423
208.5365	0.6877
208.7537	0.6743
208.9708	0.6629
209.1879	0.6914
209.405	0.7696
209.6222	0.7887
209.8392	0.6751
210.0563	0.63
210.2734	0.6451
210.4905	0.6712
210.7075	0.623
210.9245	0.6162
211.1416	0.6497
211.3586	0.6399
211.5756	0.5975
211.7926	0.6328
212.0096	0.6492
212.2265	0.575
212.4435	0.5451
212.6604	0.667
212.8774	0.5868
213.0943	0.6346
213.3112	0.5764
213.5281	0.5307
213.745	0.4963
213.9619	0.5184
214.1788	0.5122
214.3956	0.4407
214.6125	0.4497
214.8293	0.4125
215.0461	0.4474
215.2629	0.4748
215.4798	0.5221
215.6965	0.4477
215.9133	0.4297
216.1301	0.4579
216.3469	0.4515
216.5636	0.4196
216.7803	0.3784
216.9971	0.4368
217.2138	0.3843
217.4305	0.3837
217.6472	0.3698
217.8639	0.3954
218.0805	0.3464
218.2972	0.3241
218.5138	0.3229
218.7305	0.3095
218.9471	0.3421
219.1637	0.2824
219.3803	0.2881
219.5969	0.2864
219.8135	0.2836
220.0301	0.2889
220.2466	0.2558
220.4632	0.2585
220.6797	0.2545
220.8962	0.2456
221.1127	0.2328
221.3292	0.2638
221.5457	0.2437
221.7622	0.2258
221.9787	0.2565
222.1951	0.2662
222.4116	0.2583
222.628	0.2434
222.8444	0.2746
223.0608	0.2615
223.2772	0.2567
223.4936	0.2812
223.71	0.2479
223.9264	0.2786
224.1427	0.2471
224.3591	0.2528
224.5754	0.2775
224.7917	0.2599
225.008	0.2777
225.2243	0.2408
225.4406	0.2852
225.6569	0.2692
225.8732	0.2663
226.0894	0.2466
226.3057	0.2519
226.5219	0.2872
226.7381	0.2699
226.9543	0.3015
227.1705	0.2781
227.3867	0.2672
227.6029	0.3321
227.8191	0.3087
228.0352	0.3001
228.2513	0.3016
228.4675	0.3101
228.6836	0.2934
228.8997	0.3189
229.1158	0.3149
229.3319	0.3167
229.548	0.3203
229.764	0.3187
229.9801	0.3171
230.1961	0.3168
230.4121	0.3279
230.6282	0.3264
230.8442	0.3376
231.0602	0.3518
231.2761	0.3567
231.4921	0.3499
231.7081	0.3489
231.924	0.3349
232.14	0.3599
232.3559	0.3473
232.5718	0.3663
232.7877	0.3453
233.0036	0.3552
233.2195	0.3675
233.4353	0.3651
233.6512	0.388
233.867	0.3571
234.0829	0.3505
234.2987	0.3667
234.5145	0.3725
234.7303	0.3768
234.9461	0.3899
235.1619	0.385
235.3776	0.3876
235.5934	0.3851
235.8091	0.3745
236.0249	0.3722
236.2406	0.3878
236.4563	0.3859
236.672	0.3937
236.8877	0.3959
237.1034	0.4007
237.319	0.3938
237.5347	0.4206
237.7503	0.3923
237.966	0.4203
238.1816	0.4133
238.3972	0.4103
238.6128	0.3831
238.8284	0.4158
239.0439	0.4142
239.2595	0.3975
239.475	0.4346
239.6906	0.4075
239.9061	0.4051
240.1216	0.3924
240.3371	0.4174
240.5526	0.4109
240.7681	0.4118
240.9836	0.3867
241.199	0.4205
241.4145	0.3905
241.6299	0.3657
241.8453	0.3916
242.0607	0.3871
242.2761	0.3693
242.4915	0.3724
242.7069	0.361
242.9223	0.348
243.1376	0.3491
243.353	0.3231
243.5683	0.3495
243.7836	0.315
243.9989	0.3273
244.2142	0.3092
244.4295	0.3042
244.6448	0.2976
244.86	0.3009
245.0753	0.2861
245.2905	0.2756
245.5057	0.2787
245.721	0.2715
245.9362	0.2616
246.1514	0.2598
246.3665	0.2672
246.5817	0.2526
246.7969	0.2546
247.012	0.2429
247.2271	0.2384
247.4423	0.2521
247.6574	0.2366
247.8725	0.2392
248.0876	0.233
248.3026	0.2285
248.5177	0.2155
248.7328	0.202
248.9478	0.2036
249.1628	0.2197
249.3779	0.2091
249.5929	0.1977
249.8079	0.2111
250.0228	0.1994
250.2378	0.2074
250.4528	0.2074
250.6677	0.1955
250.8827	0.1965
251.0976	0.1913
251.3125	0.1866
251.5274	0.1776
251.7423	0.1796
251.9572	0.1842
252.172	0.1781
252.3869	0.1905
252.6017	0.1761
252.8166	0.1718
253.0314	0.162
253.2462	0.1707
253.461	0.1713
253.6758	0.1571
253.8906	0.1893
254.1053	0.1722
254.3201	0.1633
254.5348	0.1793
254.7496	0.1761
254.9643	0.1565
255.179	0.153
255.3937	0.1614
255.6083	0.1704
255.823	0.1766
256.0377	0.1581
256.2523	0.1676
256.467	0.1528
256.6816	0.1738
256.8962	0.1651
257.1108	0.1639
257.3254	0.174
257.54	0.1571
257.7545	0.1715
257.9691	0.1762
258.1836	0.1645
258.3981	0.1734
258.6127	0.171
258.8272	0.1543
259.0417	0.1687
259.2561	0.1633
259.4706	0.165
259.6851	0.1564
259.8995	0.1588
260.114	0.1591
260.3284	0.1689
260.5428	0.1451
260.7572	0.1637
260.9716	0.1692
261.186	0.1573
261.4003	0.1651
261.6147	0.1668
261.829	0.1789
262.0433	0.1561
262.2577	0.168
262.472	0.1742
262.6863	0.166
262.9005	0.1645
263.1148	0.1658
263.3291	0.1457
263.5433	0.153
263.7576	0.1498
263.9718	0.1722
264.186	0.16
264.4002	0.1527
264.6144	0.1554
264.8286	0.1721
265.0427	0.1618
265.2569	0.1709
265.471	0.1458
265.6851	0.1553
265.8993	0.1632
266.1134	0.1612
266.3275	0.1574
266.5415	0.1591
266.7556	0.1558
266.9697	0.1548
267.1837	0.1633
267.3978	0.1598
267.6118	0.171
267.8258	0.1727
268.0398	0.1358
268.2538	0.162
268.4677	0.1668
268.6817	0.1557
268.8957	0.1628
269.1096	0.15
269.3235	0.1611
269.5374	0.1517
269.7514	0.157
269.9652	0.1483
270.1791	0.1511
270.393	0.139
270.6068	0.1478
270.8207	0.1411
271.0345	0.147
271.2483	0.1613
271.4622	0.1471
271.676	0.1562
271.8897	0.1403
272.1035	0.1436
272.3173	0.1437
272.531	0.1431
272.7448	0.1414
272.9585	0.1277
273.1722	0.1457
273.3859	0.1488
273.5996	0.1376
273.8133	0.1444
274.0269	0.1326
274.2406	0.1434
274.4542	0.1413
274.6679	0.1204
274.8815	0.1322
275.0951	0.1535
275.3087	0.1452
275.5223	0.1361
275.7358	0.1417
275.9494	0.1368
276.1629	0.1467
276.3765	0.1427
276.59	0.1499
276.8035	0.1409
277.017	0.1339
277.2305	0.1315
277.444	0.1439
277.6574	0.133
277.8709	0.1479
278.0843	0.1406
278.2978	0.1362
278.5112	0.1422
278.7246	0.1436
278.938	0.1463
279.1513	0.1463
279.3647	0.1383
279.5781	0.1361
279.7914	0.144
280.0047	0.1568
280.2181	0.1477
280.4314	0.1599
280.6447	0.1407
280.8579	0.1376
281.0712	0.1617
281.2845	0.1573
281.4977	0.1579
281.711	0.1403
281.9242	0.1433
282.1374	0.1404
282.3506	0.1484
282.5638	0.1543
282.7769	0.1563
282.9901	0.1541
283.2033	0.1516
283.4164	0.163
283.6295	0.1359
283.8426	0.1412
284.0557	0.1637
284.2688	0.1579
284.4819	0.1613
284.695	0.1622
284.908	0.1644
285.1211	0.1398
285.3341	0.1485
285.5471	0.1521
285.7601	0.1508
285.9731	0.1523
286.1861	0.1453
286.3991	0.1614
286.612	0.1684
286.825	0.1584
287.0379	0.1604
287.2508	0.1548
287.4637	0.1564
287.6766	0.1531
287.8895	0.1641
288.1024	0.1788
288.3152	0.17
288.5281	0.1627
288.7409	0.1588
288.9538	0.1638
289.1666	0.1554
289.3794	0.157
289.5922	0.1674
289.8049	0.1741
290.0177	0.1632
290.2304	0.1729
290.4432	0.1589
290.6559	0.1603
290.8686	0.1668
291.0813	0.1599
291.294	0.1679
291.5067	0.1678
291.7194	0.1731
291.932	0.1741
292.1447	0.1673
292.3573	0.1557
292.5699	0.1608
292.7825	0.1721
292.9951	0.1608
293.2077	0.1653
293.4203	0.168
293.6328	0.1523
293.8454	0.1765
294.0579	0.1645
294.2704	0.1601
294.4829	0.1586
294.6954	0.1657
294.9079	0.1622
295.1204	0.1643
295.3328	0.1647
295.5453	0.1777
295.7577	0.1589
295.9701	0.1644
296.1825	0.1729
296.3949	0.158
296.6073	0.1751
296.8197	0.1725
297.0321	0.1756
297.2444	0.1545
297.4567	0.1668
297.6691	0.1743
297.8814	0.1573
298.0937	0.1616
298.306	0.1715
298.5182	0.1621
298.7305	0.1748
298.9428	0.1653
299.155	0.1723
299.3672	0.16
299.5794	0.1637
299.7916	0.1638
300.0038	0.1725
300.216	0.1663
300.4282	0.1712
300.6403	0.1611
300.8525	0.1754
301.0646	0.1583
301.2767	0.1808
301.4888	0.1663
301.7009	0.1723
301.913	0.1642
302.125	0.1644
302.3371	0.1632
302.5491	0.1597
302.7612	0.1781
302.9732	0.1689
303.1852	0.1671
303.3972	0.1726
303.6092	0.1657
303.8211	0.1582
304.0331	0.1524
304.245	0.1629
304.457	0.1605
304.6689	0.1582
304.8808	0.1693
305.0927	0.1538
305.3046	0.1554
305.5164	0.1617
305.7283	0.1531
305.9401	0.1514
306.152	0.1495
306.3638	0.1607
306.5756	0.1479
306.7874	0.1442
306.9992	0.139
307.2109	0.1363
307.4227	0.1347
307.6344	0.1346
307.8462	0.135
308.0579	0.1323
308.2696	0.1385
308.4813	0.1391
308.693	0.1296
308.9046	0.1331
309.1163	0.133
309.328	0.1273
309.5396	0.1212
309.7512	0.1265
309.9628	0.1213
310.1744	0.1226
310.386	0.122
310.5976	0.1153
310.8091	0.1113
311.0207	0.116
311.2322	0.1116
311.4437	0.1132
311.6552	0.1118
311.8667	0.1142
312.0782	0.0998
312.2897	0.1028
312.5012	0.1125
312.7126	0.0989
312.924	0.0994
313.1355	0.1071
313.3469	0.0999
313.5583	0.103
313.7696	0.1074
313.981	0.1069
314.1924	0.0993
314.4037	0.1001
314.6151	0.1037
314.8264	0.0944
315.0377	0.0952
315.249	0.1061
315.4603	0.1032
315.6716	0.1019
315.8828	0.0859
316.0941	0.0954
316.3053	0.0974
316.5165	0.1039
316.7277	0.0846
316.9389	0.1132
317.1501	0.0939
317.3613	0.1054
317.5724	0.0788
317.7836	0.1006
317.9947	0.082
318.2058	0.0999
318.417	0.0808
318.6281	0.0887
318.8391	0.0993
319.0502	0.0916
319.2613	0.0884
319.4723	0.0918
319.6834	0.0916
319.8944	0.0947
320.1054	0.1056
320.3164	0.1
320.5274	0.0877
320.7383	0.0847
320.9493	0.0881
321.1602	0.1088
321.3712	0.0855
321.5821	0.1063
321.793	0.0872
322.0039	0.095
322.2148	0.0882
322.4257	0.0993
322.6365	0.1001
322.8474	0.0979
323.0582	0.0967
323.269	0.0851
323.4798	0.1038
323.6906	0.1006
323.9014	0.0949
324.1122	0.0837
324.3229	0.0863
324.5337	0.0993
324.7444	0.086
324.9551	0.1059
325.1658	0.0915
325.3765	0.0926
325.5872	0.1047
325.7979	0.097
326.0085	0.0921
326.2192	0.1013
326.4298	0.1007
326.6404	0.1007
326.851	0.0923
327.0616	0.0969
327.2722	0.104
327.4828	0.1005
327.6933	0.0941
327.9039	0.1093
328.1144	0.1058
328.3249	0.1021
328.5354	0.0936
328.7459	0.0991
328.9564	0.0842
329.1669	0.1042
329.3773	0.1016
329.5878	0.1027
329.7982	0.1032
330.0086	0.102
330.219	0.1074
330.4294	0.0956
330.6398	0.0951
330.8502	0.0957
331.0605	0.0987
331.2708	0.1109
331.4812	0.105
331.6915	0.1002
331.9018	0.0944
332.1121	0.1069
332.3224	0.0991
332.5326	0.1051
332.7429	0.0953
332.9531	0.109
333.1633	0.1069
333.3735	0.1059
333.5837	0.1049
333.7939	0.1075
334.0041	0.1167
334.2143	0.1162
334.4244	0.1027
334.6346	0.0936
334.8447	0.1197
335.0548	0.1006
335.2649	0.1
335.475	0.1031
335.685	0.103
335.8951	0.1174
336.1051	0.1101
336.3152	0.1052
336.5252	0.0983
336.7352	0.1137
336.9452	0.1205
337.1552	0.1053
337.3652	0.1028
337.5751	0.1104
337.7851	0.1081
337.995	0.0944
338.2049	0.1109
338.4148	0.1204
338.6247	0.1165
338.8346	0.1073
339.0445	0.0974
339.2543	0.1167
339.4642	0.1065
339.674	0.0894
339.8838	0.1136
340.0936	0.117
340.3034	0.1192
340.5132	0.1179
340.7229	0.114
340.9327	0.1075
341.1424	0.1186
341.3522	0.1101
341.5619	0.1102
341.7716	0.1283
341.9813	0.126
342.1909	0.107
342.4006	0.1199
342.6102	0.1375
342.8199	0.1214
343.0295	0.1294
343.2391	0.1164
343.4487	0.1187
343.6583	0.1148
343.8679	0.1151
344.0774	0.1221
344.287	0.1363
344.4965	0.1212
344.706	0.1228
344.9155	0.1226
345.125	0.125
345.3345	0.1287
345.544	0.1239
345.7534	0.1245
345.9629	0.1115
346.1723	0.1231
346.3817	0.1239
346.5911	0.1247
346.8005	0.1372
347.0099	0.1257
347.2193	0.1329
347.4286	0.1116
347.638	0.1299
347.8473	0.1377
348.0566	0.1406
348.2659	0.1301
348.4752	0.1316
348.6845	0.1313
348.8937	0.1291
349.103	0.147
349.3122	0.1262
349.5214	0.1233
349.7306	0.1411
349.9398	0.1304
350.149	0.1415
350.3582	0.1264
350.5674	0.1477
350.7765	0.1397
350.9856	0.1334
351.1948	0.1383
351.4039	0.1293
351.613	0.1396
351.822	0.143
352.0311	0.1432
352.2402	0.1528
352.4492	0.1581
352.6582	0.1507
352.8672	0.1416
353.0762	0.1486
353.2852	0.1397
353.4942	0.1398
353.7032	0.1452
353.9121	0.1568
354.1211	0.1379
354.33	0.1453
354.5389	0.1459
354.7478	0.1436
354.9567	0.1448
355.1655	0.1408
355.3744	0.1529
355.5833	0.1558
355.7921	0.1628
356.0009	0.1478
356.2097	0.1672
356.4185	0.1676
356.6273	0.1613
356.8361	0.1578
357.0448	0.1516
357.2536	0.1608
357.4623	0.1489
357.671	0.1651
357.8797	0.1704
358.0884	0.1707
358.2971	0.1569
358.5057	0.1711
358.7144	0.1704
358.923	0.1557
359.1316	0.1728
359.3402	0.1788
359.5488	0.1582
359.7574	0.1622
359.966	0.1796
360.1746	0.1681
360.3831	0.1657
360.5916	0.1717
360.8002	0.163
361.0087	0.1875
361.2172	0.1886
361.4256	0.165
361.6341	0.1824
361.8426	0.1933
362.051	0.1835
362.2594	0.185
362.4678	0.1778
362.6762	0.1943
362.8846	0.1865
363.093	0.182
363.3014	0.1837
363.5097	0.1733
363.718	0.1923
363.9264	0.2067
364.1347	0.1882
364.343	0.1947
364.5513	0.1921
364.7595	0.205
364.9678	0.2011
365.176	0.1982
365.3842	0.1888
365.5925	0.1915
365.8007	0.2048
366.0089	0.1973
366.217	0.1976
366.4252	0.2183
366.6333	0.2172
366.8415	0.2048
367.0496	0.1991
367.2577	0.218
367.4658	0.217
367.6739	0.2173
367.882	0.228
368.09	0.2139
368.2981	0.2249
368.5061	0.2042
368.7141	0.206
368.9221	0.228
369.1301	0.2019
369.3381	0.2117
369.5461	0.2218
369.754	0.2152
369.962	0.2266
370.1699	0.2208
370.3778	0.2283
370.5857	0.2065
370.7936	0.2287
371.0015	0.2309
371.2093	0.2467
371.4172	0.2318
371.625	0.2122
371.8328	0.2161
372.0406	0.2161
372.2484	0.2178
372.4562	0.2232
372.664	0.2253
372.8717	0.2459
373.0795	0.2117
373.2872	0.2243
373.4949	0.2185
373.7026	0.2287
373.9103	0.2337
374.118	0.2297
374.3256	0.2211
374.5333	0.2283
374.7409	0.2436
374.9485	0.2562
375.1561	0.2426
375.3637	0.2417
375.5713	0.2403
375.7789	0.2456
375.9864	0.248
376.194	0.2609
376.4015	0.2466
376.609	0.2468
376.8165	0.2629
377.024	0.2525
377.2315	0.2372
377.4389	0.2544
377.6464	0.2539
377.8538	0.2441
378.0612	0.2282
378.2686	0.2464
378.476	0.2661
378.6834	0.2613
378.8908	0.2402
379.0981	0.255
379.3055	0.2546
379.5128	0.2512
379.7201	0.2611
379.9274	0.2579
380.1347	0.2537
380.342	0.2797
380.5492	0.2468
380.7565	0.25
380.9637	0.2536
381.1709	0.2675
381.3781	0.2583
381.5853	0.2694
381.7925	0.2543
381.9997	0.2665
382.2068	0.2754
382.4139	0.2594
382.6211	0.2562
382.8282	0.2695
383.0353	0.2476
383.2424	0.277
383.4494	0.2813
383.6565	0.2672
383.8635	0.2479
384.0706	0.2672
384.2776	0.2548
384.4846	0.232
384.6916	0.2507
384.8986	0.2748
385.1055	0.2715
385.3125	0.2694
385.5194	0.2632
385.7263	0.2742
385.9333	0.2688
386.1402	0.2646
386.347	0.2597
386.5539	0.2605
386.7608	0.2749
386.9676	0.2438
387.1744	0.2611
387.3813	0.2522
387.5881	0.2621
387.7948	0.2581
388.0016	0.2572
388.2084	0.2716
388.4151	0.2571
388.6219	0.2735
388.8286	0.258
389.0353	0.2607
389.242	0.2877
389.4487	0.2622
389.6553	0.2571
389.862	0.244
390.0686	0.2499
390.2753	0.2572
390.4819	0.2625
390.6885	0.2498
390.8951	0.2546
391.1016	0.242
391.3082	0.2545
391.5147	0.2464
391.7213	0.2585
391.9278	0.2444
392.1343	0.2398
392.3408	0.2327
392.5473	0.2626
392.7537	0.2379
392.9602	0.2397
393.1666	0.2316
393.373	0.2367
393.5794	0.2329
393.7858	0.2342
393.9922	0.2247
394.1986	0.2493
394.4049	0.2381
394.6113	0.2185
394.8176	0.2251
395.0239	0.2353
395.2302	0.2211
395.4365	0.2121
395.6428	0.235
395.8491	0.221
396.0553	0.2365
396.2615	0.2292
396.4678	0.2381
396.674	0.223
396.8802	0.2255
397.0863	0.243
397.2925	0.2262
397.4987	0.2222
397.7048	0.2136
397.9109	0.2248
398.117	0.2153
398.3231	0.2242
398.5292	0.2188
398.7353	0.223
398.9413	0.2108
399.1474	0.2223
399.3534	0.2228
399.5594	0.2103
399.7654	0.2497
399.9714	0.2331
400.1774	0.2387
400.3833	0.2151
400.5893	0.2171
400.7952	0.2208
401.0011	0.2307
401.207	0.2413
401.4129	0.2095
401.6188	0.2247
401.8247	0.2278
402.0305	0.2197
402.2364	0.2268
402.4422	0.2399
402.648	0.2243
402.8538	0.2338
403.0596	0.2049
403.2654	0.2243
403.4711	0.217
403.6768	0.2154
403.8826	0.224
404.0883	0.2303
404.294	0.2246
404.4997	0.2182
404.7054	0.2205
404.911	0.2095
405.1167	0.2061
405.3223	0.2359
405.5279	0.2362
405.7335	0.2272
405.9391	0.2236
406.1447	0.2133
406.3502	0.2278
406.5558	0.2217
406.7613	0.2379
406.9668	0.2172
407.1724	0.2217
407.3778	0.2205
407.5833	0.2154
407.7888	0.2107
407.9942	0.2466
408.1997	0.214
408.4051	0.2216
408.6105	0.2339
408.8159	0.2105
409.0213	0.2042
409.2267	0.2307
409.432	0.2003
409.6374	0.2304
409.8427	0.2159
410.048	0.224
410.2533	0.2287
410.4586	0.2181
410.6639	0.2066
410.8691	0.2034
411.0744	0.2189
411.2796	0.2254
411.4848	0.212
411.69	0.2127
411.8952	0.2533
412.1004	0.2125
412.3056	0.2114
412.5107	0.2082
412.7158	0.2256
412.921	0.2196
413.1261	0.2282
413.3312	0.2115
413.5362	0.1996
413.7413	0.2175
413.9464	0.1864
414.1514	0.2084
414.3564	0.2106
414.5614	0.2068
414.7664	0.2032
414.9714	0.2015
415.1764	0.2203
415.3813	0.2198
415.5863	0.2179
415.7912	0.207
415.9961	0.2074
416.201	0.2241
416.4059	0.2225
416.6108	0.2077
416.8156	0.2244
417.0205	0.2199
417.2253	0.1981
417.4301	0.2102
417.6349	0.2179
417.8397	0.1935
418.0445	0.2198
418.2492	0.224
418.454	0.201
418.6587	0.2187
418.8634	0.2126
419.0681	0.2025
419.2728	0.1971
419.4775	0.2035
419.6822	0.1969
419.8868	0.1835
420.0915	0.1998
420.2961	0.1902
420.5007	0.2014
420.7053	0.2157
420.9099	0.2062
421.1144	0.2061
421.319	0.1819
421.5235	0.2057
421.728	0.201
421.9325	0.1999
422.137	0.2181
422.3415	0.1963
422.546	0.1918
422.7504	0.1985
422.9549	0.1924
423.1593	0.2217
423.3637	0.2268
423.5681	0.1988
423.7725	0.1797
423.9769	0.1759
424.1812	0.183
424.3856	0.1699
424.5899	0.1866
424.7942	0.1839
424.9985	0.1888
425.2028	0.1791
425.4071	0.2038
425.6113	0.1713
425.8156	0.1917
426.0198	0.1847
426.224	0.1732
426.4282	0.1864
426.6324	0.1821
426.8366	0.1783
427.0407	0.1766
427.2449	0.1664
427.449	0.1703
427.6531	0.1478
427.8572	0.182
428.0613	0.1739
428.2654	0.1713
428.4694	0.1703
428.6735	0.1768
428.8775	0.1735
429.0815	0.1728
429.2855	0.1513
429.4895	0.1607
429.6935	0.1693
429.8975	0.1501
430.1014	0.1463
430.3053	0.1441
430.5093	0.1526
430.7132	0.1482
430.9171	0.1439
431.1209	0.1526
431.3248	0.1436
431.5286	0.1472
431.7325	0.1439
431.9363	0.1475
432.1401	0.1416
432.3439	0.1402
432.5477	0.1281
432.7514	0.1296
432.9552	0.1266
433.1589	0.1134
433.3627	0.123
433.5664	0.1424
433.7701	0.1189
433.9737	0.1248
434.1774	0.1171
434.3811	0.1161
434.5847	0.1209
434.7883	0.1197
434.9919	0.1183
435.1955	0.1181
435.3991	0.1065
435.6027	0.1072
435.8062	0.1143
436.0098	0.1052
436.2133	0.1108
436.4168	0.1091
436.6203	0.104
436.8238	0.1178
437.0272	0.098
437.2307	0.1043
437.4341	0.1076
437.6375	0.1276
437.841	0.0955
438.0443	0.0929
438.2477	0.0985
438.4511	0.0793
438.6545	0.0979
438.8578	0.101
439.0611	0.0948
439.2644	0.0773
439.4677	0.0742
439.671	0.0809
439.8743	0.0801
440.0775	0.0847
440.2808	0.0844
440.484	0.0792
440.6872	0.0621
440.8904	0.0657
441.0936	0.0961
441.2967	0.0722
441.4999	0.0792
441.703	0.0538
441.9062	0.0697
442.1093	0.0738
442.3124	0.068
442.5155	0.0518
442.7185	0.0708
442.9216	0.0433
443.1246	0.0659
443.3276	0.055
443.5307	0.0665
443.7337	0.0553
443.9366	0.0571
444.1396	0.0553
444.3426	0.0554
444.5455	0.0665
444.7484	0.0506
444.9513	0.0585
445.1542	0.0723
445.3571	0.0556
445.56	0.0533
445.7628	0.04
445.9657	0.0397
446.1685	0.0565
446.3713	0.0455
446.5741	0.044
446.7769	0.0404
446.9797	0.0496
447.1824	0.0391
447.3852	0.0382
447.5879	0.0491
447.7906	0.0525
447.9933	0.0395
448.196	0.0302
448.3986	0.0358
448.6013	0.034
448.8039	0.0252
449.0066	0.0286
449.2092	0.0486
449.4118	0.0483
449.6143	0.0355
449.8169	0.0287
450.0195	0.0318
450.222	0.0187
450.4245	0.0307
450.627	0.0402
450.8295	0.0349
451.032	0.0298
451.2345	0.0408
451.4369	0.0319
451.6394	0.0423
451.8418	0.0056
452.0442	0.0291
452.2466	0.0236
452.449	0.013
452.6513	0.0288
452.8537	0.0125
453.056	0.0176
453.2583	0.0225
453.4607	0.0063
453.663	0.0251
453.8652	0.0301
454.0675	0.0152
454.2697	0.025
454.472	0.0023
454.6742	0.0187
454.8764	0.0227
455.0786	0.022
455.2808	0.0195
455.4829	0.014
455.6851	0.0326
455.8872	0.0159
456.0893	0.0235
456.2915	0.0001
456.4935	0.0318
456.6956	0.0052
456.8977	0.0324
457.0997	0.0119
457.3018	-0.0001
457.5038	0.0189
457.7058	0.0105
457.9078	0.0068
458.1098	0.0245
458.3117	0.0241
458.5137	0.0226
458.7156	0.0196
458.9175	0.0029
459.1194	0.0037
459.3213	0.0109
459.5232	0.0164
459.725	-0.0042
459.9269	0.0039
460.1287	0.0084
460.3305	0.0056
460.5323	0.0154
460.7341	-0.0159
460.9359	0.0003
461.1376	0.0076
461.3394	-0.0063
461.5411	0.0055
461.7428	0.0017
461.9445	0.0177
462.1462	0.0173
462.3479	-0.005
462.5495	0.0048
462.7512	0.0048
462.9528	-0.0094
463.1544	-0.0084
463.356	0.0169
463.5576	0.0162
463.7592	0.0074
463.9607	0.0047
464.1623	0.0161
464.3638	0.007
464.5653	-0.0012
464.7668	-0.0042
464.9683	0.0114
465.1697	0.0124
465.3712	0.0027
465.5726	-0.0044
465.7741	0.0038
465.9755	0.0043
466.1769	-0.013
466.3782	-0.0033
466.5796	0.0021
466.7809	0.007
466.9823	-0.0208
467.1836	0.0077
467.3849	-0.0071
467.5862	0.0063
467.7875	0.0025
467.9887	0.0123
468.19	0.0143
468.3912	-0.0081
468.5924	-0.0162
468.7936	0.0041
468.9948	-0.0039
469.196	0.0048
469.3972	-0.0143
469.5983	0.0044
469.7994	-0.0144
470.0006	0.0008
470.2017	-0.0111
470.4027	0.0009
470.6038	0.0067
470.8049	-0.0085
471.0059	-0.0057
471.2069	-0.0143
471.408	0.0083
471.6089	0.0009
471.8099	0.0166
472.0109	0.0013
472.2119	0.0055
472.4128	-0.0174
472.6137	0.0159
472.8146	-0.0027
473.0155	-0.0007
473.2164	-0.0015
473.4173	0.0066
473.6181	0.0095
473.819	0.0016
474.0198	0.0097
474.2206	-0.0053
474.4214	-0.0046
474.6222	-0.0057
474.8229	-0.0085
475.0237	-0.0124
475.2244	-0.0024
475.4251	0.0055
475.6258	-0.0092
475.8265	0.0073
476.0272	0.0033
476.2278	-0.0029
476.4285	-0.0024
476.6291	-0.0102
476.8297	-0.0007
477.0303	-0.0118
477.2309	-0.0083
477.4315	-0.0029
477.632	-0.0025
477.8326	-0.0018
478.0331	0.0154
478.2336	0.0057
478.4341	-0.0093
478.6346	-0.0021
478.8351	-0.0012
479.0355	-0.0002
479.236	0.0006
479.4364	0.0025
479.6368	0.0079
479.8372	-0.0085
480.0376	-0.0098
480.2379	-0.0191
480.4383	-0.0066
480.6386	0.0086
480.8389	0.0049
481.0392	-0.0032
481.2395	-0.0089
481.4398	0.0021
481.6401	0.0074
481.8403	-0.0024
482.0405	-0.0056
482.2408	-0.0004
482.441	0.0123
482.6411	-0.0016
482.8413	-0.0062
483.0415	-0.0046
483.2416	-0.0111
483.4417	0.0047
483.6419	-0.0001
483.8419	-0.0085
484.042	0.0067
484.2421	-0.0049
484.4422	0.0054
484.6422	-0.0016
484.8422	0.0007
485.0422	-0.0089
485.2422	0.0008
485.4422	-0.0039
485.6422	-0.0042
485.8421	-0.0013
486.042	-0.0015
486.242	-0.0094
486.4419	-0.008
486.6417	-0.0066
486.8416	-0.0075
487.0415	-0.0047
487.2413	0.0034
487.4411	-0.0079
487.641	-0.0069
487.8408	-0.0099
488.0405	-0.0086
488.2403	-0.001
488.4401	-0.0001
488.6398	0.0005
488.8395	-0.0206
489.0392	0.0022
489.2389	-0.0058
489.4386	0.0013
489.6383	-0.0037
489.8379	0.0081
490.0376	-0.0176
490.2372	0.0084
490.4368	-0.0172
490.6364	0.0036
490.836	-0.0124
491.0355	-0.005
491.2351	-0.0094
491.4346	-0.0043
491.6341	-0.0076
491.8336	0.0078
492.0331	-0.0119
492.2326	-0.0109
492.432	-0.0106
492.6315	-0.0131
492.8309	-0.0157
493.0303	-0.005
493.2297	-0.0116
493.4291	0.0024
493.6284	-0.0013
493.8278	-0.0124
494.0271	-0.0111
494.2264	-0.0022
494.4257	-0.0103
494.625	0.0039
494.8243	-0.0106
495.0236	-0.0052
495.2228	-0.0086
495.422	0.0027
495.6213	-0.0007
495.8205	-0.0016
496.0196	-0.0031
496.2188	0.0091
496.418	-0.0095
496.6171	-0.0021
496.8162	-0.0143
497.0153	0.0051
497.2144	-0.0102
497.4135	0.0046
497.6126	-0.0057
497.8116	0.0017
498.0107	-0.0012
498.2097	-0.0035
498.4087	-0.0069
498.6077	0.0021
498.8067	-0.0064
499.0056	0.0025
499.2046	-0.0097
499.4035	-0.0216
499.6024	0.0013
499.8013	-0.0038
500.0002	-0.0118
500.199	-0.0032
500.3979	-0.0026
500.5967	-0.0138
500.7956	0.0009
500.9944	0.0008
501.1932	-0.0038
501.3919	-0.0008
501.5907	-0.0093
501.7895	-0.0004
501.9882	-0.005
502.1869	-0.0137
502.3856	-0.0101
502.5843	-0.0126
502.783	-0.0073
502.9816	-0.0064
503.1803	-0.0201
503.3789	-0.0025
503.5775	0.0088
503.7761	-0.0043
503.9747	-0.0004
504.1732	-0.0108
504.3718	0.0001
504.5703	-0.0062
504.7689	-0.0091
504.9674	-0.0019
505.1658	-0.0128
505.3643	-0.0087
505.5628	-0.0068
505.7612	-0.0059
505.9597	0.0123
506.1581	-0.0062
506.3565	0.0013
506.5549	-0.0096
506.7532	-0.0126
506.9516	0.0014
507.1499	-0.0027
507.3482	-0.0109
507.5465	-0.0019
507.7448	0.0033
507.9431	-0.0084
508.1414	0.0047
508.3396	-0.0005
508.5379	-0.0049
508.7361	-0.007
508.9343	0.0061
509.1325	0.0086
509.3306	-0.0044
509.5288	-0.0073
509.7269	-0.0039
509.9251	-0.0001
510.1232	-0.0049
510.3213	-0.0042
510.5193	-0.0015
510.7174	-0.0089
510.9154	-0.0036
511.1135	-0.0116
511.3115	-0.0049
511.5095	-0.0051
511.7075	0.0013
511.9055	-0.006
512.1034	-0.0096
512.3014	-0.0021
512.4993	0.004
512.6972	-0.0081
512.8951	-0.0068
513.093	0.0099
513.2908	-0.0017
513.4887	0.0016
513.6865	0.0001
513.8844	-0.0014
514.0822	-0.0113
514.2799	-0.0073
514.4777	-0.0065
514.6755	0.0004
514.8732	-0.0035
515.0709	-0.013
515.2687	-0.0018
515.4664	-0.0042
515.664	0.0101
515.8617	-0.0077
516.0594	-0.0118
516.257	0.0031
516.4546	-0.0109
516.6522	0.0037
516.8498	-0.0031
517.0474	0.0082
517.2449	0.0055
517.4425	-0.008
517.64	0.0048
517.8375	0.014
518.035	0.0034
518.2325	-0.0026
518.43	0.0013
518.6274	0.0043
518.8249	-0.0066
519.0223	0.0051
519.2197	-0.007
519.4171	-0.0054
519.6145	-0.0154
519.8118	0.0027
520.0092	-0.0039
520.2065	-0.0086
520.4038	-0.014
520.6011	0.0078
520.7984	-0.0151
520.9956	-0.005
521.1929	-0.0163
521.3901	-0.0015
521.5874	0.0022
521.7846	0.0035
521.9818	-0.0047
522.1789	-0.0023
522.3761	-0.004
522.5732	-0.0131
522.7704	-0.0008
522.9675	0.0061
523.1646	-0.007
523.3617	0.0051
523.5587	0.0054
523.7558	-0.0002
523.9528	0.0061
524.1498	0.003
524.3468	-0.002
524.5438	-0.0031
524.7408	-0.005
524.9378	0.0002
525.1347	0.0043
525.3316	-0.0032
525.5285	-0.0088
525.7254	0.0051
525.9223	-0.0009
526.1192	0.0017
526.316	-0.0123
526.5129	0.006
526.7097	0.0001
526.9065	0.0038
527.1033	-0.0035
527.3	0.0025
527.4968	0.0052
527.6935	-0.0028
527.8903	-0.0158
528.087	-0.005
528.2837	-0.0086
528.4804	-0.0042
528.677	-0.0055
528.8737	0.0075
529.0703	-0.0051
529.2669	-0.0057
529.4635	-0.0077
529.6601	0.005
529.8567	0.0025
530.0532	-0.0149
530.2498	0.0001
530.4463	0.0075
530.6428	-0.0084
530.8393	0.0104
531.0358	-0.0078
531.2322	-0.0034
531.4287	-0.0066
531.6251	-0.0083
531.8215	0.0071
532.0179	-0.0013
532.2143	0.0078
532.4107	-0.0074
532.607	-0.0018
532.8034	-0.0005
532.9997	-0.0041
533.196	-0.0012
533.3923	0.0003
533.5886	0.004
533.7848	-0.0024
533.9811	-0.0079
534.1773	0.0014
534.3735	0.0059
534.5697	-0.0018
534.7659	0.0078
534.9621	0.0029
535.1582	-0.0058
535.3544	-0.0084
535.5505	-0.0092
535.7466	0.0067
535.9427	0.0006
536.1387	0.0042
536.3348	-0.0056
536.5308	0.002
536.7269	-0.01
536.9229	-0.0043
537.1189	-0.0002
537.3148	0.0032
537.5108	-0.0026
537.7068	0.0015
537.9027	-0.0004
538.0986	0.0007
538.2945	-0.003
538.4904	-0.0006
538.6863	-0.0012
538.8821	-0.0021
539.078	-0.0024
539.2738	0.0079
539.4696	-0.0013
539.6654	0.0112
539.8611	0.0101
540.0569	0.0017
540.2526	0.0021
540.4484	0.0069
540.6441	0.0062
540.8398	0.004
541.0355	0.0016
541.2311	0.0006
541.4268	-0.0116
541.6224	0.0018
541.818	-0.0009
542.0136	-0.0003
542.2092	0.0003
542.4048	-0.0049
542.6003	-0.0045
542.7959	-0.0013
542.9914	-0.0036
543.1869	0.0027
543.3824	0.003
543.5779	-0.0086
543.7734	-0.0006
543.9688	-0.004
544.1642	0.0055
544.3596	0.0011
544.555	-0.0012
544.7504	-0.0051
544.9458	-0.0075
545.1411	0.0042
545.3365	-0.0021
545.5318	0.0003
545.7271	0.0029
545.9224	-0.0062
546.1177	0.0061
546.3129	0.0087
546.5081	-0.0073
546.7034	-0.0011
546.8986	-0.0056
547.0938	-0.0008
547.289	-0.0047
547.4841	-0.0017
547.6793	0.0159
547.8744	-0.0108
548.0695	0.0055
548.2646	-0.0057
548.4597	0.0074
548.6548	0.0064
548.8498	0.0047
549.0448	0.0092
549.2399	0.0012
549.4349	0.0157
549.6298	0.006
549.8248	0.0072
550.0198	-0.0006
550.2147	-0.0112
550.4096	-0.0083
550.6045	0.0066
550.7994	-0.0057
550.9943	0.0051
551.1892	0.011
551.384	0.0047
551.5788	0.004
551.7737	0.0018
551.9685	0.003
552.1632	0.0062
552.358	-0.0008
552.5528	0.0013
552.7475	-0.0036
552.9422	0.0006
553.1369	0.0078
553.3316	0.0021
553.5263	-0.0116
553.7209	0.0063
553.9156	-0.0062
554.1102	-0.0093
554.3048	-0.0001
554.4994	0.0112
554.694	-0.0027
554.8885	0.0024
555.0831	-0.0112
555.2776	0.0023
555.4721	0.0059
555.6666	-0.0046
555.8611	0.0075
556.0555	-0.003
556.25	0.0004
556.4444	-0.0077
556.6388	-0.0039
556.8332	-0.0056
557.0276	0.0011
557.222	-0.0096
557.4163	0.0034
557.6107	-0.0142
557.805	0.0111
557.9993	-0.0021
558.1936	0.007
558.3879	0.0106
558.5821	0.0033
558.7764	0.0006
558.9706	0.0006
559.1648	0.0064
559.359	-0.0023
559.5532	-0.0102
559.7473	0.0068
559.9415	0.0046
560.1356	-0.0083
560.3297	-0.0057
560.5238	-0.0071
560.7179	-0.0027
560.9119	0.0051
561.106	-0.0029
561.3	-0.007
561.494	-0.0018
561.688	-0.0004
561.882	-0.0011
562.076	-0.0031
562.2699	0.0027
562.4639	0.0022
562.6578	0.0073
562.8517	-0.0003
563.0456	0
563.2395	-0.0015
563.4333	-0.0008
563.6272	0.0133
563.821	0.0038
564.0148	0.0011
564.2086	-0.0026
564.4024	0.0069
564.5961	-0.0039
564.7899	0.0055
564.9836	0.0004
565.1773	0.0131
565.371	0.0073
565.5647	0.0025
565.7584	-0.0002
565.952	0.0019
566.1456	0.0016
566.3393	-0.0009
566.5329	-0.0077
566.7264	-0.0052
566.92	-0.0042
567.1136	-0.003
567.3071	0.0002
567.5006	0.0008
567.6941	0.0034
567.8876	-0.0033
568.0811	0
568.2745	0.0038
568.468	0.0052
568.6614	0.0075
568.8548	0.0062
569.0482	-0.0034
569.2416	-0.0028
569.4349	0.0025
569.6283	0.0027
569.8216	0.0061
570.0149	-0.0063
570.2082	0.0146
570.4015	0.0106
570.5947	0.0128
570.788	0.0023
570.9812	0.0038
571.1744	0.0041
571.3676	-0.0033
571.5608	-0.0038
571.754	0.0021
571.9471	0.0059
572.1402	0.0067
572.3333	0.0037
572.5264	0.0035
572.7195	0.0016
572.9126	0.0028
573.1057	-0.0005
573.2987	-0.0026
573.4917	0.0086
573.6847	-0.0035
573.8777	0.0039
574.0707	0.0084
574.2636	-0.0034
574.4566	-0.0033
574.6495	0.0081
574.8424	0.004
575.0353	0.0031
575.2281	0.0119
575.421	0.0058
575.6138	0.0082
575.8067	0.0022
575.9995	0.0022
576.1923	0.0048
576.385	0.0033
576.5778	-0
576.7706	-0.0024
576.9633	0.0041
577.156	-0.0011
577.3487	-0.0053
577.5414	0.0048
577.734	0.0012
577.9267	0.0032
578.1193	-0.0095
578.3119	-0.0016
578.5045	-0.0023
578.6971	0.0012
578.8897	0.0076
579.0822	0.0009
579.2747	0.0046
579.4673	-0.0016
579.6598	0.0017
579.8522	-0.0038
580.0447	-0.0079
580.2372	-0.0016
580.4296	0.0064
580.622	-0.0012
580.8144	0.0023
581.0068	0
581.1992	-0.0128
581.3915	0.0011
581.5839	-0.0045
581.7762	-0.0032
581.9685	-0.0013
582.1608	0.0073
582.353	0.0034
582.5453	-0.001
582.7375	-0.0017
582.9298	0.0046
583.122	0.0067
583.3142	0.0064
583.5063	-0.002
583.6985	-0.0013
583.8906	0.0029
584.0827	0.0002
584.2749	0.0027
584.4669	0.0088
584.659	0.0053
584.8511	-0.0043
585.0431	-0.0087
585.2352	0.0035
585.4272	-0.0011
585.6192	0.0137
585.8111	0.0081
586.0031	0.0065
586.195	0.0034
586.387	0.0004
586.5789	0.0036
586.7708	0.0048
586.9627	0.0039
587.1545	-0.0004
587.3464	0.0061
587.5382	0.0018
587.73	0.0024
587.9218	0.0076
588.1136	0.004
588.3053	0.0106
588.4971	-0.0016
588.6888	-0.0039
588.8805	0.0031
589.0722	0.008
589.2639	0.0039
589.4556	-0.0002
589.6472	-0.0032
589.8389	-0.0079
590.0305	-0.0084
590.2221	0.0039
590.4137	-0.0099
590.6052	0.0029
590.7968	-0.0034
590.9883	-0.0026
591.1798	-0.0028
591.3713	0.0057
591.5628	0.0119
591.7543	0.0078
591.9458	-0.0001
592.1372	0.0111
592.3286	0.0051
592.52	0.0071
592.7114	-0.0016
592.9028	-0.0036
593.0941	-0.0007
593.2855	0.0047
593.4768	-0.0023
593.6681	0.0011
593.8594	-0.0008
594.0506	-0.0027
594.2419	0.01
594.4331	0.003
594.6244	0.0053
594.8156	-0.0034
595.0067	0.002
595.1979	-0.0009
595.3891	0.0011
595.5802	-0.0061
595.7713	-0.0041
595.9624	-0.0042
596.1535	0.0092
596.3446	0.0089
596.5357	0.0034
596.7267	0.0108
596.9177	0.0058
597.1087	-0.0019
597.2997	0.0008
597.4907	0.0034
597.6817	-0.0002
597.8726	0.0059
598.0635	-0.0019
598.2544	0.0039
598.4453	-0.0029
598.6362	-0.0037
598.827	-0.0033
599.0179	0.0094
599.2087	0.0032
599.3995	0.0004
599.5903	0.002
599.7811	0.0017
599.9718	0.006
600.1626	-0.0031
600.3533	-0.0065
600.544	-0.0003
600.7347	-0.0002
600.9254	0.0048
601.116	-0.0047
601.3067	-0.0012
601.4973	-0.0055
601.6879	0.0109
601.8785	-0.0013
602.0691	0.0072
602.2596	0.0052
602.4502	0.0115
602.6407	0.0069
602.8312	0.001
603.0217	-0.0068
603.2122	0.0068
603.4027	-0.0001
603.5931	0.0015
603.7835	-0.0055
603.9739	-0.0029
604.1643	0.0029
604.3547	-0.005
604.5451	0.0027
604.7354	-0.0046
604.9257	-0.002
605.116	-0.0061
605.3063	0.0035
605.4966	-0.0062
605.6869	-0.0004
605.8771	0.0052
606.0673	0.0117
606.2575	0.004
606.4477	0.0079
606.6379	0.0034
606.8281	0.0009
607.0182	0.001
607.2083	0.0117
607.3985	-0.001
607.5885	0.0039
607.7786	0.0057
607.9687	0.0013
608.1587	0.0038
608.3488	0.0082
608.5388	-0.0016
608.7288	0.0026
608.9187	-0.0034
609.1087	-0.0006
609.2986	0.0009
609.4886	0.0023
609.6785	0.0036
609.8684	0.0062
610.0582	0.0009
610.2481	0.0009
610.4379	0.0008
610.6278	-0.0062
610.8176	0.0032
611.0074	0.0015
611.1971	-0.0019
611.3869	-0.0015
611.5766	-0.0021
611.7664	0.0101
611.9561	0.0021
612.1458	0.0066
612.3354	-0.0073
612.5251	0.0038
612.7147	0.0052
612.9044	0.0155
613.094	-0.0017
613.2836	0.0052
613.4731	-0.0046
613.6627	0.0006
613.8522	0.0044
614.0417	0.0129
614.2313	0.0029
614.4207	-0.0015
614.6102	0.0058
614.7997	-0.0023
614.9891	0.0005
615.1785	0.0085
615.3679	0.0058
615.5573	0.0046
615.7467	0.0015
615.9361	-0.0026
616.1254	0.0069
616.3147	0.0128
616.504	0.0154
616.6933	0.0108
616.8826	0.0103
617.0718	0.0112
617.2611	0.0064
617.4503	-0.0028
617.6395	0.0041
617.8287	-0.0013
618.0179	0.0022
618.207	0.0115
618.3961	-0.0029
618.5853	0.0049
618.7744	0.0057
618.9634	0.0026
619.1525	0.0064
619.3416	0.0075
619.5306	0.0051
619.7196	0.0031
619.9086	0.0015
620.0976	0.0055
620.2866	0.0064
620.4755	0.0055
620.6645	0.0009
620.8534	0.0057
621.0423	0.0113
621.2312	0.0115
621.42	0.0118
621.6089	0.0075
621.7977	0.0054
621.9865	0.0022
622.1753	0.0077
622.3641	-0.0002
622.5529	0.0121
622.7416	0.0162
622.9303	0.0035
623.1191	0.0079
623.3078	-0.0008
623.4964	0.0129
623.6851	0.0065
623.8737	0.0024
624.0624	0.0025
624.251	0.0084
624.4396	0.0026
624.6282	-0.0016
624.8167	0.0009
625.0053	0.0037
625.1938	0.0053
625.3823	0.0081
625.5708	-0.0013
625.7593	-0.0041
625.9477	-0.0007
626.1362	0.0043
626.3246	0.0055
626.513	0.0126
626.7014	0.006
626.8898	0.0058
627.0781	0.0016
627.2665	-0.0001
627.4548	0.0054
627.6431	0.0074
627.8314	0.0122
628.0197	0.0118
628.2079	0.0015
628.3962	-0.0005
628.5844	0.0068
628.7726	0.0008
628.9608	0.0091
629.1489	-0.0041
629.3371	0.0002
629.5252	-0.0021
629.7134	0.008
629.9015	0.0024
630.0895	0.0052
630.2776	0.0078
630.4657	0.0047
630.6537	0.0029
630.8417	0.003
631.0297	-0.0047
631.2177	0.0082
631.4057	-0.0039
631.5936	0.0011
631.7815	0.0052
631.9695	0.0076
632.1574	0.012
632.3452	0.0188
632.5331	0.0068
632.7209	0.0047
632.9088	0.0069
633.0966	0.0126
633.2844	0.0027
633.4722	0.0061
633.6599	0.0199
633.8477	0.0063
634.0354	0.003
634.2231	0.0032
634.4108	0.0047
634.5985	0.0136
634.7861	0.0047
634.9738	0.0013
635.1614	0.0029
635.349	0.005
635.5366	0.0078
635.7242	0.0094
635.9117	0.0093
636.0993	0.0116
636.2868	0.0114
636.4743	0.0051
636.6618	0.0151
636.8492	0.012
637.0367	0.0065
637.2241	0.0055
637.4115	0.0043
637.5989	-0.0037
637.7863	0.0067
637.9737	0.0006
638.161	0.0053
638.3484	0.0001
638.5357	0.0123
638.723	0.0038
638.9103	0.0096
639.0975	0.0053
639.2848	0.0046
639.472	0.007
639.6592	0.0096
639.8464	0.0127
640.0336	0.0067
640.2208	0.0033
640.4079	-0
640.595	0.0032
640.7821	0.0102
640.9692	0.0022
641.1563	0.0054
641.3434	0.0039
641.5304	0.0036
641.7174	0.0048
641.9044	0.0036
642.0914	0.0136
642.2784	0.0052
642.4653	0.0076
642.6523	0.0059
642.8392	-0.0006
643.0261	0.0101
643.213	0.0084
643.3999	0.0036
643.5867	0.0052
643.7735	0.0129
643.9604	-0.0004
644.1472	0.004
644.3339	0.0065
644.5207	0.0085
644.7075	0.0026
644.8942	0.0115
645.0809	0.0114
645.2676	0.0097
645.4543	-0.0005
645.6409	0.0102
645.8276	0.0049
646.0142	0.0076
646.2008	0.0007
646.3874	-0.0044
646.574	-0.0006
646.7605	-0.0038
646.9471	-0.0099
647.1336	-0.0032
647.3201	0.0025
647.5066	0.0023
647.6931	0.0082
647.8795	0.0014
648.0659	0.0089
648.2524	0.0056
648.4388	0.0015
648.6252	0.005
648.8115	0.0035
648.9979	-0.0007
649.1842	0.0008
649.3705	0.009
649.5568	0.0074
649.7431	0.0113
649.9294	-0.0031
650.1156	0.003
650.3018	0.0019
650.488	0.01
650.6742	0.0141
650.8604	0.0062
651.0466	-0.0023
651.2327	0.0038
651.4188	0.004
651.6049	-0.0042
651.791	0.0044
651.9771	0.0076
652.1632	0.0049
652.3492	0.0076
652.5352	0.0075
652.7212	0.0016
652.9072	0.0097
653.0932	0.001
653.2791	0.006
653.465	0.0089
653.651	-0.0014
653.8369	-0.004
654.0227	0.0014
654.2086	0.0028
654.3944	0.0066
654.5803	0.0072
654.7661	0.003
654.9519	0.0009
655.1377	0.0029
655.3234	0.0023
655.5092	-0.0026
655.6949	-0.0002
655.8806	-0.0032
656.0663	-0.0039
656.2519	-0.0001
656.4376	-0.0036
656.6232	0.0086
656.8088	0.0009
656.9945	0.0066
657.18	0.0062
657.3656	0.0053
657.5511	-0.0027
657.7367	0.0037
657.9222	0.0048
658.1077	0.0012
658.2932	0.0023
658.4786	0.0028
658.6641	-0.0037
658.8495	0.0011
659.0349	0.0004
659.2203	0.0034
659.4057	0.0082
659.591	0.0057
659.7764	0.0015
659.9617	0.0056
660.147	0.0034
660.3323	0.01
660.5176	0.0104
660.7028	0.0136
660.888	0.0108
661.0733	0.0093
661.2585	-0.0023
661.4436	0.007
661.6288	0.005
661.8139	0.0053
661.9991	0.007
662.1842	-0.0037
662.3693	0.005
662.5544	0.0033
662.7394	0.0002
662.9245	0.0045
663.1095	0.0031
663.2945	-0.0032
663.4795	-0.0013
663.6644	0.01
663.8494	0.0104
664.0343	0.0062
664.2193	-0.002
664.4042	0.0065
664.589	-0.0066
664.7739	0.0058
664.9587	-0.0078
665.1436	-0.0049
665.3284	-0.0016
665.5132	-0.0027
665.698	0.0041
665.8827	0.0087
666.0675	0.0057
666.2522	-0.0104
666.4369	0.0092
666.6216	0.0058
666.8063	-0.0032
666.9909	0.0057
667.1756	-0.0035
667.3602	0.0023
667.5448	0.005
667.7294	0.0127
667.9139	0.0157
668.0985	0.0177
668.283	0.0063
668.4675	0.0103
668.652	0.0013
668.8365	0.0027
669.0209	0.009
669.2054	0.0128
669.3898	0.0102
669.5742	0.0155
669.7586	0.0099
669.943	0.0174
670.1273	0.0146
670.3117	0.0115
670.496	0.0068
670.6803	0.0215
670.8646	0.0117
671.0488	0.0041
671.2331	0.0083
671.4173	0.0074
671.6015	0.0008
671.7857	0.0075
671.9699	0.0104
672.1541	0.0065
672.3382	0.0109
672.5223	0.0094
672.7064	0.0117
672.8905	0.008
673.0746	0.0046
673.2587	0.0024
673.4427	0.0039
673.6267	0.0144
673.8107	0.0154
673.9947	0.0054
674.1787	0.0047
674.3626	-0.0005
674.5465	0.0076
674.7304	0.0094
674.9143	0.0114
675.0982	0.0113
675.2821	0.0064
675.4659	0.0131
675.6497	0.0027
675.8335	0.0062
676.0173	0.0052
676.2011	0.003
676.3849	0.0045
676.5686	0.0011
676.7523	0.0049
676.936	0.0053
677.1197	-0.0007
677.3034	0.0093
677.487	0.0073
677.6706	0.0101
677.8542	0.0039
678.0378	0.005
678.2214	0.0025
678.405	0.0034
678.5885	0.0012
678.772	0.0005
678.9555	-0.0006
679.139	-0.0011
679.3225	0.0045
679.5059	0.0023
679.6894	0.0057
679.8728	0.0038
680.0562	-0.0009
680.2395	0.0005
680.4229	-0.0048
680.6062	0.0083
680.7896	0.0078
680.9729	-0.0091
681.1562	0.0086
681.3394	0.0067
681.5227	-0.0094
681.7059	0.0015
681.8891	-0.0015
682.0723	0.0129
682.2555	0.0079
682.4387	-0.0014
682.6218	-0.0021
682.805	0.0037
682.9881	0.0088
683.1712	0.0033
683.3542	0.0061
683.5373	0.0082
683.7203	-0.0041
683.9034	0.0092
684.0864	-0.0029
684.2694	0.002
684.4523	0.0009
684.6353	-0.0047
684.8182	0.0023
685.0011	-0.0004
685.184	0.0049
685.3669	-0.0032
685.5498	0.0061
685.7326	0.0059
685.9154	-0.0011
686.0982	0.007
686.281	0.01
686.4638	-0.0037
686.6465	0.0079
686.8293	-0.0043
687.012	0.0075
687.1947	-0.0059
687.3774	0.0027
687.56	-0.0022
687.7427	0.003
687.9253	0.0006
688.1079	0.0026
688.2905	0.0135
688.4731	0.0039
688.6556	0.0029
688.8382	-0.0024
689.0207	0.0064
689.2032	-0.0084
689.3857	-0.0003
689.5681	0.0037
689.7506	-0.0056
689.933	-0.0096
690.1154	-0.0019
690.2978	-0.0054
690.4802	-0.0045
690.6626	-0.0111
690.8449	-0.0043
691.0272	0.0074
691.2095	-0.0038
691.3918	0.0042
691.5741	0.0012
691.7563	0.0061
691.9386	0.0056
692.1208	-0.0006
692.303	0.0011
692.4852	0.0028
692.6673	0.0017
692.8495	0.0055
693.0316	0.0021
693.2137	0.0042
693.3958	0.0098
693.5778	0.0037
693.7599	0.0063
693.9419	0.0159
694.1239	0.0033
694.3059	-0.0036
694.4879	0.0086
694.6699	0.0085
694.8518	0.0051
695.0337	-0.003
695.2157	0.013
695.3975	0.0059
695.5794	0.0104
695.7613	0.0105
695.9431	0.0025
696.1249	0.0099
696.3067	0.0033
696.4885	0.0098
696.6703	-0.0003
696.852	0.0011
697.0337	0.0092
697.2154	0.0054
697.3971	0.0049
697.5788	0.0067
697.7605	0.0016
697.9421	0.0157
698.1237	0.0077
698.3053	0.0044
698.4869	0.0042
698.6685	0.0003
698.85	-0.0053
699.0315	0.0081
699.213	-0.0022
699.3945	0.0105
699.576	0.0108
699.7575	0.0102
699.9389	0.0106
700.1203	0.0022
700.3017	-0.0075
700.4831	-0.0058
700.6645	-0.0006
700.8458	0.0105
701.0271	0.0053
701.2084	0.0118
701.3897	0.0009
701.571	0.0075
701.7523	-0.0001
701.9335	0.0038
702.1147	0.0022
702.2959	0.0044
702.4771	0.0079
702.6583	0.0079
702.8394	-0.0044
703.0205	0.0023
703.2016	0.0077
703.3827	0.0015
703.5638	0.0078
703.7449	0.0024
703.9259	0.01
704.1069	-0.0075
704.2879	0.0023
704.4689	0.0061
704.6499	0.0009
704.8308	0.0059
705.0117	0
705.1927	-0.0011
705.3735	0.0006
705.5544	-0.0036
705.7353	0.0015
705.9161	-0.0065
706.0969	-0.0066
706.2777	-0.0034
706.4585	0.0017
706.6393	0.0012
706.82	-0.0024
707.0007	0.0101
707.1815	0.0029
707.3621	0.0108
707.5428	0.0031
707.7235	0.0011
707.9041	-0.0024
708.0847	-0.0093
708.2653	-0.0121
708.4459	-0.0113
708.6265	-0.004
708.807	-0.0068
708.9875	-0.0045
709.168	-0.0013
709.3485	-0.0066
709.529	-0.0009
709.7095	-0.0074
709.8899	-0.0099
710.0703	0.0014
710.2507	0.0017
710.4311	-0.001
710.6115	-0.0104
710.7918	-0.0016
710.9721	0.0042
711.1524	-0.008
711.3327	0.0006
711.513	0.0078
711.6932	0.0008
711.8735	0.0074
712.0537	0.0026
712.2339	0.0028
712.4141	0.0012
712.5942	-0.0043
712.7744	0.0009
712.9545	-0.0028
713.1346	-0.0033
713.3147	0.0033
713.4947	0.0027
713.6748	0.0007
713.8548	0.0005
714.0348	-0.0042
714.2148	-0.009
714.3948	0.0106
714.5748	0.0019
714.7547	-0.0011
714.9346	0.0049
715.1145	-0
715.2944	0.0043
715.4743	0.0026
715.6541	0.0029
715.834	0.0077
716.0138	-0.0001
716.1936	-0.0123
716.3733	0.0043
716.5531	-0.0034
716.7328	-0.0083
716.9126	0.0028
717.0923	0.0015
717.2719	0.0036
717.4516	0.0013
717.6312	-0.0008
717.8109	-0.0045
717.9905	-0.0028
718.1701	0.0002
718.3496	-0.0062
718.5292	-0.0012
718.7087	0.0005
718.8882	-0.0028
719.0677	0.004
719.2472	-0.0014
719.4267	0.0023
719.6061	0.0011
719.7856	-0.0005
719.965	0.007
720.1443	0.0038
720.3237	0.0162
720.5031	0.0061
720.6824	0.0074
720.8617	-0.0025
721.041	0.0053
721.2203	0.0014
721.3995	0.0082
721.5788	-0.0005
721.758	0.0001
721.9372	0.0037
722.1164	0.0012
722.2956	0.004
722.4747	0.0071
722.6538	-0.0049
722.8329	0.0119
723.012	0.003
723.1911	0.0007
723.3702	-0.0028
723.5492	0.0112
723.7282	0.0006
723.9072	0.0026
724.0862	-0.0025
724.2652	-0.0016
724.4441	-0.0045
724.623	0.0007
724.8019	0.0037
724.9808	0.0045
725.1597	-0.0015
725.3385	0.0067
725.5174	0.0019
725.6962	-0.0053
725.875	0.0075
726.0538	0.0032
726.2325	-0.0018
726.4112	0.005
726.59	-0.0052
726.7687	-0.0005
726.9474	0.0017
727.126	0.0001
727.3047	-0.0008
727.4833	-0.0054
727.6619	-0.0008
727.8405	-0.0051
728.0191	0.0014
728.1976	0.0044
728.3762	0.0072
728.5547	-0.0079
728.7332	-0.0084
728.9116	0.0067
729.0901	0.002
729.2686	0.0083
729.447	-0.0006
729.6254	-0.004
729.8038	0.0025
729.9821	-0.0087
730.1605	0.0079
730.3388	0.0069
730.5171	0.0076
730.6954	-0.0048
730.8737	0.0024
731.0519	0.0052
731.2302	0.0054
731.4084	0.0204
731.5866	0.0069
731.7648	0.0041
731.9429	-0.0053
732.1211	-0.0048
732.2992	-0.0045
732.4773	-0.0073
732.6554	0.0019
732.8335	0.0033
733.0115	0.0035
733.1896	0.0125
733.3676	-0.0097
733.5456	0.0021
733.7235	-0.0004
733.9015	0.0013
734.0794	0.009
734.2574	0.0007
734.4353	0.0018
734.6131	0.008
734.791	0.0021
734.9689	0.0086
735.1467	0.0088
735.3245	-0.0023
735.5023	-0.0008
735.68	0.0064
735.8578	0.007
736.0355	-0.0106
736.2132	0.005
736.3909	-0.0004
736.5686	-0.0009
736.7463	0.0078
736.9239	-0.0039
737.1015	0.0013
737.2791	0.0131
737.4567	0.0102
737.6343	-0.0004
737.8118	0.0088
737.9894	0.0106
738.1669	-0.0043
738.3444	0.0009
738.5218	0.0108
738.6993	0.0052
738.8767	-0.0069
739.0541	0.0118
739.2315	-0.0035
739.4089	-0.0004
739.5863	0.003
739.7636	0.0029
739.9409	0.0104
740.1182	0.0096
740.2955	-0.0026
740.4728	0.0019
740.65	-0.0038
740.8272	0.0023
741.0044	0.0005
741.1816	0.0132
741.3588	-0.0061
741.5359	0.0008
741.7131	-0.0098
741.8902	-0.0033
742.0673	0.0016
742.2444	-0.0054
742.4214	-0.0034
742.5985	0.0049
742.7755	-0
742.9525	-0.0054
743.1295	0.0074
743.3064	0.0052
743.4834	0.0087
743.6603	0.0021
743.8372	0.002
744.0141	0.0056
744.191	0.0089
744.3678	0.0092
744.5446	0.0036
744.7215	0.0103
744.8982	-0.0051
745.075	-0.0022
745.2518	0.0018
745.4285	0.0063
745.6052	0.0021
745.7819	-0.0063
745.9586	0.0031
746.1353	0.0019
746.3119	0.0008
746.4885	-0.0015
746.6651	0.0004
746.8417	-0.0017
747.0183	-0.0096
747.1948	0.0012
747.3714	0.0092
747.5479	0.0108
747.7244	0.0027
747.9008	0.0167
748.0773	0.0025
748.2537	-0.0014
748.4301	-0.0096
748.6065	0.0036
748.7829	0.0059
748.9593	-0.0059
749.1356	-0.0007
749.3119	0.0092
749.4882	-0.0067
749.6645	0.0035
749.8408	-0.0004
750.017	-0.0086
750.1933	-0.0023
750.3695	0.0007
750.5457	0.009
750.7218	0.0024
750.898	0.0039
751.0741	0.0013
751.2502	0.0077
751.4263	-0.0033
751.6024	0.0027
751.7784	0.0024
751.9545	0.0035
752.1305	-0.0042
752.3065	-0.0031
752.4825	0.0063
752.6584	-0.0075
752.8344	0.0048
753.0103	-0.0014
753.1862	-0.0057
753.3621	0.0012
753.5379	-0.006
753.7138	0.0079
753.8896	0.0067
754.0654	0.0134
754.2412	0.0099
754.417	0.003
754.5927	-0.0098
754.7685	-0.008
754.9442	-0.0018
755.1199	0.0135
755.2956	-0.0027
755.4712	0.0127
755.6469	0.0056
755.8225	0.0052
755.9981	0.0026
756.1736	0.0099
756.3492	0.0033
756.5248	-0.0059
756.7003	0.005
756.8758	0.0156
757.0513	-0.0042
757.2267	-0.0053
757.4022	0.0025
757.5776	0.0055
757.753	0.0045
757.9284	0.0061
758.1038	0.0182
758.2791	0.003
758.4545	-0.0034
758.6298	0.0115
758.8051	0.0061
758.9803	0.0033
759.1556	0.0048
759.3308	0.001
759.506	0.0103
759.6812	0.0086
759.8564	0.0228
760.0316	0.0023
760.2067	0.0108
760.3819	0.0118
760.557	0.0173
760.732	0.0103
760.9071	0.0044
761.0821	0.0056
761.2572	0.0145
761.4322	0.0069
761.6072	0.0138
761.7821	0.0033
761.9571	0.0066
762.132	0.0024
762.3069	-0.0067
762.4818	-0.0059
762.6567	0.0032
762.8316	0.0047
763.0064	0.0027
763.1812	0.0012
763.356	-0.0015
763.5308	0.0003
763.7055	0.0048
763.8803	-0.0013
764.055	-0.0014
764.2297	0.0039
764.4044	-0.0029
764.579	-0.0034
764.7537	-0.0086
764.9283	0.0087
765.1029	0.0054
765.2775	-0.0025
765.4521	-0.0001
765.6266	-0.0015
765.8011	-0.0146
765.9756	-0
766.1501	0.0153
766.3246	-0.0001
766.4991	-0.0002
766.6735	0.0092
766.8479	0.0026
767.0223	0.0124
767.1967	0.0056
767.371	0.0059
767.5454	0.0053
767.7197	0.0079
767.894	0.0089
768.0683	-0.0048
768.2425	0.0059
768.4168	0.0054
768.591	0.0022
768.7652	0.0091
768.9394	0.0077
769.1135	0.0153
769.2877	0.0161
769.4618	-0.0039
769.6359	0.0079
769.81	0.0037
769.984	0.0063
770.1581	-0.0034
770.3321	0.007
770.5061	-0.0032
770.6801	-0.0057
770.8541	-0.0002
771.028	0.0032
771.202	-0.0163
771.3759	0.0097
771.5498	-0.0073
771.7236	-0.0015
771.8975	-0.0007
772.0713	-0.002
772.2451	0.0081
772.4189	0.0043
772.5927	0.0082
772.7665	0.0005
772.9402	-0.0038
773.1139	0.0099
773.2876	-0.0021
773.4613	0.0116
773.635	0.0113
773.8086	0.0037
773.9822	0.0052
774.1558	0.0113
774.3294	-0.0075
774.503	0.0041
774.6765	0.0076
774.8501	0.0053
775.0236	0.0106
775.1971	0.0149
775.3705	0.0031
775.544	0.0097
775.7174	0.0031
775.8908	0.0095
776.0642	-0.0007
776.2376	0.0081
776.4109	0.002
776.5843	-0.0041
776.7576	0.0066
776.9309	0.0111
777.1041	0.0143
777.2774	0.0075
777.4506	-0.0045
777.6238	-0.0026
777.797	0.0089
777.9702	-0.0009
778.1434	0.0015
778.3165	-0.0105
778.4896	-0.0028
778.6627	0.0141
778.8358	-0.0045
779.0089	-0.0017
779.1819	-0.0017
779.3549	0.0174
779.5279	0.0131
779.7009	0.0013
779.8739	0.0013
780.0468	0.0048
780.2197	0.0109
780.3926	-0.0063
780.5655	0.0015
780.7384	0.0095
780.9112	0.005
781.0841	0.0005
781.2569	0.0139
781.4297	0.0043
781.6024	0.016
781.7752	0.0123
781.9479	0.0031
782.1206	0.0019
782.2933	-0.0093
782.466	0.0185
782.6386	0.007
782.8113	0.0002
782.9839	0.0096
783.1565	0.0136
783.329	0.0002
783.5016	0.0085
783.6741	-0.0039
783.8466	-0.0147
784.0191	0.0285
784.1916	-0.0022
784.3641	0.0028
784.5365	0.0154
784.7089	-0.0027
784.8813	-0.0104
785.0537	0.0002
785.2261	-0.006
785.3984	-0.0066
785.5707	-0.0024
785.743	0.0044
785.9153	-0.0218
786.0876	0.0057
786.2598	-0.0106
786.432	-0.0163
786.6042	0.0106
786.7764	-0.0105
786.9486	0.0034
787.1207	-0.0088
787.2928	-0.0024
787.4649	0.0185
787.637	0.0055
787.8091	0.0045
787.9811	-0.001
788.1532	-0.0097
788.3252	0.0054
788.4972	-0.0155
788.6691	-0.0026
788.8411	0.0076
789.013	-0.0023
789.1849	0.012
789.3568	0.0059
789.5287	0.0015
789.7005	-0.005
789.8723	-0.0018
790.0442	0.0164
790.2159	0.0018
790.3877	-0.0086
790.5595	-0.0172
790.7312	-0.0001
790.9029	0.0049
791.0746	-0.0104
791.2463	-0.0018
791.4179	0.0012
791.5896	-0.0154
791.7612	-0.0001
791.9328	0.0141
792.1044	0.0071
792.2759	-0.0223
792.4474	0.0129
792.619	0.0076
792.7905	0.0042
792.9619	0.0162
793.1334	0.0013
793.3048	0.0079
793.4762	0.0001
793.6476	0.0035
793.819	-0.0018
793.9904	0.0135
794.1617	-0.0099
794.333	-0.0007
794.5043	-0.019
794.6756	-0.01
794.8469	0.0049
795.0181	-0.0017
795.1893	-0.0098
795.3605	0.0017
795.5317	0.0037
795.7029	-0.0016
795.874	0.0032
796.0452	-0.0011
796.2163	0.0001
796.3873	0.0022
796.5584	-0.0016
796.7294	-0.0146
796.9005	0.0048
797.0715	0.0052
797.2425	-0.0202
797.4134	-0.0092
797.5844	-0.0054
797.7553	0.0071
797.9262	0.0003
798.0971	-0.0089
798.2679	-0.0104
798.4388	-0.0087
798.6096	-0.013
798.7804	0.0071
798.9512	-0.0049
799.122	0.006
799.2927	0.0059
799.4635	0.0142
799.6342	0.0013
799.8049	0.0033
799.9755	0.0009
800.1462	-0.006
800.3168	0.0197
800.4874	0.0091
800.658	0.0203
800.8286	0.0015
800.9991	0.0266
801.1696	0.0094
801.3402	0.023
801.5106	0.0075
801.6811	0.0124
801.8516	0.0218
802.022	0.0143
802.1924	0.0213
802.3628	0.0069
802.5332	0.0076
802.7035	0.0387
802.8739	-0.008
803.0442	-0.0048
803.2145	0.0108
803.3847	0.0061
803.555	0.0001
803.7252	-0.0038
803.8954	-0.0043
804.0656	-0.0001
804.2358	0.0188
804.4059	0.0201
804.5761	0.0066
804.7462	0.0034
804.9163	-0.0038
805.0864	-0.0099
805.2564	0.0022
805.4264	0.0024
805.5965	-0.0074
805.7665	0.0253
805.9364	-0.0078
806.1064	0.0383
806.2763	0.028
806.4462	0.0199
806.6161	0.0027
806.786	0.0078
806.9559	0.0084
807.1257	0.0006
807.2955	-0.0005
807.4653	0.0087
807.6351	-0.0109
807.8048	-0.0047
807.9746	0.0284
808.1443	0.0008
808.314	0.0096
808.4837	0.0119
808.6533	0.0139
808.8229	0.0174
808.9926	0.0002
809.1622	0.0153
809.3317	0.0054
809.5013	0.0029
809.6708	0.01
809.8403	0.0248
810.0098	-0.0044
810.1793	0.0109
810.3488	0.0121
810.5182	-0.0196
810.6876	0.0058
810.857	-0.0125
811.0264	0.0178
811.1958	0.0072
811.3651	-0.0074
811.5344	0.0007
811.7037	-0.0099
811.873	-0.0209
812.0422	-0.0019
812.2115	-0.0206
812.3807	0.0106
812.5499	0.0195
812.7191	-0.0012
812.8882	-0.0124
813.0574	0.0018
813.2265	0.0005
813.3956	0.0056
813.5646	0.0052
813.7337	0.0005
813.9027	0.0281
814.0718	0.0245
814.2407	0.0124
814.4097	0.003
814.5787	-0.011
814.7476	-0.0216
814.9165	0.0118
815.0854	0.0101
815.2543	0.0008
815.4232	0.0057
815.592	0.0086
815.7608	0.0134
815.9296	0.0091
816.0984	0.0139
816.2671	0.0026
816.4359	0.0118
816.6046	0.0237
816.7733	0.0082
816.942	-0.0152
817.1106	0.0208
817.2793	0.0334
817.4479	0.0139
817.6165	0.0184
817.785	0.0079
817.9536	-0.003
818.1221	-0.0062
818.2906	-0.0027
818.4591	-0.0056
818.6276	-0.0147
818.7961	0.0212
818.9645	0.0308
819.1329	0.0066
819.3013	0.026
819.4697	0.0092
819.638	0.012
819.8064	0.0019
819.9747	-0.0019
820.143	0.0354
820.3113	0.0124
820.4795	-0.0081
820.6477	0.025
820.816	-0.0019
820.9842	0.0053
821.1523	-0.0041
821.3205	0.0315
821.4886	0.0179
821.6567	0.0253
821.8248	0.0072
821.9929	0.0218
822.1609	0.0211
822.329	0.031
822.497	0.0229
822.665	-0.0194
822.833	0.0249
823.0009	0.021
823.1688	0.0136
823.3367	0.0341
823.5046	0.0163
823.6725	0.0435
823.8404	0.0123
824.0082	0.037
824.176	0.0364
824.3438	0.0124
824.5116	0.0049
824.6793	0.0204
824.847	-0.003
825.0147	0.0173
825.1824	0.0327
825.3501	0.0255
825.5177	-0.0158
825.6854	0.013
825.853	0.0053
826.0206	-0.0333
826.1881	-0.0149
826.3557	-0.0214
826.5232	0.0068
826.6907	-0.0126
826.8582	-0.0157
827.0257	0.0026
827.1931	-0.0082
827.3605	0.0375
827.528	-0.0011
827.6953	-0.0117
827.8627	0.0012
828.03	0.0541
828.1974	0.025
828.3647	-0.0188
828.532	0.0247
828.6992	0.0013
828.8665	0.0129
829.0337	-0.0175
829.2009	0.0357
829.3681	-0.0032
829.5352	0.0541
829.7024	-0.0165
829.8695	0.0158
830.0366	0.0405
830.2037	-0.0057
830.3707	0.0358
830.5378	-0.0065
830.7048	0.0092
830.8718	0.0227
831.0388	0.0103
831.2057	0.0079
831.3727	0.0162
831.5396	-0.018
831.7065	-0.0138
831.8734	0.0306
832.0402	0.004
832.2071	0.0072
832.3739	-0.0097
832.5407	0.0418
832.7075	-0.0058
832.8742	-0.002
833.041	0.0024
833.2077	0.0191
833.3744	0.0598
833.541	-0.015
833.7077	0.0074
833.8743	0.0097
834.0409	0.0091
834.2075	0.0225
834.3741	-0.0201
834.5407	0.0153
834.7072	-0.0059
834.8737	0.0112
835.0402	-0.0049
835.2067	0.0562
835.3731	0.0531
835.5395	0.0121
835.706	0.0306
835.8723	0.0249
836.0387	0.0349
836.2051	-0.0037
836.3714	0.0144
836.5377	-0.0057
836.704	-0.017
836.8703	0.0309
837.0365	0.0339
837.2027	0.0199
837.3689	0.0534
837.5351	-0.0099
837.7013	-0.0274
837.8674	-0.0514
838.0335	-0.0045
838.1997	0.0014
838.3657	0.0059
838.5318	-0.0024
838.6978	0.007
838.8639	0.0156
839.0299	0.0049
839.1958	0.0068
839.3618	0.0317
839.5277	-0.0324
839.6937	0.027
839.8596	0.0375
840.0254	0.02
840.1913	0.0039
840.3571	0.0157
840.523	0.0211
840.6888	-0.0205
840.8545	-0.0345
841.0203	0.0212
841.186	-0.0129
841.3517	0.0015
841.5174	-0.0012
841.6831	-0.0196
841.8488	-0.0092
842.0144	0.0359
842.18	0.0042
842.3456	0.044
842.5112	0.013
842.6767	0.0239
842.8422	-0.0273
843.0077	-0.0282
843.1732	0.0285
843.3387	-0.0004
843.5042	-0.0264
843.6696	0.0069
843.835	0.0572
844.0004	0.0165
844.1657	0.016
844.3311	-0.0056
844.4964	-0.0637
844.6617	-0.0507
844.827	-0.0208
844.9923	-0.0438
845.1575	0.0291
845.3227	0.0197
845.4879	-0.0082
845.6531	-0.0136
845.8183	-0.049
845.9834	0.0847
846.1485	-0.0111
846.3136	-0.0227
846.4787	-0.0217
846.6438	0.0777
846.8088	-0.0549
846.9738	-0.0459
847.1388	0.0168
847.3038	-0.0283
847.4687	-0.1575
847.6337	0.0532
847.7986	0.0036
847.9635	-0.0303
848.1284	0.0486
848.2932	0.0607
848.458	0.0404
848.6228	0.0766
848.7876	0.0548
848.9524	-0.0987
849.1172	-0.127
849.2819	0.0151
849.4466	-0.0962
849.6113	-0.005
849.7759	-0.037
849.9406	0.0029
850.1052	0.0526
850.2698	-0.059
850.4344	0.0194
850.599	0.0657
850.7635	0.038
850.928	0.0273
851.0925	0.1409
851.257	-0.0443
851.4215	0.0877
851.5859	-0.0364
851.7503	0.0727
851.9147	0.0354
852.0791	-0.0565
852.2434	-0.08
852.4078	0.0616
852.5721	0.058
852.7364	0.0332
852.9007	-0.1484
853.0649	-0.0123
853.2291	0.0382
853.3934	0.0828
853.5575	0.0305
853.7217	-0.1289
853.8859	0.0027
854.05	-0.0577
854.2141	0.0096
854.3782	-0.0466
854.5423	-0.1022
854.7063	0.2251
854.8703	0.0774
855.0343	-0.0624
855.1983	-0.1371
855.3623	0.124
855.5262	0.0802
855.6901	0.0481
855.854	0.0226
856.0179	0.0791
856.1818	0.1758
856.3456	-0.1004
856.5094	-0.0215
856.6732	-0.1526
856.837	-0.0746
857.0008	0.0434
857.1645	0.0207
857.3282	-0.207
857.4919	0.1108
857.6556	0.0153
857.8192	0.0295
857.9828	0.09
858.1465	-0.0013
858.31	-0.1155
858.4736	0.1069
858.6372	-0.1432
858.8007	-0.108
858.9642	0.0568
859.1277	-0.1098
859.2911	0.1994
859.4546	-0.0094
859.618	-0.2389
859.7814	-0.0078
859.9448	0.0688
860.1081	0.0604
860.2715	0.181
860.4348	0.0351
860.5981	0.0429
860.7614	0.0772
860.9246	0.0211
861.0879	-0.1489
861.2511	0.0178
861.4143	-0.0621
861.5774	0.3872
861.7406	-0.2069
861.9037	0.0911
862.0668	0.24
862.2299	-0.2185
862.393	-0.3469
862.556	-0.0163
862.7191	0.0718
862.8821	-0.1316
863.0451	0.0206
863.208	0.0757
863.371	0.1096
863.5339	-0.1129
863.6968	0.0674
863.8597	-0
864.0225	-0.1065
864.1854	-0.1952
864.3482	0.6289
864.511	0.1801
864.6737	0.0923
864.8365	0.0283
864.9992	-0.0084
865.1619	-0.3276
865.3246	0.1678
865.4873	-0.0901
865.65	0.138
865.8126	0.4745
865.9752	-0.0527
866.1378	-0.0491
866.3004	0.433
866.4629	0.1402
866.6254	0.1182
866.7879	0.2155
866.9504	-0
867.1129	-0.8149
867.2753	0.6032
867.4377	0.2305
867.6001	-0.0643
867.7625	0.4225
867.9249	-0.5998
868.0872	0.8254
868.2495	0.1637
868.4118	-0.2946
868.5741	-0.5915
868.7363	0.4437
868.8986	-0.4174
869.0608	-0.3098
869.223	1.0653
869.3851	-0.0598
869.5473	-0
869.7094	0.2586
869.8715	-0
870.0336	-0.2009
870.1957	-0
870.3577	-0.8337
870.5197	0.1038
870.6817	-0.0976
870.8437	-0.2332
871.0057	-0.5665
871.1676	-0
871.3295	-0.0308
871.4914	-1.06
871.6533	0.1496
871.8151	-0.0344
871.977	-0
872.1388	-0
872.3006	-0.5301
872.4623	0.5464
872.6241	1.0558
872.7858	0.0231
872.9475	0.46
873.1092	-0.0441
873.2709	-0
873.4325	-0
873.5941	-0
873.7557	-0
873.9173	-0
874.0789	-0.4504
874.2404	-0.4119
874.4019	0.0745
874.5634	0.1444
874.7249	0.6524
874.8863	0.2218
875.0478	0.8526
875.2092	-0
875.3706	0.12
875.5319	-0
875.6933	0.7054
875.8546	0.1856
876.0159	-0.3606
876.1772	0.3296
876.3385	-0
876.4997	-0
876.6609	0.1143
876.8221	-0
876.9833	-0.0423
877.1445	-0
877.3056	0.2463
877.4667	-0.1364
877.6278	-0.1379
877.7889	0.5643
877.9499	-0
878.111	-0.2162
878.272	-1.0485
878.433	-0.1379
878.5939	0.0825
878.7549	0.2061
878.9158	-0
879.0767	-0
879.2376	-0
879.3984	-0
879.5593	-0
879.7201	-0
879.8809	-0.7887
880.0417	-0.3569
880.2024	-0
880.3632	-0
880.5239	0.4507
880.6846	-0
880.8452	-2.0453
881.0059	-0
881.1665	0.0845
881.3271	-0.2458
881.4877	-0.5047
881.6483	-0.5289
881.8088	-0.2122
881.9693	0.368
882.1298	0.368
882.2903	0.368
