Data from MonoPyChalIsomerACN10uM440nmA_Absorbance_15-27-15-694.txt Node
Date: Fri Jul 05 15:27:15 BST 2024
User: LASERRRRR
Spectrometer: FLMT03099
Trigger mode: 0
Integration Time (sec): 1.000000E-1
Scans to average: 1
Electric dark correction enabled: true
Nonlinearity correction enabled: false
Boxcar width: 0
XAxis mode: Wavelengths
Number of Pixels in Spectrum: 3648
>>>>>Begin Spectral Data<<<<<
179.3399	0.1671
179.5586	0.1671
179.7771	0.1671
179.9957	0.541
180.2143	-0
180.4329	-0.3186
180.6514	0.1659
180.8699	0.6453
181.0885	0.5948
181.307	0.0196
181.5255	-0
181.744	-0.7287
181.9625	-0
182.181	-0
182.3994	0.039
182.6179	0.5384
182.8363	0.7109
183.0547	0.1341
183.2732	0.041
183.4916	0.3253
183.71	0.1247
183.9284	0.09
184.1467	-0.0326
184.3651	0.0036
184.5835	-0.0011
184.8018	0.6166
185.0201	-0.0429
185.2385	0.0249
185.4568	0.511
185.6751	-0.0754
185.8934	0.3331
186.1117	-0.0503
186.3299	-0.0222
186.5482	0.3303
186.7664	-0.1555
186.9847	0.0521
187.2029	0.1056
187.4211	0.0788
187.6393	-0.0511
187.8575	-0.0074
188.0757	0.3609
188.2939	0.0356
188.512	0.3832
188.7302	-0.0714
188.9483	0.3505
189.1665	0.287
189.3846	0.1285
189.6027	0.2293
189.8208	0.2317
190.0389	0.326
190.257	0.0842
190.475	0.0664
190.6931	0.2925
190.9111	0.6153
191.1292	0.0707
191.3472	0.3282
191.5652	0.2798
191.7832	0.1924
192.0012	0.5946
192.2192	0.2244
192.4371	0.5528
192.6551	0.376
192.873	0.4472
193.091	0.4667
193.3089	0.5721
193.5268	0.3998
193.7447	0.6643
193.9626	0.6541
194.1805	0.6451
194.3984	0.8188
194.6162	0.5443
194.8341	0.8276
195.0519	0.5252
195.2697	0.7029
195.4875	0.5437
195.7054	0.586
195.9231	0.477
196.1409	0.8096
196.3587	0.5179
196.5765	0.6928
196.7942	0.7303
197.012	0.6665
197.2297	0.7339
197.4474	0.9316
197.6651	0.4816
197.8828	0.5926
198.1005	0.4752
198.3182	0.6809
198.5358	0.9575
198.7535	0.6763
198.9711	0.6514
199.1888	0.6223
199.4064	0.8018
199.624	0.5599
199.8416	0.6754
200.0592	0.6904
200.2767	0.6364
200.4943	0.6345
200.7119	0.8043
200.9294	0.6965
201.1469	0.6194
201.3645	0.6
201.582	0.61
201.7995	0.6254
202.017	0.7928
202.2344	0.566
202.4519	0.6873
202.6694	0.745
202.8868	0.586
203.1042	0.7425
203.3217	0.7406
203.5391	0.7703
203.7565	0.6727
203.9739	0.6737
204.1913	0.5759
204.4086	0.6581
204.626	0.7509
204.8433	0.7539
205.0607	0.6394
205.278	0.5994
205.4953	0.7067
205.7126	0.6825
205.9299	0.7041
206.1472	0.7395
206.3644	0.7012
206.5817	0.7045
206.7989	0.7628
207.0162	0.6815
207.2334	0.778
207.4506	0.6764
207.6678	0.6557
207.885	0.6828
208.1022	0.6607
208.3194	0.664
208.5365	0.6528
208.7537	0.6694
208.9708	0.5258
209.1879	0.7265
209.405	0.6691
209.6222	0.6648
209.8392	0.6479
210.0563	0.6256
210.2734	0.6543
210.4905	0.6122
210.7075	0.6019
210.9245	0.642
211.1416	0.7118
211.3586	0.6277
211.5756	0.6253
211.7926	0.624
212.0096	0.6013
212.2265	0.5864
212.4435	0.6025
212.6604	0.5871
212.8774	0.577
213.0943	0.5897
213.3112	0.5664
213.5281	0.5289
213.745	0.4939
213.9619	0.5475
214.1788	0.5097
214.3956	0.4782
214.6125	0.456
214.8293	0.4617
215.0461	0.5072
215.2629	0.4612
215.4798	0.4769
215.6965	0.4312
215.9133	0.4551
216.1301	0.4125
216.3469	0.4429
216.5636	0.4142
216.7803	0.4227
216.9971	0.416
217.2138	0.3618
217.4305	0.3815
217.6472	0.3505
217.8639	0.4016
218.0805	0.3719
218.2972	0.3497
218.5138	0.3501
218.7305	0.337
218.9471	0.3191
219.1637	0.2952
219.3803	0.311
219.5969	0.2853
219.8135	0.2841
220.0301	0.2759
220.2466	0.2518
220.4632	0.2666
220.6797	0.2436
220.8962	0.2332
221.1127	0.2267
221.3292	0.2466
221.5457	0.2176
221.7622	0.2249
221.9787	0.2604
222.1951	0.2354
222.4116	0.2465
222.628	0.2607
222.8444	0.258
223.0608	0.2488
223.2772	0.2239
223.4936	0.2622
223.71	0.2513
223.9264	0.2592
224.1427	0.2465
224.3591	0.2402
224.5754	0.2623
224.7917	0.2489
225.008	0.2417
225.2243	0.2672
225.4406	0.2903
225.6569	0.2564
225.8732	0.2513
226.0894	0.2773
226.3057	0.2738
226.5219	0.2698
226.7381	0.2638
226.9543	0.2786
227.1705	0.2872
227.3867	0.2856
227.6029	0.2814
227.8191	0.2936
228.0352	0.2909
228.2513	0.3103
228.4675	0.3149
228.6836	0.2973
228.8997	0.2877
229.1158	0.2997
229.3319	0.3184
229.548	0.3117
229.764	0.3104
229.9801	0.3157
230.1961	0.3113
230.4121	0.3321
230.6282	0.3312
230.8442	0.3262
231.0602	0.3142
231.2761	0.3377
231.4921	0.3425
231.7081	0.357
231.924	0.3454
232.14	0.3704
232.3559	0.3564
232.5718	0.3672
232.7877	0.36
233.0036	0.3392
233.2195	0.356
233.4353	0.3476
233.6512	0.3647
233.867	0.345
234.0829	0.362
234.2987	0.3491
234.5145	0.3701
234.7303	0.3529
234.9461	0.3737
235.1619	0.3823
235.3776	0.383
235.5934	0.3724
235.8091	0.3586
236.0249	0.3711
236.2406	0.3984
236.4563	0.3649
236.672	0.394
236.8877	0.4087
237.1034	0.377
237.319	0.3864
237.5347	0.3884
237.7503	0.4197
237.966	0.3927
238.1816	0.4139
238.3972	0.4005
238.6128	0.387
238.8284	0.4072
239.0439	0.41
239.2595	0.3939
239.475	0.4033
239.6906	0.4255
239.9061	0.3897
240.1216	0.4061
240.3371	0.3882
240.5526	0.4001
240.7681	0.4118
240.9836	0.4037
241.199	0.3874
241.4145	0.3762
241.6299	0.3724
241.8453	0.388
242.0607	0.3895
242.2761	0.3675
242.4915	0.3687
242.7069	0.3564
242.9223	0.3469
243.1376	0.327
243.353	0.3607
243.5683	0.3463
243.7836	0.3262
243.9989	0.3269
244.2142	0.3131
244.4295	0.3343
244.6448	0.3143
244.86	0.2818
245.0753	0.2823
245.2905	0.2836
245.5057	0.2862
245.721	0.2689
245.9362	0.2741
246.1514	0.2727
246.3665	0.2683
246.5817	0.26
246.7969	0.26
247.012	0.2421
247.2271	0.2358
247.4423	0.2518
247.6574	0.2508
247.8725	0.2382
248.0876	0.2112
248.3026	0.2168
248.5177	0.2197
248.7328	0.2128
248.9478	0.1998
249.1628	0.2203
249.3779	0.2131
249.5929	0.1939
249.8079	0.222
250.0228	0.2128
250.2378	0.2006
250.4528	0.2168
250.6677	0.1815
250.8827	0.2017
251.0976	0.1933
251.3125	0.2012
251.5274	0.1789
251.7423	0.185
251.9572	0.191
252.172	0.1773
252.3869	0.1919
252.6017	0.1882
252.8166	0.1675
253.0314	0.1684
253.2462	0.1609
253.461	0.1732
253.6758	0.1829
253.8906	0.1824
254.1053	0.1651
254.3201	0.1634
254.5348	0.1789
254.7496	0.1872
254.9643	0.1723
255.179	0.1722
255.3937	0.1692
255.6083	0.1846
255.823	0.1671
256.0377	0.1629
256.2523	0.1734
256.467	0.1586
256.6816	0.1702
256.8962	0.1613
257.1108	0.153
257.3254	0.1848
257.54	0.169
257.7545	0.1668
257.9691	0.1665
258.1836	0.1602
258.3981	0.179
258.6127	0.1621
258.8272	0.1523
259.0417	0.1727
259.2561	0.1689
259.4706	0.158
259.6851	0.1599
259.8995	0.1616
260.114	0.1598
260.3284	0.169
260.5428	0.1546
260.7572	0.1715
260.9716	0.1575
261.186	0.1509
261.4003	0.1548
261.6147	0.1649
261.829	0.1662
262.0433	0.1591
262.2577	0.1568
262.472	0.1666
262.6863	0.1523
262.9005	0.1668
263.1148	0.1682
263.3291	0.1453
263.5433	0.1649
263.7576	0.1679
263.9718	0.1701
264.186	0.1665
264.4002	0.1705
264.6144	0.1637
264.8286	0.1713
265.0427	0.1644
265.2569	0.1488
265.471	0.1534
265.6851	0.1454
265.8993	0.1515
266.1134	0.1705
266.3275	0.1555
266.5415	0.169
266.7556	0.1728
266.9697	0.1672
267.1837	0.1681
267.3978	0.1639
267.6118	0.1627
267.8258	0.1697
268.0398	0.1664
268.2538	0.1629
268.4677	0.1637
268.6817	0.1488
268.8957	0.1608
269.1096	0.1697
269.3235	0.1633
269.5374	0.1453
269.7514	0.1461
269.9652	0.1587
270.1791	0.1481
270.393	0.1496
270.6068	0.1531
270.8207	0.155
271.0345	0.1539
271.2483	0.1534
271.4622	0.1458
271.676	0.1498
271.8897	0.1453
272.1035	0.1396
272.3173	0.1528
272.531	0.1404
272.7448	0.1428
272.9585	0.1369
273.1722	0.1493
273.3859	0.1495
273.5996	0.1366
273.8133	0.1462
274.0269	0.1468
274.2406	0.142
274.4542	0.1499
274.6679	0.1361
274.8815	0.1361
275.0951	0.1524
275.3087	0.1524
275.5223	0.1529
275.7358	0.1376
275.9494	0.1382
276.1629	0.1452
276.3765	0.131
276.59	0.1451
276.8035	0.1506
277.017	0.1469
277.2305	0.1488
277.444	0.1585
277.6574	0.1424
277.8709	0.1536
278.0843	0.1525
278.2978	0.1564
278.5112	0.1253
278.7246	0.1443
278.938	0.1531
279.1513	0.1569
279.3647	0.1631
279.5781	0.1484
279.7914	0.1678
280.0047	0.1642
280.2181	0.1602
280.4314	0.1574
280.6447	0.1602
280.8579	0.1522
281.0712	0.1596
281.2845	0.1439
281.4977	0.1626
281.711	0.1476
281.9242	0.1417
282.1374	0.1481
282.3506	0.1506
282.5638	0.1683
282.7769	0.1608
282.9901	0.1506
283.2033	0.1616
283.4164	0.1662
283.6295	0.1463
283.8426	0.1456
284.0557	0.159
284.2688	0.1518
284.4819	0.1594
284.695	0.1505
284.908	0.167
285.1211	0.1516
285.3341	0.1468
285.5471	0.169
285.7601	0.1628
285.9731	0.1555
286.1861	0.1507
286.3991	0.1684
286.612	0.1739
286.825	0.1569
287.0379	0.1683
287.2508	0.1547
287.4637	0.1608
287.6766	0.1583
287.8895	0.1687
288.1024	0.1754
288.3152	0.1695
288.5281	0.1444
288.7409	0.1708
288.9538	0.155
289.1666	0.1605
289.3794	0.1651
289.5922	0.1645
289.8049	0.1656
290.0177	0.1621
290.2304	0.1724
290.4432	0.1626
290.6559	0.171
290.8686	0.1598
291.0813	0.1643
291.294	0.1767
291.5067	0.1761
291.7194	0.1604
291.932	0.1735
292.1447	0.1587
292.3573	0.151
292.5699	0.1557
292.7825	0.1608
292.9951	0.164
293.2077	0.1546
293.4203	0.1689
293.6328	0.1555
293.8454	0.1593
294.0579	0.1601
294.2704	0.1551
294.4829	0.1551
294.6954	0.1662
294.9079	0.1691
295.1204	0.1532
295.3328	0.1599
295.5453	0.1548
295.7577	0.1677
295.9701	0.1543
296.1825	0.1671
296.3949	0.1537
296.6073	0.1628
296.8197	0.1631
297.0321	0.1659
297.2444	0.1425
297.4567	0.1635
297.6691	0.1622
297.8814	0.1574
298.0937	0.1645
298.306	0.1604
298.5182	0.1611
298.7305	0.1651
298.9428	0.1506
299.155	0.1606
299.3672	0.1486
299.5794	0.1597
299.7916	0.1594
300.0038	0.1649
300.216	0.1592
300.4282	0.1597
300.6403	0.1527
300.8525	0.1615
301.0646	0.1513
301.2767	0.1625
301.4888	0.1612
301.7009	0.1559
301.913	0.1614
302.125	0.1553
302.3371	0.1632
302.5491	0.1723
302.7612	0.1607
302.9732	0.1632
303.1852	0.1701
303.3972	0.1485
303.6092	0.1444
303.8211	0.1578
304.0331	0.147
304.245	0.1521
304.457	0.1491
304.6689	0.1518
304.8808	0.1604
305.0927	0.1581
305.3046	0.1481
305.5164	0.1644
305.7283	0.1425
305.9401	0.1481
306.152	0.1412
306.3638	0.1454
306.5756	0.1424
306.7874	0.1428
306.9992	0.1406
307.2109	0.1377
307.4227	0.1298
307.6344	0.1458
307.8462	0.138
308.0579	0.1327
308.2696	0.1234
308.4813	0.1355
308.693	0.126
308.9046	0.1349
309.1163	0.1265
309.328	0.1203
309.5396	0.116
309.7512	0.1157
309.9628	0.1254
310.1744	0.1225
310.386	0.1258
310.5976	0.116
310.8091	0.1177
311.0207	0.1183
311.2322	0.121
311.4437	0.1035
311.6552	0.1158
311.8667	0.1156
312.0782	0.096
312.2897	0.1021
312.5012	0.1043
312.7126	0.1017
312.924	0.0985
313.1355	0.1107
313.3469	0.1148
313.5583	0.108
313.7696	0.1034
313.981	0.1102
314.1924	0.0998
314.4037	0.0942
314.6151	0.1152
314.8264	0.1057
315.0377	0.0982
315.249	0.098
315.4603	0.1095
315.6716	0.1055
315.8828	0.0965
316.0941	0.1007
316.3053	0.1004
316.5165	0.0906
316.7277	0.0915
316.9389	0.1075
317.1501	0.1014
317.3613	0.1089
317.5724	0.0918
317.7836	0.0997
317.9947	0.1008
318.2058	0.099
318.417	0.0969
318.6281	0.0946
318.8391	0.0947
319.0502	0.1011
319.2613	0.1008
319.4723	0.1034
319.6834	0.1005
319.8944	0.09
320.1054	0.0999
320.3164	0.1043
320.5274	0.0927
320.7383	0.104
320.9493	0.1041
321.1602	0.1116
321.3712	0.0908
321.5821	0.0865
321.793	0.0999
322.0039	0.1083
322.2148	0.0969
322.4257	0.1034
322.6365	0.1089
322.8474	0.1024
323.0582	0.0941
323.269	0.1027
323.4798	0.113
323.6906	0.1091
323.9014	0.1068
324.1122	0.0994
324.3229	0.0963
324.5337	0.1026
324.7444	0.0972
324.9551	0.1206
325.1658	0.1078
325.3765	0.1001
325.5872	0.101
325.7979	0.099
326.0085	0.0988
326.2192	0.1037
326.4298	0.0952
326.6404	0.0974
326.851	0.0917
327.0616	0.1029
327.2722	0.1149
327.4828	0.1152
327.6933	0.1053
327.9039	0.1123
328.1144	0.1123
328.3249	0.1094
328.5354	0.1024
328.7459	0.1071
328.9564	0.1012
329.1669	0.1089
329.3773	0.108
329.5878	0.1042
329.7982	0.1055
330.0086	0.1026
330.219	0.1034
330.4294	0.1058
330.6398	0.1069
330.8502	0.1002
331.0605	0.1064
331.2708	0.111
331.4812	0.11
331.6915	0.1233
331.9018	0.1041
332.1121	0.108
332.3224	0.1024
332.5326	0.117
332.7429	0.0987
332.9531	0.1224
333.1633	0.0999
333.3735	0.1106
333.5837	0.1085
333.7939	0.1089
334.0041	0.1176
334.2143	0.1149
334.4244	0.115
334.6346	0.0904
334.8447	0.1241
335.0548	0.1047
335.2649	0.1033
335.475	0.1119
335.685	0.1071
335.8951	0.1223
336.1051	0.1205
336.3152	0.1123
336.5252	0.1181
336.7352	0.115
336.9452	0.1195
337.1552	0.1061
337.3652	0.1039
337.5751	0.0979
337.7851	0.1161
337.995	0.109
338.2049	0.1172
338.4148	0.1182
338.6247	0.1145
338.8346	0.1083
339.0445	0.1035
339.2543	0.1131
339.4642	0.127
339.674	0.1189
339.8838	0.1164
340.0936	0.1133
340.3034	0.122
340.5132	0.117
340.7229	0.1237
340.9327	0.1142
341.1424	0.1179
341.3522	0.1312
341.5619	0.124
341.7716	0.1161
341.9813	0.1102
342.1909	0.1293
342.4006	0.1201
342.6102	0.1298
342.8199	0.1228
343.0295	0.1331
343.2391	0.1278
343.4487	0.1341
343.6583	0.1271
343.8679	0.1206
344.0774	0.1201
344.287	0.136
344.4965	0.1274
344.706	0.1311
344.9155	0.1319
345.125	0.1421
345.3345	0.1393
345.544	0.1216
345.7534	0.136
345.9629	0.1192
346.1723	0.1243
346.3817	0.125
346.5911	0.1304
346.8005	0.1346
347.0099	0.1344
347.2193	0.133
347.4286	0.1253
347.638	0.1373
347.8473	0.1395
348.0566	0.1305
348.2659	0.1326
348.4752	0.1406
348.6845	0.1199
348.8937	0.1378
349.103	0.1472
349.3122	0.1357
349.5214	0.144
349.7306	0.1466
349.9398	0.1303
350.149	0.1393
350.3582	0.1388
350.5674	0.148
350.7765	0.1528
350.9856	0.1401
351.1948	0.1349
351.4039	0.1349
351.613	0.1268
351.822	0.1574
352.0311	0.1441
352.2402	0.1461
352.4492	0.1533
352.6582	0.1461
352.8672	0.1495
353.0762	0.1601
353.2852	0.1486
353.4942	0.129
353.7032	0.1482
353.9121	0.152
354.1211	0.1551
354.33	0.1517
354.5389	0.1508
354.7478	0.1337
354.9567	0.1441
355.1655	0.1538
355.3744	0.1592
355.5833	0.1608
355.7921	0.1612
356.0009	0.156
356.2097	0.1695
356.4185	0.1617
356.6273	0.1591
356.8361	0.1683
357.0448	0.1666
357.2536	0.1531
357.4623	0.1551
357.671	0.1594
357.8797	0.1629
358.0884	0.1641
358.2971	0.1531
358.5057	0.1602
358.7144	0.1767
358.923	0.164
359.1316	0.1558
359.3402	0.1776
359.5488	0.1683
359.7574	0.1546
359.966	0.1762
360.1746	0.1755
360.3831	0.173
360.5916	0.1724
360.8002	0.1674
361.0087	0.1831
361.2172	0.1882
361.4256	0.1673
361.6341	0.189
361.8426	0.1894
362.051	0.1804
362.2594	0.1687
362.4678	0.1804
362.6762	0.1977
362.8846	0.1819
363.093	0.1801
363.3014	0.1943
363.5097	0.1755
363.718	0.1886
363.9264	0.1835
364.1347	0.1746
364.343	0.2066
364.5513	0.1971
364.7595	0.2028
364.9678	0.1817
365.176	0.1739
365.3842	0.1773
365.5925	0.1917
365.8007	0.1869
366.0089	0.1884
366.217	0.1839
366.4252	0.209
366.6333	0.1975
366.8415	0.1769
367.0496	0.1956
367.2577	0.2001
367.4658	0.2059
367.6739	0.2033
367.882	0.2177
368.09	0.2031
368.2981	0.2014
368.5061	0.205
368.7141	0.1997
368.9221	0.2063
369.1301	0.2262
369.3381	0.2158
369.5461	0.2093
369.754	0.1923
369.962	0.2119
370.1699	0.2221
370.3778	0.2202
370.5857	0.1975
370.7936	0.2108
371.0015	0.1981
371.2093	0.221
371.4172	0.2419
371.625	0.2046
371.8328	0.2128
372.0406	0.2253
372.2484	0.2269
372.4562	0.2211
372.664	0.2089
372.8717	0.2278
373.0795	0.2113
373.2872	0.2184
373.4949	0.2328
373.7026	0.2213
373.9103	0.2193
374.118	0.2146
374.3256	0.2304
374.5333	0.2185
374.7409	0.211
374.9485	0.2313
375.1561	0.2272
375.3637	0.215
375.5713	0.22
375.7789	0.2288
375.9864	0.2251
376.194	0.2264
376.4015	0.2468
376.609	0.2554
376.8165	0.2459
377.024	0.2323
377.2315	0.22
377.4389	0.2361
377.6464	0.2331
377.8538	0.2432
378.0612	0.2362
378.2686	0.2317
378.476	0.2605
378.6834	0.2347
378.8908	0.2332
379.0981	0.2359
379.3055	0.2375
379.5128	0.2288
379.7201	0.2452
379.9274	0.2421
380.1347	0.2237
380.342	0.2764
380.5492	0.2397
380.7565	0.2346
380.9637	0.2291
381.1709	0.261
381.3781	0.2462
381.5853	0.2562
381.7925	0.2408
381.9997	0.2424
382.2068	0.2633
382.4139	0.2536
382.6211	0.2383
382.8282	0.2528
383.0353	0.2527
383.2424	0.2374
383.4494	0.2623
383.6565	0.2396
383.8635	0.2461
384.0706	0.2517
384.2776	0.2483
384.4846	0.2477
384.6916	0.2659
384.8986	0.2504
385.1055	0.2475
385.3125	0.2297
385.5194	0.2307
385.7263	0.244
385.9333	0.241
386.1402	0.2527
386.347	0.259
386.5539	0.2413
386.7608	0.2545
386.9676	0.2356
387.1744	0.2514
387.3813	0.2217
387.5881	0.2322
387.7948	0.2483
388.0016	0.2381
388.2084	0.2426
388.4151	0.2294
388.6219	0.2334
388.8286	0.2297
389.0353	0.2662
389.242	0.2413
389.4487	0.2592
389.6553	0.2303
389.862	0.2221
390.0686	0.2324
390.2753	0.2357
390.4819	0.2464
390.6885	0.2355
390.8951	0.2437
391.1016	0.2233
391.3082	0.2388
391.5147	0.2382
391.7213	0.2306
391.9278	0.221
392.1343	0.2182
392.3408	0.2267
392.5473	0.2331
392.7537	0.2266
392.9602	0.2237
393.1666	0.2327
393.373	0.2267
393.5794	0.2279
393.7858	0.2393
393.9922	0.2191
394.1986	0.2271
394.4049	0.2284
394.6113	0.2123
394.8176	0.2014
395.0239	0.2135
395.2302	0.2073
395.4365	0.2085
395.6428	0.2194
395.8491	0.2001
396.0553	0.212
396.2615	0.2252
396.4678	0.2204
396.674	0.193
396.8802	0.2105
397.0863	0.2315
397.2925	0.209
397.4987	0.2036
397.7048	0.2113
397.9109	0.2024
398.117	0.2022
398.3231	0.1932
398.5292	0.2032
398.7353	0.2139
398.9413	0.203
399.1474	0.2093
399.3534	0.2095
399.5594	0.2007
399.7654	0.211
399.9714	0.2207
400.1774	0.2094
400.3833	0.2018
400.5893	0.2282
400.7952	0.2135
401.0011	0.1966
401.207	0.2092
401.4129	0.2083
401.6188	0.2062
401.8247	0.2164
402.0305	0.1906
402.2364	0.2113
402.4422	0.2149
402.648	0.2204
402.8538	0.2279
403.0596	0.2171
403.2654	0.2148
403.4711	0.1982
403.6768	0.2056
403.8826	0.2277
404.0883	0.208
404.294	0.2292
404.4997	0.2163
404.7054	0.2087
404.911	0.2
405.1167	0.2053
405.3223	0.2011
405.5279	0.2297
405.7335	0.1958
405.9391	0.195
406.1447	0.2059
406.3502	0.2382
406.5558	0.2106
406.7613	0.196
406.9668	0.219
407.1724	0.2068
407.3778	0.2121
407.5833	0.1906
407.7888	0.1974
407.9942	0.2149
408.1997	0.1965
408.4051	0.2015
408.6105	0.2025
408.8159	0.1928
409.0213	0.1938
409.2267	0.2253
409.432	0.1946
409.6374	0.2203
409.8427	0.1965
410.048	0.214
410.2533	0.2037
410.4586	0.207
410.6639	0.1816
410.8691	0.2032
411.0744	0.1832
411.2796	0.2058
411.4848	0.2055
411.69	0.2137
411.8952	0.2083
412.1004	0.1839
412.3056	0.2211
412.5107	0.2034
412.7158	0.2253
412.921	0.1857
413.1261	0.1913
413.3312	0.1948
413.5362	0.2146
413.7413	0.1954
413.9464	0.1955
414.1514	0.1997
414.3564	0.2039
414.5614	0.185
414.7664	0.1975
414.9714	0.2101
415.1764	0.203
415.3813	0.2108
415.5863	0.1953
415.7912	0.1953
415.9961	0.1844
416.201	0.2096
416.4059	0.2007
416.6108	0.1924
416.8156	0.2201
417.0205	0.1972
417.2253	0.1894
417.4301	0.202
417.6349	0.1858
417.8397	0.1769
418.0445	0.1971
418.2492	0.1972
418.454	0.1987
418.6587	0.1797
418.8634	0.195
419.0681	0.1701
419.2728	0.1801
419.4775	0.1852
419.6822	0.1793
419.8868	0.1732
420.0915	0.1867
420.2961	0.1678
420.5007	0.1662
420.7053	0.1973
420.9099	0.1695
421.1144	0.1833
421.319	0.1889
421.5235	0.189
421.728	0.1892
421.9325	0.1865
422.137	0.1809
422.3415	0.1687
422.546	0.1863
422.7504	0.1893
422.9549	0.1865
423.1593	0.1731
423.3637	0.1715
423.5681	0.1759
423.7725	0.1613
423.9769	0.1731
424.1812	0.1721
424.3856	0.1611
424.5899	0.1984
424.7942	0.1743
424.9985	0.1817
425.2028	0.1721
425.4071	0.1845
425.6113	0.1543
425.8156	0.1593
426.0198	0.1789
426.224	0.1744
426.4282	0.1641
426.6324	0.1647
426.8366	0.1604
427.0407	0.1694
427.2449	0.1652
427.449	0.1639
427.6531	0.1453
427.8572	0.1473
428.0613	0.1539
428.2654	0.1478
428.4694	0.1508
428.6735	0.1435
428.8775	0.1609
429.0815	0.1632
429.2855	0.1211
429.4895	0.1596
429.6935	0.1611
429.8975	0.1503
430.1014	0.1328
430.3053	0.1298
430.5093	0.1343
430.7132	0.1246
430.9171	0.1248
431.1209	0.1273
431.3248	0.1271
431.5286	0.1447
431.7325	0.1319
431.9363	0.116
432.1401	0.1391
432.3439	0.1321
432.5477	0.1113
432.7514	0.1123
432.9552	0.1225
433.1589	0.1015
433.3627	0.1176
433.5664	0.1047
433.7701	0.1277
433.9737	0.105
434.1774	0.1005
434.3811	0.111
434.5847	0.1103
434.7883	0.1212
434.9919	0.0933
435.1955	0.1064
435.3991	0.0975
435.6027	0.1059
435.8062	0.0951
436.0098	0.0924
436.2133	0.1036
436.4168	0.1132
436.6203	0.0877
436.8238	0.1098
437.0272	0.0925
437.2307	0.0916
437.4341	0.0912
437.6375	0.0983
437.841	0.0874
438.0443	0.0933
438.2477	0.0911
438.4511	0.0709
438.6545	0.0949
438.8578	0.1028
439.0611	0.0844
439.2644	0.0888
439.4677	0.0731
439.671	0.0681
439.8743	0.088
440.0775	0.0654
440.2808	0.0655
440.484	0.0684
440.6872	0.0526
440.8904	0.0624
441.0936	0.0889
441.2967	0.0824
441.4999	0.0728
441.703	0.0624
441.9062	0.0518
442.1093	0.0557
442.3124	0.076
442.5155	0.052
442.7185	0.0564
442.9216	0.045
443.1246	0.0618
443.3276	0.06
443.5307	0.061
443.7337	0.0573
443.9366	0.0452
444.1396	0.055
444.3426	0.0549
444.5455	0.053
444.7484	0.0441
444.9513	0.0402
445.1542	0.0672
445.3571	0.0361
445.56	0.0548
445.7628	0.0266
445.9657	0.0411
446.1685	0.0552
446.3713	0.0578
446.5741	0.0332
446.7769	0.0447
446.9797	0.0454
447.1824	0.0408
447.3852	0.0337
447.5879	0.0469
447.7906	0.0469
447.9933	0.0382
448.196	0.0299
448.3986	0.0223
448.6013	0.0239
448.8039	0.0068
449.0066	0.0245
449.2092	0.0391
449.4118	0.0404
449.6143	0.0321
449.8169	0.0505
450.0195	0.0181
450.222	0.0181
450.4245	0.0286
450.627	0.0253
450.8295	0.0321
451.032	0.0273
451.2345	0.0225
451.4369	0.0383
451.6394	0.0239
451.8418	0.0126
452.0442	0.008
452.2466	0.0378
452.449	0.0196
452.6513	0.0251
452.8537	0.0272
453.056	0.0071
453.2583	0.0217
453.4607	0.0337
453.663	0.0273
453.8652	0.0244
454.0675	0.012
454.2697	0.0225
454.472	0.0039
454.6742	0.0308
454.8764	0.0318
455.0786	0.0152
455.2808	0.0029
455.4829	0.0074
455.6851	0.0214
455.8872	0.0222
456.0893	0.0219
456.2915	0.0103
456.4935	0.0193
456.6956	0.0097
456.8977	0.0121
457.0997	0.0063
457.3018	0.0028
457.5038	0.0234
457.7058	0.0037
457.9078	-0.0045
458.1098	0.0204
458.3117	0.0125
458.5137	0.0075
458.7156	0.0027
458.9175	-0.0051
459.1194	0.0021
459.3213	0.0131
459.5232	0.0112
459.725	-0.0059
459.9269	-0.0107
460.1287	0.0091
460.3305	-0.002
460.5323	0.0144
460.7341	0.0018
460.9359	0.0084
461.1376	0.0135
461.3394	0.0086
461.5411	0.001
461.7428	0.0028
461.9445	0.0105
462.1462	0.0206
462.3479	0.0057
462.5495	0.0093
462.7512	0.0144
462.9528	0.0033
463.1544	-0.014
463.356	-0.0069
463.5576	0.0052
463.7592	-0.0082
463.9607	0.0045
464.1623	0.0134
464.3638	0.011
464.5653	0.0008
464.7668	0.0048
464.9683	0.0177
465.1697	0.0154
465.3712	0.0005
465.5726	-0.0041
465.7741	-0.0006
465.9755	-0.0057
466.1769	0.0066
466.3782	-0.0022
466.5796	-0.0071
466.7809	0.0138
466.9823	-0.0112
467.1836	0.009
467.3849	0.0118
467.5862	0.0015
467.7875	-0.0062
467.9887	0.0102
468.19	-0.0127
468.3912	-0.0034
468.5924	0.0004
468.7936	0.0034
468.9948	-0.0026
469.196	-0.0017
469.3972	-0.0209
469.5983	0.0078
469.7994	-0.0022
470.0006	0.003
470.2017	-0.0102
470.4027	0.0089
470.6038	-0.0007
470.8049	-0.0039
471.0059	0.0052
471.2069	-0.0168
471.408	0.0093
471.6089	0.0059
471.8099	0.0118
472.0109	0.0142
472.2119	0.0003
472.4128	-0.0117
472.6137	0.0039
472.8146	-0.0249
473.0155	-0.0075
473.2164	-0.0008
473.4173	0.0091
473.6181	-0.0005
473.819	0.0056
474.0198	-0.0131
474.2206	-0.006
474.4214	-0.0067
474.6222	0.0004
474.8229	-0.0042
475.0237	-0.006
475.2244	0.0009
475.4251	0.0005
475.6258	0.0054
475.8265	0.0141
476.0272	0.0083
476.2278	0.0048
476.4285	-0.0117
476.6291	-0.0118
476.8297	-0.0017
477.0303	-0.0045
477.2309	-0.0025
477.4315	-0.0201
477.632	-0.0075
477.8326	-0.0118
478.0331	0.0101
478.2336	-0.0111
478.4341	-0.0099
478.6346	-0.0039
478.8351	-0.0004
479.0355	0.0101
479.236	-0.0054
479.4364	0.0107
479.6368	0.0047
479.8372	-0.0056
480.0376	0.0093
480.2379	-0.0216
480.4383	-0.0051
480.6386	0.0072
480.8389	-0.0044
481.0392	-0.0083
481.2395	-0.0144
481.4398	0.0068
481.6401	0.0101
481.8403	-0.0085
482.0405	-0.0022
482.2408	0.0008
482.441	0.0122
482.6411	-0.0103
482.8413	-0.0096
483.0415	-0.0022
483.2416	-0.0207
483.4417	0.0032
483.6419	0.0031
483.8419	-0.0006
484.042	0.0089
484.2421	-0.0002
484.4422	-0.0033
484.6422	-0.0046
484.8422	-0.0098
485.0422	-0.016
485.2422	0.003
485.4422	-0.009
485.6422	-0.011
485.8421	-0.0041
486.042	-0.0093
486.242	-0.0169
486.4419	-0.0095
486.6417	0.0025
486.8416	0.0063
487.0415	-0.0039
487.2413	-0.0083
487.4411	-0.0056
487.641	-0.0085
487.8408	0.0051
488.0405	-0.0173
488.2403	-0.0069
488.4401	-0.0019
488.6398	0.0093
488.8395	-0.0106
489.0392	0.0025
489.2389	-0.0061
489.4386	-0.0026
489.6383	-0.0099
489.8379	0.0077
490.0376	-0.008
490.2372	-0.0105
490.4368	-0.0064
490.6364	-0.0032
490.836	-0.013
491.0355	-0.0019
491.2351	-0.0099
491.4346	0.0064
491.6341	-0.0114
491.8336	0.0026
492.0331	-0.0185
492.2326	-0.0097
492.432	-0.0038
492.6315	0.0033
492.8309	-0.0087
493.0303	-0.0045
493.2297	-0.006
493.4291	0.0024
493.6284	0.0089
493.8278	-0.0064
494.0271	0.0092
494.2264	0.0076
494.4257	0.0041
494.625	-0.0088
494.8243	-0.0127
495.0236	-0.0025
495.2228	-0.0116
495.422	0.0013
495.6213	-0.0032
495.8205	-0.0064
496.0196	0.0002
496.2188	0.0122
496.418	-0.008
496.6171	-0.006
496.8162	-0.0062
497.0153	0.0001
497.2144	-0.0007
497.4135	0.0069
497.6126	-0.0151
497.8116	-0.0055
498.0107	0.0005
498.2097	-0.0084
498.4087	0.0047
498.6077	-0.0069
498.8067	-0.0039
499.0056	0.0007
499.2046	-0.0002
499.4035	-0.017
499.6024	-0.0043
499.8013	0.0063
500.0002	-0.013
500.199	-0.0041
500.3979	-0.0093
500.5967	-0.0137
500.7956	0.0056
500.9944	-0.009
501.1932	-0.0068
501.3919	-0.0111
501.5907	-0.0105
501.7895	-0.0023
501.9882	-0.0076
502.1869	-0.0009
502.3856	-0.0062
502.5843	-0.0026
502.783	-0.0139
502.9816	-0.0007
503.1803	-0.0152
503.3789	0.0021
503.5775	-0.0023
503.7761	-0.015
503.9747	0.005
504.1732	-0.0108
504.3718	0.0019
504.5703	0.0019
504.7689	-0.0055
504.9674	-0.006
505.1658	-0.0123
505.3643	0.0021
505.5628	0.0014
505.7612	-0.0011
505.9597	0.0051
506.1581	-0.0041
506.3565	0.0078
506.5549	-0.0048
506.7532	-0.0185
506.9516	0.0024
507.1499	0.0059
507.3482	-0.0024
507.5465	-0.006
507.7448	0.0026
507.9431	-0.0033
508.1414	0.0075
508.3396	0.003
508.5379	0.0038
508.7361	-0.0078
508.9343	-0.001
509.1325	-0.0032
509.3306	0.0004
509.5288	0.0041
509.7269	-0.0116
509.9251	-0.0025
510.1232	-0.0118
510.3213	0.0029
510.5193	0.0022
510.7174	-0.0171
510.9154	-0.0069
511.1135	-0.0003
511.3115	0.004
511.5095	-0.0052
511.7075	-0.0048
511.9055	-0.0003
512.1034	-0.0145
512.3014	0.0016
512.4993	0.0051
512.6972	-0.0117
512.8951	-0.0052
513.093	0.0063
513.2908	0.0045
513.4887	0.0002
513.6865	-0.0013
513.8844	-0.0132
514.0822	-0.0157
514.2799	-0.0055
514.4777	-0.0084
514.6755	-0.0091
514.8732	-0.0027
515.0709	0.0007
515.2687	0.0025
515.4664	0.0031
515.664	0.0048
515.8617	-0.0051
516.0594	-0.0215
516.257	-0.0023
516.4546	-0.0112
516.6522	-0.0027
516.8498	0.0044
517.0474	0.0029
517.2449	0.0102
517.4425	-0.0136
517.64	0.0062
517.8375	0.0034
518.035	0.0029
518.2325	-0.01
518.43	0.0089
518.6274	0.0004
518.8249	-0.0232
519.0223	0.0064
519.2197	-0.0033
519.4171	-0.0002
519.6145	-0.0053
519.8118	-0.0087
520.0092	-0.0059
520.2065	-0.0111
520.4038	-0.0106
520.6011	0.0046
520.7984	-0.0211
520.9956	-0.0038
521.1929	-0.0034
521.3901	0.0022
521.5874	-0.0081
521.7846	0.0011
521.9818	-0.0091
522.1789	0.0004
522.3761	-0.0121
522.5732	-0.0095
522.7704	0.0034
522.9675	-0.005
523.1646	-0.0102
523.3617	-0.0047
523.5587	0.0077
523.7558	0.0035
523.9528	-0.0116
524.1498	0.0043
524.3468	-0.0079
524.5438	-0.0001
524.7408	-0.0014
524.9378	0.0098
525.1347	-0.0045
525.3316	0.0069
525.5285	-0.0048
525.7254	-0.0018
525.9223	-0.003
526.1192	-0.0051
526.316	-0.0056
526.5129	0.002
526.7097	-0.0045
526.9065	-0.0077
527.1033	-0.0107
527.3	0.0007
527.4968	0.0051
527.6935	0.0029
527.8903	-0.0066
528.087	0.0012
528.2837	-0.0031
528.4804	0.0036
528.677	0.0003
528.8737	0.0037
529.0703	0.0002
529.2669	-0.0051
529.4635	-0.0034
529.6601	0.0009
529.8567	-0.0049
530.0532	-0.0064
530.2498	0.0004
530.4463	-0.0013
530.6428	0.0001
530.8393	0.0015
531.0358	-0.0002
531.2322	-0.0063
531.4287	-0.0079
531.6251	-0.0113
531.8215	0.0039
532.0179	0.0038
532.2143	0.002
532.4107	0.001
532.607	-0.0022
532.8034	-0.0014
532.9997	0.0002
533.196	0.0071
533.3923	-0.0039
533.5886	-0.0038
533.7848	0.0017
533.9811	0.0008
534.1773	0.0063
534.3735	0.0044
534.5697	0.0056
534.7659	0.0015
534.9621	0.0072
535.1582	-0.0019
535.3544	0.0024
535.5505	-0.0005
535.7466	0.0036
535.9427	-0.003
536.1387	-0.0049
536.3348	-0.0047
536.5308	0.0175
536.7269	-0.0139
536.9229	0.0065
537.1189	0.0012
537.3148	0.0036
537.5108	-0.0039
537.7068	-0
537.9027	0.0009
538.0986	-0.0026
538.2945	-0.0072
538.4904	-0.001
538.6863	-0.0021
538.8821	-0.0043
539.078	-0.0056
539.2738	0.0004
539.4696	-0.0053
539.6654	0.0026
539.8611	0.0114
540.0569	-0.0039
540.2526	-0.01
540.4484	0.0024
540.6441	0.0125
540.8398	-0.0001
541.0355	0.0094
541.2311	-0.006
541.4268	-0.0137
541.6224	-0.0027
541.818	0.0004
542.0136	-0.0081
542.2092	0.0034
542.4048	-0.0006
542.6003	0.0036
542.7959	0.0049
542.9914	-0.0083
543.1869	0.0095
543.3824	0.0055
543.5779	0.0013
543.7734	-0.0077
543.9688	-0.0051
544.1642	0.0049
544.3596	0.0078
544.555	0.0001
544.7504	0.0004
544.9458	-0.0055
545.1411	-0.0038
545.3365	-0.0015
545.5318	-0.0023
545.7271	0.0064
545.9224	0.0008
546.1177	-0.0046
546.3129	-0.0019
546.5081	0.0052
546.7034	-0.0053
546.8986	-0.003
547.0938	-0.0018
547.289	0.0003
547.4841	0.0103
547.6793	0.0128
547.8744	-0.0055
548.0695	-0.0043
548.2646	-0.0031
548.4597	0.0109
548.6548	0.0022
548.8498	0.0049
549.0448	0.0075
549.2399	0.005
549.4349	0.009
549.6298	-0.0027
549.8248	0.0075
550.0198	-0.0015
550.2147	-0.0006
550.4096	-0.002
550.6045	0.0075
550.7994	0.0104
550.9943	0.0001
551.1892	-0.0048
551.384	0.0077
551.5788	-0.0044
551.7737	0.0062
551.9685	0.0055
552.1632	-0.0017
552.358	-0.0045
552.5528	0.0034
552.7475	0.001
552.9422	0.0101
553.1369	0.0035
553.3316	0.0067
553.5263	-0.0064
553.7209	0.0124
553.9156	-0.0078
554.1102	-0.0043
554.3048	-0.0021
554.4994	0.0091
554.694	0.0064
554.8885	0.0078
555.0831	-0.0043
555.2776	-0.0091
555.4721	0.0018
555.6666	-0.0019
555.8611	0.0166
556.0555	0.0031
556.25	0.0022
556.4444	-0.0017
556.6388	0.0021
556.8332	-0.0026
557.0276	0.0031
557.222	0.0033
557.4163	0.001
557.6107	-0.0028
557.805	0.0064
557.9993	-0.0015
558.1936	0.0023
558.3879	0.0069
558.5821	0.0006
558.7764	0.0059
558.9706	0.002
559.1648	0.0082
559.359	-0.0056
559.5532	-0.0086
559.7473	0.003
559.9415	0.0031
560.1356	0.0014
560.3297	-0.0114
560.5238	-0.0073
560.7179	0.0045
560.9119	-0.0091
561.106	-0.0037
561.3	-0.0049
561.494	0.0015
561.688	-0.0086
561.882	-0.01
562.076	-0.0046
562.2699	-0.0013
562.4639	0.0017
562.6578	0.004
562.8517	0.0043
563.0456	0.002
563.2395	0.0018
563.4333	0.0008
563.6272	0.0117
563.821	-0.0104
564.0148	0.0053
564.2086	-0.009
564.4024	-0.0014
564.5961	-0.0102
564.7899	0.0038
564.9836	0.006
565.1773	0.002
565.371	0.0101
565.5647	0.0054
565.7584	0.0011
565.952	0.0071
566.1456	0.008
566.3393	0.0065
566.5329	0.0001
566.7264	0.0031
566.92	-0.0051
567.1136	0.0038
567.3071	0.0047
567.5006	0.0097
567.6941	0.0104
567.8876	0.0053
568.0811	-0.0005
568.2745	0.0007
568.468	0.0112
568.6614	0.0035
568.8548	0.0002
569.0482	-0.0032
569.2416	-0.0008
569.4349	0.005
569.6283	0.0093
569.8216	-0.0006
570.0149	-0.0012
570.2082	0.0062
570.4015	0.0082
570.5947	0.0043
570.788	0.0038
570.9812	0.0157
571.1744	-0.0009
571.3676	0.0017
571.5608	0.0053
571.754	0.0102
571.9471	0.0058
572.1402	-0.0004
572.3333	0.0021
572.5264	0.0011
572.7195	-0.0039
572.9126	0.0088
573.1057	0.0081
573.2987	0.0018
573.4917	-0.0003
573.6847	-0.0046
573.8777	0.0031
574.0707	0.0063
574.2636	0.001
574.4566	-0.0017
574.6495	0.0055
574.8424	0.0058
575.0353	0.0069
575.2281	0.0098
575.421	-0.001
575.6138	0.0071
575.8067	0.0004
575.9995	0.0029
576.1923	0.0042
576.385	0.0035
576.5778	0.0019
576.7706	-0.0008
576.9633	0.0053
577.156	0.0062
577.3487	0.0006
577.5414	0.0028
577.734	0.0016
577.9267	0.0058
578.1193	-0.0119
578.3119	-0.0053
578.5045	0.0055
578.6971	0.0065
578.8897	0.0091
579.0822	0.0038
579.2747	0.0029
579.4673	-0.0054
579.6598	0.0012
579.8522	-0.001
580.0447	0.0036
580.2372	0.0016
580.4296	0.0034
580.622	-0.0014
580.8144	-0.0006
581.0068	0.0034
581.1992	-0.0083
581.3915	-0.0031
581.5839	-0.0065
581.7762	-0.0024
581.9685	-0.0003
582.1608	0.0051
582.353	0.0044
582.5453	0.0035
582.7375	-0
582.9298	0.0069
583.122	-0.0003
583.3142	0.0007
583.5063	0.0056
583.6985	0.0003
583.8906	0.002
584.0827	0.0029
584.2749	0.0044
584.4669	0.0042
584.659	-0.0026
584.8511	0.0017
585.0431	-0.0046
585.2352	0.0083
585.4272	0.0016
585.6192	0.0122
585.8111	0.004
586.0031	0.0061
586.195	0.0129
586.387	0.0056
586.5789	0.0012
586.7708	0.0072
586.9627	0.002
587.1545	-0.0007
587.3464	0.0072
587.5382	0.0062
587.73	0.0067
587.9218	0.0057
588.1136	0.0013
588.3053	0.0074
588.4971	0.0002
588.6888	-0.0072
588.8805	0.0006
589.0722	0.0063
589.2639	0.0024
589.4556	0.0086
589.6472	-0.0004
589.8389	-0.0025
590.0305	-0.004
590.2221	0.0095
590.4137	-0.0038
590.6052	0.0027
590.7968	0.0066
590.9883	0.0008
591.1798	-0.0001
591.3713	-0.0006
591.5628	0.0068
591.7543	0.0074
591.9458	-0.0025
592.1372	0.003
592.3286	0.0035
592.52	0.0064
592.7114	-0
592.9028	0.0011
593.0941	0.0043
593.2855	0.0086
593.4768	-0.0049
593.6681	0.0029
593.8594	0.0016
594.0506	0.0016
594.2419	0.0147
594.4331	0.0053
594.6244	0.0024
594.8156	-0.0072
595.0067	0.0015
595.1979	0.0056
595.3891	0.009
595.5802	0.0084
595.7713	0.0007
595.9624	0.0029
596.1535	0.0121
596.3446	-0.0024
596.5357	0.0057
596.7267	0.012
596.9177	0.0016
597.1087	-0.0069
597.2997	-0.0049
597.4907	0.0043
597.6817	-0.0028
597.8726	-0.0017
598.0635	-0.0044
598.2544	-0.0004
598.4453	-0.0003
598.6362	-0.0002
598.827	-0.0015
599.0179	0.0047
599.2087	0.013
599.3995	0.002
599.5903	0.0029
599.7811	0.0009
599.9718	0.0023
600.1626	-0.0012
600.3533	-0.005
600.544	0.0039
600.7347	0.0008
600.9254	0.0032
601.116	-0.0048
601.3067	0.0073
601.4973	0.0032
601.6879	0.0074
601.8785	-0.0062
602.0691	-0.0016
602.2596	0.0065
602.4502	0.0056
602.6407	0.0048
602.8312	0.0035
603.0217	-0.0006
603.2122	0.0045
603.4027	0.0065
603.5931	0.0004
603.7835	-0.003
603.9739	0.0029
604.1643	-0.0023
604.3547	0.0003
604.5451	0.0079
604.7354	-0.001
604.9257	0.0005
605.116	-0.0019
605.3063	0.0029
605.4966	0.0099
605.6869	0.0082
605.8771	0.0035
606.0673	-0.0002
606.2575	0.0024
606.4477	0.0079
606.6379	0.0031
606.8281	-0.0002
607.0182	0.0031
607.2083	0.0129
607.3985	-0.0003
607.5885	0.0008
607.7786	0.0024
607.9687	-0.0095
608.1587	0.0069
608.3488	0.0067
608.5388	0.0019
608.7288	0.0075
608.9187	-0.0041
609.1087	0.0017
609.2986	-0.0038
609.4886	0.0004
609.6785	0.0039
609.8684	0.0013
610.0582	0.0067
610.2481	0.0049
610.4379	-0.0009
610.6278	-0.0022
610.8176	0.0007
611.0074	0.0051
611.1971	-0.0078
611.3869	0.0048
611.5766	0.0027
611.7664	0.0164
611.9561	0.0055
612.1458	0.0065
612.3354	-0.0014
612.5251	0.0042
612.7147	0.0088
612.9044	0.0134
613.094	0.0026
613.2836	0.0016
613.4731	0.0038
613.6627	-0.0036
613.8522	0.0081
614.0417	0.0072
614.2313	0.0009
614.4207	-0.0017
614.6102	0.007
614.7997	-0.0057
614.9891	-0.003
615.1785	0.0082
615.3679	0.0081
615.5573	0.0135
615.7467	0.0094
615.9361	0.0104
616.1254	0.0078
616.3147	0.0027
616.504	0.0031
616.6933	0.0096
616.8826	0.0161
617.0718	0.0082
617.2611	0.0072
617.4503	0.0059
617.6395	-0.0005
617.8287	-0.0046
618.0179	0.0063
618.207	0.0138
618.3961	0.0022
618.5853	0.0017
618.7744	0.0071
618.9634	-0.0028
619.1525	0.002
619.3416	0.0088
619.5306	0.0078
619.7196	0.0061
619.9086	0.0027
620.0976	0.0076
620.2866	0.0027
620.4755	0.0092
620.6645	0.0049
620.8534	0.0046
621.0423	0.0113
621.2312	0.0139
621.42	0.0053
621.6089	-0.001
621.7977	0.0069
621.9865	-0.0003
622.1753	0.0062
622.3641	-0.0035
622.5529	0.0115
622.7416	0.0077
622.9303	-0.0007
623.1191	0.0089
623.3078	-0.0067
623.4964	0.0047
623.6851	0.002
623.8737	-0.0003
624.0624	0.0122
624.251	0.0027
624.4396	0.0022
624.6282	-0.0042
624.8167	0.0038
625.0053	0.0078
625.1938	0.009
625.3823	0.0098
625.5708	0.0026
625.7593	0.0023
625.9477	-0.0033
626.1362	0.0014
626.3246	0.0039
626.513	0.0073
626.7014	0.0091
626.8898	0.0039
627.0781	0.0062
627.2665	0.0011
627.4548	0.0037
627.6431	0.0051
627.8314	0.0085
628.0197	0.0096
628.2079	0.0008
628.3962	-0.0057
628.5844	0.0063
628.7726	0.0055
628.9608	0.0044
629.1489	0.0057
629.3371	0.004
629.5252	-0.0067
629.7134	0.0125
629.9015	-0.0001
630.0895	-0.0024
630.2776	0.0053
630.4657	0.0056
630.6537	0.0019
630.8417	-0.0051
631.0297	0.0012
631.2177	-0.0007
631.4057	-0.0039
631.5936	0.0052
631.7815	0.0001
631.9695	0.0066
632.1574	0.0061
632.3452	0.0163
632.5331	-0.0021
632.7209	0.0022
632.9088	0.0129
633.0966	0.0134
633.2844	-0.006
633.4722	0.0088
633.6599	0.0157
633.8477	0.0136
634.0354	0.0058
634.2231	0.0042
634.4108	0.003
634.5985	0.0123
634.7861	0.0046
634.9738	0.0046
635.1614	0.0077
635.349	0.008
635.5366	0.0061
635.7242	0.004
635.9117	0.0073
636.0993	0.0062
636.2868	0.0142
636.4743	0.0083
636.6618	0.0205
636.8492	0.0087
637.0367	0.0058
637.2241	0.0025
637.4115	0.0029
637.5989	0.0022
637.7863	0.0011
637.9737	0.0011
638.161	0.006
638.3484	-0.0008
638.5357	0.0092
638.723	0.0008
638.9103	0.0053
639.0975	0.009
639.2848	0.0105
639.472	-0.0019
639.6592	0.0048
639.8464	0.0111
640.0336	0.01
640.2208	-0.0015
640.4079	0.0042
640.595	0.0066
640.7821	0.0109
640.9692	0.0022
641.1563	0.01
641.3434	0.01
641.5304	0.0006
641.7174	0.0049
641.9044	0.0077
642.0914	0.0165
642.2784	0.0048
642.4653	0.0106
642.6523	0.0012
642.8392	0.0024
643.0261	0.0075
643.213	0.0025
643.3999	-0.0017
643.5867	-0.0025
643.7735	0.0119
643.9604	-0.0034
644.1472	0.0043
644.3339	0.0072
644.5207	0.0062
644.7075	0.005
644.8942	0.0072
645.0809	0.0092
645.2676	0.011
645.4543	0.0124
645.6409	0.0116
645.8276	0.0019
646.0142	0.0074
646.2008	0.0007
646.3874	0.0008
646.574	0.0065
646.7605	-0.003
646.9471	-0.0094
647.1336	-0.0018
647.3201	0.0053
647.5066	-0.0029
647.6931	0.01
647.8795	0.0004
648.0659	0.0009
648.2524	0.0138
648.4388	-0.0016
648.6252	0.0034
648.8115	-0.0043
648.9979	-0.0013
649.1842	-0.0025
649.3705	0.0063
649.5568	0.0077
649.7431	0.0122
649.9294	-0.0009
650.1156	0.008
650.3018	-0.0032
650.488	0.0079
650.6742	0.0057
650.8604	0.0022
651.0466	-0.0023
651.2327	0.0116
651.4188	0.0084
651.6049	0.0011
651.791	-0.0025
651.9771	0.0096
652.1632	0.0054
652.3492	0.0055
652.5352	0.0008
652.7212	0.0044
652.9072	0.011
653.0932	0.0112
653.2791	0.0065
653.465	0.0117
653.651	0.0032
653.8369	0.0044
654.0227	0.0036
654.2086	0.0088
654.3944	0.0019
654.5803	0.0009
654.7661	0.0089
654.9519	0.0049
655.1377	0.0012
655.3234	0.0011
655.5092	-0.0025
655.6949	-0.0067
655.8806	-0.0055
656.0663	-0.0007
656.2519	-0.0004
656.4376	0.0031
656.6232	0.0099
656.8088	0.0024
656.9945	0.0032
657.18	0.0042
657.3656	-0.0017
657.5511	0.0009
657.7367	0.0008
657.9222	0.0109
658.1077	0.0025
658.2932	0.0074
658.4786	-0.0081
658.6641	0.0023
658.8495	-0.0002
659.0349	0.0075
659.2203	0.003
659.4057	0.0035
659.591	0.0053
659.7764	0.0026
659.9617	0.0048
660.147	0.0028
660.3323	0.0167
660.5176	0.0116
660.7028	0.014
660.888	0.0044
661.0733	0.0049
661.2585	0.0024
661.4436	0.0008
661.6288	-0.0008
661.8139	0.0029
661.9991	0.0068
662.1842	0.0091
662.3693	0.0011
662.5544	0.002
662.7394	0.0056
662.9245	-0.0003
663.1095	0.0007
663.2945	0.0049
663.4795	-0.0025
663.6644	0.0024
663.8494	0.0031
664.0343	0.0015
664.2193	0.0006
664.4042	0.0026
664.589	0.0032
664.7739	-0.0023
664.9587	-0.0021
665.1436	0.0009
665.3284	0.003
665.5132	-0.0023
665.698	0.004
665.8827	0.0103
666.0675	0.0026
666.2522	-0.0039
666.4369	0.004
666.6216	0.0095
666.8063	0.0109
666.9909	0.002
667.1756	-0.0005
667.3602	0.0049
667.5448	0.0041
667.7294	0.0134
667.9139	0.0032
668.0985	0.0218
668.283	0.0076
668.4675	0.0093
668.652	0.014
668.8365	0.006
669.0209	0.0139
669.2054	0.0166
669.3898	0.0126
669.5742	0.0108
669.7586	0.0147
669.943	0.0154
670.1273	0.0151
670.3117	0.0091
670.496	0.0144
670.6803	0.0143
670.8646	0.0088
671.0488	0.0028
671.2331	0.0058
671.4173	0.0134
671.6015	0.0083
671.7857	0.0091
671.9699	0.0077
672.1541	0.0073
672.3382	0.005
672.5223	0.0074
672.7064	0.0052
672.8905	0.0076
673.0746	0.0068
673.2587	-0.0011
673.4427	0.0069
673.6267	0.0064
673.8107	0.0083
673.9947	0.0122
674.1787	0.0118
674.3626	-0.003
674.5465	0.0151
674.7304	0.0104
674.9143	0.011
675.0982	0.0124
675.2821	-0.0045
675.4659	0.0133
675.6497	0.013
675.8335	0.0009
676.0173	0.0071
676.2011	0.0012
676.3849	0.0043
676.5686	0.0073
676.7523	0.0057
676.936	0.0035
677.1197	-0.0104
677.3034	0.0038
677.487	0.0079
677.6706	0.0044
677.8542	0.0013
678.0378	-0.0033
678.2214	0.0009
678.405	0.008
678.5885	0.002
678.772	0.0048
678.9555	-0.0019
679.139	0.0021
679.3225	0.0024
679.5059	0.0069
679.6894	0.0053
679.8728	-0.0016
680.0562	-0.0035
680.2395	-0.0006
680.4229	-0.0007
680.6062	0.0038
680.7896	0.0049
680.9729	-0.0064
681.1562	0.0125
681.3394	-0.0017
681.5227	0.001
681.7059	0.0011
681.8891	-0.001
682.0723	0.0064
682.2555	0.01
682.4387	0.0067
682.6218	-0.0001
682.805	0.004
682.9881	-0.0023
683.1712	0.0009
683.3542	-0.0003
683.5373	0.0075
683.7203	-0.0003
683.9034	0.0039
684.0864	-0.0032
684.2694	0.0004
684.4523	0.0076
684.6353	-0.0026
684.8182	0.0026
685.0011	-0.0038
685.184	0.0028
685.3669	-0.0009
685.5498	0.0066
685.7326	0.0018
685.9154	-0.0055
686.0982	0.0101
686.281	0.0098
686.4638	0.0065
686.6465	0.0007
686.8293	0.0072
687.012	0.0058
687.1947	-0.0024
687.3774	0.0028
687.56	-0.0026
687.7427	0.0025
687.9253	-0.0038
688.1079	-0
688.2905	0.0096
688.4731	0.0071
688.6556	0.001
688.8382	0.0023
689.0207	-0.0001
689.2032	-0.0071
689.3857	-0.0003
689.5681	0.0003
689.7506	-0.0108
689.933	-0.002
690.1154	-0.0086
690.2978	-0.004
690.4802	-0.0003
690.6626	-0.0175
690.8449	-0.0104
691.0272	0.0088
691.2095	-0.0044
691.3918	0.0036
691.5741	0.0028
691.7563	-0.0013
691.9386	-0.0002
692.1208	0.0045
692.303	0.0052
692.4852	0.0042
692.6673	0.0046
692.8495	-0.0008
693.0316	0.0027
693.2137	0.0037
693.3958	0.0018
693.5778	0.0099
693.7599	0.0019
693.9419	0.0065
694.1239	0.0007
694.3059	0.0029
694.4879	0.0102
694.6699	0.0067
694.8518	0.0016
695.0337	0.006
695.2157	0.0049
695.3975	0.0063
695.5794	0.0111
695.7613	0.012
695.9431	0.0069
696.1249	0.0052
696.3067	0.0019
696.4885	0.0114
696.6703	0.0002
696.852	0.0038
697.0337	0.0027
697.2154	0.0098
697.3971	0.0057
697.5788	0.0102
697.7605	0.0097
697.9421	0.0091
698.1237	0.0008
698.3053	0.0151
698.4869	0.0056
698.6685	-0.0034
698.85	-0.0019
699.0315	0.0061
699.213	-0.0012
699.3945	0.005
699.576	0.0113
699.7575	0.0106
699.9389	0.0137
700.1203	0.0006
700.3017	-0.0026
700.4831	-0.0002
700.6645	0.002
700.8458	0.0138
701.0271	0.0051
701.2084	0.0112
701.3897	0.0052
701.571	0.0132
701.7523	-0.0023
701.9335	0.0024
702.1147	0.0068
702.2959	0.0058
702.4771	0.0067
702.6583	0.0063
702.8394	-0.003
703.0205	0.0095
703.2016	0.0013
703.3827	0.0001
703.5638	0.0104
703.7449	0.0095
703.9259	0.019
704.1069	0.0005
704.2879	0.0062
704.4689	0.0038
704.6499	0.0074
704.8308	0.0074
705.0117	0.0045
705.1927	0.006
705.3735	0.0042
705.5544	0.001
705.7353	-0.0014
705.9161	-0.0001
706.0969	-0.0021
706.2777	0.0015
706.4585	-0.0012
706.6393	-0.0008
706.82	-0.0038
707.0007	0.0097
707.1815	0.004
707.3621	0.004
707.5428	0.0037
707.7235	0.0042
707.9041	0.0011
708.0847	-0.0119
708.2653	-0.0095
708.4459	-0.0144
708.6265	0.0007
708.807	-0.0036
708.9875	-0.0031
709.168	-0.0115
709.3485	-0.0047
709.529	0.0007
709.7095	-0.0073
709.8899	-0.0011
710.0703	-0.0102
710.2507	0.0028
710.4311	-0.0005
710.6115	-0.0053
710.7918	-0.0028
710.9721	0.0014
711.1524	-0.001
711.3327	0.0025
711.513	0.004
711.6932	0.0031
711.8735	0.0092
712.0537	0.0082
712.2339	0.0021
712.4141	0.0021
712.5942	0.0001
712.7744	-0.0029
712.9545	-0.0014
713.1346	-0.0084
713.3147	-0.0074
713.4947	-0.0025
713.6748	0.0082
713.8548	-0.0023
714.0348	-0.0058
714.2148	0.0014
714.3948	0.0091
714.5748	0.002
714.7547	0.0029
714.9346	0.0083
715.1145	0.0033
715.2944	0.0004
715.4743	0.0125
715.6541	-0.0021
715.834	0.0065
716.0138	0.0027
716.1936	-0.0131
716.3733	0.0004
716.5531	0.008
716.7328	0.0004
716.9126	-0.0082
717.0923	0.005
717.2719	0.0004
717.4516	-0.0005
717.6312	-0.0038
717.8109	-0.0102
717.9905	-0
718.1701	-0.003
718.3496	-0.0092
718.5292	0.0019
718.7087	0.0002
718.8882	-0.0016
719.0677	0.0037
719.2472	-0.0021
719.4267	0.0014
719.6061	0.0024
719.7856	0.0073
719.965	0.0075
720.1443	-0.0051
720.3237	0.015
720.5031	0.0058
720.6824	0.0063
720.8617	-0.0052
721.041	0.0057
721.2203	0.0165
721.3995	0.0095
721.5788	0.0011
721.758	0.0094
721.9372	0.0041
722.1164	0.0008
722.2956	0.0116
722.4747	0.0078
722.6538	0.0013
722.8329	0.0129
723.012	0.0043
723.1911	0.0035
723.3702	0.0002
723.5492	0.0065
723.7282	0.0017
723.9072	0.0038
724.0862	0.001
724.2652	0.0054
724.4441	-0.001
724.623	0.0028
724.8019	-0.0005
724.9808	0.0006
725.1597	-0.0001
725.3385	0.0051
725.5174	0.0053
725.6962	0.0076
725.875	0.0038
726.0538	0.0035
726.2325	-0.0074
726.4112	0.0057
726.59	-0.0073
726.7687	-0.0037
726.9474	0.0074
727.126	-0.0018
727.3047	-0.0042
727.4833	-0.0057
727.6619	-0.0102
727.8405	-0.0104
728.0191	-0.0034
728.1976	0.0111
728.3762	0.0042
728.5547	0.0034
728.7332	-0.0092
728.9116	-0.0022
729.0901	0.0047
729.2686	-0.0018
729.447	0.0048
729.6254	0.0076
729.8038	0.0071
729.9821	-0.0058
730.1605	0.0014
730.3388	0.0072
730.5171	0.0098
730.6954	0.0059
730.8737	0.008
731.0519	0.0103
731.2302	0.0095
731.4084	0.008
731.5866	0.0052
731.7648	0.0027
731.9429	0.003
732.1211	-0.0019
732.2992	-0.0048
732.4773	-0.0091
732.6554	-0.004
732.8335	-0.0017
733.0115	0.0089
733.1896	0.0075
733.3676	-0.0129
733.5456	0.0116
733.7235	0.0073
733.9015	-0.0011
734.0794	-0.0078
734.2574	0.0006
734.4353	0.0042
734.6131	0.008
734.791	-0.0008
734.9689	0.0038
735.1467	0.0075
735.3245	0.0074
735.5023	-0.0065
735.68	0.0032
735.8578	0.0035
736.0355	-0.0179
736.2132	-0.0036
736.3909	-0.0045
736.5686	-0.0142
736.7463	0.0077
736.9239	0.0008
737.1015	0.0009
737.2791	0.0172
737.4567	0.0045
737.6343	0.0009
737.8118	-0.0016
737.9894	0.0094
738.1669	-0.005
738.3444	0.0025
738.5218	0.0137
738.6993	0.0021
738.8767	-0.0057
739.0541	0.0152
739.2315	0.0007
739.4089	-0.0025
739.5863	0.0044
739.7636	-0.0039
739.9409	0.0047
740.1182	0.001
740.2955	0.0131
740.4728	0.0094
740.65	0.0052
740.8272	0.0031
741.0044	0.0023
741.1816	0.0026
741.3588	-0.0041
741.5359	0.0081
741.7131	-0.005
741.8902	0.0004
742.0673	0.0005
742.2444	-0.0025
742.4214	-0.0032
742.5985	-0.002
742.7755	-0.0018
742.9525	-0.0133
743.1295	0.0008
743.3064	-0.001
743.4834	0.0109
743.6603	0.0073
743.8372	-0.0005
744.0141	0.0108
744.191	0.0124
744.3678	0.0055
744.5446	0.0078
744.7215	0.0095
744.8982	0.0052
745.075	-0.0015
745.2518	0.0035
745.4285	0.0024
745.6052	-0.0046
745.7819	-0.0028
745.9586	0.0063
746.1353	0.0128
746.3119	-0.0005
746.4885	-0.0076
746.6651	-0.0035
746.8417	-0.0048
747.0183	0.0042
747.1948	0.0002
747.3714	0.0051
747.5479	-0.0006
747.7244	-0.0021
747.9008	0.0051
748.0773	0.0046
748.2537	0.0075
748.4301	-0.0003
748.6065	-0.001
748.7829	0.0104
748.9593	0.0006
749.1356	0.0042
749.3119	0.0107
749.4882	-0.007
749.6645	0.0093
749.8408	-0.0041
750.017	-0.0039
750.1933	0.0067
750.3695	-0.0054
750.5457	0.0136
750.7218	-0.0033
750.898	0.0005
751.0741	-0.0047
751.2502	0.0042
751.4263	-0.0007
751.6024	0.0094
751.7784	0.005
751.9545	-0.0005
752.1305	0.005
752.3065	-0.006
752.4825	0.0089
752.6584	-0.0038
752.8344	-0.0034
753.0103	-0.0038
753.1862	-0.0025
753.3621	-0.0057
753.5379	-0.0054
753.7138	-0.0003
753.8896	-0.001
754.0654	0.007
754.2412	0.0047
754.417	0.0012
754.5927	-0.0035
754.7685	-0.0067
754.9442	0.002
755.1199	0.0139
755.2956	-0.0015
755.4712	0.0108
755.6469	0.0168
755.8225	0.0071
755.9981	0.008
756.1736	0.0102
756.3492	0.0043
756.5248	-0.0092
756.7003	0.0033
756.8758	0.0045
757.0513	-0.0014
757.2267	-0.0061
757.4022	0.014
757.5776	-0.0066
757.753	0.0085
757.9284	0.0085
758.1038	0.0114
758.2791	0.0109
758.4545	-0.0028
758.6298	0.0059
758.8051	0.0143
758.9803	0.0013
759.1556	0.0004
759.3308	-0.0006
759.506	0.0109
759.6812	0.0026
759.8564	0.0158
760.0316	-0.001
760.2067	0.0093
760.3819	0.0008
760.557	0.0142
760.732	0.0127
760.9071	-0.0042
761.0821	0.007
761.2572	0.0116
761.4322	0.0077
761.6072	0.0122
761.7821	0.0025
761.9571	0.0044
762.132	0.0013
762.3069	-0.0087
762.4818	-0.0017
762.6567	-0.0036
762.8316	0.0051
763.0064	-0.0032
763.1812	0.0009
763.356	-0.0176
763.5308	0.0096
763.7055	-0.001
763.8803	0.0026
764.055	-0.0018
764.2297	-0.0015
764.4044	-0.0053
764.579	0.0036
764.7537	-0.0039
764.9283	0.0106
765.1029	-0.0026
765.2775	0.0014
765.4521	0.0006
765.6266	-0.0002
765.8011	-0.0038
765.9756	0.005
766.1501	0.0069
766.3246	0.0045
766.4991	-0.0005
766.6735	0.0186
766.8479	0.0014
767.0223	0.0139
767.1967	0.0015
767.371	-0.0002
767.5454	0.0122
767.7197	0.0094
767.894	-0.0036
768.0683	-0.0055
768.2425	0.001
768.4168	-0.0004
768.591	0.0061
768.7652	-0.0001
768.9394	0.0051
769.1135	0.0064
769.2877	0.0194
769.4618	-0.0044
769.6359	-0.0007
769.81	0.0145
769.984	-0.0033
770.1581	-0.0116
770.3321	0.0005
770.5061	-0.0034
770.6801	-0.0053
770.8541	-0.0087
771.028	0.0065
771.202	-0.0145
771.3759	0.0025
771.5498	-0.0022
771.7236	0.0103
771.8975	-0.0016
772.0713	-0.0037
772.2451	0.008
772.4189	0.0102
772.5927	0.0012
772.7665	-0.0005
772.9402	0.0053
773.1139	-0.0093
773.2876	-0.011
773.4613	0.0184
773.635	0.0142
773.8086	-0.0017
773.9822	0.0021
774.1558	0.0153
774.3294	-0.0113
774.503	0.0108
774.6765	0.0169
774.8501	-0.0009
775.0236	0.0046
775.1971	0.0112
775.3705	-0.0057
775.544	0.0103
775.7174	-0.003
775.8908	0.0092
776.0642	-0.0026
776.2376	0.0043
776.4109	-0.0116
776.5843	0.0006
776.7576	0.0116
776.9309	0.0128
777.1041	0.0075
777.2774	0.0145
777.4506	-0.0042
777.6238	0.0003
777.797	0.0004
777.9702	0.001
778.1434	0.0051
778.3165	-0.017
778.4896	-0.0036
778.6627	0.0018
778.8358	-0.0052
779.0089	0.0074
779.1819	-0.0059
779.3549	0.0144
779.5279	0.0142
779.7009	-0.0008
779.8739	-0.0002
780.0468	0.0049
780.2197	0.0082
780.3926	-0.0091
780.5655	-0.0043
780.7384	0.0103
780.9112	0.0121
781.0841	-0.0065
781.2569	0.004
781.4297	0.0164
781.6024	-0.0003
781.7752	0.0072
781.9479	0.0063
782.1206	0.0138
782.2933	-0.0075
782.466	0.0001
782.6386	-0.0018
782.8113	-0.0046
782.9839	0.0093
783.1565	0.01
783.329	0.0047
783.5016	0.0022
783.6741	-0.0016
783.8466	0.0018
784.0191	0.0037
784.1916	0.0005
784.3641	0.0031
784.5365	0.0051
784.7089	-0.0031
784.8813	-0.0075
785.0537	0.0016
785.2261	-0.0161
785.3984	-0.0102
785.5707	-0.0092
785.743	-0.0114
785.9153	0.0056
786.0876	-0.0019
786.2598	0.0046
786.432	-0.0101
786.6042	0.0062
786.7764	-0.0113
786.9486	-0.0069
787.1207	-0.0165
787.2928	0.0053
787.4649	0.0007
787.637	0.0064
787.8091	-0.0098
787.9811	-0.0052
788.1532	-0.005
788.3252	0.0026
788.4972	-0.0064
788.6691	0.0098
788.8411	0.0091
789.013	-0.0177
789.1849	-0.0008
789.3568	0.0065
789.5287	0.0003
789.7005	-0.002
789.8723	-0.0033
790.0442	0.0153
790.2159	-0
790.3877	0.0065
790.5595	-0.0178
790.7312	-0.0086
790.9029	-0.0017
791.0746	-0.0058
791.2463	-0.0083
791.4179	-0.013
791.5896	-0.0145
791.7612	-0.0024
791.9328	0.0004
792.1044	-0.0047
792.2759	-0.0068
792.4474	-0.0117
792.619	0.0014
792.7905	0.0069
792.9619	0.0106
793.1334	0.0168
793.3048	0.01
793.4762	0.0079
793.6476	-0.0084
793.819	-0.0021
793.9904	0.0105
794.1617	-0.0072
794.333	-0.0035
794.5043	-0.0162
794.6756	-0.0119
794.8469	-0.014
795.0181	-0.0115
795.1893	-0.0133
795.3605	-0.0004
795.5317	0.0025
795.7029	-0.008
795.874	-0.013
796.0452	-0.0025
796.2163	0.0019
796.3873	0.0055
796.5584	-0.0037
796.7294	-0.0022
796.9005	0.01
797.0715	0.0026
797.2425	-0.0144
797.4134	-0.0051
797.5844	0.0157
797.7553	-0.0081
797.9262	0.0053
798.0971	-0.0109
798.2679	0.0003
798.4388	-0.0232
798.6096	0.0021
798.7804	-0.0093
798.9512	0.0001
799.122	0.0009
799.2927	0.0073
799.4635	0.0152
799.6342	-0.005
799.8049	0.012
799.9755	-0.0079
800.1462	0.0135
800.3168	-0.0014
800.4874	0.0215
800.658	0.021
800.8286	0.0154
800.9991	0.0234
801.1696	0.0029
801.3402	0.0275
801.5106	-0.0011
801.6811	0.0077
801.8516	0.0295
802.022	0.0051
802.1924	0.0082
802.3628	0.0152
802.5332	0.0082
802.7035	0.0225
802.8739	0.0008
803.0442	-0.0026
803.2145	0.0106
803.3847	-0.0117
803.555	0.0162
803.7252	-0.0126
803.8954	-0.0101
804.0656	-0.0132
804.2358	-0.0011
804.4059	0.0184
804.5761	0.001
804.7462	0.0037
804.9163	0.0008
805.0864	0.0125
805.2564	-0.0162
805.4264	0.0102
805.5965	-0.015
805.7665	-0.0043
805.9364	0.0198
806.1064	0.0203
806.2763	-0.0133
806.4462	0.0237
806.6161	0.003
806.786	0.0061
806.9559	0.0006
807.1257	-0.0005
807.2955	0.0111
807.4653	-0.0021
807.6351	0.0038
807.8048	-0.0003
807.9746	0.0073
808.1443	0.0158
808.314	0.006
808.4837	0.008
808.6533	0.0062
808.8229	0.0228
808.9926	0.0104
809.1622	0.0251
809.3317	0.0042
809.5013	-0.0028
809.6708	0.0116
809.8403	0.0061
810.0098	0.011
810.1793	0.0236
810.3488	0.0088
810.5182	-0.0107
810.6876	0.0151
810.857	-0.0127
811.0264	0.0157
811.1958	0.001
811.3651	-0.0037
811.5344	-0.0022
811.7037	-0.021
811.873	-0.0139
812.0422	-0.0206
812.2115	-0.0115
812.3807	-0.0074
812.5499	0.0029
812.7191	0.0032
812.8882	0.0068
813.0574	0.0041
813.2265	-0.0205
813.3956	0.023
813.5646	0.01
813.7337	-0.003
813.9027	0.001
814.0718	0.0194
814.2407	0.0369
814.4097	0.0061
814.5787	-0.0152
814.7476	0.0045
814.9165	-0.0003
815.0854	0.0017
815.2543	0.0002
815.4232	-0.0031
815.592	0.0379
815.7608	0.0071
815.9296	0.0158
816.0984	-0.0156
816.2671	0.0086
816.4359	0.0063
816.6046	0.0069
816.7733	0.0283
816.942	0.0059
817.1106	0.0224
817.2793	0.0136
817.4479	-0.0166
817.6165	0.0261
817.785	0.016
817.9536	-0.0085
818.1221	-0.0071
818.2906	0.0185
818.4591	-0.0091
818.6276	-0.0071
818.7961	0.0144
818.9645	0.0096
819.1329	0.0145
819.3013	0.044
819.4697	0.0417
819.638	-0.0289
819.8064	0.004
819.9747	0.0246
820.143	0.005
820.3113	0.0014
820.4795	-0.008
820.6477	0.0062
820.816	0.0203
820.9842	0.0097
821.1523	0.0094
821.3205	-0.0043
821.4886	0.0017
821.6567	0.001
821.8248	0.0037
821.9929	0.0325
822.1609	-0.0098
822.329	0.0307
822.497	0.0171
822.665	0.0164
822.833	-0.0047
823.0009	0.0242
823.1688	-0.009
823.3367	0.0267
823.5046	0.0267
823.6725	0.028
823.8404	0.0035
824.0082	0.0158
824.176	0.0217
824.3438	0.0261
824.5116	-0.0022
824.6793	0.0279
824.847	-0.005
825.0147	0.0063
825.1824	0.0288
825.3501	0.0131
825.5177	-0.0032
825.6854	0.006
825.853	-0.0096
826.0206	0.0027
826.1881	-0.0116
826.3557	-0.0555
826.5232	0.0047
826.6907	-0.0474
826.8582	0.0022
827.0257	-0.0164
827.1931	-0.0242
827.3605	-0.0117
827.528	-0.0116
827.6953	-0.0161
827.8627	-0.0166
828.03	0.0339
828.1974	-0.0153
828.3647	-0.0281
828.532	0.0019
828.6992	0.0099
828.8665	0.0105
829.0337	-0.0175
829.2009	0.0019
829.3681	-0.0032
829.5352	0.0558
829.7024	-0.0206
829.8695	-0.0268
830.0366	0.0458
830.2037	0.0266
830.3707	0.0149
830.5378	0.0031
830.7048	0.0092
830.8718	-0.0275
831.0388	-0.0263
831.2057	0.0112
831.3727	0.0339
831.5396	-0.019
831.7065	-0.0247
831.8734	0.0158
832.0402	-0.0119
832.2071	0.0142
832.3739	-0.0149
832.5407	0.0083
832.7075	-0.0082
832.8742	-0.0286
833.041	-0.0384
833.2077	0.0005
833.3744	0.0491
833.541	0.0164
833.7077	-0.0002
833.8743	-0.0244
834.0409	0.0017
834.2075	0.0011
834.3741	-0.0063
834.5407	-0.004
834.7072	0.0017
834.8737	0.0025
835.0402	-0.0035
835.2067	0.0262
835.3731	0.0222
835.5395	-0.0152
835.706	0.0037
835.8723	0.0182
836.0387	0.022
836.2051	-0.0232
836.3714	0.0208
836.5377	0.0117
836.704	-0.01
836.8703	-0.0033
837.0365	0.0094
837.2027	-0.0357
837.3689	-0.01
837.5351	-0.0142
837.7013	-0.0633
837.8674	-0.0157
838.0335	-0.0363
838.1997	-0.0383
838.3657	-0.0283
838.5318	-0.0351
838.6978	0.0575
838.8639	-0.0002
839.0299	0.0219
839.1958	-0.0025
839.3618	0.042
839.5277	-0.0395
839.6937	0.0413
839.8596	0.0337
840.0254	0.0023
840.1913	0.0056
840.3571	0.0439
840.523	0.0017
840.6888	-0.0275
840.8545	0.0085
841.0203	-0.0028
841.186	-0.0053
841.3517	0.0171
841.5174	-0.0362
841.6831	-0.0389
841.8488	-0.0152
842.0144	-0.0207
842.18	-0.0159
842.3456	0.0016
842.5112	-0.0191
842.6767	-0.0423
842.8422	-0.0544
843.0077	-0.0461
843.1732	-0.0349
843.3387	-0.0424
843.5042	-0.0393
843.6696	-0.0157
843.835	-0.0056
844.0004	0.0534
844.1657	0.0407
844.3311	-0.0363
844.4964	-0.051
844.6617	0.0053
844.827	-0.0003
844.9923	-0.0071
845.1575	-0.0212
845.3227	-0.0083
845.4879	-0.0157
845.6531	0.0051
845.8183	-0.0559
845.9834	-0.0531
846.1485	-0.0553
846.3136	-0.0333
846.4787	-0.0849
846.6438	0.0449
846.8088	0.0709
846.9738	-0.0904
847.1388	0.0288
847.3038	-0.0094
847.4687	-0.1558
847.6337	-0.0243
847.7986	0.0023
847.9635	-0.0529
848.1284	-0.0017
848.2932	0.0121
848.458	-0.0592
848.6228	0.0605
848.7876	-0.0209
848.9524	-0.0972
849.1172	-0.0468
849.2819	0.0024
849.4466	-0.0946
849.6113	-0.0741
849.7759	0.037
849.9406	0.0135
850.1052	0.0166
850.2698	-0.067
850.4344	-0.0326
850.599	-0.0317
850.7635	0.0903
850.928	-0.1039
851.0925	0.0334
851.257	-0.0195
851.4215	-0.0238
851.5859	-0.1318
851.7503	0.0058
851.9147	0.0232
852.0791	-0.0564
852.2434	-0.0402
852.4078	-0.0214
852.5721	0.0401
852.7364	-0.0486
852.9007	-0.1984
853.0649	0.0216
853.2291	0.0224
853.3934	0.0087
853.5575	-0.0392
853.7217	-0.0671
853.8859	-0.0474
854.05	-0.0288
854.2141	-0.0497
854.3782	-0.1561
854.5423	-0.0874
854.7063	0.1189
854.8703	-0.0968
855.0343	-0.0594
855.1983	-0.1368
855.3623	0.0629
855.5262	-0.0168
855.6901	-0.0702
855.854	0.1751
856.0179	0.0486
856.1818	-0.0826
856.3456	-0.1557
856.5094	-0.1387
856.6732	0.0215
856.837	-0.0222
857.0008	0.0628
857.1645	0.0752
857.3282	0.0387
857.4919	0.0534
857.6556	0.0944
857.8192	-0.0201
857.9828	-0.0063
858.1465	0.2721
858.31	-0.127
858.4736	0.0443
858.6372	-0.126
858.8007	-0.1417
858.9642	0.1497
859.1277	-0.1649
859.2911	-0.0449
859.4546	0.084
859.618	-0.4225
859.7814	-0.0332
859.9448	0.0033
860.1081	0.0609
860.2715	0.2137
860.4348	0.0261
860.5981	-0.2213
860.7614	0.2436
860.9246	0.0058
861.0879	-0.0565
861.2511	-0.0069
861.4143	-0.2686
861.5774	0.0514
861.7406	-0.0852
861.9037	0.1168
862.0668	0.2075
862.2299	-0.3049
862.393	-0.6369
862.556	-0.0784
862.7191	-0.1964
862.8821	-0.0633
863.0451	0.6333
863.208	0.1289
863.371	0.0768
863.5339	-0.1209
863.6968	-0.0204
863.8597	0.1598
864.0225	-0.0871
864.1854	-0.0367
864.3482	0.2077
864.511	-0.0583
864.6737	-0.1259
864.8365	-0.0165
864.9992	-0.2339
865.1619	-0.0753
865.3246	-0.0444
865.4873	0.0795
865.65	0.0117
865.8126	-0.1358
865.9752	-0.1874
866.1378	-0.0262
866.3004	-0
866.4629	0.0946
866.6254	0.0538
866.7879	-0.1042
866.9504	-0.0305
867.1129	-0
867.2753	0.1363
867.4377	0.246
867.6001	-0.3096
867.7625	0.091
867.9249	-0
868.0872	0.2468
868.2495	0.0107
868.4118	-0.2697
868.5741	-0.4993
868.7363	-0.4295
868.8986	-0.2093
869.0608	-0.2494
869.223	-0.0301
869.3851	-0
869.5473	-0
869.7094	0.4382
869.8715	-0
870.0336	-0
870.1957	-0.0868
870.3577	-0
870.5197	-0.1153
870.6817	-0.3593
870.8437	0.005
871.0057	-0
871.1676	-0.281
871.3295	-0.3364
871.4914	-0
871.6533	-0.3792
871.8151	-0.6858
871.977	-0
872.1388	-0
872.3006	-0
872.4623	0.1749
872.6241	-0.0267
872.7858	-0
872.9475	-0.1552
873.1092	0.1431
873.2709	-0.0274
873.4325	-0.1205
873.5941	-0
873.7557	-0
873.9173	0.3397
874.0789	-0.4492
874.2404	0.048
874.4019	0.1968
874.5634	-0.1514
874.7249	-0.1286
874.8863	0.4049
875.0478	1.2097
875.2092	-0
875.3706	0.1211
875.5319	-0
875.6933	-0.1544
875.8546	-0.345
876.0159	-0
876.1772	0.2672
876.3385	-0
876.4997	0.0711
876.6609	-0.362
876.8221	-0.4782
876.9833	-0.0541
877.1445	-0
877.3056	-0.0015
877.4667	-0
877.6278	-0
877.7889	-0.587
877.9499	-0
878.111	-0
878.272	-0
878.433	1.4853
878.5939	-0
878.7549	-0.3192
878.9158	-1.0382
879.0767	0.0501
879.2376	0.0117
879.3984	-0
879.5593	-0
879.7201	0.2701
879.8809	-0.281
880.0417	-0.1073
880.2024	0.3308
880.3632	0.716
880.5239	1.6886
880.6846	0.183
880.8452	-2.3627
881.0059	-0
881.1665	-0.075
881.3271	-0.3629
881.4877	-0
881.6483	-0
881.8088	-0.2809
881.9693	-0
882.1298	-0
882.2903	-0
