Data from MonoPyChalIsomerACN10uM440nmA_Absorbance_15-27-11-694.txt Node
Date: Fri Jul 05 15:27:11 BST 2024
User: LASERRRRR
Spectrometer: FLMT03099
Trigger mode: 0
Integration Time (sec): 1.000000E-1
Scans to average: 1
Electric dark correction enabled: true
Nonlinearity correction enabled: false
Boxcar width: 0
XAxis mode: Wavelengths
Number of Pixels in Spectrum: 3648
>>>>>Begin Spectral Data<<<<<
179.3399	-0.0324
179.5586	-0.0324
179.7771	-0.0324
179.9957	-0
180.2143	-0
180.4329	0.036
180.6514	-0
180.8699	0.7473
181.0885	-0.0546
181.307	0.3438
181.5255	-0
181.744	-0
181.9625	-0.3794
182.181	-0
182.3994	-0
182.6179	-0
182.8363	-0.0369
183.0547	-0.1497
183.2732	0.0248
183.4916	0.0989
183.71	0.0909
183.9284	0.419
184.1467	-0.016
184.3651	0.0195
184.5835	0.1013
184.8018	0.2888
185.0201	0.1708
185.2385	0.0051
185.4568	0.2818
185.6751	0.2943
185.8934	0.0768
186.1117	0.0114
186.3299	-0.0383
186.5482	0.0945
186.7664	-0.1342
186.9847	-0.009
187.2029	0.0943
187.4211	0.0227
187.6393	0.2143
187.8575	0.1553
188.0757	0.3494
188.2939	0.2361
188.512	0.2542
188.7302	0.0981
188.9483	0.354
189.1665	0.1789
189.3846	-0.4539
189.6027	0.1134
189.8208	0.1873
190.0389	0.0903
190.257	0.1308
190.475	0.2226
190.6931	0.2754
190.9111	0.2726
191.1292	0.2489
191.3472	0.3464
191.5652	0.2737
191.7832	0.2901
192.0012	0.4984
192.2192	0.5257
192.4371	0.5167
192.6551	0.3533
192.873	0.3831
193.091	0.3445
193.3089	1.0032
193.5268	0.5787
193.7447	0.4881
193.9626	0.4521
194.1805	0.5603
194.3984	0.7007
194.6162	0.5738
194.8341	0.4441
195.0519	0.5572
195.2697	0.5578
195.4875	0.8535
195.7054	0.8409
195.9231	0.537
196.1409	0.6104
196.3587	0.613
196.5765	0.6473
196.7942	0.6349
197.012	0.4777
197.2297	0.5402
197.4474	0.6248
197.6651	0.5575
197.8828	0.49
198.1005	0.6628
198.3182	0.686
198.5358	0.7973
198.7535	0.5307
198.9711	0.5421
199.1888	0.6822
199.4064	0.609
199.624	0.6672
199.8416	0.5165
200.0592	0.7775
200.2767	0.6371
200.4943	0.7637
200.7119	0.8306
200.9294	0.7981
201.1469	0.7483
201.3645	0.6342
201.582	0.6081
201.7995	0.6548
202.017	0.665
202.2344	0.5072
202.4519	0.7107
202.6694	0.5656
202.8868	0.6943
203.1042	0.7105
203.3217	0.7141
203.5391	0.6829
203.7565	0.6177
203.9739	0.5921
204.1913	0.6279
204.4086	0.6725
204.626	0.6347
204.8433	0.6525
205.0607	0.6503
205.278	0.5921
205.4953	0.5868
205.7126	0.6354
205.9299	0.7593
206.1472	0.7424
206.3644	0.6147
206.5817	0.7226
206.7989	0.7092
207.0162	0.6034
207.2334	0.7256
207.4506	0.6786
207.6678	0.6439
207.885	0.6605
208.1022	0.7048
208.3194	0.6931
208.5365	0.6068
208.7537	0.6428
208.9708	0.5988
209.1879	0.7194
209.405	0.7006
209.6222	0.7738
209.8392	0.7191
210.0563	0.5777
210.2734	0.6866
210.4905	0.6418
210.7075	0.582
210.9245	0.5959
211.1416	0.6922
211.3586	0.6161
211.5756	0.5572
211.7926	0.6598
212.0096	0.5671
212.2265	0.6043
212.4435	0.6346
212.6604	0.6209
212.8774	0.5499
213.0943	0.6222
213.3112	0.545
213.5281	0.5808
213.745	0.5692
213.9619	0.5418
214.1788	0.4819
214.3956	0.4554
214.6125	0.4669
214.8293	0.468
215.0461	0.495
215.2629	0.4862
215.4798	0.4301
215.6965	0.4262
215.9133	0.4553
216.1301	0.4299
216.3469	0.449
216.5636	0.4304
216.7803	0.374
216.9971	0.4023
217.2138	0.3868
217.4305	0.3745
217.6472	0.3627
217.8639	0.3722
218.0805	0.3565
218.2972	0.3416
218.5138	0.3304
218.7305	0.3265
218.9471	0.3219
219.1637	0.2817
219.3803	0.2858
219.5969	0.2861
219.8135	0.2516
220.0301	0.2615
220.2466	0.27
220.4632	0.2608
220.6797	0.2303
220.8962	0.2468
221.1127	0.2425
221.3292	0.2396
221.5457	0.2506
221.7622	0.219
221.9787	0.2524
222.1951	0.2222
222.4116	0.2584
222.628	0.2567
222.8444	0.2471
223.0608	0.241
223.2772	0.2627
223.4936	0.2682
223.71	0.2453
223.9264	0.2724
224.1427	0.2454
224.3591	0.2532
224.5754	0.2535
224.7917	0.2551
225.008	0.2446
225.2243	0.2508
225.4406	0.2733
225.6569	0.2644
225.8732	0.2638
226.0894	0.2495
226.3057	0.2614
226.5219	0.2825
226.7381	0.272
226.9543	0.2647
227.1705	0.2884
227.3867	0.2701
227.6029	0.2859
227.8191	0.2825
228.0352	0.3087
228.2513	0.3155
228.4675	0.3113
228.6836	0.2992
228.8997	0.2954
229.1158	0.3076
229.3319	0.3219
229.548	0.3085
229.764	0.3244
229.9801	0.3245
230.1961	0.3185
230.4121	0.3182
230.6282	0.324
230.8442	0.3159
231.0602	0.3422
231.2761	0.3416
231.4921	0.3345
231.7081	0.3462
231.924	0.3463
232.14	0.3685
232.3559	0.3508
232.5718	0.3571
232.7877	0.3576
233.0036	0.3542
233.2195	0.3542
233.4353	0.3654
233.6512	0.3704
233.867	0.3583
234.0829	0.353
234.2987	0.3614
234.5145	0.3882
234.7303	0.3667
234.9461	0.3881
235.1619	0.378
235.3776	0.3676
235.5934	0.3821
235.8091	0.3687
236.0249	0.3646
236.2406	0.3894
236.4563	0.3764
236.672	0.3963
236.8877	0.3954
237.1034	0.3856
237.319	0.3987
237.5347	0.4149
237.7503	0.4105
237.966	0.3912
238.1816	0.4039
238.3972	0.3936
238.6128	0.384
238.8284	0.4111
239.0439	0.4239
239.2595	0.3889
239.475	0.4004
239.6906	0.4039
239.9061	0.4032
240.1216	0.4023
240.3371	0.4127
240.5526	0.3958
240.7681	0.3962
240.9836	0.3981
241.199	0.4038
241.4145	0.3773
241.6299	0.3838
241.8453	0.3733
242.0607	0.3744
242.2761	0.3543
242.4915	0.3514
242.7069	0.3678
242.9223	0.3357
243.1376	0.3413
243.353	0.3272
243.5683	0.3336
243.7836	0.3091
243.9989	0.3214
244.2142	0.3074
244.4295	0.3048
244.6448	0.3094
244.86	0.2842
245.0753	0.2758
245.2905	0.2778
245.5057	0.2739
245.721	0.2613
245.9362	0.2624
246.1514	0.2582
246.3665	0.2588
246.5817	0.2526
246.7969	0.2414
247.012	0.2342
247.2271	0.2305
247.4423	0.2326
247.6574	0.249
247.8725	0.2213
248.0876	0.2156
248.3026	0.2235
248.5177	0.215
248.7328	0.2121
248.9478	0.1891
249.1628	0.2087
249.3779	0.1981
249.5929	0.1964
249.8079	0.2088
250.0228	0.1944
250.2378	0.2006
250.4528	0.1989
250.6677	0.1928
250.8827	0.1841
251.0976	0.1894
251.3125	0.1934
251.5274	0.1683
251.7423	0.1788
251.9572	0.1891
252.172	0.1672
252.3869	0.1836
252.6017	0.1852
252.8166	0.1619
253.0314	0.1599
253.2462	0.1581
253.461	0.1731
253.6758	0.1642
253.8906	0.1833
254.1053	0.1529
254.3201	0.1629
254.5348	0.1789
254.7496	0.1699
254.9643	0.1694
255.179	0.1729
255.3937	0.1516
255.6083	0.1653
255.823	0.1656
256.0377	0.1454
256.2523	0.1616
256.467	0.1377
256.6816	0.1596
256.8962	0.1562
257.1108	0.1612
257.3254	0.1735
257.54	0.1571
257.7545	0.1702
257.9691	0.1694
258.1836	0.1625
258.3981	0.172
258.6127	0.1682
258.8272	0.1607
259.0417	0.1568
259.2561	0.1593
259.4706	0.156
259.6851	0.1647
259.8995	0.165
260.114	0.157
260.3284	0.1628
260.5428	0.158
260.7572	0.1683
260.9716	0.1604
261.186	0.1535
261.4003	0.1638
261.6147	0.1595
261.829	0.165
262.0433	0.162
262.2577	0.159
262.472	0.1641
262.6863	0.1617
262.9005	0.1657
263.1148	0.1564
263.3291	0.1376
263.5433	0.1574
263.7576	0.1691
263.9718	0.1599
264.186	0.1574
264.4002	0.1473
264.6144	0.1539
264.8286	0.1769
265.0427	0.1631
265.2569	0.1488
265.471	0.1614
265.6851	0.154
265.8993	0.1427
266.1134	0.1578
266.3275	0.149
266.5415	0.1653
266.7556	0.1585
266.9697	0.1643
267.1837	0.1514
267.3978	0.1553
267.6118	0.1588
267.8258	0.161
268.0398	0.1377
268.2538	0.144
268.4677	0.1529
268.6817	0.1522
268.8957	0.1492
269.1096	0.1603
269.3235	0.1659
269.5374	0.1481
269.7514	0.1445
269.9652	0.1489
270.1791	0.1493
270.393	0.1314
270.6068	0.1421
270.8207	0.1363
271.0345	0.128
271.2483	0.1513
271.4622	0.1416
271.676	0.1458
271.8897	0.1237
272.1035	0.1365
272.3173	0.1315
272.531	0.1346
272.7448	0.1253
272.9585	0.137
273.1722	0.1377
273.3859	0.1474
273.5996	0.1263
273.8133	0.1445
274.0269	0.1243
274.2406	0.1359
274.4542	0.1374
274.6679	0.1173
274.8815	0.1359
275.0951	0.1349
275.3087	0.1449
275.5223	0.1382
275.7358	0.1366
275.9494	0.1316
276.1629	0.1306
276.3765	0.1296
276.59	0.1388
276.8035	0.1392
277.017	0.1321
277.2305	0.1329
277.444	0.1383
277.6574	0.1171
277.8709	0.1397
278.0843	0.1275
278.2978	0.1344
278.5112	0.1352
278.7246	0.144
278.938	0.1362
279.1513	0.1408
279.3647	0.1446
279.5781	0.1416
279.7914	0.1475
280.0047	0.1615
280.2181	0.1325
280.4314	0.1463
280.6447	0.1461
280.8579	0.1409
281.0712	0.1535
281.2845	0.1467
281.4977	0.1407
281.711	0.1488
281.9242	0.1492
282.1374	0.1518
282.3506	0.1384
282.5638	0.1453
282.7769	0.1485
282.9901	0.1422
283.2033	0.1508
283.4164	0.1532
283.6295	0.1417
283.8426	0.1461
284.0557	0.1567
284.2688	0.1589
284.4819	0.1513
284.695	0.1435
284.908	0.1649
285.1211	0.1506
285.3341	0.1517
285.5471	0.1647
285.7601	0.1451
285.9731	0.1579
286.1861	0.1443
286.3991	0.1582
286.612	0.1634
286.825	0.153
287.0379	0.163
287.2508	0.163
287.4637	0.159
287.6766	0.1524
287.8895	0.1649
288.1024	0.1815
288.3152	0.1638
288.5281	0.1585
288.7409	0.1699
288.9538	0.1651
289.1666	0.1523
289.3794	0.1663
289.5922	0.1594
289.8049	0.1585
290.0177	0.1673
290.2304	0.1692
290.4432	0.1653
290.6559	0.1636
290.8686	0.1719
291.0813	0.1606
291.294	0.1644
291.5067	0.1776
291.7194	0.1534
291.932	0.1774
292.1447	0.1648
292.3573	0.1639
292.5699	0.1718
292.7825	0.1724
292.9951	0.1647
293.2077	0.1658
293.4203	0.162
293.6328	0.1572
293.8454	0.1721
294.0579	0.1647
294.2704	0.1612
294.4829	0.1534
294.6954	0.1635
294.9079	0.1623
295.1204	0.1619
295.3328	0.1648
295.5453	0.1614
295.7577	0.1751
295.9701	0.161
296.1825	0.1727
296.3949	0.1702
296.6073	0.1578
296.8197	0.1444
297.0321	0.1788
297.2444	0.1592
297.4567	0.1675
297.6691	0.1699
297.8814	0.1645
298.0937	0.1548
298.306	0.1683
298.5182	0.1718
298.7305	0.1727
298.9428	0.1604
299.155	0.1645
299.3672	0.1622
299.5794	0.158
299.7916	0.1532
300.0038	0.1662
300.216	0.179
300.4282	0.173
300.6403	0.1587
300.8525	0.1723
301.0646	0.1632
301.2767	0.1682
301.4888	0.1564
301.7009	0.1567
301.913	0.1652
302.125	0.1584
302.3371	0.1595
302.5491	0.1639
302.7612	0.1754
302.9732	0.1646
303.1852	0.1711
303.3972	0.1531
303.6092	0.1586
303.8211	0.161
304.0331	0.1614
304.245	0.1624
304.457	0.1577
304.6689	0.1574
304.8808	0.1625
305.0927	0.1504
305.3046	0.1446
305.5164	0.1565
305.7283	0.1405
305.9401	0.1418
306.152	0.1481
306.3638	0.1542
306.5756	0.1483
306.7874	0.1411
306.9992	0.155
307.2109	0.135
307.4227	0.1226
307.6344	0.1414
307.8462	0.1435
308.0579	0.1381
308.2696	0.1301
308.4813	0.1352
308.693	0.1311
308.9046	0.1417
309.1163	0.1251
309.328	0.1215
309.5396	0.1293
309.7512	0.1224
309.9628	0.1242
310.1744	0.1279
310.386	0.116
310.5976	0.1285
310.8091	0.113
311.0207	0.1122
311.2322	0.1109
311.4437	0.0997
311.6552	0.096
311.8667	0.0989
312.0782	0.0999
312.2897	0.0956
312.5012	0.1066
312.7126	0.0925
312.924	0.091
313.1355	0.1066
313.3469	0.0971
313.5583	0.1092
313.7696	0.0971
313.981	0.0997
314.1924	0.0968
314.4037	0.0971
314.6151	0.1083
314.8264	0.0918
315.0377	0.0874
315.249	0.0976
315.4603	0.0985
315.6716	0.0964
315.8828	0.0908
316.0941	0.0971
316.3053	0.0902
316.5165	0.0823
316.7277	0.0885
316.9389	0.0937
317.1501	0.0902
317.3613	0.0829
317.5724	0.0779
317.7836	0.0806
317.9947	0.0821
318.2058	0.0856
318.417	0.0824
318.6281	0.0756
318.8391	0.096
319.0502	0.0931
319.2613	0.0876
319.4723	0.0959
319.6834	0.0998
319.8944	0.0818
320.1054	0.089
320.3164	0.0907
320.5274	0.0794
320.7383	0.0785
320.9493	0.0879
321.1602	0.1026
321.3712	0.0877
321.5821	0.0894
321.793	0.0896
322.0039	0.0946
322.2148	0.081
322.4257	0.087
322.6365	0.0972
322.8474	0.0944
323.0582	0.0918
323.269	0.0991
323.4798	0.0956
323.6906	0.0859
323.9014	0.0906
324.1122	0.0999
324.3229	0.0798
324.5337	0.0847
324.7444	0.0757
324.9551	0.0994
325.1658	0.1022
325.3765	0.0985
325.5872	0.0907
325.7979	0.082
326.0085	0.0897
326.2192	0.1117
326.4298	0.1
326.6404	0.0869
326.851	0.0893
327.0616	0.093
327.2722	0.0922
327.4828	0.093
327.6933	0.1005
327.9039	0.0903
328.1144	0.1014
328.3249	0.1055
328.5354	0.0848
328.7459	0.0966
328.9564	0.0848
329.1669	0.0897
329.3773	0.1023
329.5878	0.0922
329.7982	0.0875
330.0086	0.099
330.219	0.1003
330.4294	0.0974
330.6398	0.0955
330.8502	0.0832
331.0605	0.095
331.2708	0.1
331.4812	0.1008
331.6915	0.107
331.9018	0.1084
332.1121	0.094
332.3224	0.0939
332.5326	0.1007
332.7429	0.1144
332.9531	0.106
333.1633	0.0956
333.3735	0.0949
333.5837	0.1056
333.7939	0.0963
334.0041	0.1102
334.2143	0.1147
334.4244	0.1044
334.6346	0.0828
334.8447	0.1143
335.0548	0.1014
335.2649	0.0962
335.475	0.1084
335.685	0.0941
335.8951	0.1141
336.1051	0.1023
336.3152	0.1079
336.5252	0.0868
336.7352	0.1037
336.9452	0.1119
337.1552	0.1068
337.3652	0.1011
337.5751	0.093
337.7851	0.1113
337.995	0.0889
338.2049	0.1244
338.4148	0.1129
338.6247	0.1079
338.8346	0.1032
339.0445	0.0929
339.2543	0.1014
339.4642	0.1078
339.674	0.1024
339.8838	0.1086
340.0936	0.0995
340.3034	0.1154
340.5132	0.1053
340.7229	0.1166
340.9327	0.1079
341.1424	0.1129
341.3522	0.1142
341.5619	0.1032
341.7716	0.1108
341.9813	0.1201
342.1909	0.1209
342.4006	0.1222
342.6102	0.1249
342.8199	0.1114
343.0295	0.1219
343.2391	0.1179
343.4487	0.1166
343.6583	0.1047
343.8679	0.1101
344.0774	0.1125
344.287	0.1155
344.4965	0.1203
344.706	0.1221
344.9155	0.1224
345.125	0.1121
345.3345	0.1227
345.544	0.1157
345.7534	0.1188
345.9629	0.1135
346.1723	0.1274
346.3817	0.1136
346.5911	0.1184
346.8005	0.1289
347.0099	0.1211
347.2193	0.1423
347.4286	0.1261
347.638	0.1289
347.8473	0.1247
348.0566	0.1246
348.2659	0.1312
348.4752	0.1405
348.6845	0.1084
348.8937	0.13
349.103	0.1416
349.3122	0.1189
349.5214	0.1205
349.7306	0.1368
349.9398	0.1299
350.149	0.1276
350.3582	0.1201
350.5674	0.152
350.7765	0.1345
350.9856	0.1339
351.1948	0.1267
351.4039	0.1274
351.613	0.1251
351.822	0.1305
352.0311	0.1487
352.2402	0.1393
352.4492	0.1446
352.6582	0.1438
352.8672	0.1415
353.0762	0.1443
353.2852	0.1387
353.4942	0.1342
353.7032	0.1603
353.9121	0.1403
354.1211	0.1508
354.33	0.134
354.5389	0.1494
354.7478	0.1463
354.9567	0.1473
355.1655	0.1425
355.3744	0.1567
355.5833	0.1546
355.7921	0.1591
356.0009	0.1539
356.2097	0.1609
356.4185	0.1576
356.6273	0.1612
356.8361	0.1587
357.0448	0.1488
357.2536	0.1428
357.4623	0.1544
357.671	0.1692
357.8797	0.1649
358.0884	0.1701
358.2971	0.1584
358.5057	0.1635
358.7144	0.1603
358.923	0.1587
359.1316	0.1656
359.3402	0.1573
359.5488	0.1641
359.7574	0.1482
359.966	0.1752
360.1746	0.1693
360.3831	0.178
360.5916	0.1643
360.8002	0.1631
361.0087	0.1647
361.2172	0.1712
361.4256	0.1733
361.6341	0.1944
361.8426	0.1791
362.051	0.1907
362.2594	0.1858
362.4678	0.1718
362.6762	0.196
362.8846	0.1896
363.093	0.1804
363.3014	0.1756
363.5097	0.1697
363.718	0.1764
363.9264	0.177
364.1347	0.1855
364.343	0.1977
364.5513	0.2082
364.7595	0.188
364.9678	0.193
365.176	0.1953
365.3842	0.1947
365.5925	0.2066
365.8007	0.1995
366.0089	0.1953
366.217	0.195
366.4252	0.2054
366.6333	0.2113
366.8415	0.2168
367.0496	0.1977
367.2577	0.2167
367.4658	0.2226
367.6739	0.2228
367.882	0.2248
368.09	0.1958
368.2981	0.1986
368.5061	0.1973
368.7141	0.2082
368.9221	0.2098
369.1301	0.201
369.3381	0.2177
369.5461	0.225
369.754	0.2262
369.962	0.2202
370.1699	0.2116
370.3778	0.2263
370.5857	0.214
370.7936	0.2273
371.0015	0.2138
371.2093	0.2274
371.4172	0.2335
371.625	0.22
371.8328	0.2108
372.0406	0.233
372.2484	0.2241
372.4562	0.2301
372.664	0.2266
372.8717	0.2219
373.0795	0.2082
373.2872	0.2349
373.4949	0.2293
373.7026	0.2267
373.9103	0.2404
374.118	0.2517
374.3256	0.2386
374.5333	0.2346
374.7409	0.2191
374.9485	0.245
375.1561	0.2467
375.3637	0.2475
375.5713	0.265
375.7789	0.2484
375.9864	0.2317
376.194	0.2275
376.4015	0.2525
376.609	0.2509
376.8165	0.2365
377.024	0.2336
377.2315	0.2417
377.4389	0.2438
377.6464	0.253
377.8538	0.2437
378.0612	0.2378
378.2686	0.2498
378.476	0.2635
378.6834	0.2513
378.8908	0.2522
379.0981	0.2579
379.3055	0.2663
379.5128	0.2524
379.7201	0.2594
379.9274	0.2549
380.1347	0.2622
380.342	0.2658
380.5492	0.2493
380.7565	0.2667
380.9637	0.2639
381.1709	0.2721
381.3781	0.2471
381.5853	0.2659
381.7925	0.259
381.9997	0.2835
382.2068	0.2706
382.4139	0.2686
382.6211	0.2636
382.8282	0.2652
383.0353	0.2753
383.2424	0.2631
383.4494	0.2811
383.6565	0.274
383.8635	0.2827
384.0706	0.2598
384.2776	0.2658
384.4846	0.2487
384.6916	0.2722
384.8986	0.2705
385.1055	0.2708
385.3125	0.2829
385.5194	0.2568
385.7263	0.2748
385.9333	0.2654
386.1402	0.2496
386.347	0.2624
386.5539	0.2488
386.7608	0.276
386.9676	0.253
387.1744	0.2544
387.3813	0.2582
387.5881	0.2679
387.7948	0.2655
388.0016	0.2727
388.2084	0.2528
388.4151	0.2773
388.6219	0.2784
388.8286	0.2653
389.0353	0.2779
389.242	0.2591
389.4487	0.2571
389.6553	0.2656
389.862	0.2189
390.0686	0.2505
390.2753	0.2604
390.4819	0.255
390.6885	0.2555
390.8951	0.2648
391.1016	0.2412
391.3082	0.2479
391.5147	0.2505
391.7213	0.261
391.9278	0.2476
392.1343	0.2234
392.3408	0.2379
392.5473	0.2445
392.7537	0.2367
392.9602	0.2419
393.1666	0.2405
393.373	0.2337
393.5794	0.2526
393.7858	0.2474
393.9922	0.2119
394.1986	0.2394
394.4049	0.244
394.6113	0.2317
394.8176	0.2228
395.0239	0.2428
395.2302	0.2229
395.4365	0.2371
395.6428	0.233
395.8491	0.221
396.0553	0.2305
396.2615	0.2438
396.4678	0.2336
396.674	0.2226
396.8802	0.2168
397.0863	0.2426
397.2925	0.2146
397.4987	0.2014
397.7048	0.2115
397.9109	0.2296
398.117	0.2048
398.3231	0.2031
398.5292	0.2286
398.7353	0.2321
398.9413	0.2264
399.1474	0.2404
399.3534	0.2238
399.5594	0.2216
399.7654	0.2354
399.9714	0.2201
400.1774	0.227
400.3833	0.209
400.5893	0.2242
400.7952	0.2221
401.0011	0.2448
401.207	0.2263
401.4129	0.218
401.6188	0.2212
401.8247	0.2205
402.0305	0.2249
402.2364	0.219
402.4422	0.2238
402.648	0.2178
402.8538	0.2324
403.0596	0.2126
403.2654	0.231
403.4711	0.2214
403.6768	0.2361
403.8826	0.225
404.0883	0.232
404.294	0.2369
404.4997	0.2311
404.7054	0.207
404.911	0.2212
405.1167	0.2226
405.3223	0.2225
405.5279	0.24
405.7335	0.2199
405.9391	0.244
406.1447	0.1982
406.3502	0.2375
406.5558	0.1987
406.7613	0.2241
406.9668	0.2281
407.1724	0.2122
407.3778	0.2139
407.5833	0.2048
407.7888	0.1977
407.9942	0.2343
408.1997	0.2215
408.4051	0.2192
408.6105	0.2236
408.8159	0.2234
409.0213	0.2244
409.2267	0.2363
409.432	0.2062
409.6374	0.2351
409.8427	0.2257
410.048	0.2021
410.2533	0.207
410.4586	0.212
410.6639	0.2283
410.8691	0.2136
411.0744	0.2021
411.2796	0.1986
411.4848	0.2278
411.69	0.2256
411.8952	0.2547
412.1004	0.1803
412.3056	0.228
412.5107	0.2246
412.7158	0.2305
412.921	0.2141
413.1261	0.2191
413.3312	0.2294
413.5362	0.2343
413.7413	0.2103
413.9464	0.2057
414.1514	0.2178
414.3564	0.2137
414.5614	0.1902
414.7664	0.2299
414.9714	0.1959
415.1764	0.211
415.3813	0.2202
415.5863	0.2034
415.7912	0.1939
415.9961	0.2215
416.201	0.2051
416.4059	0.2322
416.6108	0.1973
416.8156	0.2194
417.0205	0.2181
417.2253	0.2033
417.4301	0.2164
417.6349	0.2198
417.8397	0.2196
418.0445	0.2034
418.2492	0.2246
418.454	0.1957
418.6587	0.2096
418.8634	0.2007
419.0681	0.2003
419.2728	0.1885
419.4775	0.1963
419.6822	0.205
419.8868	0.1882
420.0915	0.2015
420.2961	0.1913
420.5007	0.1925
420.7053	0.2031
420.9099	0.2128
421.1144	0.2024
421.319	0.19
421.5235	0.1903
421.728	0.2112
421.9325	0.2049
422.137	0.2065
422.3415	0.1947
422.546	0.1835
422.7504	0.2038
422.9549	0.2041
423.1593	0.1899
423.3637	0.2176
423.5681	0.2025
423.7725	0.1882
423.9769	0.1791
424.1812	0.19
424.3856	0.1875
424.5899	0.1875
424.7942	0.1728
424.9985	0.1813
425.2028	0.181
425.4071	0.2128
425.6113	0.1602
425.8156	0.1918
426.0198	0.1665
426.224	0.1707
426.4282	0.1947
426.6324	0.1675
426.8366	0.1575
427.0407	0.1611
427.2449	0.1657
427.449	0.1658
427.6531	0.1585
427.8572	0.1635
428.0613	0.1605
428.2654	0.1711
428.4694	0.172
428.6735	0.1749
428.8775	0.189
429.0815	0.1746
429.2855	0.1552
429.4895	0.1702
429.6935	0.1613
429.8975	0.1576
430.1014	0.1526
430.3053	0.1385
430.5093	0.161
430.7132	0.1433
430.9171	0.1394
431.1209	0.1386
431.3248	0.1469
431.5286	0.1347
431.7325	0.1479
431.9363	0.1227
432.1401	0.1408
432.3439	0.1453
432.5477	0.1203
432.7514	0.1259
432.9552	0.1453
433.1589	0.1279
433.3627	0.1235
433.5664	0.1144
433.7701	0.1235
433.9737	0.1307
434.1774	0.1207
434.3811	0.1132
434.5847	0.1282
434.7883	0.112
434.9919	0.1167
435.1955	0.1121
435.3991	0.1041
435.6027	0.1199
435.8062	0.1075
436.0098	0.0956
436.2133	0.1062
436.4168	0.1018
436.6203	0.0917
436.8238	0.1049
437.0272	0.1027
437.2307	0.0981
437.4341	0.1189
437.6375	0.1032
437.841	0.0928
438.0443	0.0979
438.2477	0.1003
438.4511	0.0896
438.6545	0.1124
438.8578	0.1022
439.0611	0.1045
439.2644	0.0841
439.4677	0.0712
439.671	0.0709
439.8743	0.0965
440.0775	0.0814
440.2808	0.0828
440.484	0.0657
440.6872	0.045
440.8904	0.076
441.0936	0.0951
441.2967	0.0705
441.4999	0.0789
441.703	0.0742
441.9062	0.0603
442.1093	0.0667
442.3124	0.0715
442.5155	0.0515
442.7185	0.064
442.9216	0.045
443.1246	0.0811
443.3276	0.0643
443.5307	0.0568
443.7337	0.0749
443.9366	0.0612
444.1396	0.0458
444.3426	0.0688
444.5455	0.0613
444.7484	0.05
444.9513	0.0499
445.1542	0.0586
445.3571	0.0491
445.56	0.0455
445.7628	0.0374
445.9657	0.0424
446.1685	0.0502
446.3713	0.039
446.5741	0.0382
446.7769	0.0423
446.9797	0.0422
447.1824	0.0556
447.3852	0.0369
447.5879	0.0442
447.7906	0.0477
447.9933	0.0418
448.196	0.0369
448.3986	0.0387
448.6013	0.0323
448.8039	0.0248
449.0066	0.0445
449.2092	0.0362
449.4118	0.0248
449.6143	0.0327
449.8169	0.0544
450.0195	0.0242
450.222	0.005
450.4245	0.0124
450.627	0.0386
450.8295	0.0336
451.032	0.0251
451.2345	0.0221
451.4369	0.0349
451.6394	0.0325
451.8418	0.0091
452.0442	0.0036
452.2466	0.0209
452.449	0.0124
452.6513	0.0222
452.8537	0.0108
453.056	-0.0017
453.2583	0.0274
453.4607	0.012
453.663	0.0063
453.8652	0.0371
454.0675	0.018
454.2697	0.0209
454.472	0.0072
454.6742	0.0168
454.8764	0.0108
455.0786	0.0305
455.2808	0.0075
455.4829	0.013
455.6851	0.0319
455.8872	0.0167
456.0893	0.023
456.2915	-0.0013
456.4935	0.0091
456.6956	0.0054
456.8977	0.0207
457.0997	0.0135
457.3018	-0.0092
457.5038	0.0175
457.7058	-0.0062
457.9078	0.0013
458.1098	0.0175
458.3117	0.009
458.5137	0.0066
458.7156	0.0198
458.9175	-0.005
459.1194	0.0093
459.3213	0.0147
459.5232	0.0132
459.725	-0.002
459.9269	0.0012
460.1287	-0.0089
460.3305	0.0059
460.5323	0.0003
460.7341	-0.0078
460.9359	-0.0031
461.1376	-0.0032
461.3394	-0.0046
461.5411	0.0027
461.7428	0.0018
461.9445	0.0157
462.1462	0.0117
462.3479	0.0011
462.5495	0.0024
462.7512	0.0002
462.9528	0.0033
463.1544	-0.0097
463.356	0.0071
463.5576	0.0087
463.7592	0.0035
463.9607	0.0134
464.1623	0.0128
464.3638	0.022
464.5653	-0.0085
464.7668	0.0056
464.9683	0.0014
465.1697	0.0185
465.3712	-0.0139
465.5726	-0.0091
465.7741	-0.0079
465.9755	-0.0035
466.1769	-0.0061
466.3782	0.0017
466.5796	-0.0186
466.7809	0.0014
466.9823	-0.0071
467.1836	-0.0032
467.3849	-0.0059
467.5862	0.0064
467.7875	-0.005
467.9887	0.0204
468.19	0.005
468.3912	-0.013
468.5924	-0.0088
468.7936	0.0061
468.9948	-0.006
469.196	0.0046
469.3972	-0.0291
469.5983	0.0081
469.7994	-0.0005
470.0006	0
470.2017	-0.0161
470.4027	-0.0142
470.6038	0.0093
470.8049	-0.0169
471.0059	-0.0088
471.2069	-0.0271
471.408	0.0008
471.6089	0.0036
471.8099	0.0033
472.0109	-0.0003
472.2119	-0.0066
472.4128	-0.011
472.6137	0.0117
472.8146	-0.0108
473.0155	0.0012
473.2164	0.0114
473.4173	-0.0055
473.6181	0.0074
473.819	0.0111
474.0198	-0.0037
474.2206	-0.0141
474.4214	-0.0087
474.6222	0.0006
474.8229	0.0012
475.0237	-0.0107
475.2244	-0.0076
475.4251	-0.0017
475.6258	0.0061
475.8265	-0.0012
476.0272	-0.0005
476.2278	-0.0074
476.4285	-0.0059
476.6291	-0.0046
476.8297	-0.0112
477.0303	-0.009
477.2309	-0.009
477.4315	-0.0152
477.632	-0.0097
477.8326	-0.0059
478.0331	0.0015
478.2336	-0.0021
478.4341	-0.0085
478.6346	0.0012
478.8351	-0.0109
479.0355	0.0026
479.236	-0.0055
479.4364	0.001
479.6368	-0.0031
479.8372	-0.0065
480.0376	-0.0057
480.2379	-0.0218
480.4383	-0.0167
480.6386	-0.0024
480.8389	-0.0127
481.0392	-0.0069
481.2395	-0.011
481.4398	0.0048
481.6401	-0.0013
481.8403	0.0022
482.0405	0.0021
482.2408	-0.0003
482.441	0.0065
482.6411	-0.0052
482.8413	-0.0097
483.0415	-0.0168
483.2416	-0.0074
483.4417	-0.0021
483.6419	0.0068
483.8419	-0.0041
484.042	0.0025
484.2421	-0.0029
484.4422	0.0001
484.6422	-0.007
484.8422	-0.0131
485.0422	-0.0075
485.2422	0.0008
485.4422	-0.009
485.6422	-0.0179
485.8421	-0.0028
486.042	-0.0012
486.242	-0.013
486.4419	-0.0089
486.6417	-0.014
486.8416	-0.0029
487.0415	-0.0157
487.2413	-0.0114
487.4411	0.0028
487.641	-0.0167
487.8408	0.0042
488.0405	-0.013
488.2403	-0.0108
488.4401	-0.0016
488.6398	0.0007
488.8395	-0.0059
489.0392	0.0057
489.2389	-0.0066
489.4386	-0.0144
489.6383	0.0062
489.8379	0.0037
490.0376	-0.0019
490.2372	-0.0072
490.4368	-0.0172
490.6364	-0.0095
490.836	0.0014
491.0355	-0.0081
491.2351	-0.0054
491.4346	-0.0044
491.6341	-0.0095
491.8336	0.006
492.0331	-0.0146
492.2326	-0.0079
492.432	0.0003
492.6315	-0.0057
492.8309	-0.0199
493.0303	-0.0116
493.2297	-0.0157
493.4291	-0.0112
493.6284	-0.0033
493.8278	-0.0031
494.0271	-0.0102
494.2264	0.0062
494.4257	-0.0047
494.625	0.001
494.8243	-0.0207
495.0236	-0.0119
495.2228	-0.0097
495.422	0.0016
495.6213	-0.0012
495.8205	-0.0029
496.0196	-0.0051
496.2188	0.0004
496.418	-0.011
496.6171	-0.0013
496.8162	-0.0107
497.0153	0.0017
497.2144	-0.0095
497.4135	-0.0008
497.6126	-0.0072
497.8116	-0.0053
498.0107	0.0073
498.2097	-0.0096
498.4087	-0.017
498.6077	0.0035
498.8067	-0.0105
499.0056	0.0001
499.2046	-0.0068
499.4035	-0.0216
499.6024	-0.0014
499.8013	0.0011
500.0002	-0.0094
500.199	-0.0047
500.3979	-0.0017
500.5967	-0.0156
500.7956	-0.006
500.9944	-0.0113
501.1932	-0.0114
501.3919	-0.0101
501.5907	-0.0079
501.7895	-0
501.9882	-0.0037
502.1869	-0.0096
502.3856	-0.0068
502.5843	-0.0145
502.783	-0.0027
502.9816	0.0028
503.1803	-0.0142
503.3789	-0.0125
503.5775	0.0144
503.7761	-0.0075
503.9747	-0.0032
504.1732	0.0004
504.3718	-0.0019
504.5703	-0.0045
504.7689	-0.0086
504.9674	-0.0081
505.1658	-0.0032
505.3643	-0.0022
505.5628	-0.0088
505.7612	-0.006
505.9597	0.0003
506.1581	-0.005
506.3565	0.003
506.5549	-0.0038
506.7532	-0.0172
506.9516	-0.0051
507.1499	-0.0115
507.3482	-0.0098
507.5465	-0.005
507.7448	0.0044
507.9431	-0.0053
508.1414	0.0018
508.3396	-0.0043
508.5379	-0.0017
508.7361	-0.0082
508.9343	0.002
509.1325	0.0102
509.3306	-0.0105
509.5288	-0.009
509.7269	-0.0129
509.9251	-0.0126
510.1232	-0.0078
510.3213	0.0038
510.5193	0.0001
510.7174	-0.0116
510.9154	0.0016
511.1135	-0.0161
511.3115	-0.0098
511.5095	-0.0043
511.7075	-0.0102
511.9055	-0.009
512.1034	0.0039
512.3014	-0.0043
512.4993	-0.0025
512.6972	-0.014
512.8951	-0.0158
513.093	-0.0017
513.2908	0.0003
513.4887	-0.0003
513.6865	-0.0009
513.8844	-0.0075
514.0822	-0.0074
514.2799	-0.0136
514.4777	-0.0074
514.6755	-0.0164
514.8732	-0.0072
515.0709	-0.0015
515.2687	-0.0054
515.4664	-0.0002
515.664	-0.0049
515.8617	-0.0029
516.0594	-0.0146
516.257	-0.0044
516.4546	-0.0157
516.6522	0.0081
516.8498	0.0051
517.0474	-0.0037
517.2449	0.0036
517.4425	-0.0115
517.64	0.0031
517.8375	0.0022
518.035	0.0026
518.2325	-0.0133
518.43	0.0001
518.6274	0.0051
518.8249	-0.0167
519.0223	-0.003
519.2197	-0.0135
519.4171	-0.0016
519.6145	-0.0139
519.8118	-0.0031
520.0092	-0.0129
520.2065	-0.0065
520.4038	-0.0206
520.6011	-0.0043
520.7984	-0.0147
520.9956	-0.0035
521.1929	-0.0137
521.3901	0.0014
521.5874	-0.0061
521.7846	-0.0001
521.9818	-0.0108
522.1789	-0.0053
522.3761	-0.0008
522.5732	0.001
522.7704	-0.0009
522.9675	-0.0019
523.1646	-0.0196
523.3617	-0.0056
523.5587	0.0008
523.7558	0.0006
523.9528	-0.0088
524.1498	-0.008
524.3468	-0.0078
524.5438	-0.0129
524.7408	-0.0043
524.9378	0.0061
525.1347	-0.0099
525.3316	-0.0015
525.5285	-0.0171
525.7254	-0.012
525.9223	-0.0017
526.1192	-0.0004
526.316	-0.0028
526.5129	-0.0034
526.7097	0.0024
526.9065	-0.0038
527.1033	-0.0161
527.3	-0.003
527.4968	-0.0009
527.6935	-0.0031
527.8903	-0.0056
528.087	-0.0063
528.2837	-0.0086
528.4804	-0.0101
528.677	0.0006
528.8737	0.0023
529.0703	0.0002
529.2669	-0.0103
529.4635	-0.0028
529.6601	-0.0005
529.8567	-0.0033
530.0532	-0.0185
530.2498	0.0048
530.4463	0.0006
530.6428	-0.0026
530.8393	0.0053
531.0358	-0.0091
531.2322	-0.0103
531.4287	-0.0145
531.6251	-0.011
531.8215	-0.0016
532.0179	-0.0022
532.2143	-0.0021
532.4107	-0.0075
532.607	-0.0115
532.8034	0.0052
532.9997	-0.0007
533.196	-0.0076
533.3923	-0.003
533.5886	-0.0009
533.7848	-0.005
533.9811	0.0012
534.1773	0.003
534.3735	-0.0015
534.5697	0.0026
534.7659	-0.0071
534.9621	-0.0015
535.1582	-0.0105
535.3544	-0.0051
535.5505	-0.0027
535.7466	-0.0108
535.9427	-0.0067
536.1387	-0.0067
536.3348	-0.0041
536.5308	0.0041
536.7269	-0.0081
536.9229	0.0043
537.1189	-0.0021
537.3148	0.003
537.5108	-0.0042
537.7068	-0.0045
537.9027	0.0079
538.0986	-0.0021
538.2945	-0.0018
538.4904	-0.0115
538.6863	-0.0113
538.8821	-0.0006
539.078	-0.0028
539.2738	-0.0069
539.4696	-0.002
539.6654	0.0079
539.8611	0.0107
540.0569	-0.001
540.2526	-0.0039
540.4484	-0.0041
540.6441	0.0119
540.8398	-0.0021
541.0355	-0.0055
541.2311	-0.0048
541.4268	-0.0077
541.6224	-0.0001
541.818	-0.002
542.0136	-0.0063
542.2092	-0.0033
542.4048	-0.0017
542.6003	-0.005
542.7959	-0.0033
542.9914	-0.0047
543.1869	-0.0027
543.3824	0.0042
543.5779	-0.0057
543.7734	-0.0047
543.9688	-0.0082
544.1642	-0.0051
544.3596	0.0057
544.555	-0.0072
544.7504	-0.0023
544.9458	0.002
545.1411	-0.0016
545.3365	-0.0042
545.5318	-0.005
545.7271	-0.0006
545.9224	0.007
546.1177	0.0046
546.3129	0.0068
546.5081	-0.0072
546.7034	-0.0038
546.8986	-0.0041
547.0938	-0.0075
547.289	-0.0069
547.4841	0.0027
547.6793	0.0125
547.8744	-0.0068
548.0695	-0.0102
548.2646	-0.0064
548.4597	-0.0036
548.6548	0.0041
548.8498	0.0073
549.0448	0
549.2399	0.0003
549.4349	0.007
549.6298	-0.0006
549.8248	0.0034
550.0198	-0.0083
550.2147	0.0033
550.4096	-0.0026
550.6045	-0.0053
550.7994	0.0152
550.9943	-0.0017
551.1892	-0.0052
551.384	0.0021
551.5788	-0.0045
551.7737	0.0023
551.9685	0.0008
552.1632	0.0017
552.358	0.0013
552.5528	0.002
552.7475	0.0007
552.9422	0.007
553.1369	0.0055
553.3316	0.004
553.5263	-0.0061
553.7209	-0.0033
553.9156	0.0031
554.1102	-0.0014
554.3048	-0.007
554.4994	0.0066
554.694	-0.0056
554.8885	0.0013
555.0831	-0.0168
555.2776	-0.0056
555.4721	-0.0052
555.6666	-0.0005
555.8611	0.0056
556.0555	-0.0028
556.25	0.0022
556.4444	-0.0099
556.6388	0.0007
556.8332	0.0037
557.0276	0.0043
557.222	-0.0036
557.4163	-0.0042
557.6107	-0.0026
557.805	-0.0043
557.9993	-0.0066
558.1936	0.0047
558.3879	0.003
558.5821	0.0023
558.7764	-0.0074
558.9706	-0.0069
559.1648	0.0095
559.359	-0.0031
559.5532	-0.0022
559.7473	-0.0032
559.9415	-0.0002
560.1356	0.0009
560.3297	-0.0083
560.5238	-0.0033
560.7179	-0.0047
560.9119	-0.0056
561.106	-0.0016
561.3	0.0035
561.494	-0.0011
561.688	-0.0096
561.882	0.0002
562.076	-0.0105
562.2699	-0.0019
562.4639	0.0007
562.6578	0.0024
562.8517	-0.0004
563.0456	0.0072
563.2395	0.0049
563.4333	0.0053
563.6272	0.002
563.821	0.0022
564.0148	-0.0083
564.2086	-0.0102
564.4024	0.0025
564.5961	0.001
564.7899	0.0037
564.9836	-0.0064
565.1773	-0.0021
565.371	0.0058
565.5647	0.0014
565.7584	0.0005
565.952	0.0057
566.1456	-0.0008
566.3393	-0.0032
566.5329	-0.0049
566.7264	0.0029
566.92	-0.0081
567.1136	-0.0018
567.3071	0.0019
567.5006	0.0037
567.6941	0.0018
567.8876	0.0004
568.0811	-0.0003
568.2745	0.0051
568.468	0.0072
568.6614	0.0045
568.8548	0.003
569.0482	-0.0063
569.2416	0.0008
569.4349	0.0079
569.6283	-0.0009
569.8216	0.0009
570.0149	-0.0042
570.2082	0.0076
570.4015	0.006
570.5947	0.0099
570.788	0.0025
570.9812	0.0052
571.1744	-0.0012
571.3676	-0.0092
571.5608	-0.0034
571.754	0.006
571.9471	-0.0012
572.1402	0.0031
572.3333	-0.006
572.5264	-0.0038
572.7195	0.0007
572.9126	0.0009
573.1057	-0.0005
573.2987	0.0009
573.4917	0.0053
573.6847	-0.0097
573.8777	0.007
574.0707	0.0069
574.2636	-0.002
574.4566	-0
574.6495	0.0008
574.8424	-0.0037
575.0353	-0.0003
575.2281	0.012
575.421	0.0052
575.6138	0.0025
575.8067	0.0006
575.9995	-0.0003
576.1923	0.0064
576.385	-0.0022
576.5778	-0.0059
576.7706	-0.0015
576.9633	0.005
577.156	0.0007
577.3487	-0.0047
577.5414	0.0015
577.734	-0.0094
577.9267	0.0008
578.1193	-0.0085
578.3119	-0.0107
578.5045	-0.002
578.6971	0.0013
578.8897	0.0014
579.0822	-0.0025
579.2747	-0.0044
579.4673	-0
579.6598	-0.0011
579.8522	-0.0019
580.0447	-0.0006
580.2372	-0.0025
580.4296	0.0075
580.622	0.0005
580.8144	-0.0026
581.0068	-0.0041
581.1992	-0.0055
581.3915	-0.0014
581.5839	-0.0047
581.7762	-0.0062
581.9685	-0.0028
582.1608	0.0006
582.353	0.0012
582.5453	-0.0008
582.7375	0.0022
582.9298	0.0014
583.122	0.0046
583.3142	-0.002
583.5063	0.0026
583.6985	-0.0023
583.8906	0.0007
584.0827	-0.0055
584.2749	0.004
584.4669	0.0029
584.659	0.0044
584.8511	-0.0008
585.0431	-0.0049
585.2352	0.0057
585.4272	-0.0003
585.6192	0.008
585.8111	-0.0003
586.0031	0.0005
586.195	-0.0051
586.387	-0.0008
586.5789	-0.0032
586.7708	-0.003
586.9627	0.005
587.1545	-0.0009
587.3464	0.0012
587.5382	0.0032
587.73	0.0011
587.9218	0.0018
588.1136	0.0029
588.3053	0.0047
588.4971	-0.0016
588.6888	-0.003
588.8805	0.0004
589.0722	0.0042
589.2639	0.0082
589.4556	-0.0057
589.6472	-0.0001
589.8389	-0.005
590.0305	-0.0059
590.2221	0.0012
590.4137	-0.0098
590.6052	0.0083
590.7968	-0.0037
590.9883	0.0061
591.1798	-0.0027
591.3713	-0.0011
591.5628	0.0017
591.7543	0.0066
591.9458	0
592.1372	0.0019
592.3286	0.0066
592.52	0.0044
592.7114	-0.0038
592.9028	0.0036
593.0941	-0.0008
593.2855	0.0014
593.4768	-0.0049
593.6681	-0.0034
593.8594	-0.0029
594.0506	0.0056
594.2419	0.0095
594.4331	0.0011
594.6244	0.0013
594.8156	-0.0049
595.0067	-0.0011
595.1979	0.0036
595.3891	-0.0015
595.5802	-0.0008
595.7713	0.0037
595.9624	-0.002
596.1535	0.0053
596.3446	0.0011
596.5357	0.0028
596.7267	-0.001
596.9177	-0.007
597.1087	-0.0046
597.2997	-0.0024
597.4907	0.0075
597.6817	0.0085
597.8726	0.0007
598.0635	0.0001
598.2544	0.0007
598.4453	-0.0026
598.6362	0.002
598.827	-0.0045
599.0179	0.0027
599.2087	0.002
599.3995	-0.0008
599.5903	0.0013
599.7811	0.0005
599.9718	0.0047
600.1626	-0.0067
600.3533	-0.0058
600.544	-0.003
600.7347	0.0026
600.9254	0.0026
601.116	-0.0094
601.3067	-0.0009
601.4973	0.0017
601.6879	-0.0007
601.8785	-0.0043
602.0691	-0.0025
602.2596	0.004
602.4502	0.0052
602.6407	0.002
602.8312	0.0032
603.0217	-0.0062
603.2122	-0.0003
603.4027	0.0056
603.5931	0.0007
603.7835	-0.0031
603.9739	-0.0023
604.1643	-0.0057
604.3547	-0.0104
604.5451	0.0047
604.7354	-0.0031
604.9257	-0.0032
605.116	-0.0015
605.3063	0.0004
605.4966	0.0028
605.6869	-0.0029
605.8771	0.0058
606.0673	0.003
606.2575	0.0089
606.4477	0.0085
606.6379	-0
606.8281	-0.0025
607.0182	-0.0018
607.2083	0.0083
607.3985	-0.0053
607.5885	-0.0007
607.7786	0.0017
607.9687	0.0004
608.1587	0.0013
608.3488	-0.0003
608.5388	-0
608.7288	-0.0055
608.9187	-0.0007
609.1087	0.0001
609.2986	-0.0064
609.4886	-0.0069
609.6785	-0.0015
609.8684	0.0003
610.0582	0.0066
610.2481	-0.0013
610.4379	0.0011
610.6278	-0.0008
610.8176	-0.0082
611.0074	-0.0052
611.1971	-0.0054
611.3869	-0.0058
611.5766	-0.0065
611.7664	0.008
611.9561	0.0101
612.1458	0.007
612.3354	0.0031
612.5251	0.0052
612.7147	0.0078
612.9044	0.0091
613.094	-0.0037
613.2836	0.0112
613.4731	0
613.6627	-0.0003
613.8522	0.0069
614.0417	0.0037
614.2313	-0.0076
614.4207	-0.0009
614.6102	0.0036
614.7997	0.0014
614.9891	-0.0033
615.1785	0.0013
615.3679	0.0006
615.5573	0.0133
615.7467	-0.0049
615.9361	-0.0039
616.1254	0.005
616.3147	0.0079
616.504	0.0172
616.6933	0.0088
616.8826	0.0068
617.0718	0.0121
617.2611	0.0088
617.4503	-0.0033
617.6395	0.0005
617.8287	-0.0001
618.0179	-0.0037
618.207	0.0155
618.3961	0.002
618.5853	0.002
618.7744	0.0048
618.9634	0.0076
619.1525	0.0075
619.3416	-0.0007
619.5306	0.0062
619.7196	0.0052
619.9086	-0.0021
620.0976	0.0041
620.2866	0.0044
620.4755	0.0075
620.6645	0.0048
620.8534	0.0088
621.0423	0.0022
621.2312	0.0051
621.42	0.0093
621.6089	-0.0013
621.7977	0.0075
621.9865	-0.0071
622.1753	0.0026
622.3641	-0.0026
622.5529	0.0094
622.7416	0.0074
622.9303	0.008
623.1191	0.0057
623.3078	-0.0058
623.4964	0.0068
623.6851	0.0008
623.8737	0.0001
624.0624	0.0119
624.251	-0
624.4396	-0.0077
624.6282	0.0012
624.8167	0.0002
625.0053	0.0024
625.1938	0.0065
625.3823	0.0039
625.5708	-0.0011
625.7593	-0.0048
625.9477	0.0034
626.1362	0.0022
626.3246	0.008
626.513	0.0048
626.7014	0.0093
626.8898	0.0033
627.0781	0.0033
627.2665	-0.0046
627.4548	0.0086
627.6431	0.0046
627.8314	0.0008
628.0197	0.0064
628.2079	-0.0074
628.3962	0.0006
628.5844	0.0003
628.7726	0.01
628.9608	0.0018
629.1489	0.0016
629.3371	0.001
629.5252	0.0036
629.7134	0.0089
629.9015	0.0035
630.0895	0.0038
630.2776	0.0077
630.4657	-0.0039
630.6537	0.0049
630.8417	-0.0015
631.0297	-0.0022
631.2177	0.0096
631.4057	-0.0032
631.5936	0.0004
631.7815	0.0012
631.9695	0.0054
632.1574	0.0147
632.3452	0.0125
632.5331	0.0071
632.7209	-0.0018
632.9088	0.0112
633.0966	0.0165
633.2844	-0.0008
633.4722	0.0016
633.6599	0.0167
633.8477	0.0036
634.0354	0.0029
634.2231	-0.0008
634.4108	0.0045
634.5985	0.0112
634.7861	0.0087
634.9738	0.0072
635.1614	0.01
635.349	0.0083
635.5366	0.0039
635.7242	0.0036
635.9117	0.0103
636.0993	-0.0015
636.2868	0.0108
636.4743	0.0027
636.6618	0.0138
636.8492	0.0142
637.0367	0.0084
637.2241	0.0048
637.4115	0.0015
637.5989	-0.001
637.7863	-0.0006
637.9737	0.0007
638.161	0.003
638.3484	0.0022
638.5357	0.0137
638.723	0.0022
638.9103	0.0013
639.0975	0.0117
639.2848	0.0077
639.472	0.0045
639.6592	0.0078
639.8464	0.008
640.0336	0.0084
640.2208	-0.0027
640.4079	0.0006
640.595	0.0014
640.7821	0.0036
640.9692	0.0011
641.1563	0.0094
641.3434	0.0042
641.5304	0.002
641.7174	0.0029
641.9044	0.0066
642.0914	0.0004
642.2784	0.004
642.4653	0.0049
642.6523	0.0041
642.8392	0.0015
643.0261	0.0101
643.213	0.0053
643.3999	-0.0004
643.5867	-0.0001
643.7735	0.0032
643.9604	-0.0095
644.1472	0.0021
644.3339	0.0055
644.5207	0.0017
644.7075	-0.0014
644.8942	0.0064
645.0809	0.0073
645.2676	0.0116
645.4543	0.0072
645.6409	0.0064
645.8276	0.0012
646.0142	0.0104
646.2008	-0.0025
646.3874	-0.0008
646.574	0.0019
646.7605	0.0004
646.9471	-0.0099
647.1336	-0.0085
647.3201	0.0047
647.5066	-0.0012
647.6931	0.0052
647.8795	0.0018
648.0659	0.0106
648.2524	0.0044
648.4388	-0.0034
648.6252	-0.0012
648.8115	0.0019
648.9979	-0.0047
649.1842	0.0033
649.3705	0.0035
649.5568	0.0036
649.7431	0.006
649.9294	-0.0037
650.1156	0.0006
650.3018	-0.0012
650.488	0.0041
650.6742	0.0062
650.8604	0.0037
651.0466	-0.0075
651.2327	0.0051
651.4188	0.0015
651.6049	0.0052
651.791	0.0018
651.9771	0.0154
652.1632	0.009
652.3492	0.0056
652.5352	0.0053
652.7212	0.0029
652.9072	0.006
653.0932	0.0078
653.2791	-0.001
653.465	0.0091
653.651	0.0003
653.8369	0.0021
654.0227	0.0037
654.2086	0.0061
654.3944	0.01
654.5803	0.0003
654.7661	0.0011
654.9519	0.0054
655.1377	-0.0035
655.3234	-0.0027
655.5092	-0.0078
655.6949	-0.0041
655.8806	-0.0025
656.0663	-0.0019
656.2519	0.0025
656.4376	-0.0013
656.6232	0.0054
656.8088	0.0044
656.9945	0.0045
657.18	0.0015
657.3656	0.0043
657.5511	0.0032
657.7367	-0.0046
657.9222	0.0083
658.1077	0.0042
658.2932	0.0127
658.4786	-0.0053
658.6641	-0.0026
658.8495	-0.0013
659.0349	-0.0034
659.2203	0.0045
659.4057	0.0086
659.591	0.0071
659.7764	0.0034
659.9617	-0.0027
660.147	0.0036
660.3323	0.0003
660.5176	0.0128
660.7028	0.0048
660.888	0.0072
661.0733	0.0038
661.2585	-0.0059
661.4436	-0.0018
661.6288	0.0029
661.8139	-0.0009
661.9991	0.0096
662.1842	-0.0019
662.3693	0.0005
662.5544	-0.0081
662.7394	0.0018
662.9245	0.0055
663.1095	0.0005
663.2945	0.0037
663.4795	0.0018
663.6644	0.0014
663.8494	0.0051
664.0343	0.0082
664.2193	-0.0001
664.4042	0.0048
664.589	-0.0073
664.7739	-0.0039
664.9587	-0.0018
665.1436	-0.0073
665.3284	0.0031
665.5132	-0.0044
665.698	0.0056
665.8827	0.0026
666.0675	0.005
666.2522	-0.0031
666.4369	0.0025
666.6216	0.0064
666.8063	0.0079
666.9909	0.0007
667.1756	-0.0043
667.3602	0.0039
667.5448	0.0059
667.7294	0.0085
667.9139	0.0077
668.0985	0.012
668.283	0.0032
668.4675	0.0043
668.652	0.0033
668.8365	0.0056
669.0209	0.007
669.2054	0.0132
669.3898	0.0072
669.5742	0.0064
669.7586	0.0131
669.943	0.0139
670.1273	0.0145
670.3117	0.0053
670.496	0.0041
670.6803	0.0167
670.8646	0.0056
671.0488	0.001
671.2331	0.005
671.4173	-0.0008
671.6015	0.0009
671.7857	0.0058
671.9699	0.0025
672.1541	0.0037
672.3382	0.0075
672.5223	0.0024
672.7064	0.0017
672.8905	0.0083
673.0746	0.0034
673.2587	-0.0035
673.4427	0.0058
673.6267	0.0053
673.8107	0.0153
673.9947	0.0039
674.1787	0.0033
674.3626	0.0002
674.5465	0.0103
674.7304	0.0091
674.9143	0.01
675.0982	0.0105
675.2821	-0.0037
675.4659	0.008
675.6497	0.0075
675.8335	-0.0002
676.0173	0.0017
676.2011	0.003
676.3849	-0.0023
676.5686	-0.0068
676.7523	0.0044
676.936	0.0012
677.1197	-0.001
677.3034	-0.0055
677.487	0.0065
677.6706	0.0014
677.8542	0.002
678.0378	0.0041
678.2214	0.0065
678.405	0.0074
678.5885	-0.0093
678.772	0.0077
678.9555	-0.0022
679.139	-0.0044
679.3225	0.0011
679.5059	-0.0004
679.6894	0.0001
679.8728	0.005
680.0562	-0.0037
680.2395	0.0019
680.4229	-0.0009
680.6062	0.011
680.7896	-0.0034
680.9729	-0.0073
681.1562	-0.001
681.3394	0.0013
681.5227	-0.0083
681.7059	-0.0042
681.8891	-0.0024
682.0723	0.0106
682.2555	0.0112
682.4387	0.0014
682.6218	0.0012
682.805	0.0038
682.9881	0.0035
683.1712	-0.0001
683.3542	0.0004
683.5373	0.0094
683.7203	-0.0024
683.9034	0.0073
684.0864	-0.0059
684.2694	-0.0011
684.4523	0.0082
684.6353	-0.0052
684.8182	0.0006
685.0011	-0.0052
685.184	0.0046
685.3669	-0.0013
685.5498	0.0059
685.7326	0.0048
685.9154	0.0075
686.0982	0.0116
686.281	0.0133
686.4638	0.0067
686.6465	-0.0043
686.8293	0.0039
687.012	-0.0001
687.1947	-0.0071
687.3774	0.0067
687.56	0.0022
687.7427	0.0027
687.9253	-0.0047
688.1079	0.002
688.2905	0.0137
688.4731	0.0032
688.6556	0.0044
688.8382	0.001
689.0207	0.0058
689.2032	-0.0014
689.3857	-0.0056
689.5681	-0.0021
689.7506	-0
689.933	-0.0073
690.1154	-0.0045
690.2978	0.0001
690.4802	-0.0012
690.6626	-0.0175
690.8449	-0.008
691.0272	-0.0041
691.2095	-0.0066
691.3918	-0.0054
691.5741	0.0041
691.7563	-0.0023
691.9386	-0.0002
692.1208	0.0016
692.303	0.0003
692.4852	0.002
692.6673	0.0047
692.8495	0.0069
693.0316	0.0039
693.2137	-0.0009
693.3958	0.0017
693.5778	0.0027
693.7599	-0.0016
693.9419	-0.0019
694.1239	0.0061
694.3059	-0.0008
694.4879	0.0094
694.6699	0.0112
694.8518	0.0076
695.0337	0.0008
695.2157	0.008
695.3975	0.0128
695.5794	0.0093
695.7613	0.004
695.9431	0.0014
696.1249	0.013
696.3067	0.0072
696.4885	0.007
696.6703	-0.0016
696.852	0.0089
697.0337	0.0135
697.2154	0.0002
697.3971	0.0007
697.5788	0.0057
697.7605	0.0056
697.9421	0.0082
698.1237	0.0059
698.3053	0.0077
698.4869	0.0096
698.6685	-0.0009
698.85	0.0062
699.0315	0.008
699.213	-0.0066
699.3945	0.0045
699.576	0.0091
699.7575	0.0109
699.9389	0.0089
700.1203	0.004
700.3017	-0.0057
700.4831	-0.0101
700.6645	-0.0017
700.8458	0.0062
701.0271	-0.0017
701.2084	0.0094
701.3897	-0.0003
701.571	0.0048
701.7523	-0.0022
701.9335	0.004
702.1147	-0.0039
702.2959	0.0024
702.4771	-0.0004
702.6583	0.0071
702.8394	0.0003
703.0205	0.0051
703.2016	-0.0038
703.3827	-0.0069
703.5638	0.0083
703.7449	0.0042
703.9259	0.0118
704.1069	-0.0021
704.2879	-0.0051
704.4689	0.0022
704.6499	0.0015
704.8308	-0.0018
705.0117	-0.0019
705.1927	0.0055
705.3735	-0.0076
705.5544	-0.0022
705.7353	0.0002
705.9161	0.0003
706.0969	-0.0048
706.2777	0.0068
706.4585	-0.0046
706.6393	0.0027
706.82	0.0024
707.0007	-0.003
707.1815	-0.0016
707.3621	0.0019
707.5428	0.001
707.7235	0.0038
707.9041	0.0035
708.0847	-0.0043
708.2653	-0.0121
708.4459	-0.0156
708.6265	0.0002
708.807	-0.0006
708.9875	-0.0074
709.168	-0.0101
709.3485	-0.0031
709.529	-0.0158
709.7095	-0.0153
709.8899	-0.0003
710.0703	-0.0049
710.2507	-0.0022
710.4311	-0.0075
710.6115	-0.0044
710.7918	-0.0088
710.9721	-0.0021
711.1524	-0.0065
711.3327	-0.0052
711.513	0.0016
711.6932	-0.0007
711.8735	0.0104
712.0537	0.0047
712.2339	-0.0004
712.4141	-0.0017
712.5942	-0.0034
712.7744	0.0031
712.9545	-0.0065
713.1346	-0.0132
713.3147	0.002
713.4947	-0.007
713.6748	0.0025
713.8548	-0.0051
714.0348	-0.0031
714.2148	0.0045
714.3948	0.0116
714.5748	-0.0015
714.7547	-0.0054
714.9346	0.002
715.1145	-0.0057
715.2944	-0.0098
715.4743	0.0052
715.6541	-0.0027
715.834	0.0011
716.0138	-0.0042
716.1936	-0.0088
716.3733	-0.0033
716.5531	0.0058
716.7328	-0.004
716.9126	-0.0018
717.0923	0.0024
717.2719	0.0075
717.4516	0.0007
717.6312	0.0041
717.8109	-0.0032
717.9905	0.0046
718.1701	-0.0002
718.3496	-0.0041
718.5292	-0.0098
718.7087	-0.0061
718.8882	-0.0031
719.0677	-0.0011
719.2472	-0.0004
719.4267	0.0024
719.6061	-0.0017
719.7856	0.0112
719.965	0.0084
720.1443	-0.0027
720.3237	0.0032
720.5031	-0.0004
720.6824	0.0036
720.8617	0.0014
721.041	0.0025
721.2203	0.0123
721.3995	-0.0035
721.5788	0.0019
721.758	0.008
721.9372	0.0036
722.1164	-0.0008
722.2956	-0.0018
722.4747	0.0022
722.6538	0.0028
722.8329	0.009
723.012	-0.0023
723.1911	-0.0018
723.3702	0.0037
723.5492	0.006
723.7282	-0.005
723.9072	0.0105
724.0862	-0.0028
724.2652	-0.004
724.4441	0.007
724.623	0.0014
724.8019	-0.0014
724.9808	0.0057
725.1597	-0.0057
725.3385	0.0034
725.5174	-0.0014
725.6962	-0.0067
725.875	-0.0017
726.0538	0.0065
726.2325	-0.0064
726.4112	-0.0021
726.59	-0.0043
726.7687	-0.0093
726.9474	0.0062
727.126	-0.0014
727.3047	-0.0077
727.4833	0.0007
727.6619	-0.0083
727.8405	-0.0058
728.0191	-0.0031
728.1976	0.0015
728.3762	0.002
728.5547	0.0066
728.7332	-0.0085
728.9116	-0.0001
729.0901	0.0015
729.2686	0.0001
729.447	-0.0026
729.6254	0.0009
729.8038	0.0006
729.9821	-0.0069
730.1605	0.0063
730.3388	0.0061
730.5171	0.0023
730.6954	-0.0055
730.8737	0.0043
731.0519	0.0112
731.2302	0.0036
731.4084	0.0086
731.5866	0.0081
731.7648	-0.0035
731.9429	0.0031
732.1211	-0.0074
732.2992	0.0014
732.4773	-0.005
732.6554	-0.0025
732.8335	0.0005
733.0115	0.0038
733.1896	0.0082
733.3676	-0.0144
733.5456	0.0007
733.7235	0.0054
733.9015	0.0017
734.0794	0.0072
734.2574	0.0029
734.4353	-0.0047
734.6131	0.008
734.791	0.0097
734.9689	0.0017
735.1467	0.0064
735.3245	-0.0119
735.5023	-0.0011
735.68	-0.0008
735.8578	0.0014
736.0355	-0.0122
736.2132	0.0004
736.3909	0.0042
736.5686	-0.0112
736.7463	-0.0025
736.9239	-0.0062
737.1015	0.0017
737.2791	0.0054
737.4567	0.0044
737.6343	0.0035
737.8118	-0.0015
737.9894	0.0043
738.1669	-0.0025
738.3444	-0.0023
738.5218	0.0039
738.6993	-0.003
738.8767	-0.0023
739.0541	0.0113
739.2315	-0.0108
739.4089	0.0023
739.5863	0.0071
739.7636	0.0033
739.9409	-0.0053
740.1182	0.0055
740.2955	0.0004
740.4728	0.0091
740.65	-0.0067
740.8272	-0.0057
741.0044	-0.0028
741.1816	-0.004
741.3588	-0.0028
741.5359	0.0083
741.7131	-0.0064
741.8902	0.0052
742.0673	0.0031
742.2444	-0.0077
742.4214	-0.0076
742.5985	-0.0095
742.7755	-0.0057
742.9525	-0.0131
743.1295	0.0043
743.3064	0.0011
743.4834	0.0122
743.6603	-0.0027
743.8372	-0.0073
744.0141	0.0063
744.191	-0.0004
744.3678	0.0028
744.5446	0.0088
744.7215	0.009
744.8982	-0.0055
745.075	-0.0052
745.2518	0.0122
745.4285	-0.0019
745.6052	0.0044
745.7819	-0.0037
745.9586	0.0008
746.1353	-0.0006
746.3119	-0.0049
746.4885	-0.0023
746.6651	-0.006
746.8417	0.0064
747.0183	-0.0017
747.1948	-0.0007
747.3714	0.0053
747.5479	0.0027
747.7244	-0.0056
747.9008	0.0064
748.0773	0.0028
748.2537	0.0021
748.4301	-0.0024
748.6065	0.0066
748.7829	0.0031
748.9593	-0.003
749.1356	-0.0028
749.3119	0.0071
749.4882	-0.0051
749.6645	0.0098
749.8408	-0.0102
750.017	-0.007
750.1933	-0.0017
750.3695	-0.0073
750.5457	0.0023
750.7218	0.0051
750.898	-0.0025
751.0741	0.0077
751.2502	0.0043
751.4263	0.0034
751.6024	-0.0027
751.7784	0.0001
751.9545	-0.0015
752.1305	-0.001
752.3065	-0.0061
752.4825	0.0047
752.6584	-0.0039
752.8344	-0.0031
753.0103	-0.006
753.1862	-0.0045
753.3621	-0.0007
753.5379	-0.0059
753.7138	-0.0042
753.8896	-0.0023
754.0654	0.0073
754.2412	0.0102
754.417	0
754.5927	0.0017
754.7685	-0.0062
754.9442	0.0027
755.1199	0.0115
755.2956	-0.0023
755.4712	0.0088
755.6469	0.006
755.8225	0.004
755.9981	0.0029
756.1736	0.0058
756.3492	-0.003
756.5248	-0.0036
756.7003	0.0062
756.8758	0.0134
757.0513	-0.003
757.2267	0.0055
757.4022	0.0062
757.5776	-0.0058
757.753	0.0098
757.9284	-0.0008
758.1038	0.0081
758.2791	-0.0041
758.4545	-0.0037
758.6298	0.0072
758.8051	0.0051
758.9803	-0.0107
759.1556	0.0047
759.3308	-0.0042
759.506	0.0088
759.6812	0.0043
759.8564	0.002
760.0316	0.0011
760.2067	0.013
760.3819	0.0119
760.557	0.0189
760.732	0.0112
760.9071	-0.0091
761.0821	0.0062
761.2572	0.0119
761.4322	0.0033
761.6072	-0.0017
761.7821	-0.0053
761.9571	0.0102
762.132	-0.0074
762.3069	-0.005
762.4818	0.0023
762.6567	-0.0018
762.8316	-0.0081
763.0064	-0.0093
763.1812	-0.0056
763.356	-0.0051
763.5308	-0.0086
763.7055	0.0002
763.8803	0.008
764.055	-0.0081
764.2297	-0.004
764.4044	-0.01
764.579	-0.0023
764.7537	-0.0033
764.9283	0.0021
765.1029	-0.0048
765.2775	-0.0005
765.4521	-0.0104
765.6266	-0.0135
765.8011	0.0046
765.9756	0.0082
766.1501	0.0125
766.3246	0.0015
766.4991	0.0032
766.6735	0.0038
766.8479	0.0033
767.0223	0.0151
767.1967	0.0006
767.371	0.0047
767.5454	0.0036
767.7197	-0.0001
767.894	-0.0008
768.0683	-0.0023
768.2425	0.0008
768.4168	0.0054
768.591	0.0105
768.7652	0.004
768.9394	0.0087
769.1135	0.0028
769.2877	0.0077
769.4618	-0.0058
769.6359	0.0032
769.81	-0.007
769.984	-0.004
770.1581	-0.0137
770.3321	-0.0062
770.5061	-0.0072
770.6801	-0.006
770.8541	-0.0004
771.028	-0.0003
771.202	-0.0208
771.3759	-0.0008
771.5498	-0.0088
771.7236	-0.0067
771.8975	-0.0028
772.0713	-0.0069
772.2451	0.0019
772.4189	0.0106
772.5927	0.0094
772.7665	-0.0024
772.9402	-0.0046
773.1139	-0.0066
773.2876	-0.0045
773.4613	0.0069
773.635	-0.002
773.8086	-0.0109
773.9822	-0.0033
774.1558	0.0063
774.3294	-0.004
774.503	-0.004
774.6765	0.0069
774.8501	0.0092
775.0236	0.0142
775.1971	0.0122
775.3705	-0.0055
775.544	0.0148
775.7174	-0.007
775.8908	-0.0065
776.0642	-0.007
776.2376	0.0072
776.4109	-0.0053
776.5843	-0.0035
776.7576	-0.0019
776.9309	0.0097
777.1041	0.0077
777.2774	0.0037
777.4506	-0.0004
777.6238	-0.0014
777.797	-0.0084
777.9702	-0.0159
778.1434	-0.0067
778.3165	-0.0026
778.4896	-0.0072
778.6627	0.0084
778.8358	-0.0102
779.0089	-0.0036
779.1819	-0.0107
779.3549	0.0009
779.5279	0.004
779.7009	-0.0117
779.8739	0.0082
780.0468	-0.001
780.2197	-0.0018
780.3926	-0.0017
780.5655	0.0007
780.7384	-0.0068
780.9112	0.0072
781.0841	0.0014
781.2569	0.0114
781.4297	-0.0011
781.6024	0.0114
781.7752	0.0039
781.9479	0.0019
782.1206	-0.0011
782.2933	-0.0053
782.466	-0.0093
782.6386	-0.0001
782.8113	-0.0069
782.9839	0.0084
783.1565	0.0084
783.329	0.0069
783.5016	0.0109
783.6741	0.0121
783.8466	-0.0133
784.0191	0.0104
784.1916	-0.0007
784.3641	-0.0068
784.5365	0.0058
784.7089	-0.0207
784.8813	-0.0082
785.0537	-0.0021
785.2261	-0.0058
785.3984	-0.0084
785.5707	-0.0074
785.743	-0.0175
785.9153	-0.0113
786.0876	-0.0039
786.2598	-0.0101
786.432	-0.0166
786.6042	0.0004
786.7764	-0.0048
786.9486	0.0014
787.1207	-0.0003
787.2928	0.0087
787.4649	0.0062
787.637	0.0026
787.8091	-0.0053
787.9811	-0.0098
788.1532	0.0096
788.3252	-0.0043
788.4972	-0.0087
788.6691	-0.0017
788.8411	0.0086
789.013	-0.0146
789.1849	-0.001
789.3568	-0.0015
789.5287	-0.016
789.7005	0.002
789.8723	0.0065
790.0442	0.0105
790.2159	-0.0033
790.3877	0.002
790.5595	-0.0052
790.7312	-0.0021
790.9029	-0.0083
791.0746	-0.0109
791.2463	-0.0094
791.4179	-0.015
791.5896	-0.0095
791.7612	0.0009
791.9328	-0.0035
792.1044	-0.0181
792.2759	-0.017
792.4474	-0.0194
792.619	0.001
792.7905	0.0131
792.9619	-0.0057
793.1334	0.0125
793.3048	0.0071
793.4762	0.0057
793.6476	0.011
793.819	-0.0022
793.9904	0.0138
794.1617	-0.0178
794.333	0.0116
794.5043	-0.0075
794.6756	-0.0071
794.8469	-0.0023
795.0181	0.0046
795.1893	0.0022
795.3605	0.0103
795.5317	-0.0034
795.7029	-0.0224
795.874	-0.0099
796.0452	-0.0036
796.2163	-0.0038
796.3873	0.004
796.5584	-0.0045
796.7294	-0.0079
796.9005	0.0067
797.0715	-0.0132
797.2425	-0.0169
797.4134	-0.0054
797.5844	0.0025
797.7553	-0.0181
797.9262	-0.0044
798.0971	-0.0114
798.2679	-0.0078
798.4388	-0.0163
798.6096	-0.0034
798.7804	-0.0052
798.9512	0.0041
799.122	-0.0145
799.2927	0.0002
799.4635	0.0149
799.6342	-0.0142
799.8049	0.0019
799.9755	-0.0026
800.1462	0.0123
800.3168	0.023
800.4874	-0.0058
800.658	0.0184
800.8286	0.0039
800.9991	0.023
801.1696	0.0097
801.3402	0.0125
801.5106	-0.0006
801.6811	0.0018
801.8516	0.01
802.022	-0.0135
802.1924	0.0031
802.3628	0.0035
802.5332	0.0156
802.7035	0.0186
802.8739	-0.0152
803.0442	-0.0069
803.2145	0.0035
803.3847	-0.0171
803.555	0.0125
803.7252	0.0026
803.8954	-0.0024
804.0656	-0.0002
804.2358	-0.0048
804.4059	-0.0008
804.5761	0.0054
804.7462	0.0104
804.9163	0.0075
805.0864	-0.0209
805.2564	-0.012
805.4264	0.0127
805.5965	-0.0184
805.7665	-0.0083
805.9364	0.0007
806.1064	0.0112
806.2763	0.0006
806.4462	0.0087
806.6161	-0.0045
806.786	0.0084
806.9559	-0.0065
807.1257	-0.0009
807.2955	-0.0074
807.4653	-0.0005
807.6351	-0.0103
807.8048	0.0095
807.9746	0.0002
808.1443	-0.0009
808.314	-0.006
808.4837	0.0009
808.6533	0.0074
808.8229	0.0217
808.9926	0.004
809.1622	0.0097
809.3317	-0.0088
809.5013	0.0091
809.6708	0.0228
809.8403	0.013
810.0098	-0.0033
810.1793	0.0162
810.3488	0.0028
810.5182	-0.0185
810.6876	0.0038
810.857	-0.0168
811.0264	0.0243
811.1958	0.0286
811.3651	0.0146
811.5344	-0.013
811.7037	-0.0124
811.873	-0.0219
812.0422	0.0069
812.2115	0.0071
812.3807	-0.0206
812.5499	0.003
812.7191	-0.0072
812.8882	-0.0017
813.0574	-0.0055
813.2265	-0.0057
813.3956	0.0071
813.5646	0.0195
813.7337	-0.0149
813.9027	-0.003
814.0718	0.001
814.2407	0.012
814.4097	-0.0107
814.5787	-0.0058
814.7476	0.0071
814.9165	-0.0066
815.0854	-0.0117
815.2543	0.0137
815.4232	0.0095
815.592	0.0198
815.7608	-0.0021
815.9296	0.0177
816.0984	0.0137
816.2671	0.0206
816.4359	-0.0195
816.6046	0.0162
816.7733	-0.0018
816.942	-0.0028
817.1106	0.015
817.2793	0.0013
817.4479	0.0049
817.6165	-0.0103
817.785	-0.0149
817.9536	-0.0177
818.1221	-0.0048
818.2906	0.0087
818.4591	-0.0091
818.6276	-0.0127
818.7961	-0.0062
818.9645	0.0023
819.1329	0.0303
819.3013	0.0208
819.4697	0.0219
819.638	0.0086
819.8064	-0.0088
819.9747	0.0156
820.143	-0.01
820.3113	-0.0079
820.4795	0.0211
820.6477	-0.0102
820.816	0.0053
820.9842	0.0025
821.1523	-0.0043
821.3205	-0.0187
821.4886	0.0055
821.6567	0.0131
821.8248	0.0084
821.9929	0.0169
822.1609	0.0061
822.329	0.025
822.497	0.0025
822.665	-0.0071
822.833	-0.0096
823.0009	0.0153
823.1688	0.0157
823.3367	0.0376
823.5046	0.0176
823.6725	0.0312
823.8404	-0.007
824.0082	0.0099
824.176	0.0104
824.3438	0.0199
824.5116	0.0059
824.6793	0.031
824.847	0.0029
825.0147	0.0026
825.1824	0.0104
825.3501	0.0157
825.5177	0.0022
825.6854	-0.0119
825.853	-0.0021
826.0206	-0.031
826.1881	0.014
826.3557	-0.0262
826.5232	-0.0009
826.6907	0.0018
826.8582	0.0045
827.0257	-0.0251
827.1931	-0.0237
827.3605	0.0082
827.528	-0.0275
827.6953	-0.0225
827.8627	-0.0033
828.03	0.0309
828.1974	0.0124
828.3647	-0.0112
828.532	-0.0346
828.6992	0.0005
828.8665	0.0005
829.0337	-0.0095
829.2009	0.0101
829.3681	0.0241
829.5352	0.0276
829.7024	-0.0174
829.8695	0.0006
830.0366	0.0637
830.2037	-0.0051
830.3707	0.0176
830.5378	0.0219
830.7048	0.0038
830.8718	-0.0197
831.0388	0.004
831.2057	0.0064
831.3727	0.0235
831.5396	-0.036
831.7065	-0.0158
831.8734	0.0222
832.0402	-0.0129
832.2071	-0.0111
832.3739	-0.0107
832.5407	-0.0187
832.7075	0.0019
832.8742	-0.0262
833.041	-0.0308
833.2077	0.0006
833.3744	0.0108
833.541	0.011
833.7077	-0.0307
833.8743	-0.0279
834.0409	-0.003
834.2075	-0.0186
834.3741	0.0075
834.5407	0.0109
834.7072	0.0025
834.8737	-0.004
835.0402	-0.0373
835.2067	0.0243
835.3731	0.0482
835.5395	0.0176
835.706	0.0138
835.8723	0.0184
836.0387	0.0344
836.2051	0.0177
836.3714	-0.0121
836.5377	0.0119
836.704	-0.0161
836.8703	-0.0247
837.0365	-0.0036
837.2027	-0.0285
837.3689	0.0101
837.5351	-0.0226
837.7013	-0.0405
837.8674	-0.0238
838.0335	-0.0415
838.1997	0.0157
838.3657	-0.0538
838.5318	-0.0065
838.6978	0.036
838.8639	0.0315
839.0299	-0.0218
839.1958	-0.0199
839.3618	-0.0017
839.5277	-0.0127
839.6937	0.0517
839.8596	-0.0272
840.0254	0.0398
840.1913	-0.0057
840.3571	0.0188
840.523	-0.0137
840.6888	-0.0299
840.8545	-0.036
841.0203	-0.0078
841.186	-0.0209
841.3517	0.0533
841.5174	0.0289
841.6831	-0.0175
841.8488	0
842.0144	0.013
842.18	0.0209
842.3456	-0.0129
842.5112	-0.0246
842.6767	-0.0192
842.8422	-0.0178
843.0077	-0.0468
843.1732	-0.0379
843.3387	0.0281
843.5042	-0.0807
843.6696	0.0073
843.835	-0.018
844.0004	0.0964
844.1657	-0.001
844.3311	-0.0115
844.4964	-0.0756
844.6617	-0.0679
844.827	-0.0259
844.9923	0.0163
845.1575	-0.0321
845.3227	-0.0407
845.4879	-0.0056
845.6531	-0.0882
845.8183	-0.0955
845.9834	0.0012
846.1485	0.011
846.3136	-0.0592
846.4787	-0.119
846.6438	0.0505
846.8088	-0.0317
846.9738	-0.0621
847.1388	-0.0416
847.3038	-0.0761
847.4687	-0.2054
847.6337	0
847.7986	0.0027
847.9635	-0.0936
848.1284	0.0125
848.2932	0.0703
848.458	0.0336
848.6228	0.0199
848.7876	0.0554
848.9524	-0.0017
849.1172	-0.0969
849.2819	0.0695
849.4466	-0.048
849.6113	-0.102
849.7759	-0.0597
849.9406	-0.0298
850.1052	0.0078
850.2698	-0.0934
850.4344	0.0412
850.599	-0.053
850.7635	0.0908
850.928	-0.0103
851.0925	0.0509
851.257	0.0447
851.4215	0.0614
851.5859	-0.065
851.7503	0
851.9147	0.0655
852.0791	-0.1395
852.2434	-0.0038
852.4078	0.0417
852.5721	0.0215
852.7364	-0.0257
852.9007	-0.2855
853.0649	-0.0394
853.2291	-0.0816
853.3934	-0.0376
853.5575	0.1019
853.7217	-0.0109
853.8859	-0.068
854.05	-0.038
854.2141	-0.0103
854.3782	0.0057
854.5423	-0.0444
854.7063	0.0392
854.8703	-0.0828
855.0343	-0.0587
855.1983	-0.0896
855.3623	0.2274
855.5262	0.0913
855.6901	-0.0418
855.854	0.1262
856.0179	0.1986
856.1818	-0.0363
856.3456	-0.1022
856.5094	-0.1658
856.6732	0.1397
856.837	-0.0417
857.0008	0.0172
857.1645	-0.0568
857.3282	-0.0055
857.4919	0.1163
857.6556	-0.0538
857.8192	0.294
857.9828	0.0324
858.1465	-0.0849
858.31	0.0106
858.4736	-0.079
858.6372	-0.3369
858.8007	-0.2113
858.9642	-0.0556
859.1277	-0.0058
859.2911	-0.0046
859.4546	0.0265
859.618	-0.3473
859.7814	-0.112
859.9448	0.0361
860.1081	0.1211
860.2715	0.1205
860.4348	-0.0601
860.5981	-0.1364
860.7614	0.2133
860.9246	-0.1757
861.0879	-0.0691
861.2511	0.1237
861.4143	-0.179
861.5774	0.3815
861.7406	-0.1282
861.9037	-0.0663
862.0668	-0.0131
862.2299	-0.0668
862.393	-0.5705
862.556	0.1005
862.7191	0.7801
862.8821	-0.271
863.0451	-0.066
863.208	0.1778
863.371	0.1476
863.5339	-0.1977
863.6968	0.9381
863.8597	-0
864.0225	-0.076
864.1854	-0.1313
864.3482	0.4731
864.511	0.1823
864.6737	-0.0255
864.8365	0.3469
864.9992	-0.3799
865.1619	0.1868
865.3246	-0.0412
865.4873	-0.0967
865.65	0.0489
865.8126	-0.1987
865.9752	0.4862
866.1378	0.0122
866.3004	-0.0765
866.4629	0.0675
866.6254	0.1242
866.7879	-0.1788
866.9504	0.2275
867.1129	-0
867.2753	0.0441
867.4377	0.1844
867.6001	-0.3306
867.7625	-0.0995
867.9249	-0.7231
868.0872	0.3356
868.2495	0.3247
868.4118	-0.3902
868.5741	-0.7013
868.7363	-0.2179
868.8986	-0.0864
869.0608	-0.1327
869.223	0.4467
869.3851	0.4489
869.5473	0.0204
869.7094	0.3892
869.8715	-0.5077
870.0336	-0
870.1957	-0.8135
870.3577	-0.3203
870.5197	-0.1202
870.6817	-0.2327
870.8437	-0.1458
871.0057	-0.2688
871.1676	-0
871.3295	-0.5806
871.4914	-0.5153
871.6533	-0.394
871.8151	-0.3843
871.977	-0
872.1388	-0
872.3006	-0
872.4623	-0.3033
872.6241	0.1507
872.7858	0.3561
872.9475	-0.061
873.1092	0.4085
873.2709	0.1631
873.4325	0.4267
873.5941	-0.2114
873.7557	-0.3047
873.9173	-0
874.0789	-0
874.2404	-0.8183
874.4019	0.6498
874.5634	-0.0481
874.7249	0
874.8863	-0.1488
875.0478	0.0346
875.2092	-0
875.3706	-0.0966
875.5319	-1.0363
875.6933	-0
875.8546	-0.1823
876.0159	-0
876.1772	0.1625
876.3385	-0
876.4997	0.4182
876.6609	-0.3305
876.8221	-0.6963
876.9833	1.291
877.1445	-0
877.3056	-0.1364
877.4667	-0.2727
877.6278	-0
877.7889	-0.3835
877.9499	-0
878.111	-0
878.272	-0
878.433	0.4853
878.5939	-0
878.7549	0.0376
878.9158	-0.4063
879.0767	-0
879.2376	-0
879.3984	0.1448
879.5593	-0
879.7201	-0
879.8809	-0.5745
880.0417	-0.4441
880.2024	0.1629
880.3632	-0
880.5239	0.4567
880.6846	-0
880.8452	-2.2989
881.0059	-0
881.1665	-0
881.3271	0.4661
881.4877	-0.8001
881.6483	-0.2454
881.8088	-0.02
881.9693	1.1654
882.1298	1.1654
882.2903	1.1654
