Data from MonoPyChalIsomerACN10uM440nmA_Absorbance_15-27-11-294.txt Node
Date: Fri Jul 05 15:27:11 BST 2024
User: LASERRRRR
Spectrometer: FLMT03099
Trigger mode: 0
Integration Time (sec): 1.000000E-1
Scans to average: 1
Electric dark correction enabled: true
Nonlinearity correction enabled: false
Boxcar width: 0
XAxis mode: Wavelengths
Number of Pixels in Spectrum: 3648
>>>>>Begin Spectral Data<<<<<
179.3399	-0.241
179.5586	-0.241
179.7771	-0.241
179.9957	0.8726
180.2143	-0
180.4329	-0.1177
180.6514	0.3251
180.8699	0.8985
181.0885	-0.0024
181.307	0.2884
181.5255	-0
181.744	-0.6125
181.9625	-0
182.181	-0.3632
182.3994	0.9758
182.6179	-0
182.8363	-0
183.0547	-0.1479
183.2732	-0.1562
183.4916	-0.008
183.71	0.3558
183.9284	0.6583
184.1467	-0.0828
184.3651	0.0622
184.5835	-0.034
184.8018	0.3503
185.0201	0.0208
185.2385	0.0495
185.4568	0.3964
185.6751	0.0836
185.8934	0.1293
186.1117	0.0874
186.3299	0.1417
186.5482	0.1183
186.7664	-0.0086
186.9847	0.0194
187.2029	0.0752
187.4211	0.1782
187.6393	-0.0044
187.8575	-0.0222
188.0757	0.1391
188.2939	0.21
188.512	-0.1355
188.7302	0.217
188.9483	0.0207
189.1665	0.1275
189.3846	-0.1292
189.6027	0.3451
189.8208	0.2057
190.0389	0.0401
190.257	0.1605
190.475	0.1816
190.6931	0.1982
190.9111	0.1121
191.1292	0.1657
191.3472	0.5869
191.5652	0.2813
191.7832	0.1184
192.0012	0.5423
192.2192	0.3603
192.4371	0.5177
192.6551	0.7098
192.873	0.4366
193.091	0.4488
193.3089	0.5836
193.5268	0.5155
193.7447	0.5641
193.9626	0.5465
194.1805	0.912
194.3984	0.9899
194.6162	0.5508
194.8341	0.4689
195.0519	0.5742
195.2697	0.5823
195.4875	0.7236
195.7054	0.9054
195.9231	0.6147
196.1409	0.6841
196.3587	0.6179
196.5765	0.6283
196.7942	0.6961
197.012	0.462
197.2297	0.7152
197.4474	0.7504
197.6651	0.4692
197.8828	0.7022
198.1005	0.6086
198.3182	0.6627
198.5358	0.8973
198.7535	0.567
198.9711	0.609
199.1888	0.6064
199.4064	0.6765
199.624	0.6046
199.8416	0.5965
200.0592	0.6677
200.2767	0.609
200.4943	0.6384
200.7119	0.7241
200.9294	0.7175
201.1469	0.574
201.3645	0.601
201.582	0.6268
201.7995	0.7943
202.017	0.6003
202.2344	0.6091
202.4519	0.6748
202.6694	0.6069
202.8868	0.5587
203.1042	0.7501
203.3217	0.6946
203.5391	0.7525
203.7565	0.6286
203.9739	0.7291
204.1913	0.7107
204.4086	0.7306
204.626	0.6885
204.8433	0.7126
205.0607	0.6528
205.278	0.7343
205.4953	0.6021
205.7126	0.6968
205.9299	0.6958
206.1472	0.7223
206.3644	0.5905
206.5817	0.7208
206.7989	0.7637
207.0162	0.7153
207.2334	0.6691
207.4506	0.6594
207.6678	0.6837
207.885	0.6236
208.1022	0.6901
208.3194	0.668
208.5365	0.696
208.7537	0.6146
208.9708	0.55
209.1879	0.6887
209.405	0.6392
209.6222	0.8925
209.8392	0.6693
210.0563	0.6857
210.2734	0.6489
210.4905	0.6735
210.7075	0.7067
210.9245	0.6334
211.1416	0.6892
211.3586	0.6269
211.5756	0.5698
211.7926	0.6335
212.0096	0.6018
212.2265	0.6057
212.4435	0.5394
212.6604	0.6604
212.8774	0.5562
213.0943	0.5807
213.3112	0.6424
213.5281	0.5664
213.745	0.501
213.9619	0.5332
214.1788	0.51
214.3956	0.4876
214.6125	0.4914
214.8293	0.4704
215.0461	0.4838
215.2629	0.4826
215.4798	0.5201
215.6965	0.4348
215.9133	0.4742
216.1301	0.4493
216.3469	0.4613
216.5636	0.4452
216.7803	0.4034
216.9971	0.4188
217.2138	0.3805
217.4305	0.3796
217.6472	0.3598
217.8639	0.3934
218.0805	0.3401
218.2972	0.3308
218.5138	0.3291
218.7305	0.327
218.9471	0.3339
219.1637	0.295
219.3803	0.2806
219.5969	0.2843
219.8135	0.2543
220.0301	0.2846
220.2466	0.2761
220.4632	0.2667
220.6797	0.2504
220.8962	0.2475
221.1127	0.2603
221.3292	0.252
221.5457	0.2245
221.7622	0.2286
221.9787	0.2573
222.1951	0.231
222.4116	0.2629
222.628	0.2716
222.8444	0.2721
223.0608	0.2689
223.2772	0.244
223.4936	0.2695
223.71	0.2557
223.9264	0.2709
224.1427	0.2548
224.3591	0.2371
224.5754	0.2669
224.7917	0.2648
225.008	0.2655
225.2243	0.2448
225.4406	0.2833
225.6569	0.2676
225.8732	0.2608
226.0894	0.2739
226.3057	0.2654
226.5219	0.2658
226.7381	0.2614
226.9543	0.2929
227.1705	0.3039
227.3867	0.2794
227.6029	0.3072
227.8191	0.2965
228.0352	0.2834
228.2513	0.2953
228.4675	0.3311
228.6836	0.305
228.8997	0.2856
229.1158	0.3119
229.3319	0.3037
229.548	0.3072
229.764	0.3242
229.9801	0.3307
230.1961	0.3303
230.4121	0.3558
230.6282	0.318
230.8442	0.3224
231.0602	0.3476
231.2761	0.3572
231.4921	0.3412
231.7081	0.3446
231.924	0.3539
232.14	0.3658
232.3559	0.3358
232.5718	0.3636
232.7877	0.3526
233.0036	0.3467
233.2195	0.3476
233.4353	0.3646
233.6512	0.3599
233.867	0.3548
234.0829	0.3802
234.2987	0.3755
234.5145	0.3829
234.7303	0.3614
234.9461	0.3789
235.1619	0.3835
235.3776	0.3669
235.5934	0.3802
235.8091	0.3626
236.0249	0.3806
236.2406	0.3742
236.4563	0.3857
236.672	0.4066
236.8877	0.3936
237.1034	0.3827
237.319	0.4001
237.5347	0.394
237.7503	0.3837
237.966	0.3977
238.1816	0.4173
238.3972	0.4166
238.6128	0.3792
238.8284	0.3888
239.0439	0.427
239.2595	0.3749
239.475	0.4327
239.6906	0.4067
239.9061	0.3927
240.1216	0.4117
240.3371	0.4224
240.5526	0.4016
240.7681	0.4156
240.9836	0.4035
241.199	0.3885
241.4145	0.3851
241.6299	0.3703
241.8453	0.3731
242.0607	0.4021
242.2761	0.3561
242.4915	0.3653
242.7069	0.3627
242.9223	0.3362
243.1376	0.336
243.353	0.3482
243.5683	0.3453
243.7836	0.3117
243.9989	0.3236
244.2142	0.2953
244.4295	0.2975
244.6448	0.3015
244.86	0.2797
245.0753	0.2784
245.2905	0.2788
245.5057	0.267
245.721	0.2665
245.9362	0.2585
246.1514	0.27
246.3665	0.2487
246.5817	0.2556
246.7969	0.2424
247.012	0.2274
247.2271	0.2212
247.4423	0.2373
247.6574	0.2361
247.8725	0.2324
248.0876	0.227
248.3026	0.2241
248.5177	0.2203
248.7328	0.2213
248.9478	0.2073
249.1628	0.2071
249.3779	0.2115
249.5929	0.1949
249.8079	0.212
250.0228	0.1748
250.2378	0.1982
250.4528	0.2039
250.6677	0.175
250.8827	0.172
251.0976	0.1925
251.3125	0.1806
251.5274	0.1658
251.7423	0.1808
251.9572	0.1918
252.172	0.1927
252.3869	0.1871
252.6017	0.1769
252.8166	0.1759
253.0314	0.1629
253.2462	0.1571
253.461	0.1724
253.6758	0.1665
253.8906	0.1736
254.1053	0.1653
254.3201	0.1695
254.5348	0.1688
254.7496	0.1784
254.9643	0.159
255.179	0.1604
255.3937	0.1597
255.6083	0.1609
255.823	0.1703
256.0377	0.1612
256.2523	0.1629
256.467	0.1567
256.6816	0.1706
256.8962	0.1649
257.1108	0.1619
257.3254	0.1654
257.54	0.1571
257.7545	0.1632
257.9691	0.1701
258.1836	0.1738
258.3981	0.18
258.6127	0.1823
258.8272	0.1634
259.0417	0.1591
259.2561	0.1644
259.4706	0.1583
259.6851	0.1642
259.8995	0.1633
260.114	0.1517
260.3284	0.1689
260.5428	0.1509
260.7572	0.1553
260.9716	0.1647
261.186	0.1511
261.4003	0.1655
261.6147	0.1619
261.829	0.1627
262.0433	0.1591
262.2577	0.1585
262.472	0.1603
262.6863	0.1552
262.9005	0.1548
263.1148	0.1657
263.3291	0.1433
263.5433	0.1619
263.7576	0.1571
263.9718	0.1594
264.186	0.1512
264.4002	0.1621
264.6144	0.1602
264.8286	0.1717
265.0427	0.1486
265.2569	0.1521
265.471	0.1566
265.6851	0.1531
265.8993	0.1501
266.1134	0.1525
266.3275	0.1489
266.5415	0.1552
266.7556	0.16
266.9697	0.1597
267.1837	0.1617
267.3978	0.1609
267.6118	0.151
267.8258	0.171
268.0398	0.1509
268.2538	0.1588
268.4677	0.1619
268.6817	0.1574
268.8957	0.1651
269.1096	0.1528
269.3235	0.1571
269.5374	0.1446
269.7514	0.1414
269.9652	0.1434
270.1791	0.1465
270.393	0.148
270.6068	0.1516
270.8207	0.1358
271.0345	0.1432
271.2483	0.1331
271.4622	0.1273
271.676	0.1452
271.8897	0.1434
272.1035	0.1346
272.3173	0.1334
272.531	0.143
272.7448	0.1388
272.9585	0.1339
273.1722	0.139
273.3859	0.1405
273.5996	0.1298
273.8133	0.1331
274.0269	0.1292
274.2406	0.1297
274.4542	0.1354
274.6679	0.1188
274.8815	0.1334
275.0951	0.1369
275.3087	0.1274
275.5223	0.1449
275.7358	0.1368
275.9494	0.1419
276.1629	0.1327
276.3765	0.1346
276.59	0.1384
276.8035	0.135
277.017	0.1366
277.2305	0.1466
277.444	0.1469
277.6574	0.123
277.8709	0.142
278.0843	0.1278
278.2978	0.129
278.5112	0.1268
278.7246	0.1456
278.938	0.1467
279.1513	0.1364
279.3647	0.1488
279.5781	0.1338
279.7914	0.1377
280.0047	0.1453
280.2181	0.1345
280.4314	0.1396
280.6447	0.1346
280.8579	0.1432
281.0712	0.1394
281.2845	0.1488
281.4977	0.139
281.711	0.147
281.9242	0.14
282.1374	0.1445
282.3506	0.1362
282.5638	0.1546
282.7769	0.143
282.9901	0.1514
283.2033	0.1504
283.4164	0.1559
283.6295	0.1406
283.8426	0.1429
284.0557	0.1523
284.2688	0.1671
284.4819	0.1589
284.695	0.1426
284.908	0.1594
285.1211	0.1389
285.3341	0.1543
285.5471	0.1528
285.7601	0.1456
285.9731	0.1551
286.1861	0.1423
286.3991	0.1542
286.612	0.1703
286.825	0.1529
287.0379	0.1655
287.2508	0.1536
287.4637	0.1537
287.6766	0.155
287.8895	0.1477
288.1024	0.1748
288.3152	0.165
288.5281	0.164
288.7409	0.171
288.9538	0.157
289.1666	0.1599
289.3794	0.1658
289.5922	0.1514
289.8049	0.1686
290.0177	0.1536
290.2304	0.1614
290.4432	0.1598
290.6559	0.1576
290.8686	0.1702
291.0813	0.1569
291.294	0.173
291.5067	0.1763
291.7194	0.1708
291.932	0.172
292.1447	0.1809
292.3573	0.1569
292.5699	0.161
292.7825	0.1587
292.9951	0.1655
293.2077	0.1701
293.4203	0.1688
293.6328	0.1582
293.8454	0.1785
294.0579	0.1638
294.2704	0.1695
294.4829	0.1693
294.6954	0.1698
294.9079	0.1686
295.1204	0.1647
295.3328	0.1536
295.5453	0.1683
295.7577	0.1679
295.9701	0.1573
296.1825	0.1755
296.3949	0.1619
296.6073	0.1581
296.8197	0.1555
297.0321	0.1768
297.2444	0.1589
297.4567	0.162
297.6691	0.1581
297.8814	0.1542
298.0937	0.1611
298.306	0.1712
298.5182	0.1594
298.7305	0.178
298.9428	0.1666
299.155	0.1635
299.3672	0.1657
299.5794	0.1623
299.7916	0.1586
300.0038	0.1818
300.216	0.1759
300.4282	0.1696
300.6403	0.1598
300.8525	0.1697
301.0646	0.1642
301.2767	0.1626
301.4888	0.172
301.7009	0.1577
301.913	0.1696
302.125	0.1709
302.3371	0.1559
302.5491	0.167
302.7612	0.1767
302.9732	0.1724
303.1852	0.171
303.3972	0.1542
303.6092	0.1707
303.8211	0.1554
304.0331	0.1668
304.245	0.1546
304.457	0.1486
304.6689	0.1449
304.8808	0.1713
305.0927	0.1575
305.3046	0.1528
305.5164	0.1579
305.7283	0.1504
305.9401	0.1671
306.152	0.1495
306.3638	0.1531
306.5756	0.1389
306.7874	0.148
306.9992	0.148
307.2109	0.1408
307.4227	0.1356
307.6344	0.1385
307.8462	0.1324
308.0579	0.1334
308.2696	0.1238
308.4813	0.1275
308.693	0.1355
308.9046	0.1286
309.1163	0.1222
309.328	0.1265
309.5396	0.12
309.7512	0.1199
309.9628	0.1212
310.1744	0.1219
310.386	0.1113
310.5976	0.122
310.8091	0.1196
311.0207	0.1162
311.2322	0.1131
311.4437	0.1112
311.6552	0.1191
311.8667	0.1099
312.0782	0.0949
312.2897	0.1028
312.5012	0.1039
312.7126	0.1005
312.924	0.0954
313.1355	0.0943
313.3469	0.0962
313.5583	0.1009
313.7696	0.0976
313.981	0.1069
314.1924	0.0875
314.4037	0.0973
314.6151	0.1045
314.8264	0.0931
315.0377	0.0905
315.249	0.0894
315.4603	0.1019
315.6716	0.0952
315.8828	0.0874
316.0941	0.093
316.3053	0.0886
316.5165	0.0863
316.7277	0.0872
316.9389	0.1076
317.1501	0.0894
317.3613	0.0933
317.5724	0.0808
317.7836	0.1024
317.9947	0.095
318.2058	0.0953
318.417	0.0897
318.6281	0.0827
318.8391	0.0944
319.0502	0.091
319.2613	0.1053
319.4723	0.0967
319.6834	0.0955
319.8944	0.0825
320.1054	0.0937
320.3164	0.0909
320.5274	0.0839
320.7383	0.0829
320.9493	0.0866
321.1602	0.104
321.3712	0.0779
321.5821	0.0874
321.793	0.0913
322.0039	0.0896
322.2148	0.083
322.4257	0.0876
322.6365	0.0923
322.8474	0.1026
323.0582	0.082
323.269	0.0842
323.4798	0.0938
323.6906	0.0927
323.9014	0.093
324.1122	0.0928
324.3229	0.0825
324.5337	0.0856
324.7444	0.0824
324.9551	0.1063
325.1658	0.1013
325.3765	0.0935
325.5872	0.1032
325.7979	0.089
326.0085	0.0941
326.2192	0.0886
326.4298	0.0926
326.6404	0.0952
326.851	0.0902
327.0616	0.0815
327.2722	0.0929
327.4828	0.0936
327.6933	0.0875
327.9039	0.093
328.1144	0.1001
328.3249	0.0939
328.5354	0.093
328.7459	0.0954
328.9564	0.0904
329.1669	0.0936
329.3773	0.0984
329.5878	0.0944
329.7982	0.0966
330.0086	0.0931
330.219	0.1035
330.4294	0.0996
330.6398	0.0877
330.8502	0.0925
331.0605	0.0981
331.2708	0.0999
331.4812	0.1098
331.6915	0.1031
331.9018	0.0918
332.1121	0.0942
332.3224	0.0943
332.5326	0.1015
332.7429	0.0998
332.9531	0.1075
333.1633	0.0931
333.3735	0.0965
333.5837	0.0962
333.7939	0.109
334.0041	0.1032
334.2143	0.1116
334.4244	0.1002
334.6346	0.0891
334.8447	0.107
335.0548	0.0873
335.2649	0.0886
335.475	0.1132
335.685	0.0981
335.8951	0.1163
336.1051	0.1118
336.3152	0.1068
336.5252	0.1023
336.7352	0.0981
336.9452	0.1117
337.1552	0.1052
337.3652	0.0981
337.5751	0.1035
337.7851	0.1098
337.995	0.0973
338.2049	0.1158
338.4148	0.1069
338.6247	0.1082
338.8346	0.1091
339.0445	0.105
339.2543	0.0951
339.4642	0.1072
339.674	0.098
339.8838	0.1086
340.0936	0.1039
340.3034	0.1186
340.5132	0.1028
340.7229	0.106
340.9327	0.1001
341.1424	0.1115
341.3522	0.1191
341.5619	0.0997
341.7716	0.1157
341.9813	0.1011
342.1909	0.1125
342.4006	0.1279
342.6102	0.1146
342.8199	0.1094
343.0295	0.1124
343.2391	0.1181
343.4487	0.119
343.6583	0.1149
343.8679	0.1155
344.0774	0.1263
344.287	0.1246
344.4965	0.1075
344.706	0.1219
344.9155	0.1236
345.125	0.1152
345.3345	0.12
345.544	0.127
345.7534	0.1301
345.9629	0.1076
346.1723	0.1078
346.3817	0.1176
346.5911	0.1198
346.8005	0.1281
347.0099	0.1166
347.2193	0.1328
347.4286	0.1262
347.638	0.1128
347.8473	0.1257
348.0566	0.1329
348.2659	0.1309
348.4752	0.1261
348.6845	0.1243
348.8937	0.1286
349.103	0.1429
349.3122	0.1257
349.5214	0.1283
349.7306	0.1384
349.9398	0.1338
350.149	0.1436
350.3582	0.1345
350.5674	0.1485
350.7765	0.1334
350.9856	0.1409
351.1948	0.1396
351.4039	0.1219
351.613	0.1309
351.822	0.138
352.0311	0.1366
352.2402	0.1343
352.4492	0.1419
352.6582	0.1456
352.8672	0.1522
353.0762	0.1424
353.2852	0.1328
353.4942	0.1377
353.7032	0.1544
353.9121	0.1365
354.1211	0.1434
354.33	0.1491
354.5389	0.1592
354.7478	0.144
354.9567	0.1623
355.1655	0.1356
355.3744	0.1397
355.5833	0.1532
355.7921	0.1671
356.0009	0.1492
356.2097	0.1646
356.4185	0.1707
356.6273	0.173
356.8361	0.1702
357.0448	0.1604
357.2536	0.1513
357.4623	0.1469
357.671	0.1744
357.8797	0.1567
358.0884	0.1725
358.2971	0.1472
358.5057	0.1674
358.7144	0.1583
358.923	0.1722
359.1316	0.1606
359.3402	0.1776
359.5488	0.1648
359.7574	0.152
359.966	0.1811
360.1746	0.183
360.3831	0.1651
360.5916	0.1571
360.8002	0.1627
361.0087	0.1813
361.2172	0.168
361.4256	0.173
361.6341	0.191
361.8426	0.1809
362.051	0.1763
362.2594	0.1667
362.4678	0.184
362.6762	0.1916
362.8846	0.1935
363.093	0.1789
363.3014	0.1859
363.5097	0.1706
363.718	0.1911
363.9264	0.1878
364.1347	0.1922
364.343	0.1944
364.5513	0.204
364.7595	0.2002
364.9678	0.1871
365.176	0.2125
365.3842	0.2053
365.5925	0.1889
365.8007	0.1967
366.0089	0.2007
366.217	0.199
366.4252	0.2058
366.6333	0.2184
366.8415	0.214
367.0496	0.2043
367.2577	0.2081
367.4658	0.2203
367.6739	0.2081
367.882	0.2052
368.09	0.2016
368.2981	0.2082
368.5061	0.2119
368.7141	0.2138
368.9221	0.2186
369.1301	0.207
369.3381	0.2185
369.5461	0.2244
369.754	0.2167
369.962	0.212
370.1699	0.2176
370.3778	0.211
370.5857	0.2146
370.7936	0.2239
371.0015	0.2106
371.2093	0.2251
371.4172	0.2448
371.625	0.204
371.8328	0.2088
372.0406	0.2413
372.2484	0.2335
372.4562	0.2186
372.664	0.2356
372.8717	0.2315
373.0795	0.2232
373.2872	0.2364
373.4949	0.2398
373.7026	0.2349
373.9103	0.2372
374.118	0.2511
374.3256	0.2417
374.5333	0.2307
374.7409	0.2298
374.9485	0.2443
375.1561	0.2381
375.3637	0.2482
375.5713	0.2439
375.7789	0.2464
375.9864	0.2545
376.194	0.2189
376.4015	0.2638
376.609	0.2526
376.8165	0.2451
377.024	0.2407
377.2315	0.2382
377.4389	0.2397
377.6464	0.2653
377.8538	0.2633
378.0612	0.2376
378.2686	0.2647
378.476	0.2534
378.6834	0.2554
378.8908	0.2632
379.0981	0.2618
379.3055	0.2594
379.5128	0.2588
379.7201	0.2599
379.9274	0.2441
380.1347	0.2574
380.342	0.273
380.5492	0.2509
380.7565	0.2608
380.9637	0.2593
381.1709	0.2406
381.3781	0.2614
381.5853	0.2632
381.7925	0.2467
381.9997	0.2788
382.2068	0.279
382.4139	0.2649
382.6211	0.2577
382.8282	0.2556
383.0353	0.2678
383.2424	0.2576
383.4494	0.2754
383.6565	0.2731
383.8635	0.2732
384.0706	0.2586
384.2776	0.2718
384.4846	0.2768
384.6916	0.2627
384.8986	0.2602
385.1055	0.2728
385.3125	0.2715
385.5194	0.2643
385.7263	0.2841
385.9333	0.2649
386.1402	0.2612
386.347	0.285
386.5539	0.2554
386.7608	0.2683
386.9676	0.2485
387.1744	0.2652
387.3813	0.2609
387.5881	0.2825
387.7948	0.27
388.0016	0.2647
388.2084	0.2807
388.4151	0.2514
388.6219	0.2688
388.8286	0.2613
389.0353	0.279
389.242	0.2632
389.4487	0.2741
389.6553	0.259
389.862	0.2461
390.0686	0.2513
390.2753	0.2752
390.4819	0.2693
390.6885	0.258
390.8951	0.2516
391.1016	0.2525
391.3082	0.2566
391.5147	0.2616
391.7213	0.2557
391.9278	0.2332
392.1343	0.2348
392.3408	0.2375
392.5473	0.2465
392.7537	0.226
392.9602	0.2553
393.1666	0.2393
393.373	0.262
393.5794	0.2608
393.7858	0.227
393.9922	0.2335
394.1986	0.2483
394.4049	0.2488
394.6113	0.2259
394.8176	0.2255
395.0239	0.2431
395.2302	0.2386
395.4365	0.227
395.6428	0.236
395.8491	0.2234
396.0553	0.2364
396.2615	0.2235
396.4678	0.2358
396.674	0.2127
396.8802	0.217
397.0863	0.2554
397.2925	0.2339
397.4987	0.2245
397.7048	0.2321
397.9109	0.223
398.117	0.2085
398.3231	0.2194
398.5292	0.243
398.7353	0.2429
398.9413	0.2258
399.1474	0.2222
399.3534	0.2293
399.5594	0.2027
399.7654	0.2356
399.9714	0.2366
400.1774	0.2385
400.3833	0.2147
400.5893	0.2281
400.7952	0.2294
401.0011	0.2268
401.207	0.229
401.4129	0.2188
401.6188	0.2363
401.8247	0.2257
402.0305	0.2168
402.2364	0.2274
402.4422	0.2374
402.648	0.2262
402.8538	0.2492
403.0596	0.2197
403.2654	0.2417
403.4711	0.2143
403.6768	0.2382
403.8826	0.2347
404.0883	0.2238
404.294	0.2222
404.4997	0.2299
404.7054	0.2488
404.911	0.2129
405.1167	0.226
405.3223	0.2444
405.5279	0.252
405.7335	0.2355
405.9391	0.2337
406.1447	0.2203
406.3502	0.2502
406.5558	0.206
406.7613	0.2476
406.9668	0.2258
407.1724	0.2166
407.3778	0.217
407.5833	0.2431
407.7888	0.2168
407.9942	0.2417
408.1997	0.2235
408.4051	0.2208
408.6105	0.2246
408.8159	0.2179
409.0213	0.2031
409.2267	0.2457
409.432	0.2273
409.6374	0.2519
409.8427	0.2081
410.048	0.2284
410.2533	0.2238
410.4586	0.2198
410.6639	0.2205
410.8691	0.2309
411.0744	0.2304
411.2796	0.2261
411.4848	0.2242
411.69	0.2246
411.8952	0.2471
412.1004	0.1956
412.3056	0.2281
412.5107	0.2184
412.7158	0.2351
412.921	0.219
413.1261	0.2253
413.3312	0.2274
413.5362	0.2127
413.7413	0.2124
413.9464	0.2068
414.1514	0.2175
414.3564	0.2045
414.5614	0.204
414.7664	0.2187
414.9714	0.2301
415.1764	0.2422
415.3813	0.2358
415.5863	0.227
415.7912	0.2133
415.9961	0.2097
416.201	0.2209
416.4059	0.225
416.6108	0.206
416.8156	0.2141
417.0205	0.2132
417.2253	0.1965
417.4301	0.2407
417.6349	0.2023
417.8397	0.2118
418.0445	0.2132
418.2492	0.2156
418.454	0.2075
418.6587	0.2205
418.8634	0.2156
419.0681	0.1977
419.2728	0.1964
419.4775	0.2195
419.6822	0.1946
419.8868	0.1957
420.0915	0.2037
420.2961	0.1985
420.5007	0.1944
420.7053	0.2082
420.9099	0.2103
421.1144	0.201
421.319	0.1818
421.5235	0.2024
421.728	0.1966
421.9325	0.1936
422.137	0.2108
422.3415	0.1966
422.546	0.1992
422.7504	0.2062
422.9549	0.1942
423.1593	0.1994
423.3637	0.2081
423.5681	0.189
423.7725	0.1887
423.9769	0.1937
424.1812	0.1944
424.3856	0.1753
424.5899	0.1935
424.7942	0.1749
424.9985	0.1851
425.2028	0.1729
425.4071	0.2167
425.6113	0.1726
425.8156	0.1797
426.0198	0.1878
426.224	0.1702
426.4282	0.1795
426.6324	0.1851
426.8366	0.1914
427.0407	0.1806
427.2449	0.1819
427.449	0.1882
427.6531	0.1549
427.8572	0.1676
428.0613	0.1818
428.2654	0.165
428.4694	0.1536
428.6735	0.1534
428.8775	0.1871
429.0815	0.1703
429.2855	0.16
429.4895	0.1816
429.6935	0.1637
429.8975	0.1562
430.1014	0.1385
430.3053	0.1472
430.5093	0.1594
430.7132	0.1364
430.9171	0.1528
431.1209	0.1523
431.3248	0.1503
431.5286	0.1636
431.7325	0.1523
431.9363	0.1401
432.1401	0.1523
432.3439	0.1352
432.5477	0.1256
432.7514	0.1361
432.9552	0.1328
433.1589	0.1302
433.3627	0.126
433.5664	0.1328
433.7701	0.124
433.9737	0.1344
434.1774	0.1241
434.3811	0.1219
434.5847	0.1204
434.7883	0.1041
434.9919	0.1161
435.1955	0.1055
435.3991	0.1317
435.6027	0.116
435.8062	0.1035
436.0098	0.1007
436.2133	0.1099
436.4168	0.1013
436.6203	0.0912
436.8238	0.1125
437.0272	0.1061
437.2307	0.1078
437.4341	0.1235
437.6375	0.1152
437.841	0.0894
438.0443	0.1
438.2477	0.0916
438.4511	0.0924
438.6545	0.0936
438.8578	0.1009
439.0611	0.1081
439.2644	0.0832
439.4677	0.0896
439.671	0.0766
439.8743	0.0959
440.0775	0.08
440.2808	0.089
440.484	0.0619
440.6872	0.0607
440.8904	0.0703
441.0936	0.0957
441.2967	0.0827
441.4999	0.0826
441.703	0.0673
441.9062	0.0733
442.1093	0.0682
442.3124	0.0736
442.5155	0.0567
442.7185	0.0622
442.9216	0.0582
443.1246	0.0744
443.3276	0.0479
443.5307	0.0651
443.7337	0.06
443.9366	0.0542
444.1396	0.0521
444.3426	0.0503
444.5455	0.0575
444.7484	0.0467
444.9513	0.0511
445.1542	0.0573
445.3571	0.0634
445.56	0.049
445.7628	0.0291
445.9657	0.0352
446.1685	0.0711
446.3713	0.0391
446.5741	0.0449
446.7769	0.0348
446.9797	0.0495
447.1824	0.0566
447.3852	0.0192
447.5879	0.0491
447.7906	0.0486
447.9933	0.0449
448.196	0.0266
448.3986	0.0456
448.6013	0.0233
448.8039	0.0253
449.0066	0.038
449.2092	0.0387
449.4118	0.0418
449.6143	0.0307
449.8169	0.0334
450.0195	0.0247
450.222	0.0123
450.4245	0.024
450.627	0.0391
450.8295	0.0333
451.032	0.0223
451.2345	0.0374
451.4369	0.0456
451.6394	0.0277
451.8418	0.0198
452.0442	0.0162
452.2466	0.0401
452.449	0.0085
452.6513	0.017
452.8537	0.0109
453.056	0.0032
453.2583	0.0049
453.4607	0.0129
453.663	0.0144
453.8652	0.0293
454.0675	0.0218
454.2697	0.0329
454.472	0.0115
454.6742	0.0267
454.8764	0.0172
455.0786	0.0194
455.2808	0.0304
455.4829	0.0192
455.6851	0.0288
455.8872	0.0109
456.0893	0.018
456.2915	0.001
456.4935	0.0139
456.6956	0.0097
456.8977	0.0163
457.0997	0.0135
457.3018	0.0038
457.5038	0.0137
457.7058	0.0157
457.9078	0.0071
458.1098	0.0136
458.3117	0.0073
458.5137	0.0011
458.7156	0.0071
458.9175	-0.0022
459.1194	-0.0006
459.3213	0.0024
459.5232	-0.0053
459.725	0.0022
459.9269	-0.0097
460.1287	0.0008
460.3305	0.0139
460.5323	0.0138
460.7341	-0.0033
460.9359	0.0021
461.1376	0.0193
461.3394	-0.0054
461.5411	0.0108
461.7428	-0.0022
461.9445	0.0059
462.1462	0.0148
462.3479	-0.001
462.5495	0.012
462.7512	0.0141
462.9528	-0.0136
463.1544	-0.0232
463.356	0.0172
463.5576	0.0052
463.7592	-0.0068
463.9607	0.0159
464.1623	-0.0023
464.3638	0.0244
464.5653	-0.0137
464.7668	0.0093
464.9683	0.0031
465.1697	0.0253
465.3712	-0.0106
465.5726	-0.0047
465.7741	-0.0011
465.9755	-0.0012
466.1769	0.0003
466.3782	0.0121
466.5796	-0.0075
466.7809	0.0024
466.9823	-0.0108
467.1836	0.0068
467.3849	-0.0166
467.5862	0.0111
467.7875	0.0059
467.9887	0.0148
468.19	-0.006
468.3912	-0.003
468.5924	-0.0022
468.7936	-0.0014
468.9948	-0.0062
469.196	0.0203
469.3972	-0.0211
469.5983	0.0029
469.7994	-0.0003
470.0006	-0.0087
470.2017	-0.0158
470.4027	-0.0048
470.6038	0.0059
470.8049	-0.0129
471.0059	-0.0068
471.2069	-0.0142
471.408	0.0071
471.6089	0.0098
471.8099	0.0067
472.0109	0.0057
472.2119	0.0122
472.4128	-0.0222
472.6137	0.0091
472.8146	-0.0107
473.0155	-0.0079
473.2164	-0.0163
473.4173	0.0113
473.6181	0.0044
473.819	-0.0062
474.0198	-0.007
474.2206	-0.0155
474.4214	0.0016
474.6222	-0.0008
474.8229	-0.0165
475.0237	-0.0164
475.2244	-0.0119
475.4251	-0.0026
475.6258	-0.007
475.8265	-0.0007
476.0272	0.0099
476.2278	-0.0059
476.4285	-0.0036
476.6291	-0.0127
476.8297	-0.0157
477.0303	-0.0025
477.2309	-0.0095
477.4315	-0.0046
477.632	-0.0046
477.8326	0.0079
478.0331	0.0088
478.2336	0.0058
478.4341	-0.0078
478.6346	-0.0066
478.8351	-0.0052
479.0355	0.0067
479.236	-0.0037
479.4364	0.0051
479.6368	-0.0116
479.8372	-0.0085
480.0376	-0.0113
480.2379	-0.0101
480.4383	-0.0027
480.6386	-0.0008
480.8389	-0.005
481.0392	-0.0125
481.2395	-0.0149
481.4398	0.0069
481.6401	-0.003
481.8403	-0.0135
482.0405	-0.0029
482.2408	-0.0089
482.441	-0.0045
482.6411	0.0028
482.8413	-0.0032
483.0415	-0.0059
483.2416	-0.0119
483.4417	-0.0067
483.6419	-0.0034
483.8419	-0.0018
484.042	0.0139
484.2421	-0.0004
484.4422	-0.0026
484.6422	-0.002
484.8422	-0.0036
485.0422	-0.004
485.2422	0.0048
485.4422	-0.0089
485.6422	-0.0162
485.8421	-0.0111
486.042	0.0024
486.242	-0.0135
486.4419	-0.0056
486.6417	-0.0048
486.8416	-0.004
487.0415	-0.0034
487.2413	-0.0116
487.4411	-0.0093
487.641	-0.0088
487.8408	0.0139
488.0405	-0.0011
488.2403	-0.0175
488.4401	0.0046
488.6398	0.0088
488.8395	-0.0056
489.0392	0.0064
489.2389	-0.0043
489.4386	0.0019
489.6383	0.0013
489.8379	0.0067
490.0376	0.0021
490.2372	-0.0147
490.4368	-0.0116
490.6364	-0.0013
490.836	-0.0125
491.0355	0.0016
491.2351	-0.0053
491.4346	-0.0031
491.6341	-0.0139
491.8336	0.0004
492.0331	-0.0185
492.2326	-0.0149
492.432	-0.0115
492.6315	-0.0095
492.8309	-0.0127
493.0303	-0.015
493.2297	-0.0015
493.4291	-0.0001
493.6284	-0.015
493.8278	-0.007
494.0271	0.0004
494.2264	0.0067
494.4257	-0.0118
494.625	-0.0045
494.8243	-0.017
495.0236	-0.0133
495.2228	-0.0092
495.422	0.0003
495.6213	0.0021
495.8205	-0.005
496.0196	-0.0042
496.2188	0.0075
496.418	-0.0155
496.6171	-0.0123
496.8162	-0.0063
497.0153	-0.0055
497.2144	-0.0149
497.4135	-0.0088
497.6126	-0.0121
497.8116	-0.0025
498.0107	0.0024
498.2097	-0.0131
498.4087	-0.0117
498.6077	0.0013
498.8067	-0.0093
499.0056	0.0033
499.2046	-0.0101
499.4035	-0.0153
499.6024	0.0027
499.8013	0.0019
500.0002	-0.0091
500.199	-0.003
500.3979	-0.0035
500.5967	-0.028
500.7956	0.0006
500.9944	-0.0051
501.1932	-0.0109
501.3919	-0.0049
501.5907	-0.0219
501.7895	-0.0004
501.9882	-0.0056
502.1869	-0.0142
502.3856	-0.0082
502.5843	-0.0058
502.783	-0.012
502.9816	-0.0022
503.1803	-0.0139
503.3789	-0.0059
503.5775	0.0066
503.7761	-0.01
503.9747	0.0027
504.1732	-0.0082
504.3718	-0.0098
504.5703	-0.008
504.7689	0.0023
504.9674	-0.0009
505.1658	-0.0035
505.3643	-0.003
505.5628	-0.0024
505.7612	-0.0108
505.9597	0.0095
506.1581	-0.0034
506.3565	0.0042
506.5549	-0.0039
506.7532	-0.0237
506.9516	-0.0055
507.1499	0.0013
507.3482	-0.0077
507.5465	-0.0126
507.7448	-0.0014
507.9431	-0.004
508.1414	0.0063
508.3396	-0.0076
508.5379	0
508.7361	-0.0033
508.9343	-0.0072
509.1325	-0.0033
509.3306	-0.0078
509.5288	-0.0078
509.7269	-0.0149
509.9251	-0.0005
510.1232	-0.0138
510.3213	-0.0053
510.5193	0.005
510.7174	-0.0126
510.9154	-0.0096
511.1135	-0.0095
511.3115	-0.0071
511.5095	-0.014
511.7075	-0.0092
511.9055	0.0018
512.1034	-0.0044
512.3014	-0.0124
512.4993	0.0015
512.6972	-0.0127
512.8951	-0.0094
513.093	0.0055
513.2908	0.0039
513.4887	-0.0034
513.6865	-0.0116
513.8844	-0.0056
514.0822	-0.0038
514.2799	-0.0138
514.4777	-0.0103
514.6755	-0.0059
514.8732	-0.0051
515.0709	0.0041
515.2687	-0.0053
515.4664	-0.0049
515.664	-0.0079
515.8617	-0.0042
516.0594	-0.008
516.257	0.0038
516.4546	-0.0135
516.6522	-0.0021
516.8498	-0.0075
517.0474	-0.002
517.2449	-0.0038
517.4425	-0.0154
517.64	0.008
517.8375	0.0047
518.035	-0.0002
518.2325	-0.0064
518.43	-0.0092
518.6274	-0.0021
518.8249	-0.0174
519.0223	0.0061
519.2197	0.0029
519.4171	-0.0135
519.6145	-0.0111
519.8118	-0.0056
520.0092	-0.0075
520.2065	-0.0142
520.4038	-0.0144
520.6011	-0.0034
520.7984	-0.0071
520.9956	-0.0093
521.1929	-0.012
521.3901	0.0007
521.5874	-0.0039
521.7846	-0.0094
521.9818	-0.005
522.1789	-0.0074
522.3761	-0.0044
522.5732	-0.0133
522.7704	-0.0026
522.9675	0.0003
523.1646	0.0026
523.3617	-0.0033
523.5587	0.0034
523.7558	-0.0052
523.9528	-0.0022
524.1498	-0.0057
524.3468	-0.0057
524.5438	-0.001
524.7408	-0.0021
524.9378	0.0062
525.1347	-0.0067
525.3316	-0.0013
525.5285	-0.0066
525.7254	-0.0048
525.9223	0.0117
526.1192	-0.0004
526.316	-0.0075
526.5129	-0.0006
526.7097	-0.0092
526.9065	-0.0019
527.1033	-0.0019
527.3	-0.0099
527.4968	-0.0088
527.6935	-0.0057
527.8903	-0.0095
528.087	-0.0047
528.2837	-0.0122
528.4804	-0.0039
528.677	-0.0135
528.8737	0.0049
529.0703	0.0008
529.2669	-0.0076
529.4635	-0.0138
529.6601	0.0009
529.8567	0.0009
530.0532	-0.0071
530.2498	0.012
530.4463	-0.0015
530.6428	-0.0043
530.8393	0.0076
531.0358	-0.0065
531.2322	-0.0099
531.4287	-0.0063
531.6251	-0.0051
531.8215	0.0039
532.0179	0.0067
532.2143	0.0059
532.4107	0.0013
532.607	-0.0111
532.8034	0.002
532.9997	0.0072
533.196	0.0018
533.3923	-0.0111
533.5886	-0.0049
533.7848	-0.0067
533.9811	0.0011
534.1773	0.0128
534.3735	0.0012
534.5697	-0.0036
534.7659	0.0028
534.9621	0.0008
535.1582	-0.0046
535.3544	-0.0135
535.5505	-0.0115
535.7466	0.0004
535.9427	-0.002
536.1387	-0.0032
536.3348	-0.003
536.5308	0.0081
536.7269	-0.0124
536.9229	0.0034
537.1189	0.0017
537.3148	0.0049
537.5108	-0.0056
537.7068	0.0017
537.9027	-0.0026
538.0986	-0.0141
538.2945	-0.0048
538.4904	-0.0117
538.6863	-0.0039
538.8821	-0.0012
539.078	-0.0074
539.2738	-0.0036
539.4696	-0.0036
539.6654	-0.0009
539.8611	0.0085
540.0569	-0.0067
540.2526	-0.0133
540.4484	0.0027
540.6441	0.0059
540.8398	-0.0055
541.0355	0.0043
541.2311	-0.0044
541.4268	-0.0011
541.6224	-0.0011
541.818	-0.007
542.0136	-0.0033
542.2092	-0.0029
542.4048	0.0044
542.6003	-0.0017
542.7959	-0.0032
542.9914	-0.0042
543.1869	0.0012
543.3824	-0.0018
543.5779	-0.0109
543.7734	-0.0073
543.9688	-0.0031
544.1642	0.0051
544.3596	-0.0035
544.555	-0.0054
544.7504	-0.0018
544.9458	-0.0064
545.1411	-0.0064
545.3365	-0.0062
545.5318	-0.0042
545.7271	0.0033
545.9224	-0.0027
546.1177	0.0028
546.3129	-0.0026
546.5081	-0.0086
546.7034	-0.0021
546.8986	0.0005
547.0938	-0.0017
547.289	-0.0041
547.4841	-0.0033
547.6793	-0.0009
547.8744	0.0021
548.0695	-0.0063
548.2646	-0.0049
548.4597	0.0077
548.6548	-0.0019
548.8498	-0.0037
549.0448	0.0066
549.2399	-0.0096
549.4349	0.0071
549.6298	-0.0044
549.8248	-0.0015
550.0198	-0.0026
550.2147	-0.0008
550.4096	-0.0039
550.6045	-0.0017
550.7994	0.003
550.9943	0.0088
551.1892	-0.0022
551.384	-0.0003
551.5788	-0.0105
551.7737	0.0112
551.9685	0.0015
552.1632	0.0095
552.358	-0.0018
552.5528	0.004
552.7475	-0.0053
552.9422	0.008
553.1369	-0.0037
553.3316	-0.0026
553.5263	-0.0044
553.7209	0.0012
553.9156	-0.0034
554.1102	-0.009
554.3048	-0.0159
554.4994	0.0021
554.694	-0.0088
554.8885	0.006
555.0831	-0.0116
555.2776	-0.0082
555.4721	-0.0027
555.6666	-0.0036
555.8611	0.0076
556.0555	0.0024
556.25	-0.005
556.4444	-0.0145
556.6388	-0.004
556.8332	-0.0044
557.0276	0.0031
557.222	-0.0012
557.4163	-0.0035
557.6107	-0.0146
557.805	0.0101
557.9993	-0.0103
558.1936	-0.0015
558.3879	-0.0032
558.5821	0.0035
558.7764	-0.0035
558.9706	0.0002
559.1648	0.0036
559.359	-0.0074
559.5532	-0.0009
559.7473	-0.0027
559.9415	-0.0014
560.1356	0.0012
560.3297	-0.0081
560.5238	-0.004
560.7179	-0.0042
560.9119	-0.0021
561.106	-0.0081
561.3	-0.0121
561.494	-0.002
561.688	-0.0023
561.882	-0.0118
562.076	-0.0059
562.2699	0.0038
562.4639	0.0023
562.6578	0.0038
562.8517	0.0006
563.0456	0.0106
563.2395	-0.0001
563.4333	-0.0056
563.6272	0.0071
563.821	-0.0005
564.0148	-0.0025
564.2086	-0.0047
564.4024	-0.0059
564.5961	-0.0113
564.7899	-0.0029
564.9836	0.003
565.1773	-0.0008
565.371	0.0046
565.5647	0.0054
565.7584	0.0016
565.952	-0.0019
566.1456	0.0024
566.3393	0.0004
566.5329	-0.0019
566.7264	-0.0041
566.92	0.0002
567.1136	0.0042
567.3071	-0.0003
567.5006	0.0065
567.6941	0.0051
567.8876	-0.0016
568.0811	-0.0042
568.2745	0.0031
568.468	0.0055
568.6614	0.0031
568.8548	0.0007
569.0482	-0.0018
569.2416	0.0014
569.4349	0.0046
569.6283	0.0086
569.8216	0.0031
570.0149	0.0001
570.2082	0.0047
570.4015	0.0091
570.5947	0.0042
570.788	0.0042
570.9812	0.006
571.1744	-0.0012
571.3676	-0.0029
571.5608	-0.0065
571.754	0.0018
571.9471	0.0027
572.1402	0.0052
572.3333	-0.0068
572.5264	-0.0095
572.7195	0.0016
572.9126	0.0028
573.1057	0.002
573.2987	-0.0071
573.4917	0.002
573.6847	-0.0104
573.8777	0.0013
574.0707	0.0047
574.2636	-0.0043
574.4566	-0.0031
574.6495	0.0072
574.8424	-0.0034
575.0353	-0.0018
575.2281	0.0073
575.421	0.0021
575.6138	0.0038
575.8067	-0.0025
575.9995	0.0008
576.1923	0.0028
576.385	0.0029
576.5778	-0.0005
576.7706	-0.0022
576.9633	0.0056
577.156	0.0017
577.3487	-0.0055
577.5414	-0.0031
577.734	-0.0057
577.9267	0.0007
578.1193	-0.0124
578.3119	-0.0033
578.5045	-0.0069
578.6971	-0.0042
578.8897	0.0052
579.0822	0.0006
579.2747	-0.0014
579.4673	0.0004
579.6598	-0.0051
579.8522	0.0005
580.0447	-0.0087
580.2372	-0.0007
580.4296	0.0013
580.622	-0.0039
580.8144	0.0014
581.0068	-0.0033
581.1992	-0.0117
581.3915	-0.0084
581.5839	-0.0022
581.7762	-0.0016
581.9685	-0.0055
582.1608	-0.002
582.353	-0.0069
582.5453	0.004
582.7375	0.0013
582.9298	0.0001
583.122	0.0028
583.3142	-0.0004
583.5063	0.0038
583.6985	-0.0003
583.8906	-0.0008
584.0827	0.0023
584.2749	0.0023
584.4669	0.0006
584.659	-0.0002
584.8511	-0.0006
585.0431	-0.0001
585.2352	-0.001
585.4272	-0.0013
585.6192	0.0049
585.8111	0.0026
586.0031	0.0049
586.195	0.001
586.387	0.0037
586.5789	0.0024
586.7708	-0.0011
586.9627	0.0007
587.1545	-0.0084
587.3464	0.0068
587.5382	0.0109
587.73	0.0013
587.9218	0.0051
588.1136	-0.0051
588.3053	0.0111
588.4971	0.0002
588.6888	-0.0066
588.8805	-0.0011
589.0722	0.0061
589.2639	0.0059
589.4556	0.0005
589.6472	0.0011
589.8389	-0.0021
590.0305	-0.012
590.2221	-0.0023
590.4137	-0.0094
590.6052	-0.0009
590.7968	0.001
590.9883	-0.0053
591.1798	-0.0044
591.3713	0.0029
591.5628	0.0024
591.7543	0.0018
591.9458	-0.0005
592.1372	0.004
592.3286	0.0092
592.52	0.0034
592.7114	-0.0012
592.9028	-0.0031
593.0941	0.0002
593.2855	0.0036
593.4768	-0.0025
593.6681	-0.0037
593.8594	0.0015
594.0506	0.0019
594.2419	0.0027
594.4331	-0.001
594.6244	0.0037
594.8156	0.0016
595.0067	0.0031
595.1979	-0.0017
595.3891	0.0052
595.5802	-0.0039
595.7713	-0.0022
595.9624	-0.0002
596.1535	0.0095
596.3446	0.0053
596.5357	0.0028
596.7267	0.006
596.9177	0.003
597.1087	-0.0053
597.2997	0.0003
597.4907	0.0017
597.6817	-0.0058
597.8726	0.0001
598.0635	-0.0052
598.2544	0.001
598.4453	0.0025
598.6362	-0.0027
598.827	-0.0061
599.0179	0.0005
599.2087	-0.0003
599.3995	0.0016
599.5903	-0.0025
599.7811	0.003
599.9718	0
600.1626	-0.0025
600.3533	-0.0061
600.544	0.0025
600.7347	-0.0023
600.9254	-0.0017
601.116	-0.0103
601.3067	-0.0021
601.4973	-0.0003
601.6879	0.0041
601.8785	-0.001
602.0691	0.0012
602.2596	0.0025
602.4502	0.0082
602.6407	0.0037
602.8312	0.0048
603.0217	-0.0047
603.2122	0.0044
603.4027	-0.0025
603.5931	0.0031
603.7835	-0.0055
603.9739	0.0019
604.1643	-0.0064
604.3547	-0.0098
604.5451	-0.0033
604.7354	-0.0112
604.9257	0.0056
605.116	-0.0079
605.3063	0.003
605.4966	0.0037
605.6869	0.0014
605.8771	0.0072
606.0673	-0.001
606.2575	0.0088
606.4477	0.0041
606.6379	0.0055
606.8281	0.0029
607.0182	-0.0014
607.2083	0.008
607.3985	-0.0012
607.5885	-0.0003
607.7786	0.0048
607.9687	-0.0109
608.1587	0.0049
608.3488	0.0019
608.5388	-0.0028
608.7288	0.0021
608.9187	-0
609.1087	-0.0037
609.2986	-0.0025
609.4886	0.0026
609.6785	-0.0024
609.8684	0.0107
610.0582	0.0033
610.2481	0.0064
610.4379	-0.0041
610.6278	-0.0023
610.8176	-0.0016
611.0074	-0.0018
611.1971	-0.0005
611.3869	-0.0011
611.5766	-0.0051
611.7664	0.0013
611.9561	0.0059
612.1458	0.0076
612.3354	-0.0017
612.5251	-0.0039
612.7147	0.0089
612.9044	0.0051
613.094	-0.0069
613.2836	0.0021
613.4731	-0.0072
613.6627	-0.003
613.8522	0.0058
614.0417	0.0033
614.2313	0.0003
614.4207	-0.0022
614.6102	0.0013
614.7997	0.0018
614.9891	0.0014
615.1785	-0.0034
615.3679	0.0025
615.5573	0.0046
615.7467	0.0006
615.9361	0.0009
616.1254	0.0054
616.3147	0.0063
616.504	0.0088
616.6933	0.0118
616.8826	0.0095
617.0718	0.0048
617.2611	0.014
617.4503	-0.0028
617.6395	0.0047
617.8287	0.0069
618.0179	-0.0003
618.207	0.01
618.3961	0.0026
618.5853	0.0067
618.7744	0.0058
618.9634	0.0051
619.1525	0.0038
619.3416	0.0039
619.5306	0.0036
619.7196	0.0026
619.9086	-0.0014
620.0976	0.0033
620.2866	0.0005
620.4755	0.0082
620.6645	0.0087
620.8534	0.0009
621.0423	0.0108
621.2312	0.0106
621.42	0.0011
621.6089	-0.0002
621.7977	0.008
621.9865	0.0007
622.1753	0.0101
622.3641	-0.0042
622.5529	0.0074
622.7416	0.0063
622.9303	-0.0032
623.1191	0.0061
623.3078	-0.006
623.4964	0.0019
623.6851	0.0007
623.8737	0.0047
624.0624	0.0027
624.251	0.002
624.4396	0.0018
624.6282	-0.005
624.8167	0.0024
625.0053	0.0056
625.1938	0.0023
625.3823	0.0052
625.5708	-0.0008
625.7593	-0.0045
625.9477	-0.0011
626.1362	-0.0049
626.3246	0.0065
626.513	0.0044
626.7014	0.0076
626.8898	0.0049
627.0781	-0.0016
627.2665	0.0021
627.4548	0.007
627.6431	0.0125
627.8314	0.0063
628.0197	0.0114
628.2079	-0.0037
628.3962	-0.0014
628.5844	0.0032
628.7726	0.0101
628.9608	0.0117
629.1489	0.0004
629.3371	0.0024
629.5252	-0.0059
629.7134	0.0061
629.9015	0.003
630.0895	0.0009
630.2776	0.007
630.4657	0.0016
630.6537	0.0016
630.8417	0.0036
631.0297	-0.004
631.2177	0.0018
631.4057	-0.0072
631.5936	-0.0026
631.7815	0.0036
631.9695	0.005
632.1574	0.0028
632.3452	0.0147
632.5331	0.0021
632.7209	-0.0001
632.9088	0.0069
633.0966	0.0065
633.2844	0.0017
633.4722	-0.0008
633.6599	0.0086
633.8477	0.0061
634.0354	0.005
634.2231	0.003
634.4108	0.0049
634.5985	0.0085
634.7861	0.0041
634.9738	0.0063
635.1614	0.0052
635.349	0.0004
635.5366	0.0064
635.7242	0.0035
635.9117	0.0085
636.0993	0.0043
636.2868	0.0059
636.4743	0.0016
636.6618	0.016
636.8492	0.0128
637.0367	0.011
637.2241	0.0061
637.4115	-0.0084
637.5989	0.0022
637.7863	0.0005
637.9737	0.0066
638.161	0.0068
638.3484	0.0005
638.5357	0.0071
638.723	-0.0007
638.9103	0.0092
639.0975	0.0026
639.2848	0.007
639.472	0.0031
639.6592	0.0033
639.8464	0.0114
640.0336	0.0076
640.2208	-0.0018
640.4079	-0.0072
640.595	0.0008
640.7821	0.0008
640.9692	-0.0049
641.1563	0.0022
641.3434	0.0064
641.5304	0.0018
641.7174	0.0007
641.9044	-0.0004
642.0914	0.0071
642.2784	0.0115
642.4653	0.0085
642.6523	0.0051
642.8392	0.0049
643.0261	0.0108
643.213	0.0071
643.3999	0.0004
643.5867	-0.0077
643.7735	0.0038
643.9604	-0.0039
644.1472	0.0096
644.3339	0.0084
644.5207	0.0038
644.7075	-0.0001
644.8942	0.0086
645.0809	0.0087
645.2676	0.0105
645.4543	0.0059
645.6409	0.0097
645.8276	-0.0064
646.0142	0.0074
646.2008	0.0038
646.3874	-0.0085
646.574	0.0037
646.7605	-0.0036
646.9471	-0.0146
647.1336	0.0032
647.3201	-0.0063
647.5066	-0.0045
647.6931	0.0028
647.8795	-0.0033
648.0659	0.0087
648.2524	0.0089
648.4388	-0.0004
648.6252	-0.0031
648.8115	0.0014
648.9979	-0.0006
649.1842	0.0016
649.3705	-0.0035
649.5568	0.0062
649.7431	0.0142
649.9294	0.0086
650.1156	0.0031
650.3018	0.0008
650.488	0.0029
650.6742	0.0116
650.8604	0.0048
651.0466	-0.0057
651.2327	0.0077
651.4188	0.0105
651.6049	-0.0045
651.791	0.0076
651.9771	0.0102
652.1632	0.0141
652.3492	0.006
652.5352	0.0055
652.7212	-0.0007
652.9072	0.0057
653.0932	0.0001
653.2791	0.0029
653.465	0.0046
653.651	-0.007
653.8369	0.001
654.0227	0.0035
654.2086	0.004
654.3944	0.0112
654.5803	0.0025
654.7661	-0.0035
654.9519	0.0063
655.1377	-0.004
655.3234	-0.0005
655.5092	-0.0049
655.6949	-0.0076
655.8806	-0.009
656.0663	-0.0024
656.2519	-0.0051
656.4376	-0.0038
656.6232	0.0092
656.8088	0.0038
656.9945	0.0015
657.18	0.0009
657.3656	0.0012
657.5511	-0.0009
657.7367	-0.0012
657.9222	0.0083
658.1077	-0.0014
658.2932	0.0046
658.4786	-0.0029
658.6641	0.0008
658.8495	0.0001
659.0349	0.0001
659.2203	0.0024
659.4057	0.0048
659.591	0.0043
659.7764	0.0015
659.9617	0.006
660.147	0.012
660.3323	-0.0003
660.5176	0.0069
660.7028	0.0126
660.888	0.0027
661.0733	0.0062
661.2585	0.0017
661.4436	0.0079
661.6288	0.005
661.8139	0.002
661.9991	0.0072
662.1842	0.0032
662.3693	0.0085
662.5544	-0.0022
662.7394	-0.0002
662.9245	0.0057
663.1095	-0.0066
663.2945	-0.0011
663.4795	-0.0037
663.6644	0.0047
663.8494	0.0034
664.0343	0.0036
664.2193	0.0004
664.4042	0.0024
664.589	-0.0064
664.7739	-0.0018
664.9587	-0.005
665.1436	-0.0025
665.3284	0.0042
665.5132	-0.005
665.698	-0.0028
665.8827	0.0014
666.0675	0.0024
666.2522	-0.0108
666.4369	0.0079
666.6216	0.0042
666.8063	0.0006
666.9909	0.0031
667.1756	0.0006
667.3602	0.0035
667.5448	0.0038
667.7294	0.0131
667.9139	0.0051
668.0985	0.0151
668.283	-0.0017
668.4675	0.0072
668.652	0.0065
668.8365	0.0045
669.0209	0.0124
669.2054	0.0159
669.3898	0.0024
669.5742	0.0101
669.7586	0.0082
669.943	0.0133
670.1273	0.0117
670.3117	0.0115
670.496	0.0051
670.6803	0.0179
670.8646	-0.001
671.0488	0.003
671.2331	0.0072
671.4173	0.0032
671.6015	0.0001
671.7857	0.0124
671.9699	0.0116
672.1541	0.004
672.3382	0.0036
672.5223	0.0088
672.7064	0.0029
672.8905	0.0076
673.0746	0.0053
673.2587	-0.0029
673.4427	0.0047
673.6267	0.0043
673.8107	0.0065
673.9947	0.0042
674.1787	0.0028
674.3626	-0.0056
674.5465	0.0006
674.7304	0.0116
674.9143	0.0029
675.0982	0.0114
675.2821	-0.0031
675.4659	0.0157
675.6497	0.0032
675.8335	0.0036
676.0173	0.0001
676.2011	0.0072
676.3849	0.0015
676.5686	-0.0011
676.7523	0.0043
676.936	0.0037
677.1197	0.0039
677.3034	0.0036
677.487	0.0077
677.6706	0.0064
677.8542	0.0002
678.0378	0.0028
678.2214	0.0043
678.405	0.0073
678.5885	-0.0062
678.772	0.0014
678.9555	-0.0098
679.139	-0.0006
679.3225	0.002
679.5059	0.001
679.6894	0.0063
679.8728	-0.0007
680.0562	0.0001
680.2395	-0.004
680.4229	0.0014
680.6062	0.0077
680.7896	-0.0008
680.9729	-0.0081
681.1562	-0.0016
681.3394	-0.001
681.5227	-0.0075
681.7059	0.0033
681.8891	-0.0036
682.0723	0.0043
682.2555	0.0065
682.4387	-0.0031
682.6218	-0.0024
682.805	0.0097
682.9881	0.0081
683.1712	0.0057
683.3542	0.008
683.5373	0.005
683.7203	-0.0054
683.9034	0.006
684.0864	-0.0034
684.2694	-0.0066
684.4523	0.0079
684.6353	-0.0031
684.8182	0.0038
685.0011	-0.0066
685.184	-0.002
685.3669	-0.0028
685.5498	0.0002
685.7326	0.0017
685.9154	-0.0003
686.0982	0.0117
686.281	0.0134
686.4638	0.0075
686.6465	-0.0046
686.8293	0.0023
687.012	0.003
687.1947	-0.0159
687.3774	0.0006
687.56	-0.0042
687.7427	0.0038
687.9253	0.0014
688.1079	0.0079
688.2905	0.0105
688.4731	0.0038
688.6556	0.0015
688.8382	-0.001
689.0207	0.007
689.2032	-0.0091
689.3857	-0.0077
689.5681	-0.0047
689.7506	-0.0051
689.933	-0.0045
690.1154	-0.003
690.2978	-0.0024
690.4802	0.0023
690.6626	-0.0108
690.8449	-0.0097
691.0272	0.0078
691.2095	-0.0088
691.3918	0.0023
691.5741	-0.002
691.7563	-0.0015
691.9386	0.0089
692.1208	-0.0044
692.303	0.0059
692.4852	-0.0062
692.6673	0.002
692.8495	-0.0009
693.0316	0.0017
693.2137	0.0016
693.3958	0.0068
693.5778	-0.0008
693.7599	-0.0014
693.9419	0.0018
694.1239	0.0056
694.3059	-0.0029
694.4879	0.0079
694.6699	0.0042
694.8518	0.0033
695.0337	0.0029
695.2157	0.0067
695.3975	-0.0006
695.5794	0.0033
695.7613	0.0075
695.9431	0.0013
696.1249	0.0002
696.3067	0.0065
696.4885	0.0055
696.6703	-0.0024
696.852	0.0035
697.0337	0.0041
697.2154	0.0052
697.3971	0.0106
697.5788	0.0051
697.7605	0.0036
697.9421	0.0096
698.1237	0.0114
698.3053	0.0007
698.4869	0.0034
698.6685	-0.0078
698.85	0.0025
699.0315	0.0112
699.213	-0.003
699.3945	0.0048
699.576	0.0049
699.7575	0.0082
699.9389	0.0095
700.1203	-0.0031
700.3017	-0.0022
700.4831	-0.0033
700.6645	-0
700.8458	0.0089
701.0271	-0.0007
701.2084	0.0098
701.3897	0.0006
701.571	0.008
701.7523	0.0013
701.9335	0.0011
702.1147	0.002
702.2959	-0.0013
702.4771	0.0039
702.6583	0.0001
702.8394	-0.003
703.0205	0.0034
703.2016	-0.0012
703.3827	-0.0092
703.5638	0.0088
703.7449	0.0006
703.9259	0.0039
704.1069	-0.0007
704.2879	0
704.4689	-0.0028
704.6499	0.0023
704.8308	0.0033
705.0117	-0.0038
705.1927	0.0058
705.3735	0.0054
705.5544	-0.0079
705.7353	0.0017
705.9161	-0.0086
706.0969	0.0018
706.2777	0.0039
706.4585	-0.0053
706.6393	-0.0033
706.82	-0.003
707.0007	0.0042
707.1815	0.0015
707.3621	0.0065
707.5428	-0.0012
707.7235	0.0029
707.9041	0.0007
708.0847	-0.0126
708.2653	-0.0084
708.4459	-0.0157
708.6265	-0.0019
708.807	0.0001
708.9875	-0.003
709.168	-0.004
709.3485	-0.0076
709.529	-0.0097
709.7095	-0.0194
709.8899	-0.0033
710.0703	-0.0106
710.2507	-0.0006
710.4311	-0.0024
710.6115	-0.0093
710.7918	-0.0055
710.9721	0.002
711.1524	-0.0152
711.3327	-0.0031
711.513	-0.0005
711.6932	0.0046
711.8735	0.0075
712.0537	0.0023
712.2339	-0.0006
712.4141	-0.01
712.5942	-0.0041
712.7744	0.0034
712.9545	-0.0106
713.1346	-0.0016
713.3147	-0.0008
713.4947	-0.0015
713.6748	-0.0026
713.8548	-0.0011
714.0348	-0.0026
714.2148	-0.008
714.3948	0.0056
714.5748	-0.0072
714.7547	-0.0017
714.9346	0.0067
715.1145	-0.0123
715.2944	-0.0063
715.4743	-0.006
715.6541	-0.0043
715.834	0.0026
716.0138	-0.006
716.1936	-0.0045
716.3733	-0.0067
716.5531	0.0098
716.7328	-0.0038
716.9126	0.0029
717.0923	0.003
717.2719	-0.001
717.4516	-0.0004
717.6312	-0.0037
717.8109	-0.0069
717.9905	0.0029
718.1701	-0.011
718.3496	-0.0096
718.5292	-0.0042
718.7087	0.0008
718.8882	0.0006
719.0677	0.0014
719.2472	-0.0025
719.4267	0.001
719.6061	0.001
719.7856	0.0065
719.965	0.0081
720.1443	0.0019
720.3237	0.0109
720.5031	0.0071
720.6824	0.0125
720.8617	-0.0032
721.041	0.0048
721.2203	0.0189
721.3995	0.0005
721.5788	0.004
721.758	0.0114
721.9372	-0.0012
722.1164	0.0066
722.2956	0.0045
722.4747	0.0004
722.6538	-0.0068
722.8329	0.0088
723.012	0.0105
723.1911	-0.0077
723.3702	-0.0023
723.5492	0.0041
723.7282	-0.0003
723.9072	-0.0006
724.0862	0.0039
724.2652	0.0029
724.4441	-0.0033
724.623	-0.0008
724.8019	-0.0007
724.9808	0.0101
725.1597	-0.0044
725.3385	-0.0008
725.5174	0.003
725.6962	0.005
725.875	0.0003
726.0538	0.0012
726.2325	-0.0026
726.4112	0.0009
726.59	-0.0088
726.7687	-0.0056
726.9474	0.0029
727.126	0.0055
727.3047	0.0008
727.4833	0
727.6619	0.0038
727.8405	-0.001
728.0191	0.0026
728.1976	0.0026
728.3762	-0.0003
728.5547	0.0042
728.7332	-0.0178
728.9116	0.002
729.0901	0.0171
729.2686	-0.0007
729.447	0.0012
729.6254	-0.0043
729.8038	0.0096
729.9821	-0.0055
730.1605	0.0074
730.3388	0.0053
730.5171	0.007
730.6954	-0.0036
730.8737	0.0026
731.0519	0.0074
731.2302	0.0021
731.4084	0.0087
731.5866	0.0055
731.7648	0.0024
731.9429	0.0022
732.1211	-0.0105
732.2992	0.0011
732.4773	-0.0028
732.6554	-0.0018
732.8335	-0.0017
733.0115	-0.0011
733.1896	0.0016
733.3676	-0.0035
733.5456	0.0092
733.7235	0.0029
733.9015	-0.0056
734.0794	-0.002
734.2574	-0.0014
734.4353	0.004
734.6131	0.0097
734.791	0.0032
734.9689	0.0082
735.1467	0.001
735.3245	0.0054
735.5023	-0.0049
735.68	-0.0035
735.8578	0.0197
736.0355	-0.0169
736.2132	0.0054
736.3909	-0.0044
736.5686	-0.0045
736.7463	0.0006
736.9239	0.0007
737.1015	0.0002
737.2791	0.0095
737.4567	0.0051
737.6343	0.0013
737.8118	0.0038
737.9894	0.0099
738.1669	-0.0053
738.3444	-0.0038
738.5218	0.0003
738.6993	0.0038
738.8767	0.0062
739.0541	0.0121
739.2315	-0.0084
739.4089	-0.0055
739.5863	0.0103
739.7636	-0.003
739.9409	-0.0011
740.1182	0.0107
740.2955	0.0019
740.4728	-0.0003
740.65	0.0028
740.8272	-0.006
741.0044	-0.0146
741.1816	0.006
741.3588	0.0028
741.5359	0.0038
741.7131	-0.0041
741.8902	0.0034
742.0673	-0.0053
742.2444	-0.0064
742.4214	-0.0089
742.5985	-0.0042
742.7755	-0.005
742.9525	-0.011
743.1295	0.0037
743.3064	0.0056
743.4834	0.0167
743.6603	-0.0011
743.8372	0.0002
744.0141	0.0061
744.191	0.0066
744.3678	0.001
744.5446	0.001
744.7215	0.0078
744.8982	-0.0037
745.075	-0.0041
745.2518	0.0082
745.4285	0.0088
745.6052	-0.0004
745.7819	0.0026
745.9586	-0.0082
746.1353	0.0018
746.3119	-0.0028
746.4885	0.0009
746.6651	-0.0076
746.8417	-0.0028
747.0183	-0.0049
747.1948	-0.0006
747.3714	0.0021
747.5479	0.0035
747.7244	-0.0077
747.9008	0.0056
748.0773	0.0005
748.2537	-0.0109
748.4301	-0.0083
748.6065	-0.0045
748.7829	0.003
748.9593	-0.008
749.1356	0.0046
749.3119	0.0079
749.4882	-0.0044
749.6645	0.0086
749.8408	0.0002
750.017	-0.007
750.1933	-0.0014
750.3695	-0.0065
750.5457	0.0113
750.7218	0.0015
750.898	0.0007
751.0741	-0.0057
751.2502	0.0012
751.4263	-0.004
751.6024	0.0026
751.7784	-0.0041
751.9545	-0.0107
752.1305	0.0001
752.3065	-0.0082
752.4825	0.0121
752.6584	-0.004
752.8344	-0.0001
753.0103	-0.0076
753.1862	-0.0047
753.3621	0.0056
753.5379	0.0014
753.7138	-0.0051
753.8896	-0.0035
754.0654	0.006
754.2412	0.0099
754.417	-0.0013
754.5927	-0.0008
754.7685	0.0031
754.9442	0.0014
755.1199	0.014
755.2956	0.0005
755.4712	0.0033
755.6469	0.0004
755.8225	0.0034
755.9981	-0.0024
756.1736	0.008
756.3492	0.0004
756.5248	-0.0044
756.7003	0.0012
756.8758	0.0148
757.0513	-0.0115
757.2267	0.0013
757.4022	0.0063
757.5776	-0.0095
757.753	0.0026
757.9284	0.0019
758.1038	0.0122
758.2791	0.0064
758.4545	-0.009
758.6298	0.0082
758.8051	0.0042
758.9803	0.0017
759.1556	0.0044
759.3308	-0.0069
759.506	0.0114
759.6812	0.0044
759.8564	0.0033
760.0316	0.0028
760.2067	0.0164
760.3819	0.0132
760.557	0.0151
760.732	0.0049
760.9071	0.0038
761.0821	0.0033
761.2572	0.0125
761.4322	0.0033
761.6072	-0.0018
761.7821	-0.0018
761.9571	0.0077
762.132	0.0012
762.3069	-0.0085
762.4818	-0.0091
762.6567	0.0009
762.8316	0.0003
763.0064	0.0033
763.1812	0.0031
763.356	-0.0112
763.5308	-0.0132
763.7055	-0.0024
763.8803	-0.007
764.055	0.0028
764.2297	0.0039
764.4044	-0.0117
764.579	-0.005
764.7537	-0.0182
764.9283	-0.0037
765.1029	-0.0002
765.2775	-0.0042
765.4521	-0.0129
765.6266	0.0006
765.8011	-0.0072
765.9756	-0.0093
766.1501	0.0023
766.3246	-0.0044
766.4991	-0.0017
766.6735	0.0059
766.8479	0.001
767.0223	0.0139
767.1967	0.0075
767.371	0.0021
767.5454	-0.0024
767.7197	0.0058
767.894	0.005
768.0683	-0.0033
768.2425	0.0011
768.4168	0.0079
768.591	0.007
768.7652	0.0046
768.9394	0.0073
769.1135	0.006
769.2877	0.0078
769.4618	0.0026
769.6359	0.0013
769.81	-0.0001
769.984	-0.0012
770.1581	-0.0064
770.3321	-0.0002
770.5061	-0.0074
770.6801	-0.0217
770.8541	-0.006
771.028	-0.0001
771.202	-0.01
771.3759	0.0045
771.5498	-0.0093
771.7236	0.0009
771.8975	0.0007
772.0713	0.0128
772.2451	0.0026
772.4189	-0.005
772.5927	0.0103
772.7665	0.0003
772.9402	0.0008
773.1139	0.0016
773.2876	-0.0069
773.4613	0.01
773.635	0.0021
773.8086	-0.0088
773.9822	-0.0042
774.1558	0.0119
774.3294	-0.0141
774.503	0.0036
774.6765	0.0063
774.8501	0.004
775.0236	-0.006
775.1971	0.0142
775.3705	-0.0125
775.544	-0.0017
775.7174	-0.0053
775.8908	-0.0053
776.0642	-0.0078
776.2376	-0.0016
776.4109	-0.0046
776.5843	0.0071
776.7576	-0.0034
776.9309	0.0031
777.1041	0.007
777.2774	0.004
777.4506	0.0039
777.6238	-0.0117
777.797	0.0011
777.9702	-0.0089
778.1434	0.0078
778.3165	-0.0151
778.4896	-0.0112
778.6627	0.0071
778.8358	0.0019
779.0089	-0.0118
779.1819	-0.0028
779.3549	0.0014
779.5279	0.0068
779.7009	-0.005
779.8739	0.0056
780.0468	0.0036
780.2197	-0.0066
780.3926	0.0017
780.5655	0.0166
780.7384	-0.0015
780.9112	-0.0089
781.0841	-0.0036
781.2569	0.0112
781.4297	0.0125
781.6024	0.0048
781.7752	0.0131
781.9479	0.0001
782.1206	0.0076
782.2933	-0.0108
782.466	0.0062
782.6386	0.0106
782.8113	0.0017
782.9839	0.0058
783.1565	0.0115
783.329	0.0002
783.5016	0.0087
783.6741	0.0012
783.8466	0.0014
784.0191	0.0164
784.1916	-0.0001
784.3641	0.0007
784.5365	-0.0021
784.7089	0.003
784.8813	-0.0033
785.0537	-0.0015
785.2261	-0.0147
785.3984	-0.0096
785.5707	-0.0032
785.743	-0.0078
785.9153	-0.0154
786.0876	0.0091
786.2598	-0.0086
786.432	-0.0116
786.6042	-0.0056
786.7764	-0.001
786.9486	-0.0022
787.1207	-0.015
787.2928	0.0124
787.4649	0.0035
787.637	0.0058
787.8091	-0.0093
787.9811	-0.0068
788.1532	0.0059
788.3252	0.0003
788.4972	-0.0113
788.6691	0.0127
788.8411	-0.0094
789.013	-0.0183
789.1849	-0.0087
789.3568	-0.0016
789.5287	-0.0073
789.7005	0.0006
789.8723	0.0012
790.0442	0.0126
790.2159	0.0077
790.3877	0.0023
790.5595	-0.0249
790.7312	0.0002
790.9029	0.008
791.0746	-0.0118
791.2463	-0.0127
791.4179	-0.0125
791.5896	-0.0144
791.7612	-0.0032
791.9328	0.0013
792.1044	-0.0107
792.2759	-0.0149
792.4474	-0.0189
792.619	0.0018
792.7905	0.0014
792.9619	-0.0028
793.1334	0.0072
793.3048	0.0136
793.4762	0.0114
793.6476	0.0058
793.819	0.0061
793.9904	-0.0042
794.1617	-0.0014
794.333	-0.0102
794.5043	-0.0096
794.6756	-0.0042
794.8469	0.0031
795.0181	0.004
795.1893	-0.0023
795.3605	0.0178
795.5317	-0.001
795.7029	-0.0073
795.874	0.0095
796.0452	-0.0048
796.2163	-0.0022
796.3873	0.0081
796.5584	0.0151
796.7294	-0.0079
796.9005	0.0058
797.0715	-0.0038
797.2425	-0.018
797.4134	-0.0031
797.5844	0.0013
797.7553	-0.0037
797.9262	-0.0072
798.0971	-0.029
798.2679	-0.0241
798.4388	-0.0146
798.6096	-0.0196
798.7804	0.0074
798.9512	0.0004
799.122	-0.0032
799.2927	-0.0045
799.4635	0.0155
799.6342	-0.0195
799.8049	-0.0061
799.9755	0.0052
800.1462	0.0033
800.3168	0.0074
800.4874	0.0024
800.658	0.0316
800.8286	0.029
800.9991	0.0022
801.1696	0.0063
801.3402	0.0107
801.5106	-0.0088
801.6811	0.023
801.8516	0.0126
802.022	-0.0083
802.1924	0.0019
802.3628	0.0051
802.5332	0.0045
802.7035	0.0149
802.8739	0.0069
803.0442	-0.0058
803.2145	-0.0006
803.3847	-0.0216
803.555	0.0073
803.7252	-0.005
803.8954	-0.0053
804.0656	-0.0148
804.2358	-0.0026
804.4059	0.0172
804.5761	0.0052
804.7462	0.0069
804.9163	-0.0049
805.0864	-0.0161
805.2564	-0.0272
805.4264	-0.0046
805.5965	-0.0153
805.7665	-0.0019
805.9364	0.0036
806.1064	0.0201
806.2763	0.005
806.4462	0.0234
806.6161	-0.0049
806.786	0.018
806.9559	-0.0182
807.1257	0.0085
807.2955	0.0053
807.4653	0.0014
807.6351	-0.0075
807.8048	-0.0111
807.9746	0.0231
808.1443	0.0023
808.314	-0.0033
808.4837	-0.0136
808.6533	0.0065
808.8229	0.0257
808.9926	0.0035
809.1622	0.0024
809.3317	0.0033
809.5013	0.0071
809.6708	0.0197
809.8403	0.0146
810.0098	0.0113
810.1793	0.0108
810.3488	0.0074
810.5182	-0.0139
810.6876	0.0207
810.857	-0.0018
811.0264	0.0301
811.1958	0.0057
811.3651	0.0048
811.5344	0.004
811.7037	-0.0157
811.873	-0.0313
812.0422	-0.0062
812.2115	0.0017
812.3807	-0.0093
812.5499	0.0003
812.7191	-0.0061
812.8882	-0.0075
813.0574	-0.013
813.2265	0.0011
813.3956	-0.0008
813.5646	0.002
813.7337	-0.0209
813.9027	0.0163
814.0718	0.0177
814.2407	0.012
814.4097	-0.0217
814.5787	-0.0314
814.7476	-0.0106
814.9165	0.0068
815.0854	-0.0096
815.2543	-0.0065
815.4232	-0.0074
815.592	0.0059
815.7608	0.0093
815.9296	0.0027
816.0984	0.0307
816.2671	0.0148
816.4359	-0.0015
816.6046	0.016
816.7733	-0.0141
816.942	-0.0009
817.1106	0.0254
817.2793	0.0163
817.4479	-0.0226
817.6165	-0.0102
817.785	-0.0203
817.9536	-0.0129
818.1221	-0.0092
818.2906	0.0154
818.4591	-0.0179
818.6276	-0.006
818.7961	0.0228
818.9645	0.0017
819.1329	0.0105
819.3013	0.0107
819.4697	0.0373
819.638	0.0175
819.8064	0.0271
819.9747	0.0251
820.143	-0.0106
820.3113	0.013
820.4795	0.0135
820.6477	0.0098
820.816	0.015
820.9842	0.0177
821.1523	-0.0081
821.3205	-0.0035
821.4886	-0.0075
821.6567	0.0153
821.8248	0.013
821.9929	0.018
822.1609	-0.0081
822.329	0.0339
822.497	-0.0027
822.665	-0.0066
822.833	-0.0095
823.0009	0.0192
823.1688	-0.0092
823.3367	0.0097
823.5046	0.0008
823.6725	0.0565
823.8404	0.0056
824.0082	0.0128
824.176	0.0186
824.3438	0.0213
824.5116	0.0022
824.6793	0.0185
824.847	0.003
825.0147	-0.0208
825.1824	0.0259
825.3501	0.0257
825.5177	-0.0057
825.6854	-0.0093
825.853	-0.0008
826.0206	-0.0244
826.1881	0.0101
826.3557	-0.0097
826.5232	0.0088
826.6907	-0.0261
826.8582	-0.0185
827.0257	-0.0082
827.1931	0.0083
827.3605	-0.0093
827.528	0.01
827.6953	-0.0124
827.8627	0.0211
828.03	0.0068
828.1974	-0.0133
828.3647	-0.0161
828.532	-0.0121
828.6992	-0.0225
828.8665	0.0231
829.0337	-0.0235
829.2009	0.0284
829.3681	-0.0035
829.5352	0.0062
829.7024	-0.0385
829.8695	0.0063
830.0366	0.0466
830.2037	-0.008
830.3707	0.0157
830.5378	-0.011
830.7048	0.0224
830.8718	-0.0064
831.0388	-0.0118
831.2057	0.0192
831.3727	0.0438
831.5396	-0.0258
831.7065	-0.0151
831.8734	0.0194
832.0402	-0.0011
832.2071	-0.0351
832.3739	-0.0345
832.5407	0.0343
832.7075	-0.0055
832.8742	-0.0272
833.041	-0.0232
833.2077	-0.0254
833.3744	0.0281
833.541	0.0037
833.7077	-0.0242
833.8743	-0.0005
834.0409	-0.0096
834.2075	-0.0136
834.3741	-0.0273
834.5407	-0.0216
834.7072	-0.0173
834.8737	-0.0398
835.0402	-0.0066
835.2067	-0.0024
835.3731	0.0246
835.5395	0.0033
835.706	0.04
835.8723	-0.0084
836.0387	0.009
836.2051	-0.002
836.3714	0.0154
836.5377	-0.0081
836.704	-0.0478
836.8703	-0.0135
837.0365	-0.0071
837.2027	0.0187
837.3689	0.0165
837.5351	-0.0554
837.7013	-0.0601
837.8674	0.0037
838.0335	-0.0272
838.1997	0.0075
838.3657	-0.037
838.5318	0.0249
838.6978	0.0432
838.8639	0.0488
839.0299	-0.0143
839.1958	0.0301
839.3618	0.0221
839.5277	-0.0312
839.6937	0.0119
839.8596	-0.0228
840.0254	0.0001
840.1913	0.05
840.3571	0.0367
840.523	-0.0541
840.6888	-0.011
840.8545	-0.0178
841.0203	-0.0212
841.186	0.0221
841.3517	0.0129
841.5174	-0.0042
841.6831	-0.0412
841.8488	0.0367
842.0144	-0.0433
842.18	0.0146
842.3456	0.0353
842.5112	-0.0079
842.6767	-0.0302
842.8422	-0.0227
843.0077	-0.0475
843.1732	-0.0409
843.3387	0.0152
843.5042	-0.041
843.6696	0.0514
843.835	-0.0517
844.0004	0.0324
844.1657	0.0335
844.3311	-0.0286
844.4964	-0.1011
844.6617	-0.0289
844.827	-0.0033
844.9923	-0.001
845.1575	0.005
845.3227	0.0276
845.4879	-0.0164
845.6531	-0.0419
845.8183	-0.0254
845.9834	-0.0205
846.1485	0.018
846.3136	-0.0172
846.4787	-0.1507
846.6438	0.0235
846.8088	-0.0401
846.9738	-0.0682
847.1388	-0.0297
847.3038	0.0141
847.4687	-0.1489
847.6337	0.0067
847.7986	0.0137
847.9635	0.0245
848.1284	0.0043
848.2932	0.0476
848.458	-0.0131
848.6228	0.0409
848.7876	0.043
848.9524	-0.0637
849.1172	-0.0236
849.2819	-0.0281
849.4466	-0.0305
849.6113	-0.0715
849.7759	-0.0611
849.9406	-0.0198
850.1052	-0.0061
850.2698	-0.0712
850.4344	-0.0282
850.599	-0.0558
850.7635	0.0099
850.928	-0.0654
851.0925	-0.0276
851.257	0.0392
851.4215	0.0172
851.5859	0.0048
851.7503	0.0096
851.9147	0.0854
852.0791	-0.082
852.2434	0.0591
852.4078	0.1175
852.5721	0.0303
852.7364	-0.0744
852.9007	-0.1902
853.0649	-0.0132
853.2291	0.0004
853.3934	-0.0947
853.5575	0.0291
853.7217	-0.0685
853.8859	-0.0532
854.05	-0.0657
854.2141	0.0328
854.3782	-0.0628
854.5423	-0.131
854.7063	0.0827
854.8703	0.151
855.0343	-0.1406
855.1983	-0.1511
855.3623	0.1624
855.5262	0.072
855.6901	-0.0325
855.854	0.0795
856.0179	0.0967
856.1818	-0.0167
856.3456	0.0471
856.5094	-0.106
856.6732	0.0524
856.837	-0.0731
857.0008	0.0609
857.1645	-0.0401
857.3282	-0.1429
857.4919	0.007
857.6556	-0.0812
857.8192	-0.0281
857.9828	0.0359
858.1465	0.1065
858.31	-0.2104
858.4736	-0.0536
858.6372	0.0168
858.8007	-0.0859
858.9642	-0.0468
859.1277	0.2791
859.2911	0.3611
859.4546	0.024
859.618	-0.3854
859.7814	0.1155
859.9448	0.1434
860.1081	-0.1681
860.2715	0.0465
860.4348	0.0939
860.5981	-0.1218
860.7614	0.2514
860.9246	0.0774
861.0879	-0.1399
861.2511	0.0742
861.4143	-0.2605
861.5774	0.2912
861.7406	-0.1429
861.9037	0.0558
862.0668	0.0147
862.2299	-0.2206
862.393	-0.4133
862.556	-0.0767
862.7191	-0.3329
862.8821	0.1592
863.0451	-0.036
863.208	0.4157
863.371	0.1424
863.5339	-0.2245
863.6968	0.1002
863.8597	0.7366
864.0225	-0.1771
864.1854	-0.295
864.3482	-0.0215
864.511	0.2405
864.6737	0.1974
864.8365	-0.0742
864.9992	-0
865.1619	-0.0441
865.3246	-0.3129
865.4873	-0.1375
865.65	-0.2315
865.8126	-0.0142
865.9752	0.2605
866.1378	-0.2678
866.3004	0.5906
866.4629	0.4025
866.6254	0.0924
866.7879	-0.1233
866.9504	-0.5287
867.1129	-0
867.2753	-0.1203
867.4377	0.3518
867.6001	-0.4352
867.7625	0.5148
867.9249	-0.5504
868.0872	-0.1508
868.2495	-0.0282
868.4118	0.0184
868.5741	-0.483
868.7363	-0.2594
868.8986	-0.1721
869.0608	-0.0597
869.223	0.0427
869.3851	0.2811
869.5473	0.862
869.7094	0.3913
869.8715	1.0852
870.0336	-0
870.1957	-0.4242
870.3577	-0
870.5197	0.0377
870.6817	-0.3904
870.8437	0.0816
871.0057	-0
871.1676	-0
871.3295	-0.4966
871.4914	-0.5199
871.6533	-0.4188
871.8151	-0.2385
871.977	-0
872.1388	-0
872.3006	-0.5351
872.4623	-0
872.6241	0.5049
872.7858	0.3613
872.9475	0.3166
873.1092	-0.2387
873.2709	-0
873.4325	-0.2173
873.5941	-0
873.7557	-0.1534
873.9173	-0
874.0789	-0.0982
874.2404	-0
874.4019	0.0602
874.5634	-0.1385
874.7249	-0.1045
874.8863	0.479
875.0478	-0
875.2092	-0.5945
875.3706	0.469
875.5319	-0.8888
875.6933	0.0798
875.8546	-0.3195
876.0159	-0
876.1772	-0.0964
876.3385	-0
876.4997	0.7731
876.6609	0.0494
876.8221	-0.4424
876.9833	-0
877.1445	-0
877.3056	0.2845
877.4667	-0.1633
877.6278	-0
877.7889	-0.5563
877.9499	-0
878.111	-0
878.272	-1.4089
878.433	-0
878.5939	0.7109
878.7549	0.3279
878.9158	-0.7639
879.0767	-0
879.2376	0.0695
879.3984	0.6267
879.5593	-0
879.7201	-0.241
879.8809	-0.4699
880.0417	-0.3243
880.2024	0.768
880.3632	-0
880.5239	0.1771
880.6846	-0
880.8452	-0
881.0059	-1.1931
881.1665	0.6512
881.3271	0.1334
881.4877	-0
881.6483	-0.644
881.8088	-0.2541
881.9693	-0
882.1298	-0
882.2903	-0
