Data from D4ACN5uM480nmA_Absorbance_12-08-01-360.txt Node
Date: Fri Feb 21 12:08:01 GMT 2025
User: LASERRRRR
Spectrometer: FLMT03099
Trigger mode: 0
Integration Time (sec): 1.500000E-2
Scans to average: 1
Electric dark correction enabled: true
Nonlinearity correction enabled: false
Boxcar width: 0
XAxis mode: Wavelengths
Number of Pixels in Spectrum: 3648
>>>>>Begin Spectral Data<<<<<
179.3399	0.0344
179.5586	0.0344
179.7771	0.0344
179.9957	0.2851
180.2143	-0.5585
180.4329	-0
180.6514	-0
180.8699	-0
181.0885	-0
181.307	0.0721
181.5255	-0.0787
181.744	-0.3458
181.9625	-0
182.181	0.0595
182.3994	-0
182.6179	-0
182.8363	0.496
183.0547	-0
183.2732	0.2383
183.4916	0.1983
183.71	0.1042
183.9284	0.1301
184.1467	0.1319
184.3651	0.2586
184.5835	0.0935
184.8018	0.5189
185.0201	0.3804
185.2385	-0.0121
185.4568	0.1741
185.6751	0.2047
185.8934	0.2969
186.1117	0.1421
186.3299	0.3257
186.5482	0.3434
186.7664	0.5603
186.9847	0.2762
187.2029	0.415
187.4211	0.1717
187.6393	0.3547
187.8575	-0.0887
188.0757	0.5619
188.2939	0.2355
188.512	0.2966
188.7302	0.0175
188.9483	0.3248
189.1665	0.3856
189.3846	0.3458
189.6027	0.022
189.8208	0.1118
190.0389	0.3466
190.257	0.2946
190.475	0.042
190.6931	0.1898
190.9111	0.3003
191.1292	0.2056
191.3472	0.1806
191.5652	0.5655
191.7832	0.348
192.0012	0.2854
192.2192	0.2631
192.4371	0.2147
192.6551	0.3232
192.873	0.3611
193.091	0.4361
193.3089	0.1373
193.5268	0.3795
193.7447	0.4394
193.9626	0.4124
194.1805	0.3481
194.3984	0.4778
194.6162	0.3166
194.8341	0.4559
195.0519	0.4809
195.2697	0.5663
195.4875	0.5523
195.7054	0.436
195.9231	0.4138
196.1409	0.6642
196.3587	0.4545
196.5765	0.5932
196.7942	0.6185
197.012	0.4356
197.2297	0.5448
197.4474	0.6525
197.6651	0.5099
197.8828	0.6221
198.1005	0.5683
198.3182	0.6423
198.5358	0.5859
198.7535	0.5336
198.9711	0.5925
199.1888	0.636
199.4064	0.5835
199.624	0.5913
199.8416	0.5775
200.0592	0.6443
200.2767	0.557
200.4943	0.6456
200.7119	0.5235
200.9294	0.6288
201.1469	0.557
201.3645	0.6789
201.582	0.5216
201.7995	0.6165
202.017	0.5442
202.2344	0.5548
202.4519	0.5646
202.6694	0.5993
202.8868	0.563
203.1042	0.5349
203.3217	0.5425
203.5391	0.541
203.7565	0.5038
203.9739	0.5171
204.1913	0.5207
204.4086	0.5293
204.626	0.5397
204.8433	0.501
205.0607	0.5503
205.278	0.5131
205.4953	0.4731
205.7126	0.4368
205.9299	0.4223
206.1472	0.4531
206.3644	0.4744
206.5817	0.4881
206.7989	0.4639
207.0162	0.4248
207.2334	0.474
207.4506	0.4551
207.6678	0.4673
207.885	0.4316
208.1022	0.4468
208.3194	0.4202
208.5365	0.4737
208.7537	0.4263
208.9708	0.4671
209.1879	0.401
209.405	0.427
209.6222	0.4264
209.8392	0.4494
210.0563	0.4287
210.2734	0.4205
210.4905	0.4088
210.7075	0.4544
210.9245	0.4255
211.1416	0.406
211.3586	0.412
211.5756	0.4171
211.7926	0.3958
212.0096	0.393
212.2265	0.405
212.4435	0.398
212.6604	0.3848
212.8774	0.401
213.0943	0.4381
213.3112	0.3961
213.5281	0.4083
213.745	0.4036
213.9619	0.3793
214.1788	0.4072
214.3956	0.4181
214.6125	0.3976
214.8293	0.3978
215.0461	0.4097
215.2629	0.3902
215.4798	0.3809
215.6965	0.3987
215.9133	0.3932
216.1301	0.3877
216.3469	0.3944
216.5636	0.4227
216.7803	0.4246
216.9971	0.4253
217.2138	0.4025
217.4305	0.4148
217.6472	0.4054
217.8639	0.4287
218.0805	0.4039
218.2972	0.4175
218.5138	0.4209
218.7305	0.4145
218.9471	0.4097
219.1637	0.4226
219.3803	0.4159
219.5969	0.4275
219.8135	0.4175
220.0301	0.4168
220.2466	0.4356
220.4632	0.4323
220.6797	0.431
220.8962	0.434
221.1127	0.4246
221.3292	0.4145
221.5457	0.4461
221.7622	0.4182
221.9787	0.4234
222.1951	0.4296
222.4116	0.4507
222.628	0.4355
222.8444	0.4306
223.0608	0.4392
223.2772	0.4388
223.4936	0.4422
223.71	0.4353
223.9264	0.459
224.1427	0.4628
224.3591	0.4556
224.5754	0.463
224.7917	0.4522
225.008	0.4556
225.2243	0.475
225.4406	0.4753
225.6569	0.4607
225.8732	0.4693
226.0894	0.4687
226.3057	0.4534
226.5219	0.4557
226.7381	0.4521
226.9543	0.4734
227.1705	0.4804
227.3867	0.4809
227.6029	0.4835
227.8191	0.4862
228.0352	0.4909
228.2513	0.497
228.4675	0.4769
228.6836	0.4963
228.8997	0.4847
229.1158	0.4635
229.3319	0.5029
229.548	0.4906
229.764	0.502
229.9801	0.4985
230.1961	0.5006
230.4121	0.5041
230.6282	0.5146
230.8442	0.5176
231.0602	0.5118
231.2761	0.5153
231.4921	0.515
231.7081	0.5063
231.924	0.5174
232.14	0.5203
232.3559	0.5281
232.5718	0.5234
232.7877	0.5195
233.0036	0.5181
233.2195	0.5276
233.4353	0.5429
233.6512	0.5312
233.867	0.5409
234.0829	0.543
234.2987	0.5308
234.5145	0.5328
234.7303	0.5299
234.9461	0.5319
235.1619	0.53
235.3776	0.5322
235.5934	0.5356
235.8091	0.5273
236.0249	0.5411
236.2406	0.5346
236.4563	0.5419
236.672	0.5391
236.8877	0.5373
237.1034	0.5234
237.319	0.5317
237.5347	0.5169
237.7503	0.5418
237.966	0.5363
238.1816	0.5282
238.3972	0.532
238.6128	0.5341
238.8284	0.5387
239.0439	0.5451
239.2595	0.5279
239.475	0.5403
239.6906	0.5337
239.9061	0.5354
240.1216	0.5327
240.3371	0.5259
240.5526	0.5232
240.7681	0.5289
240.9836	0.518
241.199	0.5168
241.4145	0.4969
241.6299	0.4948
241.8453	0.4957
242.0607	0.4797
242.2761	0.4778
242.4915	0.482
242.7069	0.4753
242.9223	0.4588
243.1376	0.4465
243.353	0.4432
243.5683	0.4471
243.7836	0.4232
243.9989	0.4193
244.2142	0.4085
244.4295	0.416
244.6448	0.3968
244.86	0.3905
245.0753	0.3715
245.2905	0.3873
245.5057	0.366
245.721	0.3564
245.9362	0.3533
246.1514	0.3425
246.3665	0.3447
246.5817	0.3292
246.7969	0.3285
247.012	0.326
247.2271	0.3098
247.4423	0.3099
247.6574	0.3035
247.8725	0.3018
248.0876	0.2966
248.3026	0.2869
248.5177	0.2839
248.7328	0.2781
248.9478	0.2689
249.1628	0.2714
249.3779	0.2644
249.5929	0.261
249.8079	0.2524
250.0228	0.2505
250.2378	0.2575
250.4528	0.2492
250.6677	0.2367
250.8827	0.2378
251.0976	0.2413
251.3125	0.2332
251.5274	0.2356
251.7423	0.2329
251.9572	0.2234
252.172	0.2204
252.3869	0.2192
252.6017	0.215
252.8166	0.2184
253.0314	0.2227
253.2462	0.2122
253.461	0.2135
253.6758	0.2073
253.8906	0.204
254.1053	0.2048
254.3201	0.2085
254.5348	0.2085
254.7496	0.2049
254.9643	0.2016
255.179	0.2028
255.3937	0.1991
255.6083	0.2004
255.823	0.196
256.0377	0.1987
256.2523	0.1973
256.467	0.1953
256.6816	0.1954
256.8962	0.1907
257.1108	0.1936
257.3254	0.1945
257.54	0.1906
257.7545	0.1891
257.9691	0.1873
258.1836	0.1878
258.3981	0.19
258.6127	0.1839
258.8272	0.1883
259.0417	0.1787
259.2561	0.1864
259.4706	0.1942
259.6851	0.1886
259.8995	0.1882
260.114	0.1896
260.3284	0.1796
260.5428	0.1786
260.7572	0.1899
260.9716	0.1834
261.186	0.1802
261.4003	0.191
261.6147	0.1824
261.829	0.1821
262.0433	0.1806
262.2577	0.1845
262.472	0.1825
262.6863	0.1804
262.9005	0.1914
263.1148	0.1781
263.3291	0.1875
263.5433	0.1873
263.7576	0.1814
263.9718	0.1884
264.186	0.1856
264.4002	0.1839
264.6144	0.1866
264.8286	0.1871
265.0427	0.1921
265.2569	0.1874
265.471	0.1785
265.6851	0.1863
265.8993	0.1874
266.1134	0.1884
266.3275	0.1827
266.5415	0.1831
266.7556	0.1816
266.9697	0.1778
267.1837	0.1863
267.3978	0.192
267.6118	0.1834
267.8258	0.1905
268.0398	0.187
268.2538	0.1842
268.4677	0.1828
268.6817	0.1719
268.8957	0.1842
269.1096	0.1782
269.3235	0.1921
269.5374	0.1742
269.7514	0.1806
269.9652	0.182
270.1791	0.1799
270.393	0.1795
270.6068	0.1755
270.8207	0.1791
271.0345	0.1747
271.2483	0.1758
271.4622	0.1779
271.676	0.171
271.8897	0.167
272.1035	0.1739
272.3173	0.1676
272.531	0.1729
272.7448	0.1663
272.9585	0.1697
273.1722	0.1807
273.3859	0.1717
273.5996	0.1698
273.8133	0.1689
274.0269	0.1795
274.2406	0.1716
274.4542	0.1718
274.6679	0.1698
274.8815	0.1752
275.0951	0.1779
275.3087	0.1768
275.5223	0.1717
275.7358	0.1757
275.9494	0.1715
276.1629	0.1794
276.3765	0.1703
276.59	0.1778
276.8035	0.1769
277.017	0.1808
277.2305	0.1731
277.444	0.1739
277.6574	0.1788
277.8709	0.1777
278.0843	0.1738
278.2978	0.1782
278.5112	0.1824
278.7246	0.1809
278.938	0.1832
279.1513	0.1829
279.3647	0.1793
279.5781	0.1802
279.7914	0.1823
280.0047	0.1803
280.2181	0.1804
280.4314	0.1813
280.6447	0.1783
280.8579	0.1814
281.0712	0.1812
281.2845	0.1832
281.4977	0.1884
281.711	0.1789
281.9242	0.187
282.1374	0.1771
282.3506	0.1858
282.5638	0.1859
282.7769	0.1839
282.9901	0.1808
283.2033	0.1832
283.4164	0.183
283.6295	0.1805
283.8426	0.1874
284.0557	0.184
284.2688	0.1859
284.4819	0.1899
284.695	0.1879
284.908	0.1908
285.1211	0.1889
285.3341	0.1922
285.5471	0.1968
285.7601	0.1898
285.9731	0.1912
286.1861	0.1926
286.3991	0.1917
286.612	0.1954
286.825	0.1878
287.0379	0.1952
287.2508	0.1914
287.4637	0.1949
287.6766	0.1995
287.8895	0.1905
288.1024	0.2007
288.3152	0.1984
288.5281	0.1967
288.7409	0.1995
288.9538	0.1873
289.1666	0.1926
289.3794	0.1994
289.5922	0.1974
289.8049	0.2053
290.0177	0.1991
290.2304	0.1994
290.4432	0.1993
290.6559	0.1938
290.8686	0.1969
291.0813	0.2017
291.294	0.206
291.5067	0.1979
291.7194	0.197
291.932	0.2034
292.1447	0.2015
292.3573	0.1985
292.5699	0.2083
292.7825	0.1987
292.9951	0.2004
293.2077	0.2003
293.4203	0.2038
293.6328	0.1911
293.8454	0.1956
294.0579	0.2052
294.2704	0.2053
294.4829	0.2012
294.6954	0.1984
294.9079	0.2059
295.1204	0.2004
295.3328	0.2002
295.5453	0.2005
295.7577	0.1968
295.9701	0.1996
296.1825	0.1993
296.3949	0.2053
296.6073	0.1997
296.8197	0.203
297.0321	0.1952
297.2444	0.1962
297.4567	0.2015
297.6691	0.1976
297.8814	0.1985
298.0937	0.1952
298.306	0.1964
298.5182	0.2013
298.7305	0.1958
298.9428	0.1975
299.155	0.197
299.3672	0.2004
299.5794	0.1957
299.7916	0.2026
300.0038	0.1924
300.216	0.1977
300.4282	0.193
300.6403	0.1997
300.8525	0.1984
301.0646	0.1966
301.2767	0.1965
301.4888	0.1938
301.7009	0.201
301.913	0.1995
302.125	0.1958
302.3371	0.194
302.5491	0.1978
302.7612	0.1968
302.9732	0.1878
303.1852	0.1928
303.3972	0.193
303.6092	0.1921
303.8211	0.1849
304.0331	0.1932
304.245	0.193
304.457	0.1927
304.6689	0.1892
304.8808	0.1929
305.0927	0.19
305.3046	0.1843
305.5164	0.187
305.7283	0.1878
305.9401	0.177
306.152	0.1774
306.3638	0.1796
306.5756	0.1879
306.7874	0.1822
306.9992	0.1793
307.2109	0.179
307.4227	0.1749
307.6344	0.1754
307.8462	0.1704
308.0579	0.1653
308.2696	0.1633
308.4813	0.1598
308.693	0.1619
308.9046	0.1572
309.1163	0.1615
309.328	0.1548
309.5396	0.1597
309.7512	0.154
309.9628	0.1551
310.1744	0.159
310.386	0.1517
310.5976	0.1469
310.8091	0.1447
311.0207	0.1496
311.2322	0.148
311.4437	0.1443
311.6552	0.1381
311.8667	0.1361
312.0782	0.1438
312.2897	0.1404
312.5012	0.1388
312.7126	0.1342
312.924	0.136
313.1355	0.1305
313.3469	0.1334
313.5583	0.1317
313.7696	0.1311
313.981	0.1272
314.1924	0.1262
314.4037	0.1272
314.6151	0.1287
314.8264	0.1258
315.0377	0.127
315.249	0.1211
315.4603	0.1242
315.6716	0.1262
315.8828	0.1256
316.0941	0.1183
316.3053	0.1208
316.5165	0.1211
316.7277	0.1243
316.9389	0.1178
317.1501	0.1199
317.3613	0.117
317.5724	0.1217
317.7836	0.1159
317.9947	0.1137
318.2058	0.1133
318.417	0.1123
318.6281	0.1139
318.8391	0.1178
319.0502	0.1159
319.2613	0.1199
319.4723	0.1161
319.6834	0.1203
319.8944	0.1223
320.1054	0.1174
320.3164	0.1156
320.5274	0.1132
320.7383	0.1167
320.9493	0.1092
321.1602	0.1126
321.3712	0.1193
321.5821	0.1216
321.793	0.1175
322.0039	0.1148
322.2148	0.1193
322.4257	0.1176
322.6365	0.1179
322.8474	0.1128
323.0582	0.1129
323.269	0.1156
323.4798	0.1121
323.6906	0.1162
323.9014	0.1147
324.1122	0.1125
324.3229	0.1213
324.5337	0.1213
324.7444	0.1147
324.9551	0.1199
325.1658	0.1237
325.3765	0.1156
325.5872	0.1165
325.7979	0.118
326.0085	0.1224
326.2192	0.1099
326.4298	0.12
326.6404	0.1234
326.851	0.1193
327.0616	0.1216
327.2722	0.1243
327.4828	0.119
327.6933	0.1147
327.9039	0.1208
328.1144	0.1203
328.3249	0.124
328.5354	0.115
328.7459	0.1219
328.9564	0.1267
329.1669	0.1265
329.3773	0.1174
329.5878	0.1264
329.7982	0.1205
330.0086	0.1228
330.219	0.1265
330.4294	0.1271
330.6398	0.1231
330.8502	0.1208
331.0605	0.1291
331.2708	0.1208
331.4812	0.1229
331.6915	0.1205
331.9018	0.1176
332.1121	0.1314
332.3224	0.1219
332.5326	0.1241
332.7429	0.1228
332.9531	0.1265
333.1633	0.1232
333.3735	0.1198
333.5837	0.1241
333.7939	0.1227
334.0041	0.1222
334.2143	0.128
334.4244	0.1217
334.6346	0.1229
334.8447	0.124
335.0548	0.1249
335.2649	0.1294
335.475	0.1279
335.685	0.1246
335.8951	0.1279
336.1051	0.1273
336.3152	0.1307
336.5252	0.1312
336.7352	0.1212
336.9452	0.1268
337.1552	0.1249
337.3652	0.1222
337.5751	0.1269
337.7851	0.1248
337.995	0.135
338.2049	0.1346
338.4148	0.1242
338.6247	0.1322
338.8346	0.1294
339.0445	0.1304
339.2543	0.1319
339.4642	0.1323
339.674	0.138
339.8838	0.1326
340.0936	0.1325
340.3034	0.1383
340.5132	0.127
340.7229	0.1315
340.9327	0.1359
341.1424	0.1378
341.3522	0.141
341.5619	0.137
341.7716	0.1344
341.9813	0.1494
342.1909	0.143
342.4006	0.1429
342.6102	0.1348
342.8199	0.1365
343.0295	0.1376
343.2391	0.1425
343.4487	0.1475
343.6583	0.1442
343.8679	0.1476
344.0774	0.1428
344.287	0.1448
344.4965	0.1457
344.706	0.1449
344.9155	0.1454
345.125	0.1481
345.3345	0.146
345.544	0.1509
345.7534	0.1494
345.9629	0.1546
346.1723	0.1523
346.3817	0.1483
346.5911	0.1505
346.8005	0.1519
347.0099	0.1555
347.2193	0.1568
347.4286	0.1537
347.638	0.1543
347.8473	0.1551
348.0566	0.1588
348.2659	0.1603
348.4752	0.1519
348.6845	0.1618
348.8937	0.161
349.103	0.1591
349.3122	0.1593
349.5214	0.1577
349.7306	0.1571
349.9398	0.1623
350.149	0.1656
350.3582	0.1567
350.5674	0.1591
350.7765	0.1654
350.9856	0.1638
351.1948	0.1654
351.4039	0.1644
351.613	0.1787
351.822	0.1663
352.0311	0.17
352.2402	0.1691
352.4492	0.1697
352.6582	0.1716
352.8672	0.1695
353.0762	0.1647
353.2852	0.1693
353.4942	0.169
353.7032	0.1706
353.9121	0.1782
354.1211	0.1673
354.33	0.1803
354.5389	0.178
354.7478	0.1805
354.9567	0.176
355.1655	0.1755
355.3744	0.19
355.5833	0.1793
355.7921	0.1828
356.0009	0.1797
356.2097	0.1829
356.4185	0.1906
356.6273	0.1773
356.8361	0.1866
357.0448	0.1893
357.2536	0.1857
357.4623	0.1839
357.671	0.1895
357.8797	0.1931
358.0884	0.1911
358.2971	0.1886
358.5057	0.1887
358.7144	0.202
358.923	0.1924
359.1316	0.1938
359.3402	0.2043
359.5488	0.1953
359.7574	0.2016
359.966	0.2053
360.1746	0.1957
360.3831	0.2043
360.5916	0.2089
360.8002	0.2077
361.0087	0.2071
361.2172	0.2084
361.4256	0.1975
361.6341	0.2149
361.8426	0.2177
362.051	0.2123
362.2594	0.2155
362.4678	0.2113
362.6762	0.2172
362.8846	0.2144
363.093	0.2169
363.3014	0.2234
363.5097	0.2137
363.718	0.2247
363.9264	0.2214
364.1347	0.2321
364.343	0.2334
364.5513	0.2363
364.7595	0.234
364.9678	0.2241
365.176	0.2247
365.3842	0.2303
365.5925	0.2296
365.8007	0.2309
366.0089	0.2332
366.217	0.2346
366.4252	0.2341
366.6333	0.2356
366.8415	0.2373
367.0496	0.24
367.2577	0.2378
367.4658	0.2444
367.6739	0.2368
367.882	0.2474
368.09	0.2451
368.2981	0.2341
368.5061	0.255
368.7141	0.2473
368.9221	0.2446
369.1301	0.2544
369.3381	0.2608
369.5461	0.2548
369.754	0.2477
369.962	0.2574
370.1699	0.2563
370.3778	0.2531
370.5857	0.2615
370.7936	0.2597
371.0015	0.262
371.2093	0.2583
371.4172	0.2533
371.625	0.2627
371.8328	0.2688
372.0406	0.257
372.2484	0.2672
372.4562	0.2622
372.664	0.2701
372.8717	0.2715
373.0795	0.2698
373.2872	0.274
373.4949	0.2743
373.7026	0.2817
373.9103	0.2669
374.118	0.2672
374.3256	0.2776
374.5333	0.2704
374.7409	0.269
374.9485	0.2727
375.1561	0.2764
375.3637	0.2785
375.5713	0.2717
375.7789	0.2783
375.9864	0.277
376.194	0.2807
376.4015	0.2827
376.609	0.2908
376.8165	0.2895
377.024	0.2817
377.2315	0.2901
377.4389	0.2782
377.6464	0.2828
377.8538	0.2879
378.0612	0.2799
378.2686	0.2816
378.476	0.2849
378.6834	0.2862
378.8908	0.2843
379.0981	0.2865
379.3055	0.2952
379.5128	0.295
379.7201	0.2882
379.9274	0.2911
380.1347	0.2947
380.342	0.2963
380.5492	0.2858
380.7565	0.2939
380.9637	0.294
381.1709	0.2984
381.3781	0.3005
381.5853	0.3012
381.7925	0.3061
381.9997	0.3002
382.2068	0.2954
382.4139	0.3091
382.6211	0.3047
382.8282	0.307
383.0353	0.3092
383.2424	0.3073
383.4494	0.3051
383.6565	0.3087
383.8635	0.3174
384.0706	0.3177
384.2776	0.315
384.4846	0.315
384.6916	0.3075
384.8986	0.3218
385.1055	0.3175
385.3125	0.3127
385.5194	0.3082
385.7263	0.3021
385.9333	0.3146
386.1402	0.3159
386.347	0.3195
386.5539	0.3212
386.7608	0.3151
386.9676	0.312
387.1744	0.3111
387.3813	0.3098
387.5881	0.3151
387.7948	0.3129
388.0016	0.3061
388.2084	0.3097
388.4151	0.3016
388.6219	0.3157
388.8286	0.3081
389.0353	0.2994
389.242	0.2984
389.4487	0.3171
389.6553	0.3014
389.862	0.3072
390.0686	0.3025
390.2753	0.2975
390.4819	0.3051
390.6885	0.3057
390.8951	0.3051
391.1016	0.3075
391.3082	0.2849
391.5147	0.2942
391.7213	0.2994
391.9278	0.3031
392.1343	0.297
392.3408	0.2886
392.5473	0.2826
392.7537	0.2947
392.9602	0.2903
393.1666	0.2955
393.373	0.2865
393.5794	0.291
393.7858	0.2828
393.9922	0.2895
394.1986	0.2857
394.4049	0.2888
394.6113	0.2876
394.8176	0.2743
395.0239	0.2821
395.2302	0.2642
395.4365	0.2737
395.6428	0.2838
395.8491	0.2726
396.0553	0.2755
396.2615	0.2728
396.4678	0.2705
396.674	0.2671
396.8802	0.2728
397.0863	0.2691
397.2925	0.2671
397.4987	0.2693
397.7048	0.2767
397.9109	0.2787
398.117	0.2663
398.3231	0.2722
398.5292	0.2817
398.7353	0.2525
398.9413	0.2604
399.1474	0.2755
399.3534	0.2784
399.5594	0.2699
399.7654	0.2715
399.9714	0.2616
400.1774	0.263
400.3833	0.2729
400.5893	0.2708
400.7952	0.2632
401.0011	0.2631
401.207	0.2617
401.4129	0.2567
401.6188	0.2583
401.8247	0.2694
402.0305	0.2658
402.2364	0.2607
402.4422	0.2632
402.648	0.271
402.8538	0.2677
403.0596	0.2699
403.2654	0.2627
403.4711	0.2627
403.6768	0.2653
403.8826	0.2741
404.0883	0.2641
404.294	0.2724
404.4997	0.2665
404.7054	0.2642
404.911	0.2586
405.1167	0.268
405.3223	0.2684
405.5279	0.2682
405.7335	0.2557
405.9391	0.261
406.1447	0.2592
406.3502	0.2698
406.5558	0.2701
406.7613	0.2753
406.9668	0.2714
407.1724	0.2715
407.3778	0.2679
407.5833	0.2583
407.7888	0.2612
407.9942	0.2678
408.1997	0.2531
408.4051	0.264
408.6105	0.2672
408.8159	0.2681
409.0213	0.265
409.2267	0.2622
409.432	0.2634
409.6374	0.2659
409.8427	0.2621
410.048	0.2656
410.2533	0.2601
410.4586	0.2619
410.6639	0.2713
410.8691	0.2673
411.0744	0.2661
411.2796	0.2613
411.4848	0.2658
411.69	0.2616
411.8952	0.2658
412.1004	0.2642
412.3056	0.2608
412.5107	0.2646
412.7158	0.2696
412.921	0.2615
413.1261	0.2691
413.3312	0.2627
413.5362	0.2662
413.7413	0.2665
413.9464	0.2631
414.1514	0.2642
414.3564	0.2612
414.5614	0.2685
414.7664	0.2572
414.9714	0.2674
415.1764	0.2698
415.3813	0.2519
415.5863	0.2604
415.7912	0.2679
415.9961	0.2619
416.201	0.2559
416.4059	0.251
416.6108	0.2545
416.8156	0.2505
417.0205	0.2689
417.2253	0.2637
417.4301	0.2589
417.6349	0.2507
417.8397	0.2636
418.0445	0.2545
418.2492	0.2547
418.454	0.2607
418.6587	0.2529
418.8634	0.2557
419.0681	0.2508
419.2728	0.2525
419.4775	0.2531
419.6822	0.243
419.8868	0.257
420.0915	0.2593
420.2961	0.2489
420.5007	0.2449
420.7053	0.2514
420.9099	0.2318
421.1144	0.244
421.319	0.2422
421.5235	0.2374
421.728	0.2376
421.9325	0.2417
422.137	0.2379
422.3415	0.2396
422.546	0.2403
422.7504	0.2362
422.9549	0.2428
423.1593	0.2456
423.3637	0.2402
423.5681	0.2395
423.7725	0.2441
423.9769	0.2331
424.1812	0.2331
424.3856	0.2386
424.5899	0.2379
424.7942	0.2179
424.9985	0.2289
425.2028	0.2255
425.4071	0.2152
425.6113	0.2287
425.8156	0.229
426.0198	0.2194
426.224	0.2159
426.4282	0.2314
426.6324	0.223
426.8366	0.2242
427.0407	0.2152
427.2449	0.2075
427.449	0.2128
427.6531	0.2168
427.8572	0.2063
428.0613	0.1974
428.2654	0.2215
428.4694	0.2063
428.6735	0.2134
428.8775	0.1985
429.0815	0.2134
429.2855	0.2075
429.4895	0.1961
429.6935	0.1987
429.8975	0.2074
430.1014	0.1975
430.3053	0.1903
430.5093	0.1945
430.7132	0.1932
430.9171	0.1898
431.1209	0.1929
431.3248	0.1901
431.5286	0.1786
431.7325	0.1884
431.9363	0.1827
432.1401	0.1882
432.3439	0.1713
432.5477	0.1888
432.7514	0.1654
432.9552	0.1774
433.1589	0.1675
433.3627	0.1779
433.5664	0.1708
433.7701	0.1762
433.9737	0.1724
434.1774	0.1759
434.3811	0.1656
434.5847	0.1626
434.7883	0.1601
434.9919	0.1529
435.1955	0.1656
435.3991	0.1559
435.6027	0.1496
435.8062	0.155
436.0098	0.1486
436.2133	0.1519
436.4168	0.1456
436.6203	0.1386
436.8238	0.1454
437.0272	0.142
437.2307	0.1412
437.4341	0.1289
437.6375	0.1268
437.841	0.1282
438.0443	0.1283
438.2477	0.1236
438.4511	0.1348
438.6545	0.1319
438.8578	0.1286
439.0611	0.1285
439.2644	0.1211
439.4677	0.119
439.671	0.1125
439.8743	0.1071
440.0775	0.1115
440.2808	0.1253
440.484	0.1065
440.6872	0.1048
440.8904	0.1086
441.0936	0.1148
441.2967	0.1039
441.4999	0.1083
441.703	0.0971
441.9062	0.1023
442.1093	0.0979
442.3124	0.1014
442.5155	0.0901
442.7185	0.0855
442.9216	0.0936
443.1246	0.0917
443.3276	0.0849
443.5307	0.0893
443.7337	0.0857
443.9366	0.0842
444.1396	0.0816
444.3426	0.0844
444.5455	0.0751
444.7484	0.0673
444.9513	0.0849
445.1542	0.0784
445.3571	0.0632
445.56	0.0716
445.7628	0.073
445.9657	0.0731
446.1685	0.0715
446.3713	0.0733
446.5741	0.056
446.7769	0.0604
446.9797	0.0689
447.1824	0.0615
447.3852	0.0554
447.5879	0.061
447.7906	0.0606
447.9933	0.0658
448.196	0.0525
448.3986	0.0586
448.6013	0.0536
448.8039	0.0516
449.0066	0.0509
449.2092	0.0489
449.4118	0.0581
449.6143	0.0452
449.8169	0.0593
450.0195	0.0455
450.222	0.0522
450.4245	0.061
450.627	0.0417
450.8295	0.0475
451.032	0.0426
451.2345	0.0356
451.4369	0.0446
451.6394	0.0475
451.8418	0.0364
452.0442	0.0428
452.2466	0.0419
452.449	0.0322
452.6513	0.0361
452.8537	0.0436
453.056	0.0344
453.2583	0.0367
453.4607	0.0326
453.663	0.0336
453.8652	0.0205
454.0675	0.0417
454.2697	0.024
454.472	0.029
454.6742	0.0212
454.8764	0.0188
455.0786	0.0346
455.2808	0.0382
455.4829	0.0285
455.6851	0.0222
455.8872	0.0296
456.0893	0.0205
456.2915	0.028
456.4935	0.011
456.6956	0.0214
456.8977	0.0205
457.0997	0.0253
457.3018	0.0209
457.5038	0.0193
457.7058	0.0256
457.9078	0.0267
458.1098	0.0273
458.3117	0.0135
458.5137	0.0246
458.7156	0.0316
458.9175	0.0109
459.1194	0.0178
459.3213	0.0166
459.5232	0.0142
459.725	0.0139
459.9269	0.0236
460.1287	0.0109
460.3305	0.02
460.5323	0.0117
460.7341	0.0185
460.9359	0.0172
461.1376	0.0175
461.3394	0.0106
461.5411	0.0133
461.7428	0.0134
461.9445	0.0106
462.1462	0.0202
462.3479	0.0222
462.5495	0.0205
462.7512	0.0081
462.9528	0.0121
463.1544	0.0153
463.356	0.0175
463.5576	0.0121
463.7592	0.0054
463.9607	0.0083
464.1623	0.0157
464.3638	0.013
464.5653	0.0088
464.7668	0.003
464.9683	0.0087
465.1697	0.0039
465.3712	0.0052
465.5726	0.0109
465.7741	0.016
465.9755	0.0104
466.1769	0.0054
466.3782	0.0075
466.5796	0.0103
466.7809	0.0141
466.9823	0.0083
467.1836	0.0196
467.3849	0.0086
467.5862	0.005
467.7875	0.0159
467.9887	0.0126
468.19	0.0084
468.3912	0.0106
468.5924	0.012
468.7936	-0.0046
468.9948	0.0097
469.196	0.0149
469.3972	0.0076
469.5983	-0.0052
469.7994	0.0027
470.0006	-0.0022
470.2017	0.0098
470.4027	0.0012
470.6038	-0.0025
470.8049	-0.0048
471.0059	0.0031
471.2069	0.0153
471.408	0.0085
471.6089	0.01
471.8099	0.0078
472.0109	0.0002
472.2119	0.0203
472.4128	0.0135
472.6137	0.0052
472.8146	-0.0056
473.0155	-0.0021
473.2164	-0.0001
473.4173	-0.0008
473.6181	0.0087
473.819	-0.0006
474.0198	0.0025
474.2206	0.0066
474.4214	0.0148
474.6222	0.0093
474.8229	0.0094
475.0237	0.0032
475.2244	0.008
475.4251	-0.0048
475.6258	-0.0014
475.8265	0.0108
476.0272	0.0063
476.2278	0.0105
476.4285	-0.0058
476.6291	0.0114
476.8297	-0.0034
477.0303	0.0005
477.2309	0.0016
477.4315	0.0093
477.632	0.0031
477.8326	-0.0003
478.0331	0.0031
478.2336	0.0112
478.4341	0.0072
478.6346	0.0031
478.8351	0.0123
479.0355	-0.0008
479.236	0.0016
479.4364	0.0002
479.6368	0.0011
479.8372	0.0099
480.0376	0.0018
480.2379	0.0013
480.4383	-0.0025
480.6386	-0.0028
480.8389	0.0077
481.0392	0.0055
481.2395	0.0076
481.4398	0.0054
481.6401	0.0076
481.8403	-0.0019
482.0405	-0.0032
482.2408	0.0041
482.441	0.0048
482.6411	-0.001
482.8413	-0.0029
483.0415	0.0023
483.2416	0.0007
483.4417	0.004
483.6419	-0.0001
483.8419	-0.0019
484.042	-0.0032
484.2421	0.0065
484.4422	0.0067
484.6422	0.0043
484.8422	0.0029
485.0422	0.0035
485.2422	0.0002
485.4422	0.0002
485.6422	-0.001
485.8421	-0.0003
486.042	0.0055
486.242	0.004
486.4419	0.0025
486.6417	-0.0004
486.8416	0.0036
487.0415	-0.0033
487.2413	0.0022
487.4411	0.002
487.641	0.0091
487.8408	0.0022
488.0405	0.0029
488.2403	0.0028
488.4401	-0.0006
488.6398	0.0052
488.8395	-0.0029
489.0392	0.0037
489.2389	0.0045
489.4386	-0.0002
489.6383	-0.0034
489.8379	-0.0008
490.0376	0.01
490.2372	-0.0089
490.4368	0.002
490.6364	0.005
490.836	-0.0027
491.0355	0.0066
491.2351	-0.0027
491.4346	0.0087
491.6341	-0.0002
491.8336	-0.0062
492.0331	-0.0014
492.2326	-0.0051
492.432	0.0011
492.6315	-0.0057
492.8309	-0.0019
493.0303	-0.0029
493.2297	0.0008
493.4291	0.0016
493.6284	-0.0004
493.8278	0.0092
494.0271	-0.0031
494.2264	0.0019
494.4257	-0.0001
494.625	-0.0038
494.8243	0.0056
495.0236	0.001
495.2228	-0.0033
495.422	0.0041
495.6213	-0.0034
495.8205	0.0034
496.0196	0.0008
496.2188	0.0013
496.418	-0.0069
496.6171	0.0047
496.8162	0.0046
497.0153	0.001
497.2144	-0.0071
497.4135	0.0061
497.6126	-0.0093
497.8116	0.0042
498.0107	0.0036
498.2097	0.0044
498.4087	0.0032
498.6077	0.0095
498.8067	0.0041
499.0056	-0.0046
499.2046	0.0104
499.4035	-0.0009
499.6024	-0.0134
499.8013	0.0069
500.0002	0.0051
500.199	0.0077
500.3979	0.0134
500.5967	-0.0073
500.7956	-0.0009
500.9944	0.0023
501.1932	0.0025
501.3919	-0.0013
501.5907	0.0003
501.7895	-0.0048
501.9882	-0.0081
502.1869	-0.0023
502.3856	-0.0025
502.5843	0.0072
502.783	0.0033
502.9816	-0.0024
503.1803	0.0082
503.3789	0.0036
503.5775	0.0032
503.7761	-0.0011
503.9747	-0.0034
504.1732	0.003
504.3718	-0.0042
504.5703	0.0014
504.7689	-0.0041
504.9674	-0.0028
505.1658	0.004
505.3643	0.0009
505.5628	0.0098
505.7612	0.0062
505.9597	0.0048
506.1581	-0.0133
506.3565	-0.0104
506.5549	0.0072
506.7532	-0.0022
506.9516	-0.0003
507.1499	-0.0022
507.3482	0.0118
507.5465	-0.0017
507.7448	0.0063
507.9431	-0.008
508.1414	-0.0063
508.3396	-0.0048
508.5379	0.0064
508.7361	0.0029
508.9343	-0.0012
509.1325	0.005
509.3306	-0.0009
509.5288	0.0076
509.7269	0.0052
509.9251	-0.0086
510.1232	-0.0081
510.3213	0.0032
510.5193	0.0068
510.7174	-0.0101
510.9154	0.0047
511.1135	-0.0045
511.3115	-0.0015
511.5095	0.0013
511.7075	0.0041
511.9055	0.0054
512.1034	0.0003
512.3014	-0.0061
512.4993	-0.0022
512.6972	-0.0094
512.8951	0.0001
513.093	-0.0007
513.2908	-0.0032
513.4887	-0.0012
513.6865	-0.005
513.8844	0.0039
514.0822	0.0058
514.2799	-0.0016
514.4777	0.008
514.6755	0.0035
514.8732	0.0035
515.0709	0.0045
515.2687	-0.0027
515.4664	-0.0141
515.664	0.004
515.8617	0.0105
516.0594	0.0019
516.257	0.0064
516.4546	-0.0031
516.6522	-0.004
516.8498	0.001
517.0474	-0.0054
517.2449	-0.0047
517.4425	0.0009
517.64	0.0028
517.8375	0.009
518.035	-0.0022
518.2325	-0.0109
518.43	-0.0063
518.6274	-0.0073
518.8249	-0.0031
519.0223	-0
519.2197	0.0035
519.4171	0.004
519.6145	0.0007
519.8118	-0.0017
520.0092	-0.0061
520.2065	-0.0004
520.4038	-0.0033
520.6011	0.004
520.7984	-0.0041
520.9956	-0.0029
521.1929	-0.0054
521.3901	0.0057
521.5874	0.0027
521.7846	0.0002
521.9818	-0.0069
522.1789	0.0176
522.3761	0.0001
522.5732	-0.003
522.7704	0.0084
522.9675	-0.0063
523.1646	0.0109
523.3617	-0.0012
523.5587	-0.003
523.7558	0.0033
523.9528	0.005
524.1498	0.0054
524.3468	-0.0066
524.5438	-0.0032
524.7408	-0.0077
524.9378	0.0061
525.1347	0.0015
525.3316	0.0136
525.5285	-0.0043
525.7254	-0.0018
525.9223	0.0049
526.1192	0.0008
526.316	-0.0061
526.5129	0.0002
526.7097	-0.0056
526.9065	0.0055
527.1033	0.0061
527.3	-0.0018
527.4968	-0.0008
527.6935	-0.0063
527.8903	0.0002
528.087	-0.001
528.2837	0.0002
528.4804	-0.0001
528.677	0.0025
528.8737	-0.0049
529.0703	-0.0021
529.2669	-0.0026
529.4635	0.0077
529.6601	0.0152
529.8567	0.0002
530.0532	-0.0052
530.2498	-0.0075
530.4463	0.0042
530.6428	-0.0108
530.8393	-0.0015
531.0358	-0.0018
531.2322	0.0036
531.4287	-0.0094
531.6251	-0.0006
531.8215	-0.0038
532.0179	-0.0093
532.2143	0.0143
532.4107	0.0012
532.607	0.0019
532.8034	0.0156
532.9997	0.0048
533.196	0.0036
533.3923	0.0033
533.5886	0.0028
533.7848	-0.0107
533.9811	-0.0054
534.1773	-0.0061
534.3735	0.0035
534.5697	-0.0058
534.7659	-0.001
534.9621	0.0101
535.1582	0.0152
535.3544	0.0085
535.5505	0.0087
535.7466	-0.0052
535.9427	-0.0045
536.1387	-0.0004
536.3348	-0.0031
536.5308	0.0117
536.7269	-0.0081
536.9229	0.0016
537.1189	-0.0023
537.3148	-0.0043
537.5108	-0.0083
537.7068	-0.0026
537.9027	-0.0014
538.0986	-0.0125
538.2945	0.0004
538.4904	-0.0015
538.6863	0.011
538.8821	-0.0052
539.078	-0.0009
539.2738	-0.0128
539.4696	0.0096
539.6654	-0.0044
539.8611	0.0011
540.0569	-0.0036
540.2526	-0.0091
540.4484	-0.0124
540.6441	0.003
540.8398	-0.0045
541.0355	0.0046
541.2311	-0.006
541.4268	-0.0063
541.6224	0.0039
541.818	-0.0031
542.0136	-0.0167
542.2092	0.0017
542.4048	0.003
542.6003	-0.0111
542.7959	-0.0029
542.9914	0.0059
543.1869	0.0013
543.3824	0.0012
543.5779	-0.0028
543.7734	-0.007
543.9688	0.0057
544.1642	-0.0029
544.3596	-0.0023
544.555	0.0056
544.7504	0.0049
544.9458	-0.001
545.1411	0.0022
545.3365	0.0025
545.5318	0.0071
545.7271	0.0074
545.9224	-0.0056
546.1177	0.0019
546.3129	-0.0011
546.5081	-0.0055
546.7034	-0.0054
546.8986	-0.0001
547.0938	-0.0006
547.289	0.0094
547.4841	0.0062
547.6793	-0.006
547.8744	0.0019
548.0695	0.0053
548.2646	-0.0038
548.4597	-0.0062
548.6548	0.0103
548.8498	-0.0116
549.0448	0.0071
549.2399	-0.0001
549.4349	0.0042
549.6298	-0.0024
549.8248	-0.0145
550.0198	0.0048
550.2147	-0.003
550.4096	0.0015
550.6045	-0.0061
550.7994	0.0032
550.9943	-0.0081
551.1892	-0.0031
551.384	0.0075
551.5788	0.0002
551.7737	-0.0043
551.9685	0.0028
552.1632	0.0074
552.358	-0.0057
552.5528	-0.0027
552.7475	-0.0088
552.9422	0.0016
553.1369	0.0017
553.3316	-0.0064
553.5263	0.002
553.7209	-0.012
553.9156	0.0101
554.1102	-0.0048
554.3048	-0.0021
554.4994	0.0038
554.694	-0.0051
554.8885	0.0042
555.0831	0.0031
555.2776	-0.0024
555.4721	-0.0036
555.6666	0.0086
555.8611	-0.0181
556.0555	0.0045
556.25	-0.0065
556.4444	-0.0063
556.6388	0.0068
556.8332	-0.0009
557.0276	0.0113
557.222	-0.0024
557.4163	-0.0002
557.6107	-0.0037
557.805	-0.0064
557.9993	-0.0033
558.1936	0.0117
558.3879	0.0049
558.5821	-0.0009
558.7764	0.0086
558.9706	0.0013
559.1648	-0.006
559.359	0.0097
559.5532	-0.0046
559.7473	0.005
559.9415	-0.0032
560.1356	0.0055
560.3297	-0.0012
560.5238	0.0072
560.7179	0.0002
560.9119	0.0153
561.106	-0.0049
561.3	-0.002
561.494	0.003
561.688	-0.0019
561.882	-0.0065
562.076	0.0126
562.2699	0.0036
562.4639	0.0041
562.6578	0.0046
562.8517	-0.0026
563.0456	0.0002
563.2395	-0.0056
563.4333	0.0002
563.6272	0.0099
563.821	0.01
564.0148	-0.0086
564.2086	0.0031
564.4024	-0.0036
564.5961	0.0076
564.7899	0.0039
564.9836	-0.0053
565.1773	0.0051
565.371	-0.0014
565.5647	0.0081
565.7584	-0.0018
565.952	-0.0008
566.1456	-0.0076
566.3393	0.0116
566.5329	0.0062
566.7264	0.0028
566.92	-0.004
567.1136	-0.0067
567.3071	0.0012
567.5006	-0.0075
567.6941	-0
567.8876	0.0001
568.0811	-0.0088
568.2745	-0.0067
568.468	0.0149
568.6614	0.0074
568.8548	0.0013
569.0482	0.0008
569.2416	-0.0022
569.4349	0.0006
569.6283	0.0009
569.8216	0.0029
570.0149	-0.0021
570.2082	-0.002
570.4015	-0
570.5947	0.0004
570.788	0.0008
570.9812	-0.0037
571.1744	-0.0001
571.3676	0.0001
571.5608	-0.004
571.754	0.0007
571.9471	0.0055
572.1402	0.0028
572.3333	0.0018
572.5264	-0.0004
572.7195	0.0041
572.9126	0.0039
573.1057	-0.0035
573.2987	0.0078
573.4917	-0.0026
573.6847	-0.0015
573.8777	0.002
574.0707	-0.0048
574.2636	0.0006
574.4566	0.0022
574.6495	-0.0008
574.8424	0.0019
575.0353	-0.0015
575.2281	0.0005
575.421	-0.0005
575.6138	-0.0025
575.8067	-0.0022
575.9995	0.0004
576.1923	0.0004
576.385	-0.0027
576.5778	-0.0021
576.7706	-0.0001
576.9633	0.0048
577.156	-0.0001
577.3487	0.0013
577.5414	-0.0006
577.734	-0.0005
577.9267	-0.0028
578.1193	0.0001
578.3119	-0.004
578.5045	-0.004
578.6971	-0.0045
578.8897	0.0011
579.0822	0.0015
579.2747	-0.0064
579.4673	-0.0036
579.6598	-0.0028
579.8522	-0.0002
580.0447	-0.0016
580.2372	0.0031
580.4296	-0.0028
580.622	0.0038
580.8144	-0.0003
581.0068	-0.0008
581.1992	0.0037
581.3915	-0.0015
581.5839	0.0026
581.7762	-0.0007
581.9685	-0.0032
582.1608	0.001
582.353	-0.0015
582.5453	-0.0014
582.7375	-0.002
582.9298	-0.0034
583.122	-0.0054
583.3142	0.0067
583.5063	0.0011
583.6985	0.001
583.8906	-0.002
584.0827	0.0014
584.2749	-0.0005
584.4669	0.0013
584.659	-0.0013
584.8511	0.0014
585.0431	-0.0011
585.2352	-0.0047
585.4272	-0.0018
585.6192	0.0026
585.8111	-0.0038
586.0031	-0.0003
586.195	-0
586.387	0.002
586.5789	0.0049
586.7708	0.001
586.9627	0.0034
587.1545	-0.0001
587.3464	-0.0001
587.5382	0.001
587.73	0.0044
587.9218	-0.0018
588.1136	-0.0045
588.3053	0.0033
588.4971	0.0003
588.6888	-0.0007
588.8805	0.0012
589.0722	0.0033
589.2639	-0.0061
589.4556	-0.0046
589.6472	-0.0031
589.8389	0.0024
590.0305	0.0038
590.2221	0.0052
590.4137	-0.0019
590.6052	0.0031
590.7968	0.0045
590.9883	0.005
591.1798	-0.0064
591.3713	-0.0034
591.5628	-0.001
591.7543	0.0022
591.9458	-0.0027
592.1372	-0.0032
592.3286	-0.0046
592.52	-0.0049
592.7114	-0.0032
592.9028	-0.0009
593.0941	-0.0012
593.2855	0.0035
593.4768	0.0026
593.6681	0.002
593.8594	-0.0072
594.0506	0.0066
594.2419	-0.002
594.4331	-0.0058
594.6244	0.0021
594.8156	0.0029
595.0067	0.0024
595.1979	-0.0102
595.3891	-0.0007
595.5802	-0.0031
595.7713	-0.0033
595.9624	-0.0022
596.1535	0.002
596.3446	-0.0059
596.5357	-0.0065
596.7267	-0.0004
596.9177	-0.0002
597.1087	0.0028
597.2997	-0.002
597.4907	0.0036
597.6817	0.001
597.8726	0.0045
598.0635	-0.0003
598.2544	-0.0055
598.4453	-0.0015
598.6362	-0.0071
598.827	-0.0015
599.0179	-0.0009
599.2087	-0.0042
599.3995	0.0025
599.5903	0.0039
599.7811	0.003
599.9718	0.0033
600.1626	0.0001
600.3533	-0.0016
600.544	-0.0002
600.7347	-0.0014
600.9254	0.0024
601.116	-0.0002
601.3067	0.0059
601.4973	0.0114
601.6879	0.0004
601.8785	0.0031
602.0691	0.0041
602.2596	-0.0009
602.4502	0.0071
602.6407	0.0022
602.8312	0.0021
603.0217	0.0041
603.2122	0.004
603.4027	0.004
603.5931	-0.0042
603.7835	-0.0014
603.9739	-0.0003
604.1643	-0.0004
604.3547	0.0005
604.5451	0.0005
604.7354	-0.0062
604.9257	-0.0047
605.116	-0.0053
605.3063	0.0006
605.4966	0.0002
605.6869	-0.0035
605.8771	0.0088
606.0673	-0.0067
606.2575	-0.0019
606.4477	0.0086
606.6379	0.0034
606.8281	-0.0081
607.0182	0.0004
607.2083	-0.0032
607.3985	0.0055
607.5885	-0.0053
607.7786	0.0017
607.9687	-0.0039
608.1587	-0.0005
608.3488	-0.006
608.5388	0.0013
608.7288	-0.0063
608.9187	0.0068
609.1087	0.0039
609.2986	-0.0064
609.4886	0.0058
609.6785	0.0042
609.8684	-0.0039
610.0582	0.0003
610.2481	-0.0058
610.4379	-0.0004
610.6278	-0.0039
610.8176	-0.0014
611.0074	-0.0031
611.1971	-0.0044
611.3869	0.0011
611.5766	-0.0029
611.7664	0.0046
611.9561	-0.0022
612.1458	-0.0034
612.3354	0.0059
612.5251	-0.0031
612.7147	0.0001
612.9044	-0.0082
613.094	0.0013
613.2836	-0.007
613.4731	-0.0007
613.6627	0.0101
613.8522	-0.003
614.0417	-0.008
614.2313	-0.0115
614.4207	0.0048
614.6102	-0.0022
614.7997	0.0004
614.9891	-0.005
615.1785	0.001
615.3679	-0.0068
615.5573	-0.0113
615.7467	0.0029
615.9361	-0.005
616.1254	-0.0059
616.3147	-0.0023
616.504	-0.0022
616.6933	-0.0034
616.8826	-0.0026
617.0718	-0.01
617.2611	-0.0098
617.4503	-0.0027
617.6395	0.0004
617.8287	0.0028
618.0179	-0.0096
618.207	-0.0062
618.3961	0.0028
618.5853	0.0037
618.7744	0.0052
618.9634	0.0033
619.1525	-0.0058
619.3416	0.0031
619.5306	0.0004
619.7196	-0.0085
619.9086	0.0051
620.0976	0.0024
620.2866	0.0094
620.4755	0.016
620.6645	-0.0173
620.8534	-0.0021
621.0423	-0.0092
621.2312	-0.0111
621.42	-0.0042
621.6089	0.0001
621.7977	-0.0053
621.9865	0.0098
622.1753	0.0017
622.3641	-0.0165
622.5529	-0.0063
622.7416	-0.0039
622.9303	-0.0047
623.1191	-0.0049
623.3078	-0.0037
623.4964	-0.0092
623.6851	0.0033
623.8737	0.0091
624.0624	-0.0038
624.251	0.0029
624.4396	-0.0008
624.6282	0.0033
624.8167	0.0031
625.0053	-0.0047
625.1938	-0.0046
625.3823	0.0017
625.5708	-0.0064
625.7593	-0.007
625.9477	-0.0226
626.1362	-0.0024
626.3246	-0.0062
626.513	0.0089
626.7014	-0.0071
626.8898	-0.0024
627.0781	-0.0032
627.2665	-0.0014
627.4548	-0.0098
627.6431	-0.0061
627.8314	-0.0039
628.0197	0.006
628.2079	-0.0003
628.3962	-0.0063
628.5844	-0.0041
628.7726	0.0008
628.9608	-0.0013
629.1489	0.0002
629.3371	-0.0082
629.5252	0.0036
629.7134	0.0018
629.9015	-0.0141
630.0895	0.0044
630.2776	-0.0021
630.4657	0.0068
630.6537	-0.0083
630.8417	-0.0066
631.0297	0.0009
631.2177	-0.0102
631.4057	-0.0097
631.5936	0.0017
631.7815	-0.0167
631.9695	0.0066
632.1574	0.0027
632.3452	0.0003
632.5331	-0.0148
632.7209	-0.007
632.9088	0.0005
633.0966	-0.0071
633.2844	0.0016
633.4722	0.0132
633.6599	-0.0156
633.8477	-0.0028
634.0354	0.0025
634.2231	0.0314
634.4108	-0.0158
634.5985	0.0012
634.7861	-0.0092
634.9738	0.013
635.1614	0.0085
635.349	-0.0153
635.5366	0.0063
635.7242	-0.0044
635.9117	-0.0024
636.0993	-0.0119
636.2868	-0.0068
636.4743	0.0028
636.6618	-0.0107
636.8492	-0.0075
637.0367	0.0038
637.2241	0.0083
637.4115	-0.003
637.5989	0.005
637.7863	0.0004
637.9737	0.0191
638.161	-0.001
638.3484	-0.0028
638.5357	-0.0155
638.723	-0.0028
638.9103	0.0094
639.0975	0.0051
639.2848	0.0069
639.472	-0.0145
639.6592	0.0158
639.8464	0.0154
640.0336	0.0041
640.2208	-0.01
640.4079	0.0167
640.595	-0.0106
640.7821	0.0044
640.9692	0.0043
641.1563	0.0037
641.3434	0.0156
641.5304	0.0015
641.7174	0.0125
641.9044	-0.0049
642.0914	-0.0195
642.2784	0.0266
642.4653	-0.0052
642.6523	0.0013
642.8392	0.0009
643.0261	0.0025
643.213	-0.0002
643.3999	-0.0028
643.5867	-0.0033
643.7735	0.0056
643.9604	-0.0134
644.1472	0.0046
644.3339	-0.0188
644.5207	-0.0192
644.7075	-0.0085
644.8942	0.0143
645.0809	-0.0193
645.2676	-0.0078
645.4543	-0.0138
645.6409	0.0042
645.8276	-0.0213
646.0142	0.0027
646.2008	-0.002
646.3874	-0.0013
646.574	-0.0134
646.7605	0.0178
646.9471	0.0017
647.1336	-0.0083
647.3201	-0.0136
647.5066	-0.0227
647.6931	0.0052
647.8795	0.0004
648.0659	-0.0161
648.2524	0.0009
648.4388	0.0007
648.6252	-0.0114
648.8115	0.0047
648.9979	-0.0062
649.1842	-0.0242
649.3705	-0.0088
649.5568	-0.0151
649.7431	-0.0006
649.9294	-0.0103
650.1156	-0.0196
650.3018	0.0208
650.488	0.0052
650.6742	0.0069
650.8604	-0.0198
651.0466	0.0037
651.2327	-0.0115
651.4188	-0.0219
651.6049	-0.0039
651.791	0.0205
651.9771	0.0115
652.1632	-0.0012
652.3492	0.0016
652.5352	0.0169
652.7212	-0.018
652.9072	0.0064
653.0932	0.0061
653.2791	-0.0052
653.465	0.0033
653.651	0.0025
653.8369	0.0037
654.0227	-0.0039
654.2086	-0.0263
654.3944	-0.0251
654.5803	0.0015
654.7661	-0.0034
654.9519	-0.0031
655.1377	0
655.3234	0
655.5092	0
655.6949	0
655.8806	0
656.0663	0
656.2519	0
656.4376	0
656.6232	0
656.8088	0
656.9945	0
657.18	0
657.3656	0
657.5511	0
657.7367	0
657.9222	0
658.1077	0
658.2932	0
658.4786	0
658.6641	0
658.8495	0
659.0349	0
659.2203	0
659.4057	0.006
659.591	0.0921
659.7764	0.0043
659.9617	-0.0071
660.147	0.0004
660.3323	-0.01
660.5176	-0.0025
660.7028	-0.0007
660.888	-0.0087
661.0733	0.0082
661.2585	0.0056
661.4436	-0.0207
661.6288	0.0028
661.8139	0.0207
661.9991	0.0025
662.1842	0.019
662.3693	0.0049
662.5544	-0.003
662.7394	0.0166
662.9245	-0.0103
663.1095	0.0197
663.2945	-0.0008
663.4795	-0.0163
663.6644	0.0011
663.8494	-0.0011
664.0343	-0.0159
664.2193	0.0043
664.4042	-0.0025
664.589	-0.0242
664.7739	-0.0119
664.9587	-0.0134
665.1436	-0.0255
665.3284	-0.0045
665.5132	-0.005
665.698	-0.0071
665.8827	-0.0356
666.0675	-0.011
666.2522	0.0203
666.4369	-0.0017
666.6216	-0.0171
666.8063	-0.0053
666.9909	0.0193
667.1756	0.0116
667.3602	-0.0103
667.5448	-0.0136
667.7294	-0.0027
667.9139	-0.019
668.0985	-0.0168
668.283	-0.0062
668.4675	-0.0157
668.652	-0.0017
668.8365	-0.0205
669.0209	-0.0083
669.2054	0.0072
669.3898	-0.0192
669.5742	-0.0031
669.7586	0.0094
669.943	-0.0101
670.1273	-0.0068
670.3117	0.0143
670.496	-0.0083
670.6803	-0.0136
670.8646	0.016
671.0488	0.0043
671.2331	0.0287
671.4173	0.0066
671.6015	-0.0039
671.7857	-0.0155
671.9699	0.0096
672.1541	0.0035
672.3382	0.0028
672.5223	-0.0059
672.7064	-0.0165
672.8905	0.0018
673.0746	0.0003
673.2587	0.0019
673.4427	-0.0188
673.6267	-0.0228
673.8107	-0.0238
673.9947	-0.0265
674.1787	0.0006
674.3626	-0.0081
674.5465	0.0247
674.7304	-0.0451
674.9143	0.0076
675.0982	-0.0006
675.2821	0.0064
675.4659	-0.0003
675.6497	0.0018
675.8335	0.0034
676.0173	0.0182
676.2011	-0.0199
676.3849	-0.0145
676.5686	0.011
676.7523	0.0013
676.936	-0.0249
677.1197	-0.0078
677.3034	0.0072
677.487	-0.0133
677.6706	-0.0085
677.8542	0.002
678.0378	-0.0123
678.2214	-0.022
678.405	0.0058
678.5885	-0.0021
678.772	0.0005
678.9555	0.0201
679.139	-0.0087
679.3225	-0.0206
679.5059	0.0057
679.6894	-0.0249
679.8728	-0.004
680.0562	0.0059
680.2395	-0.0029
680.4229	-0.003
680.6062	0.0043
680.7896	0.0005
680.9729	0.0176
681.1562	-0.0158
681.3394	-0.0212
681.5227	-0.0229
681.7059	-0.0225
681.8891	0.0093
682.0723	-0.013
682.2555	0.0255
682.4387	-0.0084
682.6218	-0.0421
682.805	-0.0047
682.9881	-0.0033
683.1712	0.0183
683.3542	-0.0047
683.5373	0.0064
683.7203	-0.0016
683.9034	0.0055
684.0864	-0.0021
684.2694	-0
684.4523	0.0081
684.6353	0.0077
684.8182	0.0007
685.0011	-0.0128
685.184	0.0032
685.3669	-0.0152
685.5498	-0.0018
685.7326	-0.015
685.9154	-0.0217
686.0982	0.0085
686.281	0.0137
686.4638	-0.0156
686.6465	-0.0054
686.8293	-0.0169
687.012	-0.0141
687.1947	0.0049
687.3774	-0.0063
687.56	-0.0014
687.7427	-0.0035
687.9253	0.0077
688.1079	0.0106
688.2905	0.0121
688.4731	0.0213
688.6556	-0.0272
688.8382	0.0094
689.0207	-0.0133
689.2032	-0.0117
689.3857	-0.0099
689.5681	-0.0011
689.7506	-0.0059
689.933	-0.0056
690.1154	-0.0045
690.2978	-0.0058
690.4802	-0.0047
690.6626	-0.0073
690.8449	-0.0059
691.0272	-0.0214
691.2095	-0.0079
691.3918	-0.0057
691.5741	0.0056
691.7563	-0.0037
691.9386	-0.0159
692.1208	-0.0161
692.303	-0.008
692.4852	0.0055
692.6673	-0.0017
692.8495	-0.0212
693.0316	-0.0077
693.2137	0.0175
693.3958	-0.0019
693.5778	-0.0146
693.7599	-0.0475
693.9419	0.0223
694.1239	-0.0343
694.3059	-0.0157
694.4879	-0.0223
694.6699	0.0097
694.8518	-0.0065
695.0337	0.013
695.2157	-0.0092
695.3975	0.0061
695.5794	-0.037
695.7613	0.0028
695.9431	-0.0221
696.1249	-0.0007
696.3067	-0.0109
696.4885	-0.0152
696.6703	-0.0035
696.852	-0.0229
697.0337	0.0043
697.2154	0.0062
697.3971	0.0048
697.5788	0.029
697.7605	-0.0131
697.9421	-0.0107
698.1237	0.0015
698.3053	-0.0048
698.4869	-0.0065
698.6685	0.0146
698.85	-0.0103
699.0315	0.0063
699.213	0.0109
699.3945	0.0174
699.576	0.0033
699.7575	-0.0027
699.9389	-0.0075
700.1203	-0.0074
700.3017	-0.0283
700.4831	-0.0032
700.6645	0.0134
700.8458	-0.0027
701.0271	0.0042
701.2084	-0.0394
701.3897	0.0081
701.571	-0.0111
701.7523	-0.0296
701.9335	0.0183
702.1147	0.0019
702.2959	0.0068
702.4771	0.0164
702.6583	-0.0177
702.8394	-0.0155
703.0205	-0.0199
703.2016	-0.0104
703.3827	0.0248
703.5638	0.0027
703.7449	0.016
703.9259	-0.0067
704.1069	0.0043
704.2879	0.0071
704.4689	0.0147
704.6499	-0.0471
704.8308	-0.0108
705.0117	-0.0367
705.1927	0.0135
705.3735	-0.0199
705.5544	0.0123
705.7353	-0.0049
705.9161	0.0032
706.0969	-0.0076
706.2777	0.0148
706.4585	-0.018
706.6393	0.0029
706.82	-0.0091
707.0007	-0.0044
707.1815	0.0224
707.3621	-0.0007
707.5428	0.0091
707.7235	0.0163
707.9041	-0.0186
708.0847	-0.0032
708.2653	-0.0168
708.4459	-0.0192
708.6265	0.0034
708.807	0.04
708.9875	0.0048
709.168	0.0018
709.3485	0.0021
709.529	0.0057
709.7095	-0.0124
709.8899	0.0042
710.0703	0.0059
710.2507	-0.0139
710.4311	-0.0116
710.6115	-0.0107
710.7918	-0.0025
710.9721	-0.0065
711.1524	0.0056
711.3327	-0.0048
711.513	-0.0235
711.6932	-0.0204
711.8735	0.0135
712.0537	-0.0335
712.2339	-0.019
712.4141	0.0008
712.5942	0.0223
712.7744	-0.0065
712.9545	0.0174
713.1346	-0.0048
713.3147	-0.004
713.4947	-0.0025
713.6748	-0.0052
713.8548	-0.0299
714.0348	0.0088
714.2148	-0.0041
714.3948	0.018
714.5748	-0.0196
714.7547	-0.0141
714.9346	-0.0072
715.1145	-0.0073
715.2944	-0.0237
715.4743	0.0037
715.6541	-0.0467
715.834	0.0139
716.0138	0.0207
716.1936	0.0017
716.3733	-0.01
716.5531	0.0125
716.7328	-0.0169
716.9126	-0.019
717.0923	0.0068
717.2719	-0.0098
717.4516	-0.0355
717.6312	-0.0066
717.8109	-0.0056
717.9905	0.0047
718.1701	-0.0275
718.3496	0.0132
718.5292	0.0051
718.7087	-0.007
718.8882	0.0199
719.0677	-0.0217
719.2472	0.0094
719.4267	0.0192
719.6061	-0.0097
719.7856	-0.0255
719.965	0.0013
720.1443	-0.021
720.3237	0.0251
720.5031	-0.0071
720.6824	-0.0199
720.8617	-0.0052
721.041	0.0142
721.2203	0.014
721.3995	-0.0114
721.5788	-0.0172
721.758	-0.0108
721.9372	0.0175
722.1164	-0.0013
722.2956	-0.0137
722.4747	0.0387
722.6538	0.0026
722.8329	-0.0095
723.012	-0.0117
723.1911	-0.0071
723.3702	-0.0455
723.5492	-0.0166
723.7282	-0.0294
723.9072	-0.0125
724.0862	-0.0023
724.2652	-0.0479
724.4441	0.0049
724.623	-0.0151
724.8019	0.0103
724.9808	-0.0102
725.1597	-0.0145
725.3385	-0.0073
725.5174	0.0168
725.6962	0.0098
725.875	-0.0084
726.0538	0.0108
726.2325	-0.0156
726.4112	0.0057
726.59	0.0096
726.7687	0.0073
726.9474	-0.0174
727.126	-0.0322
727.3047	-0.0126
727.4833	0.041
727.6619	0.0214
727.8405	-0.0306
728.0191	-0.0635
728.1976	-0.0257
728.3762	-0.0351
728.5547	-0.0079
728.7332	-0.0004
728.9116	-0.0664
729.0901	0.0016
729.2686	-0.0116
729.447	-0.0204
729.6254	0.0235
729.8038	-0.0045
729.9821	-0.004
730.1605	-0.021
730.3388	-0.0163
730.5171	-0.0071
730.6954	0.0273
730.8737	0.0175
731.0519	0.0081
731.2302	-0.0112
731.4084	-0.01
731.5866	-0.0128
731.7648	-0.0132
731.9429	0.0003
732.1211	-0.0132
732.2992	-0.0115
732.4773	0.0033
732.6554	-0.0036
732.8335	-0.0055
733.0115	-0.0252
733.1896	-0.0059
733.3676	-0.0076
733.5456	0.007
733.7235	0.0002
733.9015	0.0089
734.0794	-0.0037
734.2574	0.0114
734.4353	-0.0211
734.6131	0.0139
734.791	-0.003
734.9689	-0.0159
735.1467	-0.0075
735.3245	-0.0083
735.5023	0.0108
735.68	-0.0044
735.8578	0.0008
736.0355	-0.0035
736.2132	-0.0032
736.3909	-0.0199
736.5686	-0.0062
736.7463	-0.0146
736.9239	0.0088
737.1015	-0.0083
737.2791	-0.0082
737.4567	-0.0031
737.6343	0.0248
737.8118	0.0127
737.9894	0.0057
738.1669	-0.0007
738.3444	-0.0071
738.5218	0.0178
738.6993	0.0031
738.8767	0.0003
739.0541	0.0035
739.2315	0.0035
739.4089	0.0012
739.5863	-0.0179
739.7636	-0.0125
739.9409	0.0022
740.1182	-0.0055
740.2955	-0.0273
740.4728	0.0099
740.65	-0.0435
740.8272	-0.0473
741.0044	-0.002
741.1816	-0.0042
741.3588	-0.0126
741.5359	-0.002
741.7131	0.0342
741.8902	-0.0099
742.0673	0.0098
742.2444	-0.0085
742.4214	0.0134
742.5985	-0.0241
742.7755	-0.0393
742.9525	0.005
743.1295	-0.0162
743.3064	0.0005
743.4834	-0.0025
743.6603	-0.0334
743.8372	0.0038
744.0141	-0.0051
744.191	-0.0284
744.3678	0.0147
744.5446	-0.0103
744.7215	-0.0275
744.8982	-0.0158
745.075	-0.0098
745.2518	-0.0071
745.4285	-0.0228
745.6052	0.0151
745.7819	-0.0038
745.9586	0.0014
746.1353	-0.0159
746.3119	-0.0173
746.4885	0.0005
746.6651	-0.0505
746.8417	-0.0158
747.0183	-0.0116
747.1948	-0.0173
747.3714	-0.0103
747.5479	-0.01
747.7244	-0.0488
747.9008	0.0097
748.0773	0.0194
748.2537	0.0124
748.4301	0.0199
748.6065	-0.0109
748.7829	-0.022
748.9593	-0.0091
749.1356	-0.0014
749.3119	-0.0255
749.4882	0.0109
749.6645	0.0107
749.8408	-0.0136
750.017	0.001
750.1933	0.0198
750.3695	0.002
750.5457	-0.0163
750.7218	-0.0019
750.898	-0.002
751.0741	0.0077
751.2502	0.0025
751.4263	0.0033
751.6024	-0.0038
751.7784	-0.0187
751.9545	-0.0513
752.1305	0.017
752.3065	0.0069
752.4825	-0.0145
752.6584	0.0166
752.8344	0.0029
753.0103	-0.0176
753.1862	-0.0079
753.3621	-0.0067
753.5379	-0.0188
753.7138	-0.0142
753.8896	0.0271
754.0654	-0.004
754.2412	0.0164
754.417	-0.0311
754.5927	-0.0063
754.7685	-0.0048
754.9442	-0.0118
755.1199	-0.0036
755.2956	0.0163
755.4712	-0.014
755.6469	0.0072
755.8225	0.0065
755.9981	-0.0045
756.1736	0.0184
756.3492	-0.0164
756.5248	-0.0114
756.7003	-0.0035
756.8758	-0.0096
757.0513	-0.0167
757.2267	-0.0093
757.4022	-0.0227
757.5776	-0.0277
757.753	-0.0187
757.9284	-0.0039
758.1038	-0.0091
758.2791	0.0032
758.4545	-0.0159
758.6298	-0.0069
758.8051	-0.0008
758.9803	-0.004
759.1556	-0.0272
759.3308	0.0057
759.506	0.0031
759.6812	-0.0055
759.8564	-0.0205
760.0316	0.0058
760.2067	-0.0186
760.3819	-0.0094
760.557	0.0009
760.732	0.0134
760.9071	-0.0052
761.0821	-0.0173
761.2572	0.0394
761.4322	-0.0214
761.6072	-0.0087
761.7821	0.013
761.9571	-0.0093
762.132	-0.0232
762.3069	-0.0072
762.4818	0.0051
762.6567	0.0073
762.8316	-0.0025
763.0064	-0.0259
763.1812	-0.0184
763.356	-0.0041
763.5308	-0.0158
763.7055	-0.0123
763.8803	0.0035
764.055	-0.0067
764.2297	0.0027
764.4044	-0.0146
764.579	-0.0063
764.7537	-0.0075
764.9283	-0.0227
765.1029	0.0031
765.2775	-0.0305
765.4521	-0.0031
765.6266	-0.0085
765.8011	-0.0108
765.9756	0.0199
766.1501	0.0045
766.3246	-0.0258
766.4991	-0.0092
766.6735	-0.0097
766.8479	0.0166
767.0223	0.0066
767.1967	-0.0066
767.371	-0.0262
767.5454	0.0078
767.7197	0.0098
767.894	-0.0186
768.0683	-0.0302
768.2425	0.0162
768.4168	0.0056
768.591	-0.0007
768.7652	-0.0112
768.9394	-0.0035
769.1135	0.0075
769.2877	0.0082
769.4618	0.0157
769.6359	-0.0216
769.81	-0.0078
769.984	-0.0217
770.1581	-0.0045
770.3321	0.005
770.5061	0.0288
770.6801	0.0095
770.8541	-0.0204
771.028	0.0018
771.202	-0.0474
771.3759	0.0024
771.5498	-0.0202
771.7236	-0.0293
771.8975	-0.0284
772.0713	-0.0076
772.2451	-0.036
772.4189	-0.023
772.5927	-0.0198
772.7665	0.029
772.9402	0.0081
773.1139	0.0028
773.2876	-0.0344
773.4613	-0.0201
773.635	-0.0051
773.8086	0.0006
773.9822	0.009
774.1558	-0.0095
774.3294	-0.0331
774.503	-0.0123
774.6765	0.0332
774.8501	-0.0105
775.0236	0.0397
775.1971	-0.0155
775.3705	-0.0143
775.544	-0.0267
775.7174	-0.0272
775.8908	-0.0247
776.0642	0.0325
776.2376	-0.0619
776.4109	0.0755
776.5843	0.0091
776.7576	0.0017
776.9309	0.0092
777.1041	-0.0269
777.2774	0.0206
777.4506	-0.0088
777.6238	-0.0248
777.797	-0.0155
777.9702	0.0064
778.1434	0.007
778.3165	-0.0179
778.4896	0.0096
778.6627	0.0345
778.8358	-0.0276
779.0089	-0.0029
779.1819	-0.0091
779.3549	0.0063
779.5279	-0.0071
779.7009	-0.005
779.8739	-0.0155
780.0468	0.0339
780.2197	-0.0501
780.3926	0.006
780.5655	-0.0288
780.7384	0.0131
780.9112	0.0025
781.0841	-0.0136
781.2569	-0.0343
781.4297	0.031
781.6024	-0.0368
781.7752	-0.024
781.9479	-0.0126
782.1206	0.0016
782.2933	0
782.466	-0.0209
782.6386	0.0023
782.8113	0.0153
782.9839	-0.0362
783.1565	-0.0261
783.329	0.0116
783.5016	-0.0262
783.6741	-0.0006
783.8466	-0.0373
784.0191	0.0132
784.1916	-0.0407
784.3641	-0.028
784.5365	0.0401
784.7089	-0.0127
784.8813	-0.0073
785.0537	-0.0242
785.2261	0.0047
785.3984	-0.0051
785.5707	0.0144
785.743	-0.0648
785.9153	0.0112
786.0876	-0
786.2598	0.0029
786.432	-0.0447
786.6042	0.0313
786.7764	-0.0055
786.9486	-0.0086
787.1207	0.0507
787.2928	-0.0443
787.4649	0.0143
787.637	0.0407
787.8091	-0.0332
787.9811	-0.0171
788.1532	0.0053
788.3252	-0.0216
788.4972	-0.011
788.6691	0.0249
788.8411	-0.0095
789.013	-0.018
789.1849	-0.0105
789.3568	-0.0054
789.5287	-0.0505
789.7005	0.0483
789.8723	-0.0538
790.0442	-0.0388
790.2159	0.0207
790.3877	0.0047
790.5595	0.0383
790.7312	-0.0536
790.9029	0.0103
791.0746	-0.0045
791.2463	0.0214
791.4179	-0.0331
791.5896	-0.0897
791.7612	-0.0115
791.9328	-0.0188
792.1044	-0.0367
792.2759	0.0124
792.4474	-0.0558
792.619	0.0148
792.7905	0.0391
792.9619	-0.0111
793.1334	-0.0381
793.3048	-0.0436
793.4762	-0.071
793.6476	-0.0432
793.819	-0.0553
793.9904	0.007
794.1617	-0.012
794.333	-0.0202
794.5043	0.0184
794.6756	0.0222
794.8469	-0.0081
795.0181	-0.0033
795.1893	-0.0237
795.3605	-0.0163
795.5317	0.0293
795.7029	0.0081
795.874	-0.0177
796.0452	-0.012
796.2163	0.0129
796.3873	0.0382
796.5584	0.0766
796.7294	-0.107
796.9005	-0.0929
797.0715	-0.0158
797.2425	0.0057
797.4134	0.0366
797.5844	-0.0145
797.7553	0.0162
797.9262	0.0067
798.0971	-0.0525
798.2679	-0.02
798.4388	-0.05
798.6096	-0.0059
798.7804	-0.0151
798.9512	0.0478
799.122	0.0081
799.2927	-0.0495
799.4635	0.0323
799.6342	-0.0043
799.8049	-0.0175
799.9755	-0.0415
800.1462	-0.0235
800.3168	-0.0328
800.4874	0.0397
800.658	0.0495
800.8286	0.0017
800.9991	0.0433
801.1696	-0.0508
801.3402	-0.0112
801.5106	-0.1131
801.6811	-0.016
801.8516	0.0417
802.022	-0.0258
802.1924	-0.0799
802.3628	-0.0466
802.5332	-0.0361
802.7035	-0.0504
802.8739	-0.0232
803.0442	0.0763
803.2145	-0.04
803.3847	-0.0106
803.555	-0.0255
803.7252	0.053
803.8954	0.0228
804.0656	0.0015
804.2358	-0.0268
804.4059	0.0684
804.5761	0.0289
804.7462	-0.0511
804.9163	-0.0644
805.0864	-0.0725
805.2564	0.0426
805.4264	-0.0327
805.5965	0.0151
805.7665	0.004
805.9364	-0.0579
806.1064	-0.0272
806.2763	0.0759
806.4462	0.002
806.6161	-0.04
806.786	0.0175
806.9559	0.0311
807.1257	-0.0279
807.2955	0.0731
807.4653	-0.0569
807.6351	-0.0097
807.8048	0.0046
807.9746	-0.0346
808.1443	0.0239
808.314	0.0154
808.4837	-0.0875
808.6533	0.0771
808.8229	-0.1019
808.9926	-0.0304
809.1622	-0.0466
809.3317	-0.017
809.5013	0.0573
809.6708	0.1037
809.8403	-0.0217
810.0098	0.1571
810.1793	0.0738
810.3488	-0.0257
810.5182	-0.0421
810.6876	-0.0227
810.857	-0.068
811.0264	-0.1202
811.1958	0.0294
811.3651	-0.0756
811.5344	-0.0958
811.7037	-0.0028
811.873	0.0248
812.0422	0.0496
812.2115	0.0118
812.3807	0.0696
812.5499	-0.0466
812.7191	0.038
812.8882	-0.0091
813.0574	-0.0706
813.2265	-0.0172
813.3956	0.075
813.5646	-0.0238
813.7337	-0.0895
813.9027	-0.0246
814.0718	-0.0184
814.2407	-0.1688
814.4097	0.0582
814.5787	-0.0187
814.7476	0.0385
814.9165	0.0212
815.0854	-0.0322
815.2543	-0
815.4232	-0.1489
815.592	0.0195
815.7608	0.0084
815.9296	0.1404
816.0984	0.0515
816.2671	-0.0136
816.4359	0.077
816.6046	0.1058
816.7733	-0.1613
816.942	0.0973
817.1106	-0.2256
817.2793	-0.0225
817.4479	-0.1001
817.6165	-0.0794
817.785	0.0644
817.9536	0.087
818.1221	0.022
818.2906	0.0325
818.4591	0.0099
818.6276	0.0125
818.7961	-0.0276
818.9645	-0.0103
819.1329	0.4427
819.3013	0.0089
819.4697	0.3336
819.638	-0.0283
819.8064	-0.1194
819.9747	-0.0318
820.143	-0.1055
820.3113	0.1197
820.4795	0.1407
820.6477	-0.078
820.816	0.0292
820.9842	0.0226
821.1523	0.1749
821.3205	0.023
821.4886	-0.048
821.6567	-0.0766
821.8248	0.0808
821.9929	0.0165
822.1609	-0.0126
822.329	-0.0113
822.497	-0.0466
822.665	0.1435
822.833	-0.0175
823.0009	-0.0635
823.1688	-0.0048
823.3367	-0.0291
823.5046	0.1043
823.6725	0.1377
823.8404	-0.0854
824.0082	0.0261
824.176	0.1286
824.3438	0.308
824.5116	0.0145
824.6793	0.0734
824.847	-0.0163
825.0147	0.0451
825.1824	0.0515
825.3501	0.0879
825.5177	0.0678
825.6854	0.1656
825.853	-0.1292
826.0206	-0.0534
826.1881	-0.031
826.3557	0.1771
826.5232	0.0703
826.6907	0.0137
826.8582	-0.0561
827.0257	-0.0844
827.1931	0.0768
827.3605	-0.0394
827.528	0.079
827.6953	0.0117
827.8627	0.0033
828.03	-0.0652
828.1974	-0.1153
828.3647	-0.0396
828.532	0.0811
828.6992	-0.0219
828.8665	0.0487
829.0337	0.3563
829.2009	0.2256
829.3681	-0.006
829.5352	-0.0083
829.7024	-0.0201
829.8695	-0.0044
830.0366	0.0496
830.2037	-0.0673
830.3707	-0.1081
830.5378	0.0909
830.7048	-0.1918
830.8718	0.0182
831.0388	0.1071
831.2057	-0.1886
831.3727	0.039
831.5396	-0.2887
831.7065	0.1664
831.8734	0.0476
832.0402	0.0774
832.2071	0.2282
832.3739	-0.0177
832.5407	-0.2069
832.7075	-0.0206
832.8742	0.1652
833.041	-0.1352
833.2077	-0.0945
833.3744	-0.0377
833.541	-0.1291
833.7077	0.019
833.8743	-0.0902
834.0409	0.0584
834.2075	0.115
834.3741	0.0381
834.5407	-0.0696
834.7072	-0.031
834.8737	0.0861
835.0402	-0.2104
835.2067	-0.0357
835.3731	0.1611
835.5395	-0.0236
835.706	0.4643
835.8723	-0.0911
836.0387	0.0965
836.2051	-0.1385
836.3714	-0.2677
836.5377	-0.2702
836.704	0.2192
836.8703	0.0493
837.0365	0.0446
837.2027	0.7494
837.3689	0.7288
837.5351	-0.1069
837.7013	0.1038
837.8674	-0
838.0335	-0.0332
838.1997	0.2016
838.3657	-0
838.5318	-0.4109
838.6978	0.368
838.8639	-0.158
839.0299	0.3169
839.1958	0.1141
839.3618	-0
839.5277	-0.1924
839.6937	-0.2529
839.8596	0.0481
840.0254	0.1447
840.1913	0.1563
840.3571	0.0894
840.523	0.383
840.6888	-0.1058
840.8545	-0.2299
841.0203	0.1218
841.186	-0.0371
841.3517	0.1538
841.5174	0.3272
841.6831	0.8205
841.8488	0.8105
842.0144	0.1573
842.18	0.9385
842.3456	0.2088
842.5112	-0.0661
842.6767	-0.121
842.8422	-0.1856
843.0077	0.0763
843.1732	-0.0115
843.3387	-0.3731
843.5042	1.0228
843.6696	-0.5359
843.835	0.983
844.0004	-0.0602
844.1657	-0.1416
844.3311	-0.3926
844.4964	0.6277
844.6617	-0
844.827	0.299
844.9923	0.0247
845.1575	-0
845.3227	0.099
845.4879	0.3083
845.6531	0.1509
845.8183	0.1194
845.9834	-0
846.1485	-0.1239
846.3136	0.0978
846.4787	0.5315
846.6438	0.7147
846.8088	-0
846.9738	-0
847.1388	0.415
847.3038	-0.0592
847.4687	-0
847.6337	1.0076
847.7986	0.2997
847.9635	-0.2435
848.1284	-0.5027
848.2932	-0.0785
848.458	-0.1148
848.6228	-0
848.7876	1.1427
848.9524	0.1388
849.1172	-0.2602
849.2819	-0
849.4466	0.082
849.6113	0.0557
849.7759	-0
849.9406	0.0993
850.1052	-0.5702
850.2698	0.699
850.4344	-0.1924
850.599	-0
850.7635	0.048
850.928	0.1412
851.0925	-0.2486
851.257	-0.139
851.4215	-0.5189
851.5859	-0.0737
851.7503	-0
851.9147	-0
852.0791	-0.5131
852.2434	0.0312
852.4078	-0
852.5721	0.605
852.7364	0.214
852.9007	-0.3938
853.0649	0.1541
853.2291	0.2644
853.3934	-0.0804
853.5575	-0.203
853.7217	-0.4222
853.8859	0.9542
854.05	-1.0376
854.2141	-0
854.3782	0.3752
854.5423	-0.9222
854.7063	-0.0818
854.8703	-0.0951
855.0343	0.0382
855.1983	-0.1049
855.3623	0.2259
855.5262	-0
855.6901	0.3061
855.854	-0.2419
856.0179	-0
856.1818	-0.4309
856.3456	0.4188
856.5094	-0
856.6732	-0
856.837	0.4353
857.0008	-0.0429
857.1645	-0
857.3282	0.0786
857.4919	-0.2261
857.6556	0.5285
857.8192	-0.291
857.9828	0.2251
858.1465	1.0669
858.31	-0
858.4736	-0.2598
858.6372	0.5643
858.8007	-1.3901
858.9642	0.4374
859.1277	-0.0997
859.2911	0.1269
859.4546	0.4978
859.618	0.1237
859.7814	-0
859.9448	-0
860.1081	-0
860.2715	-0.1321
860.4348	-0.0355
860.5981	-0.1347
860.7614	0.0285
860.9246	-0.2913
861.0879	-0.7452
861.2511	0.0737
861.4143	0.827
861.5774	0.2168
861.7406	-0.5948
861.9037	-0.0233
862.0668	-0.4109
862.2299	-2.0531
862.393	-0
862.556	-0.2962
862.7191	0.326
862.8821	-0.223
863.0451	0.604
863.208	-0
863.371	0.0984
863.5339	-0.0353
863.6968	-0.1487
863.8597	-0.7884
864.0225	-0.0355
864.1854	-0
864.3482	0.7739
864.511	-0.0936
864.6737	0.2957
864.8365	-0.1688
864.9992	-0.0386
865.1619	0.1428
865.3246	-0
865.4873	-0.4543
865.65	-0
865.8126	2.0043
865.9752	0.0175
866.1378	-0.1058
866.3004	0.1788
866.4629	-0.1113
866.6254	-0
866.7879	2.1959
866.9504	-0
867.1129	-0.1985
867.2753	-0.1588
867.4377	0.4021
867.6001	0.4099
867.7625	-0.1827
867.9249	-0
868.0872	0.2336
868.2495	-0.1052
868.4118	-0.4568
868.5741	-0
868.7363	-0
868.8986	-0.3959
869.0608	-0
869.223	0.2416
869.3851	0.5458
869.5473	-1.5006
869.7094	-0
869.8715	-0
870.0336	-0.1982
870.1957	-0
870.3577	0.5244
870.5197	0.1033
870.6817	-0
870.8437	-0
871.0057	1.349
871.1676	0.4329
871.3295	-0
871.4914	0.5643
871.6533	-0
871.8151	-0.4554
871.977	0.1788
872.1388	-1.1805
872.3006	0.1325
872.4623	-0.6895
872.6241	-0
872.7858	-0.1682
872.9475	-0
873.1092	0.3806
873.2709	0.735
873.4325	-0
873.5941	-0.2083
873.7557	-0.2407
873.9173	-0.4597
874.0789	-0.0892
874.2404	-0.6357
874.4019	0.1879
874.5634	-0
874.7249	-0
874.8863	-0.047
875.0478	-0.1378
875.2092	0.415
875.3706	0.4663
875.5319	0.1992
875.6933	-0
875.8546	-0
876.0159	-0.1058
876.1772	-0
876.3385	-0.1421
876.4997	-0.0611
876.6609	-0
876.8221	0.5894
876.9833	-0.2363
877.1445	0.0149
877.3056	-0.2534
877.4667	0.699
877.6278	0.1115
877.7889	0.5215
877.9499	-0.28
878.111	-0.0346
878.272	-0.415
878.433	0.6419
878.5939	-0
878.7549	-0
878.9158	-0.3947
879.0767	-0
879.2376	-0
879.3984	-0.1296
879.5593	-0.2021
879.7201	-0.3646
879.8809	-0
880.0417	0.1333
880.2024	0.3992
880.3632	-0.1804
880.5239	-0.2709
880.6846	-0
880.8452	0.3823
881.0059	-0.081
881.1665	0.4924
881.3271	0.0605
881.4877	0.3458
881.6483	-1.0669
881.8088	-0.4868
881.9693	0.1437
882.1298	0.1437
882.2903	0.1437
