Data from D4ACN5uM480nmA_Absorbance_12-08-01-884.txt Node
Date: Fri Feb 21 12:08:01 GMT 2025
User: LASERRRRR
Spectrometer: FLMT03099
Trigger mode: 0
Integration Time (sec): 1.500000E-2
Scans to average: 1
Electric dark correction enabled: true
Nonlinearity correction enabled: false
Boxcar width: 0
XAxis mode: Wavelengths
Number of Pixels in Spectrum: 3648
>>>>>Begin Spectral Data<<<<<
179.3399	0.0329
179.5586	0.0329
179.7771	0.0329
179.9957	0.3938
180.2143	0.0026
180.4329	-0
180.6514	-0
180.8699	-0.587
181.0885	-0.2053
181.307	1.2344
181.5255	0.0819
181.744	-0
181.9625	0.3113
182.181	0.574
182.3994	-0
182.6179	-0
182.8363	-0.201
183.0547	-0
183.2732	0.2436
183.4916	0.2944
183.71	0.0487
183.9284	0.4041
184.1467	-0.0769
184.3651	0.1936
184.5835	0.0774
184.8018	0.0996
185.0201	0.0881
185.2385	0.0705
185.4568	0.1329
185.6751	0.0651
185.8934	0.0914
186.1117	0.2446
186.3299	0.1162
186.5482	0.036
186.7664	0.43
186.9847	0.1995
187.2029	0.2473
187.4211	0.0739
187.6393	0.1933
187.8575	0.0573
188.0757	0.4273
188.2939	0.1243
188.512	0.1302
188.7302	0.0544
188.9483	0.2664
189.1665	0.6168
189.3846	0.0512
189.6027	-0.0635
189.8208	0.1495
190.0389	0.4643
190.257	0.193
190.475	0.1048
190.6931	0.3992
190.9111	0.4722
191.1292	0.2541
191.3472	0.2953
191.5652	0.4709
191.7832	0.2767
192.0012	0.325
192.2192	0.2974
192.4371	0.1634
192.6551	0.5022
192.873	0.383
193.091	0.2482
193.3089	0.0325
193.5268	0.2768
193.7447	0.4437
193.9626	0.3036
194.1805	0.4391
194.3984	0.4175
194.6162	0.4152
194.8341	0.6382
195.0519	0.4006
195.2697	0.5936
195.4875	0.602
195.7054	0.4547
195.9231	0.3861
196.1409	0.5349
196.3587	0.5008
196.5765	0.5146
196.7942	0.5114
197.012	0.424
197.2297	0.51
197.4474	0.8988
197.6651	0.5937
197.8828	0.5608
198.1005	0.5681
198.3182	0.4787
198.5358	0.5418
198.7535	0.4851
198.9711	0.5435
199.1888	0.5032
199.4064	0.5324
199.624	0.5976
199.8416	0.5301
200.0592	0.5533
200.2767	0.5995
200.4943	0.6134
200.7119	0.4959
200.9294	0.5432
201.1469	0.5394
201.3645	0.6048
201.582	0.5323
201.7995	0.5678
202.017	0.5149
202.2344	0.5357
202.4519	0.4854
202.6694	0.5803
202.8868	0.5124
203.1042	0.5171
203.3217	0.5162
203.5391	0.4733
203.7565	0.448
203.9739	0.498
204.1913	0.5246
204.4086	0.5074
204.626	0.5067
204.8433	0.4593
205.0607	0.5005
205.278	0.4968
205.4953	0.4674
205.7126	0.473
205.9299	0.4278
206.1472	0.4662
206.3644	0.4359
206.5817	0.4621
206.7989	0.4725
207.0162	0.3908
207.2334	0.416
207.4506	0.421
207.6678	0.4152
207.885	0.4425
208.1022	0.4352
208.3194	0.4316
208.5365	0.4549
208.7537	0.4404
208.9708	0.4516
209.1879	0.4476
209.405	0.4248
209.6222	0.4025
209.8392	0.4116
210.0563	0.4223
210.2734	0.3973
210.4905	0.4011
210.7075	0.4349
210.9245	0.4153
211.1416	0.3996
211.3586	0.4074
211.5756	0.3967
211.7926	0.4151
212.0096	0.3908
212.2265	0.401
212.4435	0.4161
212.6604	0.3928
212.8774	0.3855
213.0943	0.4195
213.3112	0.4102
213.5281	0.4218
213.745	0.4087
213.9619	0.373
214.1788	0.3968
214.3956	0.4135
214.6125	0.3914
214.8293	0.3964
215.0461	0.3968
215.2629	0.3941
215.4798	0.3748
215.6965	0.373
215.9133	0.4061
216.1301	0.4038
216.3469	0.4048
216.5636	0.3963
216.7803	0.4133
216.9971	0.4198
217.2138	0.3898
217.4305	0.4085
217.6472	0.4051
217.8639	0.3938
218.0805	0.3996
218.2972	0.4035
218.5138	0.4095
218.7305	0.4047
218.9471	0.4012
219.1637	0.4011
219.3803	0.4092
219.5969	0.4117
219.8135	0.4287
220.0301	0.4113
220.2466	0.4339
220.4632	0.4178
220.6797	0.4187
220.8962	0.4143
221.1127	0.4189
221.3292	0.4239
221.5457	0.438
221.7622	0.4163
221.9787	0.4298
222.1951	0.4266
222.4116	0.4421
222.628	0.4283
222.8444	0.4255
223.0608	0.4452
223.2772	0.4262
223.4936	0.445
223.71	0.4565
223.9264	0.4234
224.1427	0.4543
224.3591	0.4398
224.5754	0.4665
224.7917	0.4538
225.008	0.4549
225.2243	0.461
225.4406	0.448
225.6569	0.4673
225.8732	0.466
226.0894	0.4481
226.3057	0.4509
226.5219	0.4751
226.7381	0.4623
226.9543	0.4688
227.1705	0.4659
227.3867	0.4898
227.6029	0.4644
227.8191	0.4827
228.0352	0.497
228.2513	0.4922
228.4675	0.4859
228.6836	0.4871
228.8997	0.4998
229.1158	0.4859
229.3319	0.4925
229.548	0.4896
229.764	0.5032
229.9801	0.5061
230.1961	0.5078
230.4121	0.5039
230.6282	0.5006
230.8442	0.5185
231.0602	0.5179
231.2761	0.5196
231.4921	0.5033
231.7081	0.5191
231.924	0.5223
232.14	0.5198
232.3559	0.5188
232.5718	0.5311
232.7877	0.5124
233.0036	0.5197
233.2195	0.5338
233.4353	0.5326
233.6512	0.5133
233.867	0.5285
234.0829	0.5341
234.2987	0.5302
234.5145	0.5128
234.7303	0.5304
234.9461	0.5374
235.1619	0.5343
235.3776	0.5278
235.5934	0.5287
235.8091	0.5199
236.0249	0.537
236.2406	0.5384
236.4563	0.5354
236.672	0.5276
236.8877	0.5337
237.1034	0.529
237.319	0.5372
237.5347	0.5174
237.7503	0.5457
237.966	0.5303
238.1816	0.5182
238.3972	0.5319
238.6128	0.5373
238.8284	0.5299
239.0439	0.5366
239.2595	0.5204
239.475	0.5216
239.6906	0.5317
239.9061	0.5223
240.1216	0.5401
240.3371	0.526
240.5526	0.5173
240.7681	0.525
240.9836	0.5109
241.199	0.5148
241.4145	0.5007
241.6299	0.4971
241.8453	0.4945
242.0607	0.4889
242.2761	0.4861
242.4915	0.4662
242.7069	0.4606
242.9223	0.4619
243.1376	0.4515
243.353	0.4341
243.5683	0.4419
243.7836	0.4237
243.9989	0.4194
244.2142	0.4076
244.4295	0.3982
244.6448	0.3933
244.86	0.3946
245.0753	0.3797
245.2905	0.3701
245.5057	0.3675
245.721	0.3604
245.9362	0.3569
246.1514	0.3309
246.3665	0.3441
246.5817	0.3387
246.7969	0.3266
247.012	0.3265
247.2271	0.3027
247.4423	0.3024
247.6574	0.3045
247.8725	0.3
248.0876	0.2945
248.3026	0.2887
248.5177	0.2771
248.7328	0.2774
248.9478	0.2683
249.1628	0.2612
249.3779	0.2676
249.5929	0.2627
249.8079	0.2507
250.0228	0.2515
250.2378	0.2527
250.4528	0.254
250.6677	0.2384
250.8827	0.2299
251.0976	0.2424
251.3125	0.234
251.5274	0.2289
251.7423	0.2292
251.9572	0.2153
252.172	0.2215
252.3869	0.2195
252.6017	0.2183
252.8166	0.2171
253.0314	0.2209
253.2462	0.2185
253.461	0.2119
253.6758	0.207
253.8906	0.2047
254.1053	0.2012
254.3201	0.2009
254.5348	0.2071
254.7496	0.2041
254.9643	0.2021
255.179	0.1954
255.3937	0.1995
255.6083	0.1957
255.823	0.1992
256.0377	0.1985
256.2523	0.1925
256.467	0.1992
256.6816	0.1996
256.8962	0.1912
257.1108	0.1921
257.3254	0.1894
257.54	0.1892
257.7545	0.1902
257.9691	0.1906
258.1836	0.1941
258.3981	0.1877
258.6127	0.1811
258.8272	0.1865
259.0417	0.1809
259.2561	0.1886
259.4706	0.1887
259.6851	0.1861
259.8995	0.1762
260.114	0.184
260.3284	0.1883
260.5428	0.1792
260.7572	0.1856
260.9716	0.1857
261.186	0.1856
261.4003	0.1827
261.6147	0.1873
261.829	0.1808
262.0433	0.1852
262.2577	0.191
262.472	0.1873
262.6863	0.1794
262.9005	0.1908
263.1148	0.1817
263.3291	0.1826
263.5433	0.1828
263.7576	0.1817
263.9718	0.1945
264.186	0.1829
264.4002	0.1809
264.6144	0.1894
264.8286	0.1895
265.0427	0.1864
265.2569	0.1919
265.471	0.1873
265.6851	0.1826
265.8993	0.181
266.1134	0.1858
266.3275	0.1873
266.5415	0.1846
266.7556	0.1781
266.9697	0.1848
267.1837	0.1821
267.3978	0.189
267.6118	0.1848
267.8258	0.1925
268.0398	0.1826
268.2538	0.1834
268.4677	0.1775
268.6817	0.1771
268.8957	0.1868
269.1096	0.1726
269.3235	0.1862
269.5374	0.1787
269.7514	0.1827
269.9652	0.1811
270.1791	0.1802
270.393	0.182
270.6068	0.1732
270.8207	0.1719
271.0345	0.1744
271.2483	0.1769
271.4622	0.178
271.676	0.1716
271.8897	0.1703
272.1035	0.1733
272.3173	0.1705
272.531	0.1724
272.7448	0.1669
272.9585	0.1772
273.1722	0.1729
273.3859	0.165
273.5996	0.1682
273.8133	0.1693
274.0269	0.1802
274.2406	0.1696
274.4542	0.1681
274.6679	0.166
274.8815	0.1754
275.0951	0.1773
275.3087	0.1729
275.5223	0.1725
275.7358	0.1771
275.9494	0.1761
276.1629	0.1737
276.3765	0.1746
276.59	0.1738
276.8035	0.179
277.017	0.1756
277.2305	0.1735
277.444	0.1731
277.6574	0.1793
277.8709	0.1764
278.0843	0.1766
278.2978	0.1832
278.5112	0.178
278.7246	0.1801
278.938	0.1733
279.1513	0.1809
279.3647	0.1732
279.5781	0.1774
279.7914	0.1841
280.0047	0.1787
280.2181	0.1799
280.4314	0.1765
280.6447	0.1828
280.8579	0.1848
281.0712	0.1813
281.2845	0.1865
281.4977	0.1888
281.711	0.1814
281.9242	0.1823
282.1374	0.1811
282.3506	0.1825
282.5638	0.1814
282.7769	0.1839
282.9901	0.1793
283.2033	0.1842
283.4164	0.1784
283.6295	0.1805
283.8426	0.183
284.0557	0.1859
284.2688	0.1921
284.4819	0.1944
284.695	0.1904
284.908	0.1913
285.1211	0.19
285.3341	0.1923
285.5471	0.1893
285.7601	0.1866
285.9731	0.1847
286.1861	0.1887
286.3991	0.192
286.612	0.1947
286.825	0.1938
287.0379	0.1974
287.2508	0.188
287.4637	0.1915
287.6766	0.1931
287.8895	0.194
288.1024	0.1972
288.3152	0.1912
288.5281	0.1953
288.7409	0.1969
288.9538	0.1973
289.1666	0.1992
289.3794	0.2004
289.5922	0.1926
289.8049	0.2023
290.0177	0.1944
290.2304	0.2027
290.4432	0.2049
290.6559	0.1953
290.8686	0.199
291.0813	0.1991
291.294	0.2038
291.5067	0.1994
291.7194	0.1936
291.932	0.2045
292.1447	0.1983
292.3573	0.2
292.5699	0.2001
292.7825	0.2017
292.9951	0.1985
293.2077	0.2022
293.4203	0.206
293.6328	0.1946
293.8454	0.1965
294.0579	0.1991
294.2704	0.2003
294.4829	0.2035
294.6954	0.1976
294.9079	0.2003
295.1204	0.199
295.3328	0.1934
295.5453	0.1947
295.7577	0.1918
295.9701	0.198
296.1825	0.1979
296.3949	0.2019
296.6073	0.2023
296.8197	0.1949
297.0321	0.2011
297.2444	0.2013
297.4567	0.19
297.6691	0.2001
297.8814	0.1983
298.0937	0.1998
298.306	0.1984
298.5182	0.2018
298.7305	0.1926
298.9428	0.1927
299.155	0.2002
299.3672	0.1992
299.5794	0.1855
299.7916	0.2001
300.0038	0.1984
300.216	0.2025
300.4282	0.1966
300.6403	0.1944
300.8525	0.2017
301.0646	0.1963
301.2767	0.1946
301.4888	0.1963
301.7009	0.1965
301.913	0.1972
302.125	0.1977
302.3371	0.1931
302.5491	0.1959
302.7612	0.2015
302.9732	0.1934
303.1852	0.1959
303.3972	0.1934
303.6092	0.1906
303.8211	0.1893
304.0331	0.1878
304.245	0.1916
304.457	0.1998
304.6689	0.1969
304.8808	0.1878
305.0927	0.1894
305.3046	0.1843
305.5164	0.1858
305.7283	0.1863
305.9401	0.1859
306.152	0.1788
306.3638	0.179
306.5756	0.1821
306.7874	0.1818
306.9992	0.1767
307.2109	0.1725
307.4227	0.1725
307.6344	0.1753
307.8462	0.1712
308.0579	0.1665
308.2696	0.1674
308.4813	0.1643
308.693	0.1641
308.9046	0.1598
309.1163	0.158
309.328	0.1566
309.5396	0.1612
309.7512	0.1525
309.9628	0.1509
310.1744	0.1525
310.386	0.1449
310.5976	0.1451
310.8091	0.1429
311.0207	0.147
311.2322	0.1479
311.4437	0.1447
311.6552	0.1446
311.8667	0.1375
312.0782	0.1473
312.2897	0.138
312.5012	0.1403
312.7126	0.1346
312.924	0.1332
313.1355	0.128
313.3469	0.1277
313.5583	0.1291
313.7696	0.1262
313.981	0.127
314.1924	0.128
314.4037	0.1249
314.6151	0.126
314.8264	0.127
315.0377	0.1253
315.249	0.123
315.4603	0.1254
315.6716	0.122
315.8828	0.1205
316.0941	0.1259
316.3053	0.1201
316.5165	0.1187
316.7277	0.1224
316.9389	0.1169
317.1501	0.1224
317.3613	0.1198
317.5724	0.1209
317.7836	0.1161
317.9947	0.1151
318.2058	0.1176
318.417	0.1128
318.6281	0.1178
318.8391	0.1185
319.0502	0.1187
319.2613	0.1178
319.4723	0.1129
319.6834	0.1215
319.8944	0.1175
320.1054	0.1127
320.3164	0.1177
320.5274	0.1068
320.7383	0.1158
320.9493	0.1155
321.1602	0.1175
321.3712	0.1158
321.5821	0.1182
321.793	0.1126
322.0039	0.1189
322.2148	0.1194
322.4257	0.1136
322.6365	0.1119
322.8474	0.1105
323.0582	0.1169
323.269	0.1136
323.4798	0.1162
323.6906	0.115
323.9014	0.114
324.1122	0.1121
324.3229	0.121
324.5337	0.1218
324.7444	0.1151
324.9551	0.1193
325.1658	0.1209
325.3765	0.114
325.5872	0.1129
325.7979	0.1189
326.0085	0.1153
326.2192	0.1121
326.4298	0.1195
326.6404	0.1187
326.851	0.1201
327.0616	0.1263
327.2722	0.1236
327.4828	0.1178
327.6933	0.1146
327.9039	0.1142
328.1144	0.1165
328.3249	0.1246
328.5354	0.1216
328.7459	0.1175
328.9564	0.1263
329.1669	0.1242
329.3773	0.1197
329.5878	0.1221
329.7982	0.1222
330.0086	0.1242
330.219	0.1238
330.4294	0.1294
330.6398	0.1257
330.8502	0.1239
331.0605	0.1188
331.2708	0.1266
331.4812	0.1205
331.6915	0.1235
331.9018	0.1204
332.1121	0.1253
332.3224	0.1271
332.5326	0.1234
332.7429	0.1227
332.9531	0.1285
333.1633	0.124
333.3735	0.1244
333.5837	0.1304
333.7939	0.1231
334.0041	0.1229
334.2143	0.1266
334.4244	0.1231
334.6346	0.1279
334.8447	0.1258
335.0548	0.1266
335.2649	0.1225
335.475	0.132
335.685	0.1249
335.8951	0.1256
336.1051	0.1278
336.3152	0.127
336.5252	0.1244
336.7352	0.117
336.9452	0.1376
337.1552	0.1318
337.3652	0.1293
337.5751	0.1317
337.7851	0.1279
337.995	0.1299
338.2049	0.1306
338.4148	0.1305
338.6247	0.1309
338.8346	0.1336
339.0445	0.1328
339.2543	0.1357
339.4642	0.1385
339.674	0.1349
339.8838	0.1298
340.0936	0.1296
340.3034	0.1345
340.5132	0.1272
340.7229	0.1321
340.9327	0.1333
341.1424	0.1371
341.3522	0.1445
341.5619	0.1345
341.7716	0.1347
341.9813	0.1468
342.1909	0.1422
342.4006	0.1495
342.6102	0.1368
342.8199	0.1334
343.0295	0.1457
343.2391	0.1416
343.4487	0.1429
343.6583	0.1507
343.8679	0.1382
344.0774	0.1428
344.287	0.1446
344.4965	0.1412
344.706	0.1506
344.9155	0.1428
345.125	0.1392
345.3345	0.1427
345.544	0.1462
345.7534	0.144
345.9629	0.1467
346.1723	0.1469
346.3817	0.1499
346.5911	0.1551
346.8005	0.146
347.0099	0.1531
347.2193	0.1488
347.4286	0.151
347.638	0.1547
347.8473	0.1537
348.0566	0.1593
348.2659	0.1502
348.4752	0.1519
348.6845	0.1604
348.8937	0.1577
349.103	0.1546
349.3122	0.1664
349.5214	0.1554
349.7306	0.1605
349.9398	0.1595
350.149	0.1652
350.3582	0.1578
350.5674	0.1683
350.7765	0.1668
350.9856	0.162
351.1948	0.1626
351.4039	0.163
351.613	0.1789
351.822	0.1696
352.0311	0.1696
352.2402	0.1718
352.4492	0.1708
352.6582	0.1708
352.8672	0.1679
353.0762	0.1661
353.2852	0.1709
353.4942	0.175
353.7032	0.1695
353.9121	0.1716
354.1211	0.1642
354.33	0.1785
354.5389	0.1802
354.7478	0.1801
354.9567	0.1783
355.1655	0.174
355.3744	0.1735
355.5833	0.1869
355.7921	0.1811
356.0009	0.1682
356.2097	0.1872
356.4185	0.1897
356.6273	0.1822
356.8361	0.1902
357.0448	0.1884
357.2536	0.1905
357.4623	0.1841
357.671	0.1866
357.8797	0.1976
358.0884	0.1863
358.2971	0.1901
358.5057	0.1986
358.7144	0.1995
358.923	0.1906
359.1316	0.1942
359.3402	0.2
359.5488	0.1989
359.7574	0.2004
359.966	0.2004
360.1746	0.1933
360.3831	0.2064
360.5916	0.2005
360.8002	0.2085
361.0087	0.2122
361.2172	0.2087
361.4256	0.2024
361.6341	0.2165
361.8426	0.1998
362.051	0.2099
362.2594	0.2149
362.4678	0.2081
362.6762	0.2182
362.8846	0.2131
363.093	0.2146
363.3014	0.2224
363.5097	0.2146
363.718	0.2268
363.9264	0.2235
364.1347	0.2278
364.343	0.219
364.5513	0.2263
364.7595	0.2343
364.9678	0.2265
365.176	0.2308
365.3842	0.2301
365.5925	0.2292
365.8007	0.23
366.0089	0.2345
366.217	0.2378
366.4252	0.2327
366.6333	0.2438
366.8415	0.2351
367.0496	0.2342
367.2577	0.245
367.4658	0.2374
367.6739	0.2389
367.882	0.249
368.09	0.237
368.2981	0.2372
368.5061	0.2435
368.7141	0.2458
368.9221	0.2509
369.1301	0.2422
369.3381	0.2526
369.5461	0.254
369.754	0.2459
369.962	0.2516
370.1699	0.252
370.3778	0.2586
370.5857	0.2588
370.7936	0.25
371.0015	0.2548
371.2093	0.2559
371.4172	0.2609
371.625	0.2587
371.8328	0.2651
372.0406	0.2594
372.2484	0.2558
372.4562	0.2668
372.664	0.2685
372.8717	0.2594
373.0795	0.2674
373.2872	0.2685
373.4949	0.2766
373.7026	0.2743
373.9103	0.2661
374.118	0.2646
374.3256	0.2747
374.5333	0.2756
374.7409	0.2668
374.9485	0.2796
375.1561	0.2807
375.3637	0.2696
375.5713	0.2793
375.7789	0.2775
375.9864	0.2837
376.194	0.2743
376.4015	0.2885
376.609	0.2897
376.8165	0.2838
377.024	0.2818
377.2315	0.293
377.4389	0.2789
377.6464	0.2856
377.8538	0.2845
378.0612	0.2758
378.2686	0.2881
378.476	0.2818
378.6834	0.2887
378.8908	0.2891
379.0981	0.2939
379.3055	0.2974
379.5128	0.2956
379.7201	0.2964
379.9274	0.2897
380.1347	0.299
380.342	0.3015
380.5492	0.2948
380.7565	0.2949
380.9637	0.2982
381.1709	0.3016
381.3781	0.3024
381.5853	0.3051
381.7925	0.3117
381.9997	0.3039
382.2068	0.2989
382.4139	0.302
382.6211	0.3066
382.8282	0.3042
383.0353	0.3049
383.2424	0.3093
383.4494	0.3083
383.6565	0.3148
383.8635	0.3141
384.0706	0.3002
384.2776	0.3122
384.4846	0.311
384.6916	0.3024
384.8986	0.315
385.1055	0.3213
385.3125	0.3052
385.5194	0.3032
385.7263	0.3085
385.9333	0.3088
386.1402	0.3296
386.347	0.3094
386.5539	0.3098
386.7608	0.3091
386.9676	0.3069
387.1744	0.3119
387.3813	0.3086
387.5881	0.3132
387.7948	0.3214
388.0016	0.3067
388.2084	0.312
388.4151	0.3043
388.6219	0.3067
388.8286	0.3205
389.0353	0.3038
389.242	0.3002
389.4487	0.3003
389.6553	0.3017
389.862	0.3047
390.0686	0.3006
390.2753	0.2986
390.4819	0.313
390.6885	0.2959
390.8951	0.3083
391.1016	0.2978
391.3082	0.2923
391.5147	0.3033
391.7213	0.3006
391.9278	0.2902
392.1343	0.2898
392.3408	0.2886
392.5473	0.2838
392.7537	0.2886
392.9602	0.284
393.1666	0.2905
393.373	0.2898
393.5794	0.2849
393.7858	0.2833
393.9922	0.281
394.1986	0.2849
394.4049	0.2779
394.6113	0.2796
394.8176	0.2649
395.0239	0.2675
395.2302	0.2732
395.4365	0.2701
395.6428	0.2796
395.8491	0.2815
396.0553	0.2765
396.2615	0.272
396.4678	0.2757
396.674	0.268
396.8802	0.2641
397.0863	0.2788
397.2925	0.2643
397.4987	0.2587
397.7048	0.2727
397.9109	0.2705
398.117	0.2676
398.3231	0.2767
398.5292	0.2673
398.7353	0.2584
398.9413	0.2656
399.1474	0.2715
399.3534	0.2673
399.5594	0.27
399.7654	0.2654
399.9714	0.2661
400.1774	0.257
400.3833	0.2721
400.5893	0.2609
400.7952	0.271
401.0011	0.2669
401.207	0.2652
401.4129	0.2698
401.6188	0.2684
401.8247	0.2606
402.0305	0.2584
402.2364	0.2675
402.4422	0.2788
402.648	0.2677
402.8538	0.2856
403.0596	0.2691
403.2654	0.2562
403.4711	0.2619
403.6768	0.2581
403.8826	0.266
404.0883	0.2549
404.294	0.2728
404.4997	0.2567
404.7054	0.2658
404.911	0.2661
405.1167	0.2721
405.3223	0.2752
405.5279	0.2655
405.7335	0.2615
405.9391	0.256
406.1447	0.2698
406.3502	0.2644
406.5558	0.2707
406.7613	0.2569
406.9668	0.2711
407.1724	0.2652
407.3778	0.2631
407.5833	0.2568
407.7888	0.2635
407.9942	0.269
408.1997	0.2648
408.4051	0.2604
408.6105	0.2681
408.8159	0.2623
409.0213	0.2595
409.2267	0.2536
409.432	0.2657
409.6374	0.2619
409.8427	0.2623
410.048	0.2604
410.2533	0.2613
410.4586	0.2607
410.6639	0.2584
410.8691	0.2802
411.0744	0.2562
411.2796	0.2601
411.4848	0.2568
411.69	0.2612
411.8952	0.2632
412.1004	0.2607
412.3056	0.2565
412.5107	0.2657
412.7158	0.2635
412.921	0.2618
413.1261	0.2642
413.3312	0.2546
413.5362	0.2579
413.7413	0.261
413.9464	0.2593
414.1514	0.2562
414.3564	0.2486
414.5614	0.2649
414.7664	0.2617
414.9714	0.2613
415.1764	0.2525
415.3813	0.2531
415.5863	0.2535
415.7912	0.256
415.9961	0.2593
416.201	0.2657
416.4059	0.255
416.6108	0.2583
416.8156	0.2545
417.0205	0.2551
417.2253	0.2643
417.4301	0.2667
417.6349	0.2493
417.8397	0.2622
418.0445	0.254
418.2492	0.2586
418.454	0.2507
418.6587	0.2579
418.8634	0.2552
419.0681	0.2467
419.2728	0.2502
419.4775	0.2547
419.6822	0.2449
419.8868	0.2617
420.0915	0.2611
420.2961	0.2411
420.5007	0.247
420.7053	0.2498
420.9099	0.2364
421.1144	0.2339
421.319	0.246
421.5235	0.2358
421.728	0.2391
421.9325	0.246
422.137	0.2343
422.3415	0.2384
422.546	0.2406
422.7504	0.2344
422.9549	0.2248
423.1593	0.2444
423.3637	0.2271
423.5681	0.2409
423.7725	0.2395
423.9769	0.2252
424.1812	0.2367
424.3856	0.2266
424.5899	0.2254
424.7942	0.2202
424.9985	0.224
425.2028	0.2253
425.4071	0.2254
425.6113	0.2262
425.8156	0.223
426.0198	0.2243
426.224	0.2297
426.4282	0.2273
426.6324	0.2267
426.8366	0.218
427.0407	0.2224
427.2449	0.212
427.449	0.2093
427.6531	0.2176
427.8572	0.2163
428.0613	0.2093
428.2654	0.2149
428.4694	0.2074
428.6735	0.2075
428.8775	0.2069
429.0815	0.2065
429.2855	0.2075
429.4895	0.2067
429.6935	0.1978
429.8975	0.2004
430.1014	0.2009
430.3053	0.1991
430.5093	0.2037
430.7132	0.1954
430.9171	0.1949
431.1209	0.1881
431.3248	0.1861
431.5286	0.1716
431.7325	0.1831
431.9363	0.1814
432.1401	0.1748
432.3439	0.1704
432.5477	0.1769
432.7514	0.1704
432.9552	0.1702
433.1589	0.1671
433.3627	0.1683
433.5664	0.1756
433.7701	0.1713
433.9737	0.1644
434.1774	0.1647
434.3811	0.1661
434.5847	0.1642
434.7883	0.1566
434.9919	0.1531
435.1955	0.1631
435.3991	0.1534
435.6027	0.151
435.8062	0.1587
436.0098	0.1463
436.2133	0.1473
436.4168	0.1526
436.6203	0.139
436.8238	0.1387
437.0272	0.1304
437.2307	0.1285
437.4341	0.1294
437.6375	0.1293
437.841	0.1328
438.0443	0.1311
438.2477	0.1268
438.4511	0.1283
438.6545	0.1269
438.8578	0.1266
439.0611	0.126
439.2644	0.1152
439.4677	0.1115
439.671	0.1125
439.8743	0.1146
440.0775	0.1171
440.2808	0.1159
440.484	0.1108
440.6872	0.1046
440.8904	0.1057
441.0936	0.1127
441.2967	0.0939
441.4999	0.1048
441.703	0.1006
441.9062	0.1021
442.1093	0.0936
442.3124	0.1009
442.5155	0.0865
442.7185	0.088
442.9216	0.0905
443.1246	0.0958
443.3276	0.0785
443.5307	0.0823
443.7337	0.0914
443.9366	0.079
444.1396	0.0753
444.3426	0.0862
444.5455	0.0736
444.7484	0.0664
444.9513	0.0825
445.1542	0.0752
445.3571	0.0663
445.56	0.0737
445.7628	0.0742
445.9657	0.0668
446.1685	0.0746
446.3713	0.0682
446.5741	0.0655
446.7769	0.0656
446.9797	0.0701
447.1824	0.0627
447.3852	0.0564
447.5879	0.0716
447.7906	0.0606
447.9933	0.0607
448.196	0.0581
448.3986	0.05
448.6013	0.0592
448.8039	0.0512
449.0066	0.0537
449.2092	0.0477
449.4118	0.0508
449.6143	0.0461
449.8169	0.0527
450.0195	0.0384
450.222	0.0488
450.4245	0.0572
450.627	0.0394
450.8295	0.0429
451.032	0.0471
451.2345	0.0416
451.4369	0.0423
451.6394	0.0359
451.8418	0.0375
452.0442	0.035
452.2466	0.041
452.449	0.0319
452.6513	0.0405
452.8537	0.0292
453.056	0.0375
453.2583	0.0418
453.4607	0.0287
453.663	0.036
453.8652	0.034
454.0675	0.034
454.2697	0.0395
454.472	0.0192
454.6742	0.0226
454.8764	0.0305
455.0786	0.0281
455.2808	0.028
455.4829	0.0292
455.6851	0.021
455.8872	0.0231
456.0893	0.031
456.2915	0.0264
456.4935	0.0152
456.6956	0.0226
456.8977	0.0241
457.0997	0.0211
457.3018	0.0245
457.5038	0.0152
457.7058	0.0172
457.9078	0.0244
458.1098	0.0228
458.3117	0.0203
458.5137	0.0279
458.7156	0.0397
458.9175	0.0161
459.1194	0.0265
459.3213	0.0127
459.5232	0.0106
459.725	0.0167
459.9269	0.0156
460.1287	0.0039
460.3305	0.0143
460.5323	0.0181
460.7341	0.0167
460.9359	0.0076
461.1376	0.016
461.3394	0.0129
461.5411	0.0165
461.7428	0.0128
461.9445	0.0106
462.1462	0.0148
462.3479	0.0131
462.5495	0.014
462.7512	0.0103
462.9528	0.0101
463.1544	0.0061
463.356	0.0126
463.5576	0.0027
463.7592	0.0064
463.9607	0.0046
464.1623	0.0193
464.3638	0.0107
464.5653	0.0104
464.7668	0.0027
464.9683	0.0097
465.1697	0.0037
465.3712	0.0098
465.5726	0.0117
465.7741	0.0073
465.9755	0.0124
466.1769	0.0107
466.3782	0.0034
466.5796	0.0012
466.7809	0.0082
466.9823	0.0085
467.1836	0.0115
467.3849	0.0073
467.5862	-0.0061
467.7875	0.0046
467.9887	0.0074
468.19	0.0011
468.3912	0.001
468.5924	0.0181
468.7936	0.0039
468.9948	0.0088
469.196	0.0071
469.3972	0.0134
469.5983	0.0007
469.7994	0.0018
470.0006	0.0034
470.2017	0.0094
470.4027	0.0013
470.6038	-0.0062
470.8049	0.0015
471.0059	0.0017
471.2069	0.0027
471.408	-0.0059
471.6089	0.0036
471.8099	-0.0049
472.0109	-0.0045
472.2119	0.0175
472.4128	0.0134
472.6137	-0.0002
472.8146	0.0094
473.0155	0.0002
473.2164	-0.0075
473.4173	0.0076
473.6181	0.011
473.819	0.0013
474.0198	0.0001
474.2206	0.0043
474.4214	0.0091
474.6222	0.0042
474.8229	0.0015
475.0237	-0.0009
475.2244	0.0073
475.4251	-0.0018
475.6258	-0.0008
475.8265	0.0005
476.0272	0.0033
476.2278	0.0069
476.4285	-0.0006
476.6291	0.0095
476.8297	-0.0069
477.0303	0.0019
477.2309	-0.0045
477.4315	0.0144
477.632	0.0006
477.8326	0.0108
478.0331	0.004
478.2336	0.0096
478.4341	0.0069
478.6346	-0.0009
478.8351	0.0052
479.0355	0.0073
479.236	0.0007
479.4364	-0.0096
479.6368	0.0026
479.8372	0.0045
480.0376	-0.0012
480.2379	0.0002
480.4383	-0.0017
480.6386	-0.0014
480.8389	0.0011
481.0392	0.0045
481.2395	0.0004
481.4398	0.003
481.6401	0.0033
481.8403	-0.0032
482.0405	0.0035
482.2408	-0.0017
482.441	0.0019
482.6411	0.0024
482.8413	-0.0046
483.0415	0.0047
483.2416	-0.0036
483.4417	-0.0011
483.6419	-0.0054
483.8419	0.0013
484.042	0.0027
484.2421	-0.0032
484.4422	0.0079
484.6422	0.0019
484.8422	0.0039
485.0422	0.0058
485.2422	0.0021
485.4422	-0.0056
485.6422	-0.0011
485.8421	-0.0022
486.042	0.0029
486.242	0.0052
486.4419	0.0006
486.6417	0.0006
486.8416	0.0025
487.0415	-0.0027
487.2413	0.0048
487.4411	-0.0025
487.641	0.0121
487.8408	0.0036
488.0405	-0.0002
488.2403	-0.0043
488.4401	-0.004
488.6398	0.011
488.8395	0.0044
489.0392	-0.0069
489.2389	0.0031
489.4386	-0.0062
489.6383	0.0044
489.8379	0.0005
490.0376	0.0107
490.2372	-0.0067
490.4368	0.0053
490.6364	0.0044
490.836	-0.0024
491.0355	0.007
491.2351	0.0051
491.4346	-0.001
491.6341	-0.0033
491.8336	-0.008
492.0331	-0.0017
492.2326	0.0005
492.432	-0.0045
492.6315	-0.0029
492.8309	-0.0028
493.0303	-0.0072
493.2297	-0.0035
493.4291	-0.0018
493.6284	-0.0011
493.8278	-0.0002
494.0271	0.002
494.2264	-0.0019
494.4257	-0.0026
494.625	-0.0036
494.8243	0.005
495.0236	0.001
495.2228	-0.0068
495.422	0.0072
495.6213	-0.0021
495.8205	0.0035
496.0196	0.0048
496.2188	-0.0024
496.418	-0.0093
496.6171	0.0036
496.8162	0.006
497.0153	0.0042
497.2144	0.0021
497.4135	0.0029
497.6126	-0.008
497.8116	0.001
498.0107	0.0025
498.2097	0.0067
498.4087	-0.0029
498.6077	0.0068
498.8067	0.0067
499.0056	0.0031
499.2046	-0.001
499.4035	0.0024
499.6024	-0.0134
499.8013	0.0062
500.0002	0.0005
500.199	-0.0007
500.3979	0.0066
500.5967	-0.0063
500.7956	-0.0099
500.9944	0.0064
501.1932	0.0061
501.3919	0.0009
501.5907	0.0036
501.7895	-0.0037
501.9882	-0.007
502.1869	0.0036
502.3856	-0.0063
502.5843	0.0054
502.783	0.0027
502.9816	-0.003
503.1803	0.0105
503.3789	0.0004
503.5775	-0.0015
503.7761	-0.008
503.9747	-0.0072
504.1732	0.0005
504.3718	0.0018
504.5703	0.0027
504.7689	-0.0067
504.9674	0.0055
505.1658	0.0036
505.3643	-0.0034
505.5628	0.0101
505.7612	0.003
505.9597	0.0095
506.1581	-0.0016
506.3565	-0.0087
506.5549	0.0021
506.7532	0.0041
506.9516	0.0047
507.1499	-0.0047
507.3482	0.0077
507.5465	-0.0044
507.7448	0.0056
507.9431	0.0025
508.1414	0.002
508.3396	0.0011
508.5379	-0.0031
508.7361	0.0043
508.9343	-0.0014
509.1325	0.0073
509.3306	-0.0047
509.5288	0.0037
509.7269	0.0044
509.9251	-0.0029
510.1232	-0.0036
510.3213	-0.0052
510.5193	0.005
510.7174	-0.0128
510.9154	0.0024
511.1135	0.005
511.3115	0.0013
511.5095	0.0018
511.7075	-0.0069
511.9055	0.0063
512.1034	0.0018
512.3014	0.0031
512.4993	-0.0036
512.6972	-0.0051
512.8951	0.0061
513.093	-0.009
513.2908	-0.0057
513.4887	0.0084
513.6865	-0.0106
513.8844	0.0055
514.0822	0.0045
514.2799	-0
514.4777	-0.0061
514.6755	-0.0002
514.8732	-0.0029
515.0709	-0.0007
515.2687	-0.0022
515.4664	-0.0093
515.664	0.0069
515.8617	0.0072
516.0594	-0.0058
516.257	0.0011
516.4546	-0.0032
516.6522	-0.0038
516.8498	-0.0027
517.0474	-0.0084
517.2449	-0.0056
517.4425	0.002
517.64	0.0002
517.8375	0.0095
518.035	-0.0027
518.2325	-0.0065
518.43	0.0016
518.6274	-0.0104
518.8249	-0.0018
519.0223	-0.0061
519.2197	0.0029
519.4171	-0.0059
519.6145	-0.0025
519.8118	-0.0002
520.0092	-0.0031
520.2065	-0.0002
520.4038	-0.0024
520.6011	-0.0028
520.7984	0.0023
520.9956	-0.0028
521.1929	-0.0002
521.3901	0.0031
521.5874	0.0099
521.7846	-0.0011
521.9818	-0.0061
522.1789	0.0165
522.3761	0.0027
522.5732	-0.0079
522.7704	0.0008
522.9675	-0.0167
523.1646	0.0123
523.3617	0.0007
523.5587	-0.0056
523.7558	0.0089
523.9528	0.0007
524.1498	0.0008
524.3468	-0.0037
524.5438	-0.0064
524.7408	-0.0006
524.9378	-0.0016
525.1347	-0.0009
525.3316	0.0103
525.5285	0.0033
525.7254	-0.0101
525.9223	-0.0067
526.1192	-0.0119
526.316	-0.0089
526.5129	0.0031
526.7097	-0.0099
526.9065	-0.0015
527.1033	-0.0044
527.3	-0.0063
527.4968	-0.0109
527.6935	0.0047
527.8903	-0.0005
528.087	-0.0042
528.2837	0.0064
528.4804	0.0026
528.677	0.0054
528.8737	-0.0068
529.0703	0.0049
529.2669	-0.009
529.4635	0.0078
529.6601	0.0067
529.8567	0.0089
530.0532	-0.0055
530.2498	-0.0052
530.4463	-0.0062
530.6428	-0.001
530.8393	0.0032
531.0358	-0.0056
531.2322	0.0054
531.4287	-0.0063
531.6251	0.0045
531.8215	-0.0037
532.0179	-0.0028
532.2143	0.0115
532.4107	-0.0019
532.607	-0.0027
532.8034	0.0027
532.9997	0.0039
533.196	0.0072
533.3923	-0.003
533.5886	0.0001
533.7848	-0.0129
533.9811	-0.0064
534.1773	0.004
534.3735	-0.0007
534.5697	0.0069
534.7659	-0.0006
534.9621	0.0053
535.1582	0.0017
535.3544	0.0095
535.5505	0.0026
535.7466	-0.0081
535.9427	-0.0087
536.1387	0.0006
536.3348	-0.0007
536.5308	0.0062
536.7269	-0.0049
536.9229	0.0068
537.1189	-0.0054
537.3148	-0.0072
537.5108	0.0039
537.7068	0.0085
537.9027	0.007
538.0986	0.0021
538.2945	0.0062
538.4904	-0.0011
538.6863	0.0062
538.8821	-0.014
539.078	-0.001
539.2738	-0.0146
539.4696	0.0026
539.6654	-0.0031
539.8611	0.0011
540.0569	-0.0004
540.2526	-0.0055
540.4484	-0.0157
540.6441	0.0044
540.8398	-0.0064
541.0355	0.0014
541.2311	0.0007
541.4268	0.009
541.6224	-0.0002
541.818	-0.0021
542.0136	-0.0133
542.2092	0.0032
542.4048	-0.0014
542.6003	0.0003
542.7959	0.0036
542.9914	0.0063
543.1869	0.0003
543.3824	0.0068
543.5779	0.0014
543.7734	-0.0037
543.9688	-0.0025
544.1642	0.0004
544.3596	-0.0015
544.555	-0.0015
544.7504	0.0046
544.9458	0.002
545.1411	-0.0093
545.3365	-0.0052
545.5318	-0.0025
545.7271	0.0093
545.9224	-0.0013
546.1177	0.0014
546.3129	-0.0124
546.5081	-0.0158
546.7034	-0.0031
546.8986	-0.0066
547.0938	-0.0054
547.289	-0.0068
547.4841	-0.0005
547.6793	-0.0158
547.8744	-0.0075
548.0695	-0.0059
548.2646	-0.0012
548.4597	-0.007
548.6548	0.0054
548.8498	-0.0057
549.0448	0.0001
549.2399	-0.0018
549.4349	0.0069
549.6298	-0.008
549.8248	-0.0056
550.0198	0.0051
550.2147	-0.0014
550.4096	-0.0068
550.6045	0.0071
550.7994	0.001
550.9943	-0.0006
551.1892	-0.0003
551.384	-0.0025
551.5788	0.0059
551.7737	-0.0078
551.9685	0.0009
552.1632	-0.0003
552.358	-0.0027
552.5528	-0.0089
552.7475	-0.0087
552.9422	-0.0047
553.1369	-0.005
553.3316	-0.0091
553.5263	-0.0037
553.7209	-0.0067
553.9156	0.0031
554.1102	-0.0105
554.3048	0.0035
554.4994	0.0013
554.694	-0.0084
554.8885	-0.0031
555.0831	0.0124
555.2776	-0.0048
555.4721	-0.013
555.6666	-0.0012
555.8611	-0.0158
556.0555	0.0027
556.25	-0.0035
556.4444	0.0008
556.6388	-0.0094
556.8332	0.0006
557.0276	0.0177
557.222	-0.0007
557.4163	-0.0042
557.6107	-0.0046
557.805	-0.0072
557.9993	-0.0082
558.1936	0.0114
558.3879	-0.0035
558.5821	-0.0197
558.7764	0.0121
558.9706	-0.0003
559.1648	0.0001
559.359	0.0095
559.5532	-0.0169
559.7473	0.0141
559.9415	-0
560.1356	-0.0019
560.3297	-0.0067
560.5238	0.0025
560.7179	-0.0022
560.9119	0.0016
561.106	-0.0117
561.3	-0.0057
561.494	0.0016
561.688	-0.0021
561.882	0.0034
562.076	0.0018
562.2699	0.0043
562.4639	-0.0078
562.6578	0.0019
562.8517	-0.0027
563.0456	-0.0019
563.2395	0.0082
563.4333	-0.0059
563.6272	0.0119
563.821	0.0004
564.0148	-0.0048
564.2086	0.0078
564.4024	-0.004
564.5961	-0.0028
564.7899	-0.0011
564.9836	0.0067
565.1773	0.0019
565.371	0.0034
565.5647	-0.0158
565.7584	-0.0038
565.952	-0.0103
566.1456	0.0022
566.3393	0.0078
566.5329	0.0005
566.7264	-0.0001
566.92	0.0058
567.1136	0.0042
567.3071	-0.0012
567.5006	-0.0046
567.6941	-0.0039
567.8876	-0.0049
568.0811	-0.0068
568.2745	-0.0022
568.468	0.0002
568.6614	-0.0072
568.8548	-0.0036
569.0482	0.006
569.2416	-0.0039
569.4349	-0.0006
569.6283	-0.0006
569.8216	-0.0047
570.0149	0.0024
570.2082	0.0007
570.4015	0.0008
570.5947	-0.0022
570.788	-0.0011
570.9812	-0.0039
571.1744	-0.0057
571.3676	-0.0051
571.5608	0.0019
571.754	-0.0053
571.9471	0.0012
572.1402	0.0036
572.3333	0.0028
572.5264	0.0002
572.7195	0.0054
572.9126	-0.0024
573.1057	0.0024
573.2987	0.001
573.4917	0.0047
573.6847	-0.0008
573.8777	-0.0029
574.0707	-0.0045
574.2636	0.0004
574.4566	0.0026
574.6495	0.0035
574.8424	-0.0015
575.0353	-0.0009
575.2281	-0.0009
575.421	-0.0021
575.6138	-0.0015
575.8067	0.0004
575.9995	0.0015
576.1923	0.001
576.385	-0.0033
576.5778	-0.0009
576.7706	0.003
576.9633	0.0006
577.156	-0.0019
577.3487	0.001
577.5414	-0.0005
577.734	-0.0004
577.9267	-0.0001
578.1193	0.0002
578.3119	-0.0065
578.5045	-0.0051
578.6971	-0.0014
578.8897	-0.0002
579.0822	0.003
579.2747	-0.0054
579.4673	-0.0009
579.6598	0.0006
579.8522	-0.0012
580.0447	0.0009
580.2372	0.0074
580.4296	-0.0036
580.622	0.0017
580.8144	0.0033
581.0068	0.0018
581.1992	0.0017
581.3915	0.0009
581.5839	0.0005
581.7762	0.0011
581.9685	-0.0012
582.1608	0.0021
582.353	-0.0013
582.5453	0.0023
582.7375	0.0021
582.9298	-0.0023
583.122	-0.0025
583.3142	0.0071
583.5063	-0.0025
583.6985	0.0019
583.8906	-0.0034
584.0827	0.002
584.2749	0.001
584.4669	-0.0007
584.659	-0.0028
584.8511	-0.0025
585.0431	-0.0032
585.2352	-0.0049
585.4272	-0
585.6192	-0.0021
585.8111	-0.0052
586.0031	0.0016
586.195	0.0038
586.387	0.0007
586.5789	0.0016
586.7708	0.0002
586.9627	0.0035
587.1545	0.0011
587.3464	0
587.5382	-0.0033
587.73	0.001
587.9218	-0.0023
588.1136	-0.005
588.3053	-0.001
588.4971	-0.0029
588.6888	-0.0038
588.8805	0.0017
589.0722	-0.0043
589.2639	-0.0031
589.4556	-0.007
589.6472	-0.0065
589.8389	-0.0044
590.0305	0.0034
590.2221	0.0046
590.4137	-0.0059
590.6052	0.0005
590.7968	0.0064
590.9883	0.0028
591.1798	-0.0078
591.3713	-0.0029
591.5628	-0.0005
591.7543	-0.0039
591.9458	-0.003
592.1372	-0.0026
592.3286	0.0013
592.52	-0.0005
592.7114	-0.003
592.9028	-0.001
593.0941	-0.0038
593.2855	0.0053
593.4768	0.0008
593.6681	-0.0011
593.8594	-0.0052
594.0506	-0.0019
594.2419	-0.008
594.4331	-0.0047
594.6244	0.007
594.8156	0.0022
595.0067	0.0017
595.1979	-0.0075
595.3891	-0.0033
595.5802	0.0024
595.7713	-0.0029
595.9624	-0.0008
596.1535	-0.0007
596.3446	-0.0029
596.5357	-0.0091
596.7267	0.0002
596.9177	-0.0053
597.1087	0.0015
597.2997	-0.0009
597.4907	0.001
597.6817	-0.002
597.8726	0.0058
598.0635	0.003
598.2544	-0.0056
598.4453	-0.0121
598.6362	-0.0074
598.827	0.0038
599.0179	0.0002
599.2087	-0.0065
599.3995	0.0031
599.5903	0.002
599.7811	0.0016
599.9718	-0.0005
600.1626	0.001
600.3533	-0.0078
600.544	-0.003
600.7347	0.0022
600.9254	0.0062
601.116	-0.0051
601.3067	-0.0044
601.4973	0.005
601.6879	-0.0068
601.8785	-0.0024
602.0691	0.0011
602.2596	0.0014
602.4502	-0
602.6407	0.0035
602.8312	0.0026
603.0217	0.0065
603.2122	0.0034
603.4027	-0.0054
603.5931	-0.0011
603.7835	0.0015
603.9739	0.0053
604.1643	-0.0006
604.3547	0.0078
604.5451	-0.0003
604.7354	-0.0029
604.9257	-0.0054
605.116	0.0018
605.3063	-0.0003
605.4966	0.0019
605.6869	-0.0032
605.8771	0.0027
606.0673	0.0008
606.2575	-0.0035
606.4477	-0.0002
606.6379	-0.0006
606.8281	-0.0038
607.0182	0.0017
607.2083	-0.0013
607.3985	-0.0019
607.5885	-0.001
607.7786	-0.0012
607.9687	-0.0062
608.1587	-0.0021
608.3488	-0.0051
608.5388	-0.0037
608.7288	-0.0026
608.9187	0.0066
609.1087	-0.0013
609.2986	-0.0005
609.4886	0.0095
609.6785	0.005
609.8684	-0.0036
610.0582	0.0022
610.2481	0.0016
610.4379	0.0019
610.6278	-0.0053
610.8176	-0.0042
611.0074	-0.0107
611.1971	0.0036
611.3869	0.0033
611.5766	0.0006
611.7664	0.0062
611.9561	-0.0019
612.1458	-0.0033
612.3354	0.0012
612.5251	-0.0045
612.7147	0.0056
612.9044	-0.01
613.094	0.0063
613.2836	-0.0121
613.4731	-0.0024
613.6627	0.0052
613.8522	-0.0096
614.0417	-0.0018
614.2313	-0.0098
614.4207	-0.0034
614.6102	-0.0016
614.7997	-0.0012
614.9891	-0.0014
615.1785	0.0018
615.3679	-0.0006
615.5573	-0.0105
615.7467	-0.0041
615.9361	-0.0053
616.1254	0.0064
616.3147	0.0079
616.504	-0.0062
616.6933	-0.0051
616.8826	0.0079
617.0718	-0.0048
617.2611	-0.0071
617.4503	-0.0052
617.6395	-0.0002
617.8287	0.0073
618.0179	-0.0023
618.207	-0.0062
618.3961	0.0008
618.5853	0.0007
618.7744	0.0009
618.9634	0.0074
619.1525	0.0029
619.3416	-0.0008
619.5306	0.0016
619.7196	-0.0122
619.9086	0.0048
620.0976	-0.0061
620.2866	0.0078
620.4755	0.008
620.6645	-0.0065
620.8534	-0.0144
621.0423	-0.0084
621.2312	-0.0107
621.42	-0.0053
621.6089	-0
621.7977	-0.0032
621.9865	0.0103
622.1753	0.0019
622.3641	-0.0135
622.5529	-0.0066
622.7416	-0.0145
622.9303	0.0007
623.1191	-0.0102
623.3078	-0.0068
623.4964	-0.0051
623.6851	0.0024
623.8737	0.0135
624.0624	-0.0041
624.251	-0.0038
624.4396	-0.0035
624.6282	-0.0025
624.8167	0.0059
625.0053	-0.0016
625.1938	-0.0037
625.3823	-0.0049
625.5708	-0.0045
625.7593	-0.0002
625.9477	-0.008
626.1362	-0.0155
626.3246	-0.0167
626.513	0.0035
626.7014	-0.0077
626.8898	-0.0079
627.0781	0.0007
627.2665	0.0029
627.4548	0.0009
627.6431	-0.0131
627.8314	0.0115
628.0197	-0.0006
628.2079	-0.0073
628.3962	0.0054
628.5844	-0.0005
628.7726	-0.0084
628.9608	-0.002
629.1489	0.0108
629.3371	-0.0073
629.5252	0.0001
629.7134	0.0095
629.9015	-0.0007
630.0895	0.0001
630.2776	-0.0026
630.4657	-0.0104
630.6537	-0.0048
630.8417	-0.0051
631.0297	0.0017
631.2177	-0.0086
631.4057	-0.0087
631.5936	-0.0093
631.7815	-0.0064
631.9695	0.0061
632.1574	-0.0134
632.3452	-0.0094
632.5331	0.0053
632.7209	0.0038
632.9088	0.0025
633.0966	0.001
633.2844	-0.01
633.4722	0.002
633.6599	-0.0269
633.8477	-0.0139
634.0354	0.0081
634.2231	0.014
634.4108	-0.0108
634.5985	0.0028
634.7861	-0.0083
634.9738	0.0016
635.1614	-0.0015
635.349	-0.0137
635.5366	0.0063
635.7242	-0.0123
635.9117	0.0088
636.0993	-0.018
636.2868	-0.0072
636.4743	0.0066
636.6618	0.0028
636.8492	-0.0094
637.0367	0.0037
637.2241	-0.0092
637.4115	-0.0143
637.5989	0.0148
637.7863	-0.0153
637.9737	0.0069
638.161	-0.0172
638.3484	0.006
638.5357	0.0041
638.723	-0.0157
638.9103	0.0064
639.0975	0.0003
639.2848	0.0086
639.472	-0.0081
639.6592	-0.006
639.8464	0.0059
640.0336	-0.0058
640.2208	-0.0143
640.4079	0.005
640.595	0.0027
640.7821	-0.0108
640.9692	0.0104
641.1563	0.0088
641.3434	-0.0008
641.5304	-0.0148
641.7174	0.0089
641.9044	-0.0123
642.0914	-0.0213
642.2784	0.0048
642.4653	-0.0144
642.6523	-0.0049
642.8392	-0.005
643.0261	-0.0002
643.213	-0.0141
643.3999	-0.0134
643.5867	0.0067
643.7735	-0.0048
643.9604	-0.0172
644.1472	-0.0221
644.3339	-0.0191
644.5207	-0.0383
644.7075	0.0022
644.8942	0.0171
645.0809	-0.014
645.2676	-0.0122
645.4543	-0.01
645.6409	-0.0005
645.8276	-0.031
646.0142	0.0038
646.2008	-0
646.3874	-0.0115
646.574	-0.0196
646.7605	-0.0023
646.9471	0.0061
647.1336	0.0075
647.3201	-0.005
647.5066	-0.0104
647.6931	-0.0172
647.8795	0.0064
648.0659	-0.0177
648.2524	-0.0126
648.4388	-0.0028
648.6252	-0.0156
648.8115	0.0104
648.9979	0.0037
649.1842	-0.0304
649.3705	-0.0122
649.5568	-0.0167
649.7431	-0.003
649.9294	-0.0044
650.1156	-0.0206
650.3018	0.0109
650.488	-0.0026
650.6742	0.0066
650.8604	-0.0046
651.0466	-0.0056
651.2327	-0.0071
651.4188	-0.028
651.6049	-0.009
651.791	0.011
651.9771	-0.0102
652.1632	-0.0031
652.3492	-0.0028
652.5352	0.0103
652.7212	-0.0199
652.9072	-0.0031
653.0932	-0.0102
653.2791	0.0017
653.465	-0.02
653.651	0.0089
653.8369	0.0188
654.0227	-0.0022
654.2086	-0.0024
654.3944	-0.0075
654.5803	0.0048
654.7661	-0.0058
654.9519	-0.0033
655.1377	-0.0001
655.3234	-0.0001
655.5092	-0.0001
655.6949	-0.0001
655.8806	-0.0001
656.0663	-0.0001
656.2519	-0.0001
656.4376	-0.0001
656.6232	-0.0001
656.8088	-0.0001
656.9945	-0.0001
657.18	-0.0001
657.3656	-0.0001
657.5511	-0.0001
657.7367	-0.0001
657.9222	-0.0001
658.1077	-0.0001
658.2932	-0.0001
658.4786	-0.0001
658.6641	-0.0001
658.8495	-0.0001
659.0349	-0.0001
659.2203	-0.0001
659.4057	0.0209
659.591	0.0562
659.7764	0.0003
659.9617	-0.001
660.147	-0.0106
660.3323	0.0016
660.5176	-0.013
660.7028	0.0036
660.888	0.0102
661.0733	-0.0026
661.2585	-0.0051
661.4436	-0.0037
661.6288	-0.0175
661.8139	0.0087
661.9991	0.0093
662.1842	-0.0103
662.3693	-0.0121
662.5544	-0.0038
662.7394	0.0265
662.9245	-0.0049
663.1095	-0.0019
663.2945	-0.0109
663.4795	-0.0081
663.6644	0.0021
663.8494	0.0026
664.0343	-0.0205
664.2193	-0.0121
664.4042	-0.0141
664.589	-0.0121
664.7739	-0.0146
664.9587	-0.016
665.1436	-0.014
665.3284	-0.0167
665.5132	-0.0081
665.698	-0.0034
665.8827	-0.0296
666.0675	-0.0289
666.2522	0.0025
666.4369	-0.0241
666.6216	0.0018
666.8063	-0.013
666.9909	-0.0188
667.1756	-0.0049
667.3602	-0.0181
667.5448	0.0061
667.7294	-0.0338
667.9139	-0.0156
668.0985	-0.0165
668.283	-0.0203
668.4675	-0.0381
668.652	-0.0147
668.8365	-0.0156
669.0209	-0.027
669.2054	-0.0112
669.3898	0.0042
669.5742	0.0204
669.7586	-0.005
669.943	-0.0241
670.1273	-0.0132
670.3117	0.0185
670.496	-0.0003
670.6803	-0.0069
670.8646	-0.0072
671.0488	-0.0236
671.2331	-0.0089
671.4173	0.0015
671.6015	-0.0098
671.7857	-0.0112
671.9699	-0.0064
672.1541	-0.0024
672.3382	0.003
672.5223	-0.0096
672.7064	-0.0233
672.8905	-0.001
673.0746	-0.0048
673.2587	-0.0038
673.4427	0.0048
673.6267	-0.022
673.8107	-0.0092
673.9947	-0.0072
674.1787	-0.0043
674.3626	-0.0166
674.5465	0.0066
674.7304	-0.0393
674.9143	0.0047
675.0982	-0.0106
675.2821	0.0084
675.4659	-0.0209
675.6497	0.0015
675.8335	-0.0226
676.0173	-0.0059
676.2011	-0.0355
676.3849	-0.0171
676.5686	-0.0051
676.7523	0.0063
676.936	-0.0285
677.1197	0.009
677.3034	0.0147
677.487	-0.005
677.6706	-0.0072
677.8542	0.0093
678.0378	0.0002
678.2214	-0.0059
678.405	0.0101
678.5885	-0.0105
678.772	-0.0223
678.9555	0.0019
679.139	-0.0017
679.3225	-0.0283
679.5059	-0.0175
679.6894	-0.0055
679.8728	-0.0019
680.0562	-0.0181
680.2395	-0.0097
680.4229	-0.0433
680.6062	0.0002
680.7896	0.0119
680.9729	0.0014
681.1562	-0.0137
681.3394	0.0069
681.5227	-0.0239
681.7059	-0.0274
681.8891	-0.0022
682.0723	-0.0163
682.2555	0.008
682.4387	0.0026
682.6218	-0.0057
682.805	0.0021
682.9881	-0.0039
683.1712	0.0072
683.3542	-0.0071
683.5373	-0.0124
683.7203	-0.0075
683.9034	0.0013
684.0864	-0.0118
684.2694	-0.0087
684.4523	-0.0139
684.6353	-0.01
684.8182	-0.0097
685.0011	-0.0114
685.184	0.0036
685.3669	-0.0094
685.5498	-0.0039
685.7326	-0.0159
685.9154	0.0032
686.0982	-0.0078
686.281	-0.0096
686.4638	-0.0089
686.6465	-0.0073
686.8293	-0.0097
687.012	0.0051
687.1947	-0.0011
687.3774	0.0009
687.56	0.0017
687.7427	-0.0003
687.9253	-0.0158
688.1079	-0.0127
688.2905	-0.0247
688.4731	-0
688.6556	-0.0111
688.8382	-0.0098
689.0207	-0.0281
689.2032	-0.0172
689.3857	-0.0003
689.5681	-0.0144
689.7506	-0.0196
689.933	-0.0237
690.1154	-0.0042
690.2978	-0.0165
690.4802	-0
690.6626	-0.0133
690.8449	-0.0172
691.0272	-0.0214
691.2095	-0.0178
691.3918	-0.0173
691.5741	0.0091
691.7563	0.0065
691.9386	-0.0065
692.1208	-0.0099
692.303	0.0097
692.4852	0.0036
692.6673	-0.0203
692.8495	-0.0184
693.0316	-0.0092
693.2137	0.0242
693.3958	0.0096
693.5778	-0.0257
693.7599	-0.0288
693.9419	0.0013
694.1239	-0.0349
694.3059	-0.018
694.4879	-0.0391
694.6699	-0.0109
694.8518	-0.0127
695.0337	-0.0085
695.2157	-0.0343
695.3975	-0.0232
695.5794	-0.0296
695.7613	0.0201
695.9431	-0.0033
696.1249	-0.0073
696.3067	-0.0052
696.4885	-0.0033
696.6703	-0.0017
696.852	-0.0157
697.0337	-0.0137
697.2154	0.0068
697.3971	-0.0069
697.5788	0.0231
697.7605	-0.0015
697.9421	-0.0195
698.1237	0.0085
698.3053	-0.0226
698.4869	-0.0052
698.6685	-0.0024
698.85	-0.0069
699.0315	-0.0211
699.213	-0.0088
699.3945	-0.0141
699.576	0.0018
699.7575	-0.0351
699.9389	-0.0172
700.1203	-0.0078
700.3017	-0.0084
700.4831	-0.008
700.6645	-0.0095
700.8458	-0.0134
701.0271	-0.0147
701.2084	-0.0332
701.3897	-0.0042
701.571	-0.0011
701.7523	-0.0406
701.9335	0.018
702.1147	-0.0131
702.2959	0.011
702.4771	-0.0037
702.6583	-0.0246
702.8394	-0.0184
703.0205	-0.0125
703.2016	-0.0036
703.3827	-0.0077
703.5638	-0.0263
703.7449	-0.033
703.9259	-0.0063
704.1069	-0.007
704.2879	0.0253
704.4689	-0.0213
704.6499	-0.0499
704.8308	-0.0113
705.0117	-0.0459
705.1927	-0.0205
705.3735	-0.0143
705.5544	0.0014
705.7353	0.0133
705.9161	0.0092
706.0969	-0.008
706.2777	-0.0086
706.4585	-0.0173
706.6393	-0.0065
706.82	-0.0115
707.0007	0.0013
707.1815	0.0106
707.3621	-0.0041
707.5428	0.0083
707.7235	0.0181
707.9041	-0.022
708.0847	-0.0112
708.2653	-0.021
708.4459	-0.0069
708.6265	-0.0078
708.807	0.0084
708.9875	-0.0195
709.168	-0.0064
709.3485	-0.0025
709.529	-0.0053
709.7095	-0.0188
709.8899	0.0283
710.0703	-0.0166
710.2507	-0.0146
710.4311	0.0061
710.6115	0.002
710.7918	-0.0159
710.9721	-0.0188
711.1524	-0.024
711.3327	-0.0219
711.513	-0.0239
711.6932	-0.0481
711.8735	0.0144
712.0537	-0.0049
712.2339	-0.0062
712.4141	0.0051
712.5942	-0.0146
712.7744	-0.0055
712.9545	0.0016
713.1346	-0.0029
713.3147	0.0101
713.4947	-0.0075
713.6748	-0.0143
713.8548	-0.0186
714.0348	0.0052
714.2148	-0.0027
714.3948	-0.022
714.5748	-0.0229
714.7547	-0.0164
714.9346	-0.0076
715.1145	-0.0165
715.2944	-0.0056
715.4743	-0.0148
715.6541	-0.0191
715.834	0.0092
716.0138	0.0048
716.1936	-0.0125
716.3733	-0.0096
716.5531	-0.0016
716.7328	-0.0097
716.9126	-0.0201
717.0923	-0.0072
717.2719	0.0138
717.4516	-0.0256
717.6312	-0.047
717.8109	-0.0045
717.9905	-0.0086
718.1701	-0.0331
718.3496	-0.0178
718.5292	-0.0157
718.7087	0.0286
718.8882	-0.0004
719.0677	-0.0108
719.2472	0.0014
719.4267	-0.0019
719.6061	-0.0199
719.7856	-0.0307
719.965	-0.0046
720.1443	-0.0161
720.3237	0.0119
720.5031	-0.0123
720.6824	-0.0023
720.8617	0.0034
721.041	0.0153
721.2203	0.0169
721.3995	-0.004
721.5788	-0.0176
721.758	-0.0297
721.9372	0.0099
722.1164	-0.01
722.2956	0.0035
722.4747	0.0184
722.6538	0.0066
722.8329	-0.0275
723.012	0.024
723.1911	-0.0055
723.3702	-0.0483
723.5492	-0.0062
723.7282	-0.0201
723.9072	-0.0422
724.0862	-0.0105
724.2652	-0.0227
724.4441	-0.0192
724.623	-0.0151
724.8019	-0.0172
724.9808	-0.027
725.1597	-0.0021
725.3385	-0.008
725.5174	0.0134
725.6962	0.0293
725.875	-0.0054
726.0538	0.0021
726.2325	-0.0047
726.4112	0.0039
726.59	-0.0254
726.7687	0.002
726.9474	-0.0125
727.126	-0.0257
727.3047	0.0004
727.4833	0.0047
727.6619	0.0071
727.8405	-0.0096
728.0191	-0.0328
728.1976	-0.0246
728.3762	-0.0289
728.5547	-0.0086
728.7332	-0.0061
728.9116	-0.0561
729.0901	0.0066
729.2686	-0.003
729.447	-0.0269
729.6254	0.0079
729.8038	-0.0106
729.9821	0.0152
730.1605	-0.0271
730.3388	-0.0241
730.5171	-0.0289
730.6954	0.0115
730.8737	0.0099
731.0519	-0.0023
731.2302	-0.0093
731.4084	-0.0136
731.5866	-0.0268
731.7648	-0.0126
731.9429	-0.0245
732.1211	-0.0156
732.2992	-0.0135
732.4773	-0.019
732.6554	-0.0117
732.8335	-0.0017
733.0115	-0.0331
733.1896	-0.0139
733.3676	0.0017
733.5456	-0.0014
733.7235	-0.0013
733.9015	-0.0041
734.0794	0.0082
734.2574	-0.0015
734.4353	-0.0047
734.6131	-0.016
734.791	0.0055
734.9689	-0.0057
735.1467	-0.025
735.3245	0.0033
735.5023	-0.0044
735.68	-0.0123
735.8578	-0.0205
736.0355	-0.0132
736.2132	-0.003
736.3909	-0.0164
736.5686	0.0043
736.7463	-0.0171
736.9239	-0.0023
737.1015	-0.0229
737.2791	-0.0147
737.4567	-0.0025
737.6343	-0.0029
737.8118	-0.0212
737.9894	0.0274
738.1669	-0.0034
738.3444	-0.0236
738.5218	0.0064
738.6993	-0.0132
738.8767	-0.0062
739.0541	0.0212
739.2315	-0.0113
739.4089	0.0054
739.5863	0.0081
739.7636	0.0079
739.9409	0.0048
740.1182	-0.0312
740.2955	-0.0377
740.4728	0.0204
740.65	-0.0225
740.8272	-0.0238
741.0044	-0.0111
741.1816	0.0132
741.3588	-0.0263
741.5359	-0.0049
741.7131	0.0008
741.8902	-0.0245
742.0673	0.0046
742.2444	-0.0061
742.4214	-0.0227
742.5985	0.0083
742.7755	-0.0197
742.9525	0.0041
743.1295	-0.0177
743.3064	-0.0114
743.4834	-0.0126
743.6603	-0.0348
743.8372	-0.0024
744.0141	0.0345
744.191	-0.0289
744.3678	0.0009
744.5446	-0.0032
744.7215	-0.0169
744.8982	0.0014
745.075	0.0086
745.2518	-0.0187
745.4285	-0.0228
745.6052	-0.0146
745.7819	-0.0363
745.9586	0.0241
746.1353	-0.0242
746.3119	-0.0202
746.4885	-0.0255
746.6651	-0.0522
746.8417	-0.0439
747.0183	-0.0265
747.1948	-0.0063
747.3714	0.0115
747.5479	-0.0364
747.7244	-0.0455
747.9008	0.0151
748.0773	0.0229
748.2537	0.0292
748.4301	-0.0041
748.6065	-0.0352
748.7829	-0.0068
748.9593	-0.0004
749.1356	-0.0074
749.3119	-0.0322
749.4882	-0.0134
749.6645	0.0051
749.8408	-0.0263
750.017	-0.007
750.1933	0.0085
750.3695	-0
750.5457	-0.0112
750.7218	0.0174
750.898	-0.0348
751.0741	-0.0048
751.2502	0.006
751.4263	-0.0262
751.6024	-0.0073
751.7784	-0.0416
751.9545	-0.0477
752.1305	0.0109
752.3065	-0.0008
752.4825	-0.0317
752.6584	-0.0073
752.8344	-0.014
753.0103	-0.0329
753.1862	-0.0073
753.3621	-0.0206
753.5379	-0.0469
753.7138	-0.0185
753.8896	0.0086
754.0654	-0.0116
754.2412	0.0261
754.417	-0.0169
754.5927	-0.0092
754.7685	-0
754.9442	-0.0112
755.1199	-0.0225
755.2956	-0.0109
755.4712	-0.0182
755.6469	-0.0092
755.8225	-0.0089
755.9981	0.0034
756.1736	0.0153
756.3492	-0.0244
756.5248	-0.0039
756.7003	-0.0108
756.8758	-0.0085
757.0513	-0.0151
757.2267	-0.0201
757.4022	-0.0086
757.5776	-0.0352
757.753	-0.0021
757.9284	-0.0107
758.1038	-0.0147
758.2791	-0.0189
758.4545	-0.0339
758.6298	-0.0312
758.8051	-0.007
758.9803	-0.0079
759.1556	-0.0148
759.3308	0.0002
759.506	-0.0068
759.6812	-0.0198
759.8564	-0.018
760.0316	-0.0087
760.2067	-0.0128
760.3819	0.0068
760.557	-0.0087
760.732	0.0202
760.9071	-0.0186
761.0821	-0.0208
761.2572	-0.0246
761.4322	-0.0327
761.6072	-0.0125
761.7821	-0.0195
761.9571	-0.0184
762.132	-0.0048
762.3069	0.0023
762.4818	-0.0004
762.6567	0.0022
762.8316	0.0095
763.0064	-0.0218
763.1812	-0.0213
763.356	-0.0212
763.5308	-0.0174
763.7055	0.0025
763.8803	-0.0335
764.055	-0.0213
764.2297	-0.0202
764.4044	-0.0142
764.579	0.0007
764.7537	-0.0294
764.9283	-0.036
765.1029	-0.0005
765.2775	-0.0212
765.4521	-0.0212
765.6266	-0.0436
765.8011	-0.0216
765.9756	0.0051
766.1501	0.0144
766.3246	-0.0236
766.4991	-0.0243
766.6735	0.0054
766.8479	0.0268
767.0223	-0.0055
767.1967	0.0042
767.371	-0.0277
767.5454	0.0137
767.7197	-0.0049
767.894	-0.0182
768.0683	0.0015
768.2425	0.0036
768.4168	0.0082
768.591	0.0025
768.7652	-0.019
768.9394	-0.002
769.1135	-0.013
769.2877	0.0012
769.4618	-0.0294
769.6359	-0.0068
769.81	-0.0188
769.984	-0.0141
770.1581	0.0106
770.3321	-0.0194
770.5061	-0.0046
770.6801	0.0043
770.8541	-0.0118
771.028	-0.0018
771.202	-0.0572
771.3759	-0.0079
771.5498	-0.0053
771.7236	-0.0284
771.8975	-0.0624
772.0713	0.0053
772.2451	0.0155
772.4189	-0.0371
772.5927	-0.0223
772.7665	0.0113
772.9402	-0.0132
773.1139	-0.0415
773.2876	-0.0077
773.4613	0.0419
773.635	-0.0063
773.8086	-0.0372
773.9822	-0.0235
774.1558	-0.0332
774.3294	-0.0606
774.503	-0.0275
774.6765	0.018
774.8501	-0.0195
775.0236	0.0178
775.1971	-0.0016
775.3705	-0.0243
775.544	0.0199
775.7174	-0.0315
775.8908	0.0493
776.0642	0.0068
776.2376	-0.0594
776.4109	0.044
776.5843	-0.0533
776.7576	-0.0234
776.9309	-0.0025
777.1041	-0.0345
777.2774	-0.0205
777.4506	-0.0414
777.6238	-0.0127
777.797	0.0279
777.9702	-0.0108
778.1434	0.0038
778.3165	-0.0091
778.4896	-0.0309
778.6627	0.0153
778.8358	-0.0293
779.0089	-0.0262
779.1819	0.0028
779.3549	-0.0156
779.5279	-0.0203
779.7009	-0.0361
779.8739	-0.0591
780.0468	0.0105
780.2197	-0.0193
780.3926	-0.0338
780.5655	-0.0248
780.7384	0.0005
780.9112	0.0104
781.0841	-0.0045
781.2569	-0.0057
781.4297	0.0113
781.6024	-0.0111
781.7752	-0.0321
781.9479	-0.0369
782.1206	-0.0132
782.2933	-0.0165
782.466	-0.0006
782.6386	-0.0046
782.8113	-0.0402
782.9839	-0.0114
783.1565	-0.034
783.329	0.0186
783.5016	-0.0137
783.6741	-0.0255
783.8466	-0.0433
784.0191	-0.0108
784.1916	-0.045
784.3641	-0.0578
784.5365	0.0289
784.7089	0.0146
784.8813	-0.0131
785.0537	-0.0008
785.2261	-0.0385
785.3984	-0.0299
785.5707	0.0365
785.743	-0.0277
785.9153	0.0055
786.0876	-0.0404
786.2598	-0.0072
786.432	-0.019
786.6042	0.0241
786.7764	-0.0282
786.9486	-0.0229
787.1207	-0.0001
787.2928	-0.0237
787.4649	0.0057
787.637	0.0277
787.8091	-0.0303
787.9811	-0.0029
788.1532	0.0029
788.3252	-0.0068
788.4972	-0.0312
788.6691	0.0219
788.8411	0.0239
789.013	-0.028
789.1849	-0.0444
789.3568	-0.0024
789.5287	-0.0522
789.7005	-0.0067
789.8723	-0.0364
790.0442	-0.0562
790.2159	0.0048
790.3877	-0.0019
790.5595	-0.0135
790.7312	-0.0665
790.9029	-0.015
791.0746	-0.0327
791.2463	-0.0173
791.4179	-0.0567
791.5896	-0.0372
791.7612	-0.0829
791.9328	-0.0622
792.1044	-0.0368
792.2759	0.0066
792.4474	-0.0878
792.619	0.0234
792.7905	-0.0201
792.9619	-0.0285
793.1334	-0.0501
793.3048	-0.0158
793.4762	-0.1027
793.6476	-0.0237
793.819	-0.0454
793.9904	-0.0244
794.1617	-0.0115
794.333	-0.0166
794.5043	-0.0294
794.6756	0.021
794.8469	-0.0216
795.0181	-0.022
795.1893	-0.0729
795.3605	-0.0007
795.5317	0.022
795.7029	0.0122
795.874	-0.0076
796.0452	0.0021
796.2163	0.0225
796.3873	0.0381
796.5584	-0.0412
796.7294	-0.0696
796.9005	-0.1111
797.0715	0.0677
797.2425	-0.0818
797.4134	0.0068
797.5844	0.0024
797.7553	-0.0012
797.9262	0.0379
798.0971	-0.0844
798.2679	-0.073
798.4388	-0.0995
798.6096	-0.0504
798.7804	-0.0189
798.9512	0.0011
799.122	0.0356
799.2927	-0.0528
799.4635	0.0322
799.6342	0.0042
799.8049	0.0261
799.9755	-0.0575
800.1462	0.0319
800.3168	-0.0161
800.4874	0.0731
800.658	-0.0229
800.8286	-0.0869
800.9991	0.048
801.1696	-0.0717
801.3402	-0.1198
801.5106	-0.0781
801.6811	-0.03
801.8516	0.0172
802.022	-0.087
802.1924	-0.043
802.3628	-0.0831
802.5332	-0.1161
802.7035	-0.1159
802.8739	0.0381
803.0442	-0.0574
803.2145	-0.0549
803.3847	-0.0587
803.555	-0.0365
803.7252	0.0326
803.8954	-0.0232
804.0656	-0.025
804.2358	-0.0726
804.4059	0.0754
804.5761	0.0997
804.7462	-0.0238
804.9163	-0.076
805.0864	-0.0379
805.2564	-0.0182
805.4264	-0.0647
805.5965	-0.0031
805.7665	0.0052
805.9364	-0.1118
806.1064	0.005
806.2763	0.0038
806.4462	0.0366
806.6161	-0.0304
806.786	-0.0121
806.9559	0.0678
807.1257	-0.0456
807.2955	0.0571
807.4653	-0.0779
807.6351	-0.0258
807.8048	-0.0338
807.9746	-0.0386
808.1443	0.0518
808.314	0.0676
808.4837	-0.0078
808.6533	-0.0216
808.8229	-0.0629
808.9926	-0.0416
809.1622	-0.0501
809.3317	-0.1004
809.5013	0.1111
809.6708	0.0232
809.8403	0.0063
810.0098	0.0274
810.1793	0.0393
810.3488	-0.0148
810.5182	-0.0876
810.6876	0.0137
810.857	-0.135
811.0264	-0.1164
811.1958	-0.1249
811.3651	-0.0801
811.5344	0.0416
811.7037	-0.0058
811.873	-0.0566
812.0422	-0.0072
812.2115	-0.0358
812.3807	-0.0073
812.5499	-0.0185
812.7191	-0.0676
812.8882	-0.1249
813.0574	-0.23
813.2265	-0.1372
813.3956	0.0666
813.5646	-0.0532
813.7337	-0.17
813.9027	-0.0701
814.0718	-0.0347
814.2407	-0.1393
814.4097	-0.0112
814.5787	0.0043
814.7476	-0.0044
814.9165	0.021
815.0854	0.0105
815.2543	-0.0216
815.4232	-0.0853
815.592	0.0476
815.7608	-0.1263
815.9296	0.0221
816.0984	0.0149
816.2671	-0.1821
816.4359	0.0862
816.6046	0.1908
816.7733	-0.1151
816.942	-0.007
817.1106	-0.1923
817.2793	-0.0172
817.4479	-0.1449
817.6165	-0.0918
817.785	-0.0692
817.9536	-0.0292
818.1221	-0.0482
818.2906	0.1087
818.4591	-0.0444
818.6276	-0.0334
818.7961	0.1058
818.9645	0.0323
819.1329	0.1338
819.3013	-0.1205
819.4697	0.0069
819.638	-0.1113
819.8064	-0.2208
819.9747	-0.0244
820.143	0.0427
820.3113	0.0437
820.4795	0.0267
820.6477	-0.0565
820.816	0.0429
820.9842	-0.0932
821.1523	0.0272
821.3205	-0.009
821.4886	-0.0193
821.6567	0.0019
821.8248	-0.057
821.9929	-0.0356
822.1609	0.0504
822.329	-0.0279
822.497	-0.0768
822.665	0.0864
822.833	-0.0925
823.0009	-0.218
823.1688	0.0195
823.3367	-0.1799
823.5046	0.0108
823.6725	-0.0756
823.8404	-0.0427
824.0082	-0.0938
824.176	-0.093
824.3438	-0.0042
824.5116	0.0503
824.6793	-0.0691
824.847	0.1505
825.0147	-0.1092
825.1824	0.0972
825.3501	0.0929
825.5177	-0.0588
825.6854	-0.0118
825.853	-0.0144
826.0206	-0.0143
826.1881	-0.1679
826.3557	0.1367
826.5232	0.0271
826.6907	-0.0199
826.8582	0.109
827.0257	-0.052
827.1931	-0.0113
827.3605	-0.1746
827.528	-0.0392
827.6953	0.1381
827.8627	0.0197
828.03	-0.0248
828.1974	-0.0724
828.3647	0.0195
828.532	0.1435
828.6992	0.0845
828.8665	-0.0605
829.0337	-0.1359
829.2009	0.0468
829.3681	0.0972
829.5352	-0.1515
829.7024	0.0662
829.8695	-0.0219
830.0366	-0.0118
830.2037	-0.0151
830.3707	-0.0709
830.5378	0.2246
830.7048	-0.2974
830.8718	-0.0179
831.0388	0.1283
831.2057	0.2316
831.3727	-0.088
831.5396	-0.0564
831.7065	-0.0239
831.8734	-0.5033
832.0402	0.0281
832.2071	0.4803
832.3739	0.0572
832.5407	-0
832.7075	0.0102
832.8742	-0.1049
833.041	0.0067
833.2077	0.05
833.3744	-0.0004
833.541	-0.1339
833.7077	-0.0885
833.8743	-0.0396
834.0409	0.0039
834.2075	-0.0163
834.3741	0.0512
834.5407	-0.3653
834.7072	0.033
834.8737	0.0492
835.0402	0.2301
835.2067	0.0436
835.3731	0.0039
835.5395	-0.0173
835.706	0.008
835.8723	-0.0805
836.0387	0.1303
836.2051	0.2389
836.3714	-0.1758
836.5377	-0.1105
836.704	0.2836
836.8703	-0.2511
837.0365	0.1376
837.2027	-0.567
837.3689	-0.1356
837.5351	-0.1078
837.7013	0.0172
837.8674	-1.18
838.0335	-0.0243
838.1997	0.1779
838.3657	-0
838.5318	-0.7494
838.6978	-0
838.8639	0.3865
839.0299	0.087
839.1958	0.0268
839.3618	-0.1609
839.5277	-0.3452
839.6937	-0.5875
839.8596	-0.0769
840.0254	0.1652
840.1913	0.3599
840.3571	-0.3964
840.523	0.2648
840.6888	-0.28
840.8545	-0.0756
841.0203	-0.1784
841.186	-0.055
841.3517	0.0776
841.5174	0.2264
841.6831	0.29
841.8488	-0.1489
842.0144	-0.049
842.18	-0.1309
842.3456	-0.0077
842.5112	-0.3223
842.6767	-0.3306
842.8422	0.1194
843.0077	0.019
843.1732	-0.3116
843.3387	-0.3084
843.5042	0.0118
843.6696	-0.4902
843.835	-0.0999
844.0004	-0.2527
844.1657	-0
844.3311	-0.2798
844.4964	0.1415
844.6617	-0
844.827	0.505
844.9923	0.2115
845.1575	-0
845.3227	0.1415
845.4879	-0.0632
845.6531	-0.4906
845.8183	0.1932
845.9834	-0.2399
846.1485	-0.5484
846.3136	-0.0272
846.4787	-0
846.6438	-0.0351
846.8088	-1.3398
846.9738	0.7985
847.1388	-0.0708
847.3038	-0.2083
847.4687	-0
847.6337	0.0878
847.7986	0.0827
847.9635	-0.276
848.1284	-0.1746
848.2932	-0.0797
848.458	0.3788
848.6228	-0.028
848.7876	-0.1803
848.9524	1.9432
849.1172	-0.5396
849.2819	-0.2966
849.4466	-0.2057
849.6113	-0.0139
849.7759	-0.0796
849.9406	-0.0816
850.1052	-0.4834
850.2698	-0
850.4344	0.1194
850.599	-0.2886
850.7635	-0.0925
850.928	0.4382
851.0925	-0.0874
851.257	-0.553
851.4215	-0.4872
851.5859	0.1116
851.7503	-0
851.9147	-0
852.0791	-0.5009
852.2434	-0.107
852.4078	-0
852.5721	-0.0236
852.7364	0.0571
852.9007	-0.3701
853.0649	0.3126
853.2291	-0.1818
853.3934	-0.1887
853.5575	-0.0585
853.7217	-0.3223
853.8859	-0
854.05	-1.0604
854.2141	-0
854.3782	-0.0162
854.5423	-0.9471
854.7063	1.3155
854.8703	0.3052
855.0343	-0.1173
855.1983	-0.2664
855.3623	0.0156
855.5262	-0.3342
855.6901	0.1582
855.854	-0.379
856.0179	-0
856.1818	-0.5655
856.3456	-0.1726
856.5094	-0
856.6732	-0.8056
856.837	0.467
857.0008	0.0988
857.1645	-0
857.3282	-0.1837
857.4919	-0.1185
857.6556	0.313
857.8192	-0.4473
857.9828	-0.2474
858.1465	-0.0006
858.31	-0
858.4736	0.0295
858.6372	-0.1018
858.8007	-1.3666
858.9642	0.202
859.1277	-0
859.2911	0.1055
859.4546	-0.0011
859.618	0.5302
859.7814	-0
859.9448	-0
860.1081	-0
860.2715	-0.0399
860.4348	0.1267
860.5981	-0.2692
860.7614	-0
860.9246	0.4368
861.0879	-0.6546
861.2511	-0
861.4143	0.4928
861.5774	0.0443
861.7406	-0.0032
861.9037	0.3462
862.0668	-0.1379
862.2299	-2.0388
862.393	-0
862.556	-0.4011
862.7191	0.2105
862.8821	-0.1559
863.0451	0.2759
863.208	0.3522
863.371	0.1287
863.5339	-0.0526
863.6968	0.5653
863.8597	-0.426
864.0225	-0.2452
864.1854	-0
864.3482	-0.1206
864.511	-0.0839
864.6737	-0.1896
864.8365	0.5513
864.9992	-0.1349
865.1619	-0.1569
865.3246	-0
865.4873	-0.8918
865.65	-1.0829
865.8126	0.1892
865.9752	1.8794
866.1378	-0.756
866.3004	0.336
866.4629	-0.3756
866.6254	-0
866.7879	0.0335
866.9504	-0.6357
867.1129	0.505
867.2753	-0.3615
867.4377	0.6962
867.6001	-0
867.7625	0.0105
867.9249	-0.1187
868.0872	-0.1803
868.2495	-0
868.4118	-0.1424
868.5741	-0.4872
868.7363	-0.0813
868.8986	-0.1636
869.0608	0.781
869.223	0.075
869.3851	-0
869.5473	-1.7389
869.7094	-0.3495
869.8715	-0.0176
870.0336	-0.0508
870.1957	-0
870.3577	0.8618
870.5197	-0.2717
870.6817	-0
870.8437	0.2622
871.0057	-0
871.1676	0.0581
871.3295	-0
871.4914	-0.2638
871.6533	-0.0966
871.8151	-0.3382
871.977	0.7183
872.1388	-1.2687
872.3006	0.3058
872.4623	-0.1588
872.6241	-1.727
872.7858	-0.2392
872.9475	-0.528
873.1092	0.2171
873.2709	0.1783
873.4325	-0
873.5941	-0
873.7557	-0
873.9173	-0
874.0789	-0.0096
874.2404	-0
874.4019	-0.1249
874.5634	-0.1249
874.7249	-0.1619
874.8863	-0
875.0478	0.0495
875.2092	-0.2181
875.3706	0.5422
875.5319	-0
875.6933	-0
875.8546	-0
876.0159	-0.2879
876.1772	-0.4985
876.3385	-0.3579
876.4997	-0.4941
876.6609	-0.8535
876.8221	0.6477
876.9833	0.0017
877.1445	0.1359
877.3056	0.0533
877.4667	-0
877.6278	0.1522
877.7889	0.9848
877.9499	-0.4834
878.111	-0.0352
878.272	-0.686
878.433	-0.4625
878.5939	-0.0143
878.7549	-0.1249
878.9158	-0
879.0767	0.9632
879.2376	-0
879.3984	-0.5849
879.5593	-0.3203
879.7201	-0.4575
879.8809	-0.4983
880.0417	-0.0004
880.2024	0.0197
880.3632	-0.0937
880.5239	-0.437
880.6846	-0.5567
880.8452	0.5406
881.0059	-0
881.1665	0.3231
881.3271	0.8188
881.4877	0.2147
881.6483	-0
881.8088	-0.269
881.9693	0.3973
882.1298	0.3973
882.2903	0.3973
