Data from D4ACN5uM480nmA_Absorbance_12-08-02-155.txt Node
Date: Fri Feb 21 12:08:02 GMT 2025
User: LASERRRRR
Spectrometer: FLMT03099
Trigger mode: 0
Integration Time (sec): 1.500000E-2
Scans to average: 1
Electric dark correction enabled: true
Nonlinearity correction enabled: false
Boxcar width: 0
XAxis mode: Wavelengths
Number of Pixels in Spectrum: 3648
>>>>>Begin Spectral Data<<<<<
179.3399	-0
179.5586	-0
179.7771	-0
179.9957	0.2506
180.2143	-0
180.4329	-0
180.6514	-0
180.8699	-0.1623
181.0885	-0.0905
181.307	0.2107
181.5255	1.0212
181.744	-0
181.9625	-0
182.181	-0.0345
182.3994	-0
182.6179	0.0596
182.8363	0.7342
183.0547	-0
183.2732	0.2018
183.4916	0.4224
183.71	0.0734
183.9284	0.2182
184.1467	-0.0334
184.3651	0.4224
184.5835	0.0992
184.8018	0.2545
185.0201	0.2349
185.2385	-0.0299
185.4568	0.1138
185.6751	0.0719
185.8934	0.1695
186.1117	0.1442
186.3299	0.0831
186.5482	0.0968
186.7664	0.36
186.9847	0.2732
187.2029	0.5144
187.4211	0.2251
187.6393	0.1217
187.8575	0.0955
188.0757	0.5174
188.2939	0.0457
188.512	0.054
188.7302	-0.0025
188.9483	1.367
189.1665	0.7942
189.3846	0.2619
189.6027	0.0351
189.8208	0.2971
190.0389	0.2133
190.257	0.365
190.475	0.3378
190.6931	0.325
190.9111	0.201
191.1292	0.2601
191.3472	0.216
191.5652	0.5453
191.7832	0.4818
192.0012	0.2503
192.2192	0.2373
192.4371	0.2442
192.6551	0.2876
192.873	0.2909
193.091	0.2927
193.3089	0.2073
193.5268	0.4494
193.7447	0.3425
193.9626	0.5198
194.1805	0.5032
194.3984	0.4425
194.6162	0.4246
194.8341	0.6345
195.0519	0.602
195.2697	0.5378
195.4875	0.4949
195.7054	0.4345
195.9231	0.488
196.1409	0.6972
196.3587	0.548
196.5765	0.4956
196.7942	0.7576
197.012	0.4229
197.2297	0.5377
197.4474	0.6722
197.6651	0.5534
197.8828	0.6265
198.1005	0.6134
198.3182	0.6169
198.5358	0.5595
198.7535	0.4953
198.9711	0.6436
199.1888	0.6111
199.4064	0.6808
199.624	0.5858
199.8416	0.5468
200.0592	0.5842
200.2767	0.615
200.4943	0.6527
200.7119	0.5599
200.9294	0.5769
201.1469	0.5444
201.3645	0.5376
201.582	0.5456
201.7995	0.5084
202.017	0.5242
202.2344	0.5827
202.4519	0.5947
202.6694	0.6369
202.8868	0.5155
203.1042	0.5342
203.3217	0.5901
203.5391	0.5815
203.7565	0.5167
203.9739	0.4944
204.1913	0.5311
204.4086	0.5117
204.626	0.4747
204.8433	0.4987
205.0607	0.5228
205.278	0.5341
205.4953	0.4735
205.7126	0.4758
205.9299	0.484
206.1472	0.4549
206.3644	0.5023
206.5817	0.4501
206.7989	0.487
207.0162	0.4808
207.2334	0.4219
207.4506	0.4427
207.6678	0.4555
207.885	0.4624
208.1022	0.4559
208.3194	0.401
208.5365	0.4514
208.7537	0.4182
208.9708	0.4737
209.1879	0.4386
209.405	0.424
209.6222	0.3815
209.8392	0.4284
210.0563	0.4321
210.2734	0.4046
210.4905	0.4014
210.7075	0.4412
210.9245	0.3881
211.1416	0.4211
211.3586	0.4236
211.5756	0.4114
211.7926	0.4071
212.0096	0.4187
212.2265	0.3925
212.4435	0.4316
212.6604	0.4148
212.8774	0.4096
213.0943	0.4352
213.3112	0.4124
213.5281	0.3953
213.745	0.4002
213.9619	0.3851
214.1788	0.3974
214.3956	0.424
214.6125	0.3905
214.8293	0.4192
215.0461	0.4084
215.2629	0.3946
215.4798	0.3844
215.6965	0.3826
215.9133	0.3954
216.1301	0.3988
216.3469	0.4194
216.5636	0.391
216.7803	0.3979
216.9971	0.4203
217.2138	0.4045
217.4305	0.4182
217.6472	0.4159
217.8639	0.4062
218.0805	0.3995
218.2972	0.4003
218.5138	0.4038
218.7305	0.4214
218.9471	0.3965
219.1637	0.4175
219.3803	0.4209
219.5969	0.4054
219.8135	0.4157
220.0301	0.4164
220.2466	0.4319
220.4632	0.4087
220.6797	0.4362
220.8962	0.4298
221.1127	0.4306
221.3292	0.4373
221.5457	0.4278
221.7622	0.4233
221.9787	0.4331
222.1951	0.447
222.4116	0.4486
222.628	0.432
222.8444	0.4498
223.0608	0.4526
223.2772	0.4328
223.4936	0.4592
223.71	0.4345
223.9264	0.4289
224.1427	0.4634
224.3591	0.4587
224.5754	0.4528
224.7917	0.4592
225.008	0.4544
225.2243	0.4696
225.4406	0.4653
225.6569	0.4536
225.8732	0.4619
226.0894	0.4716
226.3057	0.4598
226.5219	0.4711
226.7381	0.4724
226.9543	0.466
227.1705	0.472
227.3867	0.4823
227.6029	0.4814
227.8191	0.4866
228.0352	0.4963
228.2513	0.4867
228.4675	0.4876
228.6836	0.5018
228.8997	0.5002
229.1158	0.4882
229.3319	0.5035
229.548	0.5007
229.764	0.5038
229.9801	0.5052
230.1961	0.5159
230.4121	0.503
230.6282	0.5155
230.8442	0.5066
231.0602	0.5372
231.2761	0.5104
231.4921	0.5122
231.7081	0.5221
231.924	0.5212
232.14	0.5221
232.3559	0.525
232.5718	0.5368
232.7877	0.5267
233.0036	0.5215
233.2195	0.5375
233.4353	0.5323
233.6512	0.5323
233.867	0.5297
234.0829	0.5425
234.2987	0.5262
234.5145	0.5398
234.7303	0.5348
234.9461	0.5388
235.1619	0.5291
235.3776	0.5337
235.5934	0.5361
235.8091	0.5307
236.0249	0.5332
236.2406	0.541
236.4563	0.5395
236.672	0.5377
236.8877	0.5461
237.1034	0.5443
237.319	0.5375
237.5347	0.5247
237.7503	0.5311
237.966	0.5277
238.1816	0.5327
238.3972	0.5312
238.6128	0.546
238.8284	0.5387
239.0439	0.5492
239.2595	0.5356
239.475	0.5236
239.6906	0.5225
239.9061	0.5367
240.1216	0.5399
240.3371	0.5139
240.5526	0.5245
240.7681	0.5291
240.9836	0.5263
241.199	0.5073
241.4145	0.5048
241.6299	0.4875
241.8453	0.4984
242.0607	0.4881
242.2761	0.4779
242.4915	0.4528
242.7069	0.4651
242.9223	0.4658
243.1376	0.4492
243.353	0.4479
243.5683	0.444
243.7836	0.4213
243.9989	0.4291
244.2142	0.4131
244.4295	0.4149
244.6448	0.4
244.86	0.3953
245.0753	0.376
245.2905	0.3757
245.5057	0.3756
245.721	0.363
245.9362	0.3534
246.1514	0.3402
246.3665	0.3363
246.5817	0.3347
246.7969	0.3262
247.012	0.3178
247.2271	0.3033
247.4423	0.3057
247.6574	0.3092
247.8725	0.3002
248.0876	0.2976
248.3026	0.285
248.5177	0.2825
248.7328	0.2772
248.9478	0.2704
249.1628	0.2654
249.3779	0.2653
249.5929	0.2647
249.8079	0.253
250.0228	0.2508
250.2378	0.2515
250.4528	0.2548
250.6677	0.245
250.8827	0.2365
251.0976	0.2409
251.3125	0.2333
251.5274	0.2342
251.7423	0.2257
251.9572	0.2248
252.172	0.216
252.3869	0.2229
252.6017	0.2125
252.8166	0.2135
253.0314	0.2225
253.2462	0.2165
253.461	0.2124
253.6758	0.2124
253.8906	0.209
254.1053	0.2038
254.3201	0.206
254.5348	0.204
254.7496	0.1963
254.9643	0.2065
255.179	0.2039
255.3937	0.1984
255.6083	0.1926
255.823	0.1984
256.0377	0.1977
256.2523	0.1994
256.467	0.2022
256.6816	0.2003
256.8962	0.1893
257.1108	0.197
257.3254	0.1914
257.54	0.1963
257.7545	0.1912
257.9691	0.1941
258.1836	0.189
258.3981	0.1842
258.6127	0.1866
258.8272	0.1881
259.0417	0.1802
259.2561	0.1865
259.4706	0.1912
259.6851	0.1809
259.8995	0.1889
260.114	0.1848
260.3284	0.1843
260.5428	0.1875
260.7572	0.1919
260.9716	0.1856
261.186	0.1801
261.4003	0.1889
261.6147	0.1861
261.829	0.1835
262.0433	0.1826
262.2577	0.1909
262.472	0.1888
262.6863	0.1852
262.9005	0.1841
263.1148	0.1782
263.3291	0.186
263.5433	0.1826
263.7576	0.186
263.9718	0.1834
264.186	0.1886
264.4002	0.1815
264.6144	0.1954
264.8286	0.1909
265.0427	0.1913
265.2569	0.1876
265.471	0.1828
265.6851	0.1778
265.8993	0.1863
266.1134	0.1842
266.3275	0.1849
266.5415	0.1808
266.7556	0.1783
266.9697	0.1807
267.1837	0.1827
267.3978	0.1897
267.6118	0.1807
267.8258	0.1829
268.0398	0.1809
268.2538	0.1826
268.4677	0.1806
268.6817	0.1779
268.8957	0.1805
269.1096	0.1767
269.3235	0.1849
269.5374	0.1777
269.7514	0.1852
269.9652	0.1801
270.1791	0.1842
270.393	0.1839
270.6068	0.1694
270.8207	0.1707
271.0345	0.1824
271.2483	0.1798
271.4622	0.1747
271.676	0.1752
271.8897	0.1718
272.1035	0.1763
272.3173	0.1754
272.531	0.1747
272.7448	0.1739
272.9585	0.177
273.1722	0.1674
273.3859	0.1742
273.5996	0.1754
273.8133	0.1659
274.0269	0.1763
274.2406	0.1699
274.4542	0.1686
274.6679	0.1672
274.8815	0.173
275.0951	0.1739
275.3087	0.1805
275.5223	0.1696
275.7358	0.1725
275.9494	0.1711
276.1629	0.1731
276.3765	0.1742
276.59	0.1751
276.8035	0.1769
277.017	0.1797
277.2305	0.1792
277.444	0.1731
277.6574	0.1836
277.8709	0.1775
278.0843	0.1756
278.2978	0.1815
278.5112	0.1832
278.7246	0.1746
278.938	0.1798
279.1513	0.1799
279.3647	0.1816
279.5781	0.1802
279.7914	0.1788
280.0047	0.1782
280.2181	0.1853
280.4314	0.177
280.6447	0.1834
280.8579	0.181
281.0712	0.1804
281.2845	0.1837
281.4977	0.1852
281.711	0.1802
281.9242	0.1855
282.1374	0.1838
282.3506	0.185
282.5638	0.1821
282.7769	0.1864
282.9901	0.1846
283.2033	0.188
283.4164	0.1828
283.6295	0.1829
283.8426	0.1856
284.0557	0.187
284.2688	0.1926
284.4819	0.1917
284.695	0.1955
284.908	0.1968
285.1211	0.1863
285.3341	0.19
285.5471	0.1955
285.7601	0.1928
285.9731	0.19
286.1861	0.1923
286.3991	0.1898
286.612	0.1927
286.825	0.1929
287.0379	0.1996
287.2508	0.1954
287.4637	0.1975
287.6766	0.1939
287.8895	0.1946
288.1024	0.1953
288.3152	0.19
288.5281	0.199
288.7409	0.2011
288.9538	0.1932
289.1666	0.1952
289.3794	0.1993
289.5922	0.1994
289.8049	0.2046
290.0177	0.203
290.2304	0.198
290.4432	0.2008
290.6559	0.1964
290.8686	0.2027
291.0813	0.2015
291.294	0.202
291.5067	0.2003
291.7194	0.1933
291.932	0.198
292.1447	0.2032
292.3573	0.1992
292.5699	0.2019
292.7825	0.2045
292.9951	0.199
293.2077	0.2049
293.4203	0.1984
293.6328	0.1967
293.8454	0.199
294.0579	0.2018
294.2704	0.204
294.4829	0.2041
294.6954	0.198
294.9079	0.2049
295.1204	0.2002
295.3328	0.2011
295.5453	0.1951
295.7577	0.1993
295.9701	0.2029
296.1825	0.2034
296.3949	0.2047
296.6073	0.1993
296.8197	0.1941
297.0321	0.1984
297.2444	0.1992
297.4567	0.196
297.6691	0.1993
297.8814	0.2006
298.0937	0.2014
298.306	0.1978
298.5182	0.2032
298.7305	0.1961
298.9428	0.1977
299.155	0.1973
299.3672	0.2052
299.5794	0.1951
299.7916	0.2016
300.0038	0.1915
300.216	0.2
300.4282	0.1908
300.6403	0.1958
300.8525	0.2061
301.0646	0.1965
301.2767	0.1993
301.4888	0.1982
301.7009	0.1953
301.913	0.1957
302.125	0.1977
302.3371	0.192
302.5491	0.1984
302.7612	0.2015
302.9732	0.1971
303.1852	0.1954
303.3972	0.1901
303.6092	0.1899
303.8211	0.1889
304.0331	0.1893
304.245	0.1929
304.457	0.1916
304.6689	0.195
304.8808	0.1954
305.0927	0.1934
305.3046	0.1925
305.5164	0.1915
305.7283	0.1864
305.9401	0.1831
306.152	0.1851
306.3638	0.1792
306.5756	0.1847
306.7874	0.1842
306.9992	0.1805
307.2109	0.1728
307.4227	0.1753
307.6344	0.1712
307.8462	0.1667
308.0579	0.1717
308.2696	0.1696
308.4813	0.1582
308.693	0.1616
308.9046	0.1657
309.1163	0.1625
309.328	0.1561
309.5396	0.1576
309.7512	0.1579
309.9628	0.155
310.1744	0.1583
310.386	0.1458
310.5976	0.1405
310.8091	0.148
311.0207	0.1518
311.2322	0.1544
311.4437	0.1443
311.6552	0.1424
311.8667	0.1395
312.0782	0.138
312.2897	0.145
312.5012	0.1371
312.7126	0.1363
312.924	0.1332
313.1355	0.1388
313.3469	0.1291
313.5583	0.1303
313.7696	0.1327
313.981	0.127
314.1924	0.1303
314.4037	0.1227
314.6151	0.1308
314.8264	0.1251
315.0377	0.1274
315.249	0.1183
315.4603	0.1192
315.6716	0.1212
315.8828	0.1267
316.0941	0.1231
316.3053	0.1208
316.5165	0.1199
316.7277	0.1236
316.9389	0.1238
317.1501	0.1239
317.3613	0.115
317.5724	0.1226
317.7836	0.1213
317.9947	0.1112
318.2058	0.1242
318.417	0.1128
318.6281	0.1115
318.8391	0.1196
319.0502	0.1162
319.2613	0.1136
319.4723	0.1143
319.6834	0.1209
319.8944	0.118
320.1054	0.121
320.3164	0.119
320.5274	0.1145
320.7383	0.117
320.9493	0.1153
321.1602	0.1169
321.3712	0.1199
321.5821	0.1146
321.793	0.1123
322.0039	0.1152
322.2148	0.1159
322.4257	0.1151
322.6365	0.1198
322.8474	0.1138
323.0582	0.119
323.269	0.1076
323.4798	0.1183
323.6906	0.1174
323.9014	0.1156
324.1122	0.1098
324.3229	0.1227
324.5337	0.1198
324.7444	0.1138
324.9551	0.1247
325.1658	0.1154
325.3765	0.1226
325.5872	0.1116
325.7979	0.121
326.0085	0.1164
326.2192	0.1173
326.4298	0.1202
326.6404	0.1203
326.851	0.1179
327.0616	0.1213
327.2722	0.1255
327.4828	0.1219
327.6933	0.1226
327.9039	0.1172
328.1144	0.1236
328.3249	0.1274
328.5354	0.1214
328.7459	0.1185
328.9564	0.1248
329.1669	0.1338
329.3773	0.1161
329.5878	0.1267
329.7982	0.1233
330.0086	0.1247
330.219	0.1218
330.4294	0.1311
330.6398	0.1313
330.8502	0.1199
331.0605	0.1227
331.2708	0.1239
331.4812	0.1234
331.6915	0.1182
331.9018	0.1203
332.1121	0.1281
332.3224	0.1286
332.5326	0.1273
332.7429	0.1189
332.9531	0.1296
333.1633	0.1233
333.3735	0.1243
333.5837	0.1291
333.7939	0.1302
334.0041	0.1262
334.2143	0.1318
334.4244	0.1239
334.6346	0.124
334.8447	0.1252
335.0548	0.1231
335.2649	0.1328
335.475	0.1285
335.685	0.1245
335.8951	0.1253
336.1051	0.1286
336.3152	0.132
336.5252	0.1246
336.7352	0.1218
336.9452	0.1297
337.1552	0.1223
337.3652	0.1288
337.5751	0.1266
337.7851	0.1272
337.995	0.1291
338.2049	0.1282
338.4148	0.1275
338.6247	0.1281
338.8346	0.124
339.0445	0.1336
339.2543	0.137
339.4642	0.1286
339.674	0.1357
339.8838	0.1367
340.0936	0.134
340.3034	0.1401
340.5132	0.1338
340.7229	0.135
340.9327	0.1403
341.1424	0.1367
341.3522	0.1377
341.5619	0.136
341.7716	0.1368
341.9813	0.1428
342.1909	0.14
342.4006	0.1401
342.6102	0.1413
342.8199	0.1438
343.0295	0.1417
343.2391	0.14
343.4487	0.1457
343.6583	0.1465
343.8679	0.1449
344.0774	0.1475
344.287	0.1453
344.4965	0.1455
344.706	0.1509
344.9155	0.1427
345.125	0.1519
345.3345	0.1428
345.544	0.1431
345.7534	0.1503
345.9629	0.1562
346.1723	0.1513
346.3817	0.1515
346.5911	0.149
346.8005	0.1499
347.0099	0.1485
347.2193	0.1501
347.4286	0.1573
347.638	0.1522
347.8473	0.157
348.0566	0.162
348.2659	0.1538
348.4752	0.1601
348.6845	0.1622
348.8937	0.1598
349.103	0.1557
349.3122	0.1567
349.5214	0.1572
349.7306	0.1537
349.9398	0.1611
350.149	0.1651
350.3582	0.1559
350.5674	0.1653
350.7765	0.1714
350.9856	0.1633
351.1948	0.1699
351.4039	0.163
351.613	0.174
351.822	0.1677
352.0311	0.1625
352.2402	0.1699
352.4492	0.1744
352.6582	0.1799
352.8672	0.171
353.0762	0.1723
353.2852	0.1722
353.4942	0.1691
353.7032	0.168
353.9121	0.1747
354.1211	0.1704
354.33	0.1816
354.5389	0.1822
354.7478	0.181
354.9567	0.176
355.1655	0.1845
355.3744	0.1728
355.5833	0.1833
355.7921	0.175
356.0009	0.1772
356.2097	0.1906
356.4185	0.1927
356.6273	0.1801
356.8361	0.1891
357.0448	0.1871
357.2536	0.1933
357.4623	0.1861
357.671	0.1896
357.8797	0.1919
358.0884	0.1875
358.2971	0.1855
358.5057	0.1911
358.7144	0.2032
358.923	0.1969
359.1316	0.193
359.3402	0.2055
359.5488	0.1996
359.7574	0.1991
359.966	0.2008
360.1746	0.1959
360.3831	0.2077
360.5916	0.2057
360.8002	0.2153
361.0087	0.2144
361.2172	0.2165
361.4256	0.1969
361.6341	0.211
361.8426	0.2067
362.051	0.2083
362.2594	0.2171
362.4678	0.2113
362.6762	0.2244
362.8846	0.222
363.093	0.2138
363.3014	0.2166
363.5097	0.2158
363.718	0.2342
363.9264	0.2171
364.1347	0.2252
364.343	0.2315
364.5513	0.2242
364.7595	0.2284
364.9678	0.2325
365.176	0.2275
365.3842	0.2234
365.5925	0.2368
365.8007	0.2335
366.0089	0.2362
366.217	0.2323
366.4252	0.2395
366.6333	0.2322
366.8415	0.2304
367.0496	0.2364
367.2577	0.2471
367.4658	0.2382
367.6739	0.2361
367.882	0.2489
368.09	0.2378
368.2981	0.2432
368.5061	0.2494
368.7141	0.2513
368.9221	0.2512
369.1301	0.2416
369.3381	0.2533
369.5461	0.2558
369.754	0.2436
369.962	0.2462
370.1699	0.2594
370.3778	0.2654
370.5857	0.2569
370.7936	0.2624
371.0015	0.2486
371.2093	0.2596
371.4172	0.2579
371.625	0.2657
371.8328	0.2611
372.0406	0.2657
372.2484	0.2546
372.4562	0.2565
372.664	0.267
372.8717	0.2659
373.0795	0.2635
373.2872	0.2731
373.4949	0.2675
373.7026	0.285
373.9103	0.265
374.118	0.2677
374.3256	0.2888
374.5333	0.2678
374.7409	0.2752
374.9485	0.268
375.1561	0.2814
375.3637	0.2705
375.5713	0.2722
375.7789	0.2779
375.9864	0.2818
376.194	0.283
376.4015	0.2956
376.609	0.2866
376.8165	0.2945
377.024	0.2791
377.2315	0.2901
377.4389	0.2759
377.6464	0.2997
377.8538	0.2881
378.0612	0.2834
378.2686	0.2925
378.476	0.2836
378.6834	0.2919
378.8908	0.2866
379.0981	0.2917
379.3055	0.2957
379.5128	0.3005
379.7201	0.2985
379.9274	0.2855
380.1347	0.293
380.342	0.3041
380.5492	0.2943
380.7565	0.3013
380.9637	0.2905
381.1709	0.3061
381.3781	0.3001
381.5853	0.2992
381.7925	0.307
381.9997	0.3074
382.2068	0.3066
382.4139	0.3032
382.6211	0.3153
382.8282	0.2999
383.0353	0.315
383.2424	0.3134
383.4494	0.3123
383.6565	0.3047
383.8635	0.3073
384.0706	0.3063
384.2776	0.3211
384.4846	0.3153
384.6916	0.3063
384.8986	0.3238
385.1055	0.3175
385.3125	0.309
385.5194	0.3067
385.7263	0.3101
385.9333	0.3042
386.1402	0.3179
386.347	0.3084
386.5539	0.323
386.7608	0.3168
386.9676	0.3131
387.1744	0.3119
387.3813	0.3144
387.5881	0.3118
387.7948	0.3126
388.0016	0.3097
388.2084	0.3104
388.4151	0.3091
388.6219	0.3083
388.8286	0.3236
389.0353	0.303
389.242	0.3039
389.4487	0.31
389.6553	0.3085
389.862	0.3059
390.0686	0.3127
390.2753	0.3014
390.4819	0.3176
390.6885	0.3154
390.8951	0.3075
391.1016	0.3074
391.3082	0.2963
391.5147	0.2992
391.7213	0.2966
391.9278	0.2986
392.1343	0.2915
392.3408	0.2932
392.5473	0.2951
392.7537	0.2927
392.9602	0.2834
393.1666	0.2865
393.373	0.2855
393.5794	0.2771
393.7858	0.2925
393.9922	0.2846
394.1986	0.2848
394.4049	0.2873
394.6113	0.2893
394.8176	0.2717
395.0239	0.2704
395.2302	0.2718
395.4365	0.2811
395.6428	0.2838
395.8491	0.2736
396.0553	0.2693
396.2615	0.2732
396.4678	0.2723
396.674	0.2706
396.8802	0.2697
397.0863	0.2668
397.2925	0.2636
397.4987	0.2734
397.7048	0.2742
397.9109	0.2788
398.117	0.2758
398.3231	0.2755
398.5292	0.2703
398.7353	0.2731
398.9413	0.2601
399.1474	0.2842
399.3534	0.2708
399.5594	0.2782
399.7654	0.2618
399.9714	0.2635
400.1774	0.2645
400.3833	0.2738
400.5893	0.2575
400.7952	0.267
401.0011	0.2602
401.207	0.2674
401.4129	0.266
401.6188	0.2672
401.8247	0.2722
402.0305	0.2552
402.2364	0.2753
402.4422	0.2725
402.648	0.2622
402.8538	0.2748
403.0596	0.2683
403.2654	0.2691
403.4711	0.275
403.6768	0.2713
403.8826	0.2648
404.0883	0.2685
404.294	0.2771
404.4997	0.2714
404.7054	0.2608
404.911	0.2595
405.1167	0.269
405.3223	0.2747
405.5279	0.2664
405.7335	0.263
405.9391	0.2759
406.1447	0.2677
406.3502	0.2666
406.5558	0.2745
406.7613	0.2648
406.9668	0.273
407.1724	0.2806
407.3778	0.2569
407.5833	0.2604
407.7888	0.2777
407.9942	0.2751
408.1997	0.2683
408.4051	0.2612
408.6105	0.268
408.8159	0.2613
409.0213	0.2711
409.2267	0.2571
409.432	0.2641
409.6374	0.2705
409.8427	0.2645
410.048	0.2602
410.2533	0.2596
410.4586	0.2761
410.6639	0.2615
410.8691	0.2774
411.0744	0.263
411.2796	0.266
411.4848	0.2571
411.69	0.2678
411.8952	0.2631
412.1004	0.2645
412.3056	0.2641
412.5107	0.2748
412.7158	0.2629
412.921	0.2702
413.1261	0.2669
413.3312	0.2597
413.5362	0.2611
413.7413	0.2664
413.9464	0.2685
414.1514	0.2547
414.3564	0.266
414.5614	0.2641
414.7664	0.2671
414.9714	0.265
415.1764	0.2729
415.3813	0.2448
415.5863	0.2515
415.7912	0.2606
415.9961	0.2577
416.201	0.2649
416.4059	0.2614
416.6108	0.2554
416.8156	0.2507
417.0205	0.2649
417.2253	0.2636
417.4301	0.2665
417.6349	0.2548
417.8397	0.2647
418.0445	0.2636
418.2492	0.255
418.454	0.2563
418.6587	0.2556
418.8634	0.2535
419.0681	0.2519
419.2728	0.2509
419.4775	0.2585
419.6822	0.2603
419.8868	0.2558
420.0915	0.2578
420.2961	0.2429
420.5007	0.2433
420.7053	0.2536
420.9099	0.2414
421.1144	0.2379
421.319	0.2466
421.5235	0.2421
421.728	0.2497
421.9325	0.246
422.137	0.2435
422.3415	0.2414
422.546	0.2436
422.7504	0.237
422.9549	0.2391
423.1593	0.243
423.3637	0.2364
423.5681	0.2486
423.7725	0.2409
423.9769	0.2366
424.1812	0.24
424.3856	0.232
424.5899	0.2295
424.7942	0.2161
424.9985	0.2349
425.2028	0.2287
425.4071	0.2157
425.6113	0.2242
425.8156	0.2382
426.0198	0.2263
426.224	0.2278
426.4282	0.2321
426.6324	0.2192
426.8366	0.221
427.0407	0.2187
427.2449	0.2167
427.449	0.2117
427.6531	0.2151
427.8572	0.2007
428.0613	0.2145
428.2654	0.2102
428.4694	0.2055
428.6735	0.2013
428.8775	0.2057
429.0815	0.2185
429.2855	0.196
429.4895	0.2004
429.6935	0.2031
429.8975	0.2054
430.1014	0.1964
430.3053	0.1945
430.5093	0.1951
430.7132	0.1945
430.9171	0.1933
431.1209	0.1885
431.3248	0.1882
431.5286	0.1787
431.7325	0.1975
431.9363	0.1884
432.1401	0.1794
432.3439	0.1954
432.5477	0.1873
432.7514	0.1725
432.9552	0.1713
433.1589	0.1665
433.3627	0.1803
433.5664	0.1677
433.7701	0.1698
433.9737	0.1667
434.1774	0.1676
434.3811	0.1617
434.5847	0.1576
434.7883	0.1552
434.9919	0.1519
435.1955	0.1524
435.3991	0.1527
435.6027	0.1476
435.8062	0.1531
436.0098	0.154
436.2133	0.1539
436.4168	0.1518
436.6203	0.1479
436.8238	0.1376
437.0272	0.1366
437.2307	0.1302
437.4341	0.133
437.6375	0.127
437.841	0.1327
438.0443	0.1306
438.2477	0.132
438.4511	0.1367
438.6545	0.1304
438.8578	0.1283
439.0611	0.1228
439.2644	0.1155
439.4677	0.1248
439.671	0.1195
439.8743	0.106
440.0775	0.1145
440.2808	0.1215
440.484	0.1096
440.6872	0.1029
440.8904	0.1056
441.0936	0.1107
441.2967	0.1023
441.4999	0.1097
441.703	0.1032
441.9062	0.0955
442.1093	0.0979
442.3124	0.1058
442.5155	0.0967
442.7185	0.0806
442.9216	0.0893
443.1246	0.0971
443.3276	0.0837
443.5307	0.0879
443.7337	0.0885
443.9366	0.0871
444.1396	0.0828
444.3426	0.0869
444.5455	0.0745
444.7484	0.0659
444.9513	0.0822
445.1542	0.0708
445.3571	0.0677
445.56	0.0854
445.7628	0.0696
445.9657	0.0722
446.1685	0.0775
446.3713	0.0702
446.5741	0.0625
446.7769	0.0622
446.9797	0.0709
447.1824	0.067
447.3852	0.0592
447.5879	0.0586
447.7906	0.0557
447.9933	0.0649
448.196	0.0606
448.3986	0.0592
448.6013	0.0551
448.8039	0.0488
449.0066	0.0507
449.2092	0.0464
449.4118	0.0492
449.6143	0.0503
449.8169	0.0487
450.0195	0.0519
450.222	0.0484
450.4245	0.0563
450.627	0.0446
450.8295	0.0484
451.032	0.0405
451.2345	0.0414
451.4369	0.0478
451.6394	0.049
451.8418	0.0483
452.0442	0.0465
452.2466	0.0409
452.449	0.0366
452.6513	0.0322
452.8537	0.0478
453.056	0.0413
453.2583	0.0362
453.4607	0.0248
453.663	0.0403
453.8652	0.0333
454.0675	0.0453
454.2697	0.0254
454.472	0.0326
454.6742	0.027
454.8764	0.03
455.0786	0.0266
455.2808	0.0264
455.4829	0.029
455.6851	0.0214
455.8872	0.0298
456.0893	0.0304
456.2915	0.025
456.4935	0.0253
456.6956	0.0251
456.8977	0.0245
457.0997	0.0257
457.3018	0.0258
457.5038	0.0245
457.7058	0.0233
457.9078	0.0298
458.1098	0.0205
458.3117	0.0215
458.5137	0.0266
458.7156	0.019
458.9175	0.0199
459.1194	0.0246
459.3213	0.0217
459.5232	0.0183
459.725	0.0287
459.9269	0.0141
460.1287	0.0065
460.3305	0.0099
460.5323	0.0071
460.7341	0.0079
460.9359	0.0148
461.1376	0.019
461.3394	0.0121
461.5411	0.0218
461.7428	0.016
461.9445	0.0095
462.1462	0.0162
462.3479	0.0223
462.5495	0.0173
462.7512	0.0175
462.9528	0.0164
463.1544	0.0081
463.356	0.0163
463.5576	0.0136
463.7592	0.0081
463.9607	0.0151
464.1623	0.012
464.3638	0.0154
464.5653	0.0169
464.7668	0.0121
464.9683	0.0106
465.1697	0.0066
465.3712	0.0056
465.5726	0.0107
465.7741	0.0078
465.9755	0.0099
466.1769	0.0105
466.3782	0.0032
466.5796	0.0033
466.7809	0.0127
466.9823	0.0112
467.1836	0.0158
467.3849	0.0024
467.5862	-0.0005
467.7875	0.0111
467.9887	0.0097
468.19	0.0012
468.3912	0.0106
468.5924	0.0196
468.7936	0.0043
468.9948	0.0047
469.196	0.0107
469.3972	0.0116
469.5983	0.0026
469.7994	0.0051
470.0006	0.0015
470.2017	0.003
470.4027	0.002
470.6038	0.0006
470.8049	-0.0038
471.0059	0.0111
471.2069	0.0142
471.408	0.0039
471.6089	0.0087
471.8099	0.0016
472.0109	-0.0087
472.2119	0.0145
472.4128	0.0082
472.6137	0.0019
472.8146	0.0057
473.0155	0.0076
473.2164	-0.0102
473.4173	0.0121
473.6181	0.0091
473.819	0.0015
474.0198	0.0054
474.2206	0.0054
474.4214	0.0151
474.6222	0.0005
474.8229	0.0026
475.0237	0.0045
475.2244	0.0096
475.4251	-0.0029
475.6258	0.0066
475.8265	-0.0085
476.0272	0.0043
476.2278	0.0017
476.4285	-0.0011
476.6291	0.0238
476.8297	0.0019
477.0303	0.0087
477.2309	-0.0012
477.4315	0.0078
477.632	-0.0014
477.8326	0.007
478.0331	0.0007
478.2336	0.007
478.4341	-0.0022
478.6346	0.0007
478.8351	0.0148
479.0355	0.0057
479.236	-0.0003
479.4364	0.0011
479.6368	0.0061
479.8372	0.0089
480.0376	-0.0022
480.2379	0.0027
480.4383	-0.0121
480.6386	0
480.8389	0.0059
481.0392	0.005
481.2395	0.0034
481.4398	0.0102
481.6401	0.0052
481.8403	-0.0075
482.0405	0.001
482.2408	0.0042
482.441	0.0023
482.6411	-0.0051
482.8413	-0.0066
483.0415	-0.0016
483.2416	0.0013
483.4417	0.0031
483.6419	-0.0008
483.8419	0.0011
484.042	-0.0012
484.2421	-0.0049
484.4422	0.0044
484.6422	0.0092
484.8422	-0.0003
485.0422	0.0029
485.2422	0.0028
485.4422	0.0002
485.6422	-0.0025
485.8421	-0.0007
486.042	0.005
486.242	0.0001
486.4419	0.0055
486.6417	-0.0003
486.8416	0.0023
487.0415	-0.0025
487.2413	0.0009
487.4411	0.0083
487.641	0.0089
487.8408	0.0063
488.0405	0.0034
488.2403	-0.0022
488.4401	-0.0048
488.6398	0.0032
488.8395	-0.001
489.0392	0.0017
489.2389	0.0019
489.4386	-0.0057
489.6383	0.0073
489.8379	0.0083
490.0376	0.016
490.2372	-0.0068
490.4368	0.0049
490.6364	0.0059
490.836	-0.0006
491.0355	0.0025
491.2351	0.0101
491.4346	0.001
491.6341	-0.0005
491.8336	-0.0029
492.0331	0.0006
492.2326	0.006
492.432	0.001
492.6315	0.0009
492.8309	0.006
493.0303	-0.0056
493.2297	0.0046
493.4291	-0.0067
493.6284	0.0021
493.8278	0.0012
494.0271	-0.0031
494.2264	0.005
494.4257	0.0028
494.625	-0.0002
494.8243	0.0048
495.0236	0.0053
495.2228	-0.0072
495.422	0.0019
495.6213	0.0053
495.8205	-0.0003
496.0196	0.0071
496.2188	0.0032
496.418	-0.0061
496.6171	0.0015
496.8162	-0.0038
497.0153	0.0019
497.2144	-0.0042
497.4135	-0.0006
497.6126	-0.0154
497.8116	0.0043
498.0107	-0.0003
498.2097	0.0114
498.4087	0.0059
498.6077	0.0018
498.8067	0.0037
499.0056	0.0006
499.2046	-0.006
499.4035	0.005
499.6024	-0.0094
499.8013	0.0013
500.0002	0.0021
500.199	0.0032
500.3979	0.0001
500.5967	-0.0081
500.7956	0.0028
500.9944	0.0009
501.1932	0.005
501.3919	0.0026
501.5907	0.0055
501.7895	-0.0023
501.9882	-0.0015
502.1869	0.0001
502.3856	-0.0006
502.5843	-0.0037
502.783	-0.0019
502.9816	-0.0075
503.1803	0.0079
503.3789	0.003
503.5775	0.001
503.7761	0.002
503.9747	0.0045
504.1732	0.008
504.3718	-0.0033
504.5703	-0.0086
504.7689	-0
504.9674	0.0006
505.1658	0.0071
505.3643	0.0027
505.5628	0.0052
505.7612	0.0026
505.9597	0.0047
506.1581	-0.0084
506.3565	-0.0005
506.5549	0.0049
506.7532	0.0063
506.9516	0.0019
507.1499	0.0073
507.3482	0.0115
507.5465	-0.0017
507.7448	0.0017
507.9431	-0.0113
508.1414	-0.0019
508.3396	-0.0087
508.5379	0.0018
508.7361	-0.0035
508.9343	0.0006
509.1325	0.009
509.3306	0.0032
509.5288	0.0168
509.7269	0.0022
509.9251	-0.0028
510.1232	-0.0073
510.3213	-0.0022
510.5193	0.0083
510.7174	-0.0178
510.9154	0.0004
511.1135	-0.001
511.3115	0.0011
511.5095	0.0056
511.7075	0.006
511.9055	0.0114
512.1034	0.0076
512.3014	-0.0016
512.4993	-0.0054
512.6972	-0.0049
512.8951	0.0063
513.093	0.0006
513.2908	-0.0072
513.4887	0.0083
513.6865	-0.0045
513.8844	0.0009
514.0822	0.0051
514.2799	-0.002
514.4777	0.0099
514.6755	0.0048
514.8732	-0.0005
515.0709	0.0055
515.2687	0.0033
515.4664	-0.0072
515.664	0.0154
515.8617	0.0128
516.0594	0.0053
516.257	0.0041
516.4546	0.009
516.6522	0.001
516.8498	-0.0015
517.0474	-0.0018
517.2449	-0.0033
517.4425	0.0011
517.64	-0.0046
517.8375	0.0136
518.035	-0.0058
518.2325	0.0018
518.43	0.0012
518.6274	-0.0029
518.8249	-0.0026
519.0223	-0.0057
519.2197	0.0052
519.4171	-0.0033
519.6145	-0.0017
519.8118	0.0021
520.0092	0.0067
520.2065	0.004
520.4038	0.0082
520.6011	0.0107
520.7984	0.0026
520.9956	0.0005
521.1929	0.0093
521.3901	0.0072
521.5874	0.007
521.7846	-0.0009
521.9818	-0.0046
522.1789	0.0121
522.3761	0.0008
522.5732	-0.0076
522.7704	0.0075
522.9675	0.0001
523.1646	0.0078
523.3617	0.0049
523.5587	0.0107
523.7558	0
523.9528	-0.0017
524.1498	0.0016
524.3468	0.0012
524.5438	-0.0041
524.7408	0.0002
524.9378	0.0035
525.1347	0.0097
525.3316	0.015
525.5285	-0.0049
525.7254	0.0012
525.9223	-0.0082
526.1192	0.0007
526.316	-0.0051
526.5129	0.0006
526.7097	-0.0089
526.9065	0.0114
527.1033	0.0054
527.3	-0.0004
527.4968	-0.0048
527.6935	-0.0027
527.8903	0.0024
528.087	-0.0021
528.2837	0.0058
528.4804	0.0122
528.677	0.005
528.8737	-0.0073
529.0703	-0.0013
529.2669	0.0019
529.4635	0.0077
529.6601	0.0071
529.8567	0.0057
530.0532	-0.0001
530.2498	-0.0015
530.4463	0.0052
530.6428	0.0013
530.8393	-0.003
531.0358	0.0049
531.2322	-0.0012
531.4287	-0.0029
531.6251	-0.0021
531.8215	0.0055
532.0179	-0.0084
532.2143	0.0106
532.4107	0.0016
532.607	0.0005
532.8034	0.0078
532.9997	-0.001
533.196	0.0082
533.3923	-0.0039
533.5886	0.0031
533.7848	-0.0094
533.9811	0
534.1773	-0.0019
534.3735	0.0064
534.5697	0.0004
534.7659	0.0015
534.9621	0.0029
535.1582	0
535.3544	0.0101
535.5505	-0.0013
535.7466	0.0012
535.9427	-0.004
536.1387	-0.0014
536.3348	0.0084
536.5308	0.0076
536.7269	-0.0032
536.9229	-0.0066
537.1189	-0.0003
537.3148	-0.0076
537.5108	-0.0078
537.7068	0.0022
537.9027	0.0067
538.0986	-0.0031
538.2945	-0.0007
538.4904	-0.0005
538.6863	-0.0002
538.8821	0.0008
539.078	-0.0009
539.2738	-0.0084
539.4696	0.008
539.6654	-0.0025
539.8611	0.0028
540.0569	0.0009
540.2526	-0.0033
540.4484	-0.017
540.6441	0.0021
540.8398	0.0009
541.0355	0.0056
541.2311	0.0032
541.4268	-0.0003
541.6224	0.0067
541.818	0.0022
542.0136	-0.0044
542.2092	-0.0034
542.4048	0.0092
542.6003	0.0044
542.7959	0.0089
542.9914	0.0008
543.1869	0.0043
543.3824	0.003
543.5779	0.0032
543.7734	-0.0025
543.9688	0.0009
544.1642	0.004
544.3596	-0.0029
544.555	0.0082
544.7504	0.01
544.9458	-0.0004
545.1411	0.0046
545.3365	-0.0002
545.5318	0.0047
545.7271	0.0104
545.9224	0.0038
546.1177	-0.0019
546.3129	-0.0221
546.5081	-0.0102
546.7034	-0.0065
546.8986	-0.0035
547.0938	0.002
547.289	-0.0007
547.4841	0.0024
547.6793	-0.0031
547.8744	-0.0044
548.0695	-0.0012
548.2646	-0.0034
548.4597	0.0031
548.6548	0.0084
548.8498	-0.0024
549.0448	-0.0051
549.2399	-0.0063
549.4349	0.0073
549.6298	-0.0076
549.8248	-0.0043
550.0198	0.0139
550.2147	-0.0039
550.4096	0.0094
550.6045	0.015
550.7994	0.0089
550.9943	-0.0007
551.1892	-0.0014
551.384	0.0101
551.5788	0.0007
551.7737	0.0009
551.9685	0.0087
552.1632	0.0086
552.358	-0.0026
552.5528	-0.0046
552.7475	-0.0136
552.9422	0.0064
553.1369	-0.0013
553.3316	-0.0025
553.5263	-0.0028
553.7209	-0.0042
553.9156	0.0014
554.1102	-0.0125
554.3048	0.0099
554.4994	-0.0031
554.694	-0.0014
554.8885	0.0063
555.0831	-0.0005
555.2776	-0.0083
555.4721	-0.012
555.6666	-0.005
555.8611	-0.0115
556.0555	0.0027
556.25	0.0018
556.4444	0.0057
556.6388	0.0018
556.8332	0.0038
557.0276	0.0081
557.222	-0.0077
557.4163	0.0036
557.6107	0.0018
557.805	-0.0125
557.9993	0.0029
558.1936	0.0179
558.3879	-0.0136
558.5821	0.0002
558.7764	0.0104
558.9706	0.0055
559.1648	0.005
559.359	0.0061
559.5532	-0.0181
559.7473	0.0105
559.9415	0.0049
560.1356	0.0059
560.3297	0.0002
560.5238	0.0059
560.7179	-0.0082
560.9119	0.0072
561.106	0.0007
561.3	0.0026
561.494	0.0059
561.688	-0.0015
561.882	0.0124
562.076	-0.0008
562.2699	-0.0015
562.4639	0.0089
562.6578	0.0064
562.8517	-0.0011
563.0456	0.0011
563.2395	0.0044
563.4333	-0.0007
563.6272	0.0051
563.821	0.0027
564.0148	-0.0051
564.2086	0.0006
564.4024	-0.0049
564.5961	0
564.7899	0.0057
564.9836	0.0094
565.1773	-0.0014
565.371	0.002
565.5647	0
565.7584	0.0036
565.952	0.005
566.1456	0.0049
566.3393	0.0081
566.5329	-0.0005
566.7264	-0.0093
566.92	0.0047
567.1136	0.0046
567.3071	0.0028
567.5006	-0.006
567.6941	0.0038
567.8876	0.0027
568.0811	-0.0094
568.2745	0.0003
568.468	0.0037
568.6614	0.0018
568.8548	-0.0041
569.0482	-0.0005
569.2416	-0.0044
569.4349	0.0001
569.6283	0.0028
569.8216	0.0001
570.0149	0.0016
570.2082	-0.0008
570.4015	0.0024
570.5947	-0.0022
570.788	0.0002
570.9812	0.0035
571.1744	-0.0022
571.3676	0.0023
571.5608	-0.0029
571.754	-0.0001
571.9471	-0.0025
572.1402	-0.0014
572.3333	-0.0043
572.5264	0.0045
572.7195	0.0056
572.9126	-0.0004
573.1057	0.0015
573.2987	-0.0003
573.4917	-0.0003
573.6847	-0.0002
573.8777	-0.0008
574.0707	-0.0012
574.2636	-0.0024
574.4566	-0.0016
574.6495	0.003
574.8424	0.0014
575.0353	0.0001
575.2281	-0.0009
575.421	0.0017
575.6138	-0.0042
575.8067	-0.0025
575.9995	-0.0033
576.1923	0.0017
576.385	-0.0001
576.5778	-0.0014
576.7706	0.0011
576.9633	0.0029
577.156	-0.0013
577.3487	0.0023
577.5414	0.0004
577.734	-0.0014
577.9267	-0.002
578.1193	0.0017
578.3119	-0.0033
578.5045	-0.0029
578.6971	-0.002
578.8897	0.0005
579.0822	0.0039
579.2747	-0.0003
579.4673	0.0013
579.6598	0.0027
579.8522	0.0004
580.0447	0.0029
580.2372	0.0008
580.4296	-0.0016
580.622	0.0054
580.8144	-0.0033
581.0068	0.0002
581.1992	0.0027
581.3915	-0.0004
581.5839	0.0014
581.7762	0.0031
581.9685	-0.0038
582.1608	0.0047
582.353	-0
582.5453	0.0007
582.7375	0.0021
582.9298	-0.0044
583.122	-0.0014
583.3142	0.0022
583.5063	-0.009
583.6985	-0.0001
583.8906	0.0018
584.0827	-0.0017
584.2749	0.0009
584.4669	-0.0002
584.659	-0.0035
584.8511	0.0023
585.0431	0.0021
585.2352	-0.0063
585.4272	0
585.6192	0.0022
585.8111	-0.0045
586.0031	0.0009
586.195	-0.0027
586.387	0.0007
586.5789	0.0018
586.7708	-0.0009
586.9627	0.0007
587.1545	0.0017
587.3464	0
587.5382	0.0013
587.73	0.0004
587.9218	-0.0048
588.1136	-0.0055
588.3053	-0.0003
588.4971	0.0051
588.6888	0.0009
588.8805	0.0048
589.0722	-0.0002
589.2639	-0.0015
589.4556	-0.0056
589.6472	-0.001
589.8389	0.001
590.0305	-0.0025
590.2221	0.0025
590.4137	-0.003
590.6052	0.0034
590.7968	0.0027
590.9883	0.0045
591.1798	-0.0011
591.3713	-0.0049
591.5628	0.0002
591.7543	-0.0018
591.9458	-0.0004
592.1372	0.0004
592.3286	0.0039
592.52	-0.0002
592.7114	-0.0033
592.9028	-0.004
593.0941	-0.0059
593.2855	0.0042
593.4768	0.0027
593.6681	-0.0007
593.8594	-0.003
594.0506	0.0053
594.2419	-0.0038
594.4331	-0.001
594.6244	0.0037
594.8156	-0.0038
595.0067	-0.0004
595.1979	-0.0104
595.3891	-0.0052
595.5802	0.0021
595.7713	-0.0024
595.9624	0.0018
596.1535	0.002
596.3446	0.0053
596.5357	-0.0036
596.7267	-0.0024
596.9177	0.0045
597.1087	-0.0005
597.2997	0.0021
597.4907	0.002
597.6817	-0.0021
597.8726	-0.0011
598.0635	-0.0004
598.2544	-0.0043
598.4453	0.0005
598.6362	-0.0068
598.827	0.0012
599.0179	0.001
599.2087	-0.0021
599.3995	0.0015
599.5903	-0.0019
599.7811	0.0018
599.9718	-0.0017
600.1626	0.0032
600.3533	-0.0056
600.544	-0.0026
600.7347	0.0001
600.9254	0.0016
601.116	-0.0006
601.3067	0.005
601.4973	0.001
601.6879	-0.005
601.8785	-0.0007
602.0691	0.0049
602.2596	-0.0076
602.4502	-0.0016
602.6407	0.0015
602.8312	0.0013
603.0217	0.0073
603.2122	0.0069
603.4027	-0.0024
603.5931	0.0025
603.7835	-0.0029
603.9739	-0.0038
604.1643	0.007
604.3547	0.0101
604.5451	0.0071
604.7354	-0.0119
604.9257	-0.0034
605.116	0.0007
605.3063	-0.0008
605.4966	0
605.6869	-0.0005
605.8771	-0.0018
606.0673	-0
606.2575	-0.0055
606.4477	0.0033
606.6379	0.0005
606.8281	-0.0038
607.0182	0.0006
607.2083	-0.0025
607.3985	0.0059
607.5885	0.0028
607.7786	0.0066
607.9687	-0.0074
608.1587	-0.0012
608.3488	-0.0008
608.5388	0.0044
608.7288	-0.0053
608.9187	0.0089
609.1087	-0.0007
609.2986	-0.0065
609.4886	0.0072
609.6785	0.0052
609.8684	-0.0033
610.0582	0.0001
610.2481	-0.0007
610.4379	-0.0041
610.6278	-0.0033
610.8176	0.0039
611.0074	-0.0061
611.1971	0.003
611.3869	-0.0005
611.5766	-0.007
611.7664	-0.0003
611.9561	-0.0047
612.1458	0.0013
612.3354	0.0077
612.5251	0.0022
612.7147	0.0046
612.9044	-0.0021
613.094	-0.0012
613.2836	-0.0012
613.4731	-0.0012
613.6627	0.0027
613.8522	-0.0028
614.0417	-0.0087
614.2313	-0.0088
614.4207	0.0053
614.6102	-0.0054
614.7997	-0.0026
614.9891	0.0038
615.1785	-0.0041
615.3679	0.0029
615.5573	-0.0041
615.7467	0.0017
615.9361	0.0011
616.1254	-0.0044
616.3147	-0.0058
616.504	0.0008
616.6933	0.0022
616.8826	0.0031
617.0718	-0.0026
617.2611	0.0007
617.4503	0.0041
617.6395	-0.0025
617.8287	0.0033
618.0179	-0.0074
618.207	-0.0026
618.3961	-0.0086
618.5853	-0.0059
618.7744	0.0073
618.9634	-0.0009
619.1525	0.0027
619.3416	0.0043
619.5306	0.0035
619.7196	-0.005
619.9086	0.0088
620.0976	0.0043
620.2866	0.0065
620.4755	0.0143
620.6645	-0.0016
620.8534	-0.0154
621.0423	-0.0055
621.2312	-0.0031
621.42	-0.0021
621.6089	0.0044
621.7977	-0.0067
621.9865	0.0051
622.1753	0.0044
622.3641	-0.011
622.5529	-0.0091
622.7416	0.0005
622.9303	-0.0075
623.1191	-0.0086
623.3078	0.0008
623.4964	-0.0102
623.6851	0.0042
623.8737	0.0021
624.0624	-0.0006
624.251	0.007
624.4396	0.0036
624.6282	0.0104
624.8167	0.014
625.0053	-0.0039
625.1938	0.0046
625.3823	0.0001
625.5708	-0.0019
625.7593	0.0068
625.9477	-0.0106
626.1362	0.0088
626.3246	-0.0087
626.513	0.0094
626.7014	-0.0109
626.8898	0.002
627.0781	0.0034
627.2665	0.0119
627.4548	0.0005
627.6431	-0.0041
627.8314	0.0089
628.0197	0.0022
628.2079	0.0001
628.3962	-0.0052
628.5844	-0.0018
628.7726	-0.0056
628.9608	0.0006
629.1489	0.0015
629.3371	0.0021
629.5252	0.0028
629.7134	0.0076
629.9015	-0.0022
630.0895	0.0098
630.2776	0.0026
630.4657	0.0033
630.6537	-0.011
630.8417	0.0005
631.0297	-0.0021
631.2177	-0.0002
631.4057	0.0087
631.5936	-0.0054
631.7815	-0.0011
631.9695	0.0068
632.1574	-0.0052
632.3452	0.0004
632.5331	-0.0021
632.7209	0.0101
632.9088	0.0096
633.0966	0.0012
633.2844	-0.0099
633.4722	-0.0044
633.6599	-0.0222
633.8477	0.0116
634.0354	0.0029
634.2231	0.0119
634.4108	0.0035
634.5985	0.0043
634.7861	-0.0186
634.9738	0.0044
635.1614	-0.0049
635.349	-0.0078
635.5366	-0.0025
635.7242	-0.0073
635.9117	0.0003
636.0993	-0.0107
636.2868	-0.0068
636.4743	0.022
636.6618	-0.0059
636.8492	-0.0001
637.0367	0.0174
637.2241	0.0094
637.4115	-0.0061
637.5989	0.0024
637.7863	-0.0119
637.9737	0.0082
638.161	-0.0056
638.3484	-0.0004
638.5357	-0.0085
638.723	-0.0154
638.9103	0.0039
639.0975	0.0053
639.2848	0.0234
639.472	-0.0151
639.6592	0.0076
639.8464	-0.0016
640.0336	0.003
640.2208	-0.0171
640.4079	0.008
640.595	0.0084
640.7821	-0.0069
640.9692	0.0036
641.1563	-0.0032
641.3434	0.0189
641.5304	-0.0067
641.7174	0.0045
641.9044	-0.0032
642.0914	0.0006
642.2784	0.0139
642.4653	0.0033
642.6523	-0.0017
642.8392	0.0163
643.0261	-0.0082
643.213	-0.0039
643.3999	-0.0034
643.5867	-0.0065
643.7735	0.0013
643.9604	-0.0035
644.1472	-0.0011
644.3339	0.0003
644.5207	-0.013
644.7075	-0.0016
644.8942	0.0149
645.0809	0.005
645.2676	0.0011
645.4543	-0.0089
645.6409	0.004
645.8276	-0.0027
646.0142	0.0056
646.2008	-0.0115
646.3874	0.0045
646.574	-0.0232
646.7605	0.0137
646.9471	-0.0081
647.1336	-0.0154
647.3201	0.0046
647.5066	-0.009
647.6931	-0.003
647.8795	0.0131
648.0659	-0.0163
648.2524	-0.0033
648.4388	0.0032
648.6252	-0.0172
648.8115	0.0181
648.9979	0.0025
649.1842	-0.0061
649.3705	0.0045
649.5568	-0.0126
649.7431	-0.0087
649.9294	-0.0102
650.1156	-0.0109
650.3018	0.0282
650.488	0.0155
650.6742	0.0054
650.8604	0.0243
651.0466	-0.0062
651.2327	-0.0304
651.4188	-0.0194
651.6049	-0.0064
651.791	0.0111
651.9771	-0.0027
652.1632	-0.0064
652.3492	0.0125
652.5352	0.0147
652.7212	-0.0066
652.9072	0.0074
653.0932	0.0009
653.2791	0.0087
653.465	-0.0093
653.651	-0.0024
653.8369	0.0163
654.0227	-0.0098
654.2086	-0.0152
654.3944	-0.0033
654.5803	0.0083
654.7661	0
654.9519	-0.0035
655.1377	-0.0001
655.3234	-0.0001
655.5092	-0.0001
655.6949	-0.0001
655.8806	-0.0001
656.0663	-0.0001
656.2519	-0.0001
656.4376	-0.0001
656.6232	-0.0001
656.8088	-0.0001
656.9945	-0.0001
657.18	-0.0001
657.3656	-0.0001
657.5511	-0.0001
657.7367	-0.0001
657.9222	-0.0001
658.1077	-0.0001
658.2932	-0.0001
658.4786	-0.0001
658.6641	-0.0001
658.8495	-0.0001
659.0349	-0.0001
659.2203	-0.0001
659.4057	0.002
659.591	0.0921
659.7764	-0.001
659.9617	0.0047
660.147	-0.0032
660.3323	-0.0157
660.5176	0.005
660.7028	0.0126
660.888	0.0182
661.0733	0.008
661.2585	0.0131
661.4436	0.0054
661.6288	0.0044
661.8139	0.0088
661.9991	-0.0058
662.1842	0.0009
662.3693	0.0014
662.5544	-0.0029
662.7394	0.0067
662.9245	0.0068
663.1095	0.0057
663.2945	-0.0147
663.4795	0.0029
663.6644	-0.0004
663.8494	0.0173
664.0343	-0.0214
664.2193	0.0006
664.4042	-0.0148
664.589	-0.014
664.7739	-0.018
664.9587	-0.0016
665.1436	0.0008
665.3284	0.0114
665.5132	-0.0051
665.698	-0.0095
665.8827	-0.0283
666.0675	-0.0164
666.2522	-0.0005
666.4369	-0.0119
666.6216	-0.0059
666.8063	-0.0233
666.9909	0.0019
667.1756	0.0024
667.3602	-0.0105
667.5448	-0.0267
667.7294	-0.0085
667.9139	-0.0189
668.0985	-0.017
668.283	0.0001
668.4675	0.0012
668.652	0.0054
668.8365	-0.0272
669.0209	0.0029
669.2054	-0.0031
669.3898	0.0014
669.5742	0.0193
669.7586	0.0175
669.943	0.0015
670.1273	0.0151
670.3117	0.0064
670.496	0.0132
670.6803	0.008
670.8646	0.0071
671.0488	0.0066
671.2331	-0.0008
671.4173	0.0222
671.6015	0.0052
671.7857	-0.0195
671.9699	0.0074
672.1541	0.0018
672.3382	0.0133
672.5223	-0.0015
672.7064	0.0031
672.8905	-0.0044
673.0746	-0.0065
673.2587	-0.0007
673.4427	-0.0094
673.6267	-0.0224
673.8107	-0.0114
673.9947	0.0001
674.1787	0.0209
674.3626	-0.0124
674.5465	0.0108
674.7304	-0.025
674.9143	0.0377
675.0982	-0.0212
675.2821	0.0147
675.4659	0.0007
675.6497	0.0238
675.8335	0.0035
676.0173	0.0106
676.2011	-0.009
676.3849	-0.0169
676.5686	0.0005
676.7523	0.0051
676.936	-0.0316
677.1197	0.0047
677.3034	0.0095
677.487	0.0136
677.6706	-0.01
677.8542	0.0106
678.0378	0.0112
678.2214	0.0008
678.405	0.0157
678.5885	-0.0045
678.772	-0.0096
678.9555	0.0033
679.139	-0.0146
679.3225	-0.0088
679.5059	-0.0038
679.6894	-0.0086
679.8728	-0.0201
680.0562	0.0016
680.2395	-0.0025
680.4229	-0.0154
680.6062	0.0185
680.7896	-0.0013
680.9729	0.0041
681.1562	-0.0159
681.3394	-0.001
681.5227	-0.0166
681.7059	0.0019
681.8891	-0.0052
682.0723	-0.0324
682.2555	0.0079
682.4387	0.0054
682.6218	-0.0138
682.805	0.0195
682.9881	0.0089
683.1712	-0.0187
683.3542	-0.0041
683.5373	0.0077
683.7203	0.0089
683.9034	0.0157
684.0864	-0.0039
684.2694	0.0081
684.4523	0.0046
684.6353	0.0025
684.8182	0.0083
685.0011	0.0009
685.184	-0.0013
685.3669	0.0013
685.5498	0.0038
685.7326	-0.0001
685.9154	0.0007
686.0982	-0.0028
686.281	0.005
686.4638	-0.005
686.6465	0.0043
686.8293	-0.0018
687.012	0.0041
687.1947	-0.0056
687.3774	-0.0089
687.56	0.0035
687.7427	0.0096
687.9253	0.0098
688.1079	0.0156
688.2905	-0.0172
688.4731	-0.0013
688.6556	-0.0079
688.8382	0.0004
689.0207	-0.0094
689.2032	0.0053
689.3857	0.005
689.5681	-0.0084
689.7506	-0.0195
689.933	-0.0018
690.1154	-0.0252
690.2978	-0.0019
690.4802	0.0079
690.6626	-0.0069
690.8449	-0.0158
691.0272	-0.0148
691.2095	-0.0023
691.3918	-0.001
691.5741	-0.0043
691.7563	0.0369
691.9386	-0.009
692.1208	-0.0025
692.303	0.0137
692.4852	0.0032
692.6673	-0.0086
692.8495	-0.0071
693.0316	-0.0106
693.2137	0.0065
693.3958	0.0064
693.5778	-0.008
693.7599	-0.0172
693.9419	0.0321
694.1239	-0.0024
694.3059	-0.0287
694.4879	-0.0158
694.6699	0.0084
694.8518	0.0174
695.0337	-0.0016
695.2157	-0.0033
695.3975	0.0047
695.5794	-0.0198
695.7613	0.024
695.9431	0.0104
696.1249	0.016
696.3067	0.0159
696.4885	0.0027
696.6703	0.003
696.852	-0.0143
697.0337	-0.0003
697.2154	0.0167
697.3971	0.0088
697.5788	0.0341
697.7605	0.0023
697.9421	-0.0017
698.1237	0.0029
698.3053	0.0033
698.4869	0.0103
698.6685	-0.0057
698.85	-0.0045
699.0315	-0.0149
699.213	-0.0155
699.3945	-0.0025
699.576	0.0045
699.7575	-0.0205
699.9389	-0.0034
700.1203	-0.0108
700.3017	-0.0057
700.4831	-0.0109
700.6645	-0.0089
700.8458	0.0164
701.0271	-0.0101
701.2084	-0.0161
701.3897	-0.0082
701.571	-0.0047
701.7523	-0.0122
701.9335	0.0299
702.1147	0.0014
702.2959	-0.0037
702.4771	0.0051
702.6583	-0.0106
702.8394	0.0001
703.0205	-0.0006
703.2016	-0.0272
703.3827	0.0214
703.5638	0.0147
703.7449	-0.0078
703.9259	0.0267
704.1069	0.0237
704.2879	0.0242
704.4689	-0.0249
704.6499	-0.0018
704.8308	0.0067
705.0117	-0.019
705.1927	0.0012
705.3735	-0.0118
705.5544	0.03
705.7353	-0.0035
705.9161	0.0112
706.0969	-0.0061
706.2777	0.0124
706.4585	0.0191
706.6393	-0.0107
706.82	-0.0181
707.0007	0.0139
707.1815	0.012
707.3621	0.0019
707.5428	0.011
707.7235	0.0277
707.9041	-0.0024
708.0847	-0.0085
708.2653	0.0013
708.4459	-0.0083
708.6265	-0.015
708.807	-0.0085
708.9875	-0.0028
709.168	-0.002
709.3485	-0.0013
709.529	0.0314
709.7095	-0.0219
709.8899	0.0118
710.0703	-0.0054
710.2507	0.0053
710.4311	-0.0043
710.6115	0.0021
710.7918	-0.0034
710.9721	-0.0102
711.1524	0.0009
711.3327	-0.0074
711.513	-0.0171
711.6932	-0.0066
711.8735	0.015
712.0537	-0.0075
712.2339	0.001
712.4141	0.0108
712.5942	0.0005
712.7744	0.0012
712.9545	0.0067
713.1346	0.0103
713.3147	0.0228
713.4947	0.0061
713.6748	-0.0153
713.8548	0.0175
714.0348	0.0207
714.2148	-0.01
714.3948	0.0126
714.5748	-0.0136
714.7547	-0.0137
714.9346	-0.0077
715.1145	0.018
715.2944	0.0005
715.4743	0.0018
715.6541	-0.0099
715.834	0.0159
716.0138	0.0149
716.1936	0.0041
716.3733	0.0022
716.5531	0.0166
716.7328	0.0008
716.9126	-0.0003
717.0923	-0.0008
717.2719	0.0175
717.4516	-0.0385
717.6312	-0.0247
717.8109	-0.022
717.9905	-0.0002
718.1701	-0.0269
718.3496	-0.0176
718.5292	-0.0311
718.7087	0.0179
718.8882	0.0251
719.0677	-0.0126
719.2472	-0.0002
719.4267	-0.0091
719.6061	-0.0368
719.7856	-0.0121
719.965	0.0304
720.1443	0.0098
720.3237	0.0293
720.5031	0.0108
720.6824	0.0158
720.8617	0.0135
721.041	0.0121
721.2203	0.0208
721.3995	-0.0054
721.5788	-0.0127
721.758	-0.0061
721.9372	0.0093
722.1164	0.0209
722.2956	-0.0072
722.4747	0.0237
722.6538	-0.0063
722.8329	0.0213
723.012	0.0255
723.1911	0.001
723.3702	-0.023
723.5492	-0.0223
723.7282	0.0106
723.9072	-0.0372
724.0862	0.0128
724.2652	-0.0327
724.4441	-0.0135
724.623	-0.0045
724.8019	-0.0067
724.9808	-0.018
725.1597	-0.0078
725.3385	0.0047
725.5174	0.0323
725.6962	0.0186
725.875	-0.008
726.0538	0.0073
726.2325	-0.0217
726.4112	0.0052
726.59	0.0152
726.7687	0.0132
726.9474	-0.0188
727.126	-0.0266
727.3047	0.0253
727.4833	0.0356
727.6619	0.0243
727.8405	-0.0131
728.0191	-0.0167
728.1976	-0.0117
728.3762	-0.0276
728.5547	0.0071
728.7332	0.0169
728.9116	-0.0457
729.0901	0.0029
729.2686	-0.0039
729.447	-0.0127
729.6254	0.0126
729.8038	-0.0308
729.9821	-0.0083
730.1605	-0.0065
730.3388	-0.0319
730.5171	-0.0054
730.6954	0.0169
730.8737	0.0001
731.0519	0.015
731.2302	-0.01
731.4084	-0.0165
731.5866	-0.0232
731.7648	-0.0079
731.9429	-0.0117
732.1211	-0.0032
732.2992	-0.022
732.4773	-0.0139
732.6554	0.0015
732.8335	0.002
733.0115	-0.0163
733.1896	-0.0196
733.3676	-0.0121
733.5456	0.0137
733.7235	-0.0015
733.9015	0.0037
734.0794	-0.0066
734.2574	0.0042
734.4353	-0.0106
734.6131	-0.006
734.791	-0.0015
734.9689	-0.0075
735.1467	-0.0018
735.3245	0.0091
735.5023	-0.0067
735.68	0.0094
735.8578	-0.0052
736.0355	-0.0064
736.2132	-0.0079
736.3909	-0.008
736.5686	-0.0053
736.7463	-0.0063
736.9239	0.0083
737.1015	-0.0201
737.2791	-0.0035
737.4567	-0.0142
737.6343	-0.0038
737.8118	-0.0136
737.9894	0.0034
738.1669	-0.0045
738.3444	0.0105
738.5218	0.0004
738.6993	-0.0078
738.8767	-0.0025
739.0541	-0.0041
739.2315	-0.0205
739.4089	-0.0231
739.5863	0.0172
739.7636	0.0032
739.9409	-0.0089
740.1182	0.0134
740.2955	-0.0456
740.4728	0.0323
740.65	-0.0196
740.8272	-0.0337
741.0044	-0.0013
741.1816	0.034
741.3588	-0.0049
741.5359	-0.0057
741.7131	0.0307
741.8902	-0.0011
742.0673	0.0261
742.2444	-0.0091
742.4214	-0.003
742.5985	0.0209
742.7755	-0.0371
742.9525	-0.0079
743.1295	-0.0013
743.3064	0.0149
743.4834	-0.0023
743.6603	-0.0193
743.8372	-0.0012
744.0141	0.0277
744.191	0.0343
744.3678	-0.0056
744.5446	0.0331
744.7215	-0.0212
744.8982	0.0142
745.075	0.0007
745.2518	-0.0171
745.4285	-0.0195
745.6052	0.0304
745.7819	0.0104
745.9586	0.0344
746.1353	0.0317
746.3119	0.0007
746.4885	-0.0061
746.6651	-0.0362
746.8417	-0.0267
747.0183	-0.0054
747.1948	0.0126
747.3714	0.0083
747.5479	0.0056
747.7244	-0.0638
747.9008	0.0066
748.0773	0.0036
748.2537	0.0373
748.4301	-0.0114
748.6065	-0.0055
748.7829	0.02
748.9593	-0.0071
749.1356	0.0124
749.3119	-0.0171
749.4882	-0.008
749.6645	0.0111
749.8408	-0.0069
750.017	0.0121
750.1933	0.0252
750.3695	0.0005
750.5457	-0.0083
750.7218	0.0036
750.898	-0.0087
751.0741	0.0121
751.2502	0.0217
751.4263	-0.007
751.6024	0.0065
751.7784	-0.0397
751.9545	-0.0413
752.1305	-0.0002
752.3065	0.0091
752.4825	-0.0252
752.6584	-0.0221
752.8344	0.0046
753.0103	-0.0276
753.1862	-0.0038
753.3621	0.0046
753.5379	-0.0236
753.7138	-0.0264
753.8896	0.0331
754.0654	-0.002
754.2412	0.0216
754.417	-0.0016
754.5927	-0.0114
754.7685	-0.0314
754.9442	-0.0104
755.1199	-0.0136
755.2956	0.0322
755.4712	0.0124
755.6469	-0.0017
755.8225	0.0144
755.9981	-0.0059
756.1736	0.016
756.3492	-0.0134
756.5248	-0.0127
756.7003	-0.0141
756.8758	-0.0189
757.0513	-0.0122
757.2267	-0.0102
757.4022	-0.0063
757.5776	-0.0202
757.753	-0.0318
757.9284	-0.0038
758.1038	-0.0082
758.2791	0.0007
758.4545	-0.0169
758.6298	0.0001
758.8051	-0.0051
758.9803	-0.011
759.1556	-0.0165
759.3308	-0.0089
759.506	0.001
759.6812	-0.0126
759.8564	-0.0155
760.0316	0.0071
760.2067	-0.0174
760.3819	-0.0121
760.557	-0.0061
760.732	-0.0038
760.9071	-0.0066
761.0821	0.0017
761.2572	-0.0021
761.4322	-0.0155
761.6072	-0.0106
761.7821	-0.0066
761.9571	0.0135
762.132	0.0106
762.3069	0.0121
762.4818	0.0021
762.6567	0.0053
762.8316	-0.0127
763.0064	-0.0125
763.1812	-0.0232
763.356	0.0153
763.5308	-0.0169
763.7055	0.0089
763.8803	-0.0208
764.055	-0.0096
764.2297	-0.0028
764.4044	-0.0073
764.579	-0.0013
764.7537	-0.0201
764.9283	-0.0287
765.1029	0.0017
765.2775	-0.028
765.4521	0.0137
765.6266	-0.0141
765.8011	-0.0324
765.9756	-0.0203
766.1501	0.0138
766.3246	-0.0007
766.4991	-0.0201
766.6735	-0.0057
766.8479	-0.02
767.0223	0.0239
767.1967	-0.0205
767.371	-0.0094
767.5454	0.022
767.7197	0.0087
767.894	-0.0078
768.0683	-0.009
768.2425	0.0115
768.4168	0.0383
768.591	0.0012
768.7652	0.0032
768.9394	0.0081
769.1135	-0.0111
769.2877	0.0149
769.4618	0.0186
769.6359	0.0105
769.81	0.0108
769.984	0.0059
770.1581	0.0222
770.3321	-0.0093
770.5061	0.0073
770.6801	0.0069
770.8541	-0.0196
771.028	-0.0027
771.202	-0.0524
771.3759	0.0074
771.5498	0.0209
771.7236	-0.0077
771.8975	-0.01
772.0713	0.0031
772.2451	-0.0052
772.4189	-0.0033
772.5927	-0.0152
772.7665	0.0292
772.9402	0.0051
773.1139	0.0059
773.2876	0.0013
773.4613	0.0182
773.635	0.0177
773.8086	-0.0684
773.9822	-0.0297
774.1558	-0.0323
774.3294	-0.0484
774.503	0.0052
774.6765	0.0291
774.8501	0.0363
775.0236	0.0465
775.1971	0.0164
775.3705	-0.0411
775.544	-0.0196
775.7174	0.0058
775.8908	0.0036
776.0642	0.0159
776.2376	-0.014
776.4109	0.0636
776.5843	-0.0164
776.7576	-0.0148
776.9309	0.0928
777.1041	-0.0519
777.2774	0.0012
777.4506	-0.017
777.6238	0.024
777.797	-0.0094
777.9702	0.0355
778.1434	-0.011
778.3165	-0.0094
778.4896	-0.0126
778.6627	0.0166
778.8358	-0.0454
779.0089	0.0188
779.1819	0.0107
779.3549	0.0146
779.5279	-0.0334
779.7009	-0.0069
779.8739	-0.028
780.0468	0.0151
780.2197	-0.0258
780.3926	-0.0134
780.5655	0.0009
780.7384	0.0236
780.9112	0.0249
781.0841	-0.0091
781.2569	-0.0059
781.4297	0.0069
781.6024	-0.0104
781.7752	-0.0046
781.9479	-0.0221
782.1206	-0.015
782.2933	0.0358
782.466	0.0067
782.6386	0.0135
782.8113	-0.0249
782.9839	0.0468
783.1565	-0.0033
783.329	-0.0105
783.5016	-0.0116
783.6741	-0.0322
783.8466	-0.0596
784.0191	-0.0146
784.1916	-0.0282
784.3641	-0.0485
784.5365	0.0364
784.7089	-0.0216
784.8813	0.0123
785.0537	-0.0091
785.2261	-0.0179
785.3984	-0.0177
785.5707	0.0867
785.743	-0.0333
785.9153	0.0385
786.0876	-0.0662
786.2598	0.0121
786.432	0.0242
786.6042	0.0252
786.7764	0.0035
786.9486	0.0063
787.1207	0.0132
787.2928	-0.0004
787.4649	0.0185
787.637	0.0072
787.8091	-0.0399
787.9811	0.034
788.1532	0.0068
788.3252	-0.0341
788.4972	-0.0215
788.6691	0.0354
788.8411	-0.0021
789.013	0.0029
789.1849	-0.0116
789.3568	0.0154
789.5287	-0.0565
789.7005	0.0037
789.8723	-0.0054
790.0442	-0.0594
790.2159	0.0252
790.3877	0.0841
790.5595	-0.0319
790.7312	-0.0151
790.9029	0.0086
791.0746	0.0444
791.2463	-0.0751
791.4179	-0.0572
791.5896	-0.0747
791.7612	0.0005
791.9328	0.0018
792.1044	-0.0795
792.2759	0.045
792.4474	-0.0542
792.619	0.0153
792.7905	-0.0726
792.9619	0.0177
793.1334	0.009
793.3048	-0.0153
793.4762	-0.0392
793.6476	0.0026
793.819	-0.027
793.9904	-0.005
794.1617	0.0126
794.333	-0.0193
794.5043	0.004
794.6756	0.0266
794.8469	-0.0177
795.0181	-0.0341
795.1893	-0.0241
795.3605	-0.014
795.5317	0.012
795.7029	-0.0132
795.874	-0.0155
796.0452	-0.0147
796.2163	0.0653
796.3873	-0.0123
796.5584	0.0551
796.7294	-0.0609
796.9005	-0.0347
797.0715	0.0341
797.2425	0.0006
797.4134	0.0665
797.5844	0.0259
797.7553	-0.0282
797.9262	0.0196
798.0971	-0.042
798.2679	0.0343
798.4388	0.0035
798.6096	-0.0038
798.7804	0.0495
798.9512	-0.0019
799.122	0.0074
799.2927	-0.041
799.4635	0.0429
799.6342	-0.0274
799.8049	-0.0083
799.9755	-0.0409
800.1462	-0.0048
800.3168	-0.014
800.4874	0.0297
800.658	0.0154
800.8286	-0.0292
800.9991	0.0505
801.1696	-0.0068
801.3402	0.0147
801.5106	-0.0713
801.6811	0.0174
801.8516	0.0489
802.022	-0.0365
802.1924	-0.0462
802.3628	0.0327
802.5332	-0.0663
802.7035	-0.0853
802.8739	0.0176
803.0442	0.0508
803.2145	-0.0083
803.3847	-0.0564
803.555	-0.0166
803.7252	0.0007
803.8954	-0.0168
804.0656	-0.0098
804.2358	0.0401
804.4059	-0.0113
804.5761	0.0078
804.7462	-0.042
804.9163	-0.0752
805.0864	-0.1239
805.2564	-0.0381
805.4264	-0.0466
805.5965	-0.0471
805.7665	0.0713
805.9364	-0.0692
806.1064	-0.0231
806.2763	0.0062
806.4462	0.0784
806.6161	-0.0237
806.786	0.0004
806.9559	0.0285
807.1257	-0.0153
807.2955	0.0231
807.4653	-0.0395
807.6351	-0.0077
807.8048	-0.0524
807.9746	-0.0302
808.1443	0.0005
808.314	0.0281
808.4837	-0.0419
808.6533	0.0141
808.8229	-0.0794
808.9926	-0.0256
809.1622	0.0471
809.3317	-0.0295
809.5013	0.1101
809.6708	0.0256
809.8403	0.0354
810.0098	0.0837
810.1793	0.0301
810.3488	-0.0235
810.5182	0.05
810.6876	0.0087
810.857	-0.0381
811.0264	-0.0169
811.1958	0.0116
811.3651	0.0305
811.5344	-0.0418
811.7037	0.094
811.873	0.048
812.0422	-0.0083
812.2115	-0.0172
812.3807	0.0082
812.5499	0.116
812.7191	0.0052
812.8882	0.0267
813.0574	-0.1886
813.2265	0.0412
813.3956	-0.069
813.5646	-0.0895
813.7337	-0.1032
813.9027	-0.1103
814.0718	-0.0178
814.2407	-0.1729
814.4097	-0.0073
814.5787	-0.0598
814.7476	0.0049
814.9165	0.0477
815.0854	-0.0331
815.2543	0.0185
815.4232	-0.0243
815.592	0.1309
815.7608	0.1519
815.9296	-0.015
816.0984	0.013
816.2671	0.1002
816.4359	0.0783
816.6046	0.0899
816.7733	-0.0489
816.942	0.0056
817.1106	-0.1718
817.2793	-0.1084
817.4479	-0.0879
817.6165	-0.0319
817.785	-0.0015
817.9536	0.1341
818.1221	0.1168
818.2906	0.0522
818.4591	-0.0586
818.6276	-0.0299
818.7961	0.1498
818.9645	0.069
819.1329	0.2362
819.3013	-0.041
819.4697	0.0051
819.638	-0.053
819.8064	-0.0953
819.9747	0.0059
820.143	0.0049
820.3113	0.1174
820.4795	0.0752
820.6477	-0.0018
820.816	0.0115
820.9842	-0.0995
821.1523	0.0426
821.3205	-0.0712
821.4886	-0.0183
821.6567	0.0094
821.8248	0.0371
821.9929	-0.0771
822.1609	-0.0827
822.329	0.0464
822.497	-0.0829
822.665	0.2352
822.833	0.0155
823.0009	0.0352
823.1688	-0.1694
823.3367	-0.3608
823.5046	0.015
823.6725	0.1431
823.8404	-0.1352
824.0082	-0.0795
824.176	-0.1254
824.3438	0.2802
824.5116	0.2792
824.6793	0.1436
824.847	-0.1058
825.0147	0.1418
825.1824	0.1649
825.3501	0.1805
825.5177	0.0658
825.6854	0.1589
825.853	-0.0429
826.0206	-0.0295
826.1881	0.0057
826.3557	0.0393
826.5232	-0.0274
826.6907	0.1048
826.8582	0.1002
827.0257	-0.0915
827.1931	0.1096
827.3605	0.0229
827.528	0.1093
827.6953	0.0875
827.8627	0.0534
828.03	-0.0072
828.1974	-0.0671
828.3647	0.0152
828.532	-0.0238
828.6992	0.0245
828.8665	-0.0503
829.0337	-0.1109
829.2009	0.1543
829.3681	0.0229
829.5352	0.0957
829.7024	-0.0908
829.8695	0.0487
830.0366	0.1631
830.2037	0.1075
830.3707	-0.0281
830.5378	0.1608
830.7048	-0.3488
830.8718	-0.0481
831.0388	0.3517
831.2057	-0.1369
831.3727	-0.0188
831.5396	-0.1784
831.7065	0.6076
831.8734	-0.5954
832.0402	-0.0643
832.2071	-0.1169
832.3739	0.2478
832.5407	-0
832.7075	0.041
832.8742	0.3272
833.041	-0.0042
833.2077	-0.0241
833.3744	-0.1581
833.541	0.2072
833.7077	0.2991
833.8743	-0.029
834.0409	0.0103
834.2075	-0.0362
834.3741	0.0534
834.5407	-0.084
834.7072	0.0352
834.8737	0.178
835.0402	-0.4385
835.2067	-0.034
835.3731	-0.0066
835.5395	0.0014
835.706	-0.0901
835.8723	-0.0888
836.0387	0.06
836.2051	-0.0041
836.3714	0.0965
836.5377	0.1381
836.704	0.0581
836.8703	-0.1437
837.0365	-0
837.2027	-0
837.3689	-0.045
837.5351	0.0486
837.7013	0.0996
837.8674	-1.1027
838.0335	-0.0748
838.1997	0.1309
838.3657	-0
838.5318	-0.6498
838.6978	0.5185
838.8639	0.1409
839.0299	0.2485
839.1958	0.0837
839.3618	-0.1454
839.5277	-0.308
839.6937	-0.0708
839.8596	-0.0607
840.0254	0.5507
840.1913	0.1589
840.3571	-0.3165
840.523	0.0775
840.6888	-0.1088
840.8545	-0.1176
841.0203	0.0966
841.186	0.1571
841.3517	0.1967
841.5174	0.3036
841.6831	0.1831
841.8488	0.03
842.0144	0.2064
842.18	-0.1568
842.3456	-0.0999
842.5112	-0.3999
842.6767	-0.4469
842.8422	-0.0264
843.0077	0.4569
843.1732	0.1112
843.3387	0.6188
843.5042	-0.0073
843.6696	-0.1919
843.835	0.035
844.0004	0.0159
844.1657	-0
844.3311	-0
844.4964	0.2167
844.6617	-0.5447
844.827	0.4919
844.9923	-0.1511
845.1575	-0
845.3227	0.7592
845.4879	0.1809
845.6531	-0.3559
845.8183	0.7726
845.9834	-0.7633
846.1485	-0.4722
846.3136	0.1692
846.4787	0.1864
846.6438	0.6282
846.8088	-0.3554
846.9738	-0
847.1388	-0.1145
847.3038	-0.1451
847.4687	-0
847.6337	0.3848
847.7986	0.0795
847.9635	-0.32
848.1284	-0
848.2932	-0.2493
848.458	0.1108
848.6228	0.3236
848.7876	-0
848.9524	-0.1757
849.1172	0.0062
849.2819	0.9956
849.4466	-0.5303
849.6113	-0.0785
849.7759	-0
849.9406	-0.1071
850.1052	0.0491
850.2698	-0.7377
850.4344	0.2204
850.599	0.1381
850.7635	-0.2156
850.928	0.2708
851.0925	-0.3693
851.257	-0.3668
851.4215	-0.6498
851.5859	0.1076
851.7503	-0
851.9147	-0
852.0791	-0.3524
852.2434	-0.141
852.4078	-0
852.5721	0.8052
852.7364	0.061
852.9007	-0.2667
853.0649	0.1284
853.2291	0.2236
853.3934	0.6532
853.5575	-0.2074
853.7217	-0.4363
853.8859	-0.3108
854.05	-0.7689
854.2141	-0
854.3782	0.0658
854.5423	-1.0953
854.7063	0.1672
854.8703	0.0725
855.0343	0.4082
855.1983	-0.3187
855.3623	0.2597
855.5262	-0.7085
855.6901	0.6433
855.854	-0.2576
856.0179	-0
856.1818	0.0225
856.3456	0.5147
856.5094	-0
856.6732	-1.002
856.837	0.8359
857.0008	-0
857.1645	-0
857.3282	-0.2785
857.4919	-0.0954
857.6556	0.4262
857.8192	-0.1862
857.9828	-0.3673
858.1465	0.0175
858.31	-0
858.4736	0.052
858.6372	-0.0928
858.8007	-1.237
858.9642	0.6195
859.1277	-0.0729
859.2911	-0.1862
859.4546	-0
859.618	-0.2959
859.7814	-0
859.9448	-0
860.1081	-0
860.2715	-0.5599
860.4348	-0.0191
860.5981	-0.3097
860.7614	-0.0853
860.9246	-0.354
861.0879	-0.1211
861.2511	0.4585
861.4143	1.6263
861.5774	1.0869
861.7406	-0
861.9037	-0
862.0668	-0.7051
862.2299	-0
862.393	2.1351
862.556	-0
862.7191	-0.1058
862.8821	0.0168
863.0451	0.1062
863.208	-0.3352
863.371	0.2051
863.5339	0.0132
863.6968	-0.2704
863.8597	-0
864.0225	-0
864.1854	-0.2525
864.3482	-0
864.511	0.0328
864.6737	-0
864.8365	0.2726
864.9992	-0.2033
865.1619	-0.1123
865.3246	-0
865.4873	-1.066
865.65	0.2486
865.8126	-0
865.9752	-0.0868
866.1378	-0.7612
866.3004	0.1724
866.4629	-0.1964
866.6254	-0
866.7879	0.2547
866.9504	-0.0336
867.1129	-0
867.2753	0.0564
867.4377	0.57
867.6001	0.1471
867.7625	-0.2797
867.9249	-0
868.0872	0.2687
868.2495	-0
868.4118	0.4266
868.5741	0.3329
868.7363	-0
868.8986	-0
869.0608	-0
869.223	1.0659
869.3851	-0
869.5473	-1.0765
869.7094	-0.1283
869.8715	-0.1102
870.0336	-0.0289
870.1957	-0.9615
870.3577	-0.4716
870.5197	0.0742
870.6817	-0
870.8437	1.0051
871.0057	-0
871.1676	0.41
871.3295	-0
871.4914	-0.2699
871.6533	-0.2484
871.8151	0.3265
871.977	0.5465
872.1388	-1.0544
872.3006	-0.1592
872.4623	-0.2051
872.6241	-0
872.7858	0.2255
872.9475	-0
873.1092	0.0678
873.2709	-0
873.4325	-0
873.5941	-0.254
873.7557	-0.7168
873.9173	-0
874.0789	0.3249
874.2404	0.1209
874.4019	0.2975
874.5634	-0.1408
874.7249	-0.2676
874.8863	-0
875.0478	0.0768
875.2092	-0
875.3706	-0.4048
875.5319	0.3752
875.6933	-0
875.8546	-0.022
876.0159	-0.3844
876.1772	-0.8199
876.3385	0.034
876.4997	-0
876.6609	-0.9608
876.8221	0.1409
876.9833	0.3098
877.1445	-0.1185
877.3056	0.3292
877.4667	-0
877.6278	-0
877.7889	-0.1228
877.9499	-0
878.111	-0.2322
878.272	-0.5813
878.433	1.233
878.5939	-0.0208
878.7549	0.8751
878.9158	-0
879.0767	-0
879.2376	-0
879.3984	0.0372
879.5593	-0.2598
879.7201	0.998
879.8809	1.316
880.0417	0.5432
880.2024	-0.2018
880.3632	-0.0423
880.5239	-0.09
880.6846	-0
880.8452	0.8079
881.0059	-0
881.1665	0.1883
881.3271	-0
881.4877	-0
881.6483	-1.7066
881.8088	-0.0972
881.9693	0.1843
882.1298	0.1843
882.2903	0.1843
