Data from D4ACN5uM480nmA_Absorbance_12-08-00-535.txt Node
Date: Fri Feb 21 12:08:00 GMT 2025
User: LASERRRRR
Spectrometer: FLMT03099
Trigger mode: 0
Integration Time (sec): 1.500000E-2
Scans to average: 1
Electric dark correction enabled: true
Nonlinearity correction enabled: false
Boxcar width: 0
XAxis mode: Wavelengths
Number of Pixels in Spectrum: 3648
>>>>>Begin Spectral Data<<<<<
179.3399	-0.0792
179.5586	-0.0792
179.7771	-0.0792
179.9957	0.1725
180.2143	-0.3867
180.4329	-0
180.6514	-0
180.8699	-0.3821
181.0885	-0.2023
181.307	0.3932
181.5255	0.1654
181.744	-0
181.9625	-0.2056
182.181	0.0716
182.3994	-0
182.6179	-0
182.8363	-0
183.0547	-0.5563
183.2732	0.2605
183.4916	0.4322
183.71	0.0948
183.9284	0.2648
184.1467	0.0998
184.3651	0.172
184.5835	0.1006
184.8018	0.1365
185.0201	0.2368
185.2385	0.197
185.4568	0.4225
185.6751	0.1318
185.8934	0.3817
186.1117	0.2006
186.3299	0.1362
186.5482	0.0638
186.7664	0.8751
186.9847	0.1944
187.2029	0.3163
187.4211	0.1433
187.6393	0.2963
187.8575	0.0854
188.0757	0.2741
188.2939	0.1726
188.512	0.1438
188.7302	0.044
188.9483	0.4128
189.1665	0.2874
189.3846	0.0037
189.6027	0.0687
189.8208	0.3654
190.0389	0.2623
190.257	0.2657
190.475	0.312
190.6931	0.3272
190.9111	1.0856
191.1292	0.1976
191.3472	0.0919
191.5652	0.1815
191.7832	0.4845
192.0012	0.3016
192.2192	0.5032
192.4371	0.312
192.6551	0.4676
192.873	0.3914
193.091	0.3765
193.3089	0.1648
193.5268	0.6317
193.7447	0.4668
193.9626	0.5109
194.1805	0.421
194.3984	0.3951
194.6162	0.5047
194.8341	0.5673
195.0519	0.7052
195.2697	0.6938
195.4875	0.5474
195.7054	0.4857
195.9231	0.5241
196.1409	0.6262
196.3587	0.6714
196.5765	0.7203
196.7942	0.664
197.012	0.5415
197.2297	0.6462
197.4474	0.7419
197.6651	0.6185
197.8828	0.5883
198.1005	0.6292
198.3182	0.6236
198.5358	0.5123
198.7535	0.6577
198.9711	0.6759
199.1888	0.6211
199.4064	0.596
199.624	0.5951
199.8416	0.5031
200.0592	0.533
200.2767	0.5456
200.4943	0.6229
200.7119	0.5383
200.9294	0.604
201.1469	0.5703
201.3645	0.629
201.582	0.5576
201.7995	0.6336
202.017	0.6261
202.2344	0.5381
202.4519	0.5815
202.6694	0.6038
202.8868	0.5086
203.1042	0.542
203.3217	0.5553
203.5391	0.5166
203.7565	0.5322
203.9739	0.5041
204.1913	0.5185
204.4086	0.528
204.626	0.5405
204.8433	0.5568
205.0607	0.5195
205.278	0.5572
205.4953	0.4576
205.7126	0.4352
205.9299	0.4747
206.1472	0.4773
206.3644	0.4853
206.5817	0.4927
206.7989	0.4783
207.0162	0.4128
207.2334	0.4455
207.4506	0.4581
207.6678	0.4287
207.885	0.4449
208.1022	0.4339
208.3194	0.456
208.5365	0.4491
208.7537	0.4027
208.9708	0.4479
209.1879	0.4219
209.405	0.4424
209.6222	0.4091
209.8392	0.4464
210.0563	0.4212
210.2734	0.4288
210.4905	0.4058
210.7075	0.4429
210.9245	0.4388
211.1416	0.4119
211.3586	0.4091
211.5756	0.4071
211.7926	0.4217
212.0096	0.4084
212.2265	0.3926
212.4435	0.4327
212.6604	0.3859
212.8774	0.4165
213.0943	0.394
213.3112	0.4175
213.5281	0.4114
213.745	0.4094
213.9619	0.4045
214.1788	0.4153
214.3956	0.4165
214.6125	0.4045
214.8293	0.4141
215.0461	0.4066
215.2629	0.4038
215.4798	0.3879
215.6965	0.3933
215.9133	0.4102
216.1301	0.404
216.3469	0.4154
216.5636	0.4011
216.7803	0.4089
216.9971	0.4249
217.2138	0.4011
217.4305	0.3969
217.6472	0.4197
217.8639	0.3888
218.0805	0.4237
218.2972	0.4174
218.5138	0.423
218.7305	0.399
218.9471	0.4363
219.1637	0.4261
219.3803	0.4053
219.5969	0.4179
219.8135	0.4226
220.0301	0.4065
220.2466	0.4363
220.4632	0.4006
220.6797	0.4241
220.8962	0.4286
221.1127	0.4272
221.3292	0.43
221.5457	0.4466
221.7622	0.421
221.9787	0.4496
222.1951	0.4453
222.4116	0.4551
222.628	0.4397
222.8444	0.442
223.0608	0.4231
223.2772	0.4362
223.4936	0.4482
223.71	0.4359
223.9264	0.4529
224.1427	0.4703
224.3591	0.4586
224.5754	0.4638
224.7917	0.4612
225.008	0.4479
225.2243	0.4691
225.4406	0.4566
225.6569	0.4596
225.8732	0.4601
226.0894	0.4875
226.3057	0.4593
226.5219	0.4725
226.7381	0.4598
226.9543	0.4569
227.1705	0.4698
227.3867	0.482
227.6029	0.4709
227.8191	0.4829
228.0352	0.505
228.2513	0.5048
228.4675	0.4822
228.6836	0.4821
228.8997	0.4941
229.1158	0.4947
229.3319	0.502
229.548	0.4941
229.764	0.4935
229.9801	0.5151
230.1961	0.5258
230.4121	0.5127
230.6282	0.5093
230.8442	0.5111
231.0602	0.5183
231.2761	0.5167
231.4921	0.5113
231.7081	0.5135
231.924	0.5127
232.14	0.514
232.3559	0.5387
232.5718	0.5208
232.7877	0.5275
233.0036	0.5188
233.2195	0.5225
233.4353	0.5244
233.6512	0.5365
233.867	0.5388
234.0829	0.5271
234.2987	0.5305
234.5145	0.5355
234.7303	0.5391
234.9461	0.5418
235.1619	0.5374
235.3776	0.5209
235.5934	0.544
235.8091	0.537
236.0249	0.5363
236.2406	0.5288
236.4563	0.5387
236.672	0.5366
236.8877	0.5319
237.1034	0.5247
237.319	0.5373
237.5347	0.5234
237.7503	0.5262
237.966	0.5324
238.1816	0.5302
238.3972	0.5376
238.6128	0.5403
238.8284	0.5353
239.0439	0.5321
239.2595	0.5281
239.475	0.5362
239.6906	0.5335
239.9061	0.5248
240.1216	0.5359
240.3371	0.5169
240.5526	0.5194
240.7681	0.5205
240.9836	0.5275
241.199	0.5141
241.4145	0.4906
241.6299	0.4965
241.8453	0.4961
242.0607	0.4932
242.2761	0.481
242.4915	0.4806
242.7069	0.4688
242.9223	0.4603
243.1376	0.4515
243.353	0.4419
243.5683	0.4379
243.7836	0.4273
243.9989	0.4166
244.2142	0.4126
244.4295	0.4058
244.6448	0.3897
244.86	0.3854
245.0753	0.3848
245.2905	0.3756
245.5057	0.3703
245.721	0.3516
245.9362	0.3596
246.1514	0.3403
246.3665	0.3417
246.5817	0.3278
246.7969	0.3315
247.012	0.3209
247.2271	0.3105
247.4423	0.3078
247.6574	0.3116
247.8725	0.3038
248.0876	0.2864
248.3026	0.2869
248.5177	0.2826
248.7328	0.2831
248.9478	0.2741
249.1628	0.2648
249.3779	0.2658
249.5929	0.26
249.8079	0.2466
250.0228	0.2542
250.2378	0.2478
250.4528	0.2508
250.6677	0.2405
250.8827	0.2416
251.0976	0.2388
251.3125	0.2333
251.5274	0.2348
251.7423	0.2342
251.9572	0.2202
252.172	0.2151
252.3869	0.2181
252.6017	0.2179
252.8166	0.2152
253.0314	0.2167
253.2462	0.2172
253.461	0.2154
253.6758	0.2105
253.8906	0.2053
254.1053	0.2048
254.3201	0.2011
254.5348	0.1976
254.7496	0.2068
254.9643	0.2042
255.179	0.1995
255.3937	0.1921
255.6083	0.2014
255.823	0.2005
256.0377	0.2002
256.2523	0.1947
256.467	0.1938
256.6816	0.1947
256.8962	0.1913
257.1108	0.1941
257.3254	0.1859
257.54	0.1931
257.7545	0.195
257.9691	0.1952
258.1836	0.1875
258.3981	0.1877
258.6127	0.1867
258.8272	0.1917
259.0417	0.1776
259.2561	0.191
259.4706	0.1921
259.6851	0.1865
259.8995	0.1772
260.114	0.1861
260.3284	0.1908
260.5428	0.1791
260.7572	0.1831
260.9716	0.182
261.186	0.1816
261.4003	0.1851
261.6147	0.1799
261.829	0.1834
262.0433	0.1792
262.2577	0.188
262.472	0.1874
262.6863	0.1858
262.9005	0.1857
263.1148	0.1821
263.3291	0.1858
263.5433	0.1834
263.7576	0.1853
263.9718	0.1907
264.186	0.1876
264.4002	0.1816
264.6144	0.1921
264.8286	0.1861
265.0427	0.1976
265.2569	0.1842
265.471	0.1876
265.6851	0.1844
265.8993	0.1876
266.1134	0.1855
266.3275	0.1875
266.5415	0.1796
266.7556	0.1775
266.9697	0.185
267.1837	0.1806
267.3978	0.1936
267.6118	0.1775
267.8258	0.1914
268.0398	0.1787
268.2538	0.1853
268.4677	0.1813
268.6817	0.1766
268.8957	0.1908
269.1096	0.179
269.3235	0.1861
269.5374	0.1811
269.7514	0.1778
269.9652	0.1813
270.1791	0.1786
270.393	0.1794
270.6068	0.1737
270.8207	0.1745
271.0345	0.1738
271.2483	0.174
271.4622	0.1779
271.676	0.1696
271.8897	0.1687
272.1035	0.1735
272.3173	0.1733
272.531	0.1723
272.7448	0.1705
272.9585	0.1767
273.1722	0.1729
273.3859	0.1737
273.5996	0.1764
273.8133	0.1691
274.0269	0.176
274.2406	0.1703
274.4542	0.17
274.6679	0.1637
274.8815	0.1736
275.0951	0.1769
275.3087	0.1742
275.5223	0.1683
275.7358	0.1846
275.9494	0.1729
276.1629	0.1785
276.3765	0.1709
276.59	0.1826
276.8035	0.1776
277.017	0.1748
277.2305	0.1741
277.444	0.1745
277.6574	0.179
277.8709	0.1787
278.0843	0.1821
278.2978	0.1758
278.5112	0.1831
278.7246	0.1787
278.938	0.1759
279.1513	0.1814
279.3647	0.1767
279.5781	0.1769
279.7914	0.1824
280.0047	0.1768
280.2181	0.1834
280.4314	0.1846
280.6447	0.1792
280.8579	0.1783
281.0712	0.1847
281.2845	0.1803
281.4977	0.1913
281.711	0.1829
281.9242	0.1809
282.1374	0.1824
282.3506	0.1828
282.5638	0.1872
282.7769	0.1843
282.9901	0.1815
283.2033	0.182
283.4164	0.1811
283.6295	0.1824
283.8426	0.1862
284.0557	0.1879
284.2688	0.1911
284.4819	0.1929
284.695	0.1866
284.908	0.1941
285.1211	0.1862
285.3341	0.1978
285.5471	0.198
285.7601	0.1917
285.9731	0.1864
286.1861	0.1882
286.3991	0.19
286.612	0.1941
286.825	0.1898
287.0379	0.1992
287.2508	0.1942
287.4637	0.1943
287.6766	0.197
287.8895	0.1912
288.1024	0.2
288.3152	0.1941
288.5281	0.1919
288.7409	0.1985
288.9538	0.1995
289.1666	0.1984
289.3794	0.2013
289.5922	0.1966
289.8049	0.2067
290.0177	0.2036
290.2304	0.1985
290.4432	0.2015
290.6559	0.1911
290.8686	0.1974
291.0813	0.1964
291.294	0.2063
291.5067	0.1993
291.7194	0.1973
291.932	0.1962
292.1447	0.198
292.3573	0.1967
292.5699	0.2013
292.7825	0.2018
292.9951	0.2031
293.2077	0.1993
293.4203	0.1991
293.6328	0.1948
293.8454	0.1983
294.0579	0.1983
294.2704	0.2067
294.4829	0.2021
294.6954	0.1988
294.9079	0.2041
295.1204	0.1968
295.3328	0.2032
295.5453	0.1962
295.7577	0.1959
295.9701	0.2013
296.1825	0.1922
296.3949	0.2018
296.6073	0.1982
296.8197	0.2027
297.0321	0.2042
297.2444	0.2003
297.4567	0.1979
297.6691	0.1971
297.8814	0.2001
298.0937	0.1994
298.306	0.1979
298.5182	0.2037
298.7305	0.1952
298.9428	0.1982
299.155	0.1993
299.3672	0.2043
299.5794	0.1952
299.7916	0.2027
300.0038	0.194
300.216	0.198
300.4282	0.1914
300.6403	0.1965
300.8525	0.2004
301.0646	0.1972
301.2767	0.1978
301.4888	0.197
301.7009	0.1959
301.913	0.198
302.125	0.1981
302.3371	0.1957
302.5491	0.1979
302.7612	0.1929
302.9732	0.1897
303.1852	0.1954
303.3972	0.1946
303.6092	0.1926
303.8211	0.1879
304.0331	0.191
304.245	0.1924
304.457	0.195
304.6689	0.1911
304.8808	0.1889
305.0927	0.1954
305.3046	0.1823
305.5164	0.1882
305.7283	0.1865
305.9401	0.182
306.152	0.183
306.3638	0.1805
306.5756	0.1823
306.7874	0.1799
306.9992	0.1787
307.2109	0.1733
307.4227	0.1741
307.6344	0.1744
307.8462	0.1757
308.0579	0.1683
308.2696	0.1703
308.4813	0.1585
308.693	0.1632
308.9046	0.1634
309.1163	0.1653
309.328	0.1549
309.5396	0.1567
309.7512	0.1556
309.9628	0.1491
310.1744	0.1534
310.386	0.1497
310.5976	0.1499
310.8091	0.1514
311.0207	0.1489
311.2322	0.1438
311.4437	0.1439
311.6552	0.1452
311.8667	0.1408
312.0782	0.1398
312.2897	0.1439
312.5012	0.1441
312.7126	0.131
312.924	0.1333
313.1355	0.1321
313.3469	0.1285
313.5583	0.1287
313.7696	0.1276
313.981	0.126
314.1924	0.1312
314.4037	0.121
314.6151	0.1321
314.8264	0.1291
315.0377	0.1273
315.249	0.1263
315.4603	0.1228
315.6716	0.1262
315.8828	0.1242
316.0941	0.1178
316.3053	0.1208
316.5165	0.119
316.7277	0.1273
316.9389	0.1232
317.1501	0.1205
317.3613	0.1158
317.5724	0.1196
317.7836	0.1185
317.9947	0.1113
318.2058	0.1211
318.417	0.1158
318.6281	0.1174
318.8391	0.1179
319.0502	0.122
319.2613	0.1186
319.4723	0.1188
319.6834	0.1189
319.8944	0.1169
320.1054	0.1173
320.3164	0.119
320.5274	0.112
320.7383	0.1139
320.9493	0.1116
321.1602	0.1126
321.3712	0.119
321.5821	0.117
321.793	0.1131
322.0039	0.1149
322.2148	0.1155
322.4257	0.1205
322.6365	0.1179
322.8474	0.109
323.0582	0.12
323.269	0.1093
323.4798	0.1197
323.6906	0.1102
323.9014	0.1142
324.1122	0.1215
324.3229	0.1166
324.5337	0.1237
324.7444	0.1125
324.9551	0.1188
325.1658	0.1171
325.3765	0.1163
325.5872	0.1199
325.7979	0.1165
326.0085	0.121
326.2192	0.1144
326.4298	0.1248
326.6404	0.1235
326.851	0.1182
327.0616	0.1239
327.2722	0.124
327.4828	0.1127
327.6933	0.1177
327.9039	0.1134
328.1144	0.1181
328.3249	0.1247
328.5354	0.1237
328.7459	0.1216
328.9564	0.1264
329.1669	0.119
329.3773	0.1247
329.5878	0.1197
329.7982	0.1213
330.0086	0.1189
330.219	0.1178
330.4294	0.1262
330.6398	0.1219
330.8502	0.1173
331.0605	0.1217
331.2708	0.124
331.4812	0.1236
331.6915	0.1152
331.9018	0.1182
332.1121	0.1362
332.3224	0.1227
332.5326	0.1292
332.7429	0.1203
332.9531	0.123
333.1633	0.1219
333.3735	0.1223
333.5837	0.1262
333.7939	0.1302
334.0041	0.1149
334.2143	0.1265
334.4244	0.1194
334.6346	0.1226
334.8447	0.124
335.0548	0.1229
335.2649	0.1353
335.475	0.1273
335.685	0.1291
335.8951	0.1331
336.1051	0.1318
336.3152	0.1276
336.5252	0.1235
336.7352	0.1258
336.9452	0.1292
337.1552	0.1235
337.3652	0.1315
337.5751	0.1294
337.7851	0.1259
337.995	0.1298
338.2049	0.1333
338.4148	0.1275
338.6247	0.1312
338.8346	0.134
339.0445	0.125
339.2543	0.1369
339.4642	0.1368
339.674	0.1365
339.8838	0.1303
340.0936	0.136
340.3034	0.1329
340.5132	0.1355
340.7229	0.1323
340.9327	0.1332
341.1424	0.1389
341.3522	0.1457
341.5619	0.1308
341.7716	0.1415
341.9813	0.14
342.1909	0.142
342.4006	0.1372
342.6102	0.1411
342.8199	0.1355
343.0295	0.1435
343.2391	0.1472
343.4487	0.1417
343.6583	0.1517
343.8679	0.1403
344.0774	0.1438
344.287	0.1478
344.4965	0.1494
344.706	0.1472
344.9155	0.1368
345.125	0.1464
345.3345	0.1437
345.544	0.153
345.7534	0.1496
345.9629	0.1492
346.1723	0.152
346.3817	0.1493
346.5911	0.1483
346.8005	0.1541
347.0099	0.1513
347.2193	0.147
347.4286	0.1521
347.638	0.1507
347.8473	0.152
348.0566	0.159
348.2659	0.1651
348.4752	0.1581
348.6845	0.1584
348.8937	0.1572
349.103	0.1557
349.3122	0.1644
349.5214	0.1547
349.7306	0.1564
349.9398	0.1626
350.149	0.1593
350.3582	0.1577
350.5674	0.1666
350.7765	0.1623
350.9856	0.1588
351.1948	0.1621
351.4039	0.1592
351.613	0.1706
351.822	0.1677
352.0311	0.1687
352.2402	0.1693
352.4492	0.1782
352.6582	0.1674
352.8672	0.1696
353.0762	0.1663
353.2852	0.1759
353.4942	0.1713
353.7032	0.1755
353.9121	0.1699
354.1211	0.1713
354.33	0.1729
354.5389	0.1866
354.7478	0.1765
354.9567	0.1787
355.1655	0.1793
355.3744	0.1784
355.5833	0.1846
355.7921	0.1793
356.0009	0.1803
356.2097	0.1855
356.4185	0.1924
356.6273	0.1876
356.8361	0.1914
357.0448	0.1912
357.2536	0.1852
357.4623	0.1875
357.671	0.1863
357.8797	0.199
358.0884	0.1899
358.2971	0.1937
358.5057	0.1931
358.7144	0.1969
358.923	0.1968
359.1316	0.1927
359.3402	0.2033
359.5488	0.1921
359.7574	0.1988
359.966	0.201
360.1746	0.1992
360.3831	0.2025
360.5916	0.2004
360.8002	0.2095
361.0087	0.2164
361.2172	0.2102
361.4256	0.1998
361.6341	0.2098
361.8426	0.2198
362.051	0.2093
362.2594	0.2237
362.4678	0.2105
362.6762	0.2269
362.8846	0.2096
363.093	0.217
363.3014	0.2173
363.5097	0.2228
363.718	0.2207
363.9264	0.2132
364.1347	0.2306
364.343	0.2251
364.5513	0.2286
364.7595	0.232
364.9678	0.2365
365.176	0.2301
365.3842	0.2292
365.5925	0.2288
365.8007	0.2335
366.0089	0.2382
366.217	0.232
366.4252	0.233
366.6333	0.235
366.8415	0.2397
367.0496	0.2331
367.2577	0.2503
367.4658	0.2415
367.6739	0.24
367.882	0.2472
368.09	0.2493
368.2981	0.2359
368.5061	0.2479
368.7141	0.2426
368.9221	0.2499
369.1301	0.2469
369.3381	0.2592
369.5461	0.2472
369.754	0.2541
369.962	0.2536
370.1699	0.2567
370.3778	0.2605
370.5857	0.257
370.7936	0.2555
371.0015	0.2506
371.2093	0.2551
371.4172	0.2655
371.625	0.2602
371.8328	0.2716
372.0406	0.2643
372.2484	0.2589
372.4562	0.2624
372.664	0.2694
372.8717	0.2689
373.0795	0.2709
373.2872	0.2666
373.4949	0.2727
373.7026	0.2842
373.9103	0.2635
374.118	0.2786
374.3256	0.2799
374.5333	0.2691
374.7409	0.2682
374.9485	0.2686
375.1561	0.2754
375.3637	0.2722
375.5713	0.2726
375.7789	0.2706
375.9864	0.2765
376.194	0.286
376.4015	0.2808
376.609	0.2864
376.8165	0.2823
377.024	0.2827
377.2315	0.284
377.4389	0.2745
377.6464	0.2845
377.8538	0.2923
378.0612	0.2819
378.2686	0.2946
378.476	0.2762
378.6834	0.2968
378.8908	0.2951
379.0981	0.2923
379.3055	0.3032
379.5128	0.3039
379.7201	0.2946
379.9274	0.2973
380.1347	0.2978
380.342	0.3135
380.5492	0.2956
380.7565	0.2968
380.9637	0.2997
381.1709	0.3023
381.3781	0.3043
381.5853	0.3022
381.7925	0.3093
381.9997	0.2995
382.2068	0.2945
382.4139	0.3072
382.6211	0.3114
382.8282	0.3049
383.0353	0.3166
383.2424	0.3113
383.4494	0.3161
383.6565	0.3098
383.8635	0.3154
384.0706	0.3087
384.2776	0.3147
384.4846	0.3265
384.6916	0.3065
384.8986	0.3252
385.1055	0.3148
385.3125	0.3122
385.5194	0.3065
385.7263	0.3071
385.9333	0.3129
386.1402	0.3186
386.347	0.3262
386.5539	0.3204
386.7608	0.3096
386.9676	0.3113
387.1744	0.3189
387.3813	0.3121
387.5881	0.3246
387.7948	0.319
388.0016	0.3182
388.2084	0.3147
388.4151	0.3059
388.6219	0.3059
388.8286	0.305
389.0353	0.2978
389.242	0.3077
389.4487	0.3116
389.6553	0.3003
389.862	0.3154
390.0686	0.3173
390.2753	0.3062
390.4819	0.3113
390.6885	0.3033
390.8951	0.3103
391.1016	0.3097
391.3082	0.2962
391.5147	0.3009
391.7213	0.3086
391.9278	0.302
392.1343	0.2981
392.3408	0.2874
392.5473	0.2902
392.7537	0.3016
392.9602	0.284
393.1666	0.2972
393.373	0.2902
393.5794	0.2846
393.7858	0.2943
393.9922	0.2774
394.1986	0.2874
394.4049	0.2918
394.6113	0.288
394.8176	0.2739
395.0239	0.2788
395.2302	0.2692
395.4365	0.2778
395.6428	0.2812
395.8491	0.2767
396.0553	0.2766
396.2615	0.2663
396.4678	0.2749
396.674	0.2712
396.8802	0.2744
397.0863	0.2726
397.2925	0.2685
397.4987	0.278
397.7048	0.2787
397.9109	0.2762
398.117	0.2676
398.3231	0.281
398.5292	0.2672
398.7353	0.2681
398.9413	0.2593
399.1474	0.2725
399.3534	0.2705
399.5594	0.2646
399.7654	0.2723
399.9714	0.2699
400.1774	0.2694
400.3833	0.2744
400.5893	0.26
400.7952	0.2747
401.0011	0.2653
401.207	0.2637
401.4129	0.2605
401.6188	0.2704
401.8247	0.2711
402.0305	0.2645
402.2364	0.2704
402.4422	0.2745
402.648	0.2714
402.8538	0.2695
403.0596	0.2603
403.2654	0.2608
403.4711	0.2647
403.6768	0.268
403.8826	0.2713
404.0883	0.2624
404.294	0.2772
404.4997	0.2646
404.7054	0.2694
404.911	0.2657
405.1167	0.2818
405.3223	0.2639
405.5279	0.2685
405.7335	0.2604
405.9391	0.2646
406.1447	0.2637
406.3502	0.2697
406.5558	0.2771
406.7613	0.2585
406.9668	0.2564
407.1724	0.2638
407.3778	0.2602
407.5833	0.2697
407.7888	0.2766
407.9942	0.2742
408.1997	0.2661
408.4051	0.258
408.6105	0.272
408.8159	0.2694
409.0213	0.2641
409.2267	0.2704
409.432	0.274
409.6374	0.2725
409.8427	0.2607
410.048	0.2607
410.2533	0.2751
410.4586	0.2669
410.6639	0.269
410.8691	0.2685
411.0744	0.2649
411.2796	0.2686
411.4848	0.2574
411.69	0.2666
411.8952	0.2708
412.1004	0.267
412.3056	0.265
412.5107	0.2688
412.7158	0.2716
412.921	0.2728
413.1261	0.2696
413.3312	0.2591
413.5362	0.2659
413.7413	0.2609
413.9464	0.2627
414.1514	0.2565
414.3564	0.2646
414.5614	0.2574
414.7664	0.263
414.9714	0.2682
415.1764	0.2569
415.3813	0.2541
415.5863	0.2633
415.7912	0.2585
415.9961	0.2564
416.201	0.2506
416.4059	0.2533
416.6108	0.2571
416.8156	0.2466
417.0205	0.2544
417.2253	0.259
417.4301	0.2628
417.6349	0.2566
417.8397	0.2715
418.0445	0.2559
418.2492	0.2567
418.454	0.2604
418.6587	0.2582
418.8634	0.2572
419.0681	0.245
419.2728	0.2524
419.4775	0.2535
419.6822	0.249
419.8868	0.251
420.0915	0.2549
420.2961	0.2444
420.5007	0.243
420.7053	0.2539
420.9099	0.2383
421.1144	0.2409
421.319	0.2432
421.5235	0.2409
421.728	0.2376
421.9325	0.2499
422.137	0.2496
422.3415	0.238
422.546	0.2402
422.7504	0.2472
422.9549	0.2411
423.1593	0.2393
423.3637	0.2331
423.5681	0.2395
423.7725	0.243
423.9769	0.2433
424.1812	0.2434
424.3856	0.2334
424.5899	0.2341
424.7942	0.2201
424.9985	0.224
425.2028	0.2241
425.4071	0.2208
425.6113	0.2343
425.8156	0.2268
426.0198	0.222
426.224	0.2305
426.4282	0.2171
426.6324	0.2256
426.8366	0.2149
427.0407	0.2181
427.2449	0.2188
427.449	0.2165
427.6531	0.2154
427.8572	0.2186
428.0613	0.2106
428.2654	0.217
428.4694	0.2139
428.6735	0.2101
428.8775	0.2093
429.0815	0.2162
429.2855	0.2092
429.4895	0.2021
429.6935	0.1968
429.8975	0.2071
430.1014	0.1921
430.3053	0.1918
430.5093	0.1979
430.7132	0.196
430.9171	0.1895
431.1209	0.1897
431.3248	0.1908
431.5286	0.1799
431.7325	0.1926
431.9363	0.1868
432.1401	0.176
432.3439	0.1842
432.5477	0.1945
432.7514	0.1625
432.9552	0.1696
433.1589	0.17
433.3627	0.1711
433.5664	0.1758
433.7701	0.1725
433.9737	0.169
434.1774	0.1589
434.3811	0.1689
434.5847	0.1593
434.7883	0.1615
434.9919	0.1492
435.1955	0.1637
435.3991	0.1651
435.6027	0.1484
435.8062	0.154
436.0098	0.151
436.2133	0.1547
436.4168	0.1434
436.6203	0.1362
436.8238	0.1411
437.0272	0.1421
437.2307	0.1261
437.4341	0.1376
437.6375	0.1388
437.841	0.1287
438.0443	0.1362
438.2477	0.1316
438.4511	0.1295
438.6545	0.1222
438.8578	0.128
439.0611	0.126
439.2644	0.1153
439.4677	0.1233
439.671	0.1166
439.8743	0.1138
440.0775	0.118
440.2808	0.1302
440.484	0.1079
440.6872	0.1054
440.8904	0.1077
441.0936	0.1142
441.2967	0.095
441.4999	0.1107
441.703	0.1005
441.9062	0.1021
442.1093	0.0877
442.3124	0.0991
442.5155	0.0879
442.7185	0.0837
442.9216	0.0927
443.1246	0.0878
443.3276	0.0883
443.5307	0.0892
443.7337	0.0848
443.9366	0.0864
444.1396	0.0849
444.3426	0.0921
444.5455	0.0745
444.7484	0.0806
444.9513	0.0787
445.1542	0.0772
445.3571	0.0643
445.56	0.0678
445.7628	0.0689
445.9657	0.0762
446.1685	0.0684
446.3713	0.0727
446.5741	0.0564
446.7769	0.0657
446.9797	0.0632
447.1824	0.0686
447.3852	0.0658
447.5879	0.0588
447.7906	0.0595
447.9933	0.0755
448.196	0.051
448.3986	0.0512
448.6013	0.0601
448.8039	0.0569
449.0066	0.0521
449.2092	0.0485
449.4118	0.0495
449.6143	0.0502
449.8169	0.0505
450.0195	0.0508
450.222	0.053
450.4245	0.0487
450.627	0.0491
450.8295	0.041
451.032	0.0417
451.2345	0.0393
451.4369	0.0362
451.6394	0.0415
451.8418	0.0376
452.0442	0.0461
452.2466	0.0352
452.449	0.0332
452.6513	0.0395
452.8537	0.0324
453.056	0.0425
453.2583	0.0309
453.4607	0.0222
453.663	0.032
453.8652	0.0315
454.0675	0.0357
454.2697	0.0247
454.472	0.0277
454.6742	0.0286
454.8764	0.0238
455.0786	0.0368
455.2808	0.0336
455.4829	0.0173
455.6851	0.0243
455.8872	0.0301
456.0893	0.0342
456.2915	0.0247
456.4935	0.0134
456.6956	0.026
456.8977	0.0232
457.0997	0.029
457.3018	0.0272
457.5038	0.0172
457.7058	0.0197
457.9078	0.0373
458.1098	0.0236
458.3117	0.0164
458.5137	0.0224
458.7156	0.029
458.9175	0.0212
459.1194	0.023
459.3213	0.0185
459.5232	0.014
459.725	0.0164
459.9269	0.0206
460.1287	0.008
460.3305	0.0089
460.5323	0.0252
460.7341	0.0191
460.9359	0.0139
461.1376	0.025
461.3394	0.0154
461.5411	0.0165
461.7428	0.0175
461.9445	0.008
462.1462	0.0176
462.3479	0.0208
462.5495	0.0112
462.7512	0.0129
462.9528	0.0098
463.1544	0.0041
463.356	0.0185
463.5576	0.0072
463.7592	0.0091
463.9607	0.0139
464.1623	0.0196
464.3638	0.0129
464.5653	0.0102
464.7668	0.0031
464.9683	0.0138
465.1697	0.0154
465.3712	0.0112
465.5726	0.0119
465.7741	0.0122
465.9755	0.0093
466.1769	0.008
466.3782	0.0117
466.5796	0.0132
466.7809	0.0122
466.9823	0.0079
467.1836	0.0056
467.3849	0.007
467.5862	-0.0047
467.7875	0.0064
467.9887	0.0158
468.19	0.0082
468.3912	0.0136
468.5924	0.0168
468.7936	-0.001
468.9948	0.0112
469.196	0.0056
469.3972	0.0141
469.5983	0.0036
469.7994	-0.0083
470.0006	0.0054
470.2017	0.0083
470.4027	0.0067
470.6038	-0.0053
470.8049	-0.0003
471.0059	0.0115
471.2069	0.0103
471.408	0.0064
471.6089	0.0127
471.8099	-0.0009
472.0109	-0.0008
472.2119	0.0105
472.4128	0.014
472.6137	0.0057
472.8146	0.0008
473.0155	0.0004
473.2164	-0.0063
473.4173	0.0095
473.6181	0.0113
473.819	-0.0008
474.0198	0.0148
474.2206	0.0215
474.4214	0.0121
474.6222	-0.0006
474.8229	0.0044
475.0237	0.0016
475.2244	0.0157
475.4251	-0.0029
475.6258	0.01
475.8265	0.0002
476.0272	0.0014
476.2278	-0.0003
476.4285	-0.0014
476.6291	0.0086
476.8297	-0
477.0303	0.0036
477.2309	-0.0013
477.4315	0.0119
477.632	-0.0073
477.8326	0.0044
478.0331	0.0085
478.2336	0.0092
478.4341	-0.004
478.6346	0.0047
478.8351	0.0049
479.0355	-0.0013
479.236	0.0022
479.4364	0.004
479.6368	-0.0019
479.8372	0.005
480.0376	0.0051
480.2379	0.0052
480.4383	0.0032
480.6386	-0.0049
480.8389	0.0118
481.0392	0.0041
481.2395	0.0141
481.4398	0.0014
481.6401	0.0076
481.8403	-0.0031
482.0405	-0.0013
482.2408	0.0054
482.441	0.001
482.6411	-0.0042
482.8413	-0.0032
483.0415	0.0019
483.2416	0.002
483.4417	-0.0065
483.6419	0.0017
483.8419	0.0018
484.042	0.0037
484.2421	0.0006
484.4422	0.0076
484.6422	0.013
484.8422	-0.001
485.0422	0.0011
485.2422	0.0001
485.4422	0.0016
485.6422	0.0001
485.8421	0.0018
486.042	0.0048
486.242	-0.0009
486.4419	0.0048
486.6417	-0.0003
486.8416	0.004
487.0415	-0.001
487.2413	0.004
487.4411	-0.001
487.641	0.0128
487.8408	0.0016
488.0405	-0.0007
488.2403	-0.0018
488.4401	0.0017
488.6398	0.0022
488.8395	-0.0016
489.0392	0.0039
489.2389	0.0027
489.4386	-0.0044
489.6383	0.0028
489.8379	0.0024
490.0376	0.0106
490.2372	-0.0064
490.4368	0.0111
490.6364	0.0048
490.836	0.004
491.0355	0.0032
491.2351	0.01
491.4346	0.0044
491.6341	-0.0043
491.8336	-0.0073
492.0331	-0.0068
492.2326	0.0034
492.432	-0.0009
492.6315	-0.0052
492.8309	0.0045
493.0303	-0.0034
493.2297	0.0018
493.4291	-0.0035
493.6284	0.0032
493.8278	0.0022
494.0271	0.0027
494.2264	0.0029
494.4257	-0.0043
494.625	0.0025
494.8243	0.0032
495.0236	0.0008
495.2228	-0.0039
495.422	0.002
495.6213	0.0022
495.8205	0.0045
496.0196	0.0002
496.2188	-0.0008
496.418	-0.0063
496.6171	0.0024
496.8162	-0.0013
497.0153	0.0052
497.2144	-0.0006
497.4135	0.0014
497.6126	-0.0102
497.8116	-0.0044
498.0107	-0.0001
498.2097	0.0017
498.4087	-0.0056
498.6077	0.0098
498.8067	0.0016
499.0056	-0.0053
499.2046	0.0032
499.4035	0.0032
499.6024	-0.0074
499.8013	-0
500.0002	0.0067
500.199	0.0075
500.3979	0.0059
500.5967	-0.001
500.7956	-0.0038
500.9944	-0
501.1932	0.0084
501.3919	0.0045
501.5907	0.0032
501.7895	-0.0015
501.9882	0.004
502.1869	0.0044
502.3856	-0.0011
502.5843	-0.0047
502.783	-0.0005
502.9816	-0.0019
503.1803	0.0115
503.3789	0.0042
503.5775	0.0004
503.7761	0.0033
503.9747	-0.0029
504.1732	-0.0013
504.3718	-0.0052
504.5703	-0.0065
504.7689	-0.0014
504.9674	-0.0019
505.1658	0.0042
505.3643	-0.0022
505.5628	0.0057
505.7612	0.0092
505.9597	0.0045
506.1581	-0.0061
506.3565	-0.0019
506.5549	-0.0034
506.7532	0.0071
506.9516	-0.0005
507.1499	0.0019
507.3482	0.0135
507.5465	-0.0071
507.7448	0.0055
507.9431	-0.0005
508.1414	0.0024
508.3396	-0.0013
508.5379	0.0015
508.7361	0.0137
508.9343	0.0072
509.1325	0.0028
509.3306	-0.0074
509.5288	0.0068
509.7269	-0.0005
509.9251	0.0005
510.1232	-0.0054
510.3213	0.005
510.5193	0.0076
510.7174	-0.0042
510.9154	0.0042
511.1135	0.0022
511.3115	0.0035
511.5095	-0.0007
511.7075	0.0017
511.9055	0.0077
512.1034	0.0086
512.3014	-0.007
512.4993	-0.001
512.6972	-0.0002
512.8951	-0.0001
513.093	-0.0045
513.2908	0.0044
513.4887	0.0029
513.6865	-0.0127
513.8844	-0.0024
514.0822	0.0067
514.2799	0.003
514.4777	0.0146
514.6755	0.0105
514.8732	0.0023
515.0709	0.0069
515.2687	0.0018
515.4664	-0.0044
515.664	0.0058
515.8617	0.0107
516.0594	0.0022
516.257	0.0076
516.4546	0.0027
516.6522	-0.0045
516.8498	-0.0007
517.0474	0.004
517.2449	0.0015
517.4425	0.0027
517.64	0.0053
517.8375	0.0098
518.035	-0.0025
518.2325	-0.0052
518.43	-0.0111
518.6274	-0.0043
518.8249	0.0061
519.0223	0.004
519.2197	-0.0028
519.4171	-0.0004
519.6145	-0.005
519.8118	0.0023
520.0092	-0.0029
520.2065	0.0033
520.4038	-0.0082
520.6011	0.0123
520.7984	0.0003
520.9956	-0.0064
521.1929	0.0056
521.3901	-0.0005
521.5874	0.0022
521.7846	0.0033
521.9818	-0.0065
522.1789	0.0047
522.3761	0.0032
522.5732	-0.008
522.7704	0.0023
522.9675	-0.0003
523.1646	0.0032
523.3617	-0.0031
523.5587	0.0075
523.7558	0.0015
523.9528	0.0079
524.1498	-0.0068
524.3468	0.0048
524.5438	-0.0098
524.7408	-0.0085
524.9378	-0.0006
525.1347	-0.0011
525.3316	0.009
525.5285	0.0038
525.7254	-0.0052
525.9223	-0.0061
526.1192	0.002
526.316	-0.0121
526.5129	0.001
526.7097	-0.0095
526.9065	0.0077
527.1033	0.0051
527.3	-0.011
527.4968	0.0056
527.6935	0.0097
527.8903	-0.0024
528.087	-0.0025
528.2837	0.0068
528.4804	0.0081
528.677	0.0011
528.8737	0.0025
529.0703	-0.0007
529.2669	0.0012
529.4635	0.0149
529.6601	0.0096
529.8567	0.0075
530.0532	-0.0001
530.2498	-0.0057
530.4463	0.0168
530.6428	-0.0127
530.8393	0.0013
531.0358	0.0103
531.2322	-0.0007
531.4287	-0.0022
531.6251	-0.0046
531.8215	-0.0023
532.0179	-0.01
532.2143	0.0076
532.4107	-0.0078
532.607	0.006
532.8034	0.0052
532.9997	0.0004
533.196	0.0101
533.3923	-0.0032
533.5886	0.0014
533.7848	-0.0129
533.9811	-0.009
534.1773	-0.0031
534.3735	0.0043
534.5697	0.0012
534.7659	-0.0008
534.9621	0.0104
535.1582	0.0061
535.3544	0.003
535.5505	0.0105
535.7466	0.0038
535.9427	0.0014
536.1387	0.0001
536.3348	0.0044
536.5308	0.0132
536.7269	-0.0032
536.9229	0.0019
537.1189	0.0012
537.3148	-0.0074
537.5108	0.0035
537.7068	0.0049
537.9027	0.0094
538.0986	0.0022
538.2945	0.0041
538.4904	-0.0106
538.6863	0.0099
538.8821	-0.0057
539.078	-0.0007
539.2738	-0.0121
539.4696	0.0112
539.6654	0.0031
539.8611	0.0031
540.0569	0.0096
540.2526	0.0034
540.4484	0.0022
540.6441	0.0012
540.8398	-0.0064
541.0355	0.0044
541.2311	-0.0017
541.4268	-0.0026
541.6224	-0.0068
541.818	-0.0033
542.0136	-0.0083
542.2092	0.0014
542.4048	0.0062
542.6003	0.0009
542.7959	-0.0098
542.9914	0.0025
543.1869	-0.0031
543.3824	0.0027
543.5779	-0.0046
543.7734	-0.0031
543.9688	0.0051
544.1642	0.0099
544.3596	-0.0134
544.555	-0.002
544.7504	0.0114
544.9458	0.0009
545.1411	-0.0017
545.3365	0.0041
545.5318	0.0017
545.7271	0.0161
545.9224	-0.006
546.1177	0.012
546.3129	-0.0118
546.5081	-0.0159
546.7034	0.0058
546.8986	0.0021
547.0938	0.0001
547.289	0.0034
547.4841	-0.0038
547.6793	-0.0005
547.8744	0.0002
548.0695	0.0008
548.2646	-0.004
548.4597	-0.0059
548.6548	0.0008
548.8498	0.0012
549.0448	0.0088
549.2399	0.0008
549.4349	0.0089
549.6298	-0.0071
549.8248	-0.0081
550.0198	0.0069
550.2147	0.0016
550.4096	0.0144
550.6045	0.0082
550.7994	0.0028
550.9943	0.0041
551.1892	-0.0005
551.384	0.0037
551.5788	0.0006
551.7737	-0.0058
551.9685	0.0088
552.1632	0.0048
552.358	-0.0051
552.5528	-0.0102
552.7475	0.0032
552.9422	0.0043
553.1369	0.0069
553.3316	0.001
553.5263	-0.0082
553.7209	-0.0021
553.9156	0.0043
554.1102	-0.0114
554.3048	0.0003
554.4994	0.0062
554.694	0.0023
554.8885	-0.008
555.0831	0.0016
555.2776	0.0047
555.4721	-0.0122
555.6666	0.0023
555.8611	-0.0071
556.0555	-0.0011
556.25	0.0042
556.4444	0.0015
556.6388	-0.0042
556.8332	0.0046
557.0276	0.0195
557.222	-0.0046
557.4163	0.0033
557.6107	-0.0002
557.805	-0.0174
557.9993	-0.0004
558.1936	0.0073
558.3879	-0.0049
558.5821	-0.0047
558.7764	0.0121
558.9706	-0.0025
559.1648	0.0019
559.359	0.0071
559.5532	-0.0132
559.7473	0.0107
559.9415	0.0036
560.1356	-0.0034
560.3297	-0.0066
560.5238	0.0008
560.7179	0.0007
560.9119	0.0104
561.106	-0.0001
561.3	-0.007
561.494	0.0135
561.688	-0.0008
561.882	-0.003
562.076	0.0044
562.2699	0.0017
562.4639	0.0092
562.6578	0.0081
562.8517	0.0029
563.0456	-0.0012
563.2395	0.0024
563.4333	0.0016
563.6272	0.0027
563.821	0.0052
564.0148	-0.0076
564.2086	0.0027
564.4024	-0.007
564.5961	-0.0018
564.7899	0.0051
564.9836	-0.0037
565.1773	-0.0033
565.371	0.0007
565.5647	-0.0056
565.7584	0.0078
565.952	-0.0048
566.1456	0.0077
566.3393	0.0074
566.5329	-0.0082
566.7264	-0.0044
566.92	-0.0047
567.1136	0.0002
567.3071	0.0031
567.5006	-0.0075
567.6941	0.0084
567.8876	-0.0004
568.0811	-0.0035
568.2745	-0.0061
568.468	0.0031
568.6614	0.0034
568.8548	0.0015
569.0482	0.0062
569.2416	0.0011
569.4349	-0.0018
569.6283	-0.0016
569.8216	-0.0002
570.0149	0.0021
570.2082	-0.0072
570.4015	0.0009
570.5947	0.0005
570.788	-0.0005
570.9812	-0.0009
571.1744	-0.0027
571.3676	-0.0041
571.5608	-0.005
571.754	-0.0059
571.9471	0.0033
572.1402	0.002
572.3333	0.0007
572.5264	0.0018
572.7195	0.0049
572.9126	-0.0023
573.1057	-0.0003
573.2987	0.004
573.4917	0.0011
573.6847	0.0013
573.8777	0.0001
574.0707	-0.0042
574.2636	-0.0018
574.4566	0.0002
574.6495	0.0043
574.8424	0.0024
575.0353	-0.0017
575.2281	0
575.421	-0.0003
575.6138	-0.0028
575.8067	0.0022
575.9995	0.0028
576.1923	0.0035
576.385	-0.0014
576.5778	-0.0012
576.7706	0.0059
576.9633	0.0024
577.156	-0.0011
577.3487	0.0003
577.5414	0.0022
577.734	-0.0006
577.9267	-0.0002
578.1193	0.0017
578.3119	-0.0041
578.5045	-0.0006
578.6971	-0.0015
578.8897	0.0023
579.0822	-0.0001
579.2747	-0.0034
579.4673	-0.0002
579.6598	-0.0048
579.8522	0.0031
580.0447	-0.0018
580.2372	0.0027
580.4296	-0.0005
580.622	0.0034
580.8144	0.0004
581.0068	-0.0017
581.1992	0.0026
581.3915	-0.0005
581.5839	0.0018
581.7762	0.0032
581.9685	-0.0004
582.1608	0.0019
582.353	-0.0017
582.5453	0.0015
582.7375	0.0029
582.9298	0.0031
583.122	0.0012
583.3142	0.0026
583.5063	-0.0029
583.6985	-0.0014
583.8906	-0.0064
584.0827	-0.001
584.2749	-0.0011
584.4669	0.0012
584.659	-0.0016
584.8511	0.0038
585.0431	-0.0007
585.2352	-0.0009
585.4272	-0.0012
585.6192	-0.0011
585.8111	-0.0032
586.0031	0.001
586.195	0.0035
586.387	0.0017
586.5789	-0.003
586.7708	0.0002
586.9627	0.0046
587.1545	-0.0014
587.3464	-0.0002
587.5382	-0.0005
587.73	-0.0003
587.9218	-0.0025
588.1136	-0.0037
588.3053	0.0027
588.4971	0.0009
588.6888	0.0011
588.8805	0.0068
589.0722	0.001
589.2639	0.0002
589.4556	-0.0054
589.6472	-0.0008
589.8389	-0.0006
590.0305	0.003
590.2221	0.0062
590.4137	-0.0064
590.6052	0.0018
590.7968	0.0017
590.9883	0.0066
591.1798	-0.0066
591.3713	-0.0002
591.5628	-0.002
591.7543	0.0061
591.9458	-0.0037
592.1372	0.0014
592.3286	-0.0038
592.52	0.0003
592.7114	-0.0016
592.9028	-0.0001
593.0941	0.0004
593.2855	0.002
593.4768	-0.0027
593.6681	-0.0031
593.8594	-0.0027
594.0506	0.0015
594.2419	0.0035
594.4331	-0.0014
594.6244	0.0017
594.8156	-0.0033
595.0067	0.0024
595.1979	-0.0068
595.3891	-0.0028
595.5802	-0.0046
595.7713	0.0047
595.9624	-0.0023
596.1535	0.0011
596.3446	-0.0087
596.5357	-0.0022
596.7267	0.0027
596.9177	-0.0036
597.1087	0.0027
597.2997	0.0009
597.4907	0
597.6817	-0.0059
597.8726	-0.0015
598.0635	-0.0068
598.2544	-0.0023
598.4453	-0.0013
598.6362	-0.0054
598.827	0.0029
599.0179	0.0018
599.2087	-0.0024
599.3995	0.0018
599.5903	0.0006
599.7811	-0.0015
599.9718	-0.0002
600.1626	0.0023
600.3533	-0.0011
600.544	0.0037
600.7347	-0.0004
600.9254	0.0071
601.116	-0
601.3067	0.0055
601.4973	0.0089
601.6879	-0.003
601.8785	-0.004
602.0691	0.0018
602.2596	0.0001
602.4502	0.003
602.6407	0.0025
602.8312	0.0052
603.0217	0.0057
603.2122	0.0053
603.4027	-0.0006
603.5931	-0.0047
603.7835	0.0014
603.9739	0.0044
604.1643	0.0005
604.3547	0.0043
604.5451	-0.0007
604.7354	-0.0058
604.9257	0.002
605.116	-0.0038
605.3063	-0.0028
605.4966	0.004
605.6869	0.0023
605.8771	0.0047
606.0673	-0.0057
606.2575	-0.0082
606.4477	-0.0001
606.6379	0.0001
606.8281	0.0012
607.0182	-0.0039
607.2083	-0.0011
607.3985	-0.0015
607.5885	0.0014
607.7786	0.0123
607.9687	-0.0051
608.1587	-0.0017
608.3488	-0.0043
608.5388	0.0003
608.7288	-0.0034
608.9187	0.0081
609.1087	0.0006
609.2986	-0.0026
609.4886	0.0041
609.6785	0.0019
609.8684	-0.0016
610.0582	-0.0045
610.2481	0.0007
610.4379	-0.0012
610.6278	-0.0053
610.8176	-0.0076
611.0074	-0.0077
611.1971	0.0018
611.3869	-0.0022
611.5766	0.0008
611.7664	0.0059
611.9561	0.0013
612.1458	0.0029
612.3354	0.0023
612.5251	-0.0006
612.7147	0.0045
612.9044	-0.0096
613.094	0.0064
613.2836	0.0032
613.4731	0.0031
613.6627	0.0026
613.8522	-0.0057
614.0417	-0.0013
614.2313	-0.0095
614.4207	0.0072
614.6102	-0.0032
614.7997	-0.0003
614.9891	-0.0028
615.1785	0.0007
615.3679	0.0102
615.5573	-0.0115
615.7467	-0.0056
615.9361	-0.0024
616.1254	-0.0074
616.3147	-0.0027
616.504	-0.006
616.6933	-0.006
616.8826	0.0087
617.0718	-0.0174
617.2611	-0.0004
617.4503	-0.0001
617.6395	0.0051
617.8287	0.0004
618.0179	-0.0016
618.207	0.0018
618.3961	-0.0009
618.5853	0.0011
618.7744	0.005
618.9634	0.0039
619.1525	-0.0029
619.3416	-0.0053
619.5306	0.0003
619.7196	-0.0128
619.9086	0.008
620.0976	0.0054
620.2866	-0.0024
620.4755	0.0189
620.6645	-0.0071
620.8534	-0.0049
621.0423	-0.0101
621.2312	-0.0059
621.42	-0.0038
621.6089	0.0029
621.7977	-0.0015
621.9865	0.0168
622.1753	0.0008
622.3641	-0.0102
622.5529	-0.0125
622.7416	-0.0022
622.9303	-0.0068
623.1191	-0.0054
623.3078	-0.0103
623.4964	-0.0063
623.6851	0.0037
623.8737	0.0007
624.0624	0.003
624.251	0.0016
624.4396	-0.0002
624.6282	0.0061
624.8167	-0.0039
625.0053	-0.0058
625.1938	-0.0052
625.3823	-0.0089
625.5708	-0.0104
625.7593	-0.0033
625.9477	-0.0101
626.1362	-0.0003
626.3246	-0.0058
626.513	0.0066
626.7014	-0.0057
626.8898	0.0079
627.0781	0.0058
627.2665	0.0052
627.4548	0.0032
627.6431	-0.0246
627.8314	0.0062
628.0197	0.0061
628.2079	-0.0032
628.3962	0.0126
628.5844	0.0035
628.7726	-0.0107
628.9608	-0.0033
629.1489	0.0019
629.3371	-0.0099
629.5252	0.0064
629.7134	0.0023
629.9015	-0.0137
630.0895	-0.001
630.2776	-0.0037
630.4657	0.0203
630.6537	0.0019
630.8417	-0.017
631.0297	-0.007
631.2177	-0.0082
631.4057	-0.0056
631.5936	-0.0117
631.7815	-0.0037
631.9695	0.0152
632.1574	-0.0155
632.3452	-0.0052
632.5331	-0.0055
632.7209	-0.003
632.9088	0.0023
633.0966	-0.0062
633.2844	0.01
633.4722	0.0018
633.6599	-0.014
633.8477	-0.0023
634.0354	-0.0017
634.2231	0.0143
634.4108	-0.0064
634.5985	0.0085
634.7861	-0.0139
634.9738	0.0102
635.1614	0.0178
635.349	-0.0117
635.5366	-0.0084
635.7242	0.0062
635.9117	0.0012
636.0993	-0.0112
636.2868	-0.0096
636.4743	0.0112
636.6618	-0.0103
636.8492	-0.0045
637.0367	0.0028
637.2241	-0.0062
637.4115	-0.0072
637.5989	0.0016
637.7863	-0.0031
637.9737	-0.0063
638.161	0.0011
638.3484	0.0006
638.5357	0.0005
638.723	0.0014
638.9103	0.0055
639.0975	-0.0083
639.2848	0.0043
639.472	-0.012
639.6592	-0.0002
639.8464	0.015
640.0336	0.0185
640.2208	-0.0033
640.4079	0.0301
640.595	-0.0082
640.7821	-0.0134
640.9692	0.0101
641.1563	-0.0013
641.3434	0.0136
641.5304	-0.0054
641.7174	0.0155
641.9044	-0.0074
642.0914	-0.0138
642.2784	0.0273
642.4653	-0.0055
642.6523	-0.0087
642.8392	0.0101
643.0261	0.0084
643.213	-0.001
643.3999	-0.021
643.5867	0.0142
643.7735	0.0077
643.9604	-0.0066
644.1472	-0.0221
644.3339	-0.0191
644.5207	-0.0193
644.7075	-0.0142
644.8942	-0.0076
645.0809	-0.0008
645.2676	0.0042
645.4543	-0.0059
645.6409	-0.0157
645.8276	-0.0097
646.0142	-0.0003
646.2008	-0.0104
646.3874	-0.0078
646.574	-0.0061
646.7605	0.0216
646.9471	0.0083
647.1336	-0.011
647.3201	-0.0075
647.5066	-0.0087
647.6931	0.0132
647.8795	0.0169
648.0659	0.002
648.2524	-0.0059
648.4388	-0.0055
648.6252	-0.0121
648.8115	0.0248
648.9979	0.0077
649.1842	0.0022
649.3705	-0.0059
649.5568	-0.0062
649.7431	-0.0054
649.9294	0.0093
650.1156	-0.0132
650.3018	0.0111
650.488	-0.0117
650.6742	-0.0125
650.8604	-0.0003
651.0466	-0.0064
651.2327	-0.0072
651.4188	-0.0066
651.6049	-0.0059
651.791	0.0172
651.9771	0.0038
652.1632	0.0016
652.3492	0.0113
652.5352	0.0105
652.7212	-0.0129
652.9072	0.0131
653.0932	0.0185
653.2791	-0.0056
653.465	-0.023
653.651	-0.0031
653.8369	0.0113
654.0227	-0.0188
654.2086	-0.0207
654.3944	-0.0077
654.5803	0.0009
654.7661	-0.0048
654.9519	-0.0012
655.1377	0.0001
655.3234	0.0001
655.5092	0.0001
655.6949	0.0001
655.8806	0.0001
656.0663	0.0001
656.2519	0.0001
656.4376	0.0001
656.6232	0.0001
656.8088	0.0001
656.9945	0.0001
657.18	0.0001
657.3656	0.0001
657.5511	0.0001
657.7367	0.0001
657.9222	0.0001
658.1077	0.0001
658.2932	0.0001
658.4786	0.0001
658.6641	0.0001
658.8495	0.0001
659.0349	0.0001
659.2203	0.0001
659.4057	0.0053
659.591	0.0937
659.7764	-0.0088
659.9617	0.0005
660.147	-0.0143
660.3323	-0.0015
660.5176	-0.0038
660.7028	0.0004
660.888	-0.0092
661.0733	0.012
661.2585	0.0124
661.4436	-0.0016
661.6288	0.0012
661.8139	0.0234
661.9991	0.0032
662.1842	0.0076
662.3693	-0.0026
662.5544	0.004
662.7394	0.0146
662.9245	0.0257
663.1095	-0.0061
663.2945	0.0011
663.4795	-0.0188
663.6644	0.0047
663.8494	0.0106
664.0343	-0.0118
664.2193	-0.0067
664.4042	-0.012
664.589	-0.004
664.7739	0.0196
664.9587	-0.0035
665.1436	0.0009
665.3284	-0.0036
665.5132	-0.0076
665.698	-0.0057
665.8827	-0.0113
666.0675	-0.0001
666.2522	0.0254
666.4369	-0.0101
666.6216	0.0053
666.8063	-0.0168
666.9909	0.0082
667.1756	0.0268
667.3602	-0.0048
667.5448	-0.0094
667.7294	0.005
667.9139	-0.0136
668.0985	-0.0348
668.283	-0.0097
668.4675	-0.0075
668.652	-0.0029
668.8365	-0.0066
669.0209	-0.006
669.2054	0.0117
669.3898	0.0077
669.5742	0.0036
669.7586	0.0059
669.943	-0.0288
670.1273	-0.0069
670.3117	0.0201
670.496	0.0313
670.6803	0.0096
670.8646	0.0193
671.0488	0.0055
671.2331	0.0008
671.4173	0.0122
671.6015	-0.0152
671.7857	-0.0249
671.9699	-0.0017
672.1541	-0.0154
672.3382	0.0092
672.5223	-0.0042
672.7064	-0.0059
672.8905	0.0101
673.0746	-0.0072
673.2587	-0.003
673.4427	-0.0156
673.6267	-0.0344
673.8107	-0.0048
673.9947	-0.0164
674.1787	0.0071
674.3626	0.0068
674.5465	0.0122
674.7304	-0.0352
674.9143	0.004
675.0982	0.0012
675.2821	0.0124
675.4659	0.0179
675.6497	0.0092
675.8335	-0.0118
676.0173	0.0218
676.2011	-0.0302
676.3849	-0.0043
676.5686	0.0088
676.7523	0.0117
676.936	-0.0391
677.1197	-0.0025
677.3034	0.0084
677.487	-0.0106
677.6706	-0.0019
677.8542	-0.0036
678.0378	-0.0024
678.2214	0.0172
678.405	0.0131
678.5885	0.0029
678.772	-0.0302
678.9555	0.0078
679.139	-0.013
679.3225	-0.0204
679.5059	0.0056
679.6894	-0.0195
679.8728	-0.0095
680.0562	0.0119
680.2395	0.0106
680.4229	-0.0094
680.6062	0.0117
680.7896	0.0091
680.9729	-0.0026
681.1562	-0.0188
681.3394	0.0041
681.5227	-0.0194
681.7059	-0.0099
681.8891	-0.0003
682.0723	-0.014
682.2555	0.0108
682.4387	0.0082
682.6218	-0.0134
682.805	0.0047
682.9881	0.0159
683.1712	0.0108
683.3542	-0.004
683.5373	-0.0089
683.7203	-0.012
683.9034	0.0037
684.0864	0.0101
684.2694	-0.0034
684.4523	0.0001
684.6353	0.0067
684.8182	0.0045
685.0011	-0.0009
685.184	-0.0058
685.3669	-0.005
685.5498	0.0008
685.7326	-0.0105
685.9154	0.0048
686.0982	0.0037
686.281	-0.0083
686.4638	0.0084
686.6465	-0.0078
686.8293	-0.0124
687.012	-0.0017
687.1947	0.0014
687.3774	0.0013
687.56	-0.0005
687.7427	-0.0022
687.9253	0.0059
688.1079	0.0064
688.2905	0.0051
688.4731	0.0277
688.6556	-0.0009
688.8382	0.0187
689.0207	-0.017
689.2032	-0.0275
689.3857	-0.0121
689.5681	-0.0038
689.7506	-0.0268
689.933	-0.0137
690.1154	-0.0031
690.2978	-0.0047
690.4802	0.0075
690.6626	-0.014
690.8449	-0.0336
691.0272	-0.0334
691.2095	-0.0084
691.3918	-0.0066
691.5741	0.0152
691.7563	0.0155
691.9386	-0.0091
692.1208	-0.015
692.303	0.0123
692.4852	0.0002
692.6673	-0.015
692.8495	-0.0112
693.0316	-0.0023
693.2137	0.016
693.3958	0.0101
693.5778	-0.0097
693.7599	-0.0282
693.9419	0.0212
694.1239	-0.0219
694.3059	-0.01
694.4879	-0.0115
694.6699	0.0019
694.8518	0.0005
695.0337	-0.0071
695.2157	-0.0026
695.3975	0.0093
695.5794	-0.0208
695.7613	0.0351
695.9431	-0.0191
696.1249	0.0137
696.3067	0.0092
696.4885	-0.0056
696.6703	-0.0054
696.852	-0.0155
697.0337	0.0013
697.2154	0.0016
697.3971	0.0165
697.5788	0.0188
697.7605	-0.0029
697.9421	-0.0123
698.1237	-0.0046
698.3053	-0.0048
698.4869	-0.0119
698.6685	-0.0036
698.85	0.0005
699.0315	0.0085
699.213	-0.0007
699.3945	0.0368
699.576	-0.0059
699.7575	-0.0036
699.9389	-0.0033
700.1203	-0.0091
700.3017	-0.0052
700.4831	0.0362
700.6645	0.0129
700.8458	0.0166
701.0271	-0.0163
701.2084	-0.0237
701.3897	-0.0069
701.571	0.0033
701.7523	-0.0297
701.9335	0.0183
702.1147	0.0088
702.2959	0.027
702.4771	0.0015
702.6583	0.0143
702.8394	-0.003
703.0205	-0.0091
703.2016	-0.0026
703.3827	0.0223
703.5638	-0.0009
703.7449	-0.0065
703.9259	0.0155
704.1069	0.0218
704.2879	0.0264
704.4689	0.0087
704.6499	-0.0453
704.8308	-0.019
705.0117	-0.0284
705.1927	0.024
705.3735	0.0102
705.5544	-0.0066
705.7353	-0.0038
705.9161	0.0175
706.0969	0.0029
706.2777	0.0035
706.4585	0.0014
706.6393	0.0103
706.82	-0.0038
707.0007	0.0013
707.1815	0.0032
707.3621	-0.0142
707.5428	0.0204
707.7235	0.0073
707.9041	-0.0332
708.0847	-0.0191
708.2653	-0.013
708.4459	-0.0102
708.6265	-0.0251
708.807	-0.0029
708.9875	0.0003
709.168	-0.0071
709.3485	0.0074
709.529	0.0475
709.7095	-0.007
709.8899	0.0293
710.0703	-0.0011
710.2507	-0.0068
710.4311	0.0201
710.6115	0.0129
710.7918	0.0067
710.9721	-0.0083
711.1524	0.0067
711.3327	-0.0359
711.513	-0.0217
711.6932	-0.0342
711.8735	0.0045
712.0537	-0.0001
712.2339	0.0083
712.4141	0.0306
712.5942	-0.0001
712.7744	0.002
712.9545	0.0085
713.1346	0.0211
713.3147	0.0063
713.4947	-0.007
713.6748	-0.0096
713.8548	-0.0043
714.0348	0.0062
714.2148	-0.0001
714.3948	0.0185
714.5748	0.0046
714.7547	-0.0103
714.9346	0.0034
715.1145	0.0019
715.2944	0.0045
715.4743	-0.0105
715.6541	-0.0239
715.834	-0.0033
716.0138	0.016
716.1936	-0.0475
716.3733	0.005
716.5531	0.0036
716.7328	-0.0143
716.9126	0.0037
717.0923	0.0045
717.2719	0.0108
717.4516	-0.0233
717.6312	-0.005
717.8109	-0.0045
717.9905	-0.0098
718.1701	-0.0279
718.3496	-0.0079
718.5292	-0.0313
718.7087	0.0165
718.8882	0.03
719.0677	-0.0132
719.2472	0.0163
719.4267	0.0056
719.6061	0.0181
719.7856	0.002
719.965	0.0221
720.1443	-0.0199
720.3237	0.0258
720.5031	0.0211
720.6824	0.0168
720.8617	-0.0061
721.041	0.0237
721.2203	0.0035
721.3995	0.0039
721.5788	0.0015
721.758	-0.0001
721.9372	-0.0017
722.1164	0.0184
722.2956	0.0047
722.4747	0.011
722.6538	0.0021
722.8329	-0.0115
723.012	0.0243
723.1911	0.0041
723.3702	-0.0328
723.5492	-0.0111
723.7282	0.0003
723.9072	-0.0239
724.0862	-0.0128
724.2652	-0.0145
724.4441	-0.009
724.623	-0.0067
724.8019	-0.0048
724.9808	-0.0026
725.1597	-0.0169
725.3385	0.0024
725.5174	0.0363
725.6962	0.0073
725.875	-0.0018
726.0538	0.0129
726.2325	-0.0115
726.4112	-0.0022
726.59	0.0118
726.7687	-0.0189
726.9474	0.011
727.126	-0.0107
727.3047	0.0015
727.4833	0.0409
727.6619	0.0284
727.8405	0.0168
728.0191	-0.0339
728.1976	-0.0416
728.3762	-0.03
728.5547	-0.015
728.7332	0.0049
728.9116	-0.0283
729.0901	0.009
729.2686	-0.0143
729.447	-0.0236
729.6254	0.0339
729.8038	-0.0175
729.9821	0.0293
730.1605	-0.0274
730.3388	-0.0203
730.5171	-0.0011
730.6954	0.0097
730.8737	0.0059
731.0519	-0.0036
731.2302	-0.0009
731.4084	-0.0082
731.5866	-0.0336
731.7648	-0.0157
731.9429	-0.0101
732.1211	-0.0076
732.2992	0.009
732.4773	-0.0115
732.6554	-0.0136
732.8335	-0.0039
733.0115	-0.0051
733.1896	-0.0229
733.3676	-0.0003
733.5456	-0.001
733.7235	0.0109
733.9015	0.0013
734.0794	-0.0116
734.2574	0.0196
734.4353	-0.0105
734.6131	0.0008
734.791	-0.011
734.9689	0.0106
735.1467	0.0058
735.3245	0.0064
735.5023	0.0116
735.68	0.0103
735.8578	-0.0054
736.0355	-0.0153
736.2132	-0.0153
736.3909	-0.0082
736.5686	0.0191
736.7463	-0.0307
736.9239	0.0093
737.1015	0.0049
737.2791	-0.0333
737.4567	0.0087
737.6343	0.0064
737.8118	-0.0131
737.9894	-0.0075
738.1669	-0.0107
738.3444	0.0096
738.5218	0.0044
738.6993	-0.0069
738.8767	-0.0016
739.0541	-0.0013
739.2315	-0.0049
739.4089	-0.0164
739.5863	0.0322
739.7636	0.0023
739.9409	0.0029
740.1182	-0.0164
740.2955	-0.0511
740.4728	0.0178
740.65	-0.014
740.8272	-0.0203
741.0044	-0.0001
741.1816	0.0105
741.3588	0.0133
741.5359	0.0053
741.7131	0.0204
741.8902	-0.0225
742.0673	0.0266
742.2444	0.0024
742.4214	-0.012
742.5985	0.0237
742.7755	0.0036
742.9525	-0.0028
743.1295	-0.011
743.3064	0.0101
743.4834	-0.0244
743.6603	0.0176
743.8372	-0.0156
744.0141	0.0084
744.191	0.0004
744.3678	0.0137
744.5446	-0.006
744.7215	-0.021
744.8982	-0.0011
745.075	-0.0164
745.2518	-0.0211
745.4285	-0.0048
745.6052	-0.0263
745.7819	-0.018
745.9586	0.0076
746.1353	-0.0131
746.3119	-0.0313
746.4885	-0.0238
746.6651	-0.0109
746.8417	-0.0068
747.0183	0.0108
747.1948	-0.0046
747.3714	0.0037
747.5479	0.0349
747.7244	-0.0478
747.9008	0.0375
748.0773	0.0311
748.2537	0.0192
748.4301	0.0155
748.6065	-0.0343
748.7829	-0.0053
748.9593	0.0042
749.1356	0.0063
749.3119	-0.0024
749.4882	-0.0168
749.6645	0.0254
749.8408	-0.0071
750.017	-0.0042
750.1933	0.0174
750.3695	0.0152
750.5457	-0.0275
750.7218	0.0106
750.898	-0.0069
751.0741	0.0076
751.2502	0.0179
751.4263	-0.0062
751.6024	0.0261
751.7784	-0.0399
751.9545	-0.0349
752.1305	-0.0032
752.3065	0.0421
752.4825	-0.0219
752.6584	-0.0106
752.8344	0.0317
753.0103	-0.0275
753.1862	-0.0083
753.3621	-0.0148
753.5379	-0.0195
753.7138	-0.0023
753.8896	0.0238
754.0654	0.0081
754.2412	0.0243
754.417	-0.0121
754.5927	-0.0106
754.7685	-0.0099
754.9442	-0.003
755.1199	-0.0058
755.2956	0.0163
755.4712	-0.0077
755.6469	-0.0153
755.8225	0.0207
755.9981	0.0242
756.1736	0.0105
756.3492	-0.0421
756.5248	-0.0105
756.7003	-0.0084
756.8758	-0.0007
757.0513	-0.0079
757.2267	-0.0091
757.4022	0.0018
757.5776	-0.0219
757.753	-0.0196
757.9284	0.0104
758.1038	-0.0049
758.2791	0.0101
758.4545	-0.0137
758.6298	-0.0232
758.8051	-0.019
758.9803	0.0019
759.1556	-0.016
759.3308	-0.015
759.506	0.0083
759.6812	-0.0134
759.8564	-0.0176
760.0316	-0.0037
760.2067	-0.0259
760.3819	-0.0056
760.557	-0.0193
760.732	0.0039
760.9071	-0.0021
761.0821	-0.0057
761.2572	-0.0054
761.4322	-0.0262
761.6072	-0.0116
761.7821	0.0157
761.9571	-0.005
762.132	-0.0005
762.3069	0.0053
762.4818	0.0241
762.6567	0.0028
762.8316	0.0162
763.0064	-0.0359
763.1812	-0.0127
763.356	-0.0039
763.5308	0.0006
763.7055	-0.0016
763.8803	-0.0284
764.055	-0.0019
764.2297	-0.006
764.4044	-0.0092
764.579	0.0104
764.7537	-0.0063
764.9283	-0.0288
765.1029	0.0015
765.2775	-0.0389
765.4521	-0.004
765.6266	-0.0124
765.8011	-0.0098
765.9756	0.0077
766.1501	0.0152
766.3246	-0.0294
766.4991	-0.0253
766.6735	-0.0198
766.8479	-0.0039
767.0223	-0.0029
767.1967	-0.0318
767.371	-0.0081
767.5454	0.0309
767.7197	-0.0041
767.894	-0.0271
768.0683	0.0018
768.2425	-0.0069
768.4168	0.0118
768.591	0.0042
768.7652	-0.002
768.9394	0.0011
769.1135	-0.0005
769.2877	0.0428
769.4618	0.0081
769.6359	-0.0001
769.81	-0.0222
769.984	0.024
770.1581	-0.012
770.3321	-0.0209
770.5061	0.0333
770.6801	0.0073
770.8541	-0.0205
771.028	-0.0225
771.202	-0.0283
771.3759	-0.0033
771.5498	-0.0036
771.7236	-0.0047
771.8975	-0.0488
772.0713	0.015
772.2451	-0.0142
772.4189	-0.0011
772.5927	-0.0165
772.7665	0.0359
772.9402	0.0252
773.1139	0.0135
773.2876	0.0207
773.4613	-0.0174
773.635	0.0096
773.8086	-0.0114
773.9822	0.0306
774.1558	0.0043
774.3294	-0.0178
774.503	-0.0077
774.6765	0.0158
774.8501	-0.0538
775.0236	0.0147
775.1971	-0.0164
775.3705	0.0204
775.544	0.0292
775.7174	-0.0257
775.8908	0.0747
776.0642	0.0032
776.2376	-0.0629
776.4109	0.0898
776.5843	-0.0247
776.7576	0.09
776.9309	0.0732
777.1041	-0.0212
777.2774	-0.0285
777.4506	-0.031
777.6238	0.0315
777.797	-0.0164
777.9702	0.0095
778.1434	0.016
778.3165	0.0166
778.4896	0.0249
778.6627	0.0305
778.8358	-0.0311
779.0089	-0.0042
779.1819	-0.0148
779.3549	0.0249
779.5279	0.0083
779.7009	-0.0144
779.8739	0.0118
780.0468	0.0005
780.2197	-0.0074
780.3926	-0.04
780.5655	-0.019
780.7384	-0.0104
780.9112	0.0053
781.0841	0.0176
781.2569	0.0032
781.4297	0.0319
781.6024	-0.0401
781.7752	0.002
781.9479	-0.0187
782.1206	-0.0086
782.2933	0.023
782.466	-0.0087
782.6386	-0.0266
782.8113	-0.0387
782.9839	0.0186
783.1565	-0.0335
783.329	0.0337
783.5016	0.0005
783.6741	-0.0191
783.8466	-0.0537
784.0191	0.0336
784.1916	0.0053
784.3641	-0.0032
784.5365	0.0761
784.7089	0.0153
784.8813	0.0295
785.0537	-0.016
785.2261	0.0021
785.3984	-0.0272
785.5707	0.0653
785.743	-0.041
785.9153	0.016
786.0876	-0.031
786.2598	0.0537
786.432	0.0147
786.6042	0.0128
786.7764	-0.0477
786.9486	0.0059
787.1207	0.0241
787.2928	-0.0014
787.4649	-0.004
787.637	0.0027
787.8091	-0.0095
787.9811	0.0561
788.1532	0.0052
788.3252	-0.02
788.4972	-0.0225
788.6691	0.0224
788.8411	-0.0049
789.013	-0.0201
789.1849	-0.0276
789.3568	0.0645
789.5287	-0.0262
789.7005	0.038
789.8723	0.0007
790.0442	-0.0591
790.2159	0.0124
790.3877	0.0722
790.5595	0.005
790.7312	0.0115
790.9029	0.0237
791.0746	-0.0036
791.2463	0.0223
791.4179	-0.0692
791.5896	0.0019
791.7612	-0.0713
791.9328	0.0061
792.1044	-0.0656
792.2759	-0.0014
792.4474	-0.0504
792.619	0.0081
792.7905	0.0009
792.9619	0.0349
793.1334	-0.046
793.3048	0.0139
793.4762	-0.0327
793.6476	-0.0173
793.819	0.0012
793.9904	-0.0173
794.1617	-0.0062
794.333	-0.0094
794.5043	-0.0154
794.6756	0.0274
794.8469	-0.0169
795.0181	0.0038
795.1893	-0.0381
795.3605	-0.0473
795.5317	0.0275
795.7029	0.0342
795.874	0.0212
796.0452	-0.0281
796.2163	0.0272
796.3873	0.1
796.5584	0.0109
796.7294	-0.0458
796.9005	-0.0789
797.0715	0.059
797.2425	-0.0796
797.4134	0.0066
797.5844	0.094
797.7553	0.0113
797.9262	-0.0133
798.0971	-0.0291
798.2679	0.0219
798.4388	-0.0604
798.6096	-0.0163
798.7804	-0.008
798.9512	0.0267
799.122	0.0635
799.2927	-0.0712
799.4635	0.0629
799.6342	0.0099
799.8049	0.0152
799.9755	0.0045
800.1462	0.0231
800.3168	-0.0372
800.4874	0.0257
800.658	0.0293
800.8286	-0.0728
800.9991	0.0348
801.1696	-0.0321
801.3402	-0.1008
801.5106	-0.1223
801.6811	0.0238
801.8516	0.0229
802.022	0.0226
802.1924	-0.1199
802.3628	-0.1042
802.5332	-0.0928
802.7035	-0.0083
802.8739	0.0338
803.0442	0.0156
803.2145	-0.0041
803.3847	-0.004
803.555	-0.0245
803.7252	-0.0246
803.8954	0.0351
804.0656	-0.0224
804.2358	-0.016
804.4059	0.0541
804.5761	0.0906
804.7462	-0.0042
804.9163	-0.0763
805.0864	0.0409
805.2564	0.0401
805.4264	-0.0786
805.5965	0.0071
805.7665	0.0285
805.9364	-0.0399
806.1064	-0.0335
806.2763	0.0542
806.4462	0.0126
806.6161	0.0555
806.786	-0.0093
806.9559	0.04
807.1257	-0.0458
807.2955	-0.0258
807.4653	-0.0925
807.6351	0.0024
807.8048	-0.0743
807.9746	0.008
808.1443	0.0543
808.314	0.0687
808.4837	-0.0828
808.6533	0.0116
808.8229	-0.0675
808.9926	0.0339
809.1622	-0.0176
809.3317	-0.0542
809.5013	0.033
809.6708	0.0808
809.8403	0.0343
810.0098	0.116
810.1793	0.0869
810.3488	0.0394
810.5182	0.0322
810.6876	-0.0359
810.857	-0.0397
811.0264	-0.0568
811.1958	-0.0447
811.3651	-0.0805
811.5344	0.0224
811.7037	0.0021
811.873	0.1526
812.0422	0.0732
812.2115	-0.0529
812.3807	0.0919
812.5499	0.036
812.7191	-0.0425
812.8882	-0.0555
813.0574	-0.0341
813.2265	-0.0903
813.3956	-0.0644
813.5646	0.071
813.7337	-0.0807
813.9027	-0.0341
814.0718	-0.0262
814.2407	-0.1379
814.4097	-0.0099
814.5787	-0.0077
814.7476	0.0523
814.9165	0.0028
815.0854	-0.0243
815.2543	-0.0173
815.4232	-0.077
815.592	0.2585
815.7608	0.1303
815.9296	0.0274
816.0984	0.0028
816.2671	0.0323
816.4359	0.002
816.6046	0.1229
816.7733	0.0027
816.942	0.0504
817.1106	-0.0482
817.2793	-0.1099
817.4479	-0.1309
817.6165	0.019
817.785	0.1862
817.9536	0.062
818.1221	0.0602
818.2906	0.099
818.4591	-0.0705
818.6276	-0.0079
818.7961	0.1162
818.9645	-0.0429
819.1329	0.1871
819.3013	0.1326
819.4697	0.1367
819.638	0.0903
819.8064	-0.0629
819.9747	-0.1316
820.143	-0.0336
820.3113	0.06
820.4795	0.029
820.6477	-0.0787
820.816	-0.0108
820.9842	-0.0675
821.1523	0.0827
821.3205	0.0177
821.4886	0.0426
821.6567	0.0435
821.8248	0.0881
821.9929	-0.0822
822.1609	0.0643
822.329	-0.031
822.497	0.118
822.665	0.0583
822.833	0.0217
823.0009	-0.1128
823.1688	-0.006
823.3367	-0.2328
823.5046	0.0333
823.6725	-0.0142
823.8404	0.0453
824.0082	0.0749
824.176	0.1116
824.3438	0.0857
824.5116	0.2761
824.6793	-0.0696
824.847	0.0578
825.0147	0.1785
825.1824	0.0024
825.3501	0.0706
825.5177	0.1314
825.6854	0.0264
825.853	0.0687
826.0206	0.0478
826.1881	0.0499
826.3557	0.0889
826.5232	-0.0095
826.6907	0.0154
826.8582	-0.0147
827.0257	-0.1891
827.1931	0.2174
827.3605	0.0377
827.528	0.0365
827.6953	0.1536
827.8627	-0.0291
828.03	0.0896
828.1974	-0.0366
828.3647	0.0551
828.532	0.1761
828.6992	0.1603
828.8665	-0.0235
829.0337	-0.0268
829.2009	-0.0293
829.3681	0.0674
829.5352	-0.0255
829.7024	0.1735
829.8695	-0.0011
830.0366	0.1436
830.2037	0.1994
830.3707	-0.0446
830.5378	0.5085
830.7048	-0.2234
830.8718	0.1974
831.0388	-0.0441
831.2057	-0.1632
831.3727	0.2955
831.5396	-0.1767
831.7065	0.5471
831.8734	-0.6214
832.0402	0.0534
832.2071	0.0648
832.3739	0.1555
832.5407	-0
832.7075	0.2118
832.8742	0.7709
833.041	0.3101
833.2077	0.4381
833.3744	-0.2194
833.541	-0.1603
833.7077	0.1738
833.8743	0.0081
834.0409	0.0294
834.2075	0.0192
834.3741	0.2076
834.5407	1.9058
834.7072	-0.146
834.8737	0.2043
835.0402	0.355
835.2067	0.2333
835.3731	-0.0135
835.5395	0.1813
835.706	0.1045
835.8723	0.012
836.0387	-0
836.2051	0.2752
836.3714	-0.1262
836.5377	-0.3928
836.704	0.4655
836.8703	0.0862
837.0365	0.6128
837.2027	-0.2506
837.3689	0.0854
837.5351	-0.3397
837.7013	0.3263
837.8674	-0.3928
838.0335	-0.1495
838.1997	1.2286
838.3657	-0
838.5318	-0.6458
838.6978	-0
838.8639	0.1652
839.0299	1.0887
839.1958	0.004
839.3618	-0
839.5277	-0.2008
839.6937	-0.2559
839.8596	-0.0094
840.0254	0.2511
840.1913	0.1872
840.3571	-0.1495
840.523	-0
840.6888	-0.0147
840.8545	0.0461
841.0203	-0.0019
841.186	0.3884
841.3517	0.3395
841.5174	0.5375
841.6831	-0
841.8488	0.1266
842.0144	-0
842.18	-0.0253
842.3456	0.4899
842.5112	-0
842.6767	-0.1599
842.8422	0.4851
843.0077	0.0744
843.1732	0.0088
843.3387	0.3635
843.5042	-0
843.6696	-0.6052
843.835	-0.2797
844.0004	0.0913
844.1657	-0
844.3311	-0
844.4964	-0.1008
844.6617	-0
844.827	0.475
844.9923	-0.0474
845.1575	-0
845.3227	0.4635
845.4879	-0.0301
845.6531	-0.1827
845.8183	0.575
845.9834	-0
846.1485	-0.2413
846.3136	-0
846.4787	-0.112
846.6438	0.3401
846.8088	0.3979
846.9738	-0
847.1388	0.1223
847.3038	0.0504
847.4687	-0
847.6337	-0
847.7986	0.3666
847.9635	0.1479
848.1284	-0.5068
848.2932	-0.1228
848.458	-0.0713
848.6228	-0.0674
848.7876	-0
848.9524	-0
849.1172	-0
849.2819	-0
849.4466	-0.1838
849.6113	0.21
849.7759	0.2904
849.9406	-0.3196
850.1052	0.9461
850.2698	-0
850.4344	-0.0329
850.599	-0
850.7635	-0.0248
850.928	0.1291
851.0925	-0.1525
851.257	-0.145
851.4215	-0
851.5859	0.152
851.7503	0.0126
851.9147	-0
852.0791	-0.3493
852.2434	0.1109
852.4078	-0
852.5721	-0
852.7364	0.296
852.9007	-0.2771
853.0649	0.1834
853.2291	0.1212
853.3934	1.248
853.5575	0.1406
853.7217	-0.0059
853.8859	1.0682
854.05	-0.9831
854.2141	-0
854.3782	0.5774
854.5423	-0.4713
854.7063	-0.0367
854.8703	0.0588
855.0343	-0.0365
855.1983	0.4144
855.3623	0.4226
855.5262	-0
855.6901	-0
855.854	-0.107
856.0179	-0.6214
856.1818	-0.2449
856.3456	0.2324
856.5094	-0
856.6732	-0.3571
856.837	0.194
857.0008	-0
857.1645	-0
857.3282	-0.0587
857.4919	-0.1566
857.6556	0.6039
857.8192	0.5603
857.9828	-0.0049
858.1465	0.7264
858.31	-0
858.4736	-0.1266
858.6372	-0.4973
858.8007	-1.1856
858.9642	0.3293
859.1277	-0.3537
859.2911	0.2725
859.4546	-0.2435
859.618	0.576
859.7814	-0
859.9448	-0.3563
860.1081	-0
860.2715	-0
860.4348	0.7342
860.5981	-0.2449
860.7614	-0.1352
860.9246	-0.2257
861.0879	0.1761
861.2511	-0
861.4143	0.2571
861.5774	0.2244
861.7406	-0.4331
861.9037	-0
862.0668	-0.3953
862.2299	-0
862.393	-0
862.556	1.3522
862.7191	0.1674
862.8821	-0.3125
863.0451	0.4677
863.208	-0
863.371	0.805
863.5339	0.1242
863.6968	-0
863.8597	-0
864.0225	0.0488
864.1854	-0.3993
864.3482	0.1848
864.511	-0.2303
864.6737	0.1451
864.8365	0.4821
864.9992	-0
865.1619	0.4325
865.3246	-0.1277
865.4873	-0
865.65	-1.1827
865.8126	-0
865.9752	-0.16
866.1378	-1.029
866.3004	0.2349
866.4629	0.0953
866.6254	-1.2268
866.7879	0.3764
866.9504	-0
867.1129	-0
867.2753	-0.0481
867.4377	1.6451
867.6001	0.3163
867.7625	-0.0848
867.9249	-0
868.0872	-0
868.2495	-0
868.4118	-0.223
868.5741	-0
868.7363	-0.0028
868.8986	-0.4529
869.0608	0.2116
869.223	0.6532
869.3851	1.7889
869.5473	-1.415
869.7094	-0
869.8715	1.7202
870.0336	-0.0066
870.1957	-0.5384
870.3577	-0
870.5197	0.5441
870.6817	-0
870.8437	1.3549
871.0057	-0
871.1676	0.0447
871.3295	-0
871.4914	1.1083
871.6533	-0
871.8151	-0
871.977	0.5055
872.1388	-0
872.3006	0.8513
872.4623	-0.386
872.6241	-1.7634
872.7858	-0
872.9475	0.0843
873.1092	0.2275
873.2709	1.3032
873.4325	-0.1984
873.5941	-0
873.7557	-0.2314
873.9173	-0.7238
874.0789	0.2943
874.2404	-0
874.4019	-0.0648
874.5634	0.0414
874.7249	-0.0458
874.8863	-0.1549
875.0478	0.2576
875.2092	1.7672
875.3706	-0.1743
875.5319	-0.3909
875.6933	0.1848
875.8546	-0
876.0159	0.429
876.1772	-0.6214
876.3385	-0.241
876.4997	-0.301
876.6609	-0
876.8221	-0
876.9833	-0.3215
877.1445	0.0055
877.3056	0.1122
877.4667	-0.7782
877.6278	1.4232
877.7889	-0.1858
877.9499	0.469
878.111	0.2421
878.272	-0
878.433	0.0235
878.5939	-0
878.7549	-0
878.9158	-0
879.0767	-0
879.2376	-0.6435
879.3984	-0.2615
879.5593	-0.43
879.7201	1.0852
879.8809	0.1761
880.0417	0.4971
880.2024	0.7066
880.3632	0.3054
880.5239	0.5097
880.6846	-0
880.8452	0.6945
881.0059	-0.4808
881.1665	0.147
881.3271	-0.2068
881.4877	-0.2132
881.6483	-1.5798
881.8088	0.4723
881.9693	-0
882.1298	-0
882.2903	-0
