Data from D4ACN5uM480nmA_Absorbance_12-07-59-815.txt Node
Date: Fri Feb 21 12:07:59 GMT 2025
User: LASERRRRR
Spectrometer: FLMT03099
Trigger mode: 0
Integration Time (sec): 1.500000E-2
Scans to average: 1
Electric dark correction enabled: true
Nonlinearity correction enabled: false
Boxcar width: 0
XAxis mode: Wavelengths
Number of Pixels in Spectrum: 3648
>>>>>Begin Spectral Data<<<<<
179.3399	0.3553
179.5586	0.3553
179.7771	0.3553
179.9957	-0.0234
180.2143	-0
180.4329	-0
180.6514	-0
180.8699	-0
181.0885	-0.1818
181.307	0.1773
181.5255	0.3356
181.744	-0
181.9625	-0
182.181	-0
182.3994	-0
182.6179	0.3123
182.8363	-0
183.0547	-0.8946
183.2732	0.1824
183.4916	0.7587
183.71	0.1611
183.9284	0.0608
184.1467	0.0713
184.3651	0.2423
184.5835	0.1855
184.8018	0.0752
185.0201	0.1577
185.2385	0.2586
185.4568	0.2981
185.6751	0.2633
185.8934	0.4499
186.1117	0.212
186.3299	0.1804
186.5482	0.1264
186.7664	0.2482
186.9847	0.4215
187.2029	0.1709
187.4211	0.1584
187.6393	0.241
187.8575	0.2504
188.0757	0.4862
188.2939	0.1935
188.512	0.236
188.7302	0.0072
188.9483	0.3423
189.1665	0.7772
189.3846	0.0608
189.6027	0.1829
189.8208	0.2264
190.0389	0.0514
190.257	0.2984
190.475	0.2194
190.6931	0.2602
190.9111	0.0977
191.1292	0.2413
191.3472	0.2209
191.5652	0.4897
191.7832	0.237
192.0012	0.4986
192.2192	0.3012
192.4371	0.3657
192.6551	0.3336
192.873	0.3264
193.091	0.4503
193.3089	0.3129
193.5268	0.2721
193.7447	0.5775
193.9626	0.3162
194.1805	0.615
194.3984	0.5458
194.6162	0.5625
194.8341	0.8102
195.0519	0.7048
195.2697	0.5431
195.4875	0.6281
195.7054	0.4431
195.9231	0.3953
196.1409	0.5247
196.3587	0.6225
196.5765	0.4794
196.7942	0.6029
197.012	0.4561
197.2297	0.5223
197.4474	0.5181
197.6651	0.5692
197.8828	0.804
198.1005	0.5971
198.3182	0.5534
198.5358	0.5014
198.7535	0.5736
198.9711	0.6009
199.1888	0.6352
199.4064	0.663
199.624	0.5458
199.8416	0.6342
200.0592	0.5597
200.2767	0.5791
200.4943	0.6053
200.7119	0.6212
200.9294	0.5655
201.1469	0.6491
201.3645	0.6328
201.582	0.5389
201.7995	0.6159
202.017	0.5425
202.2344	0.5235
202.4519	0.5502
202.6694	0.6135
202.8868	0.5385
203.1042	0.6024
203.3217	0.5576
203.5391	0.4828
203.7565	0.5477
203.9739	0.5266
204.1913	0.5384
204.4086	0.512
204.626	0.5036
204.8433	0.5235
205.0607	0.4852
205.278	0.5211
205.4953	0.4745
205.7126	0.5108
205.9299	0.4516
206.1472	0.4645
206.3644	0.5179
206.5817	0.4808
206.7989	0.4594
207.0162	0.4281
207.2334	0.4614
207.4506	0.4221
207.6678	0.4497
207.885	0.4207
208.1022	0.4302
208.3194	0.4529
208.5365	0.4331
208.7537	0.4102
208.9708	0.452
209.1879	0.4219
209.405	0.3809
209.6222	0.3846
209.8392	0.4275
210.0563	0.4258
210.2734	0.4066
210.4905	0.4253
210.7075	0.4302
210.9245	0.4095
211.1416	0.4068
211.3586	0.4132
211.5756	0.4138
211.7926	0.4133
212.0096	0.4007
212.2265	0.3935
212.4435	0.4251
212.6604	0.4021
212.8774	0.4139
213.0943	0.4211
213.3112	0.431
213.5281	0.4213
213.745	0.3854
213.9619	0.3951
214.1788	0.3796
214.3956	0.4153
214.6125	0.415
214.8293	0.3938
215.0461	0.407
215.2629	0.3951
215.4798	0.3697
215.6965	0.3936
215.9133	0.3995
216.1301	0.3939
216.3469	0.39
216.5636	0.4192
216.7803	0.4035
216.9971	0.4162
217.2138	0.3985
217.4305	0.4027
217.6472	0.4313
217.8639	0.4292
218.0805	0.4175
218.2972	0.4206
218.5138	0.4475
218.7305	0.4133
218.9471	0.4164
219.1637	0.4078
219.3803	0.4401
219.5969	0.419
219.8135	0.4399
220.0301	0.3974
220.2466	0.4407
220.4632	0.422
220.6797	0.4345
220.8962	0.421
221.1127	0.4209
221.3292	0.4241
221.5457	0.4403
221.7622	0.4393
221.9787	0.4476
222.1951	0.4495
222.4116	0.4465
222.628	0.4502
222.8444	0.4399
223.0608	0.434
223.2772	0.4507
223.4936	0.4538
223.71	0.4649
223.9264	0.4382
224.1427	0.4661
224.3591	0.4609
224.5754	0.4596
224.7917	0.4617
225.008	0.4541
225.2243	0.4745
225.4406	0.4721
225.6569	0.4654
225.8732	0.4682
226.0894	0.4636
226.3057	0.4649
226.5219	0.4637
226.7381	0.4719
226.9543	0.4768
227.1705	0.4822
227.3867	0.4883
227.6029	0.4668
227.8191	0.4965
228.0352	0.4948
228.2513	0.4877
228.4675	0.4948
228.6836	0.4994
228.8997	0.5026
229.1158	0.4903
229.3319	0.5066
229.548	0.4999
229.764	0.5098
229.9801	0.5083
230.1961	0.5116
230.4121	0.5141
230.6282	0.5059
230.8442	0.5155
231.0602	0.52
231.2761	0.5161
231.4921	0.5092
231.7081	0.5054
231.924	0.5379
232.14	0.531
232.3559	0.5398
232.5718	0.5225
232.7877	0.532
233.0036	0.525
233.2195	0.528
233.4353	0.5443
233.6512	0.5251
233.867	0.5347
234.0829	0.5353
234.2987	0.5159
234.5145	0.5415
234.7303	0.527
234.9461	0.5289
235.1619	0.5355
235.3776	0.5292
235.5934	0.5446
235.8091	0.5336
236.0249	0.5478
236.2406	0.5433
236.4563	0.5525
236.672	0.5469
236.8877	0.5427
237.1034	0.5309
237.319	0.5401
237.5347	0.5268
237.7503	0.5371
237.966	0.5279
238.1816	0.5314
238.3972	0.5549
238.6128	0.5429
238.8284	0.5397
239.0439	0.5459
239.2595	0.5375
239.475	0.5334
239.6906	0.5291
239.9061	0.5269
240.1216	0.5326
240.3371	0.5224
240.5526	0.5139
240.7681	0.5258
240.9836	0.5199
241.199	0.5065
241.4145	0.5042
241.6299	0.4946
241.8453	0.4843
242.0607	0.4919
242.2761	0.4773
242.4915	0.481
242.7069	0.4674
242.9223	0.4545
243.1376	0.4515
243.353	0.4467
243.5683	0.4382
243.7836	0.4257
243.9989	0.4267
244.2142	0.4109
244.4295	0.4097
244.6448	0.3975
244.86	0.3862
245.0753	0.3815
245.2905	0.3821
245.5057	0.3691
245.721	0.3554
245.9362	0.3542
246.1514	0.338
246.3665	0.3405
246.5817	0.3358
246.7969	0.3283
247.012	0.3267
247.2271	0.3118
247.4423	0.3082
247.6574	0.3122
247.8725	0.3081
248.0876	0.3009
248.3026	0.2828
248.5177	0.2805
248.7328	0.2792
248.9478	0.2768
249.1628	0.2626
249.3779	0.2706
249.5929	0.2609
249.8079	0.2589
250.0228	0.2543
250.2378	0.2496
250.4528	0.2528
250.6677	0.243
250.8827	0.2366
251.0976	0.2385
251.3125	0.2409
251.5274	0.2322
251.7423	0.2323
251.9572	0.2221
252.172	0.2253
252.3869	0.2134
252.6017	0.2199
252.8166	0.2161
253.0314	0.2215
253.2462	0.2136
253.461	0.2149
253.6758	0.2107
253.8906	0.2037
254.1053	0.2027
254.3201	0.2044
254.5348	0.2064
254.7496	0.1968
254.9643	0.2051
255.179	0.2039
255.3937	0.1996
255.6083	0.1986
255.823	0.2025
256.0377	0.2015
256.2523	0.1995
256.467	0.1975
256.6816	0.1968
256.8962	0.1921
257.1108	0.1943
257.3254	0.1888
257.54	0.1951
257.7545	0.1976
257.9691	0.1951
258.1836	0.1934
258.3981	0.1844
258.6127	0.1811
258.8272	0.193
259.0417	0.1814
259.2561	0.1893
259.4706	0.1885
259.6851	0.1846
259.8995	0.186
260.114	0.1827
260.3284	0.1805
260.5428	0.179
260.7572	0.1883
260.9716	0.1872
261.186	0.1796
261.4003	0.1873
261.6147	0.1823
261.829	0.1826
262.0433	0.1845
262.2577	0.1862
262.472	0.1875
262.6863	0.1868
262.9005	0.1835
263.1148	0.1812
263.3291	0.1906
263.5433	0.1863
263.7576	0.182
263.9718	0.19
264.186	0.1846
264.4002	0.1827
264.6144	0.193
264.8286	0.19
265.0427	0.186
265.2569	0.1831
265.471	0.188
265.6851	0.1865
265.8993	0.1886
266.1134	0.188
266.3275	0.1896
266.5415	0.1871
266.7556	0.1822
266.9697	0.1843
267.1837	0.1805
267.3978	0.195
267.6118	0.1783
267.8258	0.1869
268.0398	0.1805
268.2538	0.1889
268.4677	0.1841
268.6817	0.1772
268.8957	0.1828
269.1096	0.176
269.3235	0.1874
269.5374	0.1795
269.7514	0.182
269.9652	0.1814
270.1791	0.1795
270.393	0.1829
270.6068	0.1739
270.8207	0.1736
271.0345	0.1779
271.2483	0.1794
271.4622	0.177
271.676	0.1725
271.8897	0.1735
272.1035	0.1723
272.3173	0.1715
272.531	0.1699
272.7448	0.1684
272.9585	0.1736
273.1722	0.1712
273.3859	0.1647
273.5996	0.169
273.8133	0.1723
274.0269	0.1736
274.2406	0.167
274.4542	0.167
274.6679	0.1693
274.8815	0.1704
275.0951	0.1768
275.3087	0.1743
275.5223	0.1689
275.7358	0.1799
275.9494	0.1711
276.1629	0.1743
276.3765	0.1693
276.59	0.1755
276.8035	0.1774
277.017	0.181
277.2305	0.1727
277.444	0.1727
277.6574	0.1808
277.8709	0.1769
278.0843	0.1825
278.2978	0.183
278.5112	0.1801
278.7246	0.1816
278.938	0.181
279.1513	0.1797
279.3647	0.1795
279.5781	0.176
279.7914	0.1845
280.0047	0.176
280.2181	0.1821
280.4314	0.1849
280.6447	0.186
280.8579	0.1798
281.0712	0.1802
281.2845	0.1868
281.4977	0.1867
281.711	0.1825
281.9242	0.1839
282.1374	0.1853
282.3506	0.1887
282.5638	0.1852
282.7769	0.1834
282.9901	0.1843
283.2033	0.1846
283.4164	0.1852
283.6295	0.1865
283.8426	0.1885
284.0557	0.1825
284.2688	0.194
284.4819	0.1949
284.695	0.1937
284.908	0.1901
285.1211	0.1837
285.3341	0.195
285.5471	0.197
285.7601	0.1929
285.9731	0.1875
286.1861	0.1916
286.3991	0.1937
286.612	0.2
286.825	0.1999
287.0379	0.1944
287.2508	0.1961
287.4637	0.2022
287.6766	0.1956
287.8895	0.1913
288.1024	0.1983
288.3152	0.1961
288.5281	0.1969
288.7409	0.1994
288.9538	0.1983
289.1666	0.1962
289.3794	0.1989
289.5922	0.2004
289.8049	0.2024
290.0177	0.1962
290.2304	0.2007
290.4432	0.2011
290.6559	0.1916
290.8686	0.2017
291.0813	0.203
291.294	0.2035
291.5067	0.2069
291.7194	0.2019
291.932	0.2045
292.1447	0.206
292.3573	0.202
292.5699	0.1998
292.7825	0.2032
292.9951	0.1985
293.2077	0.2006
293.4203	0.2029
293.6328	0.1979
293.8454	0.1985
294.0579	0.2047
294.2704	0.1997
294.4829	0.2028
294.6954	0.2028
294.9079	0.2024
295.1204	0.1961
295.3328	0.1989
295.5453	0.2039
295.7577	0.1891
295.9701	0.2083
296.1825	0.1953
296.3949	0.2038
296.6073	0.2034
296.8197	0.2033
297.0321	0.2014
297.2444	0.2036
297.4567	0.2016
297.6691	0.2008
297.8814	0.2012
298.0937	0.2035
298.306	0.197
298.5182	0.2031
298.7305	0.1946
298.9428	0.2001
299.155	0.1937
299.3672	0.206
299.5794	0.1943
299.7916	0.2045
300.0038	0.2002
300.216	0.2025
300.4282	0.19
300.6403	0.1985
300.8525	0.2023
301.0646	0.1939
301.2767	0.1994
301.4888	0.2017
301.7009	0.1979
301.913	0.2039
302.125	0.1971
302.3371	0.2021
302.5491	0.1996
302.7612	0.1912
302.9732	0.199
303.1852	0.2009
303.3972	0.1947
303.6092	0.1967
303.8211	0.1954
304.0331	0.1907
304.245	0.1941
304.457	0.1914
304.6689	0.1937
304.8808	0.1935
305.0927	0.197
305.3046	0.1856
305.5164	0.1882
305.7283	0.1871
305.9401	0.1817
306.152	0.1784
306.3638	0.1787
306.5756	0.1838
306.7874	0.1847
306.9992	0.1787
307.2109	0.1786
307.4227	0.1782
307.6344	0.173
307.8462	0.17
308.0579	0.1678
308.2696	0.166
308.4813	0.1646
308.693	0.1607
308.9046	0.1643
309.1163	0.1625
309.328	0.1556
309.5396	0.1522
309.7512	0.1571
309.9628	0.1565
310.1744	0.1524
310.386	0.1472
310.5976	0.1473
310.8091	0.1464
311.0207	0.1468
311.2322	0.1473
311.4437	0.1471
311.6552	0.1456
311.8667	0.1374
312.0782	0.1456
312.2897	0.1451
312.5012	0.1357
312.7126	0.1339
312.924	0.1359
313.1355	0.1304
313.3469	0.1298
313.5583	0.1339
313.7696	0.1289
313.981	0.1322
314.1924	0.1294
314.4037	0.1259
314.6151	0.1284
314.8264	0.126
315.0377	0.128
315.249	0.1216
315.4603	0.1224
315.6716	0.1252
315.8828	0.1219
316.0941	0.1229
316.3053	0.1188
316.5165	0.1213
316.7277	0.1193
316.9389	0.1225
317.1501	0.1214
317.3613	0.1179
317.5724	0.119
317.7836	0.1187
317.9947	0.1173
318.2058	0.1229
318.417	0.1134
318.6281	0.119
318.8391	0.1213
319.0502	0.1205
319.2613	0.1183
319.4723	0.1166
319.6834	0.1203
319.8944	0.1208
320.1054	0.1135
320.3164	0.1154
320.5274	0.1106
320.7383	0.1141
320.9493	0.1167
321.1602	0.1128
321.3712	0.1173
321.5821	0.1226
321.793	0.1153
322.0039	0.12
322.2148	0.1193
322.4257	0.1188
322.6365	0.1104
322.8474	0.1148
323.0582	0.1183
323.269	0.1142
323.4798	0.1116
323.6906	0.115
323.9014	0.1135
324.1122	0.1185
324.3229	0.124
324.5337	0.1248
324.7444	0.1161
324.9551	0.1182
325.1658	0.1212
325.3765	0.1169
325.5872	0.1214
325.7979	0.1229
326.0085	0.119
326.2192	0.1136
326.4298	0.1261
326.6404	0.1159
326.851	0.1201
327.0616	0.1248
327.2722	0.1253
327.4828	0.1179
327.6933	0.1239
327.9039	0.1216
328.1144	0.1244
328.3249	0.1249
328.5354	0.1205
328.7459	0.1223
328.9564	0.1243
329.1669	0.1166
329.3773	0.1227
329.5878	0.1202
329.7982	0.1281
330.0086	0.125
330.219	0.1251
330.4294	0.1254
330.6398	0.1295
330.8502	0.1239
331.0605	0.1266
331.2708	0.1199
331.4812	0.1213
331.6915	0.1235
331.9018	0.1188
332.1121	0.1279
332.3224	0.1261
332.5326	0.1294
332.7429	0.124
332.9531	0.1223
333.1633	0.1185
333.3735	0.1168
333.5837	0.1281
333.7939	0.1269
334.0041	0.1237
334.2143	0.124
334.4244	0.1246
334.6346	0.1202
334.8447	0.1317
335.0548	0.1243
335.2649	0.1227
335.475	0.1304
335.685	0.1253
335.8951	0.1283
336.1051	0.1262
336.3152	0.1314
336.5252	0.1332
336.7352	0.1201
336.9452	0.1305
337.1552	0.1293
337.3652	0.1291
337.5751	0.1216
337.7851	0.1305
337.995	0.1281
338.2049	0.1339
338.4148	0.1255
338.6247	0.1315
338.8346	0.1282
339.0445	0.13
339.2543	0.1399
339.4642	0.1391
339.674	0.1351
339.8838	0.1332
340.0936	0.1381
340.3034	0.1425
340.5132	0.1309
340.7229	0.1377
340.9327	0.1362
341.1424	0.1311
341.3522	0.1416
341.5619	0.134
341.7716	0.1376
341.9813	0.142
342.1909	0.142
342.4006	0.1405
342.6102	0.1343
342.8199	0.1419
343.0295	0.1433
343.2391	0.1412
343.4487	0.1466
343.6583	0.1471
343.8679	0.1449
344.0774	0.1466
344.287	0.1485
344.4965	0.1457
344.706	0.1494
344.9155	0.1467
345.125	0.1443
345.3345	0.1435
345.544	0.149
345.7534	0.1464
345.9629	0.1487
346.1723	0.1501
346.3817	0.146
346.5911	0.1546
346.8005	0.1515
347.0099	0.155
347.2193	0.15
347.4286	0.1553
347.638	0.1559
347.8473	0.1542
348.0566	0.1569
348.2659	0.1618
348.4752	0.1582
348.6845	0.1606
348.8937	0.1619
349.103	0.1629
349.3122	0.1652
349.5214	0.1562
349.7306	0.1611
349.9398	0.163
350.149	0.1609
350.3582	0.1633
350.5674	0.1652
350.7765	0.1701
350.9856	0.1609
351.1948	0.1662
351.4039	0.1697
351.613	0.1699
351.822	0.1676
352.0311	0.1642
352.2402	0.1715
352.4492	0.174
352.6582	0.1797
352.8672	0.1746
353.0762	0.1731
353.2852	0.1748
353.4942	0.1749
353.7032	0.169
353.9121	0.1724
354.1211	0.1708
354.33	0.1836
354.5389	0.1758
354.7478	0.1762
354.9567	0.1768
355.1655	0.1792
355.3744	0.1767
355.5833	0.1816
355.7921	0.1753
356.0009	0.178
356.2097	0.1939
356.4185	0.1914
356.6273	0.1832
356.8361	0.1914
357.0448	0.1902
357.2536	0.1876
357.4623	0.1877
357.671	0.1873
357.8797	0.192
358.0884	0.1887
358.2971	0.1948
358.5057	0.1971
358.7144	0.1993
358.923	0.1965
359.1316	0.1875
359.3402	0.2023
359.5488	0.1988
359.7574	0.2
359.966	0.1994
360.1746	0.1979
360.3831	0.2033
360.5916	0.2021
360.8002	0.2105
361.0087	0.2137
361.2172	0.214
361.4256	0.1991
361.6341	0.2126
361.8426	0.21
362.051	0.2073
362.2594	0.2158
362.4678	0.2188
362.6762	0.2137
362.8846	0.2172
363.093	0.2201
363.3014	0.215
363.5097	0.2216
363.718	0.224
363.9264	0.2205
364.1347	0.2264
364.343	0.2326
364.5513	0.2357
364.7595	0.2358
364.9678	0.2334
365.176	0.2282
365.3842	0.2361
365.5925	0.2311
365.8007	0.2347
366.0089	0.2396
366.217	0.2399
366.4252	0.24
366.6333	0.2385
366.8415	0.2393
367.0496	0.2398
367.2577	0.2402
367.4658	0.2471
367.6739	0.2401
367.882	0.2561
368.09	0.2368
368.2981	0.2432
368.5061	0.2539
368.7141	0.2453
368.9221	0.2471
369.1301	0.2556
369.3381	0.2554
369.5461	0.2543
369.754	0.2528
369.962	0.2608
370.1699	0.2554
370.3778	0.2498
370.5857	0.25
370.7936	0.2677
371.0015	0.2518
371.2093	0.2607
371.4172	0.2604
371.625	0.2713
371.8328	0.2678
372.0406	0.2601
372.2484	0.2578
372.4562	0.2676
372.664	0.2706
372.8717	0.2636
373.0795	0.2721
373.2872	0.2682
373.4949	0.2707
373.7026	0.289
373.9103	0.2666
374.118	0.2657
374.3256	0.2799
374.5333	0.2788
374.7409	0.2763
374.9485	0.2729
375.1561	0.273
375.3637	0.2753
375.5713	0.2817
375.7789	0.2774
375.9864	0.2838
376.194	0.2912
376.4015	0.2855
376.609	0.2869
376.8165	0.2947
377.024	0.2797
377.2315	0.2987
377.4389	0.2762
377.6464	0.2851
377.8538	0.2927
378.0612	0.2861
378.2686	0.2955
378.476	0.286
378.6834	0.2912
378.8908	0.2889
379.0981	0.2974
379.3055	0.2995
379.5128	0.3
379.7201	0.2952
379.9274	0.2862
380.1347	0.305
380.342	0.3081
380.5492	0.2958
380.7565	0.2977
380.9637	0.2944
381.1709	0.2983
381.3781	0.3016
381.5853	0.3053
381.7925	0.3137
381.9997	0.3103
382.2068	0.298
382.4139	0.3074
382.6211	0.3167
382.8282	0.3173
383.0353	0.3134
383.2424	0.3111
383.4494	0.3073
383.6565	0.3093
383.8635	0.3263
384.0706	0.3228
384.2776	0.319
384.4846	0.3185
384.6916	0.3205
384.8986	0.3164
385.1055	0.3127
385.3125	0.311
385.5194	0.3183
385.7263	0.3166
385.9333	0.3221
386.1402	0.3165
386.347	0.3165
386.5539	0.3192
386.7608	0.3213
386.9676	0.3217
387.1744	0.3111
387.3813	0.3059
387.5881	0.3115
387.7948	0.3166
388.0016	0.3175
388.2084	0.3137
388.4151	0.3062
388.6219	0.3104
388.8286	0.3142
389.0353	0.3037
389.242	0.308
389.4487	0.3085
389.6553	0.307
389.862	0.3129
390.0686	0.3167
390.2753	0.3002
390.4819	0.3043
390.6885	0.2974
390.8951	0.3141
391.1016	0.3092
391.3082	0.2941
391.5147	0.2986
391.7213	0.2994
391.9278	0.2997
392.1343	0.2986
392.3408	0.2904
392.5473	0.3071
392.7537	0.2935
392.9602	0.2925
393.1666	0.2938
393.373	0.2942
393.5794	0.2912
393.7858	0.2922
393.9922	0.2968
394.1986	0.2817
394.4049	0.2828
394.6113	0.2896
394.8176	0.2762
395.0239	0.2788
395.2302	0.2684
395.4365	0.2769
395.6428	0.2734
395.8491	0.2723
396.0553	0.2656
396.2615	0.2743
396.4678	0.2723
396.674	0.2751
396.8802	0.272
397.0863	0.2692
397.2925	0.2681
397.4987	0.265
397.7048	0.2837
397.9109	0.2715
398.117	0.2728
398.3231	0.2746
398.5292	0.2731
398.7353	0.2688
398.9413	0.2706
399.1474	0.2762
399.3534	0.2724
399.5594	0.2757
399.7654	0.2675
399.9714	0.2669
400.1774	0.2655
400.3833	0.266
400.5893	0.2655
400.7952	0.2748
401.0011	0.2603
401.207	0.2766
401.4129	0.2571
401.6188	0.264
401.8247	0.2726
402.0305	0.2699
402.2364	0.267
402.4422	0.2712
402.648	0.275
402.8538	0.2735
403.0596	0.2615
403.2654	0.2698
403.4711	0.2601
403.6768	0.2658
403.8826	0.2657
404.0883	0.2694
404.294	0.2677
404.4997	0.2625
404.7054	0.268
404.911	0.2629
405.1167	0.2783
405.3223	0.2738
405.5279	0.2677
405.7335	0.2625
405.9391	0.2695
406.1447	0.2717
406.3502	0.2756
406.5558	0.2792
406.7613	0.2714
406.9668	0.2633
407.1724	0.274
407.3778	0.2715
407.5833	0.2788
407.7888	0.2733
407.9942	0.2755
408.1997	0.2683
408.4051	0.2685
408.6105	0.2721
408.8159	0.2732
409.0213	0.2714
409.2267	0.2635
409.432	0.2724
409.6374	0.2665
409.8427	0.2803
410.048	0.265
410.2533	0.272
410.4586	0.2713
410.6639	0.2661
410.8691	0.2786
411.0744	0.2603
411.2796	0.2663
411.4848	0.2627
411.69	0.2641
411.8952	0.2766
412.1004	0.2719
412.3056	0.2662
412.5107	0.2729
412.7158	0.2666
412.921	0.2637
413.1261	0.2661
413.3312	0.2548
413.5362	0.2674
413.7413	0.2709
413.9464	0.2616
414.1514	0.2619
414.3564	0.2661
414.5614	0.2611
414.7664	0.2611
414.9714	0.2728
415.1764	0.2627
415.3813	0.2532
415.5863	0.267
415.7912	0.261
415.9961	0.2598
416.201	0.2643
416.4059	0.2567
416.6108	0.2682
416.8156	0.2438
417.0205	0.2591
417.2253	0.2743
417.4301	0.2672
417.6349	0.257
417.8397	0.2656
418.0445	0.2577
418.2492	0.2691
418.454	0.263
418.6587	0.26
418.8634	0.2611
419.0681	0.247
419.2728	0.2562
419.4775	0.2577
419.6822	0.2556
419.8868	0.2624
420.0915	0.2503
420.2961	0.2449
420.5007	0.2509
420.7053	0.2502
420.9099	0.2406
421.1144	0.2406
421.319	0.2404
421.5235	0.2508
421.728	0.2411
421.9325	0.2423
422.137	0.2412
422.3415	0.2399
422.546	0.2425
422.7504	0.2397
422.9549	0.238
423.1593	0.2429
423.3637	0.2387
423.5681	0.2402
423.7725	0.2404
423.9769	0.2441
424.1812	0.2368
424.3856	0.2377
424.5899	0.2334
424.7942	0.227
424.9985	0.2336
425.2028	0.2367
425.4071	0.2215
425.6113	0.2344
425.8156	0.2387
426.0198	0.221
426.224	0.2287
426.4282	0.2331
426.6324	0.2189
426.8366	0.2281
427.0407	0.2269
427.2449	0.2154
427.449	0.2276
427.6531	0.2226
427.8572	0.2216
428.0613	0.2128
428.2654	0.2095
428.4694	0.2051
428.6735	0.2029
428.8775	0.2105
429.0815	0.2079
429.2855	0.1968
429.4895	0.203
429.6935	0.2036
429.8975	0.2022
430.1014	0.2053
430.3053	0.2005
430.5093	0.197
430.7132	0.2004
430.9171	0.188
431.1209	0.1963
431.3248	0.1911
431.5286	0.1745
431.7325	0.1864
431.9363	0.192
432.1401	0.1809
432.3439	0.1769
432.5477	0.1777
432.7514	0.168
432.9552	0.1694
433.1589	0.1776
433.3627	0.1831
433.5664	0.1783
433.7701	0.1768
433.9737	0.1613
434.1774	0.1697
434.3811	0.1611
434.5847	0.1604
434.7883	0.1644
434.9919	0.1605
435.1955	0.1577
435.3991	0.1478
435.6027	0.1526
435.8062	0.1497
436.0098	0.1513
436.2133	0.1462
436.4168	0.1448
436.6203	0.1393
436.8238	0.1339
437.0272	0.1417
437.2307	0.1334
437.4341	0.1338
437.6375	0.138
437.841	0.1353
438.0443	0.1277
438.2477	0.1385
438.4511	0.1317
438.6545	0.1233
438.8578	0.1316
439.0611	0.1322
439.2644	0.1134
439.4677	0.1257
439.671	0.1196
439.8743	0.1203
440.0775	0.1154
440.2808	0.1201
440.484	0.1111
440.6872	0.1103
440.8904	0.1061
441.0936	0.1127
441.2967	0.1083
441.4999	0.1099
441.703	0.105
441.9062	0.096
442.1093	0.0977
442.3124	0.1047
442.5155	0.0909
442.7185	0.0829
442.9216	0.0984
443.1246	0.0955
443.3276	0.0902
443.5307	0.09
443.7337	0.0853
443.9366	0.0867
444.1396	0.0843
444.3426	0.0877
444.5455	0.0803
444.7484	0.0773
444.9513	0.0814
445.1542	0.0749
445.3571	0.0707
445.56	0.0742
445.7628	0.0704
445.9657	0.0756
446.1685	0.077
446.3713	0.0735
446.5741	0.0601
446.7769	0.0664
446.9797	0.0702
447.1824	0.0673
447.3852	0.0661
447.5879	0.0619
447.7906	0.0602
447.9933	0.0654
448.196	0.0587
448.3986	0.0551
448.6013	0.0586
448.8039	0.0569
449.0066	0.0561
449.2092	0.05
449.4118	0.0509
449.6143	0.0503
449.8169	0.0565
450.0195	0.0533
450.222	0.0432
450.4245	0.0562
450.627	0.0522
450.8295	0.0469
451.032	0.0448
451.2345	0.0443
451.4369	0.0418
451.6394	0.0439
451.8418	0.0487
452.0442	0.0404
452.2466	0.041
452.449	0.0378
452.6513	0.0329
452.8537	0.0474
453.056	0.0428
453.2583	0.0407
453.4607	0.0281
453.663	0.0283
453.8652	0.0334
454.0675	0.0393
454.2697	0.0281
454.472	0.0282
454.6742	0.0277
454.8764	0.0288
455.0786	0.0289
455.2808	0.0243
455.4829	0.0403
455.6851	0.0284
455.8872	0.0293
456.0893	0.0241
456.2915	0.0204
456.4935	0.0176
456.6956	0.0184
456.8977	0.027
457.0997	0.027
457.3018	0.0271
457.5038	0.0159
457.7058	0.0189
457.9078	0.0282
458.1098	0.0211
458.3117	0.0273
458.5137	0.0215
458.7156	0.0257
458.9175	0.0129
459.1194	0.0233
459.3213	0.0203
459.5232	0.0182
459.725	0.0235
459.9269	0.019
460.1287	0.0017
460.3305	0.0163
460.5323	0.0231
460.7341	0.0179
460.9359	0.0156
461.1376	0.0191
461.3394	0.0114
461.5411	0.0162
461.7428	0.0137
461.9445	0.011
462.1462	0.0186
462.3479	0.0137
462.5495	0.0166
462.7512	0.0041
462.9528	0.0203
463.1544	0.0105
463.356	0.011
463.5576	0.0105
463.7592	0.0052
463.9607	0.0104
464.1623	0.0164
464.3638	0.0169
464.5653	0.0086
464.7668	0.0084
464.9683	0.0162
465.1697	0.0123
465.3712	0.0096
465.5726	0.0124
465.7741	0.0107
465.9755	0.0108
466.1769	0.0088
466.3782	0.0014
466.5796	0.0147
466.7809	0.0099
466.9823	0.0055
467.1836	0.0125
467.3849	0.015
467.5862	-0.0056
467.7875	0.0133
467.9887	0.0143
468.19	0.0056
468.3912	0.0037
468.5924	0.0161
468.7936	0.0019
468.9948	0.0158
469.196	0.0083
469.3972	0.0146
469.5983	0.0001
469.7994	0.0047
470.0006	0.0072
470.2017	0.0124
470.4027	0.0035
470.6038	0.0075
470.8049	-0.0061
471.0059	0.0111
471.2069	0.0038
471.408	0.001
471.6089	0.0069
471.8099	0.0057
472.0109	-0.0052
472.2119	0.0149
472.4128	0.0086
472.6137	0.0015
472.8146	-0.0064
473.0155	0.0029
473.2164	-0.0008
473.4173	0.0092
473.6181	0.0107
473.819	0.0032
474.0198	0.0068
474.2206	0.0127
474.4214	0.0128
474.6222	0.0061
474.8229	-0.0005
475.0237	0.0085
475.2244	0.0023
475.4251	0.0005
475.6258	0.0043
475.8265	-0.0077
476.0272	0.0154
476.2278	0.002
476.4285	0.0054
476.6291	0.0105
476.8297	-0.0018
477.0303	0.0119
477.2309	-0.0097
477.4315	0.0121
477.632	0.0055
477.8326	0.0044
478.0331	0.002
478.2336	0.0062
478.4341	0.0002
478.6346	0.0019
478.8351	0.0075
479.0355	0.0039
479.236	0.0029
479.4364	-0.0018
479.6368	0.0045
479.8372	0.0011
480.0376	0.0044
480.2379	0.0074
480.4383	-0.0042
480.6386	0.0032
480.8389	0.0066
481.0392	0.0086
481.2395	0.0133
481.4398	0.008
481.6401	0.0104
481.8403	0.0031
482.0405	-0.0041
482.2408	0.0046
482.441	0.0018
482.6411	0.0008
482.8413	-0.0032
483.0415	0.0075
483.2416	0.0025
483.4417	0.0013
483.6419	-0.0019
483.8419	-0.0022
484.042	-0.0034
484.2421	-0.0041
484.4422	0.0066
484.6422	0.0041
484.8422	-0.0003
485.0422	0.0021
485.2422	0.0041
485.4422	0.001
485.6422	-0.0009
485.8421	-0.0032
486.042	0.0056
486.242	-0.0002
486.4419	0.003
486.6417	0.003
486.8416	0.0057
487.0415	-0.0039
487.2413	0.0011
487.4411	0.0018
487.641	0.0007
487.8408	0.0066
488.0405	0.0007
488.2403	0.0009
488.4401	0.0011
488.6398	0.0057
488.8395	0.0041
489.0392	0.0038
489.2389	0.0053
489.4386	-0
489.6383	0.0019
489.8379	0.0047
490.0376	0.0159
490.2372	-0.0069
490.4368	0.0073
490.6364	0.0074
490.836	-0.0005
491.0355	0.0014
491.2351	0.0041
491.4346	0.005
491.6341	-0.0004
491.8336	-0.0028
492.0331	0.0003
492.2326	-0.0003
492.432	0.0006
492.6315	0.0009
492.8309	0.0002
493.0303	-0.0006
493.2297	-0.013
493.4291	-0.004
493.6284	0.0063
493.8278	0.0044
494.0271	0.0049
494.2264	0.0125
494.4257	-0.0056
494.625	0.0038
494.8243	0.0097
495.0236	-0.001
495.2228	-0.0058
495.422	0.0042
495.6213	-0.0005
495.8205	0.0074
496.0196	0.0013
496.2188	0.0011
496.418	-0.0025
496.6171	0.0003
496.8162	0.0041
497.0153	-0.0005
497.2144	-0.0023
497.4135	-0.0001
497.6126	-0.0023
497.8116	0.003
498.0107	-0.0026
498.2097	0.0039
498.4087	0.0039
498.6077	0.0119
498.8067	0.0049
499.0056	-0.0003
499.2046	-0.003
499.4035	0.0083
499.6024	-0.0062
499.8013	0.0017
500.0002	0.0048
500.199	0.0023
500.3979	0.003
500.5967	-0.008
500.7956	-0.0086
500.9944	0.0054
501.1932	0.0035
501.3919	0.0068
501.5907	0.0036
501.7895	-0.0051
501.9882	-0.0036
502.1869	-0.0017
502.3856	0.0053
502.5843	0.0008
502.783	0.0097
502.9816	-0.0041
503.1803	0.006
503.3789	0.0065
503.5775	-0.0046
503.7761	0.0065
503.9747	0.0027
504.1732	0.007
504.3718	-0.0018
504.5703	0.002
504.7689	-0.0032
504.9674	-0.0007
505.1658	0.0022
505.3643	0.006
505.5628	0.0037
505.7612	0.0069
505.9597	0.0048
506.1581	-0.0062
506.3565	-0.0044
506.5549	0.0057
506.7532	-0.0022
506.9516	0.0073
507.1499	0.0005
507.3482	0.0154
507.5465	-0.0065
507.7448	0.0083
507.9431	-0.001
508.1414	0.0007
508.3396	0.0004
508.5379	0.0017
508.7361	0.0122
508.9343	0.0097
509.1325	0.0065
509.3306	0.0044
509.5288	0.0097
509.7269	-0.0005
509.9251	-0.0015
510.1232	-0.0054
510.3213	0.001
510.5193	0.0086
510.7174	-0.0129
510.9154	0.0056
511.1135	0.0034
511.3115	0.0039
511.5095	0.0035
511.7075	0.0003
511.9055	0.0068
512.1034	0.0053
512.3014	0.004
512.4993	-0.0045
512.6972	0.0068
512.8951	0.0046
513.093	-0.007
513.2908	-0.0026
513.4887	0.0081
513.6865	-0.0033
513.8844	-0.0014
514.0822	-0.0045
514.2799	-0.0037
514.4777	0.0053
514.6755	0.0036
514.8732	0.0003
515.0709	0.0108
515.2687	-0.011
515.4664	0.0009
515.664	0.0078
515.8617	0.0144
516.0594	0.0056
516.257	0.0042
516.4546	-0.0018
516.6522	0.0054
516.8498	-0.0022
517.0474	0.0002
517.2449	-0.0061
517.4425	0.001
517.64	0.0062
517.8375	0.0041
518.035	-0.004
518.2325	-0.0066
518.43	0.0037
518.6274	-0.0077
518.8249	-0.0038
519.0223	0.0037
519.2197	-0.0024
519.4171	0.0149
519.6145	-0.0038
519.8118	-0.0023
520.0092	0.0008
520.2065	-0.0046
520.4038	0.0016
520.6011	0.0069
520.7984	0.001
520.9956	-0.0016
521.1929	-0.0032
521.3901	0.004
521.5874	0.0082
521.7846	0.0027
521.9818	-0.0041
522.1789	0.0128
522.3761	0.0051
522.5732	-0.0045
522.7704	0.0115
522.9675	0.001
523.1646	0.016
523.3617	-0.0007
523.5587	0.006
523.7558	0.0029
523.9528	0.0093
524.1498	-0.0016
524.3468	-0.0008
524.5438	0.005
524.7408	-0.0027
524.9378	0.003
525.1347	0.0107
525.3316	0.0111
525.5285	0.0037
525.7254	0.0019
525.9223	-0.0006
526.1192	-0.0027
526.316	-0.003
526.5129	0.0026
526.7097	-0.0008
526.9065	0.0093
527.1033	-0.0016
527.3	-0.0016
527.4968	-0.0065
527.6935	0.0014
527.8903	0.0041
528.087	0.0047
528.2837	0.0071
528.4804	0.0112
528.677	0.0049
528.8737	0.0141
529.0703	0.0084
529.2669	0.0028
529.4635	0.0071
529.6601	-0.0055
529.8567	0.0032
530.0532	0.001
530.2498	-0.0046
530.4463	0.0069
530.6428	0.0103
530.8393	0.0047
531.0358	0.0039
531.2322	0.0063
531.4287	-0.014
531.6251	-0.0003
531.8215	0.0038
532.0179	-0.0106
532.2143	0.0113
532.4107	0.0023
532.607	-0.0033
532.8034	-0.0025
532.9997	0.0052
533.196	0.0088
533.3923	0.0043
533.5886	0.0011
533.7848	-0.0093
533.9811	0.0001
534.1773	-0.0068
534.3735	0.0031
534.5697	0.0024
534.7659	-0.0022
534.9621	0.0114
535.1582	0.0064
535.3544	0.0137
535.5505	-0.0015
535.7466	0.005
535.9427	-0.0031
536.1387	0.0031
536.3348	0.0092
536.5308	0.0116
536.7269	-0.0006
536.9229	0.0013
537.1189	-0.0055
537.3148	-0.0108
537.5108	0.0027
537.7068	0.0035
537.9027	0.0081
538.0986	-0.0019
538.2945	0.0102
538.4904	-0.0047
538.6863	0.0102
538.8821	-0.0073
539.078	-0.0004
539.2738	-0.0136
539.4696	0.0086
539.6654	-0
539.8611	0.0011
540.0569	0.0042
540.2526	-0.0005
540.4484	-0.0133
540.6441	0.0052
540.8398	-0.0072
541.0355	0.0001
541.2311	0.0078
541.4268	0.0001
541.6224	0.0016
541.818	0.0009
542.0136	-0.0033
542.2092	0.0051
542.4048	0.0134
542.6003	0.0014
542.7959	0.0009
542.9914	-0.0012
543.1869	-0.0031
543.3824	0.006
543.5779	0.0118
543.7734	-0.0085
543.9688	0.0044
544.1642	0.0067
544.3596	-0.0036
544.555	0.0047
544.7504	0.006
544.9458	-0.0019
545.1411	-0.0023
545.3365	0.0039
545.5318	0.0013
545.7271	0.0064
545.9224	-0.0052
546.1177	0.0051
546.3129	-0.0135
546.5081	-0.0052
546.7034	0.0039
546.8986	0.0013
547.0938	-0.0041
547.289	0.0021
547.4841	0.0046
547.6793	-0.0034
547.8744	-0.0078
548.0695	0.0054
548.2646	-0.0095
548.4597	-0.0078
548.6548	0.0044
548.8498	0.0017
549.0448	0.0055
549.2399	-0.0032
549.4349	0.0145
549.6298	-0.0067
549.8248	-0.0029
550.0198	0.0105
550.2147	0.004
550.4096	0.001
550.6045	-0.0003
550.7994	0.0114
550.9943	-0.015
551.1892	-0.0033
551.384	0.0116
551.5788	0.006
551.7737	-0.0081
551.9685	0.0083
552.1632	-0.0006
552.358	-0.0074
552.5528	-0.0029
552.7475	-0.0014
552.9422	-0.0094
553.1369	0.0127
553.3316	-0.003
553.5263	-0.0036
553.7209	0.0003
553.9156	0.0106
554.1102	0.0025
554.3048	0.005
554.4994	0.0057
554.694	0.0037
554.8885	0.0037
555.0831	0.0088
555.2776	-0.0039
555.4721	-0.0128
555.6666	0.0094
555.8611	-0.0123
556.0555	0.0013
556.25	0.0026
556.4444	0.008
556.6388	0.0004
556.8332	0.0008
557.0276	0.0038
557.222	-0.0074
557.4163	0.0077
557.6107	0.0036
557.805	-0.0109
557.9993	0.0044
558.1936	0.0115
558.3879	-0.0064
558.5821	-0.0054
558.7764	0.006
558.9706	0.0045
559.1648	-0.0056
559.359	0.0037
559.5532	-0.0129
559.7473	0.0158
559.9415	-0.0009
560.1356	0.0078
560.3297	0.0084
560.5238	-0.0032
560.7179	-0.0063
560.9119	0.0167
561.106	0.0022
561.3	0.003
561.494	0.0079
561.688	0.001
561.882	-0.0032
562.076	-0.0008
562.2699	0.0034
562.4639	0.0106
562.6578	0.0107
562.8517	0.0051
563.0456	-0.0102
563.2395	0.0083
563.4333	0.006
563.6272	0.0148
563.821	0.0071
564.0148	-0.0011
564.2086	0.0024
564.4024	-0.0003
564.5961	0.0022
564.7899	0.0055
564.9836	-0.0024
565.1773	0.0045
565.371	-0.0012
565.5647	-0.0086
565.7584	-0.0009
565.952	-0.0042
566.1456	-0.0008
566.3393	0.0014
566.5329	-0.0033
566.7264	-0.0007
566.92	-0.0048
567.1136	0.004
567.3071	0.0087
567.5006	-0.0059
567.6941	0.0116
567.8876	-0.0017
568.0811	-0.0005
568.2745	-0.0036
568.468	0.0075
568.6614	0.0015
568.8548	0.0018
569.0482	0.0043
569.2416	-0.0038
569.4349	0.0021
569.6283	-0.0008
569.8216	-0.0056
570.0149	-0.0013
570.2082	-0.0008
570.4015	0.0038
570.5947	-0.0016
570.788	0.0005
570.9812	0.0025
571.1744	-0.0039
571.3676	-0.0001
571.5608	-0.0004
571.754	-0.0015
571.9471	0.0087
572.1402	0.0022
572.3333	-0.0042
572.5264	0.0048
572.7195	0.0016
572.9126	0.0013
573.1057	-0.002
573.2987	0.0004
573.4917	0.0015
573.6847	0.0033
573.8777	-0.0006
574.0707	-0.002
574.2636	0.0002
574.4566	0.0018
574.6495	0.0022
574.8424	0.0004
575.0353	0.0003
575.2281	-0.0024
575.421	0.0006
575.6138	-0.0015
575.8067	0.0058
575.9995	0.0005
576.1923	0.0024
576.385	0.0011
576.5778	-0.001
576.7706	0.0022
576.9633	-0.0005
577.156	0.0032
577.3487	0.0001
577.5414	-0.0007
577.734	0.001
577.9267	-0.0027
578.1193	-0.0024
578.3119	-0.0036
578.5045	-0.002
578.6971	-0.0011
578.8897	0.0025
579.0822	0.0048
579.2747	-0.0049
579.4673	-0.001
579.6598	-0.0034
579.8522	0.0022
580.0447	-0.0027
580.2372	0.0026
580.4296	0.0001
580.622	0.0004
580.8144	-0.0002
581.0068	0.0008
581.1992	0.0026
581.3915	0.0008
581.5839	0.0014
581.7762	0.0028
581.9685	0.0012
582.1608	-0.003
582.353	-0.0005
582.5453	0.0046
582.7375	0.0015
582.9298	-0.002
583.122	-0.0023
583.3142	0.0038
583.5063	0.0016
583.6985	0.0029
583.8906	-0.0033
584.0827	-0.0051
584.2749	0.001
584.4669	-0.0032
584.659	0
584.8511	0.0001
585.0431	0.0024
585.2352	-0.0045
585.4272	-0.0011
585.6192	0.0002
585.8111	-0.0053
586.0031	0.0008
586.195	-0.0029
586.387	0.0024
586.5789	0.0035
586.7708	-0.0028
586.9627	0.0037
587.1545	-0.0015
587.3464	0.0026
587.5382	-0.0012
587.73	0.0003
587.9218	-0.0012
588.1136	-0.003
588.3053	0.0009
588.4971	0.002
588.6888	0.0037
588.8805	0.001
589.0722	0.0021
589.2639	0.0017
589.4556	-0.0057
589.6472	0.0013
589.8389	0.0042
590.0305	0.0052
590.2221	0.0007
590.4137	-0.0012
590.6052	0.0043
590.7968	0.0065
590.9883	0.0055
591.1798	-0.0022
591.3713	-0.0001
591.5628	0.0003
591.7543	0.0017
591.9458	-0.0019
592.1372	0.0032
592.3286	-0.0021
592.52	0.0025
592.7114	-0.0055
592.9028	-0.0044
593.0941	0.0017
593.2855	0.005
593.4768	0.0008
593.6681	0.0003
593.8594	-0.0047
594.0506	0.0025
594.2419	-0.0065
594.4331	-0.0076
594.6244	0.0055
594.8156	0.0032
595.0067	0.0022
595.1979	-0.0054
595.3891	-0.0011
595.5802	0.0024
595.7713	-0.0003
595.9624	0.0046
596.1535	-0.0024
596.3446	-0.0009
596.5357	-0.0042
596.7267	0.0055
596.9177	-0.0015
597.1087	-0.002
597.2997	0.0001
597.4907	0.0002
597.6817	-0.0013
597.8726	0.0056
598.0635	0.0005
598.2544	-0.0011
598.4453	-0.0023
598.6362	0.0015
598.827	0.0026
599.0179	0.0021
599.2087	0.0039
599.3995	0.0038
599.5903	0.0012
599.7811	-0.002
599.9718	0.0041
600.1626	0.0023
600.3533	-0.0061
600.544	-0.0005
600.7347	0.0039
600.9254	0.0039
601.116	0.0007
601.3067	0.0066
601.4973	0.0085
601.6879	-0.0039
601.8785	0.0053
602.0691	0.0052
602.2596	-0.0009
602.4502	-0.001
602.6407	0.0022
602.8312	-0.0026
603.0217	0.0106
603.2122	0.0071
603.4027	-0.0007
603.5931	-0.0071
603.7835	-0.0022
603.9739	0.0044
604.1643	0.0064
604.3547	0.0012
604.5451	0.0035
604.7354	0.0022
604.9257	-0.0041
605.116	-0.0017
605.3063	-0.0038
605.4966	-0.0028
605.6869	0.0001
605.8771	0.0037
606.0673	0.0002
606.2575	-0.0012
606.4477	0.005
606.6379	-0.0008
606.8281	-0.0034
607.0182	-0.0028
607.2083	-0.0018
607.3985	0.0049
607.5885	0.0057
607.7786	0.0061
607.9687	-0.0016
608.1587	-0.0033
608.3488	-0.0052
608.5388	0.002
608.7288	-0.006
608.9187	0.0081
609.1087	-0.0032
609.2986	-0.0035
609.4886	0.0063
609.6785	0.0017
609.8684	-0.0105
610.0582	0.0051
610.2481	-0.003
610.4379	-0.0043
610.6278	-0.0017
610.8176	0.0004
611.0074	-0.006
611.1971	0.0049
611.3869	-0.0082
611.5766	-0.0033
611.7664	0.0001
611.9561	0.0038
612.1458	-0.0038
612.3354	0.0029
612.5251	-0.0034
612.7147	0.0069
612.9044	0.0009
613.094	0.0037
613.2836	-0.0005
613.4731	-0.0001
613.6627	0.0031
613.8522	-0.0057
614.0417	-0.0029
614.2313	-0.0114
614.4207	0.0087
614.6102	0.0014
614.7997	-0.0003
614.9891	-0.001
615.1785	-0.0075
615.3679	0.0016
615.5573	-0.0066
615.7467	-0.0049
615.9361	-0.0044
616.1254	-0.0057
616.3147	-0.0021
616.504	-0.0021
616.6933	-0.0034
616.8826	0.0063
617.0718	-0.009
617.2611	-0.0022
617.4503	-0.002
617.6395	0.0033
617.8287	0.0028
618.0179	0.0012
618.207	0.0036
618.3961	0.003
618.5853	0.0056
618.7744	0.0016
618.9634	0.0025
619.1525	-0.0083
619.3416	0.002
619.5306	0.0002
619.7196	-0.0084
619.9086	0.0079
620.0976	0.0062
620.2866	0.0075
620.4755	0.0175
620.6645	-0.0091
620.8534	0.0026
621.0423	-0.0115
621.2312	-0.0038
621.42	-0.0121
621.6089	0.0035
621.7977	0.0067
621.9865	0.0098
622.1753	0.0014
622.3641	-0.0106
622.5529	-0.0095
622.7416	-0.0068
622.9303	-0.0055
623.1191	0.0006
623.3078	-0.0035
623.4964	-0.0003
623.6851	0.0042
623.8737	0.0127
624.0624	-0.0018
624.251	0.0055
624.4396	-0.0064
624.6282	0.0072
624.8167	0.0094
625.0053	0.0024
625.1938	0.002
625.3823	-0.0035
625.5708	-0.0004
625.7593	0.01
625.9477	-0.0043
626.1362	-0.0078
626.3246	-0.0068
626.513	-0.0046
626.7014	-0.0078
626.8898	0.0015
627.0781	-0.0023
627.2665	0.0104
627.4548	0.0012
627.6431	0.0153
627.8314	-0.0014
628.0197	0.003
628.2079	-0.0012
628.3962	-0.0004
628.5844	0.0043
628.7726	-0.0101
628.9608	-0.0012
629.1489	-0.0021
629.3371	-0.003
629.5252	0.011
629.7134	0.0091
629.9015	-0.0054
630.0895	-0.0038
630.2776	-0.002
630.4657	0.0044
630.6537	-0.0103
630.8417	-0.0011
631.0297	0.0081
631.2177	0.0111
631.4057	-0.0174
631.5936	-0.0013
631.7815	0.0005
631.9695	0.0147
632.1574	-0.0042
632.3452	0.0157
632.5331	0.0112
632.7209	0.0116
632.9088	0.001
633.0966	0.0073
633.2844	-0.0085
633.4722	0.0121
633.6599	-0.0173
633.8477	-0.0067
634.0354	0.0052
634.2231	0.0155
634.4108	0.0079
634.5985	0.0041
634.7861	-0.0153
634.9738	0.0109
635.1614	0.0154
635.349	-0.0059
635.5366	0.0126
635.7242	-0.0016
635.9117	0.0172
636.0993	-0.0173
636.2868	0.0023
636.4743	0.023
636.6618	0.0012
636.8492	0.0024
637.0367	-0.0009
637.2241	-0.012
637.4115	0.0006
637.5989	0.0166
637.7863	-0.0134
637.9737	0.0109
638.161	-0.0039
638.3484	-0.0001
638.5357	0.0061
638.723	0.0064
638.9103	0.0067
639.0975	0.0236
639.2848	0.0212
639.472	-0.0055
639.6592	0.0124
639.8464	0.0152
640.0336	-0.0028
640.2208	-0.0083
640.4079	0.0145
640.595	-0.0091
640.7821	-0.0056
640.9692	0.0016
641.1563	0.0125
641.3434	0.0077
641.5304	0.0104
641.7174	0.0131
641.9044	0.0008
642.0914	-0.0015
642.2784	0.029
642.4653	0.0027
642.6523	0.0058
642.8392	0.0083
643.0261	0.0128
643.213	0.0083
643.3999	-0.0146
643.5867	-0.0041
643.7735	0.0055
643.9604	-0.0061
644.1472	-0.0048
644.3339	-0.009
644.5207	-0.0003
644.7075	-0.0032
644.8942	0.0114
645.0809	-0.0035
645.2676	0.0217
645.4543	-0.0052
645.6409	-0.0237
645.8276	-0.0042
646.0142	0.0143
646.2008	-0.0082
646.3874	0.01
646.574	-0.017
646.7605	0.0014
646.9471	0.0142
647.1336	0.0013
647.3201	-0.0026
647.5066	-0.0062
647.6931	0.0198
647.8795	0.0176
648.0659	-0.0183
648.2524	-0.0132
648.4388	0.0013
648.6252	-0.0058
648.8115	0.0016
648.9979	0.002
649.1842	-0.0092
649.3705	0.0053
649.5568	-0.0073
649.7431	-0.0166
649.9294	0.0109
650.1156	-0.02
650.3018	0.0106
650.488	-0.0122
650.6742	0.0091
650.8604	-0.0079
651.0466	0.0061
651.2327	-0.0239
651.4188	-0.009
651.6049	-0.0007
651.791	0.0143
651.9771	0.0016
652.1632	0.009
652.3492	0.0017
652.5352	-0.002
652.7212	-0.0161
652.9072	-0.022
653.0932	-0.0071
653.2791	0.0024
653.465	-0.0068
653.651	0.0252
653.8369	0.0149
654.0227	-0.0108
654.2086	-0.0197
654.3944	-0.009
654.5803	0.0035
654.7661	-0.0099
654.9519	0.0002
655.1377	0
655.3234	0
655.5092	0
655.6949	0
655.8806	0
656.0663	0
656.2519	0
656.4376	0
656.6232	0
656.8088	0
656.9945	0
657.18	0
657.3656	0
657.5511	0
657.7367	0
657.9222	0
658.1077	0
658.2932	0
658.4786	0
658.6641	0
658.8495	0
659.0349	0
659.2203	0
659.4057	0.0212
659.591	0.0989
659.7764	0.0089
659.9617	0.0043
660.147	0.008
660.3323	0.0016
660.5176	0.0115
660.7028	0.0097
660.888	0.0163
661.0733	-0.0025
661.2585	0.0127
661.4436	0.0082
661.6288	0.0037
661.8139	0.0213
661.9991	-0.0011
662.1842	0.0086
662.3693	-0.0016
662.5544	0.0162
662.7394	0.0349
662.9245	0.0116
663.1095	0.0091
663.2945	-0.0015
663.4795	-0.0015
663.6644	0.0018
663.8494	0.0116
664.0343	-0.0086
664.2193	-0.002
664.4042	-0.0244
664.589	0.0065
664.7739	-0.0087
664.9587	0.0031
665.1436	-0.0103
665.3284	0.0081
665.5132	-0.0068
665.698	0.0174
665.8827	-0.008
666.0675	0.0102
666.2522	0.0202
666.4369	-0.0276
666.6216	-0.01
666.8063	-0.0005
666.9909	0.0072
667.1756	0.0068
667.3602	-0.0074
667.5448	0.0012
667.7294	0.0002
667.9139	-0.0174
668.0985	-0.0208
668.283	-0.0012
668.4675	0.0063
668.652	-0.0171
668.8365	-0.0096
669.0209	-0.0248
669.2054	0.0184
669.3898	0.006
669.5742	0.0213
669.7586	-0.0078
669.943	-0.0128
670.1273	0.0065
670.3117	0.0194
670.496	0.0173
670.6803	0.0099
670.8646	-0.0038
671.0488	0.0057
671.2331	0.0042
671.4173	0.01
671.6015	0.0136
671.7857	-0.0162
671.9699	0.0111
672.1541	0.0107
672.3382	0.0047
672.5223	-0.0007
672.7064	-0.0026
672.8905	-0.0006
673.0746	-0.0111
673.2587	0.0034
673.4427	0.0016
673.6267	-0.0071
673.8107	-0.0031
673.9947	0.0088
674.1787	0.008
674.3626	0.0081
674.5465	0.0211
674.7304	-0.0293
674.9143	0.0212
675.0982	0.0121
675.2821	0.0045
675.4659	-0.0102
675.6497	0.0251
675.8335	-0.0001
676.0173	0.0205
676.2011	-0.0045
676.3849	0.0022
676.5686	-0.0005
676.7523	-0.0096
676.936	-0.0163
677.1197	0.0015
677.3034	0.0167
677.487	0.0107
677.6706	-0.0095
677.8542	0.0136
678.0378	0.023
678.2214	0.0011
678.405	0.016
678.5885	0.0002
678.772	-0.0001
678.9555	-0.0009
679.139	-0.0029
679.3225	-0.0199
679.5059	-0.0008
679.6894	-0.0211
679.8728	0.0001
680.0562	-0.0065
680.2395	0.0101
680.4229	-0.0087
680.6062	0.0124
680.7896	-0.017
680.9729	-0.0024
681.1562	-0.0229
681.3394	0.0061
681.5227	-0.0216
681.7059	-0.0145
681.8891	0.0181
682.0723	-0.0176
682.2555	0.0307
682.4387	-0.0043
682.6218	0.006
682.805	0.0211
682.9881	-0.0065
683.1712	0.0087
683.3542	-0.0139
683.5373	0.0075
683.7203	0.0061
683.9034	0.0074
684.0864	0.0048
684.2694	0.0235
684.4523	0.0074
684.6353	0.0058
684.8182	0.0005
685.0011	-0.0013
685.184	-0.0002
685.3669	-0.0063
685.5498	-0.0041
685.7326	-0.0033
685.9154	-0.0123
686.0982	0.0174
686.281	0.0052
686.4638	0.0179
686.6465	-0.0053
686.8293	0.002
687.012	0.0121
687.1947	-0.0045
687.3774	0.0008
687.56	-0.0003
687.7427	-0.0049
687.9253	0.0266
688.1079	0.0367
688.2905	0.007
688.4731	0.0155
688.6556	-0.0118
688.8382	-0.0058
689.0207	-0.0132
689.2032	-0.0173
689.3857	0.0048
689.5681	-0.0083
689.7506	-0.0122
689.933	-0.0273
690.1154	-0.0022
690.2978	-0.0276
690.4802	0.0128
690.6626	-0.0124
690.8449	-0.0212
691.0272	-0.0143
691.2095	-0.0046
691.3918	-0.0125
691.5741	0.0011
691.7563	0.0194
691.9386	-0.0145
692.1208	0.0002
692.303	0.0149
692.4852	0.0125
692.6673	-0.0028
692.8495	-0.0082
693.0316	-0.0026
693.2137	0.0219
693.3958	0.0142
693.5778	-0.0317
693.7599	-0.0171
693.9419	0.0094
694.1239	-0.0125
694.3059	-0.0104
694.4879	-0.0373
694.6699	0.007
694.8518	0.0076
695.0337	-0.0228
695.2157	-0.0053
695.3975	0.0126
695.5794	0.0208
695.7613	0.0167
695.9431	-0.0156
696.1249	-0.0018
696.3067	0.0092
696.4885	-0.0175
696.6703	-0.0076
696.852	-0.0148
697.0337	-0.0003
697.2154	0.001
697.3971	0.0118
697.5788	0.0137
697.7605	0.0144
697.9421	0.0038
698.1237	-0.0036
698.3053	-0.0122
698.4869	-0.0071
698.6685	0.0079
698.85	0.0204
699.0315	-0.0051
699.213	0.0105
699.3945	-0.012
699.576	0.0002
699.7575	-0.0216
699.9389	0.0148
700.1203	-0.0067
700.3017	-0.0127
700.4831	0.0254
700.6645	0.0241
700.8458	0.0288
701.0271	-0.0043
701.2084	-0.0341
701.3897	-0.0088
701.571	-0.0042
701.7523	-0.0228
701.9335	0.0157
702.1147	0.0101
702.2959	0.0186
702.4771	0.0055
702.6583	-0.0008
702.8394	0.0025
703.0205	-0.0109
703.2016	-0.0041
703.3827	0.025
703.5638	-0.0257
703.7449	0.008
703.9259	-0.0053
704.1069	-0.0001
704.2879	0.0026
704.4689	0.0363
704.6499	-0.0032
704.8308	-0.0349
705.0117	-0.0279
705.1927	0.0107
705.3735	0.0086
705.5544	0.0064
705.7353	0.0162
705.9161	0.023
706.0969	0.0011
706.2777	0.013
706.4585	0.0026
706.6393	-0.0007
706.82	-0.0104
707.0007	-0.0062
707.1815	0.0055
707.3621	0.0103
707.5428	0.0182
707.7235	0.0428
707.9041	0.0165
708.0847	-0.002
708.2653	0.0005
708.4459	-0.0094
708.6265	-0.0079
708.807	0.0108
708.9875	-0.0074
709.168	0.0136
709.3485	-0.0113
709.529	-0.0092
709.7095	-0.0094
709.8899	0.0347
710.0703	0.0002
710.2507	0.0169
710.4311	0.0037
710.6115	0.0045
710.7918	0.0034
710.9721	0.0057
711.1524	0.0182
711.3327	-0.0209
711.513	0.0011
711.6932	-0.0404
711.8735	0.007
712.0537	0.0106
712.2339	-0.0063
712.4141	0.0066
712.5942	-0.0034
712.7744	0.0104
712.9545	0.0193
713.1346	-0.0014
713.3147	0.0057
713.4947	-0.0142
713.6748	0.0005
713.8548	-0.0085
714.0348	-0.0055
714.2148	0.0094
714.3948	0.01
714.5748	0.0086
714.7547	0.0152
714.9346	0.0179
715.1145	-0.0051
715.2944	-0.0064
715.4743	0.0122
715.6541	0.0115
715.834	0.0266
716.0138	0.0076
716.1936	-0.0148
716.3733	0.0096
716.5531	0.0063
716.7328	0.021
716.9126	-0.0213
717.0923	0.0489
717.2719	0.0013
717.4516	-0.0119
717.6312	-0.0293
717.8109	0.0047
717.9905	0.0006
718.1701	-0.0321
718.3496	0.005
718.5292	-0.0121
718.7087	0.0187
718.8882	0.0047
719.0677	-0.0071
719.2472	0.0085
719.4267	-0.0213
719.6061	0.0119
719.7856	0.005
719.965	-0.003
720.1443	-0.015
720.3237	0.0111
720.5031	0.0274
720.6824	-0.0047
720.8617	0.009
721.041	-0.0005
721.2203	0.0135
721.3995	-0.0341
721.5788	-0.0192
721.758	-0.0047
721.9372	-0.0252
722.1164	0.0122
722.2956	-0.0006
722.4747	0.0262
722.6538	0.0087
722.8329	-0.0198
723.012	-0.0027
723.1911	0.0418
723.3702	-0.0204
723.5492	-0.0111
723.7282	0.0063
723.9072	0.0017
724.0862	0.0278
724.2652	-0.0083
724.4441	0.0052
724.623	-0.0137
724.8019	0.008
724.9808	0.0096
725.1597	-0.0189
725.3385	-0.0001
725.5174	0.0398
725.6962	0.0211
725.875	0.0197
726.0538	0.0114
726.2325	-0.0069
726.4112	0.0042
726.59	0.0153
726.7687	0.0212
726.9474	0.002
727.126	-0.0139
727.3047	0.0165
727.4833	0.0457
727.6619	0.0202
727.8405	0.0197
728.0191	-0.0178
728.1976	-0.0438
728.3762	-0.0193
728.5547	0.0046
728.7332	-0.011
728.9116	-0.0365
729.0901	0.0148
729.2686	-0.0169
729.447	-0.0254
729.6254	0.0075
729.8038	-0.0097
729.9821	0.0139
730.1605	-0.0067
730.3388	0.0037
730.5171	-0.0133
730.6954	0.0129
730.8737	0.0135
731.0519	-0.0048
731.2302	-0.0086
731.4084	-0.0035
731.5866	-0.0305
731.7648	-0.0181
731.9429	0.0136
732.1211	-0.0073
732.2992	-0.027
732.4773	0.0062
732.6554	0.0212
732.8335	0.015
733.0115	0.0196
733.1896	-0.0111
733.3676	-0.0098
733.5456	0.0074
733.7235	0.0098
733.9015	-0.0139
734.0794	-0.0031
734.2574	-0.0046
734.4353	0.0092
734.6131	-0.002
734.791	0.0341
734.9689	0.0008
735.1467	-0.0078
735.3245	0.0189
735.5023	0.006
735.68	0.0177
735.8578	0.0036
736.0355	0.0084
736.2132	0.0034
736.3909	-0.0156
736.5686	0.0013
736.7463	0.0113
736.9239	0.0197
737.1015	-0.0013
737.2791	0.0056
737.4567	-0.0218
737.6343	-0.0037
737.8118	0.03
737.9894	0.007
738.1669	0.0026
738.3444	0.0228
738.5218	0.0125
738.6993	-0.012
738.8767	-0.0075
739.0541	0.0074
739.2315	-0.0153
739.4089	0.0011
739.5863	0.0051
739.7636	0.0127
739.9409	-0.0167
740.1182	0.018
740.2955	-0.0411
740.4728	0.0413
740.65	-0.0258
740.8272	-0.0234
741.0044	0.007
741.1816	0.018
741.3588	-0.0083
741.5359	-0.0075
741.7131	0.0304
741.8902	-0.0134
742.0673	0.0097
742.2444	0.0023
742.4214	-0.0089
742.5985	-0.0026
742.7755	-0.0198
742.9525	-0.002
743.1295	0.0064
743.3064	0.0096
743.4834	0.0024
743.6603	0.0191
743.8372	-0.0025
744.0141	0.041
744.191	0.0199
744.3678	-0.0109
744.5446	0.0053
744.7215	-0.025
744.8982	0.0395
745.075	0.0032
745.2518	-0.0035
745.4285	-0.0238
745.6052	0.0384
745.7819	-0.004
745.9586	0.0273
746.1353	0.007
746.3119	0.0128
746.4885	0.0035
746.6651	-0.0404
746.8417	-0.0224
747.0183	-0.0177
747.1948	-0.0122
747.3714	0.0467
747.5479	0.0167
747.7244	-0.0279
747.9008	0.0249
748.0773	0.0146
748.2537	0.0032
748.4301	-0.0187
748.6065	-0.0406
748.7829	-0.014
748.9593	-0.0174
749.1356	0.0024
749.3119	-0.0085
749.4882	0.0075
749.6645	-0.019
749.8408	0.0012
750.017	0.006
750.1933	0.0266
750.3695	-0.0014
750.5457	-0.0015
750.7218	0.0099
750.898	-0.0192
751.0741	0.0131
751.2502	-0.0001
751.4263	-0.0027
751.6024	0.0135
751.7784	-0.0379
751.9545	-0.0267
752.1305	-0.0044
752.3065	0.0163
752.4825	-0.0187
752.6584	-0.0122
752.8344	-0.0109
753.0103	-0.0354
753.1862	0.0069
753.3621	-0.0138
753.5379	-0.0165
753.7138	-0.0189
753.8896	0.0339
754.0654	0.008
754.2412	0.0065
754.417	-0.01
754.5927	0.0006
754.7685	-0.0389
754.9442	-0.0318
755.1199	-0.0046
755.2956	-0.0077
755.4712	0.0024
755.6469	0.0011
755.8225	0.0053
755.9981	0.0178
756.1736	0.0213
756.3492	-0.0096
756.5248	-0.016
756.7003	-0.0043
756.8758	-0.004
757.0513	-0.0087
757.2267	-0.0073
757.4022	-0.0137
757.5776	-0.0142
757.753	-0.0159
757.9284	-0.0033
758.1038	-0.0171
758.2791	-0.0061
758.4545	-0.0131
758.6298	-0.0051
758.8051	-0.0019
758.9803	-0.0276
759.1556	-0.0244
759.3308	0.0038
759.506	0.0252
759.6812	-0.0058
759.8564	-0.0133
760.0316	-0.0043
760.2067	-0.0245
760.3819	0.0034
760.557	-0.0005
760.732	0.0278
760.9071	-0.0023
761.0821	0.0179
761.2572	-0.0062
761.4322	-0.0017
761.6072	-0.017
761.7821	0.0147
761.9571	0.0203
762.132	-0.018
762.3069	-0.011
762.4818	0.0304
762.6567	0.0151
762.8316	0.0109
763.0064	-0.0305
763.1812	-0.0238
763.356	0.0051
763.5308	-0.0098
763.7055	0.0116
763.8803	0.0028
764.055	-0.0216
764.2297	-0.0159
764.4044	-0.0081
764.579	0.0023
764.7537	-0.0076
764.9283	-0.0186
765.1029	0.0004
765.2775	-0.0093
765.4521	-0.0041
765.6266	-0.0232
765.8011	-0.0169
765.9756	0.0028
766.1501	0.0549
766.3246	-0.0035
766.4991	-0.0322
766.6735	-0.0235
766.8479	-0.0255
767.0223	0.0137
767.1967	0.0146
767.371	0.0058
767.5454	0.0003
767.7197	-0.0106
767.894	-0.006
768.0683	-0.0171
768.2425	0.0053
768.4168	0.0374
768.591	0.0009
768.7652	0.0145
768.9394	0.0026
769.1135	-0.0084
769.2877	0.0208
769.4618	0.0314
769.6359	0.0106
769.81	-0.0083
769.984	-0.0164
770.1581	0.0259
770.3321	-0.0192
770.5061	0.0171
770.6801	-0.0087
770.8541	-0.0198
771.028	0.0171
771.202	-0.0333
771.3759	-0.0131
771.5498	0.0248
771.7236	-0.0246
771.8975	-0.0257
772.0713	-0.018
772.2451	0.0195
772.4189	0.0074
772.5927	-0.0082
772.7665	0.0399
772.9402	0.0384
773.1139	0.0128
773.2876	0.0149
773.4613	0.016
773.635	0.0268
773.8086	-0.0356
773.9822	-0.0313
774.1558	-0.0256
774.3294	-0.0529
774.503	0.0012
774.6765	0.0472
774.8501	-0.0107
775.0236	0.0005
775.1971	0.0061
775.3705	-0.026
775.544	0.006
775.7174	-0.0633
775.8908	0.0463
776.0642	0.0223
776.2376	-0.0032
776.4109	0.0723
776.5843	-0.023
776.7576	-0.0029
776.9309	0.0692
777.1041	-0.0144
777.2774	-0.0126
777.4506	0.0141
777.6238	-0.0003
777.797	-0.037
777.9702	0.0127
778.1434	0.0192
778.3165	-0.0063
778.4896	-0.0049
778.6627	0.0167
778.8358	-0.0278
779.0089	-0.0225
779.1819	0.0021
779.3549	0.0457
779.5279	0.0129
779.7009	-0.0074
779.8739	-0.0065
780.0468	-0.0064
780.2197	-0.0089
780.3926	-0.0061
780.5655	-0.0296
780.7384	0.0167
780.9112	-0.0065
781.0841	0.0033
781.2569	-0.0054
781.4297	0.0048
781.6024	0.0152
781.7752	-0.0196
781.9479	0.0004
782.1206	-0.0128
782.2933	0.0074
782.466	-0.0309
782.6386	0.0084
782.8113	-0.0062
782.9839	-0.0087
783.1565	-0.0212
783.329	0.0173
783.5016	-0.0332
783.6741	0.0176
783.8466	-0.0706
784.0191	0.0049
784.1916	0.0123
784.3641	-0.0092
784.5365	0.0656
784.7089	0.0021
784.8813	0.014
785.0537	-0.016
785.2261	0.0083
785.3984	-0.0125
785.5707	0.0371
785.743	-0.0389
785.9153	0.0283
786.0876	-0.0362
786.2598	0.0049
786.432	0.0171
786.6042	0.0065
786.7764	-0.0224
786.9486	0.0011
787.1207	-0.0134
787.2928	-0.0119
787.4649	0.0095
787.637	0.0312
787.8091	0.025
787.9811	0.0051
788.1532	-0.0037
788.3252	-0.0317
788.4972	-0.022
788.6691	0.0223
788.8411	-0.0108
789.013	-0.0312
789.1849	-0.0065
789.3568	0.0288
789.5287	-0.0338
789.7005	0.0325
789.8723	-0.0659
790.0442	-0.044
790.2159	-0.0274
790.3877	0.0529
790.5595	0.0762
790.7312	-0.022
790.9029	-0.0297
791.0746	0.0239
791.2463	0.0018
791.4179	-0.0132
791.5896	0.0097
791.7612	-0.0437
791.9328	0.0233
792.1044	-0.0302
792.2759	0.0201
792.4474	-0.0423
792.619	0.0768
792.7905	0.0321
792.9619	-0.006
793.1334	-0.0579
793.3048	-0.015
793.4762	0.0075
793.6476	0.0043
793.819	-0.0487
793.9904	0.0287
794.1617	-0.0239
794.333	-0.0046
794.5043	0.0092
794.6756	0.0279
794.8469	0.0238
795.0181	-0.0015
795.1893	0.0153
795.3605	-0.0405
795.5317	0.0299
795.7029	0.0492
795.874	0.0405
796.0452	0.0063
796.2163	0.0711
796.3873	-0.0074
796.5584	0.0703
796.7294	-0.1046
796.9005	-0.0245
797.0715	0.0024
797.2425	-0.0703
797.4134	0.0181
797.5844	0.0368
797.7553	0.0077
797.9262	-0.008
798.0971	-0.0594
798.2679	-0.0169
798.4388	-0.074
798.6096	-0.0193
798.7804	0.0427
798.9512	0.0637
799.122	0.0647
799.2927	-0.0699
799.4635	0.1228
799.6342	-0.0216
799.8049	0.0244
799.9755	0.073
800.1462	0.0599
800.3168	-0.0319
800.4874	0.0407
800.658	0.0234
800.8286	-0.004
800.9991	0.0818
801.1696	-0.0166
801.3402	-0.027
801.5106	-0.1511
801.6811	-0.0388
801.8516	0.0207
802.022	0.0654
802.1924	-0.0665
802.3628	-0.0169
802.5332	-0.0033
802.7035	-0.033
802.8739	0.0316
803.0442	0.0209
803.2145	0.0105
803.3847	-0.0233
803.555	0.0069
803.7252	0.0449
803.8954	0.043
804.0656	-0.0268
804.2358	-0.0104
804.4059	0.0895
804.5761	0.0777
804.7462	-0.0117
804.9163	0.013
805.0864	0.0407
805.2564	0.0628
805.4264	-0.0666
805.5965	-0.0401
805.7665	0.0796
805.9364	-0.0804
806.1064	-0.0093
806.2763	0.0487
806.4462	0.0238
806.6161	-0.0411
806.786	-0.0259
806.9559	0.0514
807.1257	-0.0242
807.2955	0.0039
807.4653	-0.0202
807.6351	0.0689
807.8048	-0.0271
807.9746	-0.0325
808.1443	0.0612
808.314	0.0259
808.4837	-0.0186
808.6533	0.0363
808.8229	-0.0377
808.9926	0.0194
809.1622	-0.0413
809.3317	-0.0738
809.5013	0.0875
809.6708	0.0117
809.8403	0.0535
810.0098	0.0496
810.1793	0.1007
810.3488	0.0578
810.5182	-0.0311
810.6876	0.0733
810.857	0.0018
811.0264	-0.0086
811.1958	0.0096
811.3651	-0.016
811.5344	-0.0366
811.7037	-0.0531
811.873	0.091
812.0422	-0.0123
812.2115	0.0613
812.3807	0.055
812.5499	0.2442
812.7191	-0.0225
812.8882	0.0083
813.0574	-0.1544
813.2265	-0.0506
813.3956	-0.1042
813.5646	0.0538
813.7337	-0.1657
813.9027	0.0465
814.0718	0.0286
814.2407	-0.1189
814.4097	-0.0712
814.5787	0.0347
814.7476	-0.013
814.9165	-0.013
815.0854	0.093
815.2543	-0.0662
815.4232	-0.0837
815.592	0.1481
815.7608	-0.0091
815.9296	0.0572
816.0984	-0.0195
816.2671	0.1016
816.4359	0.0728
816.6046	-0.0118
816.7733	-0.1472
816.942	0.0015
817.1106	-0.1268
817.2793	-0.1078
817.4479	-0.0873
817.6165	0.0463
817.785	0.0301
817.9536	0.0511
818.1221	0.0854
818.2906	0.0342
818.4591	0.0244
818.6276	0.0167
818.7961	0.0601
818.9645	-0.0524
819.1329	0.5045
819.3013	-0.1005
819.4697	0.0988
819.638	-0.1047
819.8064	-0.0877
819.9747	0.024
820.143	-0.0243
820.3113	0.0173
820.4795	0.2637
820.6477	0.0183
820.816	0.0201
820.9842	-0.116
821.1523	0.1361
821.3205	0.006
821.4886	0.1073
821.6567	0.0056
821.8248	0.0307
821.9929	0.0205
822.1609	-0.0167
822.329	0.0601
822.497	0.0197
822.665	0.0417
822.833	-0.1507
823.0009	-0.0322
823.1688	0.0233
823.3367	-0.0309
823.5046	0.0046
823.6725	0.0102
823.8404	-0.109
824.0082	-0.0431
824.176	0.1543
824.3438	-0.0167
824.5116	0.1758
824.6793	0.0804
824.847	0.0636
825.0147	0.1999
825.1824	0.1341
825.3501	0.2715
825.5177	0.1631
825.6854	0.0079
825.853	-0.1379
826.0206	0.0475
826.1881	-0.0285
826.3557	0.2198
826.5232	0.1244
826.6907	0.0491
826.8582	-0.0534
827.0257	-0.1787
827.1931	0.1142
827.3605	-0.1584
827.528	0.046
827.6953	0.2246
827.8627	0.1822
828.03	0.1485
828.1974	0.0154
828.3647	0.1082
828.532	0.2937
828.6992	-0.0011
828.8665	0.047
829.0337	-0.0434
829.2009	0.0776
829.3681	-0.0976
829.5352	0.6798
829.7024	0.1578
829.8695	-0.1587
830.0366	0.042
830.2037	0.2953
830.3707	0.0263
830.5378	0.1294
830.7048	-0.2557
830.8718	-0.142
831.0388	0.0749
831.2057	0.0702
831.3727	-0.0025
831.5396	-0.0895
831.7065	0.2097
831.8734	0.0918
832.0402	0.095
832.2071	-0
832.3739	0.3327
832.5407	-0
832.7075	0.0035
832.8742	-0
833.041	0.1025
833.2077	0.4918
833.3744	-0.1091
833.541	-0.2503
833.7077	0.1088
833.8743	0.078
834.0409	-0.1522
834.2075	0.0543
834.3741	0.0592
834.5407	-0.3225
834.7072	0.1447
834.8737	0.0941
835.0402	0.1846
835.2067	0.0424
835.3731	0.0617
835.5395	0.0023
835.706	-0.2654
835.8723	-0.2239
836.0387	0.5695
836.2051	0.2482
836.3714	0.272
836.5377	-0.1701
836.704	0.2429
836.8703	-0.1703
837.0365	-0.2661
837.2027	-0.645
837.3689	0.3393
837.5351	-0.2948
837.7013	0.3253
837.8674	-0.8846
838.0335	-0.1668
838.1997	0.7089
838.3657	-0.1938
838.5318	-0.2762
838.6978	-0.1562
838.8639	0.4189
839.0299	0.243
839.1958	0.1257
839.3618	-0.0971
839.5277	-0.1449
839.6937	-0.2569
839.8596	0.1185
840.0254	0.1493
840.1913	0.0905
840.3571	-0.0998
840.523	-0
840.6888	-0.0522
840.8545	0.4073
841.0203	-0.218
841.186	0.1785
841.3517	0.1645
841.5174	0.5677
841.6831	0.3155
841.8488	0.1437
842.0144	0.5036
842.18	-0.0824
842.3456	0.0674
842.5112	-0
842.6767	-0.0166
842.8422	0.2813
843.0077	0.2952
843.1732	-0.3405
843.3387	-0
843.5042	0.4017
843.6696	0.5756
843.835	0.1607
844.0004	0.2413
844.1657	0.7834
844.3311	0.2697
844.4964	0.4608
844.6617	-0.3989
844.827	0.5542
844.9923	-0.0954
845.1575	-0
845.3227	-0.2026
845.4879	0.3865
845.6531	-0.0053
845.8183	0.3927
845.9834	-0.5242
846.1485	-0.26
846.3136	0.3554
846.4787	-0
846.6438	0.5915
846.8088	-0.8846
846.9738	0.0447
847.1388	0.0814
847.3038	0.144
847.4687	-0.0943
847.6337	0.2453
847.7986	0.7118
847.9635	0.0856
848.1284	-0
848.2932	0.1572
848.458	-0.0474
848.6228	0.3618
848.7876	0.1042
848.9524	0.2735
849.1172	-0.2709
849.2819	0.3622
849.4466	0.0973
849.6113	0.0657
849.7759	0.2356
849.9406	0.5531
850.1052	0.9226
850.2698	-0.9669
850.4344	0.1748
850.599	-0.0856
850.7635	-0
850.928	0.6873
851.0925	0.1187
851.257	-0
851.4215	1.1505
851.5859	0.1878
851.7503	-0
851.9147	-0
852.0791	-0.3766
852.2434	0.8175
852.4078	-0
852.5721	-0.1063
852.7364	0.1995
852.9007	-0.2112
853.0649	0.9615
853.2291	0.4908
853.3934	-0
853.5575	0.6135
853.7217	0.1615
853.8859	-0.3233
854.05	-0.806
854.2141	-0
854.3782	0.0611
854.5423	0.3837
854.7063	-0.1399
854.8703	0.2482
855.0343	0.3267
855.1983	-0.3475
855.3623	0.1155
855.5262	0.059
855.6901	0.2513
855.854	0.0184
856.0179	-0
856.1818	-0.6699
856.3456	-0.1195
856.5094	-0
856.6732	-0
856.837	0.2025
857.0008	-0
857.1645	-0
857.3282	-0.3133
857.4919	0.1122
857.6556	-0.0448
857.8192	0.1903
857.9828	-0.6192
858.1465	0.7625
858.31	-0
858.4736	-0.035
858.6372	0.0153
858.8007	-0
858.9642	0.1014
859.1277	-0
859.2911	0.0741
859.4546	0.1547
859.618	0.2059
859.7814	-0
859.9448	-0.0192
860.1081	-0
860.2715	0.3043
860.4348	0.3275
860.5981	-0.2474
860.7614	0.3271
860.9246	-0
861.0879	-0.4326
861.2511	-0
861.4143	-0
861.5774	0.6331
861.7406	-0.5238
861.9037	0.3666
862.0668	-0
862.2299	-1.1563
862.393	-0
862.556	-0.4343
862.7191	0.0949
862.8821	-0.2183
863.0451	0.2583
863.208	-0
863.371	0.6346
863.5339	0.0156
863.6968	-0
863.8597	-0.9722
864.0225	0.1449
864.1854	-0.2246
864.3482	0.0887
864.511	0.8606
864.6737	1.1069
864.8365	0.1753
864.9992	-0.1566
865.1619	0.1859
865.3246	0.762
865.4873	-0.3066
865.65	-1.107
865.8126	-0
865.9752	0.0485
866.1378	-0.6658
866.3004	0.332
866.4629	-0.0946
866.6254	-0.7309
866.7879	0.1692
866.9504	-0
867.1129	0.1514
867.2753	0.0883
867.4377	0.2823
867.6001	0.2223
867.7625	-0.2407
867.9249	-0
868.0872	-0
868.2495	-0.0306
868.4118	-0
868.5741	0.1696
868.7363	1.0396
868.8986	0.2977
869.0608	1.0283
869.223	0.1108
869.3851	-0.1293
869.5473	-1.4373
869.7094	-0.1618
869.8715	0.6722
870.0336	0.093
870.1957	-0.6182
870.3577	0.165
870.5197	-0.1924
870.6817	-0
870.8437	0.5452
871.0057	0.2063
871.1676	0.1239
871.3295	0.1347
871.4914	0.0918
871.6533	-0.0807
871.8151	1.2448
871.977	-0
872.1388	-1.0965
872.3006	-0.0488
872.4623	0.0863
872.6241	-1.349
872.7858	-0
872.9475	-0
873.1092	0.2392
873.2709	0.1036
873.4325	-0
873.5941	-0.9876
873.7557	-0
873.9173	-0
874.0789	0.086
874.2404	-0.1412
874.4019	0.0144
874.5634	0.9264
874.7249	1.2852
874.8863	-0.7055
875.0478	0.0476
875.2092	0.197
875.3706	-0.471
875.5319	1.7177
875.6933	-0.0384
875.8546	-0
876.0159	-0.08
876.1772	-0
876.3385	-0.0358
876.4997	-0
876.6609	-1.1467
876.8221	0.7089
876.9833	0.3431
877.1445	-0.2167
877.3056	-0.1366
877.4667	-0
877.6278	-0
877.7889	-0
877.9499	0.0976
878.111	0.035
878.272	-0
878.433	0.4069
878.5939	-0
878.7549	-0.3968
878.9158	-0.5926
879.0767	0.3412
879.2376	-0.7955
879.3984	-0.5003
879.5593	-0.193
879.7201	0.1615
879.8809	0.3031
880.0417	0.1309
880.2024	0.8175
880.3632	0.0297
880.5239	-0.2017
880.6846	-0
880.8452	1.1221
881.0059	-0
881.1665	-0
881.3271	0.1002
881.4877	-0.1382
881.6483	-1.5126
881.8088	-0.292
881.9693	0.7927
882.1298	0.7927
882.2903	0.7927
