Data from D4ACN5uM480nmA_Absorbance_12-08-01-481.txt Node
Date: Fri Feb 21 12:08:01 GMT 2025
User: LASERRRRR
Spectrometer: FLMT03099
Trigger mode: 0
Integration Time (sec): 1.500000E-2
Scans to average: 1
Electric dark correction enabled: true
Nonlinearity correction enabled: false
Boxcar width: 0
XAxis mode: Wavelengths
Number of Pixels in Spectrum: 3648
>>>>>Begin Spectral Data<<<<<
179.3399	-0.2842
179.5586	-0.2842
179.7771	-0.2842
179.9957	0.1125
180.2143	0.7404
180.4329	-0
180.6514	-0.017
180.8699	-0.254
181.0885	-0
181.307	0.2371
181.5255	0.4144
181.744	-0
181.9625	0.1189
182.181	0.1624
182.3994	-0
182.6179	-0
182.8363	-0.5154
183.0547	-1.1856
183.2732	0.2368
183.4916	0.1148
183.71	0.2824
183.9284	0.1162
184.1467	0.046
184.3651	0.2829
184.5835	0.1665
184.8018	0.2395
185.0201	0.209
185.2385	0.166
185.4568	0.1825
185.6751	0.135
185.8934	0.2761
186.1117	0.4444
186.3299	0.2632
186.5482	0.0529
186.7664	0.2281
186.9847	0.4848
187.2029	0.085
187.4211	0.1175
187.6393	0.3182
187.8575	0.0736
188.0757	0.5459
188.2939	0.1831
188.512	0.2128
188.7302	0.0164
188.9483	0.4523
189.1665	-0
189.3846	0.0395
189.6027	-0.0385
189.8208	0.5916
190.0389	0.1972
190.257	0.1834
190.475	0.2485
190.6931	0.2663
190.9111	0.4154
191.1292	0.136
191.3472	0.1224
191.5652	0.5889
191.7832	0.4033
192.0012	0.1827
192.2192	0.4562
192.4371	0.3807
192.6551	0.33
192.873	0.1513
193.091	0.231
193.3089	0.1775
193.5268	0.5391
193.7447	0.4159
193.9626	0.49
194.1805	0.3195
194.3984	0.3951
194.6162	0.4452
194.8341	0.4908
195.0519	0.4138
195.2697	0.6325
195.4875	0.6527
195.7054	0.5132
195.9231	0.3576
196.1409	0.6761
196.3587	0.512
196.5765	0.4204
196.7942	0.5405
197.012	0.5328
197.2297	0.5096
197.4474	0.7043
197.6651	0.6392
197.8828	0.7859
198.1005	0.6571
198.3182	0.6325
198.5358	0.5414
198.7535	0.5761
198.9711	0.627
199.1888	0.633
199.4064	0.658
199.624	0.5951
199.8416	0.5031
200.0592	0.5794
200.2767	0.6264
200.4943	0.7122
200.7119	0.5838
200.9294	0.5897
201.1469	0.5956
201.3645	0.5972
201.582	0.5504
201.7995	0.5863
202.017	0.5505
202.2344	0.5172
202.4519	0.6093
202.6694	0.6323
202.8868	0.5439
203.1042	0.4802
203.3217	0.5481
203.5391	0.5407
203.7565	0.5478
203.9739	0.4622
204.1913	0.5436
204.4086	0.5784
204.626	0.5103
204.8433	0.4698
205.0607	0.5295
205.278	0.5665
205.4953	0.488
205.7126	0.4903
205.9299	0.4406
206.1472	0.5031
206.3644	0.475
206.5817	0.471
206.7989	0.4731
207.0162	0.4275
207.2334	0.4378
207.4506	0.4814
207.6678	0.4734
207.885	0.4744
208.1022	0.4605
208.3194	0.4356
208.5365	0.4618
208.7537	0.4561
208.9708	0.4594
209.1879	0.4429
209.405	0.4253
209.6222	0.4263
209.8392	0.4352
210.0563	0.4339
210.2734	0.4218
210.4905	0.4273
210.7075	0.4308
210.9245	0.4348
211.1416	0.4213
211.3586	0.4215
211.5756	0.4036
211.7926	0.399
212.0096	0.4048
212.2265	0.4014
212.4435	0.4173
212.6604	0.411
212.8774	0.4403
213.0943	0.4094
213.3112	0.4085
213.5281	0.4279
213.745	0.4106
213.9619	0.4089
214.1788	0.3889
214.3956	0.4086
214.6125	0.3888
214.8293	0.419
215.0461	0.4044
215.2629	0.4112
215.4798	0.4019
215.6965	0.3844
215.9133	0.4061
216.1301	0.4127
216.3469	0.4044
216.5636	0.4131
216.7803	0.4333
216.9971	0.4354
217.2138	0.4164
217.4305	0.4241
217.6472	0.4239
217.8639	0.428
218.0805	0.4101
218.2972	0.4308
218.5138	0.4301
218.7305	0.4218
218.9471	0.4067
219.1637	0.4449
219.3803	0.412
219.5969	0.4318
219.8135	0.4104
220.0301	0.4281
220.2466	0.4361
220.4632	0.4057
220.6797	0.4457
220.8962	0.4263
221.1127	0.4395
221.3292	0.4536
221.5457	0.4413
221.7622	0.4296
221.9787	0.4403
222.1951	0.4379
222.4116	0.4497
222.628	0.451
222.8444	0.4669
223.0608	0.4551
223.2772	0.4491
223.4936	0.454
223.71	0.452
223.9264	0.4356
224.1427	0.4543
224.3591	0.4599
224.5754	0.4708
224.7917	0.4547
225.008	0.4698
225.2243	0.4565
225.4406	0.4617
225.6569	0.46
225.8732	0.4526
226.0894	0.4557
226.3057	0.4659
226.5219	0.4562
226.7381	0.4642
226.9543	0.4779
227.1705	0.4582
227.3867	0.4906
227.6029	0.4748
227.8191	0.4776
228.0352	0.5002
228.2513	0.4895
228.4675	0.4864
228.6836	0.4968
228.8997	0.4976
229.1158	0.4883
229.3319	0.4918
229.548	0.4911
229.764	0.5005
229.9801	0.5099
230.1961	0.5015
230.4121	0.5074
230.6282	0.5147
230.8442	0.5148
231.0602	0.5232
231.2761	0.5295
231.4921	0.5077
231.7081	0.5247
231.924	0.512
232.14	0.5326
232.3559	0.53
232.5718	0.5375
232.7877	0.5283
233.0036	0.5282
233.2195	0.5295
233.4353	0.5215
233.6512	0.5318
233.867	0.5328
234.0829	0.529
234.2987	0.5274
234.5145	0.5307
234.7303	0.5322
234.9461	0.5404
235.1619	0.5432
235.3776	0.5329
235.5934	0.5284
235.8091	0.5367
236.0249	0.5348
236.2406	0.5412
236.4563	0.5375
236.672	0.5366
236.8877	0.5261
237.1034	0.5389
237.319	0.5328
237.5347	0.5319
237.7503	0.5323
237.966	0.5306
238.1816	0.5266
238.3972	0.5412
238.6128	0.5374
238.8284	0.5257
239.0439	0.5308
239.2595	0.5292
239.475	0.5286
239.6906	0.5358
239.9061	0.5287
240.1216	0.5316
240.3371	0.524
240.5526	0.5179
240.7681	0.5263
240.9836	0.5131
241.199	0.5162
241.4145	0.5049
241.6299	0.4954
241.8453	0.5053
242.0607	0.4859
242.2761	0.4863
242.4915	0.4741
242.7069	0.4597
242.9223	0.4558
243.1376	0.4522
243.353	0.449
243.5683	0.449
243.7836	0.4269
243.9989	0.4163
244.2142	0.4083
244.4295	0.4002
244.6448	0.4012
244.86	0.4002
245.0753	0.3873
245.2905	0.3792
245.5057	0.3647
245.721	0.3574
245.9362	0.3499
246.1514	0.3318
246.3665	0.3397
246.5817	0.3343
246.7969	0.322
247.012	0.3234
247.2271	0.3084
247.4423	0.3063
247.6574	0.3095
247.8725	0.3006
248.0876	0.2964
248.3026	0.2894
248.5177	0.2783
248.7328	0.2847
248.9478	0.2684
249.1628	0.2654
249.3779	0.2667
249.5929	0.2613
249.8079	0.2529
250.0228	0.2523
250.2378	0.25
250.4528	0.253
250.6677	0.24
250.8827	0.2398
251.0976	0.2417
251.3125	0.2388
251.5274	0.228
251.7423	0.229
251.9572	0.2221
252.172	0.2122
252.3869	0.2211
252.6017	0.2155
252.8166	0.2174
253.0314	0.2214
253.2462	0.2125
253.461	0.2156
253.6758	0.2075
253.8906	0.2038
254.1053	0.2032
254.3201	0.2076
254.5348	0.2032
254.7496	0.2061
254.9643	0.2057
255.179	0.2018
255.3937	0.2009
255.6083	0.1994
255.823	0.2011
256.0377	0.1975
256.2523	0.1952
256.467	0.1997
256.6816	0.2021
256.8962	0.194
257.1108	0.1929
257.3254	0.1934
257.54	0.1947
257.7545	0.1952
257.9691	0.189
258.1836	0.1881
258.3981	0.1869
258.6127	0.1866
258.8272	0.1862
259.0417	0.182
259.2561	0.1894
259.4706	0.1933
259.6851	0.1867
259.8995	0.1815
260.114	0.1832
260.3284	0.1853
260.5428	0.1848
260.7572	0.1865
260.9716	0.1894
261.186	0.1807
261.4003	0.1853
261.6147	0.1839
261.829	0.1822
262.0433	0.1774
262.2577	0.1907
262.472	0.1875
262.6863	0.1857
262.9005	0.1943
263.1148	0.1806
263.3291	0.1869
263.5433	0.181
263.7576	0.1787
263.9718	0.1838
264.186	0.1836
264.4002	0.1847
264.6144	0.1908
264.8286	0.1879
265.0427	0.1892
265.2569	0.1894
265.471	0.1845
265.6851	0.1859
265.8993	0.1884
266.1134	0.1825
266.3275	0.1827
266.5415	0.1855
266.7556	0.1809
266.9697	0.1855
267.1837	0.1879
267.3978	0.1971
267.6118	0.1791
267.8258	0.1863
268.0398	0.1792
268.2538	0.188
268.4677	0.1803
268.6817	0.1796
268.8957	0.1864
269.1096	0.1728
269.3235	0.1839
269.5374	0.184
269.7514	0.1792
269.9652	0.1807
270.1791	0.1802
270.393	0.1861
270.6068	0.1741
270.8207	0.1777
271.0345	0.1756
271.2483	0.1786
271.4622	0.1817
271.676	0.172
271.8897	0.1681
272.1035	0.1765
272.3173	0.1718
272.531	0.1753
272.7448	0.1739
272.9585	0.1761
273.1722	0.1825
273.3859	0.1739
273.5996	0.17
273.8133	0.1694
274.0269	0.1781
274.2406	0.1705
274.4542	0.168
274.6679	0.1685
274.8815	0.1745
275.0951	0.1715
275.3087	0.1769
275.5223	0.1694
275.7358	0.1789
275.9494	0.1747
276.1629	0.1726
276.3765	0.1709
276.59	0.176
276.8035	0.1835
277.017	0.1764
277.2305	0.1804
277.444	0.1771
277.6574	0.1798
277.8709	0.176
278.0843	0.1816
278.2978	0.1809
278.5112	0.176
278.7246	0.1762
278.938	0.1781
279.1513	0.1804
279.3647	0.1751
279.5781	0.1762
279.7914	0.1803
280.0047	0.1732
280.2181	0.1805
280.4314	0.1806
280.6447	0.1838
280.8579	0.18
281.0712	0.1879
281.2845	0.1844
281.4977	0.1852
281.711	0.1783
281.9242	0.1807
282.1374	0.1806
282.3506	0.1841
282.5638	0.1859
282.7769	0.1811
282.9901	0.1818
283.2033	0.1874
283.4164	0.1854
283.6295	0.1822
283.8426	0.1857
284.0557	0.1885
284.2688	0.1931
284.4819	0.1874
284.695	0.193
284.908	0.1852
285.1211	0.1904
285.3341	0.1929
285.5471	0.1925
285.7601	0.1944
285.9731	0.1885
286.1861	0.1937
286.3991	0.1955
286.612	0.1967
286.825	0.2004
287.0379	0.197
287.2508	0.1991
287.4637	0.1923
287.6766	0.194
287.8895	0.1891
288.1024	0.2028
288.3152	0.1927
288.5281	0.1914
288.7409	0.1932
288.9538	0.1948
289.1666	0.1993
289.3794	0.1991
289.5922	0.192
289.8049	0.2093
290.0177	0.2015
290.2304	0.2053
290.4432	0.2011
290.6559	0.1904
290.8686	0.2029
291.0813	0.2039
291.294	0.1995
291.5067	0.2048
291.7194	0.203
291.932	0.1963
292.1447	0.2025
292.3573	0.1973
292.5699	0.2073
292.7825	0.2004
292.9951	0.2006
293.2077	0.2034
293.4203	0.1996
293.6328	0.1956
293.8454	0.1987
294.0579	0.2029
294.2704	0.2022
294.4829	0.1999
294.6954	0.1996
294.9079	0.1984
295.1204	0.2006
295.3328	0.2014
295.5453	0.1978
295.7577	0.1924
295.9701	0.2011
296.1825	0.1976
296.3949	0.203
296.6073	0.2013
296.8197	0.2043
297.0321	0.2038
297.2444	0.1988
297.4567	0.1926
297.6691	0.1999
297.8814	0.1964
298.0937	0.1998
298.306	0.2018
298.5182	0.1968
298.7305	0.1958
298.9428	0.1936
299.155	0.1988
299.3672	0.2002
299.5794	0.194
299.7916	0.2027
300.0038	0.1945
300.216	0.2038
300.4282	0.1935
300.6403	0.1999
300.8525	0.2041
301.0646	0.2
301.2767	0.1948
301.4888	0.1952
301.7009	0.2
301.913	0.2015
302.125	0.1972
302.3371	0.1961
302.5491	0.2001
302.7612	0.1941
302.9732	0.1933
303.1852	0.1971
303.3972	0.1958
303.6092	0.1953
303.8211	0.1944
304.0331	0.1944
304.245	0.1934
304.457	0.1942
304.6689	0.1959
304.8808	0.1906
305.0927	0.1914
305.3046	0.1825
305.5164	0.1859
305.7283	0.1967
305.9401	0.1855
306.152	0.184
306.3638	0.1792
306.5756	0.1747
306.7874	0.1835
306.9992	0.1822
307.2109	0.178
307.4227	0.1693
307.6344	0.1719
307.8462	0.1676
308.0579	0.1707
308.2696	0.1687
308.4813	0.1571
308.693	0.1681
308.9046	0.1667
309.1163	0.1605
309.328	0.1511
309.5396	0.1582
309.7512	0.1587
309.9628	0.1504
310.1744	0.162
310.386	0.1455
310.5976	0.1441
310.8091	0.145
311.0207	0.1508
311.2322	0.1476
311.4437	0.1447
311.6552	0.1433
311.8667	0.144
312.0782	0.1412
312.2897	0.1386
312.5012	0.1383
312.7126	0.1352
312.924	0.1377
313.1355	0.1301
313.3469	0.133
313.5583	0.1343
313.7696	0.1273
313.981	0.1291
314.1924	0.1313
314.4037	0.1219
314.6151	0.1248
314.8264	0.1259
315.0377	0.127
315.249	0.125
315.4603	0.124
315.6716	0.1253
315.8828	0.1247
316.0941	0.1256
316.3053	0.1274
316.5165	0.1238
316.7277	0.1277
316.9389	0.1195
317.1501	0.1156
317.3613	0.1181
317.5724	0.1182
317.7836	0.1221
317.9947	0.1107
318.2058	0.1185
318.417	0.114
318.6281	0.1182
318.8391	0.122
319.0502	0.1179
319.2613	0.1176
319.4723	0.1186
319.6834	0.1214
319.8944	0.1226
320.1054	0.1161
320.3164	0.121
320.5274	0.1102
320.7383	0.1133
320.9493	0.1201
321.1602	0.114
321.3712	0.119
321.5821	0.118
321.793	0.1152
322.0039	0.1133
322.2148	0.1199
322.4257	0.1207
322.6365	0.1167
322.8474	0.1071
323.0582	0.1176
323.269	0.1147
323.4798	0.1167
323.6906	0.1172
323.9014	0.1103
324.1122	0.1134
324.3229	0.1189
324.5337	0.1139
324.7444	0.1175
324.9551	0.1207
325.1658	0.1142
325.3765	0.1207
325.5872	0.1201
325.7979	0.1187
326.0085	0.1156
326.2192	0.1167
326.4298	0.1244
326.6404	0.1176
326.851	0.1211
327.0616	0.1227
327.2722	0.1264
327.4828	0.1222
327.6933	0.1186
327.9039	0.1205
328.1144	0.1188
328.3249	0.12
328.5354	0.1184
328.7459	0.1211
328.9564	0.1279
329.1669	0.1224
329.3773	0.1225
329.5878	0.1235
329.7982	0.1201
330.0086	0.1217
330.219	0.1236
330.4294	0.12
330.6398	0.1257
330.8502	0.1216
331.0605	0.1275
331.2708	0.1278
331.4812	0.1266
331.6915	0.1209
331.9018	0.1218
332.1121	0.1283
332.3224	0.1227
332.5326	0.1204
332.7429	0.1202
332.9531	0.1224
333.1633	0.1214
333.3735	0.1234
333.5837	0.1269
333.7939	0.128
334.0041	0.1252
334.2143	0.1212
334.4244	0.1191
334.6346	0.1281
334.8447	0.1269
335.0548	0.124
335.2649	0.1308
335.475	0.123
335.685	0.124
335.8951	0.1305
336.1051	0.1302
336.3152	0.1363
336.5252	0.1265
336.7352	0.1185
336.9452	0.1279
337.1552	0.1297
337.3652	0.1231
337.5751	0.1241
337.7851	0.13
337.995	0.1327
338.2049	0.1291
338.4148	0.1307
338.6247	0.1333
338.8346	0.1258
339.0445	0.1345
339.2543	0.1345
339.4642	0.1384
339.674	0.1371
339.8838	0.1352
340.0936	0.1364
340.3034	0.1399
340.5132	0.133
340.7229	0.1337
340.9327	0.1372
341.1424	0.1368
341.3522	0.138
341.5619	0.1346
341.7716	0.1364
341.9813	0.1433
342.1909	0.1449
342.4006	0.1461
342.6102	0.1403
342.8199	0.134
343.0295	0.1452
343.2391	0.1411
343.4487	0.1425
343.6583	0.145
343.8679	0.1465
344.0774	0.1422
344.287	0.1413
344.4965	0.1484
344.706	0.1524
344.9155	0.1401
345.125	0.1471
345.3345	0.1479
345.544	0.1523
345.7534	0.1544
345.9629	0.1518
346.1723	0.1571
346.3817	0.151
346.5911	0.148
346.8005	0.149
347.0099	0.149
347.2193	0.1503
347.4286	0.1541
347.638	0.1564
347.8473	0.1569
348.0566	0.1608
348.2659	0.1606
348.4752	0.1572
348.6845	0.1613
348.8937	0.163
349.103	0.1528
349.3122	0.1623
349.5214	0.1601
349.7306	0.1573
349.9398	0.1641
350.149	0.1665
350.3582	0.1564
350.5674	0.1679
350.7765	0.1706
350.9856	0.1645
351.1948	0.164
351.4039	0.167
351.613	0.1707
351.822	0.1592
352.0311	0.1714
352.2402	0.1753
352.4492	0.1699
352.6582	0.1699
352.8672	0.1741
353.0762	0.1737
353.2852	0.1696
353.4942	0.1723
353.7032	0.1734
353.9121	0.1768
354.1211	0.1683
354.33	0.177
354.5389	0.177
354.7478	0.1787
354.9567	0.1743
355.1655	0.1768
355.3744	0.1739
355.5833	0.1849
355.7921	0.1702
356.0009	0.181
356.2097	0.1884
356.4185	0.1944
356.6273	0.1837
356.8361	0.193
357.0448	0.1909
357.2536	0.1829
357.4623	0.1853
357.671	0.1773
357.8797	0.1944
358.0884	0.1874
358.2971	0.2014
358.5057	0.1861
358.7144	0.2064
358.923	0.194
359.1316	0.192
359.3402	0.1981
359.5488	0.1988
359.7574	0.1994
359.966	0.2081
360.1746	0.1951
360.3831	0.2049
360.5916	0.2067
360.8002	0.2067
361.0087	0.2124
361.2172	0.2176
361.4256	0.2033
361.6341	0.2087
361.8426	0.2086
362.051	0.2029
362.2594	0.2153
362.4678	0.2141
362.6762	0.22
362.8846	0.2256
363.093	0.2134
363.3014	0.2219
363.5097	0.2191
363.718	0.2224
363.9264	0.2199
364.1347	0.2273
364.343	0.2275
364.5513	0.2274
364.7595	0.235
364.9678	0.2307
365.176	0.2263
365.3842	0.2278
365.5925	0.2238
365.8007	0.2335
366.0089	0.2308
366.217	0.2389
366.4252	0.2359
366.6333	0.2332
366.8415	0.24
367.0496	0.2412
367.2577	0.2449
367.4658	0.2544
367.6739	0.2382
367.882	0.2498
368.09	0.2483
368.2981	0.2346
368.5061	0.2459
368.7141	0.2428
368.9221	0.2547
369.1301	0.2568
369.3381	0.2547
369.5461	0.256
369.754	0.2461
369.962	0.2513
370.1699	0.2627
370.3778	0.2491
370.5857	0.2565
370.7936	0.2576
371.0015	0.2565
371.2093	0.2589
371.4172	0.2589
371.625	0.2727
371.8328	0.2697
372.0406	0.2724
372.2484	0.2642
372.4562	0.2675
372.664	0.2709
372.8717	0.2696
373.0795	0.2734
373.2872	0.2677
373.4949	0.2882
373.7026	0.278
373.9103	0.2639
374.118	0.2692
374.3256	0.2825
374.5333	0.2722
374.7409	0.2663
374.9485	0.2736
375.1561	0.2787
375.3637	0.2803
375.5713	0.2749
375.7789	0.2728
375.9864	0.2816
376.194	0.2778
376.4015	0.2828
376.609	0.2869
376.8165	0.2892
377.024	0.2911
377.2315	0.2909
377.4389	0.2787
377.6464	0.2867
377.8538	0.2986
378.0612	0.2877
378.2686	0.2919
378.476	0.2892
378.6834	0.2851
378.8908	0.2987
379.0981	0.3081
379.3055	0.2956
379.5128	0.2985
379.7201	0.2952
379.9274	0.2979
380.1347	0.2991
380.342	0.3087
380.5492	0.2912
380.7565	0.2938
380.9637	0.2931
381.1709	0.2954
381.3781	0.3045
381.5853	0.3175
381.7925	0.3151
381.9997	0.3106
382.2068	0.2971
382.4139	0.3138
382.6211	0.2945
382.8282	0.3055
383.0353	0.3111
383.2424	0.3103
383.4494	0.3143
383.6565	0.3126
383.8635	0.3204
384.0706	0.3148
384.2776	0.3247
384.4846	0.3085
384.6916	0.3079
384.8986	0.3134
385.1055	0.3157
385.3125	0.3109
385.5194	0.3039
385.7263	0.3088
385.9333	0.3171
386.1402	0.3232
386.347	0.3147
386.5539	0.3185
386.7608	0.32
386.9676	0.3162
387.1744	0.3147
387.3813	0.3114
387.5881	0.3106
387.7948	0.3152
388.0016	0.3099
388.2084	0.3098
388.4151	0.3075
388.6219	0.315
388.8286	0.3131
389.0353	0.3041
389.242	0.2967
389.4487	0.309
389.6553	0.29
389.862	0.3123
390.0686	0.312
390.2753	0.2994
390.4819	0.3065
390.6885	0.3039
390.8951	0.311
391.1016	0.2998
391.3082	0.2979
391.5147	0.3018
391.7213	0.3027
391.9278	0.2971
392.1343	0.2955
392.3408	0.286
392.5473	0.2888
392.7537	0.2924
392.9602	0.2894
393.1666	0.2933
393.373	0.293
393.5794	0.2887
393.7858	0.2918
393.9922	0.2843
394.1986	0.2855
394.4049	0.2839
394.6113	0.2789
394.8176	0.2701
395.0239	0.2748
395.2302	0.2686
395.4365	0.2728
395.6428	0.2783
395.8491	0.2762
396.0553	0.2796
396.2615	0.2819
396.4678	0.2845
396.674	0.2739
396.8802	0.2721
397.0863	0.2637
397.2925	0.2694
397.4987	0.2655
397.7048	0.2813
397.9109	0.2728
398.117	0.2687
398.3231	0.2779
398.5292	0.2713
398.7353	0.2764
398.9413	0.2694
399.1474	0.2757
399.3534	0.2687
399.5594	0.2663
399.7654	0.2671
399.9714	0.2575
400.1774	0.2715
400.3833	0.2727
400.5893	0.2641
400.7952	0.2653
401.0011	0.2556
401.207	0.2734
401.4129	0.2626
401.6188	0.2568
401.8247	0.2684
402.0305	0.2708
402.2364	0.2717
402.4422	0.2711
402.648	0.2759
402.8538	0.2731
403.0596	0.2628
403.2654	0.2668
403.4711	0.2558
403.6768	0.2717
403.8826	0.2642
404.0883	0.2585
404.294	0.2707
404.4997	0.2754
404.7054	0.2656
404.911	0.2679
405.1167	0.2741
405.3223	0.2747
405.5279	0.2707
405.7335	0.2606
405.9391	0.2578
406.1447	0.2725
406.3502	0.2678
406.5558	0.2777
406.7613	0.268
406.9668	0.2669
407.1724	0.2743
407.3778	0.2691
407.5833	0.2591
407.7888	0.273
407.9942	0.2725
408.1997	0.2564
408.4051	0.2615
408.6105	0.2721
408.8159	0.2688
409.0213	0.277
409.2267	0.2621
409.432	0.2794
409.6374	0.2673
409.8427	0.275
410.048	0.2573
410.2533	0.2601
410.4586	0.2671
410.6639	0.265
410.8691	0.2772
411.0744	0.2638
411.2796	0.2722
411.4848	0.2655
411.69	0.26
411.8952	0.2709
412.1004	0.2542
412.3056	0.2679
412.5107	0.2729
412.7158	0.2681
412.921	0.2625
413.1261	0.2679
413.3312	0.2603
413.5362	0.2634
413.7413	0.2604
413.9464	0.2644
414.1514	0.269
414.3564	0.2596
414.5614	0.2632
414.7664	0.2627
414.9714	0.2676
415.1764	0.2523
415.3813	0.2443
415.5863	0.2692
415.7912	0.2632
415.9961	0.2604
416.201	0.2664
416.4059	0.2581
416.6108	0.2515
416.8156	0.2469
417.0205	0.2591
417.2253	0.2607
417.4301	0.2597
417.6349	0.2569
417.8397	0.2662
418.0445	0.2627
418.2492	0.2618
418.454	0.2617
418.6587	0.2536
418.8634	0.2578
419.0681	0.2574
419.2728	0.2579
419.4775	0.255
419.6822	0.2565
419.8868	0.2503
420.0915	0.2566
420.2961	0.2525
420.5007	0.249
420.7053	0.2565
420.9099	0.2393
421.1144	0.2458
421.319	0.2472
421.5235	0.2401
421.728	0.2339
421.9325	0.2492
422.137	0.2413
422.3415	0.2367
422.546	0.2454
422.7504	0.2433
422.9549	0.2409
423.1593	0.2398
423.3637	0.2417
423.5681	0.2472
423.7725	0.2372
423.9769	0.2448
424.1812	0.2441
424.3856	0.2414
424.5899	0.2296
424.7942	0.2308
424.9985	0.2383
425.2028	0.2366
425.4071	0.2173
425.6113	0.2268
425.8156	0.227
426.0198	0.2272
426.224	0.2226
426.4282	0.2168
426.6324	0.2147
426.8366	0.2269
427.0407	0.2234
427.2449	0.227
427.449	0.2204
427.6531	0.2156
427.8572	0.2111
428.0613	0.2146
428.2654	0.2184
428.4694	0.2126
428.6735	0.2055
428.8775	0.2154
429.0815	0.2026
429.2855	0.1983
429.4895	0.2041
429.6935	0.2013
429.8975	0.2042
430.1014	0.2091
430.3053	0.1828
430.5093	0.1958
430.7132	0.2018
430.9171	0.1907
431.1209	0.1868
431.3248	0.1886
431.5286	0.1853
431.7325	0.192
431.9363	0.1873
432.1401	0.1874
432.3439	0.1793
432.5477	0.1798
432.7514	0.1703
432.9552	0.1746
433.1589	0.1723
433.3627	0.1743
433.5664	0.1709
433.7701	0.1721
433.9737	0.1698
434.1774	0.1685
434.3811	0.1664
434.5847	0.1636
434.7883	0.157
434.9919	0.1506
435.1955	0.1486
435.3991	0.1527
435.6027	0.1466
435.8062	0.1529
436.0098	0.1505
436.2133	0.1541
436.4168	0.1438
436.6203	0.1372
436.8238	0.1463
437.0272	0.1307
437.2307	0.1275
437.4341	0.1382
437.6375	0.1382
437.841	0.1321
438.0443	0.1316
438.2477	0.1335
438.4511	0.1281
438.6545	0.1261
438.8578	0.1319
439.0611	0.1267
439.2644	0.1208
439.4677	0.1223
439.671	0.1172
439.8743	0.1049
440.0775	0.1118
440.2808	0.1296
440.484	0.106
440.6872	0.1087
440.8904	0.1143
441.0936	0.1077
441.2967	0.0999
441.4999	0.1039
441.703	0.1034
441.9062	0.106
442.1093	0.0988
442.3124	0.1072
442.5155	0.0972
442.7185	0.0832
442.9216	0.0932
443.1246	0.0969
443.3276	0.0853
443.5307	0.0832
443.7337	0.0826
443.9366	0.0919
444.1396	0.0817
444.3426	0.0849
444.5455	0.076
444.7484	0.076
444.9513	0.083
445.1542	0.0685
445.3571	0.0723
445.56	0.0778
445.7628	0.0665
445.9657	0.0752
446.1685	0.0811
446.3713	0.0726
446.5741	0.0601
446.7769	0.0776
446.9797	0.0679
447.1824	0.0615
447.3852	0.0614
447.5879	0.0635
447.7906	0.0616
447.9933	0.0652
448.196	0.049
448.3986	0.0492
448.6013	0.0537
448.8039	0.0521
449.0066	0.0569
449.2092	0.0517
449.4118	0.0464
449.6143	0.0562
449.8169	0.0522
450.0195	0.0539
450.222	0.0563
450.4245	0.0467
450.627	0.0425
450.8295	0.0485
451.032	0.0479
451.2345	0.0429
451.4369	0.0355
451.6394	0.0398
451.8418	0.0372
452.0442	0.045
452.2466	0.0386
452.449	0.0371
452.6513	0.0369
452.8537	0.0408
453.056	0.0354
453.2583	0.0426
453.4607	0.0267
453.663	0.0405
453.8652	0.0368
454.0675	0.0401
454.2697	0.0247
454.472	0.0325
454.6742	0.025
454.8764	0.0249
455.0786	0.0277
455.2808	0.0333
455.4829	0.0247
455.6851	0.0277
455.8872	0.0304
456.0893	0.0268
456.2915	0.0169
456.4935	0.0298
456.6956	0.0246
456.8977	0.0253
457.0997	0.0191
457.3018	0.0276
457.5038	0.0236
457.7058	0.0144
457.9078	0.0281
458.1098	0.016
458.3117	0.0224
458.5137	0.0283
458.7156	0.0256
458.9175	0.0113
459.1194	0.0219
459.3213	0.0184
459.5232	0.011
459.725	0.0258
459.9269	0.0232
460.1287	0.0091
460.3305	0.0169
460.5323	0.0253
460.7341	0.0107
460.9359	0.008
461.1376	0.0124
461.3394	0.0073
461.5411	0.0193
461.7428	0.0223
461.9445	0.0156
462.1462	0.0117
462.3479	0.013
462.5495	0.0069
462.7512	0.0161
462.9528	0.0099
463.1544	0.0074
463.356	0.0064
463.5576	0.0064
463.7592	0.0016
463.9607	0.0088
464.1623	0.0233
464.3638	0.0157
464.5653	0.0121
464.7668	0.0073
464.9683	0.0216
465.1697	0.0122
465.3712	0.0127
465.5726	0.011
465.7741	0.0152
465.9755	0.0107
466.1769	0.0072
466.3782	0.0119
466.5796	0.019
466.7809	0.0248
466.9823	0.0134
467.1836	0.0114
467.3849	0.0124
467.5862	-0.003
467.7875	0.0141
467.9887	0.0189
468.19	0.005
468.3912	0.0062
468.5924	0.0163
468.7936	0.0104
468.9948	0.0172
469.196	0.0068
469.3972	0.021
469.5983	0.0034
469.7994	0.0059
470.0006	0.0066
470.2017	0.0067
470.4027	0.0074
470.6038	-0.0015
470.8049	0.0061
471.0059	0.0131
471.2069	0.0135
471.408	0.0022
471.6089	0.0088
471.8099	0.006
472.0109	0.0013
472.2119	0.0164
472.4128	0.0187
472.6137	0.0087
472.8146	0.0084
473.0155	-0.0013
473.2164	-0.0002
473.4173	0.0116
473.6181	0.0082
473.819	0.0033
474.0198	0.0079
474.2206	0.0065
474.4214	0.0184
474.6222	0.0142
474.8229	0.0011
475.0237	0.0057
475.2244	0.0117
475.4251	0.0051
475.6258	0.0036
475.8265	0.0009
476.0272	0.0027
476.2278	0.0043
476.4285	0.0069
476.6291	0.015
476.8297	0.0019
477.0303	0.011
477.2309	-0.0044
477.4315	0.0092
477.632	0.0001
477.8326	-0.0008
478.0331	0.0036
478.2336	0.0133
478.4341	0.0087
478.6346	0.0076
478.8351	0.0154
479.0355	-0.003
479.236	-0.0037
479.4364	0.0042
479.6368	0.0071
479.8372	0.0078
480.0376	-0.0004
480.2379	0.0073
480.4383	-0.005
480.6386	-0.0035
480.8389	0.0057
481.0392	0.0055
481.2395	0.0111
481.4398	0.0042
481.6401	0.0014
481.8403	-0.0038
482.0405	0.0018
482.2408	0.0045
482.441	0.0036
482.6411	0.0076
482.8413	-0.0076
483.0415	0.0165
483.2416	-0.0039
483.4417	-0.0033
483.6419	0.0015
483.8419	0.0087
484.042	0.0027
484.2421	-0.0038
484.4422	0.0058
484.6422	0.0091
484.8422	0.0066
485.0422	0.0005
485.2422	0.0029
485.4422	-0.0014
485.6422	-0.0013
485.8421	-0.0012
486.042	0.0049
486.242	0.0017
486.4419	0.0036
486.6417	0.0054
486.8416	0.0067
487.0415	-0.0038
487.2413	0.0059
487.4411	0.0079
487.641	0.0116
487.8408	0.0024
488.0405	0.004
488.2403	-0.0058
488.4401	-0.0073
488.6398	0.0072
488.8395	0.0085
489.0392	0.004
489.2389	0.0008
489.4386	0.0086
489.6383	0.0069
489.8379	-0.0045
490.0376	0.0078
490.2372	0.0047
490.4368	0.0059
490.6364	0.0095
490.836	-0.0029
491.0355	0.0049
491.2351	0.007
491.4346	0.0076
491.6341	0.0048
491.8336	0.0006
492.0331	-0.0025
492.2326	0.004
492.432	0.0011
492.6315	-0.005
492.8309	0.0028
493.0303	0.0001
493.2297	-0.0042
493.4291	-0.0072
493.6284	-0.0009
493.8278	0.0032
494.0271	0.0041
494.2264	0.0059
494.4257	0.0013
494.625	0.0016
494.8243	0.0058
495.0236	0.0024
495.2228	-0.0007
495.422	0.0054
495.6213	0.0002
495.8205	0.0016
496.0196	0.0092
496.2188	0.0054
496.418	-0.0086
496.6171	-0.0024
496.8162	0.002
497.0153	-0.0006
497.2144	-0.006
497.4135	0.0054
497.6126	-0.0102
497.8116	-0.0021
498.0107	-0.0068
498.2097	0.0023
498.4087	0.001
498.6077	0.0055
498.8067	0.0067
499.0056	0.0006
499.2046	0.0032
499.4035	0.0015
499.6024	-0.0048
499.8013	0.0048
500.0002	0.0049
500.199	0.0068
500.3979	0.0088
500.5967	-0.0058
500.7956	-0.0005
500.9944	0.0047
501.1932	-0.0025
501.3919	0.0056
501.5907	0.0019
501.7895	-0.0034
501.9882	-0.0013
502.1869	0.0023
502.3856	-0.0015
502.5843	0.0018
502.783	0.004
502.9816	-0.0044
503.1803	0.0086
503.3789	0.0068
503.5775	0.0021
503.7761	-0.0049
503.9747	-0.0015
504.1732	-0.0034
504.3718	-0.0032
504.5703	-0.0033
504.7689	-0.005
504.9674	-0.0043
505.1658	0.0003
505.3643	0.0039
505.5628	0.0086
505.7612	0.0086
505.9597	0.005
506.1581	-0.0085
506.3565	-0.0079
506.5549	0.0068
506.7532	0.0015
506.9516	0.0035
507.1499	-0.0021
507.3482	0.0082
507.5465	-0.0039
507.7448	0.0034
507.9431	-0.0005
508.1414	-0.0055
508.3396	0.0025
508.5379	0.004
508.7361	0.0117
508.9343	-0.004
509.1325	0.0025
509.3306	-0.0016
509.5288	0.0122
509.7269	0.0018
509.9251	-0.0032
510.1232	-0.0093
510.3213	0.0004
510.5193	0.0067
510.7174	-0.0006
510.9154	0.01
511.1135	0.0014
511.3115	-0.0017
511.5095	0.0005
511.7075	-0.0004
511.9055	0.0031
512.1034	0.0068
512.3014	-0.0053
512.4993	-0.0003
512.6972	-0.0054
512.8951	0.0052
513.093	-0.0018
513.2908	-0.0014
513.4887	0.0116
513.6865	-0.0053
513.8844	0.0071
514.0822	0.0138
514.2799	-0.0012
514.4777	0.005
514.6755	0.0042
514.8732	-0.0075
515.0709	0.0084
515.2687	-0.0038
515.4664	-0.0067
515.664	0.0127
515.8617	0.0111
516.0594	0.0064
516.257	0.0119
516.4546	0.0043
516.6522	0.0068
516.8498	0.0051
517.0474	0.0059
517.2449	-0.0008
517.4425	-0.0079
517.64	0.0142
517.8375	0.0037
518.035	-0.0028
518.2325	-0.0038
518.43	0.0076
518.6274	0.0001
518.8249	0.0084
519.0223	-0.0037
519.2197	0.0016
519.4171	0.0003
519.6145	0.0039
519.8118	-0.0013
520.0092	0.0003
520.2065	0.0034
520.4038	-0.0023
520.6011	0.0091
520.7984	0.0056
520.9956	-0.0013
521.1929	0.0122
521.3901	0.0038
521.5874	-0.0011
521.7846	0.0099
521.9818	-0.004
522.1789	0.0087
522.3761	0.0027
522.5732	0.0022
522.7704	0.0042
522.9675	0.0039
523.1646	0.0125
523.3617	0.0007
523.5587	-0.004
523.7558	0.0054
523.9528	0.0064
524.1498	0.0018
524.3468	-0.001
524.5438	-0.0021
524.7408	0.0002
524.9378	0.0091
525.1347	-0.0008
525.3316	0.0061
525.5285	-0.0036
525.7254	0.003
525.9223	-0.003
526.1192	-0.0004
526.316	-0.0055
526.5129	0.0051
526.7097	0.0066
526.9065	0.0044
527.1033	0.003
527.3	-0.0046
527.4968	-0.0044
527.6935	-0.0012
527.8903	0.0097
528.087	-0.005
528.2837	0.003
528.4804	0.009
528.677	0.0085
528.8737	-0.0031
529.0703	0.0079
529.2669	-0.0002
529.4635	0.0047
529.6601	0.0009
529.8567	0.0007
530.0532	0.0031
530.2498	-0.0044
530.4463	0.0063
530.6428	-0.0126
530.8393	0.0022
531.0358	-0.0006
531.2322	-0.0007
531.4287	0.0087
531.6251	0.0005
531.8215	0.0038
532.0179	-0.0041
532.2143	0.0077
532.4107	0.0026
532.607	0.0008
532.8034	0.0022
532.9997	0.0049
533.196	0.0112
533.3923	-0.0056
533.5886	-0.0009
533.7848	-0.0102
533.9811	-0.0011
534.1773	0.0016
534.3735	0.0076
534.5697	-0.0007
534.7659	0.0023
534.9621	0.0119
535.1582	0.0001
535.3544	0.0122
535.5505	0.003
535.7466	0.0021
535.9427	-0.0078
536.1387	0.0054
536.3348	0.0126
536.5308	0.02
536.7269	-0.0036
536.9229	-0.0035
537.1189	-0.0012
537.3148	-0.0112
537.5108	-0.0007
537.7068	0.0041
537.9027	0.0004
538.0986	-0.004
538.2945	-0.0003
538.4904	-0.0022
538.6863	0.0226
538.8821	-0.0117
539.078	-0.0016
539.2738	-0.0141
539.4696	0.0052
539.6654	0.0016
539.8611	-0.0062
540.0569	0.0079
540.2526	0.0011
540.4484	-0.0065
540.6441	0.0006
540.8398	0.0048
541.0355	0.0079
541.2311	0.0014
541.4268	-0.0005
541.6224	0.0044
541.818	-0.0066
542.0136	-0.0034
542.2092	0.0034
542.4048	0.0044
542.6003	-0.0013
542.7959	0.0021
542.9914	0.0003
543.1869	0.0044
543.3824	0.012
543.5779	0.0068
543.7734	-0.0011
543.9688	0.0076
544.1642	0.0072
544.3596	-0.0004
544.555	0.0123
544.7504	-0.0055
544.9458	-0.0013
545.1411	-0.0084
545.3365	0.0023
545.5318	-0.0023
545.7271	0.0036
545.9224	-0.007
546.1177	0.0109
546.3129	-0.0136
546.5081	-0.0083
546.7034	-0.0088
546.8986	-0.0038
547.0938	0.0043
547.289	0.0015
547.4841	-0.0005
547.6793	-0.0102
547.8744	-0.003
548.0695	-0.0057
548.2646	-0.0061
548.4597	0.0015
548.6548	0.0007
548.8498	0.0011
549.0448	0.0003
549.2399	0.0013
549.4349	0.0061
549.6298	-0.0038
549.8248	-0.0057
550.0198	0.0094
550.2147	-0.005
550.4096	-0.0002
550.6045	0.0058
550.7994	0.0053
550.9943	0.0009
551.1892	-0.0019
551.384	0.0064
551.5788	0.0069
551.7737	-0.0047
551.9685	0.0048
552.1632	0.001
552.358	0.0036
552.5528	-0.0018
552.7475	-0.0029
552.9422	-0.0039
553.1369	0.0058
553.3316	-0.0026
553.5263	-0.0064
553.7209	-0.005
553.9156	0.0078
554.1102	0.0076
554.3048	0.0139
554.4994	0.0009
554.694	0.0088
554.8885	0.0045
555.0831	-0.0025
555.2776	-0
555.4721	-0.0075
555.6666	0.008
555.8611	-0.0065
556.0555	0.0134
556.25	-0.0014
556.4444	0.0057
556.6388	-0.0062
556.8332	0.0033
557.0276	0.0064
557.222	-0.0047
557.4163	0.0049
557.6107	-0.0054
557.805	-0.0065
557.9993	0.002
558.1936	0.0126
558.3879	0.0082
558.5821	0.0002
558.7764	0.0054
558.9706	-0.0085
559.1648	0.0005
559.359	0.0091
559.5532	-0.0056
559.7473	0.0071
559.9415	0.0076
560.1356	0.0062
560.3297	-0.0007
560.5238	0.0074
560.7179	-0.0018
560.9119	0.0075
561.106	-0.003
561.3	-0.003
561.494	0.0057
561.688	-0.0109
561.882	0.0043
562.076	0.0143
562.2699	0.005
562.4639	0.003
562.6578	0.0033
562.8517	-0.0006
563.0456	-0.0036
563.2395	-0.0037
563.4333	0.0032
563.6272	0.0142
563.821	0.0059
564.0148	0.0048
564.2086	0.0034
564.4024	0.0004
564.5961	0.0017
564.7899	0.0045
564.9836	0.0001
565.1773	0.0037
565.371	-0.0007
565.5647	-0.0096
565.7584	-0.0008
565.952	0.0004
566.1456	-0.0005
566.3393	0.0074
566.5329	-0.0049
566.7264	0.0025
566.92	0
567.1136	-0.004
567.3071	0.0024
567.5006	-0.0101
567.6941	0.0045
567.8876	-0.0057
568.0811	-0.0095
568.2745	-0.0081
568.468	0.0097
568.6614	0.0011
568.8548	-0.0033
569.0482	0.0069
569.2416	-0.0024
569.4349	-0.0008
569.6283	0.0001
569.8216	-0.0021
570.0149	0.0025
570.2082	-0.0048
570.4015	0.0025
570.5947	-0.0011
570.788	0.0034
570.9812	-0.0002
571.1744	-0.0026
571.3676	-0.0045
571.5608	-0.0044
571.754	-0.0078
571.9471	0.0024
572.1402	0.0035
572.3333	-0.0011
572.5264	0.0114
572.7195	0.0016
572.9126	-0.0028
573.1057	-0.0005
573.2987	0.0002
573.4917	0.0038
573.6847	-0.0005
573.8777	-0.0027
574.0707	-0.0011
574.2636	0.0011
574.4566	-0.0013
574.6495	0.0085
574.8424	0.0028
575.0353	-0.0021
575.2281	0.0004
575.421	-0.0022
575.6138	-0.0039
575.8067	0.0017
575.9995	0.0004
576.1923	0.0051
576.385	-0.0036
576.5778	-0.0052
576.7706	-0.0025
576.9633	0.0034
577.156	0.0017
577.3487	-0.0007
577.5414	-0.0018
577.734	0.0006
577.9267	-0.0019
578.1193	-0.0002
578.3119	-0.0046
578.5045	-0.0021
578.6971	0.0018
578.8897	-0.0045
579.0822	0.0031
579.2747	-0.0042
579.4673	-0.002
579.6598	-0.0003
579.8522	0.0041
580.0447	-0.0036
580.2372	0.0043
580.4296	-0.0019
580.622	0.0014
580.8144	-0.0002
581.0068	0.0035
581.1992	0.0018
581.3915	0.0004
581.5839	0.0045
581.7762	0.0014
581.9685	-0.0035
582.1608	0.001
582.353	-0.003
582.5453	0.0037
582.7375	0.0006
582.9298	-0.0016
583.122	-0.001
583.3142	0.0058
583.5063	-0.001
583.6985	0.0014
583.8906	-0.0039
584.0827	-0.0016
584.2749	0.0008
584.4669	0.0033
584.659	-0.0018
584.8511	0.0008
585.0431	0.0006
585.2352	-0.0057
585.4272	-0.0026
585.6192	0.0022
585.8111	-0.0033
586.0031	-0.0013
586.195	0.0016
586.387	0.0019
586.5789	0.0026
586.7708	-0.0021
586.9627	-0.0002
587.1545	-0.0009
587.3464	0.0034
587.5382	-0.0019
587.73	0.0019
587.9218	-0.0027
588.1136	-0.0015
588.3053	-0.0022
588.4971	-0.0044
588.6888	0.006
588.8805	0.0072
589.0722	0.0019
589.2639	-0.0031
589.4556	-0.0047
589.6472	0.0003
589.8389	-0.0018
590.0305	0.0033
590.2221	0.0024
590.4137	-0.0035
590.6052	0
590.7968	0.0064
590.9883	0.0012
591.1798	-0.0007
591.3713	-0.0012
591.5628	-0.0032
591.7543	0.0005
591.9458	-0.0003
592.1372	-0.0003
592.3286	-0.0029
592.52	-0.0008
592.7114	-0.0024
592.9028	-0.001
593.0941	-0.0013
593.2855	-0.0036
593.4768	0.001
593.6681	-0.0029
593.8594	-0.0023
594.0506	-0.0012
594.2419	-0.0039
594.4331	-0.0001
594.6244	0.0068
594.8156	0.0004
595.0067	-0.0027
595.1979	-0.0071
595.3891	-0.0014
595.5802	0.0015
595.7713	0.0044
595.9624	0.0053
596.1535	0.0068
596.3446	-0.0041
596.5357	-0.0014
596.7267	0.0021
596.9177	-0.0034
597.1087	0.0003
597.2997	0.0079
597.4907	0.005
597.6817	0.0022
597.8726	0.0073
598.0635	0.0004
598.2544	-0.0037
598.4453	-0.0047
598.6362	-0.0095
598.827	0.0024
599.0179	-0.0016
599.2087	-0.0044
599.3995	0.001
599.5903	0.0029
599.7811	-0.0019
599.9718	0.0048
600.1626	0.005
600.3533	0.0002
600.544	0.0028
600.7347	0.0009
600.9254	-0.0004
601.116	0.0028
601.3067	0.0066
601.4973	0.0064
601.6879	-0.004
601.8785	-0.0005
602.0691	0.0037
602.2596	-0.0032
602.4502	0.0017
602.6407	0.0015
602.8312	0.0058
603.0217	0.0038
603.2122	0.0014
603.4027	-0.0045
603.5931	0.0023
603.7835	-0.0037
603.9739	0.0007
604.1643	0.0079
604.3547	0.0075
604.5451	0.0029
604.7354	-0.0007
604.9257	-0.0018
605.116	0.0024
605.3063	0.0046
605.4966	-0.0022
605.6869	-0.0006
605.8771	0.0041
606.0673	-0.002
606.2575	-0.0093
606.4477	-0.0007
606.6379	-0.001
606.8281	-0.0055
607.0182	-0.0036
607.2083	-0.0038
607.3985	-0.0006
607.5885	-0.0006
607.7786	0.0061
607.9687	-0.0041
608.1587	-0.0009
608.3488	0.0006
608.5388	0.0015
608.7288	-0.0036
608.9187	0.0109
609.1087	-0.0009
609.2986	-0.0003
609.4886	0.0073
609.6785	0.0075
609.8684	-0.0009
610.0582	0.002
610.2481	0.0023
610.4379	0.0006
610.6278	-0.0009
610.8176	-0.0037
611.0074	-0.005
611.1971	-0.0006
611.3869	0.0024
611.5766	0.0025
611.7664	0.0069
611.9561	0.0004
612.1458	-0.0009
612.3354	0.0066
612.5251	-0.0052
612.7147	0.0073
612.9044	-0.0031
613.094	-0.0038
613.2836	-0.0061
613.4731	-0.0022
613.6627	0.0054
613.8522	-0.0015
614.0417	0.0029
614.2313	0.0004
614.4207	0.0091
614.6102	-0.0063
614.7997	0.0034
614.9891	0.0003
615.1785	0.0018
615.3679	0.0004
615.5573	-0.0072
615.7467	-0.0038
615.9361	-0.0047
616.1254	-0.0005
616.3147	0.0024
616.504	-0.0072
616.6933	-0.0087
616.8826	0.0047
617.0718	-0.0049
617.2611	-0.0013
617.4503	-0.0032
617.6395	0.0027
617.8287	0.0034
618.0179	-0.0004
618.207	-0.0019
618.3961	-0.0015
618.5853	0.001
618.7744	0.0036
618.9634	-0.0048
619.1525	-0.0003
619.3416	-0.0116
619.5306	-0.0058
619.7196	-0.0055
619.9086	0.0079
620.0976	0.0037
620.2866	0.0024
620.4755	0.0071
620.6645	-0.002
620.8534	-0.005
621.0423	-0.0008
621.2312	-0.0074
621.42	0.0018
621.6089	0.0055
621.7977	0.0009
621.9865	0.0123
622.1753	0.0002
622.3641	-0.0119
622.5529	-0.0064
622.7416	-0.0028
622.9303	-0.0066
623.1191	0.0003
623.3078	0.0053
623.4964	0.0013
623.6851	0.0027
623.8737	0.0061
624.0624	-0.0061
624.251	0.0045
624.4396	0.0037
624.6282	0.0028
624.8167	0.0062
625.0053	-0.0064
625.1938	-0.0046
625.3823	-0.0093
625.5708	-0.0082
625.7593	-0.0034
625.9477	-0.008
626.1362	-0.0022
626.3246	-0.0075
626.513	-0.0003
626.7014	-0.0051
626.8898	0.0053
627.0781	0.0008
627.2665	0.0141
627.4548	-0.0061
627.6431	-0.017
627.8314	0.0048
628.0197	0.0099
628.2079	-0.0152
628.3962	-0.0094
628.5844	0.0158
628.7726	-0.0032
628.9608	0.0078
629.1489	0.0053
629.3371	-0.0006
629.5252	0.0017
629.7134	0.0064
629.9015	-0.0101
630.0895	0.0043
630.2776	-0.0039
630.4657	0.006
630.6537	0.0009
630.8417	0.0001
631.0297	0.0155
631.2177	-0.0006
631.4057	-0.01
631.5936	-0.0059
631.7815	-0.0057
631.9695	0.0198
632.1574	0.0008
632.3452	-0.002
632.5331	0.009
632.7209	0.0256
632.9088	0.0114
633.0966	0.0123
633.2844	-0.007
633.4722	0.019
633.6599	-0.0151
633.8477	0.0019
634.0354	0.0045
634.2231	0.0155
634.4108	0.0035
634.5985	-0.0093
634.7861	0.0014
634.9738	-0.0032
635.1614	0.0129
635.349	-0.0251
635.5366	0.0061
635.7242	0.005
635.9117	0.0164
636.0993	-0.0067
636.2868	-0.0026
636.4743	0.0038
636.6618	0.002
636.8492	-0.0028
637.0367	0.0006
637.2241	0.0068
637.4115	0.0046
637.5989	0.0102
637.7863	-0.016
637.9737	-0.0016
638.161	-0.0091
638.3484	0.0155
638.5357	0.0063
638.723	-0.0099
638.9103	-0.0024
639.0975	0.0016
639.2848	0.0154
639.472	-0.0158
639.6592	0.0001
639.8464	0.0164
640.0336	0.0131
640.2208	0.0012
640.4079	0.0198
640.595	0.0132
640.7821	-0.0035
640.9692	0.021
641.1563	-0.0043
641.3434	0.0075
641.5304	-0.0128
641.7174	0.0105
641.9044	-0.0056
642.0914	-0.008
642.2784	0.0317
642.4653	0.0141
642.6523	0.0134
642.8392	0.04
643.0261	0.0024
643.213	0.0166
643.3999	-0.0175
643.5867	0.011
643.7735	0.006
643.9604	0.0043
644.1472	0.004
644.3339	-0.0155
644.5207	-0.0193
644.7075	-0.0047
644.8942	0.0121
645.0809	0.0126
645.2676	-0.0028
645.4543	0.0074
645.6409	-0.0081
645.8276	-0.0172
646.0142	0.0109
646.2008	0.0013
646.3874	0.029
646.574	-0.0064
646.7605	-0.0053
646.9471	0.0117
647.1336	-0.0015
647.3201	-0.0063
647.5066	0.0083
647.6931	0.0134
647.8795	0.0138
648.0659	-0.0176
648.2524	-0.0043
648.4388	0.0099
648.6252	-0.0088
648.8115	0.0213
648.9979	0.0012
649.1842	-0.0084
649.3705	0.014
649.5568	-0.0249
649.7431	-0.0071
649.9294	0.0088
650.1156	-0.0173
650.3018	0.0101
650.488	-0.0013
650.6742	0.0297
650.8604	0.0103
651.0466	-0.0037
651.2327	-0.0077
651.4188	-0.0113
651.6049	-0.0029
651.791	-0.0057
651.9771	0.0146
652.1632	-0.0043
652.3492	0.0085
652.5352	0.0103
652.7212	-0.0145
652.9072	0.01
653.0932	0.0044
653.2791	0.0118
653.465	-0.0094
653.651	0.0139
653.8369	0.016
654.0227	0.0004
654.2086	-0.0231
654.3944	-0.015
654.5803	0.0052
654.7661	-0.0047
654.9519	-0.0025
655.1377	0
655.3234	0
655.5092	0
655.6949	0
655.8806	0
656.0663	0
656.2519	0
656.4376	0
656.6232	0
656.8088	0
656.9945	0
657.18	0
657.3656	0
657.5511	0
657.7367	0
657.9222	0
658.1077	0
658.2932	0
658.4786	0
658.6641	0
658.8495	0
659.0349	0
659.2203	0
659.4057	0.0105
659.591	0.0445
659.7764	-0.0035
659.9617	-0.0124
660.147	-0.0125
660.3323	-0.0019
660.5176	-0.0012
660.7028	-0.0052
660.888	0.0116
661.0733	-0.0027
661.2585	0.0048
661.4436	0.0004
661.6288	0.0027
661.8139	0.0139
661.9991	0.0118
662.1842	0.0221
662.3693	0.0066
662.5544	-0.0055
662.7394	0.0198
662.9245	0.0066
663.1095	0.0171
663.2945	-0.0068
663.4795	-0.0151
663.6644	-0.0072
663.8494	-0.0006
664.0343	-0.012
664.2193	0.0002
664.4042	-0.0025
664.589	-0.0162
664.7739	-0.0137
664.9587	0.0124
665.1436	0.0096
665.3284	0.0164
665.5132	0.0162
665.698	-0.0094
665.8827	-0.004
666.0675	-0.0254
666.2522	0.0109
666.4369	-0.0024
666.6216	-0.0058
666.8063	-0.0249
666.9909	-0.0119
667.1756	0.0071
667.3602	0.0153
667.5448	0.0175
667.7294	-0.0077
667.9139	-0.0004
668.0985	-0.0249
668.283	-0.0025
668.4675	-0.0099
668.652	-0.026
668.8365	-0.0035
669.0209	-0.0361
669.2054	0.0235
669.3898	-0.0023
669.5742	0.0143
669.7586	0.0015
669.943	-0.0282
670.1273	0.021
670.3117	0.0195
670.496	0.0087
670.6803	-0.0104
670.8646	0.0091
671.0488	-0.0093
671.2331	0.0092
671.4173	0.0027
671.6015	-0.0009
671.7857	-0.0119
671.9699	0.0121
672.1541	-0.012
672.3382	0.0065
672.5223	-0.002
672.7064	-0.0046
672.8905	0.0116
673.0746	-0.0271
673.2587	0.0166
673.4427	-0.0123
673.6267	-0.0287
673.8107	-0.0039
673.9947	-0.0067
674.1787	-0.0083
674.3626	-0.0036
674.5465	-0.0149
674.7304	-0.0445
674.9143	0.0153
675.0982	0.0203
675.2821	0.0031
675.4659	-0.0053
675.6497	0.0044
675.8335	-0.0151
676.0173	0.015
676.2011	-0.0089
676.3849	-0.0199
676.5686	0.013
676.7523	0.0123
676.936	-0.0306
677.1197	-0.0017
677.3034	0.0283
677.487	-0.0017
677.6706	-0.0054
677.8542	0.007
678.0378	-0.0022
678.2214	-0.005
678.405	-0.0021
678.5885	0.0137
678.772	-0.0037
678.9555	-0.0068
679.139	-0.0153
679.3225	-0.0141
679.5059	0.0054
679.6894	-0.0228
679.8728	-0.0072
680.0562	0.0048
680.2395	-0.0044
680.4229	-0.0124
680.6062	0.0026
680.7896	0.0292
680.9729	0.0139
681.1562	-0.0259
681.3394	0.0143
681.5227	-0.0296
681.7059	-0.0063
681.8891	-0.0065
682.0723	-0.0196
682.2555	0.0184
682.4387	0.0287
682.6218	-0.0078
682.805	0.0041
682.9881	-0.0176
683.1712	0.0145
683.3542	-0.0118
683.5373	-0.003
683.7203	-0.0082
683.9034	0.0063
684.0864	0.0086
684.2694	0.0052
684.4523	0.0043
684.6353	0.0033
684.8182	-0.0031
685.0011	0.0043
685.184	0.0101
685.3669	-0.0179
685.5498	-0.005
685.7326	-0.0039
685.9154	-0.0074
686.0982	0.0053
686.281	-0.007
686.4638	-0.0077
686.6465	-0.0019
686.8293	0.0004
687.012	0.0163
687.1947	0.0029
687.3774	-0.0077
687.56	-0.002
687.7427	-0.0182
687.9253	0.0076
688.1079	0.0224
688.2905	-0.004
688.4731	0.0274
688.6556	-0.0058
688.8382	0.0116
689.0207	0.0064
689.2032	-0.0288
689.3857	-0.0301
689.5681	-0.0141
689.7506	-0.0211
689.933	0.0053
690.1154	-0.0197
690.2978	-0.0084
690.4802	0.0024
690.6626	-0.0019
690.8449	-0.0021
691.0272	-0.0158
691.2095	0.0008
691.3918	-0.0204
691.5741	0.0128
691.7563	0.0282
691.9386	-0.0077
692.1208	-0.0157
692.303	-0.0088
692.4852	0.0071
692.6673	-0.0083
692.8495	-0.0001
693.0316	-0.0157
693.2137	0.036
693.3958	-0.0006
693.5778	-0.0116
693.7599	-0.013
693.9419	0.0265
694.1239	-0.0143
694.3059	-0.0164
694.4879	-0.037
694.6699	0.0213
694.8518	0.0079
695.0337	0.0062
695.2157	-0.0126
695.3975	-0.0055
695.5794	-0.0146
695.7613	0.0147
695.9431	-0.0268
696.1249	-0.0021
696.3067	0.001
696.4885	0.0049
696.6703	0.0018
696.852	-0.0113
697.0337	0.0034
697.2154	0.0108
697.3971	0.0067
697.5788	0.0226
697.7605	0.0089
697.9421	0.0072
698.1237	0.0278
698.3053	-0.0059
698.4869	0.0252
698.6685	0.0115
698.85	0.0005
699.0315	0.0123
699.213	-0.0193
699.3945	0.009
699.576	-0.0095
699.7575	0.0122
699.9389	0.0055
700.1203	-0.0075
700.3017	-0.0303
700.4831	-0.0025
700.6645	0.0237
700.8458	-0.0036
701.0271	0.0116
701.2084	-0.0201
701.3897	0.0014
701.571	-0.0016
701.7523	-0.0175
701.9335	0.0394
702.1147	-0.0113
702.2959	0.0125
702.4771	-0.009
702.6583	-0.0053
702.8394	-0.0069
703.0205	0.0041
703.2016	0.0176
703.3827	0.0251
703.5638	0.0157
703.7449	-0.0065
703.9259	0.0221
704.1069	0.0496
704.2879	0.0256
704.4689	0.0228
704.6499	-0.0294
704.8308	-0.0417
705.0117	-0.0342
705.1927	0.0171
705.3735	0.0207
705.5544	-0.0006
705.7353	0.0036
705.9161	0.0081
706.0969	-0.0051
706.2777	0.0201
706.4585	0.0137
706.6393	-0.0182
706.82	-0.0005
707.0007	0.0075
707.1815	0.0137
707.3621	-0.0032
707.5428	0.0175
707.7235	0.018
707.9041	-0.0053
708.0847	-0.0118
708.2653	0.0049
708.4459	-0.0276
708.6265	-0.0052
708.807	0.0365
708.9875	-0.0092
709.168	0.0118
709.3485	0.0089
709.529	0.0259
709.7095	-0.0161
709.8899	0.0222
710.0703	0.0108
710.2507	-0.0223
710.4311	-0.012
710.6115	0.0009
710.7918	-0.0126
710.9721	-0.009
711.1524	-0.002
711.3327	-0.017
711.513	0.0107
711.6932	-0.0321
711.8735	0.0143
712.0537	-0.0001
712.2339	0.0104
712.4141	-0.0207
712.5942	0.0222
712.7744	-0.0052
712.9545	0.0119
713.1346	0.027
713.3147	-0.0021
713.4947	0.007
713.6748	0.0035
713.8548	0.0085
714.0348	0.0174
714.2148	-0.0148
714.3948	0.0225
714.5748	-0.0041
714.7547	-0.0139
714.9346	0.0041
715.1145	0.0181
715.2944	0.0027
715.4743	-0.0113
715.6541	-0.0205
715.834	0.0081
716.0138	-0.0054
716.1936	-0.0158
716.3733	0.0045
716.5531	0.0212
716.7328	-0.0109
716.9126	-0.0238
717.0923	0.0156
717.2719	-0.0071
717.4516	-0.0135
717.6312	-0.0079
717.8109	0.0182
717.9905	0.0173
718.1701	-0.032
718.3496	-0.0156
718.5292	-0.0166
718.7087	0.0203
718.8882	0.0061
719.0677	-0.0113
719.2472	0.0089
719.4267	-0.002
719.6061	0.0124
719.7856	-0.0048
719.965	-0.014
720.1443	-0.0115
720.3237	-0.0069
720.5031	0.0323
720.6824	-0.0096
720.8617	0.0195
721.041	0.0265
721.2203	-0.0106
721.3995	-0.018
721.5788	-0.0033
721.758	0.0075
721.9372	-0.0278
722.1164	0.0037
722.2956	0.0245
722.4747	0.0048
722.6538	-0.0113
722.8329	0.0062
723.012	0.0185
723.1911	0.0033
723.3702	-0.0131
723.5492	-0.0023
723.7282	0.0003
723.9072	-0.0213
724.0862	-0.0114
724.2652	-0.0145
724.4441	0.0032
724.623	-0.0257
724.8019	-0.0116
724.9808	-0.0058
725.1597	0.0152
725.3385	0.0027
725.5174	0.0221
725.6962	0.0162
725.875	0.0099
726.0538	0.0151
726.2325	-0.0219
726.4112	-0.0064
726.59	-0.0046
726.7687	0.006
726.9474	-0.0064
727.126	-0.0175
727.3047	0.0238
727.4833	0.0397
727.6619	0.0467
727.8405	-0.0039
728.0191	-0.0365
728.1976	-0.0374
728.3762	-0.0028
728.5547	-0.0033
728.7332	-0.0117
728.9116	-0.0358
729.0901	0.0305
729.2686	-0.0258
729.447	-0.0198
729.6254	0.0265
729.8038	0.0077
729.9821	0.0251
730.1605	-0.0003
730.3388	-0.0198
730.5171	-0.0154
730.6954	0.0066
730.8737	0.0194
731.0519	0.0025
731.2302	-0.0179
731.4084	0.0234
731.5866	-0.0126
731.7648	-0.0148
731.9429	-0.0059
732.1211	-0.0058
732.2992	-0.0139
732.4773	-0.0167
732.6554	0.0022
732.8335	0.0119
733.0115	-0.0064
733.1896	0.0018
733.3676	0.0044
733.5456	-0.0145
733.7235	0.0035
733.9015	-0.0007
734.0794	-0.0111
734.2574	0.005
734.4353	-0.0221
734.6131	0.0153
734.791	0.0091
734.9689	0.0103
735.1467	-0.0146
735.3245	-0.0099
735.5023	0.0136
735.68	-0.0059
735.8578	-0.0152
736.0355	-0.0017
736.2132	0.0091
736.3909	-0.0148
736.5686	-0.0012
736.7463	-0.0168
736.9239	0.0066
737.1015	-0.0062
737.2791	-0.0093
737.4567	-0.0049
737.6343	0.0116
737.8118	-0.0001
737.9894	0.0074
738.1669	-0.0034
738.3444	-0.0001
738.5218	0.0131
738.6993	-0.0049
738.8767	-0.0024
739.0541	0.0069
739.2315	0.0026
739.4089	0.0083
739.5863	0.0146
739.7636	0.0188
739.9409	-0.0052
740.1182	-0.011
740.2955	-0.0282
740.4728	0.0422
740.65	-0.0085
740.8272	-0.0018
741.0044	0.0138
741.1816	0.0105
741.3588	0.0102
741.5359	0.0043
741.7131	0.0081
741.8902	-0.013
742.0673	0.0299
742.2444	-0.0334
742.4214	0.0027
742.5985	0.0091
742.7755	-0.0118
742.9525	0.0026
743.1295	-0.0051
743.3064	-0.003
743.4834	-0.02
743.6603	0.0066
743.8372	-0.0091
744.0141	0.0093
744.191	0.0068
744.3678	0.0053
744.5446	0.0323
744.7215	0.0088
744.8982	0.0338
745.075	0.0099
745.2518	0.0056
745.4285	-0.0153
745.6052	0.0071
745.7819	-0.0119
745.9586	0.0067
746.1353	0.0004
746.3119	-0.0098
746.4885	-0.0037
746.6651	-0.0338
746.8417	-0.0278
747.0183	-0.0199
747.1948	0.0012
747.3714	0.0348
747.5479	0.0251
747.7244	-0.029
747.9008	0.0166
748.0773	-0.0013
748.2537	0.0192
748.4301	0.0009
748.6065	-0.0162
748.7829	-0.0025
748.9593	0.0208
749.1356	-0.0043
749.3119	-0.0084
749.4882	-0.007
749.6645	0.019
749.8408	-0.0137
750.017	-0.0139
750.1933	0.021
750.3695	0.0165
750.5457	-0.0174
750.7218	0.0135
750.898	-0.0162
751.0741	0.0096
751.2502	0.0018
751.4263	-0.0173
751.6024	0.0141
751.7784	-0.0517
751.9545	-0.0101
752.1305	0.0097
752.3065	0.0341
752.4825	-0.0022
752.6584	-0.0094
752.8344	0.014
753.0103	-0.0099
753.1862	0.0217
753.3621	-0.018
753.5379	0.0059
753.7138	-0.0005
753.8896	0.0403
754.0654	0.0062
754.2412	0.0196
754.417	-0.0012
754.5927	-0.0078
754.7685	-0.0206
754.9442	-0.0119
755.1199	-0.0019
755.2956	0.0203
755.4712	0.0065
755.6469	-0.0072
755.8225	-0.0018
755.9981	0.008
756.1736	0.0148
756.3492	-0.0177
756.5248	-0.0105
756.7003	0.0024
756.8758	-0.0099
757.0513	0.0025
757.2267	-0.0147
757.4022	-0.0046
757.5776	-0.0101
757.753	-0.0109
757.9284	-0.0028
758.1038	-0.0202
758.2791	-0.0078
758.4545	-0.0179
758.6298	0.0027
758.8051	0.0103
758.9803	-0.0102
759.1556	-0.0275
759.3308	-0.0066
759.506	0.0068
759.6812	-0.0166
759.8564	-0.0001
760.0316	0.0063
760.2067	-0.0106
760.3819	-0.0146
760.557	0.0043
760.732	0.0241
760.9071	-0.0123
761.0821	0.0054
761.2572	0.0122
761.4322	-0.0079
761.6072	-0.0167
761.7821	0.0016
761.9571	-0.0064
762.132	0.0112
762.3069	0.0186
762.4818	-0.0106
762.6567	0.0054
762.8316	0.0065
763.0064	-0.0345
763.1812	-0.0101
763.356	-0.0093
763.5308	-0.0092
763.7055	0.0056
763.8803	-0.009
764.055	-0.0014
764.2297	-0.0046
764.4044	-0.0027
764.579	-0.0001
764.7537	-0.0104
764.9283	-0.031
765.1029	0.017
765.2775	-0.0247
765.4521	-0.0023
765.6266	-0.0285
765.8011	-0.014
765.9756	0.0175
766.1501	0.0242
766.3246	-0.0227
766.4991	-0.0273
766.6735	0.0103
766.8479	-0.0001
767.0223	0.0037
767.1967	-0.0215
767.371	0.0037
767.5454	0.0227
767.7197	-0.0119
767.894	-0.0126
768.0683	-0.0175
768.2425	-0.0094
768.4168	0.0262
768.591	-0.0096
768.7652	-0.0035
768.9394	-0.0126
769.1135	-0.0139
769.2877	0.0159
769.4618	-0.009
769.6359	0.0059
769.81	0.0034
769.984	-0.0039
770.1581	0.0259
770.3321	-0.0024
770.5061	-0.0057
770.6801	0.024
770.8541	-0.029
771.028	-0.0273
771.202	-0.043
771.3759	0.0031
771.5498	-0.0105
771.7236	-0.0148
771.8975	-0.0314
772.0713	-0.0068
772.2451	-0.0094
772.4189	0.0019
772.5927	-0.0091
772.7665	0.0303
772.9402	-0.0076
773.1139	-0.0029
773.2876	0.0133
773.4613	0.0347
773.635	-0.0158
773.8086	-0.0212
773.9822	-0.0389
774.1558	-0.0386
774.3294	-0.0394
774.503	0.0313
774.6765	0.0404
774.8501	0.0072
775.0236	0.0633
775.1971	-0.0164
775.3705	-0.0074
775.544	-0.0303
775.7174	0.0108
775.8908	0.0106
776.0642	-0.0135
776.2376	-0.0518
776.4109	0.0465
776.5843	-0.0356
776.7576	-0.0028
776.9309	0.0048
777.1041	-0.0229
777.2774	-0.0134
777.4506	-0.0107
777.6238	-0.0028
777.797	0.023
777.9702	0.0063
778.1434	0.0232
778.3165	-0.0068
778.4896	-0.0338
778.6627	0.0141
778.8358	0.0143
779.0089	-0.0031
779.1819	0.0169
779.3549	0.0358
779.5279	-0.0154
779.7009	-0.0066
779.8739	-0.0142
780.0468	0.019
780.2197	-0.0476
780.3926	0.0065
780.5655	-0.0039
780.7384	0.0355
780.9112	0.0282
781.0841	-0.0298
781.2569	-0.0246
781.4297	0.0163
781.6024	0.0013
781.7752	0.0236
781.9479	-0.0035
782.1206	0.0139
782.2933	-0.0036
782.466	-0.0024
782.6386	-0.0001
782.8113	-0.0172
782.9839	0.0016
783.1565	0.0035
783.329	0.0343
783.5016	0.0164
783.6741	-0.0149
783.8466	-0.0361
784.0191	0.0064
784.1916	-0.0162
784.3641	-0.0544
784.5365	0.0148
784.7089	0.017
784.8813	0.0506
785.0537	-0.0447
785.2261	-0.0131
785.3984	-0.0553
785.5707	0.0313
785.743	-0.0196
785.9153	0.0313
786.0876	-0.0653
786.2598	0.0259
786.432	-0.0116
786.6042	0.0219
786.7764	0.0061
786.9486	0.0059
787.1207	0.0289
787.2928	-0.0045
787.4649	0.0228
787.637	0.0027
787.8091	-0.0107
787.9811	0.0045
788.1532	0.01
788.3252	-0.0111
788.4972	-0.0123
788.6691	0.0537
788.8411	-0.0183
789.013	0.0262
789.1849	0.0055
789.3568	0.0356
789.5287	-0.0747
789.7005	0.0556
789.8723	-0.048
790.0442	-0.0242
790.2159	0.0551
790.3877	0.0867
790.5595	-0.0147
790.7312	-0.0199
790.9029	-0.0013
791.0746	0.0276
791.2463	-0.0057
791.4179	0.0166
791.5896	-0.0474
791.7612	-0.0468
791.9328	0.001
792.1044	-0.0515
792.2759	-0.0526
792.4474	-0.0156
792.619	0.0277
792.7905	-0.0492
792.9619	0.0386
793.1334	-0.063
793.3048	-0.0012
793.4762	-0.0613
793.6476	-0.004
793.819	-0.0524
793.9904	0.0153
794.1617	0.0223
794.333	-0.028
794.5043	-0.0039
794.6756	-0.0007
794.8469	-0.0058
795.0181	-0.024
795.1893	-0.0206
795.3605	-0.0125
795.5317	0.0138
795.7029	0.0146
795.874	-0.0133
796.0452	0.0282
796.2163	0.0384
796.3873	0.0644
796.5584	0.0028
796.7294	-0.0776
796.9005	-0.0057
797.0715	0.0283
797.2425	0.0025
797.4134	0.0135
797.5844	0.045
797.7553	-0.0487
797.9262	-0.0047
798.0971	-0.0472
798.2679	0.0131
798.4388	-0.0439
798.6096	0.0432
798.7804	-0.0179
798.9512	0.0865
799.122	0.0136
799.2927	0.0174
799.4635	0.0792
799.6342	0.0374
799.8049	0.0452
799.9755	-0.0084
800.1462	-0.0109
800.3168	-0.0426
800.4874	0.0125
800.658	0.051
800.8286	-0.0038
800.9991	0.0161
801.1696	0.0148
801.3402	-0.0576
801.5106	-0.0842
801.6811	-0.0234
801.8516	-0.019
802.022	-0.0597
802.1924	-0.0602
802.3628	-0.0873
802.5332	-0.1106
802.7035	-0.0509
802.8739	0.0908
803.0442	-0.0091
803.2145	-0.1008
803.3847	-0.0965
803.555	-0.0245
803.7252	0.1064
803.8954	0.0303
804.0656	0.0423
804.2358	0.0386
804.4059	0.0373
804.5761	0.0341
804.7462	-0.0515
804.9163	-0.0338
805.0864	0.0206
805.2564	-0.015
805.4264	0.0104
805.5965	-0.012
805.7665	0.0243
805.9364	-0.0658
806.1064	0.0126
806.2763	0.0665
806.4462	0.0418
806.6161	0.0143
806.786	-0.0063
806.9559	0.0349
807.1257	-0.0003
807.2955	0.0313
807.4653	-0.0513
807.6351	-0.0416
807.8048	-0.0226
807.9746	-0.0634
808.1443	0.034
808.314	0.0449
808.4837	-0.0672
808.6533	0.0011
808.8229	-0.0631
808.9926	-0.0377
809.1622	0.0112
809.3317	-0.0322
809.5013	-0.0019
809.6708	0.0277
809.8403	0.0739
810.0098	0.0224
810.1793	0.0052
810.3488	0.0029
810.5182	-0.0109
810.6876	0.0034
810.857	-0.0422
811.0264	-0.0452
811.1958	-0.047
811.3651	-0.0494
811.5344	0.0665
811.7037	-0.0674
811.873	0.0644
812.0422	0.0018
812.2115	-0.0788
812.3807	-0.003
812.5499	0.0931
812.7191	0.0292
812.8882	0.0278
813.0574	-0.1541
813.2265	-0.0123
813.3956	-0.0722
813.5646	-0.0031
813.7337	-0.1026
813.9027	-0.0517
814.0718	0.0321
814.2407	-0.1345
814.4097	-0.013
814.5787	-0.0247
814.7476	-0.0225
814.9165	0.0292
815.0854	0.0658
815.2543	0.0456
815.4232	-0.0058
815.592	0.1586
815.7608	0.0615
815.9296	0.0638
816.0984	0.0505
816.2671	-0.0994
816.4359	0.0318
816.6046	0.0945
816.7733	0.0982
816.942	0.0064
817.1106	-0.3093
817.2793	-0.0394
817.4479	-0.0118
817.6165	0.0235
817.785	0.0467
817.9536	0.0327
818.1221	0.0174
818.2906	0.09
818.4591	-0.029
818.6276	-0.0406
818.7961	0.1676
818.9645	-0.0614
819.1329	0.1969
819.3013	0.0235
819.4697	0.1417
819.638	0.0557
819.8064	-0.0975
819.9747	-0.1161
820.143	-0.0176
820.3113	0.06
820.4795	-0.021
820.6477	-0.0371
820.816	0.0312
820.9842	-0.1614
821.1523	0.163
821.3205	-0.0928
821.4886	-0.0432
821.6567	0.0822
821.8248	0.0828
821.9929	-0.0252
822.1609	0.0392
822.329	0.0839
822.497	-0.065
822.665	0.0051
822.833	-0.0633
823.0009	-0.0912
823.1688	-0.0202
823.3367	-0.1884
823.5046	0.0422
823.6725	0.2777
823.8404	-0.1766
824.0082	-0.0008
824.176	0.0539
824.3438	0.182
824.5116	0.1385
824.6793	0.04
824.847	0.1651
825.0147	0.0881
825.1824	0.1434
825.3501	0.0503
825.5177	0.2989
825.6854	-0.0831
825.853	-0.0515
826.0206	-0.0635
826.1881	-0.001
826.3557	0.0959
826.5232	-0.0152
826.6907	-0.0246
826.8582	-0.0407
827.0257	-0.0576
827.1931	0.1449
827.3605	0.0073
827.528	0.0034
827.6953	0.0417
827.8627	-0.0168
828.03	0.0595
828.1974	-0.1376
828.3647	-0.0034
828.532	0.1359
828.6992	-0.0134
828.8665	0.0176
829.0337	-0.0226
829.2009	0.0929
829.3681	0.0304
829.5352	-0.0052
829.7024	-0.1408
829.8695	-0.0814
830.0366	0.182
830.2037	-0.1099
830.3707	-0.0233
830.5378	0.1514
830.7048	-0.2979
830.8718	0.0903
831.0388	0.0903
831.2057	-0.2415
831.3727	-0.101
831.5396	-0.0829
831.7065	0.2734
831.8734	-0.6576
832.0402	0.1104
832.2071	0.4043
832.3739	0.0106
832.5407	-0
832.7075	0.2668
832.8742	-0.0659
833.041	-0.1093
833.2077	0.0073
833.3744	-0.0466
833.541	-0.1212
833.7077	0.1601
833.8743	-0.1657
834.0409	-0.0598
834.2075	0.0813
834.3741	0.0737
834.5407	-0.3471
834.7072	0.0875
834.8737	0.3606
835.0402	0.4094
835.2067	0.086
835.3731	-0.0561
835.5395	-0.0591
835.706	0.0727
835.8723	0.0877
836.0387	0.0782
836.2051	0.1486
836.3714	-0.197
836.5377	-0.0028
836.704	-0.111
836.8703	-0.0147
837.0365	0.1719
837.2027	-0.0288
837.3689	-0.1815
837.5351	-0.2279
837.7013	0.291
837.8674	-0.8967
838.0335	-0.0297
838.1997	0.0206
838.3657	-0
838.5318	-0.416
838.6978	-0
838.8639	0.0609
839.0299	0.3697
839.1958	0.1263
839.3618	0.4494
839.5277	0.0531
839.6937	-0.4137
839.8596	0.0545
840.0254	0.8154
840.1913	-0
840.3571	0.7682
840.523	-0.1426
840.6888	0.2405
840.8545	-0.2177
841.0203	-0.0842
841.186	0.0115
841.3517	0.4501
841.5174	0.3156
841.6831	0.7312
841.8488	0.1094
842.0144	0.5297
842.18	-0.1493
842.3456	-0
842.5112	0.2006
842.6767	-0.2612
842.8422	-0.0613
843.0077	0.7734
843.1732	-0.2582
843.3387	-0.1531
843.5042	-0.0276
843.6696	-0
843.835	-0.2572
844.0004	0.5605
844.1657	-0
844.3311	-0
844.4964	-0.0642
844.6617	-0
844.827	-0
844.9923	-0.0884
845.1575	-0
845.3227	0.3508
845.4879	0.4381
845.6531	0.8913
845.8183	0.0132
845.9834	-0.013
846.1485	-0.3392
846.3136	-0.0407
846.4787	0.3062
846.6438	0.6825
846.8088	-1.0645
846.9738	-0
847.1388	0.1666
847.3038	-0.2882
847.4687	-0
847.6337	0.2294
847.7986	0.266
847.9635	-0.0772
848.1284	-0.3507
848.2932	-0.0043
848.458	-0.1769
848.6228	-0
848.7876	-0
848.9524	-0.2285
849.1172	-0.2457
849.2819	-0.0613
849.4466	-0.1455
849.6113	-0.2225
849.7759	1.3046
849.9406	-0.0937
850.1052	0.1445
850.2698	-0
850.4344	0.3037
850.599	0.2926
850.7635	-0
850.928	0.2369
851.0925	1.8603
851.257	-0.0953
851.4215	-0.1805
851.5859	0.4234
851.7503	0.3979
851.9147	-0
852.0791	-0.5784
852.2434	-0.0407
852.4078	0.7331
852.5721	0.1646
852.7364	0.1221
852.9007	-0.2106
853.0649	-0
853.2291	0.1095
853.3934	-0
853.5575	-0.2274
853.7217	-0
853.8859	-0.1724
854.05	-0.9379
854.2141	1.525
854.3782	0.0495
854.5423	0.1427
854.7063	0.1212
854.8703	0.6568
855.0343	-0.0309
855.1983	-0.198
855.3623	0.0577
855.5262	-0.669
855.6901	0.2405
855.854	-0.2556
856.0179	-0
856.1818	-0
856.3456	-0.0964
856.5094	-0
856.6732	-0
856.837	0.5185
857.0008	-0
857.1645	-0
857.3282	-0.0373
857.4919	0.033
857.6556	0.3942
857.8192	-0.293
857.9828	-0.4486
858.1465	0.6257
858.31	-0
858.4736	-0.2579
858.6372	0.2237
858.8007	-1
858.9642	0.4984
859.1277	-0.595
859.2911	0.244
859.4546	0.5791
859.618	0.0445
859.7814	-0
859.9448	-0
860.1081	-0.301
860.2715	-0.5454
860.4348	-0
860.5981	-0
860.7614	1.4983
860.9246	-0.1344
861.0879	-0.2694
861.2511	0.2864
861.4143	0.0488
861.5774	0.7559
861.7406	0.6532
861.9037	-0
862.0668	-0
862.2299	-0
862.393	-0
862.556	-0
862.7191	0.0539
862.8821	-0.0963
863.0451	0.4056
863.208	-0.316
863.371	0.1966
863.5339	-0.2725
863.6968	-0
863.8597	-0
864.0225	-0
864.1854	-0.1145
864.3482	0.1592
864.511	0.4249
864.6737	-0
864.8365	-0.0458
864.9992	-0.4936
865.1619	0.0436
865.3246	-0.1593
865.4873	-0
865.65	-0
865.8126	0.4245
865.9752	0.1351
866.1378	-0.7471
866.3004	0.0055
866.4629	0.3733
866.6254	-0
866.7879	1.0498
866.9504	-0
867.1129	0.2693
867.2753	-0.2503
867.4377	-0
867.6001	0.2356
867.7625	0.4857
867.9249	0.158
868.0872	-0.2084
868.2495	-0.2086
868.4118	0.4483
868.5741	-0.416
868.7363	0.124
868.8986	-0
869.0608	-0
869.223	0.1217
869.3851	-0
869.5473	-1.2444
869.7094	0.1502
869.8715	0.2578
870.0336	-0.0702
870.1957	-0
870.3577	0.073
870.5197	-0.0289
870.6817	-0
870.8437	0.6318
871.0057	-0
871.1676	0.3367
871.3295	0.2788
871.4914	0.0669
871.6533	-0
871.8151	-0.1506
871.977	0.712
872.1388	-1
872.3006	-0
872.4623	-0
872.6241	-1.4771
872.7858	-0.241
872.9475	-0.0248
873.1092	0.5223
873.2709	0.0727
873.4325	-0
873.5941	-0.7312
873.7557	-0.7447
873.9173	-1.0483
874.0789	-0.1887
874.2404	-0.6201
874.4019	-0.0346
874.5634	-0.0571
874.7249	-0
874.8863	-0.632
875.0478	-0.1391
875.2092	-0
875.3706	-0.5464
875.5319	0.3597
875.6933	0.0131
875.8546	0.03
876.0159	-0.2827
876.1772	-1.0305
876.3385	-0
876.4997	-0
876.6609	-0.6616
876.8221	0.1342
876.9833	-0
877.1445	-0.0936
877.3056	0.6619
877.4667	-1
877.6278	-0
877.7889	1.0128
877.9499	-0
878.111	0.1619
878.272	-0.5366
878.433	-0
878.5939	-0.2803
878.7549	-0.4942
878.9158	0.4314
879.0767	0.912
879.2376	-0.6435
879.3984	-0
879.5593	-0.4895
879.7201	-0.0288
879.8809	-0.0062
880.0417	0.0722
880.2024	0.7066
880.3632	-0.082
880.5239	-0.301
880.6846	-0.4049
880.8452	0.1038
881.0059	-0
881.1665	-0
881.3271	-0
881.4877	0.9294
881.6483	-1.2553
881.8088	0.0149
881.9693	0.2144
882.1298	0.2144
882.2903	0.2144
