Data from D4ACN5uM480nmA_Absorbance_12-08-01-616.txt Node
Date: Fri Feb 21 12:08:01 GMT 2025
User: LASERRRRR
Spectrometer: FLMT03099
Trigger mode: 0
Integration Time (sec): 1.500000E-2
Scans to average: 1
Electric dark correction enabled: true
Nonlinearity correction enabled: false
Boxcar width: 0
XAxis mode: Wavelengths
Number of Pixels in Spectrum: 3648
>>>>>Begin Spectral Data<<<<<
179.3399	-0
179.5586	-0
179.7771	-0
179.9957	0.0523
180.2143	-0
180.4329	-0
180.6514	-0
180.8699	-0.3245
181.0885	-0
181.307	1.8945
181.5255	0.2542
181.744	-0
181.9625	-0.1754
182.181	0.3069
182.3994	-0
182.6179	-0
182.8363	1.3041
183.0547	-0
183.2732	0.1682
183.4916	0.4182
183.71	0.1968
183.9284	0.2204
184.1467	0.4696
184.3651	0.1764
184.5835	0.1765
184.8018	0.339
185.0201	0.0757
185.2385	0.238
185.4568	0.2455
185.6751	0.2555
185.8934	0.7304
186.1117	0.2706
186.3299	0.2257
186.5482	0.1105
186.7664	0.2819
186.9847	0.453
187.2029	0.1391
187.4211	0.2046
187.6393	0.1887
187.8575	0.1867
188.0757	0.3479
188.2939	0.1239
188.512	0.1298
188.7302	0.054
188.9483	0.2567
189.1665	0.3496
189.3846	-0.1512
189.6027	0.095
189.8208	0.2722
190.0389	0.0975
190.257	0.1972
190.475	0.2094
190.6931	0.4741
190.9111	0.3603
191.1292	0.2268
191.3472	0.1011
191.5652	0.1765
191.7832	0.4317
192.0012	0.4118
192.2192	0.3576
192.4371	0.1784
192.6551	0.3423
192.873	0.3918
193.091	0.4051
193.3089	0.1212
193.5268	0.6973
193.7447	0.5914
193.9626	0.3673
194.1805	0.5903
194.3984	0.4481
194.6162	0.3627
194.8341	0.4216
195.0519	0.497
195.2697	0.57
195.4875	0.463
195.7054	0.5135
195.9231	0.5379
196.1409	0.4563
196.3587	0.6632
196.5765	0.5485
196.7942	0.5026
197.012	0.516
197.2297	0.5499
197.4474	0.6928
197.6651	0.5303
197.8828	0.7074
198.1005	0.5026
198.3182	0.7603
198.5358	0.4934
198.7535	0.597
198.9711	0.5724
199.1888	0.6143
199.4064	0.6144
199.624	0.568
199.8416	0.5772
200.0592	0.5887
200.2767	0.5873
200.4943	0.6411
200.7119	0.5788
200.9294	0.5592
201.1469	0.6261
201.3645	0.6635
201.582	0.5267
201.7995	0.5864
202.017	0.548
202.2344	0.5673
202.4519	0.5166
202.6694	0.588
202.8868	0.4874
203.1042	0.604
203.3217	0.5365
203.5391	0.5146
203.7565	0.5367
203.9739	0.5053
204.1913	0.4681
204.4086	0.4977
204.626	0.5426
204.8433	0.5538
205.0607	0.5454
205.278	0.5394
205.4953	0.4673
205.7126	0.4623
205.9299	0.4859
206.1472	0.5081
206.3644	0.4475
206.5817	0.4967
206.7989	0.4739
207.0162	0.4142
207.2334	0.4582
207.4506	0.472
207.6678	0.4665
207.885	0.4339
208.1022	0.4593
208.3194	0.4212
208.5365	0.4709
208.7537	0.4485
208.9708	0.4491
209.1879	0.4366
209.405	0.4346
209.6222	0.4045
209.8392	0.4232
210.0563	0.4207
210.2734	0.4189
210.4905	0.4155
210.7075	0.4538
210.9245	0.3821
211.1416	0.418
211.3586	0.4074
211.5756	0.4134
211.7926	0.4068
212.0096	0.3877
212.2265	0.413
212.4435	0.4208
212.6604	0.3885
212.8774	0.4043
213.0943	0.4144
213.3112	0.4032
213.5281	0.4012
213.745	0.4023
213.9619	0.3849
214.1788	0.3979
214.3956	0.4113
214.6125	0.4087
214.8293	0.4017
215.0461	0.4067
215.2629	0.402
215.4798	0.3856
215.6965	0.3882
215.9133	0.3979
216.1301	0.3867
216.3469	0.4144
216.5636	0.394
216.7803	0.4096
216.9971	0.4239
217.2138	0.398
217.4305	0.4196
217.6472	0.4161
217.8639	0.4145
218.0805	0.4035
218.2972	0.4116
218.5138	0.4161
218.7305	0.4183
218.9471	0.4477
219.1637	0.424
219.3803	0.4145
219.5969	0.4259
219.8135	0.4306
220.0301	0.3967
220.2466	0.4228
220.4632	0.4089
220.6797	0.442
220.8962	0.4348
221.1127	0.4217
221.3292	0.4409
221.5457	0.4421
221.7622	0.4552
221.9787	0.4414
222.1951	0.4466
222.4116	0.434
222.628	0.4386
222.8444	0.4602
223.0608	0.4294
223.2772	0.4552
223.4936	0.4422
223.71	0.4429
223.9264	0.4491
224.1427	0.4723
224.3591	0.4536
224.5754	0.4463
224.7917	0.4835
225.008	0.4673
225.2243	0.4587
225.4406	0.4534
225.6569	0.452
225.8732	0.467
226.0894	0.4775
226.3057	0.4534
226.5219	0.4731
226.7381	0.4547
226.9543	0.4714
227.1705	0.4694
227.3867	0.4902
227.6029	0.4696
227.8191	0.4902
228.0352	0.4966
228.2513	0.4996
228.4675	0.4834
228.6836	0.4962
228.8997	0.4937
229.1158	0.4949
229.3319	0.4885
229.548	0.4852
229.764	0.5057
229.9801	0.5068
230.1961	0.5114
230.4121	0.5122
230.6282	0.5047
230.8442	0.5086
231.0602	0.5144
231.2761	0.5171
231.4921	0.5123
231.7081	0.5157
231.924	0.5023
232.14	0.5299
232.3559	0.5276
232.5718	0.5295
232.7877	0.5193
233.0036	0.52
233.2195	0.5315
233.4353	0.5224
233.6512	0.5318
233.867	0.542
234.0829	0.5341
234.2987	0.5339
234.5145	0.5334
234.7303	0.528
234.9461	0.5244
235.1619	0.5468
235.3776	0.5264
235.5934	0.5277
235.8091	0.5353
236.0249	0.5289
236.2406	0.537
236.4563	0.5389
236.672	0.5289
236.8877	0.5362
237.1034	0.5291
237.319	0.5415
237.5347	0.5357
237.7503	0.5379
237.966	0.5321
238.1816	0.5295
238.3972	0.5383
238.6128	0.5325
238.8284	0.5402
239.0439	0.5479
239.2595	0.5398
239.475	0.5319
239.6906	0.5353
239.9061	0.5306
240.1216	0.5255
240.3371	0.5103
240.5526	0.5058
240.7681	0.5219
240.9836	0.5144
241.199	0.5109
241.4145	0.4982
241.6299	0.4878
241.8453	0.4914
242.0607	0.4817
242.2761	0.4765
242.4915	0.4786
242.7069	0.4698
242.9223	0.4585
243.1376	0.4516
243.353	0.449
243.5683	0.4409
243.7836	0.419
243.9989	0.4138
244.2142	0.4084
244.4295	0.4096
244.6448	0.3948
244.86	0.3894
245.0753	0.3817
245.2905	0.3721
245.5057	0.3721
245.721	0.3529
245.9362	0.3539
246.1514	0.3429
246.3665	0.3431
246.5817	0.3337
246.7969	0.3211
247.012	0.3267
247.2271	0.3106
247.4423	0.3109
247.6574	0.3189
247.8725	0.3036
248.0876	0.2975
248.3026	0.2775
248.5177	0.2815
248.7328	0.2801
248.9478	0.2716
249.1628	0.2659
249.3779	0.2638
249.5929	0.2633
249.8079	0.2476
250.0228	0.2536
250.2378	0.2533
250.4528	0.2506
250.6677	0.2421
250.8827	0.2348
251.0976	0.2439
251.3125	0.2399
251.5274	0.2308
251.7423	0.2292
251.9572	0.2178
252.172	0.2191
252.3869	0.2197
252.6017	0.2112
252.8166	0.2166
253.0314	0.2145
253.2462	0.21
253.461	0.2115
253.6758	0.2125
253.8906	0.2065
254.1053	0.204
254.3201	0.2053
254.5348	0.2027
254.7496	0.1997
254.9643	0.203
255.179	0.2072
255.3937	0.2011
255.6083	0.1963
255.823	0.1966
256.0377	0.2018
256.2523	0.1989
256.467	0.1951
256.6816	0.1954
256.8962	0.1946
257.1108	0.1947
257.3254	0.1883
257.54	0.1939
257.7545	0.193
257.9691	0.1923
258.1836	0.1953
258.3981	0.1908
258.6127	0.1871
258.8272	0.1868
259.0417	0.1849
259.2561	0.1832
259.4706	0.1942
259.6851	0.1865
259.8995	0.1821
260.114	0.1838
260.3284	0.1937
260.5428	0.181
260.7572	0.1845
260.9716	0.1862
261.186	0.1765
261.4003	0.1876
261.6147	0.1775
261.829	0.1789
262.0433	0.1834
262.2577	0.1896
262.472	0.1892
262.6863	0.1845
262.9005	0.1882
263.1148	0.1742
263.3291	0.1889
263.5433	0.1867
263.7576	0.1857
263.9718	0.19
264.186	0.1866
264.4002	0.1826
264.6144	0.1897
264.8286	0.1901
265.0427	0.1953
265.2569	0.1858
265.471	0.1845
265.6851	0.1845
265.8993	0.1896
266.1134	0.182
266.3275	0.1878
266.5415	0.1846
266.7556	0.1833
266.9697	0.1858
267.1837	0.1815
267.3978	0.1882
267.6118	0.1838
267.8258	0.1861
268.0398	0.1809
268.2538	0.1848
268.4677	0.1803
268.6817	0.1772
268.8957	0.1808
269.1096	0.1768
269.3235	0.1887
269.5374	0.1808
269.7514	0.1791
269.9652	0.1818
270.1791	0.1856
270.393	0.1819
270.6068	0.1706
270.8207	0.1763
271.0345	0.1773
271.2483	0.1776
271.4622	0.1695
271.676	0.1735
271.8897	0.1741
272.1035	0.1762
272.3173	0.1739
272.531	0.176
272.7448	0.172
272.9585	0.178
273.1722	0.1759
273.3859	0.1706
273.5996	0.1682
273.8133	0.1645
274.0269	0.1741
274.2406	0.1658
274.4542	0.1697
274.6679	0.1723
274.8815	0.1748
275.0951	0.175
275.3087	0.1755
275.5223	0.1662
275.7358	0.1755
275.9494	0.1697
276.1629	0.1756
276.3765	0.1676
276.59	0.1722
276.8035	0.1815
277.017	0.1755
277.2305	0.1742
277.444	0.177
277.6574	0.1746
277.8709	0.1753
278.0843	0.1805
278.2978	0.1814
278.5112	0.1778
278.7246	0.1782
278.938	0.1795
279.1513	0.1842
279.3647	0.1783
279.5781	0.1812
279.7914	0.1875
280.0047	0.1777
280.2181	0.1825
280.4314	0.1808
280.6447	0.1873
280.8579	0.1783
281.0712	0.1857
281.2845	0.1848
281.4977	0.1892
281.711	0.1813
281.9242	0.1807
282.1374	0.1858
282.3506	0.1822
282.5638	0.1829
282.7769	0.1829
282.9901	0.1854
283.2033	0.1862
283.4164	0.1878
283.6295	0.1866
283.8426	0.1885
284.0557	0.1805
284.2688	0.1931
284.4819	0.1941
284.695	0.1894
284.908	0.1936
285.1211	0.1837
285.3341	0.1929
285.5471	0.1942
285.7601	0.1891
285.9731	0.1894
286.1861	0.1874
286.3991	0.1942
286.612	0.1961
286.825	0.1963
287.0379	0.2025
287.2508	0.1937
287.4637	0.1948
287.6766	0.195
287.8895	0.1916
288.1024	0.1954
288.3152	0.1995
288.5281	0.1964
288.7409	0.1976
288.9538	0.1897
289.1666	0.1984
289.3794	0.1967
289.5922	0.1959
289.8049	0.2007
290.0177	0.1936
290.2304	0.2034
290.4432	0.1991
290.6559	0.1925
290.8686	0.2004
291.0813	0.201
291.294	0.2
291.5067	0.2048
291.7194	0.1982
291.932	0.2039
292.1447	0.1976
292.3573	0.2007
292.5699	0.2001
292.7825	0.1971
292.9951	0.1987
293.2077	0.2004
293.4203	0.2002
293.6328	0.1952
293.8454	0.1972
294.0579	0.2038
294.2704	0.1969
294.4829	0.2019
294.6954	0.1985
294.9079	0.2046
295.1204	0.1984
295.3328	0.2018
295.5453	0.1978
295.7577	0.1999
295.9701	0.2024
296.1825	0.1913
296.3949	0.2032
296.6073	0.2017
296.8197	0.2024
297.0321	0.2017
297.2444	0.2011
297.4567	0.1974
297.6691	0.1966
297.8814	0.1992
298.0937	0.1998
298.306	0.1971
298.5182	0.2045
298.7305	0.1966
298.9428	0.1966
299.155	0.2013
299.3672	0.1949
299.5794	0.2007
299.7916	0.2006
300.0038	0.1947
300.216	0.1974
300.4282	0.1884
300.6403	0.1977
300.8525	0.1977
301.0646	0.1942
301.2767	0.198
301.4888	0.1955
301.7009	0.1962
301.913	0.1999
302.125	0.2036
302.3371	0.194
302.5491	0.201
302.7612	0.2003
302.9732	0.1927
303.1852	0.1987
303.3972	0.1869
303.6092	0.1955
303.8211	0.1904
304.0331	0.189
304.245	0.1976
304.457	0.1973
304.6689	0.1946
304.8808	0.1891
305.0927	0.1955
305.3046	0.1884
305.5164	0.1889
305.7283	0.1891
305.9401	0.1785
306.152	0.1824
306.3638	0.177
306.5756	0.18
306.7874	0.1863
306.9992	0.1787
307.2109	0.1741
307.4227	0.1693
307.6344	0.1723
307.8462	0.1728
308.0579	0.1649
308.2696	0.165
308.4813	0.1619
308.693	0.1673
308.9046	0.1634
309.1163	0.1621
309.328	0.152
309.5396	0.159
309.7512	0.1544
309.9628	0.1536
310.1744	0.1524
310.386	0.1487
310.5976	0.1444
310.8091	0.1459
311.0207	0.1477
311.2322	0.148
311.4437	0.145
311.6552	0.1476
311.8667	0.1418
312.0782	0.1407
312.2897	0.1429
312.5012	0.1392
312.7126	0.1331
312.924	0.1374
313.1355	0.1281
313.3469	0.1317
313.5583	0.1356
313.7696	0.127
313.981	0.1322
314.1924	0.1293
314.4037	0.1236
314.6151	0.1244
314.8264	0.1289
315.0377	0.1274
315.249	0.1201
315.4603	0.1225
315.6716	0.1284
315.8828	0.1231
316.0941	0.1238
316.3053	0.1218
316.5165	0.1184
316.7277	0.1223
316.9389	0.1226
317.1501	0.1197
317.3613	0.116
317.5724	0.115
317.7836	0.1157
317.9947	0.1106
318.2058	0.1188
318.417	0.1174
318.6281	0.1155
318.8391	0.1172
319.0502	0.1117
319.2613	0.1137
319.4723	0.1153
319.6834	0.1201
319.8944	0.1165
320.1054	0.1187
320.3164	0.1155
320.5274	0.1116
320.7383	0.1163
320.9493	0.1164
321.1602	0.1226
321.3712	0.1157
321.5821	0.1245
321.793	0.1165
322.0039	0.1201
322.2148	0.1169
322.4257	0.1186
322.6365	0.1138
322.8474	0.1164
323.0582	0.1125
323.269	0.1128
323.4798	0.1163
323.6906	0.1178
323.9014	0.1154
324.1122	0.1081
324.3229	0.1234
324.5337	0.1168
324.7444	0.1141
324.9551	0.1205
325.1658	0.1202
325.3765	0.1184
325.5872	0.1141
325.7979	0.1192
326.0085	0.1208
326.2192	0.1138
326.4298	0.1207
326.6404	0.1183
326.851	0.1215
327.0616	0.1268
327.2722	0.1235
327.4828	0.1168
327.6933	0.1132
327.9039	0.1163
328.1144	0.1234
328.3249	0.1234
328.5354	0.1173
328.7459	0.1179
328.9564	0.1259
329.1669	0.1189
329.3773	0.1253
329.5878	0.1218
329.7982	0.1263
330.0086	0.1216
330.219	0.1272
330.4294	0.1288
330.6398	0.1257
330.8502	0.1256
331.0605	0.1209
331.2708	0.1197
331.4812	0.1213
331.6915	0.1243
331.9018	0.1209
332.1121	0.129
332.3224	0.1245
332.5326	0.1283
332.7429	0.1213
332.9531	0.129
333.1633	0.1261
333.3735	0.1265
333.5837	0.1247
333.7939	0.1255
334.0041	0.1267
334.2143	0.1239
334.4244	0.1194
334.6346	0.1224
334.8447	0.1327
335.0548	0.1252
335.2649	0.129
335.475	0.1271
335.685	0.1258
335.8951	0.1321
336.1051	0.1285
336.3152	0.1193
336.5252	0.1271
336.7352	0.1228
336.9452	0.1307
337.1552	0.1284
337.3652	0.1302
337.5751	0.1278
337.7851	0.1299
337.995	0.1276
338.2049	0.1314
338.4148	0.133
338.6247	0.1325
338.8346	0.1245
339.0445	0.1339
339.2543	0.1335
339.4642	0.1328
339.674	0.1393
339.8838	0.1354
340.0936	0.1391
340.3034	0.1413
340.5132	0.1331
340.7229	0.1373
340.9327	0.1472
341.1424	0.1289
341.3522	0.1395
341.5619	0.1327
341.7716	0.1444
341.9813	0.1405
342.1909	0.1408
342.4006	0.1412
342.6102	0.1349
342.8199	0.1373
343.0295	0.1427
343.2391	0.1409
343.4487	0.1462
343.6583	0.146
343.8679	0.142
344.0774	0.1411
344.287	0.1436
344.4965	0.1451
344.706	0.1452
344.9155	0.1412
345.125	0.1455
345.3345	0.1437
345.544	0.1513
345.7534	0.1553
345.9629	0.1496
346.1723	0.1434
346.3817	0.1533
346.5911	0.1551
346.8005	0.1531
347.0099	0.1517
347.2193	0.1505
347.4286	0.1517
347.638	0.152
347.8473	0.1524
348.0566	0.157
348.2659	0.1563
348.4752	0.1601
348.6845	0.1596
348.8937	0.1582
349.103	0.1509
349.3122	0.1645
349.5214	0.1592
349.7306	0.1581
349.9398	0.1622
350.149	0.1655
350.3582	0.1665
350.5674	0.1673
350.7765	0.167
350.9856	0.1683
351.1948	0.1622
351.4039	0.1661
351.613	0.1747
351.822	0.1632
352.0311	0.1646
352.2402	0.1741
352.4492	0.175
352.6582	0.1683
352.8672	0.1662
353.0762	0.17
353.2852	0.1728
353.4942	0.1711
353.7032	0.1699
353.9121	0.1768
354.1211	0.1728
354.33	0.1767
354.5389	0.1768
354.7478	0.1784
354.9567	0.1774
355.1655	0.1848
355.3744	0.1795
355.5833	0.1771
355.7921	0.1812
356.0009	0.1771
356.2097	0.1894
356.4185	0.1829
356.6273	0.1771
356.8361	0.1949
357.0448	0.1934
357.2536	0.1927
357.4623	0.1844
357.671	0.1839
357.8797	0.1898
358.0884	0.1905
358.2971	0.1963
358.5057	0.1854
358.7144	0.1981
358.923	0.198
359.1316	0.1915
359.3402	0.2018
359.5488	0.195
359.7574	0.1998
359.966	0.1994
360.1746	0.1941
360.3831	0.2049
360.5916	0.2006
360.8002	0.2117
361.0087	0.2125
361.2172	0.2085
361.4256	0.1983
361.6341	0.2091
361.8426	0.2126
362.051	0.2103
362.2594	0.211
362.4678	0.2225
362.6762	0.2147
362.8846	0.2234
363.093	0.2136
363.3014	0.2195
363.5097	0.2128
363.718	0.2321
363.9264	0.212
364.1347	0.2287
364.343	0.2277
364.5513	0.2231
364.7595	0.2247
364.9678	0.2339
365.176	0.2273
365.3842	0.2292
365.5925	0.2248
365.8007	0.2428
366.0089	0.226
366.217	0.2379
366.4252	0.2432
366.6333	0.2327
366.8415	0.2451
367.0496	0.2429
367.2577	0.2387
367.4658	0.2486
367.6739	0.2325
367.882	0.2513
368.09	0.2457
368.2981	0.2419
368.5061	0.2456
368.7141	0.242
368.9221	0.2554
369.1301	0.2535
369.3381	0.2597
369.5461	0.2537
369.754	0.2434
369.962	0.2575
370.1699	0.264
370.3778	0.2516
370.5857	0.2608
370.7936	0.254
371.0015	0.2596
371.2093	0.261
371.4172	0.2599
371.625	0.2629
371.8328	0.2639
372.0406	0.2586
372.2484	0.2577
372.4562	0.2602
372.664	0.2704
372.8717	0.2733
373.0795	0.2766
373.2872	0.2705
373.4949	0.2763
373.7026	0.2803
373.9103	0.2643
374.118	0.275
374.3256	0.2819
374.5333	0.271
374.7409	0.2752
374.9485	0.2749
375.1561	0.2886
375.3637	0.2827
375.5713	0.2744
375.7789	0.271
375.9864	0.2852
376.194	0.2857
376.4015	0.2838
376.609	0.283
376.8165	0.2873
377.024	0.2847
377.2315	0.2971
377.4389	0.2682
377.6464	0.2889
377.8538	0.2873
378.0612	0.2835
378.2686	0.2929
378.476	0.284
378.6834	0.2854
378.8908	0.2976
379.0981	0.2964
379.3055	0.3069
379.5128	0.303
379.7201	0.2977
379.9274	0.2904
380.1347	0.2972
380.342	0.303
380.5492	0.2904
380.7565	0.3021
380.9637	0.2981
381.1709	0.3035
381.3781	0.3063
381.5853	0.3011
381.7925	0.303
381.9997	0.3105
382.2068	0.2962
382.4139	0.3109
382.6211	0.3155
382.8282	0.3182
383.0353	0.3067
383.2424	0.3118
383.4494	0.3135
383.6565	0.3085
383.8635	0.3037
384.0706	0.3047
384.2776	0.3216
384.4846	0.3188
384.6916	0.3086
384.8986	0.3113
385.1055	0.3157
385.3125	0.3113
385.5194	0.3118
385.7263	0.3125
385.9333	0.3194
386.1402	0.328
386.347	0.3141
386.5539	0.3232
386.7608	0.3168
386.9676	0.3119
387.1744	0.3196
387.3813	0.3111
387.5881	0.3169
387.7948	0.3175
388.0016	0.3124
388.2084	0.3248
388.4151	0.3106
388.6219	0.3067
388.8286	0.3176
389.0353	0.2998
389.242	0.3116
389.4487	0.3087
389.6553	0.3128
389.862	0.2954
390.0686	0.3087
390.2753	0.2926
390.4819	0.3086
390.6885	0.3038
390.8951	0.3073
391.1016	0.3018
391.3082	0.3018
391.5147	0.2942
391.7213	0.2975
391.9278	0.3039
392.1343	0.2863
392.3408	0.2866
392.5473	0.2888
392.7537	0.301
392.9602	0.2865
393.1666	0.2954
393.373	0.2854
393.5794	0.2958
393.7858	0.2907
393.9922	0.2866
394.1986	0.2832
394.4049	0.2816
394.6113	0.2912
394.8176	0.2725
395.0239	0.2777
395.2302	0.2716
395.4365	0.2749
395.6428	0.2782
395.8491	0.2763
396.0553	0.2647
396.2615	0.2721
396.4678	0.2726
396.674	0.2679
396.8802	0.2686
397.0863	0.2747
397.2925	0.2655
397.4987	0.2719
397.7048	0.2796
397.9109	0.2848
398.117	0.2628
398.3231	0.2763
398.5292	0.2732
398.7353	0.2696
398.9413	0.2664
399.1474	0.2748
399.3534	0.2694
399.5594	0.2739
399.7654	0.2604
399.9714	0.2629
400.1774	0.2563
400.3833	0.2775
400.5893	0.2605
400.7952	0.2677
401.0011	0.2649
401.207	0.2651
401.4129	0.2645
401.6188	0.2677
401.8247	0.2701
402.0305	0.2539
402.2364	0.266
402.4422	0.261
402.648	0.2709
402.8538	0.2665
403.0596	0.255
403.2654	0.2677
403.4711	0.2647
403.6768	0.2676
403.8826	0.2677
404.0883	0.2623
404.294	0.2727
404.4997	0.2597
404.7054	0.2647
404.911	0.2604
405.1167	0.2604
405.3223	0.2685
405.5279	0.2687
405.7335	0.2589
405.9391	0.266
406.1447	0.2713
406.3502	0.2663
406.5558	0.2617
406.7613	0.2651
406.9668	0.2659
407.1724	0.2641
407.3778	0.2671
407.5833	0.257
407.7888	0.2713
407.9942	0.2666
408.1997	0.2672
408.4051	0.2605
408.6105	0.2696
408.8159	0.2726
409.0213	0.2801
409.2267	0.2661
409.432	0.2676
409.6374	0.2727
409.8427	0.2692
410.048	0.2543
410.2533	0.263
410.4586	0.2676
410.6639	0.2643
410.8691	0.2655
411.0744	0.269
411.2796	0.2803
411.4848	0.2584
411.69	0.2698
411.8952	0.2702
412.1004	0.2701
412.3056	0.2702
412.5107	0.2652
412.7158	0.2721
412.921	0.2725
413.1261	0.2688
413.3312	0.2609
413.5362	0.2719
413.7413	0.2649
413.9464	0.2598
414.1514	0.2737
414.3564	0.2579
414.5614	0.2653
414.7664	0.2565
414.9714	0.2608
415.1764	0.2604
415.3813	0.2527
415.5863	0.2575
415.7912	0.2623
415.9961	0.2593
416.201	0.2597
416.4059	0.255
416.6108	0.257
416.8156	0.2584
417.0205	0.2585
417.2253	0.2667
417.4301	0.2695
417.6349	0.2624
417.8397	0.2671
418.0445	0.2502
418.2492	0.2656
418.454	0.256
418.6587	0.2577
418.8634	0.2509
419.0681	0.2527
419.2728	0.2529
419.4775	0.2627
419.6822	0.2461
419.8868	0.2646
420.0915	0.2612
420.2961	0.245
420.5007	0.251
420.7053	0.2569
420.9099	0.2444
421.1144	0.2426
421.319	0.2437
421.5235	0.2435
421.728	0.2485
421.9325	0.2443
422.137	0.2556
422.3415	0.2409
422.546	0.2435
422.7504	0.2479
422.9549	0.2315
423.1593	0.2425
423.3637	0.2356
423.5681	0.2466
423.7725	0.2367
423.9769	0.241
424.1812	0.2359
424.3856	0.2374
424.5899	0.23
424.7942	0.2196
424.9985	0.2229
425.2028	0.2315
425.4071	0.2177
425.6113	0.2315
425.8156	0.2251
426.0198	0.2238
426.224	0.2303
426.4282	0.2198
426.6324	0.2261
426.8366	0.2212
427.0407	0.2191
427.2449	0.2171
427.449	0.2226
427.6531	0.2213
427.8572	0.2207
428.0613	0.2119
428.2654	0.2192
428.4694	0.2079
428.6735	0.2049
428.8775	0.2051
429.0815	0.2021
429.2855	0.2038
429.4895	0.199
429.6935	0.1975
429.8975	0.2073
430.1014	0.2
430.3053	0.2018
430.5093	0.1899
430.7132	0.1968
430.9171	0.1857
431.1209	0.1897
431.3248	0.1787
431.5286	0.1784
431.7325	0.1946
431.9363	0.1863
432.1401	0.1849
432.3439	0.1676
432.5477	0.1818
432.7514	0.1757
432.9552	0.1748
433.1589	0.1746
433.3627	0.1755
433.5664	0.1692
433.7701	0.172
433.9737	0.1789
434.1774	0.172
434.3811	0.1715
434.5847	0.1609
434.7883	0.1542
434.9919	0.1518
435.1955	0.1567
435.3991	0.1543
435.6027	0.148
435.8062	0.1558
436.0098	0.1536
436.2133	0.1531
436.4168	0.1469
436.6203	0.1456
436.8238	0.1404
437.0272	0.1439
437.2307	0.1307
437.4341	0.1361
437.6375	0.1311
437.841	0.1351
438.0443	0.1321
438.2477	0.1306
438.4511	0.1278
438.6545	0.127
438.8578	0.1283
439.0611	0.134
439.2644	0.116
439.4677	0.1219
439.671	0.1121
439.8743	0.1122
440.0775	0.1108
440.2808	0.1242
440.484	0.1066
440.6872	0.1037
440.8904	0.1141
441.0936	0.1116
441.2967	0.0986
441.4999	0.1018
441.703	0.1038
441.9062	0.1007
442.1093	0.0987
442.3124	0.0909
442.5155	0.0971
442.7185	0.0844
442.9216	0.0991
443.1246	0.0879
443.3276	0.0821
443.5307	0.0823
443.7337	0.0879
443.9366	0.0926
444.1396	0.0786
444.3426	0.0893
444.5455	0.0768
444.7484	0.0749
444.9513	0.0876
445.1542	0.0805
445.3571	0.0675
445.56	0.0682
445.7628	0.0738
445.9657	0.0763
446.1685	0.0764
446.3713	0.0694
446.5741	0.0601
446.7769	0.0702
446.9797	0.0669
447.1824	0.0671
447.3852	0.0584
447.5879	0.0661
447.7906	0.0613
447.9933	0.0645
448.196	0.0537
448.3986	0.0573
448.6013	0.0552
448.8039	0.0563
449.0066	0.0525
449.2092	0.0451
449.4118	0.0562
449.6143	0.0504
449.8169	0.0483
450.0195	0.0461
450.222	0.0499
450.4245	0.0571
450.627	0.0449
450.8295	0.0428
451.032	0.0484
451.2345	0.0433
451.4369	0.0468
451.6394	0.0467
451.8418	0.0419
452.0442	0.0431
452.2466	0.0401
452.449	0.0326
452.6513	0.0348
452.8537	0.0418
453.056	0.0409
453.2583	0.0361
453.4607	0.03
453.663	0.034
453.8652	0.0289
454.0675	0.0422
454.2697	0.0253
454.472	0.0285
454.6742	0.0248
454.8764	0.0273
455.0786	0.0351
455.2808	0.0301
455.4829	0.0179
455.6851	0.0257
455.8872	0.0344
456.0893	0.0219
456.2915	0.0204
456.4935	0.0221
456.6956	0.0192
456.8977	0.0246
457.0997	0.0224
457.3018	0.027
457.5038	0.0286
457.7058	0.0122
457.9078	0.0313
458.1098	0.0228
458.3117	0.0263
458.5137	0.0303
458.7156	0.0265
458.9175	0.0175
459.1194	0.0283
459.3213	0.0224
459.5232	0.0182
459.725	0.0159
459.9269	0.0135
460.1287	0.0148
460.3305	0.0179
460.5323	0.0126
460.7341	0.0109
460.9359	0.015
461.1376	0.0144
461.3394	0.0084
461.5411	0.0193
461.7428	0.0157
461.9445	0.0134
462.1462	0.0108
462.3479	0.0091
462.5495	0.0031
462.7512	0.0136
462.9528	0.019
463.1544	0.0033
463.356	0.0167
463.5576	0.0136
463.7592	0.0034
463.9607	0.0121
464.1623	0.0177
464.3638	0.0132
464.5653	0.0076
464.7668	0.0056
464.9683	0.0139
465.1697	0.0059
465.3712	0.01
465.5726	0.0107
465.7741	0.0146
465.9755	0.0152
466.1769	0.0081
466.3782	0.0044
466.5796	0.0097
466.7809	0.0167
466.9823	0.0119
467.1836	0.0162
467.3849	0.0025
467.5862	-0.0016
467.7875	0.0186
467.9887	0.0103
468.19	0.0025
468.3912	0.0028
468.5924	0.0149
468.7936	0.0034
468.9948	0.0105
469.196	0.0091
469.3972	0.013
469.5983	0.0024
469.7994	0.0028
470.0006	0.0014
470.2017	0.021
470.4027	0.0071
470.6038	-0.0037
470.8049	0.0009
471.0059	0.0181
471.2069	0.0151
471.408	0.0035
471.6089	0.009
471.8099	0.0049
472.0109	-0.0015
472.2119	0.0096
472.4128	0.0118
472.6137	0.0021
472.8146	0.0082
473.0155	0.0015
473.2164	0.0025
473.4173	0.0097
473.6181	0.0044
473.819	0.0002
474.0198	0.0044
474.2206	0.0099
474.4214	0.0085
474.6222	0.0029
474.8229	0.0045
475.0237	0.0046
475.2244	0.0113
475.4251	0.0019
475.6258	0.0047
475.8265	0.003
476.0272	0.0022
476.2278	0.0032
476.4285	-0.0027
476.6291	0.0143
476.8297	0.0021
477.0303	0.0109
477.2309	0.0001
477.4315	0.0079
477.632	-0.0053
477.8326	0.0069
478.0331	0.0038
478.2336	0.0126
478.4341	0.0065
478.6346	0.0055
478.8351	0.006
479.0355	0.0115
479.236	-0.003
479.4364	-0.0036
479.6368	0.0025
479.8372	0.0116
480.0376	-0.0006
480.2379	0.0032
480.4383	0.0018
480.6386	0
480.8389	0.0062
481.0392	0.0095
481.2395	0.012
481.4398	0.0047
481.6401	0.0025
481.8403	-0.0076
482.0405	-0.0019
482.2408	0.0003
482.441	0.0053
482.6411	-0.0018
482.8413	-0.008
483.0415	0.0064
483.2416	0.0054
483.4417	0.0036
483.6419	-0.0013
483.8419	0.0082
484.042	0.0093
484.2421	0.0073
484.4422	0.0014
484.6422	0.0077
484.8422	0.0067
485.0422	0.0053
485.2422	-0.0033
485.4422	-0.0019
485.6422	-0.0011
485.8421	-0.0021
486.042	0.0081
486.242	0.0009
486.4419	0.0047
486.6417	-0.0005
486.8416	0.0033
487.0415	-0.0004
487.2413	0.0025
487.4411	0.0015
487.641	0.0107
487.8408	0.0038
488.0405	0.0063
488.2403	-0.0071
488.4401	-0.0015
488.6398	0.0026
488.8395	-0.0044
489.0392	0.0024
489.2389	0.0053
489.4386	-0.0004
489.6383	-0.0023
489.8379	-0.0035
490.0376	0.0086
490.2372	-0.0012
490.4368	0.0097
490.6364	0.0029
490.836	0.0016
491.0355	0.0059
491.2351	0.0011
491.4346	0.0017
491.6341	-0.0036
491.8336	-0.005
492.0331	-0.0002
492.2326	0.0063
492.432	0.0028
492.6315	-0.003
492.8309	0.0081
493.0303	-0.0018
493.2297	-0.0079
493.4291	-0.008
493.6284	-0.0001
493.8278	0.0067
494.0271	0.0021
494.2264	0.0021
494.4257	0.0063
494.625	0.0022
494.8243	-0.0042
495.0236	0.0045
495.2228	-0.0036
495.422	0.0059
495.6213	0.0103
495.8205	-0.0015
496.0196	0.0063
496.2188	-0.0009
496.418	-0.0017
496.6171	-0.004
496.8162	0.0017
497.0153	0.0059
497.2144	-0.0085
497.4135	0.0088
497.6126	-0.0079
497.8116	0.004
498.0107	-0.0063
498.2097	0.0054
498.4087	-0.0027
498.6077	0.0044
498.8067	0.008
499.0056	-0.0029
499.2046	-0.0047
499.4035	-0.0002
499.6024	-0.0111
499.8013	0.0009
500.0002	0.0129
500.199	0.0042
500.3979	0.0064
500.5967	-0.0084
500.7956	0.0003
500.9944	0.0011
501.1932	0.0109
501.3919	0.0008
501.5907	0.0063
501.7895	0.0031
501.9882	0.0004
502.1869	0.001
502.3856	-0.0061
502.5843	0.0025
502.783	0.002
502.9816	0.0059
503.1803	0.0113
503.3789	0.0047
503.5775	0.003
503.7761	-0.0012
503.9747	-0.0012
504.1732	0.0006
504.3718	-0.0037
504.5703	-0.0004
504.7689	-0.004
504.9674	-0.0015
505.1658	0.0063
505.3643	-0.0013
505.5628	-0.0006
505.7612	0.001
505.9597	-0.003
506.1581	-0.0145
506.3565	-0.0143
506.5549	0.0041
506.7532	0.0021
506.9516	-0.0057
507.1499	0.0035
507.3482	0.0056
507.5465	-0.0072
507.7448	0.0005
507.9431	0.0025
508.1414	-0.0001
508.3396	-0.0008
508.5379	-0.0019
508.7361	0.003
508.9343	-0.0051
509.1325	0.0068
509.3306	0.0004
509.5288	0.0095
509.7269	0.0092
509.9251	-0.0083
510.1232	-0.0068
510.3213	-0.0006
510.5193	0.0079
510.7174	-0.0019
510.9154	0.0001
511.1135	-0.0015
511.3115	0.0007
511.5095	0.0036
511.7075	0.0005
511.9055	0.0095
512.1034	0.0078
512.3014	-0.0069
512.4993	-0.009
512.6972	-0.0026
512.8951	-0.0002
513.093	0.0008
513.2908	0.0007
513.4887	0.0176
513.6865	-0.0036
513.8844	0.0053
514.0822	0.0207
514.2799	-0.0033
514.4777	-0.0096
514.6755	0.0027
514.8732	0.0027
515.0709	0.0052
515.2687	0.001
515.4664	-0.0051
515.664	-0.0055
515.8617	0.0171
516.0594	0.0034
516.257	0.005
516.4546	-0.0013
516.6522	-0.0059
516.8498	-0.0022
517.0474	-0.0018
517.2449	-0.0034
517.4425	0.0016
517.64	0.013
517.8375	0.0021
518.035	0.0001
518.2325	-0.0065
518.43	-0.0019
518.6274	-0.0069
518.8249	0.0075
519.0223	-0.0009
519.2197	0.0039
519.4171	-0.0019
519.6145	-0.004
519.8118	-0.0019
520.0092	0.0031
520.2065	0.004
520.4038	-0.0014
520.6011	0.008
520.7984	-0.0024
520.9956	-0.0011
521.1929	-0.002
521.3901	0.0072
521.5874	0.0014
521.7846	0.0031
521.9818	-0.0097
522.1789	0.0101
522.3761	-0
522.5732	0.0003
522.7704	0.0102
522.9675	-0.0006
523.1646	0.0081
523.3617	0.0059
523.5587	-0.0039
523.7558	-0.002
523.9528	0.0061
524.1498	0.0066
524.3468	-0.0041
524.5438	-0.0109
524.7408	-0.0062
524.9378	0.0002
525.1347	0.007
525.3316	0.0205
525.5285	-0.0016
525.7254	0.0065
525.9223	0.0021
526.1192	-0.0066
526.316	-0.019
526.5129	0.0005
526.7097	-0.0016
526.9065	0.0059
527.1033	0.0035
527.3	-0.0126
527.4968	-0.0045
527.6935	0.0055
527.8903	0.0064
528.087	-0.0033
528.2837	-0.0022
528.4804	-0.0027
528.677	0.0007
528.8737	0.0031
529.0703	0.0087
529.2669	0.0091
529.4635	0.0133
529.6601	0.0083
529.8567	0.0028
530.0532	0.001
530.2498	-0.0055
530.4463	0.0097
530.6428	-0.013
530.8393	-0.0031
531.0358	0.0049
531.2322	0.0053
531.4287	0.0011
531.6251	-0.0061
531.8215	0.0049
532.0179	-0.0054
532.2143	0.0048
532.4107	-0
532.607	-0.0029
532.8034	0.0047
532.9997	0.003
533.196	0.0092
533.3923	0.0019
533.5886	0.0017
533.7848	-0.0031
533.9811	-0.0071
534.1773	-0.0014
534.3735	-0.0012
534.5697	-0.0014
534.7659	0.0013
534.9621	0.0135
535.1582	0.0029
535.3544	0.005
535.5505	0.0044
535.7466	-0.0074
535.9427	-0.0045
536.1387	-0.0041
536.3348	0.0138
536.5308	0.0157
536.7269	-0.007
536.9229	0.0102
537.1189	-0.003
537.3148	-0.0058
537.5108	-0.0009
537.7068	0.0007
537.9027	0.0008
538.0986	-0.0012
538.2945	-0.0057
538.4904	0.0024
538.6863	0.004
538.8821	-0.0122
539.078	0.0011
539.2738	-0.0035
539.4696	0.0095
539.6654	-0.0023
539.8611	-0.0011
540.0569	0.001
540.2526	-0.0095
540.4484	-0.0102
540.6441	-0.0025
540.8398	-0.006
541.0355	0.0076
541.2311	0.0078
541.4268	-0.0055
541.6224	0.0083
541.818	0.0004
542.0136	-0.0011
542.2092	0.0009
542.4048	0.0053
542.6003	0.0025
542.7959	0.0088
542.9914	-0.0033
543.1869	-0.0067
543.3824	0.0021
543.5779	-0.0007
543.7734	-0.0026
543.9688	0.0016
544.1642	0.001
544.3596	-0.003
544.555	0.0025
544.7504	-0.0041
544.9458	0.0008
545.1411	0.0018
545.3365	0.0102
545.5318	0.0003
545.7271	0.0086
545.9224	-0.0119
546.1177	0.0018
546.3129	-0.0134
546.5081	-0.0141
546.7034	-0.0124
546.8986	0.0013
547.0938	-0.001
547.289	-0.0055
547.4841	0.009
547.6793	-0.0064
547.8744	-0.0047
548.0695	0.0082
548.2646	-0.0093
548.4597	0.0014
548.6548	0.0043
548.8498	-0.0056
549.0448	-0.0031
549.2399	-0.0016
549.4349	0.0049
549.6298	-0.0109
549.8248	-0.0053
550.0198	0.0175
550.2147	-0.0031
550.4096	-0.0049
550.6045	0.005
550.7994	0.0081
550.9943	-0.003
551.1892	-0.0015
551.384	-0.0002
551.5788	0.0056
551.7737	-0.0001
551.9685	0.004
552.1632	-0.0003
552.358	0.0063
552.5528	-0.0016
552.7475	-0.0072
552.9422	-0.0004
553.1369	0.0085
553.3316	-0.0082
553.5263	0.0029
553.7209	-0.0083
553.9156	0.0051
554.1102	-0.0039
554.3048	0.0081
554.4994	0.0095
554.694	-0.0007
554.8885	0.0044
555.0831	0.0068
555.2776	-0.003
555.4721	-0.0045
555.6666	0.0098
555.8611	-0.0004
556.0555	0.0119
556.25	-0.0021
556.4444	0.007
556.6388	-0.0039
556.8332	0.0028
557.0276	0.0128
557.222	-0.0041
557.4163	0.011
557.6107	0.0018
557.805	-0.0079
557.9993	0.002
558.1936	0.0121
558.3879	0.008
558.5821	-0.0151
558.7764	0.0083
558.9706	0.0004
559.1648	0.0049
559.359	0.013
559.5532	-0.0145
559.7473	-0
559.9415	0.0019
560.1356	0.004
560.3297	-0.0007
560.5238	0.0038
560.7179	0.0005
560.9119	0.0117
561.106	-0.002
561.3	0.0041
561.494	0.0021
561.688	-0.0055
561.882	-0.0065
562.076	0.0123
562.2699	0.0041
562.4639	0.0041
562.6578	0.0045
562.8517	-0.0027
563.0456	0.0011
563.2395	0.003
563.4333	0.0006
563.6272	0.006
563.821	0.0003
564.0148	-0.0066
564.2086	0.0037
564.4024	-0.0032
564.5961	0.0001
564.7899	-0.0054
564.9836	0.0012
565.1773	-0.0047
565.371	0.0001
565.5647	-0.0025
565.7584	0.0074
565.952	-0.0038
566.1456	0.004
566.3393	0.0079
566.5329	0.0001
566.7264	-0.0025
566.92	-0.0026
567.1136	0.0015
567.3071	-0.0041
567.5006	-0.0053
567.6941	0.0014
567.8876	-0.0062
568.0811	-0.0087
568.2745	-0.0066
568.468	0.006
568.6614	-0.0032
568.8548	-0.0014
569.0482	0.003
569.2416	-0.0055
569.4349	-0.0019
569.6283	-0.0004
569.8216	-0.0008
570.0149	0.008
570.2082	0
570.4015	0.0019
570.5947	-0.0022
570.788	-0.0041
570.9812	-0.002
571.1744	-0.0058
571.3676	-0.0003
571.5608	-0.0069
571.754	-0.0035
571.9471	0.0089
572.1402	0.003
572.3333	-0.0037
572.5264	0.0061
572.7195	0.0051
572.9126	-0.0008
573.1057	0.0048
573.2987	0.0041
573.4917	-0.0012
573.6847	-0.0004
573.8777	0.0003
574.0707	-0.0007
574.2636	0.0025
574.4566	0.0004
574.6495	0.002
574.8424	-0.001
575.0353	-0.0033
575.2281	-0.0036
575.421	-0.0023
575.6138	-0.0018
575.8067	0.0008
575.9995	0.0003
576.1923	0.0017
576.385	-0.0001
576.5778	0.0005
576.7706	0.0069
576.9633	0.0031
577.156	0.0021
577.3487	0.0008
577.5414	0.0004
577.734	0.0006
577.9267	0.0013
578.1193	0.0006
578.3119	-0.0023
578.5045	-0.0047
578.6971	0.0011
578.8897	-0.0021
579.0822	0.0029
579.2747	-0.0043
579.4673	0.0003
579.6598	0.004
579.8522	0.0033
580.0447	0.0027
580.2372	0.0042
580.4296	-0.0014
580.622	0.0011
580.8144	-0.003
581.0068	0.0003
581.1992	-0.0009
581.3915	-0.0006
581.5839	0.0021
581.7762	0.0025
581.9685	-0.0005
582.1608	0.0015
582.353	-0.0037
582.5453	0.0017
582.7375	-0.002
582.9298	-0.0021
583.122	-0.0006
583.3142	0.002
583.5063	-0.0055
583.6985	0.0004
583.8906	0.0005
584.0827	0.0005
584.2749	-0.0005
584.4669	0.0018
584.659	0.0044
584.8511	0.0016
585.0431	-0.0021
585.2352	-0.0049
585.4272	0.0015
585.6192	0.0026
585.8111	-0.0057
586.0031	0.0005
586.195	0.0001
586.387	0.0037
586.5789	0.0001
586.7708	0.0013
586.9627	0.0051
587.1545	0
587.3464	0.0022
587.5382	-0.0006
587.73	0.004
587.9218	0.0012
588.1136	-0.009
588.3053	0.0033
588.4971	0.0063
588.6888	0.0007
588.8805	0.0055
589.0722	0.0034
589.2639	-0.0009
589.4556	0.0015
589.6472	-0.0034
589.8389	0.0047
590.0305	0.0074
590.2221	0.0064
590.4137	-0.0025
590.6052	0.0008
590.7968	0.0031
590.9883	-0.0013
591.1798	-0.0094
591.3713	0.0023
591.5628	0.0007
591.7543	-0.0005
591.9458	-0.0027
592.1372	-0.0023
592.3286	-0.005
592.52	-0.0024
592.7114	-0.0052
592.9028	0.0011
593.0941	-0.0028
593.2855	0.0016
593.4768	0.0017
593.6681	0.0017
593.8594	-0.0015
594.0506	0.0048
594.2419	-0.003
594.4331	-0.0004
594.6244	0.0064
594.8156	-0.0035
595.0067	0.0042
595.1979	-0.0055
595.3891	-0.0025
595.5802	0.0014
595.7713	0.0013
595.9624	0.0049
596.1535	-0.0001
596.3446	-0.0034
596.5357	-0.0056
596.7267	0.0022
596.9177	-0.0007
597.1087	0.0033
597.2997	0.002
597.4907	-0.0021
597.6817	-0.0041
597.8726	0.0024
598.0635	-0.0015
598.2544	-0.0064
598.4453	-0.0037
598.6362	-0.0051
598.827	0.002
599.0179	-0.0001
599.2087	-0.0013
599.3995	-0.0001
599.5903	0.0031
599.7811	-0.0035
599.9718	-0.0024
600.1626	0.0027
600.3533	-0.0002
600.544	0.0012
600.7347	0.0007
600.9254	0.0038
601.116	0.0036
601.3067	0.0047
601.4973	0.0041
601.6879	-0.0015
601.8785	0.0023
602.0691	0.0044
602.2596	-0.0023
602.4502	0.0026
602.6407	0.0007
602.8312	-0.0026
603.0217	0.0023
603.2122	0.0029
603.4027	-0.0018
603.5931	-0.0019
603.7835	0.0008
603.9739	0.0056
604.1643	0.0035
604.3547	0.0003
604.5451	0.0026
604.7354	-0.009
604.9257	0.0035
605.116	0.0018
605.3063	-0.005
605.4966	0.0041
605.6869	-0.0038
605.8771	0.0018
606.0673	-0.001
606.2575	0.0004
606.4477	0.0055
606.6379	-0.0048
606.8281	-0.0063
607.0182	-0.0042
607.2083	-0.0013
607.3985	0.0031
607.5885	-0.0026
607.7786	0.009
607.9687	-0.0059
608.1587	0.0005
608.3488	-0.0048
608.5388	-0.0007
608.7288	-0.0047
608.9187	0.008
609.1087	0.0026
609.2986	-0.0049
609.4886	0.0056
609.6785	0.0052
609.8684	-0.0053
610.0582	0.0012
610.2481	-0.0059
610.4379	-0.0011
610.6278	0.0039
610.8176	-0.0028
611.0074	-0.0022
611.1971	0.003
611.3869	0.0003
611.5766	0.0008
611.7664	0.0059
611.9561	-0.0078
612.1458	-0.0063
612.3354	0.0022
612.5251	-0.0007
612.7147	0.0026
612.9044	-0.0054
613.094	0.0048
613.2836	-0.0137
613.4731	-0.0005
613.6627	0.0094
613.8522	-0.0053
614.0417	0.0008
614.2313	-0.0067
614.4207	0.0012
614.6102	0.0007
614.7997	-0.0028
614.9891	0.0014
615.1785	-0.008
615.3679	0.0005
615.5573	-0.0088
615.7467	-0.0022
615.9361	-0.0033
616.1254	-0.0038
616.3147	0.0026
616.504	0.0021
616.6933	-0.0032
616.8826	0.005
617.0718	-0.0041
617.2611	-0.0054
617.4503	-0.0015
617.6395	-0.0011
617.8287	-0.0008
618.0179	-0.0076
618.207	0.0011
618.3961	-0.0042
618.5853	-0.0034
618.7744	-0.0035
618.9634	0.0007
619.1525	0.0073
619.3416	-0.008
619.5306	0.004
619.7196	-0.009
619.9086	0.0062
620.0976	0.0017
620.2866	0.0016
620.4755	0.0153
620.6645	-0.011
620.8534	-0.0122
621.0423	-0.0138
621.2312	0.0024
621.42	-0.0026
621.6089	-0.0091
621.7977	-0.0011
621.9865	0.0045
622.1753	0.0029
622.3641	-0.0159
622.5529	-0.0085
622.7416	-0.0064
622.9303	-0.0031
623.1191	-0.0037
623.3078	-0.0055
623.4964	-0.0135
623.6851	0.0124
623.8737	0.0071
624.0624	0.0044
624.251	0.0102
624.4396	-0.005
624.6282	-0.0006
624.8167	0.0132
625.0053	0.0027
625.1938	0.0087
625.3823	-0.006
625.5708	-0.0072
625.7593	0.0032
625.9477	-0.0067
626.1362	-0.0048
626.3246	-0.0176
626.513	0.0059
626.7014	0.0022
626.8898	0.0069
627.0781	0.007
627.2665	0.0032
627.4548	-0.0102
627.6431	-0.0064
627.8314	-0.0005
628.0197	0.0036
628.2079	-0.005
628.3962	0.0025
628.5844	-0.0031
628.7726	-0.0092
628.9608	0.0043
629.1489	-0.0018
629.3371	-0.008
629.5252	0.0104
629.7134	0.0177
629.9015	-0.0022
630.0895	0.0022
630.2776	-0.004
630.4657	0.0097
630.6537	-0.0052
630.8417	-0.0045
631.0297	-0.0055
631.2177	-0.0122
631.4057	-0.007
631.5936	0.0021
631.7815	0.0038
631.9695	0.0141
632.1574	-0.0018
632.3452	0.0113
632.5331	0.008
632.7209	0.0021
632.9088	-0.01
633.0966	-0.006
633.2844	-0
633.4722	0.0019
633.6599	-0.0164
633.8477	0.0055
634.0354	0.0027
634.2231	0.0127
634.4108	-0.0036
634.5985	-0.0047
634.7861	-0.0108
634.9738	0.0082
635.1614	-0
635.349	-0.0027
635.5366	-0.0075
635.7242	-0.0012
635.9117	0.0133
636.0993	-0.0258
636.2868	0.0046
636.4743	0.0108
636.6618	-0.0006
636.8492	0.0013
637.0367	-0.0061
637.2241	0.0057
637.4115	0.0026
637.5989	-0.0022
637.7863	-0.0125
637.9737	0.0017
638.161	0.0006
638.3484	0.0077
638.5357	-0.0037
638.723	-0.0006
638.9103	-0.0026
639.0975	0.0157
639.2848	0.0175
639.472	-0.0055
639.6592	0.0039
639.8464	0.0107
640.0336	0.0143
640.2208	-0.0141
640.4079	0.0163
640.595	0.0062
640.7821	-0.0029
640.9692	0.0108
641.1563	0.0045
641.3434	0.0186
641.5304	0.0006
641.7174	0.0044
641.9044	0.0022
642.0914	-0.0188
642.2784	0.0226
642.4653	-0.0117
642.6523	-0.0045
642.8392	0.0108
643.0261	-0.0057
643.213	0.0036
643.3999	-0.0119
643.5867	0.0038
643.7735	0.0259
643.9604	-0.0262
644.1472	0.0067
644.3339	-0.0113
644.5207	-0.001
644.7075	0.0071
644.8942	0.0283
645.0809	-0.0154
645.2676	-0.0118
645.4543	0.0135
645.6409	-0.034
645.8276	-0.0054
646.0142	0.0093
646.2008	0.0028
646.3874	0.0185
646.574	-0.0031
646.7605	0.0144
646.9471	-0.0112
647.1336	0.0092
647.3201	0.003
647.5066	-0.0111
647.6931	-0.0169
647.8795	0.0111
648.0659	-0.0078
648.2524	-0.0107
648.4388	-0.002
648.6252	-0.0136
648.8115	-0.0002
648.9979	0.0147
649.1842	-0.0223
649.3705	0.0005
649.5568	-0.0149
649.7431	-0.0126
649.9294	-0.0026
650.1156	-0.006
650.3018	0.0182
650.488	-0.0077
650.6742	0.0143
650.8604	0.0116
651.0466	0.0093
651.2327	-0.0032
651.4188	-0.0256
651.6049	-0.0112
651.791	0.0206
651.9771	0.0049
652.1632	-0.0017
652.3492	0.0017
652.5352	0.0063
652.7212	-0.0176
652.9072	-0.0084
653.0932	-0.0048
653.2791	-0.0015
653.465	0.0008
653.651	0.0129
653.8369	0.0145
654.0227	-0.0087
654.2086	-0.0124
654.3944	-0.023
654.5803	0.0084
654.7661	-0.0008
654.9519	0.0021
655.1377	-0.0001
655.3234	-0.0001
655.5092	-0.0001
655.6949	-0.0001
655.8806	-0.0001
656.0663	-0.0001
656.2519	-0.0001
656.4376	-0.0001
656.6232	-0.0001
656.8088	-0.0001
656.9945	-0.0001
657.18	-0.0001
657.3656	-0.0001
657.5511	-0.0001
657.7367	-0.0001
657.9222	-0.0001
658.1077	-0.0001
658.2932	-0.0001
658.4786	-0.0001
658.6641	-0.0001
658.8495	-0.0001
659.0349	-0.0001
659.2203	-0.0001
659.4057	0.0045
659.591	0.0697
659.7764	0.0009
659.9617	0.009
660.147	-0.0191
660.3323	0.002
660.5176	-0.0067
660.7028	0.0015
660.888	0.0018
661.0733	0.0113
661.2585	0.011
661.4436	0.0103
661.6288	0.0002
661.8139	0.0044
661.9991	-0.0013
662.1842	0.0105
662.3693	-0.0023
662.5544	0.0024
662.7394	0.0152
662.9245	0.0196
663.1095	0.0287
663.2945	-0.0079
663.4795	-0.0172
663.6644	0.0195
663.8494	0.0087
664.0343	-0.0062
664.2193	-0.0101
664.4042	-0.0288
664.589	-0.0308
664.7739	-0.0008
664.9587	-0.0198
665.1436	-0.0085
665.3284	0.002
665.5132	0.0201
665.698	-0.0023
665.8827	-0.004
666.0675	-0.0107
666.2522	0.0125
666.4369	-0.0247
666.6216	-0.0001
666.8063	-0.0215
666.9909	-0.0065
667.1756	0.0085
667.3602	-0.0031
667.5448	0.0006
667.7294	0.0043
667.9139	-0.0277
668.0985	0.001
668.283	-0.0144
668.4675	-0.0165
668.652	-0.01
668.8365	-0.0099
669.0209	-0.0049
669.2054	-0.0068
669.3898	0.0074
669.5742	-0.0071
669.7586	0.0225
669.943	-0.0413
670.1273	0.0053
670.3117	-0.0026
670.496	-0.0033
670.6803	0.0078
670.8646	0.0016
671.0488	-0.0058
671.2331	-0.0022
671.4173	0.0013
671.6015	-0.0069
671.7857	-0.0186
671.9699	0.0085
672.1541	-0.0023
672.3382	0.0162
672.5223	-0.004
672.7064	0.0004
672.8905	0.0187
673.0746	-0.0066
673.2587	0.0108
673.4427	-0.014
673.6267	-0.0187
673.8107	-0.0159
673.9947	0.0036
674.1787	-0.0086
674.3626	-0.0023
674.5465	-0.0082
674.7304	-0.0429
674.9143	0.016
675.0982	0.0108
675.2821	0.0104
675.4659	0.016
675.6497	0.0062
675.8335	-0.0028
676.0173	-0.0027
676.2011	-0.0045
676.3849	-0.0117
676.5686	-0.0048
676.7523	0.0117
676.936	-0.0247
677.1197	0.0002
677.3034	0.0205
677.487	0.0002
677.6706	-0.007
677.8542	0.0013
678.0378	-0.0005
678.2214	-0.0133
678.405	-0.0108
678.5885	-0.0007
678.772	-0.0229
678.9555	-0.0103
679.139	-0.0159
679.3225	-0.0212
679.5059	-0.0098
679.6894	-0.0083
679.8728	-0.0032
680.0562	0.0096
680.2395	-0.0079
680.4229	0.0002
680.6062	-0.0026
680.7896	-0.0083
680.9729	0.0018
681.1562	-0.0163
681.3394	-0.012
681.5227	-0.0377
681.7059	-0.0213
681.8891	0.0153
682.0723	-0.0149
682.2555	0.021
682.4387	0.0343
682.6218	-0.024
682.805	0.0035
682.9881	-0.0111
683.1712	0.0056
683.3542	-0.0227
683.5373	0.0027
683.7203	0.0144
683.9034	0.0115
684.0864	-0.004
684.2694	0.0072
684.4523	0.0119
684.6353	0.0177
684.8182	-0.0143
685.0011	-0.004
685.184	-0.0127
685.3669	-0.0076
685.5498	-0.0023
685.7326	-0.0099
685.9154	0.0022
686.0982	-0.0013
686.281	0.0093
686.4638	0.0204
686.6465	0.0008
686.8293	0.0052
687.012	-0.0045
687.1947	0.0015
687.3774	-0.0186
687.56	0.0097
687.7427	0.0065
687.9253	0.0033
688.1079	0.0249
688.2905	-0.0103
688.4731	0.0213
688.6556	-0.0012
688.8382	0.0088
689.0207	0.0077
689.2032	-0.0254
689.3857	-0.0043
689.5681	-0.0012
689.7506	-0.013
689.933	0.0015
690.1154	-0.0003
690.2978	-0.0052
690.4802	-0.0104
690.6626	-0.008
690.8449	-0.0242
691.0272	-0.0189
691.2095	-0.0071
691.3918	-0.0098
691.5741	0.0016
691.7563	-0.0026
691.9386	-0.0096
692.1208	-0.0034
692.303	0.0025
692.4852	0.0086
692.6673	-0.0147
692.8495	-0.0229
693.0316	-0.0043
693.2137	0.032
693.3958	0.001
693.5778	-0.0213
693.7599	-0.0225
693.9419	0.007
694.1239	-0.0194
694.3059	-0.013
694.4879	-0.0173
694.6699	0.0146
694.8518	0.0164
695.0337	0.0275
695.2157	-0.0004
695.3975	-0.0033
695.5794	-0.0304
695.7613	0.0446
695.9431	-0.0108
696.1249	-0.0112
696.3067	-0.0163
696.4885	-0.0175
696.6703	-0.0041
696.852	-0.017
697.0337	0.0056
697.2154	0.0167
697.3971	0.0118
697.5788	0.0191
697.7605	0.0019
697.9421	0.0007
698.1237	0.0139
698.3053	-0.0087
698.4869	-0.0049
698.6685	-0.0224
698.85	0.0032
699.0315	-0.0078
699.213	-0.0045
699.3945	0.0208
699.576	-0.021
699.7575	-0.0059
699.9389	-0.0191
700.1203	0.002
700.3017	-0.0203
700.4831	0.0011
700.6645	0.0237
700.8458	0.005
701.0271	-0.0103
701.2084	-0.0249
701.3897	0.0292
701.571	-0.0215
701.7523	-0.0146
701.9335	0.0128
702.1147	-0.0143
702.2959	0.0044
702.4771	-0.001
702.6583	-0.004
702.8394	0.0086
703.0205	0.006
703.2016	0.0162
703.3827	-0.0045
703.5638	-0.0077
703.7449	-0.0013
703.9259	-0.0147
704.1069	0.0157
704.2879	-0.0047
704.4689	0.0096
704.6499	-0.0255
704.8308	-0.0452
705.0117	-0.0357
705.1927	-0.0092
705.3735	0.0213
705.5544	-0.0093
705.7353	0.0032
705.9161	0.0183
706.0969	0.0105
706.2777	0.0029
706.4585	-0
706.6393	0.0049
706.82	-0.01
707.0007	0.0026
707.1815	0.0183
707.3621	0.0004
707.5428	0.0034
707.7235	-0.0013
707.9041	-0.0257
708.0847	-0.0076
708.2653	-0.005
708.4459	0.0018
708.6265	-0.0106
708.807	0.0055
708.9875	0.0089
709.168	0.0222
709.3485	-0.0095
709.529	0.0136
709.7095	-0.0021
709.8899	0.0276
710.0703	-0.0036
710.2507	-0.0217
710.4311	0.0073
710.6115	-0.001
710.7918	-0.005
710.9721	0.0028
711.1524	0.0022
711.3327	-0.0185
711.513	0.0045
711.6932	-0.0068
711.8735	0.0092
712.0537	0.0036
712.2339	-0.0099
712.4141	0.0102
712.5942	0.0188
712.7744	-0.0004
712.9545	0.0126
713.1346	0.0019
713.3147	0.0083
713.4947	-0.0051
713.6748	-0.0117
713.8548	0.0083
714.0348	0.0185
714.2148	0.0189
714.3948	0.0103
714.5748	-0.0019
714.7547	-0.0187
714.9346	-0.0193
715.1145	0.0016
715.2944	0.0132
715.4743	-0.0101
715.6541	-0.0272
715.834	0.0031
716.0138	0.0136
716.1936	-0.0125
716.3733	0.006
716.5531	-0.0022
716.7328	-0.0463
716.9126	0.0064
717.0923	0.0248
717.2719	0.0152
717.4516	0.0033
717.6312	-0.0331
717.8109	0.0029
717.9905	0.0003
718.1701	-0.0119
718.3496	0.0144
718.5292	0.0011
718.7087	0.0134
718.8882	0.0013
719.0677	-0.0196
719.2472	0.013
719.4267	0.027
719.6061	0.0033
719.7856	-0.0169
719.965	0.0156
720.1443	-0.0119
720.3237	0.0119
720.5031	0.0215
720.6824	-0.0167
720.8617	0.0168
721.041	-0.0156
721.2203	0.0035
721.3995	-0.0079
721.5788	-0.0081
721.758	-0.015
721.9372	-0.0078
722.1164	0.0046
722.2956	0.0177
722.4747	0.0088
722.6538	0.0097
722.8329	-0.0261
723.012	0.0199
723.1911	-0.0017
723.3702	-0.0298
723.5492	0.0148
723.7282	-0.0136
723.9072	-0.0126
724.0862	-0.0046
724.2652	-0.021
724.4441	0.0086
724.623	-0.0117
724.8019	0.0099
724.9808	-0.0193
725.1597	-0.0032
725.3385	0.0156
725.5174	0.0304
725.6962	0.0145
725.875	0.0003
726.0538	0.0207
726.2325	-0.0142
726.4112	0.0097
726.59	0.0126
726.7687	0.0333
726.9474	-0.0286
727.126	-0.0202
727.3047	0.0023
727.4833	0.0069
727.6619	0.0291
727.8405	0.0087
728.0191	-0.023
728.1976	-0.0312
728.3762	-0.0252
728.5547	0.0146
728.7332	-0.0015
728.9116	-0.0361
729.0901	-0.0047
729.2686	-0.0277
729.447	-0.0027
729.6254	0.0232
729.8038	-0.0309
729.9821	0.0067
730.1605	-0.0232
730.3388	-0.0182
730.5171	-0.0089
730.6954	0.0252
730.8737	0.0192
731.0519	0.0166
731.2302	-0.0179
731.4084	-0.0015
731.5866	-0.0254
731.7648	0.0072
731.9429	0.0049
732.1211	-0.0194
732.2992	-0.0353
732.4773	0.0008
732.6554	-0.0158
732.8335	0.0391
733.0115	-0.0048
733.1896	-0.0241
733.3676	0.0125
733.5456	-0.0152
733.7235	0.0013
733.9015	-0.0023
734.0794	0.0016
734.2574	-0.0003
734.4353	-0.0063
734.6131	0.0334
734.791	0.0058
734.9689	-0.0032
735.1467	0.0005
735.3245	0.0055
735.5023	-0.0069
735.68	0.0092
735.8578	-0.0031
736.0355	0.0013
736.2132	0.0119
736.3909	-0.0098
736.5686	0.0166
736.7463	-0.0009
736.9239	0.0213
737.1015	-0.0025
737.2791	-0.0047
737.4567	0.0041
737.6343	0.0112
737.8118	-0.003
737.9894	-0.0078
738.1669	-0.0011
738.3444	0.0006
738.5218	0.0192
738.6993	-0.0147
738.8767	-0.0135
739.0541	-0.0037
739.2315	-0.0062
739.4089	-0.0036
739.5863	-0.0093
739.7636	0.0156
739.9409	0.0007
740.1182	-0.0114
740.2955	-0.0353
740.4728	0.0343
740.65	-0.0024
740.8272	-0.0527
741.0044	-0.0001
741.1816	0.0411
741.3588	0.0187
741.5359	0.0044
741.7131	0.0129
741.8902	0.0096
742.0673	0.007
742.2444	-0.0009
742.4214	-0.0242
742.5985	0.0268
742.7755	-0.0211
742.9525	0.0022
743.1295	-0.0182
743.3064	-0.0184
743.4834	-0.021
743.6603	-0.0102
743.8372	0.0047
744.0141	0.0065
744.191	-0.0262
744.3678	0.0179
744.5446	-0.0117
744.7215	-0.0161
744.8982	0.0052
745.075	-0.0303
745.2518	-0.0211
745.4285	-0.0098
745.6052	0.0273
745.7819	-0.001
745.9586	0.0141
746.1353	0.0081
746.3119	-0.0211
746.4885	0.0022
746.6651	-0.0236
746.8417	-0.0299
747.0183	-0.0167
747.1948	-0.0186
747.3714	-0.0062
747.5479	0.0235
747.7244	-0.0044
747.9008	0.0239
748.0773	0.005
748.2537	0.0198
748.4301	0.0361
748.6065	-0.0343
748.7829	0.004
748.9593	-0.0122
749.1356	-0.0133
749.3119	-0.0001
749.4882	-0.0041
749.6645	-0.0022
749.8408	-0.0109
750.017	-0.013
750.1933	0.0263
750.3695	0.0118
750.5457	-0.0204
750.7218	0.0193
750.898	-0.0052
751.0741	0.0067
751.2502	0.0063
751.4263	0.0062
751.6024	0.0132
751.7784	-0.0434
751.9545	-0.0221
752.1305	0.0189
752.3065	0.0317
752.4825	-0.0097
752.6584	-0.0196
752.8344	0.0118
753.0103	-0.0102
753.1862	0.0128
753.3621	-0.0111
753.5379	-0.0248
753.7138	-0.0224
753.8896	0.026
754.0654	0.0092
754.2412	0.0501
754.417	-0.0043
754.5927	0.0089
754.7685	-0.0335
754.9442	-0.0045
755.1199	-0.0058
755.2956	0.0077
755.4712	0.0119
755.6469	-0.0045
755.8225	0.0082
755.9981	0.0029
756.1736	0.0036
756.3492	-0.0093
756.5248	-0.0105
756.7003	-0.0018
756.8758	-0.0055
757.0513	0.0031
757.2267	-0.0067
757.4022	-0.0062
757.5776	-0.0158
757.753	-0.0129
757.9284	0.0049
758.1038	-0.0011
758.2791	-0.0186
758.4545	-0.0162
758.6298	-0.0247
758.8051	0.0079
758.9803	-0.0181
759.1556	-0.0212
759.3308	-0.0179
759.506	0.0044
759.6812	-0.0011
759.8564	-0.0176
760.0316	-0.0049
760.2067	-0.0097
760.3819	-0
760.557	-0.0041
760.732	0.0151
760.9071	-0.0045
761.0821	-0.007
761.2572	0.0096
761.4322	-0.031
761.6072	-0.0146
761.7821	0.0147
761.9571	-0.0045
762.132	-0.0091
762.3069	-0.0106
762.4818	0.0238
762.6567	-0.0058
762.8316	0.0021
763.0064	-0.0338
763.1812	-0.0255
763.356	-0.0049
763.5308	-0.0212
763.7055	-0.0016
763.8803	-0.0325
764.055	-0.006
764.2297	-0.0168
764.4044	0.007
764.579	-0.007
764.7537	0.0004
764.9283	-0.0305
765.1029	0.0077
765.2775	-0.0207
765.4521	0.0037
765.6266	-0.0191
765.8011	-0.0306
765.9756	0.0107
766.1501	0.0102
766.3246	-0.0015
766.4991	-0.0355
766.6735	-0.0033
766.8479	0.0262
767.0223	0.0282
767.1967	0.0198
767.371	-0.0076
767.5454	0.0082
767.7197	0.0207
767.894	-0.0362
768.0683	0.0237
768.2425	-0.0097
768.4168	0.0169
768.591	0.006
768.7652	-0.0298
768.9394	0.0144
769.1135	-0.0049
769.2877	0.0377
769.4618	0.0047
769.6359	0.0059
769.81	-0.0205
769.984	0.0022
770.1581	0.0106
770.3321	-0.0128
770.5061	0.0096
770.6801	0.0233
770.8541	-0.0223
771.028	0.0007
771.202	-0.0404
771.3759	-0.013
771.5498	0.0133
771.7236	-0.0125
771.8975	-0.0188
772.0713	0.0091
772.2451	-0.0021
772.4189	-0.0125
772.5927	0.0071
772.7665	0.007
772.9402	-0.0075
773.1139	-0.0176
773.2876	0.0016
773.4613	0.01
773.635	-0.0086
773.8086	-0.0372
773.9822	-0.0014
774.1558	-0.0213
774.3294	-0.0241
774.503	-0.0217
774.6765	0.0187
774.8501	0.0168
775.0236	0.0517
775.1971	-0.032
775.3705	-0.0033
775.544	-0.0294
775.7174	-0.023
775.8908	0.042
776.0642	0.0215
776.2376	-0.0267
776.4109	0.0743
776.5843	-0.0355
776.7576	-0.0276
776.9309	0.0149
777.1041	-0.009
777.2774	-0.0285
777.4506	0.0061
777.6238	0.0484
777.797	0.0319
777.9702	0.0463
778.1434	0.0063
778.3165	-0.0037
778.4896	-0.0101
778.6627	0.03
778.8358	0.02
779.0089	0.0136
779.1819	-0.0241
779.3549	0.0446
779.5279	0.0025
779.7009	0.0244
779.8739	-0.024
780.0468	0.0097
780.2197	-0.02
780.3926	-0.0014
780.5655	-0.0409
780.7384	0.0067
780.9112	-0.0122
781.0841	-0.0001
781.2569	-0.021
781.4297	0.009
781.6024	0.0038
781.7752	-0.0221
781.9479	-0.0111
782.1206	-0.0027
782.2933	0.0093
782.466	-0.0237
782.6386	-0.0162
782.8113	0.0047
782.9839	0.0326
783.1565	-0.0401
783.329	0.0016
783.5016	-0.0061
783.6741	-0.0255
783.8466	-0.0754
784.0191	-0.0329
784.1916	0.0149
784.3641	-0.0774
784.5365	0.0006
784.7089	0.0171
784.8813	-0.0082
785.0537	-0.0215
785.2261	-0.019
785.3984	-0.0117
785.5707	0.0522
785.743	-0.0218
785.9153	0.0306
786.0876	-0.0638
786.2598	0.0072
786.432	0.0014
786.6042	0.0191
786.7764	-0.0087
786.9486	-0.01
787.1207	0.0564
787.2928	-0.0522
787.4649	0.0155
787.637	0.0156
787.8091	-0.0215
787.9811	0.0052
788.1532	-0.0007
788.3252	-0.0182
788.4972	-0.0105
788.6691	0.0512
788.8411	-0.0239
789.013	0.0038
789.1849	0.002
789.3568	0.0281
789.5287	-0.032
789.7005	0.0282
789.8723	-0.0069
790.0442	-0.0429
790.2159	0.0607
790.3877	-0.0201
790.5595	-0.0095
790.7312	-0.0278
790.9029	-0.0305
791.0746	0.023
791.2463	-0.0206
791.4179	-0.0344
791.5896	-0.0322
791.7612	-0.0307
791.9328	-0.0667
792.1044	-0.0503
792.2759	0.0262
792.4474	-0.0662
792.619	0.1013
792.7905	0.0145
792.9619	0.0241
793.1334	-0.0237
793.3048	0.0341
793.4762	-0.0493
793.6476	-0.0208
793.819	-0.0078
793.9904	0.0453
794.1617	0.0017
794.333	-0.0215
794.5043	-0.005
794.6756	-0.0006
794.8469	-0.0241
795.0181	-0.022
795.1893	-0.0077
795.3605	-0.0334
795.5317	0.0187
795.7029	-0.0017
795.874	-0.0512
796.0452	-0.0024
796.2163	0.001
796.3873	0.0166
796.5584	0.038
796.7294	-0.0619
796.9005	-0.0225
797.0715	0.0379
797.2425	0.0333
797.4134	0.009
797.5844	0.0632
797.7553	0.009
797.9262	0.0283
798.0971	-0.0472
798.2679	-0.0259
798.4388	-0.0786
798.6096	-0.0686
798.7804	-0.0178
798.9512	0.0779
799.122	0.001
799.2927	-0.0241
799.4635	0.0992
799.6342	0.0041
799.8049	0.0287
799.9755	-0.0299
800.1462	0.0176
800.3168	-0.0439
800.4874	-0.0261
800.658	0.0553
800.8286	-0.0489
800.9991	0.0545
801.1696	-0.0497
801.3402	-0.0159
801.5106	-0.0859
801.6811	0.0126
801.8516	-0.0225
802.022	-0.0281
802.1924	-0.0995
802.3628	-0.1659
802.5332	-0.0103
802.7035	-0.0862
802.8739	-0.02
803.0442	-0.0141
803.2145	-0.0302
803.3847	0.0069
803.555	-0.023
803.7252	0.0031
803.8954	0.0057
804.0656	-0.0419
804.2358	-0.012
804.4059	0.0508
804.5761	0.0995
804.7462	-0.0725
804.9163	-0.0337
805.0864	-0.0534
805.2564	-0.0148
805.4264	-0.0844
805.5965	0.0012
805.7665	0.0673
805.9364	-0.0873
806.1064	-0.0416
806.2763	0.0096
806.4462	0.0188
806.6161	0.0366
806.786	-0.0082
806.9559	0.0084
807.1257	-0.0138
807.2955	0.004
807.4653	-0.0571
807.6351	0.0286
807.8048	-0.045
807.9746	0.0225
808.1443	0.0198
808.314	0.0286
808.4837	0.0059
808.6533	0.0529
808.8229	-0.0802
808.9926	-0.0208
809.1622	-0.0547
809.3317	0.0631
809.5013	0.057
809.6708	0.051
809.8403	0.0143
810.0098	0.14
810.1793	0.1035
810.3488	0.0081
810.5182	-0.0289
810.6876	0.0714
810.857	-0.037
811.0264	-0.068
811.1958	0.0153
811.3651	-0.0422
811.5344	-0.0798
811.7037	-0.0453
811.873	0.0829
812.0422	0.0625
812.2115	-0.036
812.3807	-0.0904
812.5499	0.0819
812.7191	0.0703
812.8882	-0.0005
813.0574	-0.0646
813.2265	-0.0315
813.3956	-0.0398
813.5646	-0.0125
813.7337	-0.1608
813.9027	-0.0061
814.0718	-0.0187
814.2407	-0.1239
814.4097	-0.0385
814.5787	-0.0075
814.7476	0.0573
814.9165	-0.0003
815.0854	0.0015
815.2543	0.0119
815.4232	-0.1244
815.592	0.0748
815.7608	0.0461
815.9296	-0.059
816.0984	0.055
816.2671	-0.0804
816.4359	0.0733
816.6046	0.1343
816.7733	-0.118
816.942	0.1174
817.1106	-0.2235
817.2793	0.0263
817.4479	-0.0558
817.6165	-0.0191
817.785	0.0174
817.9536	0.0092
818.1221	0.1526
818.2906	0.0069
818.4591	-0.0446
818.6276	0.0382
818.7961	-0.0005
818.9645	-0.052
819.1329	0.056
819.3013	-0.0063
819.4697	0.0819
819.638	0.009
819.8064	-0.1385
819.9747	-0.1493
820.143	-0.0668
820.3113	0.0924
820.4795	0.0406
820.6477	-0.094
820.816	-0.0841
820.9842	-0.1132
821.1523	0.1314
821.3205	-0.076
821.4886	0.0626
821.6567	-0.0127
821.8248	0.0018
821.9929	0.0185
822.1609	-0.0005
822.329	-0.02
822.497	-0.0819
822.665	0.0422
822.833	-0.1105
823.0009	-0.0272
823.1688	-0.168
823.3367	-0.2325
823.5046	0.1003
823.6725	-0.0113
823.8404	0.016
824.0082	-0.0221
824.176	0.0774
824.3438	0.2334
824.5116	-0.0456
824.6793	0.0288
824.847	0.4884
825.0147	0.2088
825.1824	-0.0691
825.3501	0.0082
825.5177	0.0477
825.6854	-0.0605
825.853	0.0214
826.0206	-0.0281
826.1881	0.0034
826.3557	0.0405
826.5232	0.0594
826.6907	0.0649
826.8582	-0.0688
827.0257	-0.1361
827.1931	0.1736
827.3605	-0.04
827.528	0.0781
827.6953	0.0294
827.8627	-0.0668
828.03	0.0081
828.1974	-0.0864
828.3647	-0.0573
828.532	0.0231
828.6992	-0.0037
828.8665	-0.1762
829.0337	0.0219
829.2009	0.2166
829.3681	0.0748
829.5352	0.0343
829.7024	-0.2218
829.8695	0.0924
830.0366	0.1692
830.2037	0.1053
830.3707	-0.0903
830.5378	0.3186
830.7048	-0.1464
830.8718	-0.0962
831.0388	-0.0692
831.2057	-0.1718
831.3727	0.1276
831.5396	-0.191
831.7065	0.1829
831.8734	-0.1374
832.0402	0.1058
832.2071	0.1128
832.3739	0.0366
832.5407	-0.0763
832.7075	0.0435
832.8742	0.0846
833.041	-0.0153
833.2077	-0
833.3744	-0.0693
833.541	-0.0128
833.7077	-0.0365
833.8743	-0.0142
834.0409	-0.1273
834.2075	-0.0196
834.3741	0.0646
834.5407	-0.2042
834.7072	-0.0316
834.8737	-0.0822
835.0402	0.3593
835.2067	-0.01
835.3731	0.0435
835.5395	0.2089
835.706	-0.0654
835.8723	-0.1028
836.0387	0.112
836.2051	0.3652
836.3714	-0.1407
836.5377	-0.0649
836.704	-0.0162
836.8703	0.2301
837.0365	0.2266
837.2027	-0.4413
837.3689	-0.12
837.5351	0.1208
837.7013	-0.1166
837.8674	-0.8547
838.0335	-0.1492
838.1997	0.1251
838.3657	-0.0368
838.5318	-0.835
838.6978	-0.4181
838.8639	-0.1787
839.0299	0.1893
839.1958	0.1268
839.3618	0.4042
839.5277	-0.3596
839.6937	-0.5223
839.8596	-0.0899
840.0254	0.6575
840.1913	0.4354
840.3571	-0.2272
840.523	0.172
840.6888	-0.0686
840.8545	-0
841.0203	-0.1738
841.186	0.0187
841.3517	0.1162
841.5174	0.0037
841.6831	0.3467
841.8488	0.896
842.0144	0.4845
842.18	0.0677
842.3456	0.1324
842.5112	-0.2218
842.6767	-0.4964
842.8422	0.0424
843.0077	-0.0011
843.1732	-0.14
843.3387	-0.1261
843.5042	-0
843.6696	-0.4391
843.835	0.0263
844.0004	0.2002
844.1657	0.0035
844.3311	-0.3337
844.4964	0.0571
844.6617	-0
844.827	0.235
844.9923	-0.0879
845.1575	-0.3076
845.3227	0.2062
845.4879	-0.0294
845.6531	-0.4245
845.8183	0.0296
845.9834	-0.8193
846.1485	-0.4421
846.3136	0.053
846.4787	-0.2457
846.6438	0.1444
846.8088	-0
846.9738	-0
847.1388	-0.0872
847.3038	0.1128
847.4687	-0.6605
847.6337	0.1388
847.7986	0.2769
847.9635	-0
848.1284	-0.6203
848.2932	-0.0196
848.458	0.2432
848.6228	-0.1327
848.7876	-0
848.9524	0.3721
849.1172	-0.2189
849.2819	-0.2988
849.4466	0.0564
849.6113	0.0682
849.7759	-0
849.9406	-0.3191
850.1052	-0
850.2698	-1.4271
850.4344	0.2459
850.599	0.0459
850.7635	0.0587
850.928	0.1805
851.0925	0.0762
851.257	-0.0931
851.4215	-0.1013
851.5859	-0.0999
851.7503	-0
851.9147	-1.1065
852.0791	-0.4609
852.2434	-0.0307
852.4078	-0
852.5721	0.926
852.7364	0.1603
852.9007	0.2016
853.0649	0.9726
853.2291	1.3003
853.3934	-0
853.5575	-0.1101
853.7217	0.7277
853.8859	0.2009
854.05	-0.8864
854.2141	-0
854.3782	0.2431
854.5423	-0.2617
854.7063	0.0168
854.8703	-0.0286
855.0343	0.1333
855.1983	-0.3418
855.3623	-0.0246
855.5262	-0
855.6901	0.1035
855.854	0.0091
856.0179	-0
856.1818	-0
856.3456	-0
856.5094	-0
856.6732	-0
856.837	0.2232
857.0008	-0
857.1645	-0
857.3282	-0.0979
857.4919	-0.0925
857.6556	0.4345
857.8192	-0.5304
857.9828	-0.4192
858.1465	-0
858.31	-0
858.4736	0.148
858.6372	0.0964
858.8007	-1.531
858.9642	0.2302
859.1277	-0
859.2911	0.2737
859.4546	-0
859.618	-0.0461
859.7814	-0
859.9448	-0.1447
860.1081	-0
860.2715	-0.566
860.4348	-0.1195
860.5981	-0.1776
860.7614	-0
860.9246	-0.2767
861.0879	0.2836
861.2511	-0.0417
861.4143	1.0136
861.5774	0.7952
861.7406	0.4061
861.9037	-0.1346
862.0668	-0.4143
862.2299	-0.9853
862.393	-0
862.556	-0
862.7191	-0.0959
862.8821	-0.0019
863.0451	0.3042
863.208	-0.4193
863.371	0.1613
863.5339	0.2058
863.6968	-0.4226
863.8597	-0
864.0225	-0.3206
864.1854	0.3788
864.3482	0.595
864.511	0.3941
864.6737	0.0183
864.8365	-0.1829
864.9992	-0
865.1619	-0.0337
865.3246	-0.3632
865.4873	-0
865.65	-0
865.8126	0.187
865.9752	0.0517
866.1378	0.053
866.3004	0.3041
866.4629	0.6095
866.6254	-0
866.7879	-0.1087
866.9504	-0.3549
867.1129	0.0621
867.2753	-0.2146
867.4377	0.2844
867.6001	0.1542
867.7625	-0.2196
867.9249	-0
868.0872	-0.2246
868.2495	-0
868.4118	0.5275
868.5741	-0.2715
868.7363	1.0602
868.8986	-0
869.0608	0.3673
869.223	0.0834
869.3851	-0
869.5473	-1.2544
869.7094	-0.3737
869.8715	-0
870.0336	-0.0166
870.1957	-0
870.3577	-0.0839
870.5197	-0.0282
870.6817	-0
870.8437	0.2613
871.0057	0.6697
871.1676	0.0575
871.3295	-0.2637
871.4914	-0
871.6533	0.6964
871.8151	-0.7483
871.977	0.4627
872.1388	-0
872.3006	0.0691
872.4623	-0.3844
872.6241	-0
872.7858	-0.2066
872.9475	-0
873.1092	0.6064
873.2709	1.3179
873.4325	-0
873.5941	-0.8387
873.7557	-0
873.9173	-1.0911
874.0789	0.2299
874.2404	1.4029
874.4019	-0.0417
874.5634	-0.1258
874.7249	0.8999
874.8863	-0.1578
875.0478	-0.0696
875.2092	-0
875.3706	-0.0582
875.5319	-0.2014
875.6933	0.4284
875.8546	1.4314
876.0159	-0.0473
876.1772	-0
876.3385	-0
876.4997	-0
876.6609	-0
876.8221	-0.0688
876.9833	0.3355
877.1445	-0.1433
877.3056	-0.1217
877.4667	-0
877.6278	1.5024
877.7889	0.2181
877.9499	-0.4623
878.111	-0.0917
878.272	-0.6872
878.433	-0.2513
878.5939	-0.0154
878.7549	-0.8517
878.9158	-0
879.0767	-0.4964
879.2376	-0
879.3984	-0
879.5593	0.0183
879.7201	-0.2879
879.8809	-0
880.0417	0.0666
880.2024	0.5083
880.3632	-0.0663
880.5239	-0.2912
880.6846	0.4325
880.8452	0.039
881.0059	-0
881.1665	0.3481
881.3271	0.2682
881.4877	0.2519
881.6483	-1.3176
881.8088	0.0373
881.9693	0.2577
882.1298	0.2577
882.2903	0.2577
