Data from D4ACN5uM480nmA_Absorbance_12-08-01-705.txt Node
Date: Fri Feb 21 12:08:01 GMT 2025
User: LASERRRRR
Spectrometer: FLMT03099
Trigger mode: 0
Integration Time (sec): 1.500000E-2
Scans to average: 1
Electric dark correction enabled: true
Nonlinearity correction enabled: false
Boxcar width: 0
XAxis mode: Wavelengths
Number of Pixels in Spectrum: 3648
>>>>>Begin Spectral Data<<<<<
179.3399	-0.1838
179.5586	-0.1838
179.7771	-0.1838
179.9957	-0.0531
180.2143	-0.3921
180.4329	-0
180.6514	-0
180.8699	-0
181.0885	0.0253
181.307	-0
181.5255	0.7545
181.744	-0.7443
181.9625	-0.05
182.181	0.2142
182.3994	-0
182.6179	0.1931
182.8363	-0
183.0547	-0
183.2732	0.1849
183.4916	0.4064
183.71	0.0966
183.9284	0.1717
184.1467	-0.1292
184.3651	0.3181
184.5835	-0.0791
184.8018	0.2418
185.0201	0.2167
185.2385	0.0303
185.4568	0.1702
185.6751	0.3352
185.8934	0.573
186.1117	0.221
186.3299	0.1688
186.5482	0.0803
186.7664	0.5514
186.9847	0.351
187.2029	0.1744
187.4211	0.2286
187.6393	0.139
187.8575	0.4006
188.0757	0.4917
188.2939	0.1301
188.512	0.3049
188.7302	0.1128
188.9483	1.1004
189.1665	0.524
189.3846	0.5342
189.6027	0.0006
189.8208	0.5746
190.0389	0.3537
190.257	0.3312
190.475	0.1016
190.6931	0.1953
190.9111	0.5097
191.1292	0.441
191.3472	0.2647
191.5652	0.3706
191.7832	0.3862
192.0012	0.3356
192.2192	0.5151
192.4371	0.5368
192.6551	0.3999
192.873	0.3088
193.091	0.3031
193.3089	0.255
193.5268	0.3303
193.7447	0.4356
193.9626	0.3498
194.1805	0.5071
194.3984	0.2899
194.6162	0.6149
194.8341	0.5388
195.0519	0.5225
195.2697	0.7086
195.4875	0.5299
195.7054	0.4183
195.9231	0.4872
196.1409	0.479
196.3587	0.4929
196.5765	0.4726
196.7942	0.5976
197.012	0.4525
197.2297	0.4859
197.4474	0.6639
197.6651	0.614
197.8828	0.7923
198.1005	0.5687
198.3182	0.6133
198.5358	0.522
198.7535	0.4765
198.9711	0.5501
199.1888	0.5609
199.4064	0.6222
199.624	0.6137
199.8416	0.5915
200.0592	0.5571
200.2767	0.5629
200.4943	0.6694
200.7119	0.5727
200.9294	0.614
201.1469	0.6373
201.3645	0.5665
201.582	0.5854
201.7995	0.5342
202.017	0.5315
202.2344	0.5678
202.4519	0.6381
202.6694	0.5996
202.8868	0.573
203.1042	0.5339
203.3217	0.4897
203.5391	0.5572
203.7565	0.5229
203.9739	0.5162
204.1913	0.5141
204.4086	0.4924
204.626	0.5329
204.8433	0.5147
205.0607	0.4872
205.278	0.4882
205.4953	0.4841
205.7126	0.4506
205.9299	0.4711
206.1472	0.4664
206.3644	0.5038
206.5817	0.4883
206.7989	0.5132
207.0162	0.4444
207.2334	0.4611
207.4506	0.4171
207.6678	0.4397
207.885	0.4753
208.1022	0.4396
208.3194	0.46
208.5365	0.4462
208.7537	0.4506
208.9708	0.4529
209.1879	0.4362
209.405	0.4271
209.6222	0.3969
209.8392	0.4288
210.0563	0.4401
210.2734	0.4012
210.4905	0.406
210.7075	0.435
210.9245	0.4022
211.1416	0.4196
211.3586	0.4184
211.5756	0.4131
211.7926	0.4333
212.0096	0.384
212.2265	0.3967
212.4435	0.4051
212.6604	0.4019
212.8774	0.4036
213.0943	0.4179
213.3112	0.4115
213.5281	0.4457
213.745	0.3997
213.9619	0.4075
214.1788	0.4154
214.3956	0.4163
214.6125	0.4107
214.8293	0.4135
215.0461	0.4083
215.2629	0.4036
215.4798	0.3915
215.6965	0.3825
215.9133	0.3997
216.1301	0.4163
216.3469	0.4197
216.5636	0.3814
216.7803	0.4229
216.9971	0.4228
217.2138	0.3893
217.4305	0.4249
217.6472	0.4477
217.8639	0.4125
218.0805	0.4217
218.2972	0.4231
218.5138	0.4195
218.7305	0.4056
218.9471	0.4074
219.1637	0.4194
219.3803	0.4143
219.5969	0.4115
219.8135	0.4183
220.0301	0.4044
220.2466	0.4157
220.4632	0.4082
220.6797	0.4455
220.8962	0.4406
221.1127	0.425
221.3292	0.4286
221.5457	0.4433
221.7622	0.4234
221.9787	0.4301
222.1951	0.4377
222.4116	0.4419
222.628	0.4369
222.8444	0.463
223.0608	0.4379
223.2772	0.4314
223.4936	0.4471
223.71	0.451
223.9264	0.4435
224.1427	0.4608
224.3591	0.4522
224.5754	0.4635
224.7917	0.472
225.008	0.4635
225.2243	0.465
225.4406	0.4665
225.6569	0.4693
225.8732	0.4831
226.0894	0.4714
226.3057	0.4646
226.5219	0.4722
226.7381	0.4602
226.9543	0.4698
227.1705	0.4721
227.3867	0.4905
227.6029	0.481
227.8191	0.4871
228.0352	0.4979
228.2513	0.4963
228.4675	0.4795
228.6836	0.4965
228.8997	0.4966
229.1158	0.496
229.3319	0.5091
229.548	0.4905
229.764	0.5059
229.9801	0.5168
230.1961	0.5174
230.4121	0.5156
230.6282	0.5066
230.8442	0.5126
231.0602	0.5173
231.2761	0.5245
231.4921	0.5189
231.7081	0.5108
231.924	0.523
232.14	0.5271
232.3559	0.5262
232.5718	0.5322
232.7877	0.526
233.0036	0.5141
233.2195	0.5352
233.4353	0.5297
233.6512	0.5361
233.867	0.5448
234.0829	0.5256
234.2987	0.531
234.5145	0.5384
234.7303	0.5322
234.9461	0.5335
235.1619	0.5428
235.3776	0.5384
235.5934	0.534
235.8091	0.5199
236.0249	0.528
236.2406	0.5479
236.4563	0.5473
236.672	0.543
236.8877	0.5461
237.1034	0.5384
237.319	0.5392
237.5347	0.5306
237.7503	0.536
237.966	0.5488
238.1816	0.5313
238.3972	0.5391
238.6128	0.541
238.8284	0.543
239.0439	0.5452
239.2595	0.529
239.475	0.5293
239.6906	0.5253
239.9061	0.5317
240.1216	0.5383
240.3371	0.5218
240.5526	0.515
240.7681	0.5227
240.9836	0.5249
241.199	0.5148
241.4145	0.4986
241.6299	0.4969
241.8453	0.4984
242.0607	0.4936
242.2761	0.479
242.4915	0.4728
242.7069	0.4607
242.9223	0.4666
243.1376	0.4486
243.353	0.4557
243.5683	0.4439
243.7836	0.4204
243.9989	0.4133
244.2142	0.4086
244.4295	0.412
244.6448	0.401
244.86	0.3896
245.0753	0.381
245.2905	0.3747
245.5057	0.3666
245.721	0.3605
245.9362	0.359
246.1514	0.3341
246.3665	0.3473
246.5817	0.3307
246.7969	0.3257
247.012	0.3168
247.2271	0.3088
247.4423	0.3055
247.6574	0.3104
247.8725	0.2974
248.0876	0.2911
248.3026	0.2868
248.5177	0.2851
248.7328	0.286
248.9478	0.2734
249.1628	0.2689
249.3779	0.2706
249.5929	0.2536
249.8079	0.2578
250.0228	0.2486
250.2378	0.2524
250.4528	0.2483
250.6677	0.2431
250.8827	0.2453
251.0976	0.2378
251.3125	0.2359
251.5274	0.2357
251.7423	0.231
251.9572	0.2228
252.172	0.2173
252.3869	0.2146
252.6017	0.2164
252.8166	0.2089
253.0314	0.2172
253.2462	0.2148
253.461	0.2104
253.6758	0.2112
253.8906	0.2074
254.1053	0.2048
254.3201	0.2037
254.5348	0.2031
254.7496	0.2008
254.9643	0.2087
255.179	0.2034
255.3937	0.2025
255.6083	0.1987
255.823	0.1947
256.0377	0.2006
256.2523	0.2002
256.467	0.2003
256.6816	0.1994
256.8962	0.193
257.1108	0.1947
257.3254	0.1937
257.54	0.1912
257.7545	0.1969
257.9691	0.1909
258.1836	0.1882
258.3981	0.1896
258.6127	0.1893
258.8272	0.1855
259.0417	0.1876
259.2561	0.1867
259.4706	0.1886
259.6851	0.1883
259.8995	0.1853
260.114	0.1796
260.3284	0.1856
260.5428	0.1824
260.7572	0.1911
260.9716	0.1875
261.186	0.1836
261.4003	0.1842
261.6147	0.1838
261.829	0.186
262.0433	0.1834
262.2577	0.1913
262.472	0.1845
262.6863	0.1857
262.9005	0.1843
263.1148	0.1822
263.3291	0.1861
263.5433	0.1842
263.7576	0.1837
263.9718	0.1916
264.186	0.1882
264.4002	0.1851
264.6144	0.1886
264.8286	0.1852
265.0427	0.1879
265.2569	0.1894
265.471	0.1884
265.6851	0.1856
265.8993	0.185
266.1134	0.1876
266.3275	0.188
266.5415	0.1833
266.7556	0.178
266.9697	0.1863
267.1837	0.1794
267.3978	0.192
267.6118	0.1886
267.8258	0.1865
268.0398	0.1861
268.2538	0.1784
268.4677	0.1791
268.6817	0.1706
268.8957	0.1842
269.1096	0.1753
269.3235	0.1827
269.5374	0.179
269.7514	0.186
269.9652	0.1795
270.1791	0.1817
270.393	0.1846
270.6068	0.1672
270.8207	0.1751
271.0345	0.1771
271.2483	0.1778
271.4622	0.1776
271.676	0.1755
271.8897	0.1732
272.1035	0.1752
272.3173	0.1734
272.531	0.1703
272.7448	0.1728
272.9585	0.1789
273.1722	0.1765
273.3859	0.1695
273.5996	0.1703
273.8133	0.1684
274.0269	0.1797
274.2406	0.1693
274.4542	0.1712
274.6679	0.1685
274.8815	0.1724
275.0951	0.1713
275.3087	0.1815
275.5223	0.1699
275.7358	0.1797
275.9494	0.1741
276.1629	0.1807
276.3765	0.1741
276.59	0.1731
276.8035	0.1747
277.017	0.1764
277.2305	0.1769
277.444	0.1747
277.6574	0.1771
277.8709	0.1801
278.0843	0.1766
278.2978	0.1778
278.5112	0.1824
278.7246	0.1761
278.938	0.178
279.1513	0.179
279.3647	0.1766
279.5781	0.178
279.7914	0.1801
280.0047	0.174
280.2181	0.1834
280.4314	0.1777
280.6447	0.1839
280.8579	0.1754
281.0712	0.1839
281.2845	0.1821
281.4977	0.1923
281.711	0.1865
281.9242	0.1855
282.1374	0.1839
282.3506	0.1865
282.5638	0.1871
282.7769	0.1854
282.9901	0.1874
283.2033	0.1866
283.4164	0.1826
283.6295	0.1825
283.8426	0.189
284.0557	0.1846
284.2688	0.1912
284.4819	0.1919
284.695	0.1936
284.908	0.1901
285.1211	0.1915
285.3341	0.1926
285.5471	0.1985
285.7601	0.1929
285.9731	0.1921
286.1861	0.1921
286.3991	0.1991
286.612	0.1936
286.825	0.1916
287.0379	0.1998
287.2508	0.196
287.4637	0.1963
287.6766	0.1937
287.8895	0.1884
288.1024	0.195
288.3152	0.1937
288.5281	0.1994
288.7409	0.1959
288.9538	0.1977
289.1666	0.1975
289.3794	0.202
289.5922	0.1962
289.8049	0.2013
290.0177	0.1958
290.2304	0.1986
290.4432	0.1994
290.6559	0.1882
290.8686	0.2008
291.0813	0.2037
291.294	0.2035
291.5067	0.2016
291.7194	0.196
291.932	0.1978
292.1447	0.1976
292.3573	0.1987
292.5699	0.2052
292.7825	0.1944
292.9951	0.1976
293.2077	0.1995
293.4203	0.2014
293.6328	0.1981
293.8454	0.2014
294.0579	0.2038
294.2704	0.204
294.4829	0.2034
294.6954	0.1982
294.9079	0.1986
295.1204	0.1997
295.3328	0.1973
295.5453	0.1977
295.7577	0.1946
295.9701	0.203
296.1825	0.2031
296.3949	0.2013
296.6073	0.2018
296.8197	0.1968
297.0321	0.1984
297.2444	0.2014
297.4567	0.1926
297.6691	0.198
297.8814	0.1979
298.0937	0.2033
298.306	0.1995
298.5182	0.2065
298.7305	0.1977
298.9428	0.1973
299.155	0.1931
299.3672	0.198
299.5794	0.1944
299.7916	0.2062
300.0038	0.1974
300.216	0.2014
300.4282	0.1989
300.6403	0.1998
300.8525	0.2009
301.0646	0.1966
301.2767	0.1928
301.4888	0.1966
301.7009	0.1961
301.913	0.2042
302.125	0.2002
302.3371	0.1919
302.5491	0.1993
302.7612	0.1937
302.9732	0.1964
303.1852	0.1994
303.3972	0.1951
303.6092	0.1883
303.8211	0.1876
304.0331	0.1858
304.245	0.1922
304.457	0.1959
304.6689	0.1934
304.8808	0.1938
305.0927	0.1948
305.3046	0.1909
305.5164	0.1844
305.7283	0.1916
305.9401	0.183
306.152	0.18
306.3638	0.1792
306.5756	0.181
306.7874	0.1789
306.9992	0.1806
307.2109	0.1733
307.4227	0.1674
307.6344	0.1788
307.8462	0.1652
308.0579	0.1654
308.2696	0.1647
308.4813	0.1568
308.693	0.1608
308.9046	0.1616
309.1163	0.161
309.328	0.1567
309.5396	0.1588
309.7512	0.1582
309.9628	0.1608
310.1744	0.1549
310.386	0.1453
310.5976	0.1478
310.8091	0.1453
311.0207	0.1448
311.2322	0.1499
311.4437	0.1427
311.6552	0.1461
311.8667	0.1381
312.0782	0.1444
312.2897	0.1385
312.5012	0.1393
312.7126	0.1303
312.924	0.1351
313.1355	0.1339
313.3469	0.1356
313.5583	0.1258
313.7696	0.1313
313.981	0.1316
314.1924	0.1299
314.4037	0.125
314.6151	0.1342
314.8264	0.1284
315.0377	0.128
315.249	0.1241
315.4603	0.1182
315.6716	0.1282
315.8828	0.1198
316.0941	0.1217
316.3053	0.1199
316.5165	0.1141
316.7277	0.1245
316.9389	0.119
317.1501	0.1209
317.3613	0.1142
317.5724	0.1192
317.7836	0.1181
317.9947	0.1144
318.2058	0.1135
318.417	0.1183
318.6281	0.1208
318.8391	0.1173
319.0502	0.1151
319.2613	0.1184
319.4723	0.1167
319.6834	0.1241
319.8944	0.1205
320.1054	0.1176
320.3164	0.1175
320.5274	0.1146
320.7383	0.1173
320.9493	0.1182
321.1602	0.1149
321.3712	0.1176
321.5821	0.1148
321.793	0.1173
322.0039	0.117
322.2148	0.1179
322.4257	0.1203
322.6365	0.119
322.8474	0.1204
323.0582	0.1162
323.269	0.1136
323.4798	0.1205
323.6906	0.1205
323.9014	0.1143
324.1122	0.1151
324.3229	0.1223
324.5337	0.1194
324.7444	0.1169
324.9551	0.1224
325.1658	0.1208
325.3765	0.1191
325.5872	0.1173
325.7979	0.1206
326.0085	0.1174
326.2192	0.1176
326.4298	0.1214
326.6404	0.1233
326.851	0.12
327.0616	0.1219
327.2722	0.1248
327.4828	0.1162
327.6933	0.1222
327.9039	0.1248
328.1144	0.1183
328.3249	0.1231
328.5354	0.1248
328.7459	0.1291
328.9564	0.1286
329.1669	0.1215
329.3773	0.1189
329.5878	0.1247
329.7982	0.1251
330.0086	0.1232
330.219	0.1288
330.4294	0.1258
330.6398	0.1313
330.8502	0.1278
331.0605	0.1257
331.2708	0.1211
331.4812	0.1234
331.6915	0.1208
331.9018	0.1233
332.1121	0.1292
332.3224	0.127
332.5326	0.1306
332.7429	0.1295
332.9531	0.1296
333.1633	0.1303
333.3735	0.1244
333.5837	0.1318
333.7939	0.1242
334.0041	0.1288
334.2143	0.1268
334.4244	0.1213
334.6346	0.1292
334.8447	0.1296
335.0548	0.1283
335.2649	0.1232
335.475	0.1254
335.685	0.1319
335.8951	0.1408
336.1051	0.1232
336.3152	0.1272
336.5252	0.129
336.7352	0.122
336.9452	0.1357
337.1552	0.1269
337.3652	0.1248
337.5751	0.126
337.7851	0.1285
337.995	0.1327
338.2049	0.1354
338.4148	0.1254
338.6247	0.133
338.8346	0.1257
339.0445	0.1298
339.2543	0.1322
339.4642	0.1394
339.674	0.1358
339.8838	0.133
340.0936	0.1349
340.3034	0.1317
340.5132	0.1348
340.7229	0.1409
340.9327	0.1356
341.1424	0.1421
341.3522	0.1432
341.5619	0.1357
341.7716	0.1384
341.9813	0.1512
342.1909	0.1444
342.4006	0.1419
342.6102	0.1418
342.8199	0.1422
343.0295	0.1428
343.2391	0.1414
343.4487	0.1406
343.6583	0.1485
343.8679	0.1411
344.0774	0.1477
344.287	0.1445
344.4965	0.1493
344.706	0.145
344.9155	0.1485
345.125	0.1538
345.3345	0.1468
345.544	0.1566
345.7534	0.1476
345.9629	0.1545
346.1723	0.1448
346.3817	0.1525
346.5911	0.1553
346.8005	0.1515
347.0099	0.1535
347.2193	0.1503
347.4286	0.1535
347.638	0.1526
347.8473	0.1545
348.0566	0.159
348.2659	0.1624
348.4752	0.1508
348.6845	0.1614
348.8937	0.1617
349.103	0.1546
349.3122	0.1619
349.5214	0.1552
349.7306	0.1608
349.9398	0.166
350.149	0.1668
350.3582	0.161
350.5674	0.1642
350.7765	0.1642
350.9856	0.1648
351.1948	0.1632
351.4039	0.1718
351.613	0.1748
351.822	0.1703
352.0311	0.1643
352.2402	0.1711
352.4492	0.1721
352.6582	0.1666
352.8672	0.167
353.0762	0.1751
353.2852	0.1736
353.4942	0.1767
353.7032	0.1705
353.9121	0.1728
354.1211	0.1732
354.33	0.1741
354.5389	0.1751
354.7478	0.1768
354.9567	0.1815
355.1655	0.1799
355.3744	0.1764
355.5833	0.1846
355.7921	0.1828
356.0009	0.1813
356.2097	0.1847
356.4185	0.1885
356.6273	0.1776
356.8361	0.1922
357.0448	0.1839
357.2536	0.1906
357.4623	0.1901
357.671	0.1776
357.8797	0.1903
358.0884	0.1941
358.2971	0.1905
358.5057	0.1888
358.7144	0.2008
358.923	0.1904
359.1316	0.1978
359.3402	0.1964
359.5488	0.2016
359.7574	0.2069
359.966	0.2008
360.1746	0.1977
360.3831	0.2027
360.5916	0.1968
360.8002	0.2166
361.0087	0.2169
361.2172	0.2069
361.4256	0.2109
361.6341	0.214
361.8426	0.2059
362.051	0.2102
362.2594	0.209
362.4678	0.2178
362.6762	0.2254
362.8846	0.219
363.093	0.2151
363.3014	0.2219
363.5097	0.213
363.718	0.2242
363.9264	0.225
364.1347	0.2248
364.343	0.2278
364.5513	0.2263
364.7595	0.2283
364.9678	0.2327
365.176	0.2349
365.3842	0.2336
365.5925	0.225
365.8007	0.2376
366.0089	0.2295
366.217	0.2351
366.4252	0.2407
366.6333	0.2403
366.8415	0.2405
367.0496	0.24
367.2577	0.2446
367.4658	0.2425
367.6739	0.2487
367.882	0.2465
368.09	0.2531
368.2981	0.2399
368.5061	0.2475
368.7141	0.2507
368.9221	0.2499
369.1301	0.2531
369.3381	0.2608
369.5461	0.2495
369.754	0.2494
369.962	0.2594
370.1699	0.2638
370.3778	0.2536
370.5857	0.2543
370.7936	0.2637
371.0015	0.2488
371.2093	0.2633
371.4172	0.2661
371.625	0.2677
371.8328	0.2662
372.0406	0.262
372.2484	0.2607
372.4562	0.2662
372.664	0.2678
372.8717	0.2657
373.0795	0.2694
373.2872	0.2691
373.4949	0.2826
373.7026	0.2671
373.9103	0.2617
374.118	0.2706
374.3256	0.2809
374.5333	0.2784
374.7409	0.2762
374.9485	0.2713
375.1561	0.2822
375.3637	0.277
375.5713	0.2721
375.7789	0.2722
375.9864	0.2804
376.194	0.2816
376.4015	0.2881
376.609	0.2929
376.8165	0.2825
377.024	0.2904
377.2315	0.2859
377.4389	0.2813
377.6464	0.2894
377.8538	0.2944
378.0612	0.2805
378.2686	0.2926
378.476	0.2946
378.6834	0.2835
378.8908	0.2977
379.0981	0.2914
379.3055	0.2982
379.5128	0.2961
379.7201	0.2972
379.9274	0.288
380.1347	0.3041
380.342	0.3038
380.5492	0.293
380.7565	0.3009
380.9637	0.2971
381.1709	0.2979
381.3781	0.3153
381.5853	0.2985
381.7925	0.3024
381.9997	0.3007
382.2068	0.2991
382.4139	0.304
382.6211	0.3112
382.8282	0.3133
383.0353	0.3064
383.2424	0.3107
383.4494	0.3196
383.6565	0.3088
383.8635	0.3233
384.0706	0.3093
384.2776	0.3151
384.4846	0.3124
384.6916	0.3165
384.8986	0.3176
385.1055	0.3255
385.3125	0.3185
385.5194	0.3084
385.7263	0.3107
385.9333	0.3039
386.1402	0.3223
386.347	0.3109
386.5539	0.3136
386.7608	0.3129
386.9676	0.3112
387.1744	0.3104
387.3813	0.3064
387.5881	0.3181
387.7948	0.3158
388.0016	0.3157
388.2084	0.3122
388.4151	0.3104
388.6219	0.3145
388.8286	0.3099
389.0353	0.2944
389.242	0.3139
389.4487	0.3119
389.6553	0.3095
389.862	0.3039
390.0686	0.3079
390.2753	0.3141
390.4819	0.3101
390.6885	0.2974
390.8951	0.3105
391.1016	0.3128
391.3082	0.2927
391.5147	0.3128
391.7213	0.3028
391.9278	0.2947
392.1343	0.3007
392.3408	0.2937
392.5473	0.3009
392.7537	0.2963
392.9602	0.2776
393.1666	0.2888
393.373	0.293
393.5794	0.2842
393.7858	0.301
393.9922	0.2837
394.1986	0.2871
394.4049	0.2777
394.6113	0.2848
394.8176	0.2784
395.0239	0.2811
395.2302	0.2669
395.4365	0.2757
395.6428	0.2824
395.8491	0.2779
396.0553	0.272
396.2615	0.2755
396.4678	0.2792
396.674	0.268
396.8802	0.2665
397.0863	0.2701
397.2925	0.2664
397.4987	0.2675
397.7048	0.2825
397.9109	0.2803
398.117	0.2667
398.3231	0.2714
398.5292	0.2703
398.7353	0.2657
398.9413	0.2674
399.1474	0.274
399.3534	0.2797
399.5594	0.2709
399.7654	0.2741
399.9714	0.2683
400.1774	0.2588
400.3833	0.2686
400.5893	0.2594
400.7952	0.2681
401.0011	0.2551
401.207	0.2669
401.4129	0.2695
401.6188	0.2666
401.8247	0.267
402.0305	0.2563
402.2364	0.2632
402.4422	0.27
402.648	0.2802
402.8538	0.2749
403.0596	0.2649
403.2654	0.2636
403.4711	0.2696
403.6768	0.2656
403.8826	0.2657
404.0883	0.263
404.294	0.2668
404.4997	0.2624
404.7054	0.2645
404.911	0.26
405.1167	0.2658
405.3223	0.2759
405.5279	0.277
405.7335	0.2715
405.9391	0.2761
406.1447	0.2695
406.3502	0.2763
406.5558	0.2692
406.7613	0.2648
406.9668	0.2648
407.1724	0.2692
407.3778	0.276
407.5833	0.269
407.7888	0.2774
407.9942	0.267
408.1997	0.2731
408.4051	0.2537
408.6105	0.275
408.8159	0.2629
409.0213	0.266
409.2267	0.2655
409.432	0.286
409.6374	0.2823
409.8427	0.2626
410.048	0.2644
410.2533	0.2576
410.4586	0.2742
410.6639	0.2608
410.8691	0.2797
411.0744	0.2669
411.2796	0.2651
411.4848	0.2548
411.69	0.2572
411.8952	0.26
412.1004	0.2628
412.3056	0.2579
412.5107	0.2762
412.7158	0.2638
412.921	0.2606
413.1261	0.2698
413.3312	0.2596
413.5362	0.2643
413.7413	0.2646
413.9464	0.2557
414.1514	0.2581
414.3564	0.2669
414.5614	0.2631
414.7664	0.2671
414.9714	0.2657
415.1764	0.2508
415.3813	0.2476
415.5863	0.2622
415.7912	0.2638
415.9961	0.259
416.201	0.2657
416.4059	0.2653
416.6108	0.26
416.8156	0.246
417.0205	0.2659
417.2253	0.2633
417.4301	0.2672
417.6349	0.2617
417.8397	0.261
418.0445	0.2632
418.2492	0.2613
418.454	0.2612
418.6587	0.2572
418.8634	0.2571
419.0681	0.2584
419.2728	0.2537
419.4775	0.2522
419.6822	0.2456
419.8868	0.2518
420.0915	0.259
420.2961	0.2567
420.5007	0.2532
420.7053	0.2667
420.9099	0.242
421.1144	0.2354
421.319	0.2479
421.5235	0.248
421.728	0.2303
421.9325	0.2432
422.137	0.2468
422.3415	0.2471
422.546	0.2388
422.7504	0.2463
422.9549	0.2453
423.1593	0.2399
423.3637	0.2347
423.5681	0.2397
423.7725	0.2343
423.9769	0.2246
424.1812	0.2341
424.3856	0.2308
424.5899	0.2391
424.7942	0.2269
424.9985	0.231
425.2028	0.2332
425.4071	0.2261
425.6113	0.2251
425.8156	0.2284
426.0198	0.2229
426.224	0.238
426.4282	0.2214
426.6324	0.2251
426.8366	0.2295
427.0407	0.22
427.2449	0.22
427.449	0.2131
427.6531	0.2182
427.8572	0.2175
428.0613	0.2146
428.2654	0.2095
428.4694	0.2071
428.6735	0.2165
428.8775	0.2103
429.0815	0.2119
429.2855	0.2028
429.4895	0.2074
429.6935	0.1995
429.8975	0.203
430.1014	0.204
430.3053	0.1961
430.5093	0.2046
430.7132	0.1917
430.9171	0.1921
431.1209	0.1922
431.3248	0.183
431.5286	0.19
431.7325	0.1942
431.9363	0.188
432.1401	0.1904
432.3439	0.1763
432.5477	0.1898
432.7514	0.179
432.9552	0.1723
433.1589	0.1675
433.3627	0.1739
433.5664	0.1658
433.7701	0.1761
433.9737	0.1735
434.1774	0.1731
434.3811	0.1723
434.5847	0.1555
434.7883	0.1609
434.9919	0.1493
435.1955	0.1658
435.3991	0.1626
435.6027	0.1539
435.8062	0.1459
436.0098	0.1479
436.2133	0.1528
436.4168	0.1447
436.6203	0.141
436.8238	0.1457
437.0272	0.1464
437.2307	0.137
437.4341	0.1399
437.6375	0.1279
437.841	0.1364
438.0443	0.1433
438.2477	0.1375
438.4511	0.1378
438.6545	0.1332
438.8578	0.1262
439.0611	0.127
439.2644	0.1202
439.4677	0.1171
439.671	0.1239
439.8743	0.1103
440.0775	0.1037
440.2808	0.1203
440.484	0.1073
440.6872	0.0962
440.8904	0.1101
441.0936	0.1157
441.2967	0.1054
441.4999	0.1189
441.703	0.0972
441.9062	0.0962
442.1093	0.093
442.3124	0.0973
442.5155	0.0913
442.7185	0.09
442.9216	0.0859
443.1246	0.0948
443.3276	0.088
443.5307	0.0937
443.7337	0.0861
443.9366	0.0801
444.1396	0.0754
444.3426	0.0796
444.5455	0.0794
444.7484	0.0681
444.9513	0.0786
445.1542	0.0733
445.3571	0.0664
445.56	0.0685
445.7628	0.0732
445.9657	0.0757
446.1685	0.0745
446.3713	0.0684
446.5741	0.0562
446.7769	0.0668
446.9797	0.0649
447.1824	0.0681
447.3852	0.0584
447.5879	0.0613
447.7906	0.0557
447.9933	0.0661
448.196	0.0574
448.3986	0.0557
448.6013	0.0524
448.8039	0.0519
449.0066	0.0485
449.2092	0.0511
449.4118	0.0551
449.6143	0.0536
449.8169	0.0525
450.0195	0.0401
450.222	0.0539
450.4245	0.0544
450.627	0.0495
450.8295	0.0494
451.032	0.0416
451.2345	0.0411
451.4369	0.0497
451.6394	0.0468
451.8418	0.037
452.0442	0.0371
452.2466	0.0356
452.449	0.0396
452.6513	0.0343
452.8537	0.0456
453.056	0.0357
453.2583	0.0424
453.4607	0.0291
453.663	0.0276
453.8652	0.0341
454.0675	0.0397
454.2697	0.0251
454.472	0.0356
454.6742	0.0246
454.8764	0.0339
455.0786	0.0352
455.2808	0.0397
455.4829	0.026
455.6851	0.0244
455.8872	0.036
456.0893	0.0283
456.2915	0.0181
456.4935	0.0205
456.6956	0.022
456.8977	0.0217
457.0997	0.0307
457.3018	0.0297
457.5038	0.0187
457.7058	0.0267
457.9078	0.0331
458.1098	0.0242
458.3117	0.0261
458.5137	0.0321
458.7156	0.0244
458.9175	0.0188
459.1194	0.0209
459.3213	0.0212
459.5232	0.0163
459.725	0.0121
459.9269	0.0231
460.1287	0.0143
460.3305	0.0162
460.5323	0.0206
460.7341	0.008
460.9359	0.0196
461.1376	0.0226
461.3394	0.0086
461.5411	0.0171
461.7428	0.0225
461.9445	0.022
462.1462	0.0139
462.3479	0.0222
462.5495	0.0087
462.7512	0.008
462.9528	0.0159
463.1544	0.0053
463.356	0.024
463.5576	0.0088
463.7592	0.007
463.9607	0.0082
464.1623	0.0167
464.3638	0.0076
464.5653	0.0089
464.7668	0.0151
464.9683	0.0144
465.1697	0.0108
465.3712	0.0087
465.5726	0.0152
465.7741	0.0081
465.9755	0.0103
466.1769	0.0082
466.3782	0.0059
466.5796	0.016
466.7809	0.0142
466.9823	0.0057
467.1836	0.0194
467.3849	0.0082
467.5862	-0.0055
467.7875	0.0155
467.9887	0.0092
468.19	0.0017
468.3912	0.023
468.5924	0.0173
468.7936	0.0029
468.9948	0.0151
469.196	0.0055
469.3972	0.0133
469.5983	-0.0034
469.7994	0.002
470.0006	0.0019
470.2017	0.0042
470.4027	-0.0093
470.6038	-0.0008
470.8049	0.0006
471.0059	0.0105
471.2069	0.0157
471.408	0.008
471.6089	0.015
471.8099	0.005
472.0109	-0.0026
472.2119	0.0122
472.4128	0.0021
472.6137	0.0098
472.8146	0.0104
473.0155	0.0087
473.2164	-0.0016
473.4173	0.0134
473.6181	0.0103
473.819	-0.0055
474.0198	0.0076
474.2206	0.0055
474.4214	0.0083
474.6222	0.0142
474.8229	0.0063
475.0237	0.0037
475.2244	0.0065
475.4251	0.002
475.6258	0.0068
475.8265	-0.0011
476.0272	0.0068
476.2278	0.0057
476.4285	-0.0013
476.6291	0.0107
476.8297	0.0011
477.0303	0.0081
477.2309	0.0024
477.4315	0.0116
477.632	0.0052
477.8326	0.0011
478.0331	0.0048
478.2336	0.0032
478.4341	0.0053
478.6346	0.008
478.8351	0.0093
479.0355	0.0015
479.236	-0.0011
479.4364	-0.0097
479.6368	0.0034
479.8372	0.0057
480.0376	0.0042
480.2379	-0.0026
480.4383	0.0077
480.6386	0.0046
480.8389	0.002
481.0392	0.006
481.2395	0.004
481.4398	0.0029
481.6401	0.0039
481.8403	-0.0002
482.0405	-0.0028
482.2408	0.0044
482.441	0.0015
482.6411	0.0014
482.8413	-0.0063
483.0415	0.0029
483.2416	-0.0017
483.4417	0.0035
483.6419	0.006
483.8419	0.001
484.042	-0.0011
484.2421	0.0028
484.4422	-0.0007
484.6422	0.0073
484.8422	0.0022
485.0422	0.0027
485.2422	0.0016
485.4422	-0.0018
485.6422	-0.0016
485.8421	-0.0007
486.042	0.0065
486.242	0.0028
486.4419	0.0039
486.6417	0.0041
486.8416	0.0005
487.0415	-0.004
487.2413	0.0024
487.4411	0.0066
487.641	0.0137
487.8408	0.0059
488.0405	0.0072
488.2403	0.0002
488.4401	-0.0071
488.6398	0.0076
488.8395	-0.0024
489.0392	-0.0012
489.2389	0.0014
489.4386	-0.0019
489.6383	0.004
489.8379	-0.0028
490.0376	0.0096
490.2372	-0.0014
490.4368	0.0097
490.6364	0.0143
490.836	-0.0043
491.0355	-0.0049
491.2351	0.0003
491.4346	0.0049
491.6341	-0.0029
491.8336	-0.005
492.0331	0.0007
492.2326	0.0046
492.432	0.0037
492.6315	0.0022
492.8309	0.0149
493.0303	-0.0065
493.2297	-0.0016
493.4291	-0.0016
493.6284	-0.0019
493.8278	0.0027
494.0271	0.0033
494.2264	0.0107
494.4257	0.0061
494.625	-0.0032
494.8243	0.0092
495.0236	-0.0039
495.2228	0.0039
495.422	0.0026
495.6213	-0.0044
495.8205	0.0045
496.0196	0.0036
496.2188	0.0038
496.418	-0.0045
496.6171	0.0053
496.8162	0.0076
497.0153	-0.0056
497.2144	0.0093
497.4135	0.0065
497.6126	-0.0087
497.8116	-0.0009
498.0107	-0.0021
498.2097	0.0109
498.4087	0.004
498.6077	0.0021
498.8067	0.0078
499.0056	-0.0049
499.2046	-0.0024
499.4035	0.0017
499.6024	-0.0115
499.8013	0.002
500.0002	0.0028
500.199	0.0001
500.3979	0.0099
500.5967	0.001
500.7956	-0.0085
500.9944	0.0052
501.1932	0.0062
501.3919	0.0039
501.5907	0.0036
501.7895	-0.0009
501.9882	-0.0038
502.1869	-0.0013
502.3856	-0.0028
502.5843	-0.0039
502.783	0.0072
502.9816	0.0001
503.1803	0.0119
503.3789	0.0117
503.5775	0.0048
503.7761	-0.0006
503.9747	-0.0011
504.1732	-0.0019
504.3718	-0.0055
504.5703	0.002
504.7689	0.0058
504.9674	0.0052
505.1658	0.002
505.3643	0.0049
505.5628	0.0028
505.7612	0.0037
505.9597	0.0006
506.1581	-0.0112
506.3565	-0.005
506.5549	0.0036
506.7532	0.0062
506.9516	0.0008
507.1499	-0.0034
507.3482	0.0137
507.5465	-0.0026
507.7448	0.0095
507.9431	0.0001
508.1414	0.0024
508.3396	-0.0006
508.5379	-0.0002
508.7361	0.0052
508.9343	0.008
509.1325	0.0085
509.3306	-0.0044
509.5288	0.0028
509.7269	0.0044
509.9251	-0.0025
510.1232	-0.0063
510.3213	-0.0058
510.5193	0.0095
510.7174	-0.0099
510.9154	0.0048
511.1135	0.0004
511.3115	0.0025
511.5095	0.0078
511.7075	0.0032
511.9055	0.0105
512.1034	0
512.3014	-0.0017
512.4993	0.0009
512.6972	0.0018
512.8951	0.0023
513.093	-0.0028
513.2908	-0.0015
513.4887	0.0097
513.6865	-0.0129
513.8844	-0.0023
514.0822	0.0026
514.2799	-0.0044
514.4777	0.003
514.6755	-0.0004
514.8732	-0.001
515.0709	0.0032
515.2687	0.0043
515.4664	-0.0163
515.664	0.0078
515.8617	0.0063
516.0594	0.0013
516.257	0.0096
516.4546	-0.0058
516.6522	-0.0022
516.8498	-0.0041
517.0474	0.0074
517.2449	-0.0012
517.4425	-0.0091
517.64	0.0004
517.8375	0.0095
518.035	-0.0018
518.2325	-0.009
518.43	0.0027
518.6274	-0.0045
518.8249	0.001
519.0223	0.0039
519.2197	0.0021
519.4171	0.0061
519.6145	-0.0066
519.8118	0.0005
520.0092	0.0014
520.2065	0.0066
520.4038	-0.0012
520.6011	0.0025
520.7984	0.0098
520.9956	-0.0092
521.1929	0.0015
521.3901	0.005
521.5874	0.0022
521.7846	0.0003
521.9818	-0.0054
522.1789	0.0154
522.3761	0.0019
522.5732	-0.0002
522.7704	-0.0029
522.9675	-0.0036
523.1646	0.0156
523.3617	-0.0005
523.5587	-0.0017
523.7558	0.006
523.9528	-0.0018
524.1498	0.0008
524.3468	-0.0012
524.5438	-0.004
524.7408	-0.0088
524.9378	0.0042
525.1347	-0.0052
525.3316	0.022
525.5285	-0.0045
525.7254	-0.0004
525.9223	0.0039
526.1192	-0.0034
526.316	-0.0138
526.5129	-0.0049
526.7097	0.0056
526.9065	0.005
527.1033	-0.0001
527.3	0.0022
527.4968	-0.0054
527.6935	-0.0007
527.8903	0.0126
528.087	0.0072
528.2837	0.0011
528.4804	0.0115
528.677	0.0021
528.8737	0.0019
529.0703	0.0013
529.2669	0.0068
529.4635	0.002
529.6601	0.013
529.8567	0.0061
530.0532	-0.0006
530.2498	-0.0076
530.4463	0.0066
530.6428	-0.0059
530.8393	-0.0096
531.0358	0.0017
531.2322	-0.0001
531.4287	-0.0111
531.6251	-0.0103
531.8215	0.0086
532.0179	-0.0109
532.2143	0.0074
532.4107	0.0045
532.607	-0.0002
532.8034	0.0097
532.9997	0.0077
533.196	0.005
533.3923	0.0048
533.5886	0.0028
533.7848	-0.0032
533.9811	-0.0051
534.1773	-0.002
534.3735	0.0072
534.5697	-0.0025
534.7659	0.0056
534.9621	0.0058
535.1582	0.0012
535.3544	0.0091
535.5505	-0.0014
535.7466	-0.0014
535.9427	-0.0069
536.1387	-0.0019
536.3348	0.005
536.5308	0.0128
536.7269	-0.0041
536.9229	0.0067
537.1189	0.0006
537.3148	-0.0154
537.5108	-0.0008
537.7068	0.0092
537.9027	0.0079
538.0986	-0.0008
538.2945	0.0009
538.4904	-0.0017
538.6863	0.01
538.8821	-0.0057
539.078	-0.0041
539.2738	-0.0122
539.4696	0.0087
539.6654	0.0075
539.8611	0.0052
540.0569	-0.0012
540.2526	0.0019
540.4484	-0.0068
540.6441	-0.0061
540.8398	0.0037
541.0355	0.0078
541.2311	0.0013
541.4268	-0.0058
541.6224	-0.0048
541.818	0.0059
542.0136	-0.0017
542.2092	0.0112
542.4048	0.0152
542.6003	0.0065
542.7959	-0.0015
542.9914	0.0041
543.1869	0.0007
543.3824	-0.0048
543.5779	-0.0036
543.7734	-0.0044
543.9688	-0.0057
544.1642	0.0049
544.3596	-0.0141
544.555	0.001
544.7504	0.002
544.9458	-0.0021
545.1411	-0.0042
545.3365	0.0021
545.5318	-0.0058
545.7271	0.008
545.9224	-0.0035
546.1177	0.0043
546.3129	-0.0066
546.5081	-0.0076
546.7034	0.001
546.8986	0.0011
547.0938	0.0059
547.289	-0.0028
547.4841	0.0003
547.6793	-0.0021
547.8744	-0.0052
548.0695	0.0025
548.2646	-0.0059
548.4597	-0.0118
548.6548	-0.0031
548.8498	-0.0064
549.0448	0.002
549.2399	0.004
549.4349	0.0108
549.6298	-0.0053
549.8248	0.0029
550.0198	0.003
550.2147	0.0011
550.4096	0.006
550.6045	0.0038
550.7994	0.0067
550.9943	0.0061
551.1892	0
551.384	0.0058
551.5788	0.0032
551.7737	0.0006
551.9685	0.0022
552.1632	0.0089
552.358	0.0007
552.5528	-0.0007
552.7475	-0.001
552.9422	0.0011
553.1369	0.0088
553.3316	-0.0078
553.5263	-0.0049
553.7209	-0.0015
553.9156	0.0119
554.1102	0.0056
554.3048	0.0016
554.4994	0.0078
554.694	-0.0011
554.8885	0.0028
555.0831	0.0125
555.2776	-0.0079
555.4721	-0.0054
555.6666	-0.0001
555.8611	-0.004
556.0555	0.0083
556.25	-0.0053
556.4444	-0.0021
556.6388	0.0007
556.8332	-0.0054
557.0276	0.0082
557.222	-0.0051
557.4163	0.004
557.6107	0.0036
557.805	-0.0019
557.9993	0.0027
558.1936	0.0077
558.3879	0.0054
558.5821	-0.0034
558.7764	0.0194
558.9706	0.0016
559.1648	0.0022
559.359	0.0167
559.5532	-0.0122
559.7473	0.0145
559.9415	-0.0069
560.1356	0.0047
560.3297	0.0122
560.5238	-0.0002
560.7179	-0.005
560.9119	0.013
561.106	-0.0006
561.3	-0.0055
561.494	0.0025
561.688	0.0027
561.882	-0.0026
562.076	0.0068
562.2699	0.0081
562.4639	0.0017
562.6578	0.013
562.8517	0.0068
563.0456	-0.002
563.2395	0.0016
563.4333	-0.0045
563.6272	0.0028
563.821	0.0039
564.0148	-0.002
564.2086	0.0025
564.4024	-0.0039
564.5961	0.007
564.7899	-0.0026
564.9836	-0.0019
565.1773	-0.0018
565.371	0.0057
565.5647	0.0005
565.7584	-0.0014
565.952	-0.0023
566.1456	0.0027
566.3393	0.0066
566.5329	0.0019
566.7264	-0.0005
566.92	-0.0045
567.1136	0.0081
567.3071	0.0018
567.5006	-0.0018
567.6941	0.006
567.8876	-0.0042
568.0811	-0.006
568.2745	-0.0081
568.468	0.0059
568.6614	0.0039
568.8548	-0.0025
569.0482	0.0034
569.2416	-0.0052
569.4349	-0.0005
569.6283	0.0018
569.8216	0.0012
570.0149	0.0006
570.2082	-0.0008
570.4015	0.0024
570.5947	-0.0016
570.788	0.0008
570.9812	-0.0043
571.1744	-0.0051
571.3676	0.0053
571.5608	-0.0049
571.754	-0.0052
571.9471	0.0071
572.1402	0.0003
572.3333	0.0012
572.5264	-0.0005
572.7195	0.0065
572.9126	0.0025
573.1057	-0.0033
573.2987	0.004
573.4917	0.0027
573.6847	0.0013
573.8777	0.0023
574.0707	-0.0007
574.2636	-0.0002
574.4566	-0.0005
574.6495	-0.0001
574.8424	-0.0001
575.0353	0.0028
575.2281	-0.0034
575.421	-0.0014
575.6138	0.002
575.8067	0.0005
575.9995	-0.0027
576.1923	0.0043
576.385	-0.0002
576.5778	-0.0052
576.7706	0.0046
576.9633	0.0039
577.156	0.005
577.3487	0.0011
577.5414	0.0022
577.734	-0.0014
577.9267	-0.0004
578.1193	0.0046
578.3119	-0.0013
578.5045	0.0006
578.6971	0.0002
578.8897	0.0006
579.0822	-0.0004
579.2747	-0.0067
579.4673	0.0022
579.6598	-0.0053
579.8522	0.0042
580.0447	0.0002
580.2372	0.007
580.4296	-0.0023
580.622	0.0018
580.8144	-0.001
581.0068	0.0011
581.1992	0.0026
581.3915	0.0001
581.5839	0.0029
581.7762	-0.0001
581.9685	0.0016
582.1608	0.0043
582.353	-0.0029
582.5453	0.0013
582.7375	-0.0006
582.9298	0.0023
583.122	-0.0029
583.3142	0.0067
583.5063	-0.003
583.6985	0.0009
583.8906	-0.0005
584.0827	0.0001
584.2749	0.001
584.4669	-0.0037
584.659	0
584.8511	0.0016
585.0431	0.0004
585.2352	-0.0047
585.4272	-0.0032
585.6192	-0.0018
585.8111	-0.0068
586.0031	-0.0019
586.195	0.0014
586.387	0.0025
586.5789	0.0037
586.7708	0
586.9627	-0.0013
587.1545	0.0015
587.3464	0.001
587.5382	-0
587.73	0.0038
587.9218	0
588.1136	-0.0024
588.3053	-0.0028
588.4971	-0.0023
588.6888	0.0023
588.8805	0.005
589.0722	0.0025
589.2639	-0.0048
589.4556	-0.0043
589.6472	-0.0029
589.8389	-0.0018
590.0305	0.0023
590.2221	0.0037
590.4137	-0.0049
590.6052	0.0017
590.7968	0.0006
590.9883	0.0039
591.1798	-0.0039
591.3713	-0.0014
591.5628	-0.0004
591.7543	-0.0033
591.9458	-0.003
592.1372	-0.0021
592.3286	-0.0019
592.52	-0.0051
592.7114	-0.0029
592.9028	-0.0022
593.0941	-0.001
593.2855	-0.0027
593.4768	0.0015
593.6681	-0.0004
593.8594	0.0012
594.0506	0.0005
594.2419	-0.0074
594.4331	-0.0003
594.6244	0.003
594.8156	0
595.0067	-0.0008
595.1979	-0.0032
595.3891	-0.0067
595.5802	-0.0036
595.7713	-0.0013
595.9624	0.0032
596.1535	-0.002
596.3446	0.002
596.5357	-0.0025
596.7267	-0.0028
596.9177	-0.0006
597.1087	0.004
597.2997	0.006
597.4907	0.0008
597.6817	0.0008
597.8726	0.007
598.0635	0.0018
598.2544	-0.0049
598.4453	-0.0015
598.6362	-0.0071
598.827	0.0034
599.0179	0.0021
599.2087	-0.0001
599.3995	0.0044
599.5903	0.0042
599.7811	-0.0012
599.9718	0.0021
600.1626	-0.0016
600.3533	-0.0011
600.544	-0.0007
600.7347	0.0013
600.9254	-0.0005
601.116	0.0038
601.3067	0.0033
601.4973	0.0066
601.6879	0.0035
601.8785	0.0019
602.0691	0.0035
602.2596	0.0016
602.4502	0.0043
602.6407	0.0071
602.8312	-0.0007
603.0217	0.0061
603.2122	0.0083
603.4027	-0.0014
603.5931	0.0014
603.7835	-0.0003
603.9739	0.004
604.1643	-0.0008
604.3547	0.0085
604.5451	0.0018
604.7354	-0.0044
604.9257	-0.0048
605.116	-0.0027
605.3063	-0.0027
605.4966	-0.0025
605.6869	0.0022
605.8771	0.0009
606.0673	-0.0059
606.2575	0.001
606.4477	0.0045
606.6379	0.003
606.8281	-0.0075
607.0182	0.0022
607.2083	-0.0036
607.3985	-0.0003
607.5885	0.0068
607.7786	0.0091
607.9687	0.0014
608.1587	-0.0007
608.3488	0.0013
608.5388	0.0043
608.7288	-0.0058
608.9187	0.011
609.1087	0.0022
609.2986	-0.0004
609.4886	0.0036
609.6785	0.0048
609.8684	-0.0074
610.0582	-0.001
610.2481	0.0016
610.4379	0.0008
610.6278	0.0001
610.8176	-0.0098
611.0074	0.0007
611.1971	0.0023
611.3869	0.0019
611.5766	-0.0011
611.7664	0.01
611.9561	-0.0029
612.1458	-0.0056
612.3354	0.0033
612.5251	0.0006
612.7147	0.0014
612.9044	-0.0004
613.094	0.0032
613.2836	0.0009
613.4731	0.0042
613.6627	0.0022
613.8522	-0.0043
614.0417	-0.0017
614.2313	-0.002
614.4207	0.0037
614.6102	0.0015
614.7997	0.0018
614.9891	0.0036
615.1785	-0.0021
615.3679	0.0038
615.5573	-0.0061
615.7467	-0.0069
615.9361	-0.004
616.1254	-0.0009
616.3147	-0.001
616.504	0.0027
616.6933	-0.0068
616.8826	0.0068
617.0718	-0.011
617.2611	0.0004
617.4503	0.0023
617.6395	0.0009
617.8287	0.0025
618.0179	-0.0067
618.207	-0.0003
618.3961	0.0027
618.5853	0.0019
618.7744	0.009
618.9634	-0.0001
619.1525	0.0013
619.3416	0.0025
619.5306	-0.0134
619.7196	-0.0064
619.9086	0.0056
620.0976	0.003
620.2866	-0.0001
620.4755	0.0136
620.6645	0.0016
620.8534	-0.0066
621.0423	-0.005
621.2312	-0.0091
621.42	-0.0036
621.6089	0.0022
621.7977	0.0007
621.9865	-0.0007
622.1753	0.0091
622.3641	-0.0093
622.5529	-0.0114
622.7416	-0.0038
622.9303	0.0026
623.1191	0.0013
623.3078	-0.0021
623.4964	-0.012
623.6851	0.0081
623.8737	0.0073
624.0624	-0.0108
624.251	0.004
624.4396	0.0006
624.6282	0.0028
624.8167	-0.0025
625.0053	-0.0019
625.1938	-0.0095
625.3823	-0.0028
625.5708	0.0016
625.7593	0.0019
625.9477	-0.0052
626.1362	-0.0145
626.3246	-0.0109
626.513	0.0025
626.7014	-0.0072
626.8898	0.0078
627.0781	0.001
627.2665	0.0184
627.4548	-0.0023
627.6431	-0.0084
627.8314	0.0058
628.0197	0
628.2079	-0.0101
628.3962	0.0083
628.5844	0.0077
628.7726	-0.0127
628.9608	-0.0044
629.1489	-0.0029
629.3371	0.0009
629.5252	0.0092
629.7134	0.0045
629.9015	-0.0168
630.0895	0.0072
630.2776	-0.0076
630.4657	-0.0006
630.6537	-0.007
630.8417	-0.0068
631.0297	0.0128
631.2177	-0.0055
631.4057	-0.0124
631.5936	-0.0153
631.7815	-0.023
631.9695	0.0117
632.1574	0.0005
632.3452	0.0108
632.5331	-0.0075
632.7209	-0.0046
632.9088	0.0142
633.0966	0.0191
633.2844	-0.0051
633.4722	0.0047
633.6599	-0.004
633.8477	0.0038
634.0354	0.0005
634.2231	0.018
634.4108	-0.0039
634.5985	-0.0063
634.7861	0.0007
634.9738	0.0072
635.1614	0.0143
635.349	0.0038
635.5366	-0.0017
635.7242	-0.0032
635.9117	0.0198
636.0993	-0.0146
636.2868	-0.006
636.4743	0.0104
636.6618	-0.0024
636.8492	-0.0018
637.0367	0.0052
637.2241	-0.0021
637.4115	0.0111
637.5989	0.007
637.7863	-0.0034
637.9737	0.0012
638.161	-0.0035
638.3484	0.003
638.5357	-0.0015
638.723	-0.007
638.9103	0.0019
639.0975	0.0102
639.2848	0.0315
639.472	0.0038
639.6592	-0.0094
639.8464	0.0112
640.0336	-0.0036
640.2208	-0.0046
640.4079	0.0197
640.595	-0.0026
640.7821	-0.0134
640.9692	0.0115
641.1563	0.006
641.3434	0.02
641.5304	0.0085
641.7174	0.0149
641.9044	0.0007
642.0914	-0.0237
642.2784	0.0189
642.4653	0.0086
642.6523	0.0137
642.8392	0.0185
643.0261	-0.0065
643.213	0.0107
643.3999	-0.0004
643.5867	0.0055
643.7735	0.0003
643.9604	-0.0124
644.1472	-0.0092
644.3339	0.0015
644.5207	-0.0185
644.7075	-0.0024
644.8942	0.0012
645.0809	-0.0009
645.2676	-0.0131
645.4543	-0.0083
645.6409	-0.0046
645.8276	0.0003
646.0142	0.0124
646.2008	-0.0061
646.3874	0.0121
646.574	-0.0315
646.7605	-0.002
646.9471	-0.0024
647.1336	0.0062
647.3201	-0.0022
647.5066	0.0012
647.6931	0.0135
647.8795	0.0008
648.0659	-0.0015
648.2524	-0.0078
648.4388	0.008
648.6252	-0.0036
648.8115	0.0134
648.9979	-0.0012
649.1842	-0.0143
649.3705	-0.0026
649.5568	0.0023
649.7431	0.0018
649.9294	-0.0057
650.1156	-0.0158
650.3018	0.0247
650.488	-0.0028
650.6742	0.0121
650.8604	-0.0063
651.0466	0.0018
651.2327	-0.0088
651.4188	-0.0262
651.6049	-0.0103
651.791	0.0275
651.9771	-0.0032
652.1632	0.0056
652.3492	0.0044
652.5352	0.0191
652.7212	-0.0158
652.9072	0.0036
653.0932	0.0057
653.2791	0.0047
653.465	0.0025
653.651	0.0408
653.8369	0.0124
654.0227	-0.0037
654.2086	-0.0204
654.3944	-0.0118
654.5803	0.0028
654.7661	-0.0078
654.9519	-0.0026
655.1377	0
655.3234	0
655.5092	0
655.6949	0
655.8806	0
656.0663	0
656.2519	0
656.4376	0
656.6232	0
656.8088	0
656.9945	0
657.18	0
657.3656	0
657.5511	0
657.7367	0
657.9222	0
658.1077	0
658.2932	0
658.4786	0
658.6641	0
658.8495	0
659.0349	0
659.2203	0
659.4057	0.0135
659.591	0.0715
659.7764	0.0122
659.9617	0.0009
660.147	-0.0038
660.3323	0.0084
660.5176	-0.0097
660.7028	0.0102
660.888	0.011
661.0733	0.0075
661.2585	0.0042
661.4436	0.0135
661.6288	-0.0017
661.8139	0.0225
661.9991	0.0046
662.1842	0.0246
662.3693	0.0011
662.5544	-0.0075
662.7394	0.0142
662.9245	0.0146
663.1095	0.0118
663.2945	0.0049
663.4795	0.0042
663.6644	0.0046
663.8494	0.0051
664.0343	-0.0106
664.2193	-0.0136
664.4042	-0.0132
664.589	-0.0033
664.7739	0.006
664.9587	0.0008
665.1436	0.0092
665.3284	0.0072
665.5132	0
665.698	-0.0028
665.8827	-0.0226
666.0675	-0.0066
666.2522	0.0187
666.4369	-0.001
666.6216	0.0073
666.8063	-0.0045
666.9909	-0.0006
667.1756	0.0001
667.3602	-0.0053
667.5448	0.0141
667.7294	-0.0224
667.9139	-0.0056
668.0985	0.0123
668.283	-0.0031
668.4675	0.0219
668.652	-0.0051
668.8365	-0.0118
669.0209	-0.0102
669.2054	0.0213
669.3898	0.0088
669.5742	0.0116
669.7586	-0.0052
669.943	-0.036
670.1273	0.0067
670.3117	0.0118
670.496	0.0095
670.6803	0.0058
670.8646	0.0119
671.0488	0.0008
671.2331	0.0005
671.4173	0.0139
671.6015	0.0084
671.7857	-0.0114
671.9699	0.0065
672.1541	-0.0065
672.3382	0.0172
672.5223	0.0052
672.7064	-0.0081
672.8905	-0.0099
673.0746	0
673.2587	0.0052
673.4427	-0.0247
673.6267	-0.0225
673.8107	-0.0056
673.9947	0.0059
674.1787	0.0119
674.3626	-0.0012
674.5465	0.011
674.7304	-0.0373
674.9143	0.0158
675.0982	0.0194
675.2821	0.0102
675.4659	0.0319
675.6497	0.0054
675.8335	-0.0039
676.0173	0.0248
676.2011	-0.0053
676.3849	0.0037
676.5686	-0.0178
676.7523	0.0067
676.936	-0.0044
677.1197	0.0099
677.3034	0.0199
677.487	0.0067
677.6706	0.004
677.8542	0.005
678.0378	0.009
678.2214	-0.0118
678.405	0.0139
678.5885	0.0042
678.772	-0.0031
678.9555	0.0118
679.139	-0.0115
679.3225	-0.0014
679.5059	0.0012
679.6894	-0.0198
679.8728	0
680.0562	0.0106
680.2395	-0.0021
680.4229	-0.0199
680.6062	0.0041
680.7896	0.0154
680.9729	0.0003
681.1562	-0.0094
681.3394	0.0044
681.5227	-0.0253
681.7059	-0.0146
681.8891	0.0068
682.0723	0.0028
682.2555	0.015
682.4387	0.0097
682.6218	-0.007
682.805	0.0117
682.9881	0.0023
683.1712	0.0279
683.3542	0.0019
683.5373	0.0123
683.7203	-0.0115
683.9034	-0.005
684.0864	-0.0058
684.2694	0.0002
684.4523	0.0115
684.6353	0.0119
684.8182	0.0022
685.0011	-0.0025
685.184	-0.0008
685.3669	-0.0089
685.5498	0.0006
685.7326	-0.0164
685.9154	-0.0071
686.0982	-0.0002
686.281	-0.0132
686.4638	0.0109
686.6465	-0.0083
686.8293	0.004
687.012	-0.004
687.1947	0.0078
687.3774	-0.0129
687.56	0.0022
687.7427	0.0098
687.9253	0.0091
688.1079	0.0195
688.2905	0.0031
688.4731	0.005
688.6556	-0.0071
688.8382	0.0148
689.0207	-0.0112
689.2032	-0.0226
689.3857	-0.0133
689.5681	-0.0118
689.7506	0.0037
689.933	0.0032
690.1154	0.0025
690.2978	-0.0296
690.4802	0.0091
690.6626	-0.0016
690.8449	-0.0209
691.0272	-0.0278
691.2095	-0.014
691.3918	-0.0047
691.5741	0.0326
691.7563	0.0071
691.9386	-0.0161
692.1208	-0.0116
692.303	0.0011
692.4852	0.0065
692.6673	0.002
692.8495	-0.0007
693.0316	0.0016
693.2137	0.0191
693.3958	0.0146
693.5778	-0.0115
693.7599	-0.0353
693.9419	0.0102
694.1239	0.0207
694.3059	-0.0109
694.4879	-0.0143
694.6699	0.0247
694.8518	0.0039
695.0337	0.0009
695.2157	0.0168
695.3975	0.0036
695.5794	-0.0115
695.7613	0.0285
695.9431	-0.0247
696.1249	-0.0065
696.3067	-0.0072
696.4885	-0.0081
696.6703	0.0033
696.852	-0.0122
697.0337	0.01
697.2154	0.017
697.3971	0.0145
697.5788	0.0088
697.7605	-0.0045
697.9421	0.0081
698.1237	0.0169
698.3053	-0.0005
698.4869	0.0055
698.6685	0.0093
698.85	0.0035
699.0315	-0.0065
699.213	-0.0012
699.3945	0.0058
699.576	-0.0021
699.7575	0.0189
699.9389	-0.0015
700.1203	-0.0061
700.3017	0.0001
700.4831	-0.011
700.6645	0.0222
700.8458	-0.0065
701.0271	-0.0256
701.2084	-0.0088
701.3897	0.0208
701.571	-0.0117
701.7523	-0.0094
701.9335	0.0174
702.1147	-0.0012
702.2959	0.0093
702.4771	0.0028
702.6583	-0.0192
702.8394	0.0287
703.0205	0.0018
703.2016	0.0085
703.3827	0.0163
703.5638	-0.0118
703.7449	-0.0162
703.9259	-0.0077
704.1069	0.0203
704.2879	0.0107
704.4689	-0.006
704.6499	0.012
704.8308	-0.0102
705.0117	-0.0165
705.1927	0.0259
705.3735	-0.0038
705.5544	0.001
705.7353	0.0013
705.9161	0.01
706.0969	0.0006
706.2777	-0.0024
706.4585	-0.0057
706.6393	-0.004
706.82	0.0007
707.0007	-0.0022
707.1815	0.0169
707.3621	0.0025
707.5428	-0.0073
707.7235	0.0287
707.9041	-0.0167
708.0847	-0.0016
708.2653	0.0053
708.4459	0.0114
708.6265	-0.0285
708.807	0.0064
708.9875	-0.0007
709.168	0.0287
709.3485	0.0004
709.529	-0.0006
709.7095	0.0008
709.8899	0.002
710.0703	0.0166
710.2507	0.0039
710.4311	-0.0006
710.6115	0.0034
710.7918	-0.0041
710.9721	0.0103
711.1524	0.0065
711.3327	-0.0102
711.513	-0.0112
711.6932	-0.0293
711.8735	0.0013
712.0537	-0.0032
712.2339	0.0009
712.4141	0.0229
712.5942	0.0096
712.7744	0.0063
712.9545	0.0017
713.1346	0.022
713.3147	0.0179
713.4947	-0.0005
713.6748	0.0095
713.8548	-0.012
714.0348	0.0298
714.2148	-0.0116
714.3948	0.0162
714.5748	-0.0115
714.7547	-0.0019
714.9346	-0.0082
715.1145	0.0038
715.2944	0.0188
715.4743	0.0191
715.6541	-0.013
715.834	0.022
716.0138	0.0414
716.1936	-0.0291
716.3733	0.0001
716.5531	0.0066
716.7328	-0.0146
716.9126	0.0211
717.0923	0.0289
717.2719	0.0043
717.4516	-0.0275
717.6312	-0.0089
717.8109	0.0053
717.9905	0.0126
718.1701	-0.0263
718.3496	0.0248
718.5292	-0.0175
718.7087	0.0518
718.8882	0.0001
719.0677	-0.0058
719.2472	-0.0014
719.4267	0.0122
719.6061	0.0031
719.7856	0.0101
719.965	0.0214
720.1443	-0.009
720.3237	0.0304
720.5031	0.0329
720.6824	-0.0132
720.8617	0.0031
721.041	0.0045
721.2203	-0.0074
721.3995	-0.0121
721.5788	-0.0104
721.758	-0.0177
721.9372	0.0155
722.1164	0.0172
722.2956	0.0093
722.4747	0.0063
722.6538	0.0116
722.8329	-0.021
723.012	-0.0104
723.1911	0.0112
723.3702	-0.0129
723.5492	-0.0131
723.7282	-0.0204
723.9072	-0.0147
724.0862	-0.0135
724.2652	0.001
724.4441	0.0116
724.623	-0.0039
724.8019	-0.0032
724.9808	0.0228
725.1597	0.015
725.3385	0.0139
725.5174	0.0172
725.6962	0.0384
725.875	-0.0047
726.0538	0.0015
726.2325	-0.0064
726.4112	0.0054
726.59	0.0046
726.7687	0.0065
726.9474	-0.0144
727.126	0.0026
727.3047	0.0211
727.4833	0.0367
727.6619	0.0182
727.8405	0.0001
728.0191	-0.0315
728.1976	-0.0253
728.3762	-0.0116
728.5547	-0.012
728.7332	-0.001
728.9116	-0.0324
729.0901	0.0237
729.2686	-0.0086
729.447	-0.0178
729.6254	0.0083
729.8038	0.0089
729.9821	0.0169
730.1605	-0.0027
730.3388	-0.0046
730.5171	-0.0047
730.6954	0.0115
730.8737	0.0136
731.0519	0.0196
731.2302	-0.0111
731.4084	-0.0083
731.5866	-0.0227
731.7648	-0.0126
731.9429	-0.0189
732.1211	-0.0161
732.2992	-0.0232
732.4773	-0.0214
732.6554	0.0097
732.8335	0.0112
733.0115	-0.0038
733.1896	-0.0115
733.3676	0.0166
733.5456	0.0155
733.7235	-0.0063
733.9015	-0.0045
734.0794	0.0119
734.2574	0.0278
734.4353	-0.027
734.6131	-0.0066
734.791	0.0081
734.9689	0.0035
735.1467	0.0014
735.3245	0.0182
735.5023	0.0183
735.68	-0.0147
735.8578	0.0026
736.0355	-0.0089
736.2132	0.0063
736.3909	-0.0201
736.5686	0.0006
736.7463	-0.005
736.9239	0.0041
737.1015	-0.0154
737.2791	-0.0078
737.4567	0.0135
737.6343	-0.0007
737.8118	0.0135
737.9894	-0.0007
738.1669	0.012
738.3444	0.005
738.5218	0.0216
738.6993	-0.0118
738.8767	-0.0081
739.0541	0.0179
739.2315	0.0085
739.4089	-0.0044
739.5863	-0.0035
739.7636	0.0094
739.9409	0.003
740.1182	-0.0188
740.2955	-0.0401
740.4728	0.0406
740.65	-0.0179
740.8272	-0.009
741.0044	0.0215
741.1816	0.0022
741.3588	0.0052
741.5359	0.0035
741.7131	0.0256
741.8902	-0.0261
742.0673	0.0178
742.2444	-0.0183
742.4214	0.0033
742.5985	0.0026
742.7755	-0.0257
742.9525	0.0191
743.1295	-0.0299
743.3064	0.0093
743.4834	-0.004
743.6603	0.0011
743.8372	0.0015
744.0141	0.0423
744.191	-0.0091
744.3678	0.0305
744.5446	0.012
744.7215	-0.0248
744.8982	0.0204
745.075	0.0063
745.2518	-0.0014
745.4285	-0.0156
745.6052	0.026
745.7819	0.003
745.9586	0.0129
746.1353	0.0155
746.3119	-0.0019
746.4885	0.0087
746.6651	-0.0266
746.8417	-0.0039
747.0183	0.0067
747.1948	0.0069
747.3714	0.0412
747.5479	0.0254
747.7244	-0.0346
747.9008	0.0174
748.0773	0.0074
748.2537	0.0312
748.4301	0.0352
748.6065	-0.0333
748.7829	0.0078
748.9593	0.0059
749.1356	0.0108
749.3119	-0.0073
749.4882	-0.0015
749.6645	0.0252
749.8408	0.0039
750.017	0.0052
750.1933	0.0218
750.3695	0.0136
750.5457	-0.0132
750.7218	0.0213
750.898	-0.0044
751.0741	0.0081
751.2502	-0.0031
751.4263	-0.0083
751.6024	0.0126
751.7784	-0.0398
751.9545	-0.0146
752.1305	-0.0099
752.3065	0.0204
752.4825	-0.0413
752.6584	-0.0124
752.8344	0.0085
753.0103	-0.0072
753.1862	0.0187
753.3621	-0.0093
753.5379	-0.0345
753.7138	-0.0327
753.8896	0.0228
754.0654	-0.0155
754.2412	0.0215
754.417	-0.0182
754.5927	0.0083
754.7685	-0.0279
754.9442	-0.0003
755.1199	-0.0027
755.2956	0.026
755.4712	0.0145
755.6469	-0.0291
755.8225	-0.003
755.9981	-0.005
756.1736	0.0352
756.3492	-0.0169
756.5248	-0.0184
756.7003	-0.0046
756.8758	0.0056
757.0513	-0.0053
757.2267	-0.0018
757.4022	-0.0077
757.5776	-0.0143
757.753	0.0077
757.9284	-0.0009
758.1038	-0.0115
758.2791	-0.0042
758.4545	-0.0138
758.6298	-0.0013
758.8051	0.0125
758.9803	-0.0108
759.1556	-0.0124
759.3308	0.0058
759.506	0.0102
759.6812	-0.0305
759.8564	-0.0106
760.0316	-0.0065
760.2067	-0.0266
760.3819	0.0096
760.557	-0.0017
760.732	-0.0011
760.9071	-0.0007
761.0821	0.0068
761.2572	0.0029
761.4322	-0.0158
761.6072	-0.0159
761.7821	0.0183
761.9571	-0.0007
762.132	-0.0178
762.3069	-0.0067
762.4818	0.0251
762.6567	0.0089
762.8316	0.0096
763.0064	-0.0262
763.1812	-0.0233
763.356	0.0198
763.5308	-0.022
763.7055	0.0133
763.8803	0.0071
764.055	-0.0175
764.2297	-0.0055
764.4044	0.0014
764.579	-0.0032
764.7537	-0.0079
764.9283	-0.0221
765.1029	-0.0023
765.2775	-0.0067
765.4521	0.0157
765.6266	-0.0164
765.8011	-0.0229
765.9756	0.0052
766.1501	0.0179
766.3246	-0.0028
766.4991	0.0127
766.6735	-0.0263
766.8479	0.0122
767.0223	0.0238
767.1967	0.0225
767.371	-0.0069
767.5454	-0.0057
767.7197	0.0045
767.894	-0.0058
768.0683	-0.0019
768.2425	0.0044
768.4168	0.0336
768.591	0.0241
768.7652	-0.009
768.9394	0.0076
769.1135	0.0014
769.2877	-0.015
769.4618	-0.0008
769.6359	-0.0071
769.81	-0.0025
769.984	-0.0067
770.1581	0.0027
770.3321	-0.0237
770.5061	-0.0059
770.6801	0.0185
770.8541	-0.0413
771.028	-0.0265
771.202	-0.055
771.3759	0.0147
771.5498	0.0018
771.7236	0.0245
771.8975	-0.0166
772.0713	0.0039
772.2451	-0.0102
772.4189	-0.0054
772.5927	-0.0129
772.7665	0.032
772.9402	0.0115
773.1139	-0.0077
773.2876	0.0256
773.4613	0.0525
773.635	0.0259
773.8086	0.0039
773.9822	-0.0173
774.1558	-0.0174
774.3294	-0.0051
774.503	0.0265
774.6765	-0.004
774.8501	0.0282
775.0236	0.0234
775.1971	0.0211
775.3705	-0.0172
775.544	-0.0121
775.7174	-0.0453
775.8908	0.0396
776.0642	0.0052
776.2376	-0.0549
776.4109	0.0267
776.5843	-0.0183
776.7576	-0.0033
776.9309	0.062
777.1041	-0.0433
777.2774	0.0287
777.4506	0.0037
777.6238	0.022
777.797	0.0108
777.9702	-0.0162
778.1434	-0.0118
778.3165	0.0106
778.4896	-0.0023
778.6627	0.0414
778.8358	0.0037
779.0089	0.006
779.1819	-0.0107
779.3549	0.0192
779.5279	-0.012
779.7009	0.0074
779.8739	-0.0492
780.0468	-0.0047
780.2197	-0.0028
780.3926	-0.0006
780.5655	0.0038
780.7384	0.0063
780.9112	0.013
781.0841	-0.0034
781.2569	0.002
781.4297	0.0403
781.6024	-0.011
781.7752	-0.0188
781.9479	-0.0311
782.1206	0.018
782.2933	0.0095
782.466	0.01
782.6386	-0.0182
782.8113	0.0198
782.9839	0.034
783.1565	0.0019
783.329	0.003
783.5016	-0.0239
783.6741	-0.02
783.8466	-0.0641
784.0191	-0.0439
784.1916	0.0233
784.3641	-0.024
784.5365	0.0386
784.7089	0.0207
784.8813	0.0661
785.0537	-0.0268
785.2261	-0.0195
785.3984	-0.0172
785.5707	0.0152
785.743	-0.0378
785.9153	0.0184
786.0876	-0.0467
786.2598	0.0156
786.432	0.0079
786.6042	-0.0039
786.7764	0.0194
786.9486	0.0696
787.1207	0.002
787.2928	-0.0048
787.4649	0.0197
787.637	0.0439
787.8091	0.0071
787.9811	0.0301
788.1532	-0.0212
788.3252	-0.051
788.4972	-0.0104
788.6691	0.039
788.8411	0.026
789.013	-0.0058
789.1849	0.0051
789.3568	0.008
789.5287	-0.0087
789.7005	0.0137
789.8723	-0.0317
790.0442	-0.0661
790.2159	0.0426
790.3877	0.0211
790.5595	0.0947
790.7312	-0.0245
790.9029	-0.0148
791.0746	0.0305
791.2463	-0.0085
791.4179	-0.0554
791.5896	-0.0246
791.7612	0.0025
791.9328	-0.0049
792.1044	-0.0203
792.2759	0.0069
792.4474	-0.0724
792.619	0.0304
792.7905	0.0554
792.9619	0.0174
793.1334	-0.0477
793.3048	-0.0068
793.4762	-0.0782
793.6476	0.0078
793.819	-0.0089
793.9904	0.0192
794.1617	0.0038
794.333	-0.0122
794.5043	0.0283
794.6756	0.0402
794.8469	-0.0251
795.0181	-0.0168
795.1893	-0.0429
795.3605	0.0078
795.5317	0.0094
795.7029	0.0407
795.874	-0.0129
796.0452	-0.0276
796.2163	-0.0033
796.3873	0.1051
796.5584	0.0283
796.7294	-0.1068
796.9005	-0.04
797.0715	0.04
797.2425	-0.0374
797.4134	0.0356
797.5844	0.1055
797.7553	-0.0503
797.9262	0.0394
798.0971	0.009
798.2679	-0.03
798.4388	-0.1247
798.6096	0.0231
798.7804	0.0434
798.9512	0.0481
799.122	0.0094
799.2927	-0.0334
799.4635	0.0798
799.6342	0.0317
799.8049	0.0265
799.9755	0.0571
800.1462	0.0016
800.3168	0.0017
800.4874	-0.0361
800.658	0.0206
800.8286	-0.0279
800.9991	0.1064
801.1696	-0.0398
801.3402	-0.0426
801.5106	-0.1038
801.6811	-0.0105
801.8516	0.0338
802.022	-0.0177
802.1924	-0.0795
802.3628	-0.0846
802.5332	-0.098
802.7035	-0.0056
802.8739	0.0287
803.0442	0.0894
803.2145	0.0567
803.3847	0.0243
803.555	0.04
803.7252	0.0242
803.8954	-0.0056
804.0656	-0.0246
804.2358	0.0247
804.4059	0.0447
804.5761	0.0894
804.7462	-0.0269
804.9163	-0.0277
805.0864	-0.0343
805.2564	0.0926
805.4264	-0.0406
805.5965	0.1247
805.7665	0.0334
805.9364	0.0306
806.1064	-0.0377
806.2763	0.0354
806.4462	0.0181
806.6161	0.0108
806.786	0.0167
806.9559	0.0233
807.1257	-0.0425
807.2955	0.0375
807.4653	-0.0222
807.6351	0.013
807.8048	0.0205
807.9746	-0.0161
808.1443	0.0605
808.314	0.0506
808.4837	0.0273
808.6533	-0.0296
808.8229	-0.0839
808.9926	0.0546
809.1622	-0.0183
809.3317	0.0365
809.5013	0.0718
809.6708	0.0465
809.8403	0.0437
810.0098	0.1016
810.1793	0.0461
810.3488	0.0493
810.5182	-0.0302
810.6876	-0.0579
810.857	-0.0948
811.0264	-0.0099
811.1958	-0.0123
811.3651	-0.086
811.5344	0.045
811.7037	-0.0782
811.873	-0.0592
812.0422	0.1002
812.2115	-0.0111
812.3807	0.0645
812.5499	0.0661
812.7191	-0.0637
812.8882	-0.0176
813.0574	-0.1223
813.2265	0.034
813.3956	0.005
813.5646	-0.0461
813.7337	-0.1107
813.9027	-0.0074
814.0718	-0.0637
814.2407	-0.0807
814.4097	-0.0108
814.5787	0.0898
814.7476	0.053
814.9165	0.0083
815.0854	-0.0169
815.2543	-0.048
815.4232	-0.1218
815.592	0.1143
815.7608	0.0757
815.9296	-0.0209
816.0984	-0.0068
816.2671	0.0294
816.4359	0.179
816.6046	0.0564
816.7733	-0.0168
816.942	0.024
817.1106	-0.1345
817.2793	-0.0193
817.4479	-0.0697
817.6165	0.009
817.785	0.1074
817.9536	0.0315
818.1221	0.0142
818.2906	0.0883
818.4591	-0.0569
818.6276	-0.0045
818.7961	0.1067
818.9645	-0.025
819.1329	0.395
819.3013	0.0311
819.4697	0.2443
819.638	0.0417
819.8064	-0.1345
819.9747	-0.0115
820.143	0.2177
820.3113	0.1447
820.4795	0.1167
820.6477	-0.0474
820.816	-0.0365
820.9842	0.0264
821.1523	0.0635
821.3205	0.0094
821.4886	-0.0564
821.6567	-0.0566
821.8248	-0.0229
821.9929	-0.0329
822.1609	-0.0886
822.329	0.0456
822.497	-0.1112
822.665	-0.0024
822.833	-0.0693
823.0009	-0.1148
823.1688	-0.1028
823.3367	-0.2097
823.5046	0.1643
823.6725	0.0953
823.8404	-0.0208
824.0082	0.1286
824.176	0.0513
824.3438	0.0689
824.5116	0.1398
824.6793	0.0339
824.847	0.3015
825.0147	0.0905
825.1824	-0.0396
825.3501	0.0781
825.5177	0.0033
825.6854	0.1138
825.853	-0.0135
826.0206	-0.0774
826.1881	0.0945
826.3557	0.0354
826.5232	0.0248
826.6907	0.0355
826.8582	-0.0473
827.0257	0.0472
827.1931	0.0841
827.3605	-0.1483
827.528	-0.0544
827.6953	0.1158
827.8627	0.1073
828.03	-0.0575
828.1974	-0.0784
828.3647	0.032
828.532	0.0878
828.6992	0.3382
828.8665	0.1542
829.0337	-0.0374
829.2009	0.1903
829.3681	-0.0143
829.5352	-0.0239
829.7024	0.0166
829.8695	0.0235
830.0366	0.0703
830.2037	0.2691
830.3707	0.0006
830.5378	0.2133
830.7048	0.0978
830.8718	0.001
831.0388	0.1705
831.2057	-0.1871
831.3727	0.2328
831.5396	-0.0925
831.7065	0.6263
831.8734	-0.4721
832.0402	0.2783
832.2071	0.6844
832.3739	0.3015
832.5407	-0
832.7075	0.0573
832.8742	-0.154
833.041	0.0085
833.2077	-0.1511
833.3744	0.072
833.541	-0.0337
833.7077	0.0501
833.8743	0.0242
834.0409	-0.107
834.2075	0.038
834.3741	0.0433
834.5407	-0.3687
834.7072	0.1706
834.8737	0.1216
835.0402	-0.3696
835.2067	0.143
835.3731	0.0358
835.5395	0.0006
835.706	-0.0918
835.8723	0.0438
836.0387	-0.1352
836.2051	0.2064
836.3714	-0.3336
836.5377	0.302
836.704	-0.1481
836.8703	-0.1496
837.0365	0.0368
837.2027	-0.2838
837.3689	-0.1889
837.5351	0.0302
837.7013	0.0835
837.8674	0.1394
838.0335	-0.0232
838.1997	1.4539
838.3657	-0
838.5318	-0.5761
838.6978	0.5783
838.8639	0.1284
839.0299	0.3641
839.1958	-0.0198
839.3618	0.7342
839.5277	-0.2484
839.6937	-0.3177
839.8596	0.0758
840.0254	-0.0414
840.1913	0.3726
840.3571	-0.4961
840.523	-0.0602
840.6888	-0.1858
840.8545	0.0386
841.0203	-0.094
841.186	0.0011
841.3517	0.4954
841.5174	0.3682
841.6831	0.2178
841.8488	0.1769
842.0144	0.2401
842.18	0.2561
842.3456	-0.129
842.5112	-0.1714
842.6767	-0.1984
842.8422	0.216
843.0077	0.0626
843.1732	-0.0924
843.3387	-0.2183
843.5042	-0.0573
843.6696	-0.1073
843.835	-0
844.0004	-0.0479
844.1657	-0.0238
844.3311	-0
844.4964	1.1048
844.6617	-0
844.827	-0
844.9923	-0.1745
845.1575	-0
845.3227	0.4451
845.4879	0.2923
845.6531	-0.1219
845.8183	-0
845.9834	-0.4075
846.1485	-0.2186
846.3136	0.1675
846.4787	-0
846.6438	0.3226
846.8088	-0
846.9738	-0
847.1388	0.0553
847.3038	-0.1096
847.4687	-1.1618
847.6337	0.4873
847.7986	0.0466
847.9635	0.2271
848.1284	-0.0872
848.2932	0.0994
848.458	0.7069
848.6228	0.2376
848.7876	0.6446
848.9524	0.0025
849.1172	-0.1974
849.2819	-0.2003
849.4466	0.6603
849.6113	-0.0812
849.7759	0.364
849.9406	0.0421
850.1052	-0
850.2698	-0
850.4344	0.7078
850.599	0.3501
850.7635	0.9716
850.928	0.4054
851.0925	0.3808
851.257	-0
851.4215	-0
851.5859	0.3683
851.7503	-0
851.9147	-0
852.0791	-0.4861
852.2434	-0.0807
852.4078	-0
852.5721	2.6503
852.7364	0.059
852.9007	-0.053
853.0649	0.4771
853.2291	0.2052
853.3934	0.0886
853.5575	-0.525
853.7217	-0.1714
853.8859	-0
854.05	-0.8935
854.2141	-0
854.3782	0.9516
854.5423	-0.953
854.7063	-0.0332
854.8703	0.5298
855.0343	0.2955
855.1983	0.0852
855.3623	0.318
855.5262	-0.362
855.6901	0.9643
855.854	0.0985
856.0179	-0
856.1818	-0
856.3456	0.5734
856.5094	-0
856.6732	-0
856.837	0.29
857.0008	-0
857.1645	-0
857.3282	0.0668
857.4919	0.2034
857.6556	0.0924
857.8192	0.0721
857.9828	0.0234
858.1465	0.4632
858.31	-1.4242
858.4736	-0.2051
858.6372	-0.3976
858.8007	-0
858.9642	0.4905
859.1277	0.2964
859.2911	1.1313
859.4546	-0.155
859.618	0.4928
859.7814	-0
859.9448	-0.3352
860.1081	-0
860.2715	0.0929
860.4348	0.0688
860.5981	-0
860.7614	0.2009
860.9246	-0.3489
861.0879	0.1502
861.2511	1.0035
861.4143	-0
861.5774	0.3891
861.7406	-0.2061
861.9037	-0
862.0668	-0.6643
862.2299	-0
862.393	-0
862.556	-0
862.7191	0.3107
862.8821	-0.2927
863.0451	0.9736
863.208	0.1956
863.371	0.3903
863.5339	-0.2802
863.6968	1.0534
863.8597	-0
864.0225	0.0737
864.1854	0.0236
864.3482	0.039
864.511	0.5635
864.6737	-0
864.8365	0.7699
864.9992	0.0812
865.1619	-0
865.3246	0.3454
865.4873	-0
865.65	0.4771
865.8126	0.6961
865.9752	0.3987
866.1378	-0.7088
866.3004	0.309
866.4629	0.0284
866.6254	0.2808
866.7879	0.5492
866.9504	-0.7533
867.1129	-0
867.2753	-0.2608
867.4377	0.1483
867.6001	1.1125
867.7625	-0.0616
867.9249	-0
868.0872	0.0621
868.2495	0.1791
868.4118	-0
868.5741	-0
868.7363	0.8097
868.8986	-0
869.0608	0.3763
869.223	2.8293
869.3851	-0
869.5473	-0.9718
869.7094	0.8921
869.8715	0.2704
870.0336	0.1168
870.1957	-0
870.3577	-0
870.5197	-0.1115
870.6817	-0
870.8437	0.4065
871.0057	-0
871.1676	0.1202
871.3295	-0
871.4914	0.1059
871.6533	0.1228
871.8151	-0.706
871.977	0.6905
872.1388	-0.8121
872.3006	-0.1434
872.4623	-0.7159
872.6241	-0
872.7858	0.1091
872.9475	-0.4538
873.1092	-0
873.2709	0.1204
873.4325	-0
873.5941	-0.4464
873.7557	-0.8327
873.9173	-1.0352
874.0789	0.2841
874.2404	-0.2612
874.4019	0.4771
874.5634	-0.1113
874.7249	-0
874.8863	-0.6699
875.0478	-0
875.2092	-0.079
875.3706	-0.118
875.5319	-0
875.6933	-0.104
875.8546	0.0475
876.0159	0.6517
876.1772	-0.5988
876.3385	-0
876.4997	-0.0842
876.6609	-0.2218
876.8221	0.5663
876.9833	0.5449
877.1445	0.2401
877.3056	-0
877.4667	-0
877.6278	-0
877.7889	0.0143
877.9499	0.272
878.111	0.2474
878.272	-0.8071
878.433	-0.1902
878.5939	2.5877
878.7549	-0.4614
878.9158	-0.4475
879.0767	-0
879.2376	-1.0973
879.3984	-0.1449
879.5593	-0.3279
879.7201	-0
879.8809	-0.0205
880.0417	0.1416
880.2024	0.2543
880.3632	0.0994
880.5239	-0.0317
880.6846	-0.7904
880.8452	0.0502
881.0059	-0.0074
881.1665	-0
881.3271	0.7962
881.4877	0.1499
881.6483	-1.5385
881.8088	-0.2218
881.9693	0.6096
882.1298	0.6096
882.2903	0.6096
