Data from D4ACN5uM480nmA_Absorbance_12-08-00-220.txt Node
Date: Fri Feb 21 12:08:00 GMT 2025
User: LASERRRRR
Spectrometer: FLMT03099
Trigger mode: 0
Integration Time (sec): 1.500000E-2
Scans to average: 1
Electric dark correction enabled: true
Nonlinearity correction enabled: false
Boxcar width: 0
XAxis mode: Wavelengths
Number of Pixels in Spectrum: 3648
>>>>>Begin Spectral Data<<<<<
179.3399	-0.028
179.5586	-0.028
179.7771	-0.028
179.9957	-0.1791
180.2143	0.1383
180.4329	-0
180.6514	-0
180.8699	-0.4582
181.0885	0.4698
181.307	0.2987
181.5255	0.0607
181.744	-0.0185
181.9625	-0.3943
182.181	0.6498
182.3994	-0
182.6179	0.2109
182.8363	-0
183.0547	-0
183.2732	0.1019
183.4916	0.407
183.71	0.1053
183.9284	0.1916
184.1467	0.3106
184.3651	0.3481
184.5835	0.0173
184.8018	0.2831
185.0201	0.2635
185.2385	0.2339
185.4568	0.2478
185.6751	0.2448
185.8934	0.1591
186.1117	0.2467
186.3299	0.3208
186.5482	0.0547
186.7664	0.1783
186.9847	0.3045
187.2029	0.1354
187.4211	0.1935
187.6393	0.1583
187.8575	-0.0228
188.0757	1.3847
188.2939	0.1548
188.512	0.2275
188.7302	0.1246
188.9483	-0.0036
189.1665	0.3879
189.3846	0.1055
189.6027	0.088
189.8208	0.3074
190.0389	0.195
190.257	0.3443
190.475	0.6834
190.6931	0.2987
190.9111	0.4344
191.1292	0.2972
191.3472	0.3364
191.5652	0.5309
191.7832	0.3152
192.0012	0.2697
192.2192	0.3973
192.4371	0.3496
192.6551	0.3481
192.873	0.4431
193.091	0.3522
193.3089	0.2255
193.5268	0.522
193.7447	0.277
193.9626	0.5355
194.1805	0.3047
194.3984	0.5538
194.6162	0.4676
194.8341	0.5454
195.0519	0.7667
195.2697	0.5089
195.4875	0.6916
195.7054	0.4367
195.9231	0.4522
196.1409	0.5082
196.3587	0.4525
196.5765	0.5308
196.7942	0.6194
197.012	0.6573
197.2297	0.4934
197.4474	0.6753
197.6651	0.5456
197.8828	0.6621
198.1005	0.6429
198.3182	0.5753
198.5358	0.5739
198.7535	0.584
198.9711	0.6773
199.1888	0.5202
199.4064	0.62
199.624	0.6027
199.8416	0.5555
200.0592	0.6512
200.2767	0.5465
200.4943	0.6064
200.7119	0.5678
200.9294	0.5615
201.1469	0.6484
201.3645	0.6319
201.582	0.5383
201.7995	0.6679
202.017	0.5202
202.2344	0.5991
202.4519	0.5422
202.6694	0.5747
202.8868	0.5918
203.1042	0.5907
203.3217	0.5608
203.5391	0.529
203.7565	0.4939
203.9739	0.5196
204.1913	0.5462
204.4086	0.4972
204.626	0.5349
204.8433	0.5093
205.0607	0.5236
205.278	0.5437
205.4953	0.4758
205.7126	0.5079
205.9299	0.4673
206.1472	0.5092
206.3644	0.5228
206.5817	0.4631
206.7989	0.4684
207.0162	0.4043
207.2334	0.4538
207.4506	0.461
207.6678	0.4634
207.885	0.4312
208.1022	0.4514
208.3194	0.4371
208.5365	0.4538
208.7537	0.4571
208.9708	0.4276
209.1879	0.4102
209.405	0.3982
209.6222	0.4365
209.8392	0.4081
210.0563	0.4055
210.2734	0.4306
210.4905	0.4162
210.7075	0.4365
210.9245	0.4036
211.1416	0.4201
211.3586	0.4121
211.5756	0.4069
211.7926	0.4403
212.0096	0.429
212.2265	0.4369
212.4435	0.4271
212.6604	0.4321
212.8774	0.4197
213.0943	0.4104
213.3112	0.4124
213.5281	0.4385
213.745	0.3994
213.9619	0.3915
214.1788	0.4206
214.3956	0.4289
214.6125	0.398
214.8293	0.4088
215.0461	0.4076
215.2629	0.4073
215.4798	0.3961
215.6965	0.3995
215.9133	0.4279
216.1301	0.4008
216.3469	0.4104
216.5636	0.4126
216.7803	0.4008
216.9971	0.4069
217.2138	0.4344
217.4305	0.4292
217.6472	0.4099
217.8639	0.4215
218.0805	0.4264
218.2972	0.3997
218.5138	0.4126
218.7305	0.4169
218.9471	0.4302
219.1637	0.4265
219.3803	0.4197
219.5969	0.4206
219.8135	0.4224
220.0301	0.4285
220.2466	0.4275
220.4632	0.409
220.6797	0.4165
220.8962	0.4252
221.1127	0.4372
221.3292	0.4265
221.5457	0.4457
221.7622	0.4294
221.9787	0.4385
222.1951	0.4521
222.4116	0.4486
222.628	0.4539
222.8444	0.4547
223.0608	0.4306
223.2772	0.4524
223.4936	0.4421
223.71	0.443
223.9264	0.4533
224.1427	0.4573
224.3591	0.4591
224.5754	0.4727
224.7917	0.4529
225.008	0.4585
225.2243	0.4548
225.4406	0.4728
225.6569	0.4701
225.8732	0.4679
226.0894	0.4621
226.3057	0.4709
226.5219	0.4678
226.7381	0.4699
226.9543	0.4664
227.1705	0.4882
227.3867	0.4737
227.6029	0.4774
227.8191	0.4914
228.0352	0.4916
228.2513	0.4819
228.4675	0.4911
228.6836	0.4887
228.8997	0.5013
229.1158	0.4858
229.3319	0.499
229.548	0.4971
229.764	0.5024
229.9801	0.5177
230.1961	0.5172
230.4121	0.5087
230.6282	0.5148
230.8442	0.5029
231.0602	0.5165
231.2761	0.5168
231.4921	0.5119
231.7081	0.5193
231.924	0.5233
232.14	0.5206
232.3559	0.5324
232.5718	0.5135
232.7877	0.5233
233.0036	0.5278
233.2195	0.5224
233.4353	0.524
233.6512	0.5433
233.867	0.551
234.0829	0.5327
234.2987	0.5291
234.5145	0.5289
234.7303	0.5298
234.9461	0.531
235.1619	0.5131
235.3776	0.5373
235.5934	0.5213
235.8091	0.5209
236.0249	0.533
236.2406	0.5403
236.4563	0.5454
236.672	0.5441
236.8877	0.5468
237.1034	0.5336
237.319	0.5257
237.5347	0.5146
237.7503	0.5327
237.966	0.5435
238.1816	0.5398
238.3972	0.5343
238.6128	0.5412
238.8284	0.5327
239.0439	0.5406
239.2595	0.5241
239.475	0.5306
239.6906	0.5315
239.9061	0.5195
240.1216	0.5269
240.3371	0.5179
240.5526	0.5221
240.7681	0.5131
240.9836	0.5237
241.199	0.5145
241.4145	0.4979
241.6299	0.4945
241.8453	0.4879
242.0607	0.4834
242.2761	0.4818
242.4915	0.4707
242.7069	0.4677
242.9223	0.4579
243.1376	0.4565
243.353	0.4421
243.5683	0.4387
243.7836	0.4278
243.9989	0.4197
244.2142	0.4112
244.4295	0.4024
244.6448	0.3863
244.86	0.391
245.0753	0.3835
245.2905	0.3795
245.5057	0.3676
245.721	0.3546
245.9362	0.3608
246.1514	0.3389
246.3665	0.3416
246.5817	0.3315
246.7969	0.3271
247.012	0.3262
247.2271	0.3076
247.4423	0.3043
247.6574	0.3104
247.8725	0.3017
248.0876	0.2924
248.3026	0.2919
248.5177	0.2776
248.7328	0.2788
248.9478	0.2737
249.1628	0.2695
249.3779	0.2674
249.5929	0.2561
249.8079	0.2526
250.0228	0.2514
250.2378	0.2547
250.4528	0.2493
250.6677	0.2403
250.8827	0.2441
251.0976	0.2442
251.3125	0.2382
251.5274	0.2256
251.7423	0.2338
251.9572	0.2244
252.172	0.2183
252.3869	0.2206
252.6017	0.2187
252.8166	0.2222
253.0314	0.2188
253.2462	0.2143
253.461	0.2122
253.6758	0.2073
253.8906	0.2025
254.1053	0.1993
254.3201	0.2064
254.5348	0.204
254.7496	0.1979
254.9643	0.2012
255.179	0.1991
255.3937	0.203
255.6083	0.1994
255.823	0.1991
256.0377	0.1998
256.2523	0.1943
256.467	0.1981
256.6816	0.2038
256.8962	0.197
257.1108	0.1916
257.3254	0.1867
257.54	0.1886
257.7545	0.1926
257.9691	0.1897
258.1836	0.191
258.3981	0.1851
258.6127	0.1803
258.8272	0.1861
259.0417	0.1847
259.2561	0.1868
259.4706	0.1905
259.6851	0.1868
259.8995	0.1805
260.114	0.1816
260.3284	0.1866
260.5428	0.187
260.7572	0.1924
260.9716	0.1853
261.186	0.1775
261.4003	0.1882
261.6147	0.1819
261.829	0.1836
262.0433	0.1831
262.2577	0.1877
262.472	0.1855
262.6863	0.1868
262.9005	0.1886
263.1148	0.1827
263.3291	0.1879
263.5433	0.1834
263.7576	0.1833
263.9718	0.1831
264.186	0.1831
264.4002	0.1839
264.6144	0.1897
264.8286	0.19
265.0427	0.1901
265.2569	0.1906
265.471	0.1817
265.6851	0.1837
265.8993	0.1857
266.1134	0.1894
266.3275	0.1855
266.5415	0.1808
266.7556	0.1765
266.9697	0.181
267.1837	0.1823
267.3978	0.1944
267.6118	0.1859
267.8258	0.1885
268.0398	0.1888
268.2538	0.1823
268.4677	0.1822
268.6817	0.1759
268.8957	0.178
269.1096	0.1756
269.3235	0.1879
269.5374	0.1802
269.7514	0.1805
269.9652	0.182
270.1791	0.178
270.393	0.1807
270.6068	0.1749
270.8207	0.1732
271.0345	0.1771
271.2483	0.18
271.4622	0.1782
271.676	0.1735
271.8897	0.1721
272.1035	0.1691
272.3173	0.1737
272.531	0.1735
272.7448	0.1721
272.9585	0.176
273.1722	0.1741
273.3859	0.169
273.5996	0.1674
273.8133	0.1702
274.0269	0.1735
274.2406	0.1705
274.4542	0.1696
274.6679	0.1713
274.8815	0.1757
275.0951	0.176
275.3087	0.175
275.5223	0.175
275.7358	0.1816
275.9494	0.1712
276.1629	0.1784
276.3765	0.1721
276.59	0.1799
276.8035	0.1771
277.017	0.1777
277.2305	0.1776
277.444	0.1782
277.6574	0.1792
277.8709	0.1753
278.0843	0.1814
278.2978	0.1791
278.5112	0.1819
278.7246	0.1783
278.938	0.184
279.1513	0.1839
279.3647	0.1837
279.5781	0.1787
279.7914	0.1865
280.0047	0.1752
280.2181	0.1815
280.4314	0.1865
280.6447	0.1828
280.8579	0.1777
281.0712	0.1866
281.2845	0.1821
281.4977	0.1893
281.711	0.1834
281.9242	0.1884
282.1374	0.1843
282.3506	0.1887
282.5638	0.1843
282.7769	0.1835
282.9901	0.1826
283.2033	0.1893
283.4164	0.1844
283.6295	0.1857
283.8426	0.1866
284.0557	0.1833
284.2688	0.1956
284.4819	0.1872
284.695	0.1916
284.908	0.1942
285.1211	0.1938
285.3341	0.1928
285.5471	0.1933
285.7601	0.1911
285.9731	0.1909
286.1861	0.1954
286.3991	0.1944
286.612	0.1934
286.825	0.1934
287.0379	0.1943
287.2508	0.1919
287.4637	0.2004
287.6766	0.1981
287.8895	0.195
288.1024	0.1967
288.3152	0.1934
288.5281	0.1963
288.7409	0.1975
288.9538	0.1977
289.1666	0.1995
289.3794	0.1954
289.5922	0.2025
289.8049	0.2036
290.0177	0.196
290.2304	0.2043
290.4432	0.2042
290.6559	0.1911
290.8686	0.2001
291.0813	0.201
291.294	0.2117
291.5067	0.2017
291.7194	0.1942
291.932	0.2041
292.1447	0.1982
292.3573	0.2003
292.5699	0.2005
292.7825	0.1992
292.9951	0.2033
293.2077	0.2039
293.4203	0.2042
293.6328	0.1987
293.8454	0.2029
294.0579	0.2019
294.2704	0.2106
294.4829	0.1985
294.6954	0.1979
294.9079	0.2008
295.1204	0.1984
295.3328	0.1978
295.5453	0.1974
295.7577	0.201
295.9701	0.203
296.1825	0.1984
296.3949	0.2021
296.6073	0.2035
296.8197	0.2007
297.0321	0.2018
297.2444	0.199
297.4567	0.1947
297.6691	0.2022
297.8814	0.1982
298.0937	0.2013
298.306	0.1983
298.5182	0.1991
298.7305	0.2031
298.9428	0.1996
299.155	0.197
299.3672	0.2016
299.5794	0.1918
299.7916	0.2008
300.0038	0.196
300.216	0.1997
300.4282	0.19
300.6403	0.1973
300.8525	0.198
301.0646	0.1967
301.2767	0.1994
301.4888	0.1924
301.7009	0.1973
301.913	0.2033
302.125	0.1987
302.3371	0.1953
302.5491	0.1954
302.7612	0.1945
302.9732	0.1954
303.1852	0.197
303.3972	0.191
303.6092	0.2002
303.8211	0.1877
304.0331	0.1894
304.245	0.192
304.457	0.1998
304.6689	0.1944
304.8808	0.1947
305.0927	0.1906
305.3046	0.1896
305.5164	0.187
305.7283	0.1856
305.9401	0.1844
306.152	0.1772
306.3638	0.178
306.5756	0.1918
306.7874	0.1826
306.9992	0.1794
307.2109	0.1671
307.4227	0.1723
307.6344	0.1759
307.8462	0.1737
308.0579	0.1695
308.2696	0.1657
308.4813	0.1627
308.693	0.1619
308.9046	0.1652
309.1163	0.162
309.328	0.1508
309.5396	0.1563
309.7512	0.1573
309.9628	0.1519
310.1744	0.155
310.386	0.1505
310.5976	0.1498
310.8091	0.1469
311.0207	0.149
311.2322	0.1477
311.4437	0.146
311.6552	0.1464
311.8667	0.1333
312.0782	0.142
312.2897	0.1403
312.5012	0.1471
312.7126	0.1312
312.924	0.1365
313.1355	0.1327
313.3469	0.1328
313.5583	0.1272
313.7696	0.1294
313.981	0.126
314.1924	0.1292
314.4037	0.1222
314.6151	0.1258
314.8264	0.1254
315.0377	0.128
315.249	0.1243
315.4603	0.1179
315.6716	0.1268
315.8828	0.1251
316.0941	0.1229
316.3053	0.1197
316.5165	0.1202
316.7277	0.125
316.9389	0.1254
317.1501	0.1183
317.3613	0.1205
317.5724	0.1187
317.7836	0.1223
317.9947	0.114
318.2058	0.1219
318.417	0.1199
318.6281	0.1191
318.8391	0.1194
319.0502	0.1174
319.2613	0.1157
319.4723	0.1154
319.6834	0.1224
319.8944	0.1227
320.1054	0.1195
320.3164	0.1205
320.5274	0.11
320.7383	0.1122
320.9493	0.1158
321.1602	0.1164
321.3712	0.1165
321.5821	0.1203
321.793	0.1114
322.0039	0.1215
322.2148	0.1158
322.4257	0.1251
322.6365	0.1158
322.8474	0.119
323.0582	0.1185
323.269	0.1087
323.4798	0.1191
323.6906	0.1137
323.9014	0.1155
324.1122	0.1137
324.3229	0.1212
324.5337	0.125
324.7444	0.1177
324.9551	0.1201
325.1658	0.1186
325.3765	0.1216
325.5872	0.1169
325.7979	0.1204
326.0085	0.1241
326.2192	0.1172
326.4298	0.1209
326.6404	0.1239
326.851	0.1177
327.0616	0.1215
327.2722	0.1257
327.4828	0.1205
327.6933	0.1222
327.9039	0.1211
328.1144	0.1185
328.3249	0.122
328.5354	0.1255
328.7459	0.1222
328.9564	0.1211
329.1669	0.119
329.3773	0.1187
329.5878	0.1255
329.7982	0.1246
330.0086	0.1266
330.219	0.126
330.4294	0.1264
330.6398	0.1251
330.8502	0.1251
331.0605	0.1269
331.2708	0.1241
331.4812	0.1235
331.6915	0.1258
331.9018	0.1259
332.1121	0.1245
332.3224	0.1315
332.5326	0.1309
332.7429	0.1189
332.9531	0.1232
333.1633	0.1231
333.3735	0.1206
333.5837	0.1313
333.7939	0.124
334.0041	0.1193
334.2143	0.1274
334.4244	0.1238
334.6346	0.1237
334.8447	0.124
335.0548	0.1232
335.2649	0.1275
335.475	0.1289
335.685	0.129
335.8951	0.1328
336.1051	0.128
336.3152	0.1283
336.5252	0.1302
336.7352	0.1221
336.9452	0.1359
337.1552	0.1279
337.3652	0.127
337.5751	0.127
337.7851	0.132
337.995	0.1362
338.2049	0.1335
338.4148	0.1241
338.6247	0.1275
338.8346	0.122
339.0445	0.1338
339.2543	0.14
339.4642	0.1355
339.674	0.1355
339.8838	0.1335
340.0936	0.1336
340.3034	0.1352
340.5132	0.1339
340.7229	0.139
340.9327	0.1327
341.1424	0.1406
341.3522	0.1346
341.5619	0.1322
341.7716	0.135
341.9813	0.1437
342.1909	0.1437
342.4006	0.1478
342.6102	0.1415
342.8199	0.1398
343.0295	0.1394
343.2391	0.1375
343.4487	0.1413
343.6583	0.1436
343.8679	0.1405
344.0774	0.1392
344.287	0.1385
344.4965	0.1521
344.706	0.1461
344.9155	0.1455
345.125	0.1461
345.3345	0.1403
345.544	0.1524
345.7534	0.1466
345.9629	0.1526
346.1723	0.1537
346.3817	0.1418
346.5911	0.154
346.8005	0.1537
347.0099	0.1604
347.2193	0.1515
347.4286	0.152
347.638	0.1494
347.8473	0.1536
348.0566	0.1535
348.2659	0.156
348.4752	0.161
348.6845	0.1683
348.8937	0.16
349.103	0.1555
349.3122	0.1612
349.5214	0.1526
349.7306	0.1594
349.9398	0.1612
350.149	0.1694
350.3582	0.162
350.5674	0.1675
350.7765	0.1679
350.9856	0.1674
351.1948	0.1653
351.4039	0.1641
351.613	0.1726
351.822	0.1717
352.0311	0.1643
352.2402	0.1668
352.4492	0.1692
352.6582	0.17
352.8672	0.1722
353.0762	0.1721
353.2852	0.1707
353.4942	0.172
353.7032	0.1702
353.9121	0.1758
354.1211	0.17
354.33	0.1779
354.5389	0.1819
354.7478	0.1775
354.9567	0.182
355.1655	0.1741
355.3744	0.1817
355.5833	0.186
355.7921	0.1825
356.0009	0.1806
356.2097	0.1915
356.4185	0.1928
356.6273	0.1863
356.8361	0.1945
357.0448	0.1911
357.2536	0.1888
357.4623	0.1811
357.671	0.1882
357.8797	0.1904
358.0884	0.1862
358.2971	0.1968
358.5057	0.192
358.7144	0.2011
358.923	0.1928
359.1316	0.195
359.3402	0.1993
359.5488	0.2006
359.7574	0.2006
359.966	0.2055
360.1746	0.201
360.3831	0.2019
360.5916	0.2078
360.8002	0.2134
361.0087	0.2119
361.2172	0.2099
361.4256	0.2002
361.6341	0.212
361.8426	0.2139
362.051	0.2088
362.2594	0.2093
362.4678	0.2109
362.6762	0.2175
362.8846	0.2233
363.093	0.2185
363.3014	0.2259
363.5097	0.2217
363.718	0.2285
363.9264	0.2208
364.1347	0.2248
364.343	0.2321
364.5513	0.2296
364.7595	0.2296
364.9678	0.2329
365.176	0.2338
365.3842	0.2291
365.5925	0.2268
365.8007	0.2314
366.0089	0.2432
366.217	0.2447
366.4252	0.2377
366.6333	0.2352
366.8415	0.2438
367.0496	0.2422
367.2577	0.2451
367.4658	0.2429
367.6739	0.2417
367.882	0.2428
368.09	0.248
368.2981	0.2384
368.5061	0.2484
368.7141	0.2483
368.9221	0.2439
369.1301	0.2565
369.3381	0.2574
369.5461	0.2605
369.754	0.2492
369.962	0.2511
370.1699	0.2628
370.3778	0.2556
370.5857	0.2625
370.7936	0.2609
371.0015	0.2625
371.2093	0.2596
371.4172	0.2646
371.625	0.2656
371.8328	0.2668
372.0406	0.2581
372.2484	0.2608
372.4562	0.2688
372.664	0.2747
372.8717	0.2674
373.0795	0.2694
373.2872	0.2707
373.4949	0.2868
373.7026	0.2777
373.9103	0.2716
374.118	0.2705
374.3256	0.2874
374.5333	0.2722
374.7409	0.2762
374.9485	0.2724
375.1561	0.2739
375.3637	0.2807
375.5713	0.2748
375.7789	0.277
375.9864	0.2806
376.194	0.2893
376.4015	0.2922
376.609	0.2871
376.8165	0.2858
377.024	0.2797
377.2315	0.2896
377.4389	0.283
377.6464	0.2889
377.8538	0.2928
378.0612	0.2856
378.2686	0.2964
378.476	0.2895
378.6834	0.2901
378.8908	0.289
379.0981	0.3
379.3055	0.3012
379.5128	0.2956
379.7201	0.3009
379.9274	0.2961
380.1347	0.3061
380.342	0.3109
380.5492	0.2964
380.7565	0.2984
380.9637	0.2981
381.1709	0.2996
381.3781	0.3068
381.5853	0.2985
381.7925	0.3075
381.9997	0.3001
382.2068	0.3037
382.4139	0.3031
382.6211	0.3202
382.8282	0.3037
383.0353	0.3091
383.2424	0.3163
383.4494	0.312
383.6565	0.3123
383.8635	0.3219
384.0706	0.3164
384.2776	0.3145
384.4846	0.3268
384.6916	0.3035
384.8986	0.3218
385.1055	0.3244
385.3125	0.3135
385.5194	0.3122
385.7263	0.3076
385.9333	0.3168
386.1402	0.3237
386.347	0.3179
386.5539	0.3221
386.7608	0.3236
386.9676	0.3128
387.1744	0.3074
387.3813	0.3176
387.5881	0.3179
387.7948	0.3166
388.0016	0.3191
388.2084	0.312
388.4151	0.3112
388.6219	0.3104
388.8286	0.3219
389.0353	0.3063
389.242	0.3121
389.4487	0.3054
389.6553	0.306
389.862	0.3073
390.0686	0.3259
390.2753	0.2951
390.4819	0.3153
390.6885	0.3031
390.8951	0.3172
391.1016	0.3062
391.3082	0.3063
391.5147	0.2954
391.7213	0.2955
391.9278	0.3015
392.1343	0.2979
392.3408	0.2948
392.5473	0.2908
392.7537	0.2886
392.9602	0.2792
393.1666	0.2922
393.373	0.2876
393.5794	0.2838
393.7858	0.2894
393.9922	0.2904
394.1986	0.2902
394.4049	0.2809
394.6113	0.2778
394.8176	0.2786
395.0239	0.2784
395.2302	0.2711
395.4365	0.2828
395.6428	0.2863
395.8491	0.2837
396.0553	0.2734
396.2615	0.2716
396.4678	0.2725
396.674	0.2733
396.8802	0.2755
397.0863	0.2796
397.2925	0.2745
397.4987	0.2778
397.7048	0.2736
397.9109	0.2852
398.117	0.2664
398.3231	0.2792
398.5292	0.2788
398.7353	0.2639
398.9413	0.2665
399.1474	0.2821
399.3534	0.2707
399.5594	0.2731
399.7654	0.2674
399.9714	0.269
400.1774	0.2642
400.3833	0.2722
400.5893	0.2681
400.7952	0.276
401.0011	0.2618
401.207	0.2703
401.4129	0.2652
401.6188	0.2599
401.8247	0.2688
402.0305	0.2584
402.2364	0.2678
402.4422	0.2745
402.648	0.265
402.8538	0.2765
403.0596	0.2578
403.2654	0.265
403.4711	0.27
403.6768	0.2695
403.8826	0.2688
404.0883	0.2587
404.294	0.2753
404.4997	0.2644
404.7054	0.2713
404.911	0.2635
405.1167	0.2748
405.3223	0.2779
405.5279	0.2681
405.7335	0.2678
405.9391	0.2754
406.1447	0.2692
406.3502	0.2653
406.5558	0.2727
406.7613	0.2578
406.9668	0.271
407.1724	0.2687
407.3778	0.2623
407.5833	0.2672
407.7888	0.2764
407.9942	0.2679
408.1997	0.268
408.4051	0.27
408.6105	0.2727
408.8159	0.2653
409.0213	0.2681
409.2267	0.269
409.432	0.2716
409.6374	0.2804
409.8427	0.2652
410.048	0.2615
410.2533	0.2628
410.4586	0.2668
410.6639	0.2644
410.8691	0.2831
411.0744	0.2668
411.2796	0.2812
411.4848	0.2536
411.69	0.265
411.8952	0.271
412.1004	0.2682
412.3056	0.2586
412.5107	0.2633
412.7158	0.2565
412.921	0.2688
413.1261	0.2757
413.3312	0.2566
413.5362	0.2559
413.7413	0.2786
413.9464	0.2635
414.1514	0.262
414.3564	0.2643
414.5614	0.2627
414.7664	0.2607
414.9714	0.2713
415.1764	0.2693
415.3813	0.2627
415.5863	0.2567
415.7912	0.2673
415.9961	0.2636
416.201	0.2604
416.4059	0.2515
416.6108	0.2563
416.8156	0.2525
417.0205	0.2521
417.2253	0.268
417.4301	0.272
417.6349	0.257
417.8397	0.2761
418.0445	0.2569
418.2492	0.2728
418.454	0.2554
418.6587	0.2654
418.8634	0.2648
419.0681	0.2537
419.2728	0.2452
419.4775	0.2517
419.6822	0.2504
419.8868	0.2582
420.0915	0.2573
420.2961	0.2492
420.5007	0.2471
420.7053	0.2601
420.9099	0.2389
421.1144	0.2522
421.319	0.2385
421.5235	0.2367
421.728	0.2475
421.9325	0.2559
422.137	0.2427
422.3415	0.237
422.546	0.241
422.7504	0.2451
422.9549	0.2374
423.1593	0.245
423.3637	0.2369
423.5681	0.2478
423.7725	0.2323
423.9769	0.2337
424.1812	0.2422
424.3856	0.2414
424.5899	0.236
424.7942	0.2318
424.9985	0.2385
425.2028	0.2382
425.4071	0.2233
425.6113	0.2205
425.8156	0.2226
426.0198	0.2323
426.224	0.2345
426.4282	0.2296
426.6324	0.2301
426.8366	0.2275
427.0407	0.2223
427.2449	0.2119
427.449	0.2142
427.6531	0.224
427.8572	0.2161
428.0613	0.2061
428.2654	0.2172
428.4694	0.2052
428.6735	0.204
428.8775	0.1985
429.0815	0.2101
429.2855	0.2031
429.4895	0.2009
429.6935	0.2018
429.8975	0.2
430.1014	0.2061
430.3053	0.184
430.5093	0.1969
430.7132	0.1924
430.9171	0.1879
431.1209	0.1862
431.3248	0.1956
431.5286	0.1775
431.7325	0.1878
431.9363	0.1887
432.1401	0.1763
432.3439	0.1856
432.5477	0.1941
432.7514	0.1756
432.9552	0.1752
433.1589	0.1733
433.3627	0.1743
433.5664	0.164
433.7701	0.161
433.9737	0.174
434.1774	0.1627
434.3811	0.1683
434.5847	0.1664
434.7883	0.1689
434.9919	0.1517
435.1955	0.1589
435.3991	0.1591
435.6027	0.154
435.8062	0.1564
436.0098	0.1529
436.2133	0.1544
436.4168	0.1399
436.6203	0.1468
436.8238	0.1425
437.0272	0.1548
437.2307	0.13
437.4341	0.1329
437.6375	0.132
437.841	0.1297
438.0443	0.1363
438.2477	0.128
438.4511	0.1408
438.6545	0.1319
438.8578	0.1233
439.0611	0.1277
439.2644	0.1259
439.4677	0.1152
439.671	0.1153
439.8743	0.115
440.0775	0.1102
440.2808	0.1175
440.484	0.1126
440.6872	0.1075
440.8904	0.1056
441.0936	0.1097
441.2967	0.0933
441.4999	0.1084
441.703	0.1004
441.9062	0.0996
442.1093	0.0948
442.3124	0.0971
442.5155	0.0918
442.7185	0.0826
442.9216	0.1063
443.1246	0.0935
443.3276	0.0836
443.5307	0.0827
443.7337	0.0827
443.9366	0.0833
444.1396	0.0801
444.3426	0.0903
444.5455	0.0799
444.7484	0.0796
444.9513	0.0767
445.1542	0.0805
445.3571	0.0699
445.56	0.0718
445.7628	0.0673
445.9657	0.0699
446.1685	0.0823
446.3713	0.0715
446.5741	0.0596
446.7769	0.0659
446.9797	0.0691
447.1824	0.0638
447.3852	0.0599
447.5879	0.0657
447.7906	0.0599
447.9933	0.0663
448.196	0.0513
448.3986	0.0562
448.6013	0.0553
448.8039	0.0559
449.0066	0.0577
449.2092	0.0456
449.4118	0.0507
449.6143	0.0531
449.8169	0.0515
450.0195	0.0484
450.222	0.0601
450.4245	0.0524
450.627	0.0508
450.8295	0.041
451.032	0.0453
451.2345	0.0458
451.4369	0.0437
451.6394	0.0467
451.8418	0.0427
452.0442	0.0323
452.2466	0.0417
452.449	0.0391
452.6513	0.0421
452.8537	0.0384
453.056	0.0412
453.2583	0.0425
453.4607	0.0298
453.663	0.0307
453.8652	0.0249
454.0675	0.0311
454.2697	0.0248
454.472	0.0263
454.6742	0.0266
454.8764	0.0296
455.0786	0.0386
455.2808	0.0361
455.4829	0.0239
455.6851	0.0172
455.8872	0.0261
456.0893	0.0306
456.2915	0.0182
456.4935	0.0268
456.6956	0.0204
456.8977	0.0186
457.0997	0.0208
457.3018	0.0187
457.5038	0.0162
457.7058	0.0214
457.9078	0.0292
458.1098	0.0191
458.3117	0.0276
458.5137	0.0343
458.7156	0.0304
458.9175	0.018
459.1194	0.0247
459.3213	0.0234
459.5232	0.0213
459.725	0.0159
459.9269	0.0187
460.1287	0.0098
460.3305	0.023
460.5323	0.0189
460.7341	0.008
460.9359	0.0198
461.1376	0.0212
461.3394	0.0105
461.5411	0.0175
461.7428	0.0114
461.9445	0.0188
462.1462	0.0108
462.3479	0.0194
462.5495	0.0142
462.7512	0.0145
462.9528	0.0145
463.1544	0.0047
463.356	0.0115
463.5576	0.0115
463.7592	0.0074
463.9607	0.0126
464.1623	0.0215
464.3638	0.0157
464.5653	0.0095
464.7668	0.0038
464.9683	0.016
465.1697	0.0087
465.3712	0.0096
465.5726	0.0123
465.7741	0.0125
465.9755	0.0111
466.1769	0.0148
466.3782	0.0141
466.5796	0.0169
466.7809	0.0158
466.9823	0.0098
467.1836	0.0101
467.3849	0.0054
467.5862	0.0093
467.7875	0.0139
467.9887	0.008
468.19	0.0101
468.3912	0.0074
468.5924	0.0157
468.7936	0.0005
468.9948	0.0159
469.196	0.0057
469.3972	0.0156
469.5983	0.0032
469.7994	-0.0035
470.0006	0.0115
470.2017	0.0125
470.4027	-0.0085
470.6038	0.0027
470.8049	0.0015
471.0059	0.0081
471.2069	0.0088
471.408	0.0029
471.6089	0.012
471.8099	0.0094
472.0109	0.002
472.2119	0.0203
472.4128	0.0081
472.6137	0.0103
472.8146	0.0071
473.0155	0.0057
473.2164	-0.0051
473.4173	0.0142
473.6181	0.0144
473.819	-0.0003
474.0198	0.0076
474.2206	0.0067
474.4214	0.0157
474.6222	0.0014
474.8229	0.0079
475.0237	0.0053
475.2244	0.0077
475.4251	-0.0028
475.6258	0.0042
475.8265	-0.0006
476.0272	0.0097
476.2278	0.0008
476.4285	0.0034
476.6291	0.0208
476.8297	0.0042
477.0303	0.0183
477.2309	-0.0026
477.4315	0.0104
477.632	0.0063
477.8326	-0.002
478.0331	0.0003
478.2336	0.0124
478.4341	-0.0069
478.6346	0.005
478.8351	0.0088
479.0355	0.0062
479.236	0.0106
479.4364	-0.0008
479.6368	0.0039
479.8372	0.0066
480.0376	0.0013
480.2379	-0.0036
480.4383	0.0007
480.6386	-0.0055
480.8389	0.0042
481.0392	0.0063
481.2395	0.0043
481.4398	0.0106
481.6401	0.0123
481.8403	-0.0028
482.0405	0.0042
482.2408	-0.0038
482.441	0.0029
482.6411	-0.0013
482.8413	-0.0054
483.0415	0.0104
483.2416	-0.0011
483.4417	0.0061
483.6419	0.0024
483.8419	-0.0012
484.042	0.0018
484.2421	-0.0016
484.4422	0.0012
484.6422	0.0033
484.8422	-0.0005
485.0422	0.0051
485.2422	0.0017
485.4422	-0.0043
485.6422	-0.0006
485.8421	-0.0039
486.042	0.0045
486.242	0.0011
486.4419	0.0027
486.6417	0.0016
486.8416	0.0024
487.0415	-0.0014
487.2413	0.0055
487.4411	0.0046
487.641	0.005
487.8408	0.0097
488.0405	0.0095
488.2403	-0.0063
488.4401	-0.0044
488.6398	0.0041
488.8395	0.0028
489.0392	0.0011
489.2389	-0.0013
489.4386	0.0006
489.6383	0.0036
489.8379	0.0001
490.0376	0.0052
490.2372	0.0013
490.4368	0.0082
490.6364	0.0052
490.836	-0.0001
491.0355	0.0072
491.2351	0.0057
491.4346	-0.0004
491.6341	-0.001
491.8336	-0.0049
492.0331	0.0062
492.2326	0.0041
492.432	-0.0008
492.6315	0.0035
492.8309	0.0061
493.0303	-0.0034
493.2297	0.0034
493.4291	-0.0058
493.6284	0.0047
493.8278	0.006
494.0271	-0.0014
494.2264	0.0047
494.4257	0.0018
494.625	0.0001
494.8243	0.0091
495.0236	0.001
495.2228	0.0014
495.422	0.0085
495.6213	0.0015
495.8205	0.0066
496.0196	0.0048
496.2188	0.0096
496.418	-0.0106
496.6171	0.0023
496.8162	0.0031
497.0153	0.0057
497.2144	-0.0002
497.4135	0.0024
497.6126	-0.0103
497.8116	0.0061
498.0107	0.0041
498.2097	0.0062
498.4087	-0.0005
498.6077	0.0049
498.8067	0.0077
499.0056	-0.0035
499.2046	0.0041
499.4035	0.0068
499.6024	-0.0059
499.8013	0.0039
500.0002	0.0047
500.199	0.0087
500.3979	0.0055
500.5967	0.0025
500.7956	-0.0037
500.9944	0.0042
501.1932	0.0101
501.3919	0.0114
501.5907	0.0074
501.7895	-0.0032
501.9882	-0.0002
502.1869	0.0076
502.3856	-0.0019
502.5843	-0.0024
502.783	0.005
502.9816	0.0039
503.1803	0.0072
503.3789	0.0115
503.5775	-0.0031
503.7761	0.0021
503.9747	-0.0028
504.1732	-0.002
504.3718	-0.0047
504.5703	0.0032
504.7689	-0.0044
504.9674	0.0071
505.1658	0.0001
505.3643	0.0008
505.5628	0.0058
505.7612	0.0096
505.9597	0.0033
506.1581	-0.001
506.3565	-0.0101
506.5549	0.0016
506.7532	0.0033
506.9516	0.0019
507.1499	0.0058
507.3482	0.0153
507.5465	-0.0005
507.7448	0.0075
507.9431	0.0001
508.1414	0.0013
508.3396	-0.0011
508.5379	0.0028
508.7361	0.0144
508.9343	0.0034
509.1325	0.0078
509.3306	-0.0084
509.5288	0.009
509.7269	0.0018
509.9251	-0.0031
510.1232	-0.0079
510.3213	-0.0021
510.5193	0.0061
510.7174	-0.008
510.9154	0.0069
511.1135	0.0009
511.3115	-0.0001
511.5095	0.012
511.7075	-0.0012
511.9055	0.009
512.1034	0.0022
512.3014	0.0025
512.4993	0.0048
512.6972	-0.0008
512.8951	0.0028
513.093	-0.0026
513.2908	0.008
513.4887	0.0061
513.6865	-0.001
513.8844	0.0029
514.0822	0.0058
514.2799	0.002
514.4777	-0.0001
514.6755	0.0082
514.8732	0.002
515.0709	0.004
515.2687	-0.0055
515.4664	-0.0065
515.664	0.0113
515.8617	0.0092
516.0594	0.0107
516.257	0.0136
516.4546	-0.0073
516.6522	-0.0065
516.8498	-0.0026
517.0474	-0.004
517.2449	-0.001
517.4425	0.001
517.64	0.0068
517.8375	0.008
518.035	-0.0043
518.2325	-0.0027
518.43	-0.0011
518.6274	0.0055
518.8249	-0.0004
519.0223	0.0011
519.2197	0.0049
519.4171	-0.0046
519.6145	0.0047
519.8118	-0.0056
520.0092	-0.0012
520.2065	0.0075
520.4038	0.0007
520.6011	0.0028
520.7984	0.0026
520.9956	0.0038
521.1929	-0.0012
521.3901	0.0045
521.5874	0.0005
521.7846	-0.0089
521.9818	0.0015
522.1789	0.0128
522.3761	0.0057
522.5732	-0.0039
522.7704	-0.0033
522.9675	-0.0012
523.1646	0.0077
523.3617	0.0081
523.5587	-0.0009
523.7558	0.0074
523.9528	-0.0029
524.1498	-0.0078
524.3468	-0.0037
524.5438	0.0077
524.7408	-0.0046
524.9378	0.0067
525.1347	0.0052
525.3316	0.0178
525.5285	0.0056
525.7254	-0.0046
525.9223	-0.008
526.1192	0.0004
526.316	-0.009
526.5129	0.0053
526.7097	-0.0015
526.9065	0.0119
527.1033	-0.0019
527.3	-0.0018
527.4968	-0.0021
527.6935	-0.0033
527.8903	-0.0046
528.087	0.005
528.2837	0.0037
528.4804	0.01
528.677	0.0004
528.8737	-0.0005
529.0703	-0.0007
529.2669	0.0004
529.4635	0.0078
529.6601	0.0064
529.8567	0.0118
530.0532	-0.0073
530.2498	-0.0046
530.4463	0.0129
530.6428	-0.0103
530.8393	-0.0015
531.0358	-0.006
531.2322	0.0004
531.4287	0.0021
531.6251	-0.0053
531.8215	0.0092
532.0179	0.0031
532.2143	0.0072
532.4107	0.0004
532.607	0.0001
532.8034	-0.003
532.9997	0.0068
533.196	0.0149
533.3923	0.0017
533.5886	0.005
533.7848	-0.0145
533.9811	-0.0078
534.1773	0.008
534.3735	0.003
534.5697	0.0033
534.7659	-0.0045
534.9621	0.015
535.1582	0.0081
535.3544	0.0132
535.5505	0.0079
535.7466	-0.0105
535.9427	-0.005
536.1387	-0.0059
536.3348	0.0048
536.5308	0.0069
536.7269	-0.0014
536.9229	-0.0045
537.1189	-0.0019
537.3148	-0.0148
537.5108	0.0023
537.7068	0.0038
537.9027	0.0098
538.0986	-0.0088
538.2945	-0.0005
538.4904	0.0024
538.6863	0.0177
538.8821	-0.0016
539.078	0.0043
539.2738	-0.0016
539.4696	0.0045
539.6654	-0.0032
539.8611	0.008
540.0569	-0.0004
540.2526	-0.0009
540.4484	-0.0047
540.6441	0.0008
540.8398	-0.0023
541.0355	0.0021
541.2311	0.0099
541.4268	-0.0017
541.6224	0.0061
541.818	0.0041
542.0136	-0.0067
542.2092	0.0078
542.4048	0.003
542.6003	0.0093
542.7959	0.0003
542.9914	-0.0057
543.1869	-0.002
543.3824	-0.0004
543.5779	0.003
543.7734	-0.0057
543.9688	0.0064
544.1642	0.0015
544.3596	-0.0001
544.555	-0.0012
544.7504	0.0082
544.9458	0.002
545.1411	0.0047
545.3365	0.003
545.5318	0.0029
545.7271	0.01
545.9224	-0.0071
546.1177	0.0027
546.3129	-0.0102
546.5081	-0.0112
546.7034	-0.0042
546.8986	0.0126
547.0938	-0.0001
547.289	0.0003
547.4841	0.0008
547.6793	-0.0103
547.8744	-0.0021
548.0695	0.0032
548.2646	-0.0068
548.4597	-0.0135
548.6548	0.0058
548.8498	0.002
549.0448	0.0088
549.2399	-0.0038
549.4349	0.0021
549.6298	-0.0141
549.8248	0.0037
550.0198	0.007
550.2147	-0.0107
550.4096	0.0055
550.6045	0.0025
550.7994	0.0045
550.9943	-0.0065
551.1892	0.0012
551.384	0.0043
551.5788	0.0091
551.7737	-0.0016
551.9685	-0.0012
552.1632	0.0012
552.358	-0.0072
552.5528	-0.0084
552.7475	-0.0114
552.9422	0.0066
553.1369	0.0054
553.3316	0.0017
553.5263	-0.0096
553.7209	-0.0034
553.9156	0.0059
554.1102	0.0004
554.3048	0.0027
554.4994	-0.0032
554.694	0.0009
554.8885	0.0116
555.0831	0.0105
555.2776	0.0023
555.4721	-0.0165
555.6666	0.0079
555.8611	-0.0052
556.0555	0.0043
556.25	0.0064
556.4444	0.0009
556.6388	0.0048
556.8332	0.0026
557.0276	0.0046
557.222	0.0023
557.4163	0.0014
557.6107	-0.0046
557.805	0.0006
557.9993	-0.0082
558.1936	0.0067
558.3879	-0.002
558.5821	-0.0075
558.7764	0.0202
558.9706	-0.0032
559.1648	-0.001
559.359	0.0116
559.5532	-0.0126
559.7473	0.0145
559.9415	0.0063
560.1356	0.0063
560.3297	0.0025
560.5238	0.0028
560.7179	-0.0064
560.9119	0.0104
561.106	-0.0001
561.3	-0.011
561.494	0.0155
561.688	0.0069
561.882	0.0099
562.076	0.001
562.2699	-0.0009
562.4639	0.0137
562.6578	0.0028
562.8517	0.003
563.0456	0.0003
563.2395	0.009
563.4333	-0.001
563.6272	0.0104
563.821	0.0131
564.0148	-0.0058
564.2086	0.0026
564.4024	-0.0018
564.5961	0.0035
564.7899	-0.005
564.9836	-0.0004
565.1773	0.0065
565.371	0.0024
565.5647	-0.0008
565.7584	0.0096
565.952	0.0003
566.1456	0.0008
566.3393	0.0011
566.5329	-0.0064
566.7264	-0.0045
566.92	-0.0003
567.1136	-0.0004
567.3071	0.0096
567.5006	-0.0118
567.6941	0.0103
567.8876	0.0006
568.0811	-0.0009
568.2745	-0.0019
568.468	0.0092
568.6614	-0.0009
568.8548	-0.0022
569.0482	0.0019
569.2416	-0.0038
569.4349	-0.0021
569.6283	0.0057
569.8216	-0.0023
570.0149	0.0062
570.2082	-0.0063
570.4015	0.0028
570.5947	-0.0019
570.788	0.0026
570.9812	0.0015
571.1744	-0.006
571.3676	0.0003
571.5608	-0.0059
571.754	-0.0033
571.9471	0.0055
572.1402	0.0023
572.3333	-0.0002
572.5264	0.0043
572.7195	0.0042
572.9126	0.0001
573.1057	0.0008
573.2987	0.0008
573.4917	0.0023
573.6847	0.0001
573.8777	0.0015
574.0707	-0.0015
574.2636	0.0006
574.4566	0.0018
574.6495	0.004
574.8424	0.0022
575.0353	0.0005
575.2281	0.0004
575.421	-0.0011
575.6138	-0.0021
575.8067	-0.0024
575.9995	0.001
576.1923	0.0045
576.385	0.0016
576.5778	-0.0009
576.7706	0.0044
576.9633	0.0021
577.156	0.0012
577.3487	-0.0005
577.5414	-0.0015
577.734	0.0011
577.9267	-0.0022
578.1193	0.0046
578.3119	-0.0028
578.5045	-0.0015
578.6971	-0.0025
578.8897	0.0001
579.0822	0.0039
579.2747	-0.0035
579.4673	-0.0024
579.6598	0.0002
579.8522	0.0026
580.0447	0.0008
580.2372	0.0015
580.4296	-0.0018
580.622	0.006
580.8144	-0.0008
581.0068	0.001
581.1992	0.002
581.3915	0
581.5839	0.0057
581.7762	0.0008
581.9685	-0.0015
582.1608	-0.0017
582.353	-0.0054
582.5453	0.0017
582.7375	-0.0011
582.9298	-0.0016
583.122	-0.0017
583.3142	0.001
583.5063	-0.0041
583.6985	0.0017
583.8906	-0.0011
584.0827	0.0038
584.2749	0.0018
584.4669	0.001
584.659	0.0014
584.8511	0.0027
585.0431	-0.0013
585.2352	-0.0061
585.4272	-0.0007
585.6192	-0.0033
585.8111	-0.0025
586.0031	0.0022
586.195	0.0032
586.387	0.001
586.5789	0.0045
586.7708	-0.0016
586.9627	0.0031
587.1545	-0.0007
587.3464	0.0006
587.5382	-0.0023
587.73	0.0023
587.9218	0.0008
588.1136	-0.0033
588.3053	-0.0027
588.4971	-0.0012
588.6888	-0.0024
588.8805	0.0032
589.0722	0.0019
589.2639	0.0017
589.4556	-0.0038
589.6472	0.0009
589.8389	0.0047
590.0305	0.0018
590.2221	0.0039
590.4137	-0.0036
590.6052	0.0036
590.7968	-0.0027
590.9883	0.0006
591.1798	-0.0074
591.3713	-0.0022
591.5628	-0.0004
591.7543	0.0092
591.9458	-0.0015
592.1372	-0.001
592.3286	-0.0064
592.52	-0.0022
592.7114	-0.0041
592.9028	-0.0029
593.0941	-0.0012
593.2855	0.007
593.4768	-0.0032
593.6681	0.0002
593.8594	-0.0074
594.0506	0.005
594.2419	-0.0048
594.4331	-0.004
594.6244	0.0053
594.8156	-0.0066
595.0067	0.0063
595.1979	-0.0058
595.3891	-0.0048
595.5802	0.0055
595.7713	-0.0035
595.9624	0.0032
596.1535	-0.0026
596.3446	-0.0055
596.5357	-0.0032
596.7267	-0.0037
596.9177	0.0016
597.1087	-0.0001
597.2997	0.0025
597.4907	0.006
597.6817	-0.0023
597.8726	0.0038
598.0635	0.0009
598.2544	-0.0015
598.4453	-0.0025
598.6362	-0.0018
598.827	0.0002
599.0179	0.001
599.2087	-0.0052
599.3995	0.0027
599.5903	-0.0027
599.7811	-0.0018
599.9718	0.0022
600.1626	0.0037
600.3533	0.0022
600.544	0.0013
600.7347	0.0007
600.9254	0.005
601.116	0.002
601.3067	0.0037
601.4973	0.0062
601.6879	-0.0013
601.8785	0.0018
602.0691	0.0045
602.2596	0.0041
602.4502	0.0006
602.6407	-0.0006
602.8312	0.0066
603.0217	0.0034
603.2122	0.0073
603.4027	-0.0059
603.5931	0.0002
603.7835	-0.0021
603.9739	-0.0024
604.1643	-0.0008
604.3547	0.0023
604.5451	-0.002
604.7354	0.0007
604.9257	-0.0022
605.116	-0.0007
605.3063	-0.0012
605.4966	0.0024
605.6869	-0.0019
605.8771	0.0032
606.0673	-0.003
606.2575	-0.0024
606.4477	0.0068
606.6379	0.0049
606.8281	-0.0071
607.0182	0.0019
607.2083	-0.0014
607.3985	0.0045
607.5885	0.0014
607.7786	0.0071
607.9687	-0.0033
608.1587	-0.0013
608.3488	-0.0036
608.5388	-0.0009
608.7288	-0.0043
608.9187	0.0055
609.1087	0.0008
609.2986	-0.0071
609.4886	0.0035
609.6785	0.0045
609.8684	-0.0064
610.0582	-0.0001
610.2481	-0.002
610.4379	-0.0022
610.6278	-0.0001
610.8176	0.0002
611.0074	-0.003
611.1971	0.0053
611.3869	-0.0021
611.5766	0.0015
611.7664	0.0051
611.9561	-0.0027
612.1458	-0.0095
612.3354	0.001
612.5251	0.0013
612.7147	0.0031
612.9044	0.0016
613.094	0.0054
613.2836	0.001
613.4731	0.0028
613.6627	0.0052
613.8522	-0.0017
614.0417	0.0012
614.2313	-0.0056
614.4207	0.0043
614.6102	-0.0065
614.7997	-0.0028
614.9891	-0.004
615.1785	0.0015
615.3679	0.0021
615.5573	-0.0145
615.7467	-0.0028
615.9361	-0.0062
616.1254	-0.0017
616.3147	0.0054
616.504	-0.0036
616.6933	-0.0079
616.8826	-0.0015
617.0718	-0.0026
617.2611	-0.0053
617.4503	-0.0022
617.6395	-0.0026
617.8287	0.0087
618.0179	-0.006
618.207	-0.003
618.3961	-0.005
618.5853	0.0017
618.7744	0.0011
618.9634	0.0079
619.1525	-0.0056
619.3416	-0.0056
619.5306	0.0028
619.7196	-0.0092
619.9086	0.0079
620.0976	0.0091
620.2866	-0.001
620.4755	0.0114
620.6645	-0.0012
620.8534	-0.0096
621.0423	-0.0107
621.2312	-0.005
621.42	0.0039
621.6089	-0.0002
621.7977	0.0054
621.9865	0.0133
622.1753	0.009
622.3641	-0.0008
622.5529	-0.0077
622.7416	0.0042
622.9303	0.0003
623.1191	-0.0049
623.3078	-0.0008
623.4964	-0.0091
623.6851	0.0066
623.8737	0.0119
624.0624	-0.0054
624.251	0.0144
624.4396	-0.0052
624.6282	-0.0018
624.8167	0.0135
625.0053	0
625.1938	0
625.3823	0.0032
625.5708	0.001
625.7593	-0.0093
625.9477	-0.0075
626.1362	-0.0026
626.3246	-0.0032
626.513	0.0037
626.7014	-0.0075
626.8898	-0.0039
627.0781	-0.0074
627.2665	0.0141
627.4548	0.0046
627.6431	-0.0106
627.8314	-0.0041
628.0197	0.0014
628.2079	0.0117
628.3962	0.0015
628.5844	0.0026
628.7726	-0.0016
628.9608	-0.0117
629.1489	0.0017
629.3371	-0.0001
629.5252	-0.0002
629.7134	0.0064
629.9015	-0.0112
630.0895	-0.004
630.2776	-0.0025
630.4657	0.0038
630.6537	-0.0062
630.8417	-0.0063
631.0297	-0.0021
631.2177	0.0036
631.4057	0.0012
631.5936	0.0063
631.7815	-0.0003
631.9695	0.0268
632.1574	0.002
632.3452	0.012
632.5331	-0.0044
632.7209	0.006
632.9088	-0.0058
633.0966	0.0059
633.2844	-0.0024
633.4722	0.0027
633.6599	-0.018
633.8477	0.002
634.0354	-0.0023
634.2231	0.0227
634.4108	0.0009
634.5985	-0.0043
634.7861	-0.0193
634.9738	0.0018
635.1614	-0.0039
635.349	0.0033
635.5366	0.0005
635.7242	-0.0003
635.9117	0.0141
636.0993	-0.0179
636.2868	0.0021
636.4743	0.0118
636.6618	-0.004
636.8492	0.0077
637.0367	0.0047
637.2241	-0.0042
637.4115	0.0084
637.5989	0.0234
637.7863	-0.0043
637.9737	0.0089
638.161	0.0049
638.3484	-0.0064
638.5357	0.0081
638.723	-0.0148
638.9103	0.0019
639.0975	0.0115
639.2848	0.0145
639.472	-0.0108
639.6592	0.0162
639.8464	0.0194
640.0336	0.0022
640.2208	-0.0189
640.4079	-0.0041
640.595	-0.001
640.7821	0.0082
640.9692	0.0021
641.1563	0.0031
641.3434	0.011
641.5304	-0.0095
641.7174	0.0246
641.9044	-0.0161
642.0914	-0.0098
642.2784	0.024
642.4653	0.0003
642.6523	0.0028
642.8392	0.0084
643.0261	0.0019
643.213	0.0019
643.3999	0.0019
643.5867	-0.0007
643.7735	0.0073
643.9604	-0.0088
644.1472	-0.0044
644.3339	-0.0179
644.5207	-0.0275
644.7075	0.0079
644.8942	0.0308
645.0809	-0.0176
645.2676	-0.0164
645.4543	0.0048
645.6409	-0.028
645.8276	0.0029
646.0142	0.0066
646.2008	0.0182
646.3874	-0.004
646.574	-0.0249
646.7605	0.0012
646.9471	0.0053
647.1336	0.0076
647.3201	0.0097
647.5066	0.0019
647.6931	-0.0034
647.8795	0.0091
648.0659	0.0021
648.2524	-0.0003
648.4388	-0.004
648.6252	-0.0074
648.8115	0.0103
648.9979	0.0121
649.1842	-0.013
649.3705	-0.0026
649.5568	-0.0167
649.7431	0.0099
649.9294	0.0026
650.1156	-0.0046
650.3018	-0.0043
650.488	-0.0076
650.6742	0.0044
650.8604	-0.0033
651.0466	0.0094
651.2327	-0.0039
651.4188	-0.0203
651.6049	0.0029
651.791	0.0288
651.9771	-0.0076
652.1632	-0.0006
652.3492	-0.0001
652.5352	0.0078
652.7212	-0.0084
652.9072	0.0027
653.0932	0.0055
653.2791	-0.0076
653.465	-0.0102
653.651	0.0219
653.8369	0.0159
654.0227	-0.0206
654.2086	-0.0242
654.3944	-0.0142
654.5803	0.0057
654.7661	-0.0044
654.9519	-0.0043
655.1377	0
655.3234	0
655.5092	0
655.6949	0
655.8806	0
656.0663	0
656.2519	0
656.4376	0
656.6232	0
656.8088	0
656.9945	0
657.18	0
657.3656	0
657.5511	0
657.7367	0
657.9222	0
658.1077	0
658.2932	0
658.4786	0
658.6641	0
658.8495	0
659.0349	0
659.2203	0
659.4057	0.0061
659.591	0.0299
659.7764	0.0091
659.9617	-0.0086
660.147	-0.0096
660.3323	-0.0075
660.5176	0.0025
660.7028	-0.0134
660.888	0.0072
661.0733	0.0178
661.2585	0.0131
661.4436	-0.0024
661.6288	-0.0014
661.8139	0.022
661.9991	0.0156
662.1842	0.0119
662.3693	-0.002
662.5544	-0.0026
662.7394	0.0222
662.9245	0.0028
663.1095	0.0017
663.2945	-0.0047
663.4795	-0.0037
663.6644	0.0038
663.8494	0.0038
664.0343	0.0115
664.2193	-0.0002
664.4042	-0.007
664.589	-0.0072
664.7739	-0.0111
664.9587	0.0025
665.1436	0.013
665.3284	0.0006
665.5132	0.0077
665.698	0.0032
665.8827	-0.0358
666.0675	-0.0053
666.2522	0.0184
666.4369	-0.0201
666.6216	-0.0094
666.8063	-0.0118
666.9909	-0.0187
667.1756	0.0086
667.3602	-0.0096
667.5448	-0.0006
667.7294	0.0021
667.9139	-0.0162
668.0985	-0.0247
668.283	0.0081
668.4675	-0.002
668.652	-0.0082
668.8365	-0.0009
669.0209	-0.0156
669.2054	0.0112
669.3898	0.0014
669.5742	0.0129
669.7586	0.0353
669.943	-0.0262
670.1273	-0.023
670.3117	0.0151
670.496	0.003
670.6803	0.0165
670.8646	-0.0047
671.0488	-0.0011
671.2331	0.0102
671.4173	0.0057
671.6015	-0.0056
671.7857	-0.0003
671.9699	0.0024
672.1541	-0.0017
672.3382	0.016
672.5223	0.0094
672.7064	0.0037
672.8905	0.0031
673.0746	-0.0057
673.2587	-0.0031
673.4427	0.0015
673.6267	-0.0269
673.8107	-0.0079
673.9947	0.0099
674.1787	0.0238
674.3626	0.0053
674.5465	0.0057
674.7304	-0.0247
674.9143	0.0211
675.0982	0.0013
675.2821	0.0167
675.4659	0.0136
675.6497	0.0148
675.8335	0.0084
676.0173	0.007
676.2011	-0.0075
676.3849	0.0124
676.5686	0.0226
676.7523	-0.0091
676.936	-0.0308
677.1197	0.0124
677.3034	0.0045
677.487	0.0055
677.6706	-0.0103
677.8542	0.0089
678.0378	0.008
678.2214	0.0058
678.405	0.012
678.5885	-0.007
678.772	-0.0011
678.9555	0.0007
679.139	-0.0178
679.3225	0.0026
679.5059	-0.0003
679.6894	-0.0074
679.8728	-0.0012
680.0562	0.0057
680.2395	-0.0059
680.4229	-0.0065
680.6062	0.016
680.7896	0.0054
680.9729	0.0086
681.1562	-0.0033
681.3394	-0.0027
681.5227	-0.0181
681.7059	-0.0077
681.8891	-0.0007
682.0723	-0.0138
682.2555	0.0166
682.4387	0.0154
682.6218	-0.0066
682.805	0.0075
682.9881	0.0023
683.1712	0.0131
683.3542	-0.0171
683.5373	0.0021
683.7203	0.0005
683.9034	-0.0002
684.0864	-0.0078
684.2694	0.0093
684.4523	0.0012
684.6353	0.0034
684.8182	0.0112
685.0011	-0.0101
685.184	0.0079
685.3669	-0.0082
685.5498	0.0036
685.7326	-0.0042
685.9154	-0.0002
686.0982	0.0164
686.281	-0.0216
686.4638	0.0169
686.6465	0.0051
686.8293	-0.0053
687.012	-0.0025
687.1947	0.0061
687.3774	0.0155
687.56	0.0051
687.7427	-0.0111
687.9253	0.0037
688.1079	0.0275
688.2905	-0.0114
688.4731	0.0285
688.6556	0.0007
688.8382	0.0003
689.0207	-0.0146
689.2032	-0.0015
689.3857	0.0237
689.5681	-0.0039
689.7506	0.0007
689.933	-0.0015
690.1154	-0.021
690.2978	0.0133
690.4802	-0.0039
690.6626	0.0039
690.8449	-0.0127
691.0272	-0.0228
691.2095	-0.0012
691.3918	0.0035
691.5741	0.0115
691.7563	0.0028
691.9386	-0.0085
692.1208	-0.0111
692.303	0.0098
692.4852	0.0102
692.6673	-0.0146
692.8495	-0.0086
693.0316	-0.0052
693.2137	0.038
693.3958	0.0088
693.5778	-0.0172
693.7599	-0.0424
693.9419	0.0144
694.1239	0.003
694.3059	-0.0065
694.4879	-0.014
694.6699	0.0202
694.8518	0.0084
695.0337	0.0066
695.2157	-0.0146
695.3975	0.0046
695.5794	-0.0022
695.7613	0.0413
695.9431	0.0137
696.1249	-0.021
696.3067	0.0107
696.4885	-0.0055
696.6703	-0.0055
696.852	-0.0209
697.0337	-0.0051
697.2154	0.009
697.3971	0.0161
697.5788	0.026
697.7605	-0.0052
697.9421	0.0001
698.1237	0.0119
698.3053	-0.0071
698.4869	-0.0088
698.6685	-0.0058
698.85	0.02
699.0315	-0.0159
699.213	-0.0012
699.3945	0.0241
699.576	0.0041
699.7575	-0.0176
699.9389	0.0353
700.1203	-0.002
700.3017	-0.0157
700.4831	0.0005
700.6645	0.0239
700.8458	0.0147
701.0271	-0.0109
701.2084	-0.0295
701.3897	0.0221
701.571	0.0168
701.7523	0.0057
701.9335	0.0239
702.1147	-0.0133
702.2959	0.0185
702.4771	0.0041
702.6583	-0.0025
702.8394	0.0238
703.0205	-0.0038
703.2016	-0.0149
703.3827	0.0079
703.5638	0.0099
703.7449	0.0017
703.9259	0.0027
704.1069	0.0249
704.2879	0.035
704.4689	0.0404
704.6499	-0.0175
704.8308	-0.0178
705.0117	0.0024
705.1927	0.0211
705.3735	0.0114
705.5544	-0.0068
705.7353	0.0038
705.9161	0.0387
706.0969	0.0311
706.2777	0.0149
706.4585	-0.0019
706.6393	0.0043
706.82	0.0098
707.0007	0.013
707.1815	0.0229
707.3621	-0.002
707.5428	0.0075
707.7235	0.0129
707.9041	-0.0119
708.0847	-0.0208
708.2653	-0.0011
708.4459	-0.0014
708.6265	-0.0091
708.807	0.0089
708.9875	-0.0021
709.168	-0.019
709.3485	0.0324
709.529	0.0178
709.7095	-0.024
709.8899	0.0305
710.0703	0.0235
710.2507	0.0075
710.4311	-0.014
710.6115	-0.0071
710.7918	0.0148
710.9721	0.0001
711.1524	0.0072
711.3327	-0.0226
711.513	0.01
711.6932	-0.0323
711.8735	0.0056
712.0537	-0.006
712.2339	0.0161
712.4141	0.0116
712.5942	0.0239
712.7744	0.0067
712.9545	0.0077
713.1346	0.0173
713.3147	0.0251
713.4947	0.0129
713.6748	-0.0081
713.8548	-0.0161
714.0348	0.0091
714.2148	0.0013
714.3948	0.0111
714.5748	-0.0079
714.7547	0.0082
714.9346	-0.0009
715.1145	0.0197
715.2944	0.0105
715.4743	-0.0007
715.6541	-0.0152
715.834	0.0116
716.0138	0.0064
716.1936	-0.001
716.3733	0.0032
716.5531	0.0317
716.7328	-0.0441
716.9126	-0.0105
717.0923	0.0356
717.2719	0.0164
717.4516	-0.0166
717.6312	-0.0454
717.8109	0.0133
717.9905	0.0216
718.1701	-0.0247
718.3496	0.0077
718.5292	-0.0018
718.7087	0.0283
718.8882	0.0218
719.0677	-0.0111
719.2472	0.0292
719.4267	-0.0121
719.6061	0.0095
719.7856	0.0177
719.965	0.0219
720.1443	-0.0066
720.3237	0.0192
720.5031	0.0054
720.6824	0.0114
720.8617	0.0154
721.041	0.0109
721.2203	0.0182
721.3995	-0.0163
721.5788	-0.0159
721.758	0.0213
721.9372	0.0001
722.1164	0.0112
722.2956	0.0234
722.4747	-0.0038
722.6538	0.0019
722.8329	-0.0173
723.012	0.0219
723.1911	-0.0003
723.3702	-0.0342
723.5492	-0.0056
723.7282	0.0243
723.9072	-0.0201
724.0862	0.0281
724.2652	-0.0208
724.4441	-0.0084
724.623	-0.0062
724.8019	-0.0061
724.9808	0.0106
725.1597	0.0008
725.3385	-0.0027
725.5174	0.0149
725.6962	0.0255
725.875	0.0056
726.0538	0.0015
726.2325	0.0019
726.4112	0.0091
726.59	0.0124
726.7687	-0.0129
726.9474	0.0204
727.126	-0.022
727.3047	0.0183
727.4833	0.0085
727.6619	0.0069
727.8405	0.0081
728.0191	-0.0255
728.1976	-0.0307
728.3762	-0.0277
728.5547	-0.0124
728.7332	-0.0006
728.9116	-0.0303
729.0901	0.0351
729.2686	-0.0231
729.447	-0.0102
729.6254	0.0213
729.8038	0.0007
729.9821	0.0249
730.1605	0.006
730.3388	-0.0152
730.5171	0.0017
730.6954	0.0145
730.8737	0.0146
731.0519	0.0188
731.2302	-0.0068
731.4084	0.0063
731.5866	-0.0151
731.7648	-0.0101
731.9429	0.0035
732.1211	-0.0096
732.2992	-0.0232
732.4773	-0.0206
732.6554	-0.0138
732.8335	0.023
733.0115	-0.0112
733.1896	-0.0088
733.3676	0.0162
733.5456	0.0075
733.7235	0.0175
733.9015	0.0016
734.0794	-0.0006
734.2574	-0.004
734.4353	-0.0059
734.6131	-0.0024
734.791	0.0093
734.9689	-0.007
735.1467	0.0015
735.3245	0.0102
735.5023	0.014
735.68	0.0062
735.8578	-0.0091
736.0355	0.0097
736.2132	0.0052
736.3909	-0.0187
736.5686	0.0201
736.7463	-0.0173
736.9239	0.013
737.1015	0.006
737.2791	-0.0068
737.4567	-0.0065
737.6343	0.0215
737.8118	-0.0155
737.9894	0.0026
738.1669	0.0048
738.3444	0.0178
738.5218	0.0124
738.6993	-0.0071
738.8767	-0.0171
739.0541	0.0161
739.2315	0.002
739.4089	0.0143
739.5863	0.0082
739.7636	0.0129
739.9409	0.0027
740.1182	0.0109
740.2955	-0.0388
740.4728	0.0223
740.65	-0.0183
740.8272	0.0078
741.0044	0.0068
741.1816	0.0407
741.3588	-0.0065
741.5359	0.0026
741.7131	0.001
741.8902	-0.0194
742.0673	0.0183
742.2444	-0.0036
742.4214	-0.0059
742.5985	0.0001
742.7755	-0.0152
742.9525	0.0351
743.1295	-0.0132
743.3064	0.0064
743.4834	0.0357
743.6603	-0.008
743.8372	0.0318
744.0141	0.0086
744.191	0.007
744.3678	0.0019
744.5446	0.0191
744.7215	-0.0177
744.8982	0.0155
745.075	0.0316
745.2518	-0.0023
745.4285	0.0058
745.6052	0.0386
745.7819	0.0064
745.9586	0.0115
746.1353	0.0088
746.3119	-0.0139
746.4885	0.0458
746.6651	-0.0349
746.8417	-0.0153
747.0183	0.0082
747.1948	-0.0291
747.3714	-0.006
747.5479	-0.0025
747.7244	-0.0486
747.9008	-0.0036
748.0773	0.0254
748.2537	0.0218
748.4301	0.0037
748.6065	-0.0292
748.7829	-0.0103
748.9593	0.0146
749.1356	-0.0041
749.3119	-0.0165
749.4882	-0.0124
749.6645	0.0104
749.8408	-0.0098
750.017	-0.0147
750.1933	0.0358
750.3695	0.0083
750.5457	-0.0159
750.7218	0.0159
750.898	0.0018
751.0741	-0.005
751.2502	0.0128
751.4263	0.0007
751.6024	0.0276
751.7784	-0.0245
751.9545	-0.0512
752.1305	0.0123
752.3065	0.0229
752.4825	-0.0136
752.6584	-0.0136
752.8344	-0.0057
753.0103	0.0116
753.1862	-0.0032
753.3621	0.01
753.5379	-0.0027
753.7138	-0.004
753.8896	0.048
754.0654	0.0282
754.2412	0.019
754.417	-0.0017
754.5927	0.0212
754.7685	-0.0061
754.9442	-0.0076
755.1199	-0.0072
755.2956	0.001
755.4712	-0.0079
755.6469	0.0085
755.8225	0.0112
755.9981	0.0041
756.1736	0.0144
756.3492	-0.0159
756.5248	-0.0203
756.7003	-0.0044
756.8758	0.0085
757.0513	0.014
757.2267	-0.005
757.4022	-0.0105
757.5776	-0.0192
757.753	-0.0068
757.9284	0.01
758.1038	-0.0083
758.2791	0.0035
758.4545	-0.0234
758.6298	-0.006
758.8051	0.0158
758.9803	-0.0069
759.1556	-0.0152
759.3308	0.0001
759.506	0.0058
759.6812	0.0059
759.8564	-0.0229
760.0316	0.0067
760.2067	-0.004
760.3819	0.0058
760.557	-0.0017
760.732	0.0134
760.9071	-0.0076
761.0821	-0.0012
761.2572	0.0077
761.4322	-0.0158
761.6072	-0.0249
761.7821	0.0262
761.9571	-0.0051
762.132	0.0097
762.3069	0.0016
762.4818	0.0182
762.6567	0.0078
762.8316	0.0089
763.0064	-0.0258
763.1812	0.0111
763.356	0.0029
763.5308	-0.0093
763.7055	-0.0064
763.8803	-0.0057
764.055	0.0108
764.2297	-0.0026
764.4044	-0.0066
764.579	-0.0039
764.7537	-0.0141
764.9283	-0.0253
765.1029	-0.0098
765.2775	-0.0066
765.4521	0.0175
765.6266	-0.0317
765.8011	-0.0298
765.9756	0.0154
766.1501	0.037
766.3246	-0.0079
766.4991	-0.0106
766.6735	0.0123
766.8479	-0.0403
767.0223	0.0146
767.1967	-0.0448
767.371	-0.026
767.5454	0.0109
767.7197	-0.0025
767.894	-0.0049
768.0683	-0.0128
768.2425	0.003
768.4168	0.016
768.591	0.0001
768.7652	-0.0018
768.9394	0.0065
769.1135	-0.0064
769.2877	0.0224
769.4618	0.004
769.6359	-0.0054
769.81	-0.0047
769.984	0.023
770.1581	0.01
770.3321	-0.0186
770.5061	0.017
770.6801	0.0168
770.8541	-0.0135
771.028	-0.0258
771.202	-0.0488
771.3759	-0.0179
771.5498	0.0172
771.7236	-0.0163
771.8975	-0.003
772.0713	0.002
772.2451	0.0091
772.4189	0.0228
772.5927	-0.0221
772.7665	0.0067
772.9402	0.0028
773.1139	0.0302
773.2876	-0.0134
773.4613	-0.0057
773.635	-0.0177
773.8086	-0.0364
773.9822	-0.003
774.1558	-0.0277
774.3294	-0.0398
774.503	-0.0181
774.6765	0.0408
774.8501	0.0269
775.0236	0.0143
775.1971	-0.0114
775.3705	0.0285
775.544	-0.0138
775.7174	0.0131
775.8908	0.0102
776.0642	0.0246
776.2376	-0.0075
776.4109	0.0615
776.5843	-0.0293
776.7576	0.0063
776.9309	0.0555
777.1041	-0.0078
777.2774	-0.0202
777.4506	0.0165
777.6238	0.0185
777.797	-0.0282
777.9702	0.0524
778.1434	-0.0036
778.3165	0.0002
778.4896	0.0025
778.6627	0.0296
778.8358	-0.0034
779.0089	0.0133
779.1819	-0.0162
779.3549	0.0157
779.5279	-0.0157
779.7009	-0.0168
779.8739	-0.0377
780.0468	0.0348
780.2197	-0.0525
780.3926	-0.0403
780.5655	0.0083
780.7384	0.0313
780.9112	0.0301
781.0841	-0.0211
781.2569	-0.0032
781.4297	-0.0052
781.6024	0.008
781.7752	-0.0089
781.9479	-0.0049
782.1206	0.006
782.2933	0.0019
782.466	0.0101
782.6386	0.0235
782.8113	-0.0094
782.9839	0.0261
783.1565	-0.0134
783.329	0.0206
783.5016	0.0167
783.6741	-0.0235
783.8466	-0.0546
784.0191	-0.0203
784.1916	0.0128
784.3641	-0.0549
784.5365	0.0206
784.7089	-0.0117
784.8813	0.0315
785.0537	0.0039
785.2261	-0.0021
785.3984	-0.0378
785.5707	0.0704
785.743	-0.0556
785.9153	0.0354
786.0876	-0.0594
786.2598	-0.0027
786.432	-0.0217
786.6042	0.0553
786.7764	-0.0114
786.9486	0.0172
787.1207	0.0299
787.2928	0.0331
787.4649	0.0092
787.637	0.0285
787.8091	-0.011
787.9811	0.0246
788.1532	-0.0149
788.3252	-0.0096
788.4972	-0.0154
788.6691	0.0317
788.8411	0.0123
789.013	0.0041
789.1849	0.0109
789.3568	-0.0068
789.5287	-0.0173
789.7005	0.0449
789.8723	-0.0017
790.0442	-0.0893
790.2159	0.022
790.3877	0.0695
790.5595	0.0341
790.7312	-0.0039
790.9029	0.0253
791.0746	0.0555
791.2463	-0.0201
791.4179	-0.0479
791.5896	-0.0224
791.7612	-0.0431
791.9328	0.079
792.1044	-0.033
792.2759	-0.0172
792.4474	-0.0646
792.619	0.0108
792.7905	-0.0081
792.9619	-0.0008
793.1334	-0.0614
793.3048	0.0207
793.4762	-0.0168
793.6476	-0.0284
793.819	0.0023
793.9904	-0.0016
794.1617	-0.0195
794.333	-0.0146
794.5043	0.0205
794.6756	0.0378
794.8469	0.0085
795.0181	-0.0186
795.1893	-0.0019
795.3605	-0.0128
795.5317	0.0079
795.7029	0.047
795.874	-0.0474
796.0452	0.0058
796.2163	0.0192
796.3873	0.0147
796.5584	0.0494
796.7294	-0.0722
796.9005	-0.0013
797.0715	0.0515
797.2425	-0.0229
797.4134	0.0188
797.5844	0.0349
797.7553	0.0396
797.9262	-0.0128
798.0971	-0.0478
798.2679	0.0015
798.4388	-0.0733
798.6096	-0.0041
798.7804	0.0421
798.9512	0.0299
799.122	0.0915
799.2927	-0.0284
799.4635	0.0517
799.6342	-0.0331
799.8049	0.0859
799.9755	-0.0201
800.1462	0.0182
800.3168	0.0641
800.4874	0.019
800.658	0.0561
800.8286	0.0711
800.9991	-0.0141
801.1696	-0.0244
801.3402	-0.1141
801.5106	-0.0716
801.6811	-0.0636
801.8516	0.0528
802.022	0.0088
802.1924	-0.1043
802.3628	-0.1249
802.5332	-0.0142
802.7035	0.0126
802.8739	0.0571
803.0442	0.022
803.2145	0.0005
803.3847	0.0041
803.555	-0.0361
803.7252	0.0441
803.8954	0.017
804.0656	-0.0041
804.2358	0.0551
804.4059	0.098
804.5761	0.0525
804.7462	-0.0161
804.9163	-0.0673
805.0864	-0.0358
805.2564	-0.0517
805.4264	-0.0322
805.5965	-0.0084
805.7665	0.0572
805.9364	-0.0665
806.1064	-0.0364
806.2763	0.012
806.4462	0.0182
806.6161	-0.0007
806.786	0.0126
806.9559	0.0736
807.1257	-0.005
807.2955	0.0218
807.4653	-0.0064
807.6351	-0.0038
807.8048	-0.0788
807.9746	-0.0531
808.1443	-0.0153
808.314	0.0507
808.4837	0.0475
808.6533	0.074
808.8229	-0.0258
808.9926	-0.0129
809.1622	0.0583
809.3317	-0.0232
809.5013	0.0886
809.6708	0.0569
809.8403	0.0036
810.0098	0.0888
810.1793	0.1267
810.3488	-0.0174
810.5182	-0.0201
810.6876	0.0678
810.857	-0.1578
811.0264	-0.0248
811.1958	-0.0596
811.3651	-0.0879
811.5344	0.0237
811.7037	-0.0803
811.873	0.0477
812.0422	0.0719
812.2115	0.0765
812.3807	0.0226
812.5499	0.0077
812.7191	0.108
812.8882	-0.0319
813.0574	-0.2224
813.2265	0.212
813.3956	0.034
813.5646	0.1183
813.7337	-0.0506
813.9027	-0.0167
814.0718	-0.0284
814.2407	-0.0959
814.4097	0.0069
814.5787	0.0261
814.7476	0.0711
814.9165	-0.0043
815.0854	0.0487
815.2543	0.0231
815.4232	0.0304
815.592	0.0354
815.7608	0.0826
815.9296	0.0467
816.0984	-0.0315
816.2671	-0.03
816.4359	0.0746
816.6046	0.1592
816.7733	-0.062
816.942	0.1009
817.1106	-0.272
817.2793	-0.0536
817.4479	-0.0836
817.6165	0.0337
817.785	0.0453
817.9536	0.1311
818.1221	0.119
818.2906	0.1036
818.4591	0.0156
818.6276	0.0969
818.7961	0.0458
818.9645	0.1102
819.1329	0.1944
819.3013	0.0575
819.4697	0.2984
819.638	0.0698
819.8064	-0.2098
819.9747	0.1589
820.143	0.0009
820.3113	0.1368
820.4795	0.1002
820.6477	-0.0611
820.816	-0.007
820.9842	0.0369
821.1523	0.0931
821.3205	0.0142
821.4886	0.0393
821.6567	-0.0057
821.8248	0.0975
821.9929	0.052
822.1609	0.1009
822.329	0.0364
822.497	0.0215
822.665	-0.0514
822.833	0.1306
823.0009	-0.093
823.1688	0.0814
823.3367	-0.1455
823.5046	-0.018
823.6725	0.1202
823.8404	-0.0256
824.0082	0.0547
824.176	-0.0585
824.3438	0.113
824.5116	0.0963
824.6793	0.0419
824.847	0.1859
825.0147	0.4039
825.1824	0.0787
825.3501	0.0238
825.5177	0.0242
825.6854	0.0504
825.853	-0.0434
826.0206	0.0228
826.1881	-0.0519
826.3557	0.2272
826.5232	0.1036
826.6907	0.0431
826.8582	-0.1397
827.0257	-0.1541
827.1931	0.1712
827.3605	-0.0917
827.528	-0.1501
827.6953	0.1086
827.8627	-0.1233
828.03	0.1163
828.1974	-0.1681
828.3647	0.1174
828.532	0.2311
828.6992	0.0172
828.8665	0.1749
829.0337	-0.1412
829.2009	0.2437
829.3681	0.1421
829.5352	0.0645
829.7024	0.1774
829.8695	-0.094
830.0366	0.0439
830.2037	0.1391
830.3707	-0.0215
830.5378	0.6313
830.7048	-0.1577
830.8718	-0.1129
831.0388	0.341
831.2057	0.2161
831.3727	-0.1212
831.5396	0.0094
831.7065	0.3817
831.8734	-0.4316
832.0402	0.2715
832.2071	0.1922
832.3739	0.1346
832.5407	-0
832.7075	0.137
832.8742	0.1144
833.041	0.0091
833.2077	-0.1152
833.3744	0.0145
833.541	-0.0757
833.7077	0.2621
833.8743	-0.0382
834.0409	-0.1164
834.2075	0.0312
834.3741	0.3061
834.5407	0.3495
834.7072	0.0999
834.8737	0.0129
835.0402	-0.3968
835.2067	0.072
835.3731	0.0011
835.5395	0.1201
835.706	0.1697
835.8723	0.0297
836.0387	0.2235
836.2051	0.4861
836.3714	-0.3473
836.5377	-0.2562
836.704	0.4152
836.8703	-0.1983
837.0365	0.3673
837.2027	-0.1701
837.3689	-0.1743
837.5351	-0.2397
837.7013	0.2854
837.8674	-0.9398
838.0335	0.0062
838.1997	-0.1864
838.3657	-0
838.5318	-0.7911
838.6978	-0.1305
838.8639	0.0825
839.0299	0.1548
839.1958	0.1593
839.3618	0.23
839.5277	-0.2822
839.6937	-0.2734
839.8596	0.1345
840.0254	0.2133
840.1913	-0.0447
840.3571	14.1621
840.523	0.3151
840.6888	-0.0939
840.8545	-0.3374
841.0203	-0.1399
841.186	0.0353
841.3517	0.0636
841.5174	0.3795
841.6831	-0
841.8488	0.374
842.0144	0.1195
842.18	-0.0138
842.3456	0.3176
842.5112	-0.2011
842.6767	-0.3574
842.8422	-0.018
843.0077	0.2778
843.1732	0.066
843.3387	-0.1338
843.5042	0.1367
843.6696	-0
843.835	14.1484
844.0004	-0.0415
844.1657	-0
844.3311	0.0467
844.4964	1.5938
844.6617	-0
844.827	0.2267
844.9923	0.0442
845.1575	-0
845.3227	-0.1137
845.4879	0.2754
845.6531	-0.2081
845.8183	0.3029
845.9834	-0
846.1485	-0.2459
846.3136	0.2753
846.4787	-0
846.6438	0.6034
846.8088	-1.0492
846.9738	-0
847.1388	0.8799
847.3038	-0.0335
847.4687	-0
847.6337	0.3138
847.7986	0.1884
847.9635	0.3407
848.1284	-0.1975
848.2932	-0.0291
848.458	0.461
848.6228	-0.1486
848.7876	0.1524
848.9524	0.563
849.1172	-0.0524
849.2819	-0.0835
849.4466	-0.0486
849.6113	1.5218
849.7759	14.1343
849.9406	-0.0564
850.1052	-0.5113
850.2698	-0
850.4344	0.1683
850.599	0.3274
850.7635	0.5035
850.928	0.1339
851.0925	-0.3492
851.257	0.1222
851.4215	-0.5459
851.5859	0.0015
851.7503	-0
851.9147	-0
852.0791	-0.4285
852.2434	-0.0542
852.4078	0.1118
852.5721	0.9691
852.7364	0.8536
852.9007	0.0148
853.0649	0.5247
853.2291	0.0207
853.3934	-0
853.5575	0.8482
853.7217	0.9602
853.8859	-0.1021
854.05	-0.848
854.2141	-0
854.3782	0.3913
854.5423	-0.8376
854.7063	-0
854.8703	0.31
855.0343	-0.1203
855.1983	-0.1661
855.3623	0.002
855.5262	-0.6601
855.6901	0.3232
855.854	-0.008
856.0179	-0
856.1818	-0
856.3456	-0.0071
856.5094	-0.9144
856.6732	-0.6168
856.837	0.4083
857.0008	-0
857.1645	-0
857.3282	0.0542
857.4919	-0.1416
857.6556	0.0663
857.8192	-0.1328
857.9828	-0.4009
858.1465	1.185
858.31	-1.028
858.4736	-0.2058
858.6372	0.0057
858.8007	-1.426
858.9642	0.6957
859.1277	-0.366
859.2911	0.2652
859.4546	-0.1447
859.618	0.3049
859.7814	-0
859.9448	-0.0073
860.1081	-0
860.2715	-0
860.4348	0.3167
860.5981	0.4393
860.7614	0.3522
860.9246	0.6059
861.0879	-0.6315
861.2511	-0
861.4143	-0
861.5774	0.574
861.7406	-0.426
861.9037	0.5179
862.0668	-0
862.2299	-0
862.393	0.2778
862.556	-0
862.7191	-0.0635
862.8821	0.0396
863.0451	1.0588
863.208	-0
863.371	0.4334
863.5339	0.2272
863.6968	0.0467
863.8597	-0
864.0225	-0
864.1854	0.1181
864.3482	-0
864.511	-0.2106
864.6737	13.96
864.8365	0.5136
864.9992	-0.1147
865.1619	-0.1986
865.3246	-0.1358
865.4873	-0.0902
865.65	-0
865.8126	-0
865.9752	-0.1888
866.1378	-0.5199
866.3004	0.6266
866.4629	-0.2577
866.6254	-0
866.7879	-0
866.9504	0.0822
867.1129	0.0969
867.2753	-0.2536
867.4377	0.6451
867.6001	1.1034
867.7625	0.3039
867.9249	0.3711
868.0872	-0.1679
868.2495	13.9148
868.4118	-0
868.5741	-0
868.7363	0.1167
868.8986	-0
869.0608	0.2402
869.223	1.4491
869.3851	0.8858
869.5473	-1.1919
869.7094	-0.1694
869.8715	-0
870.0336	0.071
870.1957	-1.1839
870.3577	-0.2874
870.5197	0.1181
870.6817	-0
870.8437	0.5188
871.0057	1.224
871.1676	0.4366
871.3295	-0
871.4914	-0
871.6533	-0.1365
871.8151	-0.5078
871.977	0.0018
872.1388	0.2109
872.3006	0.0636
872.4623	-0.7414
872.6241	-1.3802
872.7858	-0
872.9475	-0
873.1092	-0.0056
873.2709	-0.1184
873.4325	-0
873.5941	-0
873.7557	-0
873.9173	-0.8768
874.0789	1.2064
874.2404	-0
874.4019	0.2473
874.5634	-0.0875
874.7249	-0
874.8863	-0.2621
875.0478	0.2168
875.2092	-0
875.3706	-0.1024
875.5319	-0.1811
875.6933	-0.0449
875.8546	0.2061
876.0159	-0.0841
876.1772	-0
876.3385	0.5883
876.4997	-0
876.6609	-0
876.8221	0.2956
876.9833	0.0617
877.1445	0.5422
877.3056	0.1981
877.4667	-0
877.6278	0.0083
877.7889	0.0886
877.9499	1.1222
878.111	0.2485
878.272	-0.5263
878.433	-0.4994
878.5939	0.6054
878.7549	-0
878.9158	-0.2846
879.0767	-0
879.2376	-0
879.3984	-0.2403
879.5593	-0.2846
879.7201	-0.3822
879.8809	0.0063
880.0417	0.0396
880.2024	1.1589
880.3632	0.4992
880.5239	-0
880.6846	-0.3349
880.8452	0.8558
881.0059	-0.4424
881.1665	0.4786
881.3271	0.7889
881.4877	-0
881.6483	-1.3554
881.8088	-0.0329
881.9693	0.6471
882.1298	0.6471
882.2903	0.6471
