Data from D4ACN5uM480nmA_Absorbance_12-08-00-204.txt Node
Date: Fri Feb 21 12:08:00 GMT 2025
User: LASERRRRR
Spectrometer: FLMT03099
Trigger mode: 0
Integration Time (sec): 1.500000E-2
Scans to average: 1
Electric dark correction enabled: true
Nonlinearity correction enabled: false
Boxcar width: 0
XAxis mode: Wavelengths
Number of Pixels in Spectrum: 3648
>>>>>Begin Spectral Data<<<<<
179.3399	-0
179.5586	-0
179.7771	-0
179.9957	0.2909
180.2143	0.0531
180.4329	1.1559
180.6514	-0
180.8699	-0.3567
181.0885	-0.3895
181.307	0.2772
181.5255	-0.2455
181.744	-0
181.9625	-0
182.181	-0
182.3994	-0
182.6179	-0
182.8363	-0.0151
183.0547	-0
183.2732	0.2349
183.4916	0.5575
183.71	0.1504
183.9284	0.425
184.1467	0.1363
184.3651	0.343
184.5835	0.2203
184.8018	0.5681
185.0201	0.2465
185.2385	0.2213
185.4568	0.2322
185.6751	0.3415
185.8934	0.2214
186.1117	0.0281
186.3299	0.4323
186.5482	-0.0112
186.7664	0.1702
186.9847	0.6187
187.2029	0.1692
187.4211	0.0723
187.6393	0.2305
187.8575	0.0775
188.0757	0.3446
188.2939	0.0419
188.512	0.1779
188.7302	0.3257
188.9483	0.2445
189.1665	0.3381
189.3846	0.1524
189.6027	-0.0493
189.8208	0.27
190.0389	0.3553
190.257	0.1689
190.475	0.2833
190.6931	0.1966
190.9111	0.3775
191.1292	0.2849
191.3472	0.216
191.5652	0.4762
191.7832	0.3505
192.0012	0.3821
192.2192	0.2948
192.4371	0.3891
192.6551	0.3366
192.873	0.3098
193.091	0.2533
193.3089	0.0129
193.5268	0.4115
193.7447	0.3105
193.9626	0.4934
194.1805	0.4239
194.3984	0.4753
194.6162	0.4683
194.8341	0.4945
195.0519	0.4046
195.2697	0.4024
195.4875	0.7444
195.7054	0.473
195.9231	0.4443
196.1409	0.5178
196.3587	0.5513
196.5765	0.4418
196.7942	0.6055
197.012	0.5261
197.2297	0.5269
197.4474	0.7961
197.6651	0.6727
197.8828	0.6661
198.1005	0.6106
198.3182	0.5757
198.5358	0.5668
198.7535	0.6487
198.9711	0.6616
199.1888	0.5976
199.4064	0.5779
199.624	0.6166
199.8416	0.598
200.0592	0.6266
200.2767	0.5944
200.4943	0.5992
200.7119	0.6457
200.9294	0.5701
201.1469	0.5682
201.3645	0.5877
201.582	0.455
201.7995	0.5794
202.017	0.5082
202.2344	0.5624
202.4519	0.5892
202.6694	0.5499
202.8868	0.5833
203.1042	0.58
203.3217	0.5454
203.5391	0.561
203.7565	0.4951
203.9739	0.5219
204.1913	0.5361
204.4086	0.5297
204.626	0.5262
204.8433	0.4882
205.0607	0.4858
205.278	0.5293
205.4953	0.4662
205.7126	0.4812
205.9299	0.4529
206.1472	0.4965
206.3644	0.4607
206.5817	0.4559
206.7989	0.4736
207.0162	0.4279
207.2334	0.466
207.4506	0.4625
207.6678	0.4285
207.885	0.4379
208.1022	0.4713
208.3194	0.4449
208.5365	0.468
208.7537	0.4272
208.9708	0.4459
209.1879	0.4184
209.405	0.4514
209.6222	0.3996
209.8392	0.4732
210.0563	0.4163
210.2734	0.4133
210.4905	0.4182
210.7075	0.4361
210.9245	0.4014
211.1416	0.3945
211.3586	0.4131
211.5756	0.4449
211.7926	0.4189
212.0096	0.4352
212.2265	0.4238
212.4435	0.4171
212.6604	0.4221
212.8774	0.4181
213.0943	0.404
213.3112	0.4019
213.5281	0.4229
213.745	0.3861
213.9619	0.3648
214.1788	0.4284
214.3956	0.4209
214.6125	0.3858
214.8293	0.4392
215.0461	0.411
215.2629	0.4019
215.4798	0.3993
215.6965	0.386
215.9133	0.3954
216.1301	0.4133
216.3469	0.4016
216.5636	0.4242
216.7803	0.4162
216.9971	0.4167
217.2138	0.4179
217.4305	0.4195
217.6472	0.4217
217.8639	0.408
218.0805	0.4137
218.2972	0.4274
218.5138	0.4055
218.7305	0.4286
218.9471	0.4254
219.1637	0.4128
219.3803	0.4017
219.5969	0.4212
219.8135	0.4373
220.0301	0.4258
220.2466	0.4106
220.4632	0.4224
220.6797	0.4278
220.8962	0.4252
221.1127	0.425
221.3292	0.4334
221.5457	0.4233
221.7622	0.4218
221.9787	0.4385
222.1951	0.4307
222.4116	0.4427
222.628	0.4397
222.8444	0.4351
223.0608	0.4484
223.2772	0.4384
223.4936	0.4346
223.71	0.4417
223.9264	0.4362
224.1427	0.4509
224.3591	0.4602
224.5754	0.4627
224.7917	0.4563
225.008	0.4554
225.2243	0.4615
225.4406	0.4616
225.6569	0.4566
225.8732	0.4647
226.0894	0.4838
226.3057	0.4592
226.5219	0.4688
226.7381	0.4666
226.9543	0.4781
227.1705	0.4747
227.3867	0.5006
227.6029	0.4763
227.8191	0.4883
228.0352	0.4985
228.2513	0.4741
228.4675	0.4947
228.6836	0.5134
228.8997	0.4808
229.1158	0.4927
229.3319	0.4931
229.548	0.4863
229.764	0.5092
229.9801	0.4972
230.1961	0.5084
230.4121	0.5109
230.6282	0.5079
230.8442	0.5161
231.0602	0.5175
231.2761	0.5219
231.4921	0.5183
231.7081	0.5136
231.924	0.5227
232.14	0.5133
232.3559	0.523
232.5718	0.5281
232.7877	0.5233
233.0036	0.5074
233.2195	0.5412
233.4353	0.5363
233.6512	0.5368
233.867	0.5386
234.0829	0.5274
234.2987	0.5334
234.5145	0.5398
234.7303	0.5321
234.9461	0.5392
235.1619	0.5315
235.3776	0.5337
235.5934	0.5295
235.8091	0.528
236.0249	0.5373
236.2406	0.5404
236.4563	0.5439
236.672	0.529
236.8877	0.543
237.1034	0.5307
237.319	0.538
237.5347	0.5292
237.7503	0.5496
237.966	0.5353
238.1816	0.5326
238.3972	0.5358
238.6128	0.5398
238.8284	0.5387
239.0439	0.5391
239.2595	0.5344
239.475	0.5242
239.6906	0.533
239.9061	0.5238
240.1216	0.5395
240.3371	0.5224
240.5526	0.5093
240.7681	0.517
240.9836	0.5164
241.199	0.5249
241.4145	0.5101
241.6299	0.4928
241.8453	0.5106
242.0607	0.4945
242.2761	0.4876
242.4915	0.4728
242.7069	0.4645
242.9223	0.4597
243.1376	0.4573
243.353	0.444
243.5683	0.4413
243.7836	0.4219
243.9989	0.4218
244.2142	0.4152
244.4295	0.4045
244.6448	0.3967
244.86	0.3887
245.0753	0.3807
245.2905	0.3801
245.5057	0.3733
245.721	0.3564
245.9362	0.3484
246.1514	0.3361
246.3665	0.3373
246.5817	0.3311
246.7969	0.3205
247.012	0.3319
247.2271	0.3077
247.4423	0.3046
247.6574	0.3173
247.8725	0.2989
248.0876	0.2964
248.3026	0.2874
248.5177	0.2807
248.7328	0.2812
248.9478	0.2687
249.1628	0.2632
249.3779	0.2753
249.5929	0.2619
249.8079	0.2518
250.0228	0.2556
250.2378	0.2561
250.4528	0.244
250.6677	0.2414
250.8827	0.2387
251.0976	0.2401
251.3125	0.2356
251.5274	0.2309
251.7423	0.2299
251.9572	0.2267
252.172	0.2178
252.3869	0.2174
252.6017	0.2186
252.8166	0.2192
253.0314	0.2171
253.2462	0.2144
253.461	0.2107
253.6758	0.2102
253.8906	0.209
254.1053	0.205
254.3201	0.2052
254.5348	0.1955
254.7496	0.2057
254.9643	0.2079
255.179	0.2019
255.3937	0.1972
255.6083	0.2039
255.823	0.1955
256.0377	0.1968
256.2523	0.1966
256.467	0.1944
256.6816	0.1955
256.8962	0.1918
257.1108	0.201
257.3254	0.1917
257.54	0.1956
257.7545	0.1938
257.9691	0.1909
258.1836	0.1896
258.3981	0.1854
258.6127	0.1801
258.8272	0.189
259.0417	0.1776
259.2561	0.1893
259.4706	0.1821
259.6851	0.187
259.8995	0.1834
260.114	0.1907
260.3284	0.183
260.5428	0.1758
260.7572	0.1888
260.9716	0.1813
261.186	0.1842
261.4003	0.1801
261.6147	0.181
261.829	0.1846
262.0433	0.1902
262.2577	0.1889
262.472	0.1834
262.6863	0.1871
262.9005	0.1882
263.1148	0.1767
263.3291	0.184
263.5433	0.1873
263.7576	0.1769
263.9718	0.1864
264.186	0.1914
264.4002	0.1784
264.6144	0.1902
264.8286	0.1895
265.0427	0.1866
265.2569	0.1855
265.471	0.1841
265.6851	0.1846
265.8993	0.1867
266.1134	0.1862
266.3275	0.1794
266.5415	0.1848
266.7556	0.1841
266.9697	0.1911
267.1837	0.1856
267.3978	0.1922
267.6118	0.1833
267.8258	0.1839
268.0398	0.1865
268.2538	0.1834
268.4677	0.1831
268.6817	0.1791
268.8957	0.1831
269.1096	0.1781
269.3235	0.1866
269.5374	0.1765
269.7514	0.1818
269.9652	0.1828
270.1791	0.1789
270.393	0.1835
270.6068	0.1758
270.8207	0.1773
271.0345	0.1806
271.2483	0.1762
271.4622	0.1731
271.676	0.1737
271.8897	0.1694
272.1035	0.1707
272.3173	0.1735
272.531	0.1727
272.7448	0.1703
272.9585	0.1719
273.1722	0.1737
273.3859	0.1658
273.5996	0.173
273.8133	0.167
274.0269	0.1812
274.2406	0.1713
274.4542	0.171
274.6679	0.1672
274.8815	0.1734
275.0951	0.1748
275.3087	0.1795
275.5223	0.171
275.7358	0.1739
275.9494	0.1665
276.1629	0.1765
276.3765	0.1674
276.59	0.1716
276.8035	0.176
277.017	0.1812
277.2305	0.1756
277.444	0.1735
277.6574	0.1779
277.8709	0.173
278.0843	0.1754
278.2978	0.1788
278.5112	0.1824
278.7246	0.179
278.938	0.1777
279.1513	0.1861
279.3647	0.1757
279.5781	0.1762
279.7914	0.1865
280.0047	0.179
280.2181	0.181
280.4314	0.1827
280.6447	0.1872
280.8579	0.178
281.0712	0.1806
281.2845	0.184
281.4977	0.1894
281.711	0.185
281.9242	0.1878
282.1374	0.1823
282.3506	0.1846
282.5638	0.1865
282.7769	0.1832
282.9901	0.1857
283.2033	0.1907
283.4164	0.1881
283.6295	0.184
283.8426	0.1858
284.0557	0.1885
284.2688	0.1918
284.4819	0.1904
284.695	0.1939
284.908	0.1915
285.1211	0.1882
285.3341	0.1966
285.5471	0.1956
285.7601	0.193
285.9731	0.191
286.1861	0.1893
286.3991	0.1937
286.612	0.194
286.825	0.1943
287.0379	0.1993
287.2508	0.1955
287.4637	0.1936
287.6766	0.1972
287.8895	0.1906
288.1024	0.2017
288.3152	0.1981
288.5281	0.1986
288.7409	0.1926
288.9538	0.1955
289.1666	0.1994
289.3794	0.1993
289.5922	0.1994
289.8049	0.205
290.0177	0.1962
290.2304	0.1971
290.4432	0.1992
290.6559	0.1916
290.8686	0.1991
291.0813	0.2071
291.294	0.2015
291.5067	0.2017
291.7194	0.2016
291.932	0.2005
292.1447	0.2005
292.3573	0.2079
292.5699	0.2054
292.7825	0.1994
292.9951	0.2003
293.2077	0.2
293.4203	0.1991
293.6328	0.1934
293.8454	0.1971
294.0579	0.2014
294.2704	0.1998
294.4829	0.2047
294.6954	0.1995
294.9079	0.2026
295.1204	0.1986
295.3328	0.1978
295.5453	0.1987
295.7577	0.1964
295.9701	0.1988
296.1825	0.1975
296.3949	0.2086
296.6073	0.1954
296.8197	0.2018
297.0321	0.1981
297.2444	0.2016
297.4567	0.1969
297.6691	0.1989
297.8814	0.1955
298.0937	0.1972
298.306	0.2023
298.5182	0.2022
298.7305	0.1977
298.9428	0.198
299.155	0.2002
299.3672	0.2027
299.5794	0.1958
299.7916	0.196
300.0038	0.1955
300.216	0.2012
300.4282	0.1983
300.6403	0.1963
300.8525	0.1969
301.0646	0.197
301.2767	0.1972
301.4888	0.1971
301.7009	0.2007
301.913	0.2037
302.125	0.1987
302.3371	0.2011
302.5491	0.2009
302.7612	0.1963
302.9732	0.1966
303.1852	0.2002
303.3972	0.1945
303.6092	0.1949
303.8211	0.1896
304.0331	0.1962
304.245	0.1932
304.457	0.1909
304.6689	0.1978
304.8808	0.1918
305.0927	0.1956
305.3046	0.1823
305.5164	0.1921
305.7283	0.1928
305.9401	0.1848
306.152	0.1803
306.3638	0.1798
306.5756	0.1831
306.7874	0.1819
306.9992	0.1803
307.2109	0.1788
307.4227	0.1712
307.6344	0.1777
307.8462	0.1701
308.0579	0.1727
308.2696	0.1653
308.4813	0.1578
308.693	0.1615
308.9046	0.1615
309.1163	0.1618
309.328	0.1554
309.5396	0.1601
309.7512	0.1582
309.9628	0.1551
310.1744	0.1534
310.386	0.1506
310.5976	0.1441
310.8091	0.1464
311.0207	0.1417
311.2322	0.1468
311.4437	0.1433
311.6552	0.1442
311.8667	0.143
312.0782	0.1374
312.2897	0.1394
312.5012	0.1375
312.7126	0.1364
312.924	0.134
313.1355	0.1275
313.3469	0.1332
313.5583	0.1308
313.7696	0.1291
313.981	0.1266
314.1924	0.1312
314.4037	0.1238
314.6151	0.1235
314.8264	0.1262
315.0377	0.1304
315.249	0.1246
315.4603	0.1176
315.6716	0.1193
315.8828	0.1283
316.0941	0.1234
316.3053	0.1169
316.5165	0.1199
316.7277	0.1212
316.9389	0.121
317.1501	0.1188
317.3613	0.1205
317.5724	0.1181
317.7836	0.1209
317.9947	0.1094
318.2058	0.118
318.417	0.1123
318.6281	0.1144
318.8391	0.119
319.0502	0.1181
319.2613	0.1161
319.4723	0.1136
319.6834	0.1154
319.8944	0.1239
320.1054	0.1158
320.3164	0.1188
320.5274	0.1103
320.7383	0.1107
320.9493	0.1162
321.1602	0.1156
321.3712	0.1228
321.5821	0.1194
321.793	0.117
322.0039	0.1191
322.2148	0.116
322.4257	0.1174
322.6365	0.113
322.8474	0.112
323.0582	0.1187
323.269	0.1156
323.4798	0.1265
323.6906	0.1183
323.9014	0.119
324.1122	0.1178
324.3229	0.1215
324.5337	0.1202
324.7444	0.1144
324.9551	0.1199
325.1658	0.1155
325.3765	0.1183
325.5872	0.1187
325.7979	0.1153
326.0085	0.1159
326.2192	0.1212
326.4298	0.1225
326.6404	0.1196
326.851	0.1175
327.0616	0.1261
327.2722	0.1274
327.4828	0.1176
327.6933	0.1184
327.9039	0.1255
328.1144	0.1224
328.3249	0.1257
328.5354	0.1233
328.7459	0.1212
328.9564	0.1227
329.1669	0.1235
329.3773	0.1244
329.5878	0.1254
329.7982	0.1193
330.0086	0.1261
330.219	0.1261
330.4294	0.1283
330.6398	0.1228
330.8502	0.1211
331.0605	0.1242
331.2708	0.1237
331.4812	0.1225
331.6915	0.1192
331.9018	0.1224
332.1121	0.1267
332.3224	0.1278
332.5326	0.1278
332.7429	0.1258
332.9531	0.1257
333.1633	0.1254
333.3735	0.1235
333.5837	0.1252
333.7939	0.1236
334.0041	0.1243
334.2143	0.1248
334.4244	0.1218
334.6346	0.1233
334.8447	0.1264
335.0548	0.1327
335.2649	0.1275
335.475	0.1246
335.685	0.1273
335.8951	0.1278
336.1051	0.1344
336.3152	0.1203
336.5252	0.1281
336.7352	0.1168
336.9452	0.1311
337.1552	0.1266
337.3652	0.1322
337.5751	0.124
337.7851	0.1296
337.995	0.1264
338.2049	0.1323
338.4148	0.1337
338.6247	0.1298
338.8346	0.1304
339.0445	0.1323
339.2543	0.1352
339.4642	0.1312
339.674	0.1349
339.8838	0.1284
340.0936	0.1296
340.3034	0.1411
340.5132	0.1288
340.7229	0.1345
340.9327	0.1354
341.1424	0.1307
341.3522	0.1385
341.5619	0.1315
341.7716	0.1357
341.9813	0.139
342.1909	0.1426
342.4006	0.1416
342.6102	0.1354
342.8199	0.1384
343.0295	0.1367
343.2391	0.1452
343.4487	0.1456
343.6583	0.1508
343.8679	0.143
344.0774	0.1415
344.287	0.1483
344.4965	0.1418
344.706	0.1464
344.9155	0.1463
345.125	0.1541
345.3345	0.1502
345.544	0.1539
345.7534	0.1469
345.9629	0.1573
346.1723	0.1485
346.3817	0.1525
346.5911	0.1553
346.8005	0.1443
347.0099	0.1516
347.2193	0.1508
347.4286	0.1515
347.638	0.1545
347.8473	0.1547
348.0566	0.1566
348.2659	0.1586
348.4752	0.1546
348.6845	0.1589
348.8937	0.1642
349.103	0.162
349.3122	0.1544
349.5214	0.1572
349.7306	0.1547
349.9398	0.1592
350.149	0.1658
350.3582	0.1674
350.5674	0.1668
350.7765	0.1661
350.9856	0.1604
351.1948	0.1577
351.4039	0.1651
351.613	0.1739
351.822	0.1742
352.0311	0.1652
352.2402	0.1714
352.4492	0.1723
352.6582	0.1669
352.8672	0.1738
353.0762	0.1727
353.2852	0.1759
353.4942	0.1717
353.7032	0.1709
353.9121	0.172
354.1211	0.1735
354.33	0.1855
354.5389	0.1811
354.7478	0.1804
354.9567	0.1818
355.1655	0.1857
355.3744	0.1763
355.5833	0.1863
355.7921	0.1826
356.0009	0.1711
356.2097	0.1875
356.4185	0.19
356.6273	0.1839
356.8361	0.1949
357.0448	0.1913
357.2536	0.1923
357.4623	0.1833
357.671	0.1897
357.8797	0.1931
358.0884	0.1878
358.2971	0.1937
358.5057	0.1869
358.7144	0.2011
358.923	0.1999
359.1316	0.1974
359.3402	0.1968
359.5488	0.201
359.7574	0.1979
359.966	0.2071
360.1746	0.2022
360.3831	0.2105
360.5916	0.201
360.8002	0.2101
361.0087	0.2149
361.2172	0.2082
361.4256	0.2025
361.6341	0.2092
361.8426	0.2083
362.051	0.21
362.2594	0.2133
362.4678	0.2163
362.6762	0.2169
362.8846	0.2201
363.093	0.2197
363.3014	0.2235
363.5097	0.2173
363.718	0.2262
363.9264	0.2225
364.1347	0.2289
364.343	0.2269
364.5513	0.2297
364.7595	0.2282
364.9678	0.2335
365.176	0.2232
365.3842	0.2334
365.5925	0.2317
365.8007	0.2325
366.0089	0.2335
366.217	0.2452
366.4252	0.2365
366.6333	0.2291
366.8415	0.2342
367.0496	0.2399
367.2577	0.247
367.4658	0.2427
367.6739	0.2373
367.882	0.2432
368.09	0.2452
368.2981	0.2509
368.5061	0.2406
368.7141	0.2514
368.9221	0.2547
369.1301	0.2543
369.3381	0.254
369.5461	0.2492
369.754	0.2562
369.962	0.2609
370.1699	0.258
370.3778	0.2558
370.5857	0.2528
370.7936	0.2709
371.0015	0.25
371.2093	0.2577
371.4172	0.26
371.625	0.2584
371.8328	0.2695
372.0406	0.2612
372.2484	0.2596
372.4562	0.2666
372.664	0.2692
372.8717	0.2692
373.0795	0.2705
373.2872	0.2705
373.4949	0.2709
373.7026	0.2829
373.9103	0.2591
374.118	0.2764
374.3256	0.2824
374.5333	0.2759
374.7409	0.2736
374.9485	0.2703
375.1561	0.2844
375.3637	0.27
375.5713	0.2793
375.7789	0.279
375.9864	0.2772
376.194	0.2959
376.4015	0.2784
376.609	0.2838
376.8165	0.2877
377.024	0.2811
377.2315	0.2919
377.4389	0.2836
377.6464	0.2859
377.8538	0.2822
378.0612	0.2839
378.2686	0.2904
378.476	0.2891
378.6834	0.2901
378.8908	0.2861
379.0981	0.2991
379.3055	0.2968
379.5128	0.3014
379.7201	0.2868
379.9274	0.2894
380.1347	0.3034
380.342	0.3054
380.5492	0.2932
380.7565	0.3044
380.9637	0.3017
381.1709	0.298
381.3781	0.3022
381.5853	0.3034
381.7925	0.3065
381.9997	0.3063
382.2068	0.296
382.4139	0.3118
382.6211	0.314
382.8282	0.3041
383.0353	0.2997
383.2424	0.3107
383.4494	0.3134
383.6565	0.3171
383.8635	0.3193
384.0706	0.3146
384.2776	0.3162
384.4846	0.3163
384.6916	0.3102
384.8986	0.3149
385.1055	0.3082
385.3125	0.3153
385.5194	0.2999
385.7263	0.3105
385.9333	0.3085
386.1402	0.3195
386.347	0.3148
386.5539	0.3225
386.7608	0.3116
386.9676	0.3034
387.1744	0.3144
387.3813	0.3113
387.5881	0.3233
387.7948	0.311
388.0016	0.3168
388.2084	0.3164
388.4151	0.3145
388.6219	0.3106
388.8286	0.3158
389.0353	0.3122
389.242	0.3022
389.4487	0.3119
389.6553	0.2947
389.862	0.307
390.0686	0.3168
390.2753	0.3082
390.4819	0.3086
390.6885	0.2978
390.8951	0.3131
391.1016	0.3144
391.3082	0.299
391.5147	0.2943
391.7213	0.2914
391.9278	0.303
392.1343	0.2937
392.3408	0.2902
392.5473	0.2824
392.7537	0.2964
392.9602	0.2923
393.1666	0.2924
393.373	0.298
393.5794	0.2957
393.7858	0.2807
393.9922	0.2911
394.1986	0.2786
394.4049	0.2849
394.6113	0.2937
394.8176	0.2748
395.0239	0.2893
395.2302	0.2661
395.4365	0.2848
395.6428	0.2822
395.8491	0.2728
396.0553	0.2783
396.2615	0.2703
396.4678	0.2763
396.674	0.2738
396.8802	0.2664
397.0863	0.2767
397.2925	0.2659
397.4987	0.2719
397.7048	0.282
397.9109	0.2774
398.117	0.2732
398.3231	0.2731
398.5292	0.2741
398.7353	0.2719
398.9413	0.2742
399.1474	0.2747
399.3534	0.2726
399.5594	0.276
399.7654	0.2762
399.9714	0.2656
400.1774	0.2626
400.3833	0.264
400.5893	0.2668
400.7952	0.2705
401.0011	0.2595
401.207	0.2741
401.4129	0.2618
401.6188	0.2637
401.8247	0.2709
402.0305	0.2663
402.2364	0.2767
402.4422	0.2805
402.648	0.2807
402.8538	0.2761
403.0596	0.2611
403.2654	0.2571
403.4711	0.268
403.6768	0.2697
403.8826	0.2695
404.0883	0.2621
404.294	0.2712
404.4997	0.2634
404.7054	0.2626
404.911	0.2653
405.1167	0.2703
405.3223	0.27
405.5279	0.2713
405.7335	0.2602
405.9391	0.2587
406.1447	0.2709
406.3502	0.2653
406.5558	0.2761
406.7613	0.2664
406.9668	0.2626
407.1724	0.2701
407.3778	0.2664
407.5833	0.2621
407.7888	0.268
407.9942	0.2663
408.1997	0.2729
408.4051	0.2657
408.6105	0.2707
408.8159	0.2779
409.0213	0.2702
409.2267	0.2632
409.432	0.2661
409.6374	0.2751
409.8427	0.2679
410.048	0.2743
410.2533	0.2722
410.4586	0.2701
410.6639	0.2756
410.8691	0.2786
411.0744	0.2626
411.2796	0.2727
411.4848	0.2679
411.69	0.2638
411.8952	0.272
412.1004	0.2664
412.3056	0.2709
412.5107	0.2755
412.7158	0.2716
412.921	0.262
413.1261	0.2689
413.3312	0.257
413.5362	0.2597
413.7413	0.2586
413.9464	0.2717
414.1514	0.2647
414.3564	0.2633
414.5614	0.2569
414.7664	0.2556
414.9714	0.2685
415.1764	0.2583
415.3813	0.2537
415.5863	0.2488
415.7912	0.2548
415.9961	0.2656
416.201	0.2627
416.4059	0.255
416.6108	0.2587
416.8156	0.2496
417.0205	0.2565
417.2253	0.2717
417.4301	0.2704
417.6349	0.2614
417.8397	0.2579
418.0445	0.2614
418.2492	0.2681
418.454	0.265
418.6587	0.2656
418.8634	0.2601
419.0681	0.2496
419.2728	0.2539
419.4775	0.2559
419.6822	0.2496
419.8868	0.2592
420.0915	0.2583
420.2961	0.2539
420.5007	0.2579
420.7053	0.254
420.9099	0.2469
421.1144	0.24
421.319	0.2448
421.5235	0.2412
421.728	0.2346
421.9325	0.2473
422.137	0.2392
422.3415	0.2443
422.546	0.2397
422.7504	0.2419
422.9549	0.2396
423.1593	0.2401
423.3637	0.2339
423.5681	0.2387
423.7725	0.2364
423.9769	0.2409
424.1812	0.2385
424.3856	0.2357
424.5899	0.2324
424.7942	0.2374
424.9985	0.2343
425.2028	0.229
425.4071	0.2213
425.6113	0.2275
425.8156	0.2304
426.0198	0.223
426.224	0.2268
426.4282	0.214
426.6324	0.2208
426.8366	0.2194
427.0407	0.2182
427.2449	0.2161
427.449	0.2186
427.6531	0.2211
427.8572	0.2182
428.0613	0.2209
428.2654	0.2139
428.4694	0.2061
428.6735	0.2071
428.8775	0.2126
429.0815	0.2114
429.2855	0.2018
429.4895	0.204
429.6935	0.1926
429.8975	0.2064
430.1014	0.1877
430.3053	0.1908
430.5093	0.2078
430.7132	0.1939
430.9171	0.1837
431.1209	0.194
431.3248	0.1846
431.5286	0.179
431.7325	0.1941
431.9363	0.1855
432.1401	0.1837
432.3439	0.1754
432.5477	0.1822
432.7514	0.177
432.9552	0.1757
433.1589	0.1724
433.3627	0.1756
433.5664	0.1684
433.7701	0.1708
433.9737	0.1683
434.1774	0.1704
434.3811	0.1627
434.5847	0.1584
434.7883	0.1643
434.9919	0.1503
435.1955	0.166
435.3991	0.1559
435.6027	0.147
435.8062	0.1565
436.0098	0.1601
436.2133	0.145
436.4168	0.1438
436.6203	0.1371
436.8238	0.1365
437.0272	0.136
437.2307	0.1322
437.4341	0.1333
437.6375	0.1293
437.841	0.1319
438.0443	0.1276
438.2477	0.1286
438.4511	0.1273
438.6545	0.1302
438.8578	0.1254
439.0611	0.1313
439.2644	0.1144
439.4677	0.1175
439.671	0.1109
439.8743	0.1118
440.0775	0.1064
440.2808	0.1201
440.484	0.1164
440.6872	0.1117
440.8904	0.1153
441.0936	0.1096
441.2967	0.0982
441.4999	0.1037
441.703	0.1027
441.9062	0.1066
442.1093	0.0964
442.3124	0.1024
442.5155	0.1027
442.7185	0.0828
442.9216	0.0903
443.1246	0.0928
443.3276	0.0843
443.5307	0.0838
443.7337	0.087
443.9366	0.0876
444.1396	0.079
444.3426	0.0881
444.5455	0.0743
444.7484	0.0747
444.9513	0.0789
445.1542	0.0755
445.3571	0.0698
445.56	0.0747
445.7628	0.0723
445.9657	0.0731
446.1685	0.0829
446.3713	0.0768
446.5741	0.0607
446.7769	0.0717
446.9797	0.068
447.1824	0.063
447.3852	0.0596
447.5879	0.0598
447.7906	0.0655
447.9933	0.0601
448.196	0.0567
448.3986	0.0614
448.6013	0.0524
448.8039	0.0493
449.0066	0.0593
449.2092	0.0504
449.4118	0.0499
449.6143	0.0532
449.8169	0.0554
450.0195	0.0517
450.222	0.0402
450.4245	0.0506
450.627	0.0513
450.8295	0.0419
451.032	0.0471
451.2345	0.0487
451.4369	0.0492
451.6394	0.0444
451.8418	0.0358
452.0442	0.0455
452.2466	0.0429
452.449	0.0329
452.6513	0.045
452.8537	0.041
453.056	0.0402
453.2583	0.0385
453.4607	0.0308
453.663	0.0364
453.8652	0.0292
454.0675	0.0396
454.2697	0.029
454.472	0.0217
454.6742	0.0207
454.8764	0.0279
455.0786	0.0295
455.2808	0.0317
455.4829	0.031
455.6851	0.0367
455.8872	0.0371
456.0893	0.0307
456.2915	0.02
456.4935	0.0224
456.6956	0.0209
456.8977	0.0245
457.0997	0.0196
457.3018	0.0226
457.5038	0.0263
457.7058	0.0192
457.9078	0.0315
458.1098	0.0305
458.3117	0.0247
458.5137	0.0226
458.7156	0.0324
458.9175	0.0204
459.1194	0.0219
459.3213	0.0186
459.5232	0.0161
459.725	0.0158
459.9269	0.0237
460.1287	0.0072
460.3305	0.0102
460.5323	0.0206
460.7341	0.0113
460.9359	0.0199
461.1376	0.0173
461.3394	0.0102
461.5411	0.0147
461.7428	0.0173
461.9445	0.0118
462.1462	0.0116
462.3479	0.0144
462.5495	0.0143
462.7512	0.0064
462.9528	0.0173
463.1544	0.0149
463.356	0.0196
463.5576	0.0115
463.7592	0.0096
463.9607	0.0112
464.1623	0.0145
464.3638	0.0091
464.5653	0.0243
464.7668	0.0123
464.9683	0.0128
465.1697	0.0133
465.3712	0.011
465.5726	0.013
465.7741	0.0118
465.9755	0.0102
466.1769	0.0015
466.3782	0.0078
466.5796	0.0108
466.7809	0.015
466.9823	0.005
467.1836	0.0195
467.3849	0.0099
467.5862	-0.002
467.7875	0.0108
467.9887	0.0093
468.19	0.0088
468.3912	0.0152
468.5924	0.019
468.7936	0.0005
468.9948	0.0153
469.196	0.0063
469.3972	0.0153
469.5983	0.0045
469.7994	0.0042
470.0006	0.0006
470.2017	0.0118
470.4027	0.0016
470.6038	-0.0037
470.8049	-0.0001
471.0059	0.0085
471.2069	0.0111
471.408	0.0069
471.6089	0.0029
471.8099	0.0053
472.0109	0.0079
472.2119	0.0168
472.4128	0.0009
472.6137	0.003
472.8146	0.0019
473.0155	0.0005
473.2164	0.0022
473.4173	0.0068
473.6181	0.0045
473.819	0.0023
474.0198	0.0076
474.2206	0.0067
474.4214	0.0168
474.6222	0.0088
474.8229	0.0036
475.0237	0.0038
475.2244	0.0112
475.4251	0.0024
475.6258	0.0111
475.8265	-0.0014
476.0272	0.0021
476.2278	0.0075
476.4285	0.0034
476.6291	0.0119
476.8297	0.0014
477.0303	0.012
477.2309	-0.0027
477.4315	0.0079
477.632	-0
477.8326	0.0046
478.0331	-0.0045
478.2336	0.0091
478.4341	0.0025
478.6346	0.0015
478.8351	0.0122
479.0355	0.0049
479.236	0.0001
479.4364	-0.0047
479.6368	0.005
479.8372	0.0076
480.0376	-0.0031
480.2379	0.0007
480.4383	-0.0017
480.6386	0.0035
480.8389	0.007
481.0392	0.009
481.2395	0.0069
481.4398	0.0086
481.6401	0.0038
481.8403	-0.0061
482.0405	-0.0011
482.2408	0.0003
482.441	0.0027
482.6411	-0.0008
482.8413	-0.0142
483.0415	0.0059
483.2416	-0.0034
483.4417	0.0034
483.6419	0.0031
483.8419	0.0069
484.042	0.0106
484.2421	-0.0023
484.4422	0.0077
484.6422	0.0109
484.8422	0.004
485.0422	0.0056
485.2422	0.0031
485.4422	-0.0002
485.6422	-0.002
485.8421	-0.0006
486.042	0.0061
486.242	0.0015
486.4419	0.0031
486.6417	0.0004
486.8416	0.0051
487.0415	-0.0016
487.2413	0.0057
487.4411	0.0032
487.641	0.006
487.8408	0.0045
488.0405	0.006
488.2403	-0.0041
488.4401	-0.0006
488.6398	0.0063
488.8395	0.0059
489.0392	0.0034
489.2389	-0.0019
489.4386	0.0064
489.6383	0.001
489.8379	-0.0028
490.0376	0.0085
490.2372	0.004
490.4368	0.0077
490.6364	0.008
490.836	0.0012
491.0355	-0.0003
491.2351	0.0062
491.4346	0.0075
491.6341	-0.0042
491.8336	-0.006
492.0331	-0.0023
492.2326	-0.0036
492.432	0.0065
492.6315	-0.0042
492.8309	0.0058
493.0303	-0.0061
493.2297	-0.0051
493.4291	-0.0073
493.6284	0.005
493.8278	0.0047
494.0271	0.0016
494.2264	-0.0004
494.4257	0.0031
494.625	-0.007
494.8243	0.0074
495.0236	0.0043
495.2228	-0
495.422	0.0074
495.6213	0.002
495.8205	-0.0005
496.0196	0.0075
496.2188	0.0061
496.418	-0.0138
496.6171	0.003
496.8162	0.0054
497.0153	-0.0027
497.2144	-0.0006
497.4135	0.0091
497.6126	-0.0004
497.8116	0.0025
498.0107	-0.0039
498.2097	0.0091
498.4087	-0.0001
498.6077	0.0066
498.8067	0.0043
499.0056	-0.0017
499.2046	-0.0025
499.4035	-0.0031
499.6024	-0.0041
499.8013	0.0029
500.0002	0.0054
500.199	0.0001
500.3979	0.0081
500.5967	-0.0003
500.7956	0.0024
500.9944	0.0028
501.1932	0.0023
501.3919	0.0043
501.5907	0.0002
501.7895	-0.0011
501.9882	-0.0039
502.1869	0.0022
502.3856	0.0004
502.5843	0.0001
502.783	0.0094
502.9816	-0.0054
503.1803	0.0107
503.3789	0.0032
503.5775	0.0023
503.7761	-0.0003
503.9747	0.0059
504.1732	0.0032
504.3718	-0.0029
504.5703	-0.0021
504.7689	-0.0007
504.9674	0.0014
505.1658	0.0126
505.3643	0.0086
505.5628	0.0021
505.7612	0.0099
505.9597	0.0043
506.1581	-0.0088
506.3565	-0.0078
506.5549	0.0038
506.7532	0.0059
506.9516	0.0039
507.1499	0.004
507.3482	0.0087
507.5465	0.0007
507.7448	-0.0026
507.9431	-0.0053
508.1414	-0.0033
508.3396	0.0065
508.5379	0.0088
508.7361	0.0108
508.9343	0.0088
509.1325	-0.0005
509.3306	-0.0002
509.5288	0.0066
509.7269	-0.0037
509.9251	-0.0072
510.1232	-0.0052
510.3213	-0
510.5193	-0.0001
510.7174	-0.0037
510.9154	0.0047
511.1135	0.0008
511.3115	-0.0034
511.5095	0.0124
511.7075	-0.0104
511.9055	0.0061
512.1034	0.0013
512.3014	-0.0047
512.4993	-0.0045
512.6972	-0.0006
512.8951	0.0023
513.093	0.0012
513.2908	-0.0018
513.4887	0.0106
513.6865	0.0012
513.8844	0.0067
514.0822	0.0017
514.2799	0.0025
514.4777	0.0115
514.6755	0.003
514.8732	0.0009
515.0709	0.0054
515.2687	0.0043
515.4664	-0.0068
515.664	0.0051
515.8617	0.0088
516.0594	0.0072
516.257	0.0038
516.4546	-0.0095
516.6522	0.0093
516.8498	-0.0004
517.0474	0.0007
517.2449	0.0018
517.4425	0.0014
517.64	0.0021
517.8375	0.006
518.035	-0.0011
518.2325	-0.0024
518.43	-0.0038
518.6274	-0.0107
518.8249	0.0038
519.0223	-0.0088
519.2197	-0.0121
519.4171	0.0018
519.6145	0.0044
519.8118	0.0022
520.0092	0.0007
520.2065	-0.0011
520.4038	0.0049
520.6011	0.0076
520.7984	0.0023
520.9956	-0.0049
521.1929	0.0078
521.3901	0.0083
521.5874	-0.0002
521.7846	0.0001
521.9818	-0.0068
522.1789	0.0084
522.3761	0.0022
522.5732	-0.0022
522.7704	0.0135
522.9675	-0.0006
523.1646	0.0065
523.3617	0.0008
523.5587	0.0044
523.7558	0.0076
523.9528	0.0025
524.1498	-0.0086
524.3468	-0.009
524.5438	-0.0052
524.7408	-0.0082
524.9378	0.0036
525.1347	0.0148
525.3316	0.0061
525.5285	-0.0024
525.7254	-0.0067
525.9223	0.0004
526.1192	-0.0015
526.316	-0.0106
526.5129	0.0117
526.7097	-0.0005
526.9065	0.0098
527.1033	0.001
527.3	-0.0135
527.4968	-0.0054
527.6935	0.0017
527.8903	0.0069
528.087	-0.0008
528.2837	-0.0033
528.4804	0.0004
528.677	0.0005
528.8737	-0.0025
529.0703	-0.0023
529.2669	-0.0027
529.4635	0.0155
529.6601	0.0014
529.8567	0.0089
530.0532	-0.0017
530.2498	-0.0072
530.4463	0.008
530.6428	0
530.8393	-0.0004
531.0358	0.0007
531.2322	0.0082
531.4287	-0.0036
531.6251	-0.004
531.8215	-0.0011
532.0179	0.001
532.2143	0.008
532.4107	-0.0049
532.607	0.0036
532.8034	0.0048
532.9997	0.0064
533.196	0.0158
533.3923	-0.002
533.5886	-0.0021
533.7848	-0.0145
533.9811	-0.0068
534.1773	-0.0006
534.3735	0.0093
534.5697	0.0079
534.7659	-0.0053
534.9621	0.0116
535.1582	0.0028
535.3544	0.0093
535.5505	-0.0064
535.7466	-0.0099
535.9427	0.0003
536.1387	0.002
536.3348	0.0067
536.5308	0.0112
536.7269	-0.0009
536.9229	-0.0027
537.1189	0.0069
537.3148	-0.005
537.5108	-0.0042
537.7068	0.001
537.9027	0.0086
538.0986	0.0054
538.2945	-0.0013
538.4904	-0.0109
538.6863	0.0138
538.8821	-0.0077
539.078	0.0008
539.2738	-0.0085
539.4696	0.0097
539.6654	0.0028
539.8611	0.0029
540.0569	0.0022
540.2526	0.0001
540.4484	-0.0009
540.6441	-0.0008
540.8398	-0.0048
541.0355	0.005
541.2311	0.0081
541.4268	0.0027
541.6224	0.0044
541.818	-0.0111
542.0136	-0.0042
542.2092	0.0068
542.4048	0.0026
542.6003	0.0002
542.7959	-0.0036
542.9914	-0.001
543.1869	-0.0022
543.3824	-0.0019
543.5779	0.0081
543.7734	0.0011
543.9688	-0.0028
544.1642	0.0001
544.3596	-0.0043
544.555	-0.0012
544.7504	-0.0015
544.9458	-0.0102
545.1411	-0.0061
545.3365	0.0035
545.5318	-0.0014
545.7271	0.0022
545.9224	-0.0046
546.1177	0.0034
546.3129	-0.0063
546.5081	-0.0005
546.7034	-0.006
546.8986	-0.0092
547.0938	0.0028
547.289	0.002
547.4841	-0.0059
547.6793	-0.0077
547.8744	0.0006
548.0695	0.0021
548.2646	-0.0107
548.4597	-0.0052
548.6548	0.0107
548.8498	-0.0006
549.0448	0.0008
549.2399	-0.007
549.4349	0.0099
549.6298	-0.0025
549.8248	-0.0107
550.0198	0.0109
550.2147	-0.003
550.4096	-0.007
550.6045	0.0021
550.7994	-0.0014
550.9943	0.0071
551.1892	-0.0036
551.384	0.004
551.5788	0.0109
551.7737	0.0001
551.9685	0.0081
552.1632	0.0057
552.358	-0.005
552.5528	0.0018
552.7475	-0.0069
552.9422	0.0071
553.1369	0.0083
553.3316	-0.0044
553.5263	-0.0021
553.7209	-0.0025
553.9156	0.0059
554.1102	-0.0007
554.3048	0
554.4994	0.0064
554.694	0.0033
554.8885	0.0089
555.0831	0.0096
555.2776	-0.0015
555.4721	-0.009
555.6666	0.0034
555.8611	-0.0045
556.0555	0.0047
556.25	0.0013
556.4444	0.0017
556.6388	0.0022
556.8332	-0.0035
557.0276	-0.0005
557.222	-0.01
557.4163	0.0075
557.6107	-0.0023
557.805	-0.0067
557.9993	-0.002
558.1936	0.0097
558.3879	0.0009
558.5821	-0.0033
558.7764	0.0091
558.9706	0.0061
559.1648	-0.001
559.359	0.0067
559.5532	-0.009
559.7473	0.0105
559.9415	0.0031
560.1356	-0.0021
560.3297	0.0037
560.5238	0.0019
560.7179	-0.0036
560.9119	0.0052
561.106	-0.0057
561.3	-0.0033
561.494	0.0034
561.688	0.0026
561.882	0.0006
562.076	0.0049
562.2699	0.0077
562.4639	0.0003
562.6578	0.0142
562.8517	0.0014
563.0456	-0.0042
563.2395	-0.0009
563.4333	0.0034
563.6272	0.0106
563.821	0.0138
564.0148	-0.0046
564.2086	0.0099
564.4024	-0.0052
564.5961	-0.006
564.7899	-0.0022
564.9836	-0
565.1773	0.0063
565.371	-0.0015
565.5647	-0.0053
565.7584	0.0068
565.952	0.0008
566.1456	0.0019
566.3393	0.0039
566.5329	-0.0033
566.7264	0.0052
566.92	0.0002
567.1136	-0.0005
567.3071	-0.0003
567.5006	-0.0072
567.6941	0.0087
567.8876	0.0064
568.0811	-0.0033
568.2745	0.006
568.468	0.0051
568.6614	0.0091
568.8548	0.0034
569.0482	0.0058
569.2416	-0.0012
569.4349	0.0038
569.6283	0.0012
569.8216	0.0013
570.0149	0.0017
570.2082	-0.0022
570.4015	0.0078
570.5947	-0.0022
570.788	0.0014
570.9812	0.0032
571.1744	-0.0024
571.3676	-0.0039
571.5608	-0.0045
571.754	-0.0009
571.9471	0.0035
572.1402	-0.0036
572.3333	0.0041
572.5264	0.004
572.7195	0.0066
572.9126	0.0004
573.1057	0.0017
573.2987	0.0011
573.4917	0.0043
573.6847	0.0007
573.8777	0.0013
574.0707	0.0016
574.2636	0.0021
574.4566	0.0001
574.6495	0.0048
574.8424	-0.0002
575.0353	0.0011
575.2281	-0.0016
575.421	-0.0017
575.6138	-0.0045
575.8067	0.002
575.9995	0.0037
576.1923	0.0026
576.385	-0.0011
576.5778	-0.0026
576.7706	0.0039
576.9633	0.004
577.156	0.0022
577.3487	0.0019
577.5414	0.0007
577.734	-0.0029
577.9267	-0.0024
578.1193	0.0017
578.3119	-0.0032
578.5045	-0.0032
578.6971	-0.0044
578.8897	0.0049
579.0822	0.0015
579.2747	-0.0062
579.4673	0.001
579.6598	-0.0015
579.8522	0.0053
580.0447	-0.0013
580.2372	0.0019
580.4296	-0.0034
580.622	0.0012
580.8144	-0.0015
581.0068	-0.0012
581.1992	0.0008
581.3915	0.0002
581.5839	0.0025
581.7762	0.0032
581.9685	-0.0003
582.1608	0.0021
582.353	-0.0001
582.5453	0.0026
582.7375	0.0009
582.9298	-0.0038
583.122	0.0013
583.3142	0.0068
583.5063	-0.0018
583.6985	-0.0025
583.8906	-0.0023
584.0827	-0.003
584.2749	0.0075
584.4669	-0.0031
584.659	-0.003
584.8511	0.0005
585.0431	0.0001
585.2352	-0.0034
585.4272	-0.0031
585.6192	-0.0009
585.8111	-0.005
586.0031	0.0027
586.195	0.0034
586.387	0.0019
586.5789	0.0015
586.7708	0.0027
586.9627	0.0012
587.1545	0.0018
587.3464	0.003
587.5382	0.0008
587.73	0
587.9218	-0.0023
588.1136	-0.0033
588.3053	-0.0006
588.4971	0.0066
588.6888	0.0007
588.8805	0.005
589.0722	0.0069
589.2639	0.0002
589.4556	-0.0058
589.6472	-0.004
589.8389	0.0012
590.0305	0.0029
590.2221	0.0027
590.4137	-0.006
590.6052	-0.0011
590.7968	0.0053
590.9883	0.0024
591.1798	-0.0096
591.3713	0.0009
591.5628	0.0017
591.7543	-0.0007
591.9458	0.0029
592.1372	-0.0011
592.3286	-0.0056
592.52	-0.0035
592.7114	-0.0054
592.9028	-0.005
593.0941	-0.0017
593.2855	0.001
593.4768	0.0016
593.6681	0.0009
593.8594	-0.0067
594.0506	0.0028
594.2419	-0.0023
594.4331	-0.0023
594.6244	0.0041
594.8156	-0.003
595.0067	0.0044
595.1979	-0.003
595.3891	-0.0015
595.5802	0.0001
595.7713	0.0017
595.9624	0.0068
596.1535	-0.0052
596.3446	0.0034
596.5357	0.0017
596.7267	0.0043
596.9177	0.0003
597.1087	0.001
597.2997	0.0007
597.4907	-0.0026
597.6817	0.0017
597.8726	0.0016
598.0635	-0.0006
598.2544	-0.0021
598.4453	-0.0029
598.6362	-0.0053
598.827	0.002
599.0179	0.0014
599.2087	0.001
599.3995	0.0038
599.5903	0.0034
599.7811	-0
599.9718	0.001
600.1626	0.0016
600.3533	-0.0052
600.544	0.0028
600.7347	0.0021
600.9254	0.002
601.116	0.0009
601.3067	0.0031
601.4973	0.0114
601.6879	-0.004
601.8785	-0.0033
602.0691	-0.0044
602.2596	-0.004
602.4502	-0.0005
602.6407	0.0042
602.8312	-0.0057
603.0217	0.0046
603.2122	0.0018
603.4027	-0.005
603.5931	0.001
603.7835	-0.0045
603.9739	0.0002
604.1643	0.0037
604.3547	0.0005
604.5451	0.0118
604.7354	-0.0024
604.9257	-0.001
605.116	0.0031
605.3063	0.0015
605.4966	0.0036
605.6869	0.0042
605.8771	0.0024
606.0673	-0.0057
606.2575	0.0004
606.4477	0.0053
606.6379	-0.001
606.8281	0.0007
607.0182	0.0007
607.2083	-0.0007
607.3985	0.0035
607.5885	-0.0004
607.7786	0.004
607.9687	-0.0026
608.1587	-0.0005
608.3488	-0.0002
608.5388	0.0034
608.7288	-0.006
608.9187	0.0031
609.1087	0.0056
609.2986	-0.0033
609.4886	0.0032
609.6785	-0.0012
609.8684	-0.0061
610.0582	0.0047
610.2481	0.0004
610.4379	-0.0011
610.6278	-0.0008
610.8176	0.0009
611.0074	-0.0077
611.1971	0.0051
611.3869	0.001
611.5766	-0.0012
611.7664	0.0093
611.9561	0.0007
612.1458	-0.004
612.3354	0.0003
612.5251	-0.0046
612.7147	0.0106
612.9044	-0.0052
613.094	0.0021
613.2836	-0.002
613.4731	-0.0008
613.6627	0.0073
613.8522	-0.0119
614.0417	0.0011
614.2313	-0.0134
614.4207	0.0042
614.6102	-0.0049
614.7997	-0.0017
614.9891	-0.0035
615.1785	-0.0037
615.3679	0.0058
615.5573	-0.0105
615.7467	-0.0009
615.9361	-0.0049
616.1254	0.0007
616.3147	-0.0043
616.504	-0.004
616.6933	0.0008
616.8826	0.012
617.0718	-0.0133
617.2611	-0.0046
617.4503	-0.0011
617.6395	0.0013
617.8287	0.0082
618.0179	-0.0027
618.207	-0.0064
618.3961	0.008
618.5853	-0.0012
618.7744	0.0034
618.9634	-0.0012
619.1525	-0.0008
619.3416	-0
619.5306	-0.0006
619.7196	-0.0033
619.9086	0.0098
620.0976	0.0036
620.2866	0.0021
620.4755	0.0129
620.6645	-0.0093
620.8534	-0.0011
621.0423	-0.0013
621.2312	-0.0045
621.42	0.0015
621.6089	0.0028
621.7977	0.0026
621.9865	-0.0056
622.1753	-0.0027
622.3641	-0.0069
622.5529	-0.0124
622.7416	-0.0049
622.9303	0.0002
623.1191	-0.0039
623.3078	-0.0077
623.4964	-0.0092
623.6851	0.0015
623.8737	0.0024
624.0624	-0.0078
624.251	0.0003
624.4396	-0.0032
624.6282	0.0011
624.8167	-0.0016
625.0053	-0.0105
625.1938	0.0006
625.3823	-0.0056
625.5708	-0.0022
625.7593	0.0065
625.9477	-0.0101
626.1362	-0.0054
626.3246	-0.0093
626.513	0.0098
626.7014	0.0014
626.8898	0.0047
627.0781	0.0019
627.2665	0.0068
627.4548	0
627.6431	-0.0116
627.8314	0.0056
628.0197	0.0143
628.2079	0.0072
628.3962	0.0007
628.5844	-0.0021
628.7726	-0.0061
628.9608	-0.0073
629.1489	-0.001
629.3371	-0.0083
629.5252	0.013
629.7134	0.017
629.9015	-0.0167
630.0895	-0.0014
630.2776	-0.0058
630.4657	0.0076
630.6537	0.0029
630.8417	-0.0105
631.0297	0.0019
631.2177	0.0033
631.4057	-0.0066
631.5936	-0.0015
631.7815	0.0025
631.9695	0.0105
632.1574	-0.0201
632.3452	-0.0051
632.5331	-0.0047
632.7209	0.0184
632.9088	-0.015
633.0966	-0.0016
633.2844	0.0001
633.4722	0.0026
633.6599	-0.018
633.8477	-0.0001
634.0354	0.0033
634.2231	0.0129
634.4108	0.0029
634.5985	-0.0051
634.7861	-0.0101
634.9738	0.0011
635.1614	0.0042
635.349	-0.024
635.5366	0.0082
635.7242	-0.0005
635.9117	0.0078
636.0993	-0.0153
636.2868	-0.0024
636.4743	0.0202
636.6618	0.006
636.8492	-0.0066
637.0367	0.0098
637.2241	0.0008
637.4115	-0.0013
637.5989	0.0047
637.7863	-0.006
637.9737	0.0011
638.161	-0.0173
638.3484	-0.0047
638.5357	0.0024
638.723	-0.0063
638.9103	0.0021
639.0975	0.0097
639.2848	0.0096
639.472	-0.0046
639.6592	0.007
639.8464	0.0073
640.0336	0.0018
640.2208	0.0005
640.4079	0.0093
640.595	-0.0099
640.7821	0.003
640.9692	0.0003
641.1563	0.0036
641.3434	0.0163
641.5304	0.0022
641.7174	0.0113
641.9044	0.0102
642.0914	-0.0104
642.2784	0.0111
642.4653	0.0028
642.6523	0.0071
642.8392	0.0109
643.0261	0.0042
643.213	-0.0123
643.3999	-0.0038
643.5867	0.002
643.7735	0.0052
643.9604	-0.0026
644.1472	-0.0114
644.3339	-0.0013
644.5207	-0.0118
644.7075	0.0107
644.8942	0.0087
645.0809	-0.0119
645.2676	0.0038
645.4543	-0.0067
645.6409	-0.0051
645.8276	-0.0027
646.0142	0.0125
646.2008	-0.0218
646.3874	0.0108
646.574	-0.0286
646.7605	-0.0019
646.9471	-0.0002
647.1336	-0.0245
647.3201	0.0228
647.5066	0.0082
647.6931	-0.0022
647.8795	0.0282
648.0659	-0.0054
648.2524	0.0059
648.4388	0.0144
648.6252	-0.007
648.8115	0.0151
648.9979	-0.0079
649.1842	-0.018
649.3705	0.0079
649.5568	-0.0065
649.7431	0.0025
649.9294	-0.0156
650.1156	-0.0145
650.3018	0.0058
650.488	0.0092
650.6742	-0.0014
650.8604	0.0037
651.0466	-0.0103
651.2327	-0.0126
651.4188	-0.0225
651.6049	0.0117
651.791	0.0126
651.9771	-0.0145
652.1632	0.0036
652.3492	0.0052
652.5352	0.0098
652.7212	-0.003
652.9072	0.0059
653.0932	0.0019
653.2791	-0.0007
653.465	-0.0023
653.651	0.0153
653.8369	0.02
654.0227	-0.0079
654.2086	-0.023
654.3944	-0.0101
654.5803	0.0062
654.7661	0.0004
654.9519	-0.0016
655.1377	-0
655.3234	-0
655.5092	-0
655.6949	-0
655.8806	-0
656.0663	-0
656.2519	-0
656.4376	-0
656.6232	-0
656.8088	-0
656.9945	-0
657.18	-0
657.3656	-0
657.5511	-0
657.7367	-0
657.9222	-0
658.1077	-0
658.2932	-0
658.4786	-0
658.6641	-0
658.8495	-0
659.0349	-0
659.2203	-0
659.4057	0.0166
659.591	0.033
659.7764	-0.0085
659.9617	0.0059
660.147	-0.0045
660.3323	-0.0005
660.5176	-0.0019
660.7028	-0.0131
660.888	0.0059
661.0733	-0.0046
661.2585	-0.0011
661.4436	0.0205
661.6288	0.0108
661.8139	0.0113
661.9991	-0.0078
662.1842	0.0156
662.3693	0.0107
662.5544	-0.008
662.7394	0.0025
662.9245	-0.0137
663.1095	0.0225
663.2945	-0.0185
663.4795	-0.0083
663.6644	0.0161
663.8494	0.0242
664.0343	-0.0004
664.2193	-0.0065
664.4042	-0.0142
664.589	-0.0061
664.7739	0.0108
664.9587	-0.0006
665.1436	-0.0139
665.3284	-0.0158
665.5132	0.0006
665.698	0.0038
665.8827	-0.0123
666.0675	-0.0096
666.2522	0.0162
666.4369	-0.0271
666.6216	-0.008
666.8063	-0.0027
666.9909	-0.0036
667.1756	0.0167
667.3602	-0.0049
667.5448	-0.018
667.7294	-0.0062
667.9139	0.0048
668.0985	-0.0028
668.283	0.0019
668.4675	-0.0251
668.652	0.011
668.8365	-0.0256
669.0209	-0.0219
669.2054	0.0116
669.3898	0.0027
669.5742	-0.0232
669.7586	0.0001
669.943	-0.039
670.1273	-0.003
670.3117	0.0164
670.496	-0.0015
670.6803	-0.002
670.8646	-0.0004
671.0488	0.0042
671.2331	0.0202
671.4173	0.0098
671.6015	0.0024
671.7857	-0.0248
671.9699	0.0064
672.1541	0.0088
672.3382	0.0095
672.5223	-0.0025
672.7064	0.0033
672.8905	0.008
673.0746	-0.0284
673.2587	0.0058
673.4427	0.0052
673.6267	-0.0369
673.8107	-0.0064
673.9947	-0.0062
674.1787	0.0104
674.3626	0.016
674.5465	0.0115
674.7304	-0.0326
674.9143	0.0255
675.0982	0.0024
675.2821	0.003
675.4659	0.0023
675.6497	0.0272
675.8335	-0.002
676.0173	0.022
676.2011	-0.0118
676.3849	0.0251
676.5686	-0.0056
676.7523	0.0092
676.936	-0.0176
677.1197	0.0009
677.3034	0.0006
677.487	0.0165
677.6706	-0.0059
677.8542	0.0023
678.0378	0.0054
678.2214	0.0096
678.405	0.0041
678.5885	0.0089
678.772	-0.0008
678.9555	-0.0068
679.139	-0.0088
679.3225	-0.0285
679.5059	-0.0118
679.6894	-0.0114
679.8728	-0.0088
680.0562	-0.0034
680.2395	-0.0051
680.4229	-0.0164
680.6062	-0.0153
680.7896	0.0222
680.9729	0.0236
681.1562	-0.0194
681.3394	-0.004
681.5227	-0.028
681.7059	-0.0041
681.8891	0.0113
682.0723	-0.0117
682.2555	0.0231
682.4387	0.0001
682.6218	-0.0251
682.805	0.0143
682.9881	-0.0024
683.1712	0.0161
683.3542	-0.018
683.5373	0.0075
683.7203	0.0221
683.9034	0.0072
684.0864	-0.0088
684.2694	-0.0055
684.4523	-0.0052
684.6353	0.007
684.8182	-0.0001
685.0011	-0.0116
685.184	-0.0116
685.3669	-0.0178
685.5498	0.0174
685.7326	-0.0022
685.9154	-0.0059
686.0982	0.003
686.281	-0.0003
686.4638	0.0194
686.6465	0.0179
686.8293	-0.0051
687.012	0.0026
687.1947	0.0111
687.3774	-0.0013
687.56	0.0198
687.7427	-0.002
687.9253	0.0229
688.1079	-0.0039
688.2905	-0.0169
688.4731	0.0024
688.6556	-0.0155
688.8382	0.0101
689.0207	0.0106
689.2032	-0.025
689.3857	-0.0007
689.5681	0.0004
689.7506	-0.0402
689.933	-0.0055
690.1154	-0.007
690.2978	0.0004
690.4802	0.0059
690.6626	-0.0139
690.8449	-0.0307
691.0272	-0.0045
691.2095	-0.01
691.3918	0.0029
691.5741	0.0054
691.7563	0.0157
691.9386	-0.0057
692.1208	-0.0012
692.303	-0.0114
692.4852	-0.0061
692.6673	-0.0023
692.8495	0.0026
693.0316	-0.0079
693.2137	0.0154
693.3958	0.0045
693.5778	-0.0126
693.7599	-0.028
693.9419	0.02
694.1239	0.0009
694.3059	-0.0057
694.4879	-0.0306
694.6699	-0.0018
694.8518	0.029
695.0337	-0.013
695.2157	-0.0264
695.3975	0.0005
695.5794	-0.0099
695.7613	0.0089
695.9431	-0.0169
696.1249	0.0072
696.3067	-0.0221
696.4885	-0.0071
696.6703	0.0075
696.852	-0.0044
697.0337	-0.0104
697.2154	0.0167
697.3971	0.0166
697.5788	0.0253
697.7605	-0.0078
697.9421	0.0009
698.1237	0.0125
698.3053	0.0103
698.4869	0.0064
698.6685	0.0126
698.85	0.0197
699.0315	-0.0104
699.213	0.0143
699.3945	0.0103
699.576	-0.0124
699.7575	-0.0065
699.9389	-0.0026
700.1203	0.0006
700.3017	-0.009
700.4831	0.0022
700.6645	-0.0101
700.8458	0.0084
701.0271	-0.0092
701.2084	-0.0157
701.3897	0.0106
701.571	-0.0058
701.7523	-0.0126
701.9335	0.0448
702.1147	-0.0077
702.2959	0.0207
702.4771	-0.0106
702.6583	-0.0041
702.8394	-0.0015
703.0205	-0.0027
703.2016	-0.0138
703.3827	-0.0032
703.5638	0.0192
703.7449	0.001
703.9259	-0.0036
704.1069	0.0278
704.2879	0.0002
704.4689	0.0296
704.6499	-0.0352
704.8308	-0.0239
705.0117	-0.0359
705.1927	-0.0222
705.3735	0.0017
705.5544	-0.0233
705.7353	0.001
705.9161	-0.0086
706.0969	0.0091
706.2777	0.0077
706.4585	0.0081
706.6393	0.0039
706.82	-0.02
707.0007	0.0045
707.1815	0.005
707.3621	-0.0069
707.5428	0.0008
707.7235	0.0159
707.9041	-0.0004
708.0847	-0.0095
708.2653	0.0116
708.4459	0.0038
708.6265	-0.0053
708.807	0.0125
708.9875	-0.0111
709.168	0.0161
709.3485	0.0205
709.529	0.0153
709.7095	-0.0223
709.8899	0.0108
710.0703	-0.0117
710.2507	-0.0097
710.4311	0.0024
710.6115	-0.0005
710.7918	0.0127
710.9721	-0.0099
711.1524	0.0088
711.3327	-0.0062
711.513	0.0051
711.6932	-0.028
711.8735	0.0146
712.0537	0.0101
712.2339	-0.0105
712.4141	-0.0033
712.5942	0.0027
712.7744	-0.0077
712.9545	-0.0166
713.1346	0.005
713.3147	0.0088
713.4947	0.0041
713.6748	-0.0216
713.8548	-0.0177
714.0348	0.0089
714.2148	-0.008
714.3948	0.0045
714.5748	-0.0121
714.7547	-0.0159
714.9346	-0.0115
715.1145	-0.0019
715.2944	0.0189
715.4743	-0.0067
715.6541	-0.0051
715.834	0.0126
716.0138	0.0357
716.1936	0.0165
716.3733	-0.0196
716.5531	0.0199
716.7328	-0.0144
716.9126	-0.0321
717.0923	0.0197
717.2719	0.0165
717.4516	-0.0087
717.6312	-0.0125
717.8109	-0.0177
717.9905	-0.0255
718.1701	-0.046
718.3496	0.0057
718.5292	0.0013
718.7087	0.0129
718.8882	0.0183
719.0677	-0.0253
719.2472	-0.0118
719.4267	0.007
719.6061	-0.0103
719.7856	-0.0208
719.965	0.0246
720.1443	-0.0358
720.3237	0.0009
720.5031	0.017
720.6824	-0.0029
720.8617	-0.0047
721.041	0.0244
721.2203	0.0045
721.3995	0.0131
721.5788	-0.0293
721.758	0.0156
721.9372	-0.0123
722.1164	0.0121
722.2956	-0.0084
722.4747	0.0205
722.6538	-0.0063
722.8329	-0.005
723.012	0.0066
723.1911	0.0065
723.3702	-0.0284
723.5492	-0.0108
723.7282	0.0128
723.9072	-0.042
724.0862	0.0133
724.2652	-0.0181
724.4441	0.0018
724.623	-0.0002
724.8019	0.0002
724.9808	-0.0073
725.1597	-0.0204
725.3385	-0.0089
725.5174	0.0126
725.6962	0.0082
725.875	-0.0026
726.0538	0.0154
726.2325	0.0063
726.4112	0.0135
726.59	-0.0014
726.7687	-0.0101
726.9474	0.0187
727.126	-0.0164
727.3047	0.0164
727.4833	0.002
727.6619	0.0319
727.8405	0.0071
728.0191	-0.0307
728.1976	-0.023
728.3762	-0.0239
728.5547	-0.0063
728.7332	-0.0069
728.9116	-0.0519
729.0901	0.0212
729.2686	-0.0121
729.447	-0.0159
729.6254	0.0093
729.8038	-0.0142
729.9821	0.0141
730.1605	-0.0098
730.3388	-0.0133
730.5171	-0.0017
730.6954	0.0101
730.8737	0.0233
731.0519	-0.0069
731.2302	0.0029
731.4084	0.0089
731.5866	-0.0255
731.7648	-0.017
731.9429	0.0082
732.1211	-0.002
732.2992	-0.0192
732.4773	-0.0136
732.6554	0.0001
732.8335	0.0175
733.0115	-0.023
733.1896	0.0028
733.3676	0.0028
733.5456	0.0146
733.7235	0.0039
733.9015	-0.0004
734.0794	-0.01
734.2574	0.0248
734.4353	-0.01
734.6131	-0.0035
734.791	0.009
734.9689	-0.0072
735.1467	0.0152
735.3245	0.0267
735.5023	0.0079
735.68	0.0168
735.8578	0.008
736.0355	-0.0007
736.2132	0.009
736.3909	-0.0077
736.5686	0.0078
736.7463	-0.0156
736.9239	-0.0013
737.1015	-0.013
737.2791	0.0028
737.4567	0.0036
737.6343	-0.0105
737.8118	-0.0086
737.9894	0.0231
738.1669	-0.0039
738.3444	-0.0048
738.5218	0.013
738.6993	-0.0047
738.8767	-0.006
739.0541	0.021
739.2315	0.01
739.4089	0.015
739.5863	-0.004
739.7636	0.0212
739.9409	-0.0028
740.1182	-0.0065
740.2955	-0.0363
740.4728	0.0503
740.65	-0.0381
740.8272	-0.022
741.0044	-0.0069
741.1816	0.0023
741.3588	0.0043
741.5359	-0.0172
741.7131	0.0485
741.8902	-0.0152
742.0673	0.0437
742.2444	-0.0035
742.4214	-0.0125
742.5985	0.0102
742.7755	-0.0479
742.9525	0.0038
743.1295	-0.0418
743.3064	-0.0084
743.4834	0.0069
743.6603	-0.0134
743.8372	0.0349
744.0141	0.0121
744.191	-0.0208
744.3678	0.021
744.5446	-0.0012
744.7215	-0.0154
744.8982	-0.005
745.075	-0.0007
745.2518	-0.0217
745.4285	-0.0422
745.6052	0.0242
745.7819	-0.0031
745.9586	0.0291
746.1353	-0.0191
746.3119	0.0116
746.4885	0.0158
746.6651	-0.0366
746.8417	-0.0322
747.0183	-0.0142
747.1948	-0.0184
747.3714	0.0357
747.5479	-0.0019
747.7244	-0.0138
747.9008	-0.0014
748.0773	0.0115
748.2537	0.0103
748.4301	0.0132
748.6065	-0.0219
748.7829	0.017
748.9593	0.0032
749.1356	0.0073
749.3119	-0.0167
749.4882	0.0055
749.6645	0.0152
749.8408	-0.0075
750.017	0.0211
750.1933	0.0074
750.3695	0.0212
750.5457	0.0069
750.7218	-0.0014
750.898	-0.0087
751.0741	0.0137
751.2502	-0.0024
751.4263	-0.0164
751.6024	0.0033
751.7784	-0.0414
751.9545	-0.049
752.1305	-0.0006
752.3065	0.0146
752.4825	0.001
752.6584	-0.0095
752.8344	0.015
753.0103	-0.0398
753.1862	-0.0216
753.3621	-0.0204
753.5379	-0.0143
753.7138	-0.0326
753.8896	0.0276
754.0654	-0.0161
754.2412	0.0227
754.417	-0.0112
754.5927	-0.008
754.7685	-0.0019
754.9442	0.0021
755.1199	-0.0083
755.2956	0.0082
755.4712	-0.016
755.6469	-0.0148
755.8225	0.0115
755.9981	0.0014
756.1736	0.0129
756.3492	-0.0163
756.5248	-0.0122
756.7003	-0.0021
756.8758	-0.0162
757.0513	-0.0036
757.2267	-0.0126
757.4022	-0.0077
757.5776	-0.0194
757.753	-0.0015
757.9284	0.0051
758.1038	-0.0034
758.2791	0.0247
758.4545	-0.0048
758.6298	-0.0046
758.8051	-0.0022
758.9803	0.0061
759.1556	-0.0195
759.3308	-0.0058
759.506	0.0041
759.6812	-0.022
759.8564	-0.0157
760.0316	0.0021
760.2067	-0.0241
760.3819	-0.003
760.557	-0.0107
760.732	0.0249
760.9071	-0.0136
761.0821	0.0117
761.2572	0.0188
761.4322	-0.0115
761.6072	-0.0009
761.7821	-0.0039
761.9571	0.0241
762.132	-0.0143
762.3069	0.0024
762.4818	-0.0026
762.6567	-0.0009
762.8316	-0.0006
763.0064	-0.0219
763.1812	-0.0189
763.356	-0.0145
763.5308	-0.0118
763.7055	0.0083
763.8803	-0.0082
764.055	-0.0241
764.2297	-0.0143
764.4044	-0.0149
764.579	-0.0046
764.7537	-0.0081
764.9283	-0.0196
765.1029	0.0153
765.2775	-0.0219
765.4521	0.0018
765.6266	-0.0267
765.8011	-0.0218
765.9756	0.0239
766.1501	0.013
766.3246	0.0256
766.4991	-0.04
766.6735	0.0141
766.8479	0.0068
767.0223	-0.0085
767.1967	-0.0325
767.371	-0.0019
767.5454	0.0026
767.7197	-0.0055
767.894	0.0254
768.0683	-0.006
768.2425	0.0045
768.4168	0.0178
768.591	0.0087
768.7652	-0.0317
768.9394	-0.0018
769.1135	-0.0191
769.2877	0.0198
769.4618	0.0477
769.6359	-0.021
769.81	0.0028
769.984	-0.0036
770.1581	0.0294
770.3321	-0.0145
770.5061	0.0083
770.6801	0.0106
770.8541	-0.0196
771.028	0.0001
771.202	-0.0257
771.3759	0.014
771.5498	0.0046
771.7236	0.0266
771.8975	-0.0345
772.0713	-0.0102
772.2451	-0.0331
772.4189	-0.0112
772.5927	-0.0301
772.7665	0.0227
772.9402	0.0188
773.1139	0.0309
773.2876	-0.0047
773.4613	-0.0119
773.635	0.0106
773.8086	-0.0147
773.9822	-0.0004
774.1558	-0.027
774.3294	-0.0557
774.503	0.0094
774.6765	0.0343
774.8501	0.0406
775.0236	0.0345
775.1971	-0.0159
775.3705	0.0159
775.544	0.0232
775.7174	-0.0419
775.8908	0.0407
776.0642	0.0544
776.2376	-0.046
776.4109	0.0654
776.5843	-0.0103
776.7576	0.0343
776.9309	0.0172
777.1041	-0.0365
777.2774	-0.0272
777.4506	-0.017
777.6238	-0.0449
777.797	-0.0167
777.9702	0.0328
778.1434	0.0047
778.3165	-0.0399
778.4896	0.0178
778.6627	0.0537
778.8358	-0.0062
779.0089	-0.009
779.1819	0.0095
779.3549	0.0146
779.5279	-0.0169
779.7009	0.001
779.8739	-0.0167
780.0468	0.0017
780.2197	-0.0217
780.3926	-0.0095
780.5655	-0.0126
780.7384	0.0236
780.9112	0.0032
781.0841	0.0097
781.2569	0.0084
781.4297	0.0346
781.6024	-0.0253
781.7752	-0.0051
781.9479	-0.0173
782.1206	-0.0067
782.2933	0.0271
782.466	-0.0117
782.6386	-0.0289
782.8113	0.0003
782.9839	0.0107
783.1565	-0.0133
783.329	0.0165
783.5016	-0.0197
783.6741	-0.0072
783.8466	-0.037
784.0191	-0.0351
784.1916	-0.0104
784.3641	-0.0538
784.5365	0.0536
784.7089	0.032
784.8813	0.0511
785.0537	0.0434
785.2261	0.0027
785.3984	-0.0099
785.5707	-0.0038
785.743	-0.0369
785.9153	0.023
786.0876	-0.0757
786.2598	0.0478
786.432	0.0011
786.6042	0.0324
786.7764	0.0003
786.9486	0.0244
787.1207	0.0273
787.2928	-0.0138
787.4649	-0.0123
787.637	0.0292
787.8091	0.0079
787.9811	-0.0061
788.1532	0.0092
788.3252	-0.0083
788.4972	-0.0108
788.6691	0.0367
788.8411	-0.027
789.013	0.0232
789.1849	-0.0039
789.3568	0.0154
789.5287	-0.0397
789.7005	-0.0021
789.8723	-0.05
790.0442	-0.0245
790.2159	0.0737
790.3877	0.0107
790.5595	0.01
790.7312	-0.0331
790.9029	-0.0654
791.0746	0.0142
791.2463	-0.0252
791.4179	-0.0725
791.5896	-0.0169
791.7612	-0.0065
791.9328	0.0312
792.1044	0.0018
792.2759	0.0016
792.4474	-0.0644
792.619	0.0419
792.7905	-0.0253
792.9619	0.0272
793.1334	-0.0464
793.3048	-0.0114
793.4762	-0.0506
793.6476	-0.0182
793.819	-0.0283
793.9904	0.0145
794.1617	0.0045
794.333	-0.0205
794.5043	0.0003
794.6756	0.0397
794.8469	-0.006
795.0181	-0.0191
795.1893	-0.0134
795.3605	-0.0167
795.5317	0.0216
795.7029	0.0193
795.874	-0.0272
796.0452	-0.0083
796.2163	-0.0393
796.3873	0.0052
796.5584	0.0071
796.7294	-0.1006
796.9005	-0.0584
797.0715	0.0201
797.2425	-0.0371
797.4134	-0.0249
797.5844	0.08
797.7553	-0.0207
797.9262	-0.0115
798.0971	-0.0454
798.2679	-0.0375
798.4388	-0.0163
798.6096	-0.035
798.7804	0.0044
798.9512	0.0089
799.122	0.0671
799.2927	-0.0702
799.4635	0.0194
799.6342	-0.008
799.8049	0.0635
799.9755	-0.0183
800.1462	0.0019
800.3168	-0.0404
800.4874	-0.0253
800.658	0.0443
800.8286	-0.0095
800.9991	0.1088
801.1696	-0.0529
801.3402	-0.0359
801.5106	-0.0752
801.6811	-0.0773
801.8516	-0.0232
802.022	-0.0327
802.1924	-0.0771
802.3628	-0.0458
802.5332	0.0036
802.7035	-0.0918
802.8739	-0.0884
803.0442	-0.0791
803.2145	-0.073
803.3847	-0.042
803.555	-0.0372
803.7252	0.0556
803.8954	0.1392
804.0656	-0.0791
804.2358	-0.026
804.4059	0.0176
804.5761	0.1165
804.7462	-0.0048
804.9163	-0.0604
805.0864	-0.0418
805.2564	0.0863
805.4264	-0.0776
805.5965	0.0142
805.7665	0.0454
805.9364	-0.0663
806.1064	-0.0182
806.2763	0.0706
806.4462	0.0113
806.6161	0.03
806.786	-0.0308
806.9559	0.0511
807.1257	-0.0305
807.2955	-0.0079
807.4653	-0.0358
807.6351	0.0355
807.8048	-0.067
807.9746	-0.0131
808.1443	0.0231
808.314	0.0305
808.4837	-0.0907
808.6533	0.0065
808.8229	-0.078
808.9926	-0.0142
809.1622	-0.0252
809.3317	-0.0454
809.5013	0.0375
809.6708	0.0857
809.8403	0.0219
810.0098	0.0679
810.1793	0.0529
810.3488	0.0352
810.5182	-0.0432
810.6876	-0.0347
810.857	-0.0381
811.0264	-0.0821
811.1958	-0.0478
811.3651	-0.1373
811.5344	0.0035
811.7037	-0.0071
811.873	0.1494
812.0422	-0.0603
812.2115	-0.0453
812.3807	-0.0108
812.5499	0.098
812.7191	-0.0164
812.8882	-0.0399
813.0574	-0.056
813.2265	-0.0327
813.3956	-0.0407
813.5646	0.0211
813.7337	-0.0813
813.9027	-0.0966
814.0718	-0.0056
814.2407	-0.1791
814.4097	0.0305
814.5787	0.0375
814.7476	0.015
814.9165	0.0407
815.0854	0.0631
815.2543	-0.0062
815.4232	-0.1134
815.592	0.112
815.7608	0.0866
815.9296	0.0094
816.0984	-0.0579
816.2671	-0.0503
816.4359	-0.1154
816.6046	0.0239
816.7733	-0.0261
816.942	0.0103
817.1106	-0.2694
817.2793	-0.0074
817.4479	-0.0879
817.6165	0.0095
817.785	0.0803
817.9536	0.1418
818.1221	0.0848
818.2906	0.0441
818.4591	0.016
818.6276	0.0619
818.7961	0.0187
818.9645	-0.0885
819.1329	0.1031
819.3013	-0.0301
819.4697	0.3608
819.638	0.002
819.8064	-0.1306
819.9747	0.0229
820.143	0.0408
820.3113	0.1761
820.4795	-0.0644
820.6477	-0.1198
820.816	0.0529
820.9842	-0.0575
821.1523	0.1539
821.3205	0.0216
821.4886	-0.0127
821.6567	0.018
821.8248	0.0232
821.9929	0.0223
822.1609	-0.072
822.329	0.0528
822.497	0.084
822.665	0.0811
822.833	-0.0684
823.0009	-0.1379
823.1688	0.1065
823.3367	0.1278
823.5046	0.1235
823.6725	0.06
823.8404	-0.1393
824.0082	0.1008
824.176	0.0391
824.3438	0.1402
824.5116	-0.0312
824.6793	-0.0884
824.847	0.3272
825.0147	-0.0028
825.1824	0.0013
825.3501	-0.0198
825.5177	-0.1181
825.6854	0.0543
825.853	-0.1489
826.0206	-0.0194
826.1881	-0.1294
826.3557	0.3112
826.5232	0.1353
826.6907	0.1795
826.8582	-0.115
827.0257	-0.1832
827.1931	0.2252
827.3605	-0.081
827.528	0.1211
827.6953	0.1441
827.8627	-0.0362
828.03	-0.0494
828.1974	-0.1591
828.3647	-0.051
828.532	0.0855
828.6992	0.0078
828.8665	-0.0293
829.0337	-0.0523
829.2009	0.1012
829.3681	0.0663
829.5352	0.2297
829.7024	0.0289
829.8695	-0.0404
830.0366	0.1895
830.2037	-0.0714
830.3707	-0.0135
830.5378	-0.01
830.7048	-0.2172
830.8718	-0.0428
831.0388	0.0186
831.2057	-0.0714
831.3727	0.0263
831.5396	-0.2296
831.7065	0.047
831.8734	-0.3048
832.0402	-0.0101
832.2071	0.1575
832.3739	0.4143
832.5407	-0
832.7075	0.1382
832.8742	0.1039
833.041	-0.0515
833.2077	0.2269
833.3744	0.0482
833.541	-0.1858
833.7077	0.2228
833.8743	0.0822
834.0409	0.0415
834.2075	0.1211
834.3741	0.1282
834.5407	-0.0468
834.7072	0.0908
834.8737	0.0056
835.0402	-0.4217
835.2067	0.0114
835.3731	-0.1223
835.5395	-0.1086
835.706	0.5299
835.8723	-0.2
836.0387	0.615
836.2051	0.1355
836.3714	-0.0803
836.5377	0.2852
836.704	0.2229
836.8703	0.0095
837.0365	0.1677
837.2027	-0.4185
837.3689	0.003
837.5351	-0.3656
837.7013	0.0853
837.8674	-1.1338
838.0335	-0.087
838.1997	0.0581
838.3657	0.1658
838.5318	-0.3097
838.6978	0.2497
838.8639	-0.0324
839.0299	0.2559
839.1958	-0.0798
839.3618	0.3736
839.5277	0.0375
839.6937	-0.617
839.8596	-0.2192
840.0254	0.6066
840.1913	0.4305
840.3571	-0.2684
840.523	0.3943
840.6888	0.3117
840.8545	0.1425
841.0203	0.1915
841.186	0.1761
841.3517	-0.1014
841.5174	0.1941
841.6831	0.2597
841.8488	0.0516
842.0144	-0.0896
842.18	-0.2735
842.3456	-0.1112
842.5112	0.809
842.6767	-0.2423
842.8422	1.6946
843.0077	0.1031
843.1732	0.3999
843.3387	0.0873
843.5042	0.4999
843.6696	-0.4338
843.835	-0.3102
844.0004	0.0226
844.1657	-0.2291
844.3311	-0
844.4964	-0.1037
844.6617	-0
844.827	-0
844.9923	-0.1942
845.1575	-0
845.3227	0.6999
845.4879	0.004
845.6531	-0.1964
845.8183	0.1761
845.9834	-0
846.1485	-0.3037
846.3136	0.3037
846.4787	-0.2269
846.6438	0.8525
846.8088	-1.65
846.9738	-0
847.1388	-0.0222
847.3038	0.2159
847.4687	-0.5229
847.6337	-0.0615
847.7986	0.5459
847.9635	-0.0994
848.1284	-0
848.2932	-0.3288
848.458	-0.0578
848.6228	1.2316
848.7876	-0.0345
848.9524	0.3578
849.1172	0.3578
849.2819	-0
849.4466	1.1032
849.6113	0.2244
849.7759	-0
849.9406	-0.3729
850.1052	0.2876
850.2698	-0
850.4344	0.6227
850.599	0.0164
850.7635	-0
850.928	0.1869
851.0925	-0.3319
851.257	1.2014
851.4215	-0.6728
851.5859	0.2804
851.7503	-0
851.9147	-0
852.0791	-0.6113
852.2434	0.0357
852.4078	-0
852.5721	0.625
852.7364	-0.0106
852.9007	-0.5287
853.0649	0.5287
853.2291	-0.2602
853.3934	0.0349
853.5575	-0.1839
853.7217	0.0617
853.8859	1.2029
854.05	-1.0109
854.2141	-0
854.3782	-0
854.5423	-0.6328
854.7063	0.6104
854.8703	-0.1415
855.0343	0.1217
855.1983	-0.0564
855.3623	-0.0278
855.5262	-0
855.6901	0.456
855.854	0.0156
856.0179	-0.1805
856.1818	-0.2548
856.3456	0.5473
856.5094	-0
856.6732	-0.6144
856.837	0.2597
857.0008	-0
857.1645	-0
857.3282	-0.2657
857.4919	0.0882
857.6556	0.7305
857.8192	-0.3559
857.9828	-0.4073
858.1465	0.5875
858.31	-0.915
858.4736	-0.2776
858.6372	-0.013
858.8007	-1.2994
858.9642	0.7972
859.1277	-0.2916
859.2911	0.2676
859.4546	0.5158
859.618	-0
859.7814	-0
859.9448	-0.4458
860.1081	-0
860.2715	-0.361
860.4348	-0.0191
860.5981	-0.4421
860.7614	-0.1484
860.9246	0.0223
861.0879	-0.6008
861.2511	-0
861.4143	1.2839
861.5774	0.0343
861.7406	-0.1484
861.9037	-0
862.0668	-0.5864
862.2299	-1.2863
862.393	0.0523
862.556	-0
862.7191	0.1895
862.8821	-0.3725
863.0451	0.9231
863.208	0.0455
863.371	-0
863.5339	-0.1025
863.6968	1.1673
863.8597	-0.547
864.0225	-0
864.1854	-0
864.3482	-0
864.511	-0.1844
864.6737	-0
864.8365	0.2367
864.9992	-0.7479
865.1619	-0.0277
865.3246	0.0869
865.4873	-0
865.65	-0.8832
865.8126	-0
865.9752	-0.4292
866.1378	-0.7399
866.3004	0.4753
866.4629	0.1396
866.6254	-0
866.7879	0.4529
866.9504	-0.248
867.1129	0.2202
867.2753	-0.2785
867.4377	0.3613
867.6001	0.2259
867.7625	-0.187
867.9249	0.135
868.0872	0.5487
868.2495	-0.1338
868.4118	-0.3166
868.5741	-0
868.7363	-0.0277
868.8986	-0.2033
869.0608	-0
869.223	0.3056
869.3851	-0
869.5473	-1.3707
869.7094	-0.1283
869.8715	-0.2127
870.0336	0.1048
870.1957	-1.0402
870.3577	0.4386
870.5197	-0.1634
870.6817	-0
870.8437	0.1521
871.0057	-0
871.1676	0.2103
871.3295	0.6625
871.4914	-0
871.6533	0.0255
871.8151	0.5584
871.977	0.3128
872.1388	-1.1856
872.3006	-0.0506
872.4623	-0.411
872.6241	-1.1856
872.7858	-0.3726
872.9475	-0
873.1092	0.8192
873.2709	0.2121
873.4325	-0
873.5941	-0.4808
873.7557	-0.2186
873.9173	-0.9136
874.0789	-0.0476
874.2404	-0.0659
874.4019	-0.224
874.5634	0.0857
874.7249	0.4676
874.8863	-0.2666
875.0478	-0.1155
875.2092	-0
875.3706	-0.0693
875.5319	-0
875.6933	-0
875.8546	-0
876.0159	0.2619
876.1772	-0
876.3385	-0.4564
876.4997	-0.0187
876.6609	-0
876.8221	1.8519
876.9833	-0.1767
877.1445	-0.0458
877.3056	0.1273
877.4667	-0
877.6278	-0
877.7889	-0.0541
877.9499	-0.3807
878.111	0.1188
878.272	-0
878.433	-0.0174
878.5939	0.064
878.7549	-0.8151
878.9158	1.6075
879.0767	-0.3718
879.2376	-0
879.3984	-0
879.5593	-0.0521
879.7201	0.09
879.8809	0.5525
880.0417	-0.0282
880.2024	0.3848
880.3632	-0.0724
880.5239	0.0873
880.6846	-0.832
880.8452	0.8936
881.0059	0.9221
881.1665	0.4467
881.3271	-0.3393
881.4877	0.3314
881.6483	-0
881.8088	0.2742
881.9693	1.4631
882.1298	1.4631
882.2903	1.4631
