Data from D4ACN5uM480nmA_Absorbance_12-08-02-050.txt Node
Date: Fri Feb 21 12:08:02 GMT 2025
User: LASERRRRR
Spectrometer: FLMT03099
Trigger mode: 0
Integration Time (sec): 1.500000E-2
Scans to average: 1
Electric dark correction enabled: true
Nonlinearity correction enabled: false
Boxcar width: 0
XAxis mode: Wavelengths
Number of Pixels in Spectrum: 3648
>>>>>Begin Spectral Data<<<<<
179.3399	0.8451
179.5586	0.8451
179.7771	0.8451
179.9957	-0.0313
180.2143	-0.5452
180.4329	-0
180.6514	-0
180.8699	-0
181.0885	-0.4672
181.307	0.7439
181.5255	0.2112
181.744	-0
181.9625	-0.298
182.181	0.8182
182.3994	-0
182.6179	-0
182.8363	-0
183.0547	-0
183.2732	0.3608
183.4916	0.3031
183.71	0.1192
183.9284	0.2939
184.1467	-0.1652
184.3651	0.2415
184.5835	0.1119
184.8018	-0.0352
185.0201	0.1866
185.2385	0.1891
185.4568	0.4204
185.6751	0.1776
185.8934	0.1021
186.1117	0.3848
186.3299	0.1437
186.5482	0.0854
186.7664	0.3093
186.9847	0.2685
187.2029	0.3642
187.4211	0.0856
187.6393	0.2593
187.8575	0.2073
188.0757	0.5958
188.2939	0.0825
188.512	0.3144
188.7302	0.0381
188.9483	0.1327
189.1665	0.5674
189.3846	-0.0214
189.6027	0.0719
189.8208	0.1937
190.0389	0.1751
190.257	0.259
190.475	0.1428
190.6931	0.1096
190.9111	0.4858
191.1292	0.2768
191.3472	0.1752
191.5652	0.559
191.7832	0.351
192.0012	0.2278
192.2192	0.4055
192.4371	0.2863
192.6551	0.2844
192.873	0.2138
193.091	0.3122
193.3089	0.4034
193.5268	0.5105
193.7447	0.4705
193.9626	0.5369
194.1805	0.3055
194.3984	0.55
194.6162	0.4443
194.8341	0.4685
195.0519	0.5095
195.2697	0.5553
195.4875	0.7211
195.7054	0.5384
195.9231	0.4913
196.1409	0.4971
196.3587	0.6106
196.5765	0.4901
196.7942	0.5849
197.012	0.5438
197.2297	0.5352
197.4474	0.5177
197.6651	0.4463
197.8828	0.6113
198.1005	0.5966
198.3182	0.5733
198.5358	0.5898
198.7535	0.6058
198.9711	0.5914
199.1888	0.741
199.4064	0.5492
199.624	0.5138
199.8416	0.5487
200.0592	0.5807
200.2767	0.6216
200.4943	0.5829
200.7119	0.619
200.9294	0.6337
201.1469	0.5968
201.3645	0.5843
201.582	0.5263
201.7995	0.6421
202.017	0.5475
202.2344	0.4957
202.4519	0.5745
202.6694	0.5064
202.8868	0.5502
203.1042	0.5178
203.3217	0.5455
203.5391	0.5228
203.7565	0.5509
203.9739	0.5444
204.1913	0.5352
204.4086	0.5138
204.626	0.497
204.8433	0.53
205.0607	0.5311
205.278	0.5228
205.4953	0.4457
205.7126	0.4378
205.9299	0.4769
206.1472	0.516
206.3644	0.4444
206.5817	0.4625
206.7989	0.4686
207.0162	0.4337
207.2334	0.4396
207.4506	0.4149
207.6678	0.4725
207.885	0.4497
208.1022	0.4385
208.3194	0.4227
208.5365	0.427
208.7537	0.4495
208.9708	0.4501
209.1879	0.4055
209.405	0.4009
209.6222	0.393
209.8392	0.4252
210.0563	0.4226
210.2734	0.398
210.4905	0.4212
210.7075	0.4321
210.9245	0.4272
211.1416	0.4317
211.3586	0.414
211.5756	0.4454
211.7926	0.411
212.0096	0.4133
212.2265	0.4066
212.4435	0.4508
212.6604	0.3969
212.8774	0.4203
213.0943	0.406
213.3112	0.4305
213.5281	0.4117
213.745	0.4097
213.9619	0.4017
214.1788	0.3877
214.3956	0.4209
214.6125	0.393
214.8293	0.4114
215.0461	0.4069
215.2629	0.4252
215.4798	0.38
215.6965	0.4006
215.9133	0.4168
216.1301	0.4154
216.3469	0.4135
216.5636	0.406
216.7803	0.4012
216.9971	0.4307
217.2138	0.4318
217.4305	0.4131
217.6472	0.4388
217.8639	0.4074
218.0805	0.4094
218.2972	0.4176
218.5138	0.4223
218.7305	0.417
218.9471	0.4245
219.1637	0.4248
219.3803	0.4122
219.5969	0.4247
219.8135	0.4231
220.0301	0.4297
220.2466	0.4534
220.4632	0.4346
220.6797	0.4298
220.8962	0.4217
221.1127	0.4248
221.3292	0.443
221.5457	0.4151
221.7622	0.4503
221.9787	0.4443
222.1951	0.4492
222.4116	0.4489
222.628	0.4482
222.8444	0.445
223.0608	0.4281
223.2772	0.4509
223.4936	0.4528
223.71	0.4275
223.9264	0.4417
224.1427	0.4538
224.3591	0.4475
224.5754	0.4518
224.7917	0.4512
225.008	0.4483
225.2243	0.4506
225.4406	0.4645
225.6569	0.442
225.8732	0.468
226.0894	0.4642
226.3057	0.4555
226.5219	0.4648
226.7381	0.4672
226.9543	0.4769
227.1705	0.4697
227.3867	0.4921
227.6029	0.4757
227.8191	0.4774
228.0352	0.4995
228.2513	0.4889
228.4675	0.4887
228.6836	0.4824
228.8997	0.494
229.1158	0.4782
229.3319	0.4954
229.548	0.5055
229.764	0.4968
229.9801	0.5165
230.1961	0.515
230.4121	0.5005
230.6282	0.5048
230.8442	0.5151
231.0602	0.5185
231.2761	0.5241
231.4921	0.525
231.7081	0.5166
231.924	0.5265
232.14	0.527
232.3559	0.5228
232.5718	0.526
232.7877	0.5296
233.0036	0.5253
233.2195	0.5348
233.4353	0.5336
233.6512	0.5345
233.867	0.5489
234.0829	0.5285
234.2987	0.5282
234.5145	0.5271
234.7303	0.5397
234.9461	0.5312
235.1619	0.5404
235.3776	0.5273
235.5934	0.5346
235.8091	0.5258
236.0249	0.5417
236.2406	0.5384
236.4563	0.5419
236.672	0.5355
236.8877	0.5414
237.1034	0.5383
237.319	0.5463
237.5347	0.5398
237.7503	0.5352
237.966	0.5343
238.1816	0.53
238.3972	0.5407
238.6128	0.5446
238.8284	0.5345
239.0439	0.5431
239.2595	0.5239
239.475	0.5409
239.6906	0.5324
239.9061	0.5397
240.1216	0.5242
240.3371	0.5181
240.5526	0.5203
240.7681	0.5141
240.9836	0.5225
241.199	0.5105
241.4145	0.5081
241.6299	0.4943
241.8453	0.4923
242.0607	0.4834
242.2761	0.4818
242.4915	0.4714
242.7069	0.4683
242.9223	0.4757
243.1376	0.4444
243.353	0.4494
243.5683	0.4405
243.7836	0.4282
243.9989	0.4157
244.2142	0.4171
244.4295	0.4121
244.6448	0.4052
244.86	0.3935
245.0753	0.3799
245.2905	0.3756
245.5057	0.3696
245.721	0.3533
245.9362	0.3433
246.1514	0.3306
246.3665	0.3405
246.5817	0.329
246.7969	0.3201
247.012	0.3279
247.2271	0.3157
247.4423	0.3077
247.6574	0.3169
247.8725	0.3046
248.0876	0.2907
248.3026	0.2839
248.5177	0.2756
248.7328	0.2832
248.9478	0.2743
249.1628	0.2656
249.3779	0.2675
249.5929	0.26
249.8079	0.2548
250.0228	0.2521
250.2378	0.2563
250.4528	0.2545
250.6677	0.244
250.8827	0.2353
251.0976	0.2478
251.3125	0.2347
251.5274	0.2256
251.7423	0.2249
251.9572	0.2268
252.172	0.2188
252.3869	0.226
252.6017	0.2138
252.8166	0.227
253.0314	0.2206
253.2462	0.2146
253.461	0.2127
253.6758	0.2129
253.8906	0.2064
254.1053	0.2035
254.3201	0.2009
254.5348	0.2022
254.7496	0.2054
254.9643	0.2034
255.179	0.1988
255.3937	0.1976
255.6083	0.1982
255.823	0.1978
256.0377	0.1949
256.2523	0.1961
256.467	0.19
256.6816	0.2015
256.8962	0.1943
257.1108	0.1949
257.3254	0.1866
257.54	0.1885
257.7545	0.1899
257.9691	0.1926
258.1836	0.188
258.3981	0.1847
258.6127	0.1829
258.8272	0.1881
259.0417	0.1794
259.2561	0.1883
259.4706	0.1859
259.6851	0.1881
259.8995	0.1807
260.114	0.1852
260.3284	0.1827
260.5428	0.1815
260.7572	0.1914
260.9716	0.1819
261.186	0.1843
261.4003	0.1874
261.6147	0.1816
261.829	0.1822
262.0433	0.1832
262.2577	0.1861
262.472	0.1872
262.6863	0.1833
262.9005	0.1856
263.1148	0.1825
263.3291	0.1883
263.5433	0.1844
263.7576	0.1819
263.9718	0.188
264.186	0.1871
264.4002	0.1809
264.6144	0.186
264.8286	0.1884
265.0427	0.1861
265.2569	0.1889
265.471	0.1841
265.6851	0.1842
265.8993	0.185
266.1134	0.1868
266.3275	0.1883
266.5415	0.1814
266.7556	0.1776
266.9697	0.1845
267.1837	0.1886
267.3978	0.1889
267.6118	0.1817
267.8258	0.1893
268.0398	0.1822
268.2538	0.1849
268.4677	0.1862
268.6817	0.1799
268.8957	0.1845
269.1096	0.176
269.3235	0.1839
269.5374	0.182
269.7514	0.1827
269.9652	0.1833
270.1791	0.1838
270.393	0.1849
270.6068	0.1767
270.8207	0.176
271.0345	0.175
271.2483	0.1771
271.4622	0.1761
271.676	0.1751
271.8897	0.1723
272.1035	0.1771
272.3173	0.1712
272.531	0.1752
272.7448	0.1676
272.9585	0.1719
273.1722	0.1801
273.3859	0.1697
273.5996	0.1748
273.8133	0.1736
274.0269	0.1761
274.2406	0.1701
274.4542	0.1658
274.6679	0.1662
274.8815	0.1698
275.0951	0.1762
275.3087	0.1762
275.5223	0.1659
275.7358	0.1775
275.9494	0.1697
276.1629	0.1717
276.3765	0.1695
276.59	0.1754
276.8035	0.1814
277.017	0.1777
277.2305	0.1809
277.444	0.1751
277.6574	0.1773
277.8709	0.1809
278.0843	0.1772
278.2978	0.1819
278.5112	0.1844
278.7246	0.1755
278.938	0.178
279.1513	0.1812
279.3647	0.1782
279.5781	0.1785
279.7914	0.1821
280.0047	0.1765
280.2181	0.1843
280.4314	0.1785
280.6447	0.1874
280.8579	0.1761
281.0712	0.1796
281.2845	0.1881
281.4977	0.1834
281.711	0.1796
281.9242	0.185
282.1374	0.1844
282.3506	0.1859
282.5638	0.1852
282.7769	0.184
282.9901	0.1844
283.2033	0.1865
283.4164	0.186
283.6295	0.1879
283.8426	0.1901
284.0557	0.1869
284.2688	0.1909
284.4819	0.1942
284.695	0.1859
284.908	0.1957
285.1211	0.1833
285.3341	0.1928
285.5471	0.1943
285.7601	0.1952
285.9731	0.1889
286.1861	0.1921
286.3991	0.1943
286.612	0.1951
286.825	0.197
287.0379	0.1929
287.2508	0.1914
287.4637	0.1939
287.6766	0.1892
287.8895	0.1949
288.1024	0.193
288.3152	0.1943
288.5281	0.2017
288.7409	0.1976
288.9538	0.1888
289.1666	0.1974
289.3794	0.203
289.5922	0.1994
289.8049	0.2042
290.0177	0.1985
290.2304	0.203
290.4432	0.2009
290.6559	0.1932
290.8686	0.1996
291.0813	0.2006
291.294	0.2011
291.5067	0.1983
291.7194	0.2016
291.932	0.1989
292.1447	0.2036
292.3573	0.1983
292.5699	0.1996
292.7825	0.2031
292.9951	0.2026
293.2077	0.2016
293.4203	0.1994
293.6328	0.1925
293.8454	0.1962
294.0579	0.2043
294.2704	0.1998
294.4829	0.2024
294.6954	0.1961
294.9079	0.1999
295.1204	0.1934
295.3328	0.1955
295.5453	0.1996
295.7577	0.1988
295.9701	0.2028
296.1825	0.1998
296.3949	0.2038
296.6073	0.2018
296.8197	0.2008
297.0321	0.1961
297.2444	0.1988
297.4567	0.1954
297.6691	0.2002
297.8814	0.2057
298.0937	0.1939
298.306	0.201
298.5182	0.2058
298.7305	0.1947
298.9428	0.1982
299.155	0.2
299.3672	0.1972
299.5794	0.1975
299.7916	0.198
300.0038	0.1971
300.216	0.1984
300.4282	0.1962
300.6403	0.1937
300.8525	0.2062
301.0646	0.1985
301.2767	0.1955
301.4888	0.199
301.7009	0.1982
301.913	0.1975
302.125	0.1938
302.3371	0.1996
302.5491	0.2002
302.7612	0.2033
302.9732	0.1934
303.1852	0.1958
303.3972	0.1982
303.6092	0.193
303.8211	0.1851
304.0331	0.1924
304.245	0.1908
304.457	0.1938
304.6689	0.1909
304.8808	0.1903
305.0927	0.1935
305.3046	0.1869
305.5164	0.1847
305.7283	0.1889
305.9401	0.1875
306.152	0.1839
306.3638	0.1849
306.5756	0.1787
306.7874	0.1754
306.9992	0.178
307.2109	0.1735
307.4227	0.1713
307.6344	0.1724
307.8462	0.1725
308.0579	0.1677
308.2696	0.1615
308.4813	0.1582
308.693	0.164
308.9046	0.1574
309.1163	0.1586
309.328	0.1527
309.5396	0.1579
309.7512	0.1508
309.9628	0.1528
310.1744	0.1527
310.386	0.1467
310.5976	0.15
310.8091	0.144
311.0207	0.1507
311.2322	0.1526
311.4437	0.1453
311.6552	0.15
311.8667	0.1381
312.0782	0.1406
312.2897	0.1377
312.5012	0.1389
312.7126	0.1308
312.924	0.1352
313.1355	0.1324
313.3469	0.1288
313.5583	0.1263
313.7696	0.1285
313.981	0.1301
314.1924	0.1292
314.4037	0.1256
314.6151	0.1288
314.8264	0.1327
315.0377	0.1322
315.249	0.125
315.4603	0.1206
315.6716	0.1258
315.8828	0.1234
316.0941	0.1221
316.3053	0.1205
316.5165	0.1219
316.7277	0.1236
316.9389	0.1197
317.1501	0.1226
317.3613	0.1202
317.5724	0.1195
317.7836	0.1213
317.9947	0.1166
318.2058	0.1158
318.417	0.1152
318.6281	0.1185
318.8391	0.1166
319.0502	0.1139
319.2613	0.12
319.4723	0.1151
319.6834	0.1209
319.8944	0.1247
320.1054	0.118
320.3164	0.122
320.5274	0.1108
320.7383	0.1145
320.9493	0.1193
321.1602	0.12
321.3712	0.1215
321.5821	0.1174
321.793	0.1176
322.0039	0.1142
322.2148	0.122
322.4257	0.1168
322.6365	0.1136
322.8474	0.1116
323.0582	0.1192
323.269	0.1133
323.4798	0.1159
323.6906	0.1186
323.9014	0.1134
324.1122	0.1131
324.3229	0.1218
324.5337	0.1199
324.7444	0.1205
324.9551	0.122
325.1658	0.1171
325.3765	0.1191
325.5872	0.1173
325.7979	0.118
326.0085	0.1205
326.2192	0.1114
326.4298	0.121
326.6404	0.1188
326.851	0.1167
327.0616	0.128
327.2722	0.1252
327.4828	0.116
327.6933	0.1195
327.9039	0.1201
328.1144	0.1197
328.3249	0.1278
328.5354	0.1163
328.7459	0.1241
328.9564	0.1226
329.1669	0.1268
329.3773	0.1235
329.5878	0.125
329.7982	0.118
330.0086	0.1196
330.219	0.1309
330.4294	0.1252
330.6398	0.1251
330.8502	0.1235
331.0605	0.1209
331.2708	0.1227
331.4812	0.1232
331.6915	0.1248
331.9018	0.1156
332.1121	0.1302
332.3224	0.1267
332.5326	0.1235
332.7429	0.1173
332.9531	0.1269
333.1633	0.1244
333.3735	0.1318
333.5837	0.1287
333.7939	0.1208
334.0041	0.1243
334.2143	0.1254
334.4244	0.1213
334.6346	0.1209
334.8447	0.1264
335.0548	0.1302
335.2649	0.1298
335.475	0.1271
335.685	0.1243
335.8951	0.1333
336.1051	0.1252
336.3152	0.1333
336.5252	0.1267
336.7352	0.1283
336.9452	0.1298
337.1552	0.1281
337.3652	0.1244
337.5751	0.1262
337.7851	0.1286
337.995	0.1276
338.2049	0.1283
338.4148	0.1299
338.6247	0.1244
338.8346	0.1308
339.0445	0.1339
339.2543	0.134
339.4642	0.1303
339.674	0.1346
339.8838	0.136
340.0936	0.1296
340.3034	0.1329
340.5132	0.1344
340.7229	0.133
340.9327	0.1322
341.1424	0.1338
341.3522	0.1461
341.5619	0.1456
341.7716	0.1392
341.9813	0.1387
342.1909	0.1425
342.4006	0.1462
342.6102	0.1378
342.8199	0.1377
343.0295	0.1415
343.2391	0.1405
343.4487	0.1483
343.6583	0.144
343.8679	0.145
344.0774	0.149
344.287	0.1391
344.4965	0.1477
344.706	0.1547
344.9155	0.1449
345.125	0.1499
345.3345	0.1476
345.544	0.1517
345.7534	0.1459
345.9629	0.1516
346.1723	0.1464
346.3817	0.1562
346.5911	0.1537
346.8005	0.1471
347.0099	0.1612
347.2193	0.1508
347.4286	0.1546
347.638	0.1518
347.8473	0.1538
348.0566	0.1555
348.2659	0.1604
348.4752	0.1595
348.6845	0.1581
348.8937	0.1654
349.103	0.1584
349.3122	0.1636
349.5214	0.1575
349.7306	0.1623
349.9398	0.1615
350.149	0.1637
350.3582	0.1539
350.5674	0.1696
350.7765	0.1656
350.9856	0.1637
351.1948	0.1598
351.4039	0.1619
351.613	0.1753
351.822	0.1691
352.0311	0.1661
352.2402	0.1711
352.4492	0.168
352.6582	0.1709
352.8672	0.1645
353.0762	0.1678
353.2852	0.1762
353.4942	0.1689
353.7032	0.1713
353.9121	0.1786
354.1211	0.1672
354.33	0.1832
354.5389	0.1804
354.7478	0.1831
354.9567	0.1811
355.1655	0.1827
355.3744	0.1729
355.5833	0.1826
355.7921	0.1773
356.0009	0.1754
356.2097	0.1861
356.4185	0.1884
356.6273	0.1791
356.8361	0.1951
357.0448	0.1914
357.2536	0.1826
357.4623	0.1894
357.671	0.1884
357.8797	0.1983
358.0884	0.1957
358.2971	0.1879
358.5057	0.2021
358.7144	0.2022
358.923	0.1948
359.1316	0.1919
359.3402	0.1986
359.5488	0.1993
359.7574	0.2006
359.966	0.2003
360.1746	0.1947
360.3831	0.2099
360.5916	0.1999
360.8002	0.2108
361.0087	0.2182
361.2172	0.216
361.4256	0.2047
361.6341	0.207
361.8426	0.2041
362.051	0.2151
362.2594	0.216
362.4678	0.2144
362.6762	0.2206
362.8846	0.2206
363.093	0.2163
363.3014	0.2269
363.5097	0.221
363.718	0.2302
363.9264	0.2225
364.1347	0.2272
364.343	0.2323
364.5513	0.2241
364.7595	0.2323
364.9678	0.2286
365.176	0.2306
365.3842	0.2281
365.5925	0.2238
365.8007	0.2349
366.0089	0.2258
366.217	0.2294
366.4252	0.2392
366.6333	0.2332
366.8415	0.2339
367.0496	0.2312
367.2577	0.2416
367.4658	0.2459
367.6739	0.2432
367.882	0.2461
368.09	0.2397
368.2981	0.2432
368.5061	0.251
368.7141	0.2428
368.9221	0.2514
369.1301	0.2441
369.3381	0.262
369.5461	0.2605
369.754	0.2496
369.962	0.2558
370.1699	0.2654
370.3778	0.2593
370.5857	0.2611
370.7936	0.2571
371.0015	0.2572
371.2093	0.2624
371.4172	0.2678
371.625	0.2683
371.8328	0.2635
372.0406	0.2573
372.2484	0.2541
372.4562	0.2632
372.664	0.2771
372.8717	0.2748
373.0795	0.2693
373.2872	0.2692
373.4949	0.2769
373.7026	0.2706
373.9103	0.27
374.118	0.2701
374.3256	0.2829
374.5333	0.2786
374.7409	0.2704
374.9485	0.2802
375.1561	0.2784
375.3637	0.2781
375.5713	0.2665
375.7789	0.2737
375.9864	0.2768
376.194	0.2817
376.4015	0.2793
376.609	0.2901
376.8165	0.2884
377.024	0.2799
377.2315	0.2885
377.4389	0.2789
377.6464	0.2811
377.8538	0.2943
378.0612	0.2898
378.2686	0.297
378.476	0.2862
378.6834	0.2847
378.8908	0.2955
379.0981	0.3014
379.3055	0.2991
379.5128	0.3011
379.7201	0.2866
379.9274	0.2843
380.1347	0.3038
380.342	0.3026
380.5492	0.3026
380.7565	0.2926
380.9637	0.3005
381.1709	0.2968
381.3781	0.3017
381.5853	0.3016
381.7925	0.3002
381.9997	0.304
382.2068	0.2878
382.4139	0.3102
382.6211	0.3153
382.8282	0.3066
383.0353	0.3116
383.2424	0.31
383.4494	0.3132
383.6565	0.3099
383.8635	0.3243
384.0706	0.3076
384.2776	0.3252
384.4846	0.3073
384.6916	0.3106
384.8986	0.313
385.1055	0.3186
385.3125	0.3044
385.5194	0.3097
385.7263	0.2941
385.9333	0.3157
386.1402	0.3222
386.347	0.3049
386.5539	0.3175
386.7608	0.3141
386.9676	0.3197
387.1744	0.3163
387.3813	0.3137
387.5881	0.3079
387.7948	0.3097
388.0016	0.31
388.2084	0.3111
388.4151	0.3165
388.6219	0.3009
388.8286	0.3095
389.0353	0.2986
389.242	0.314
389.4487	0.3105
389.6553	0.3078
389.862	0.3007
390.0686	0.3171
390.2753	0.3129
390.4819	0.3105
390.6885	0.2946
390.8951	0.3079
391.1016	0.2988
391.3082	0.3004
391.5147	0.2959
391.7213	0.2949
391.9278	0.3041
392.1343	0.3045
392.3408	0.2917
392.5473	0.2946
392.7537	0.2911
392.9602	0.293
393.1666	0.2844
393.373	0.2906
393.5794	0.2911
393.7858	0.297
393.9922	0.2848
394.1986	0.2863
394.4049	0.2913
394.6113	0.2825
394.8176	0.2729
395.0239	0.2832
395.2302	0.2782
395.4365	0.291
395.6428	0.2871
395.8491	0.2804
396.0553	0.2679
396.2615	0.2681
396.4678	0.2727
396.674	0.2658
396.8802	0.2701
397.0863	0.269
397.2925	0.2748
397.4987	0.2671
397.7048	0.2797
397.9109	0.2728
398.117	0.267
398.3231	0.2757
398.5292	0.2776
398.7353	0.2663
398.9413	0.2744
399.1474	0.2749
399.3534	0.2724
399.5594	0.2686
399.7654	0.2626
399.9714	0.2646
400.1774	0.2645
400.3833	0.2662
400.5893	0.2619
400.7952	0.2613
401.0011	0.2587
401.207	0.2685
401.4129	0.2653
401.6188	0.2657
401.8247	0.2701
402.0305	0.259
402.2364	0.2664
402.4422	0.2732
402.648	0.2733
402.8538	0.2774
403.0596	0.2507
403.2654	0.2607
403.4711	0.2733
403.6768	0.2688
403.8826	0.2668
404.0883	0.2652
404.294	0.2785
404.4997	0.2674
404.7054	0.2755
404.911	0.2613
405.1167	0.271
405.3223	0.2734
405.5279	0.2743
405.7335	0.2603
405.9391	0.2666
406.1447	0.2707
406.3502	0.2771
406.5558	0.2781
406.7613	0.2708
406.9668	0.2701
407.1724	0.2769
407.3778	0.2599
407.5833	0.2734
407.7888	0.2731
407.9942	0.268
408.1997	0.2734
408.4051	0.2623
408.6105	0.2765
408.8159	0.2642
409.0213	0.2677
409.2267	0.2684
409.432	0.2713
409.6374	0.2685
409.8427	0.2696
410.048	0.2697
410.2533	0.2612
410.4586	0.2723
410.6639	0.261
410.8691	0.2742
411.0744	0.2577
411.2796	0.2701
411.4848	0.2635
411.69	0.2583
411.8952	0.2671
412.1004	0.2586
412.3056	0.2611
412.5107	0.2698
412.7158	0.273
412.921	0.2653
413.1261	0.2703
413.3312	0.2614
413.5362	0.2641
413.7413	0.2571
413.9464	0.2621
414.1514	0.2659
414.3564	0.2575
414.5614	0.266
414.7664	0.2558
414.9714	0.2645
415.1764	0.2685
415.3813	0.2533
415.5863	0.2632
415.7912	0.2559
415.9961	0.2546
416.201	0.2613
416.4059	0.2611
416.6108	0.2652
416.8156	0.2587
417.0205	0.2611
417.2253	0.2641
417.4301	0.2655
417.6349	0.2557
417.8397	0.2674
418.0445	0.2572
418.2492	0.2618
418.454	0.252
418.6587	0.2601
418.8634	0.2532
419.0681	0.2566
419.2728	0.2551
419.4775	0.2562
419.6822	0.253
419.8868	0.2473
420.0915	0.264
420.2961	0.2489
420.5007	0.247
420.7053	0.2546
420.9099	0.2389
421.1144	0.2437
421.319	0.2362
421.5235	0.232
421.728	0.2414
421.9325	0.2468
422.137	0.2442
422.3415	0.2346
422.546	0.2392
422.7504	0.2435
422.9549	0.2355
423.1593	0.2422
423.3637	0.2414
423.5681	0.241
423.7725	0.2351
423.9769	0.234
424.1812	0.2313
424.3856	0.2434
424.5899	0.2357
424.7942	0.2234
424.9985	0.2274
425.2028	0.2379
425.4071	0.2222
425.6113	0.2378
425.8156	0.2299
426.0198	0.2198
426.224	0.2293
426.4282	0.2234
426.6324	0.2216
426.8366	0.2214
427.0407	0.2196
427.2449	0.2163
427.449	0.2136
427.6531	0.2159
427.8572	0.2144
428.0613	0.2096
428.2654	0.21
428.4694	0.2084
428.6735	0.2054
428.8775	0.2048
429.0815	0.2126
429.2855	0.2012
429.4895	0.1968
429.6935	0.1974
429.8975	0.2013
430.1014	0.2005
430.3053	0.1947
430.5093	0.1959
430.7132	0.2042
430.9171	0.1818
431.1209	0.1915
431.3248	0.1907
431.5286	0.1779
431.7325	0.1909
431.9363	0.1887
432.1401	0.1856
432.3439	0.1799
432.5477	0.1928
432.7514	0.1693
432.9552	0.1783
433.1589	0.1748
433.3627	0.1759
433.5664	0.1695
433.7701	0.1703
433.9737	0.1667
434.1774	0.1706
434.3811	0.1702
434.5847	0.1586
434.7883	0.1612
434.9919	0.1582
435.1955	0.1611
435.3991	0.1586
435.6027	0.1545
435.8062	0.1519
436.0098	0.1522
436.2133	0.1558
436.4168	0.1504
436.6203	0.1418
436.8238	0.1497
437.0272	0.1393
437.2307	0.1348
437.4341	0.1402
437.6375	0.1306
437.841	0.1377
438.0443	0.1316
438.2477	0.1257
438.4511	0.131
438.6545	0.1274
438.8578	0.1345
439.0611	0.1327
439.2644	0.1079
439.4677	0.1228
439.671	0.1175
439.8743	0.1114
440.0775	0.1155
440.2808	0.1233
440.484	0.1084
440.6872	0.1088
440.8904	0.1119
441.0936	0.1116
441.2967	0.0988
441.4999	0.1081
441.703	0.1025
441.9062	0.0989
442.1093	0.0979
442.3124	0.0992
442.5155	0.0935
442.7185	0.0773
442.9216	0.0886
443.1246	0.0883
443.3276	0.0889
443.5307	0.0844
443.7337	0.0886
443.9366	0.0818
444.1396	0.0749
444.3426	0.0834
444.5455	0.0733
444.7484	0.0706
444.9513	0.0839
445.1542	0.082
445.3571	0.0686
445.56	0.0731
445.7628	0.0732
445.9657	0.0733
446.1685	0.0789
446.3713	0.0721
446.5741	0.0611
446.7769	0.0612
446.9797	0.0701
447.1824	0.0692
447.3852	0.0538
447.5879	0.0658
447.7906	0.0623
447.9933	0.0635
448.196	0.0526
448.3986	0.0491
448.6013	0.0634
448.8039	0.0566
449.0066	0.0576
449.2092	0.0455
449.4118	0.0523
449.6143	0.0516
449.8169	0.0472
450.0195	0.0517
450.222	0.0508
450.4245	0.0533
450.627	0.0429
450.8295	0.0424
451.032	0.0454
451.2345	0.0482
451.4369	0.0381
451.6394	0.0406
451.8418	0.0428
452.0442	0.045
452.2466	0.0417
452.449	0.0293
452.6513	0.0373
452.8537	0.0451
453.056	0.0501
453.2583	0.0389
453.4607	0.0327
453.663	0.0337
453.8652	0.0263
454.0675	0.0391
454.2697	0.037
454.472	0.0321
454.6742	0.023
454.8764	0.033
455.0786	0.0441
455.2808	0.0323
455.4829	0.0277
455.6851	0.0227
455.8872	0.031
456.0893	0.0268
456.2915	0.0243
456.4935	0.0208
456.6956	0.0309
456.8977	0.0249
457.0997	0.0259
457.3018	0.0325
457.5038	0.0273
457.7058	0.0223
457.9078	0.0323
458.1098	0.0263
458.3117	0.0292
458.5137	0.0212
458.7156	0.0254
458.9175	0.0123
459.1194	0.0248
459.3213	0.017
459.5232	0.0177
459.725	0.0189
459.9269	0.0188
460.1287	0.01
460.3305	0.0133
460.5323	0.0196
460.7341	0.0143
460.9359	0.0193
461.1376	0.0074
461.3394	0.0155
461.5411	0.0211
461.7428	0.0166
461.9445	0.007
462.1462	0.0119
462.3479	0.0151
462.5495	0.0111
462.7512	0.0098
462.9528	0.0145
463.1544	0.0072
463.356	0.0122
463.5576	0.0061
463.7592	0.0003
463.9607	0.0116
464.1623	0.0233
464.3638	0.0099
464.5653	0.0187
464.7668	0.0142
464.9683	0.0181
465.1697	0.008
465.3712	0.0066
465.5726	0.0099
465.7741	0.0191
465.9755	0.0132
466.1769	0.0123
466.3782	0.0007
466.5796	0.0079
466.7809	0.0142
466.9823	0.0083
467.1836	0.0207
467.3849	0.0042
467.5862	-0.0029
467.7875	0.0134
467.9887	0.0093
468.19	0.0029
468.3912	0.0115
468.5924	0.022
468.7936	0.0072
468.9948	0.0172
469.196	0.0049
469.3972	0.0133
469.5983	0.011
469.7994	0.0119
470.0006	0.0079
470.2017	0.0154
470.4027	0.0068
470.6038	0.0031
470.8049	-0.0072
471.0059	0.006
471.2069	0.0158
471.408	0.008
471.6089	0.0023
471.8099	0.0011
472.0109	0.003
472.2119	0.0122
472.4128	0.0134
472.6137	0.0029
472.8146	-0
473.0155	-0.0028
473.2164	-0.0089
473.4173	0.0069
473.6181	0.0115
473.819	-0.0017
474.0198	0.0077
474.2206	0.0115
474.4214	0.0134
474.6222	0.0049
474.8229	-0.0014
475.0237	-0.003
475.2244	0.0122
475.4251	-0.0002
475.6258	0.0026
475.8265	-0.0055
476.0272	0.0102
476.2278	-0.0019
476.4285	0.002
476.6291	0.0112
476.8297	-0.0025
477.0303	0.0107
477.2309	-0.0061
477.4315	0.0111
477.632	0.0013
477.8326	-0.0003
478.0331	0.0063
478.2336	0.0074
478.4341	0.0079
478.6346	-0.0027
478.8351	0.0097
479.0355	0.0032
479.236	-0.0012
479.4364	-0.0018
479.6368	0.004
479.8372	0.0157
480.0376	0.0011
480.2379	0.0042
480.4383	-0.001
480.6386	-0.0037
480.8389	0.0084
481.0392	0.0093
481.2395	0.0058
481.4398	0.0011
481.6401	0.0006
481.8403	-0.0047
482.0405	-0.0052
482.2408	-0.0022
482.441	0.0001
482.6411	-0.0039
482.8413	-0.0053
483.0415	0.0062
483.2416	0.0005
483.4417	0.0027
483.6419	-0.0053
483.8419	0.0034
484.042	0.0053
484.2421	0.0037
484.4422	0.0062
484.6422	0.0105
484.8422	-0
485.0422	-0.0008
485.2422	0.0024
485.4422	0.0007
485.6422	0.0018
485.8421	-0.002
486.042	0.0039
486.242	0.0001
486.4419	0.0032
486.6417	0.0003
486.8416	0.0053
487.0415	-0.0011
487.2413	0.0015
487.4411	0.0062
487.641	0.0079
487.8408	0.0092
488.0405	0.009
488.2403	-0.0033
488.4401	-0.0043
488.6398	0.0052
488.8395	0.0065
489.0392	0.0077
489.2389	-0.0021
489.4386	0.0033
489.6383	0.0019
489.8379	-0.0018
490.0376	0.0166
490.2372	-0.0042
490.4368	0.0169
490.6364	0.0042
490.836	0.0075
491.0355	0.0011
491.2351	0.0024
491.4346	0.0048
491.6341	0.0019
491.8336	0.0025
492.0331	0.004
492.2326	-0.0008
492.432	0.0066
492.6315	-0.0023
492.8309	0.0039
493.0303	-0.0014
493.2297	0.0035
493.4291	-0.0036
493.6284	0.0002
493.8278	-0.0033
494.0271	-0.0023
494.2264	0.001
494.4257	-0.0009
494.625	0.004
494.8243	0.0137
495.0236	0.0031
495.2228	-0.0067
495.422	0.0004
495.6213	0.0056
495.8205	-0
496.0196	0.0103
496.2188	0.0084
496.418	-0.0011
496.6171	-0.0012
496.8162	0.0032
497.0153	0.0061
497.2144	0.0008
497.4135	0.006
497.6126	-0.0023
497.8116	0.001
498.0107	-0.0037
498.2097	0.0001
498.4087	0.0021
498.6077	0.0059
498.8067	0.0105
499.0056	-0.0078
499.2046	0.0007
499.4035	-0.0091
499.6024	-0.0083
499.8013	-0.0018
500.0002	0.0032
500.199	0.0015
500.3979	0.0006
500.5967	-0.0036
500.7956	-0.0022
500.9944	-0.0044
501.1932	0.005
501.3919	0.0085
501.5907	0.005
501.7895	-0.0082
501.9882	-0.0059
502.1869	-0.0084
502.3856	-0.0066
502.5843	0.0039
502.783	0.0022
502.9816	-0.0086
503.1803	0.0071
503.3789	0.0126
503.5775	0.0016
503.7761	0.0032
503.9747	-0.005
504.1732	0.0039
504.3718	-0.002
504.5703	-0.0068
504.7689	-0.0021
504.9674	-0.0039
505.1658	0.0027
505.3643	0.0035
505.5628	0.0058
505.7612	0.007
505.9597	-0.0007
506.1581	-0.0081
506.3565	-0.0112
506.5549	0.0045
506.7532	0.0004
506.9516	-0.0007
507.1499	0.0059
507.3482	0.007
507.5465	-0.0078
507.7448	0.0047
507.9431	-0.0082
508.1414	0.0007
508.3396	0.0031
508.5379	0.0012
508.7361	0.0047
508.9343	0.0002
509.1325	0.0046
509.3306	-0.0057
509.5288	0.0127
509.7269	0.0043
509.9251	-0.0061
510.1232	-0.006
510.3213	-0.0018
510.5193	0.0088
510.7174	-0.0044
510.9154	-0.0013
511.1135	-0.0076
511.3115	-0.0013
511.5095	0.0047
511.7075	-0.0039
511.9055	0.0091
512.1034	-0.0015
512.3014	-0.0029
512.4993	-0.0042
512.6972	-0.0082
512.8951	0.0018
513.093	0.0003
513.2908	-0.0054
513.4887	0.0068
513.6865	-0.0059
513.8844	0.0055
514.0822	-0.0009
514.2799	-0.001
514.4777	-0.0015
514.6755	0.0065
514.8732	0.0061
515.0709	0.0103
515.2687	0.0002
515.4664	-0.0119
515.664	0.0081
515.8617	0.01
516.0594	0.0078
516.257	0.0037
516.4546	-0.0029
516.6522	-0.0031
516.8498	-0.0029
517.0474	-0.0053
517.2449	0.0028
517.4425	-0.0087
517.64	-0.0059
517.8375	0.013
518.035	-0.0001
518.2325	-0.0099
518.43	0.0019
518.6274	-0.0043
518.8249	0.0125
519.0223	-0.0001
519.2197	-0.001
519.4171	-0.0016
519.6145	0.0011
519.8118	0.0002
520.0092	-0.0035
520.2065	-0.0018
520.4038	-0.0078
520.6011	0.0062
520.7984	0.0091
520.9956	0.003
521.1929	-0.0028
521.3901	0.0021
521.5874	0.0048
521.7846	-0.0025
521.9818	0.0011
522.1789	0.0109
522.3761	0.0088
522.5732	-0.0056
522.7704	0.0115
522.9675	-0.0059
523.1646	0.017
523.3617	0.0042
523.5587	0.0057
523.7558	0.0037
523.9528	0.0012
524.1498	-0.0097
524.3468	-0.0027
524.5438	-0.0043
524.7408	-0.0044
524.9378	0.0016
525.1347	0.0133
525.3316	0.0115
525.5285	-0.0072
525.7254	0.0041
525.9223	-0.0026
526.1192	-0.0035
526.316	-0.0092
526.5129	0.0091
526.7097	-0.0151
526.9065	0.0023
527.1033	0.0013
527.3	-0.0063
527.4968	-0.0088
527.6935	-0.0094
527.8903	0.0034
528.087	0.0001
528.2837	0.001
528.4804	0.0079
528.677	0.005
528.8737	-0.0016
529.0703	0.0051
529.2669	0.0068
529.4635	0.0094
529.6601	0.0048
529.8567	0.0016
530.0532	0
530.2498	-0.0037
530.4463	0.0036
530.6428	-0.0064
530.8393	-0.0056
531.0358	0.0034
531.2322	0.0031
531.4287	-0.0032
531.6251	0.0137
531.8215	0.0012
532.0179	-0.0085
532.2143	0.0127
532.4107	-0.0011
532.607	0.0076
532.8034	0.0055
532.9997	-0.0036
533.196	0.0202
533.3923	-0.0001
533.5886	0.0092
533.7848	-0.0091
533.9811	-0.012
534.1773	0.0029
534.3735	0.005
534.5697	-0.0083
534.7659	-0.0053
534.9621	0.005
535.1582	0.0081
535.3544	0.0091
535.5505	-0.0094
535.7466	0.0062
535.9427	-0.0003
536.1387	0.0068
536.3348	0.0064
536.5308	0.0103
536.7269	-0.0074
536.9229	0.0018
537.1189	0.0029
537.3148	-0.0002
537.5108	-0.0073
537.7068	0.0085
537.9027	0.009
538.0986	-0.0045
538.2945	-0.0089
538.4904	-0.0062
538.6863	0.0123
538.8821	-0.0015
539.078	0.0024
539.2738	-0.0008
539.4696	0.0032
539.6654	0.0052
539.8611	0.0017
540.0569	-0.0014
540.2526	-0.003
540.4484	-0.0145
540.6441	0.0079
540.8398	-0.005
541.0355	0.0028
541.2311	0.0056
541.4268	-0.004
541.6224	0.0075
541.818	-0.0074
542.0136	-0.0122
542.2092	0.0061
542.4048	0.0061
542.6003	0.0033
542.7959	0.0007
542.9914	0.008
543.1869	0.0033
543.3824	0.008
543.5779	-0.0065
543.7734	-0.0027
543.9688	0.0062
544.1642	0.0122
544.3596	-0.0051
544.555	0.0001
544.7504	-0.0049
544.9458	0.0017
545.1411	0.0012
545.3365	0.0041
545.5318	-0.0013
545.7271	0.0107
545.9224	-0.005
546.1177	0.0029
546.3129	-0.0065
546.5081	-0.0081
546.7034	-0.0041
546.8986	0.0037
547.0938	0.0022
547.289	0.005
547.4841	0.003
547.6793	-0.0085
547.8744	-0.002
548.0695	-0.0016
548.2646	-0.0073
548.4597	-0.0035
548.6548	0.0016
548.8498	0.0033
549.0448	-0.0042
549.2399	0.0013
549.4349	0.0031
549.6298	-0.0073
549.8248	-0.0013
550.0198	0.0076
550.2147	-0.0066
550.4096	0.0025
550.6045	0.0091
550.7994	0.0122
550.9943	0.0047
551.1892	-0.0029
551.384	-0.0034
551.5788	-0.001
551.7737	-0.0112
551.9685	0.0079
552.1632	0.0047
552.358	0.0038
552.5528	-0.0051
552.7475	-0.0082
552.9422	0.0035
553.1369	0.0055
553.3316	-0.0033
553.5263	-0.0068
553.7209	0.0013
553.9156	0.0038
554.1102	0.0004
554.3048	0.0062
554.4994	0.0048
554.694	0.0027
554.8885	0.0056
555.0831	0.0136
555.2776	-0.0011
555.4721	-0.0083
555.6666	0.0034
555.8611	0.0014
556.0555	0.0113
556.25	-0.0014
556.4444	-0.0029
556.6388	0.0016
556.8332	0.0017
557.0276	0.0058
557.222	0.0025
557.4163	0.0083
557.6107	0.0003
557.805	-0.0073
557.9993	-0.005
558.1936	0.0172
558.3879	-0.0026
558.5821	0.0011
558.7764	0.014
558.9706	0.0011
559.1648	-0.0066
559.359	0.0111
559.5532	-0.0083
559.7473	0.0014
559.9415	-0.0042
560.1356	0.0068
560.3297	0.0012
560.5238	0.0107
560.7179	-0.0029
560.9119	0.0057
561.106	0
561.3	0.0036
561.494	0.0067
561.688	0.0101
561.882	0.0134
562.076	0.0091
562.2699	-0.0028
562.4639	-0.0025
562.6578	0.0202
562.8517	0.0084
563.0456	0.0013
563.2395	-0.0027
563.4333	-0.0049
563.6272	0.0032
563.821	0.0111
564.0148	-0.004
564.2086	0.0012
564.4024	-0.0038
564.5961	0.008
564.7899	0.0055
564.9836	0.0022
565.1773	-0.0057
565.371	0.0047
565.5647	-0.0085
565.7584	0
565.952	-0.0012
566.1456	-0.0029
566.3393	0.0045
566.5329	-0.0091
566.7264	-0.0006
566.92	-0.0019
567.1136	0.0006
567.3071	0.0033
567.5006	-0.009
567.6941	-0.0012
567.8876	-0.0021
568.0811	-0.0066
568.2745	-0.0096
568.468	0.0039
568.6614	0.0001
568.8548	0.004
569.0482	0.0036
569.2416	0.0025
569.4349	0.0012
569.6283	0.0003
569.8216	-0.0052
570.0149	0.0025
570.2082	-0.0008
570.4015	0.0065
570.5947	0.001
570.788	-0.0007
570.9812	-0.0003
571.1744	0.0006
571.3676	-0.0031
571.5608	0.0003
571.754	-0.0033
571.9471	0.0074
572.1402	-0.0005
572.3333	-0.0016
572.5264	0.0052
572.7195	0.0039
572.9126	0.001
573.1057	0.001
573.2987	-0.0022
573.4917	0.0015
573.6847	0.0044
573.8777	-0
574.0707	-0.004
574.2636	0.0007
574.4566	0.0002
574.6495	0.0037
574.8424	-0.0004
575.0353	-0.0035
575.2281	-0.005
575.421	-0.0026
575.6138	0.0002
575.8067	-0.0021
575.9995	0.0028
576.1923	0.004
576.385	0.0019
576.5778	0.0015
576.7706	0.0024
576.9633	0.0031
577.156	-0.0004
577.3487	-0.0013
577.5414	-0.0016
577.734	-0
577.9267	-0.0017
578.1193	0.0028
578.3119	-0.0036
578.5045	0.0018
578.6971	0.0027
578.8897	0.0004
579.0822	0.001
579.2747	-0.0047
579.4673	0.0033
579.6598	-0.0032
579.8522	0.0007
580.0447	-0.0011
580.2372	0.0057
580.4296	0.0029
580.622	0.0032
580.8144	-0.0015
581.0068	0.0013
581.1992	0.0028
581.3915	-0.0018
581.5839	0.0016
581.7762	0.0014
581.9685	-0.0029
582.1608	0.001
582.353	-0.0026
582.5453	0.0031
582.7375	0.0009
582.9298	-0.0025
583.122	-0.0063
583.3142	0.0061
583.5063	0.0008
583.6985	0.0002
583.8906	-0.0035
584.0827	0.0015
584.2749	-0.0012
584.4669	-0.0022
584.659	0.0025
584.8511	0.0034
585.0431	-0.0001
585.2352	-0.004
585.4272	-0
585.6192	0.0038
585.8111	-0.0096
586.0031	-0.0002
586.195	0.0001
586.387	0.0029
586.5789	0.0003
586.7708	-0.0025
586.9627	0.0016
587.1545	0.0003
587.3464	0.0053
587.5382	0.0005
587.73	0.0037
587.9218	0.002
588.1136	-0.0075
588.3053	0
588.4971	0.0014
588.6888	-0.0042
588.8805	0.0013
589.0722	0.0032
589.2639	-0.0005
589.4556	-0.0084
589.6472	-0.004
589.8389	0.0011
590.0305	-0.0023
590.2221	0.0044
590.4137	-0.0043
590.6052	-0.0016
590.7968	0.0051
590.9883	0.0023
591.1798	-0.0027
591.3713	-0.0012
591.5628	0.0064
591.7543	0.0038
591.9458	0.0066
592.1372	-0.0004
592.3286	-0.0034
592.52	0.0013
592.7114	-0.0028
592.9028	-0.0024
593.0941	0.0005
593.2855	0.0039
593.4768	-0.0012
593.6681	0.001
593.8594	-0.0029
594.0506	-0.0001
594.2419	-0.003
594.4331	-0.001
594.6244	0.0022
594.8156	0.0017
595.0067	0.0015
595.1979	-0.0024
595.3891	0.0015
595.5802	-0.0051
595.7713	-0.0009
595.9624	0.0011
596.1535	0.001
596.3446	0.001
596.5357	-0.0039
596.7267	0.0048
596.9177	-0.0027
597.1087	-0.0032
597.2997	0.0007
597.4907	0.0036
597.6817	0
597.8726	0.0051
598.0635	-0.0036
598.2544	-0.0064
598.4453	-0.004
598.6362	-0.0029
598.827	0.0052
599.0179	0.0011
599.2087	-0.0035
599.3995	0.0032
599.5903	0.0077
599.7811	-0.0009
599.9718	0.0022
600.1626	-0
600.3533	-0.0006
600.544	-0
600.7347	0.0007
600.9254	0.0018
601.116	-0.0016
601.3067	-0.0014
601.4973	0.0047
601.6879	-0.0013
601.8785	-0.0001
602.0691	0.0043
602.2596	-0.0024
602.4502	0.0026
602.6407	0.0033
602.8312	-0.0003
603.0217	0.0073
603.2122	0.0119
603.4027	0.0031
603.5931	0.0026
603.7835	0.0035
603.9739	0.0004
604.1643	0.0013
604.3547	0.0056
604.5451	0.0053
604.7354	-0.0057
604.9257	0.0022
605.116	-0.0019
605.3063	-0.0016
605.4966	0.0054
605.6869	0.0011
605.8771	0.0013
606.0673	-0.0044
606.2575	0.002
606.4477	0.0093
606.6379	-0.0007
606.8281	-0.0058
607.0182	-0.0024
607.2083	0.0028
607.3985	0.0037
607.5885	0.0031
607.7786	0.0056
607.9687	-0.0062
608.1587	-0.0002
608.3488	-0.0048
608.5388	0.0003
608.7288	-0.0047
608.9187	0.0096
609.1087	-0.0022
609.2986	-0.0024
609.4886	0.0072
609.6785	0.006
609.8684	-0.0001
610.0582	-0.0013
610.2481	0.0015
610.4379	0.0012
610.6278	-0.0056
610.8176	-0.0037
611.0074	-0.0009
611.1971	0.0015
611.3869	0.005
611.5766	-0.0009
611.7664	-0.0013
611.9561	0.0015
612.1458	0.0061
612.3354	0.0068
612.5251	0.003
612.7147	0.0094
612.9044	-0.0008
613.094	0.0015
613.2836	-0.002
613.4731	-0.0019
613.6627	0.0047
613.8522	-0.0019
614.0417	-0.0025
614.2313	-0.0095
614.4207	0.0046
614.6102	-0.0057
614.7997	-0.0002
614.9891	0.0022
615.1785	-0.0067
615.3679	-0.0022
615.5573	-0.0077
615.7467	0.0017
615.9361	-0.0042
616.1254	-0.004
616.3147	-0.0002
616.504	0.0018
616.6933	-0.0002
616.8826	0.001
617.0718	-0.0121
617.2611	-0.0082
617.4503	-0.0033
617.6395	-0.0022
617.8287	0.0003
618.0179	-0.0027
618.207	0.007
618.3961	0.0003
618.5853	-0.003
618.7744	0.0019
618.9634	0.0003
619.1525	-0.0003
619.3416	0.001
619.5306	0.0047
619.7196	-0.0058
619.9086	0.0069
620.0976	0.0055
620.2866	0.0001
620.4755	0.0035
620.6645	-0.0047
620.8534	-0.0117
621.0423	-0.0073
621.2312	-0.0091
621.42	-0.0057
621.6089	0.0018
621.7977	-0.0105
621.9865	0.0119
622.1753	0.0012
622.3641	-0.0144
622.5529	-0.0154
622.7416	-0.003
622.9303	-0.0035
623.1191	-0.0065
623.3078	-0.0009
623.4964	-0.0129
623.6851	0.0045
623.8737	0.008
624.0624	0.0029
624.251	-0.006
624.4396	-0.0039
624.6282	0.0058
624.8167	0.007
625.0053	0.0036
625.1938	0.009
625.3823	-0.001
625.5708	-0.0025
625.7593	-0.0067
625.9477	-0.0063
626.1362	0.0013
626.3246	-0.0062
626.513	-0.0053
626.7014	0.0008
626.8898	0.0033
627.0781	0.0008
627.2665	0.009
627.4548	0.0016
627.6431	-0.0131
627.8314	-0.005
628.0197	0.0118
628.2079	-0.0062
628.3962	0.0082
628.5844	-0.0102
628.7726	-0.0037
628.9608	0.0003
629.1489	-0.0023
629.3371	0.0018
629.5252	0.0159
629.7134	0.0065
629.9015	-0.002
630.0895	0.0049
630.2776	-0.0096
630.4657	-0.0027
630.6537	-0.0019
630.8417	-0.0069
631.0297	0.0096
631.2177	0.008
631.4057	-0.0059
631.5936	-0.0059
631.7815	-0.0015
631.9695	0.0086
632.1574	-0.011
632.3452	0.0084
632.5331	0.0002
632.7209	0.0116
632.9088	0.0053
633.0966	-0.006
633.2844	0.0007
633.4722	0.0056
633.6599	-0.0217
633.8477	-0.0045
634.0354	0.0051
634.2231	0.0253
634.4108	-0.0147
634.5985	-0.0159
634.7861	-0.0101
634.9738	0.0151
635.1614	0.0039
635.349	-0.0224
635.5366	0.0039
635.7242	0.0001
635.9117	0.0069
636.0993	-0.0076
636.2868	-0.0057
636.4743	0.0167
636.6618	-0.0042
636.8492	-0.0042
637.0367	0.0056
637.2241	0.0021
637.4115	-0.0069
637.5989	0.0103
637.7863	-0.0097
637.9737	0.0068
638.161	-0.0026
638.3484	0.0073
638.5357	-0.0085
638.723	0.0013
638.9103	0.007
639.0975	0.0052
639.2848	0.0144
639.472	0.0064
639.6592	0.0161
639.8464	0.0054
640.0336	-0.0074
640.2208	-0.0202
640.4079	0.0099
640.595	0.0051
640.7821	-0.0175
640.9692	0.0028
641.1563	-0.005
641.3434	0.008
641.5304	0.009
641.7174	0.0209
641.9044	0.0107
642.0914	-0.0157
642.2784	0.0311
642.4653	0.01
642.6523	0.0053
642.8392	0.0224
643.0261	-0.0021
643.213	0.0019
643.3999	-0.0013
643.5867	0.0073
643.7735	0.0195
643.9604	-0.0261
644.1472	-0.0015
644.3339	-0.0018
644.5207	-0.0018
644.7075	-0.0133
644.8942	0.0173
645.0809	-0.0059
645.2676	-0.0121
645.4543	0.0006
645.6409	-0.013
645.8276	-0.0073
646.0142	0.0106
646.2008	-0.0277
646.3874	0.0195
646.574	-0.0255
646.7605	0.0013
646.9471	-0.0001
647.1336	0.0074
647.3201	-0.0009
647.5066	0.011
647.6931	0.0057
647.8795	0.0038
648.0659	-0.0222
648.2524	0.0215
648.4388	0.0001
648.6252	-0.0193
648.8115	0.016
648.9979	0.0201
649.1842	-0.0105
649.3705	0.0053
649.5568	-0.011
649.7431	-0.0018
649.9294	0.0001
650.1156	-0.0186
650.3018	0.0065
650.488	0.0105
650.6742	0.015
650.8604	-0.0182
651.0466	0.005
651.2327	-0.0234
651.4188	0.0027
651.6049	-0.0142
651.791	0.0145
651.9771	0.0038
652.1632	-0.0076
652.3492	-0.0007
652.5352	0.0159
652.7212	-0.0078
652.9072	-0.0042
653.0932	-0.0001
653.2791	-0.0108
653.465	-0.0086
653.651	0.0196
653.8369	0.0248
654.0227	-0.0107
654.2086	-0.0104
654.3944	-0.0154
654.5803	-0.0009
654.7661	-0.0022
654.9519	0.0011
655.1377	-0
655.3234	-0
655.5092	-0
655.6949	-0
655.8806	-0
656.0663	-0
656.2519	-0
656.4376	-0
656.6232	-0
656.8088	-0
656.9945	-0
657.18	-0
657.3656	-0
657.5511	-0
657.7367	-0
657.9222	-0
658.1077	-0
658.2932	-0
658.4786	-0
658.6641	-0
658.8495	-0
659.0349	-0
659.2203	-0
659.4057	0.0157
659.591	0.0758
659.7764	0.0001
659.9617	-0.0011
660.147	-0.0092
660.3323	0.0003
660.5176	0.0053
660.7028	0.0021
660.888	0.0192
661.0733	0.0039
661.2585	0.0197
661.4436	0.0006
661.6288	-0.0021
661.8139	0.039
661.9991	0.0138
662.1842	0.0083
662.3693	0.0078
662.5544	-0.019
662.7394	0.0173
662.9245	0.0135
663.1095	0.0179
663.2945	0.0053
663.4795	0.0062
663.6644	0.0028
663.8494	0.0329
664.0343	-0.0131
664.2193	-0.0094
664.4042	-0.0166
664.589	-0.0196
664.7739	-0.0052
664.9587	-0.0055
665.1436	-0.0091
665.3284	0.0029
665.5132	0.0033
665.698	0.0013
665.8827	-0.0044
666.0675	-0.0157
666.2522	0.0026
666.4369	-0.0235
666.6216	-0.0037
666.8063	-0.0236
666.9909	0.0074
667.1756	0.0028
667.3602	-0.0154
667.5448	-0.0088
667.7294	-0.0188
667.9139	-0.0002
668.0985	-0.006
668.283	-0.0125
668.4675	0.0005
668.652	0.0002
668.8365	-0.0207
669.0209	0.0009
669.2054	0.0107
669.3898	0.0162
669.5742	0.0139
669.7586	0.0055
669.943	-0.0093
670.1273	-0.0109
670.3117	-0.0014
670.496	0.006
670.6803	-0.0217
670.8646	0.0001
671.0488	-0.008
671.2331	-0.0012
671.4173	0.018
671.6015	0.0045
671.7857	-0.0113
671.9699	-0.0048
672.1541	0.0013
672.3382	0.0108
672.5223	0.0063
672.7064	-0.0035
672.8905	0.0186
673.0746	0.0012
673.2587	-0.0049
673.4427	-0.0262
673.6267	-0.023
673.8107	0.0044
673.9947	-0.0133
674.1787	0.0232
674.3626	0.0051
674.5465	0.019
674.7304	-0.0372
674.9143	0.0169
675.0982	-0.0046
675.2821	0.0024
675.4659	-0.0042
675.6497	0.0251
675.8335	0.0163
676.0173	0.0274
676.2011	-0.0127
676.3849	-0.0121
676.5686	-0.0102
676.7523	0.0116
676.936	-0.026
677.1197	0.0078
677.3034	0.006
677.487	0.0212
677.6706	-0.0123
677.8542	0.0134
678.0378	0.0227
678.2214	0.0113
678.405	0.0057
678.5885	0.0047
678.772	0.0024
678.9555	-0.0045
679.139	-0.0096
679.3225	-0.008
679.5059	0.0026
679.6894	-0.0052
679.8728	-0.0001
680.0562	-0.0034
680.2395	-0.0196
680.4229	-0.0077
680.6062	-0.0015
680.7896	0.0079
680.9729	0.0053
681.1562	-0.0084
681.3394	0.0008
681.5227	-0.0249
681.7059	-0.0069
681.8891	-0.0097
682.0723	-0.0072
682.2555	0.0241
682.4387	-0.0041
682.6218	-0.0161
682.805	0.0073
682.9881	-0.0117
683.1712	0.0307
683.3542	-0.0185
683.5373	0.0038
683.7203	-0.0056
683.9034	0.0137
684.0864	-0.0037
684.2694	0.0211
684.4523	0.003
684.6353	0.0072
684.8182	-0.0087
685.0011	-0.0141
685.184	0.0072
685.3669	-0.0092
685.5498	0.004
685.7326	-0.0102
685.9154	-0.01
686.0982	0.0135
686.281	-0.0056
686.4638	0.026
686.6465	-0.0082
686.8293	0.0087
687.012	0.0024
687.1947	0.0029
687.3774	-0.0006
687.56	0.0173
687.7427	-0.0081
687.9253	0.0215
688.1079	-0.0162
688.2905	-0.0008
688.4731	0.0273
688.6556	0.0086
688.8382	-0.0083
689.0207	-0.0109
689.2032	-0.0348
689.3857	-0.0079
689.5681	-0.0197
689.7506	-0.0067
689.933	-0.0226
690.1154	-0.0031
690.2978	-0.0116
690.4802	0.0024
690.6626	-0.0122
690.8449	-0.0173
691.0272	-0.0249
691.2095	-0.0284
691.3918	-0.0024
691.5741	0.0015
691.7563	0.0135
691.9386	-0.0052
692.1208	0.0022
692.303	0.0211
692.4852	0.0241
692.6673	-0.0155
692.8495	0.0177
693.0316	-0.0074
693.2137	0.0147
693.3958	0.0067
693.5778	-0.0073
693.7599	-0.0037
693.9419	0.0176
694.1239	0.0005
694.3059	-0.0125
694.4879	-0.0174
694.6699	0.0078
694.8518	0.0141
695.0337	0.016
695.2157	-0.006
695.3975	0.0126
695.5794	-0.0006
695.7613	0.0337
695.9431	-0.0133
696.1249	-0.0022
696.3067	0.0036
696.4885	0.0094
696.6703	0.0063
696.852	-0.0137
697.0337	-0.0183
697.2154	0.0116
697.3971	0.0146
697.5788	0.0218
697.7605	-0.0092
697.9421	-0.004
698.1237	0.0125
698.3053	0.0009
698.4869	0.0084
698.6685	0.0022
698.85	0.0149
699.0315	-0.0091
699.213	0.0008
699.3945	0.0134
699.576	-0.002
699.7575	-0.0018
699.9389	-0.0151
700.1203	-0.0014
700.3017	-0.0348
700.4831	-0.0101
700.6645	0.0198
700.8458	-0.0102
701.0271	-0.0172
701.2084	-0.0246
701.3897	0.0087
701.571	0.0036
701.7523	-0.0218
701.9335	0.0188
702.1147	-0.0189
702.2959	0.0082
702.4771	-0.0014
702.6583	-0.016
702.8394	-0.0173
703.0205	-0.0106
703.2016	0.0031
703.3827	0.0099
703.5638	-0.0002
703.7449	-0.0249
703.9259	0.0058
704.1069	0.0124
704.2879	0.0428
704.4689	0.0028
704.6499	-0.0134
704.8308	-0.0239
705.0117	-0.0163
705.1927	0.0038
705.3735	0.0091
705.5544	0.0082
705.7353	0.0247
705.9161	-0.0026
706.0969	-0.001
706.2777	-0.0007
706.4585	0.0161
706.6393	0.0066
706.82	-0.0021
707.0007	-0.0036
707.1815	0.0116
707.3621	0.0068
707.5428	0.0111
707.7235	0.0152
707.9041	-0.0102
708.0847	-0.0113
708.2653	-0.0053
708.4459	0.0044
708.6265	-0.0123
708.807	-0.0057
708.9875	-0.0024
709.168	0.0172
709.3485	-0.0086
709.529	0.0205
709.7095	-0.0088
709.8899	0.0181
710.0703	0.0127
710.2507	-0.005
710.4311	-0.0099
710.6115	0.0068
710.7918	-0.0082
710.9721	-0.0045
711.1524	-0.0098
711.3327	-0.0101
711.513	-0.0075
711.6932	-0.0409
711.8735	0.0078
712.0537	-0.0115
712.2339	-0.0189
712.4141	0.0264
712.5942	0.0013
712.7744	0.0124
712.9545	0.0074
713.1346	0.0031
713.3147	0.0132
713.4947	-0.0088
713.6748	-0.0048
713.8548	-0.0108
714.0348	0.0042
714.2148	0.0058
714.3948	0.0078
714.5748	-0.0213
714.7547	-0.0127
714.9346	-0.0114
715.1145	-0.0253
715.2944	0.0091
715.4743	-0.0145
715.6541	-0.0185
715.834	0.0367
716.0138	0.04
716.1936	-0.0079
716.3733	0.0095
716.5531	-0.0139
716.7328	-0.0355
716.9126	-0.026
717.0923	0.0102
717.2719	-0.0058
717.4516	-0.0169
717.6312	-0.0378
717.8109	0.0066
717.9905	0.0127
718.1701	-0.0247
718.3496	0.0179
718.5292	0.0157
718.7087	0.0133
718.8882	0.0102
719.0677	-0.0227
719.2472	-0.0037
719.4267	-0.0095
719.6061	-0.0156
719.7856	-0.0112
719.965	-0.001
720.1443	-0.0181
720.3237	0.0071
720.5031	0.0183
720.6824	0.0044
720.8617	0.0112
721.041	0.0133
721.2203	-0.001
721.3995	-0.0045
721.5788	0.0093
721.758	0.0032
721.9372	0.0085
722.1164	0.0187
722.2956	0.0002
722.4747	0.0361
722.6538	0.0082
722.8329	-0.0312
723.012	0.0071
723.1911	0.0312
723.3702	0.0173
723.5492	0.0115
723.7282	-0.0011
723.9072	-0.01
724.0862	0.0171
724.2652	-0.0106
724.4441	0.0301
724.623	0.0077
724.8019	0.0068
724.9808	-0.0218
725.1597	0.0069
725.3385	-0.0068
725.5174	0.0331
725.6962	0.0107
725.875	0.0088
726.0538	-0.0048
726.2325	0.0134
726.4112	0.0136
726.59	0.0117
726.7687	0.0055
726.9474	-0.0176
727.126	-0.0072
727.3047	0.0029
727.4833	0.0112
727.6619	0.0107
727.8405	0.0033
728.0191	-0.0344
728.1976	-0.0299
728.3762	-0.0345
728.5547	0.0201
728.7332	0.0107
728.9116	-0.0453
729.0901	0.0261
729.2686	-0.0081
729.447	-0.0102
729.6254	0.0345
729.8038	0.012
729.9821	0.0154
730.1605	-0.0243
730.3388	-0.0188
730.5171	-0.0217
730.6954	0.0175
730.8737	0.0169
731.0519	0.0065
731.2302	-0.0121
731.4084	-0.0099
731.5866	-0.0182
731.7648	-0.0149
731.9429	0.0251
732.1211	0.0051
732.2992	-0.0116
732.4773	-0.0211
732.6554	-0.0126
732.8335	-0.0032
733.0115	0.0029
733.1896	-0.013
733.3676	0.0071
733.5456	-0.0015
733.7235	0.0104
733.9015	0.0111
734.0794	0.0043
734.2574	0.0173
734.4353	-0.0146
734.6131	0.0181
734.791	0.0231
734.9689	-0.019
735.1467	-0.0015
735.3245	0.0091
735.5023	0.0107
735.68	-0.0062
735.8578	-0.0076
736.0355	0.0053
736.2132	-0.0131
736.3909	-0.0216
736.5686	0.0042
736.7463	-0.0156
736.9239	0.016
737.1015	-0.0042
737.2791	0.0085
737.4567	0.0122
737.6343	0.0201
737.8118	0.0057
737.9894	0.0066
738.1669	0.0289
738.3444	0.0102
738.5218	0.0068
738.6993	-0.005
738.8767	0.0004
739.0541	0.0091
739.2315	0.005
739.4089	0.0141
739.5863	-0.0119
739.7636	0.018
739.9409	0.0002
740.1182	-0.0236
740.2955	-0.0407
740.4728	0.0399
740.65	-0.0119
740.8272	-0.0281
741.0044	0.032
741.1816	0.0346
741.3588	0.0038
741.5359	-0.0109
741.7131	0.019
741.8902	0.005
742.0673	0.0056
742.2444	0.0051
742.4214	-0.005
742.5985	0.0069
742.7755	-0.0315
742.9525	0.0117
743.1295	-0.017
743.3064	0.0129
743.4834	0.0038
743.6603	-0.0128
743.8372	0.0163
744.0141	0.0189
744.191	-0.0152
744.3678	0.0187
744.5446	0.0071
744.7215	0.012
744.8982	-0.0219
745.075	0.0031
745.2518	0.005
745.4285	0.0021
745.6052	0.0135
745.7819	-0.0325
745.9586	0.0253
746.1353	0.0105
746.3119	-0.0128
746.4885	0.0025
746.6651	-0.0133
746.8417	-0.0143
747.0183	-0.0173
747.1948	-0.029
747.3714	-0.0133
747.5479	-0.0366
747.7244	-0.0401
747.9008	0.0159
748.0773	0.0419
748.2537	0.0338
748.4301	0.0028
748.6065	-0.0411
748.7829	-0.0066
748.9593	0.028
749.1356	-0.0026
749.3119	-0.0193
749.4882	-0.0067
749.6645	0.002
749.8408	-0.0059
750.017	-0.0037
750.1933	0.0342
750.3695	-0.0024
750.5457	-0.0286
750.7218	0.0061
750.898	-0.0173
751.0741	-0.0052
751.2502	0.0055
751.4263	-0.0148
751.6024	0.0339
751.7784	-0.0452
751.9545	-0.0195
752.1305	0.0021
752.3065	0.0099
752.4825	-0.0081
752.6584	-0.0259
752.8344	-0.0035
753.0103	-0.0139
753.1862	0.0012
753.3621	-0.0109
753.5379	-0.005
753.7138	-0.0211
753.8896	0.0317
754.0654	0.0002
754.2412	0.0322
754.417	-0.0016
754.5927	-0.025
754.7685	-0.0339
754.9442	-0.0005
755.1199	-0.0133
755.2956	0.0091
755.4712	0.0051
755.6469	-0.0119
755.8225	0.0024
755.9981	-0.0051
756.1736	0.0087
756.3492	-0.0305
756.5248	-0.0162
756.7003	0.0082
756.8758	-0.0038
757.0513	-0.0118
757.2267	-0.0202
757.4022	-0.0084
757.5776	-0.0264
757.753	-0.0199
757.9284	-0.0082
758.1038	-0.002
758.2791	0.008
758.4545	-0.0255
758.6298	0.0041
758.8051	-0.0107
758.9803	-0.0046
759.1556	-0.019
759.3308	-0.001
759.506	0.0003
759.6812	-0.008
759.8564	-0.0062
760.0316	-0.0078
760.2067	-0.0178
760.3819	-0.0009
760.557	-0.0012
760.732	0.0072
760.9071	-0.0021
761.0821	-0.0124
761.2572	0.0335
761.4322	-0.016
761.6072	-0.004
761.7821	0.0077
761.9571	-0.0021
762.132	-0.0104
762.3069	-0.0047
762.4818	0.0022
762.6567	-0.0013
762.8316	-0.0084
763.0064	-0.0153
763.1812	-0.0102
763.356	0.0047
763.5308	0.0068
763.7055	-0.0045
763.8803	-0.0155
764.055	-0.0009
764.2297	0.0062
764.4044	0.0019
764.579	-0.0039
764.7537	0.0023
764.9283	-0.0211
765.1029	0.003
765.2775	-0.0049
765.4521	-0.0038
765.6266	-0.008
765.8011	-0.0131
765.9756	0.0017
766.1501	0.0176
766.3246	-0.0017
766.4991	-0.008
766.6735	-0.021
766.8479	-0.0286
767.0223	0.0142
767.1967	-0.0152
767.371	-0.0228
767.5454	-0.0027
767.7197	-0.0064
767.894	-0.0192
768.0683	0.0099
768.2425	0.0126
768.4168	0.0087
768.591	0.012
768.7652	0.0013
768.9394	0.0102
769.1135	-0.005
769.2877	-0.0002
769.4618	0.0111
769.6359	-0.0132
769.81	0.0015
769.984	0.007
770.1581	0.0242
770.3321	-0.0167
770.5061	-0.0002
770.6801	0.0159
770.8541	-0.0287
771.028	-0.0171
771.202	-0.0337
771.3759	-0.0085
771.5498	-0.0128
771.7236	-0.009
771.8975	-0.0099
772.0713	-0.0007
772.2451	-0.0124
772.4189	-0.0072
772.5927	-0.0186
772.7665	0.0322
772.9402	0.01
773.1139	0.0099
773.2876	-0.0079
773.4613	0.0021
773.635	-0.017
773.8086	-0.0097
773.9822	-0.0189
774.1558	-0.0263
774.3294	-0.0257
774.503	0.0341
774.6765	0.0433
774.8501	0.0145
775.0236	0.01
775.1971	-0.038
775.3705	-0.0092
775.544	0.0085
775.7174	-0.0401
775.8908	0.0129
776.0642	-0.033
776.2376	-0.0781
776.4109	0.0436
776.5843	0.0014
776.7576	0.0651
776.9309	0.0567
777.1041	-0.0273
777.2774	-0.0208
777.4506	-0.0295
777.6238	-0.008
777.797	0.0057
777.9702	0.0061
778.1434	0.0099
778.3165	-0.0099
778.4896	-0.0009
778.6627	0.0129
778.8358	-0.0517
779.0089	-0.0147
779.1819	0.012
779.3549	0.0266
779.5279	0.0168
779.7009	0.0121
779.8739	-0.0129
780.0468	0.0305
780.2197	0.0099
780.3926	-0.0285
780.5655	0.0135
780.7384	-0.0039
780.9112	0.0328
781.0841	-0.01
781.2569	-0.0193
781.4297	0.0275
781.6024	-0.0132
781.7752	-0.0263
781.9479	-0.0075
782.1206	-0.0013
782.2933	-0.0043
782.466	0.0168
782.6386	0.0242
782.8113	-0.011
782.9839	0.0113
783.1565	0.0094
783.329	-0.0231
783.5016	0.0021
783.6741	-0.0102
783.8466	-0.0917
784.0191	0.0303
784.1916	-0.0019
784.3641	-0.0303
784.5365	0.0184
784.7089	-0.0012
784.8813	-0.0205
785.0537	-0.0148
785.2261	-0.0367
785.3984	-0.0112
785.5707	0.0211
785.743	-0.009
785.9153	0.0658
786.0876	-0.0647
786.2598	-0.0004
786.432	0.0202
786.6042	0.0112
786.7764	-0.024
786.9486	0.016
787.1207	0.0253
787.2928	-0.0303
787.4649	0.0301
787.637	0.0136
787.8091	-0.0121
787.9811	0.0187
788.1532	0.0033
788.3252	-0.0289
788.4972	0.0003
788.6691	0.027
788.8411	0.0015
789.013	-0.0145
789.1849	-0.031
789.3568	0.0328
789.5287	-0.0493
789.7005	0.0165
789.8723	-0.0213
790.0442	-0.0575
790.2159	0.0263
790.3877	0.0204
790.5595	0.0332
790.7312	-0.033
790.9029	0.0139
791.0746	0.0097
791.2463	-0.0261
791.4179	0.0378
791.5896	-0.0575
791.7612	-0.0006
791.9328	0.0045
792.1044	-0.014
792.2759	0.0329
792.4474	-0.0437
792.619	0.0111
792.7905	-0.0229
792.9619	-0.031
793.1334	-0.0674
793.3048	-0.0294
793.4762	-0.0203
793.6476	0.008
793.819	-0.0373
793.9904	0.0355
794.1617	0.0034
794.333	-0.0102
794.5043	-0.0377
794.6756	0.0429
794.8469	-0.0078
795.0181	-0.0069
795.1893	-0.016
795.3605	-0.0219
795.5317	0.0465
795.7029	0.0305
795.874	0.0229
796.0452	0.0186
796.2163	0.0076
796.3873	0.0709
796.5584	0.0323
796.7294	-0.0544
796.9005	-0.1048
797.0715	0.0342
797.2425	0.0328
797.4134	0.0287
797.5844	0.0557
797.7553	-0.0073
797.9262	-0.021
798.0971	-0.0328
798.2679	-0.0483
798.4388	-0.109
798.6096	0.0331
798.7804	-0.0457
798.9512	0.0593
799.122	0.0606
799.2927	-0.0377
799.4635	0.038
799.6342	-0.0314
799.8049	0.0058
799.9755	-0.0135
800.1462	0.0597
800.3168	-0.0335
800.4874	0.0136
800.658	0.102
800.8286	0.0184
800.9991	0.0868
801.1696	-0.0488
801.3402	-0.083
801.5106	-0.0865
801.6811	0.053
801.8516	-0.0642
802.022	-0.0438
802.1924	-0.0607
802.3628	-0.0642
802.5332	-0.0726
802.7035	0.0213
802.8739	0.0254
803.0442	-0.0263
803.2145	-0.017
803.3847	-0.0515
803.555	-0.0248
803.7252	0.0373
803.8954	0.0331
804.0656	0.0053
804.2358	0.0233
804.4059	0.0452
804.5761	0.1054
804.7462	0.026
804.9163	-0.0669
805.0864	-0.029
805.2564	-0.0346
805.4264	-0.0218
805.5965	-0.0095
805.7665	0.1231
805.9364	-0.0323
806.1064	-0.0656
806.2763	-0.024
806.4462	-0.0537
806.6161	-0.0308
806.786	0.0056
806.9559	0.0226
807.1257	-0.0274
807.2955	0.0166
807.4653	-0.0599
807.6351	-0.0035
807.8048	-0.0316
807.9746	-0.0813
808.1443	0.0181
808.314	0.0697
808.4837	-0.0636
808.6533	0.0082
808.8229	-0.0958
808.9926	-0.0339
809.1622	0.024
809.3317	-0.0982
809.5013	0.0148
809.6708	0.0257
809.8403	0.0373
810.0098	0.0911
810.1793	0.0705
810.3488	0.0126
810.5182	0.0139
810.6876	-0.0162
810.857	-0.0784
811.0264	-0.0411
811.1958	0.0118
811.3651	-0.1296
811.5344	-0.0887
811.7037	-0.056
811.873	0.0113
812.0422	0.0012
812.2115	-0.0324
812.3807	-0.0175
812.5499	0.1255
812.7191	0.0481
812.8882	-0.135
813.0574	-0.1494
813.2265	0.1721
813.3956	-0.0609
813.5646	-0.0203
813.7337	-0.139
813.9027	-0.0382
814.0718	-0.0295
814.2407	-0.1349
814.4097	0.0205
814.5787	-0.0194
814.7476	0.0362
814.9165	0.004
815.0854	-0.049
815.2543	0.0476
815.4232	-0.1231
815.592	0.1344
815.7608	0.1977
815.9296	0.0355
816.0984	0.0536
816.2671	-0.1923
816.4359	0.0283
816.6046	0.0971
816.7733	-0.0053
816.942	0.0081
817.1106	-0.2692
817.2793	-0.0453
817.4479	-0.0467
817.6165	-0.0377
817.785	0.0165
817.9536	0.0529
818.1221	0.021
818.2906	0.1598
818.4591	-0.0061
818.6276	0.0293
818.7961	0.0595
818.9645	-0.0505
819.1329	0.226
819.3013	0.215
819.4697	0.1258
819.638	0.1262
819.8064	-0.095
819.9747	-0.0632
820.143	-0.053
820.3113	0.1901
820.4795	0.0228
820.6477	-0.0846
820.816	0.0065
820.9842	-0.0347
821.1523	0.0533
821.3205	0.0056
821.4886	-0.0644
821.6567	0.057
821.8248	-0.0201
821.9929	-0.105
822.1609	0.1442
822.329	0.0249
822.497	0.0162
822.665	0.0744
822.833	-0.0239
823.0009	-0.0994
823.1688	0.0655
823.3367	0.0476
823.5046	0.0238
823.6725	-0.0095
823.8404	-0.019
824.0082	-0.0231
824.176	0.0806
824.3438	0.1517
824.5116	0.0853
824.6793	0.1016
824.847	0.0562
825.0147	0.2813
825.1824	0.1078
825.3501	0.0297
825.5177	0.0728
825.6854	0.1112
825.853	0.0393
826.0206	-0.0793
826.1881	-0.1047
826.3557	0.0615
826.5232	0.1961
826.6907	0.0172
826.8582	-0.1711
827.0257	-0.1128
827.1931	0.1558
827.3605	0.079
827.528	-0.057
827.6953	-0.0239
827.8627	0.0252
828.03	0.0523
828.1974	-0.1646
828.3647	0.007
828.532	0.118
828.6992	0.0565
828.8665	0.007
829.0337	0.2461
829.2009	0.1046
829.3681	0.0562
829.5352	0.0706
829.7024	-0.1188
829.8695	-0.1274
830.0366	0.075
830.2037	0.0926
830.3707	0.0257
830.5378	0.27
830.7048	-0.0092
830.8718	-0.053
831.0388	0.0456
831.2057	-0.2815
831.3727	0.0863
831.5396	-0.2465
831.7065	0.1285
831.8734	-0.5335
832.0402	0.0893
832.2071	0.3964
832.3739	0.2179
832.5407	-0.1586
832.7075	0.0415
832.8742	0.2027
833.041	-0.0445
833.2077	-0.0142
833.3744	0.1532
833.541	0.0409
833.7077	0.1138
833.8743	-0.0694
834.0409	-0.0344
834.2075	0.0049
834.3741	-0.0926
834.5407	-0.3625
834.7072	0.0718
834.8737	0.2487
835.0402	-0.1263
835.2067	0.0023
835.3731	-0.0305
835.5395	0.18
835.706	-0.1033
835.8723	0.1571
836.0387	0.0606
836.2051	0.1267
836.3714	-0.2536
836.5377	-0.2418
836.704	-0.0078
836.8703	-0.0926
837.0365	0.1945
837.2027	0.1912
837.3689	-0.1218
837.5351	0.0499
837.7013	0.0392
837.8674	-1.0025
838.0335	-0.0354
838.1997	0.2444
838.3657	-0
838.5318	-0.6718
838.6978	-0.3149
838.8639	-0.0452
839.0299	0.1808
839.1958	-0.066
839.3618	-0.2408
839.5277	-0.209
839.6937	-0.399
839.8596	0.6523
840.0254	0.3047
840.1913	0.147
840.3571	-0.2377
840.523	1.3508
840.6888	-0.1032
840.8545	-0.3414
841.0203	-0.0038
841.186	0.0441
841.3517	0.3275
841.5174	0.3134
841.6831	0.1065
841.8488	-0.1221
842.0144	-0.0646
842.18	0.1351
842.3456	0.092
842.5112	-0
842.6767	-0.2898
842.8422	-0.09
843.0077	0.2688
843.1732	0.0833
843.3387	-0
843.5042	-0.1443
843.6696	-0.0124
843.835	-0.1153
844.0004	-0.1798
844.1657	-0.2301
844.3311	0.4114
844.4964	0.3208
844.6617	-0
844.827	0.8888
844.9923	-0.0491
845.1575	-0
845.3227	0.0656
845.4879	0.6242
845.6531	-0.5635
845.8183	0.4083
845.9834	-0.6605
846.1485	-0.3553
846.3136	0.041
846.4787	-0.1605
846.6438	0.3973
846.8088	-0
846.9738	-0
847.1388	-0.0217
847.3038	0.2855
847.4687	-0.3565
847.6337	0.1208
847.7986	-0
847.9635	-0.0797
848.1284	-0.2808
848.2932	0.0087
848.458	-0.2311
848.6228	-0.0934
848.7876	-0
848.9524	-0
849.1172	0.1091
849.2819	-0.421
849.4466	-0.0092
849.6113	-0.0775
849.7759	-0
849.9406	-0.1792
850.1052	0.2329
850.2698	-0.5798
850.4344	-0.1308
850.599	-0
850.7635	0.2257
850.928	0.4915
851.0925	-0.2383
851.257	-0.4547
851.4215	-0.2523
851.5859	-0.0327
851.7503	-0
851.9147	-0.4771
852.0791	-0.3424
852.2434	-0.0244
852.4078	-0
852.5721	-0
852.7364	0.5839
852.9007	-0.3306
853.0649	0.5559
853.2291	0.1066
853.3934	-0.0331
853.5575	0.0319
853.7217	-0.1974
853.8859	0.1931
854.05	-0.8681
854.2141	-0
854.3782	0.422
854.5423	0.1192
854.7063	-0.121
854.8703	0.2854
855.0343	0.3245
855.1983	-0.2131
855.3623	0.3071
855.5262	-0.8331
855.6901	0.9253
855.854	0.1169
856.0179	-0
856.1818	-0
856.3456	0.1821
856.5094	-0
856.6732	0.6173
856.837	0.2938
857.0008	-0.2308
857.1645	-0
857.3282	-0.2022
857.4919	-0.1082
857.6556	0.0599
857.8192	0.2666
857.9828	-0.4639
858.1465	0.7557
858.31	-1.5441
858.4736	0.3479
858.6372	-0.1891
858.8007	-1.1065
858.9642	0.4435
859.1277	-0
859.2911	0.0915
859.4546	-0.3027
859.618	-0.1998
859.7814	-0
859.9448	-0.1785
860.1081	-0
860.2715	-0
860.4348	0.1536
860.5981	-0
860.7614	-0.2218
860.9246	-0.3325
861.0879	0.0155
861.2511	0.2218
861.4143	0.3499
861.5774	0.0092
861.7406	0.1091
861.9037	-0.04
862.0668	-0.557
862.2299	-2.0755
862.393	-0
862.556	-0
862.7191	-0.1385
862.8821	-0.1168
863.0451	0.3821
863.208	-0.2032
863.371	1.2951
863.5339	0.0975
863.6968	-0.4271
863.8597	-0
864.0225	-0
864.1854	-0
864.3482	-0
864.511	-0.1662
864.6737	-0
864.8365	0.2863
864.9992	-0.0567
865.1619	0.1352
865.3246	-0.3199
865.4873	-0.4301
865.65	-0.976
865.8126	-0.3281
865.9752	0.0453
866.1378	-0.9441
866.3004	0.4557
866.4629	0.0914
866.6254	-1.1043
866.7879	-0.0471
866.9504	-0
867.1129	0.0715
867.2753	0.0715
867.4377	0.0522
867.6001	0.421
867.7625	-0.2353
867.9249	0.6579
868.0872	-0.3487
868.2495	-0
868.4118	-0.2539
868.5741	-0
868.7363	0.6518
868.8986	-0
869.0608	-0
869.223	0.1619
869.3851	-0
869.5473	-1.4168
869.7094	0.1408
869.8715	-0
870.0336	0.0081
870.1957	-0
870.3577	0.2464
870.5197	0.0334
870.6817	-0
870.8437	0.3457
871.0057	0.1729
871.1676	0.0493
871.3295	-0
871.4914	-0.1263
871.6533	-0.0375
871.8151	-0.2133
871.977	0.1734
872.1388	-1.2421
872.3006	0.1057
872.4623	-0
872.6241	-0
872.7858	0.0094
872.9475	-0
873.1092	0.322
873.2709	0.2579
873.4325	-0
873.5941	-0.8638
873.7557	-0.432
873.9173	-0.2009
874.0789	0.0327
874.2404	0.015
874.4019	-0.0879
874.5634	-0
874.7249	-0
874.8863	-0
875.0478	0.094
875.2092	0.3961
875.3706	-0.3092
875.5319	-0
875.6933	0.8282
875.8546	-0.6951
876.0159	-0
876.1772	-0
876.3385	1.4914
876.4997	-0.4061
876.6609	-0
876.8221	0.152
876.9833	-0.2768
877.1445	-0.0646
877.3056	-0
877.4667	-1.4683
877.6278	-0.2534
877.7889	-0
877.9499	-0.2714
878.111	0.3065
878.272	-0.7924
878.433	-0
878.5939	1.6335
878.7549	-0.5977
878.9158	-0
879.0767	-0.3226
879.2376	-0
879.3984	-0.3941
879.5593	-0.2588
879.7201	-0.5003
879.8809	-0
880.0417	0.2794
880.2024	0.0153
880.3632	-0.2287
880.5239	-0.117
880.6846	-0.7128
880.8452	0.645
881.0059	-0
881.1665	0.1799
881.3271	0.0856
881.4877	-0.0275
881.6483	-0
881.8088	-0
881.9693	0.7843
882.1298	0.7843
882.2903	0.7843
