Data from D4ACN5uM480nmA_Absorbance_12-08-01-540.txt Node
Date: Fri Feb 21 12:08:01 GMT 2025
User: LASERRRRR
Spectrometer: FLMT03099
Trigger mode: 0
Integration Time (sec): 1.500000E-2
Scans to average: 1
Electric dark correction enabled: true
Nonlinearity correction enabled: false
Boxcar width: 0
XAxis mode: Wavelengths
Number of Pixels in Spectrum: 3648
>>>>>Begin Spectral Data<<<<<
179.3399	-0.0458
179.5586	-0.0458
179.7771	-0.0458
179.9957	0.155
180.2143	-0
180.4329	-0
180.6514	-0
180.8699	-0.6997
181.0885	-0
181.307	0.6256
181.5255	0.0712
181.744	-0
181.9625	-0
182.181	0.0012
182.3994	-0
182.6179	-0
182.8363	-0.3421
183.0547	-0
183.2732	0.3212
183.4916	0.335
183.71	0.1679
183.9284	0.2271
184.1467	0.4531
184.3651	0.3008
184.5835	-0.0093
184.8018	0.0655
185.0201	0.3501
185.2385	0.086
185.4568	0.2303
185.6751	0.0793
185.8934	0.483
186.1117	0.004
186.3299	0.3974
186.5482	-0.0303
186.7664	0.2504
186.9847	0.3264
187.2029	0.2653
187.4211	0.1259
187.6393	0.2525
187.8575	0.0874
188.0757	0.3265
188.2939	0.0683
188.512	0.2701
188.7302	0.065
188.9483	0.2332
189.1665	0.3274
189.3846	0.3689
189.6027	0.169
189.8208	0.2529
190.0389	0.1534
190.257	0.2621
190.475	0.381
190.6931	0.3928
190.9111	0.4179
191.1292	0.1105
191.3472	0.2914
191.5652	0.4045
191.7832	0.558
192.0012	0.5085
192.2192	0.3194
192.4371	0.3725
192.6551	0.438
192.873	0.2717
193.091	0.2803
193.3089	0.4226
193.5268	0.4827
193.7447	0.3677
193.9626	0.4043
194.1805	0.55
194.3984	0.3998
194.6162	0.5016
194.8341	0.8383
195.0519	0.6962
195.2697	0.6239
195.4875	0.5646
195.7054	0.5018
195.9231	0.4779
196.1409	0.6158
196.3587	0.487
196.5765	0.4889
196.7942	0.761
197.012	0.5795
197.2297	0.4292
197.4474	0.9903
197.6651	0.6749
197.8828	0.8255
198.1005	0.5633
198.3182	0.547
198.5358	0.6071
198.7535	0.5548
198.9711	0.623
199.1888	0.656
199.4064	0.5347
199.624	0.5685
199.8416	0.5021
200.0592	0.5782
200.2767	0.6271
200.4943	0.5986
200.7119	0.6276
200.9294	0.6251
201.1469	0.5817
201.3645	0.5435
201.582	0.57
201.7995	0.5836
202.017	0.5577
202.2344	0.528
202.4519	0.5846
202.6694	0.573
202.8868	0.5785
203.1042	0.5243
203.3217	0.5606
203.5391	0.575
203.7565	0.5239
203.9739	0.5034
204.1913	0.5338
204.4086	0.5085
204.626	0.505
204.8433	0.511
205.0607	0.5399
205.278	0.5168
205.4953	0.479
205.7126	0.5061
205.9299	0.4976
206.1472	0.5266
206.3644	0.4567
206.5817	0.4827
206.7989	0.4921
207.0162	0.4718
207.2334	0.4699
207.4506	0.4314
207.6678	0.4701
207.885	0.4359
208.1022	0.4563
208.3194	0.43
208.5365	0.4232
208.7537	0.4355
208.9708	0.4615
209.1879	0.4266
209.405	0.4315
209.6222	0.4057
209.8392	0.4106
210.0563	0.44
210.2734	0.426
210.4905	0.4127
210.7075	0.4299
210.9245	0.4325
211.1416	0.4015
211.3586	0.4329
211.5756	0.4231
211.7926	0.4082
212.0096	0.4246
212.2265	0.4172
212.4435	0.4297
212.6604	0.3984
212.8774	0.4052
213.0943	0.4075
213.3112	0.4102
213.5281	0.4001
213.745	0.4216
213.9619	0.3941
214.1788	0.3831
214.3956	0.3836
214.6125	0.3951
214.8293	0.3922
215.0461	0.4086
215.2629	0.3909
215.4798	0.3932
215.6965	0.3959
215.9133	0.4052
216.1301	0.4093
216.3469	0.4045
216.5636	0.4119
216.7803	0.4185
216.9971	0.4166
217.2138	0.4168
217.4305	0.4295
217.6472	0.4155
217.8639	0.3983
218.0805	0.4216
218.2972	0.4252
218.5138	0.4143
218.7305	0.4166
218.9471	0.4027
219.1637	0.4379
219.3803	0.4073
219.5969	0.4266
219.8135	0.4327
220.0301	0.4234
220.2466	0.4304
220.4632	0.4147
220.6797	0.4219
220.8962	0.439
221.1127	0.4334
221.3292	0.4283
221.5457	0.436
221.7622	0.436
221.9787	0.4387
222.1951	0.4372
222.4116	0.4512
222.628	0.4437
222.8444	0.4495
223.0608	0.4324
223.2772	0.437
223.4936	0.4332
223.71	0.4537
223.9264	0.4539
224.1427	0.4559
224.3591	0.442
224.5754	0.4664
224.7917	0.4568
225.008	0.4537
225.2243	0.4596
225.4406	0.4663
225.6569	0.4642
225.8732	0.4653
226.0894	0.4629
226.3057	0.4521
226.5219	0.481
226.7381	0.4747
226.9543	0.4792
227.1705	0.4786
227.3867	0.4844
227.6029	0.4764
227.8191	0.4765
228.0352	0.5071
228.2513	0.4943
228.4675	0.477
228.6836	0.4937
228.8997	0.491
229.1158	0.5003
229.3319	0.4906
229.548	0.5039
229.764	0.5069
229.9801	0.4934
230.1961	0.516
230.4121	0.5124
230.6282	0.5211
230.8442	0.5437
231.0602	0.5276
231.2761	0.5181
231.4921	0.5125
231.7081	0.5183
231.924	0.4959
232.14	0.5204
232.3559	0.5278
232.5718	0.5256
232.7877	0.5268
233.0036	0.5219
233.2195	0.5276
233.4353	0.5311
233.6512	0.5399
233.867	0.5287
234.0829	0.5243
234.2987	0.5242
234.5145	0.5376
234.7303	0.5377
234.9461	0.5312
235.1619	0.534
235.3776	0.5317
235.5934	0.539
235.8091	0.5274
236.0249	0.5398
236.2406	0.5328
236.4563	0.5448
236.672	0.5313
236.8877	0.5486
237.1034	0.5365
237.319	0.5395
237.5347	0.5244
237.7503	0.5484
237.966	0.5349
238.1816	0.5257
238.3972	0.5455
238.6128	0.5428
238.8284	0.5334
239.0439	0.5444
239.2595	0.5295
239.475	0.5364
239.6906	0.5329
239.9061	0.5324
240.1216	0.5387
240.3371	0.5076
240.5526	0.5082
240.7681	0.5191
240.9836	0.5199
241.199	0.5094
241.4145	0.4996
241.6299	0.4889
241.8453	0.4906
242.0607	0.4874
242.2761	0.4875
242.4915	0.4793
242.7069	0.4614
242.9223	0.4607
243.1376	0.4488
243.353	0.4368
243.5683	0.4491
243.7836	0.427
243.9989	0.424
244.2142	0.4128
244.4295	0.4033
244.6448	0.4027
244.86	0.3896
245.0753	0.383
245.2905	0.3721
245.5057	0.3764
245.721	0.3597
245.9362	0.3524
246.1514	0.3412
246.3665	0.345
246.5817	0.3333
246.7969	0.3266
247.012	0.3218
247.2271	0.3119
247.4423	0.3061
247.6574	0.3119
247.8725	0.2956
248.0876	0.2923
248.3026	0.2869
248.5177	0.2737
248.7328	0.277
248.9478	0.2709
249.1628	0.266
249.3779	0.2645
249.5929	0.2588
249.8079	0.2568
250.0228	0.2506
250.2378	0.248
250.4528	0.2552
250.6677	0.2426
250.8827	0.2372
251.0976	0.2391
251.3125	0.2309
251.5274	0.2329
251.7423	0.2245
251.9572	0.2301
252.172	0.2189
252.3869	0.2218
252.6017	0.2179
252.8166	0.2196
253.0314	0.2197
253.2462	0.2171
253.461	0.2169
253.6758	0.2087
253.8906	0.2064
254.1053	0.206
254.3201	0.2072
254.5348	0.2008
254.7496	0.1969
254.9643	0.2079
255.179	0.2056
255.3937	0.2004
255.6083	0.1975
255.823	0.1988
256.0377	0.2005
256.2523	0.1969
256.467	0.1967
256.6816	0.203
256.8962	0.199
257.1108	0.1884
257.3254	0.1965
257.54	0.195
257.7545	0.19
257.9691	0.1896
258.1836	0.1897
258.3981	0.1876
258.6127	0.1832
258.8272	0.1888
259.0417	0.1829
259.2561	0.1842
259.4706	0.1931
259.6851	0.1811
259.8995	0.1848
260.114	0.1821
260.3284	0.1871
260.5428	0.1804
260.7572	0.1909
260.9716	0.1828
261.186	0.1851
261.4003	0.1848
261.6147	0.1811
261.829	0.1833
262.0433	0.1856
262.2577	0.1845
262.472	0.1905
262.6863	0.187
262.9005	0.1914
263.1148	0.18
263.3291	0.184
263.5433	0.1838
263.7576	0.1824
263.9718	0.1888
264.186	0.1847
264.4002	0.1819
264.6144	0.189
264.8286	0.1883
265.0427	0.1882
265.2569	0.1866
265.471	0.1868
265.6851	0.1797
265.8993	0.1827
266.1134	0.1863
266.3275	0.1892
266.5415	0.1801
266.7556	0.1784
266.9697	0.1892
267.1837	0.1843
267.3978	0.1891
267.6118	0.1819
267.8258	0.1848
268.0398	0.185
268.2538	0.1889
268.4677	0.178
268.6817	0.1789
268.8957	0.1844
269.1096	0.1743
269.3235	0.1842
269.5374	0.1765
269.7514	0.1829
269.9652	0.1755
270.1791	0.1794
270.393	0.1832
270.6068	0.1762
270.8207	0.1828
271.0345	0.1743
271.2483	0.177
271.4622	0.1702
271.676	0.1671
271.8897	0.1714
272.1035	0.1757
272.3173	0.1725
272.531	0.1784
272.7448	0.1705
272.9585	0.1736
273.1722	0.1745
273.3859	0.1729
273.5996	0.1718
273.8133	0.1648
274.0269	0.178
274.2406	0.1769
274.4542	0.1667
274.6679	0.1736
274.8815	0.1745
275.0951	0.1742
275.3087	0.1804
275.5223	0.167
275.7358	0.1812
275.9494	0.1744
276.1629	0.1715
276.3765	0.1712
276.59	0.1753
276.8035	0.1843
277.017	0.1831
277.2305	0.1756
277.444	0.1778
277.6574	0.1777
277.8709	0.1838
278.0843	0.1743
278.2978	0.175
278.5112	0.1774
278.7246	0.1746
278.938	0.1795
279.1513	0.1789
279.3647	0.1812
279.5781	0.1776
279.7914	0.1817
280.0047	0.1763
280.2181	0.1814
280.4314	0.181
280.6447	0.1901
280.8579	0.182
281.0712	0.1785
281.2845	0.1873
281.4977	0.1902
281.711	0.1828
281.9242	0.1848
282.1374	0.1833
282.3506	0.1884
282.5638	0.1853
282.7769	0.1835
282.9901	0.1791
283.2033	0.1912
283.4164	0.1802
283.6295	0.1867
283.8426	0.1884
284.0557	0.1829
284.2688	0.1884
284.4819	0.193
284.695	0.1893
284.908	0.1927
285.1211	0.1974
285.3341	0.1934
285.5471	0.1957
285.7601	0.1882
285.9731	0.1842
286.1861	0.1888
286.3991	0.1949
286.612	0.1963
286.825	0.191
287.0379	0.1983
287.2508	0.1964
287.4637	0.2016
287.6766	0.1988
287.8895	0.1928
288.1024	0.1982
288.3152	0.1978
288.5281	0.1952
288.7409	0.1938
288.9538	0.1961
289.1666	0.1935
289.3794	0.1968
289.5922	0.1969
289.8049	0.2029
290.0177	0.2022
290.2304	0.2023
290.4432	0.1987
290.6559	0.1906
290.8686	0.2
291.0813	0.2003
291.294	0.1996
291.5067	0.2022
291.7194	0.1924
291.932	0.1974
292.1447	0.2044
292.3573	0.205
292.5699	0.198
292.7825	0.1997
292.9951	0.2009
293.2077	0.1992
293.4203	0.196
293.6328	0.198
293.8454	0.1963
294.0579	0.1992
294.2704	0.2051
294.4829	0.1977
294.6954	0.1944
294.9079	0.2054
295.1204	0.2023
295.3328	0.2005
295.5453	0.1954
295.7577	0.1933
295.9701	0.2015
296.1825	0.1968
296.3949	0.2024
296.6073	0.199
296.8197	0.2002
297.0321	0.2
297.2444	0.2041
297.4567	0.192
297.6691	0.197
297.8814	0.1962
298.0937	0.1994
298.306	0.196
298.5182	0.1981
298.7305	0.1974
298.9428	0.1992
299.155	0.1946
299.3672	0.2023
299.5794	0.1911
299.7916	0.205
300.0038	0.1971
300.216	0.1989
300.4282	0.189
300.6403	0.1938
300.8525	0.2041
301.0646	0.1899
301.2767	0.1981
301.4888	0.1998
301.7009	0.1969
301.913	0.2071
302.125	0.1974
302.3371	0.1946
302.5491	0.197
302.7612	0.1956
302.9732	0.1961
303.1852	0.192
303.3972	0.1917
303.6092	0.197
303.8211	0.1916
304.0331	0.1921
304.245	0.1933
304.457	0.2017
304.6689	0.1928
304.8808	0.1909
305.0927	0.189
305.3046	0.1879
305.5164	0.1884
305.7283	0.192
305.9401	0.1794
306.152	0.1823
306.3638	0.1806
306.5756	0.1827
306.7874	0.1849
306.9992	0.1807
307.2109	0.1699
307.4227	0.173
307.6344	0.1755
307.8462	0.1718
308.0579	0.1689
308.2696	0.1656
308.4813	0.1633
308.693	0.165
308.9046	0.1642
309.1163	0.1642
309.328	0.154
309.5396	0.1587
309.7512	0.1533
309.9628	0.1563
310.1744	0.1567
310.386	0.144
310.5976	0.1504
310.8091	0.1447
311.0207	0.1482
311.2322	0.1465
311.4437	0.1425
311.6552	0.1459
311.8667	0.1418
312.0782	0.1393
312.2897	0.1442
312.5012	0.1416
312.7126	0.1328
312.924	0.1337
313.1355	0.1355
313.3469	0.1288
313.5583	0.1333
313.7696	0.1269
313.981	0.1255
314.1924	0.1318
314.4037	0.1215
314.6151	0.1253
314.8264	0.1287
315.0377	0.1259
315.249	0.1219
315.4603	0.1208
315.6716	0.1278
315.8828	0.1227
316.0941	0.1277
316.3053	0.1205
316.5165	0.1199
316.7277	0.1195
316.9389	0.1231
317.1501	0.1162
317.3613	0.1184
317.5724	0.1202
317.7836	0.1217
317.9947	0.114
318.2058	0.1181
318.417	0.1202
318.6281	0.1175
318.8391	0.1153
319.0502	0.1144
319.2613	0.1164
319.4723	0.1167
319.6834	0.1215
319.8944	0.1214
320.1054	0.1158
320.3164	0.1188
320.5274	0.1081
320.7383	0.1118
320.9493	0.1193
321.1602	0.1177
321.3712	0.1199
321.5821	0.1188
321.793	0.1158
322.0039	0.1193
322.2148	0.1202
322.4257	0.1185
322.6365	0.1137
322.8474	0.1158
323.0582	0.119
323.269	0.1106
323.4798	0.1192
323.6906	0.1181
323.9014	0.1168
324.1122	0.1139
324.3229	0.1198
324.5337	0.1237
324.7444	0.1175
324.9551	0.1164
325.1658	0.117
325.3765	0.1203
325.5872	0.1187
325.7979	0.1186
326.0085	0.1213
326.2192	0.1206
326.4298	0.122
326.6404	0.1167
326.851	0.1173
327.0616	0.1269
327.2722	0.1253
327.4828	0.1249
327.6933	0.1188
327.9039	0.1174
328.1144	0.1245
328.3249	0.1206
328.5354	0.1155
328.7459	0.1187
328.9564	0.126
329.1669	0.1245
329.3773	0.1274
329.5878	0.1251
329.7982	0.1238
330.0086	0.1229
330.219	0.1224
330.4294	0.1302
330.6398	0.1305
330.8502	0.1225
331.0605	0.1273
331.2708	0.1248
331.4812	0.124
331.6915	0.122
331.9018	0.1202
332.1121	0.1328
332.3224	0.1265
332.5326	0.1333
332.7429	0.122
332.9531	0.1245
333.1633	0.1297
333.3735	0.1258
333.5837	0.1274
333.7939	0.1273
334.0041	0.1271
334.2143	0.1241
334.4244	0.1176
334.6346	0.1273
334.8447	0.128
335.0548	0.127
335.2649	0.1283
335.475	0.1262
335.685	0.1278
335.8951	0.1305
336.1051	0.1285
336.3152	0.127
336.5252	0.1277
336.7352	0.126
336.9452	0.1304
337.1552	0.1269
337.3652	0.1341
337.5751	0.1332
337.7851	0.1279
337.995	0.1353
338.2049	0.1326
338.4148	0.1228
338.6247	0.1326
338.8346	0.1297
339.0445	0.1338
339.2543	0.1357
339.4642	0.1357
339.674	0.137
339.8838	0.1347
340.0936	0.1343
340.3034	0.1356
340.5132	0.1305
340.7229	0.1362
340.9327	0.1386
341.1424	0.1351
341.3522	0.141
341.5619	0.139
341.7716	0.1376
341.9813	0.147
342.1909	0.1423
342.4006	0.1375
342.6102	0.1414
342.8199	0.1303
343.0295	0.1395
343.2391	0.1365
343.4487	0.1483
343.6583	0.1481
343.8679	0.1407
344.0774	0.138
344.287	0.1463
344.4965	0.1458
344.706	0.1473
344.9155	0.147
345.125	0.1498
345.3345	0.1482
345.544	0.146
345.7534	0.1506
345.9629	0.1526
346.1723	0.1488
346.3817	0.1472
346.5911	0.1459
346.8005	0.1476
347.0099	0.1566
347.2193	0.156
347.4286	0.1507
347.638	0.1566
347.8473	0.1524
348.0566	0.1628
348.2659	0.163
348.4752	0.1547
348.6845	0.1591
348.8937	0.1629
349.103	0.1584
349.3122	0.1614
349.5214	0.1612
349.7306	0.1624
349.9398	0.1592
350.149	0.1674
350.3582	0.1586
350.5674	0.1692
350.7765	0.166
350.9856	0.1679
351.1948	0.1648
351.4039	0.1649
351.613	0.1748
351.822	0.1688
352.0311	0.171
352.2402	0.1688
352.4492	0.1741
352.6582	0.1679
352.8672	0.1707
353.0762	0.1648
353.2852	0.171
353.4942	0.1766
353.7032	0.1776
353.9121	0.1698
354.1211	0.1705
354.33	0.1782
354.5389	0.1835
354.7478	0.1818
354.9567	0.1802
355.1655	0.1834
355.3744	0.1749
355.5833	0.1826
355.7921	0.1781
356.0009	0.1763
356.2097	0.1831
356.4185	0.1885
356.6273	0.1842
356.8361	0.1882
357.0448	0.1932
357.2536	0.192
357.4623	0.1866
357.671	0.1901
357.8797	0.1938
358.0884	0.1891
358.2971	0.1982
358.5057	0.191
358.7144	0.1909
358.923	0.1945
359.1316	0.1993
359.3402	0.196
359.5488	0.2033
359.7574	0.1972
359.966	0.2113
360.1746	0.1978
360.3831	0.2085
360.5916	0.1993
360.8002	0.2106
361.0087	0.2101
361.2172	0.2077
361.4256	0.2071
361.6341	0.2219
361.8426	0.2112
362.051	0.2086
362.2594	0.2167
362.4678	0.2203
362.6762	0.2251
362.8846	0.2202
363.093	0.2163
363.3014	0.2159
363.5097	0.2225
363.718	0.2317
363.9264	0.2272
364.1347	0.2231
364.343	0.2222
364.5513	0.2312
364.7595	0.2287
364.9678	0.2296
365.176	0.2238
365.3842	0.2367
365.5925	0.2287
365.8007	0.2434
366.0089	0.2306
366.217	0.2402
366.4252	0.2363
366.6333	0.2359
366.8415	0.2404
367.0496	0.2361
367.2577	0.2446
367.4658	0.251
367.6739	0.2413
367.882	0.2464
368.09	0.2479
368.2981	0.2405
368.5061	0.2474
368.7141	0.2502
368.9221	0.2512
369.1301	0.2467
369.3381	0.2572
369.5461	0.2599
369.754	0.2521
369.962	0.2549
370.1699	0.2667
370.3778	0.258
370.5857	0.2598
370.7936	0.2614
371.0015	0.2557
371.2093	0.2604
371.4172	0.2581
371.625	0.2655
371.8328	0.2683
372.0406	0.2608
372.2484	0.2673
372.4562	0.2684
372.664	0.2718
372.8717	0.2697
373.0795	0.2727
373.2872	0.2763
373.4949	0.2728
373.7026	0.2693
373.9103	0.2727
374.118	0.2734
374.3256	0.2765
374.5333	0.2715
374.7409	0.2678
374.9485	0.2725
375.1561	0.2803
375.3637	0.2781
375.5713	0.2721
375.7789	0.2894
375.9864	0.2798
376.194	0.2877
376.4015	0.2873
376.609	0.2897
376.8165	0.2839
377.024	0.2824
377.2315	0.2959
377.4389	0.2858
377.6464	0.2859
377.8538	0.294
378.0612	0.2802
378.2686	0.2888
378.476	0.2883
378.6834	0.2861
378.8908	0.29
379.0981	0.2863
379.3055	0.2971
379.5128	0.2972
379.7201	0.3061
379.9274	0.2913
380.1347	0.2987
380.342	0.3085
380.5492	0.2996
380.7565	0.2903
380.9637	0.295
381.1709	0.2952
381.3781	0.3096
381.5853	0.3019
381.7925	0.3088
381.9997	0.3066
382.2068	0.3012
382.4139	0.308
382.6211	0.3102
382.8282	0.3033
383.0353	0.3036
383.2424	0.3103
383.4494	0.3179
383.6565	0.3115
383.8635	0.312
384.0706	0.3135
384.2776	0.3141
384.4846	0.3132
384.6916	0.3074
384.8986	0.3218
385.1055	0.3176
385.3125	0.3099
385.5194	0.3203
385.7263	0.3051
385.9333	0.3135
386.1402	0.3168
386.347	0.3232
386.5539	0.3195
386.7608	0.327
386.9676	0.3025
387.1744	0.3138
387.3813	0.3167
387.5881	0.3179
387.7948	0.3152
388.0016	0.3143
388.2084	0.3179
388.4151	0.3083
388.6219	0.3086
388.8286	0.3133
389.0353	0.3057
389.242	0.3158
389.4487	0.3134
389.6553	0.3029
389.862	0.3079
390.0686	0.3143
390.2753	0.3034
390.4819	0.3205
390.6885	0.2955
390.8951	0.3113
391.1016	0.3087
391.3082	0.2937
391.5147	0.3037
391.7213	0.298
391.9278	0.3027
392.1343	0.3003
392.3408	0.2865
392.5473	0.2828
392.7537	0.2933
392.9602	0.2857
393.1666	0.2906
393.373	0.2894
393.5794	0.2952
393.7858	0.2891
393.9922	0.2924
394.1986	0.2942
394.4049	0.2824
394.6113	0.2842
394.8176	0.2764
395.0239	0.2784
395.2302	0.2683
395.4365	0.2831
395.6428	0.2814
395.8491	0.2681
396.0553	0.2768
396.2615	0.2737
396.4678	0.2674
396.674	0.2644
396.8802	0.2751
397.0863	0.2765
397.2925	0.2685
397.4987	0.2726
397.7048	0.2777
397.9109	0.2794
398.117	0.265
398.3231	0.2733
398.5292	0.2745
398.7353	0.2717
398.9413	0.2654
399.1474	0.2739
399.3534	0.2712
399.5594	0.2817
399.7654	0.2722
399.9714	0.2652
400.1774	0.2641
400.3833	0.2782
400.5893	0.254
400.7952	0.2659
401.0011	0.2631
401.207	0.276
401.4129	0.2713
401.6188	0.2687
401.8247	0.2682
402.0305	0.2675
402.2364	0.2801
402.4422	0.2629
402.648	0.2729
402.8538	0.277
403.0596	0.265
403.2654	0.2672
403.4711	0.2658
403.6768	0.2732
403.8826	0.2759
404.0883	0.2648
404.294	0.2693
404.4997	0.2633
404.7054	0.266
404.911	0.2661
405.1167	0.2758
405.3223	0.2617
405.5279	0.2677
405.7335	0.2696
405.9391	0.2611
406.1447	0.2667
406.3502	0.2754
406.5558	0.2706
406.7613	0.2736
406.9668	0.2763
407.1724	0.273
407.3778	0.2589
407.5833	0.2655
407.7888	0.2597
407.9942	0.2608
408.1997	0.2601
408.4051	0.2699
408.6105	0.2819
408.8159	0.2637
409.0213	0.2613
409.2267	0.2646
409.432	0.2691
409.6374	0.2744
409.8427	0.2638
410.048	0.263
410.2533	0.2587
410.4586	0.2757
410.6639	0.2669
410.8691	0.2711
411.0744	0.2635
411.2796	0.2731
411.4848	0.2653
411.69	0.265
411.8952	0.2745
412.1004	0.2635
412.3056	0.2684
412.5107	0.2733
412.7158	0.2761
412.921	0.2695
413.1261	0.2645
413.3312	0.2577
413.5362	0.2619
413.7413	0.2678
413.9464	0.2705
414.1514	0.2706
414.3564	0.2614
414.5614	0.2664
414.7664	0.2633
414.9714	0.2752
415.1764	0.258
415.3813	0.2491
415.5863	0.2459
415.7912	0.2665
415.9961	0.2549
416.201	0.2609
416.4059	0.2575
416.6108	0.2542
416.8156	0.2487
417.0205	0.2597
417.2253	0.2588
417.4301	0.2693
417.6349	0.2598
417.8397	0.2641
418.0445	0.2587
418.2492	0.2598
418.454	0.2557
418.6587	0.2655
418.8634	0.2578
419.0681	0.2588
419.2728	0.2495
419.4775	0.2647
419.6822	0.2452
419.8868	0.2568
420.0915	0.2552
420.2961	0.2429
420.5007	0.251
420.7053	0.2522
420.9099	0.2405
421.1144	0.249
421.319	0.2423
421.5235	0.2432
421.728	0.2419
421.9325	0.2499
422.137	0.2447
422.3415	0.2303
422.546	0.2482
422.7504	0.2503
422.9549	0.2406
423.1593	0.2494
423.3637	0.2291
423.5681	0.248
423.7725	0.2363
423.9769	0.2369
424.1812	0.2398
424.3856	0.2411
424.5899	0.2438
424.7942	0.2275
424.9985	0.2282
425.2028	0.2331
425.4071	0.212
425.6113	0.2321
425.8156	0.2262
426.0198	0.2339
426.224	0.2368
426.4282	0.2219
426.6324	0.216
426.8366	0.2221
427.0407	0.2162
427.2449	0.2114
427.449	0.2184
427.6531	0.2245
427.8572	0.2114
428.0613	0.2143
428.2654	0.2081
428.4694	0.2079
428.6735	0.2067
428.8775	0.2077
429.0815	0.2201
429.2855	0.2071
429.4895	0.1987
429.6935	0.198
429.8975	0.2032
430.1014	0.1961
430.3053	0.194
430.5093	0.1975
430.7132	0.1914
430.9171	0.1907
431.1209	0.1964
431.3248	0.1857
431.5286	0.1781
431.7325	0.1844
431.9363	0.1818
432.1401	0.1766
432.3439	0.1879
432.5477	0.1873
432.7514	0.1714
432.9552	0.1669
433.1589	0.1742
433.3627	0.177
433.5664	0.1658
433.7701	0.1709
433.9737	0.1596
434.1774	0.1738
434.3811	0.1681
434.5847	0.1625
434.7883	0.1658
434.9919	0.158
435.1955	0.1574
435.3991	0.1514
435.6027	0.1475
435.8062	0.1601
436.0098	0.1541
436.2133	0.1601
436.4168	0.149
436.6203	0.1453
436.8238	0.1442
437.0272	0.144
437.2307	0.1324
437.4341	0.1346
437.6375	0.1337
437.841	0.1326
438.0443	0.1289
438.2477	0.1224
438.4511	0.1359
438.6545	0.1335
438.8578	0.129
439.0611	0.1254
439.2644	0.1187
439.4677	0.1258
439.671	0.1213
439.8743	0.1158
440.0775	0.1198
440.2808	0.1215
440.484	0.1151
440.6872	0.1041
440.8904	0.1123
441.0936	0.1172
441.2967	0.1059
441.4999	0.1068
441.703	0.1008
441.9062	0.0999
442.1093	0.0937
442.3124	0.1111
442.5155	0.1004
442.7185	0.0816
442.9216	0.0925
443.1246	0.0994
443.3276	0.0846
443.5307	0.0871
443.7337	0.0922
443.9366	0.075
444.1396	0.0839
444.3426	0.0825
444.5455	0.0709
444.7484	0.0738
444.9513	0.082
445.1542	0.0771
445.3571	0.0707
445.56	0.0748
445.7628	0.0731
445.9657	0.0796
446.1685	0.0799
446.3713	0.0729
446.5741	0.0591
446.7769	0.066
446.9797	0.0707
447.1824	0.0685
447.3852	0.0646
447.5879	0.0634
447.7906	0.0615
447.9933	0.0648
448.196	0.0537
448.3986	0.06
448.6013	0.056
448.8039	0.0514
449.0066	0.0566
449.2092	0.0517
449.4118	0.0485
449.6143	0.0524
449.8169	0.0558
450.0195	0.0413
450.222	0.0502
450.4245	0.0621
450.627	0.0478
450.8295	0.0406
451.032	0.0399
451.2345	0.051
451.4369	0.0422
451.6394	0.0377
451.8418	0.0373
452.0442	0.0426
452.2466	0.0428
452.449	0.0386
452.6513	0.031
452.8537	0.038
453.056	0.0429
453.2583	0.0268
453.4607	0.0301
453.663	0.0318
453.8652	0.0316
454.0675	0.0367
454.2697	0.031
454.472	0.0267
454.6742	0.027
454.8764	0.0245
455.0786	0.0313
455.2808	0.0304
455.4829	0.0192
455.6851	0.0204
455.8872	0.0269
456.0893	0.0324
456.2915	0.0277
456.4935	0.0226
456.6956	0.0248
456.8977	0.0233
457.0997	0.0292
457.3018	0.0279
457.5038	0.0284
457.7058	0.019
457.9078	0.0366
458.1098	0.0193
458.3117	0.0214
458.5137	0.0269
458.7156	0.0394
458.9175	0.0142
459.1194	0.0226
459.3213	0.0152
459.5232	0.0231
459.725	0.0233
459.9269	0.0211
460.1287	0.0104
460.3305	0.0163
460.5323	0.0111
460.7341	0.0135
460.9359	0.0092
461.1376	0.0223
461.3394	-0.0019
461.5411	0.0165
461.7428	0.0121
461.9445	0.008
462.1462	0.0077
462.3479	0.0159
462.5495	0.0177
462.7512	0.01
462.9528	0.0024
463.1544	0.0083
463.356	0.0147
463.5576	0.0047
463.7592	0.0066
463.9607	0.0105
464.1623	0.0136
464.3638	0.013
464.5653	0.0082
464.7668	0.0151
464.9683	0.014
465.1697	0.0215
465.3712	0.0123
465.5726	0.018
465.7741	0.0135
465.9755	0.0117
466.1769	0.0097
466.3782	0.0053
466.5796	0.0162
466.7809	0.0148
466.9823	0.0132
467.1836	0.0092
467.3849	0.0133
467.5862	-0.0057
467.7875	0.0026
467.9887	0.0026
468.19	0.0045
468.3912	0.0108
468.5924	0.0198
468.7936	0.0041
468.9948	0.0162
469.196	0.008
469.3972	0.0165
469.5983	-0.0012
469.7994	0.009
470.0006	0.0046
470.2017	0.0104
470.4027	0.0034
470.6038	0.0034
470.8049	-0.0022
471.0059	0.0079
471.2069	0.0066
471.408	0.0025
471.6089	0.0088
471.8099	0.0011
472.0109	0.0037
472.2119	0.0179
472.4128	0.0086
472.6137	-0.004
472.8146	-0.0037
473.0155	0.0044
473.2164	-0.0075
473.4173	0.0114
473.6181	0.008
473.819	-0.0004
474.0198	0.0102
474.2206	0.0113
474.4214	0.0176
474.6222	0.0072
474.8229	-0.0037
475.0237	0.0062
475.2244	0.0098
475.4251	0.0013
475.6258	0.0063
475.8265	0.0016
476.0272	0.0094
476.2278	0.0044
476.4285	0.0011
476.6291	0.0092
476.8297	-0.0034
477.0303	0.0087
477.2309	-0.001
477.4315	0.013
477.632	0.0033
477.8326	-0.0037
478.0331	0.0002
478.2336	0.0167
478.4341	0.0068
478.6346	0.0042
478.8351	0.0111
479.0355	0.0024
479.236	0.0006
479.4364	-0.0032
479.6368	-0.0041
479.8372	0.006
480.0376	-0.0036
480.2379	0.0048
480.4383	0.0001
480.6386	0.0001
480.8389	0.0086
481.0392	0.0061
481.2395	0.008
481.4398	0.0029
481.6401	0.0029
481.8403	-0.0027
482.0405	-0.0007
482.2408	0.0045
482.441	0.0047
482.6411	0.0067
482.8413	-0.0095
483.0415	0.0044
483.2416	0.0084
483.4417	0.0087
483.6419	0.0058
483.8419	0.0022
484.042	0.0032
484.2421	0.0066
484.4422	0.0078
484.6422	0.01
484.8422	0.0025
485.0422	-0.0002
485.2422	0.0044
485.4422	-0.0008
485.6422	-0.0009
485.8421	0.0024
486.042	0.0059
486.242	0.0035
486.4419	0.0044
486.6417	0.0048
486.8416	0.0032
487.0415	-0.001
487.2413	0.0031
487.4411	0.0038
487.641	0.0056
487.8408	0.0032
488.0405	0.003
488.2403	-0.0055
488.4401	0.0009
488.6398	0.0123
488.8395	0.0026
489.0392	0.0041
489.2389	0.0047
489.4386	-0.0012
489.6383	0.0059
489.8379	0.0038
490.0376	0.0085
490.2372	0.006
490.4368	0.0057
490.6364	0.0115
490.836	0.0057
491.0355	0.0055
491.2351	0.0009
491.4346	0.0018
491.6341	0.001
491.8336	-0.002
492.0331	-0.0024
492.2326	-0.0007
492.432	0.0063
492.6315	-0.0039
492.8309	0.0032
493.0303	-0.0057
493.2297	-0.003
493.4291	-0.0103
493.6284	0.0062
493.8278	0.0048
494.0271	0.0021
494.2264	0.0011
494.4257	0.0066
494.625	-0.0019
494.8243	0.0007
495.0236	0.005
495.2228	0.002
495.422	0.0083
495.6213	-0.002
495.8205	0.0045
496.0196	-0.0013
496.2188	0.0055
496.418	-0.0084
496.6171	-0.0042
496.8162	0.0001
497.0153	0.0032
497.2144	-0.0038
497.4135	0.0006
497.6126	-0.0079
497.8116	0.0073
498.0107	0.0021
498.2097	0.0129
498.4087	0.006
498.6077	0.0042
498.8067	0.0076
499.0056	0.0052
499.2046	-0.002
499.4035	0.0088
499.6024	-0.0085
499.8013	0.0084
500.0002	0.0022
500.199	0.002
500.3979	0.0072
500.5967	-0.0045
500.7956	-0.0047
500.9944	0.0008
501.1932	0.0062
501.3919	0.0065
501.5907	0.0076
501.7895	-0.0025
501.9882	-0.0047
502.1869	0.0021
502.3856	0.0012
502.5843	-0.0018
502.783	0.011
502.9816	0.0007
503.1803	0.0074
503.3789	0
503.5775	-0.0039
503.7761	0.0018
503.9747	-0.0045
504.1732	0.0016
504.3718	-0.0038
504.5703	-0.0002
504.7689	-0.0031
504.9674	0.0008
505.1658	0.0047
505.3643	0.0018
505.5628	0.0079
505.7612	0.0002
505.9597	0.0002
506.1581	-0.0062
506.3565	-0.0066
506.5549	-0.0014
506.7532	-0.0006
506.9516	-0.002
507.1499	0.0098
507.3482	0.0069
507.5465	-0.0093
507.7448	-0.0011
507.9431	0.0002
508.1414	-0.0005
508.3396	-0.0064
508.5379	0.0049
508.7361	0.009
508.9343	-0.0008
509.1325	0.009
509.3306	-0.0031
509.5288	0.0119
509.7269	0.0025
509.9251	-0.0008
510.1232	-0.0011
510.3213	0.004
510.5193	0.0059
510.7174	-0.0128
510.9154	0.0043
511.1135	0.0018
511.3115	0.0049
511.5095	-0.002
511.7075	-0.0069
511.9055	0.0136
512.1034	0.0149
512.3014	-0.0085
512.4993	0.0046
512.6972	-0.0009
512.8951	-0.0043
513.093	-0.003
513.2908	0.0088
513.4887	0.0021
513.6865	0.0029
513.8844	0.0055
514.0822	-0.0019
514.2799	-0.0006
514.4777	0.0054
514.6755	0.0014
514.8732	0.0017
515.0709	0.0041
515.2687	-0.0011
515.4664	-0.0085
515.664	0.0066
515.8617	0.0125
516.0594	0.0025
516.257	0.0023
516.4546	-0.0061
516.6522	0.0014
516.8498	-0.0015
517.0474	-0.0054
517.2449	0.007
517.4425	-0.0009
517.64	0.0082
517.8375	0.0012
518.035	0.002
518.2325	0.0054
518.43	0.0023
518.6274	0.0007
518.8249	0.0099
519.0223	0.0041
519.2197	0.0033
519.4171	-0.0076
519.6145	-0.0003
519.8118	-0.0017
520.0092	-0.0039
520.2065	0.0007
520.4038	-0.0067
520.6011	0.0066
520.7984	0.0023
520.9956	-0.0022
521.1929	0.0043
521.3901	0.0045
521.5874	-0.0017
521.7846	-0.0044
521.9818	-0.0063
522.1789	0.0035
522.3761	0.0025
522.5732	0.0028
522.7704	0.0015
522.9675	0.0042
523.1646	0.0158
523.3617	0.0091
523.5587	-0.0036
523.7558	-0.0039
523.9528	0.0079
524.1498	-0.0002
524.3468	-0.004
524.5438	-0.0011
524.7408	-0.007
524.9378	-0.0031
525.1347	0.0094
525.3316	0.0026
525.5285	-0.0031
525.7254	-0.0026
525.9223	-0.0037
526.1192	0.0017
526.316	-0.0104
526.5129	0.0142
526.7097	-0.0024
526.9065	0.0153
527.1033	-0.0027
527.3	-0.0037
527.4968	-0.0034
527.6935	0.002
527.8903	0.0074
528.087	0.0023
528.2837	0.0107
528.4804	0.0105
528.677	0.0021
528.8737	0.0027
529.0703	0.007
529.2669	0.0032
529.4635	0.006
529.6601	0.0045
529.8567	-0.0042
530.0532	0.008
530.2498	-0.0063
530.4463	0.0057
530.6428	0.0088
530.8393	-0.0036
531.0358	0.0019
531.2322	0.0037
531.4287	-0.0048
531.6251	-0.0089
531.8215	-0.0003
532.0179	-0.0179
532.2143	0.0128
532.4107	-0.0003
532.607	0.0006
532.8034	-0.0017
532.9997	0.0085
533.196	0.0126
533.3923	0.0007
533.5886	0.0044
533.7848	-0.0146
533.9811	-0.0024
534.1773	0.0067
534.3735	0.001
534.5697	0.0052
534.7659	-0.0038
534.9621	0.005
535.1582	0.0012
535.3544	0.006
535.5505	0.0006
535.7466	-0.0086
535.9427	-0.0031
536.1387	-0.0005
536.3348	0.0064
536.5308	0.0085
536.7269	0.0005
536.9229	0.006
537.1189	0.0023
537.3148	-0.0097
537.5108	0.0038
537.7068	0.007
537.9027	0.0074
538.0986	-0.0044
538.2945	-0.005
538.4904	-0.0025
538.6863	0.0146
538.8821	-0.0105
539.078	-0.0042
539.2738	-0.004
539.4696	0.0095
539.6654	-0.0002
539.8611	0.0033
540.0569	0.0034
540.2526	-0.0065
540.4484	-0.0014
540.6441	-0.0004
540.8398	-0.0101
541.0355	-0.0027
541.2311	0.0051
541.4268	-0.0026
541.6224	0.0103
541.818	0.0034
542.0136	-0.007
542.2092	0.0057
542.4048	0.0067
542.6003	-0.0019
542.7959	-0.0009
542.9914	0.0022
543.1869	0.0034
543.3824	0.0037
543.5779	-0.002
543.7734	0.0007
543.9688	0.0064
544.1642	0.0018
544.3596	-0.0125
544.555	0.0006
544.7504	0.0006
544.9458	0.0039
545.1411	0.0052
545.3365	-0.0004
545.5318	0.0002
545.7271	0.0047
545.9224	0.0026
546.1177	0.0062
546.3129	-0.0113
546.5081	-0.01
546.7034	-0.0045
546.8986	-0.0054
547.0938	0.0023
547.289	-0.003
547.4841	-0.0029
547.6793	-0.0046
547.8744	0.0006
548.0695	0.0019
548.2646	-0.0096
548.4597	-0.0102
548.6548	0.0002
548.8498	-0.0027
549.0448	0.0037
549.2399	-0.0024
549.4349	0.0028
549.6298	0.0005
549.8248	-0.0061
550.0198	0.0124
550.2147	-0.0099
550.4096	-0.0008
550.6045	0.0049
550.7994	-0.0078
550.9943	0.0097
551.1892	0.001
551.384	0.0012
551.5788	0.0029
551.7737	0.0003
551.9685	0.0104
552.1632	-0.0002
552.358	-0.0019
552.5528	-0.0061
552.7475	0.0021
552.9422	0.007
553.1369	0.0088
553.3316	0.0001
553.5263	0.0021
553.7209	0.0039
553.9156	-0.0017
554.1102	0.0012
554.3048	0.0018
554.4994	0.0029
554.694	-0.0074
554.8885	0.0071
555.0831	-0.0017
555.2776	-0.0035
555.4721	-0.0054
555.6666	0.0026
555.8611	-0.0021
556.0555	0.0031
556.25	-0.0003
556.4444	0.0004
556.6388	-0.0031
556.8332	-0.0032
557.0276	0.016
557.222	-0.0079
557.4163	0.0002
557.6107	-0.0023
557.805	-0.0081
557.9993	0.0065
558.1936	0.0102
558.3879	0.0017
558.5821	0.0014
558.7764	0.0081
558.9706	0.0035
559.1648	0.0011
559.359	0.0121
559.5532	-0.014
559.7473	0.0148
559.9415	0.0007
560.1356	0.007
560.3297	0.0028
560.5238	0.0012
560.7179	-0.0081
560.9119	0.0006
561.106	0.0019
561.3	0.0131
561.494	0.0065
561.688	0.0009
561.882	0.0002
562.076	0.0036
562.2699	-0.0009
562.4639	0.0084
562.6578	0.0126
562.8517	-0.0034
563.0456	0.0029
563.2395	-0.004
563.4333	0.0044
563.6272	0.0158
563.821	0.0065
564.0148	-0.0008
564.2086	-0.0014
564.4024	0.0051
564.5961	-0.0023
564.7899	0.0106
564.9836	-0.0061
565.1773	-0.004
565.371	-0.0005
565.5647	-0.0056
565.7584	0.005
565.952	-0.0053
566.1456	-0.0036
566.3393	0.0082
566.5329	0.0047
566.7264	0.0009
566.92	0.0037
567.1136	0.0004
567.3071	0.0031
567.5006	-0.0088
567.6941	0.0031
567.8876	-0.0076
568.0811	-0.0063
568.2745	0.0037
568.468	-0.0009
568.6614	-0.0037
568.8548	0.0059
569.0482	0.0043
569.2416	0.0005
569.4349	0.0053
569.6283	-0.0005
569.8216	0.0001
570.0149	0.0011
570.2082	-0.0033
570.4015	0.0028
570.5947	-0.0029
570.788	-0.0043
570.9812	0.0036
571.1744	-0.0058
571.3676	-0.0056
571.5608	-0.004
571.754	-0.0034
571.9471	0.0013
572.1402	-0.0017
572.3333	-0.0008
572.5264	0.0002
572.7195	0.0057
572.9126	-0.0002
573.1057	0.0057
573.2987	0.0045
573.4917	0.0051
573.6847	0.003
573.8777	0.002
574.0707	0.0039
574.2636	0.0007
574.4566	0.0002
574.6495	0.0042
574.8424	0.001
575.0353	-0.0024
575.2281	-0.0022
575.421	-0.0041
575.6138	-0.0028
575.8067	0.0019
575.9995	0.0011
576.1923	0.0056
576.385	-0.0002
576.5778	-0.0024
576.7706	0.0036
576.9633	0.0013
577.156	0.0042
577.3487	-0.0005
577.5414	0.0003
577.734	-0.0004
577.9267	0.0031
578.1193	0.0002
578.3119	-0.005
578.5045	-0.0041
578.6971	0.0007
578.8897	0.0034
579.0822	0.0058
579.2747	-0.0038
579.4673	-0.0009
579.6598	-0.0017
579.8522	-0.0005
580.0447	-0.0031
580.2372	0.0038
580.4296	-0.0026
580.622	0.0011
580.8144	0.0008
581.0068	-0.0015
581.1992	0.0021
581.3915	-0.0006
581.5839	0.0019
581.7762	-0.0007
581.9685	0.0005
582.1608	-0.0001
582.353	-0.0013
582.5453	0.0037
582.7375	0.0004
582.9298	0.0017
583.122	-0.0087
583.3142	0.0042
583.5063	-0.0018
583.6985	0.0034
583.8906	0.0004
584.0827	0.0004
584.2749	0.0025
584.4669	0.0009
584.659	-0.0038
584.8511	0.0019
585.0431	-0.0009
585.2352	-0.0057
585.4272	-0.0023
585.6192	0.0005
585.8111	-0.0053
586.0031	0.0021
586.195	0.0006
586.387	0.0002
586.5789	0.0032
586.7708	-0.0014
586.9627	0.004
587.1545	-0.001
587.3464	0.0006
587.5382	0.0017
587.73	0.002
587.9218	-0.0013
588.1136	-0.0032
588.3053	0.0027
588.4971	0.0007
588.6888	-0.0016
588.8805	0.0066
589.0722	0.0008
589.2639	-0.0071
589.4556	-0.0018
589.6472	0.0003
589.8389	0.0018
590.0305	0.0042
590.2221	0.0041
590.4137	-0.0016
590.6052	0.0017
590.7968	0.0071
590.9883	-0.0003
591.1798	-0.0043
591.3713	-0.0016
591.5628	-0.0013
591.7543	0.0056
591.9458	-0.001
592.1372	0.0014
592.3286	-0.0019
592.52	-0.004
592.7114	-0.0035
592.9028	-0.0032
593.0941	-0.0016
593.2855	0.0009
593.4768	0.0022
593.6681	-0.0025
593.8594	-0.0031
594.0506	0.0056
594.2419	-0.0023
594.4331	-0.0034
594.6244	0.0015
594.8156	-0.0009
595.0067	0.0047
595.1979	-0.0065
595.3891	0.0012
595.5802	0.0045
595.7713	-0.0014
595.9624	0.0059
596.1535	-0.0008
596.3446	-0.0003
596.5357	-0.0016
596.7267	0.0008
596.9177	-0.0035
597.1087	-0.0038
597.2997	0.0016
597.4907	0.0004
597.6817	-0.0032
597.8726	0.0027
598.0635	0.0054
598.2544	-0.0037
598.4453	0.0016
598.6362	-0.0023
598.827	-0.0017
599.0179	0.0031
599.2087	0.0002
599.3995	-0.0004
599.5903	0.0015
599.7811	0.0018
599.9718	0.0013
600.1626	-0.0017
600.3533	0.0006
600.544	0.0059
600.7347	-0.0008
600.9254	0.0035
601.116	0.0003
601.3067	0.0069
601.4973	0.008
601.6879	-0.0062
601.8785	0.0043
602.0691	0.0049
602.2596	0.0004
602.4502	-0.0024
602.6407	0.0006
602.8312	0.0039
603.0217	0.0038
603.2122	0.0041
603.4027	-0.0001
603.5931	0.0037
603.7835	-0.0021
603.9739	0.0033
604.1643	0.0042
604.3547	0.005
604.5451	0.001
604.7354	-0.0058
604.9257	-0.0023
605.116	-0.0013
605.3063	-0.008
605.4966	0.0029
605.6869	-0.0001
605.8771	0.0018
606.0673	-0.0055
606.2575	-0.004
606.4477	0.0066
606.6379	0.0022
606.8281	-0.005
607.0182	-0.0024
607.2083	0.0011
607.3985	0.009
607.5885	0.0026
607.7786	0.0084
607.9687	-0.002
608.1587	-0.0052
608.3488	-0.0051
608.5388	0.0027
608.7288	-0.0082
608.9187	0.0078
609.1087	-0.0008
609.2986	-0.0022
609.4886	0.0102
609.6785	0.0062
609.8684	-0.0003
610.0582	0.0033
610.2481	-0.0035
610.4379	0.005
610.6278	0.0008
610.8176	-0.0004
611.0074	-0.0073
611.1971	0.0043
611.3869	-0.0023
611.5766	-0.002
611.7664	0.0145
611.9561	-0.0021
612.1458	0.003
612.3354	0.0079
612.5251	0.0045
612.7147	0.0062
612.9044	-0.0036
613.094	0.0003
613.2836	-0.0025
613.4731	0.0045
613.6627	0.0007
613.8522	0.0025
614.0417	-0.008
614.2313	-0.0059
614.4207	0.0051
614.6102	-0.0071
614.7997	0.0015
614.9891	0.0016
615.1785	-0.0065
615.3679	0.0094
615.5573	-0.0076
615.7467	-0.0089
615.9361	-0.0053
616.1254	-0.0058
616.3147	0.0018
616.504	-0.002
616.6933	0.0038
616.8826	0.0086
617.0718	-0.0101
617.2611	-0.0026
617.4503	-0.0048
617.6395	-0.0017
617.8287	0.005
618.0179	-0.004
618.207	-0.0005
618.3961	-0.0042
618.5853	0.0067
618.7744	0.006
618.9634	-0.0046
619.1525	0.0002
619.3416	-0.0056
619.5306	0.0029
619.7196	-0.0086
619.9086	-0.0035
620.0976	0.0021
620.2866	0.0062
620.4755	0.004
620.6645	-0.0003
620.8534	-0.0004
621.0423	-0.0018
621.2312	-0.0201
621.42	-0.0043
621.6089	-0.0025
621.7977	-0.0129
621.9865	0.0046
622.1753	0.0118
622.3641	-0.0101
622.5529	-0.0147
622.7416	-0.002
622.9303	-0.0031
623.1191	-0.0049
623.3078	0.0015
623.4964	0.0003
623.6851	0.0061
623.8737	0.0008
624.0624	-0.0049
624.251	-0.0004
624.4396	-0.0024
624.6282	0.0029
624.8167	0.0053
625.0053	0.0043
625.1938	0.0033
625.3823	-0.0002
625.5708	0.0051
625.7593	0.0052
625.9477	-0.0106
626.1362	-0.015
626.3246	-0.0061
626.513	0.0003
626.7014	-0.0112
626.8898	0.0019
627.0781	0.0096
627.2665	0.0159
627.4548	0.0013
627.6431	0.0023
627.8314	0.0069
628.0197	0.0006
628.2079	-0.0071
628.3962	-0.0098
628.5844	0.003
628.7726	-0.0062
628.9608	-0.0124
629.1489	-0.0011
629.3371	0.0011
629.5252	0.0021
629.7134	0.0081
629.9015	-0.001
630.0895	0.0058
630.2776	-0.0147
630.4657	0.012
630.6537	-0.0154
630.8417	-0.0116
631.0297	0.0049
631.2177	0.0015
631.4057	-0.0094
631.5936	-0.0014
631.7815	0.0069
631.9695	0.0153
632.1574	-0.0067
632.3452	0.0111
632.5331	0.0017
632.7209	0.0017
632.9088	-0.0043
633.0966	0.0039
633.2844	0.0042
633.4722	-0.0063
633.6599	-0.0008
633.8477	-0.009
634.0354	0.0139
634.2231	0.0226
634.4108	-0.0172
634.5985	-0.0106
634.7861	-0.0084
634.9738	0.0132
635.1614	-0.003
635.349	-0.0052
635.5366	0.0167
635.7242	-0.0026
635.9117	0.0139
636.0993	-0.017
636.2868	-0.003
636.4743	0.0254
636.6618	0.0034
636.8492	-0.0057
637.0367	0.0002
637.2241	0.0065
637.4115	0.0077
637.5989	0.0152
637.7863	-0.0154
637.9737	0.0141
638.161	-0.0132
638.3484	0.0037
638.5357	-0.0022
638.723	-0.0002
638.9103	0.0082
639.0975	0.0044
639.2848	0.0127
639.472	-0.0163
639.6592	0.0045
639.8464	0.0008
640.0336	0.0057
640.2208	-0.001
640.4079	0.0149
640.595	0.005
640.7821	0.0065
640.9692	0.0192
641.1563	0.0247
641.3434	0.0094
641.5304	-0.0129
641.7174	0.0246
641.9044	0.0023
642.0914	-0.0059
642.2784	0.0273
642.4653	0.0121
642.6523	0.0162
642.8392	0.0269
643.0261	-0.0089
643.213	0.005
643.3999	-0.003
643.5867	0.0024
643.7735	0.0046
643.9604	0
644.1472	0.0048
644.3339	-0.0042
644.5207	-0.0111
644.7075	0.002
644.8942	0.0133
645.0809	-0.0127
645.2676	-0.0095
645.4543	-0.008
645.6409	0.0003
645.8276	-0.0018
646.0142	0.011
646.2008	0.0083
646.3874	0.0171
646.574	-0.0134
646.7605	0.0003
646.9471	0.0169
647.1336	0.0053
647.3201	0.0005
647.5066	0.0037
647.6931	0.0162
647.8795	0.0026
648.0659	-0.0294
648.2524	-0.0059
648.4388	0.0111
648.6252	-0.0122
648.8115	0.013
648.9979	-0.0066
649.1842	-0.0159
649.3705	0.0027
649.5568	-0.0165
649.7431	-0.0062
649.9294	0.003
650.1156	-0.0137
650.3018	0.0203
650.488	0.0109
650.6742	0.0118
650.8604	0.0054
651.0466	0.0052
651.2327	-0.0056
651.4188	-0.0176
651.6049	-0.0101
651.791	0.0129
651.9771	-0.0083
652.1632	-0.0095
652.3492	0.0094
652.5352	0.02
652.7212	-0.0132
652.9072	0.0158
653.0932	-0.0074
653.2791	0.0038
653.465	0.0022
653.651	0.0079
653.8369	0.0225
654.0227	-0.0162
654.2086	-0.0126
654.3944	-0.0113
654.5803	-0.0005
654.7661	-0.0036
654.9519	-0.0005
655.1377	0
655.3234	0
655.5092	0
655.6949	0
655.8806	0
656.0663	0
656.2519	0
656.4376	0
656.6232	0
656.8088	0
656.9945	0
657.18	0
657.3656	0
657.5511	0
657.7367	0
657.9222	0
658.1077	0
658.2932	0
658.4786	0
658.6641	0
658.8495	0
659.0349	0
659.2203	0
659.4057	0.0112
659.591	0.052
659.7764	0.0083
659.9617	0.0014
660.147	-0.0051
660.3323	0.0044
660.5176	-0.0055
660.7028	0.0072
660.888	0.0033
661.0733	-0.0054
661.2585	0.0066
661.4436	-0.0035
661.6288	0.0056
661.8139	0.0035
661.9991	-0.0002
662.1842	0.0246
662.3693	0.0114
662.5544	-0.0059
662.7394	0.0061
662.9245	-0.0054
663.1095	0.0056
663.2945	0.0089
663.4795	-0.0089
663.6644	-0.0063
663.8494	-0.0005
664.0343	-0.0035
664.2193	0.0049
664.4042	-0.013
664.589	-0.0259
664.7739	-0.0091
664.9587	0.009
665.1436	-0.0032
665.3284	0.0113
665.5132	0.0034
665.698	-0.0173
665.8827	-0.029
666.0675	-0.0131
666.2522	0.0053
666.4369	0.0045
666.6216	-0.0049
666.8063	-0.0112
666.9909	-0.0003
667.1756	-0.0061
667.3602	-0.0142
667.5448	0.0055
667.7294	-0.0003
667.9139	-0.0007
668.0985	-0.032
668.283	0.0039
668.4675	-0.0039
668.652	-0.0055
668.8365	-0.0098
669.0209	-0.0226
669.2054	-0.0115
669.3898	0.0101
669.5742	0.0201
669.7586	0.0063
669.943	-0.0171
670.1273	0.0108
670.3117	0.0108
670.496	0.0052
670.6803	0.0256
670.8646	0.0097
671.0488	0.0174
671.2331	0.0078
671.4173	0.0145
671.6015	-0.0014
671.7857	-0.0216
671.9699	0.0137
672.1541	0.0011
672.3382	0.0145
672.5223	0.0145
672.7064	-0.0022
672.8905	0.0043
673.0746	-0.0225
673.2587	0.0079
673.4427	-0.0064
673.6267	-0.0127
673.8107	0.0009
673.9947	-0.014
674.1787	-0.0003
674.3626	0.0049
674.5465	0.01
674.7304	-0.0146
674.9143	0.0125
675.0982	0.007
675.2821	0.0058
675.4659	-0.0107
675.6497	-0.0006
675.8335	0.0055
676.0173	0.0136
676.2011	-0.0153
676.3849	-0.0016
676.5686	-0.0037
676.7523	0.02
676.936	-0.0255
677.1197	-0.0091
677.3034	0.0094
677.487	0.0089
677.6706	-0.0124
677.8542	0.0043
678.0378	0.0228
678.2214	0.0024
678.405	0.0077
678.5885	-0.0109
678.772	-0.0117
678.9555	-0.0123
679.139	-0.003
679.3225	-0.0165
679.5059	0.0037
679.6894	-0.0118
679.8728	-0.0015
680.0562	0.002
680.2395	0.0107
680.4229	-0.0045
680.6062	0.0079
680.7896	0.01
680.9729	0.0111
681.1562	-0.0014
681.3394	0.006
681.5227	-0.0307
681.7059	-0.0247
681.8891	0.0049
682.0723	-0.0033
682.2555	0.0249
682.4387	0.0103
682.6218	-0.0198
682.805	0.0027
682.9881	0.0014
683.1712	0.0211
683.3542	-0.0058
683.5373	0.0118
683.7203	0.0021
683.9034	0.0033
684.0864	0.0066
684.2694	-0.004
684.4523	0.0032
684.6353	0.007
684.8182	0.0011
685.0011	-0.0048
685.184	0.0048
685.3669	-0.0048
685.5498	0.0078
685.7326	-0.0034
685.9154	0.0067
686.0982	0.0027
686.281	0.0029
686.4638	0.0087
686.6465	-0.0037
686.8293	-0.0035
687.012	-0.0036
687.1947	-0.004
687.3774	-0.0054
687.56	0.0174
687.7427	0.021
687.9253	0.0074
688.1079	-0.0078
688.2905	-0.0048
688.4731	0.0106
688.6556	0.0114
688.8382	0.0036
689.0207	-0.0128
689.2032	-0.0153
689.3857	-0.0088
689.5681	-0.014
689.7506	-0.0086
689.933	-0.0037
690.1154	-0.0144
690.2978	-0.0165
690.4802	-0.0049
690.6626	-0.0139
690.8449	-0.0029
691.0272	-0.0172
691.2095	-0.0039
691.3918	-0.0059
691.5741	-0.0116
691.7563	0.0248
691.9386	-0.0079
692.1208	-0.0053
692.303	-0.0043
692.4852	0.0022
692.6673	0.0037
692.8495	-0.0113
693.0316	-0.0139
693.2137	0.0333
693.3958	0.0052
693.5778	-0.0298
693.7599	-0.0194
693.9419	0.0185
694.1239	-0.0148
694.3059	0
694.4879	-0.0121
694.6699	0.0091
694.8518	-0.0033
695.0337	-0.0148
695.2157	-0.0227
695.3975	0.0065
695.5794	-0.0007
695.7613	0.0264
695.9431	-0.0158
696.1249	0.0037
696.3067	0
696.4885	-0.0049
696.6703	0.0027
696.852	0.0012
697.0337	-0.0042
697.2154	0.0172
697.3971	0.0083
697.5788	0.017
697.7605	-0.0045
697.9421	0.0068
698.1237	0.0244
698.3053	-0.0149
698.4869	0.0105
698.6685	0.0104
698.85	0.0038
699.0315	-0.0228
699.213	0.0019
699.3945	0.0174
699.576	-0.015
699.7575	-0.0255
699.9389	0.0036
700.1203	0.03
700.3017	-0.0025
700.4831	-0.0079
700.6645	0.0328
700.8458	0.0075
701.0271	0.0092
701.2084	-0.0059
701.3897	0.0097
701.571	-0.0015
701.7523	-0.0181
701.9335	0.0219
702.1147	0.0061
702.2959	0.019
702.4771	-0.0143
702.6583	-0.0042
702.8394	-0.0196
703.0205	-0.0172
703.2016	-0.0086
703.3827	0.0367
703.5638	-0.0144
703.7449	-0.0056
703.9259	-0.0106
704.1069	0.0343
704.2879	0.0383
704.4689	0.0071
704.6499	-0.0325
704.8308	0.002
705.0117	-0.0443
705.1927	0.0031
705.3735	-0.0024
705.5544	0.0024
705.7353	0.0293
705.9161	0.025
706.0969	-0.0123
706.2777	0.0016
706.4585	-0.0026
706.6393	-0.0095
706.82	-0.0156
707.0007	0.0013
707.1815	0.0206
707.3621	0.003
707.5428	0.0119
707.7235	0.0186
707.9041	-0.0138
708.0847	-0.007
708.2653	-0.0112
708.4459	0.0061
708.6265	-0.0128
708.807	0.0067
708.9875	0.0235
709.168	0.0171
709.3485	0.0108
709.529	0.0004
709.7095	0.0021
709.8899	0.0342
710.0703	0
710.2507	-0.012
710.4311	-0.0035
710.6115	0.0223
710.7918	0.0007
710.9721	-0.0021
711.1524	0.0023
711.3327	-0.0169
711.513	-0.0089
711.6932	-0.0107
711.8735	-0.0094
712.0537	-0.0168
712.2339	0.0114
712.4141	0.0291
712.5942	-0.0145
712.7744	0.0025
712.9545	0.001
713.1346	0.0085
713.3147	0.0212
713.4947	0.012
713.6748	0.0039
713.8548	0.0012
714.0348	0.0077
714.2148	-0.0136
714.3948	-0.0026
714.5748	-0.0082
714.7547	0.0057
714.9346	-0.002
715.1145	0.0017
715.2944	0.0036
715.4743	0.0045
715.6541	-0.0074
715.834	0.0134
716.0138	0.0273
716.1936	0.0056
716.3733	0.0145
716.5531	0.0186
716.7328	-0.0513
716.9126	-0.02
717.0923	0.0011
717.2719	0.0222
717.4516	-0.0264
717.6312	-0.015
717.8109	0.0019
717.9905	0.004
718.1701	-0.0071
718.3496	0.004
718.5292	0.004
718.7087	-0.0055
718.8882	0.0139
719.0677	-0.0225
719.2472	0.0288
719.4267	-0.0052
719.6061	-0.0251
719.7856	0.0149
719.965	0.0123
720.1443	-0.0016
720.3237	0.0016
720.5031	0.0208
720.6824	0.0023
720.8617	0.0057
721.041	0.0101
721.2203	0.0137
721.3995	-0.0035
721.5788	-0.0152
721.758	-0.0025
721.9372	-0.0073
722.1164	0.0128
722.2956	0.0224
722.4747	0.0255
722.6538	0.0188
722.8329	-0.0219
723.012	0.0121
723.1911	0.0323
723.3702	-0.0334
723.5492	-0.0161
723.7282	-0.0114
723.9072	-0.0421
724.0862	-0.0117
724.2652	-0.0013
724.4441	-0.0152
724.623	-0.0128
724.8019	0.0111
724.9808	0.008
725.1597	-0.0228
725.3385	0.0004
725.5174	0.0385
725.6962	0.0181
725.875	0
726.0538	-0.0025
726.2325	-0.0194
726.4112	0.0253
726.59	0.0012
726.7687	0
726.9474	-0.0249
727.126	-0.0197
727.3047	-0.0118
727.4833	0.0475
727.6619	0.0158
727.8405	0
728.0191	-0.018
728.1976	-0.0369
728.3762	-0.0233
728.5547	-0.0142
728.7332	0.0072
728.9116	-0.0385
729.0901	0.0085
729.2686	0.0034
729.447	-0.0042
729.6254	0.0067
729.8038	-0.0077
729.9821	0.008
730.1605	-0.0183
730.3388	-0.0238
730.5171	-0.0065
730.6954	0.0213
730.8737	0.0202
731.0519	0.0033
731.2302	0.0011
731.4084	-0.023
731.5866	-0.0113
731.7648	-0.0025
731.9429	0.0053
732.1211	-0.0108
732.2992	-0.0118
732.4773	-0.0137
732.6554	0.0201
732.8335	-0.0008
733.0115	-0.0072
733.1896	-0.0168
733.3676	0.0103
733.5456	0.0176
733.7235	0.0088
733.9015	-0.0199
734.0794	-0.0071
734.2574	0.008
734.4353	0.0005
734.6131	0.0045
734.791	0.0169
734.9689	0.002
735.1467	-0.014
735.3245	0.0096
735.5023	-0.0049
735.68	-0.0052
735.8578	-0.0083
736.0355	0.0119
736.2132	-0.0066
736.3909	0.0083
736.5686	0.0096
736.7463	-0.0056
736.9239	0.0141
737.1015	-0.0193
737.2791	0.0044
737.4567	-0.0041
737.6343	-0.0032
737.8118	0.0067
737.9894	0.0245
738.1669	0.0105
738.3444	-0.0046
738.5218	0.0056
738.6993	-0.0046
738.8767	-0.0036
739.0541	0.0171
739.2315	-0.0115
739.4089	-0.0192
739.5863	0.0068
739.7636	-0.0071
739.9409	0.0211
740.1182	0.0092
740.2955	-0.0335
740.4728	0.0171
740.65	0
740.8272	-0.0191
741.0044	-0.007
741.1816	0.0085
741.3588	-0.0045
741.5359	0.008
741.7131	0.0273
741.8902	0.0009
742.0673	0.0162
742.2444	-0.0056
742.4214	-0.0103
742.5985	0.0025
742.7755	-0.0117
742.9525	-0.0013
743.1295	-0.0059
743.3064	0.0212
743.4834	-0.012
743.6603	0.0247
743.8372	0.0044
744.0141	0.0206
744.191	-0.0163
744.3678	0.028
744.5446	0
744.7215	-0.0177
744.8982	0.0029
745.075	0.0034
745.2518	0.0117
745.4285	-0.0106
745.6052	0.0161
745.7819	0.0288
745.9586	0.0073
746.1353	-0.0134
746.3119	-0.0177
746.4885	0.0028
746.6651	-0.0297
746.8417	-0.045
747.0183	-0.0189
747.1948	-0.0133
747.3714	0.0038
747.5479	-0.0115
747.7244	-0.0564
747.9008	0.0471
748.0773	0.0253
748.2537	-0.0033
748.4301	-0.016
748.6065	-0.0609
748.7829	-0.0012
748.9593	-0.003
749.1356	-0.0077
749.3119	0.0165
749.4882	-0.0096
749.6645	0.0052
749.8408	-0.0108
750.017	-0.0041
750.1933	0.0385
750.3695	0.0217
750.5457	-0.0156
750.7218	0.0132
750.898	-0.0291
751.0741	0.0149
751.2502	0.0073
751.4263	-0.0013
751.6024	0.0195
751.7784	-0.0227
751.9545	-0.0139
752.1305	0.0126
752.3065	0.0314
752.4825	-0.0185
752.6584	-0.0176
752.8344	-0.0068
753.0103	-0.0169
753.1862	-0.0059
753.3621	0.0048
753.5379	-0.0137
753.7138	-0.0199
753.8896	0.0279
754.0654	0.0119
754.2412	0.0358
754.417	-0.0053
754.5927	-0.0272
754.7685	-0.0182
754.9442	0.0178
755.1199	0.0025
755.2956	0.0136
755.4712	-0.0143
755.6469	-0.0172
755.8225	0.0155
755.9981	0.0099
756.1736	0.0232
756.3492	0.0028
756.5248	-0.0012
756.7003	-0.002
756.8758	-0.0037
757.0513	-0.0031
757.2267	-0.0179
757.4022	-0.0107
757.5776	-0.019
757.753	-0.0158
757.9284	-0.0041
758.1038	-0.0133
758.2791	-0.0048
758.4545	-0.0184
758.6298	-0.0113
758.8051	0.0032
758.9803	-0.002
759.1556	-0.0052
759.3308	0.0018
759.506	0.0156
759.6812	-0.0057
759.8564	-0.0188
760.0316	0.0019
760.2067	-0.0208
760.3819	0.0064
760.557	-0.0104
760.732	0.0109
760.9071	0.0008
761.0821	0.0026
761.2572	0.0012
761.4322	-0.0216
761.6072	-0.021
761.7821	0.0272
761.9571	0.0049
762.132	-0.0078
762.3069	-0.0208
762.4818	-0.0184
762.6567	0.0066
762.8316	0.0099
763.0064	-0.0364
763.1812	-0.0215
763.356	-0.001
763.5308	-0.0177
763.7055	0.0006
763.8803	-0.008
764.055	-0.0105
764.2297	-0.0163
764.4044	0.0172
764.579	-0.0111
764.7537	-0.0036
764.9283	-0.0265
765.1029	-0.0031
765.2775	-0.0155
765.4521	-0.004
765.6266	-0.0351
765.8011	-0.0014
765.9756	0.0165
766.1501	0.0317
766.3246	-0.0266
766.4991	-0.0227
766.6735	-0.0021
766.8479	-0.0112
767.0223	0.0056
767.1967	-0.0054
767.371	0.0066
767.5454	0.0148
767.7197	0.0302
767.894	-0.0218
768.0683	0.011
768.2425	-0.0135
768.4168	0.018
768.591	-0.0291
768.7652	-0.0164
768.9394	-0.0012
769.1135	-0.0163
769.2877	0.0005
769.4618	-0.0143
769.6359	-0.0071
769.81	-0.0107
769.984	0.0326
770.1581	0.0213
770.3321	-0.0083
770.5061	-0.0077
770.6801	0.0143
770.8541	0.0231
771.028	-0.0217
771.202	-0.0347
771.3759	0.0142
771.5498	-0.0035
771.7236	0.0319
771.8975	-0.0186
772.0713	-0.0004
772.2451	0.008
772.4189	-0.0119
772.5927	-0.0241
772.7665	0.024
772.9402	0.0164
773.1139	0.016
773.2876	-0.0011
773.4613	-0.024
773.635	-0.014
773.8086	-0.0259
773.9822	0.0188
774.1558	-0.015
774.3294	-0.0218
774.503	0.0199
774.6765	0.0467
774.8501	0.0115
775.0236	0.0422
775.1971	0.0194
775.3705	-0.0227
775.544	-0.0096
775.7174	-0.0098
775.8908	0.0377
776.0642	0.0418
776.2376	-0.032
776.4109	0.0107
776.5843	-0.0115
776.7576	-0.0025
776.9309	0.0582
777.1041	-0.0318
777.2774	0.0043
777.4506	-0.0356
777.6238	-0.0207
777.797	-0.0089
777.9702	0.0332
778.1434	-0.0056
778.3165	-0.0012
778.4896	-0.0082
778.6627	0.038
778.8358	-0.0105
779.0089	0.018
779.1819	-0.0207
779.3549	0.0086
779.5279	-0.019
779.7009	-0.0014
779.8739	-0.007
780.0468	0.0085
780.2197	-0.0212
780.3926	-0.0123
780.5655	0.0025
780.7384	-0.0162
780.9112	0.0125
781.0841	-0.0226
781.2569	-0.0236
781.4297	0.0418
781.6024	-0.0058
781.7752	-0.0058
781.9479	-0.0212
782.1206	0.0103
782.2933	0.0018
782.466	0.0059
782.6386	0.0156
782.8113	-0.0089
782.9839	0.0188
783.1565	-0.0399
783.329	0.0389
783.5016	0.0049
783.6741	-0.0165
783.8466	-0.0636
784.0191	-0.0625
784.1916	0.0055
784.3641	-0.055
784.5365	-0.0007
784.7089	-0.0242
784.8813	0.0166
785.0537	0.003
785.2261	-0.0434
785.3984	-0.0043
785.5707	0.0404
785.743	-0.0298
785.9153	0.036
786.0876	-0.0602
786.2598	0.0103
786.432	-0.0203
786.6042	-0.0112
786.7764	-0.0496
786.9486	0.0178
787.1207	0.0729
787.2928	0.0032
787.4649	0.0013
787.637	-0.0107
787.8091	-0.0291
787.9811	-0.0097
788.1532	-0.011
788.3252	-0.0371
788.4972	-0.0075
788.6691	0.0149
788.8411	-0.0059
789.013	0.0223
789.1849	0.0137
789.3568	0.016
789.5287	-0.0096
789.7005	0.0059
789.8723	-0.038
790.0442	-0.0653
790.2159	0.0079
790.3877	0.0781
790.5595	0.0305
790.7312	0.013
790.9029	-0.0129
791.0746	0.0012
791.2463	-0.0428
791.4179	-0.0081
791.5896	-0.0731
791.7612	-0.0205
791.9328	-0.0697
792.1044	-0.0169
792.2759	0.0483
792.4474	-0.0251
792.619	0.0579
792.7905	-0.038
792.9619	0.0256
793.1334	-0.0153
793.3048	-0.0261
793.4762	-0.1018
793.6476	-0.006
793.819	0.0001
793.9904	0.0216
794.1617	-0.0423
794.333	-0.0354
794.5043	-0.0006
794.6756	0.0389
794.8469	-0.0037
795.0181	-0.0155
795.1893	-0.0302
795.3605	0.0042
795.5317	0.047
795.7029	0.038
795.874	0.001
796.0452	-0.0499
796.2163	0.0338
796.3873	0.0182
796.5584	0.0385
796.7294	-0.03
796.9005	-0.068
797.0715	-0.0071
797.2425	-0.0245
797.4134	0.0024
797.5844	0.0899
797.7553	0.0001
797.9262	0.009
798.0971	-0.0535
798.2679	-0.0047
798.4388	-0.0625
798.6096	0.0638
798.7804	0.0321
798.9512	0.0361
799.122	-0.0145
799.2927	-0.0925
799.4635	0.0634
799.6342	-0.0113
799.8049	0.0471
799.9755	-0.0219
800.1462	-0.0012
800.3168	-0.0173
800.4874	0.0322
800.658	0.0074
800.8286	0.023
800.9991	0.0181
801.1696	0.02
801.3402	-0.0469
801.5106	-0.058
801.6811	-0.0053
801.8516	-0.0344
802.022	-0.0257
802.1924	-0.0184
802.3628	-0.0249
802.5332	-0.0584
802.7035	-0.0286
802.8739	0.0631
803.0442	-0.0303
803.2145	0.0363
803.3847	0.0074
803.555	0.0045
803.7252	0.0457
803.8954	0.0437
804.0656	-0.0147
804.2358	-0.0248
804.4059	0.065
804.5761	0.0765
804.7462	-0.0305
804.9163	-0.0774
805.0864	0.0036
805.2564	-0.0387
805.4264	0.0394
805.5965	-0.0087
805.7665	-0.056
805.9364	-0.0033
806.1064	-0.0331
806.2763	0.0818
806.4462	-0.0096
806.6161	0.0256
806.786	-0.0059
806.9559	0.0144
807.1257	-0.0454
807.2955	0.0374
807.4653	-0.1051
807.6351	0.068
807.8048	-0.0542
807.9746	-0.0396
808.1443	0.0038
808.314	0.0083
808.4837	-0.0165
808.6533	0.0549
808.8229	-0.0523
808.9926	-0.0289
809.1622	-0.0499
809.3317	0.0089
809.5013	0.0958
809.6708	0.038
809.8403	0.0542
810.0098	0.0831
810.1793	0.0335
810.3488	0.0643
810.5182	0.0218
810.6876	0.0907
810.857	-0.11
811.0264	-0.0652
811.1958	0.0002
811.3651	-0.1108
811.5344	0.0675
811.7037	-0.0293
811.873	0.065
812.0422	-0.0091
812.2115	0.0816
812.3807	-0.0069
812.5499	0.097
812.7191	-0.1087
812.8882	0.0322
813.0574	-0.1869
813.2265	0.0275
813.3956	-0.0455
813.5646	0.0867
813.7337	-0.1144
813.9027	-0.0714
814.0718	-0.0402
814.2407	-0.1687
814.4097	0.0165
814.5787	0.0549
814.7476	-0.0353
814.9165	-0.0139
815.0854	0.0108
815.2543	-0.1015
815.4232	-0.0538
815.592	0.0324
815.7608	0.0114
815.9296	-0.0463
816.0984	-0.018
816.2671	-0.2248
816.4359	0.0081
816.6046	0.0531
816.7733	-0.0806
816.942	-0.0134
817.1106	-0.2278
817.2793	-0.0385
817.4479	-0.0674
817.6165	-0.0041
817.785	-0.0559
817.9536	0.0293
818.1221	0.084
818.2906	0.0595
818.4591	-0.0822
818.6276	-0.0191
818.7961	-0.011
818.9645	0.05
819.1329	0.0978
819.3013	-0.0603
819.4697	0.2972
819.638	-0.0044
819.8064	0.0488
819.9747	-0.1714
820.143	-0.0861
820.3113	0.0063
820.4795	0.0384
820.6477	-0.0244
820.816	0.0186
820.9842	0.013
821.1523	0.1095
821.3205	0.0303
821.4886	-0.0018
821.6567	-0.0399
821.8248	0.0089
821.9929	-0.0044
822.1609	0.138
822.329	0.1732
822.497	-0.1659
822.665	0.0764
822.833	-0.0542
823.0009	-0.071
823.1688	0.13
823.3367	-0.1242
823.5046	0.0402
823.6725	0.0848
823.8404	0.0728
824.0082	0.047
824.176	-0.0794
824.3438	-0.0189
824.5116	0.0841
824.6793	0.0737
824.847	0.0005
825.0147	0.1267
825.1824	0.0201
825.3501	0.1462
825.5177	0.0549
825.6854	-0.0226
825.853	-0.0782
826.0206	-0.0171
826.1881	0.1251
826.3557	0.1149
826.5232	0.163
826.6907	-0.0426
826.8582	0.0097
827.0257	-0.021
827.1931	0.1157
827.3605	-0.1086
827.528	-0.0216
827.6953	0.0459
827.8627	-0.0281
828.03	0.0478
828.1974	0.0392
828.3647	0.0991
828.532	0.0907
828.6992	0.0698
828.8665	-0.0517
829.0337	-0.069
829.2009	0.1462
829.3681	-0.026
829.5352	-0.0038
829.7024	-0.0752
829.8695	0.0004
830.0366	0.0948
830.2037	0.1101
830.3707	0.0848
830.5378	0.1212
830.7048	-0.3092
830.8718	-0.1272
831.0388	-0.0119
831.2057	-0.2772
831.3727	0.1836
831.5396	-0.2607
831.7065	0.0795
831.8734	-0.6407
832.0402	0.184
832.2071	0.2521
832.3739	0.3252
832.5407	-0
832.7075	0.1505
832.8742	-0.0631
833.041	-0.1554
833.2077	-0.0271
833.3744	-0.0293
833.541	0.0653
833.7077	-0.0397
833.8743	-0.0304
834.0409	-0.0801
834.2075	-0.1062
834.3741	0.121
834.5407	-0.1746
834.7072	0.1945
834.8737	0.0082
835.0402	-0.6941
835.2067	0.0822
835.3731	-0.0202
835.5395	0.0365
835.706	0.155
835.8723	0.1251
836.0387	-0.2829
836.2051	0.1942
836.3714	0.2081
836.5377	-0.2635
836.704	0.0805
836.8703	-0.0948
837.0365	0.2919
837.2027	-0.0213
837.3689	0.3151
837.5351	0.3276
837.7013	0.3064
837.8674	-0.8056
838.0335	-0.0803
838.1997	-0.0278
838.3657	0.0658
838.5318	-0.3182
838.6978	0.6646
838.8639	1.0595
839.0299	0.2245
839.1958	0.3006
839.3618	0.6445
839.5277	-0.272
839.6937	-0.2865
839.8596	0.0006
840.0254	0.425
840.1913	0.3929
840.3571	-0.292
840.523	-0
840.6888	-0.0728
840.8545	0.3902
841.0203	-0.0563
841.186	0.063
841.3517	0.4418
841.5174	0.0938
841.6831	0.1041
841.8488	0.6403
842.0144	0.039
842.18	-0.0729
842.3456	0.6948
842.5112	-0.297
842.6767	-0.0692
842.8422	0.8254
843.0077	-0.0419
843.1732	-0.0932
843.3387	0.1022
843.5042	-0.1005
843.6696	-0.4549
843.835	-0.109
844.0004	0.1925
844.1657	-0.1577
844.3311	-0.2165
844.4964	-0.0978
844.6617	-0
844.827	0.3003
844.9923	-0.0521
845.1575	-0
845.3227	0.6316
845.4879	0.2548
845.6531	-0.2097
845.8183	0.1724
845.9834	0.1264
846.1485	-0.4846
846.3136	0.2486
846.4787	-0
846.6438	0.3439
846.8088	-1.1378
846.9738	-0
847.1388	0.0476
847.3038	-0.2148
847.4687	-0
847.6337	0.0214
847.7986	0.4547
847.9635	-0.3488
848.1284	-0.2644
848.2932	1.3353
848.458	-0.107
848.6228	0.1692
848.7876	0.0771
848.9524	-0.3274
849.1172	0.0012
849.2819	-0
849.4466	-0.4607
849.6113	-0
849.7759	1.1449
849.9406	-0.0115
850.1052	-0.7361
850.2698	0.8751
850.4344	0.0009
850.599	0.3234
850.7635	-0.1511
850.928	0.5278
851.0925	0.0656
851.257	0.16
851.4215	-0
851.5859	0.0531
851.7503	-0.1663
851.9147	-0
852.0791	-0.6228
852.2434	0.2711
852.4078	-0
852.5721	0.0637
852.7364	0.4822
852.9007	-0.3591
853.0649	0.4753
853.2291	0.5322
853.3934	-0
853.5575	-0.1445
853.7217	-0.5108
853.8859	-0
854.05	-1.2934
854.2141	-0
854.3782	-0
854.5423	-0.2893
854.7063	1.0637
854.8703	0.5785
855.0343	0.0592
855.1983	-0.1746
855.3623	0.8791
855.5262	-0.9803
855.6901	0.3648
855.854	-0.0098
856.0179	-0
856.1818	-0.3428
856.3456	-0.1165
856.5094	-0
856.6732	0.1471
856.837	0.289
857.0008	-0.0412
857.1645	-0
857.3282	0.1096
857.4919	0.0361
857.6556	0.1724
857.8192	-0.4521
857.9828	-0.4926
858.1465	-0
858.31	-0
858.4736	0.1626
858.6372	-0
858.8007	-1.3568
858.9642	0.547
859.1277	-0.6999
859.2911	0.5614
859.4546	-0
859.618	-0.0564
859.7814	-0
859.9448	-0.2262
860.1081	-0.715
860.2715	-0.2081
860.4348	0.0676
860.5981	-0.3882
860.7614	0.1242
860.9246	0.017
861.0879	0.1059
861.2511	-0
861.4143	-0
861.5774	0.8049
861.7406	-0.4563
861.9037	0.1416
862.0668	-0.7085
862.2299	-2.0198
862.393	-0
862.556	-0.0683
862.7191	-0.0332
862.8821	-0.3791
863.0451	0.7506
863.208	-0.5636
863.371	-0.0796
863.5339	-0.0173
863.6968	0.2328
863.8597	-0
864.0225	-0.4328
864.1854	0.513
864.3482	0.0014
864.511	0.2172
864.6737	-0
864.8365	0.0141
864.9992	-0.3808
865.1619	-0.061
865.3246	0.3494
865.4873	-0
865.65	-0.9379
865.8126	-0
865.9752	-0.0914
866.1378	-0.9732
866.3004	-0.0346
866.4629	-0.047
866.6254	-0.9565
866.7879	-0.1997
866.9504	-0
867.1129	0.2136
867.2753	-0.2054
867.4377	0.1962
867.6001	-0
867.7625	0.0619
867.9249	0.2879
868.0872	0.094
868.2495	-0.297
868.4118	-0
868.5741	-0
868.7363	0.0122
868.8986	-0
869.0608	0.1994
869.223	-0.0572
869.3851	-0
869.5473	-1.4343
869.7094	-0
869.8715	-0
870.0336	-0.1162
870.1957	-0.8794
870.3577	0.4225
870.5197	-0.0751
870.6817	-0
870.8437	0.8511
871.0057	-0
871.1676	0.1269
871.3295	-0
871.4914	0.0497
871.6533	-0.2365
871.8151	-0.3725
871.977	0.6875
872.1388	-0.2013
872.3006	0.6784
872.4623	-0.669
872.6241	-2.227
872.7858	0.3185
872.9475	-0.0848
873.1092	0.0649
873.2709	-0.0782
873.4325	-0
873.5941	-0.4002
873.7557	-0
873.9173	-0
874.0789	0.5026
874.2404	-0.3974
874.4019	-0.1175
874.5634	0.1551
874.7249	0.5506
874.8863	-0
875.0478	0.2496
875.2092	0.0484
875.3706	-0.459
875.5319	0.4435
875.6933	-0
875.8546	-0
876.0159	0.1416
876.1772	-0.1442
876.3385	-0.2819
876.4997	-0.5129
876.6609	-0
876.8221	0.5134
876.9833	-0.2123
877.1445	0.2266
877.3056	0.1936
877.4667	-0
877.6278	-0
877.7889	-0
877.9499	-0
878.111	0.187
878.272	0.0827
878.433	-0.4045
878.5939	0.0011
878.7549	-0
878.9158	-0.0646
879.0767	-0
879.2376	-0.5343
879.3984	-0
879.5593	0.8058
879.7201	-0.4124
879.8809	-0.3449
880.0417	0.1867
880.2024	0.3314
880.3632	-0.1794
880.5239	-0.2796
880.6846	0.1108
880.8452	0.3959
881.0059	-0.2622
881.1665	0.1414
881.3271	-0.09
881.4877	0.2369
881.6483	-0
881.8088	-0
881.9693	-0
882.1298	-0
882.2903	-0
