Data from D4ACN5uM480nmA_Absorbance_12-08-01-436.txt Node
Date: Fri Feb 21 12:08:01 GMT 2025
User: LASERRRRR
Spectrometer: FLMT03099
Trigger mode: 0
Integration Time (sec): 1.500000E-2
Scans to average: 1
Electric dark correction enabled: true
Nonlinearity correction enabled: false
Boxcar width: 0
XAxis mode: Wavelengths
Number of Pixels in Spectrum: 3648
>>>>>Begin Spectral Data<<<<<
179.3399	-0
179.5586	-0
179.7771	-0
179.9957	0.2659
180.2143	0.1683
180.4329	-0
180.6514	-0
180.8699	-0
181.0885	-0.1603
181.307	0.2081
181.5255	-0.1
181.744	-0
181.9625	-0
182.181	-0
182.3994	-0
182.6179	-0
182.8363	-0.1688
183.0547	-0
183.2732	0.2302
183.4916	0.369
183.71	0.2061
183.9284	0.137
184.1467	-0.1036
184.3651	0.282
184.5835	0.0322
184.8018	0.2913
185.0201	0.3109
185.2385	0.0107
185.4568	0.1446
185.6751	0.1539
185.8934	0.4399
186.1117	0.0966
186.3299	0.2091
186.5482	0.139
186.7664	0.2638
186.9847	0.2204
187.2029	0.3341
187.4211	0.2744
187.6393	0.0782
187.8575	-0.1061
188.0757	0.2798
188.2939	0.0582
188.512	0.4506
188.7302	-0.0102
188.9483	0.2816
189.1665	0.7538
189.3846	0.205
189.6027	-0.0583
189.8208	0.4505
190.0389	0.1475
190.257	0.1871
190.475	0.2909
190.6931	0.3326
190.9111	0.2447
191.1292	0.3306
191.3472	0.3934
191.5652	0.2026
191.7832	0.3825
192.0012	0.2244
192.2192	0.3502
192.4371	0.3512
192.6551	0.3139
192.873	0.2806
193.091	0.3009
193.3089	0.2035
193.5268	0.7152
193.7447	0.4152
193.9626	0.378
194.1805	0.499
194.3984	0.3772
194.6162	0.3924
194.8341	0.7665
195.0519	0.3996
195.2697	0.4154
195.4875	0.5832
195.7054	0.5421
195.9231	0.4854
196.1409	0.5307
196.3587	0.5999
196.5765	0.5136
196.7942	0.6674
197.012	0.6111
197.2297	0.5169
197.4474	0.5916
197.6651	0.6327
197.8828	0.6398
198.1005	0.7334
198.3182	0.6534
198.5358	0.4888
198.7535	0.6573
198.9711	0.533
199.1888	0.6398
199.4064	0.64
199.624	0.5904
199.8416	0.5365
200.0592	0.551
200.2767	0.5637
200.4943	0.6365
200.7119	0.5068
200.9294	0.6338
201.1469	0.5953
201.3645	0.5332
201.582	0.5291
201.7995	0.5797
202.017	0.5269
202.2344	0.5542
202.4519	0.5513
202.6694	0.5319
202.8868	0.568
203.1042	0.5631
203.3217	0.5271
203.5391	0.5719
203.7565	0.519
203.9739	0.5071
204.1913	0.5155
204.4086	0.5119
204.626	0.4944
204.8433	0.5015
205.0607	0.5158
205.278	0.548
205.4953	0.4575
205.7126	0.4877
205.9299	0.4691
206.1472	0.4325
206.3644	0.4632
206.5817	0.4708
206.7989	0.4475
207.0162	0.4266
207.2334	0.4527
207.4506	0.444
207.6678	0.4298
207.885	0.4374
208.1022	0.4535
208.3194	0.4166
208.5365	0.4446
208.7537	0.4658
208.9708	0.4763
209.1879	0.394
209.405	0.423
209.6222	0.4096
209.8392	0.4072
210.0563	0.4031
210.2734	0.4061
210.4905	0.3991
210.7075	0.449
210.9245	0.418
211.1416	0.3946
211.3586	0.4041
211.5756	0.4084
211.7926	0.4418
212.0096	0.4043
212.2265	0.4017
212.4435	0.4159
212.6604	0.3974
212.8774	0.3922
213.0943	0.4181
213.3112	0.3999
213.5281	0.4031
213.745	0.4018
213.9619	0.3803
214.1788	0.3892
214.3956	0.4229
214.6125	0.4104
214.8293	0.398
215.0461	0.3866
215.2629	0.4001
215.4798	0.4001
215.6965	0.3975
215.9133	0.3978
216.1301	0.3969
216.3469	0.402
216.5636	0.3825
216.7803	0.4286
216.9971	0.4145
217.2138	0.403
217.4305	0.434
217.6472	0.4335
217.8639	0.405
218.0805	0.415
218.2972	0.41
218.5138	0.4316
218.7305	0.4127
218.9471	0.3982
219.1637	0.4254
219.3803	0.4292
219.5969	0.4167
219.8135	0.4182
220.0301	0.4102
220.2466	0.436
220.4632	0.4441
220.6797	0.4286
220.8962	0.4337
221.1127	0.4227
221.3292	0.4243
221.5457	0.4384
221.7622	0.452
221.9787	0.4465
222.1951	0.4438
222.4116	0.446
222.628	0.4731
222.8444	0.4664
223.0608	0.4347
223.2772	0.4364
223.4936	0.4417
223.71	0.4499
223.9264	0.4327
224.1427	0.4714
224.3591	0.4566
224.5754	0.4768
224.7917	0.4589
225.008	0.4715
225.2243	0.4516
225.4406	0.4782
225.6569	0.4456
225.8732	0.4605
226.0894	0.47
226.3057	0.4485
226.5219	0.4588
226.7381	0.478
226.9543	0.4756
227.1705	0.4713
227.3867	0.4921
227.6029	0.4811
227.8191	0.4852
228.0352	0.4995
228.2513	0.51
228.4675	0.4964
228.6836	0.4964
228.8997	0.5097
229.1158	0.4879
229.3319	0.5005
229.548	0.4951
229.764	0.4934
229.9801	0.5213
230.1961	0.4983
230.4121	0.5317
230.6282	0.5029
230.8442	0.511
231.0602	0.524
231.2761	0.5124
231.4921	0.5084
231.7081	0.5176
231.924	0.523
232.14	0.5169
232.3559	0.5346
232.5718	0.5216
232.7877	0.5233
233.0036	0.5161
233.2195	0.5328
233.4353	0.5351
233.6512	0.5339
233.867	0.5308
234.0829	0.5301
234.2987	0.5263
234.5145	0.5359
234.7303	0.5307
234.9461	0.5163
235.1619	0.5289
235.3776	0.5291
235.5934	0.5307
235.8091	0.5294
236.0249	0.5339
236.2406	0.5428
236.4563	0.5441
236.672	0.528
236.8877	0.5355
237.1034	0.54
237.319	0.5484
237.5347	0.5362
237.7503	0.5311
237.966	0.5434
238.1816	0.5367
238.3972	0.5404
238.6128	0.5438
238.8284	0.536
239.0439	0.5408
239.2595	0.5285
239.475	0.5242
239.6906	0.5255
239.9061	0.5329
240.1216	0.5323
240.3371	0.5175
240.5526	0.504
240.7681	0.5238
240.9836	0.5192
241.199	0.5191
241.4145	0.5078
241.6299	0.4916
241.8453	0.4942
242.0607	0.4865
242.2761	0.4704
242.4915	0.4624
242.7069	0.4667
242.9223	0.4584
243.1376	0.4487
243.353	0.4475
243.5683	0.4418
243.7836	0.4272
243.9989	0.4162
244.2142	0.416
244.4295	0.401
244.6448	0.3928
244.86	0.393
245.0753	0.3811
245.2905	0.3752
245.5057	0.3714
245.721	0.3581
245.9362	0.3491
246.1514	0.3394
246.3665	0.3488
246.5817	0.335
246.7969	0.3262
247.012	0.336
247.2271	0.3032
247.4423	0.3045
247.6574	0.3058
247.8725	0.304
248.0876	0.2949
248.3026	0.2851
248.5177	0.2815
248.7328	0.2795
248.9478	0.277
249.1628	0.2713
249.3779	0.2673
249.5929	0.2595
249.8079	0.2626
250.0228	0.257
250.2378	0.247
250.4528	0.2494
250.6677	0.2436
250.8827	0.234
251.0976	0.2436
251.3125	0.2362
251.5274	0.2317
251.7423	0.2294
251.9572	0.2203
252.172	0.2218
252.3869	0.2201
252.6017	0.223
252.8166	0.2187
253.0314	0.2239
253.2462	0.2144
253.461	0.216
253.6758	0.2107
253.8906	0.2075
254.1053	0.2022
254.3201	0.2011
254.5348	0.2055
254.7496	0.2076
254.9643	0.2047
255.179	0.1995
255.3937	0.2031
255.6083	0.202
255.823	0.1976
256.0377	0.1993
256.2523	0.1972
256.467	0.2025
256.6816	0.1976
256.8962	0.1927
257.1108	0.1968
257.3254	0.1936
257.54	0.1961
257.7545	0.19
257.9691	0.1925
258.1836	0.1911
258.3981	0.1841
258.6127	0.1857
258.8272	0.1856
259.0417	0.1804
259.2561	0.1865
259.4706	0.1863
259.6851	0.1863
259.8995	0.1827
260.114	0.1851
260.3284	0.1895
260.5428	0.1833
260.7572	0.1831
260.9716	0.1852
261.186	0.1801
261.4003	0.186
261.6147	0.1814
261.829	0.1805
262.0433	0.1838
262.2577	0.1833
262.472	0.1896
262.6863	0.1913
262.9005	0.1876
263.1148	0.1873
263.3291	0.1834
263.5433	0.1836
263.7576	0.1853
263.9718	0.1877
264.186	0.1876
264.4002	0.1802
264.6144	0.194
264.8286	0.1892
265.0427	0.187
265.2569	0.1833
265.471	0.1864
265.6851	0.1835
265.8993	0.1852
266.1134	0.1874
266.3275	0.1904
266.5415	0.1843
266.7556	0.1832
266.9697	0.1838
267.1837	0.1824
267.3978	0.1931
267.6118	0.1791
267.8258	0.1839
268.0398	0.1868
268.2538	0.1846
268.4677	0.1777
268.6817	0.1766
268.8957	0.1813
269.1096	0.1779
269.3235	0.1884
269.5374	0.1813
269.7514	0.1842
269.9652	0.1799
270.1791	0.1766
270.393	0.1833
270.6068	0.1799
270.8207	0.1711
271.0345	0.1757
271.2483	0.1764
271.4622	0.1773
271.676	0.1788
271.8897	0.1758
272.1035	0.1727
272.3173	0.173
272.531	0.1788
272.7448	0.1693
272.9585	0.1701
273.1722	0.1738
273.3859	0.1693
273.5996	0.1731
273.8133	0.1756
274.0269	0.1797
274.2406	0.1721
274.4542	0.1719
274.6679	0.1717
274.8815	0.173
275.0951	0.1806
275.3087	0.1833
275.5223	0.1732
275.7358	0.1811
275.9494	0.1723
276.1629	0.1817
276.3765	0.1688
276.59	0.1807
276.8035	0.1757
277.017	0.1755
277.2305	0.1741
277.444	0.1777
277.6574	0.1746
277.8709	0.1756
278.0843	0.1785
278.2978	0.1815
278.5112	0.1843
278.7246	0.1785
278.938	0.1784
279.1513	0.1806
279.3647	0.1788
279.5781	0.1789
279.7914	0.1849
280.0047	0.1806
280.2181	0.1866
280.4314	0.1807
280.6447	0.1884
280.8579	0.1784
281.0712	0.1803
281.2845	0.1807
281.4977	0.1898
281.711	0.1775
281.9242	0.1899
282.1374	0.1849
282.3506	0.1875
282.5638	0.1943
282.7769	0.1851
282.9901	0.1825
283.2033	0.1849
283.4164	0.1853
283.6295	0.1839
283.8426	0.1811
284.0557	0.1832
284.2688	0.1885
284.4819	0.1924
284.695	0.1899
284.908	0.1896
285.1211	0.1939
285.3341	0.1967
285.5471	0.1949
285.7601	0.1978
285.9731	0.1962
286.1861	0.192
286.3991	0.1917
286.612	0.1919
286.825	0.1882
287.0379	0.1992
287.2508	0.1925
287.4637	0.1924
287.6766	0.1971
287.8895	0.1902
288.1024	0.1961
288.3152	0.1896
288.5281	0.1957
288.7409	0.1948
288.9538	0.1938
289.1666	0.202
289.3794	0.199
289.5922	0.199
289.8049	0.2008
290.0177	0.2
290.2304	0.1971
290.4432	0.2066
290.6559	0.1936
290.8686	0.2047
291.0813	0.2034
291.294	0.2045
291.5067	0.208
291.7194	0.197
291.932	0.2077
292.1447	0.2022
292.3573	0.1971
292.5699	0.2008
292.7825	0.2
292.9951	0.199
293.2077	0.1989
293.4203	0.2014
293.6328	0.1985
293.8454	0.2027
294.0579	0.2
294.2704	0.1961
294.4829	0.1959
294.6954	0.2005
294.9079	0.2023
295.1204	0.2
295.3328	0.1999
295.5453	0.2014
295.7577	0.1987
295.9701	0.199
296.1825	0.1951
296.3949	0.2089
296.6073	0.195
296.8197	0.2001
297.0321	0.1946
297.2444	0.1967
297.4567	0.2004
297.6691	0.2022
297.8814	0.199
298.0937	0.2005
298.306	0.1972
298.5182	0.2026
298.7305	0.1987
298.9428	0.1982
299.155	0.1962
299.3672	0.2022
299.5794	0.1988
299.7916	0.1988
300.0038	0.1968
300.216	0.1989
300.4282	0.1949
300.6403	0.1943
300.8525	0.2014
301.0646	0.1972
301.2767	0.1961
301.4888	0.1934
301.7009	0.198
301.913	0.2046
302.125	0.197
302.3371	0.1988
302.5491	0.2002
302.7612	0.1966
302.9732	0.1909
303.1852	0.1932
303.3972	0.1932
303.6092	0.198
303.8211	0.195
304.0331	0.1951
304.245	0.1979
304.457	0.1948
304.6689	0.1948
304.8808	0.1876
305.0927	0.1958
305.3046	0.1854
305.5164	0.1874
305.7283	0.1859
305.9401	0.1803
306.152	0.1804
306.3638	0.1796
306.5756	0.1846
306.7874	0.1771
306.9992	0.1832
307.2109	0.1779
307.4227	0.173
307.6344	0.172
307.8462	0.1697
308.0579	0.1688
308.2696	0.1637
308.4813	0.1611
308.693	0.1617
308.9046	0.161
309.1163	0.1637
309.328	0.1539
309.5396	0.1572
309.7512	0.1556
309.9628	0.1514
310.1744	0.1574
310.386	0.1504
310.5976	0.1426
310.8091	0.152
311.0207	0.1497
311.2322	0.1467
311.4437	0.1436
311.6552	0.1444
311.8667	0.1388
312.0782	0.1452
312.2897	0.1384
312.5012	0.1424
312.7126	0.1323
312.924	0.1332
313.1355	0.1327
313.3469	0.1314
313.5583	0.1268
313.7696	0.1269
313.981	0.1306
314.1924	0.1243
314.4037	0.1262
314.6151	0.1243
314.8264	0.1258
315.0377	0.1303
315.249	0.1159
315.4603	0.1207
315.6716	0.1249
315.8828	0.1218
316.0941	0.1221
316.3053	0.121
316.5165	0.1159
316.7277	0.122
316.9389	0.1271
317.1501	0.1186
317.3613	0.1126
317.5724	0.1212
317.7836	0.1201
317.9947	0.1112
318.2058	0.1166
318.417	0.1138
318.6281	0.1166
318.8391	0.1158
319.0502	0.1191
319.2613	0.1115
319.4723	0.1135
319.6834	0.1193
319.8944	0.1224
320.1054	0.114
320.3164	0.1226
320.5274	0.1113
320.7383	0.1115
320.9493	0.1097
321.1602	0.1147
321.3712	0.1198
321.5821	0.1203
321.793	0.1166
322.0039	0.1231
322.2148	0.1145
322.4257	0.113
322.6365	0.1127
322.8474	0.12
323.0582	0.1238
323.269	0.1083
323.4798	0.1221
323.6906	0.123
323.9014	0.1174
324.1122	0.121
324.3229	0.1192
324.5337	0.1225
324.7444	0.1156
324.9551	0.1156
325.1658	0.1228
325.3765	0.1237
325.5872	0.1152
325.7979	0.1189
326.0085	0.1184
326.2192	0.1147
326.4298	0.1227
326.6404	0.1244
326.851	0.1205
327.0616	0.1208
327.2722	0.1248
327.4828	0.1184
327.6933	0.1237
327.9039	0.121
328.1144	0.1238
328.3249	0.1222
328.5354	0.1154
328.7459	0.1161
328.9564	0.1281
329.1669	0.1248
329.3773	0.1203
329.5878	0.1258
329.7982	0.1244
330.0086	0.1258
330.219	0.1242
330.4294	0.1266
330.6398	0.1221
330.8502	0.1267
331.0605	0.122
331.2708	0.1264
331.4812	0.1159
331.6915	0.1228
331.9018	0.1186
332.1121	0.1309
332.3224	0.1247
332.5326	0.125
332.7429	0.1196
332.9531	0.126
333.1633	0.1226
333.3735	0.1206
333.5837	0.1278
333.7939	0.1261
334.0041	0.1258
334.2143	0.1293
334.4244	0.1212
334.6346	0.1255
334.8447	0.1331
335.0548	0.1276
335.2649	0.1287
335.475	0.125
335.685	0.1314
335.8951	0.1305
336.1051	0.1222
336.3152	0.1276
336.5252	0.127
336.7352	0.1221
336.9452	0.1292
337.1552	0.1337
337.3652	0.1292
337.5751	0.1264
337.7851	0.1301
337.995	0.1317
338.2049	0.1384
338.4148	0.1281
338.6247	0.1333
338.8346	0.129
339.0445	0.135
339.2543	0.1356
339.4642	0.1345
339.674	0.1406
339.8838	0.1346
340.0936	0.1355
340.3034	0.1355
340.5132	0.133
340.7229	0.1334
340.9327	0.1366
341.1424	0.1337
341.3522	0.1354
341.5619	0.1405
341.7716	0.1389
341.9813	0.1397
342.1909	0.1354
342.4006	0.1428
342.6102	0.1447
342.8199	0.1382
343.0295	0.1411
343.2391	0.1425
343.4487	0.1433
343.6583	0.1462
343.8679	0.1441
344.0774	0.1392
344.287	0.1386
344.4965	0.1476
344.706	0.1507
344.9155	0.1486
345.125	0.1465
345.3345	0.1489
345.544	0.1495
345.7534	0.1497
345.9629	0.1531
346.1723	0.1461
346.3817	0.1553
346.5911	0.1477
346.8005	0.1511
347.0099	0.1574
347.2193	0.1547
347.4286	0.153
347.638	0.149
347.8473	0.1599
348.0566	0.1584
348.2659	0.1566
348.4752	0.1551
348.6845	0.1583
348.8937	0.1633
349.103	0.1506
349.3122	0.1583
349.5214	0.1573
349.7306	0.1584
349.9398	0.16
350.149	0.169
350.3582	0.1581
350.5674	0.169
350.7765	0.1633
350.9856	0.157
351.1948	0.1593
351.4039	0.1714
351.613	0.174
351.822	0.1697
352.0311	0.1665
352.2402	0.1656
352.4492	0.1713
352.6582	0.1696
352.8672	0.1618
353.0762	0.1695
353.2852	0.1703
353.4942	0.1764
353.7032	0.1691
353.9121	0.1702
354.1211	0.1685
354.33	0.1769
354.5389	0.1825
354.7478	0.1804
354.9567	0.1784
355.1655	0.1731
355.3744	0.1755
355.5833	0.1847
355.7921	0.1766
356.0009	0.1791
356.2097	0.1845
356.4185	0.1916
356.6273	0.1776
356.8361	0.1914
357.0448	0.1844
357.2536	0.1859
357.4623	0.1867
357.671	0.1949
357.8797	0.1942
358.0884	0.1909
358.2971	0.1947
358.5057	0.1905
358.7144	0.1994
358.923	0.1884
359.1316	0.1903
359.3402	0.1965
359.5488	0.1997
359.7574	0.2011
359.966	0.203
360.1746	0.2004
360.3831	0.2037
360.5916	0.2067
360.8002	0.2119
361.0087	0.2115
361.2172	0.208
361.4256	0.2007
361.6341	0.2151
361.8426	0.219
362.051	0.2157
362.2594	0.2091
362.4678	0.2104
362.6762	0.217
362.8846	0.2194
363.093	0.2145
363.3014	0.2188
363.5097	0.212
363.718	0.2282
363.9264	0.2213
364.1347	0.2269
364.343	0.2302
364.5513	0.2287
364.7595	0.2296
364.9678	0.229
365.176	0.2271
365.3842	0.2357
365.5925	0.225
365.8007	0.2351
366.0089	0.2351
366.217	0.2385
366.4252	0.2406
366.6333	0.2339
366.8415	0.2405
367.0496	0.2345
367.2577	0.2464
367.4658	0.2414
367.6739	0.2393
367.882	0.2398
368.09	0.2463
368.2981	0.2406
368.5061	0.2479
368.7141	0.2462
368.9221	0.2526
369.1301	0.2468
369.3381	0.2571
369.5461	0.2498
369.754	0.2414
369.962	0.2567
370.1699	0.2614
370.3778	0.2583
370.5857	0.2667
370.7936	0.2509
371.0015	0.2554
371.2093	0.266
371.4172	0.26
371.625	0.2692
371.8328	0.2797
372.0406	0.2603
372.2484	0.2578
372.4562	0.2614
372.664	0.2703
372.8717	0.267
373.0795	0.2715
373.2872	0.2746
373.4949	0.2776
373.7026	0.2752
373.9103	0.271
374.118	0.2657
374.3256	0.2761
374.5333	0.2743
374.7409	0.2661
374.9485	0.271
375.1561	0.2818
375.3637	0.2698
375.5713	0.2699
375.7789	0.2797
375.9864	0.2845
376.194	0.2816
376.4015	0.2849
376.609	0.2878
376.8165	0.2866
377.024	0.2816
377.2315	0.292
377.4389	0.2817
377.6464	0.2866
377.8538	0.2918
378.0612	0.2844
378.2686	0.2862
378.476	0.2893
378.6834	0.2867
378.8908	0.2895
379.0981	0.3013
379.3055	0.307
379.5128	0.2994
379.7201	0.2876
379.9274	0.2889
380.1347	0.3083
380.342	0.3035
380.5492	0.2864
380.7565	0.2944
380.9637	0.296
381.1709	0.3014
381.3781	0.3079
381.5853	0.3
381.7925	0.3058
381.9997	0.3059
382.2068	0.3051
382.4139	0.3037
382.6211	0.3128
382.8282	0.3012
383.0353	0.3105
383.2424	0.3088
383.4494	0.3119
383.6565	0.3096
383.8635	0.3215
384.0706	0.319
384.2776	0.3231
384.4846	0.316
384.6916	0.3098
384.8986	0.3097
385.1055	0.316
385.3125	0.3156
385.5194	0.3059
385.7263	0.3078
385.9333	0.3159
386.1402	0.3219
386.347	0.3154
386.5539	0.309
386.7608	0.3102
386.9676	0.3173
387.1744	0.3163
387.3813	0.3094
387.5881	0.3097
387.7948	0.3101
388.0016	0.3141
388.2084	0.3117
388.4151	0.3036
388.6219	0.3127
388.8286	0.3109
389.0353	0.3001
389.242	0.2977
389.4487	0.3149
389.6553	0.307
389.862	0.3097
390.0686	0.3114
390.2753	0.307
390.4819	0.2947
390.6885	0.3017
390.8951	0.3076
391.1016	0.3156
391.3082	0.2955
391.5147	0.3047
391.7213	0.3045
391.9278	0.2917
392.1343	0.2989
392.3408	0.2898
392.5473	0.287
392.7537	0.2934
392.9602	0.2834
393.1666	0.2865
393.373	0.2883
393.5794	0.288
393.7858	0.2814
393.9922	0.2998
394.1986	0.2856
394.4049	0.2753
394.6113	0.2844
394.8176	0.2738
395.0239	0.2767
395.2302	0.28
395.4365	0.2743
395.6428	0.2786
395.8491	0.2716
396.0553	0.2747
396.2615	0.2709
396.4678	0.2709
396.674	0.2644
396.8802	0.2626
397.0863	0.2751
397.2925	0.2654
397.4987	0.2668
397.7048	0.2656
397.9109	0.2808
398.117	0.2643
398.3231	0.2815
398.5292	0.2774
398.7353	0.2645
398.9413	0.2673
399.1474	0.2747
399.3534	0.2665
399.5594	0.2743
399.7654	0.269
399.9714	0.2629
400.1774	0.2683
400.3833	0.2672
400.5893	0.2703
400.7952	0.2686
401.0011	0.254
401.207	0.2749
401.4129	0.2642
401.6188	0.2629
401.8247	0.2692
402.0305	0.2739
402.2364	0.2685
402.4422	0.2741
402.648	0.2741
402.8538	0.2643
403.0596	0.264
403.2654	0.2624
403.4711	0.2675
403.6768	0.2676
403.8826	0.2632
404.0883	0.2629
404.294	0.2661
404.4997	0.2765
404.7054	0.2589
404.911	0.2677
405.1167	0.2734
405.3223	0.2717
405.5279	0.272
405.7335	0.2601
405.9391	0.2719
406.1447	0.2801
406.3502	0.2772
406.5558	0.2697
406.7613	0.2784
406.9668	0.2627
407.1724	0.2751
407.3778	0.2732
407.5833	0.2649
407.7888	0.2739
407.9942	0.2687
408.1997	0.259
408.4051	0.268
408.6105	0.2649
408.8159	0.2693
409.0213	0.2701
409.2267	0.2652
409.432	0.2745
409.6374	0.2628
409.8427	0.2808
410.048	0.2655
410.2533	0.2714
410.4586	0.2677
410.6639	0.2652
410.8691	0.2759
411.0744	0.2598
411.2796	0.2716
411.4848	0.2696
411.69	0.2646
411.8952	0.2691
412.1004	0.2603
412.3056	0.2688
412.5107	0.2629
412.7158	0.2639
412.921	0.2683
413.1261	0.2617
413.3312	0.2529
413.5362	0.2734
413.7413	0.2585
413.9464	0.2621
414.1514	0.2529
414.3564	0.261
414.5614	0.2537
414.7664	0.2618
414.9714	0.2595
415.1764	0.256
415.3813	0.2602
415.5863	0.2655
415.7912	0.2608
415.9961	0.2619
416.201	0.2625
416.4059	0.2576
416.6108	0.2593
416.8156	0.2423
417.0205	0.2702
417.2253	0.2663
417.4301	0.2691
417.6349	0.2646
417.8397	0.2603
418.0445	0.2566
418.2492	0.256
418.454	0.2535
418.6587	0.2554
418.8634	0.2569
419.0681	0.2417
419.2728	0.2481
419.4775	0.2609
419.6822	0.2467
419.8868	0.2623
420.0915	0.2597
420.2961	0.2493
420.5007	0.2502
420.7053	0.2523
420.9099	0.2405
421.1144	0.2392
421.319	0.2434
421.5235	0.2391
421.728	0.238
421.9325	0.2474
422.137	0.2419
422.3415	0.2359
422.546	0.2418
422.7504	0.2482
422.9549	0.2368
423.1593	0.2391
423.3637	0.2427
423.5681	0.2448
423.7725	0.2486
423.9769	0.2399
424.1812	0.2286
424.3856	0.2358
424.5899	0.2323
424.7942	0.2204
424.9985	0.2247
425.2028	0.2249
425.4071	0.2225
425.6113	0.2339
425.8156	0.229
426.0198	0.2228
426.224	0.2297
426.4282	0.215
426.6324	0.2266
426.8366	0.2267
427.0407	0.2245
427.2449	0.2184
427.449	0.2151
427.6531	0.2084
427.8572	0.2171
428.0613	0.2008
428.2654	0.2119
428.4694	0.2126
428.6735	0.2078
428.8775	0.2099
429.0815	0.2135
429.2855	0.2009
429.4895	0.1977
429.6935	0.1924
429.8975	0.1981
430.1014	0.205
430.3053	0.1941
430.5093	0.2016
430.7132	0.1951
430.9171	0.1812
431.1209	0.1872
431.3248	0.1919
431.5286	0.1748
431.7325	0.1924
431.9363	0.19
432.1401	0.1822
432.3439	0.1853
432.5477	0.1843
432.7514	0.1765
432.9552	0.18
433.1589	0.1717
433.3627	0.1743
433.5664	0.1703
433.7701	0.1786
433.9737	0.1705
434.1774	0.1758
434.3811	0.1593
434.5847	0.1633
434.7883	0.1613
434.9919	0.1525
435.1955	0.1631
435.3991	0.1567
435.6027	0.1587
435.8062	0.1533
436.0098	0.149
436.2133	0.15
436.4168	0.1503
436.6203	0.1403
436.8238	0.1354
437.0272	0.1484
437.2307	0.132
437.4341	0.1342
437.6375	0.1318
437.841	0.1281
438.0443	0.1289
438.2477	0.1325
438.4511	0.1288
438.6545	0.13
438.8578	0.1283
439.0611	0.1268
439.2644	0.1128
439.4677	0.1166
439.671	0.1223
439.8743	0.127
440.0775	0.1184
440.2808	0.1294
440.484	0.1101
440.6872	0.1056
440.8904	0.1095
441.0936	0.1087
441.2967	0.1038
441.4999	0.1084
441.703	0.0899
441.9062	0.0972
442.1093	0.1027
442.3124	0.0938
442.5155	0.0904
442.7185	0.0834
442.9216	0.0924
443.1246	0.0925
443.3276	0.0868
443.5307	0.087
443.7337	0.0909
443.9366	0.0855
444.1396	0.0739
444.3426	0.0879
444.5455	0.0796
444.7484	0.072
444.9513	0.0804
445.1542	0.08
445.3571	0.0723
445.56	0.0747
445.7628	0.0734
445.9657	0.0645
446.1685	0.0747
446.3713	0.0625
446.5741	0.0607
446.7769	0.0687
446.9797	0.0623
447.1824	0.0674
447.3852	0.0577
447.5879	0.0585
447.7906	0.059
447.9933	0.061
448.196	0.0631
448.3986	0.0601
448.6013	0.0559
448.8039	0.0527
449.0066	0.0535
449.2092	0.0518
449.4118	0.047
449.6143	0.0546
449.8169	0.0524
450.0195	0.0427
450.222	0.0482
450.4245	0.0586
450.627	0.0427
450.8295	0.0392
451.032	0.0439
451.2345	0.0477
451.4369	0.05
451.6394	0.0474
451.8418	0.0369
452.0442	0.0335
452.2466	0.0421
452.449	0.0306
452.6513	0.041
452.8537	0.0433
453.056	0.0437
453.2583	0.0307
453.4607	0.037
453.663	0.0365
453.8652	0.0312
454.0675	0.0347
454.2697	0.0184
454.472	0.0314
454.6742	0.0242
454.8764	0.0294
455.0786	0.0255
455.2808	0.0317
455.4829	0.0263
455.6851	0.0256
455.8872	0.024
456.0893	0.0278
456.2915	0.0222
456.4935	0.0195
456.6956	0.029
456.8977	0.0306
457.0997	0.0234
457.3018	0.0292
457.5038	0.0227
457.7058	0.0156
457.9078	0.0274
458.1098	0.0208
458.3117	0.0193
458.5137	0.0208
458.7156	0.0237
458.9175	0.0188
459.1194	0.0201
459.3213	0.0084
459.5232	0.0093
459.725	0.0206
459.9269	0.0169
460.1287	0.0124
460.3305	0.0155
460.5323	0.0189
460.7341	0.0056
460.9359	0.0184
461.1376	0.0248
461.3394	0.0073
461.5411	0.0117
461.7428	0.0115
461.9445	0.013
462.1462	0.0139
462.3479	0.0082
462.5495	0.013
462.7512	0.0158
462.9528	0.0128
463.1544	0.0131
463.356	0.0137
463.5576	0.0063
463.7592	0.0067
463.9607	0.0132
464.1623	0.0096
464.3638	0.0094
464.5653	0.0189
464.7668	0.0055
464.9683	0.011
465.1697	0.002
465.3712	0.0119
465.5726	0.0151
465.7741	0.0109
465.9755	0.0112
466.1769	0.0194
466.3782	0.0038
466.5796	0.0097
466.7809	0.0117
466.9823	0.0136
467.1836	0.0158
467.3849	0.0034
467.5862	-0.0008
467.7875	0.0119
467.9887	0.0144
468.19	-0.0036
468.3912	0.0247
468.5924	0.0103
468.7936	0
468.9948	0.0088
469.196	0.0006
469.3972	0.0176
469.5983	0.0006
469.7994	0.011
470.0006	0.003
470.2017	0.0106
470.4027	0.0012
470.6038	-0.0039
470.8049	0.0051
471.0059	0.0095
471.2069	0.0076
471.408	0.0152
471.6089	0.0085
471.8099	0.0136
472.0109	0.0014
472.2119	0.0211
472.4128	0.0079
472.6137	-0.0028
472.8146	0.0057
473.0155	-0.0033
473.2164	-0.001
473.4173	0.0145
473.6181	0.0039
473.819	0.0021
474.0198	0.0107
474.2206	0.0061
474.4214	0.0098
474.6222	0.0092
474.8229	0.0018
475.0237	0.0111
475.2244	0.0115
475.4251	0.0009
475.6258	0.0008
475.8265	-0.0015
476.0272	0.0089
476.2278	0.007
476.4285	-0.0049
476.6291	0.0143
476.8297	-0.0017
477.0303	0.0084
477.2309	0.0005
477.4315	0.0154
477.632	0.0029
477.8326	0.0078
478.0331	0.0071
478.2336	0.018
478.4341	0.0012
478.6346	0.0017
478.8351	0.0048
479.0355	0.0033
479.236	0.0112
479.4364	0.0022
479.6368	0.0017
479.8372	0.0062
480.0376	-0.0003
480.2379	-0.0001
480.4383	-0.0064
480.6386	-0.001
480.8389	0.0014
481.0392	0.0024
481.2395	0.0061
481.4398	0.0034
481.6401	-0.0012
481.8403	0.0043
482.0405	-0.0075
482.2408	0.002
482.441	0.0061
482.6411	-0.0076
482.8413	-0.0111
483.0415	-0.0046
483.2416	0.0016
483.4417	-0.0024
483.6419	0.0015
483.8419	0.0053
484.042	0.0044
484.2421	0.0005
484.4422	0.0078
484.6422	0.0165
484.8422	0.0031
485.0422	0.0037
485.2422	0.0004
485.4422	0.0002
485.6422	-0.0018
485.8421	-0.0003
486.042	0.0082
486.242	0.0015
486.4419	0.0019
486.6417	0.0038
486.8416	0.0028
487.0415	0.0008
487.2413	0.0043
487.4411	0.0004
487.641	0.0088
487.8408	0.0059
488.0405	0.0038
488.2403	-0.0068
488.4401	0.0002
488.6398	0.0044
488.8395	0.0017
489.0392	0.0016
489.2389	0.0084
489.4386	0.0063
489.6383	0.0055
489.8379	-0.0042
490.0376	0.0093
490.2372	-0.0062
490.4368	0.0121
490.6364	0.0077
490.836	-0.0022
491.0355	0.0064
491.2351	-0.0015
491.4346	0.0011
491.6341	-0.0024
491.8336	-0.0082
492.0331	-0.0007
492.2326	-0.0059
492.432	0
492.6315	-0.0009
492.8309	0.0088
493.0303	-0.0065
493.2297	-0.0067
493.4291	-0.0067
493.6284	0.008
493.8278	0.0098
494.0271	0.002
494.2264	0.0059
494.4257	-0.0009
494.625	0.0034
494.8243	0.0047
495.0236	0.0066
495.2228	-0.0031
495.422	0.008
495.6213	0.0008
495.8205	0.0036
496.0196	0.0064
496.2188	0.0023
496.418	-0.0097
496.6171	0.0037
496.8162	0.0043
497.0153	0.0024
497.2144	0.0017
497.4135	0.0154
497.6126	-0.0085
497.8116	0.0077
498.0107	0.0008
498.2097	0.0027
498.4087	0.0042
498.6077	0.0074
498.8067	0.0156
499.0056	0.0066
499.2046	-0.0002
499.4035	0.0011
499.6024	-0.0033
499.8013	0.0047
500.0002	0.0052
500.199	0.0071
500.3979	0.004
500.5967	-0.0034
500.7956	-0.0035
500.9944	0.0014
501.1932	0.0088
501.3919	0.0057
501.5907	0.0034
501.7895	0.0018
501.9882	-0.0064
502.1869	0.0048
502.3856	-0.0047
502.5843	-0.006
502.783	0.0054
502.9816	-0.0065
503.1803	0.0117
503.3789	0.0039
503.5775	-0.0017
503.7761	0.0014
503.9747	-0.0015
504.1732	-0.0022
504.3718	-0.0068
504.5703	0.0012
504.7689	-0.0081
504.9674	-0.0071
505.1658	0.0037
505.3643	-0.0005
505.5628	0.0057
505.7612	0.0063
505.9597	0.007
506.1581	-0.0124
506.3565	-0.0081
506.5549	0.0033
506.7532	0.0028
506.9516	0.0088
507.1499	0.0077
507.3482	0.0072
507.5465	-0.0038
507.7448	0.0018
507.9431	0.0003
508.1414	-0.0014
508.3396	0.0066
508.5379	0.0051
508.7361	0.0043
508.9343	-0.0043
509.1325	-0.0011
509.3306	-0.002
509.5288	0.0141
509.7269	0.0071
509.9251	-0.0022
510.1232	-0.0063
510.3213	0.0069
510.5193	0.0051
510.7174	-0.0029
510.9154	0.0029
511.1135	-0.0009
511.3115	0.004
511.5095	-0.004
511.7075	-0.0046
511.9055	0.0107
512.1034	0.0059
512.3014	0.0012
512.4993	-0.0021
512.6972	0.001
512.8951	-0.0007
513.093	0.0021
513.2908	0.0015
513.4887	0.0052
513.6865	-0.0043
513.8844	0.0024
514.0822	0.0012
514.2799	0.0021
514.4777	0.0135
514.6755	0.0047
514.8732	-0.0026
515.0709	0.0021
515.2687	-0.0008
515.4664	-0.0059
515.664	0.006
515.8617	0.011
516.0594	0.0073
516.257	0.0079
516.4546	-0.0034
516.6522	0.0005
516.8498	-0.003
517.0474	-0.0035
517.2449	0.0056
517.4425	0.0037
517.64	0.005
517.8375	0.0031
518.035	-0.0011
518.2325	-0.0053
518.43	-0.0068
518.6274	-0.0048
518.8249	-0.0007
519.0223	-0.0016
519.2197	-0.0035
519.4171	-0.0096
519.6145	-0.0036
519.8118	-0.0053
520.0092	-0.0047
520.2065	0.0044
520.4038	-0.0042
520.6011	0.016
520.7984	-0.0049
520.9956	0.0129
521.1929	0.0026
521.3901	0.0041
521.5874	-0.0032
521.7846	0.0012
521.9818	0.0054
522.1789	0.0117
522.3761	0.0091
522.5732	-0.0027
522.7704	-0.0001
522.9675	-0.0048
523.1646	0.0132
523.3617	-0.0077
523.5587	-0.0028
523.7558	-0.0014
523.9528	0.0099
524.1498	-0.0125
524.3468	-0.0078
524.5438	-0.0177
524.7408	-0.0064
524.9378	-0.0048
525.1347	0.0078
525.3316	0.0085
525.5285	0.0084
525.7254	0.0078
525.9223	-0.0031
526.1192	-0.0029
526.316	-0.0065
526.5129	0.009
526.7097	-0.0002
526.9065	-0.0052
527.1033	-0.0013
527.3	0.0028
527.4968	-0.0051
527.6935	0.0053
527.8903	0.0013
528.087	0.0062
528.2837	0.0031
528.4804	0.0159
528.677	0.0107
528.8737	0.0054
529.0703	0.0009
529.2669	-0.0042
529.4635	0.0157
529.6601	0.0138
529.8567	0.0006
530.0532	0.0005
530.2498	-0.0023
530.4463	0.0113
530.6428	-0
530.8393	0.0005
531.0358	0.0001
531.2322	0.0136
531.4287	-0.0069
531.6251	-0.0141
531.8215	0.0022
532.0179	-0.0018
532.2143	-0.0003
532.4107	0.0005
532.607	-0.0006
532.8034	0.0042
532.9997	0.0017
533.196	0.0104
533.3923	0.0014
533.5886	0.0036
533.7848	-0.0101
533.9811	-0.0006
534.1773	0.0049
534.3735	0.0054
534.5697	0.0026
534.7659	0.0009
534.9621	0.0015
535.1582	0.0011
535.3544	0.0135
535.5505	0.0067
535.7466	-0.001
535.9427	-0.0016
536.1387	0.0015
536.3348	0.0068
536.5308	0.01
536.7269	-0.002
536.9229	0.0061
537.1189	-0.008
537.3148	-0.0036
537.5108	-0.0087
537.7068	0.0103
537.9027	0.0134
538.0986	-0.0073
538.2945	0.0092
538.4904	-0.0044
538.6863	0.0064
538.8821	-0.0152
539.078	-0.0011
539.2738	-0.0086
539.4696	0.0024
539.6654	0.002
539.8611	0.0023
540.0569	0.0042
540.2526	0.0054
540.4484	-0.005
540.6441	0.0005
540.8398	-0.0083
541.0355	0.008
541.2311	0.0022
541.4268	-0.0006
541.6224	-0.0035
541.818	-0.0048
542.0136	-0.0025
542.2092	0.0028
542.4048	0.0069
542.6003	0.0012
542.7959	0.0023
542.9914	0.0051
543.1869	-0.009
543.3824	-0.0029
543.5779	0.0046
543.7734	-0.0112
543.9688	-0.003
544.1642	-0.0058
544.3596	-0.011
544.555	0.0043
544.7504	-0.0014
544.9458	0.006
545.1411	-0.0033
545.3365	-0.0018
545.5318	-0.0027
545.7271	0.0068
545.9224	-0.0029
546.1177	0.0063
546.3129	-0.0094
546.5081	-0.0133
546.7034	-0.0037
546.8986	0.0079
547.0938	-0.0067
547.289	0.004
547.4841	-0.0017
547.6793	-0.0086
547.8744	-0.0001
548.0695	0.005
548.2646	-0.0044
548.4597	-0.0068
548.6548	0.0157
548.8498	-0.0014
549.0448	0.01
549.2399	0.0035
549.4349	0.006
549.6298	-0.0062
549.8248	-0.002
550.0198	-0.0002
550.2147	-0.0014
550.4096	-0.0018
550.6045	-0.0005
550.7994	0.0063
550.9943	0.0076
551.1892	-0.0047
551.384	0.003
551.5788	0.0102
551.7737	-0.0094
551.9685	0.0011
552.1632	-0.002
552.358	0.0038
552.5528	-0.0012
552.7475	-0.0001
552.9422	-0.0043
553.1369	0.0029
553.3316	-0.0031
553.5263	0.0033
553.7209	-0.0115
553.9156	0.0076
554.1102	0.0017
554.3048	0.0052
554.4994	-0.0043
554.694	0.0087
554.8885	0.0001
555.0831	0.0118
555.2776	-0.0047
555.4721	-0.0013
555.6666	0.0024
555.8611	-0.0182
556.0555	-0.0018
556.25	-0.0039
556.4444	0.0006
556.6388	-0.0021
556.8332	0.0046
557.0276	0.011
557.222	-0.0036
557.4163	0.0144
557.6107	-0
557.805	-0.0046
557.9993	-0.0001
558.1936	0.0105
558.3879	-0.0114
558.5821	-0.0185
558.7764	0.0114
558.9706	0.0022
559.1648	0.0046
559.359	0.0104
559.5532	-0.0112
559.7473	0.0065
559.9415	-0.0045
560.1356	0.0091
560.3297	0.0002
560.5238	-0.0021
560.7179	-0.003
560.9119	0.0146
561.106	-0.0054
561.3	-0.0008
561.494	0.0058
561.688	0.0017
561.882	-0.002
562.076	0.0177
562.2699	0.0062
562.4639	0.0087
562.6578	0.0104
562.8517	0.0088
563.0456	0.0042
563.2395	-0.0066
563.4333	-0.0074
563.6272	0.0036
563.821	0.0029
564.0148	-0.01
564.2086	0.003
564.4024	-0.0016
564.5961	0.0035
564.7899	0.0035
564.9836	0.007
565.1773	-0.0021
565.371	0.0025
565.5647	-0.0073
565.7584	-0.0022
565.952	0.0015
566.1456	0.0037
566.3393	0.0138
566.5329	-0.0021
566.7264	-0.0054
566.92	0.0027
567.1136	-0.0004
567.3071	-0.0014
567.5006	-0.006
567.6941	0.0088
567.8876	0.0025
568.0811	-0.0072
568.2745	0.0008
568.468	0.0041
568.6614	-0.0043
568.8548	-0.0008
569.0482	0.0014
569.2416	-0.0027
569.4349	-0.0022
569.6283	0.003
569.8216	0.0037
570.0149	-0.0024
570.2082	-0.0021
570.4015	0.0024
570.5947	-0.0031
570.788	-0.0015
570.9812	-0.0025
571.1744	-0.0073
571.3676	-0.0053
571.5608	-0.0034
571.754	-0.0049
571.9471	0.003
572.1402	0.0014
572.3333	-0.0049
572.5264	0.0024
572.7195	0.0063
572.9126	-0.0021
573.1057	0.004
573.2987	-0.0003
573.4917	-0.0034
573.6847	0.002
573.8777	0.0019
574.0707	-0.0032
574.2636	0.0005
574.4566	0.0006
574.6495	0.0053
574.8424	0.0005
575.0353	0.0007
575.2281	-0.0016
575.421	-0.003
575.6138	-0.0002
575.8067	0.0007
575.9995	-0.0015
576.1923	0.0067
576.385	-0.001
576.5778	0.0004
576.7706	0.0011
576.9633	0.0022
577.156	0.0007
577.3487	0.0015
577.5414	0.0006
577.734	0.0001
577.9267	-0.0027
578.1193	0.0033
578.3119	-0.0037
578.5045	-0.0051
578.6971	-0.0016
578.8897	-0.0019
579.0822	0.007
579.2747	-0.0046
579.4673	-0.0007
579.6598	-0.0017
579.8522	-0.0021
580.0447	0.0001
580.2372	0.0026
580.4296	-0.0026
580.622	0.0038
580.8144	0.0016
581.0068	0.0023
581.1992	0.0023
581.3915	0.0011
581.5839	0.0011
581.7762	0.0008
581.9685	-0.0015
582.1608	0.0015
582.353	0.0002
582.5453	-0.0015
582.7375	0.0018
582.9298	-0.0004
583.122	-0.0048
583.3142	0.0039
583.5063	-0.0043
583.6985	0.0002
583.8906	-0.003
584.0827	-0.0011
584.2749	0.0018
584.4669	-0.0061
584.659	-0.0001
584.8511	-0.003
585.0431	-0.0033
585.2352	-0.0054
585.4272	0.0006
585.6192	0.0035
585.8111	-0.0052
586.0031	0.0038
586.195	0.001
586.387	0.0017
586.5789	-0.0003
586.7708	0.0013
586.9627	0.0012
587.1545	0.0002
587.3464	-0.0006
587.5382	0.0012
587.73	0.0047
587.9218	-0.0004
588.1136	-0.0044
588.3053	-0.0033
588.4971	-0
588.6888	-0.002
588.8805	0.0052
589.0722	0.0014
589.2639	0.0011
589.4556	-0.008
589.6472	0.0019
589.8389	-0.0055
590.0305	0.0046
590.2221	0.0025
590.4137	-0.0019
590.6052	-0.0023
590.7968	0.0044
590.9883	0.0067
591.1798	-0.0046
591.3713	0.0013
591.5628	0.0027
591.7543	0.0032
591.9458	-0.0023
592.1372	-0.0002
592.3286	-0.0029
592.52	-0.0026
592.7114	-0.0044
592.9028	-0.0071
593.0941	-0.0009
593.2855	0.0016
593.4768	-0.0003
593.6681	-0.0033
593.8594	-0.0059
594.0506	0.0051
594.2419	-0.006
594.4331	-0.0073
594.6244	0.0008
594.8156	0.0015
595.0067	0.0009
595.1979	-0.0067
595.3891	-0.0042
595.5802	-0.0006
595.7713	-0.0008
595.9624	0.004
596.1535	0.0044
596.3446	0.001
596.5357	-0.0012
596.7267	0.0024
596.9177	-0.0044
597.1087	0.0028
597.2997	0.0036
597.4907	-0.0005
597.6817	0.0023
597.8726	0.0026
598.0635	0.0034
598.2544	-0.0002
598.4453	-0.004
598.6362	-0.0062
598.827	0.002
599.0179	0.0019
599.2087	-0.0047
599.3995	0.005
599.5903	0.0056
599.7811	-0.0022
599.9718	0.0004
600.1626	-0.0002
600.3533	-0.0007
600.544	-0.0045
600.7347	0.0009
600.9254	0.0004
601.116	0.0001
601.3067	0.0016
601.4973	0.0143
601.6879	-0.0031
601.8785	0.0004
602.0691	0.0066
602.2596	-0.0029
602.4502	0.0002
602.6407	0.0071
602.8312	-0.0002
603.0217	0.005
603.2122	0.0048
603.4027	-0.0019
603.5931	0.0008
603.7835	-0.0031
603.9739	0.0038
604.1643	0.0004
604.3547	0.0037
604.5451	-0.0005
604.7354	-0.0028
604.9257	-0.0068
605.116	0.0017
605.3063	-0.0001
605.4966	-0.0027
605.6869	-0.0019
605.8771	0.0014
606.0673	-0.0056
606.2575	-0.0015
606.4477	0.0048
606.6379	-0.0046
606.8281	-0.0035
607.0182	0.0008
607.2083	-0.0025
607.3985	0.0015
607.5885	-0.0021
607.7786	0.0083
607.9687	-0.005
608.1587	-0.0008
608.3488	-0.009
608.5388	0.0068
608.7288	-0.0052
608.9187	0.008
609.1087	-0.0066
609.2986	-0.0021
609.4886	0.005
609.6785	0.0026
609.8684	-0.0061
610.0582	-0.0004
610.2481	-0.0017
610.4379	0.0018
610.6278	-0.0008
610.8176	-0.0042
611.0074	-0.0016
611.1971	0.0057
611.3869	-0.0024
611.5766	0.0019
611.7664	0.0084
611.9561	-0.0015
612.1458	-0.0007
612.3354	0.0019
612.5251	-0.0087
612.7147	0.0058
612.9044	-0.0032
613.094	0.0041
613.2836	0.0003
613.4731	-0.0053
613.6627	0.0027
613.8522	-0.0057
614.0417	0.001
614.2313	-0.0097
614.4207	0.0003
614.6102	-0.0057
614.7997	0.0014
614.9891	-0.0043
615.1785	-0.0095
615.3679	-0.0018
615.5573	-0.0072
615.7467	-0.0002
615.9361	-0.0062
616.1254	-0.0055
616.3147	0.0002
616.504	-0.0037
616.6933	0.0008
616.8826	0.0094
617.0718	-0.0027
617.2611	-0.0037
617.4503	0.0006
617.6395	0.0038
617.8287	0.0008
618.0179	0.0029
618.207	-0.0032
618.3961	-0.0049
618.5853	-0.003
618.7744	0.008
618.9634	-0.0019
619.1525	0.0014
619.3416	0.0051
619.5306	-0.0026
619.7196	-0.0052
619.9086	0.008
620.0976	-0.0016
620.2866	0.014
620.4755	0.0122
620.6645	-0.0101
620.8534	-0.0034
621.0423	-0.0199
621.2312	-0.007
621.42	0.006
621.6089	0.0021
621.7977	-0.0022
621.9865	0.0062
622.1753	0.015
622.3641	-0.0011
622.5529	-0.012
622.7416	-0.0146
622.9303	0.0079
623.1191	-0.0071
623.3078	-0.0086
623.4964	-0.0104
623.6851	0.0036
623.8737	0.0017
624.0624	-0.0007
624.251	0.001
624.4396	-0.0025
624.6282	0.0055
624.8167	0.0043
625.0053	-0.007
625.1938	-0.0003
625.3823	-0.0067
625.5708	-0.0057
625.7593	-0.0064
625.9477	-0.0106
626.1362	-0.0008
626.3246	-0.0045
626.513	0.0089
626.7014	-0.0093
626.8898	-0.0001
627.0781	0.0086
627.2665	0.0077
627.4548	-0.0088
627.6431	-0.0084
627.8314	0.0048
628.0197	0.0051
628.2079	0.0022
628.3962	0.0046
628.5844	0.0064
628.7726	-0.0042
628.9608	-0.0045
629.1489	-0.0102
629.3371	-0.0103
629.5252	0.0025
629.7134	-0.0026
629.9015	-0.0126
630.0895	-0.0039
630.2776	-0.0034
630.4657	-0.0101
630.6537	-0.0019
630.8417	-0.0189
631.0297	0.0037
631.2177	-0.0044
631.4057	-0.0064
631.5936	0.0008
631.7815	-0.0011
631.9695	0.0161
632.1574	-0.0107
632.3452	-0.0002
632.5331	-0.0135
632.7209	0.0135
632.9088	-0.0046
633.0966	0.0031
633.2844	-0.0247
633.4722	-0.0027
633.6599	-0.008
633.8477	0.0001
634.0354	0.0046
634.2231	0.0281
634.4108	0.001
634.5985	0.0045
634.7861	0.0037
634.9738	0.0053
635.1614	0.0103
635.349	-0.0188
635.5366	-0.0007
635.7242	0.0047
635.9117	0.0014
636.0993	-0.0118
636.2868	-0.0061
636.4743	0.0147
636.6618	0.0049
636.8492	-0.0064
637.0367	0.0031
637.2241	0.0035
637.4115	-0.0074
637.5989	0.0105
637.7863	-0.0099
637.9737	0.0093
638.161	-0.0037
638.3484	0.0009
638.5357	0.0016
638.723	-0.0097
638.9103	-0.0008
639.0975	0.0092
639.2848	0.0045
639.472	-0.0209
639.6592	0.0119
639.8464	0.0138
640.0336	0.0062
640.2208	-0.0118
640.4079	0.0007
640.595	-0.0054
640.7821	0.0084
640.9692	0.0146
641.1563	0.0167
641.3434	0.0081
641.5304	-0.0173
641.7174	0.0026
641.9044	0.0094
642.0914	0.0078
642.2784	0.0192
642.4653	0.0091
642.6523	0.0069
642.8392	0.0087
643.0261	-0.0181
643.213	0.0076
643.3999	0.0123
643.5867	0.0076
643.7735	-0.0065
643.9604	-0.004
644.1472	-0.0067
644.3339	0.0006
644.5207	-0.0293
644.7075	-0.0008
644.8942	0.0066
645.0809	-0.0185
645.2676	0.0054
645.4543	0.0127
645.6409	-0.0132
645.8276	-0.008
646.0142	0.0227
646.2008	-0.0063
646.3874	0.0136
646.574	-0.0228
646.7605	-0.0062
646.9471	0.0119
647.1336	-0.0007
647.3201	0.0004
647.5066	0.0162
647.6931	-0.0062
647.8795	0.0097
648.0659	-0.0117
648.2524	0.0052
648.4388	0.0033
648.6252	-0.0118
648.8115	0.0131
648.9979	-0.0023
649.1842	-0.0133
649.3705	-0.0061
649.5568	-0.0182
649.7431	0.0058
649.9294	-0.0061
650.1156	-0.0123
650.3018	0.0043
650.488	0.0087
650.6742	0.0142
650.8604	-0.0037
651.0466	-0.004
651.2327	-0.0079
651.4188	-0.0053
651.6049	-0.0146
651.791	0.0294
651.9771	-0.0054
652.1632	0.0193
652.3492	-0.002
652.5352	-0.0032
652.7212	-0.0031
652.9072	0.007
653.0932	0.005
653.2791	-0.0096
653.465	-0.0116
653.651	0.0034
653.8369	0.0153
654.0227	-0.0119
654.2086	-0.0056
654.3944	0.0007
654.5803	0.0017
654.7661	-0.0036
654.9519	0.0003
655.1377	-0
655.3234	-0
655.5092	-0
655.6949	-0
655.8806	-0
656.0663	-0
656.2519	-0
656.4376	-0
656.6232	-0
656.8088	-0
656.9945	-0
657.18	-0
657.3656	-0
657.5511	-0
657.7367	-0
657.9222	-0
658.1077	-0
658.2932	-0
658.4786	-0
658.6641	-0
658.8495	-0
659.0349	-0
659.2203	-0
659.4057	0.0071
659.591	0.0186
659.7764	0.0019
659.9617	-0.0049
660.147	-0.018
660.3323	-0.0034
660.5176	0.0033
660.7028	-0.0048
660.888	0.0087
661.0733	0.01
661.2585	0.0094
661.4436	0.0044
661.6288	0.0039
661.8139	0.0164
661.9991	0.0082
662.1842	0.0154
662.3693	-0.0042
662.5544	-0.0036
662.7394	0.0381
662.9245	0.0024
663.1095	0.0085
663.2945	-0.0071
663.4795	-0.0146
663.6644	-0.0085
663.8494	0.0245
664.0343	-0.0071
664.2193	-0.0096
664.4042	-0.02
664.589	-0.0079
664.7739	-0.0147
664.9587	0.0016
665.1436	-0.0108
665.3284	0.0083
665.5132	0.0002
665.698	0.02
665.8827	-0.0187
666.0675	-0.0014
666.2522	0.0297
666.4369	-0.0065
666.6216	-0.0268
666.8063	-0.0202
666.9909	0.0152
667.1756	0.0148
667.3602	-0.0091
667.5448	0.0156
667.7294	0.008
667.9139	-0.0389
668.0985	-0.0034
668.283	-0.0053
668.4675	-0.0079
668.652	0.0016
668.8365	-0.0032
669.0209	-0.0231
669.2054	0.0194
669.3898	-0.0052
669.5742	0.0108
669.7586	-0.0081
669.943	-0.027
670.1273	0.0164
670.3117	0.0014
670.496	0.0143
670.6803	0.0096
670.8646	-0.0006
671.0488	-0.0091
671.2331	0.0083
671.4173	0.0132
671.6015	-0.0073
671.7857	-0.0151
671.9699	0.0008
672.1541	-0.0053
672.3382	-0.0008
672.5223	-0.0028
672.7064	0.007
672.8905	-0.0063
673.0746	-0.0009
673.2587	0.0149
673.4427	-0.0151
673.6267	-0.0145
673.8107	-0.0119
673.9947	-0.0064
674.1787	-0.0068
674.3626	-0.0117
674.5465	-0.0089
674.7304	-0.028
674.9143	0.0179
675.0982	-0.008
675.2821	0.0028
675.4659	0.0077
675.6497	-0.006
675.8335	0.0224
676.0173	0.0162
676.2011	0.0102
676.3849	-0.0024
676.5686	-0.0015
676.7523	-0.0151
676.936	-0.012
677.1197	-0.0066
677.3034	0.0031
677.487	0.0075
677.6706	0.0018
677.8542	0.0004
678.0378	0.0052
678.2214	-0.0027
678.405	0.0176
678.5885	0.0024
678.772	-0.0158
678.9555	0.0078
679.139	0.0013
679.3225	-0.0259
679.5059	-0.0051
679.6894	-0.0093
679.8728	-0.0117
680.0562	-0.0061
680.2395	-0.0037
680.4229	-0.0126
680.6062	-0.0074
680.7896	0.005
680.9729	0.0046
681.1562	-0.0084
681.3394	0.0138
681.5227	-0.0228
681.7059	-0.0117
681.8891	-0.0076
682.0723	0.0026
682.2555	0.0277
682.4387	-0.0086
682.6218	-0.0048
682.805	-0.0019
682.9881	0.0064
683.1712	0.018
683.3542	-0.019
683.5373	-0.0042
683.7203	-0.001
683.9034	0.0124
684.0864	-0.0049
684.2694	0.0133
684.4523	0.0054
684.6353	0.0116
684.8182	-0.0078
685.0011	-0.0026
685.184	-0.0059
685.3669	-0.0059
685.5498	0.0148
685.7326	-0.0064
685.9154	-0.0023
686.0982	0.0038
686.281	0.0061
686.4638	-0.002
686.6465	-0.0043
686.8293	-0.0061
687.012	-0.0014
687.1947	0.0077
687.3774	-0.0217
687.56	0.017
687.7427	0.0015
687.9253	0.0113
688.1079	0.0276
688.2905	0.0045
688.4731	0.0149
688.6556	0.0022
688.8382	0.0201
689.0207	0.0047
689.2032	-0.0191
689.3857	-0.015
689.5681	-0.0092
689.7506	0.0008
689.933	-0.0144
690.1154	0.0176
690.2978	-0.0081
690.4802	0.0097
690.6626	-0.0104
690.8449	-0.0158
691.0272	-0.0027
691.2095	-0.0101
691.3918	0.0017
691.5741	0.0137
691.7563	0.0095
691.9386	-0.0099
692.1208	0.0027
692.303	-0.0001
692.4852	0.0086
692.6673	-0.0067
692.8495	-0.0046
693.0316	-0.0076
693.2137	0.0194
693.3958	0.004
693.5778	-0.0177
693.7599	-0.0148
693.9419	-0.0011
694.1239	-0.0119
694.3059	-0.0238
694.4879	-0.0209
694.6699	0.0019
694.8518	0.0057
695.0337	0.0155
695.2157	-0.0184
695.3975	-0.0131
695.5794	-0.0062
695.7613	0.0034
695.9431	-0.0121
696.1249	-0.0051
696.3067	0.0036
696.4885	-0.0107
696.6703	-0.0003
696.852	-0.0173
697.0337	0.0017
697.2154	0.0221
697.3971	0.0082
697.5788	0.0172
697.7605	-0.0176
697.9421	-0.0116
698.1237	0.0001
698.3053	0.0104
698.4869	0.0217
698.6685	-0.0057
698.85	0.0045
699.0315	-0.0054
699.213	0.0121
699.3945	-0.0031
699.576	0.0046
699.7575	-0.0133
699.9389	-0.0065
700.1203	-0.0075
700.3017	-0.0359
700.4831	-0.0147
700.6645	-0.0085
700.8458	0.0141
701.0271	-0.0051
701.2084	-0.0333
701.3897	0.0014
701.571	-0.0213
701.7523	-0.0125
701.9335	0.0188
702.1147	0.0049
702.2959	0.0149
702.4771	0.0112
702.6583	-0.0037
702.8394	-0.0118
703.0205	-0.0221
703.2016	0.0006
703.3827	-0.0031
703.5638	0.0057
703.7449	-0.0006
703.9259	0.0166
704.1069	0.0108
704.2879	-0.0136
704.4689	-0.0139
704.6499	-0.0459
704.8308	-0.0124
705.0117	-0.0327
705.1927	0.0191
705.3735	-0.0036
705.5544	-0.0162
705.7353	0.0149
705.9161	0.0145
706.0969	0.0014
706.2777	0.0018
706.4585	0.007
706.6393	0.0026
706.82	-0.0255
707.0007	-0.0034
707.1815	0.0064
707.3621	-0.0008
707.5428	0.0149
707.7235	0.0183
707.9041	-0.0161
708.0847	0.0131
708.2653	0.0066
708.4459	-0.0022
708.6265	0.0023
708.807	-0.0019
708.9875	0.0183
709.168	-0.0072
709.3485	0.0009
709.529	0.0077
709.7095	-0.0265
709.8899	0.0198
710.0703	0.0015
710.2507	-0.009
710.4311	0.0144
710.6115	-0.0034
710.7918	-0.0095
710.9721	-0.007
711.1524	0.017
711.3327	-0.0132
711.513	-0.0018
711.6932	-0.0388
711.8735	0.0019
712.0537	0.0052
712.2339	0.0237
712.4141	0.0065
712.5942	-0.0037
712.7744	0.0072
712.9545	0.0068
713.1346	-0.0059
713.3147	0.0286
713.4947	-0.0085
713.6748	-0.0218
713.8548	0.0111
714.0348	0.0103
714.2148	0.0019
714.3948	-0.0045
714.5748	0.0055
714.7547	-0.0087
714.9346	-0.0012
715.1145	0.0163
715.2944	0.0197
715.4743	-0.0299
715.6541	-0.0331
715.834	0.0104
716.0138	0.04
716.1936	0.002
716.3733	0.0003
716.5531	0.0052
716.7328	-0.0048
716.9126	-0.0187
717.0923	0.015
717.2719	0.0041
717.4516	-0.0384
717.6312	-0.0351
717.8109	0.01
717.9905	0.021
718.1701	-0.0231
718.3496	-0.0068
718.5292	0.0041
718.7087	0.0384
718.8882	0.0212
719.0677	-0.0013
719.2472	0.0195
719.4267	-0.0207
719.6061	-0.001
719.7856	0.0107
719.965	-0.0047
720.1443	-0.0088
720.3237	0.0327
720.5031	0.0437
720.6824	0.0119
720.8617	0.0155
721.041	0.0391
721.2203	0.0351
721.3995	-0.0041
721.5788	-0.0255
721.758	-0.0073
721.9372	-0.0026
722.1164	0.0118
722.2956	0.0199
722.4747	0.0304
722.6538	0.0195
722.8329	-0.0139
723.012	0.008
723.1911	-0.0097
723.3702	-0.0373
723.5492	-0.0277
723.7282	-0.0137
723.9072	-0.0186
724.0862	-0.0151
724.2652	-0.0202
724.4441	-0.0134
724.623	-0.0194
724.8019	0.0128
724.9808	0.0013
725.1597	-0.0105
725.3385	-0.0105
725.5174	0.014
725.6962	0.0127
725.875	0.0211
726.0538	-0.0055
726.2325	-0.0034
726.4112	0.0107
726.59	0.0133
726.7687	-0.0038
726.9474	0.0175
727.126	0.0056
727.3047	0.014
727.4833	0.0337
727.6619	0.0114
727.8405	0.0287
728.0191	-0.0295
728.1976	-0.0417
728.3762	-0.0056
728.5547	0.0138
728.7332	-0.0069
728.9116	-0.0555
729.0901	0.0039
729.2686	-0.0236
729.447	-0.0211
729.6254	0.0116
729.8038	0.011
729.9821	0.0157
730.1605	0.0021
730.3388	-0.0007
730.5171	-0.0118
730.6954	0.0078
730.8737	0.0086
731.0519	0.0004
731.2302	-0.0029
731.4084	-0.0035
731.5866	-0.02
731.7648	-0.0076
731.9429	0.0126
732.1211	0.0032
732.2992	0.0101
732.4773	-0.015
732.6554	0.0084
732.8335	-0.0042
733.0115	-0.004
733.1896	0.0037
733.3676	0.0001
733.5456	0.0038
733.7235	0.0024
733.9015	-0.0161
734.0794	-0.0228
734.2574	0.0254
734.4353	-0.0009
734.6131	0.0112
734.791	0.0013
734.9689	-0.0052
735.1467	0.0164
735.3245	0.0058
735.5023	0.0312
735.68	-0.0004
735.8578	0.0016
736.0355	-0.0069
736.2132	0.0077
736.3909	-0.0066
736.5686	0.0065
736.7463	-0.0236
736.9239	0.0069
737.1015	-0.0186
737.2791	-0.0103
737.4567	0.0062
737.6343	0.01
737.8118	-0.0118
737.9894	-0.0044
738.1669	-0.0051
738.3444	0.003
738.5218	-0.0075
738.6993	-0.0135
738.8767	-0.0073
739.0541	0.0096
739.2315	-0.0063
739.4089	0.0104
739.5863	-0.0001
739.7636	0.0005
739.9409	-0.006
740.1182	-0.013
740.2955	-0.0151
740.4728	0.019
740.65	-0.0258
740.8272	-0.0255
741.0044	0.0228
741.1816	0.0268
741.3588	0.0299
741.5359	0.0037
741.7131	0.0084
741.8902	-0.0151
742.0673	0.0295
742.2444	-0.0062
742.4214	-0.0002
742.5985	0.0145
742.7755	-0.0043
742.9525	-0.0025
743.1295	-0.0145
743.3064	0.0338
743.4834	-0.0012
743.6603	-0.0103
743.8372	0.0213
744.0141	0.0328
744.191	0.0122
744.3678	0.0331
744.5446	0.024
744.7215	-0.0016
744.8982	0.0079
745.075	0.0257
745.2518	-0.0306
745.4285	-0.0314
745.6052	0.0291
745.7819	0.0041
745.9586	0.0292
746.1353	-0.0052
746.3119	0.0008
746.4885	-0.0011
746.6651	-0.0335
746.8417	-0.0082
747.0183	-0.0253
747.1948	0.0117
747.3714	0.0231
747.5479	-0.0066
747.7244	-0.0423
747.9008	0.0067
748.0773	0.0298
748.2537	0.0261
748.4301	0.0086
748.6065	-0.0349
748.7829	0.0175
748.9593	0.0022
749.1356	0.0276
749.3119	-0.0005
749.4882	-0.003
749.6645	0.0078
749.8408	0.0041
750.017	-0.0177
750.1933	0.0438
750.3695	0.0337
750.5457	-0.0037
750.7218	0.0251
750.898	-0.0234
751.0741	0.0056
751.2502	0.0008
751.4263	-0.0142
751.6024	0.024
751.7784	-0.0204
751.9545	-0.0405
752.1305	-0.0131
752.3065	0.0095
752.4825	-0.0027
752.6584	-0.001
752.8344	-0.0067
753.0103	-0.0265
753.1862	-0.0011
753.3621	-0.0142
753.5379	0.0072
753.7138	-0.0078
753.8896	0.0281
754.0654	0.0076
754.2412	-0.0022
754.417	0.0031
754.5927	-0.0093
754.7685	-0.0032
754.9442	0.0047
755.1199	-0.0059
755.2956	0.0032
755.4712	0.0033
755.6469	0.0095
755.8225	-0.0068
755.9981	0.0066
756.1736	0.0168
756.3492	-0.0175
756.5248	-0.01
756.7003	-0.0098
756.8758	0.0028
757.0513	-0.0083
757.2267	-0.0147
757.4022	0.0007
757.5776	-0.0045
757.753	-0.0244
757.9284	-0.0067
758.1038	-0.0092
758.2791	0.0005
758.4545	-0.0065
758.6298	-0.0012
758.8051	-0.0178
758.9803	-0.0109
759.1556	-0.0249
759.3308	0.002
759.506	-0.0023
759.6812	-0.0023
759.8564	-0.0293
760.0316	-0.0068
760.2067	-0.0362
760.3819	-0.0116
760.557	0.0066
760.732	0.0155
760.9071	0.0131
761.0821	0.0009
761.2572	0.0183
761.4322	-0.0046
761.6072	-0.0109
761.7821	-0.0088
761.9571	-0.0076
762.132	-0.0263
762.3069	-0.0047
762.4818	-0.0106
762.6567	0.0269
762.8316	0.0031
763.0064	-0.0298
763.1812	-0.0253
763.356	0.0044
763.5308	-0.0008
763.7055	0.0109
763.8803	-0.02
764.055	0.002
764.2297	-0.0233
764.4044	-0.0061
764.579	-0.0094
764.7537	0.0028
764.9283	-0.0339
765.1029	-0.0004
765.2775	-0.0164
765.4521	0.0179
765.6266	-0.0217
765.8011	-0.0077
765.9756	0.008
766.1501	0.0043
766.3246	-0.0123
766.4991	-0.01
766.6735	-0.0013
766.8479	-0.0035
767.0223	-0.0078
767.1967	0.0077
767.371	0.0036
767.5454	0.016
767.7197	-0.0107
767.894	-0.0123
768.0683	-0.0005
768.2425	0.0064
768.4168	0.0121
768.591	0.0247
768.7652	-0.0209
768.9394	0.0006
769.1135	-0.0412
769.2877	0.0167
769.4618	0.0295
769.6359	-0.0222
769.81	0.0144
769.984	-0.0065
770.1581	-0.0002
770.3321	-0.0188
770.5061	0.0171
770.6801	-0.0005
770.8541	0.0006
771.028	0.0035
771.202	-0.0226
771.3759	0.0296
771.5498	-0.0291
771.7236	0.0078
771.8975	-0.0189
772.0713	0.0041
772.2451	0.0195
772.4189	0.01
772.5927	-0.0375
772.7665	0.0278
772.9402	0.036
773.1139	-0.0036
773.2876	0.012
773.4613	-0.022
773.635	0.0202
773.8086	-0.0432
773.9822	-0.0028
774.1558	-0.019
774.3294	-0.0483
774.503	0.0283
774.6765	0.0571
774.8501	-0.0062
775.0236	0.0299
775.1971	-0.018
775.3705	-0.0075
775.544	-0.0178
775.7174	-0.0233
775.8908	0.0215
776.0642	0.0413
776.2376	-0.0288
776.4109	0.0254
776.5843	0.018
776.7576	0.0298
776.9309	0.0199
777.1041	-0.0222
777.2774	-0.0167
777.4506	-0.0109
777.6238	-0.0021
777.797	-0.0273
777.9702	0.026
778.1434	0.0178
778.3165	0.0333
778.4896	0.0106
778.6627	0.0199
778.8358	0.0039
779.0089	-0.0214
779.1819	-0.0243
779.3549	0.0153
779.5279	0.0156
779.7009	-0.0117
779.8739	0.0376
780.0468	0.0018
780.2197	0.0041
780.3926	-0.0197
780.5655	-0.0433
780.7384	-0.0105
780.9112	-0.0022
781.0841	-0.0076
781.2569	-0.0035
781.4297	-0.0029
781.6024	-0.0031
781.7752	-0.0268
781.9479	0.0059
782.1206	0.0122
782.2933	-0.0156
782.466	-0.0122
782.6386	-0.0053
782.8113	-0.0236
782.9839	0.0368
783.1565	-0.0161
783.329	-0.0014
783.5016	0.0119
783.6741	-0.0138
783.8466	-0.0362
784.0191	-0.0357
784.1916	-0.0042
784.3641	-0.0265
784.5365	0.0521
784.7089	-0.0153
784.8813	0.0294
785.0537	-0.009
785.2261	-0.0118
785.3984	-0.0147
785.5707	0.0197
785.743	-0.025
785.9153	0.0195
786.0876	-0.0363
786.2598	0.0182
786.432	0.0162
786.6042	0.0435
786.7764	-0.0127
786.9486	0.0071
787.1207	0.0447
787.2928	-0.0366
787.4649	0.0356
787.637	0.0026
787.8091	-0.0305
787.9811	0.0056
788.1532	-0.0073
788.3252	-0.0248
788.4972	-0.0078
788.6691	0.0247
788.8411	0.0106
789.013	0.0137
789.1849	-0.0073
789.3568	0.0028
789.5287	-0.0092
789.7005	0.0298
789.8723	-0.0576
790.0442	-0.0749
790.2159	-0.0355
790.3877	0.0264
790.5595	0.0483
790.7312	-0.026
790.9029	-0.0045
791.0746	-0.0072
791.2463	0.0062
791.4179	-0.0247
791.5896	-0.0545
791.7612	-0.0625
791.9328	0.002
792.1044	-0.0406
792.2759	0.0367
792.4474	-0.0517
792.619	0.0059
792.7905	0.0031
792.9619	0.0274
793.1334	-0.0385
793.3048	0.0179
793.4762	-0.0284
793.6476	-0.0078
793.819	-0.0424
793.9904	0.0104
794.1617	-0.0087
794.333	-0.0437
794.5043	0.0226
794.6756	0.022
794.8469	-0.0133
795.0181	0.0132
795.1893	-0.0502
795.3605	-0.0418
795.5317	0.0105
795.7029	0.028
795.874	-0.0289
796.0452	-0.0465
796.2163	0.003
796.3873	0.056
796.5584	-0.0224
796.7294	-0.0945
796.9005	-0.0535
797.0715	0.0296
797.2425	-0.0103
797.4134	-0.0005
797.5844	0.0248
797.7553	0.0338
797.9262	0.0051
798.0971	0.0289
798.2679	0.0204
798.4388	-0.0518
798.6096	-0.0752
798.7804	-0.0338
798.9512	0.0446
799.122	0.0218
799.2927	0.0153
799.4635	0.0196
799.6342	0.0186
799.8049	0.0352
799.9755	-0.0227
800.1462	0.0583
800.3168	-0.0548
800.4874	0.0484
800.658	0.0609
800.8286	0.0406
800.9991	0.1507
801.1696	-0.0281
801.3402	-0.0772
801.5106	-0.067
801.6811	-0.0356
801.8516	0.1058
802.022	0.0265
802.1924	-0.0149
802.3628	-0.0799
802.5332	-0.0551
802.7035	-0.0144
802.8739	0.0122
803.0442	0.0081
803.2145	0.0029
803.3847	-0.0924
803.555	0.0157
803.7252	0.006
803.8954	-0.0166
804.0656	0.0225
804.2358	-0.0385
804.4059	0.0404
804.5761	0.1169
804.7462	-0.0244
804.9163	-0.1211
805.0864	-0.0257
805.2564	0.02
805.4264	-0.0284
805.5965	0.0144
805.7665	0.0827
805.9364	-0.0806
806.1064	-0.0418
806.2763	0.0327
806.4462	0.0237
806.6161	-0.0032
806.786	0.0088
806.9559	0.0307
807.1257	-0.0478
807.2955	-0.0015
807.4653	-0.0782
807.6351	0.0036
807.8048	0.007
807.9746	-0.0415
808.1443	0.0298
808.314	0.0149
808.4837	-0.05
808.6533	0.0251
808.8229	-0.093
808.9926	0.0193
809.1622	-0.0333
809.3317	-0.0467
809.5013	0.1953
809.6708	0.0274
809.8403	0.0409
810.0098	0.108
810.1793	0.0774
810.3488	0.1034
810.5182	0.0364
810.6876	-0.0217
810.857	-0.096
811.0264	-0.113
811.1958	0.0041
811.3651	-0.0333
811.5344	-0.0762
811.7037	-0.0702
811.873	0.0464
812.0422	0.1196
812.2115	-0.0573
812.3807	0.0441
812.5499	0.179
812.7191	-0.0228
812.8882	-0.0104
813.0574	-0.0911
813.2265	-0.0482
813.3956	0.0631
813.5646	0.1098
813.7337	-0.1065
813.9027	-0.0362
814.0718	-0.0424
814.2407	-0.1208
814.4097	-0.0285
814.5787	0.0053
814.7476	0.1065
814.9165	-0.0101
815.0854	-0.0229
815.2543	0.0533
815.4232	-0.0114
815.592	0.1512
815.7608	-0.0745
815.9296	0.0328
816.0984	-0.0338
816.2671	-0.0889
816.4359	0.1968
816.6046	0.0453
816.7733	-0.0671
816.942	0.0578
817.1106	-0.2291
817.2793	-0.0154
817.4479	-0.0805
817.6165	-0.0452
817.785	-0.0276
817.9536	0.0704
818.1221	0.0711
818.2906	0.0527
818.4591	-0.0035
818.6276	0.0429
818.7961	-0.0124
818.9645	0.0757
819.1329	0.3199
819.3013	-0.0406
819.4697	0.0397
819.638	-0.0068
819.8064	-0.1112
819.9747	-0.0735
820.143	0.089
820.3113	0.1382
820.4795	0.1392
820.6477	0.0383
820.816	-0.0283
820.9842	-0.1162
821.1523	0.1307
821.3205	-0.0332
821.4886	-0.0105
821.6567	-0.0502
821.8248	-0.0073
821.9929	-0.0826
822.1609	0.0421
822.329	0.0938
822.497	0.0105
822.665	0.0383
822.833	-0.1079
823.0009	-0.0729
823.1688	-0.0855
823.3367	-0.0084
823.5046	0.0478
823.6725	0.0185
823.8404	-0.0238
824.0082	-0.0462
824.176	-0.0538
824.3438	0.0438
824.5116	0.1863
824.6793	-0.0879
824.847	-0.1305
825.0147	0.2555
825.1824	0.0999
825.3501	0.3831
825.5177	0.0765
825.6854	0.0718
825.853	-0.0456
826.0206	-0.2065
826.1881	0.0146
826.3557	0.1023
826.5232	0.062
826.6907	0.0127
826.8582	-0.1517
827.0257	-0.1679
827.1931	0.125
827.3605	-0.2099
827.528	0.0661
827.6953	0.2242
827.8627	0.0846
828.03	0.059
828.1974	-0.07
828.3647	0.0641
828.532	0.199
828.6992	0.0051
828.8665	0.2366
829.0337	0.2708
829.2009	-0.0456
829.3681	0.0171
829.5352	0.0517
829.7024	0.204
829.8695	0.1556
830.0366	0.2589
830.2037	-0.0444
830.3707	-0.124
830.5378	0.0521
830.7048	-0.0491
830.8718	0.1351
831.0388	0.2252
831.2057	-0.1647
831.3727	0.1251
831.5396	-0.1624
831.7065	0.1456
831.8734	-0.4288
832.0402	0.1411
832.2071	-0.0527
832.3739	-0.084
832.5407	-0
832.7075	-0.0518
832.8742	0.4796
833.041	-0.1727
833.2077	-0.0134
833.3744	-0.0665
833.541	-0.1483
833.7077	-0.0289
833.8743	0.1888
834.0409	0.0913
834.2075	-0.1075
834.3741	0.0588
834.5407	-0.3894
834.7072	0.0818
834.8737	0.4371
835.0402	-0.314
835.2067	0.1523
835.3731	0.1835
835.5395	0.0577
835.706	-0.1481
835.8723	-0.1496
836.0387	0.4052
836.2051	0.1371
836.3714	-0.307
836.5377	-0.1707
836.704	0.0965
836.8703	-0.0527
837.0365	0.3176
837.2027	-0.1481
837.3689	0.13
837.5351	-0.2371
837.7013	-0.122
837.8674	-0
838.0335	-0.1249
838.1997	0.2084
838.3657	-0
838.5318	-0.4757
838.6978	-0
838.8639	0.2455
839.0299	0.1942
839.1958	0.0362
839.3618	0.1783
839.5277	-0.1953
839.6937	-0.2208
839.8596	-0.175
840.0254	0.1924
840.1913	0.5708
840.3571	0.6239
840.523	-0.1022
840.6888	-0.157
840.8545	-0.1822
841.0203	-0.1154
841.186	0.6058
841.3517	0.0866
841.5174	0.2023
841.6831	0.2611
841.8488	0.2569
842.0144	-0.003
842.18	0.1945
842.3456	0.0503
842.5112	0.0394
842.6767	-0.1785
842.8422	-0.0536
843.0077	0.4787
843.1732	0.0989
843.3387	0.8204
843.5042	-0
843.6696	-0.2052
843.835	-0.3158
844.0004	0.2754
844.1657	-0.3198
844.3311	-0.2673
844.4964	0.2385
844.6617	-0
844.827	0.4028
844.9923	-0.0033
845.1575	-0
845.3227	0.0539
845.4879	0.0255
845.6531	-0.2048
845.8183	0.3732
845.9834	-0.6235
846.1485	-0.3617
846.3136	0.1375
846.4787	-0.3226
846.6438	0.6318
846.8088	-1.5432
846.9738	0.1201
847.1388	-0.0089
847.3038	0.9704
847.4687	-0
847.6337	-0.1879
847.7986	0.5892
847.9635	-0.1586
848.1284	-0.1116
848.2932	-0.6378
848.458	0.291
848.6228	0.0226
848.7876	-0.1249
848.9524	0.3992
849.1172	0.4808
849.2819	1.0925
849.4466	-0
849.6113	-0.2238
849.7759	-0
849.9406	0.399
850.1052	0.1369
850.2698	-1.2184
850.4344	0.1013
850.599	0.698
850.7635	0.2085
850.928	0.2599
851.0925	-0.0391
851.257	-0.6462
851.4215	-0.3546
851.5859	-0.06
851.7503	-0
851.9147	-0
852.0791	-0.2249
852.2434	-0.0687
852.4078	-0
852.5721	0.0989
852.7364	0.1881
852.9007	0.3493
853.0649	0.019
853.2291	-0.1469
853.3934	0.1736
853.5575	0.4802
853.7217	-0.6176
853.8859	0.7128
854.05	-0.8441
854.2141	-0
854.3782	0.8818
854.5423	-0.9725
854.7063	0.1075
854.8703	0.0338
855.0343	-0.0318
855.1983	-0.4233
855.3623	0.0297
855.5262	-0.4748
855.6901	0.4225
855.854	-0.0253
856.0179	-0
856.1818	-0.7618
856.3456	-0
856.5094	-0
856.6732	-0
856.837	0.577
857.0008	-0
857.1645	-0
857.3282	-0.3527
857.4919	-0.02
857.6556	1.3393
857.8192	-0.382
857.9828	-0.24
858.1465	0.4513
858.31	-0
858.4736	0.3454
858.6372	-0.2428
858.8007	-0.7505
858.9642	0.1414
859.1277	-0.7475
859.2911	0.333
859.4546	-0
859.618	-0.2362
859.7814	-0.4912
859.9448	0.8008
860.1081	-0
860.2715	-0
860.4348	0.3808
860.5981	-0
860.7614	-0.1109
860.9246	-0.2272
861.0879	-0.1615
861.2511	-0
861.4143	-0
861.5774	0.3129
861.7406	1.2272
861.9037	0.3643
862.0668	-0.8369
862.2299	-2.2981
862.393	-0
862.556	-0
862.7191	0.6644
862.8821	-0.0162
863.0451	1.1935
863.208	-0.4446
863.371	-0
863.5339	-0.2782
863.6968	-0.2673
863.8597	-0
864.0225	-0.0549
864.1854	0.0409
864.3482	-0
864.511	-0.3395
864.6737	-0
864.8365	0.0462
864.9992	-0.2768
865.1619	-0.2101
865.3246	-0.3101
865.4873	-1.0404
865.65	-1.1477
865.8126	-0.2477
865.9752	-0.285
866.1378	-0.0775
866.3004	0.035
866.4629	-0.0176
866.6254	-0
866.7879	0.1072
866.9504	-0
867.1129	-0.0808
867.2753	-0.1097
867.4377	0.5275
867.6001	-0
867.7625	0.1567
867.9249	0.0605
868.0872	0.1207
868.2495	-0
868.4118	-0.303
868.5741	1.0925
868.7363	-0
868.8986	-0
869.0608	0.2468
869.223	0.5551
869.3851	-0
869.5473	-1.624
869.7094	0.0445
869.8715	-0
870.0336	-0.028
870.1957	-0
870.3577	0.3178
870.5197	-0.1429
870.6817	-0
870.8437	0.3006
871.0057	-0
871.1676	0.1775
871.3295	-0
871.4914	-0.1077
871.6533	-0.1049
871.8151	-0
871.977	0.2204
872.1388	-0.9141
872.3006	-0.0193
872.4623	-0.674
872.6241	-1.7684
872.7858	-0
872.9475	-1.0312
873.1092	0.0781
873.2709	0.2752
873.4325	-0
873.5941	-1.1477
873.7557	-0
873.9173	-0
874.0789	-0.0995
874.2404	-0.3541
874.4019	0.0136
874.5634	0.0085
874.7249	1.2272
874.8863	-0
875.0478	-0.1095
875.2092	-0.0611
875.3706	-0.3311
875.5319	0.3674
875.6933	1.1804
875.8546	0.0659
876.0159	0.574
876.1772	0.9165
876.3385	-0.3496
876.4997	-0.5179
876.6609	-1.0498
876.8221	-0
876.9833	0.0307
877.1445	-0.1119
877.3056	0.2359
877.4667	-0
877.6278	-0.0996
877.7889	-0
877.9499	-0
878.111	0.0584
878.272	-0.6135
878.433	-0.5058
878.5939	0.6846
878.7549	-0
878.9158	-0.1849
879.0767	-0
879.2376	-0.4402
879.3984	-0
879.5593	-0.049
879.7201	-0.0325
879.8809	-0
880.0417	0.1748
880.2024	-0.0236
880.3632	-0.3807
880.5239	-0.1294
880.6846	-0.3049
880.8452	-0
881.0059	-0.7618
881.1665	0.4495
881.3271	1.1199
881.4877	-0.0047
881.6483	-1.4739
881.8088	0.4095
881.9693	0.5313
882.1298	0.5313
882.2903	0.5313
