Data from D4ACN5uM480nmA_Absorbance_12-08-00-070.txt Node
Date: Fri Feb 21 12:08:00 GMT 2025
User: LASERRRRR
Spectrometer: FLMT03099
Trigger mode: 0
Integration Time (sec): 1.500000E-2
Scans to average: 1
Electric dark correction enabled: true
Nonlinearity correction enabled: false
Boxcar width: 0
XAxis mode: Wavelengths
Number of Pixels in Spectrum: 3648
>>>>>Begin Spectral Data<<<<<
179.3399	-0.0041
179.5586	-0.0041
179.7771	-0.0041
179.9957	0.683
180.2143	-0
180.4329	-0.0041
180.6514	0.0555
180.8699	-0.3227
181.0885	-0
181.307	-0.0839
181.5255	0.0929
181.744	-0.6469
181.9625	0.596
182.181	0.5171
182.3994	0.0669
182.6179	-0.8403
182.8363	0.1406
183.0547	-0
183.2732	0.3052
183.4916	0.2882
183.71	0.2761
183.9284	0.3423
184.1467	-0.065
184.3651	0.3831
184.5835	0.0327
184.8018	0.1589
185.0201	0.1041
185.2385	0.0373
185.4568	0.1152
185.6751	0.2993
185.8934	0.2344
186.1117	0.0883
186.3299	0.2
186.5482	0.153
186.7664	0.1629
186.9847	0.1775
187.2029	0.3777
187.4211	0.2086
187.6393	0.2963
187.8575	-0.0816
188.0757	1.023
188.2939	0.1235
188.512	0.379
188.7302	0.0785
188.9483	0.8537
189.1665	0.5189
189.3846	0.2304
189.6027	-0.0792
189.8208	0.2512
190.0389	0.3898
190.257	0.1619
190.475	0.2199
190.6931	0.0837
190.9111	0.4542
191.1292	0.387
191.3472	0.2899
191.5652	0.5622
191.7832	0.1579
192.0012	0.3682
192.2192	0.1111
192.4371	0.3758
192.6551	0.3146
192.873	0.4153
193.091	0.251
193.3089	0.2632
193.5268	0.3076
193.7447	0.3549
193.9626	0.3747
194.1805	0.3692
194.3984	0.3481
194.6162	0.5682
194.8341	0.6221
195.0519	0.4673
195.2697	0.5928
195.4875	0.5553
195.7054	0.6997
195.9231	0.3486
196.1409	0.4641
196.3587	0.509
196.5765	0.5418
196.7942	0.625
197.012	0.5415
197.2297	0.5252
197.4474	0.6848
197.6651	0.5746
197.8828	0.871
198.1005	0.6322
198.3182	0.5365
198.5358	0.6089
198.7535	0.5806
198.9711	0.627
199.1888	0.5983
199.4064	0.5171
199.624	0.5638
199.8416	0.5474
200.0592	0.5669
200.2767	0.5832
200.4943	0.5798
200.7119	0.6543
200.9294	0.6076
201.1469	0.6681
201.3645	0.6008
201.582	0.4902
201.7995	0.5927
202.017	0.54
202.2344	0.5573
202.4519	0.5682
202.6694	0.5518
202.8868	0.5505
203.1042	0.5286
203.3217	0.5073
203.5391	0.5188
203.7565	0.515
203.9739	0.5041
204.1913	0.5147
204.4086	0.522
204.626	0.5074
204.8433	0.4698
205.0607	0.4995
205.278	0.4975
205.4953	0.4672
205.7126	0.4959
205.9299	0.4638
206.1472	0.4796
206.3644	0.5001
206.5817	0.4424
206.7989	0.5003
207.0162	0.4397
207.2334	0.4404
207.4506	0.4209
207.6678	0.4231
207.885	0.4321
208.1022	0.4208
208.3194	0.4692
208.5365	0.4386
208.7537	0.4719
208.9708	0.4855
209.1879	0.411
209.405	0.4379
209.6222	0.4118
209.8392	0.4335
210.0563	0.4487
210.2734	0.3916
210.4905	0.4319
210.7075	0.4313
210.9245	0.4006
211.1416	0.4082
211.3586	0.4078
211.5756	0.4197
211.7926	0.405
212.0096	0.4043
212.2265	0.4291
212.4435	0.4278
212.6604	0.4287
212.8774	0.42
213.0943	0.4402
213.3112	0.4142
213.5281	0.4242
213.745	0.4066
213.9619	0.394
214.1788	0.4176
214.3956	0.4064
214.6125	0.3982
214.8293	0.422
215.0461	0.4195
215.2629	0.4083
215.4798	0.3942
215.6965	0.3817
215.9133	0.4321
216.1301	0.4054
216.3469	0.3804
216.5636	0.4158
216.7803	0.3792
216.9971	0.4067
217.2138	0.4072
217.4305	0.4093
217.6472	0.4163
217.8639	0.3967
218.0805	0.4116
218.2972	0.4168
218.5138	0.4239
218.7305	0.4072
218.9471	0.4061
219.1637	0.4109
219.3803	0.4273
219.5969	0.4315
219.8135	0.4234
220.0301	0.4337
220.2466	0.4284
220.4632	0.435
220.6797	0.4204
220.8962	0.441
221.1127	0.4068
221.3292	0.4556
221.5457	0.4204
221.7622	0.4423
221.9787	0.4388
222.1951	0.4314
222.4116	0.4497
222.628	0.4461
222.8444	0.4399
223.0608	0.4289
223.2772	0.4613
223.4936	0.4436
223.71	0.4495
223.9264	0.4445
224.1427	0.4628
224.3591	0.4721
224.5754	0.4549
224.7917	0.4606
225.008	0.4666
225.2243	0.4622
225.4406	0.4673
225.6569	0.4723
225.8732	0.4644
226.0894	0.482
226.3057	0.4514
226.5219	0.4628
226.7381	0.4651
226.9543	0.4747
227.1705	0.4728
227.3867	0.5078
227.6029	0.4828
227.8191	0.4893
228.0352	0.4955
228.2513	0.5024
228.4675	0.4933
228.6836	0.4978
228.8997	0.4855
229.1158	0.4822
229.3319	0.4984
229.548	0.5019
229.764	0.5039
229.9801	0.5034
230.1961	0.5075
230.4121	0.5047
230.6282	0.5055
230.8442	0.5098
231.0602	0.5306
231.2761	0.5141
231.4921	0.5242
231.7081	0.5173
231.924	0.5177
232.14	0.5157
232.3559	0.5304
232.5718	0.533
232.7877	0.5351
233.0036	0.5123
233.2195	0.5213
233.4353	0.5426
233.6512	0.5437
233.867	0.5283
234.0829	0.5322
234.2987	0.5306
234.5145	0.5384
234.7303	0.5331
234.9461	0.5312
235.1619	0.5308
235.3776	0.5347
235.5934	0.5313
235.8091	0.5209
236.0249	0.5352
236.2406	0.5239
236.4563	0.5429
236.672	0.5359
236.8877	0.5419
237.1034	0.5303
237.319	0.5391
237.5347	0.5262
237.7503	0.538
237.966	0.54
238.1816	0.539
238.3972	0.5381
238.6128	0.5475
238.8284	0.5419
239.0439	0.5295
239.2595	0.5279
239.475	0.5245
239.6906	0.5292
239.9061	0.5225
240.1216	0.5373
240.3371	0.5254
240.5526	0.5136
240.7681	0.5233
240.9836	0.5185
241.199	0.5119
241.4145	0.4952
241.6299	0.5092
241.8453	0.5027
242.0607	0.4829
242.2761	0.4838
242.4915	0.4701
242.7069	0.4662
242.9223	0.4539
243.1376	0.4429
243.353	0.4507
243.5683	0.4344
243.7836	0.4198
243.9989	0.4216
244.2142	0.4116
244.4295	0.4077
244.6448	0.4025
244.86	0.391
245.0753	0.376
245.2905	0.3746
245.5057	0.3684
245.721	0.3525
245.9362	0.3499
246.1514	0.3429
246.3665	0.3379
246.5817	0.3346
246.7969	0.3143
247.012	0.3323
247.2271	0.3073
247.4423	0.3063
247.6574	0.3101
247.8725	0.3066
248.0876	0.2941
248.3026	0.2916
248.5177	0.2726
248.7328	0.2841
248.9478	0.2696
249.1628	0.2613
249.3779	0.2656
249.5929	0.2654
249.8079	0.2579
250.0228	0.2488
250.2378	0.2481
250.4528	0.2495
250.6677	0.2429
250.8827	0.2417
251.0976	0.2415
251.3125	0.2396
251.5274	0.2315
251.7423	0.2266
251.9572	0.2242
252.172	0.2169
252.3869	0.2195
252.6017	0.2216
252.8166	0.2164
253.0314	0.2211
253.2462	0.2183
253.461	0.2108
253.6758	0.213
253.8906	0.2021
254.1053	0.2066
254.3201	0.2017
254.5348	0.2077
254.7496	0.2033
254.9643	0.2071
255.179	0.2055
255.3937	0.2006
255.6083	0.2007
255.823	0.2028
256.0377	0.2007
256.2523	0.1984
256.467	0.1958
256.6816	0.2051
256.8962	0.198
257.1108	0.1947
257.3254	0.1934
257.54	0.1893
257.7545	0.1931
257.9691	0.1934
258.1836	0.195
258.3981	0.1908
258.6127	0.1856
258.8272	0.1897
259.0417	0.1833
259.2561	0.187
259.4706	0.1897
259.6851	0.1865
259.8995	0.1794
260.114	0.1857
260.3284	0.1812
260.5428	0.18
260.7572	0.1869
260.9716	0.1814
261.186	0.1826
261.4003	0.182
261.6147	0.1835
261.829	0.1795
262.0433	0.1839
262.2577	0.1859
262.472	0.184
262.6863	0.187
262.9005	0.1891
263.1148	0.1783
263.3291	0.179
263.5433	0.1891
263.7576	0.1753
263.9718	0.1884
264.186	0.1901
264.4002	0.1821
264.6144	0.1885
264.8286	0.197
265.0427	0.1863
265.2569	0.1893
265.471	0.185
265.6851	0.1851
265.8993	0.183
266.1134	0.1867
266.3275	0.1833
266.5415	0.1845
266.7556	0.1801
266.9697	0.1806
267.1837	0.1845
267.3978	0.1899
267.6118	0.1929
267.8258	0.1868
268.0398	0.1798
268.2538	0.1854
268.4677	0.1837
268.6817	0.1768
268.8957	0.1782
269.1096	0.1762
269.3235	0.1865
269.5374	0.1831
269.7514	0.1828
269.9652	0.1846
270.1791	0.1762
270.393	0.1823
270.6068	0.1711
270.8207	0.1795
271.0345	0.1702
271.2483	0.1837
271.4622	0.1768
271.676	0.1732
271.8897	0.1712
272.1035	0.1756
272.3173	0.1708
272.531	0.1723
272.7448	0.1642
272.9585	0.1751
273.1722	0.1725
273.3859	0.1688
273.5996	0.1699
273.8133	0.1736
274.0269	0.1787
274.2406	0.1701
274.4542	0.1706
274.6679	0.1711
274.8815	0.1658
275.0951	0.1748
275.3087	0.1781
275.5223	0.1726
275.7358	0.1798
275.9494	0.1686
276.1629	0.1665
276.3765	0.1721
276.59	0.1803
276.8035	0.1786
277.017	0.1754
277.2305	0.1693
277.444	0.1747
277.6574	0.1781
277.8709	0.1767
278.0843	0.1782
278.2978	0.1805
278.5112	0.1778
278.7246	0.1736
278.938	0.1776
279.1513	0.1798
279.3647	0.1767
279.5781	0.1777
279.7914	0.1823
280.0047	0.1755
280.2181	0.1835
280.4314	0.1852
280.6447	0.1817
280.8579	0.1862
281.0712	0.184
281.2845	0.1831
281.4977	0.1844
281.711	0.1803
281.9242	0.188
282.1374	0.1802
282.3506	0.1846
282.5638	0.1836
282.7769	0.182
282.9901	0.1825
283.2033	0.1919
283.4164	0.185
283.6295	0.1835
283.8426	0.1839
284.0557	0.1814
284.2688	0.1892
284.4819	0.1928
284.695	0.1909
284.908	0.1925
285.1211	0.1871
285.3341	0.2001
285.5471	0.1961
285.7601	0.1929
285.9731	0.1922
286.1861	0.1888
286.3991	0.1985
286.612	0.1954
286.825	0.1897
287.0379	0.1991
287.2508	0.1955
287.4637	0.1944
287.6766	0.1927
287.8895	0.1962
288.1024	0.1971
288.3152	0.2014
288.5281	0.1998
288.7409	0.1994
288.9538	0.1959
289.1666	0.1991
289.3794	0.2006
289.5922	0.1952
289.8049	0.2046
290.0177	0.1999
290.2304	0.2045
290.4432	0.2018
290.6559	0.1947
290.8686	0.2008
291.0813	0.2004
291.294	0.2002
291.5067	0.2011
291.7194	0.2031
291.932	0.2026
292.1447	0.2019
292.3573	0.2055
292.5699	0.2
292.7825	0.199
292.9951	0.2012
293.2077	0.2013
293.4203	0.2029
293.6328	0.1998
293.8454	0.204
294.0579	0.2071
294.2704	0.1993
294.4829	0.1974
294.6954	0.1993
294.9079	0.1992
295.1204	0.195
295.3328	0.2004
295.5453	0.1992
295.7577	0.1985
295.9701	0.1984
296.1825	0.1981
296.3949	0.2083
296.6073	0.1996
296.8197	0.2057
297.0321	0.2
297.2444	0.2015
297.4567	0.1985
297.6691	0.1993
297.8814	0.1975
298.0937	0.2011
298.306	0.1973
298.5182	0.1975
298.7305	0.2009
298.9428	0.1998
299.155	0.1968
299.3672	0.2051
299.5794	0.1973
299.7916	0.1998
300.0038	0.1979
300.216	0.1993
300.4282	0.1946
300.6403	0.1966
300.8525	0.2047
301.0646	0.196
301.2767	0.1945
301.4888	0.196
301.7009	0.1977
301.913	0.2009
302.125	0.1943
302.3371	0.1982
302.5491	0.1983
302.7612	0.1994
302.9732	0.1971
303.1852	0.2011
303.3972	0.1948
303.6092	0.1948
303.8211	0.1913
304.0331	0.1933
304.245	0.1964
304.457	0.1963
304.6689	0.1955
304.8808	0.1905
305.0927	0.1954
305.3046	0.1836
305.5164	0.1864
305.7283	0.1889
305.9401	0.1848
306.152	0.1783
306.3638	0.1799
306.5756	0.1855
306.7874	0.1782
306.9992	0.1811
307.2109	0.1749
307.4227	0.1763
307.6344	0.1756
307.8462	0.1728
308.0579	0.1688
308.2696	0.1647
308.4813	0.1655
308.693	0.1639
308.9046	0.1624
309.1163	0.1603
309.328	0.1523
309.5396	0.1572
309.7512	0.1545
309.9628	0.1514
310.1744	0.1522
310.386	0.1459
310.5976	0.1439
310.8091	0.1521
311.0207	0.1482
311.2322	0.1523
311.4437	0.1404
311.6552	0.1427
311.8667	0.1361
312.0782	0.1428
312.2897	0.1382
312.5012	0.1369
312.7126	0.1327
312.924	0.1376
313.1355	0.1265
313.3469	0.1259
313.5583	0.127
313.7696	0.1245
313.981	0.1257
314.1924	0.1281
314.4037	0.1267
314.6151	0.1306
314.8264	0.1284
315.0377	0.1269
315.249	0.1224
315.4603	0.1235
315.6716	0.1203
315.8828	0.1225
316.0941	0.1202
316.3053	0.1188
316.5165	0.1193
316.7277	0.1249
316.9389	0.12
317.1501	0.119
317.3613	0.1158
317.5724	0.1208
317.7836	0.1206
317.9947	0.1154
318.2058	0.1193
318.417	0.1187
318.6281	0.113
318.8391	0.1195
319.0502	0.1188
319.2613	0.1144
319.4723	0.1177
319.6834	0.1191
319.8944	0.1248
320.1054	0.1184
320.3164	0.1172
320.5274	0.114
320.7383	0.1122
320.9493	0.1186
321.1602	0.1173
321.3712	0.1187
321.5821	0.1207
321.793	0.1141
322.0039	0.1175
322.2148	0.1162
322.4257	0.1192
322.6365	0.1139
322.8474	0.1136
323.0582	0.1185
323.269	0.114
323.4798	0.1204
323.6906	0.1174
323.9014	0.1159
324.1122	0.1132
324.3229	0.1239
324.5337	0.1198
324.7444	0.1115
324.9551	0.1158
325.1658	0.1166
325.3765	0.1203
325.5872	0.1196
325.7979	0.1179
326.0085	0.1199
326.2192	0.1182
326.4298	0.1163
326.6404	0.1162
326.851	0.1202
327.0616	0.119
327.2722	0.1273
327.4828	0.1181
327.6933	0.1202
327.9039	0.1226
328.1144	0.1186
328.3249	0.1256
328.5354	0.1221
328.7459	0.124
328.9564	0.1263
329.1669	0.1206
329.3773	0.1193
329.5878	0.1211
329.7982	0.1248
330.0086	0.1205
330.219	0.122
330.4294	0.1267
330.6398	0.1237
330.8502	0.1203
331.0605	0.1267
331.2708	0.1241
331.4812	0.1241
331.6915	0.1157
331.9018	0.1222
332.1121	0.1304
332.3224	0.1287
332.5326	0.1258
332.7429	0.1189
332.9531	0.1278
333.1633	0.1288
333.3735	0.1232
333.5837	0.1274
333.7939	0.1246
334.0041	0.1254
334.2143	0.1231
334.4244	0.1267
334.6346	0.121
334.8447	0.1249
335.0548	0.1276
335.2649	0.1267
335.475	0.1265
335.685	0.1226
335.8951	0.1325
336.1051	0.1322
336.3152	0.1271
336.5252	0.1265
336.7352	0.1247
336.9452	0.1281
337.1552	0.1286
337.3652	0.1262
337.5751	0.1217
337.7851	0.1256
337.995	0.13
338.2049	0.1361
338.4148	0.1294
338.6247	0.1237
338.8346	0.1314
339.0445	0.1304
339.2543	0.1353
339.4642	0.1363
339.674	0.1332
339.8838	0.1355
340.0936	0.1326
340.3034	0.1378
340.5132	0.1335
340.7229	0.1383
340.9327	0.1378
341.1424	0.1337
341.3522	0.1413
341.5619	0.1356
341.7716	0.1333
341.9813	0.138
342.1909	0.1466
342.4006	0.1429
342.6102	0.1434
342.8199	0.1341
343.0295	0.1382
343.2391	0.1359
343.4487	0.1436
343.6583	0.1455
343.8679	0.1417
344.0774	0.1438
344.287	0.1425
344.4965	0.1477
344.706	0.1453
344.9155	0.1449
345.125	0.1453
345.3345	0.145
345.544	0.1497
345.7534	0.1532
345.9629	0.1483
346.1723	0.1487
346.3817	0.1504
346.5911	0.1515
346.8005	0.1535
347.0099	0.1518
347.2193	0.1507
347.4286	0.1577
347.638	0.1524
347.8473	0.1503
348.0566	0.1586
348.2659	0.1481
348.4752	0.1589
348.6845	0.164
348.8937	0.156
349.103	0.153
349.3122	0.1642
349.5214	0.1635
349.7306	0.1611
349.9398	0.1646
350.149	0.1685
350.3582	0.1585
350.5674	0.1657
350.7765	0.1649
350.9856	0.1659
351.1948	0.1637
351.4039	0.1675
351.613	0.1712
351.822	0.1662
352.0311	0.1594
352.2402	0.1735
352.4492	0.1713
352.6582	0.1669
352.8672	0.1734
353.0762	0.1679
353.2852	0.1732
353.4942	0.1816
353.7032	0.1695
353.9121	0.1734
354.1211	0.1724
354.33	0.1882
354.5389	0.1781
354.7478	0.1761
354.9567	0.1814
355.1655	0.1713
355.3744	0.1823
355.5833	0.1825
355.7921	0.1828
356.0009	0.1844
356.2097	0.1845
356.4185	0.1906
356.6273	0.1808
356.8361	0.1917
357.0448	0.1889
357.2536	0.185
357.4623	0.1824
357.671	0.188
357.8797	0.1943
358.0884	0.1882
358.2971	0.1956
358.5057	0.1946
358.7144	0.193
358.923	0.2007
359.1316	0.1863
359.3402	0.2026
359.5488	0.1961
359.7574	0.1943
359.966	0.2025
360.1746	0.1975
360.3831	0.2079
360.5916	0.203
360.8002	0.2077
361.0087	0.2107
361.2172	0.2115
361.4256	0.1994
361.6341	0.2116
361.8426	0.2127
362.051	0.2156
362.2594	0.2213
362.4678	0.2147
362.6762	0.214
362.8846	0.2208
363.093	0.2228
363.3014	0.2222
363.5097	0.2151
363.718	0.2277
363.9264	0.2203
364.1347	0.2268
364.343	0.2336
364.5513	0.2304
364.7595	0.2384
364.9678	0.2268
365.176	0.2279
365.3842	0.224
365.5925	0.2296
365.8007	0.2375
366.0089	0.2343
366.217	0.2405
366.4252	0.2397
366.6333	0.2377
366.8415	0.2405
367.0496	0.2439
367.2577	0.242
367.4658	0.2517
367.6739	0.2333
367.882	0.2481
368.09	0.2502
368.2981	0.2359
368.5061	0.2501
368.7141	0.251
368.9221	0.2468
369.1301	0.2565
369.3381	0.2666
369.5461	0.2537
369.754	0.2508
369.962	0.258
370.1699	0.2628
370.3778	0.2589
370.5857	0.2621
370.7936	0.2577
371.0015	0.2548
371.2093	0.2592
371.4172	0.2609
371.625	0.2618
371.8328	0.2693
372.0406	0.2514
372.2484	0.2561
372.4562	0.2609
372.664	0.2679
372.8717	0.2651
373.0795	0.2644
373.2872	0.2701
373.4949	0.2781
373.7026	0.2815
373.9103	0.2682
374.118	0.2733
374.3256	0.2774
374.5333	0.2675
374.7409	0.2667
374.9485	0.2731
375.1561	0.2829
375.3637	0.2619
375.5713	0.2746
375.7789	0.2761
375.9864	0.2852
376.194	0.2819
376.4015	0.2824
376.609	0.2866
376.8165	0.2895
377.024	0.2882
377.2315	0.2929
377.4389	0.2735
377.6464	0.2856
377.8538	0.2836
378.0612	0.2828
378.2686	0.2937
378.476	0.2889
378.6834	0.2875
378.8908	0.2898
379.0981	0.3038
379.3055	0.301
379.5128	0.2948
379.7201	0.2955
379.9274	0.2936
380.1347	0.2911
380.342	0.3026
380.5492	0.2937
380.7565	0.303
380.9637	0.301
381.1709	0.2963
381.3781	0.3017
381.5853	0.3028
381.7925	0.3098
381.9997	0.3052
382.2068	0.3026
382.4139	0.3048
382.6211	0.3125
382.8282	0.3007
383.0353	0.3077
383.2424	0.3045
383.4494	0.3207
383.6565	0.3002
383.8635	0.3178
384.0706	0.3091
384.2776	0.3225
384.4846	0.3178
384.6916	0.3112
384.8986	0.3144
385.1055	0.321
385.3125	0.3169
385.5194	0.312
385.7263	0.3074
385.9333	0.3239
386.1402	0.3167
386.347	0.3079
386.5539	0.3146
386.7608	0.3192
386.9676	0.3098
387.1744	0.3149
387.3813	0.3158
387.5881	0.3175
387.7948	0.3147
388.0016	0.3236
388.2084	0.318
388.4151	0.312
388.6219	0.3072
388.8286	0.3146
389.0353	0.3104
389.242	0.3181
389.4487	0.3066
389.6553	0.3085
389.862	0.3127
390.0686	0.3063
390.2753	0.2976
390.4819	0.3144
390.6885	0.2966
390.8951	0.3131
391.1016	0.3069
391.3082	0.3009
391.5147	0.2985
391.7213	0.3067
391.9278	0.3021
392.1343	0.2996
392.3408	0.2876
392.5473	0.2926
392.7537	0.3022
392.9602	0.2903
393.1666	0.2972
393.373	0.3005
393.5794	0.2824
393.7858	0.2886
393.9922	0.285
394.1986	0.2793
394.4049	0.2841
394.6113	0.2865
394.8176	0.2736
395.0239	0.2872
395.2302	0.2666
395.4365	0.2832
395.6428	0.2769
395.8491	0.2731
396.0553	0.2768
396.2615	0.2724
396.4678	0.2707
396.674	0.2778
396.8802	0.2684
397.0863	0.266
397.2925	0.2742
397.4987	0.2729
397.7048	0.2753
397.9109	0.2786
398.117	0.2724
398.3231	0.2734
398.5292	0.2802
398.7353	0.2591
398.9413	0.2637
399.1474	0.2718
399.3534	0.2749
399.5594	0.2738
399.7654	0.2668
399.9714	0.2684
400.1774	0.2569
400.3833	0.2735
400.5893	0.2597
400.7952	0.2776
401.0011	0.267
401.207	0.2706
401.4129	0.2662
401.6188	0.27
401.8247	0.2695
402.0305	0.2607
402.2364	0.2747
402.4422	0.2685
402.648	0.2613
402.8538	0.2732
403.0596	0.2642
403.2654	0.2675
403.4711	0.2672
403.6768	0.2692
403.8826	0.2672
404.0883	0.2586
404.294	0.2762
404.4997	0.2657
404.7054	0.2634
404.911	0.2607
405.1167	0.2752
405.3223	0.278
405.5279	0.2693
405.7335	0.2577
405.9391	0.2686
406.1447	0.2663
406.3502	0.2652
406.5558	0.2729
406.7613	0.2592
406.9668	0.2642
407.1724	0.2645
407.3778	0.2647
407.5833	0.268
407.7888	0.2726
407.9942	0.261
408.1997	0.2753
408.4051	0.2793
408.6105	0.2692
408.8159	0.2704
409.0213	0.2742
409.2267	0.2656
409.432	0.2708
409.6374	0.2738
409.8427	0.267
410.048	0.2617
410.2533	0.2584
410.4586	0.2721
410.6639	0.259
410.8691	0.2758
411.0744	0.2628
411.2796	0.2736
411.4848	0.268
411.69	0.2647
411.8952	0.2657
412.1004	0.2755
412.3056	0.2679
412.5107	0.2685
412.7158	0.2657
412.921	0.2696
413.1261	0.2771
413.3312	0.2572
413.5362	0.2668
413.7413	0.2595
413.9464	0.2665
414.1514	0.2672
414.3564	0.2625
414.5614	0.2566
414.7664	0.266
414.9714	0.2652
415.1764	0.2618
415.3813	0.2501
415.5863	0.2577
415.7912	0.2596
415.9961	0.2579
416.201	0.2684
416.4059	0.2583
416.6108	0.2508
416.8156	0.246
417.0205	0.2634
417.2253	0.2575
417.4301	0.2674
417.6349	0.2626
417.8397	0.2714
418.0445	0.259
418.2492	0.2703
418.454	0.2582
418.6587	0.2575
418.8634	0.2527
419.0681	0.2582
419.2728	0.2458
419.4775	0.2534
419.6822	0.246
419.8868	0.2525
420.0915	0.2635
420.2961	0.2518
420.5007	0.255
420.7053	0.2598
420.9099	0.241
421.1144	0.2441
421.319	0.2412
421.5235	0.2483
421.728	0.2424
421.9325	0.2465
422.137	0.2405
422.3415	0.2277
422.546	0.2378
422.7504	0.2473
422.9549	0.2337
423.1593	0.2429
423.3637	0.2412
423.5681	0.2351
423.7725	0.2348
423.9769	0.2382
424.1812	0.233
424.3856	0.2366
424.5899	0.2357
424.7942	0.2227
424.9985	0.2269
425.2028	0.2224
425.4071	0.2198
425.6113	0.2309
425.8156	0.2245
426.0198	0.2301
426.224	0.2323
426.4282	0.232
426.6324	0.2169
426.8366	0.2179
427.0407	0.2127
427.2449	0.219
427.449	0.2246
427.6531	0.2139
427.8572	0.2159
428.0613	0.206
428.2654	0.2216
428.4694	0.2077
428.6735	0.2082
428.8775	0.2079
429.0815	0.2019
429.2855	0.1991
429.4895	0.1987
429.6935	0.1969
429.8975	0.1995
430.1014	0.2001
430.3053	0.1958
430.5093	0.2043
430.7132	0.1982
430.9171	0.1905
431.1209	0.1973
431.3248	0.1832
431.5286	0.1727
431.7325	0.1927
431.9363	0.1842
432.1401	0.1739
432.3439	0.1796
432.5477	0.1717
432.7514	0.1682
432.9552	0.1733
433.1589	0.1724
433.3627	0.1755
433.5664	0.1722
433.7701	0.1678
433.9737	0.1758
434.1774	0.1639
434.3811	0.1664
434.5847	0.1649
434.7883	0.1728
434.9919	0.1532
435.1955	0.1635
435.3991	0.155
435.6027	0.1521
435.8062	0.1669
436.0098	0.1501
436.2133	0.1562
436.4168	0.1501
436.6203	0.1416
436.8238	0.1432
437.0272	0.1361
437.2307	0.1323
437.4341	0.1332
437.6375	0.1329
437.841	0.1354
438.0443	0.1332
438.2477	0.1255
438.4511	0.1351
438.6545	0.1333
438.8578	0.1273
439.0611	0.1272
439.2644	0.1131
439.4677	0.1214
439.671	0.111
439.8743	0.1169
440.0775	0.1071
440.2808	0.1217
440.484	0.1107
440.6872	0.1132
440.8904	0.1107
441.0936	0.1158
441.2967	0.1025
441.4999	0.112
441.703	0.1017
441.9062	0.0955
442.1093	0.0979
442.3124	0.0961
442.5155	0.0924
442.7185	0.0848
442.9216	0.0993
443.1246	0.0948
443.3276	0.0785
443.5307	0.0857
443.7337	0.0885
443.9366	0.0865
444.1396	0.0785
444.3426	0.0809
444.5455	0.0733
444.7484	0.0726
444.9513	0.0845
445.1542	0.0769
445.3571	0.0708
445.56	0.0737
445.7628	0.0688
445.9657	0.0789
446.1685	0.0779
446.3713	0.0686
446.5741	0.0645
446.7769	0.075
446.9797	0.0668
447.1824	0.0646
447.3852	0.0552
447.5879	0.0653
447.7906	0.0611
447.9933	0.0672
448.196	0.0577
448.3986	0.0568
448.6013	0.0584
448.8039	0.0511
449.0066	0.053
449.2092	0.0538
449.4118	0.0405
449.6143	0.0497
449.8169	0.0485
450.0195	0.0433
450.222	0.052
450.4245	0.0474
450.627	0.0462
450.8295	0.0385
451.032	0.0401
451.2345	0.0399
451.4369	0.0427
451.6394	0.0466
451.8418	0.0443
452.0442	0.0427
452.2466	0.0439
452.449	0.0394
452.6513	0.0284
452.8537	0.0434
453.056	0.0458
453.2583	0.0332
453.4607	0.0276
453.663	0.0362
453.8652	0.0395
454.0675	0.0411
454.2697	0.0352
454.472	0.031
454.6742	0.0297
454.8764	0.0258
455.0786	0.033
455.2808	0.0329
455.4829	0.0208
455.6851	0.0209
455.8872	0.0351
456.0893	0.0331
456.2915	0.0251
456.4935	0.0207
456.6956	0.0225
456.8977	0.0322
457.0997	0.0254
457.3018	0.0238
457.5038	0.0267
457.7058	0.0249
457.9078	0.0275
458.1098	0.0262
458.3117	0.0132
458.5137	0.0241
458.7156	0.0281
458.9175	0.0158
459.1194	0.0302
459.3213	0.0188
459.5232	0.0124
459.725	0.0215
459.9269	0.0195
460.1287	0.0154
460.3305	0.0111
460.5323	0.0159
460.7341	0.013
460.9359	0.0161
461.1376	0.0157
461.3394	0.0124
461.5411	0.0182
461.7428	0.0254
461.9445	0.0109
462.1462	0.0145
462.3479	0.0202
462.5495	0.0227
462.7512	0.0074
462.9528	0.0196
463.1544	0.014
463.356	0.0203
463.5576	0.0181
463.7592	0.0057
463.9607	0.0132
464.1623	0.0135
464.3638	0.0111
464.5653	0.0136
464.7668	0.0118
464.9683	0.0051
465.1697	0.0044
465.3712	0.0055
465.5726	0.0129
465.7741	0.008
465.9755	0.0109
466.1769	0.0111
466.3782	0.0098
466.5796	0.0099
466.7809	0.0153
466.9823	0.0087
467.1836	0.0232
467.3849	0.0112
467.5862	0.0015
467.7875	0.0078
467.9887	0.0104
468.19	0.0141
468.3912	0.0056
468.5924	0.0257
468.7936	0.0019
468.9948	0.0094
469.196	0.0094
469.3972	0.011
469.5983	0.0007
469.7994	0.0163
470.0006	0.0034
470.2017	0.0049
470.4027	0.0039
470.6038	-0.0023
470.8049	0.0075
471.0059	0.0189
471.2069	0.0046
471.408	0.0087
471.6089	0.0064
471.8099	0.0054
472.0109	-0.0051
472.2119	0.0189
472.4128	0.0058
472.6137	0.0058
472.8146	0.0069
473.0155	0.0022
473.2164	-0.0055
473.4173	0.0099
473.6181	0.0108
473.819	0.0024
474.0198	0.0078
474.2206	0.0041
474.4214	0.0134
474.6222	0.0062
474.8229	0.0046
475.0237	0.0043
475.2244	0.0063
475.4251	-0.0003
475.6258	0.0056
475.8265	0.003
476.0272	-0.0028
476.2278	0.0141
476.4285	0.0027
476.6291	0.0147
476.8297	-0.0049
477.0303	0.0063
477.2309	0.0005
477.4315	0.0105
477.632	0.0012
477.8326	0.0048
478.0331	0.0063
478.2336	0.0035
478.4341	0.0023
478.6346	0
478.8351	0.0028
479.0355	0.0095
479.236	-0.0018
479.4364	0.0028
479.6368	-0.0011
479.8372	0.0113
480.0376	0.005
480.2379	0
480.4383	-0.0005
480.6386	-0.0033
480.8389	0.0042
481.0392	0.0092
481.2395	0.0098
481.4398	0.0111
481.6401	0.0051
481.8403	-0.0015
482.0405	0.0009
482.2408	0.0069
482.441	0.0046
482.6411	0.0024
482.8413	-0.0048
483.0415	-0.0055
483.2416	0.0085
483.4417	0.0035
483.6419	0.0009
483.8419	0.0019
484.042	0.008
484.2421	-0.0014
484.4422	0.004
484.6422	0.0062
484.8422	0.0037
485.0422	0.0028
485.2422	0.0028
485.4422	0.0013
485.6422	-0.0023
485.8421	0.002
486.042	0.0022
486.242	-0.0008
486.4419	0.0006
486.6417	0.0034
486.8416	0.001
487.0415	-0.0021
487.2413	0.0062
487.4411	-0.0011
487.641	0.0004
487.8408	0.0106
488.0405	0.003
488.2403	-0.0002
488.4401	-0.0004
488.6398	0.0075
488.8395	0.0027
489.0392	0.0036
489.2389	-0.0001
489.4386	-0.0028
489.6383	0.0057
489.8379	-0.0033
490.0376	0.0068
490.2372	-0.003
490.4368	0.0098
490.6364	0.0045
490.836	0.0015
491.0355	-0.0013
491.2351	0.001
491.4346	0.0073
491.6341	-0.0026
491.8336	0.0014
492.0331	0.0006
492.2326	0.0031
492.432	0.0082
492.6315	-0.0023
492.8309	0.014
493.0303	-0.0076
493.2297	-0.0034
493.4291	-0.0045
493.6284	-0.0012
493.8278	0.0045
494.0271	0.0032
494.2264	0.0026
494.4257	0.0023
494.625	0.0042
494.8243	0.0076
495.0236	-0.0012
495.2228	-0.0123
495.422	-0.0008
495.6213	-0.0026
495.8205	0.0013
496.0196	0.0038
496.2188	0.0082
496.418	-0.0018
496.6171	0.0025
496.8162	0.0064
497.0153	0.0017
497.2144	-0.0013
497.4135	-0.0015
497.6126	-0.0083
497.8116	-0.0015
498.0107	-0.0024
498.2097	0.0072
498.4087	0.0053
498.6077	0.0049
498.8067	0.0102
499.0056	-0.0008
499.2046	-0.0047
499.4035	0.0038
499.6024	-0.007
499.8013	-0.0019
500.0002	0.0129
500.199	-0.0029
500.3979	0.0064
500.5967	-0.002
500.7956	0.0005
500.9944	0.0025
501.1932	0.0048
501.3919	0.0063
501.5907	0.0048
501.7895	0.0055
501.9882	-0.0058
502.1869	0.0032
502.3856	-0.0026
502.5843	-0.0035
502.783	0.0036
502.9816	-0.0049
503.1803	0.0101
503.3789	0.0089
503.5775	-0.0014
503.7761	0.0035
503.9747	-0.0033
504.1732	0.0054
504.3718	-0.0023
504.5703	-0.0084
504.7689	-0.0109
504.9674	-0.0053
505.1658	0.0052
505.3643	0.0004
505.5628	0.013
505.7612	0.0087
505.9597	0.003
506.1581	-0.007
506.3565	-0.0078
506.5549	-0.0013
506.7532	0.0013
506.9516	-0.0011
507.1499	0.0011
507.3482	0.0072
507.5465	0.0012
507.7448	0.0093
507.9431	-0.0042
508.1414	0.0016
508.3396	-0.0053
508.5379	-0.0038
508.7361	0.0147
508.9343	0.001
509.1325	0.0041
509.3306	-0.0044
509.5288	0.0089
509.7269	0.0022
509.9251	0.0003
510.1232	-0.0068
510.3213	0.0019
510.5193	0.0122
510.7174	-0.0044
510.9154	0.008
511.1135	0.0028
511.3115	-0.0009
511.5095	0.0075
511.7075	0.0037
511.9055	0.0043
512.1034	0.0016
512.3014	-0.0005
512.4993	0.0041
512.6972	0.0021
512.8951	-0.0007
513.093	-0.0008
513.2908	-0.0024
513.4887	0.0141
513.6865	-0.0084
513.8844	0.0059
514.0822	0.0078
514.2799	0.0025
514.4777	0.0075
514.6755	0.0052
514.8732	-0.0045
515.0709	0.0159
515.2687	0.0013
515.4664	-0.0102
515.664	0.0052
515.8617	0.0074
516.0594	-0.0009
516.257	0.0084
516.4546	-0.0054
516.6522	-0.0069
516.8498	0.0005
517.0474	-0.0151
517.2449	-0.0043
517.4425	0.0015
517.64	0.0001
517.8375	0.0066
518.035	-0.0066
518.2325	0.004
518.43	0.0043
518.6274	-0.0038
518.8249	0.0095
519.0223	0.0067
519.2197	-0.0001
519.4171	0.0038
519.6145	0.0025
519.8118	0.0012
520.0092	-0.0008
520.2065	0.0054
520.4038	-0.0035
520.6011	0.0065
520.7984	0.0111
520.9956	0.0026
521.1929	0.0037
521.3901	0.0079
521.5874	0.0117
521.7846	-0.0033
521.9818	0.0125
522.1789	0.0159
522.3761	-0.0032
522.5732	-0.0014
522.7704	0.0012
522.9675	0.001
523.1646	0.0143
523.3617	0.0128
523.5587	-0.0054
523.7558	0.0051
523.9528	0.0123
524.1498	-0.003
524.3468	0.0044
524.5438	-0.0003
524.7408	-0.0133
524.9378	0.0059
525.1347	0.0028
525.3316	0.004
525.5285	-0.001
525.7254	0.007
525.9223	-0.0017
526.1192	-0.0024
526.316	-0.0121
526.5129	0.0112
526.7097	0.0006
526.9065	0.0084
527.1033	-0.0031
527.3	-0.0011
527.4968	-0.0066
527.6935	0.0065
527.8903	-0.0006
528.087	0.0105
528.2837	-0.0033
528.4804	0.0059
528.677	0.0064
528.8737	-0.0078
529.0703	0.0046
529.2669	0.0019
529.4635	0.0185
529.6601	-0.0007
529.8567	0.0073
530.0532	0.01
530.2498	0.0047
530.4463	0.0059
530.6428	-0.0021
530.8393	0.0059
531.0358	0.0047
531.2322	0.0044
531.4287	-0.0163
531.6251	-0.0048
531.8215	0.003
532.0179	-0.0136
532.2143	0.0027
532.4107	0.0107
532.607	0.0033
532.8034	0.0068
532.9997	0.0012
533.196	0.014
533.3923	0.0081
533.5886	0.011
533.7848	-0.0141
533.9811	-0.0093
534.1773	-0.0029
534.3735	0.0148
534.5697	-0.0018
534.7659	0.0022
534.9621	0.0041
535.1582	0.0098
535.3544	0.0063
535.5505	0.0048
535.7466	-0.0012
535.9427	0.0011
536.1387	-0.0081
536.3348	0.014
536.5308	0.01
536.7269	-0.0048
536.9229	-0.0072
537.1189	-0.0166
537.3148	-0.0102
537.5108	0.0044
537.7068	0.0132
537.9027	0.0046
538.0986	0.0001
538.2945	0.004
538.4904	0.0012
538.6863	0.0107
538.8821	-0.0056
539.078	0.0042
539.2738	-0.0019
539.4696	0.0115
539.6654	0.0018
539.8611	0.0018
540.0569	-0.0035
540.2526	0.004
540.4484	-0.002
540.6441	-0.0007
540.8398	-0.0031
541.0355	0.0005
541.2311	0.002
541.4268	0.0008
541.6224	0.0113
541.818	-0.0061
542.0136	-0.0072
542.2092	0.0008
542.4048	0.0151
542.6003	0.0016
542.7959	-0.0009
542.9914	0.0058
543.1869	-0.0042
543.3824	0.0067
543.5779	-0.0005
543.7734	-0.0067
543.9688	0.0013
544.1642	0.0067
544.3596	-0.009
544.555	0.0009
544.7504	-0.0036
544.9458	-0.0003
545.1411	0.0083
545.3365	0.0061
545.5318	0.0084
545.7271	0.0133
545.9224	-0.0087
546.1177	0.0093
546.3129	-0.0112
546.5081	-0.0041
546.7034	-0.0044
546.8986	0.001
547.0938	-0.006
547.289	-0.0013
547.4841	-0.003
547.6793	-0.0074
547.8744	0.0045
548.0695	-0.0015
548.2646	-0.0037
548.4597	-0.0058
548.6548	0.0033
548.8498	-0.0005
549.0448	0.0111
549.2399	0.004
549.4349	0.0135
549.6298	-0.0088
549.8248	-0.0101
550.0198	0.0088
550.2147	-0.0057
550.4096	0.0034
550.6045	0.0078
550.7994	-0.0014
550.9943	-0.0007
551.1892	0.001
551.384	0.0069
551.5788	0.0058
551.7737	-0.0011
551.9685	0.0085
552.1632	0.0062
552.358	0.0075
552.5528	-0.0085
552.7475	-0.0022
552.9422	-0.0034
553.1369	0.0064
553.3316	-0.0053
553.5263	-0.0058
553.7209	0.0033
553.9156	0.0038
554.1102	0.0048
554.3048	0.0075
554.4994	0.0088
554.694	-0.0004
554.8885	-0.0033
555.0831	0.0103
555.2776	0.0007
555.4721	-0.011
555.6666	0.0021
555.8611	-0.0066
556.0555	0.0002
556.25	0.0018
556.4444	0.0003
556.6388	0.0012
556.8332	-0.0072
557.0276	0.0186
557.222	-0.0107
557.4163	0.0021
557.6107	-0.0076
557.805	-0.0091
557.9993	-0.0004
558.1936	0.0148
558.3879	-0.0016
558.5821	0.001
558.7764	0.0262
558.9706	0.0036
559.1648	0.0032
559.359	0.0139
559.5532	-0.0083
559.7473	0.0102
559.9415	0.0107
560.1356	0.0004
560.3297	-0.0021
560.5238	0.0021
560.7179	-0.0007
560.9119	0.0044
561.106	-0.0048
561.3	0.0017
561.494	0.008
561.688	-0.0018
561.882	0.0154
562.076	0.0095
562.2699	0.0082
562.4639	0.0041
562.6578	0.0075
562.8517	0.0022
563.0456	-0.0021
563.2395	-0.0003
563.4333	-0.0026
563.6272	0.0085
563.821	0.0105
564.0148	-0.0092
564.2086	0.0056
564.4024	0.0045
564.5961	0.004
564.7899	0.0017
564.9836	0.0035
565.1773	0.0019
565.371	0.005
565.5647	0.0069
565.7584	-0.0058
565.952	0.0007
566.1456	-0.0039
566.3393	0.0128
566.5329	0.0031
566.7264	0.0022
566.92	0.0026
567.1136	0.0032
567.3071	-0.0003
567.5006	-0.0111
567.6941	0.0076
567.8876	-0.0018
568.0811	-0.0072
568.2745	-0.0046
568.468	0.0119
568.6614	-0.0014
568.8548	-0.0044
569.0482	0.0031
569.2416	-0.0075
569.4349	-0.0029
569.6283	-0.0009
569.8216	0.0039
570.0149	0.0037
570.2082	-0.005
570.4015	0.0051
570.5947	-0.0002
570.788	-0.0015
570.9812	-0
571.1744	-0.0016
571.3676	0.0001
571.5608	-0.0061
571.754	-0.0018
571.9471	0.001
572.1402	0.0012
572.3333	0.0015
572.5264	0.0033
572.7195	0.0061
572.9126	0.0011
573.1057	0.0012
573.2987	0.0055
573.4917	0.0016
573.6847	0.0025
573.8777	0.0002
574.0707	-0.0057
574.2636	-0.0041
574.4566	0.0017
574.6495	0.0058
574.8424	-0.0007
575.0353	-0.0009
575.2281	-0.001
575.421	-0.0024
575.6138	-0.0022
575.8067	0.0028
575.9995	0.0029
576.1923	0.0036
576.385	-0.0023
576.5778	0.0016
576.7706	0.0053
576.9633	-0.0016
577.156	0.0012
577.3487	0
577.5414	0.0019
577.734	-0.0031
577.9267	-0.0009
578.1193	0.0011
578.3119	-0.0016
578.5045	-0.004
578.6971	0.0007
578.8897	0.0014
579.0822	0.0043
579.2747	-0.0041
579.4673	-0.0012
579.6598	0.0015
579.8522	0.0009
580.0447	-0.0002
580.2372	0.0001
580.4296	0.0008
580.622	0.0007
580.8144	-0.0014
581.0068	0.0015
581.1992	0.0021
581.3915	-0.0008
581.5839	0.0026
581.7762	0.0045
581.9685	-0.0015
582.1608	0.0031
582.353	-0.0032
582.5453	0.0038
582.7375	0.0016
582.9298	-0.0016
583.122	-0.0028
583.3142	0.0052
583.5063	-0.0023
583.6985	0.0038
583.8906	-0.0019
584.0827	-0.0033
584.2749	0.0003
584.4669	-0
584.659	0.0009
584.8511	-0.0004
585.0431	0.0001
585.2352	-0.0052
585.4272	-0.0007
585.6192	-0.0016
585.8111	-0.004
586.0031	0.0041
586.195	0.0019
586.387	-0.0008
586.5789	0.0034
586.7708	0.0019
586.9627	0.0025
587.1545	0.0016
587.3464	0.0014
587.5382	0.0015
587.73	0.0027
587.9218	-0.0008
588.1136	-0.0019
588.3053	-0.0022
588.4971	0.0027
588.6888	0.0004
588.8805	0.0106
589.0722	-0.0006
589.2639	0.0019
589.4556	-0.0034
589.6472	0.0006
589.8389	0.0042
590.0305	-0.0006
590.2221	0.0031
590.4137	0.0021
590.6052	0.0037
590.7968	0.0056
590.9883	0.0031
591.1798	-0.0061
591.3713	-0.005
591.5628	-0.0004
591.7543	0.0032
591.9458	0.0024
592.1372	-0.0023
592.3286	-0.0065
592.52	-0.0016
592.7114	-0.0034
592.9028	0.0003
593.0941	-0.0036
593.2855	0.0019
593.4768	0.0001
593.6681	-0.0021
593.8594	-0.0005
594.0506	-0.0034
594.2419	-0.006
594.4331	0.0027
594.6244	0.0042
594.8156	0.0028
595.0067	0.0018
595.1979	-0.0039
595.3891	-0.0003
595.5802	-0.0026
595.7713	-0.0047
595.9624	0.0005
596.1535	-0.004
596.3446	-0.0023
596.5357	-0.0009
596.7267	0.0046
596.9177	-0.0055
597.1087	0.0036
597.2997	0.0032
597.4907	0.0027
597.6817	0.0009
597.8726	0.006
598.0635	0.0028
598.2544	-0.0072
598.4453	-0.0038
598.6362	-0.0069
598.827	-0.0034
599.0179	0.0031
599.2087	-0.0035
599.3995	-0.0004
599.5903	-0.0034
599.7811	0.0022
599.9718	0.0034
600.1626	0.0043
600.3533	-0.0047
600.544	-0.0001
600.7347	0.0049
600.9254	0.0052
601.116	-0.0002
601.3067	0.0033
601.4973	0.0029
601.6879	-0.0009
601.8785	-0.0004
602.0691	0.0066
602.2596	0.0001
602.4502	0.0018
602.6407	0.0034
602.8312	-0.0009
603.0217	0.0062
603.2122	0.0045
603.4027	0
603.5931	-0.002
603.7835	0.0014
603.9739	0.0007
604.1643	0.0053
604.3547	0.0017
604.5451	-0.0049
604.7354	-0.0067
604.9257	-0.0013
605.116	0.0003
605.3063	-0.0042
605.4966	0.0004
605.6869	-0.0001
605.8771	0.0047
606.0673	-0.0049
606.2575	0.001
606.4477	-0.0005
606.6379	-0.0028
606.8281	-0.0009
607.0182	0.0031
607.2083	-0.0027
607.3985	-0.0022
607.5885	-0.0009
607.7786	0.0002
607.9687	0.0022
608.1587	-0.0023
608.3488	-0.0027
608.5388	-0.0036
608.7288	-0.0087
608.9187	0.0076
609.1087	0.0032
609.2986	-0.0058
609.4886	0.0065
609.6785	0.0037
609.8684	-0.0021
610.0582	0.0041
610.2481	0.0016
610.4379	0.0005
610.6278	-0.0049
610.8176	-0.0019
611.0074	0.0003
611.1971	-0.0011
611.3869	0.0013
611.5766	-0.0018
611.7664	0.004
611.9561	0.0044
612.1458	-0.0037
612.3354	0.0048
612.5251	-0.0005
612.7147	-0.0019
612.9044	-0.0053
613.094	0.0075
613.2836	-0.0092
613.4731	-0.0014
613.6627	0.0022
613.8522	-0.0069
614.0417	-0.0049
614.2313	-0.0088
614.4207	0.0097
614.6102	-0.0035
614.7997	0.005
614.9891	0.0005
615.1785	-0.0038
615.3679	0.0032
615.5573	-0.0132
615.7467	-0.0106
615.9361	-0.0055
616.1254	-0.0104
616.3147	-0.0053
616.504	-0.0052
616.6933	0.0008
616.8826	0.008
617.0718	-0.0037
617.2611	-0.0007
617.4503	-0.0011
617.6395	0.0021
617.8287	0.0015
618.0179	-0.0032
618.207	0.0042
618.3961	-0.0051
618.5853	-0.0076
618.7744	0.0039
618.9634	-0.0003
619.1525	-0
619.3416	-0.0034
619.5306	-0.0052
619.7196	-0.0076
619.9086	-0.0007
620.0976	-0.0035
620.2866	0.0051
620.4755	0.0208
620.6645	-0.0109
620.8534	-0.0134
621.0423	-0.0016
621.2312	0.0024
621.42	0.0001
621.6089	0.0041
621.7977	0.0022
621.9865	0.0059
622.1753	0.0019
622.3641	-0.0149
622.5529	-0.0117
622.7416	-0.0024
622.9303	0.0039
623.1191	-0.0047
623.3078	-0.0022
623.4964	-0.0016
623.6851	0.0094
623.8737	0.012
624.0624	-0.0044
624.251	-0.0021
624.4396	-0.0025
624.6282	0.0026
624.8167	0.0092
625.0053	0.0062
625.1938	0.0068
625.3823	-0.0135
625.5708	-0.0033
625.7593	-0.0141
625.9477	-0.0035
626.1362	-0.0172
626.3246	-0.0049
626.513	-0.005
626.7014	-0.0041
626.8898	0.0068
627.0781	-0.0087
627.2665	-0.003
627.4548	-0.0053
627.6431	-0.0113
627.8314	0.0065
628.0197	0.0024
628.2079	0.0062
628.3962	0.004
628.5844	0.0054
628.7726	-0.0016
628.9608	-0.0028
629.1489	-0.0002
629.3371	-0.0026
629.5252	0.0084
629.7134	0.0064
629.9015	-0.0109
630.0895	-0.0052
630.2776	-0.0086
630.4657	0.0061
630.6537	0.0005
630.8417	-0.0074
631.0297	0.0008
631.2177	-0.0129
631.4057	-0.0157
631.5936	-0.0117
631.7815	0.0005
631.9695	0.014
632.1574	-0.0042
632.3452	-0.0049
632.5331	0.0046
632.7209	0.0123
632.9088	0.0025
633.0966	-0.0096
633.2844	-0.0114
633.4722	0.0093
633.6599	-0.0142
633.8477	0.006
634.0354	0.0047
634.2231	0.0236
634.4108	-0.0009
634.5985	0.0034
634.7861	0.0003
634.9738	0.0186
635.1614	0.008
635.349	-0.0168
635.5366	0.0048
635.7242	0.005
635.9117	0.0095
636.0993	-0.0089
636.2868	0.0004
636.4743	0.0093
636.6618	0.0065
636.8492	0.0091
637.0367	0.0107
637.2241	-0.002
637.4115	-0.0107
637.5989	0.0127
637.7863	-0.0172
637.9737	0.0031
638.161	-0.0027
638.3484	0.0119
638.5357	-0.0145
638.723	-0.0013
638.9103	-0.0128
639.0975	0.0012
639.2848	0.0182
639.472	-0.0004
639.6592	0.0037
639.8464	0.0142
640.0336	-0.001
640.2208	-0.0102
640.4079	0.0253
640.595	-0.0125
640.7821	-0.0023
640.9692	0.0014
641.1563	0.0153
641.3434	0.0194
641.5304	0.004
641.7174	0.0097
641.9044	-0.0078
642.0914	-0.002
642.2784	0.0221
642.4653	-0.003
642.6523	0.0072
642.8392	0.0204
643.0261	0.0047
643.213	-0.0007
643.3999	-0.0179
643.5867	-0.002
643.7735	-0.0005
643.9604	-0.0063
644.1472	-0.0081
644.3339	-0.0034
644.5207	-0.0244
644.7075	-0.008
644.8942	0.0214
645.0809	-0.0104
645.2676	-0.0079
645.4543	-0.0189
645.6409	0.0049
645.8276	-0.0164
646.0142	-0.0065
646.2008	-0.0062
646.3874	0.0078
646.574	-0.0245
646.7605	0.0096
646.9471	0.0035
647.1336	-0.0108
647.3201	0.0153
647.5066	-0.0028
647.6931	0.0054
647.8795	0.0094
648.0659	0.008
648.2524	-0.0063
648.4388	-0.0117
648.6252	-0.0122
648.8115	0.0006
648.9979	0.0045
649.1842	-0.0088
649.3705	-0.005
649.5568	-0.0223
649.7431	-0.0067
649.9294	-0.019
650.1156	-0.0149
650.3018	0.0144
650.488	0.0002
650.6742	0.0243
650.8604	0.0035
651.0466	-0.009
651.2327	-0.0033
651.4188	-0.0177
651.6049	-0.0005
651.791	0.0085
651.9771	0.0019
652.1632	0.0018
652.3492	-0.0071
652.5352	0.0091
652.7212	-0.0172
652.9072	-0.0143
653.0932	0.0028
653.2791	-0.0067
653.465	-0.0137
653.651	0.0203
653.8369	0.0277
654.0227	-0.0131
654.2086	-0.0043
654.3944	-0.0097
654.5803	0.0066
654.7661	-0.0013
654.9519	-0.0012
655.1377	-0.0001
655.3234	-0.0001
655.5092	-0.0001
655.6949	-0.0001
655.8806	-0.0001
656.0663	-0.0001
656.2519	-0.0001
656.4376	-0.0001
656.6232	-0.0001
656.8088	-0.0001
656.9945	-0.0001
657.18	-0.0001
657.3656	-0.0001
657.5511	-0.0001
657.7367	-0.0001
657.9222	-0.0001
658.1077	-0.0001
658.2932	-0.0001
658.4786	-0.0001
658.6641	-0.0001
658.8495	-0.0001
659.0349	-0.0001
659.2203	-0.0001
659.4057	0.011
659.591	0.0685
659.7764	-0.001
659.9617	-0.0016
660.147	-0.0031
660.3323	0.0002
660.5176	-0.0154
660.7028	0.0029
660.888	-0.0035
661.0733	0.0045
661.2585	0.0177
661.4436	-0.0025
661.6288	0.0045
661.8139	0.0024
661.9991	0.0144
662.1842	0.004
662.3693	-0.0192
662.5544	-0.0132
662.7394	0.0155
662.9245	0.0111
663.1095	-0.0028
663.2945	-0.0088
663.4795	0.009
663.6644	0.0005
663.8494	-0.005
664.0343	-0.0036
664.2193	-0.0225
664.4042	-0.0061
664.589	-0.019
664.7739	-0.0067
664.9587	0.0087
665.1436	-0.0035
665.3284	0.0066
665.5132	-0.0099
665.698	-0.0097
665.8827	-0.0077
666.0675	-0.0254
666.2522	-0.0022
666.4369	-0.0134
666.6216	-0.0393
666.8063	-0.0103
666.9909	0.0075
667.1756	-0.0059
667.3602	-0.0127
667.5448	-0.0275
667.7294	0.0043
667.9139	-0.0018
668.0985	-0.0098
668.283	-0.0032
668.4675	0.0035
668.652	-0.0289
668.8365	0.0079
669.0209	-0.0158
669.2054	0.0154
669.3898	0.016
669.5742	-0.0044
669.7586	0.0193
669.943	-0.0294
670.1273	0.0097
670.3117	-0.0001
670.496	0.0045
670.6803	0.0053
670.8646	0.011
671.0488	-0.0065
671.2331	0.0055
671.4173	-0.0077
671.6015	-0.0006
671.7857	-0.0178
671.9699	0.0218
672.1541	-0.0144
672.3382	0.013
672.5223	0.0003
672.7064	-0.0023
672.8905	0.0109
673.0746	-0.0072
673.2587	-0.0185
673.4427	-0.0065
673.6267	-0.0221
673.8107	-0.0185
673.9947	-0.0132
674.1787	0.0055
674.3626	-0.0078
674.5465	0.0042
674.7304	-0.0309
674.9143	0.0273
675.0982	0.0025
675.2821	0.0178
675.4659	-0.0013
675.6497	0.0226
675.8335	0.0033
676.0173	0.0141
676.2011	-0.0254
676.3849	0.0032
676.5686	0.0009
676.7523	-0.0017
676.936	-0.0292
677.1197	0.0215
677.3034	0.0203
677.487	0.0176
677.6706	-0.0063
677.8542	-0.0014
678.0378	0.0195
678.2214	-0.0061
678.405	0.0046
678.5885	-0.0024
678.772	-0.0089
678.9555	-0.0028
679.139	-0.0021
679.3225	-0.0044
679.5059	0.0033
679.6894	-0.0137
679.8728	-0.0198
680.0562	-0.0082
680.2395	-0.0081
680.4229	-0.0136
680.6062	0.0083
680.7896	0.0038
680.9729	0.0023
681.1562	-0.0147
681.3394	-0.0035
681.5227	-0.0003
681.7059	0.0026
681.8891	-0.0091
682.0723	-0.0193
682.2555	0.0219
682.4387	0.0163
682.6218	-0.0366
682.805	-0.0065
682.9881	0.0218
683.1712	0.0288
683.3542	-0.0292
683.5373	0.0113
683.7203	0.0038
683.9034	0.0048
684.0864	-0.0104
684.2694	-0.0014
684.4523	-0.0036
684.6353	0.006
684.8182	0.0005
685.0011	-0.0114
685.184	-0.0014
685.3669	-0.0079
685.5498	0.0039
685.7326	0.0017
685.9154	-0.0001
686.0982	-0.0017
686.281	-0.0133
686.4638	-0.0069
686.6465	-0.003
686.8293	-0.0019
687.012	-0.0121
687.1947	0.0019
687.3774	-0.003
687.56	0.0077
687.7427	-0.0003
687.9253	0.0064
688.1079	0.0136
688.2905	-0.0028
688.4731	0.0049
688.6556	-0.0067
688.8382	0.0113
689.0207	-0.0233
689.2032	-0.0285
689.3857	-0.016
689.5681	-0.0074
689.7506	-0.0025
689.933	-0.0104
690.1154	-0.0157
690.2978	-0.019
690.4802	0.017
690.6626	-0.0041
690.8449	-0.0208
691.0272	-0.0115
691.2095	0.0017
691.3918	-0.0261
691.5741	0.0016
691.7563	0.0221
691.9386	-0.0041
692.1208	-0.0287
692.303	0.013
692.4852	-0.0008
692.6673	-0.0059
692.8495	-0.0008
693.0316	0.0015
693.2137	0.0345
693.3958	0.0142
693.5778	-0.0152
693.7599	-0.0099
693.9419	0.0087
694.1239	-0.017
694.3059	0.0055
694.4879	-0.0224
694.6699	-0.0004
694.8518	0.0091
695.0337	-0.006
695.2157	-0.0081
695.3975	-0.0068
695.5794	-0.0094
695.7613	0.0127
695.9431	-0.0225
696.1249	-0.0076
696.3067	0.0184
696.4885	-0.0128
696.6703	-0.0078
696.852	-0.0006
697.0337	0.0089
697.2154	0.0087
697.3971	0.0096
697.5788	0.0328
697.7605	-0.0044
697.9421	-0.018
698.1237	-0.0011
698.3053	0.0165
698.4869	-0.0033
698.6685	0.0241
698.85	0.0105
699.0315	0.0059
699.213	-0.0058
699.3945	0.0138
699.576	-0.0176
699.7575	0.0019
699.9389	0.0027
700.1203	0.0036
700.3017	-0.0077
700.4831	-0.0246
700.6645	0.0088
700.8458	0.0153
701.0271	0.0246
701.2084	-0.038
701.3897	0.0243
701.571	-0.0071
701.7523	-0.0359
701.9335	0.0106
702.1147	-0.0255
702.2959	0.0017
702.4771	-0.008
702.6583	0.0035
702.8394	-0.0001
703.0205	-0.0166
703.2016	-0.0062
703.3827	0.0196
703.5638	-0.0127
703.7449	-0.0049
703.9259	0.0124
704.1069	0.0129
704.2879	0.019
704.4689	0.0021
704.6499	-0.0365
704.8308	-0.0371
705.0117	-0.0316
705.1927	0.0092
705.3735	-0.003
705.5544	-0.001
705.7353	-0.0086
705.9161	-0.0032
706.0969	0.0104
706.2777	-0.0006
706.4585	0.0026
706.6393	0.0029
706.82	-0.0242
707.0007	-0.0059
707.1815	0.0084
707.3621	0.0108
707.5428	0.0069
707.7235	0.0034
707.9041	-0.0088
708.0847	0.0057
708.2653	0.0102
708.4459	0.002
708.6265	0.0082
708.807	-0.0094
708.9875	0.0066
709.168	0.0177
709.3485	-0.0054
709.529	0.0024
709.7095	-0.0145
709.8899	0.0215
710.0703	-0.0104
710.2507	-0.0196
710.4311	0.0047
710.6115	-0.0127
710.7918	-0.0221
710.9721	-0.0012
711.1524	0.0063
711.3327	-0.0322
711.513	0.0082
711.6932	-0.0231
711.8735	-0.0132
712.0537	0.0057
712.2339	-0.0091
712.4141	0.0046
712.5942	0.0161
712.7744	0.0143
712.9545	0.0139
713.1346	-0.0178
713.3147	0.0042
713.4947	-0.0182
713.6748	0.0116
713.8548	-0.004
714.0348	0.0199
714.2148	-0.0015
714.3948	0.0112
714.5748	-0.017
714.7547	-0.0064
714.9346	-0.0107
715.1145	0.005
715.2944	0.0106
715.4743	-0.0041
715.6541	-0.0226
715.834	0.01
716.0138	0.0312
716.1936	0.0082
716.3733	-0.0204
716.5531	0.008
716.7328	0.0115
716.9126	-0.0329
717.0923	-0.0208
717.2719	0.0157
717.4516	-0.0039
717.6312	-0.0135
717.8109	0.0356
717.9905	0.012
718.1701	0.0023
718.3496	0.0099
718.5292	-0.0135
718.7087	0.0123
718.8882	0.0027
719.0677	0.0191
719.2472	-0.01
719.4267	0.0014
719.6061	0.0154
719.7856	-0.0199
719.965	-0.0051
720.1443	-0.0119
720.3237	0.0162
720.5031	0.0243
720.6824	-0.01
720.8617	0.0219
721.041	0.004
721.2203	-0.0017
721.3995	-0.0304
721.5788	0.006
721.758	-0.0051
721.9372	0.0019
722.1164	0.0067
722.2956	0.0069
722.4747	0.023
722.6538	0.0105
722.8329	-0.0115
723.012	0.0033
723.1911	0.0162
723.3702	-0.0135
723.5492	0.0185
723.7282	0.0068
723.9072	-0.0163
724.0862	-0.015
724.2652	-0.0065
724.4441	-0.0239
724.623	0.0042
724.8019	0.0058
724.9808	-0.0061
725.1597	-0.0108
725.3385	0.0167
725.5174	0.0402
725.6962	0.0023
725.875	0.012
726.0538	0.0021
726.2325	-0.0062
726.4112	0.0207
726.59	0.0064
726.7687	0.0142
726.9474	-0.0286
727.126	-0.0071
727.3047	-0.0123
727.4833	0.0441
727.6619	0.0302
727.8405	0.0107
728.0191	-0.0365
728.1976	-0.0291
728.3762	-0.0094
728.5547	0.0054
728.7332	0.0215
728.9116	-0.0247
729.0901	0.0193
729.2686	-0.0067
729.447	-0.0094
729.6254	0.013
729.8038	0.0035
729.9821	0.0018
730.1605	-0.0048
730.3388	-0.0074
730.5171	0.0005
730.6954	0.0131
730.8737	-0.0043
731.0519	-0.0028
731.2302	-0.0258
731.4084	-0.0043
731.5866	-0.0216
731.7648	-0.0136
731.9429	-0.0044
732.1211	0.0107
732.2992	-0.0245
732.4773	-0.0057
732.6554	-0.0081
732.8335	-0.0064
733.0115	-0.013
733.1896	-0.0103
733.3676	0.0089
733.5456	-0.0012
733.7235	0.0026
733.9015	-0.0135
734.0794	-0.0045
734.2574	0.0188
734.4353	-0.0123
734.6131	0.0179
734.791	0.0326
734.9689	0.0317
735.1467	-0.0056
735.3245	0.01
735.5023	-0.0085
735.68	0.0041
735.8578	-0.0034
736.0355	-0.0058
736.2132	0.01
736.3909	-0.0151
736.5686	0.0029
736.7463	-0.004
736.9239	0.0008
737.1015	0.0005
737.2791	-0.006
737.4567	0.0003
737.6343	0.0127
737.8118	0.0018
737.9894	-0.0096
738.1669	-0.0001
738.3444	-0.0001
738.5218	0.0035
738.6993	-0.0157
738.8767	0.0051
739.0541	-0.001
739.2315	-0.0089
739.4089	-0.0227
739.5863	-0.0065
739.7636	-0.0025
739.9409	0.0017
740.1182	-0.0028
740.2955	-0.0605
740.4728	0.0316
740.65	-0.0048
740.8272	-0.0305
741.0044	0.0529
741.1816	0.0353
741.3588	0.0235
741.5359	-0.0001
741.7131	0.0129
741.8902	-0.0091
742.0673	0.0038
742.2444	-0.0145
742.4214	0.0011
742.5985	0.0078
742.7755	-0.0078
742.9525	-0.01
743.1295	-0.0139
743.3064	0.017
743.4834	-0.0263
743.6603	0.0107
743.8372	0.0056
744.0141	0.021
744.191	0.0004
744.3678	-0.0121
744.5446	0.0137
744.7215	0.017
744.8982	0.0027
745.075	0.0203
745.2518	-0.0215
745.4285	-0.008
745.6052	0.023
745.7819	-0.0016
745.9586	0.0283
746.1353	-0.0233
746.3119	-0.0122
746.4885	0.0164
746.6651	-0.0241
746.8417	0.0008
747.0183	-0.023
747.1948	0.0067
747.3714	0.0222
747.5479	-0.0012
747.7244	-0.0136
747.9008	0.0284
748.0773	0.0198
748.2537	0.043
748.4301	0.0004
748.6065	-0.0361
748.7829	0.008
748.9593	0.0057
749.1356	-0.0151
749.3119	-0.0121
749.4882	-0.0085
749.6645	0.0097
749.8408	-0.0074
750.017	-0.0064
750.1933	0.0394
750.3695	0.0206
750.5457	-0.0201
750.7218	0.0151
750.898	-0.0045
751.0741	0.0148
751.2502	0.0085
751.4263	-0.0138
751.6024	0.0208
751.7784	-0.0469
751.9545	-0.0364
752.1305	0.0034
752.3065	0.0022
752.4825	-0.0142
752.6584	-0.0046
752.8344	-0.0026
753.0103	-0.0202
753.1862	-0.0141
753.3621	-0.0362
753.5379	-0.0225
753.7138	-0.0356
753.8896	0.0124
754.0654	0.0014
754.2412	0.0117
754.417	0.0053
754.5927	0.0114
754.7685	-0.0042
754.9442	-0.0297
755.1199	-0.0144
755.2956	0.0184
755.4712	-0.0077
755.6469	-0.0028
755.8225	-0.0029
755.9981	-0.0011
756.1736	0.0138
756.3492	0.0017
756.5248	-0.0166
756.7003	-0.0027
756.8758	-0.0025
757.0513	-0.0077
757.2267	-0.0162
757.4022	0.0034
757.5776	-0.0191
757.753	-0.0073
757.9284	0.0017
758.1038	0.004
758.2791	-0.0109
758.4545	0.0115
758.6298	-0.0064
758.8051	0.0097
758.9803	-0.0155
759.1556	-0.0062
759.3308	0.0094
759.506	0.0057
759.6812	-0.0106
759.8564	-0.0212
760.0316	0.0045
760.2067	-0.0196
760.3819	0.0053
760.557	0.0027
760.732	0.0163
760.9071	-0.0188
761.0821	0.0025
761.2572	-0.0037
761.4322	0.0006
761.6072	-0.0133
761.7821	0.0224
761.9571	-0.0256
762.132	-0.0214
762.3069	-0.0227
762.4818	0.0098
762.6567	-0.0044
762.8316	-0.0168
763.0064	-0.0243
763.1812	-0.021
763.356	0.0104
763.5308	-0.0089
763.7055	0.0087
763.8803	-0.0044
764.055	-0.007
764.2297	-0.0228
764.4044	-0.005
764.579	-0.0202
764.7537	-0.0149
764.9283	-0.0037
765.1029	-0.015
765.2775	-0.029
765.4521	0.006
765.6266	-0.0352
765.8011	0.0025
765.9756	-0.0016
766.1501	0.0102
766.3246	-0.0011
766.4991	-0.0234
766.6735	-0.0208
766.8479	0.0131
767.0223	0.0388
767.1967	-0.0385
767.371	0.0393
767.5454	0.0176
767.7197	-0.0028
767.894	-0.0408
768.0683	0.0014
768.2425	-0.0094
768.4168	0.0374
768.591	-0.0078
768.7652	-0.0057
768.9394	0.0007
769.1135	-0.0143
769.2877	-0.006
769.4618	-0.0022
769.6359	-0.0077
769.81	-0.0001
769.984	0.0118
770.1581	0.0145
770.3321	-0.011
770.5061	0.0302
770.6801	0.0063
770.8541	-0.0216
771.028	-0.0058
771.202	-0.0102
771.3759	0.0149
771.5498	0.0048
771.7236	-0.0139
771.8975	-0.053
772.0713	0.0101
772.2451	0.0048
772.4189	0.0044
772.5927	-0.0091
772.7665	0.0069
772.9402	-0.0012
773.1139	-0.0208
773.2876	-0.0045
773.4613	-0.0152
773.635	0.0073
773.8086	-0.0396
773.9822	-0.012
774.1558	0.0221
774.3294	-0.0408
774.503	0.0313
774.6765	0.0404
774.8501	-0.0132
775.0236	0.0109
775.1971	0.0085
775.3705	0.0129
775.544	-0.0311
775.7174	-0.0408
775.8908	0.0383
776.0642	-0.0304
776.2376	-0.0259
776.4109	0.042
776.5843	-0.0297
776.7576	0.0067
776.9309	0.0458
777.1041	-0.0313
777.2774	-0.0174
777.4506	-0.0243
777.6238	0.0315
777.797	0.0074
777.9702	0.0102
778.1434	0.0017
778.3165	-0.0307
778.4896	-0.0288
778.6627	0.0446
778.8358	-0.0165
779.0089	0.0028
779.1819	0.0062
779.3549	0.0137
779.5279	-0.0296
779.7009	-0.0031
779.8739	-0.0366
780.0468	0.0615
780.2197	-0.0215
780.3926	-0.032
780.5655	0.0011
780.7384	0.0244
780.9112	-0.0084
781.0841	0.0099
781.2569	-0.0077
781.4297	0.0066
781.6024	0.0107
781.7752	-0.0134
781.9479	-0.0313
782.1206	-0.006
782.2933	0.011
782.466	-0.007
782.6386	0.0166
782.8113	-0.0303
782.9839	-0.0081
783.1565	-0.0285
783.329	-0.0053
783.5016	-0.0167
783.6741	-0.0131
783.8466	-0.0328
784.0191	-0.0095
784.1916	-0.0192
784.3641	-0.0491
784.5365	0.0264
784.7089	0.0095
784.8813	0.0343
785.0537	-0.0195
785.2261	-0.0337
785.3984	0.0201
785.5707	0.0135
785.743	-0.058
785.9153	0.0026
786.0876	-0.0576
786.2598	-0.0109
786.432	-0.0449
786.6042	0.0407
786.7764	-0.0041
786.9486	0.0032
787.1207	0.0181
787.2928	-0.0261
787.4649	0.0043
787.637	0.005
787.8091	-0.0374
787.9811	0.0039
788.1532	-0.0186
788.3252	-0.0153
788.4972	-0.0013
788.6691	0.0055
788.8411	-0.0114
789.013	0.02
789.1849	0.0034
789.3568	0.0109
789.5287	-0.0279
789.7005	0.022
789.8723	-0.0532
790.0442	-0.0332
790.2159	0.0056
790.3877	-0.0002
790.5595	0.005
790.7312	-0.051
790.9029	0.0069
791.0746	0.01
791.2463	0.0097
791.4179	-0.0234
791.5896	-0.0343
791.7612	-0.0015
791.9328	-0.0204
792.1044	-0.0602
792.2759	0.032
792.4474	-0.0858
792.619	0.0732
792.7905	0.0335
792.9619	0.0065
793.1334	-0.0503
793.3048	-0.0466
793.4762	-0.0596
793.6476	-0.0231
793.819	-0.016
793.9904	0.0111
794.1617	-0.0198
794.333	-0.0292
794.5043	0.0124
794.6756	0.043
794.8469	-0.0108
795.0181	-0.024
795.1893	0.0012
795.3605	-0.0218
795.5317	0.0006
795.7029	-0.0214
795.874	-0.0529
796.0452	-0.0239
796.2163	0.0162
796.3873	0.0444
796.5584	-0.013
796.7294	-0.0807
796.9005	-0.089
797.0715	-0.0076
797.2425	-0.0519
797.4134	-0.0137
797.5844	0.0263
797.7553	-0.0374
797.9262	0.0425
798.0971	-0.0561
798.2679	0.0194
798.4388	-0.0974
798.6096	-0.0506
798.7804	0.0344
798.9512	0.0009
799.122	0.0089
799.2927	-0.093
799.4635	0.1064
799.6342	-0.0794
799.8049	0.0775
799.9755	0.0509
800.1462	0.057
800.3168	-0.0248
800.4874	0.0272
800.658	0.0718
800.8286	-0.0238
800.9991	0.0766
801.1696	-0.0136
801.3402	-0.0161
801.5106	-0.131
801.6811	-0.0112
801.8516	0.0781
802.022	-0.1037
802.1924	-0.0581
802.3628	-0.0513
802.5332	-0.0412
802.7035	-0.0864
802.8739	0.0438
803.0442	-0.0742
803.2145	-0.0388
803.3847	-0.0652
803.555	-0.05
803.7252	0.0217
803.8954	-0.0048
804.0656	0.0088
804.2358	-0.016
804.4059	0.044
804.5761	0.0211
804.7462	-0.0042
804.9163	-0.0698
805.0864	-0.0551
805.2564	0.0089
805.4264	-0.0314
805.5965	-0.0262
805.7665	0.1011
805.9364	-0.129
806.1064	-0.0029
806.2763	0.0392
806.4462	-0.0165
806.6161	0.0323
806.786	-0.0122
806.9559	0.0141
807.1257	-0.0201
807.2955	0.0451
807.4653	0.0024
807.6351	-0.0686
807.8048	-0.1017
807.9746	-0.022
808.1443	-0.0003
808.314	0.0151
808.4837	-0.0372
808.6533	0.0116
808.8229	-0.0617
808.9926	-0.0237
809.1622	-0.0127
809.3317	-0.1006
809.5013	0.0347
809.6708	0.0612
809.8403	0.0447
810.0098	0.0916
810.1793	-0.0279
810.3488	0.0376
810.5182	-0.0089
810.6876	-0.0176
810.857	-0.0245
811.0264	-0.0357
811.1958	-0.0585
811.3651	0.0455
811.5344	0.0069
811.7037	-0.1274
811.873	0.0911
812.0422	-0.0121
812.2115	0.0751
812.3807	-0.0123
812.5499	0.1521
812.7191	-0.0081
812.8882	-0.0275
813.0574	-0.212
813.2265	-0.0633
813.3956	-0.0207
813.5646	0.0169
813.7337	-0.1435
813.9027	-0.0517
814.0718	0.0027
814.2407	-0.0796
814.4097	0.0077
814.5787	0.0332
814.7476	-0.0211
814.9165	0.006
815.0854	0.0458
815.2543	-0.0763
815.4232	-0.0726
815.592	0.0289
815.7608	0.0551
815.9296	0.0575
816.0984	0.0632
816.2671	-0.0571
816.4359	0.052
816.6046	0.081
816.7733	0.0982
816.942	0.1387
817.1106	-0.2007
817.2793	-0.1188
817.4479	-0.0658
817.6165	-0.0487
817.785	-0.0153
817.9536	0.0752
818.1221	0.0361
818.2906	0.2165
818.4591	-0.0621
818.6276	-0.0055
818.7961	-0.0175
818.9645	0.1052
819.1329	0.1416
819.3013	-0.0956
819.4697	0.1223
819.638	-0.1515
819.8064	-0.1008
819.9747	-0.0515
820.143	0.1247
820.3113	0.0566
820.4795	0.1221
820.6477	0.131
820.816	0.0285
820.9842	-0.0397
821.1523	0.121
821.3205	0.013
821.4886	0.0579
821.6567	-0.0386
821.8248	-0.0477
821.9929	-0.0052
822.1609	0.0498
822.329	-0.0147
822.497	-0.0797
822.665	0.055
822.833	-0.1629
823.0009	-0.0645
823.1688	-0.0685
823.3367	-0.2398
823.5046	0.0103
823.6725	-0.0273
823.8404	-0.1577
824.0082	0.1575
824.176	0.0539
824.3438	-0.0126
824.5116	0.1008
824.6793	0.0478
824.847	0.0907
825.0147	0.144
825.1824	-0.0379
825.3501	-0.0098
825.5177	0.0349
825.6854	0.1237
825.853	-0.1531
826.0206	-0.1619
826.1881	-0.0572
826.3557	0.1516
826.5232	-0.0007
826.6907	0.0369
826.8582	-0.0364
827.0257	-0.0227
827.1931	0.0531
827.3605	-0.1161
827.528	-0.1187
827.6953	0.179
827.8627	-0.0726
828.03	-0.0384
828.1974	-0.0729
828.3647	0.0551
828.532	0.0564
828.6992	0.1204
828.8665	-0.0279
829.0337	-0.2131
829.2009	0.0328
829.3681	0.071
829.5352	0.1135
829.7024	0.1297
829.8695	-0.1396
830.0366	0.0488
830.2037	-0.0412
830.3707	-0.1206
830.5378	0.343
830.7048	-0.3561
830.8718	-0.0918
831.0388	0.0288
831.2057	0.2277
831.3727	-0.0829
831.5396	-0.089
831.7065	0.0045
831.8734	0.0173
832.0402	-0.001
832.2071	0.4378
832.3739	0.389
832.5407	-0
832.7075	0.2294
832.8742	-0.0824
833.041	-0.1093
833.2077	-0.1261
833.3744	0.0353
833.541	0.0231
833.7077	0.0227
833.8743	0.1185
834.0409	-0.0094
834.2075	-0.0889
834.3741	0.0596
834.5407	-0.0236
834.7072	0.0366
834.8737	0.0709
835.0402	0.0414
835.2067	0.0326
835.3731	0.087
835.5395	-0.0077
835.706	-0.171
835.8723	-0.1086
836.0387	0.0625
836.2051	0.2752
836.3714	-0.2162
836.5377	0.2926
836.704	0.3464
836.8703	-0.1919
837.0365	0.0151
837.2027	-0.4751
837.3689	-0.2595
837.5351	-0.4384
837.7013	0.1732
837.8674	-0.9094
838.0335	-0.0109
838.1997	-0.0369
838.3657	1.618
838.5318	-0.3953
838.6978	-0
838.8639	-0.1222
839.0299	0.1401
839.1958	0.0989
839.3618	1.5163
839.5277	-0.0426
839.6937	-0.1484
839.8596	-0.2036
840.0254	0.2783
840.1913	0.3293
840.3571	-0.301
840.523	-0.118
840.6888	-0.0966
840.8545	-0.1653
841.0203	-0.1426
841.186	0.0459
841.3517	-0.0271
841.5174	0.289
841.6831	0.158
841.8488	0.5781
842.0144	0.2104
842.18	0.6041
842.3456	-0.1621
842.5112	-0.0505
842.6767	-0.2017
842.8422	0.1311
843.0077	0.1666
843.1732	-0.1885
843.3387	-0.0045
843.5042	-0
843.6696	-0.3255
843.835	-0.4055
844.0004	0.0049
844.1657	-0
844.3311	-0.632
844.4964	0.8535
844.6617	-0
844.827	-0
844.9923	-0.1821
845.1575	-0
845.3227	0.2417
845.4879	0.1306
845.6531	-0.1387
845.8183	-0.0092
845.9834	-0
846.1485	-0.0629
846.3136	0.2541
846.4787	-0.0618
846.6438	0.0593
846.8088	-1.1703
846.9738	-0
847.1388	0.1484
847.3038	-0
847.4687	-0.301
847.6337	0.7066
847.7986	0.2464
847.9635	-0.3237
848.1284	-0
848.2932	-0.021
848.458	1.489
848.6228	0.04
848.7876	0.3335
848.9524	-0.0841
849.1172	-0.0962
849.2819	-0
849.4466	-0.1714
849.6113	-0.0284
849.7759	-0
849.9406	-0.0728
850.1052	-0.4401
850.2698	-1.0334
850.4344	0.2444
850.599	0.2304
850.7635	0.4213
850.928	-0.0908
851.0925	-0.0891
851.257	-0.2102
851.4215	0.5185
851.5859	-0.075
851.7503	-0
851.9147	-0
852.0791	-0.6572
852.2434	-0.0586
852.4078	-0
852.5721	-0.3182
852.7364	0.0961
852.9007	-0.3182
853.0649	-0
853.2291	-0
853.3934	0.1616
853.5575	-0.1812
853.7217	-0.0059
853.8859	-0.3084
854.05	-1.0162
854.2141	-0
854.3782	0.5981
854.5423	-0.8426
854.7063	0.3124
854.8703	-0.0088
855.0343	-0.1134
855.1983	-0.1473
855.3623	-0.1549
855.5262	-0.8764
855.6901	0.005
855.854	-0.0133
856.0179	-0
856.1818	-0.2449
856.3456	0.9153
856.5094	0.0235
856.6732	-0.3571
856.837	0.0479
857.0008	0.6312
857.1645	0.2852
857.3282	0.3163
857.4919	0.2254
857.6556	0.8359
857.8192	-0.3167
857.9828	-0.4622
858.1465	0.0507
858.31	-0
858.4736	0.2843
858.6372	-0.1704
858.8007	-1.1856
858.9642	0.3293
859.1277	-0
859.2911	0.2725
859.4546	-0.2358
859.618	-0.5244
859.7814	-0
859.9448	0.5156
860.1081	-0
860.2715	-0.5454
860.4348	-0.0812
860.5981	-0
860.7614	-0
860.9246	-0.0868
861.0879	-0.316
861.2511	-0.0187
861.4143	-0
861.5774	0.4462
861.7406	0.8751
861.9037	-0
862.0668	-0.1047
862.2299	-2.2601
862.393	-0
862.556	-0.1663
862.7191	0.1941
862.8821	-0.4043
863.0451	-0.0094
863.208	-0.316
863.371	0.3633
863.5339	-0.226
863.6968	-0.5886
863.8597	-0.7782
864.0225	0.3297
864.1854	-0.4511
864.3482	-0.1943
864.511	0.0235
864.6737	-0
864.8365	0.1566
864.9992	-0
865.1619	0.2228
865.3246	-0
865.4873	-0
865.65	0.8129
865.8126	-0
865.9752	-0.3095
866.1378	-0.868
866.3004	0.2476
866.4629	0.0364
866.6254	-0
866.7879	-0
866.9504	-0
867.1129	-0
867.2753	-0.169
867.4377	-0
867.6001	0.7277
867.7625	0.2116
867.9249	-0
868.0872	0.2277
868.2495	-0
868.4118	-0.4333
868.5741	-0.5819
868.7363	0.3764
868.8986	0.0102
869.0608	0.1433
869.223	-0
869.3851	0.8346
869.5473	-0.8381
869.7094	-0.1413
869.8715	0.6788
870.0336	0.1353
870.1957	0.0414
870.3577	0.324
870.5197	-0.1613
870.6817	-0
870.8437	0.4007
871.0057	-0
871.1676	0.0962
871.3295	0.9777
871.4914	-0.2139
871.6533	-0
871.8151	-0.6376
871.977	0.4016
872.1388	-0.4175
872.3006	0.6656
872.4623	-0.5322
872.6241	-0
872.7858	-0.1838
872.9475	-0.112
873.1092	-0.064
873.2709	0.3687
873.4325	-0
873.5941	-1.1266
873.7557	-0.6405
873.9173	-0.8967
874.0789	0.5221
874.2404	-0.4697
874.4019	-0.2323
874.5634	-0.1773
874.7249	-0.0458
874.8863	0.5441
875.0478	0.0715
875.2092	-0
875.3706	0.2349
875.5319	1.6385
875.6933	-0.1096
875.8546	0.1217
876.0159	0.2693
876.1772	-0
876.3385	-0
876.4997	0.9461
876.6609	-0
876.8221	0.2476
876.9833	-0.1378
877.1445	0.096
877.3056	-0.4334
877.4667	-0
877.6278	-0
877.7889	-0
877.9499	-0.4028
878.111	0.3908
878.272	-0
878.433	-0.4642
878.5939	-0.3751
878.7549	0.1427
878.9158	-0
879.0767	-0.4497
879.2376	0.03
879.3984	-0
879.5593	-0
879.7201	-0
879.8809	0.3074
880.0417	0.3023
880.2024	0.5391
880.3632	0.2719
880.5239	-0.1893
880.6846	-0.4049
880.8452	0.8781
881.0059	-0
881.1665	0.4356
881.3271	-0.0862
881.4877	0.3396
881.6483	-0.5229
881.8088	-0
881.9693	0.6656
882.1298	0.6656
882.2903	0.6656
