Data from D4ACN5uM480nmA_Absorbance_12-08-00-249.txt Node
Date: Fri Feb 21 12:08:00 GMT 2025
User: LASERRRRR
Spectrometer: FLMT03099
Trigger mode: 0
Integration Time (sec): 1.500000E-2
Scans to average: 1
Electric dark correction enabled: true
Nonlinearity correction enabled: false
Boxcar width: 0
XAxis mode: Wavelengths
Number of Pixels in Spectrum: 3648
>>>>>Begin Spectral Data<<<<<
179.3399	0.1366
179.5586	0.1366
179.7771	0.1366
179.9957	0.4974
180.2143	-0.2389
180.4329	-0
180.6514	-0
180.8699	0.1544
181.0885	-0.2084
181.307	0.7143
181.5255	-0
181.744	-0
181.9625	-0
182.181	-0
182.3994	-0
182.6179	-1.2138
182.8363	0.2354
183.0547	-0
183.2732	0.233
183.4916	0.3063
183.71	0.2845
183.9284	0.4137
184.1467	1.2572
184.3651	0.4904
184.5835	0.3784
184.8018	0.2583
185.0201	0.2876
185.2385	0.0388
185.4568	0.189
185.6751	0.2651
185.8934	0.473
186.1117	0.0468
186.3299	0.1334
186.5482	0.2852
186.7664	0.3128
186.9847	0.3826
187.2029	0.416
187.4211	0.3378
187.6393	0.3614
187.8575	0.1058
188.0757	0.5135
188.2939	0.4395
188.512	0.4265
188.7302	0.1593
188.9483	0.4569
189.1665	1.0212
189.3846	0.1045
189.6027	0.083
189.8208	0.2735
190.0389	0.2118
190.257	0.3369
190.475	0.1896
190.6931	0.441
190.9111	0.6752
191.1292	0.3781
191.3472	0.1919
191.5652	0.5665
191.7832	0.239
192.0012	0.29
192.2192	0.3194
192.4371	0.2184
192.6551	0.2972
192.873	0.3615
193.091	0.378
193.3089	0.1922
193.5268	0.5484
193.7447	0.6642
193.9626	0.4435
194.1805	0.4767
194.3984	0.5047
194.6162	0.4711
194.8341	0.4664
195.0519	0.6363
195.2697	0.5535
195.4875	0.7245
195.7054	0.5827
195.9231	0.4461
196.1409	0.5898
196.3587	0.7086
196.5765	0.4778
196.7942	0.7766
197.012	0.5668
197.2297	0.5916
197.4474	0.6747
197.6651	0.5969
197.8828	0.7651
198.1005	0.5531
198.3182	0.6842
198.5358	0.6292
198.7535	0.6195
198.9711	0.6935
199.1888	0.7522
199.4064	0.5815
199.624	0.6204
199.8416	0.5626
200.0592	0.591
200.2767	0.5646
200.4943	0.7058
200.7119	0.6821
200.9294	0.6083
201.1469	0.6905
201.3645	0.6051
201.582	0.5203
201.7995	0.6734
202.017	0.525
202.2344	0.5778
202.4519	0.6229
202.6694	0.6277
202.8868	0.6004
203.1042	0.5302
203.3217	0.563
203.5391	0.517
203.7565	0.5239
203.9739	0.526
204.1913	0.546
204.4086	0.5754
204.626	0.6002
204.8433	0.5211
205.0607	0.4789
205.278	0.5196
205.4953	0.4683
205.7126	0.4655
205.9299	0.4664
206.1472	0.4923
206.3644	0.4666
206.5817	0.4804
206.7989	0.5076
207.0162	0.4008
207.2334	0.4374
207.4506	0.4475
207.6678	0.4869
207.885	0.4269
208.1022	0.4557
208.3194	0.4168
208.5365	0.4613
208.7537	0.4258
208.9708	0.4766
209.1879	0.4085
209.405	0.4415
209.6222	0.4237
209.8392	0.3967
210.0563	0.4095
210.2734	0.4215
210.4905	0.4275
210.7075	0.4344
210.9245	0.4045
211.1416	0.4084
211.3586	0.4193
211.5756	0.4064
211.7926	0.4056
212.0096	0.4103
212.2265	0.4214
212.4435	0.3943
212.6604	0.3836
212.8774	0.4077
213.0943	0.4059
213.3112	0.4094
213.5281	0.4064
213.745	0.4103
213.9619	0.3933
214.1788	0.4029
214.3956	0.4219
214.6125	0.3911
214.8293	0.4069
215.0461	0.3954
215.2629	0.4312
215.4798	0.3735
215.6965	0.3987
215.9133	0.3976
216.1301	0.431
216.3469	0.4155
216.5636	0.4006
216.7803	0.4027
216.9971	0.4131
217.2138	0.4182
217.4305	0.4278
217.6472	0.439
217.8639	0.4049
218.0805	0.416
218.2972	0.4231
218.5138	0.4425
218.7305	0.4204
218.9471	0.4115
219.1637	0.4265
219.3803	0.4219
219.5969	0.424
219.8135	0.4288
220.0301	0.4119
220.2466	0.4375
220.4632	0.4293
220.6797	0.4521
220.8962	0.4369
221.1127	0.4278
221.3292	0.4296
221.5457	0.4347
221.7622	0.4177
221.9787	0.4379
222.1951	0.4423
222.4116	0.4581
222.628	0.441
222.8444	0.449
223.0608	0.4301
223.2772	0.4494
223.4936	0.4455
223.71	0.466
223.9264	0.4714
224.1427	0.4463
224.3591	0.4697
224.5754	0.4635
224.7917	0.4802
225.008	0.4537
225.2243	0.4551
225.4406	0.4688
225.6569	0.459
225.8732	0.4765
226.0894	0.4564
226.3057	0.4632
226.5219	0.4686
226.7381	0.4714
226.9543	0.474
227.1705	0.4693
227.3867	0.4812
227.6029	0.4818
227.8191	0.4871
228.0352	0.4798
228.2513	0.4923
228.4675	0.48
228.6836	0.5098
228.8997	0.5018
229.1158	0.5012
229.3319	0.5051
229.548	0.4994
229.764	0.4995
229.9801	0.5088
230.1961	0.5135
230.4121	0.519
230.6282	0.5165
230.8442	0.5168
231.0602	0.5225
231.2761	0.5195
231.4921	0.5111
231.7081	0.5129
231.924	0.5213
232.14	0.5266
232.3559	0.5416
232.5718	0.526
232.7877	0.5386
233.0036	0.5141
233.2195	0.5302
233.4353	0.5403
233.6512	0.5385
233.867	0.5279
234.0829	0.5321
234.2987	0.527
234.5145	0.5306
234.7303	0.5382
234.9461	0.5494
235.1619	0.5366
235.3776	0.5366
235.5934	0.5523
235.8091	0.5191
236.0249	0.5447
236.2406	0.5383
236.4563	0.5306
236.672	0.5369
236.8877	0.5463
237.1034	0.5285
237.319	0.5383
237.5347	0.5298
237.7503	0.5337
237.966	0.538
238.1816	0.5261
238.3972	0.5323
238.6128	0.5346
238.8284	0.5278
239.0439	0.5518
239.2595	0.5262
239.475	0.5333
239.6906	0.531
239.9061	0.5331
240.1216	0.528
240.3371	0.5141
240.5526	0.5084
240.7681	0.5299
240.9836	0.5335
241.199	0.5125
241.4145	0.5058
241.6299	0.5014
241.8453	0.4918
242.0607	0.4856
242.2761	0.4863
242.4915	0.4666
242.7069	0.4581
242.9223	0.4713
243.1376	0.4538
243.353	0.4425
243.5683	0.4423
243.7836	0.4252
243.9989	0.4103
244.2142	0.4147
244.4295	0.4153
244.6448	0.4045
244.86	0.3938
245.0753	0.3852
245.2905	0.3776
245.5057	0.3704
245.721	0.3625
245.9362	0.3566
246.1514	0.3437
246.3665	0.3381
246.5817	0.3323
246.7969	0.322
247.012	0.3248
247.2271	0.3103
247.4423	0.3089
247.6574	0.3096
247.8725	0.3027
248.0876	0.2927
248.3026	0.2847
248.5177	0.2757
248.7328	0.2823
248.9478	0.2712
249.1628	0.2718
249.3779	0.2677
249.5929	0.2624
249.8079	0.2507
250.0228	0.249
250.2378	0.2493
250.4528	0.2523
250.6677	0.2418
250.8827	0.2389
251.0976	0.2402
251.3125	0.2358
251.5274	0.2349
251.7423	0.2279
251.9572	0.2222
252.172	0.2206
252.3869	0.2226
252.6017	0.2189
252.8166	0.2184
253.0314	0.2173
253.2462	0.2196
253.461	0.2158
253.6758	0.2094
253.8906	0.2125
254.1053	0.201
254.3201	0.2011
254.5348	0.2075
254.7496	0.2095
254.9643	0.2041
255.179	0.2065
255.3937	0.1955
255.6083	0.2049
255.823	0.1997
256.0377	0.2019
256.2523	0.1995
256.467	0.1966
256.6816	0.2022
256.8962	0.1969
257.1108	0.1969
257.3254	0.1936
257.54	0.1986
257.7545	0.1896
257.9691	0.1871
258.1836	0.1917
258.3981	0.1848
258.6127	0.1864
258.8272	0.1894
259.0417	0.1878
259.2561	0.1843
259.4706	0.1915
259.6851	0.1881
259.8995	0.1841
260.114	0.1858
260.3284	0.1873
260.5428	0.1799
260.7572	0.1856
260.9716	0.1896
261.186	0.1793
261.4003	0.1917
261.6147	0.1873
261.829	0.1829
262.0433	0.1831
262.2577	0.1896
262.472	0.1859
262.6863	0.1908
262.9005	0.1917
263.1148	0.1811
263.3291	0.1885
263.5433	0.1915
263.7576	0.1814
263.9718	0.1846
264.186	0.1818
264.4002	0.1867
264.6144	0.1925
264.8286	0.1856
265.0427	0.1855
265.2569	0.1854
265.471	0.1861
265.6851	0.1838
265.8993	0.189
266.1134	0.1866
266.3275	0.1841
266.5415	0.1872
266.7556	0.1845
266.9697	0.1799
267.1837	0.1818
267.3978	0.1992
267.6118	0.1805
267.8258	0.1875
268.0398	0.1858
268.2538	0.1852
268.4677	0.1772
268.6817	0.1781
268.8957	0.1878
269.1096	0.1795
269.3235	0.1863
269.5374	0.1837
269.7514	0.1818
269.9652	0.1807
270.1791	0.1776
270.393	0.1806
270.6068	0.181
270.8207	0.1828
271.0345	0.1764
271.2483	0.1739
271.4622	0.177
271.676	0.1739
271.8897	0.1705
272.1035	0.1701
272.3173	0.1725
272.531	0.1756
272.7448	0.1714
272.9585	0.1773
273.1722	0.1769
273.3859	0.1735
273.5996	0.1759
273.8133	0.1697
274.0269	0.1781
274.2406	0.1737
274.4542	0.1683
274.6679	0.17
274.8815	0.1728
275.0951	0.1762
275.3087	0.1853
275.5223	0.1708
275.7358	0.1851
275.9494	0.1776
276.1629	0.1773
276.3765	0.1728
276.59	0.1775
276.8035	0.1798
277.017	0.1806
277.2305	0.1766
277.444	0.1798
277.6574	0.1776
277.8709	0.1778
278.0843	0.1779
278.2978	0.1825
278.5112	0.1822
278.7246	0.1791
278.938	0.1773
279.1513	0.1812
279.3647	0.1804
279.5781	0.1815
279.7914	0.1888
280.0047	0.1771
280.2181	0.1851
280.4314	0.1786
280.6447	0.1856
280.8579	0.1809
281.0712	0.1783
281.2845	0.1821
281.4977	0.1903
281.711	0.1788
281.9242	0.1807
282.1374	0.1825
282.3506	0.1886
282.5638	0.1803
282.7769	0.1889
282.9901	0.1854
283.2033	0.1877
283.4164	0.1751
283.6295	0.1824
283.8426	0.1832
284.0557	0.1907
284.2688	0.1862
284.4819	0.1911
284.695	0.1911
284.908	0.1952
285.1211	0.1862
285.3341	0.1921
285.5471	0.2011
285.7601	0.1936
285.9731	0.1935
286.1861	0.1949
286.3991	0.1918
286.612	0.19
286.825	0.1932
287.0379	0.1966
287.2508	0.1967
287.4637	0.1921
287.6766	0.1996
287.8895	0.1879
288.1024	0.1977
288.3152	0.1951
288.5281	0.1948
288.7409	0.1931
288.9538	0.1999
289.1666	0.203
289.3794	0.1967
289.5922	0.1968
289.8049	0.2059
290.0177	0.2005
290.2304	0.1997
290.4432	0.201
290.6559	0.1905
290.8686	0.1979
291.0813	0.1999
291.294	0.2024
291.5067	0.2014
291.7194	0.197
291.932	0.2025
292.1447	0.1944
292.3573	0.2038
292.5699	0.1989
292.7825	0.1953
292.9951	0.2016
293.2077	0.2029
293.4203	0.2018
293.6328	0.1919
293.8454	0.1944
294.0579	0.2072
294.2704	0.2059
294.4829	0.2028
294.6954	0.1956
294.9079	0.2035
295.1204	0.1973
295.3328	0.1978
295.5453	0.1952
295.7577	0.1964
295.9701	0.1986
296.1825	0.201
296.3949	0.205
296.6073	0.2012
296.8197	0.2046
297.0321	0.2053
297.2444	0.1959
297.4567	0.1941
297.6691	0.1998
297.8814	0.1919
298.0937	0.1932
298.306	0.2
298.5182	0.2082
298.7305	0.1995
298.9428	0.1951
299.155	0.1954
299.3672	0.1998
299.5794	0.1907
299.7916	0.1956
300.0038	0.1916
300.216	0.1979
300.4282	0.1917
300.6403	0.1967
300.8525	0.2018
301.0646	0.1994
301.2767	0.2006
301.4888	0.1965
301.7009	0.2026
301.913	0.2039
302.125	0.1972
302.3371	0.1927
302.5491	0.1989
302.7612	0.1962
302.9732	0.1929
303.1852	0.1924
303.3972	0.1972
303.6092	0.1929
303.8211	0.1901
304.0331	0.1945
304.245	0.1974
304.457	0.2026
304.6689	0.1941
304.8808	0.1927
305.0927	0.19
305.3046	0.1857
305.5164	0.1854
305.7283	0.1863
305.9401	0.1837
306.152	0.1782
306.3638	0.1766
306.5756	0.1793
306.7874	0.1866
306.9992	0.1814
307.2109	0.172
307.4227	0.1717
307.6344	0.1751
307.8462	0.1731
308.0579	0.1695
308.2696	0.1675
308.4813	0.1624
308.693	0.165
308.9046	0.1648
309.1163	0.1594
309.328	0.1568
309.5396	0.1605
309.7512	0.1595
309.9628	0.1582
310.1744	0.1615
310.386	0.1506
310.5976	0.1469
310.8091	0.1472
311.0207	0.149
311.2322	0.1462
311.4437	0.1451
311.6552	0.1412
311.8667	0.1364
312.0782	0.1446
312.2897	0.1382
312.5012	0.1411
312.7126	0.1315
312.924	0.1375
313.1355	0.1318
313.3469	0.1296
313.5583	0.1297
313.7696	0.1305
313.981	0.1242
314.1924	0.1255
314.4037	0.1216
314.6151	0.1267
314.8264	0.1283
315.0377	0.1292
315.249	0.122
315.4603	0.122
315.6716	0.1253
315.8828	0.1261
316.0941	0.1241
316.3053	0.1225
316.5165	0.1208
316.7277	0.1253
316.9389	0.1226
317.1501	0.1247
317.3613	0.1187
317.5724	0.1196
317.7836	0.1161
317.9947	0.1132
318.2058	0.1183
318.417	0.1126
318.6281	0.1209
318.8391	0.1215
319.0502	0.1139
319.2613	0.1151
319.4723	0.1185
319.6834	0.1192
319.8944	0.1225
320.1054	0.1159
320.3164	0.1152
320.5274	0.1111
320.7383	0.1171
320.9493	0.1187
321.1602	0.114
321.3712	0.1201
321.5821	0.1213
321.793	0.1184
322.0039	0.1223
322.2148	0.1195
322.4257	0.1178
322.6365	0.113
322.8474	0.1151
323.0582	0.1173
323.269	0.1088
323.4798	0.1204
323.6906	0.1217
323.9014	0.1121
324.1122	0.1151
324.3229	0.1203
324.5337	0.1255
324.7444	0.1154
324.9551	0.1201
325.1658	0.123
325.3765	0.1169
325.5872	0.1156
325.7979	0.1194
326.0085	0.1162
326.2192	0.1128
326.4298	0.1209
326.6404	0.1167
326.851	0.1167
327.0616	0.1248
327.2722	0.1243
327.4828	0.1139
327.6933	0.1164
327.9039	0.1195
328.1144	0.1208
328.3249	0.1237
328.5354	0.1175
328.7459	0.1228
328.9564	0.1248
329.1669	0.1224
329.3773	0.1197
329.5878	0.1241
329.7982	0.1223
330.0086	0.121
330.219	0.1152
330.4294	0.1273
330.6398	0.1272
330.8502	0.1262
331.0605	0.1241
331.2708	0.1253
331.4812	0.1233
331.6915	0.1251
331.9018	0.1209
332.1121	0.1281
332.3224	0.1286
332.5326	0.1255
332.7429	0.1221
332.9531	0.1266
333.1633	0.1256
333.3735	0.126
333.5837	0.1308
333.7939	0.1262
334.0041	0.1278
334.2143	0.12
334.4244	0.1243
334.6346	0.1215
334.8447	0.1295
335.0548	0.1241
335.2649	0.1327
335.475	0.1287
335.685	0.1233
335.8951	0.1287
336.1051	0.1283
336.3152	0.1318
336.5252	0.1254
336.7352	0.1209
336.9452	0.1305
337.1552	0.1323
337.3652	0.1286
337.5751	0.1267
337.7851	0.1333
337.995	0.1325
338.2049	0.1357
338.4148	0.1324
338.6247	0.13
338.8346	0.1271
339.0445	0.1324
339.2543	0.1416
339.4642	0.1411
339.674	0.1409
339.8838	0.1402
340.0936	0.1336
340.3034	0.132
340.5132	0.1276
340.7229	0.1339
340.9327	0.1446
341.1424	0.1312
341.3522	0.141
341.5619	0.1395
341.7716	0.1427
341.9813	0.1413
342.1909	0.142
342.4006	0.1401
342.6102	0.1359
342.8199	0.1347
343.0295	0.1377
343.2391	0.1427
343.4487	0.1474
343.6583	0.1453
343.8679	0.1473
344.0774	0.1395
344.287	0.1458
344.4965	0.1427
344.706	0.1467
344.9155	0.141
345.125	0.149
345.3345	0.1486
345.544	0.1556
345.7534	0.1537
345.9629	0.1482
346.1723	0.1494
346.3817	0.1499
346.5911	0.1511
346.8005	0.1514
347.0099	0.1514
347.2193	0.1482
347.4286	0.152
347.638	0.1493
347.8473	0.1536
348.0566	0.1579
348.2659	0.1603
348.4752	0.1501
348.6845	0.1641
348.8937	0.1555
349.103	0.1558
349.3122	0.16
349.5214	0.1509
349.7306	0.1628
349.9398	0.1603
350.149	0.1647
350.3582	0.1559
350.5674	0.1684
350.7765	0.1655
350.9856	0.1631
351.1948	0.1708
351.4039	0.164
351.613	0.1702
351.822	0.1718
352.0311	0.1708
352.2402	0.1723
352.4492	0.1772
352.6582	0.172
352.8672	0.1722
353.0762	0.1757
353.2852	0.1713
353.4942	0.1702
353.7032	0.1746
353.9121	0.1758
354.1211	0.1723
354.33	0.1786
354.5389	0.1828
354.7478	0.1796
354.9567	0.1788
355.1655	0.1823
355.3744	0.1802
355.5833	0.1831
355.7921	0.1784
356.0009	0.1856
356.2097	0.1921
356.4185	0.1964
356.6273	0.1877
356.8361	0.1914
357.0448	0.1872
357.2536	0.1817
357.4623	0.1839
357.671	0.1881
357.8797	0.1989
358.0884	0.1924
358.2971	0.1937
358.5057	0.1913
358.7144	0.1973
358.923	0.1996
359.1316	0.1921
359.3402	0.2004
359.5488	0.1983
359.7574	0.2036
359.966	0.2049
360.1746	0.1925
360.3831	0.2076
360.5916	0.2047
360.8002	0.2097
361.0087	0.2154
361.2172	0.2082
361.4256	0.2076
361.6341	0.2163
361.8426	0.2098
362.051	0.2111
362.2594	0.2109
362.4678	0.2144
362.6762	0.2187
362.8846	0.221
363.093	0.2171
363.3014	0.226
363.5097	0.2201
363.718	0.228
363.9264	0.2202
364.1347	0.2306
364.343	0.234
364.5513	0.2325
364.7595	0.2247
364.9678	0.2312
365.176	0.2306
365.3842	0.2358
365.5925	0.2331
365.8007	0.239
366.0089	0.2319
366.217	0.2392
366.4252	0.2367
366.6333	0.2356
366.8415	0.2413
367.0496	0.2422
367.2577	0.2481
367.4658	0.2443
367.6739	0.2341
367.882	0.2433
368.09	0.2558
368.2981	0.243
368.5061	0.2424
368.7141	0.2549
368.9221	0.2467
369.1301	0.2479
369.3381	0.2565
369.5461	0.253
369.754	0.2503
369.962	0.2627
370.1699	0.261
370.3778	0.2537
370.5857	0.2658
370.7936	0.2638
371.0015	0.2631
371.2093	0.2543
371.4172	0.2596
371.625	0.2686
371.8328	0.2614
372.0406	0.2612
372.2484	0.261
372.4562	0.268
372.664	0.2746
372.8717	0.2719
373.0795	0.2696
373.2872	0.2729
373.4949	0.2817
373.7026	0.2758
373.9103	0.2671
374.118	0.2728
374.3256	0.2865
374.5333	0.2763
374.7409	0.2743
374.9485	0.2783
375.1561	0.2843
375.3637	0.2818
375.5713	0.2811
375.7789	0.2742
375.9864	0.2838
376.194	0.2827
376.4015	0.2877
376.609	0.2924
376.8165	0.2848
377.024	0.2833
377.2315	0.293
377.4389	0.2744
377.6464	0.2933
377.8538	0.295
378.0612	0.2867
378.2686	0.292
378.476	0.2952
378.6834	0.2977
378.8908	0.3025
379.0981	0.3
379.3055	0.2958
379.5128	0.2958
379.7201	0.299
379.9274	0.2875
380.1347	0.2987
380.342	0.3194
380.5492	0.3
380.7565	0.2994
380.9637	0.3048
381.1709	0.2985
381.3781	0.3064
381.5853	0.3023
381.7925	0.3113
381.9997	0.2987
382.2068	0.3001
382.4139	0.3073
382.6211	0.3196
382.8282	0.3066
383.0353	0.3062
383.2424	0.3117
383.4494	0.3103
383.6565	0.3216
383.8635	0.3282
384.0706	0.3153
384.2776	0.3221
384.4846	0.3236
384.6916	0.3136
384.8986	0.3205
385.1055	0.3156
385.3125	0.313
385.5194	0.3109
385.7263	0.3195
385.9333	0.3165
386.1402	0.3201
386.347	0.3213
386.5539	0.3173
386.7608	0.3136
386.9676	0.3174
387.1744	0.3207
387.3813	0.3129
387.5881	0.3221
387.7948	0.32
388.0016	0.319
388.2084	0.3155
388.4151	0.3141
388.6219	0.3165
388.8286	0.3164
389.0353	0.3082
389.242	0.3103
389.4487	0.3184
389.6553	0.3015
389.862	0.3091
390.0686	0.3125
390.2753	0.3031
390.4819	0.315
390.6885	0.3045
390.8951	0.307
391.1016	0.3053
391.3082	0.3061
391.5147	0.303
391.7213	0.3041
391.9278	0.3018
392.1343	0.2992
392.3408	0.29
392.5473	0.2905
392.7537	0.2946
392.9602	0.2882
393.1666	0.2823
393.373	0.2932
393.5794	0.2889
393.7858	0.2987
393.9922	0.292
394.1986	0.2821
394.4049	0.2811
394.6113	0.2901
394.8176	0.2785
395.0239	0.2769
395.2302	0.2689
395.4365	0.2802
395.6428	0.2865
395.8491	0.2768
396.0553	0.2743
396.2615	0.2721
396.4678	0.2809
396.674	0.2799
396.8802	0.2652
397.0863	0.2717
397.2925	0.2687
397.4987	0.2729
397.7048	0.2833
397.9109	0.2783
398.117	0.2629
398.3231	0.2787
398.5292	0.2654
398.7353	0.2644
398.9413	0.2675
399.1474	0.2779
399.3534	0.2741
399.5594	0.2694
399.7654	0.2703
399.9714	0.2652
400.1774	0.2582
400.3833	0.2719
400.5893	0.2714
400.7952	0.278
401.0011	0.2667
401.207	0.2774
401.4129	0.2687
401.6188	0.2647
401.8247	0.2657
402.0305	0.2626
402.2364	0.276
402.4422	0.2723
402.648	0.2688
402.8538	0.2693
403.0596	0.271
403.2654	0.2687
403.4711	0.2666
403.6768	0.278
403.8826	0.2741
404.0883	0.2611
404.294	0.2698
404.4997	0.2685
404.7054	0.2618
404.911	0.2688
405.1167	0.2748
405.3223	0.2738
405.5279	0.2718
405.7335	0.2639
405.9391	0.2662
406.1447	0.2667
406.3502	0.2788
406.5558	0.2727
406.7613	0.2642
406.9668	0.2654
407.1724	0.2604
407.3778	0.2652
407.5833	0.2615
407.7888	0.2741
407.9942	0.274
408.1997	0.2609
408.4051	0.2687
408.6105	0.2747
408.8159	0.2717
409.0213	0.2686
409.2267	0.2632
409.432	0.2736
409.6374	0.2695
409.8427	0.266
410.048	0.2737
410.2533	0.2705
410.4586	0.2705
410.6639	0.2714
410.8691	0.2745
411.0744	0.2563
411.2796	0.2681
411.4848	0.268
411.69	0.2706
411.8952	0.2735
412.1004	0.276
412.3056	0.261
412.5107	0.263
412.7158	0.2758
412.921	0.2628
413.1261	0.2647
413.3312	0.2625
413.5362	0.2723
413.7413	0.2743
413.9464	0.2656
414.1514	0.2641
414.3564	0.2625
414.5614	0.2583
414.7664	0.2619
414.9714	0.2652
415.1764	0.2657
415.3813	0.254
415.5863	0.2606
415.7912	0.2602
415.9961	0.2632
416.201	0.2614
416.4059	0.2534
416.6108	0.2603
416.8156	0.2546
417.0205	0.2543
417.2253	0.2678
417.4301	0.2689
417.6349	0.2589
417.8397	0.2646
418.0445	0.2723
418.2492	0.2658
418.454	0.2668
418.6587	0.2557
418.8634	0.2655
419.0681	0.2439
419.2728	0.2646
419.4775	0.2617
419.6822	0.2614
419.8868	0.2597
420.0915	0.2678
420.2961	0.2497
420.5007	0.2458
420.7053	0.2563
420.9099	0.24
421.1144	0.2433
421.319	0.2463
421.5235	0.2441
421.728	0.2376
421.9325	0.2473
422.137	0.2486
422.3415	0.2404
422.546	0.2391
422.7504	0.2474
422.9549	0.2383
423.1593	0.2472
423.3637	0.2419
423.5681	0.2423
423.7725	0.242
423.9769	0.2443
424.1812	0.2396
424.3856	0.245
424.5899	0.2394
424.7942	0.2296
424.9985	0.2329
425.2028	0.2321
425.4071	0.2184
425.6113	0.2389
425.8156	0.2332
426.0198	0.2156
426.224	0.2284
426.4282	0.2345
426.6324	0.2281
426.8366	0.2281
427.0407	0.2243
427.2449	0.2081
427.449	0.2122
427.6531	0.2177
427.8572	0.2183
428.0613	0.2101
428.2654	0.2166
428.4694	0.2055
428.6735	0.2123
428.8775	0.2104
429.0815	0.2104
429.2855	0.2006
429.4895	0.2007
429.6935	0.1987
429.8975	0.2066
430.1014	0.1944
430.3053	0.1916
430.5093	0.1991
430.7132	0.193
430.9171	0.1944
431.1209	0.1969
431.3248	0.1914
431.5286	0.1846
431.7325	0.1913
431.9363	0.1855
432.1401	0.1723
432.3439	0.1836
432.5477	0.1874
432.7514	0.1762
432.9552	0.1738
433.1589	0.174
433.3627	0.1726
433.5664	0.1723
433.7701	0.1679
433.9737	0.168
434.1774	0.1752
434.3811	0.1653
434.5847	0.1655
434.7883	0.1588
434.9919	0.1521
435.1955	0.1556
435.3991	0.1544
435.6027	0.1538
435.8062	0.1555
436.0098	0.1512
436.2133	0.1599
436.4168	0.1538
436.6203	0.1318
436.8238	0.1438
437.0272	0.1354
437.2307	0.1282
437.4341	0.1327
437.6375	0.1294
437.841	0.1339
438.0443	0.1347
438.2477	0.1285
438.4511	0.137
438.6545	0.1273
438.8578	0.1263
439.0611	0.1317
439.2644	0.1161
439.4677	0.1196
439.671	0.1216
439.8743	0.1195
440.0775	0.1166
440.2808	0.1246
440.484	0.1143
440.6872	0.1053
440.8904	0.1058
441.0936	0.117
441.2967	0.095
441.4999	0.1073
441.703	0.104
441.9062	0.1056
442.1093	0.0937
442.3124	0.0984
442.5155	0.0961
442.7185	0.074
442.9216	0.0895
443.1246	0.0908
443.3276	0.0918
443.5307	0.0864
443.7337	0.0828
443.9366	0.0864
444.1396	0.0778
444.3426	0.0882
444.5455	0.0765
444.7484	0.0738
444.9513	0.083
445.1542	0.0745
445.3571	0.0756
445.56	0.0772
445.7628	0.07
445.9657	0.073
446.1685	0.0749
446.3713	0.0721
446.5741	0.0618
446.7769	0.0667
446.9797	0.0683
447.1824	0.0639
447.3852	0.0595
447.5879	0.0653
447.7906	0.0647
447.9933	0.0664
448.196	0.056
448.3986	0.0557
448.6013	0.0521
448.8039	0.0555
449.0066	0.0503
449.2092	0.0534
449.4118	0.0546
449.6143	0.0547
449.8169	0.0512
450.0195	0.0514
450.222	0.0472
450.4245	0.0534
450.627	0.0477
450.8295	0.0394
451.032	0.0435
451.2345	0.0546
451.4369	0.0458
451.6394	0.0407
451.8418	0.0386
452.0442	0.0398
452.2466	0.0404
452.449	0.0352
452.6513	0.0303
452.8537	0.0344
453.056	0.0375
453.2583	0.0364
453.4607	0.0267
453.663	0.0321
453.8652	0.0363
454.0675	0.042
454.2697	0.0228
454.472	0.0259
454.6742	0.0238
454.8764	0.0344
455.0786	0.0331
455.2808	0.0271
455.4829	0.0268
455.6851	0.032
455.8872	0.0261
456.0893	0.0299
456.2915	0.0164
456.4935	0.018
456.6956	0.0236
456.8977	0.0295
457.0997	0.0332
457.3018	0.0354
457.5038	0.0231
457.7058	0.015
457.9078	0.0295
458.1098	0.0173
458.3117	0.0259
458.5137	0.0277
458.7156	0.0273
458.9175	0.0205
459.1194	0.03
459.3213	0.0196
459.5232	0.0114
459.725	0.0227
459.9269	0.0268
460.1287	0.0187
460.3305	0.0172
460.5323	0.0201
460.7341	0.0203
460.9359	0.0171
461.1376	0.0217
461.3394	0.0185
461.5411	0.0174
461.7428	0.0164
461.9445	0.0203
462.1462	0.0147
462.3479	0.0236
462.5495	0.0166
462.7512	0.0104
462.9528	0.0179
463.1544	0.01
463.356	0.0202
463.5576	0.0147
463.7592	0.0063
463.9607	0.01
464.1623	0.0176
464.3638	0.017
464.5653	0.0178
464.7668	0.0058
464.9683	0.0119
465.1697	0.0106
465.3712	0.0167
465.5726	0.0082
465.7741	0.0062
465.9755	0.0124
466.1769	0.0072
466.3782	0.002
466.5796	0.0143
466.7809	0.0136
466.9823	0.0187
467.1836	0.0127
467.3849	0.0177
467.5862	-0.0013
467.7875	0.0151
467.9887	0.004
468.19	0.0077
468.3912	0.0113
468.5924	0.0092
468.7936	-0.0016
468.9948	0.0044
469.196	0.0141
469.3972	0.0136
469.5983	0.0035
469.7994	0.0115
470.0006	0.0079
470.2017	0.0028
470.4027	-0.0074
470.6038	-0.0058
470.8049	0.0077
471.0059	0.0142
471.2069	0.016
471.408	0.0045
471.6089	0.0065
471.8099	0.0179
472.0109	0.0148
472.2119	0.0249
472.4128	0.0154
472.6137	0.005
472.8146	0.0029
473.0155	0.003
473.2164	-0.0066
473.4173	0.0181
473.6181	0.0137
473.819	0.0019
474.0198	0.0066
474.2206	0.0125
474.4214	0.0199
474.6222	0.005
474.8229	0.0059
475.0237	0.0085
475.2244	0.0112
475.4251	-0.0025
475.6258	-0.0002
475.8265	0.0029
476.0272	0.0081
476.2278	0.0109
476.4285	0.0011
476.6291	0.0175
476.8297	-0.0068
477.0303	0.0128
477.2309	-0.0013
477.4315	0.0091
477.632	0.0092
477.8326	0.0049
478.0331	0.0006
478.2336	0.0112
478.4341	0.0065
478.6346	-0.0009
478.8351	0.0035
479.0355	0.0049
479.236	0.0092
479.4364	-0.0048
479.6368	0.0032
479.8372	0.0106
480.0376	-0.0001
480.2379	0.0046
480.4383	0.007
480.6386	0.0074
480.8389	0.0071
481.0392	0.0018
481.2395	0.0029
481.4398	0.0054
481.6401	0.0061
481.8403	0.0005
482.0405	-0.0031
482.2408	0.007
482.441	0.0053
482.6411	-0.0021
482.8413	-0.0036
483.0415	0.0092
483.2416	0.0077
483.4417	0.0034
483.6419	-0.0018
483.8419	0.0062
484.042	0.0033
484.2421	-0.0069
484.4422	0.0096
484.6422	0.0112
484.8422	0.0044
485.0422	0.0068
485.2422	0.0024
485.4422	-0.0009
485.6422	0.001
485.8421	0
486.042	0.0041
486.242	0.0039
486.4419	0.0026
486.6417	0.0041
486.8416	0.0082
487.0415	-0.0011
487.2413	-0.0012
487.4411	-0.0008
487.641	0.0102
487.8408	0.0075
488.0405	0.0055
488.2403	-0.0027
488.4401	-0.005
488.6398	0.0075
488.8395	0.0007
489.0392	0.0007
489.2389	0.0072
489.4386	0.0005
489.6383	0.003
489.8379	0.0054
490.0376	0.0085
490.2372	-0.0019
490.4368	0.0016
490.6364	0.01
490.836	0.0022
491.0355	0.0039
491.2351	0.0059
491.4346	0.004
491.6341	0.0013
491.8336	0.0001
492.0331	-0.0032
492.2326	0.0055
492.432	-0.0006
492.6315	0.0021
492.8309	0.0015
493.0303	-0.0042
493.2297	-0.0077
493.4291	-0.0044
493.6284	0.0023
493.8278	-0.0037
494.0271	0.0026
494.2264	0.0058
494.4257	0.0037
494.625	0.0002
494.8243	0.0085
495.0236	0.0077
495.2228	0.001
495.422	0.0073
495.6213	0
495.8205	0.01
496.0196	0.0036
496.2188	0.0023
496.418	-0.0069
496.6171	0.0114
496.8162	0.007
497.0153	0.0031
497.2144	-0.007
497.4135	0.0019
497.6126	-0.0116
497.8116	0
498.0107	0.0009
498.2097	0.0048
498.4087	0.0064
498.6077	0.0115
498.8067	0.0102
499.0056	-0.0004
499.2046	0.0016
499.4035	0.0054
499.6024	-0.0089
499.8013	0.0021
500.0002	0.0091
500.199	0.0047
500.3979	0.0077
500.5967	-0.0088
500.7956	0.0001
500.9944	-0.003
501.1932	0.0089
501.3919	0.0035
501.5907	0.0037
501.7895	0.0044
501.9882	-0.0008
502.1869	0.0088
502.3856	-0.0012
502.5843	0.002
502.783	0.0078
502.9816	0.0009
503.1803	0.0084
503.3789	0.0051
503.5775	0.0069
503.7761	0.0047
503.9747	-0.0007
504.1732	0.0004
504.3718	0.0007
504.5703	0.0012
504.7689	-0.0031
504.9674	0.0056
505.1658	0.0007
505.3643	0.0018
505.5628	0.0064
505.7612	0.0071
505.9597	0.0019
506.1581	-0.0008
506.3565	-0.0051
506.5549	-0.0001
506.7532	0.0022
506.9516	0.0065
507.1499	-0.007
507.3482	0.0125
507.5465	-0.0063
507.7448	0.0057
507.9431	-0.0073
508.1414	-0.0069
508.3396	-0.0001
508.5379	0.0077
508.7361	0.009
508.9343	0.0042
509.1325	0.0041
509.3306	0.0066
509.5288	0.0116
509.7269	0.0077
509.9251	-0.0086
510.1232	-0.0028
510.3213	-0.0045
510.5193	0.0053
510.7174	-0.0037
510.9154	0.0074
511.1135	-0.0031
511.3115	0.0052
511.5095	0.0053
511.7075	0.0043
511.9055	-0.0004
512.1034	0.0002
512.3014	0.0023
512.4993	-0.0032
512.6972	0.0005
512.8951	0.0054
513.093	-0.0005
513.2908	-0.0028
513.4887	0.0092
513.6865	0.0019
513.8844	0.0029
514.0822	0.011
514.2799	-0.0071
514.4777	0.0044
514.6755	0.0058
514.8732	0.007
515.0709	0.0128
515.2687	-0.0073
515.4664	-0.0062
515.664	0.0043
515.8617	0.0063
516.0594	0.0027
516.257	0.0054
516.4546	-0.0007
516.6522	-0.0026
516.8498	-0.002
517.0474	0.0029
517.2449	-0.0001
517.4425	0.0028
517.64	0.0056
517.8375	0.0111
518.035	0.0005
518.2325	-0.0035
518.43	0.0053
518.6274	-0.0026
518.8249	0.0047
519.0223	-0.0001
519.2197	-0.0086
519.4171	0.005
519.6145	0.0028
519.8118	0.0008
520.0092	0.0039
520.2065	0.0005
520.4038	-0.0044
520.6011	0.0114
520.7984	0.0017
520.9956	0.005
521.1929	0.0041
521.3901	0.01
521.5874	-0.0048
521.7846	0.0076
521.9818	0.0008
522.1789	0.0148
522.3761	0.0059
522.5732	0.0011
522.7704	0.0036
522.9675	-0.0096
523.1646	0.0071
523.3617	-0.0015
523.5587	-0.0016
523.7558	0.007
523.9528	0.009
524.1498	0.0006
524.3468	-0.0052
524.5438	-0.0066
524.7408	0.0013
524.9378	0.0055
525.1347	0.0026
525.3316	0.0158
525.5285	0.0009
525.7254	-0.0005
525.9223	-0.0063
526.1192	-0.0017
526.316	-0.0092
526.5129	0.0065
526.7097	-0.015
526.9065	0.0064
527.1033	-0.0075
527.3	-0.0065
527.4968	0.0001
527.6935	-0.0003
527.8903	0.0124
528.087	0.006
528.2837	0.0087
528.4804	0.0161
528.677	0.0113
528.8737	-0.0104
529.0703	0.0015
529.2669	0.0108
529.4635	0.0058
529.6601	0.0079
529.8567	0.0002
530.0532	-0.0066
530.2498	-0.0023
530.4463	0.0101
530.6428	-0.0012
530.8393	0.0001
531.0358	0.0067
531.2322	0.0094
531.4287	0.0004
531.6251	-0.0028
531.8215	0.0035
532.0179	-0.007
532.2143	0.0092
532.4107	0.0103
532.607	0.0105
532.8034	0.0038
532.9997	0.0015
533.196	0.0054
533.3923	0.0046
533.5886	0.0072
533.7848	-0.0093
533.9811	0.0026
534.1773	0.0013
534.3735	0.0086
534.5697	0.0017
534.7659	0.0024
534.9621	0.009
535.1582	-0.0017
535.3544	0.0022
535.5505	0.0032
535.7466	-0.0004
535.9427	0.0022
536.1387	0.0019
536.3348	0.009
536.5308	0.011
536.7269	-0.0064
536.9229	0.0014
537.1189	-0.0048
537.3148	-0.0049
537.5108	-0.0125
537.7068	0.0084
537.9027	0.0086
538.0986	0.0006
538.2945	-0.0049
538.4904	-0.0023
538.6863	0.0114
538.8821	-0.0103
539.078	-0.0002
539.2738	-0.0013
539.4696	0.0109
539.6654	0.0044
539.8611	-0.005
540.0569	-0.003
540.2526	-0.0039
540.4484	-0.0015
540.6441	0.0052
540.8398	-0.0016
541.0355	0.0037
541.2311	0.0042
541.4268	-0.0002
541.6224	0.0029
541.818	0.0015
542.0136	-0.0099
542.2092	0.0023
542.4048	0.0023
542.6003	0.0027
542.7959	0.0058
542.9914	0.0045
543.1869	0.0035
543.3824	0.0031
543.5779	0.0015
543.7734	0.0027
543.9688	0.002
544.1642	0.0029
544.3596	0.002
544.555	0.0045
544.7504	0.0057
544.9458	0.0097
545.1411	-0.0018
545.3365	0.0091
545.5318	0.0092
545.7271	0.0168
545.9224	-0.0011
546.1177	0.0055
546.3129	-0.0113
546.5081	-0.0058
546.7034	0.0012
546.8986	0.0079
547.0938	-0.0017
547.289	0.0057
547.4841	-0.0029
547.6793	-0.0041
547.8744	0.0095
548.0695	0.0108
548.2646	-0.0012
548.4597	-0.0002
548.6548	0.0077
548.8498	-0.0073
549.0448	0.0005
549.2399	0.0003
549.4349	0.005
549.6298	-0.0078
549.8248	-0.0119
550.0198	0.0179
550.2147	0.0023
550.4096	0.0046
550.6045	0.0023
550.7994	-0.003
550.9943	-0.0009
551.1892	-0.0059
551.384	0.0017
551.5788	-0.004
551.7737	-0.0017
551.9685	0.0046
552.1632	0.0035
552.358	-0.0034
552.5528	-0.0082
552.7475	-0.0104
552.9422	0.0008
553.1369	-0.0026
553.3316	-0.0038
553.5263	0.0058
553.7209	-0.0092
553.9156	0.0129
554.1102	0.0024
554.3048	0.0094
554.4994	0.0112
554.694	0.003
554.8885	0.0119
555.0831	0.0045
555.2776	0.0019
555.4721	-0.0048
555.6666	0.0032
555.8611	-0.0093
556.0555	-0.0038
556.25	-0.0017
556.4444	-0.0019
556.6388	0.007
556.8332	0.0013
557.0276	0.0178
557.222	-0.0017
557.4163	-0.0018
557.6107	-0.0041
557.805	-0.0069
557.9993	-0.004
558.1936	0.0188
558.3879	-0.0024
558.5821	-0.0052
558.7764	0.0172
558.9706	0.0109
559.1648	0.0052
559.359	0.0092
559.5532	-0.0052
559.7473	0.007
559.9415	-0.0011
560.1356	0.0009
560.3297	-0.0024
560.5238	-0.0009
560.7179	-0.0002
560.9119	0.0147
561.106	0.0068
561.3	0.0007
561.494	0.0053
561.688	-0.0008
561.882	0.0083
562.076	-0.0021
562.2699	0.0017
562.4639	0.0082
562.6578	0.0121
562.8517	0.0102
563.0456	0.0009
563.2395	0.005
563.4333	0.0015
563.6272	0.0102
563.821	0.007
564.0148	0.0037
564.2086	0.007
564.4024	-0.0045
564.5961	0.0024
564.7899	0.0054
564.9836	0.011
565.1773	-0.0032
565.371	0.0046
565.5647	-0.0097
565.7584	0.0037
565.952	0.0002
566.1456	0.0018
566.3393	0.0129
566.5329	0.0001
566.7264	0.0053
566.92	0.0077
567.1136	-0.0017
567.3071	0.0083
567.5006	-0.0062
567.6941	0.005
567.8876	-0.0052
568.0811	-0.0044
568.2745	-0.0045
568.468	-0.0007
568.6614	0.0018
568.8548	0.0021
569.0482	0.0021
569.2416	-0.0037
569.4349	0.0025
569.6283	-0.0034
569.8216	0.0001
570.0149	0.0003
570.2082	0.0052
570.4015	0.0052
570.5947	-0.0035
570.788	-0.0014
570.9812	-0.0019
571.1744	-0.0014
571.3676	-0.0009
571.5608	-0.0041
571.754	-0.0064
571.9471	-0.0003
572.1402	0.0008
572.3333	0.0031
572.5264	0.0052
572.7195	0.002
572.9126	0.0002
573.1057	-0.0021
573.2987	0.0005
573.4917	0.0046
573.6847	-0.0024
573.8777	0.001
574.0707	0.0043
574.2636	0.0022
574.4566	0.0004
574.6495	0.0072
574.8424	0.0018
575.0353	0.0031
575.2281	-0.0028
575.421	-0.001
575.6138	-0.0046
575.8067	-0.0045
575.9995	0.0063
576.1923	0.0035
576.385	-0.0026
576.5778	0.0015
576.7706	0.0027
576.9633	-0.0005
577.156	0.0027
577.3487	-0.0021
577.5414	-0.0036
577.734	-0.004
577.9267	0.0016
578.1193	0.0002
578.3119	-0.0045
578.5045	-0
578.6971	0.001
578.8897	-0.0008
579.0822	0.0035
579.2747	-0.0055
579.4673	-0.0008
579.6598	-0.005
579.8522	0.0036
580.0447	-0.0021
580.2372	0.0051
580.4296	0.0017
580.622	0.0024
580.8144	0.0011
581.0068	0.0034
581.1992	0.0021
581.3915	-0.0005
581.5839	0.0036
581.7762	0.0028
581.9685	-0.0029
582.1608	0.0019
582.353	-0.0027
582.5453	0.0006
582.7375	-0.0016
582.9298	0.0002
583.122	-0.0064
583.3142	0.0046
583.5063	-0.0045
583.6985	-0.0012
583.8906	-0.0038
584.0827	0.0034
584.2749	-0.0021
584.4669	0.0021
584.659	-0.0028
584.8511	0.0032
585.0431	0.0003
585.2352	-0.0062
585.4272	0.0016
585.6192	-0.0026
585.8111	-0.0043
586.0031	0.0026
586.195	-0.0002
586.387	0.0012
586.5789	0.0044
586.7708	-0.0018
586.9627	0.0044
587.1545	0.0014
587.3464	0.0023
587.5382	-0.0014
587.73	0.0012
587.9218	-0.0017
588.1136	-0.0032
588.3053	-0.0005
588.4971	0.0032
588.6888	0.0001
588.8805	0.0017
589.0722	0.0022
589.2639	0.0002
589.4556	-0.0045
589.6472	-0.0043
589.8389	0.0029
590.0305	0.0004
590.2221	0.0062
590.4137	-0.0023
590.6052	-0.0043
590.7968	0.0017
590.9883	-0.0018
591.1798	-0.0066
591.3713	0.0014
591.5628	0.0054
591.7543	0.0082
591.9458	-0.0028
592.1372	0.0012
592.3286	-0.0011
592.52	0.0009
592.7114	-0.0017
592.9028	-0.0019
593.0941	0.003
593.2855	0.0026
593.4768	0.0043
593.6681	0.005
593.8594	-0
594.0506	0.0036
594.2419	-0.005
594.4331	-0.0023
594.6244	-0.0003
594.8156	-0.0007
595.0067	0
595.1979	-0.0085
595.3891	0.0001
595.5802	0.0024
595.7713	-0.0058
595.9624	0.0028
596.1535	-0.0016
596.3446	0.002
596.5357	-0.0034
596.7267	0.0035
596.9177	0
597.1087	-0.002
597.2997	0.0054
597.4907	0.0056
597.6817	0.0046
597.8726	0.0009
598.0635	0.0034
598.2544	-0.0033
598.4453	-0.0038
598.6362	0.004
598.827	0.0022
599.0179	0.0021
599.2087	-0.0031
599.3995	0.0049
599.5903	-0.0018
599.7811	-0.0041
599.9718	0.0013
600.1626	-0.0004
600.3533	-0.0028
600.544	0.0008
600.7347	-0.0013
600.9254	0.0055
601.116	0.0001
601.3067	0.0028
601.4973	0.0073
601.6879	0.0001
601.8785	0.0009
602.0691	0.0016
602.2596	-0.0037
602.4502	0.0002
602.6407	0.0028
602.8312	0.0001
603.0217	0.0049
603.2122	0.0066
603.4027	-0.0042
603.5931	-0.0019
603.7835	-0.004
603.9739	-0.0013
604.1643	0.0014
604.3547	0.0033
604.5451	0.003
604.7354	-0.0042
604.9257	-0.0031
605.116	0.0045
605.3063	-0.0063
605.4966	0.0046
605.6869	-0.0037
605.8771	0.0032
606.0673	0.0001
606.2575	-0.0014
606.4477	-0.0019
606.6379	-0.0009
606.8281	-0.0031
607.0182	0.0006
607.2083	0.0025
607.3985	0.0057
607.5885	0.006
607.7786	0.0046
607.9687	0.0025
608.1587	-0.0016
608.3488	-0.0012
608.5388	0.01
608.7288	-0.0004
608.9187	0.0055
609.1087	-0.0025
609.2986	-0.0027
609.4886	0.0067
609.6785	-0.0001
609.8684	-0.0065
610.0582	-0.0016
610.2481	-0.0059
610.4379	0.0069
610.6278	-0.0028
610.8176	0.0028
611.0074	-0.0035
611.1971	0.0025
611.3869	-0.0039
611.5766	0
611.7664	0.0079
611.9561	-0.0053
612.1458	-0.0042
612.3354	0.003
612.5251	-0.0026
612.7147	0.0049
612.9044	-0.001
613.094	0.0046
613.2836	-0.0036
613.4731	0.0049
613.6627	0.0013
613.8522	-0.0115
614.0417	0.0064
614.2313	-0.0077
614.4207	0.0021
614.6102	-0.004
614.7997	-0.0017
614.9891	-0.0027
615.1785	-0.0035
615.3679	0.0026
615.5573	-0.0029
615.7467	-0.0073
615.9361	0.003
616.1254	-0.0077
616.3147	0.0049
616.504	0.0015
616.6933	0.0003
616.8826	0.0047
617.0718	-0.0023
617.2611	0.0029
617.4503	-0.0022
617.6395	0.002
617.8287	0.0007
618.0179	-0.0075
618.207	-0.0041
618.3961	-0.0002
618.5853	0.007
618.7744	-0.0006
618.9634	0.0049
619.1525	-0.0037
619.3416	0.0055
619.5306	0.0008
619.7196	-0.0037
619.9086	0.0132
620.0976	0.0075
620.2866	0.0053
620.4755	0.0155
620.6645	-0.0047
620.8534	-0.0056
621.0423	-0.0091
621.2312	-0.0096
621.42	-0.0118
621.6089	-0.0064
621.7977	-0.005
621.9865	0.0065
622.1753	0.0087
622.3641	-0.0102
622.5529	-0.0071
622.7416	-0.0061
622.9303	-0.0118
623.1191	-0.0086
623.3078	0.0019
623.4964	-0.0107
623.6851	0.011
623.8737	0.0044
624.0624	-0.0021
624.251	0.0064
624.4396	-0.0022
624.6282	0.0083
624.8167	-0.0027
625.0053	0.0014
625.1938	-0.0046
625.3823	0.0005
625.5708	0.0012
625.7593	0.0051
625.9477	-0.0043
626.1362	-0.0046
626.3246	-0.0077
626.513	0.0014
626.7014	-0.0039
626.8898	0.0034
627.0781	0.0057
627.2665	0.0117
627.4548	-0.0071
627.6431	-0.005
627.8314	0.0054
628.0197	-0.0001
628.2079	-0.0054
628.3962	0.0081
628.5844	0.0123
628.7726	-0.0111
628.9608	-0.0005
629.1489	-0.0011
629.3371	0.002
629.5252	0.0107
629.7134	0.0129
629.9015	-0.0085
630.0895	-0.0008
630.2776	-0.0019
630.4657	0.0106
630.6537	-0.0053
630.8417	0.0029
631.0297	0.0011
631.2177	-0.0032
631.4057	0.0011
631.5936	0
631.7815	0.0081
631.9695	0.0173
632.1574	0.0026
632.3452	0.0046
632.5331	0.0017
632.7209	0.0033
632.9088	-0.004
633.0966	0.0163
633.2844	0.0147
633.4722	0.0049
633.6599	-0.0272
633.8477	-0.0055
634.0354	0.0084
634.2231	0.0312
634.4108	-0.0062
634.5985	0.0095
634.7861	-0.0114
634.9738	0.0088
635.1614	0.008
635.349	-0.0133
635.5366	0.0073
635.7242	-0.0126
635.9117	-0.0027
636.0993	-0.01
636.2868	-0.0092
636.4743	0.0172
636.6618	0.0022
636.8492	-0.0078
637.0367	0.0013
637.2241	0.0032
637.4115	0.0054
637.5989	0.0132
637.7863	-0.0142
637.9737	0.0104
638.161	0.0009
638.3484	0.0143
638.5357	-0.0042
638.723	0.0036
638.9103	0.0042
639.0975	0.004
639.2848	0.0084
639.472	-0.0062
639.6592	0.0199
639.8464	0.0108
640.0336	0.0072
640.2208	-0.0066
640.4079	0.0038
640.595	0.0025
640.7821	-0.002
640.9692	0.0108
641.1563	0.0211
641.3434	0.0169
641.5304	0.0234
641.7174	0.0186
641.9044	0.0014
642.0914	-0.0033
642.2784	0.03
642.4653	0.0062
642.6523	0.0139
642.8392	0.0104
643.0261	0.0021
643.213	0.0125
643.3999	-0.0264
643.5867	0.0143
643.7735	-0.0005
643.9604	-0.0043
644.1472	0.0019
644.3339	0.0017
644.5207	-0.0049
644.7075	0.0047
644.8942	0.022
645.0809	-0.0087
645.2676	-0.01
645.4543	0.0146
645.6409	0.0026
645.8276	-0.0046
646.0142	0.0149
646.2008	0.0126
646.3874	0.0254
646.574	-0.0181
646.7605	0.0163
646.9471	0.0143
647.1336	0.0045
647.3201	0.0066
647.5066	0.0072
647.6931	0.0118
647.8795	0.0283
648.0659	-0.0193
648.2524	-0.0034
648.4388	-0.0064
648.6252	-0.0154
648.8115	0.0144
648.9979	0.0074
649.1842	-0.0102
649.3705	0.0194
649.5568	-0.0113
649.7431	0.0155
649.9294	0.0058
650.1156	-0.0213
650.3018	0.0185
650.488	0.0003
650.6742	0.022
650.8604	0.0106
651.0466	0.0074
651.2327	-0.02
651.4188	-0.0192
651.6049	-0.006
651.791	0.019
651.9771	-0.0091
652.1632	0.0131
652.3492	0.0014
652.5352	-0.0004
652.7212	-0.0004
652.9072	0.0008
653.0932	-0.0046
653.2791	0.0038
653.465	-0.0015
653.651	0.0251
653.8369	0.0071
654.0227	-0.0032
654.2086	-0.0027
654.3944	-0.0283
654.5803	0.0077
654.7661	-0.0045
654.9519	-0.0019
655.1377	0.0001
655.3234	0.0001
655.5092	0.0001
655.6949	0.0001
655.8806	0.0001
656.0663	0.0001
656.2519	0.0001
656.4376	0.0001
656.6232	0.0001
656.8088	0.0001
656.9945	0.0001
657.18	0.0001
657.3656	0.0001
657.5511	0.0001
657.7367	0.0001
657.9222	0.0001
658.1077	0.0001
658.2932	0.0001
658.4786	0.0001
658.6641	0.0001
658.8495	0.0001
659.0349	0.0001
659.2203	0.0001
659.4057	0.0131
659.591	0.0417
659.7764	0.0038
659.9617	0.0043
660.147	-0.0045
660.3323	-0.0002
660.5176	0.0206
660.7028	0.0093
660.888	0.032
661.0733	0.0038
661.2585	0.0093
661.4436	0.0078
661.6288	0
661.8139	0.0303
661.9991	-0.0059
662.1842	0.0243
662.3693	0.0041
662.5544	0.0105
662.7394	0.0241
662.9245	0.0203
663.1095	0.0177
663.2945	-0.0005
663.4795	-0.0153
663.6644	0.0179
663.8494	-0.0078
664.0343	-0.0005
664.2193	0.0068
664.4042	0.0084
664.589	-0.0106
664.7739	-0.0028
664.9587	-0.0002
665.1436	-0.0073
665.3284	0.0189
665.5132	0.0019
665.698	0.0035
665.8827	-0.0039
666.0675	0.0003
666.2522	0.0372
666.4369	-0.005
666.6216	-0.0077
666.8063	-0.0174
666.9909	0.0126
667.1756	0.0163
667.3602	-0.0076
667.5448	0.001
667.7294	-0.0076
667.9139	0
668.0985	-0.0068
668.283	-0.0298
668.4675	0
668.652	0.006
668.8365	-0.0108
669.0209	-0.0038
669.2054	0.0189
669.3898	0.0085
669.5742	-0.0061
669.7586	0.0107
669.943	-0.0212
670.1273	0.0172
670.3117	0.0302
670.496	0.0151
670.6803	-0.0044
670.8646	0.0127
671.0488	0.0075
671.2331	0.0098
671.4173	-0.0074
671.6015	0.0154
671.7857	-0.016
671.9699	-0.0144
672.1541	0.0039
672.3382	-0.0049
672.5223	0.0016
672.7064	0.0097
672.8905	-0.0042
673.0746	0.0051
673.2587	-0.0074
673.4427	0.0029
673.6267	-0.0067
673.8107	-0.0115
673.9947	-0.0024
674.1787	-0.0055
674.3626	-0.0022
674.5465	0.0328
674.7304	-0.0344
674.9143	0.0254
675.0982	-0.0072
675.2821	0.0029
675.4659	0.005
675.6497	0.0054
675.8335	0.0065
676.0173	0.0213
676.2011	-0.0066
676.3849	-0.0026
676.5686	0.019
676.7523	-0.0091
676.936	-0.0009
677.1197	0.0079
677.3034	0.0417
677.487	-0.0012
677.6706	-0.011
677.8542	0.0149
678.0378	0.0034
678.2214	0.0026
678.405	-0.0023
678.5885	0.0009
678.772	-0.0079
678.9555	-0.0143
679.139	-0.0151
679.3225	-0.0041
679.5059	-0.0088
679.6894	0.0072
679.8728	-0.027
680.0562	-0.0124
680.2395	0.0003
680.4229	-0.0043
680.6062	0.0212
680.7896	-0.0102
680.9729	-0.0049
681.1562	-0.0024
681.3394	0.0135
681.5227	-0.0304
681.7059	-0.0023
681.8891	0.0101
682.0723	-0.0106
682.2555	0.0115
682.4387	0.0302
682.6218	-0.01
682.805	0.0084
682.9881	0.0111
683.1712	0.0008
683.3542	-0.0247
683.5373	0.0184
683.7203	0.0079
683.9034	-0.0069
684.0864	0.0145
684.2694	0.0028
684.4523	0.0156
684.6353	-0.0072
684.8182	0.0004
685.0011	0.0052
685.184	0.0111
685.3669	0.0012
685.5498	0.0125
685.7326	-0.0105
685.9154	0.0129
686.0982	-0.0067
686.281	-0.0057
686.4638	0.0061
686.6465	0.0011
686.8293	0.0048
687.012	-0.005
687.1947	0.0075
687.3774	0.0129
687.56	0.0157
687.7427	-0.0029
687.9253	-0.0033
688.1079	0.0086
688.2905	0.0049
688.4731	0.0183
688.6556	-0.0026
688.8382	0.0191
689.0207	-0.0021
689.2032	-0.0064
689.3857	-0.0088
689.5681	-0.0008
689.7506	-0.0094
689.933	0.0019
690.1154	-0.0047
690.2978	-0.0003
690.4802	0.0275
690.6626	0.0076
690.8449	-0.0289
691.0272	-0.013
691.2095	0.0092
691.3918	-0.0011
691.5741	0.0131
691.7563	0.0037
691.9386	0.0068
692.1208	-0.0267
692.303	-0.0038
692.4852	0.0034
692.6673	-0.0044
692.8495	-0.0157
693.0316	-0.0153
693.2137	0.0331
693.3958	0.0203
693.5778	-0.0342
693.7599	-0.0327
693.9419	0.0092
694.1239	-0.0075
694.3059	0.0025
694.4879	-0.0261
694.6699	0.0103
694.8518	-0.0022
695.0337	-0.0008
695.2157	-0.0104
695.3975	0.0111
695.5794	0.0139
695.7613	0.0202
695.9431	-0.0004
696.1249	-0.0029
696.3067	-0.0044
696.4885	0.0005
696.6703	0.0073
696.852	-0.0095
697.0337	0.0016
697.2154	0.0085
697.3971	0.0156
697.5788	0.024
697.7605	-0.0031
697.9421	-0.0036
698.1237	0.0198
698.3053	-0.0108
698.4869	0.0133
698.6685	0.008
698.85	0.0181
699.0315	-0.0018
699.213	-0.0019
699.3945	0.0184
699.576	-0.0125
699.7575	-0.0093
699.9389	0.0167
700.1203	0.0046
700.3017	-0.025
700.4831	0.0045
700.6645	0.0122
700.8458	0.0079
701.0271	0.0178
701.2084	-0.0142
701.3897	0.0253
701.571	-0.0048
701.7523	-0.0195
701.9335	0.0285
702.1147	0.0118
702.2959	0.035
702.4771	0.0107
702.6583	0.0076
702.8394	0.0013
703.0205	0.0165
703.2016	0.0011
703.3827	0.0473
703.5638	-0.011
703.7449	-0.0103
703.9259	0.0019
704.1069	0.0199
704.2879	0.0237
704.4689	-0.0017
704.6499	-0.0045
704.8308	-0.0044
705.0117	-0.0127
705.1927	0.0188
705.3735	0.0059
705.5544	0.0157
705.7353	-0.0016
705.9161	0.0018
706.0969	0.0108
706.2777	-0.0053
706.4585	0.0076
706.6393	0.0141
706.82	-0.0101
707.0007	0.0044
707.1815	0.0117
707.3621	-0.0002
707.5428	0.0152
707.7235	0.0176
707.9041	-0.0044
708.0847	-0.0062
708.2653	-0.0003
708.4459	0.0183
708.6265	-0.0145
708.807	-0.0069
708.9875	0.0011
709.168	0.0105
709.3485	-0.0017
709.529	0.037
709.7095	-0.0082
709.8899	0.0349
710.0703	0.0023
710.2507	-0.0076
710.4311	0.011
710.6115	0.01
710.7918	0.0093
710.9721	-0.0018
711.1524	-0.0302
711.3327	-0.0138
711.513	-0.0077
711.6932	-0.0022
711.8735	0.003
712.0537	-0.0016
712.2339	0.0204
712.4141	0.0371
712.5942	0.0081
712.7744	0.0297
712.9545	-0.0039
713.1346	0.002
713.3147	0.002
713.4947	-0.0113
713.6748	0.0154
713.8548	0.0104
714.0348	0.0074
714.2148	0.0107
714.3948	0.0251
714.5748	0.0034
714.7547	-0.0033
714.9346	-0.001
715.1145	0.0172
715.2944	0.0075
715.4743	0.0017
715.6541	-0.0237
715.834	0.0234
716.0138	0.0366
716.1936	-0.0135
716.3733	0.0229
716.5531	0.0254
716.7328	-0.0118
716.9126	0.0171
717.0923	0
717.2719	0.0029
717.4516	-0.0121
717.6312	-0.015
717.8109	0.0064
717.9905	-0.0014
718.1701	-0.0051
718.3496	0.0116
718.5292	-0.0176
718.7087	0.0189
718.8882	0.009
719.0677	-0.0298
719.2472	0.0098
719.4267	0.0196
719.6061	0.003
719.7856	-0.0038
719.965	0.0434
720.1443	-0.0125
720.3237	0.0227
720.5031	0.03
720.6824	-0.0023
720.8617	0.0228
721.041	-0.0123
721.2203	0.0173
721.3995	0
721.5788	-0.0036
721.758	-0.0095
721.9372	0.0301
722.1164	-0.0058
722.2956	0.0169
722.4747	0.0283
722.6538	0.0058
722.8329	-0.0043
723.012	0.0039
723.1911	0.0055
723.3702	-0.0235
723.5492	0.0219
723.7282	0.0229
723.9072	-0.0175
724.0862	-0.005
724.2652	-0.0139
724.4441	0.0209
724.623	0.0072
724.8019	0.0048
724.9808	-0.0039
725.1597	-0.0003
725.3385	0.0139
725.5174	0.0305
725.6962	0.0212
725.875	0.0038
726.0538	0.0011
726.2325	-0.0152
726.4112	0.0186
726.59	0.0205
726.7687	0.0061
726.9474	0.0073
727.126	-0.0138
727.3047	0.0118
727.4833	0.0297
727.6619	0.0442
727.8405	0.0116
728.0191	-0.0252
728.1976	-0.0238
728.3762	-0.0274
728.5547	-0.0117
728.7332	0.0036
728.9116	-0.0343
729.0901	0.0367
729.2686	-0.0086
729.447	-0.0141
729.6254	0.0054
729.8038	0
729.9821	0.0087
730.1605	0.0111
730.3388	-0.0144
730.5171	-0.001
730.6954	0.0014
730.8737	0.0121
731.0519	0.0033
731.2302	0.0025
731.4084	-0.0105
731.5866	-0.029
731.7648	-0.015
731.9429	-0.003
732.1211	-0.0084
732.2992	-0.0132
732.4773	-0.0215
732.6554	0.0105
732.8335	0.0081
733.0115	-0.0322
733.1896	-0.0097
733.3676	0.0113
733.5456	0.0075
733.7235	0.0186
733.9015	0.0073
734.0794	-0.0014
734.2574	0.0122
734.4353	0.0053
734.6131	0.0128
734.791	0.0101
734.9689	-0.0025
735.1467	-0.0025
735.3245	0.0011
735.5023	0.0112
735.68	-0.0071
735.8578	0.0114
736.0355	-0.003
736.2132	0.0192
736.3909	-0.0011
736.5686	0.0249
736.7463	-0.01
736.9239	0.0159
737.1015	-0.0015
737.2791	-0.0105
737.4567	0.0085
737.6343	0.011
737.8118	0.0011
737.9894	0.0108
738.1669	0.015
738.3444	0.0038
738.5218	0.0144
738.6993	-0.0056
738.8767	-0.0018
739.0541	-0.0005
739.2315	0.0166
739.4089	-0.0132
739.5863	0.0081
739.7636	0.0283
739.9409	0.0019
740.1182	-0.0078
740.2955	-0.0243
740.4728	0.0184
740.65	-0.0139
740.8272	-0.0075
741.0044	0.0124
741.1816	0.0304
741.3588	0.0114
741.5359	0.0156
741.7131	0.0521
741.8902	-0.0077
742.0673	0.0247
742.2444	0.0196
742.4214	0.002
742.5985	-0.0106
742.7755	-0.0279
742.9525	0.0229
743.1295	-0.0281
743.3064	0.0217
743.4834	-0.0085
743.6603	0.0062
743.8372	0.0358
744.0141	0.0366
744.191	0
744.3678	0.0152
744.5446	0.029
744.7215	-0.0083
744.8982	0.0155
745.075	0.0264
745.2518	0
745.4285	-0.0014
745.6052	0.0381
745.7819	0.0298
745.9586	0.0402
746.1353	-0.004
746.3119	-0.028
746.4885	0.0299
746.6651	-0.0075
746.8417	-0.0377
747.0183	-0.0074
747.1948	-0.0004
747.3714	0.0067
747.5479	0.0011
747.7244	-0.0288
747.9008	0.0097
748.0773	0.0091
748.2537	0.0563
748.4301	0.0379
748.6065	-0.0516
748.7829	0.0111
748.9593	0.0047
749.1356	0.0152
749.3119	-0.0083
749.4882	-0.0084
749.6645	0.0198
749.8408	-0.0158
750.017	-0.0009
750.1933	0.0028
750.3695	0.0129
750.5457	0
750.7218	0.0233
750.898	-0.02
751.0741	-0.0022
751.2502	-0.0031
751.4263	0.0007
751.6024	0.0126
751.7784	-0.0194
751.9545	-0.0348
752.1305	0.0074
752.3065	0.0249
752.4825	-0.0238
752.6584	-0.0032
752.8344	0.0175
753.0103	-0.0173
753.1862	-0.0059
753.3621	0.0072
753.5379	-0.0197
753.7138	-0.0206
753.8896	0.0217
754.0654	0.0396
754.2412	0.0237
754.417	0.0025
754.5927	0
754.7685	-0.0289
754.9442	-0.0003
755.1199	0.0095
755.2956	0.0164
755.4712	-0.0085
755.6469	0.0066
755.8225	0.0057
755.9981	0.0043
756.1736	0.0294
756.3492	-0.0159
756.5248	-0.0166
756.7003	-0.0049
756.8758	-0.0126
757.0513	0.0063
757.2267	-0.0144
757.4022	-0.0004
757.5776	-0.0102
757.753	-0.0052
757.9284	0.0179
758.1038	-0.0027
758.2791	0.009
758.4545	-0.0061
758.6298	-0.005
758.8051	-0.0144
758.9803	-0.0022
759.1556	-0.0124
759.3308	0.0113
759.506	0.0122
759.6812	-0.0127
759.8564	-0.0173
760.0316	0.0077
760.2067	-0.0142
760.3819	0.0106
760.557	0.0037
760.732	-0.0004
760.9071	-0.0042
761.0821	-0.0015
761.2572	-0.0122
761.4322	-0.0091
761.6072	-0.0045
761.7821	0.024
761.9571	0.0165
762.132	-0.0039
762.3069	0.0008
762.4818	0.0144
762.6567	0.0011
762.8316	0.0096
763.0064	-0.0374
763.1812	-0.0187
763.356	-0.0116
763.5308	-0.0062
763.7055	-0.0028
763.8803	-0.0069
764.055	-0.0138
764.2297	0.0061
764.4044	-0.0044
764.579	-0.0079
764.7537	-0.0195
764.9283	-0.0282
765.1029	0.0205
765.2775	-0.0117
765.4521	-0.0087
765.6266	-0.0101
765.8011	-0.0199
765.9756	0.0324
766.1501	0.0256
766.3246	0.0043
766.4991	-0.0467
766.6735	-0.0021
766.8479	-0.007
767.0223	0.0033
767.1967	-0.0024
767.371	-0.0042
767.5454	0.0259
767.7197	-0.0096
767.894	-0.0038
768.0683	0.0094
768.2425	0.0207
768.4168	0.027
768.591	0.0104
768.7652	-0.0049
768.9394	0.0278
769.1135	0.0235
769.2877	-0.0059
769.4618	0.0118
769.6359	0.0078
769.81	0.0383
769.984	0.0023
770.1581	0.005
770.3321	-0.0023
770.5061	0.0133
770.6801	0.0109
770.8541	-0.0121
771.028	-0.0238
771.202	-0.0425
771.3759	0.0171
771.5498	-0.0026
771.7236	-0.0004
771.8975	-0.0122
772.0713	-0.0028
772.2451	-0.0141
772.4189	0.0016
772.5927	0.0108
772.7665	0.0453
772.9402	0.0316
773.1139	-0.0016
773.2876	0.0017
773.4613	0.006
773.635	0.0012
773.8086	-0.0081
773.9822	0.035
774.1558	0.025
774.3294	-0.0281
774.503	0.0191
774.6765	0.0048
774.8501	0.017
775.0236	0.0311
775.1971	-0.0251
775.3705	-0.0015
775.544	0.0091
775.7174	0.0092
775.8908	0.099
776.0642	-0.0133
776.2376	0.011
776.4109	0.0784
776.5843	0.0175
776.7576	0.0105
776.9309	0.022
777.1041	-0.0251
777.2774	-0.0155
777.4506	0.0322
777.6238	-0.0117
777.797	-0.0111
777.9702	0.0486
778.1434	0.0288
778.3165	0.0239
778.4896	-0.0053
778.6627	0.0335
778.8358	-0.0094
779.0089	0.0071
779.1819	-0.0051
779.3549	0.0614
779.5279	0.0179
779.7009	-0.0071
779.8739	0.008
780.0468	0.0492
780.2197	-0.0395
780.3926	-0.0361
780.5655	-0.0351
780.7384	-0.0117
780.9112	0.011
781.0841	0.0136
781.2569	-0.0023
781.4297	0.016
781.6024	0.0119
781.7752	-0.0058
781.9479	-0.0249
782.1206	0.0515
782.2933	0.01
782.466	-0.0034
782.6386	-0.0145
782.8113	0.0092
782.9839	0.0064
783.1565	-0.017
783.329	0.0351
783.5016	0.0092
783.6741	-0.0018
783.8466	-0.0451
784.0191	-0.0149
784.1916	-0.0278
784.3641	-0.0019
784.5365	0.029
784.7089	0.0123
784.8813	0.0721
785.0537	-0.0186
785.2261	0.0215
785.3984	-0.0179
785.5707	0.0381
785.743	-0.0298
785.9153	0.0552
786.0876	-0.0439
786.2598	0.0118
786.432	-0.0038
786.6042	0.0763
786.7764	-0.0236
786.9486	0.0048
787.1207	0.0318
787.2928	-0.0073
787.4649	0.0091
787.637	0.0302
787.8091	-0.0148
787.9811	0.0142
788.1532	0.0169
788.3252	-0.0115
788.4972	-0.0161
788.6691	0.0527
788.8411	0.0171
789.013	-0.0026
789.1849	0.0424
789.3568	0.0258
789.5287	-0.0209
789.7005	0.0438
789.8723	-0.0442
790.0442	-0.0475
790.2159	0.0098
790.3877	0.0249
790.5595	0.0548
790.7312	-0.0325
790.9029	-0.004
791.0746	0.0341
791.2463	0.0012
791.4179	-0.0196
791.5896	-0.0173
791.7612	-0.0422
791.9328	-0.038
792.1044	-0.0133
792.2759	0.0373
792.4474	-0.0442
792.619	0.0687
792.7905	0.0099
792.9619	0.0012
793.1334	0.0352
793.3048	-0.0232
793.4762	-0.043
793.6476	0.0124
793.819	-0.0117
793.9904	0.0143
794.1617	0.0264
794.333	-0.0325
794.5043	0.0139
794.6756	0.0633
794.8469	0.0129
795.0181	-0.0149
795.1893	0.0092
795.3605	-0.0261
795.5317	0.007
795.7029	0.0066
795.874	0.001
796.0452	0.0204
796.2163	0.0178
796.3873	0.0396
796.5584	0.0692
796.7294	0.0209
796.9005	-0.012
797.0715	0.012
797.2425	-0.0082
797.4134	0.0234
797.5844	0.0063
797.7553	0.0012
797.9262	0.059
798.0971	-0.0298
798.2679	0.0761
798.4388	-0.0783
798.6096	0.0031
798.7804	0.0066
798.9512	0.0973
799.122	0.1159
799.2927	0.0037
799.4635	0.0634
799.6342	0.0491
799.8049	0.0704
799.9755	0.0018
800.1462	0.0652
800.3168	0.0405
800.4874	0.0444
800.658	0.002
800.8286	0.0071
800.9991	0.1274
801.1696	0.0046
801.3402	0.0556
801.5106	0.0025
801.6811	0.0187
801.8516	0.044
802.022	0.0736
802.1924	-0.0895
802.3628	-0.063
802.5332	0.0564
802.7035	-0.0359
802.8739	0.017
803.0442	-0.0119
803.2145	0.0586
803.3847	-0.0191
803.555	-0.0071
803.7252	0.0068
803.8954	0.0656
804.0656	0.0363
804.2358	0.0101
804.4059	0.1498
804.5761	0.164
804.7462	0.0212
804.9163	-0.0224
805.0864	0.034
805.2564	-0.0319
805.4264	-0.0225
805.5965	0.052
805.7665	0.063
805.9364	0.0071
806.1064	0.0859
806.2763	0.0492
806.4462	0.0443
806.6161	0.0078
806.786	-0.0039
806.9559	0.0067
807.1257	-0.0228
807.2955	0.0151
807.4653	-0.058
807.6351	-0.0109
807.8048	-0.0178
807.9746	0.0273
808.1443	0.0479
808.314	0.0427
808.4837	-0.006
808.6533	0.0434
808.8229	-0.0082
808.9926	0.0201
809.1622	0.0383
809.3317	0.0179
809.5013	0.042
809.6708	0.0962
809.8403	0.0401
810.0098	0.0707
810.1793	0.0674
810.3488	0.04
810.5182	0.0174
810.6876	0.008
810.857	-0.1184
811.0264	-0.114
811.1958	-0.0024
811.3651	-0.0345
811.5344	-0.0602
811.7037	-0.0546
811.873	0.0532
812.0422	0.1533
812.2115	0.0025
812.3807	-0.0207
812.5499	0.0194
812.7191	0.0114
812.8882	-0.0149
813.0574	-0.0671
813.2265	-0.0254
813.3956	-0.0265
813.5646	0.0927
813.7337	-0.1002
813.9027	-0.0076
814.0718	0.0049
814.2407	-0.0443
814.4097	0.0082
814.5787	0.0386
814.7476	0.0325
814.9165	0.0114
815.0854	0.1117
815.2543	0.0202
815.4232	-0.0629
815.592	0.1363
815.7608	0.0377
815.9296	0.1046
816.0984	0.0824
816.2671	0.0339
816.4359	0.0867
816.6046	-0.0368
816.7733	0.0184
816.942	0.1335
817.1106	-0.0038
817.2793	0.021
817.4479	-0.0502
817.6165	-0.0246
817.785	0.0675
817.9536	0.1358
818.1221	0.052
818.2906	0.1282
818.4591	0.0051
818.6276	0.0933
818.7961	-0.0026
818.9645	-0.0719
819.1329	0.2398
819.3013	0.0469
819.4697	-0.0103
819.638	0.225
819.8064	0.0878
819.9747	0.3132
820.143	0.0003
820.3113	0.0716
820.4795	0.0384
820.6477	0.0003
820.816	0.008
820.9842	-0.0417
821.1523	0.1346
821.3205	0.0449
821.4886	0.0121
821.6567	0.042
821.8248	0.0202
821.9929	-0.0458
822.1609	0.1166
822.329	-0.0247
822.497	0.0396
822.665	0.1051
822.833	0.0839
823.0009	-0.0512
823.1688	0.0804
823.3367	-0.1871
823.5046	0.0843
823.6725	-0.0025
823.8404	0.2685
824.0082	0.1198
824.176	0.0334
824.3438	0.2488
824.5116	0.2556
824.6793	0.0779
824.847	-0.0469
825.0147	0.3457
825.1824	0.1019
825.3501	0.057
825.5177	0.1485
825.6854	0.251
825.853	0.1286
826.0206	0.1042
826.1881	-0.0996
826.3557	0.2312
826.5232	0.1545
826.6907	0.0402
826.8582	0.2326
827.0257	-0.2254
827.1931	0.1789
827.3605	-0.2262
827.528	0.2917
827.6953	0.0793
827.8627	0.0826
828.03	0.0873
828.1974	-0.0822
828.3647	0.0593
828.532	0.226
828.6992	0.0586
828.8665	-0.0833
829.0337	0.083
829.2009	0.1603
829.3681	-0.0203
829.5352	0.0786
829.7024	-0.0098
829.8695	0.0138
830.0366	0.3311
830.2037	-0.0176
830.3707	-0.0185
830.5378	0.1423
830.7048	-0.2331
830.8718	-0.1693
831.0388	0.3579
831.2057	-0.2225
831.3727	-0.0212
831.5396	-0.296
831.7065	0.1017
831.8734	-0.0613
832.0402	0.046
832.2071	0.8215
832.3739	0.0868
832.5407	-0.3202
832.7075	0.069
832.8742	-0
833.041	-0.1799
833.2077	0.0008
833.3744	0.0004
833.541	-0.1242
833.7077	0.0603
833.8743	0.1266
834.0409	0.0089
834.2075	0.1944
834.3741	0.09
834.5407	0.3001
834.7072	0.0699
834.8737	0.111
835.0402	-0.5916
835.2067	0.3995
835.3731	-0.0549
835.5395	0.1014
835.706	-0.0326
835.8723	-0.0128
836.0387	0.0574
836.2051	1.4513
836.3714	-0.1607
836.5377	-0.1178
836.704	0.22
836.8703	0.0574
837.0365	0.2919
837.2027	0.4059
837.3689	0.1761
837.5351	-0.0953
837.7013	0.4757
837.8674	-0.5802
838.0335	0.0639
838.1997	0.447
838.3657	-0.0017
838.5318	-0.4092
838.6978	-0
838.8639	0.4078
839.0299	0.246
839.1958	-0.0679
839.3618	0.7302
839.5277	-0.1986
839.6937	-0.394
839.8596	0.0574
840.0254	0.1886
840.1913	1.4961
840.3571	0.1628
840.523	0.1761
840.6888	0.0808
840.8545	-0
841.0203	-0.1065
841.186	-0.1176
841.3517	0.3428
841.5174	0.4106
841.6831	0.2405
841.8488	0.0005
842.0144	0.0991
842.18	-0.0227
842.3456	0.0795
842.5112	-0
842.6767	-0.1481
842.8422	0.2506
843.0077	0.189
843.1732	-0
843.3387	0.1761
843.5042	0.1698
843.6696	-0.4083
843.835	0.094
844.0004	0.0341
844.1657	-0
844.3311	0.5875
844.4964	-0
844.6617	-0
844.827	-0
844.9923	0.0608
845.1575	-0
845.3227	-0
845.4879	-0.0618
845.6531	-0
845.8183	0.4396
845.9834	-0.2348
846.1485	0.3874
846.3136	0.6917
846.4787	-0.0735
846.6438	0.3673
846.8088	-0
846.9738	0.1097
847.1388	0.3134
847.3038	0.0273
847.4687	-0.5068
847.6337	-0
847.7986	0.2899
847.9635	-0.0538
848.1284	-0
848.2932	-0.1051
848.458	0.0103
848.6228	-0
848.7876	0.7048
848.9524	1.1303
849.1172	0.0012
849.2819	-0
849.4466	0.1855
849.6113	-0.3118
849.7759	-0
849.9406	-0.2989
850.1052	-0
850.2698	-1.1378
850.4344	0.3329
850.599	-0.1348
850.7635	-0.0103
850.928	1.4513
851.0925	-0.1234
851.257	0.5024
851.4215	-0.4484
851.5859	0.3818
851.7503	-0
851.9147	-1.1597
852.0791	-0.4447
852.2434	-0
852.4078	0.8899
852.5721	-0
852.7364	0.0662
852.9007	-0.2082
853.0649	0.9246
853.2291	1.6166
853.3934	-0.1614
853.5575	0.3125
853.7217	-0.2849
853.8859	0.7529
854.05	-0.8944
854.2141	-0
854.3782	0.2271
854.5423	-0.3236
854.7063	0.3378
854.8703	0.4222
855.0343	-0.0346
855.1983	-0.0689
855.3623	0.3167
855.5262	-0
855.6901	0.281
855.854	-0.1673
856.0179	-0
856.1818	-0
856.3456	0.8656
856.5094	-0
856.6732	-0
856.837	0.4529
857.0008	-0
857.1645	-0
857.3282	-0
857.4919	0.2757
857.6556	0.6801
857.8192	0.0897
857.9828	-0.5049
858.1465	0.4039
858.31	-1.5536
858.4736	0.1432
858.6372	2.0626
858.8007	-1.3735
858.9642	0.762
859.1277	-0.219
859.2911	-0
859.4546	-0
859.618	-0
859.7814	-0
859.9448	-0.5018
860.1081	-0.3487
860.2715	-0
860.4348	0.0676
860.5981	-0.6171
860.7614	0.2046
860.9246	0.1917
861.0879	0.6532
861.2511	-0
861.4143	-0
861.5774	1.0627
861.7406	0.044
861.9037	-0
862.0668	-0.2348
862.2299	-2.3667
862.393	1.0937
862.556	-0
862.7191	-0.0166
862.8821	-0.1935
863.0451	0.6065
863.208	0.0686
863.371	-0
863.5339	-0.2609
863.6968	-0.4455
863.8597	-0.8301
864.0225	0.6177
864.1854	0.1625
864.3482	0.0976
864.511	-0.4333
864.6737	-0
864.8365	0.2329
864.9992	-0.3077
865.1619	0.0009
865.3246	-0.0436
865.4873	-0
865.65	-1.2528
865.8126	0.3951
865.9752	0.2828
866.1378	1.6385
866.3004	0.0991
866.4629	0.0011
866.6254	-0.9565
866.7879	0.0477
866.9504	-0.3743
867.1129	0.0257
867.2753	-0.1902
867.4377	0.7017
867.6001	-0
867.7625	0.0619
867.9249	-0
868.0872	1.4279
868.2495	-0
868.4118	-0.0434
868.5741	-0
868.7363	-0
868.8986	-0.1095
869.0608	1.5157
869.223	0.2852
869.3851	-0
869.5473	-1.2728
869.7094	-0
869.8715	-0
870.0336	0.1527
870.1957	-1.09
870.3577	2.1629
870.5197	-0
870.6817	-0
870.8437	0.4053
871.0057	0.3301
871.1676	0.2442
871.3295	-0
871.4914	0.0497
871.6533	0.1041
871.8151	0.0485
871.977	0.8606
872.1388	-0
872.3006	0.3431
872.4623	-0.119
872.6241	-0
872.7858	-0.2265
872.9475	0.2926
873.1092	-0
873.2709	-0
873.4325	-0
873.5941	-0.7707
873.7557	-0.6153
873.9173	-0.4195
874.0789	0.1018
874.2404	-0.5109
874.4019	0.4271
874.5634	0.0158
874.7249	-0
874.8863	-0.5026
875.0478	0.0822
875.2092	0.3467
875.3706	-0.402
875.5319	0.1113
875.6933	-0
875.8546	-0
876.0159	0.0257
876.1772	-0
876.3385	-0
876.4997	-0.0864
876.6609	0.2926
876.8221	0.323
876.9833	-0.1993
877.1445	0.008
877.3056	-0
877.4667	-0
877.6278	-0
877.7889	-0
877.9499	-0
878.111	-0.0844
878.272	-0
878.433	-0.247
878.5939	2.2867
878.7549	0.1761
878.9158	-0.3703
879.0767	-0
879.2376	-0
879.3984	-0
879.5593	-0.1873
879.7201	-0.1728
879.8809	0.4467
880.0417	0.3621
880.2024	-0
880.3632	-0.1907
880.5239	0.3368
880.6846	-0.5134
880.8452	0.2666
881.0059	0.5367
881.1665	0.0583
881.3271	-0.0285
881.4877	-0
881.6483	-1.7667
881.8088	-0.0175
881.9693	0.7641
882.1298	0.7641
882.2903	0.7641
