Data from D4ACN5uM480nmA_Absorbance_12-08-00-419.txt Node
Date: Fri Feb 21 12:08:00 GMT 2025
User: LASERRRRR
Spectrometer: FLMT03099
Trigger mode: 0
Integration Time (sec): 1.500000E-2
Scans to average: 1
Electric dark correction enabled: true
Nonlinearity correction enabled: false
Boxcar width: 0
XAxis mode: Wavelengths
Number of Pixels in Spectrum: 3648
>>>>>Begin Spectral Data<<<<<
179.3399	-0
179.5586	-0
179.7771	-0
179.9957	0.4043
180.2143	1.0414
180.4329	-0
180.6514	-0
180.8699	-0
181.0885	-0.4023
181.307	-0
181.5255	-0.0556
181.744	-0
181.9625	0.198
182.181	-0
182.3994	-0
182.6179	-0
182.8363	-0
183.0547	-0
183.2732	0.2529
183.4916	0.1629
183.71	0.3346
183.9284	0.2753
184.1467	0.6523
184.3651	0.2561
184.5835	0.0216
184.8018	-0.0172
185.0201	0.2529
185.2385	-0.0141
185.4568	0.2607
185.6751	0.1537
185.8934	0.7424
186.1117	0.1934
186.3299	0.2344
186.5482	0.1257
186.7664	0.28
186.9847	0.1183
187.2029	0.547
187.4211	0.1988
187.6393	0.3224
187.8575	0.2318
188.0757	0.4329
188.2939	0.3559
188.512	0.3144
188.7302	0.2291
188.9483	0.2452
189.1665	0.6934
189.3846	0.1262
189.6027	0.1025
189.8208	0.4119
190.0389	0.1033
190.257	0.3862
190.475	0.3035
190.6931	0.1056
190.9111	0.5036
191.1292	0.1601
191.3472	0.1344
191.5652	1.8442
191.7832	0.4438
192.0012	0.4706
192.2192	0.2851
192.4371	0.203
192.6551	0.341
192.873	0.5932
193.091	0.2605
193.3089	0.1433
193.5268	0.5887
193.7447	0.3247
193.9626	0.5042
194.1805	0.312
194.3984	0.4672
194.6162	0.4403
194.8341	0.4485
195.0519	0.5854
195.2697	0.4982
195.4875	0.6665
195.7054	0.4675
195.9231	0.3998
196.1409	0.5242
196.3587	0.5681
196.5765	0.4471
196.7942	0.5849
197.012	0.6394
197.2297	0.5014
197.4474	0.7322
197.6651	0.5342
197.8828	0.7847
198.1005	0.6314
198.3182	0.4905
198.5358	0.5294
198.7535	0.5666
198.9711	0.6028
199.1888	0.6545
199.4064	0.7089
199.624	0.5755
199.8416	0.5011
200.0592	0.6051
200.2767	0.5363
200.4943	0.521
200.7119	0.5584
200.9294	0.5603
201.1469	0.6582
201.3645	0.6671
201.582	0.5558
201.7995	0.6122
202.017	0.5569
202.2344	0.5654
202.4519	0.5487
202.6694	0.6216
202.8868	0.5462
203.1042	0.5392
203.3217	0.527
203.5391	0.5174
203.7565	0.4932
203.9739	0.4864
204.1913	0.5868
204.4086	0.5349
204.626	0.5803
204.8433	0.5023
205.0607	0.5044
205.278	0.5237
205.4953	0.4929
205.7126	0.5149
205.9299	0.4568
206.1472	0.4542
206.3644	0.4843
206.5817	0.4792
206.7989	0.4939
207.0162	0.4209
207.2334	0.4493
207.4506	0.4334
207.6678	0.4266
207.885	0.4398
208.1022	0.4459
208.3194	0.4343
208.5365	0.4552
208.7537	0.4572
208.9708	0.4667
209.1879	0.4302
209.405	0.416
209.6222	0.4159
209.8392	0.4025
210.0563	0.4184
210.2734	0.4202
210.4905	0.4188
210.7075	0.4387
210.9245	0.3913
211.1416	0.4076
211.3586	0.4223
211.5756	0.3978
211.7926	0.4437
212.0096	0.3897
212.2265	0.4151
212.4435	0.4228
212.6604	0.4051
212.8774	0.3866
213.0943	0.4143
213.3112	0.3944
213.5281	0.4188
213.745	0.4022
213.9619	0.3866
214.1788	0.3742
214.3956	0.4213
214.6125	0.4085
214.8293	0.4096
215.0461	0.4144
215.2629	0.4123
215.4798	0.3906
215.6965	0.3894
215.9133	0.4154
216.1301	0.4074
216.3469	0.3966
216.5636	0.4057
216.7803	0.4183
216.9971	0.4091
217.2138	0.4065
217.4305	0.4461
217.6472	0.4082
217.8639	0.416
218.0805	0.4152
218.2972	0.4226
218.5138	0.442
218.7305	0.4092
218.9471	0.4104
219.1637	0.4435
219.3803	0.4215
219.5969	0.4299
219.8135	0.4233
220.0301	0.4104
220.2466	0.4311
220.4632	0.419
220.6797	0.4198
220.8962	0.4278
221.1127	0.4311
221.3292	0.4619
221.5457	0.4337
221.7622	0.4375
221.9787	0.4435
222.1951	0.4364
222.4116	0.4229
222.628	0.4567
222.8444	0.4545
223.0608	0.4482
223.2772	0.4446
223.4936	0.4547
223.71	0.4555
223.9264	0.4415
224.1427	0.4582
224.3591	0.4695
224.5754	0.4607
224.7917	0.4603
225.008	0.4565
225.2243	0.4508
225.4406	0.4588
225.6569	0.4626
225.8732	0.4583
226.0894	0.4517
226.3057	0.4571
226.5219	0.4673
226.7381	0.4684
226.9543	0.4834
227.1705	0.472
227.3867	0.4831
227.6029	0.4605
227.8191	0.4814
228.0352	0.5063
228.2513	0.4979
228.4675	0.4742
228.6836	0.4962
228.8997	0.4888
229.1158	0.4893
229.3319	0.4943
229.548	0.5033
229.764	0.5011
229.9801	0.5148
230.1961	0.5015
230.4121	0.5203
230.6282	0.5063
230.8442	0.5065
231.0602	0.5172
231.2761	0.4955
231.4921	0.5259
231.7081	0.5079
231.924	0.5041
232.14	0.5233
232.3559	0.5357
232.5718	0.521
232.7877	0.5343
233.0036	0.5248
233.2195	0.5247
233.4353	0.5452
233.6512	0.5282
233.867	0.5367
234.0829	0.5251
234.2987	0.5238
234.5145	0.5405
234.7303	0.5446
234.9461	0.5411
235.1619	0.5431
235.3776	0.5171
235.5934	0.5321
235.8091	0.525
236.0249	0.5425
236.2406	0.5405
236.4563	0.55
236.672	0.5384
236.8877	0.5419
237.1034	0.5362
237.319	0.538
237.5347	0.526
237.7503	0.5435
237.966	0.5431
238.1816	0.5264
238.3972	0.5439
238.6128	0.5388
238.8284	0.5373
239.0439	0.5384
239.2595	0.5397
239.475	0.5212
239.6906	0.5259
239.9061	0.5184
240.1216	0.5304
240.3371	0.5232
240.5526	0.517
240.7681	0.5246
240.9836	0.5202
241.199	0.5152
241.4145	0.493
241.6299	0.4887
241.8453	0.4871
242.0607	0.4855
242.2761	0.4834
242.4915	0.4697
242.7069	0.4695
242.9223	0.4667
243.1376	0.4525
243.353	0.4434
243.5683	0.4439
243.7836	0.4213
243.9989	0.4136
244.2142	0.4124
244.4295	0.407
244.6448	0.3999
244.86	0.3907
245.0753	0.3844
245.2905	0.3785
245.5057	0.3727
245.721	0.3596
245.9362	0.351
246.1514	0.3382
246.3665	0.3353
246.5817	0.3319
246.7969	0.3293
247.012	0.3281
247.2271	0.317
247.4423	0.3091
247.6574	0.311
247.8725	0.2969
248.0876	0.2958
248.3026	0.2858
248.5177	0.2757
248.7328	0.2753
248.9478	0.2783
249.1628	0.2662
249.3779	0.2712
249.5929	0.2554
249.8079	0.2525
250.0228	0.2509
250.2378	0.2477
250.4528	0.2477
250.6677	0.24
250.8827	0.2402
251.0976	0.2389
251.3125	0.237
251.5274	0.2331
251.7423	0.2269
251.9572	0.2259
252.172	0.2198
252.3869	0.226
252.6017	0.221
252.8166	0.2164
253.0314	0.2167
253.2462	0.218
253.461	0.2171
253.6758	0.2104
253.8906	0.2057
254.1053	0.202
254.3201	0.2049
254.5348	0.2049
254.7496	0.2023
254.9643	0.2032
255.179	0.2042
255.3937	0.1985
255.6083	0.202
255.823	0.1996
256.0377	0.1985
256.2523	0.1973
256.467	0.1999
256.6816	0.1982
256.8962	0.1973
257.1108	0.1937
257.3254	0.1935
257.54	0.1943
257.7545	0.1899
257.9691	0.1857
258.1836	0.1906
258.3981	0.1869
258.6127	0.1837
258.8272	0.1847
259.0417	0.1833
259.2561	0.1908
259.4706	0.187
259.6851	0.1853
259.8995	0.179
260.114	0.1818
260.3284	0.1825
260.5428	0.1815
260.7572	0.1877
260.9716	0.1837
261.186	0.1802
261.4003	0.1896
261.6147	0.1826
261.829	0.1837
262.0433	0.1823
262.2577	0.1857
262.472	0.1878
262.6863	0.1807
262.9005	0.1914
263.1148	0.1822
263.3291	0.1902
263.5433	0.185
263.7576	0.1842
263.9718	0.1865
264.186	0.188
264.4002	0.1818
264.6144	0.1888
264.8286	0.1856
265.0427	0.1957
265.2569	0.1914
265.471	0.1856
265.6851	0.1843
265.8993	0.1824
266.1134	0.1843
266.3275	0.1882
266.5415	0.1818
266.7556	0.1799
266.9697	0.1803
267.1837	0.1885
267.3978	0.199
267.6118	0.1825
267.8258	0.1824
268.0398	0.1808
268.2538	0.1844
268.4677	0.1863
268.6817	0.1773
268.8957	0.191
269.1096	0.176
269.3235	0.179
269.5374	0.1768
269.7514	0.182
269.9652	0.1865
270.1791	0.1792
270.393	0.1877
270.6068	0.1735
270.8207	0.1746
271.0345	0.1775
271.2483	0.1743
271.4622	0.1748
271.676	0.1722
271.8897	0.1698
272.1035	0.176
272.3173	0.1711
272.531	0.1737
272.7448	0.1682
272.9585	0.1738
273.1722	0.1809
273.3859	0.1681
273.5996	0.1694
273.8133	0.1701
274.0269	0.1739
274.2406	0.1752
274.4542	0.1668
274.6679	0.1648
274.8815	0.1739
275.0951	0.1711
275.3087	0.1828
275.5223	0.1682
275.7358	0.1805
275.9494	0.1739
276.1629	0.1761
276.3765	0.1724
276.59	0.1768
276.8035	0.1781
277.017	0.1784
277.2305	0.1739
277.444	0.173
277.6574	0.1783
277.8709	0.1781
278.0843	0.1746
278.2978	0.1807
278.5112	0.1826
278.7246	0.1784
278.938	0.1803
279.1513	0.1793
279.3647	0.1791
279.5781	0.1764
279.7914	0.1837
280.0047	0.177
280.2181	0.1828
280.4314	0.1816
280.6447	0.1898
280.8579	0.1779
281.0712	0.1861
281.2845	0.1879
281.4977	0.1876
281.711	0.1813
281.9242	0.1855
282.1374	0.18
282.3506	0.186
282.5638	0.1905
282.7769	0.1824
282.9901	0.1822
283.2033	0.185
283.4164	0.1829
283.6295	0.1836
283.8426	0.1894
284.0557	0.1807
284.2688	0.1887
284.4819	0.1936
284.695	0.1932
284.908	0.1941
285.1211	0.1904
285.3341	0.1927
285.5471	0.1959
285.7601	0.195
285.9731	0.1894
286.1861	0.1889
286.3991	0.1942
286.612	0.1928
286.825	0.1965
287.0379	0.1944
287.2508	0.1973
287.4637	0.1922
287.6766	0.198
287.8895	0.1916
288.1024	0.1951
288.3152	0.198
288.5281	0.2022
288.7409	0.1966
288.9538	0.2004
289.1666	0.204
289.3794	0.1964
289.5922	0.1988
289.8049	0.2072
290.0177	0.2001
290.2304	0.2027
290.4432	0.1981
290.6559	0.1897
290.8686	0.2006
291.0813	0.2036
291.294	0.205
291.5067	0.1971
291.7194	0.1988
291.932	0.2
292.1447	0.1962
292.3573	0.2018
292.5699	0.2038
292.7825	0.1991
292.9951	0.1989
293.2077	0.1942
293.4203	0.2028
293.6328	0.1994
293.8454	0.2019
294.0579	0.2025
294.2704	0.1983
294.4829	0.197
294.6954	0.2002
294.9079	0.2033
295.1204	0.202
295.3328	0.2058
295.5453	0.1979
295.7577	0.1953
295.9701	0.1959
296.1825	0.1931
296.3949	0.2081
296.6073	0.1996
296.8197	0.1986
297.0321	0.1982
297.2444	0.1977
297.4567	0.1926
297.6691	0.2054
297.8814	0.1967
298.0937	0.2033
298.306	0.2008
298.5182	0.2017
298.7305	0.1977
298.9428	0.194
299.155	0.1969
299.3672	0.2045
299.5794	0.1997
299.7916	0.1993
300.0038	0.197
300.216	0.2038
300.4282	0.1908
300.6403	0.1952
300.8525	0.202
301.0646	0.1977
301.2767	0.2009
301.4888	0.1974
301.7009	0.2003
301.913	0.2005
302.125	0.2017
302.3371	0.1916
302.5491	0.1932
302.7612	0.195
302.9732	0.1927
303.1852	0.1923
303.3972	0.1927
303.6092	0.1951
303.8211	0.187
304.0331	0.1942
304.245	0.1938
304.457	0.1927
304.6689	0.192
304.8808	0.1876
305.0927	0.1919
305.3046	0.1854
305.5164	0.1873
305.7283	0.1833
305.9401	0.1856
306.152	0.1808
306.3638	0.1736
306.5756	0.1832
306.7874	0.1823
306.9992	0.178
307.2109	0.1747
307.4227	0.1714
307.6344	0.1716
307.8462	0.1702
308.0579	0.1685
308.2696	0.1696
308.4813	0.1687
308.693	0.166
308.9046	0.1631
309.1163	0.1674
309.328	0.1516
309.5396	0.1561
309.7512	0.1534
309.9628	0.1544
310.1744	0.1557
310.386	0.1459
310.5976	0.1518
310.8091	0.1491
311.0207	0.1448
311.2322	0.1477
311.4437	0.1423
311.6552	0.1446
311.8667	0.1404
312.0782	0.1425
312.2897	0.1413
312.5012	0.1352
312.7126	0.1344
312.924	0.1432
313.1355	0.136
313.3469	0.1272
313.5583	0.1308
313.7696	0.1351
313.981	0.1308
314.1924	0.1251
314.4037	0.1225
314.6151	0.1356
314.8264	0.1289
315.0377	0.1262
315.249	0.1175
315.4603	0.1235
315.6716	0.126
315.8828	0.1235
316.0941	0.1252
316.3053	0.1191
316.5165	0.1249
316.7277	0.1245
316.9389	0.1212
317.1501	0.1133
317.3613	0.117
317.5724	0.1218
317.7836	0.1159
317.9947	0.1204
318.2058	0.12
318.417	0.115
318.6281	0.1198
318.8391	0.1167
319.0502	0.1185
319.2613	0.1149
319.4723	0.1129
319.6834	0.1169
319.8944	0.1189
320.1054	0.1203
320.3164	0.1177
320.5274	0.112
320.7383	0.1141
320.9493	0.1178
321.1602	0.1152
321.3712	0.1235
321.5821	0.1172
321.793	0.1135
322.0039	0.1161
322.2148	0.117
322.4257	0.1146
322.6365	0.1173
322.8474	0.1202
323.0582	0.1189
323.269	0.1151
323.4798	0.1147
323.6906	0.117
323.9014	0.114
324.1122	0.1123
324.3229	0.1233
324.5337	0.1219
324.7444	0.1125
324.9551	0.1238
325.1658	0.1189
325.3765	0.1203
325.5872	0.1146
325.7979	0.122
326.0085	0.1215
326.2192	0.1172
326.4298	0.1226
326.6404	0.1159
326.851	0.1225
327.0616	0.1253
327.2722	0.123
327.4828	0.1219
327.6933	0.1199
327.9039	0.1257
328.1144	0.1179
328.3249	0.1187
328.5354	0.1219
328.7459	0.1218
328.9564	0.129
329.1669	0.1188
329.3773	0.1211
329.5878	0.1241
329.7982	0.1228
330.0086	0.1266
330.219	0.12
330.4294	0.127
330.6398	0.1286
330.8502	0.123
331.0605	0.1278
331.2708	0.1206
331.4812	0.1242
331.6915	0.1206
331.9018	0.1241
332.1121	0.1266
332.3224	0.1331
332.5326	0.1292
332.7429	0.123
332.9531	0.1248
333.1633	0.127
333.3735	0.1247
333.5837	0.1263
333.7939	0.1218
334.0041	0.1177
334.2143	0.1305
334.4244	0.1228
334.6346	0.1239
334.8447	0.1274
335.0548	0.1315
335.2649	0.128
335.475	0.1255
335.685	0.127
335.8951	0.1315
336.1051	0.127
336.3152	0.1242
336.5252	0.1298
336.7352	0.122
336.9452	0.1358
337.1552	0.1328
337.3652	0.1297
337.5751	0.1264
337.7851	0.1201
337.995	0.1293
338.2049	0.1271
338.4148	0.1262
338.6247	0.1346
338.8346	0.131
339.0445	0.1357
339.2543	0.1336
339.4642	0.1396
339.674	0.1364
339.8838	0.135
340.0936	0.1351
340.3034	0.1399
340.5132	0.1364
340.7229	0.1327
340.9327	0.1345
341.1424	0.1366
341.3522	0.1419
341.5619	0.1324
341.7716	0.1369
341.9813	0.1438
342.1909	0.1376
342.4006	0.1433
342.6102	0.1374
342.8199	0.1368
343.0295	0.1388
343.2391	0.1383
343.4487	0.1439
343.6583	0.1457
343.8679	0.14
344.0774	0.1427
344.287	0.1505
344.4965	0.1428
344.706	0.1496
344.9155	0.1464
345.125	0.1478
345.3345	0.1462
345.544	0.1512
345.7534	0.1563
345.9629	0.1512
346.1723	0.1518
346.3817	0.1522
346.5911	0.1507
346.8005	0.1534
347.0099	0.1519
347.2193	0.1563
347.4286	0.1541
347.638	0.1572
347.8473	0.1562
348.0566	0.1594
348.2659	0.1643
348.4752	0.1511
348.6845	0.163
348.8937	0.1606
349.103	0.1536
349.3122	0.1674
349.5214	0.1553
349.7306	0.1538
349.9398	0.1598
350.149	0.1685
350.3582	0.1561
350.5674	0.1655
350.7765	0.1716
350.9856	0.1655
351.1948	0.1658
351.4039	0.1608
351.613	0.1733
351.822	0.1683
352.0311	0.161
352.2402	0.1696
352.4492	0.1675
352.6582	0.1721
352.8672	0.1726
353.0762	0.171
353.2852	0.1723
353.4942	0.1728
353.7032	0.1722
353.9121	0.1749
354.1211	0.1725
354.33	0.1748
354.5389	0.1811
354.7478	0.1798
354.9567	0.1796
355.1655	0.1804
355.3744	0.1828
355.5833	0.182
355.7921	0.1801
356.0009	0.1782
356.2097	0.1893
356.4185	0.192
356.6273	0.184
356.8361	0.1936
357.0448	0.1862
357.2536	0.1866
357.4623	0.1884
357.671	0.1872
357.8797	0.1955
358.0884	0.1886
358.2971	0.1947
358.5057	0.1867
358.7144	0.1969
358.923	0.1931
359.1316	0.1972
359.3402	0.197
359.5488	0.1976
359.7574	0.1992
359.966	0.2045
360.1746	0.2004
360.3831	0.2038
360.5916	0.1995
360.8002	0.2134
361.0087	0.2129
361.2172	0.2122
361.4256	0.2005
361.6341	0.2183
361.8426	0.209
362.051	0.2009
362.2594	0.2168
362.4678	0.2202
362.6762	0.219
362.8846	0.2219
363.093	0.2149
363.3014	0.2277
363.5097	0.2187
363.718	0.232
363.9264	0.2236
364.1347	0.2259
364.343	0.2247
364.5513	0.2344
364.7595	0.2342
364.9678	0.2324
365.176	0.2299
365.3842	0.2269
365.5925	0.224
365.8007	0.2316
366.0089	0.2321
366.217	0.2409
366.4252	0.2371
366.6333	0.2336
366.8415	0.2388
367.0496	0.2428
367.2577	0.2378
367.4658	0.2527
367.6739	0.2355
367.882	0.2468
368.09	0.2436
368.2981	0.2475
368.5061	0.2381
368.7141	0.2516
368.9221	0.2564
369.1301	0.2539
369.3381	0.2594
369.5461	0.2619
369.754	0.2512
369.962	0.257
370.1699	0.2578
370.3778	0.261
370.5857	0.2557
370.7936	0.2646
371.0015	0.2521
371.2093	0.2614
371.4172	0.2655
371.625	0.2716
371.8328	0.2634
372.0406	0.2699
372.2484	0.2571
372.4562	0.2618
372.664	0.2661
372.8717	0.2726
373.0795	0.2743
373.2872	0.2728
373.4949	0.2786
373.7026	0.283
373.9103	0.2691
374.118	0.2739
374.3256	0.28
374.5333	0.2807
374.7409	0.2675
374.9485	0.2744
375.1561	0.285
375.3637	0.2698
375.5713	0.2742
375.7789	0.2809
375.9864	0.2745
376.194	0.281
376.4015	0.2939
376.609	0.2853
376.8165	0.2825
377.024	0.2791
377.2315	0.2914
377.4389	0.2765
377.6464	0.2848
377.8538	0.2875
378.0612	0.2878
378.2686	0.2904
378.476	0.2866
378.6834	0.2867
378.8908	0.2964
379.0981	0.2934
379.3055	0.2999
379.5128	0.2962
379.7201	0.2931
379.9274	0.2795
380.1347	0.2994
380.342	0.2955
380.5492	0.3045
380.7565	0.3051
380.9637	0.2976
381.1709	0.301
381.3781	0.2992
381.5853	0.31
381.7925	0.3127
381.9997	0.3149
382.2068	0.3071
382.4139	0.313
382.6211	0.316
382.8282	0.3003
383.0353	0.3184
383.2424	0.3107
383.4494	0.3188
383.6565	0.3088
383.8635	0.3131
384.0706	0.3112
384.2776	0.3122
384.4846	0.3132
384.6916	0.3161
384.8986	0.3242
385.1055	0.3131
385.3125	0.3088
385.5194	0.3093
385.7263	0.3042
385.9333	0.3142
386.1402	0.3152
386.347	0.3153
386.5539	0.3211
386.7608	0.3225
386.9676	0.3128
387.1744	0.3122
387.3813	0.3147
387.5881	0.3233
387.7948	0.3191
388.0016	0.3113
388.2084	0.3132
388.4151	0.3085
388.6219	0.3076
388.8286	0.303
389.0353	0.3133
389.242	0.3072
389.4487	0.3112
389.6553	0.2992
389.862	0.3071
390.0686	0.3113
390.2753	0.316
390.4819	0.3133
390.6885	0.3016
390.8951	0.3144
391.1016	0.3095
391.3082	0.302
391.5147	0.2993
391.7213	0.3082
391.9278	0.2988
392.1343	0.3058
392.3408	0.2966
392.5473	0.2855
392.7537	0.2993
392.9602	0.2938
393.1666	0.2938
393.373	0.2889
393.5794	0.2861
393.7858	0.287
393.9922	0.2864
394.1986	0.2808
394.4049	0.2803
394.6113	0.2817
394.8176	0.2769
395.0239	0.2765
395.2302	0.2765
395.4365	0.2707
395.6428	0.283
395.8491	0.2757
396.0553	0.2666
396.2615	0.2697
396.4678	0.277
396.674	0.2721
396.8802	0.2631
397.0863	0.2693
397.2925	0.2669
397.4987	0.2692
397.7048	0.2771
397.9109	0.275
398.117	0.2699
398.3231	0.2765
398.5292	0.2753
398.7353	0.2636
398.9413	0.2669
399.1474	0.2724
399.3534	0.2659
399.5594	0.2704
399.7654	0.2771
399.9714	0.259
400.1774	0.2647
400.3833	0.2843
400.5893	0.2631
400.7952	0.2639
401.0011	0.26
401.207	0.2654
401.4129	0.2747
401.6188	0.2587
401.8247	0.2667
402.0305	0.2592
402.2364	0.269
402.4422	0.2698
402.648	0.2666
402.8538	0.2741
403.0596	0.2613
403.2654	0.2678
403.4711	0.2644
403.6768	0.2662
403.8826	0.2752
404.0883	0.2634
404.294	0.2701
404.4997	0.2723
404.7054	0.2735
404.911	0.2588
405.1167	0.2613
405.3223	0.2765
405.5279	0.2601
405.7335	0.2642
405.9391	0.2626
406.1447	0.2775
406.3502	0.27
406.5558	0.2756
406.7613	0.2604
406.9668	0.2769
407.1724	0.2734
407.3778	0.2682
407.5833	0.2659
407.7888	0.2707
407.9942	0.2684
408.1997	0.2669
408.4051	0.2617
408.6105	0.2709
408.8159	0.2683
409.0213	0.269
409.2267	0.2652
409.432	0.2696
409.6374	0.2717
409.8427	0.2743
410.048	0.2636
410.2533	0.2611
410.4586	0.2705
410.6639	0.2702
410.8691	0.2753
411.0744	0.2591
411.2796	0.2738
411.4848	0.2631
411.69	0.27
411.8952	0.2755
412.1004	0.2584
412.3056	0.2622
412.5107	0.2606
412.7158	0.2703
412.921	0.2646
413.1261	0.2597
413.3312	0.2645
413.5362	0.2647
413.7413	0.2653
413.9464	0.2658
414.1514	0.2604
414.3564	0.2554
414.5614	0.2626
414.7664	0.2593
414.9714	0.2695
415.1764	0.2617
415.3813	0.2539
415.5863	0.2622
415.7912	0.2616
415.9961	0.2635
416.201	0.266
416.4059	0.2525
416.6108	0.2553
416.8156	0.2578
417.0205	0.2671
417.2253	0.2643
417.4301	0.2686
417.6349	0.2592
417.8397	0.2682
418.0445	0.2592
418.2492	0.2681
418.454	0.2592
418.6587	0.2623
418.8634	0.2504
419.0681	0.2519
419.2728	0.2518
419.4775	0.2541
419.6822	0.246
419.8868	0.2584
420.0915	0.2679
420.2961	0.252
420.5007	0.2487
420.7053	0.252
420.9099	0.2453
421.1144	0.2454
421.319	0.2434
421.5235	0.2359
421.728	0.2471
421.9325	0.2528
422.137	0.242
422.3415	0.2448
422.546	0.2438
422.7504	0.2499
422.9549	0.2332
423.1593	0.2384
423.3637	0.2444
423.5681	0.2425
423.7725	0.2379
423.9769	0.2384
424.1812	0.237
424.3856	0.2372
424.5899	0.2379
424.7942	0.2277
424.9985	0.23
425.2028	0.2394
425.4071	0.2205
425.6113	0.2221
425.8156	0.2291
426.0198	0.2238
426.224	0.2289
426.4282	0.2307
426.6324	0.225
426.8366	0.2264
427.0407	0.2232
427.2449	0.2154
427.449	0.218
427.6531	0.2142
427.8572	0.2158
428.0613	0.2127
428.2654	0.2154
428.4694	0.2042
428.6735	0.2152
428.8775	0.2034
429.0815	0.2073
429.2855	0.2072
429.4895	0.202
429.6935	0.2022
429.8975	0.2068
430.1014	0.1993
430.3053	0.1902
430.5093	0.1895
430.7132	0.1898
430.9171	0.1906
431.1209	0.1875
431.3248	0.187
431.5286	0.1792
431.7325	0.192
431.9363	0.1844
432.1401	0.1765
432.3439	0.1724
432.5477	0.182
432.7514	0.1772
432.9552	0.1717
433.1589	0.1761
433.3627	0.177
433.5664	0.1663
433.7701	0.1705
433.9737	0.1742
434.1774	0.1681
434.3811	0.1723
434.5847	0.1608
434.7883	0.1627
434.9919	0.1515
435.1955	0.1513
435.3991	0.1549
435.6027	0.1551
435.8062	0.1525
436.0098	0.1436
436.2133	0.1554
436.4168	0.1471
436.6203	0.14
436.8238	0.1477
437.0272	0.142
437.2307	0.1297
437.4341	0.1397
437.6375	0.1357
437.841	0.1347
438.0443	0.1326
438.2477	0.1321
438.4511	0.1355
438.6545	0.1355
438.8578	0.126
439.0611	0.129
439.2644	0.122
439.4677	0.1182
439.671	0.1151
439.8743	0.1107
440.0775	0.1188
440.2808	0.1215
440.484	0.1146
440.6872	0.1088
440.8904	0.1089
441.0936	0.1108
441.2967	0.1013
441.4999	0.1081
441.703	0.1069
441.9062	0.1027
442.1093	0.0963
442.3124	0.0992
442.5155	0.0945
442.7185	0.0883
442.9216	0.0915
443.1246	0.0923
443.3276	0.0769
443.5307	0.088
443.7337	0.0851
443.9366	0.079
444.1396	0.0839
444.3426	0.0846
444.5455	0.0827
444.7484	0.0731
444.9513	0.08
445.1542	0.076
445.3571	0.0745
445.56	0.0753
445.7628	0.0721
445.9657	0.0817
446.1685	0.0798
446.3713	0.0687
446.5741	0.0625
446.7769	0.0687
446.9797	0.0629
447.1824	0.0688
447.3852	0.0566
447.5879	0.0587
447.7906	0.0544
447.9933	0.0669
448.196	0.0561
448.3986	0.0641
448.6013	0.0507
448.8039	0.0578
449.0066	0.0539
449.2092	0.0462
449.4118	0.0489
449.6143	0.052
449.8169	0.0567
450.0195	0.0515
450.222	0.0523
450.4245	0.047
450.627	0.046
450.8295	0.0473
451.032	0.0499
451.2345	0.0439
451.4369	0.0483
451.6394	0.0453
451.8418	0.0369
452.0442	0.0375
452.2466	0.0458
452.449	0.0341
452.6513	0.0351
452.8537	0.0406
453.056	0.0445
453.2583	0.0335
453.4607	0.0419
453.663	0.0355
453.8652	0.0325
454.0675	0.0329
454.2697	0.0348
454.472	0.0286
454.6742	0.0274
454.8764	0.0265
455.0786	0.0328
455.2808	0.0332
455.4829	0.0236
455.6851	0.0195
455.8872	0.0335
456.0893	0.0323
456.2915	0.0159
456.4935	0.0157
456.6956	0.0304
456.8977	0.0158
457.0997	0.0266
457.3018	0.03
457.5038	0.0264
457.7058	0.0242
457.9078	0.0312
458.1098	0.0232
458.3117	0.0212
458.5137	0.0311
458.7156	0.0303
458.9175	0.0182
459.1194	0.0199
459.3213	0.0191
459.5232	0.0169
459.725	0.0181
459.9269	0.0194
460.1287	0.0154
460.3305	0.0185
460.5323	0.0257
460.7341	0.0153
460.9359	0.0211
461.1376	0.0223
461.3394	0.0158
461.5411	0.019
461.7428	0.0176
461.9445	0.0078
462.1462	0.0065
462.3479	0.016
462.5495	0.0158
462.7512	-0.0005
462.9528	0.0168
463.1544	0.0143
463.356	0.0151
463.5576	0.0046
463.7592	0.005
463.9607	0.0104
464.1623	0.0179
464.3638	0.0138
464.5653	0.014
464.7668	0.0067
464.9683	0.0089
465.1697	0.0084
465.3712	0.0019
465.5726	0.012
465.7741	0.0104
465.9755	0.0111
466.1769	0.0126
466.3782	0.0046
466.5796	0.0108
466.7809	0.0201
466.9823	0.0111
467.1836	0.0193
467.3849	0.0168
467.5862	0.0076
467.7875	0.0115
467.9887	0.0099
468.19	0.001
468.3912	0.003
468.5924	0.0239
468.7936	-0.0011
468.9948	0.0159
469.196	0.0126
469.3972	0.0209
469.5983	0.0001
469.7994	0.0093
470.0006	0.0107
470.2017	0.0103
470.4027	0.0076
470.6038	0.0014
470.8049	0.0061
471.0059	0.0111
471.2069	0.0054
471.408	0.0005
471.6089	0.013
471.8099	0.0118
472.0109	-0.0105
472.2119	0.0168
472.4128	0.0081
472.6137	0.0063
472.8146	0.0078
473.0155	0.0014
473.2164	-0.0021
473.4173	0.0188
473.6181	0.0121
473.819	-0.0008
474.0198	0.0083
474.2206	0.009
474.4214	0.0132
474.6222	0.0027
474.8229	0
475.0237	0.0038
475.2244	0.0129
475.4251	-0.0026
475.6258	0.0125
475.8265	0.004
476.0272	0.0047
476.2278	0.0049
476.4285	-0.0027
476.6291	0.0123
476.8297	-0.0022
477.0303	0.0002
477.2309	-0.0066
477.4315	0.0077
477.632	0.0044
477.8326	0.0024
478.0331	0.0096
478.2336	0.0081
478.4341	0.011
478.6346	-0.0021
478.8351	0.0072
479.0355	0.0033
479.236	0.0086
479.4364	-0.0003
479.6368	-0.0018
479.8372	0.0077
480.0376	0.0017
480.2379	-0.0027
480.4383	-0.0018
480.6386	-0.0031
480.8389	0.0033
481.0392	-0.0013
481.2395	0.0045
481.4398	0.0071
481.6401	0.004
481.8403	0.0007
482.0405	0.0041
482.2408	0.001
482.441	-0.007
482.6411	0.0044
482.8413	-0.0042
483.0415	0.0036
483.2416	-0.0016
483.4417	0.0067
483.6419	0.0047
483.8419	0.0047
484.042	0.0096
484.2421	0.0053
484.4422	0.0035
484.6422	0.0147
484.8422	0.0035
485.0422	0.0052
485.2422	0.0005
485.4422	0.0027
485.6422	0.0005
485.8421	0.002
486.042	0.0038
486.242	0.0021
486.4419	0.0066
486.6417	0.0045
486.8416	0.0078
487.0415	-0.0015
487.2413	-0.0041
487.4411	0.0047
487.641	0.0092
487.8408	0.0057
488.0405	0.0081
488.2403	-0.0077
488.4401	0.0041
488.6398	0.0054
488.8395	0.0069
489.0392	0.0071
489.2389	0.0036
489.4386	-0.0011
489.6383	0.0018
489.8379	-0.0008
490.0376	0.0067
490.2372	-0.0017
490.4368	0.011
490.6364	0.0108
490.836	-0.0037
491.0355	0.0073
491.2351	0.0089
491.4346	0.0042
491.6341	0.0032
491.8336	-0.0051
492.0331	0.0007
492.2326	0.0023
492.432	0.0046
492.6315	0.0015
492.8309	0.0071
493.0303	-0.0056
493.2297	-0.0034
493.4291	-0.0082
493.6284	-0.0037
493.8278	0.0034
494.0271	-0.0021
494.2264	0.0072
494.4257	0.0046
494.625	-0.0038
494.8243	0.0105
495.0236	0.0061
495.2228	0.0011
495.422	0.0138
495.6213	0.0036
495.8205	0.004
496.0196	0.0104
496.2188	0.0006
496.418	-0.0016
496.6171	0.0019
496.8162	0.0032
497.0153	0.0049
497.2144	-0.0006
497.4135	0.0036
497.6126	0.001
497.8116	-0
498.0107	0.0029
498.2097	0.0039
498.4087	0.0063
498.6077	0.0046
498.8067	0.0053
499.0056	0.0016
499.2046	0.0042
499.4035	0.0059
499.6024	-0.0085
499.8013	-0.0017
500.0002	0.0051
500.199	0.0014
500.3979	0.0039
500.5967	-0.0081
500.7956	-0.0037
500.9944	0.0028
501.1932	0.0036
501.3919	0.0069
501.5907	0.0047
501.7895	-0.0012
501.9882	0.0035
502.1869	0.0025
502.3856	0.0049
502.5843	0.0025
502.783	0.0108
502.9816	-0.0096
503.1803	0.009
503.3789	0.0056
503.5775	0.0012
503.7761	-0.0006
503.9747	0.0015
504.1732	-0.0022
504.3718	-0.0014
504.5703	-0.0057
504.7689	-0.0038
504.9674	-0.0008
505.1658	-0.0022
505.3643	0.0085
505.5628	0.0089
505.7612	0.0072
505.9597	0.0047
506.1581	-0.0046
506.3565	-0.0075
506.5549	0.0031
506.7532	0.003
506.9516	0.006
507.1499	-0.0004
507.3482	0.0103
507.5465	-0.004
507.7448	0.0005
507.9431	-0.0036
508.1414	-0.0025
508.3396	0.002
508.5379	0.0029
508.7361	0.0089
508.9343	0.0039
509.1325	0.0023
509.3306	-0.0079
509.5288	0.0047
509.7269	0.0019
509.9251	-0.0008
510.1232	-0.0047
510.3213	0.0011
510.5193	0.0115
510.7174	-0.0044
510.9154	0.0016
511.1135	0.0043
511.3115	0.0093
511.5095	0.0005
511.7075	-0.0026
511.9055	0.0054
512.1034	0.0096
512.3014	0.0027
512.4993	0.001
512.6972	-0.0029
512.8951	0.0026
513.093	-0.0048
513.2908	-0.0024
513.4887	0.0072
513.6865	-0.0011
513.8844	0.0085
514.0822	0.0042
514.2799	0.0054
514.4777	0.0107
514.6755	-0.0001
514.8732	0.0013
515.0709	0.0035
515.2687	-0.0025
515.4664	-0.0053
515.664	0.0101
515.8617	0.0055
516.0594	0.0063
516.257	0.0105
516.4546	0.0045
516.6522	0.0037
516.8498	0.0038
517.0474	0.0073
517.2449	0.0036
517.4425	0.0007
517.64	0.0063
517.8375	0.0024
518.035	-0.0085
518.2325	-0.0011
518.43	0.0003
518.6274	0.0003
518.8249	0.0015
519.0223	-0.0042
519.2197	0.0071
519.4171	-0.0019
519.6145	-0.0061
519.8118	0.0055
520.0092	0.0014
520.2065	-0.0001
520.4038	-0.0014
520.6011	0.0053
520.7984	0.0016
520.9956	0.004
521.1929	0.0056
521.3901	0.0053
521.5874	0.0045
521.7846	0.0052
521.9818	-0.0009
522.1789	0.0152
522.3761	0.0007
522.5732	-0.0073
522.7704	0.0095
522.9675	0.0022
523.1646	0.0186
523.3617	0.0032
523.5587	0.0057
523.7558	-0.0015
523.9528	0.0022
524.1498	0.0032
524.3468	-0.0024
524.5438	-0.0074
524.7408	-0.0054
524.9378	0.0032
525.1347	0.0094
525.3316	0.0087
525.5285	0.0044
525.7254	0.0017
525.9223	-0.0123
526.1192	0.0018
526.316	-0.0099
526.5129	0.0061
526.7097	-0.004
526.9065	0.0047
527.1033	-0.0027
527.3	-0.0024
527.4968	-0.0003
527.6935	-0.0037
527.8903	-0.0044
528.087	0.0048
528.2837	-0.0019
528.4804	0.0094
528.677	0.0084
528.8737	0.0017
529.0703	0.005
529.2669	-0.0038
529.4635	0.0115
529.6601	0.0114
529.8567	0
530.0532	0.0034
530.2498	-0.0054
530.4463	0.0108
530.6428	-0.0038
530.8393	-0.0012
531.0358	0.0104
531.2322	-0.003
531.4287	-0.0124
531.6251	-0.0008
531.8215	-0.0042
532.0179	0.0024
532.2143	0.0097
532.4107	0.009
532.607	0.0027
532.8034	0.0038
532.9997	0.0025
533.196	0.0107
533.3923	0.0082
533.5886	0.0003
533.7848	-0.0079
533.9811	0.0008
534.1773	-0.0015
534.3735	0.0085
534.5697	0.0003
534.7659	-0.0007
534.9621	0.0046
535.1582	0.0044
535.3544	0.0021
535.5505	0.0026
535.7466	-0.0023
535.9427	-0.004
536.1387	-0.0063
536.3348	0.0029
536.5308	0.0147
536.7269	-0.0014
536.9229	-0.0013
537.1189	0.0065
537.3148	-0.0124
537.5108	0.0012
537.7068	-0.0005
537.9027	0.0058
538.0986	0.0005
538.2945	0.0058
538.4904	-0.0133
538.6863	0
538.8821	-0.0071
539.078	-0.0014
539.2738	-0.0063
539.4696	0.0042
539.6654	-0.0068
539.8611	0.004
540.0569	0.0038
540.2526	-0.0079
540.4484	-0.005
540.6441	-0.0015
540.8398	-0.0082
541.0355	0.0068
541.2311	0.0142
541.4268	0.0037
541.6224	0.001
541.818	-0.006
542.0136	-0.0081
542.2092	-0.0014
542.4048	0.0019
542.6003	0.0003
542.7959	0.0059
542.9914	0.0084
543.1869	0.01
543.3824	0.0015
543.5779	0.0025
543.7734	-0.0053
543.9688	-0.0011
544.1642	-0.0002
544.3596	-0.0024
544.555	0.006
544.7504	0.003
544.9458	-0.0038
545.1411	0.0022
545.3365	0.0031
545.5318	0.0049
545.7271	0.0063
545.9224	-0.0049
546.1177	-0.003
546.3129	-0.0166
546.5081	-0.0088
546.7034	-0.0011
546.8986	-0.0094
547.0938	-0.0015
547.289	0.0043
547.4841	-0.0036
547.6793	-0.0011
547.8744	-0.0014
548.0695	0.0032
548.2646	-0.0065
548.4597	-0.0076
548.6548	0.0155
548.8498	0.0006
549.0448	-0.0029
549.2399	0.0002
549.4349	0.006
549.6298	-0.0038
549.8248	-0.014
550.0198	0.0086
550.2147	-0.0084
550.4096	-0.0042
550.6045	-0.0025
550.7994	-0.0017
550.9943	-0.0021
551.1892	-0.0085
551.384	0.0054
551.5788	0.0053
551.7737	0.0028
551.9685	0.0012
552.1632	0.0015
552.358	-0.0041
552.5528	-0.0011
552.7475	0.0009
552.9422	0.0012
553.1369	0.0078
553.3316	-0.0016
553.5263	-0.003
553.7209	-0.0015
553.9156	0.0115
554.1102	-0.0048
554.3048	0.0072
554.4994	-0.0031
554.694	0.0053
554.8885	-0.0038
555.0831	0.0015
555.2776	0.0016
555.4721	0.0002
555.6666	-0.0006
555.8611	0.0033
556.0555	0.0055
556.25	0.0059
556.4444	0.0002
556.6388	0.0083
556.8332	-0
557.0276	0.016
557.222	0.0032
557.4163	0.0135
557.6107	0.0054
557.805	-0.0113
557.9993	-0.0014
558.1936	0.0101
558.3879	-0.0047
558.5821	0.0074
558.7764	0.0106
558.9706	0.0052
559.1648	0.0039
559.359	0.0078
559.5532	-0.0062
559.7473	0.0201
559.9415	0.0032
560.1356	0
560.3297	0.001
560.5238	0.0011
560.7179	-0.0083
560.9119	0.0137
561.106	-0.0037
561.3	0.0038
561.494	0.0103
561.688	0.0064
561.882	0.0028
562.076	0.0071
562.2699	0.0069
562.4639	0.0085
562.6578	0.0098
562.8517	0.0013
563.0456	-0.0036
563.2395	0.0102
563.4333	0
563.6272	0.0115
563.821	0.0029
564.0148	0.0001
564.2086	0.0049
564.4024	-0.0014
564.5961	0.0067
564.7899	-0.0058
564.9836	0.0004
565.1773	0.005
565.371	-0.0003
565.5647	-0.0066
565.7584	0.0065
565.952	0.0031
566.1456	0.0006
566.3393	0.0159
566.5329	0.0036
566.7264	0.0003
566.92	0.0076
567.1136	0.0022
567.3071	0
567.5006	-0.0017
567.6941	0.0141
567.8876	-0.0002
568.0811	0.0021
568.2745	-0.0046
568.468	0.0022
568.6614	-0.0021
568.8548	-0.0003
569.0482	0.0022
569.2416	-0.0002
569.4349	-0.0008
569.6283	0.0044
569.8216	0.0012
570.0149	-0.0017
570.2082	-0.0037
570.4015	0.0018
570.5947	0.0008
570.788	0.0012
570.9812	0.0052
571.1744	-0.0021
571.3676	0
571.5608	-0.0032
571.754	0.0017
571.9471	0.0014
572.1402	-0.0004
572.3333	0.0014
572.5264	0.0045
572.7195	0.0072
572.9126	-0.0001
573.1057	0.0012
573.2987	-0.0013
573.4917	0.0038
573.6847	0.0006
573.8777	-0.0011
574.0707	-0.0057
574.2636	0.001
574.4566	0.0009
574.6495	0.0072
574.8424	0.0012
575.0353	-0.0016
575.2281	0.0011
575.421	-0.0029
575.6138	0.0005
575.8067	0.0042
575.9995	0.003
576.1923	0.0032
576.385	-0.0028
576.5778	0.005
576.7706	0.0043
576.9633	0.0004
577.156	0.0012
577.3487	-0.0027
577.5414	0.0014
577.734	0.0001
577.9267	0.0016
578.1193	-0.0006
578.3119	-0.0064
578.5045	-0.0016
578.6971	-0.0003
578.8897	0.0016
579.0822	0.0077
579.2747	-0.0035
579.4673	-0.0018
579.6598	-0.0054
579.8522	0.0043
580.0447	-0.0005
580.2372	0.0063
580.4296	-0.006
580.622	0.0068
580.8144	0.001
581.0068	0.0018
581.1992	-0.0008
581.3915	-0.0019
581.5839	0.0018
581.7762	0.0031
581.9685	-0.0014
582.1608	0.0005
582.353	-0.0009
582.5453	0.0045
582.7375	-0.0002
582.9298	0.0003
583.122	-0.0038
583.3142	0.0022
583.5063	-0.0084
583.6985	0.0012
583.8906	0.0005
584.0827	-0.0016
584.2749	0.0008
584.4669	0.0011
584.659	0.0007
584.8511	0.0021
585.0431	0.0006
585.2352	-0.0068
585.4272	-0.0002
585.6192	0.0019
585.8111	-0.0057
586.0031	0.0028
586.195	0.0023
586.387	0.0013
586.5789	0.0029
586.7708	-0.0031
586.9627	0.002
587.1545	0.0011
587.3464	-0.0033
587.5382	-0.0004
587.73	0.0027
587.9218	0.0038
588.1136	-0.003
588.3053	0.0034
588.4971	-0.0001
588.6888	-0.0012
588.8805	0.0039
589.0722	0.003
589.2639	0.003
589.4556	-0.0058
589.6472	-0.0012
589.8389	0.0035
590.0305	-0.0023
590.2221	0.0031
590.4137	-0.0056
590.6052	0
590.7968	-0.0011
590.9883	0.0009
591.1798	-0.0063
591.3713	-0
591.5628	0.0026
591.7543	0.001
591.9458	0.0016
592.1372	-0.0026
592.3286	-0.0004
592.52	-0.0019
592.7114	-0.0011
592.9028	-0.0025
593.0941	-0.0017
593.2855	0.001
593.4768	-0.0014
593.6681	0
593.8594	-0.004
594.0506	-0.0002
594.2419	-0.0004
594.4331	-0.0048
594.6244	0.0014
594.8156	0.0042
595.0067	-0.0017
595.1979	-0.0053
595.3891	0.0016
595.5802	-0.0022
595.7713	-0.0001
595.9624	-0.0031
596.1535	0
596.3446	-0.0022
596.5357	-0.0026
596.7267	-0.0028
596.9177	0.0039
597.1087	0.0035
597.2997	-0.0001
597.4907	0.0071
597.6817	-0.0024
597.8726	0.0065
598.0635	0.0055
598.2544	-0.0037
598.4453	-0.003
598.6362	0.0012
598.827	0.0026
599.0179	0.0065
599.2087	-0.0029
599.3995	0.0003
599.5903	0.0051
599.7811	-0.0036
599.9718	-0.0016
600.1626	0.0008
600.3533	-0.0001
600.544	0.0072
600.7347	-0.0024
600.9254	0.0034
601.116	0.0008
601.3067	0.0046
601.4973	0.0113
601.6879	-0.0023
601.8785	-0.0021
602.0691	0.0004
602.2596	0.0024
602.4502	-0.0009
602.6407	0.0002
602.8312	0.0023
603.0217	0.0022
603.2122	0.003
603.4027	-0.0029
603.5931	0.0024
603.7835	0.0004
603.9739	0.001
604.1643	0.0021
604.3547	0.0034
604.5451	0.0026
604.7354	-0.0038
604.9257	-0.0027
605.116	-0.0054
605.3063	0.0013
605.4966	0.003
605.6869	-0.0006
605.8771	0.0037
606.0673	0.0019
606.2575	-0.0022
606.4477	0.0036
606.6379	-0.0016
606.8281	-0.0055
607.0182	-0.0034
607.2083	0.0018
607.3985	0.0018
607.5885	0.0013
607.7786	0.0065
607.9687	0.0007
608.1587	0.0036
608.3488	-0.0046
608.5388	0.0039
608.7288	-0.0083
608.9187	0.0083
609.1087	0.0027
609.2986	-0.0041
609.4886	0.0063
609.6785	0.0056
609.8684	-0.0076
610.0582	0.0015
610.2481	-0.0031
610.4379	0.0023
610.6278	-0.0004
610.8176	-0.0017
611.0074	-0.0016
611.1971	0.0018
611.3869	-0.0023
611.5766	0.0001
611.7664	0.0057
611.9561	0.005
612.1458	-0.0002
612.3354	0.0057
612.5251	-0.0052
612.7147	0.0098
612.9044	-0.0043
613.094	0.0069
613.2836	-0.0045
613.4731	0.0019
613.6627	0.0064
613.8522	-0.0067
614.0417	-0.0008
614.2313	-0.0106
614.4207	0.002
614.6102	-0.0006
614.7997	0.0002
614.9891	0.001
615.1785	-0.0036
615.3679	0.0022
615.5573	-0.0033
615.7467	-0.0016
615.9361	-0.0076
616.1254	0.001
616.3147	0.0003
616.504	-0
616.6933	-0.002
616.8826	0.004
617.0718	-0.0072
617.2611	0.0009
617.4503	-0.0027
617.6395	-0.0024
617.8287	0.0064
618.0179	-0.0057
618.207	0.0018
618.3961	0.0026
618.5853	-0.0006
618.7744	0.0058
618.9634	0.0035
619.1525	-0.0047
619.3416	0.0043
619.5306	-0.0021
619.7196	-0.005
619.9086	0.0137
620.0976	-0.0023
620.2866	0.0034
620.4755	0.016
620.6645	-0.0034
620.8534	-0.0008
621.0423	-0.0033
621.2312	-0.0089
621.42	-0.0005
621.6089	0.0038
621.7977	-0.0009
621.9865	0.0064
622.1753	0.0094
622.3641	-0.0013
622.5529	-0.0094
622.7416	-0.0035
622.9303	-0.0079
623.1191	-0.0041
623.3078	-0.0066
623.4964	-0.0067
623.6851	0.0075
623.8737	0.0094
624.0624	0.0053
624.251	0.0006
624.4396	0.0074
624.6282	0.0097
624.8167	0.0066
625.0053	0.0014
625.1938	-0.0065
625.3823	-0.0109
625.5708	-0.0018
625.7593	-0.0137
625.9477	-0.0075
626.1362	-0.0019
626.3246	-0.0075
626.513	0.0037
626.7014	-0.0049
626.8898	-0.0003
627.0781	0.0006
627.2665	0.0078
627.4548	0.0031
627.6431	-0.009
627.8314	0.0112
628.0197	-0.0041
628.2079	0.0056
628.3962	-0.0001
628.5844	0.0042
628.7726	-0.0112
628.9608	0.0111
629.1489	-0.0009
629.3371	-0.0008
629.5252	0.0119
629.7134	0.0081
629.9015	-0.0138
630.0895	0.0065
630.2776	-0.0077
630.4657	0.014
630.6537	-0.0029
630.8417	-0.0005
631.0297	0.0057
631.2177	0.0059
631.4057	-0.0063
631.5936	-0.0043
631.7815	0.0001
631.9695	0.0185
632.1574	-0.0033
632.3452	0.0033
632.5331	0.0064
632.7209	0.0094
632.9088	-0.0041
633.0966	0.0128
633.2844	0.0077
633.4722	0.0064
633.6599	-0.0221
633.8477	-0.0101
634.0354	0.0101
634.2231	0.0079
634.4108	-0.004
634.5985	-0.001
634.7861	-0.0098
634.9738	-0.0033
635.1614	0.0137
635.349	-0.006
635.5366	-0.0014
635.7242	0.0077
635.9117	0.0066
636.0993	-0.0053
636.2868	-0.0027
636.4743	0.0121
636.6618	0.0044
636.8492	0.0067
637.0367	-0.0062
637.2241	0.0019
637.4115	0.0047
637.5989	0.0047
637.7863	-0.0083
637.9737	0.0107
638.161	0.0061
638.3484	0.0117
638.5357	-0.0075
638.723	0.0019
638.9103	0.0216
639.0975	0.0043
639.2848	0.0085
639.472	-0.0233
639.6592	-0.0012
639.8464	0.0222
640.0336	0.0034
640.2208	-0.0067
640.4079	0.0051
640.595	0.0038
640.7821	-0.0009
640.9692	0.0118
641.1563	-0.0225
641.3434	0.0125
641.5304	-0.0018
641.7174	0.0161
641.9044	0.0114
642.0914	-0.0013
642.2784	0.0206
642.4653	0.0195
642.6523	-0.012
642.8392	0.024
643.0261	-0.008
643.213	0.0117
643.3999	-0.0042
643.5867	0.0112
643.7735	0.016
643.9604	-0.0083
644.1472	-0.0067
644.3339	-0.0027
644.5207	-0.0184
644.7075	-0.0047
644.8942	0.0108
645.0809	-0.0122
645.2676	0.0014
645.4543	0.0019
645.6409	-0.0128
645.8276	-0.0214
646.0142	0.0134
646.2008	-0.0021
646.3874	0.0142
646.574	-0.0337
646.7605	-0.0016
646.9471	0.001
647.1336	0.0189
647.3201	0.0095
647.5066	-0.0114
647.6931	-0.0001
647.8795	0.0186
648.0659	-0.0024
648.2524	-0.0182
648.4388	-0.0013
648.6252	-0.0101
648.8115	0.0119
648.9979	0.0144
649.1842	-0.0107
649.3705	0.0124
649.5568	-0.0065
649.7431	0.0133
649.9294	-0.0058
650.1156	-0.0226
650.3018	-0.0021
650.488	-0.0029
650.6742	0.0009
650.8604	0.0024
651.0466	0.0209
651.2327	-0.0175
651.4188	-0.0319
651.6049	-0.0005
651.791	0.0074
651.9771	-0.0078
652.1632	-0.0013
652.3492	-0.005
652.5352	-0.0042
652.7212	0.0044
652.9072	0.0061
653.0932	0.0005
653.2791	0.0075
653.465	-0.0067
653.651	0.0113
653.8369	0.0209
654.0227	-0.0018
654.2086	-0.0005
654.3944	0.0058
654.5803	-0.0058
654.7661	-0.0038
654.9519	-0.0031
655.1377	0
655.3234	0
655.5092	0
655.6949	0
655.8806	0
656.0663	0
656.2519	0
656.4376	0
656.6232	0
656.8088	0
656.9945	0
657.18	0
657.3656	0
657.5511	0
657.7367	0
657.9222	0
658.1077	0
658.2932	0
658.4786	0
658.6641	0
658.8495	0
659.0349	0
659.2203	0
659.4057	0.0046
659.591	0.0741
659.7764	0.0096
659.9617	0.0035
660.147	-0.0184
660.3323	0.0061
660.5176	0.0028
660.7028	0.0149
660.888	0.0168
661.0733	0.0064
661.2585	-0.0042
661.4436	0.0125
661.6288	0.0062
661.8139	0.0262
661.9991	0.0057
662.1842	0.0045
662.3693	-0.0089
662.5544	0.0179
662.7394	0.0259
662.9245	0.019
663.1095	0.0107
663.2945	-0.0032
663.4795	-0.0072
663.6644	-0.0044
663.8494	0.0116
664.0343	-0.0001
664.2193	-0.0166
664.4042	-0.0219
664.589	-0.0226
664.7739	0.004
664.9587	-0.0065
665.1436	-0.0064
665.3284	0.0135
665.5132	0.0025
665.698	0.0091
665.8827	-0.0101
666.0675	-0.0227
666.2522	0.014
666.4369	-0.0079
666.6216	-0.0114
666.8063	-0.023
666.9909	0.0113
667.1756	0.0091
667.3602	-0.0259
667.5448	0.0019
667.7294	-0.0018
667.9139	0.0037
668.0985	-0.0194
668.283	-0.0094
668.4675	0.0088
668.652	0.0012
668.8365	-0.0174
669.0209	-0.0189
669.2054	0.015
669.3898	-0.005
669.5742	0.0148
669.7586	0.0055
669.943	-0.0276
670.1273	0.0246
670.3117	0.0213
670.496	0.0057
670.6803	0.0235
670.8646	0.0131
671.0488	-0.0115
671.2331	0.0182
671.4173	0.0086
671.6015	0.0051
671.7857	-0.0166
671.9699	0.006
672.1541	-0.0063
672.3382	0.0084
672.5223	-0.0048
672.7064	0.0003
672.8905	0.0121
673.0746	0.0133
673.2587	0.0168
673.4427	-0.0163
673.6267	-0.0182
673.8107	0.001
673.9947	0.0044
674.1787	0.0242
674.3626	0.0008
674.5465	0.0132
674.7304	-0.0362
674.9143	0.0199
675.0982	0.0068
675.2821	0.0286
675.4659	-0.0081
675.6497	-0.001
675.8335	0.0113
676.0173	0.0067
676.2011	-0.0099
676.3849	-0.0134
676.5686	0.035
676.7523	0.0072
676.936	-0.0027
677.1197	0.0004
677.3034	0.0241
677.487	0.0051
677.6706	-0.0091
677.8542	0.004
678.0378	0.0035
678.2214	-0.0011
678.405	0.021
678.5885	0.0043
678.772	-0.0044
678.9555	0.0095
679.139	-0.0174
679.3225	-0.0031
679.5059	-0.0063
679.6894	-0.0263
679.8728	-0.0098
680.0562	0.004
680.2395	0.0008
680.4229	-0.0062
680.6062	0.0102
680.7896	-0.0075
680.9729	0.0001
681.1562	-0.023
681.3394	-0.0096
681.5227	-0.0163
681.7059	-0.0004
681.8891	0.0169
682.0723	-0.0005
682.2555	-0.0059
682.4387	0.0189
682.6218	-0.0232
682.805	-0.0092
682.9881	0.0164
683.1712	0.0266
683.3542	-0.0038
683.5373	-0.0067
683.7203	0.016
683.9034	0.0045
684.0864	-0.0074
684.2694	0.0151
684.4523	-0.0044
684.6353	-0.002
684.8182	0.0163
685.0011	-0.003
685.184	-0.0013
685.3669	-0.0126
685.5498	0.0033
685.7326	-0.0037
685.9154	-0.0096
686.0982	-0.0015
686.281	-0.0014
686.4638	0.0023
686.6465	-0.0037
686.8293	-0.0009
687.012	0.0052
687.1947	-0.0083
687.3774	-0.0026
687.56	-0.0013
687.7427	0.0113
687.9253	0.0233
688.1079	0.0147
688.2905	-0.0068
688.4731	0.0307
688.6556	0.0048
688.8382	0.0054
689.0207	-0.0114
689.2032	0.0012
689.3857	0.0048
689.5681	-0.0098
689.7506	-0.0166
689.933	-0.0285
690.1154	0.0071
690.2978	-0.0096
690.4802	0.0169
690.6626	-0.0085
690.8449	-0.0149
691.0272	-0.0105
691.2095	0.0135
691.3918	0.0056
691.5741	0.0017
691.7563	0.0309
691.9386	-0.0049
692.1208	-0.01
692.303	0.0195
692.4852	0.0115
692.6673	0.0176
692.8495	-0.0163
693.0316	-0.0184
693.2137	0.0271
693.3958	0.0004
693.5778	-0.0244
693.7599	-0.0246
693.9419	0.035
694.1239	-0.0094
694.3059	-0.0088
694.4879	-0.0177
694.6699	0.0147
694.8518	0.0057
695.0337	-0.0066
695.2157	-0.0142
695.3975	-0.0119
695.5794	-0.0151
695.7613	0.027
695.9431	-0.0249
696.1249	0.013
696.3067	0.0049
696.4885	0.023
696.6703	-0.0013
696.852	-0.0257
697.0337	-0.0119
697.2154	0.0199
697.3971	0.0113
697.5788	0.0216
697.7605	0.0109
697.9421	-0.004
698.1237	-0.0024
698.3053	-0.0054
698.4869	0.0145
698.6685	0.01
698.85	-0.0076
699.0315	-0.0146
699.213	0.0005
699.3945	0.0148
699.576	-0.0127
699.7575	0.0073
699.9389	0.0006
700.1203	-0.0006
700.3017	-0.0011
700.4831	-0.0239
700.6645	0.0317
700.8458	0.0065
701.0271	-0.0124
701.2084	-0.0165
701.3897	-0.0085
701.571	0.0162
701.7523	-0.0225
701.9335	0.0257
702.1147	0.0139
702.2959	0.0213
702.4771	-0.0087
702.6583	0.0068
702.8394	0.0031
703.0205	0.0127
703.2016	-0.0031
703.3827	0.0203
703.5638	0.01
703.7449	-0.0038
703.9259	-0.0068
704.1069	0.0262
704.2879	0.0251
704.4689	-0.0067
704.6499	-0.0033
704.8308	-0.0096
705.0117	-0.0322
705.1927	0.0111
705.3735	0.013
705.5544	0.0002
705.7353	0.03
705.9161	0.0167
706.0969	0.0091
706.2777	0.0056
706.4585	0.0169
706.6393	0.0073
706.82	-0.0065
707.0007	0.0043
707.1815	0.0225
707.3621	0.0063
707.5428	-0.0006
707.7235	0.0303
707.9041	-0.0089
708.0847	0.0064
708.2653	0.0069
708.4459	0.0099
708.6265	-0.0229
708.807	-0.0064
708.9875	0.0087
709.168	0.0202
709.3485	0.0337
709.529	0.007
709.7095	-0.0222
709.8899	0.0194
710.0703	0.0124
710.2507	-0.0065
710.4311	0.02
710.6115	0.0065
710.7918	-0.0113
710.9721	-0.0041
711.1524	0.0073
711.3327	-0.027
711.513	-0.0027
711.6932	-0.0215
711.8735	-0.0019
712.0537	0.0023
712.2339	-0.0112
712.4141	-0.0182
712.5942	-0.0031
712.7744	0.0146
712.9545	0.0028
713.1346	0.009
713.3147	0.0156
713.4947	-0.022
713.6748	-0.001
713.8548	-0.0047
714.0348	0.017
714.2148	0.0013
714.3948	0.0064
714.5748	-0.0081
714.7547	0.0039
714.9346	0.0107
715.1145	-0.016
715.2944	0.0294
715.4743	-0.0188
715.6541	-0.031
715.834	0.0198
716.0138	0.0421
716.1936	-0.0305
716.3733	0.0189
716.5531	0.0228
716.7328	-0.0465
716.9126	-0.0255
717.0923	0.0166
717.2719	0.0054
717.4516	-0.0214
717.6312	-0.0293
717.8109	0.0142
717.9905	0.0079
718.1701	-0.0159
718.3496	0.0134
718.5292	-0.0289
718.7087	0.0404
718.8882	0.0155
719.0677	-0.0238
719.2472	0.0016
719.4267	0.0245
719.6061	0.0066
719.7856	-0.0121
719.965	0.0163
720.1443	-0.0162
720.3237	0.0241
720.5031	0.0318
720.6824	0.0052
720.8617	0.0155
721.041	0.0125
721.2203	0.0212
721.3995	-0.0185
721.5788	-0.0022
721.758	-0.0143
721.9372	0.001
722.1164	0.02
722.2956	0.0033
722.4747	0.0024
722.6538	0.0002
722.8329	0.0002
723.012	0.0127
723.1911	0.0143
723.3702	-0.0179
723.5492	-0.0151
723.7282	0.0028
723.9072	0.0002
724.0862	0.0181
724.2652	0.0137
724.4441	0.0101
724.623	-0.025
724.8019	-0.0005
724.9808	-0.017
725.1597	0.0101
725.3385	0.0083
725.5174	0.0387
725.6962	0.0335
725.875	0.02
726.0538	0.0173
726.2325	0.002
726.4112	0.0095
726.59	0.0074
726.7687	0.0026
726.9474	-0.0102
727.126	-0.0239
727.3047	0.0362
727.4833	0.0329
727.6619	0.0187
727.8405	-0.0022
728.0191	-0.0518
728.1976	-0.0128
728.3762	-0.0312
728.5547	-0.0137
728.7332	-0.0034
728.9116	-0.0429
729.0901	0.0209
729.2686	-0.0018
729.447	-0.0024
729.6254	0.0152
729.8038	0.0057
729.9821	0.0094
730.1605	0.0018
730.3388	-0.0106
730.5171	-0.0177
730.6954	0.0386
730.8737	0.003
731.0519	0.0192
731.2302	-0.0108
731.4084	-0.0013
731.5866	-0.0255
731.7648	-0.01
731.9429	0.0063
732.1211	0.0023
732.2992	-0.0223
732.4773	-0.0028
732.6554	-0.0046
732.8335	0.0107
733.0115	0.0021
733.1896	-0.0039
733.3676	-0.0036
733.5456	-0.0024
733.7235	-0.0043
733.9015	0.0008
734.0794	-0.0003
734.2574	0.0074
734.4353	-0.002
734.6131	0.0152
734.791	0.0266
734.9689	-0.0077
735.1467	0.0251
735.3245	0.0183
735.5023	0.0344
735.68	0.0229
735.8578	0.0081
736.0355	0.007
736.2132	0.0009
736.3909	-0.0129
736.5686	0.0165
736.7463	-0.0142
736.9239	0.0154
737.1015	0.0005
737.2791	0.0028
737.4567	-0.0212
737.6343	-0.0013
737.8118	-0.0009
737.9894	-0.0027
738.1669	-0.0015
738.3444	0.0159
738.5218	0.008
738.6993	0.0153
738.8767	-0.0153
739.0541	0.0268
739.2315	-0.0179
739.4089	-0.0101
739.5863	0.0053
739.7636	0.0046
739.9409	-0.002
740.1182	0.0237
740.2955	-0.0283
740.4728	0.031
740.65	-0.01
740.8272	0.0057
741.0044	-0.0013
741.1816	0.0267
741.3588	0.0276
741.5359	-0.0056
741.7131	0.0088
741.8902	-0.0185
742.0673	0.0184
742.2444	-0.0055
742.4214	0.0046
742.5985	0.0188
742.7755	-0.0186
742.9525	0.016
743.1295	-0.0218
743.3064	0.0007
743.4834	0.0054
743.6603	0.0212
743.8372	0.0109
744.0141	0.0268
744.191	-0.0142
744.3678	-0.0034
744.5446	0.008
744.7215	0.0026
744.8982	0.0171
745.075	0.0226
745.2518	-0.0134
745.4285	-0.0476
745.6052	0.0224
745.7819	0.0036
745.9586	0.0191
746.1353	0.0069
746.3119	-0.0056
746.4885	0.0071
746.6651	-0.0269
746.8417	-0.0334
747.0183	-0.0227
747.1948	0.0121
747.3714	0.0271
747.5479	0.0122
747.7244	-0.0479
747.9008	0.045
748.0773	-0.0036
748.2537	0.032
748.4301	-0.0133
748.6065	-0.0428
748.7829	-0.0022
748.9593	0.0087
749.1356	-0.0037
749.3119	-0.0059
749.4882	0.0036
749.6645	0.0035
749.8408	-0.0005
750.017	-0.0056
750.1933	0.0366
750.3695	0.0111
750.5457	-0.0262
750.7218	0.0201
750.898	0.0127
751.0741	0.023
751.2502	-0.0141
751.4263	0.0084
751.6024	0.0254
751.7784	-0.0104
751.9545	-0.0442
752.1305	0.0144
752.3065	0.0445
752.4825	-0.026
752.6584	-0.0047
752.8344	0.012
753.0103	0.0002
753.1862	-0.0113
753.3621	-0.0066
753.5379	-0.0226
753.7138	-0.0309
753.8896	0.0284
754.0654	0.0054
754.2412	0.0264
754.417	-0.0235
754.5927	0.0023
754.7685	0.0029
754.9442	-0.01
755.1199	-0.0035
755.2956	0.0098
755.4712	0.0224
755.6469	-0.0108
755.8225	0.0139
755.9981	0.0076
756.1736	0.0182
756.3492	0.0019
756.5248	-0.0112
756.7003	-0.0037
756.8758	0.0043
757.0513	-0.0218
757.2267	-0.0029
757.4022	-0.011
757.5776	-0.0216
757.753	-0.0216
757.9284	0.0036
758.1038	-0.0111
758.2791	0.008
758.4545	-0.0197
758.6298	-0.016
758.8051	-0.0105
758.9803	-0.0119
759.1556	-0.0123
759.3308	-0.0105
759.506	0.005
759.6812	-0.0115
759.8564	-0.014
760.0316	0.0028
760.2067	-0.0125
760.3819	-0.004
760.557	-0.009
760.732	0.0187
760.9071	-0.0029
761.0821	0.0098
761.2572	0.0233
761.4322	0.0078
761.6072	-0.0037
761.7821	-0.0002
761.9571	0.0085
762.132	-0.0049
762.3069	-0.0066
762.4818	-0.0014
762.6567	0.0253
762.8316	0.0042
763.0064	-0.0009
763.1812	-0.0127
763.356	0.0156
763.5308	-0.0207
763.7055	0.0196
763.8803	-0.0219
764.055	-0.0152
764.2297	-0.0117
764.4044	-0.0072
764.579	-0.0018
764.7537	-0.0102
764.9283	-0.0164
765.1029	0.0201
765.2775	0.0027
765.4521	-0.0092
765.6266	-0.0322
765.8011	-0.0194
765.9756	-0.0038
766.1501	0.0051
766.3246	-0.0179
766.4991	-0.0264
766.6735	-0.0126
766.8479	0.026
767.0223	0.0052
767.1967	-0.0033
767.371	0.0118
767.5454	0.0175
767.7197	0.0042
767.894	-0.0065
768.0683	0.0025
768.2425	0.0126
768.4168	0.0104
768.591	-0.0076
768.7652	-0.0224
768.9394	0.0143
769.1135	0.0069
769.2877	0.0171
769.4618	0.0209
769.6359	-0.0202
769.81	0.0007
769.984	0.009
770.1581	0.0151
770.3321	-0.001
770.5061	0.0041
770.6801	0.0221
770.8541	-0.0112
771.028	0.0063
771.202	-0.045
771.3759	0.0054
771.5498	-0.005
771.7236	-0.0117
771.8975	-0.0373
772.0713	0.0022
772.2451	0.0022
772.4189	-0.0121
772.5927	-0.0058
772.7665	0.0228
772.9402	-0.0134
773.1139	-0.0241
773.2876	-0.0341
773.4613	-0.0209
773.635	0.0316
773.8086	-0.0298
773.9822	0.0022
774.1558	-0.0203
774.3294	-0.0457
774.503	0.0289
774.6765	0.0307
774.8501	-0.0069
775.0236	0.0298
775.1971	0.0189
775.3705	-0.017
775.544	-0.0179
775.7174	-0.0377
775.8908	0.018
776.0642	-0.0055
776.2376	-0.0476
776.4109	0.0674
776.5843	0.0004
776.7576	0.0344
776.9309	0.0662
777.1041	-0.0348
777.2774	0.0004
777.4506	0.0384
777.6238	0.0169
777.797	-0.0152
777.9702	0.0384
778.1434	-0.0053
778.3165	-0.0105
778.4896	-0.0279
778.6627	0.0243
778.8358	-0.0318
779.0089	-0.0096
779.1819	0.0167
779.3549	0.0112
779.5279	-0.0309
779.7009	-0.0501
779.8739	-0.0144
780.0468	-0.0388
780.2197	0.0026
780.3926	-0.0062
780.5655	0.0279
780.7384	0.0161
780.9112	0.0072
781.0841	0.0118
781.2569	-0.0082
781.4297	0.0034
781.6024	-0.0056
781.7752	-0.0045
781.9479	-0.0135
782.1206	-0.0008
782.2933	-0.0037
782.466	-0.0151
782.6386	0.0135
782.8113	-0.0168
782.9839	0.0072
783.1565	-0.015
783.329	-0.0031
783.5016	-0.0122
783.6741	-0.0016
783.8466	-0.0316
784.0191	-0.0153
784.1916	-0.0104
784.3641	-0.0218
784.5365	0.0553
784.7089	0.0244
784.8813	0.0026
785.0537	-0.0062
785.2261	-0.0222
785.3984	-0.0183
785.5707	0.0474
785.743	-0.016
785.9153	0.0508
786.0876	-0.0206
786.2598	0.0312
786.432	0.0226
786.6042	0.0346
786.7764	-0.0196
786.9486	0.0699
787.1207	0.012
787.2928	-0.0059
787.4649	-0.0221
787.637	0.0416
787.8091	-0.0145
787.9811	0.012
788.1532	-0.0205
788.3252	-0.0254
788.4972	0.0062
788.6691	0.024
788.8411	0.0063
789.013	-0.0088
789.1849	-0.0149
789.3568	0.0448
789.5287	-0.0453
789.7005	0.0209
789.8723	-0.0091
790.0442	-0.0152
790.2159	0.0559
790.3877	0.0465
790.5595	0.0047
790.7312	-0.0408
790.9029	-0.0213
791.0746	0.0249
791.2463	-0.0282
791.4179	-0.0551
791.5896	-0.068
791.7612	-0.0554
791.9328	0.0327
792.1044	0.0209
792.2759	0.0039
792.4474	-0.0414
792.619	0.0197
792.7905	0.0191
792.9619	0.0006
793.1334	-0.0633
793.3048	-0.0405
793.4762	-0.0138
793.6476	-0.0167
793.819	-0.0216
793.9904	0.0079
794.1617	-0.0199
794.333	-0.0009
794.5043	-0.0034
794.6756	0.0173
794.8469	0.0003
795.0181	0.001
795.1893	-0.0086
795.3605	0.0195
795.5317	0.0414
795.7029	0.0366
795.874	0.014
796.0452	0.0484
796.2163	-0.0052
796.3873	0.0114
796.5584	0.0255
796.7294	-0.078
796.9005	-0.0552
797.0715	0.0454
797.2425	-0.0292
797.4134	-0.0161
797.5844	0.1187
797.7553	-0.0355
797.9262	0.0028
798.0971	0.0069
798.2679	-0.0136
798.4388	-0.0544
798.6096	-0.0238
798.7804	0.0525
798.9512	0.0485
799.122	0.1241
799.2927	-0.0503
799.4635	0.109
799.6342	-0.0381
799.8049	-0.0032
799.9755	-0.0072
800.1462	0.0834
800.3168	-0.0153
800.4874	-0.0199
800.658	-0.0133
800.8286	0.0095
800.9991	0.0376
801.1696	-0.014
801.3402	-0.1031
801.5106	-0.0632
801.6811	-0.0307
801.8516	-0.0176
802.022	0.0093
802.1924	-0.0729
802.3628	-0.0662
802.5332	0.0519
802.7035	-0.0618
802.8739	0.0392
803.0442	0.0044
803.2145	-0.0666
803.3847	-0.0483
803.555	0.0552
803.7252	0.0483
803.8954	0.1253
804.0656	-0.0067
804.2358	-0.0422
804.4059	0.1004
804.5761	0.0922
804.7462	-0.087
804.9163	-0.0585
805.0864	0.0043
805.2564	0.0416
805.4264	0.0402
805.5965	-0.0124
805.7665	0.0239
805.9364	0.0312
806.1064	0.0136
806.2763	0.0347
806.4462	0.0298
806.6161	-0.043
806.786	-0.0115
806.9559	0.0148
807.1257	0.0027
807.2955	-0.024
807.4653	-0.023
807.6351	-0.0406
807.8048	-0.0682
807.9746	-0.0353
808.1443	-0.0079
808.314	0.0537
808.4837	-0.0404
808.6533	-0.0007
808.8229	-0.142
808.9926	0.0038
809.1622	0.0734
809.3317	-0.0576
809.5013	0.0582
809.6708	0.0437
809.8403	0.0697
810.0098	0.0645
810.1793	0.1298
810.3488	-0.017
810.5182	-0.0743
810.6876	0.0108
810.857	0.0506
811.0264	-0.1348
811.1958	0.0448
811.3651	-0.0476
811.5344	0.0012
811.7037	-0.0511
811.873	-0.0144
812.0422	0.0589
812.2115	0.1
812.3807	0.0438
812.5499	-0.0081
812.7191	0.0605
812.8882	0.1176
813.0574	-0.1654
813.2265	-0.027
813.3956	0.0736
813.5646	-0.0475
813.7337	-0.1101
813.9027	-0.0162
814.0718	-0.0324
814.2407	-0.1028
814.4097	0.0155
814.5787	-0.04
814.7476	0.0021
814.9165	0.017
815.0854	0.0044
815.2543	0.1119
815.4232	-0.0363
815.592	0.1031
815.7608	0.0736
815.9296	0.0153
816.0984	-0.0236
816.2671	-0.1893
816.4359	0.0572
816.6046	0.1111
816.7733	-0.0123
816.942	-0.0256
817.1106	-0.2578
817.2793	-0.0944
817.4479	-0.0689
817.6165	-0.0053
817.785	0.027
817.9536	0.0768
818.1221	0.0529
818.2906	-0.0489
818.4591	-0.071
818.6276	-0.0085
818.7961	0.0694
818.9645	0.0066
819.1329	0.282
819.3013	-0.0299
819.4697	0.1504
819.638	0.0599
819.8064	-0.0674
819.9747	-0.0632
820.143	0.0845
820.3113	0.181
820.4795	0.0662
820.6477	-0.0201
820.816	0.0091
820.9842	-0.0573
821.1523	0.1707
821.3205	-0.071
821.4886	-0.0401
821.6567	0.0816
821.8248	0.035
821.9929	-0.0192
822.1609	-0.0525
822.329	0.0563
822.497	-0.0072
822.665	0.1415
822.833	-0.1757
823.0009	-0.0733
823.1688	0.2808
823.3367	0.0279
823.5046	-0.0041
823.6725	0.2048
823.8404	-0.019
824.0082	0.0016
824.176	0.0483
824.3438	-0.0059
824.5116	0.0232
824.6793	0.1153
824.847	0.2525
825.0147	0.0695
825.1824	0.1078
825.3501	0.216
825.5177	0.1542
825.6854	0.2378
825.853	0.009
826.0206	-0.0191
826.1881	-0.082
826.3557	0.0488
826.5232	0.1915
826.6907	0.0538
826.8582	-0.0158
827.0257	-0.1212
827.1931	0.1136
827.3605	0.084
827.528	0.0068
827.6953	0.0878
827.8627	0.0537
828.03	0.0042
828.1974	-0.1444
828.3647	0.1006
828.532	0.0952
828.6992	-0.0016
828.8665	0.0513
829.0337	-0.0749
829.2009	0.0861
829.3681	0.0528
829.5352	0.0419
829.7024	0.0578
829.8695	-0.1653
830.0366	0.082
830.2037	0.0778
830.3707	0.1363
830.5378	0.1669
830.7048	-0.2206
830.8718	0.0151
831.0388	0.2459
831.2057	-0.3902
831.3727	0.177
831.5396	0.1243
831.7065	0.0753
831.8734	-0.54
832.0402	0.0893
832.2071	-0.263
832.3739	0.1449
832.5407	-0
832.7075	0.0189
832.8742	0.4219
833.041	-0.1378
833.2077	-0.0048
833.3744	0.0686
833.541	-0.1268
833.7077	0.1261
833.8743	0.0023
834.0409	-0.0992
834.2075	0.0464
834.3741	0.2398
834.5407	-0.2915
834.7072	0.0578
834.8737	0.3079
835.0402	-0.3854
835.2067	0.2157
835.3731	0.0961
835.5395	-0.1243
835.706	0.091
835.8723	0.0539
836.0387	0.1939
836.2051	0.3598
836.3714	0.138
836.5377	0.1394
836.704	0.2065
836.8703	-0.2414
837.0365	-0.1639
837.2027	-0.1974
837.3689	0.0577
837.5351	-0.275
837.7013	0.1797
837.8674	-1.1406
838.0335	-0.0532
838.1997	0.0588
838.3657	-0
838.5318	-0.2808
838.6978	0.8451
838.8639	0.1219
839.0299	0.0602
839.1958	0.1461
839.3618	0.4194
839.5277	-0.1958
839.6937	-0.031
839.8596	0.107
840.0254	0.1917
840.1913	0.4315
840.3571	-0.2218
840.523	0.1506
840.6888	0.053
840.8545	-0.1078
841.0203	0.1371
841.186	0.2624
841.3517	0.0547
841.5174	0.4271
841.6831	0.228
841.8488	0.0376
842.0144	1.5297
842.18	0.029
842.3456	0.0036
842.5112	0.372
842.6767	-0.1621
842.8422	0.0745
843.0077	0.1833
843.1732	0.0559
843.3387	0.8107
843.5042	0.858
843.6696	-0
843.835	-0.1461
844.0004	0.2994
844.1657	0.2289
844.3311	0.1988
844.4964	0.4883
844.6617	-0.294
844.827	0.5208
844.9923	0.1243
845.1575	-0
845.3227	0.3446
845.4879	0.2124
845.6531	0.1398
845.8183	-0
845.9834	-0.7439
846.1485	-0.3482
846.3136	0.5635
846.4787	0.5677
846.6438	0.6764
846.8088	-0
846.9738	-0
847.1388	0.5611
847.3038	-0.2193
847.4687	-0
847.6337	0.3404
847.7986	0.3762
847.9635	0.6291
848.1284	-0
848.2932	0.264
848.458	0.4963
848.6228	0.007
848.7876	-0
848.9524	0.3606
849.1172	-0.2954
849.2819	-0
849.4466	-0.0922
849.6113	-0.1091
849.7759	-0
849.9406	-0.2766
850.1052	0.4455
850.2698	-1.1987
850.4344	0.0053
850.599	0.1891
850.7635	-0.0778
850.928	0.7171
851.0925	-0.0613
851.257	-0
851.4215	-0
851.5859	0.0222
851.7503	0.8451
851.9147	-1.4094
852.0791	-0.5099
852.2434	-0.0779
852.4078	-0
852.5721	0.3471
852.7364	0.5587
852.9007	-0.0058
853.0649	0.1102
853.2291	0.3078
853.3934	0.5076
853.5575	-0
853.7217	0.1558
853.8859	0.0726
854.05	-0.8681
854.2141	-0
854.3782	0.6858
854.5423	-0.8035
854.7063	0.1066
854.8703	0.3598
855.0343	0.2427
855.1983	0.0765
855.3623	-0.0118
855.5262	-0.7816
855.6901	0.5906
855.854	-0.1997
856.0179	-0
856.1818	-0
856.3456	-0.0828
856.5094	-0.4771
856.6732	-0.4567
856.837	0.4434
857.0008	0.253
857.1645	-0
857.3282	-0.1011
857.4919	0.334
857.6556	0.7339
857.8192	-0.3186
857.9828	-0.5263
858.1465	-0.0308
858.31	-0
858.4736	0.6414
858.6372	-0.4618
858.8007	-0
858.9642	0.4685
859.1277	-0
859.2911	0.1217
859.4546	0.4771
859.618	0.5617
859.7814	-0
859.9448	-0
860.1081	-0.0362
860.2715	-0.1729
860.4348	-0.2218
860.5981	0.6734
860.7614	-0.2976
860.9246	0.0754
861.0879	0.5798
861.2511	0.6783
861.4143	0.4771
861.5774	0.0764
861.7406	0.4771
861.9037	-0
862.0668	-0.8671
862.2299	-0
862.393	-0
862.556	0.0621
862.7191	0.0823
862.8821	-0.3819
863.0451	0.0274
863.208	-0.3048
863.371	1.1604
863.5339	-0.1435
863.6968	0.4114
863.8597	-0
864.0225	-0.5558
864.1854	-0.205
864.3482	-0.0251
864.511	0.2262
864.6737	-0
864.8365	1.1379
864.9992	-0
865.1619	-0.0371
865.3246	-0.0518
865.4873	-0
865.65	-0
865.8126	0.6426
865.9752	-0.186
866.1378	-0.278
866.3004	0.2848
866.4629	-0.263
866.6254	-0
866.7879	0.5624
866.9504	-0.4127
867.1129	-0
867.2753	-0.2904
867.4377	-0.0466
867.6001	0.1836
867.7625	-0.2792
867.9249	0.0593
868.0872	-0.0704
868.2495	-0
868.4118	-0
868.5741	0.0272
868.7363	-0
868.8986	-0.5944
869.0608	0.124
869.223	0.3069
869.3851	-0
869.5473	-1.0751
869.7094	0.7715
869.8715	0.8451
870.0336	0.0136
870.1957	-0
870.3577	-0.3207
870.5197	0.1866
870.6817	-0
870.8437	1.0697
871.0057	-0
871.1676	0.2681
871.3295	0.3245
871.4914	-0.053
871.6533	-0.1039
871.8151	1.1357
871.977	1.096
872.1388	-0.4771
872.3006	0.0209
872.4623	-0.4095
872.6241	-1.4914
872.7858	0.6068
872.9475	-0
873.1092	0.2
873.2709	0.0043
873.4325	-0.5342
873.5941	-0
873.7557	-0.6792
873.9173	-0.8999
874.0789	0.4105
874.2404	-0.0925
874.4019	0.0043
874.5634	0.7211
874.7249	-0.1729
874.8863	-0
875.0478	0.2669
875.2092	0.1491
875.3706	-0.1706
875.5319	0.7091
875.6933	0.205
875.8546	-0.1729
876.0159	0.7996
876.1772	-0
876.3385	0.0934
876.4997	-0.4187
876.6609	-0
876.8221	0.9434
876.9833	-0.3386
877.1445	-0.0891
877.3056	0.1782
877.4667	-0
877.6278	-0
877.7889	0.0444
877.9499	0.3625
878.111	0.3065
878.272	-0.1931
878.433	-0.2398
878.5939	0.4385
878.7549	-0.0334
878.9158	-0
879.0767	-0
879.2376	-0.5798
879.3984	0.2948
879.5593	0.6297
879.7201	-0.3157
879.8809	-0
880.0417	0.3671
880.2024	-0.0779
880.3632	0.1531
880.5239	-0.2036
880.6846	-0.1039
880.8452	0.5714
881.0059	-0.4464
881.1665	0.0476
881.3271	0.3656
881.4877	1.0086
881.6483	-0
881.8088	-0
881.9693	1.1523
882.1298	1.1523
882.2903	1.1523
