Data from D4ACN5uM480nmA_Absorbance_12-08-00-265.txt Node
Date: Fri Feb 21 12:08:00 GMT 2025
User: LASERRRRR
Spectrometer: FLMT03099
Trigger mode: 0
Integration Time (sec): 1.500000E-2
Scans to average: 1
Electric dark correction enabled: true
Nonlinearity correction enabled: false
Boxcar width: 0
XAxis mode: Wavelengths
Number of Pixels in Spectrum: 3648
>>>>>Begin Spectral Data<<<<<
179.3399	-0
179.5586	-0
179.7771	-0
179.9957	0.2216
180.2143	0.3724
180.4329	-0
180.6514	-0
180.8699	-0
181.0885	-0.1061
181.307	0.2832
181.5255	-0.0202
181.744	0.3074
181.9625	-0
182.181	-0
182.3994	-0
182.6179	0.4449
182.8363	-0.0031
183.0547	-0
183.2732	0.2812
183.4916	0.2074
183.71	0.0921
183.9284	0.2976
184.1467	0.0321
184.3651	0.3233
184.5835	0.208
184.8018	0.2196
185.0201	0.4058
185.2385	-0.0078
185.4568	0.138
185.6751	0.3008
185.8934	0.4177
186.1117	0.2329
186.3299	0.1871
186.5482	0.0762
186.7664	0.4823
186.9847	0.1916
187.2029	0.31
187.4211	0.1484
187.6393	0.407
187.8575	0.0104
188.0757	0.263
188.2939	0.4798
188.512	0.3413
188.7302	0.0456
188.9483	0.1713
189.1665	2.8473
189.3846	0.1571
189.6027	0.0338
189.8208	0.4792
190.0389	0.1124
190.257	0.1508
190.475	0.4231
190.6931	0.3228
190.9111	0.4254
191.1292	0.3235
191.3472	0.3789
191.5652	0.3699
191.7832	0.3485
192.0012	0.312
192.2192	0.1813
192.4371	0.2394
192.6551	0.5335
192.873	0.2824
193.091	0.369
193.3089	0.1496
193.5268	0.4647
193.7447	0.3412
193.9626	0.4435
194.1805	0.5616
194.3984	0.2064
194.6162	0.5201
194.8341	0.4563
195.0519	0.6005
195.2697	0.4169
195.4875	0.5606
195.7054	0.4987
195.9231	0.4379
196.1409	0.555
196.3587	0.5981
196.5765	0.5211
196.7942	0.5478
197.012	0.4872
197.2297	0.5287
197.4474	0.7057
197.6651	0.6166
197.8828	0.8673
198.1005	0.7353
198.3182	0.5185
198.5358	0.4837
198.7535	0.6586
198.9711	0.6111
199.1888	0.6689
199.4064	0.6512
199.624	0.583
199.8416	0.5913
200.0592	0.6361
200.2767	0.52
200.4943	0.6649
200.7119	0.5983
200.9294	0.5747
201.1469	0.6111
201.3645	0.5647
201.582	0.4969
201.7995	0.5574
202.017	0.593
202.2344	0.5494
202.4519	0.6026
202.6694	0.5552
202.8868	0.5886
203.1042	0.5946
203.3217	0.4794
203.5391	0.5559
203.7565	0.5703
203.9739	0.5293
204.1913	0.4951
204.4086	0.4989
204.626	0.5153
204.8433	0.4785
205.0607	0.5189
205.278	0.5586
205.4953	0.4891
205.7126	0.5078
205.9299	0.4918
206.1472	0.4915
206.3644	0.4904
206.5817	0.4945
206.7989	0.4967
207.0162	0.432
207.2334	0.4406
207.4506	0.4878
207.6678	0.4377
207.885	0.4396
208.1022	0.4395
208.3194	0.4581
208.5365	0.4376
208.7537	0.4361
208.9708	0.4433
209.1879	0.4385
209.405	0.4169
209.6222	0.4298
209.8392	0.4371
210.0563	0.4444
210.2734	0.3917
210.4905	0.4382
210.7075	0.4492
210.9245	0.4163
211.1416	0.4111
211.3586	0.417
211.5756	0.4254
211.7926	0.4091
212.0096	0.4085
212.2265	0.4279
212.4435	0.427
212.6604	0.395
212.8774	0.392
213.0943	0.4133
213.3112	0.3958
213.5281	0.4364
213.745	0.4253
213.9619	0.3968
214.1788	0.3942
214.3956	0.4273
214.6125	0.3943
214.8293	0.4128
215.0461	0.4049
215.2629	0.4197
215.4798	0.4102
215.6965	0.3649
215.9133	0.4128
216.1301	0.4086
216.3469	0.4086
216.5636	0.3848
216.7803	0.41
216.9971	0.4084
217.2138	0.4242
217.4305	0.4392
217.6472	0.4207
217.8639	0.3895
218.0805	0.4198
218.2972	0.4276
218.5138	0.411
218.7305	0.4198
218.9471	0.4271
219.1637	0.4247
219.3803	0.4251
219.5969	0.4447
219.8135	0.4268
220.0301	0.396
220.2466	0.4215
220.4632	0.4126
220.6797	0.4254
220.8962	0.4117
221.1127	0.4171
221.3292	0.4322
221.5457	0.4399
221.7622	0.4449
221.9787	0.4479
222.1951	0.424
222.4116	0.4357
222.628	0.4364
222.8444	0.4299
223.0608	0.4257
223.2772	0.4454
223.4936	0.4532
223.71	0.4584
223.9264	0.4348
224.1427	0.4533
224.3591	0.478
224.5754	0.4621
224.7917	0.4486
225.008	0.4587
225.2243	0.459
225.4406	0.4425
225.6569	0.4628
225.8732	0.462
226.0894	0.4748
226.3057	0.4538
226.5219	0.4625
226.7381	0.4573
226.9543	0.4802
227.1705	0.4754
227.3867	0.4992
227.6029	0.477
227.8191	0.4786
228.0352	0.4884
228.2513	0.5028
228.4675	0.4849
228.6836	0.4937
228.8997	0.4852
229.1158	0.4953
229.3319	0.5076
229.548	0.4972
229.764	0.4897
229.9801	0.5026
230.1961	0.5055
230.4121	0.515
230.6282	0.5181
230.8442	0.516
231.0602	0.5344
231.2761	0.5375
231.4921	0.5139
231.7081	0.5258
231.924	0.5244
232.14	0.511
232.3559	0.5381
232.5718	0.5337
232.7877	0.5289
233.0036	0.519
233.2195	0.5314
233.4353	0.5285
233.6512	0.552
233.867	0.5418
234.0829	0.5309
234.2987	0.5287
234.5145	0.5407
234.7303	0.5326
234.9461	0.5346
235.1619	0.5292
235.3776	0.531
235.5934	0.5254
235.8091	0.5362
236.0249	0.5333
236.2406	0.5453
236.4563	0.5389
236.672	0.5351
236.8877	0.5386
237.1034	0.537
237.319	0.5367
237.5347	0.5258
237.7503	0.5347
237.966	0.5309
238.1816	0.536
238.3972	0.5468
238.6128	0.5442
238.8284	0.5357
239.0439	0.5438
239.2595	0.5397
239.475	0.5408
239.6906	0.5285
239.9061	0.5299
240.1216	0.5314
240.3371	0.5275
240.5526	0.5161
240.7681	0.5276
240.9836	0.5247
241.199	0.5068
241.4145	0.4984
241.6299	0.4862
241.8453	0.4849
242.0607	0.4836
242.2761	0.4808
242.4915	0.4798
242.7069	0.4675
242.9223	0.4629
243.1376	0.4526
243.353	0.4469
243.5683	0.4431
243.7836	0.4243
243.9989	0.4135
244.2142	0.4113
244.4295	0.4095
244.6448	0.4019
244.86	0.3922
245.0753	0.3837
245.2905	0.3773
245.5057	0.3728
245.721	0.3568
245.9362	0.3461
246.1514	0.3343
246.3665	0.3372
246.5817	0.3344
246.7969	0.3286
247.012	0.322
247.2271	0.3111
247.4423	0.3106
247.6574	0.3126
247.8725	0.3096
248.0876	0.292
248.3026	0.2851
248.5177	0.2754
248.7328	0.2789
248.9478	0.2691
249.1628	0.2587
249.3779	0.2715
249.5929	0.2674
249.8079	0.2535
250.0228	0.2506
250.2378	0.2516
250.4528	0.2521
250.6677	0.2467
250.8827	0.2418
251.0976	0.2383
251.3125	0.2372
251.5274	0.2269
251.7423	0.2255
251.9572	0.222
252.172	0.2169
252.3869	0.2187
252.6017	0.2164
252.8166	0.2209
253.0314	0.2237
253.2462	0.2237
253.461	0.2097
253.6758	0.2048
253.8906	0.2065
254.1053	0.2076
254.3201	0.2028
254.5348	0.2034
254.7496	0.2047
254.9643	0.2005
255.179	0.2023
255.3937	0.1947
255.6083	0.2023
255.823	0.1983
256.0377	0.1976
256.2523	0.2005
256.467	0.195
256.6816	0.1997
256.8962	0.1949
257.1108	0.1991
257.3254	0.1927
257.54	0.1965
257.7545	0.1911
257.9691	0.1914
258.1836	0.1895
258.3981	0.1888
258.6127	0.1831
258.8272	0.1866
259.0417	0.1808
259.2561	0.1892
259.4706	0.1927
259.6851	0.1834
259.8995	0.1848
260.114	0.1868
260.3284	0.1845
260.5428	0.1816
260.7572	0.1889
260.9716	0.1822
261.186	0.1802
261.4003	0.183
261.6147	0.1824
261.829	0.1785
262.0433	0.1827
262.2577	0.192
262.472	0.1893
262.6863	0.1885
262.9005	0.1868
263.1148	0.1823
263.3291	0.1949
263.5433	0.1826
263.7576	0.1859
263.9718	0.1871
264.186	0.1828
264.4002	0.183
264.6144	0.1914
264.8286	0.187
265.0427	0.1912
265.2569	0.1835
265.471	0.1846
265.6851	0.1847
265.8993	0.1874
266.1134	0.1905
266.3275	0.1855
266.5415	0.1857
266.7556	0.1786
266.9697	0.1832
267.1837	0.1821
267.3978	0.1974
267.6118	0.1864
267.8258	0.1869
268.0398	0.1854
268.2538	0.1808
268.4677	0.1816
268.6817	0.1765
268.8957	0.178
269.1096	0.1733
269.3235	0.1833
269.5374	0.1822
269.7514	0.1841
269.9652	0.1794
270.1791	0.184
270.393	0.1785
270.6068	0.1753
270.8207	0.1737
271.0345	0.178
271.2483	0.1786
271.4622	0.1754
271.676	0.1779
271.8897	0.1711
272.1035	0.1783
272.3173	0.1733
272.531	0.1749
272.7448	0.1645
272.9585	0.1757
273.1722	0.1725
273.3859	0.1726
273.5996	0.174
273.8133	0.1687
274.0269	0.1803
274.2406	0.1727
274.4542	0.1726
274.6679	0.1744
274.8815	0.1775
275.0951	0.1768
275.3087	0.1761
275.5223	0.1724
275.7358	0.1792
275.9494	0.1726
276.1629	0.1806
276.3765	0.1787
276.59	0.1714
276.8035	0.177
277.017	0.1727
277.2305	0.1766
277.444	0.1746
277.6574	0.177
277.8709	0.1758
278.0843	0.1761
278.2978	0.1808
278.5112	0.1815
278.7246	0.1744
278.938	0.1788
279.1513	0.1805
279.3647	0.1846
279.5781	0.1778
279.7914	0.1791
280.0047	0.177
280.2181	0.1838
280.4314	0.179
280.6447	0.1873
280.8579	0.1845
281.0712	0.1821
281.2845	0.1798
281.4977	0.1875
281.711	0.1866
281.9242	0.1862
282.1374	0.1789
282.3506	0.1891
282.5638	0.1877
282.7769	0.189
282.9901	0.1867
283.2033	0.1881
283.4164	0.186
283.6295	0.1813
283.8426	0.188
284.0557	0.1873
284.2688	0.1915
284.4819	0.1919
284.695	0.1929
284.908	0.1968
285.1211	0.1904
285.3341	0.1932
285.5471	0.1953
285.7601	0.1909
285.9731	0.1895
286.1861	0.1927
286.3991	0.19
286.612	0.1973
286.825	0.1958
287.0379	0.201
287.2508	0.1929
287.4637	0.1963
287.6766	0.1976
287.8895	0.1927
288.1024	0.1968
288.3152	0.1969
288.5281	0.1958
288.7409	0.1973
288.9538	0.1962
289.1666	0.1983
289.3794	0.2031
289.5922	0.2004
289.8049	0.2072
290.0177	0.1968
290.2304	0.1989
290.4432	0.1984
290.6559	0.1912
290.8686	0.2014
291.0813	0.2
291.294	0.2035
291.5067	0.2032
291.7194	0.1987
291.932	0.2024
292.1447	0.1977
292.3573	0.199
292.5699	0.2037
292.7825	0.1998
292.9951	0.1978
293.2077	0.2021
293.4203	0.1997
293.6328	0.1973
293.8454	0.2004
294.0579	0.1999
294.2704	0.201
294.4829	0.2009
294.6954	0.2013
294.9079	0.2007
295.1204	0.1973
295.3328	0.1976
295.5453	0.2028
295.7577	0.1959
295.9701	0.1996
296.1825	0.2004
296.3949	0.2086
296.6073	0.2024
296.8197	0.2022
297.0321	0.2013
297.2444	0.2009
297.4567	0.2002
297.6691	0.1996
297.8814	0.2001
298.0937	0.2014
298.306	0.1967
298.5182	0.2031
298.7305	0.1988
298.9428	0.1991
299.155	0.1967
299.3672	0.2027
299.5794	0.1944
299.7916	0.1976
300.0038	0.1972
300.216	0.2021
300.4282	0.1907
300.6403	0.1961
300.8525	0.2003
301.0646	0.1937
301.2767	0.199
301.4888	0.1993
301.7009	0.1965
301.913	0.2029
302.125	0.1994
302.3371	0.2019
302.5491	0.1961
302.7612	0.1954
302.9732	0.1984
303.1852	0.1942
303.3972	0.1938
303.6092	0.1893
303.8211	0.1835
304.0331	0.1914
304.245	0.1955
304.457	0.2041
304.6689	0.1935
304.8808	0.193
305.0927	0.1928
305.3046	0.1828
305.5164	0.189
305.7283	0.1903
305.9401	0.1811
306.152	0.1804
306.3638	0.1816
306.5756	0.1845
306.7874	0.1833
306.9992	0.18
307.2109	0.1723
307.4227	0.175
307.6344	0.1728
307.8462	0.1701
308.0579	0.1701
308.2696	0.1646
308.4813	0.1582
308.693	0.1626
308.9046	0.1682
309.1163	0.1645
309.328	0.156
309.5396	0.1575
309.7512	0.155
309.9628	0.1535
310.1744	0.1546
310.386	0.1447
310.5976	0.1467
310.8091	0.1482
311.0207	0.1475
311.2322	0.1444
311.4437	0.1442
311.6552	0.1412
311.8667	0.1351
312.0782	0.1411
312.2897	0.1357
312.5012	0.1389
312.7126	0.1324
312.924	0.1382
313.1355	0.134
313.3469	0.1302
313.5583	0.1338
313.7696	0.1302
313.981	0.1325
314.1924	0.1278
314.4037	0.1291
314.6151	0.122
314.8264	0.1261
315.0377	0.1269
315.249	0.1232
315.4603	0.1187
315.6716	0.1308
315.8828	0.1268
316.0941	0.1236
316.3053	0.1199
316.5165	0.1218
316.7277	0.1176
316.9389	0.1212
317.1501	0.1152
317.3613	0.119
317.5724	0.1214
317.7836	0.1202
317.9947	0.1138
318.2058	0.1197
318.417	0.1214
318.6281	0.1125
318.8391	0.1235
319.0502	0.1156
319.2613	0.1188
319.4723	0.1171
319.6834	0.1226
319.8944	0.1218
320.1054	0.1154
320.3164	0.1183
320.5274	0.1104
320.7383	0.1112
320.9493	0.116
321.1602	0.1147
321.3712	0.1161
321.5821	0.1189
321.793	0.114
322.0039	0.1166
322.2148	0.1194
322.4257	0.1179
322.6365	0.1156
322.8474	0.1101
323.0582	0.12
323.269	0.1159
323.4798	0.1144
323.6906	0.1207
323.9014	0.1174
324.1122	0.1129
324.3229	0.123
324.5337	0.1201
324.7444	0.1103
324.9551	0.1232
325.1658	0.1186
325.3765	0.1196
325.5872	0.114
325.7979	0.1153
326.0085	0.1209
326.2192	0.1158
326.4298	0.1212
326.6404	0.1181
326.851	0.117
327.0616	0.1235
327.2722	0.1263
327.4828	0.1222
327.6933	0.1232
327.9039	0.121
328.1144	0.1201
328.3249	0.1202
328.5354	0.1209
328.7459	0.1259
328.9564	0.1252
329.1669	0.1185
329.3773	0.1227
329.5878	0.1259
329.7982	0.1197
330.0086	0.1236
330.219	0.1167
330.4294	0.1241
330.6398	0.1306
330.8502	0.1259
331.0605	0.1215
331.2708	0.1284
331.4812	0.1257
331.6915	0.1147
331.9018	0.1196
332.1121	0.1228
332.3224	0.1274
332.5326	0.1296
332.7429	0.1192
332.9531	0.1294
333.1633	0.1296
333.3735	0.1209
333.5837	0.1265
333.7939	0.1248
334.0041	0.1266
334.2143	0.1244
334.4244	0.123
334.6346	0.1212
334.8447	0.1321
335.0548	0.1249
335.2649	0.1282
335.475	0.1275
335.685	0.1246
335.8951	0.1318
336.1051	0.1256
336.3152	0.1319
336.5252	0.131
336.7352	0.1203
336.9452	0.126
337.1552	0.1293
337.3652	0.1302
337.5751	0.1231
337.7851	0.1297
337.995	0.1273
338.2049	0.1396
338.4148	0.1271
338.6247	0.1361
338.8346	0.1262
339.0445	0.1372
339.2543	0.1404
339.4642	0.1352
339.674	0.1293
339.8838	0.1335
340.0936	0.1386
340.3034	0.1337
340.5132	0.1367
340.7229	0.1342
340.9327	0.1375
341.1424	0.1399
341.3522	0.1354
341.5619	0.1355
341.7716	0.1353
341.9813	0.1458
342.1909	0.1446
342.4006	0.144
342.6102	0.1337
342.8199	0.1374
343.0295	0.1456
343.2391	0.1453
343.4487	0.1483
343.6583	0.1497
343.8679	0.1418
344.0774	0.1412
344.287	0.1442
344.4965	0.1493
344.706	0.1476
344.9155	0.143
345.125	0.1506
345.3345	0.1502
345.544	0.15
345.7534	0.1491
345.9629	0.1515
346.1723	0.154
346.3817	0.1456
346.5911	0.1509
346.8005	0.1492
347.0099	0.1579
347.2193	0.1559
347.4286	0.1557
347.638	0.1533
347.8473	0.1531
348.0566	0.1589
348.2659	0.1507
348.4752	0.1582
348.6845	0.1575
348.8937	0.1654
349.103	0.155
349.3122	0.1588
349.5214	0.1549
349.7306	0.1622
349.9398	0.1633
350.149	0.1642
350.3582	0.1646
350.5674	0.1678
350.7765	0.1667
350.9856	0.1596
351.1948	0.1646
351.4039	0.163
351.613	0.177
351.822	0.1675
352.0311	0.168
352.2402	0.1781
352.4492	0.1684
352.6582	0.1702
352.8672	0.1771
353.0762	0.1738
353.2852	0.1725
353.4942	0.1739
353.7032	0.1704
353.9121	0.1779
354.1211	0.173
354.33	0.1784
354.5389	0.1773
354.7478	0.1831
354.9567	0.1768
355.1655	0.1804
355.3744	0.1822
355.5833	0.1882
355.7921	0.186
356.0009	0.1788
356.2097	0.1868
356.4185	0.189
356.6273	0.1808
356.8361	0.1926
357.0448	0.1927
357.2536	0.1924
357.4623	0.189
357.671	0.1828
357.8797	0.1953
358.0884	0.1913
358.2971	0.1979
358.5057	0.1904
358.7144	0.1937
358.923	0.1959
359.1316	0.1956
359.3402	0.1983
359.5488	0.2061
359.7574	0.203
359.966	0.2073
360.1746	0.2066
360.3831	0.206
360.5916	0.1989
360.8002	0.2095
361.0087	0.2098
361.2172	0.2156
361.4256	0.2063
361.6341	0.2103
361.8426	0.2096
362.051	0.2128
362.2594	0.2162
362.4678	0.2152
362.6762	0.2173
362.8846	0.2205
363.093	0.2192
363.3014	0.2223
363.5097	0.2196
363.718	0.2294
363.9264	0.224
364.1347	0.228
364.343	0.2269
364.5513	0.2291
364.7595	0.2357
364.9678	0.2304
365.176	0.2257
365.3842	0.2361
365.5925	0.2214
365.8007	0.2338
366.0089	0.2338
366.217	0.2353
366.4252	0.2393
366.6333	0.2354
366.8415	0.2337
367.0496	0.2339
367.2577	0.2442
367.4658	0.2551
367.6739	0.239
367.882	0.2496
368.09	0.2458
368.2981	0.2453
368.5061	0.2518
368.7141	0.2441
368.9221	0.2486
369.1301	0.249
369.3381	0.257
369.5461	0.2616
369.754	0.2545
369.962	0.2498
370.1699	0.25
370.3778	0.2592
370.5857	0.2627
370.7936	0.2594
371.0015	0.2562
371.2093	0.2653
371.4172	0.2637
371.625	0.2657
371.8328	0.2655
372.0406	0.2626
372.2484	0.2574
372.4562	0.2636
372.664	0.2697
372.8717	0.2719
373.0795	0.2691
373.2872	0.2755
373.4949	0.2721
373.7026	0.2796
373.9103	0.2639
374.118	0.2683
374.3256	0.2818
374.5333	0.2782
374.7409	0.2777
374.9485	0.2697
375.1561	0.2863
375.3637	0.2725
375.5713	0.2742
375.7789	0.2736
375.9864	0.2781
376.194	0.2823
376.4015	0.2924
376.609	0.2892
376.8165	0.288
377.024	0.2832
377.2315	0.2916
377.4389	0.2772
377.6464	0.2796
377.8538	0.294
378.0612	0.2818
378.2686	0.2981
378.476	0.2887
378.6834	0.2875
378.8908	0.2926
379.0981	0.3016
379.3055	0.2968
379.5128	0.2986
379.7201	0.297
379.9274	0.2904
380.1347	0.2912
380.342	0.3103
380.5492	0.2968
380.7565	0.3121
380.9637	0.2928
381.1709	0.3008
381.3781	0.307
381.5853	0.3019
381.7925	0.3117
381.9997	0.3143
382.2068	0.2996
382.4139	0.3055
382.6211	0.3133
382.8282	0.3077
383.0353	0.3113
383.2424	0.3041
383.4494	0.3079
383.6565	0.3167
383.8635	0.3251
384.0706	0.3083
384.2776	0.3223
384.4846	0.3157
384.6916	0.3106
384.8986	0.3133
385.1055	0.3168
385.3125	0.3151
385.5194	0.3167
385.7263	0.3173
385.9333	0.3297
386.1402	0.3268
386.347	0.3146
386.5539	0.3153
386.7608	0.3231
386.9676	0.3167
387.1744	0.3143
387.3813	0.3109
387.5881	0.3182
387.7948	0.3138
388.0016	0.3145
388.2084	0.3136
388.4151	0.3128
388.6219	0.3057
388.8286	0.3133
389.0353	0.3028
389.242	0.3086
389.4487	0.3128
389.6553	0.3165
389.862	0.3043
390.0686	0.3131
390.2753	0.3083
390.4819	0.3136
390.6885	0.306
390.8951	0.3139
391.1016	0.307
391.3082	0.2955
391.5147	0.3021
391.7213	0.2968
391.9278	0.3046
392.1343	0.3025
392.3408	0.294
392.5473	0.2983
392.7537	0.2938
392.9602	0.2916
393.1666	0.2839
393.373	0.2961
393.5794	0.2864
393.7858	0.297
393.9922	0.2936
394.1986	0.2857
394.4049	0.2762
394.6113	0.2798
394.8176	0.2739
395.0239	0.2758
395.2302	0.272
395.4365	0.2761
395.6428	0.2764
395.8491	0.2753
396.0553	0.2819
396.2615	0.2723
396.4678	0.2816
396.674	0.2809
396.8802	0.2671
397.0863	0.2707
397.2925	0.2667
397.4987	0.2697
397.7048	0.2816
397.9109	0.2748
398.117	0.2721
398.3231	0.2755
398.5292	0.2772
398.7353	0.2656
398.9413	0.266
399.1474	0.274
399.3534	0.271
399.5594	0.2688
399.7654	0.2737
399.9714	0.2651
400.1774	0.2641
400.3833	0.2785
400.5893	0.2761
400.7952	0.2697
401.0011	0.2644
401.207	0.2748
401.4129	0.271
401.6188	0.2713
401.8247	0.2616
402.0305	0.2585
402.2364	0.2687
402.4422	0.2749
402.648	0.2769
402.8538	0.276
403.0596	0.2581
403.2654	0.2688
403.4711	0.2593
403.6768	0.2659
403.8826	0.2622
404.0883	0.2635
404.294	0.275
404.4997	0.2662
404.7054	0.2609
404.911	0.2685
405.1167	0.2668
405.3223	0.2773
405.5279	0.2723
405.7335	0.2602
405.9391	0.2693
406.1447	0.258
406.3502	0.2722
406.5558	0.2735
406.7613	0.2684
406.9668	0.2643
407.1724	0.2779
407.3778	0.2711
407.5833	0.2663
407.7888	0.2779
407.9942	0.2563
408.1997	0.2651
408.4051	0.2574
408.6105	0.2671
408.8159	0.2655
409.0213	0.2708
409.2267	0.2629
409.432	0.2708
409.6374	0.2704
409.8427	0.2721
410.048	0.2639
410.2533	0.266
410.4586	0.2712
410.6639	0.2672
410.8691	0.2695
411.0744	0.2692
411.2796	0.2763
411.4848	0.2579
411.69	0.265
411.8952	0.2738
412.1004	0.2699
412.3056	0.2732
412.5107	0.2679
412.7158	0.277
412.921	0.2717
413.1261	0.2676
413.3312	0.2609
413.5362	0.2663
413.7413	0.2642
413.9464	0.2621
414.1514	0.2581
414.3564	0.2498
414.5614	0.2633
414.7664	0.2713
414.9714	0.263
415.1764	0.2655
415.3813	0.2518
415.5863	0.2555
415.7912	0.2521
415.9961	0.2665
416.201	0.262
416.4059	0.248
416.6108	0.2585
416.8156	0.2425
417.0205	0.2665
417.2253	0.2601
417.4301	0.2595
417.6349	0.2559
417.8397	0.2672
418.0445	0.2623
418.2492	0.2686
418.454	0.2521
418.6587	0.2629
418.8634	0.26
419.0681	0.2601
419.2728	0.2485
419.4775	0.2589
419.6822	0.2485
419.8868	0.266
420.0915	0.2723
420.2961	0.2504
420.5007	0.2458
420.7053	0.2539
420.9099	0.2355
421.1144	0.2367
421.319	0.2356
421.5235	0.2407
421.728	0.2344
421.9325	0.2397
422.137	0.2427
422.3415	0.2407
422.546	0.2515
422.7504	0.2458
422.9549	0.2469
423.1593	0.251
423.3637	0.2235
423.5681	0.2356
423.7725	0.2356
423.9769	0.2375
424.1812	0.2379
424.3856	0.2418
424.5899	0.2341
424.7942	0.2274
424.9985	0.2394
425.2028	0.2375
425.4071	0.225
425.6113	0.225
425.8156	0.2267
426.0198	0.2257
426.224	0.2261
426.4282	0.2381
426.6324	0.2317
426.8366	0.2223
427.0407	0.2286
427.2449	0.2228
427.449	0.2221
427.6531	0.2209
427.8572	0.213
428.0613	0.2122
428.2654	0.2065
428.4694	0.2097
428.6735	0.203
428.8775	0.213
429.0815	0.2158
429.2855	0.2066
429.4895	0.1974
429.6935	0.1964
429.8975	0.2099
430.1014	0.2017
430.3053	0.1935
430.5093	0.2027
430.7132	0.1981
430.9171	0.1907
431.1209	0.1994
431.3248	0.1914
431.5286	0.1715
431.7325	0.1871
431.9363	0.1869
432.1401	0.1778
432.3439	0.174
432.5477	0.178
432.7514	0.1753
432.9552	0.1708
433.1589	0.1746
433.3627	0.1736
433.5664	0.171
433.7701	0.173
433.9737	0.1668
434.1774	0.177
434.3811	0.1649
434.5847	0.164
434.7883	0.1611
434.9919	0.1511
435.1955	0.1606
435.3991	0.1541
435.6027	0.1584
435.8062	0.1465
436.0098	0.1493
436.2133	0.1552
436.4168	0.1511
436.6203	0.1478
436.8238	0.1495
437.0272	0.1388
437.2307	0.1297
437.4341	0.1371
437.6375	0.1329
437.841	0.1381
438.0443	0.1246
438.2477	0.1307
438.4511	0.1313
438.6545	0.1336
438.8578	0.1319
439.0611	0.1263
439.2644	0.1203
439.4677	0.1127
439.671	0.1093
439.8743	0.116
440.0775	0.1143
440.2808	0.1141
440.484	0.1095
440.6872	0.1059
440.8904	0.1105
441.0936	0.1159
441.2967	0.1014
441.4999	0.1074
441.703	0.1053
441.9062	0.0957
442.1093	0.0975
442.3124	0.1005
442.5155	0.0937
442.7185	0.0773
442.9216	0.0965
443.1246	0.0971
443.3276	0.0857
443.5307	0.0884
443.7337	0.0887
443.9366	0.086
444.1396	0.0787
444.3426	0.0834
444.5455	0.0762
444.7484	0.0723
444.9513	0.0856
445.1542	0.0759
445.3571	0.0709
445.56	0.0746
445.7628	0.0698
445.9657	0.0734
446.1685	0.0811
446.3713	0.0656
446.5741	0.0624
446.7769	0.0743
446.9797	0.0687
447.1824	0.073
447.3852	0.0541
447.5879	0.0639
447.7906	0.0642
447.9933	0.063
448.196	0.0526
448.3986	0.0551
448.6013	0.0502
448.8039	0.0591
449.0066	0.0587
449.2092	0.0473
449.4118	0.0496
449.6143	0.0491
449.8169	0.0581
450.0195	0.0463
450.222	0.0469
450.4245	0.0519
450.627	0.0407
450.8295	0.0354
451.032	0.0439
451.2345	0.0391
451.4369	0.0419
451.6394	0.0459
451.8418	0.0436
452.0442	0.0432
452.2466	0.0453
452.449	0.0314
452.6513	0.0349
452.8537	0.0433
453.056	0.038
453.2583	0.0429
453.4607	0.0262
453.663	0.0297
453.8652	0.0302
454.0675	0.0315
454.2697	0.0232
454.472	0.0425
454.6742	0.0309
454.8764	0.0259
455.0786	0.0314
455.2808	0.0298
455.4829	0.0296
455.6851	0.0284
455.8872	0.0378
456.0893	0.0176
456.2915	0.0213
456.4935	0.0152
456.6956	0.0234
456.8977	0.0198
457.0997	0.0365
457.3018	0.024
457.5038	0.0226
457.7058	0.0247
457.9078	0.0321
458.1098	0.0223
458.3117	0.0272
458.5137	0.0293
458.7156	0.0348
458.9175	0.0211
459.1194	0.0279
459.3213	0.0153
459.5232	0.014
459.725	0.0236
459.9269	0.0156
460.1287	0.0153
460.3305	0.0159
460.5323	0.0211
460.7341	0.0137
460.9359	0.0117
461.1376	0.0143
461.3394	0.0072
461.5411	0.0113
461.7428	0.0119
461.9445	0.0219
462.1462	0.0093
462.3479	0.0231
462.5495	0.0159
462.7512	0.0057
462.9528	0.0166
463.1544	0.0053
463.356	0.0157
463.5576	0.0138
463.7592	0.0035
463.9607	0.0081
464.1623	0.0178
464.3638	0.0182
464.5653	0.0034
464.7668	0.006
464.9683	0.0131
465.1697	0.0054
465.3712	0.0088
465.5726	0.0125
465.7741	0.0095
465.9755	0.0087
466.1769	0.0094
466.3782	0.0061
466.5796	0.0121
466.7809	0.0126
466.9823	0.0135
467.1836	0.0231
467.3849	0.0005
467.5862	0.0021
467.7875	0.0148
467.9887	0.0197
468.19	0.0075
468.3912	0.0063
468.5924	0.011
468.7936	0.0054
468.9948	0.0134
469.196	0.0017
469.3972	0.0145
469.5983	0.0027
469.7994	-0.0003
470.0006	0.0074
470.2017	0.008
470.4027	0.0037
470.6038	0.0008
470.8049	-0.0013
471.0059	0.0174
471.2069	0.0072
471.408	0.0024
471.6089	0.0147
471.8099	0.0057
472.0109	0.0038
472.2119	0.0195
472.4128	0.0086
472.6137	0.0119
472.8146	0.0038
473.0155	-0.0007
473.2164	-0.0067
473.4173	0.0034
473.6181	0.0106
473.819	0.0057
474.0198	-0.0002
474.2206	0.0043
474.4214	0.0121
474.6222	0.007
474.8229	0.0065
475.0237	0.0097
475.2244	0.0045
475.4251	0.0062
475.6258	0.0043
475.8265	-0.0026
476.0272	0.0034
476.2278	-0.0009
476.4285	0.0021
476.6291	0.0127
476.8297	-0.0021
477.0303	0.0065
477.2309	-0.0013
477.4315	0.0135
477.632	0.0087
477.8326	0.0047
478.0331	0.004
478.2336	0.0039
478.4341	0.0026
478.6346	0.0051
478.8351	0.01
479.0355	0.0059
479.236	-0.0038
479.4364	0.003
479.6368	0.0009
479.8372	0.0028
480.0376	0.0004
480.2379	0.0031
480.4383	-0.0046
480.6386	0.0036
480.8389	0.0004
481.0392	0.0124
481.2395	0.0101
481.4398	0.0019
481.6401	0.004
481.8403	-0.0003
482.0405	-0.004
482.2408	0.0041
482.441	-0.0051
482.6411	0.0007
482.8413	-0.0006
483.0415	0.0005
483.2416	0.0002
483.4417	0.006
483.6419	0.0025
483.8419	0.0143
484.042	0.0068
484.2421	-0.0008
484.4422	0.0057
484.6422	0.0117
484.8422	0.0022
485.0422	0.0021
485.2422	0.0013
485.4422	-0.0034
485.6422	0.0002
485.8421	-0.0031
486.042	0.0094
486.242	0.0028
486.4419	0.0101
486.6417	0.0053
486.8416	0.0079
487.0415	0.0005
487.2413	0.0065
487.4411	0.0057
487.641	0.0056
487.8408	0.0078
488.0405	0.0109
488.2403	-0.0046
488.4401	0.0022
488.6398	0.0076
488.8395	-0.0004
489.0392	0.0031
489.2389	0.0027
489.4386	0.0064
489.6383	0.0085
489.8379	0.0066
490.0376	0.0043
490.2372	-0.0047
490.4368	0.0053
490.6364	0.0138
490.836	-0.0074
491.0355	0.0001
491.2351	0.0122
491.4346	-0.0002
491.6341	-0.0018
491.8336	0.0045
492.0331	0
492.2326	0.0005
492.432	-0.0038
492.6315	-0.0011
492.8309	0.0073
493.0303	-0.0007
493.2297	0.0045
493.4291	-0.0012
493.6284	0.0016
493.8278	0.0008
494.0271	0.0024
494.2264	0.0123
494.4257	0.0051
494.625	-0.0002
494.8243	0.0048
495.0236	0.002
495.2228	-0.0013
495.422	0.0025
495.6213	0.0012
495.8205	0.0009
496.0196	0.0042
496.2188	0.0016
496.418	-0.0069
496.6171	0.0025
496.8162	0.0001
497.0153	0.004
497.2144	-0.0024
497.4135	0.0039
497.6126	-0.0041
497.8116	0.0019
498.0107	-0.0071
498.2097	0.0057
498.4087	0.004
498.6077	0.0079
498.8067	0.0035
499.0056	-0.0003
499.2046	0.0035
499.4035	0.0068
499.6024	-0.0102
499.8013	0.0034
500.0002	0.0129
500.199	0.0045
500.3979	0.0047
500.5967	-0.0037
500.7956	0.0023
500.9944	0.0049
501.1932	0.009
501.3919	0.0102
501.5907	-0.0018
501.7895	-0.0093
501.9882	-0.0024
502.1869	0.003
502.3856	0.0007
502.5843	0.0008
502.783	0.0029
502.9816	0.0026
503.1803	0.0127
503.3789	0
503.5775	-0.0031
503.7761	-0.004
503.9747	-0.0054
504.1732	0.0076
504.3718	0.0033
504.5703	-0.0055
504.7689	-0.0007
504.9674	0.0003
505.1658	0.0043
505.3643	-0.0035
505.5628	0.0044
505.7612	0.0045
505.9597	-0.0017
506.1581	-0.0084
506.3565	-0.0111
506.5549	0.0042
506.7532	0.0009
506.9516	-0.0007
507.1499	0.0171
507.3482	0.0108
507.5465	-0.0003
507.7448	0.0091
507.9431	-0.0043
508.1414	-0.0039
508.3396	-0.0003
508.5379	-0.0031
508.7361	0.0102
508.9343	0.0093
509.1325	-0.0019
509.3306	-0.0011
509.5288	0.0088
509.7269	0.0092
509.9251	-0.01
510.1232	-0.0094
510.3213	0.0011
510.5193	0.0035
510.7174	-0.0047
510.9154	0.0062
511.1135	0.0033
511.3115	-0.0011
511.5095	0.0012
511.7075	0.0041
511.9055	0.008
512.1034	0.0005
512.3014	-0.0049
512.4993	-0.0044
512.6972	-0.0103
512.8951	0.0035
513.093	0.0048
513.2908	-0.0028
513.4887	0.0056
513.6865	-0.0002
513.8844	-0.0016
514.0822	0.0055
514.2799	0.0051
514.4777	0.0063
514.6755	-0.0014
514.8732	0.0078
515.0709	0.0164
515.2687	0.0057
515.4664	-0.0122
515.664	0.0081
515.8617	0.0113
516.0594	0.0026
516.257	0.0057
516.4546	0.0054
516.6522	0.001
516.8498	-0.0043
517.0474	0.0005
517.2449	0.0021
517.4425	-0.0089
517.64	0.005
517.8375	0.0074
518.035	-0.0021
518.2325	-0.0082
518.43	-0.0054
518.6274	-0.0076
518.8249	0.0029
519.0223	-0.0018
519.2197	0.0012
519.4171	0.004
519.6145	0.0083
519.8118	0.0051
520.0092	-0.0018
520.2065	0.0025
520.4038	-0.0021
520.6011	0.0049
520.7984	0.0018
520.9956	0.0054
521.1929	0.0019
521.3901	0.0015
521.5874	0.009
521.7846	0.0002
521.9818	-0.0018
522.1789	0.0186
522.3761	0.0029
522.5732	-0.0006
522.7704	0.0035
522.9675	-0.0058
523.1646	0.0156
523.3617	-0.0016
523.5587	0.0069
523.7558	-0.0032
523.9528	0.0001
524.1498	0.0047
524.3468	0.0008
524.5438	-0.0049
524.7408	-0.0104
524.9378	0.0172
525.1347	-0.0004
525.3316	0.0155
525.5285	0.0005
525.7254	-0.0019
525.9223	-0.0015
526.1192	-0.0002
526.316	0.0006
526.5129	0.0032
526.7097	-0.0051
526.9065	0.0051
527.1033	0.0129
527.3	-0.0048
527.4968	-0.0022
527.6935	0.0054
527.8903	0.0188
528.087	0.0078
528.2837	0.0036
528.4804	0.0048
528.677	0.0061
528.8737	-0.0019
529.0703	0.0046
529.2669	0.0101
529.4635	0.0242
529.6601	0.005
529.8567	0.0164
530.0532	-0.0011
530.2498	-0.005
530.4463	0.0114
530.6428	-0.0039
530.8393	-0.0001
531.0358	0.0011
531.2322	0.0135
531.4287	-0.0049
531.6251	-0.002
531.8215	-0.001
532.0179	-0.0012
532.2143	0.0107
532.4107	0.0067
532.607	0.0025
532.8034	0.0037
532.9997	0.0082
533.196	0.0084
533.3923	-0.0002
533.5886	-0.0072
533.7848	-0.0052
533.9811	-0.0052
534.1773	-0.0029
534.3735	0.0021
534.5697	-0.005
534.7659	0.0028
534.9621	0.0073
535.1582	0.0071
535.3544	0.0002
535.5505	0.0076
535.7466	-0.0059
535.9427	-0.0005
536.1387	-0.0019
536.3348	0.0121
536.5308	0.0129
536.7269	0.0022
536.9229	0.0023
537.1189	-0.0059
537.3148	-0.0134
537.5108	-0.0003
537.7068	0.0099
537.9027	0.0091
538.0986	-0.0031
538.2945	0.0013
538.4904	0.0043
538.6863	0.0095
538.8821	0.0042
539.078	0.0003
539.2738	-0.0062
539.4696	0.0182
539.6654	-0.0024
539.8611	0.0056
540.0569	-0.0002
540.2526	-0.0068
540.4484	-0.0093
540.6441	0.0012
540.8398	-0.0018
541.0355	0.0047
541.2311	0.0041
541.4268	0.0035
541.6224	0.0053
541.818	-0.0112
542.0136	0
542.2092	0.0069
542.4048	0.0112
542.6003	0.0051
542.7959	0.0061
542.9914	0.0052
543.1869	-0.0056
543.3824	0.0029
543.5779	0.0063
543.7734	0.003
543.9688	0.0083
544.1642	0.0108
544.3596	0.0016
544.555	0.006
544.7504	-0.0013
544.9458	0.0059
545.1411	-0.0029
545.3365	0.0083
545.5318	-0.001
545.7271	0.0105
545.9224	-0.0037
546.1177	0.0103
546.3129	-0.0008
546.5081	-0.0085
546.7034	-0.0091
546.8986	0.003
547.0938	0.0055
547.289	-0.0021
547.4841	-0.0032
547.6793	-0.0007
547.8744	0.001
548.0695	-0.0024
548.2646	-0.0078
548.4597	-0.0005
548.6548	0.0092
548.8498	-0.0028
549.0448	0.0029
549.2399	-0.0014
549.4349	0.0078
549.6298	-0.0063
549.8248	-0.0141
550.0198	0.0131
550.2147	-0.0006
550.4096	0.0004
550.6045	0.0063
550.7994	0.0021
550.9943	-0.0026
551.1892	-0.0032
551.384	0.0082
551.5788	0.0053
551.7737	-0.005
551.9685	0.0141
552.1632	0.0038
552.358	0.0019
552.5528	-0.0105
552.7475	-0.0063
552.9422	0.0005
553.1369	0.0022
553.3316	-0.004
553.5263	-0.0022
553.7209	-0.0066
553.9156	0.0083
554.1102	0.0025
554.3048	0.0023
554.4994	0.008
554.694	0.0042
554.8885	-0.0003
555.0831	0.0049
555.2776	0.0119
555.4721	-0.005
555.6666	0.0112
555.8611	-0.0056
556.0555	0.007
556.25	0.006
556.4444	-0.0008
556.6388	0.005
556.8332	0.0007
557.0276	0.0157
557.222	-0.0038
557.4163	0.0037
557.6107	0.0035
557.805	0.0011
557.9993	0.0032
558.1936	0.0151
558.3879	0.0069
558.5821	-0.0057
558.7764	0.0158
558.9706	-0.0055
559.1648	-0.0033
559.359	0.012
559.5532	-0.006
559.7473	0.0018
559.9415	0.0059
560.1356	0.0071
560.3297	0
560.5238	-0.0051
560.7179	-0.0104
560.9119	0.0068
561.106	0.0006
561.3	-0.0005
561.494	0.0118
561.688	0.0033
561.882	-0.0033
562.076	0.0183
562.2699	0.003
562.4639	0.004
562.6578	0.0103
562.8517	-0.0023
563.0456	0.0012
563.2395	0.0081
563.4333	-0.0036
563.6272	0.0087
563.821	0.0114
564.0148	-0.0048
564.2086	0.0104
564.4024	0.0015
564.5961	0.0058
564.7899	0.0017
564.9836	-0.0096
565.1773	-0.0034
565.371	0.0076
565.5647	-0.0068
565.7584	-0.0048
565.952	-0.001
566.1456	0
566.3393	0.0075
566.5329	-0.0049
566.7264	-0.0032
566.92	0.0032
567.1136	0.0078
567.3071	0.0004
567.5006	-0.0082
567.6941	0.0081
567.8876	0.0029
568.0811	-0.0028
568.2745	-0.0036
568.468	0.0077
568.6614	0.0071
568.8548	-0.0064
569.0482	0.0036
569.2416	-0.0041
569.4349	0
569.6283	-0.002
569.8216	0.0019
570.0149	-0.0051
570.2082	-0.0039
570.4015	0.0019
570.5947	-0.0019
570.788	0.0003
570.9812	0.002
571.1744	0.0006
571.3676	-0.0015
571.5608	-0.0019
571.754	-0.0033
571.9471	0.0075
572.1402	0.0016
572.3333	0.0001
572.5264	0.0077
572.7195	0.0033
572.9126	-0
573.1057	0.0038
573.2987	-0
573.4917	-0.0013
573.6847	0.0008
573.8777	0.0049
574.0707	0.0014
574.2636	-0.0005
574.4566	-0.0025
574.6495	0.0049
574.8424	0.0017
575.0353	0.0012
575.2281	-0.0015
575.421	-0.0002
575.6138	-0.0056
575.8067	0.0042
575.9995	0.0039
576.1923	0.004
576.385	-0.0011
576.5778	-0.0005
576.7706	0.0043
576.9633	0.0063
577.156	-0.0012
577.3487	0.0002
577.5414	0.0003
577.734	0.0022
577.9267	-0.0007
578.1193	0.004
578.3119	-0.0033
578.5045	-0.0016
578.6971	-0.0032
578.8897	0.0018
579.0822	0.0046
579.2747	0
579.4673	0.0019
579.6598	-0.0004
579.8522	0.0016
580.0447	-0.0025
580.2372	0.0057
580.4296	-0.0039
580.622	0.0025
580.8144	-0.0008
581.0068	0.0029
581.1992	0.0015
581.3915	-0.0008
581.5839	0.0019
581.7762	0.0035
581.9685	-0.0029
582.1608	-0.0006
582.353	-0.0032
582.5453	0.0011
582.7375	0.0019
582.9298	0.0038
583.122	-0.0046
583.3142	0.0048
583.5063	-0.0035
583.6985	0.0001
583.8906	-0.0008
584.0827	-0.0019
584.2749	-0.0051
584.4669	0.0001
584.659	0.0013
584.8511	0.0017
585.0431	-0.0015
585.2352	-0.0078
585.4272	0.0039
585.6192	0.0032
585.8111	-0.0035
586.0031	0.001
586.195	0.0033
586.387	0.0022
586.5789	0.0033
586.7708	-0.0027
586.9627	0.001
587.1545	0.0011
587.3464	-0.0015
587.5382	0.0014
587.73	0.0047
587.9218	0.0006
588.1136	-0.0057
588.3053	-0.0017
588.4971	0.0024
588.6888	0.0069
588.8805	0.0018
589.0722	0.0035
589.2639	0.0002
589.4556	-0.0006
589.6472	-0.0017
589.8389	-0.0028
590.0305	-0.0011
590.2221	0.0057
590.4137	-0.0027
590.6052	0.0023
590.7968	-0.0004
590.9883	0.001
591.1798	-0.008
591.3713	0.0009
591.5628	0.0032
591.7543	-0.0003
591.9458	0.0014
592.1372	-0.0007
592.3286	-0.0025
592.52	0.0015
592.7114	-0.0038
592.9028	0.001
593.0941	-0.0023
593.2855	-0.0019
593.4768	0.0011
593.6681	-0.0032
593.8594	-0.0092
594.0506	0.0013
594.2419	-0.0057
594.4331	-0.0041
594.6244	0.0023
594.8156	0.0023
595.0067	-0.0027
595.1979	-0.0027
595.3891	-0.0051
595.5802	-0.0016
595.7713	-0.0031
595.9624	-0.0018
596.1535	-0.0018
596.3446	0.0054
596.5357	0.0006
596.7267	-0.0006
596.9177	0.004
597.1087	0.0043
597.2997	0.0028
597.4907	-0.0013
597.6817	-0
597.8726	0.0116
598.0635	0.0019
598.2544	-0.0034
598.4453	0.0032
598.6362	-0.0034
598.827	0.0029
599.0179	0.0026
599.2087	-0.0022
599.3995	0.006
599.5903	0.007
599.7811	-0.0012
599.9718	0.0021
600.1626	0.0003
600.3533	-0.0007
600.544	-0.0022
600.7347	0.0048
600.9254	0.0065
601.116	-0.0026
601.3067	0.0064
601.4973	0.0084
601.6879	-0.0016
601.8785	0.003
602.0691	-0.0011
602.2596	-0.0027
602.4502	0.0003
602.6407	0.001
602.8312	0.0004
603.0217	0.0057
603.2122	0.008
603.4027	-0.0035
603.5931	0.0041
603.7835	0.0037
603.9739	-0.0018
604.1643	0.0008
604.3547	0.0052
604.5451	0.0017
604.7354	-0.0001
604.9257	-0.0009
605.116	-0.003
605.3063	-0.0013
605.4966	-0.0038
605.6869	0.0008
605.8771	0.003
606.0673	-0.0054
606.2575	-0.0012
606.4477	0.0071
606.6379	-0.0019
606.8281	-0.0051
607.0182	0.0021
607.2083	-0.0008
607.3985	0.0031
607.5885	0.0028
607.7786	0.0085
607.9687	-0.0038
608.1587	-0.0015
608.3488	-0.0046
608.5388	0.0016
608.7288	-0.0085
608.9187	0.0097
609.1087	0.0007
609.2986	0.0043
609.4886	0.0006
609.6785	-0.0013
609.8684	0.0053
610.0582	0.0002
610.2481	-0.0041
610.4379	0.0053
610.6278	-0.0014
610.8176	-0.0019
611.0074	-0.0021
611.1971	0.0072
611.3869	0.0034
611.5766	-0.0003
611.7664	0.0026
611.9561	-0.0035
612.1458	0.0003
612.3354	0.009
612.5251	-0.0039
612.7147	0.0043
612.9044	-0.0075
613.094	0.0042
613.2836	-0.0071
613.4731	-0.0048
613.6627	0.0014
613.8522	-0.002
614.0417	-0.0047
614.2313	-0.0102
614.4207	-0.0003
614.6102	-0.0058
614.7997	0.0005
614.9891	-0.002
615.1785	0.0042
615.3679	-0.002
615.5573	-0.0067
615.7467	-0.0067
615.9361	-0.0069
616.1254	-0.0001
616.3147	0.0009
616.504	-0.0095
616.6933	-0.0051
616.8826	0.0068
617.0718	-0.0051
617.2611	-0.0003
617.4503	-0.0042
617.6395	-0.0042
617.8287	0.0092
618.0179	-0.0012
618.207	-0.0032
618.3961	0.0002
618.5853	0.0017
618.7744	0.0095
618.9634	0.0114
619.1525	0.003
619.3416	-0.0013
619.5306	-0.0057
619.7196	-0.0049
619.9086	0.0076
620.0976	-0.0002
620.2866	0.0015
620.4755	0.0132
620.6645	-0.0044
620.8534	-0.0097
621.0423	-0.0137
621.2312	-0.013
621.42	-0.0086
621.6089	0.0093
621.7977	-0.0018
621.9865	0.0136
622.1753	0.0085
622.3641	-0.0078
622.5529	-0.0118
622.7416	-0.0081
622.9303	-0.0035
623.1191	-0.0019
623.3078	-0.0089
623.4964	-0.0136
623.6851	0.0057
623.8737	0.0018
624.0624	0.0008
624.251	-0.0005
624.4396	-0.0022
624.6282	0.0032
624.8167	0.0035
625.0053	0.0027
625.1938	0.0055
625.3823	-0.0042
625.5708	-0.0089
625.7593	-0.0059
625.9477	0.002
626.1362	-0.0068
626.3246	-0.0021
626.513	0.0096
626.7014	-0.0035
626.8898	0.0079
627.0781	0.0009
627.2665	0.0035
627.4548	-0.0035
627.6431	-0.0071
627.8314	0.0046
628.0197	0.0015
628.2079	-0.0048
628.3962	0.0038
628.5844	0.0074
628.7726	-0.0102
628.9608	0.0039
629.1489	-0.0096
629.3371	-0.0099
629.5252	0.0051
629.7134	0.0051
629.9015	-0.0035
630.0895	0.004
630.2776	-0.0114
630.4657	-0.0026
630.6537	-0.0074
630.8417	0.0053
631.0297	0.0051
631.2177	-0.003
631.4057	0.0027
631.5936	-0.013
631.7815	0.0147
631.9695	0.0134
632.1574	-0.0109
632.3452	0.0034
632.5331	0.0035
632.7209	0.0072
632.9088	0.0022
633.0966	0.0049
633.2844	-0.0044
633.4722	0.0016
633.6599	-0.0086
633.8477	0.0023
634.0354	0.0088
634.2231	0.0181
634.4108	0.0043
634.5985	0.0033
634.7861	0.0018
634.9738	-0.0054
635.1614	-0.0082
635.349	-0.0032
635.5366	0.0037
635.7242	0.0128
635.9117	0.0144
636.0993	-0.0188
636.2868	0.0026
636.4743	0.0206
636.6618	0.0039
636.8492	-0.0054
637.0367	0.0045
637.2241	-0.0016
637.4115	0.0029
637.5989	0.0061
637.7863	-0.0119
637.9737	-0.0015
638.161	0.0009
638.3484	0.0077
638.5357	0.0063
638.723	-0.0102
638.9103	0.0099
639.0975	0.0139
639.2848	0.0238
639.472	0.003
639.6592	-0.0065
639.8464	0.0174
640.0336	0.0059
640.2208	-0.0145
640.4079	0.0191
640.595	-0.0082
640.7821	-0.0063
640.9692	0.0189
641.1563	0.0068
641.3434	0.0103
641.5304	-0.0008
641.7174	0.0145
641.9044	-0.0068
642.0914	0.0033
642.2784	0.0227
642.4653	-0.0068
642.6523	0.0075
642.8392	0.0106
643.0261	-0.0081
643.213	0.0014
643.3999	-0.0192
643.5867	-0.0136
643.7735	0.0083
643.9604	-0.0193
644.1472	0.0104
644.3339	-0.0035
644.5207	-0.0204
644.7075	-0.0022
644.8942	0.0049
645.0809	-0.0022
645.2676	-0.0054
645.4543	0.0018
645.6409	-0.029
645.8276	-0.0086
646.0142	0.0074
646.2008	-0.019
646.3874	0.0079
646.574	-0.0241
646.7605	-0.0075
646.9471	0.0177
647.1336	0.0076
647.3201	0.0066
647.5066	-0.005
647.6931	-0.0027
647.8795	0.0173
648.0659	-0.0317
648.2524	0.0109
648.4388	0.005
648.6252	-0.0091
648.8115	0.0106
648.9979	0.0083
649.1842	-0.0217
649.3705	0.0163
649.5568	-0.008
649.7431	-0.0058
649.9294	0.0049
650.1156	-0.01
650.3018	0.0276
650.488	-0.0035
650.6742	0.0138
650.8604	0.0125
651.0466	0.0062
651.2327	-0.0088
651.4188	-0.0137
651.6049	-0.0124
651.791	0.0308
651.9771	-0.0013
652.1632	-0.0036
652.3492	-0.0058
652.5352	0.0128
652.7212	-0.0138
652.9072	-0.0114
653.0932	-0.0056
653.2791	-0.0043
653.465	-0.0248
653.651	0.0187
653.8369	0.0162
654.0227	-0.0254
654.2086	-0.0124
654.3944	-0.0024
654.5803	-0.0019
654.7661	0.0032
654.9519	0.0017
655.1377	0
655.3234	0
655.5092	0
655.6949	0
655.8806	0
656.0663	0
656.2519	0
656.4376	0
656.6232	0
656.8088	0
656.9945	0
657.18	0
657.3656	0
657.5511	0
657.7367	0
657.9222	0
658.1077	0
658.2932	0
658.4786	0
658.6641	0
658.8495	0
659.0349	0
659.2203	0
659.4057	0.013
659.591	0.0561
659.7764	0.01
659.9617	-0.0003
660.147	-0.0133
660.3323	-0.0069
660.5176	-0.0024
660.7028	0.0063
660.888	0.0121
661.0733	0.0029
661.2585	0.0056
661.4436	0.0071
661.6288	0.0028
661.8139	0
661.9991	0.0135
662.1842	0.0211
662.3693	0.0182
662.5544	-0.0024
662.7394	0.0219
662.9245	0.0238
663.1095	-0.0135
663.2945	-0.0103
663.4795	-0.0051
663.6644	0.0135
663.8494	0.0003
664.0343	-0.0192
664.2193	0.0057
664.4042	-0.0125
664.589	-0.0164
664.7739	-0.0195
664.9587	-0.0095
665.1436	-0.0063
665.3284	-0.0025
665.5132	0.0008
665.698	0.0075
665.8827	-0.0186
666.0675	-0.0038
666.2522	0.022
666.4369	0.0038
666.6216	0.0047
666.8063	-0.006
666.9909	0.0094
667.1756	0.0112
667.3602	-0.0181
667.5448	0.0014
667.7294	0.0167
667.9139	-0.001
668.0985	-0.0025
668.283	0.0056
668.4675	-0.0077
668.652	-0.015
668.8365	-0.0149
669.0209	-0.0163
669.2054	0.0016
669.3898	-0.0247
669.5742	0.004
669.7586	-0.0071
669.943	-0.0222
670.1273	0.0257
670.3117	0.0051
670.496	0.0052
670.6803	0.0221
670.8646	0.0067
671.0488	0.0017
671.2331	-0.0004
671.4173	0.0095
671.6015	-0.0088
671.7857	-0.0102
671.9699	0.0101
672.1541	-0.0048
672.3382	-0.0021
672.5223	-0.0063
672.7064	-0.0108
672.8905	0.0099
673.0746	-0.0169
673.2587	0.0226
673.4427	-0.0056
673.6267	-0.0211
673.8107	-0.0062
673.9947	-0.0081
674.1787	0.0195
674.3626	-0.0215
674.5465	0.0134
674.7304	-0.0298
674.9143	-0.01
675.0982	-0.0012
675.2821	0.0185
675.4659	0.0022
675.6497	-0.0006
675.8335	0.0313
676.0173	0.0111
676.2011	-0.0022
676.3849	0.0198
676.5686	-0.002
676.7523	0.0166
676.936	-0.0329
677.1197	-0.0059
677.3034	0.0178
677.487	-0.0038
677.6706	0
677.8542	-0.0115
678.0378	0.0117
678.2214	-0.0002
678.405	0.0185
678.5885	0.0093
678.772	-0.0059
678.9555	0.0101
679.139	0.0047
679.3225	-0.0061
679.5059	0.0051
679.6894	-0.015
679.8728	-0.0177
680.0562	0.0064
680.2395	-0.0066
680.4229	-0.0043
680.6062	0.0024
680.7896	0.0174
680.9729	0.0177
681.1562	-0.0088
681.3394	0.003
681.5227	-0.0082
681.7059	-0.0096
681.8891	0.0148
682.0723	-0.0021
682.2555	0.0188
682.4387	0.0096
682.6218	-0.0334
682.805	0.0102
682.9881	0.0131
683.1712	0.0243
683.3542	-0.0166
683.5373	0.0172
683.7203	0.0095
683.9034	0.002
684.0864	-0.0025
684.2694	0.0004
684.4523	-0.0095
684.6353	0.0015
684.8182	0.0011
685.0011	-0.0095
685.184	0.0031
685.3669	-0.0046
685.5498	0.0171
685.7326	-0.0093
685.9154	-0.0016
686.0982	-0.0136
686.281	-0.0202
686.4638	0.0175
686.6465	-0.0126
686.8293	0.0019
687.012	-0.0042
687.1947	0.0148
687.3774	0.0075
687.56	0.0085
687.7427	-0.0005
687.9253	-0.0089
688.1079	0.011
688.2905	0.0037
688.4731	0.0132
688.6556	-0.0037
688.8382	0.0114
689.0207	0.0207
689.2032	-0.0019
689.3857	-0.0027
689.5681	-0.0082
689.7506	0.0024
689.933	-0.0025
690.1154	-0.0112
690.2978	-0.0057
690.4802	0.0058
690.6626	-0.0173
690.8449	-0.0099
691.0272	-0.0204
691.2095	0.0026
691.3918	-0.0084
691.5741	-0.0018
691.7563	0.0026
691.9386	0.0083
692.1208	-0.0028
692.303	0.009
692.4852	0.0225
692.6673	-0.0085
692.8495	-0.002
693.0316	-0.002
693.2137	0.0275
693.3958	0.0127
693.5778	0.0007
693.7599	-0.0227
693.9419	0.0119
694.1239	0.0015
694.3059	-0.0065
694.4879	-0.0258
694.6699	0.012
694.8518	-0.003
695.0337	0.0026
695.2157	-0.0134
695.3975	-0.0064
695.5794	0
695.7613	0.0251
695.9431	-0.0243
696.1249	-0.002
696.3067	0.0093
696.4885	0.0083
696.6703	0.0031
696.852	-0.0105
697.0337	-0.0112
697.2154	-0.0002
697.3971	0.0224
697.5788	0.0269
697.7605	0.0029
697.9421	-0.0122
698.1237	0.0023
698.3053	0.0048
698.4869	0.0116
698.6685	-0.0044
698.85	0.0068
699.0315	-0.0135
699.213	0.0074
699.3945	0.0067
699.576	0.0074
699.7575	0.0068
699.9389	-0.0043
700.1203	-0.0037
700.3017	-0.0286
700.4831	-0.0203
700.6645	-0.0071
700.8458	0.0103
701.0271	0.0156
701.2084	-0.0252
701.3897	0.0125
701.571	0.0133
701.7523	-0.0202
701.9335	0.0288
702.1147	-0.0164
702.2959	0.0069
702.4771	-0.0107
702.6583	-0.0107
702.8394	0.0073
703.0205	-0.0052
703.2016	-0.0139
703.3827	-0.0044
703.5638	0.0178
703.7449	-0.0123
703.9259	0.0008
704.1069	0.0231
704.2879	0.0159
704.4689	0.017
704.6499	-0.0316
704.8308	-0.0034
705.0117	-0.0438
705.1927	0.0199
705.3735	0.0265
705.5544	-0.0105
705.7353	-0.0016
705.9161	0.0295
706.0969	0.0081
706.2777	0.0027
706.4585	-0.0009
706.6393	-0.0029
706.82	-0.014
707.0007	-0.0123
707.1815	-0.004
707.3621	-0.0034
707.5428	0.0215
707.7235	0.0299
707.9041	-0.0073
708.0847	-0.0185
708.2653	-0.0023
708.4459	0.0009
708.6265	-0.0171
708.807	0.0156
708.9875	-0.0033
709.168	0.0054
709.3485	0.02
709.529	0.0079
709.7095	0.0081
709.8899	0.0287
710.0703	0.0004
710.2507	0.0154
710.4311	0.0032
710.6115	-0.0003
710.7918	-0.0045
710.9721	0.0073
711.1524	0.0079
711.3327	-0.004
711.513	-0.0053
711.6932	-0.0208
711.8735	-0.002
712.0537	0.0341
712.2339	0.0221
712.4141	0.0067
712.5942	0.0059
712.7744	0.0066
712.9545	0.0157
713.1346	0.023
713.3147	0.0134
713.4947	0.0051
713.6748	-0.0079
713.8548	0.002
714.0348	0.0257
714.2148	0.0021
714.3948	0.0006
714.5748	-0.0034
714.7547	0.0051
714.9346	-0.0106
715.1145	0.0058
715.2944	-0.0111
715.4743	0.0124
715.6541	0.0014
715.834	0.0215
716.0138	0.0227
716.1936	0
716.3733	0.0026
716.5531	0.0181
716.7328	-0.0457
716.9126	-0.0287
717.0923	0.0021
717.2719	0.0105
717.4516	-0.0008
717.6312	-0.0158
717.8109	0.003
717.9905	0.0107
718.1701	-0.0191
718.3496	0.0032
718.5292	-0.0046
718.7087	0.0224
718.8882	0.0239
719.0677	-0.0217
719.2472	0.016
719.4267	0
719.6061	0.0039
719.7856	0.0065
719.965	0.0271
720.1443	0.0196
720.3237	0.0219
720.5031	0.0272
720.6824	-0.0102
720.8617	0.0373
721.041	0.0274
721.2203	0.0076
721.3995	-0.011
721.5788	-0.0032
721.758	-0.0153
721.9372	0.0167
722.1164	0.0141
722.2956	0.004
722.4747	0.0098
722.6538	0.0102
722.8329	-0.0052
723.012	0.0043
723.1911	-0.0016
723.3702	-0.0117
723.5492	-0.0048
723.7282	0.0293
723.9072	-0.0344
724.0862	0.0159
724.2652	-0.0291
724.4441	0.0025
724.623	-0.0031
724.8019	-0.0157
724.9808	-0.0185
725.1597	-0.0268
725.3385	0.0028
725.5174	0.0347
725.6962	0.0091
725.875	-0.0097
726.0538	-0.0042
726.2325	0.0062
726.4112	0.0097
726.59	-0.0056
726.7687	0.0312
726.9474	0.0248
727.126	0.0033
727.3047	-0.0126
727.4833	0.0499
727.6619	0.0332
727.8405	-0.0055
728.0191	-0.036
728.1976	-0.0482
728.3762	-0.0233
728.5547	0.0129
728.7332	0.0025
728.9116	-0.0121
729.0901	0.0411
729.2686	-0.0148
729.447	-0.0194
729.6254	0.0054
729.8038	-0.0165
729.9821	0.0317
730.1605	-0.0129
730.3388	-0.0277
730.5171	0.0032
730.6954	0.0285
730.8737	0.0188
731.0519	0.0071
731.2302	-0.026
731.4084	-0.0072
731.5866	-0.0343
731.7648	0.0013
731.9429	0.0103
732.1211	-0.0234
732.2992	-0.0053
732.4773	-0.0129
732.6554	0.0037
732.8335	0.005
733.0115	-0.0011
733.1896	0.0019
733.3676	0.0075
733.5456	-0.0009
733.7235	-0.0035
733.9015	0.0014
734.0794	-0.0167
734.2574	0.0092
734.4353	0.0109
734.6131	0.0192
734.791	0.0115
734.9689	0.0095
735.1467	0.0093
735.3245	0.0136
735.5023	0.0148
735.68	0.0067
735.8578	-0.0148
736.0355	0
736.2132	0.0161
736.3909	-0.0045
736.5686	-0.012
736.7463	-0.013
736.9239	0.0021
737.1015	-0.0107
737.2791	-0.0108
737.4567	-0.0106
737.6343	-0.0036
737.8118	-0.004
737.9894	-0.0098
738.1669	0.0037
738.3444	-0.0006
738.5218	0.0031
738.6993	-0.0076
738.8767	-0.0084
739.0541	0.0013
739.2315	0.0044
739.4089	0.013
739.5863	0.0045
739.7636	-0.0111
739.9409	0.0112
740.1182	-0.0101
740.2955	-0.0494
740.4728	0.0099
740.65	-0.0125
740.8272	-0.0043
741.0044	0.0345
741.1816	0.0517
741.3588	-0.0035
741.5359	-0.0068
741.7131	0.0493
741.8902	-0.0017
742.0673	0.0272
742.2444	-0.012
742.4214	-0.0218
742.5985	-0.0065
742.7755	-0.0152
742.9525	0.0097
743.1295	-0.022
743.3064	-0.0192
743.4834	0.0062
743.6603	0.0052
743.8372	0.0195
744.0141	0.0256
744.191	0.0074
744.3678	-0.0049
744.5446	0.0166
744.7215	0.02
744.8982	0.0294
745.075	0.0189
745.2518	-0.0113
745.4285	-0.021
745.6052	0.045
745.7819	0.0078
745.9586	0.0402
746.1353	-0.009
746.3119	-0.0111
746.4885	-0.0085
746.6651	-0.0324
746.8417	-0.0184
747.0183	0.0048
747.1948	-0.0142
747.3714	-0.0047
747.5479	-0.0084
747.7244	-0.0392
747.9008	0.0447
748.0773	0.0148
748.2537	0.0311
748.4301	-0.002
748.6065	-0.0342
748.7829	0.0008
748.9593	0.0039
749.1356	-0.001
749.3119	0.0017
749.4882	-0.0164
749.6645	0.0113
749.8408	-0.0051
750.017	-0.0057
750.1933	0.0351
750.3695	0.0183
750.5457	-0.0118
750.7218	0.0171
750.898	-0.002
751.0741	0.0143
751.2502	0.0086
751.4263	-0.0016
751.6024	0.0341
751.7784	-0.0242
751.9545	-0.0269
752.1305	0.0114
752.3065	0.0113
752.4825	-0.0012
752.6584	0.0079
752.8344	0.0078
753.0103	-0.0352
753.1862	-0.0066
753.3621	-0.0199
753.5379	-0.0181
753.7138	-0.0334
753.8896	0.0125
754.0654	0.0227
754.2412	0.0204
754.417	0.0105
754.5927	-0.0081
754.7685	-0.0095
754.9442	0.0101
755.1199	0.0043
755.2956	0.0012
755.4712	-0.0067
755.6469	-0.0291
755.8225	0.0043
755.9981	-0.0039
756.1736	0.041
756.3492	-0.0088
756.5248	-0.0123
756.7003	0.0079
756.8758	-0.0113
757.0513	-0.0155
757.2267	-0.0164
757.4022	0.0151
757.5776	-0.0123
757.753	-0.0208
757.9284	0.0166
758.1038	-0.0167
758.2791	-0.008
758.4545	0.0113
758.6298	-0.0074
758.8051	-0.0018
758.9803	-0.0118
759.1556	-0.0078
759.3308	0.0028
759.506	0.0071
759.6812	0.0081
759.8564	0.0107
760.0316	0.0077
760.2067	-0.0099
760.3819	-0.0163
760.557	0.0011
760.732	0.0067
760.9071	-0.0108
761.0821	0.0052
761.2572	0.0117
761.4322	-0.0204
761.6072	-0.009
761.7821	0.0086
761.9571	-0.0063
762.132	-0.0094
762.3069	0.0112
762.4818	-0.0035
762.6567	0.0202
762.8316	-0.0075
763.0064	-0.0168
763.1812	-0.024
763.356	-0.0024
763.5308	-0.018
763.7055	-0.0009
763.8803	0.0024
764.055	-0.0046
764.2297	-0.01
764.4044	0.0052
764.579	-0.0037
764.7537	-0.0101
764.9283	-0.028
765.1029	0.0189
765.2775	-0.037
765.4521	0.0125
765.6266	-0.0055
765.8011	0.0059
765.9756	-0.0105
766.1501	0.0247
766.3246	0.017
766.4991	0.0026
766.6735	0.0006
766.8479	0.0028
767.0223	0.0313
767.1967	-0.0113
767.371	-0.0032
767.5454	0.0229
767.7197	0.0181
767.894	-0.0079
768.0683	-0.0144
768.2425	0.0147
768.4168	0.0163
768.591	0.0104
768.7652	0.0016
768.9394	0.0044
769.1135	0
769.2877	0.0026
769.4618	0.0131
769.6359	0.0291
769.81	0.0031
769.984	0.0042
770.1581	0.0154
770.3321	-0.0362
770.5061	0.0046
770.6801	0.0098
770.8541	-0.0341
771.028	-0.0145
771.202	-0.0459
771.3759	0.0122
771.5498	0.0009
771.7236	-0.0055
771.8975	-0.0166
772.0713	-0.0108
772.2451	0.0035
772.4189	0.001
772.5927	-0.0045
772.7665	0.008
772.9402	-0.0147
773.1139	-0.0115
773.2876	-0.0246
773.4613	-0.0167
773.635	-0.0011
773.8086	-0.0271
773.9822	0.0175
774.1558	0.0137
774.3294	-0.0309
774.503	0.0529
774.6765	0.0104
774.8501	0.0282
775.0236	0.0164
775.1971	-0.0062
775.3705	-0.0204
775.544	0.0362
775.7174	-0.0124
775.8908	0.0431
776.0642	-0.01
776.2376	-0.0497
776.4109	0.0632
776.5843	-0.0062
776.7576	0.0167
776.9309	0.0126
777.1041	-0.031
777.2774	0.0154
777.4506	-0.0307
777.6238	0.0534
777.797	0.0146
777.9702	0.0501
778.1434	0.0026
778.3165	-0.006
778.4896	0.0103
778.6627	0.0143
778.8358	-0.0005
779.0089	0.0036
779.1819	-0.0068
779.3549	0.0233
779.5279	-0.0045
779.7009	-0.0135
779.8739	-0.026
780.0468	0.012
780.2197	-0.0428
780.3926	-0.0039
780.5655	0.005
780.7384	-0.0077
780.9112	0.015
781.0841	-0.0097
781.2569	0.0048
781.4297	0.0082
781.6024	0.003
781.7752	-0.0184
781.9479	-0.0077
782.1206	-0.0074
782.2933	-0.0159
782.466	-0.0102
782.6386	0.0023
782.8113	-0.0165
782.9839	0.02
783.1565	0.011
783.329	0.0382
783.5016	-0.0071
783.6741	-0.0213
783.8466	-0.0471
784.0191	-0.0374
784.1916	0.0103
784.3641	0.0041
784.5365	-0.0144
784.7089	0.0274
784.8813	-0.0036
785.0537	-0.0418
785.2261	0.0071
785.3984	-0.0094
785.5707	0.0194
785.743	-0.0313
785.9153	0.0368
786.0876	-0.0381
786.2598	0.0548
786.432	-0.0068
786.6042	0.0172
786.7764	0.004
786.9486	-0.0189
787.1207	0.015
787.2928	-0.0067
787.4649	0.0402
787.637	0.0199
787.8091	-0.0043
787.9811	0.0184
788.1532	0.0281
788.3252	-0.0602
788.4972	-0.0167
788.6691	0.0161
788.8411	0.014
789.013	0.0047
789.1849	-0.0118
789.3568	0.0119
789.5287	-0.0334
789.7005	0.0521
789.8723	-0.0161
790.0442	-0.0338
790.2159	0.0108
790.3877	0.0249
790.5595	0.0596
790.7312	-0.0412
790.9029	0.0349
791.0746	0.0035
791.2463	0.0489
791.4179	-0.0471
791.5896	-0.055
791.7612	-0.0548
791.9328	-0.0496
792.1044	0.0013
792.2759	0.036
792.4474	-0.05
792.619	0.0663
792.7905	0.0445
792.9619	0.0115
793.1334	-0.0595
793.3048	-0.0298
793.4762	-0.0342
793.6476	0.0147
793.819	-0.0522
793.9904	0.0283
794.1617	0.005
794.333	-0.0284
794.5043	-0.0104
794.6756	0.0383
794.8469	0.0188
795.0181	-0.0091
795.1893	0.0099
795.3605	-0.0196
795.5317	0.0181
795.7029	0.0017
795.874	0.0245
796.0452	0.0181
796.2163	0.053
796.3873	0.0902
796.5584	0.0181
796.7294	-0.0802
796.9005	-0.0353
797.0715	-0.0376
797.2425	-0.0401
797.4134	-0.0144
797.5844	0.0454
797.7553	-0.0189
797.9262	0.059
798.0971	-0.0298
798.2679	0.0606
798.4388	-0.0524
798.6096	-0.013
798.7804	0.0212
798.9512	-0.031
799.122	0.0058
799.2927	-0.0431
799.4635	0.0825
799.6342	-0.0265
799.8049	0.0157
799.9755	0.0001
800.1462	0.0499
800.3168	-0.0144
800.4874	-0.0137
800.658	0.0558
800.8286	0.0159
800.9991	0.1044
801.1696	0.0232
801.3402	-0.0408
801.5106	-0.0797
801.6811	0.0075
801.8516	0.0461
802.022	0.0064
802.1924	-0.1083
802.3628	0.0798
802.5332	-0.0146
802.7035	-0.0809
802.8739	0.0246
803.0442	0.0272
803.2145	-0.0365
803.3847	-0.0226
803.555	0.0105
803.7252	0.0276
803.8954	0.0454
804.0656	0.0363
804.2358	0.0394
804.4059	0.0668
804.5761	0.0217
804.7462	0.0154
804.9163	-0.049
805.0864	0.0267
805.2564	0.0469
805.4264	-0.0407
805.5965	0.0261
805.7665	0.0569
805.9364	0.0455
806.1064	-0.0112
806.2763	0.0579
806.4462	-0.0532
806.6161	-0.0028
806.786	0.0251
806.9559	0.0424
807.1257	0.0055
807.2955	0.025
807.4653	-0.0788
807.6351	0.0129
807.8048	-0.025
807.9746	-0.0294
808.1443	0.0344
808.314	0.0788
808.4837	-0.0029
808.6533	-0.0186
808.8229	-0.1149
808.9926	0.017
809.1622	-0.0099
809.3317	0.0161
809.5013	0.079
809.6708	0.025
809.8403	-0.0291
810.0098	0.1206
810.1793	-0.011
810.3488	0.0153
810.5182	-0.0102
810.6876	0.0674
810.857	-0.0631
811.0264	0.0216
811.1958	-0.015
811.3651	-0.06
811.5344	-0.0751
811.7037	-0.1509
811.873	0.0532
812.0422	0.0049
812.2115	0.0315
812.3807	-0.0385
812.5499	0.0798
812.7191	-0.1087
812.8882	0.0738
813.0574	-0.1423
813.2265	0.0466
813.3956	0.0262
813.5646	-0.0119
813.7337	-0.0529
813.9027	-0.0764
814.0718	-0.0316
814.2407	-0.0789
814.4097	0.0148
814.5787	0.0861
814.7476	0.0481
814.9165	0.0489
815.0854	-0.0086
815.2543	-0.0281
815.4232	-0.118
815.592	0.1363
815.7608	0.0922
815.9296	0.0744
816.0984	0.125
816.2671	-0.0087
816.4359	0.05
816.6046	0.0058
816.7733	0.0148
816.942	0.1335
817.1106	-0.181
817.2793	-0.0437
817.4479	-0.1281
817.6165	0.0023
817.785	0.018
817.9536	0.0541
818.1221	0.0746
818.2906	-0.0345
818.4591	-0.055
818.6276	0.0282
818.7961	0.039
818.9645	-0.0227
819.1329	0.4182
819.3013	0.0404
819.4697	0.1007
819.638	-0.1107
819.8064	-0.0356
819.9747	0.0303
820.143	0.0142
820.3113	-0.0911
820.4795	0.071
820.6477	0.0034
820.816	0.1009
820.9842	0.0363
821.1523	0.1169
821.3205	-0.0259
821.4886	0.0243
821.6567	0.0513
821.8248	0.0581
821.9929	-0.0739
822.1609	0.0693
822.329	0.0582
822.497	0.059
822.665	0.0628
822.833	-0.0085
823.0009	-0.1151
823.1688	-0.0671
823.3367	-0.1462
823.5046	0.247
823.6725	0.0375
823.8404	-0.1201
824.0082	0.0131
824.176	-0.0114
824.3438	0.2217
824.5116	0.1266
824.6793	-0.0979
824.847	-0.1242
825.0147	0.1882
825.1824	0.1926
825.3501	0.047
825.5177	0.0816
825.6854	0.2159
825.853	0.0149
826.0206	-0.0625
826.1881	-0.0115
826.3557	0.4416
826.5232	-0.0499
826.6907	0.0257
826.8582	-0.0598
827.0257	-0.106
827.1931	0.219
827.3605	-0.1054
827.528	0.096
827.6953	0.2315
827.8627	0.0237
828.03	0.1231
828.1974	-0.0647
828.3647	0.0438
828.532	0.1698
828.6992	-0.0946
828.8665	-0.0087
829.0337	-0.0614
829.2009	0.2016
829.3681	-0.0427
829.5352	0.1099
829.7024	0.2082
829.8695	-0.0575
830.0366	0.1211
830.2037	0.1597
830.3707	-0.0257
830.5378	0.1589
830.7048	-0.1318
830.8718	0.0575
831.0388	0.1237
831.2057	0.4469
831.3727	0.0316
831.5396	0.0236
831.7065	0.4091
831.8734	-0.3892
832.0402	0.1901
832.2071	-0.0903
832.3739	0.394
832.5407	-0
832.7075	-0.0541
832.8742	0.053
833.041	-0.1452
833.2077	0.2724
833.3744	0.1093
833.541	-0.1419
833.7077	0.1692
833.8743	0.0749
834.0409	-0.0162
834.2075	0.1069
834.3741	-0.0601
834.5407	-0.1209
834.7072	-0.09
834.8737	0.1264
835.0402	-0.3085
835.2067	-0
835.3731	0.04
835.5395	0.0038
835.706	0.2074
835.8723	0.2872
836.0387	0.2444
836.2051	0.0781
836.3714	-0.3749
836.5377	-0
836.704	0.0997
836.8703	-0.1593
837.0365	0.2448
837.2027	-0.4644
837.3689	0.0305
837.5351	-0.1558
837.7013	0.127
837.8674	-0.5802
838.0335	0.0004
838.1997	1.7057
838.3657	-0
838.5318	-0.5176
838.6978	-0
838.8639	0.1179
839.0299	0.2387
839.1958	0.1814
839.3618	0.0573
839.5277	-0.1341
839.6937	-0.4431
839.8596	0.7099
840.0254	0.3207
840.1913	0.8158
840.3571	0.1253
840.523	0.193
840.6888	0.532
840.8545	0.7811
841.0203	0.103
841.186	0.1634
841.3517	0.3051
841.5174	0.0724
841.6831	0.3195
841.8488	0.438
842.0144	0.6532
842.18	0.4751
842.3456	0.1063
842.5112	0.002
842.6767	-0.3115
842.8422	-0.0297
843.0077	0.7146
843.1732	0.1703
843.3387	-0.0161
843.5042	-0
843.6696	-0.0458
843.835	-0.0635
844.0004	0.094
844.1657	0.4231
844.3311	-0.458
844.4964	-0.0207
844.6617	-0.0568
844.827	0.5668
844.9923	0.3336
845.1575	-0
845.3227	0.3852
845.4879	0.0627
845.6531	0.0345
845.8183	0.5567
845.9834	-0
846.1485	-0.072
846.3136	0.3006
846.4787	-0
846.6438	2.7037
846.8088	-1.2488
846.9738	1.0996
847.1388	-0.0302
847.3038	-0.3956
847.4687	-0
847.6337	0.2182
847.7986	0.0342
847.9635	-0
848.1284	-0
848.2932	-0.156
848.458	1.3293
848.6228	0.2123
848.7876	-0.0753
848.9524	0.1405
849.1172	-0.1887
849.2819	-0.5176
849.4466	-0
849.6113	-0
849.7759	-0
849.9406	0.1514
850.1052	0.16
850.2698	-0
850.4344	1.2796
850.599	1.5157
850.7635	0.3234
850.928	0.7019
851.0925	-0.0336
851.257	-0.3852
851.4215	0.2967
851.5859	0.2321
851.7503	-0
851.9147	-1.2333
852.0791	-0.4731
852.2434	0.0321
852.4078	-0
852.5721	0.9513
852.7364	0.2872
852.9007	0.001
853.0649	0.5453
853.2291	0.7715
853.3934	0.1664
853.5575	0.0974
853.7217	-0
853.8859	-0
854.05	-1.0519
854.2141	-0
854.3782	1.574
854.5423	-0.8589
854.7063	-0.0421
854.8703	0.015
855.0343	0.0388
855.1983	-0.0501
855.3623	-0.0862
855.5262	-0.6976
855.6901	-0
855.854	0.1252
856.0179	-0.7602
856.1818	-0
856.3456	-0
856.5094	-0.2173
856.6732	-0
856.837	0.2457
857.0008	-0.2739
857.1645	-0
857.3282	-0.1824
857.4919	0.3448
857.6556	0.2317
857.8192	-0.3293
857.9828	-0.3943
858.1465	0.8249
858.31	-0
858.4736	-0.2451
858.6372	-0.4876
858.8007	-0.6957
858.9642	0.314
859.1277	-0
859.2911	0.1962
859.4546	0.1437
859.618	-0.0427
859.7814	-0
859.9448	-0.15
860.1081	-0
860.2715	-0
860.4348	0.4992
860.5981	-0.5484
860.7614	-0
860.9246	0.0678
861.0879	1.932
861.2511	0.0549
861.4143	-0
861.5774	-0
861.7406	0.044
861.9037	-0
862.0668	-0.6419
862.2299	-0
862.393	0.9047
862.556	0.3379
862.7191	0.0885
862.8821	-0.3049
863.0451	1.138
863.208	-0
863.371	-0
863.5339	-0.0346
863.6968	-0.3768
863.8597	-0
864.0225	-0.0383
864.1854	-0.1215
864.3482	0.6891
864.511	0.1386
864.6737	2.0846
864.8365	0.2
864.9992	0.5791
865.1619	-0.01
865.3246	-0.2823
865.4873	-0.7228
865.65	-0.7928
865.8126	-0
865.9752	-0
866.1378	-0.7435
866.3004	0.6214
866.4629	-0.191
866.6254	-0.6509
866.7879	-0
866.9504	-0
867.1129	-0
867.2753	-0.1411
867.4377	1.108
867.6001	0.3867
867.7625	0.257
867.9249	-0
868.0872	0.2862
868.2495	-0.122
868.4118	-0.1728
868.5741	-0
868.7363	-0
868.8986	0.2655
869.0608	0.3001
869.223	0.2294
869.3851	0.3795
869.5473	-0.9935
869.7094	-0
869.8715	0.1366
870.0336	-0.0995
870.1957	-0
870.3577	-0.033
870.5197	-0.026
870.6817	-0
870.8437	0.4813
871.0057	0.9608
871.1676	-0
871.3295	-0
871.4914	-0
871.6533	-0.3036
871.8151	-0.5229
871.977	0.6214
872.1388	-1.0583
872.3006	0.6411
872.4623	-0.5134
872.6241	-1.8613
872.7858	0.8658
872.9475	-0.6762
873.1092	0.2579
873.2709	0.2074
873.4325	0.7559
873.5941	-0
873.7557	-0
873.9173	-0.9755
874.0789	0.5026
874.2404	-0.3475
874.4019	-0.2867
874.5634	0.6254
874.7249	-0
874.8863	-0
875.0478	0.1727
875.2092	0.1836
875.3706	-0.3362
875.5319	-0
875.6933	0.0976
875.8546	0.0032
876.0159	0.0132
876.1772	-0.3266
876.3385	-0
876.4997	-0.2426
876.6609	-0
876.8221	0.0991
876.9833	-0.6645
877.1445	0.2144
877.3056	-0.0318
877.4667	-1.1117
877.6278	0.6216
877.7889	0.092
877.9499	-0
878.111	-0.0961
878.272	-0.4127
878.433	-0.501
878.5939	-0.1651
878.7549	-0
878.9158	0.9085
879.0767	-0.3768
879.2376	-0.4991
879.3984	0.0021
879.5593	-0.2637
879.7201	-0.4644
879.8809	-0.0225
880.0417	0.0681
880.2024	0.0321
880.3632	0.7825
880.5239	1.0489
880.6846	-0.041
880.8452	0.3395
881.0059	-0.6002
881.1665	-0
881.3271	-0.0285
881.4877	0.5347
881.6483	-0
881.8088	0.1387
881.9693	-0
882.1298	-0
882.2903	-0
