Data from D4ACN5uM480nmA_Absorbance_12-08-01-930.txt Node
Date: Fri Feb 21 12:08:01 GMT 2025
User: LASERRRRR
Spectrometer: FLMT03099
Trigger mode: 0
Integration Time (sec): 1.500000E-2
Scans to average: 1
Electric dark correction enabled: true
Nonlinearity correction enabled: false
Boxcar width: 0
XAxis mode: Wavelengths
Number of Pixels in Spectrum: 3648
>>>>>Begin Spectral Data<<<<<
179.3399	-0.0994
179.5586	-0.0994
179.7771	-0.0994
179.9957	0.1779
180.2143	0.5362
180.4329	-0
180.6514	-0
180.8699	-0.0524
181.0885	-0
181.307	-0
181.5255	0.7597
181.744	-0.1946
181.9625	1.2492
182.181	0.3809
182.3994	-0
182.6179	-0
182.8363	-0
183.0547	-0.2041
183.2732	0.2172
183.4916	0.2403
183.71	0.1225
183.9284	0.3116
184.1467	0.1046
184.3651	0.3301
184.5835	0.1109
184.8018	0.3861
185.0201	0.5466
185.2385	0.2705
185.4568	0.2153
185.6751	0.2531
185.8934	0.2856
186.1117	0.3324
186.3299	0.4065
186.5482	0.1375
186.7664	0.6088
186.9847	0.1672
187.2029	0.4428
187.4211	0.1017
187.6393	0.2252
187.8575	0.2925
188.0757	0.7827
188.2939	-0.0129
188.512	0.3274
188.7302	0.0323
188.9483	0.1513
189.1665	0.4893
189.3846	0.4065
189.6027	0.2029
189.8208	0.3309
190.0389	0.2262
190.257	0.2226
190.475	0.2227
190.6931	0.2155
190.9111	0.3437
191.1292	0.2675
191.3472	0.2829
191.5652	0.7862
191.7832	0.457
192.0012	0.4562
192.2192	0.2456
192.4371	0.2735
192.6551	0.3563
192.873	0.2794
193.091	0.3788
193.3089	0.3472
193.5268	0.4265
193.7447	0.4051
193.9626	0.4535
194.1805	0.3383
194.3984	0.3434
194.6162	0.4553
194.8341	0.9495
195.0519	0.53
195.2697	0.5765
195.4875	0.7434
195.7054	0.4697
195.9231	0.4724
196.1409	0.5424
196.3587	0.5507
196.5765	0.4414
196.7942	0.7518
197.012	0.5704
197.2297	0.5538
197.4474	0.7312
197.6651	0.7061
197.8828	0.7659
198.1005	0.6277
198.3182	0.5474
198.5358	0.5943
198.7535	0.5342
198.9711	0.5564
199.1888	0.549
199.4064	0.6858
199.624	0.7605
199.8416	0.614
200.0592	0.5695
200.2767	0.5556
200.4943	0.7358
200.7119	0.5645
200.9294	0.6274
201.1469	0.6013
201.3645	0.628
201.582	0.5482
201.7995	0.5683
202.017	0.5675
202.2344	0.578
202.4519	0.5218
202.6694	0.5497
202.8868	0.5947
203.1042	0.5401
203.3217	0.5511
203.5391	0.548
203.7565	0.5092
203.9739	0.4963
204.1913	0.5259
204.4086	0.5305
204.626	0.531
204.8433	0.4906
205.0607	0.5008
205.278	0.5557
205.4953	0.4833
205.7126	0.5138
205.9299	0.4712
206.1472	0.5101
206.3644	0.4898
206.5817	0.5003
206.7989	0.5069
207.0162	0.4264
207.2334	0.4672
207.4506	0.5106
207.6678	0.4709
207.885	0.4774
208.1022	0.4439
208.3194	0.4588
208.5365	0.4699
208.7537	0.4362
208.9708	0.4242
209.1879	0.4156
209.405	0.4049
209.6222	0.3859
209.8392	0.4444
210.0563	0.4299
210.2734	0.3941
210.4905	0.4372
210.7075	0.4365
210.9245	0.3995
211.1416	0.4263
211.3586	0.4212
211.5756	0.4163
211.7926	0.431
212.0096	0.3948
212.2265	0.4228
212.4435	0.4115
212.6604	0.4238
212.8774	0.4289
213.0943	0.4006
213.3112	0.407
213.5281	0.4293
213.745	0.4116
213.9619	0.4143
214.1788	0.4069
214.3956	0.4231
214.6125	0.3858
214.8293	0.4165
215.0461	0.4046
215.2629	0.4051
215.4798	0.4046
215.6965	0.3887
215.9133	0.4228
216.1301	0.3884
216.3469	0.3893
216.5636	0.4112
216.7803	0.4363
216.9971	0.4366
217.2138	0.4016
217.4305	0.4233
217.6472	0.4225
217.8639	0.4269
218.0805	0.4264
218.2972	0.4152
218.5138	0.4467
218.7305	0.4158
218.9471	0.4308
219.1637	0.4352
219.3803	0.4166
219.5969	0.4226
219.8135	0.4308
220.0301	0.4204
220.2466	0.4547
220.4632	0.4121
220.6797	0.4349
220.8962	0.4211
221.1127	0.4327
221.3292	0.4273
221.5457	0.421
221.7622	0.4407
221.9787	0.4598
222.1951	0.4292
222.4116	0.4379
222.628	0.4312
222.8444	0.4433
223.0608	0.4441
223.2772	0.4567
223.4936	0.4305
223.71	0.4365
223.9264	0.4483
224.1427	0.4528
224.3591	0.4679
224.5754	0.4554
224.7917	0.4573
225.008	0.4454
225.2243	0.4546
225.4406	0.4714
225.6569	0.4737
225.8732	0.4667
226.0894	0.4704
226.3057	0.4638
226.5219	0.4655
226.7381	0.4656
226.9543	0.4721
227.1705	0.4781
227.3867	0.5004
227.6029	0.4857
227.8191	0.4975
228.0352	0.5044
228.2513	0.486
228.4675	0.4906
228.6836	0.5039
228.8997	0.5049
229.1158	0.4913
229.3319	0.4853
229.548	0.5046
229.764	0.4968
229.9801	0.493
230.1961	0.5047
230.4121	0.5056
230.6282	0.503
230.8442	0.5151
231.0602	0.5344
231.2761	0.5284
231.4921	0.5068
231.7081	0.5242
231.924	0.5166
232.14	0.5249
232.3559	0.5277
232.5718	0.53
232.7877	0.5265
233.0036	0.5186
233.2195	0.527
233.4353	0.5279
233.6512	0.5331
233.867	0.5504
234.0829	0.5411
234.2987	0.5234
234.5145	0.5456
234.7303	0.5298
234.9461	0.5287
235.1619	0.5367
235.3776	0.5352
235.5934	0.534
235.8091	0.5263
236.0249	0.5355
236.2406	0.5395
236.4563	0.5422
236.672	0.5363
236.8877	0.5384
237.1034	0.5353
237.319	0.5413
237.5347	0.5262
237.7503	0.5384
237.966	0.5364
238.1816	0.5283
238.3972	0.5413
238.6128	0.547
238.8284	0.5506
239.0439	0.547
239.2595	0.5317
239.475	0.5393
239.6906	0.5283
239.9061	0.5251
240.1216	0.5403
240.3371	0.519
240.5526	0.5216
240.7681	0.5303
240.9836	0.5206
241.199	0.5234
241.4145	0.5054
241.6299	0.4878
241.8453	0.493
242.0607	0.4946
242.2761	0.4794
242.4915	0.4737
242.7069	0.4512
242.9223	0.4551
243.1376	0.4525
243.353	0.4438
243.5683	0.43
243.7836	0.4257
243.9989	0.4212
244.2142	0.408
244.4295	0.4071
244.6448	0.3919
244.86	0.3953
245.0753	0.3887
245.2905	0.381
245.5057	0.37
245.721	0.3532
245.9362	0.349
246.1514	0.3378
246.3665	0.3464
246.5817	0.3306
246.7969	0.3233
247.012	0.316
247.2271	0.3124
247.4423	0.3049
247.6574	0.308
247.8725	0.3011
248.0876	0.2947
248.3026	0.2872
248.5177	0.2863
248.7328	0.2796
248.9478	0.2657
249.1628	0.2682
249.3779	0.2672
249.5929	0.2549
249.8079	0.2562
250.0228	0.2455
250.2378	0.2489
250.4528	0.2487
250.6677	0.249
250.8827	0.2407
251.0976	0.2434
251.3125	0.2337
251.5274	0.2257
251.7423	0.229
251.9572	0.2214
252.172	0.2238
252.3869	0.2168
252.6017	0.216
252.8166	0.2197
253.0314	0.2194
253.2462	0.2158
253.461	0.2142
253.6758	0.206
253.8906	0.2079
254.1053	0.1991
254.3201	0.2012
254.5348	0.2053
254.7496	0.208
254.9643	0.2028
255.179	0.202
255.3937	0.2006
255.6083	0.2012
255.823	0.2036
256.0377	0.201
256.2523	0.1985
256.467	0.1992
256.6816	0.1971
256.8962	0.1958
257.1108	0.1948
257.3254	0.1939
257.54	0.1956
257.7545	0.1911
257.9691	0.1866
258.1836	0.1893
258.3981	0.1896
258.6127	0.1853
258.8272	0.1884
259.0417	0.1828
259.2561	0.1907
259.4706	0.1955
259.6851	0.1827
259.8995	0.1774
260.114	0.1867
260.3284	0.1845
260.5428	0.1779
260.7572	0.1881
260.9716	0.1887
261.186	0.1803
261.4003	0.1811
261.6147	0.1885
261.829	0.1811
262.0433	0.1819
262.2577	0.1894
262.472	0.1872
262.6863	0.1841
262.9005	0.1885
263.1148	0.1797
263.3291	0.1846
263.5433	0.188
263.7576	0.1836
263.9718	0.1898
264.186	0.1894
264.4002	0.187
264.6144	0.1942
264.8286	0.1901
265.0427	0.1892
265.2569	0.1878
265.471	0.1891
265.6851	0.1826
265.8993	0.1867
266.1134	0.1839
266.3275	0.1911
266.5415	0.183
266.7556	0.1808
266.9697	0.183
267.1837	0.1853
267.3978	0.1897
267.6118	0.1796
267.8258	0.1877
268.0398	0.1829
268.2538	0.1878
268.4677	0.1804
268.6817	0.1788
268.8957	0.1798
269.1096	0.1721
269.3235	0.1822
269.5374	0.1747
269.7514	0.1821
269.9652	0.1802
270.1791	0.1799
270.393	0.1799
270.6068	0.1731
270.8207	0.1756
271.0345	0.175
271.2483	0.1767
271.4622	0.1746
271.676	0.1747
271.8897	0.1767
272.1035	0.1756
272.3173	0.1712
272.531	0.1762
272.7448	0.1725
272.9585	0.1741
273.1722	0.1753
273.3859	0.1752
273.5996	0.1688
273.8133	0.1677
274.0269	0.1772
274.2406	0.1713
274.4542	0.1714
274.6679	0.1717
274.8815	0.174
275.0951	0.176
275.3087	0.1794
275.5223	0.1754
275.7358	0.179
275.9494	0.1756
276.1629	0.1766
276.3765	0.1719
276.59	0.1763
276.8035	0.1803
277.017	0.1749
277.2305	0.1748
277.444	0.1802
277.6574	0.1774
277.8709	0.1788
278.0843	0.183
278.2978	0.1795
278.5112	0.1843
278.7246	0.1815
278.938	0.174
279.1513	0.182
279.3647	0.1784
279.5781	0.1753
279.7914	0.1852
280.0047	0.1763
280.2181	0.185
280.4314	0.1802
280.6447	0.1846
280.8579	0.1832
281.0712	0.1767
281.2845	0.1839
281.4977	0.1896
281.711	0.1803
281.9242	0.1811
282.1374	0.1812
282.3506	0.1894
282.5638	0.1821
282.7769	0.1864
282.9901	0.1833
283.2033	0.1872
283.4164	0.1815
283.6295	0.187
283.8426	0.1889
284.0557	0.1838
284.2688	0.1821
284.4819	0.1888
284.695	0.1884
284.908	0.1944
285.1211	0.1901
285.3341	0.1966
285.5471	0.1924
285.7601	0.1898
285.9731	0.1946
286.1861	0.1903
286.3991	0.1869
286.612	0.1968
286.825	0.1914
287.0379	0.1947
287.2508	0.1944
287.4637	0.1954
287.6766	0.1958
287.8895	0.1881
288.1024	0.1931
288.3152	0.1952
288.5281	0.1988
288.7409	0.2022
288.9538	0.1974
289.1666	0.1968
289.3794	0.2
289.5922	0.1959
289.8049	0.206
290.0177	0.1967
290.2304	0.2026
290.4432	0.2006
290.6559	0.1948
290.8686	0.1983
291.0813	0.2006
291.294	0.2026
291.5067	0.2061
291.7194	0.1972
291.932	0.2018
292.1447	0.2001
292.3573	0.1949
292.5699	0.2047
292.7825	0.2009
292.9951	0.1956
293.2077	0.198
293.4203	0.2026
293.6328	0.1983
293.8454	0.1981
294.0579	0.2002
294.2704	0.2003
294.4829	0.2015
294.6954	0.197
294.9079	0.2065
295.1204	0.1964
295.3328	0.2002
295.5453	0.1959
295.7577	0.1952
295.9701	0.2012
296.1825	0.1933
296.3949	0.2057
296.6073	0.2045
296.8197	0.2009
297.0321	0.201
297.2444	0.197
297.4567	0.1942
297.6691	0.2
297.8814	0.2028
298.0937	0.1961
298.306	0.1977
298.5182	0.2075
298.7305	0.1974
298.9428	0.1946
299.155	0.1979
299.3672	0.2014
299.5794	0.1957
299.7916	0.2011
300.0038	0.1979
300.216	0.2023
300.4282	0.1984
300.6403	0.198
300.8525	0.2038
301.0646	0.1948
301.2767	0.1977
301.4888	0.2004
301.7009	0.1998
301.913	0.2012
302.125	0.1997
302.3371	0.2019
302.5491	0.2012
302.7612	0.1938
302.9732	0.1934
303.1852	0.1952
303.3972	0.1937
303.6092	0.1906
303.8211	0.1896
304.0331	0.1931
304.245	0.1935
304.457	0.1974
304.6689	0.197
304.8808	0.1914
305.0927	0.2
305.3046	0.1884
305.5164	0.1911
305.7283	0.1912
305.9401	0.1812
306.152	0.1846
306.3638	0.1776
306.5756	0.1892
306.7874	0.1768
306.9992	0.1794
307.2109	0.1719
307.4227	0.1729
307.6344	0.1775
307.8462	0.1682
308.0579	0.1681
308.2696	0.1654
308.4813	0.1634
308.693	0.1637
308.9046	0.1625
309.1163	0.1623
309.328	0.1537
309.5396	0.1604
309.7512	0.1522
309.9628	0.1533
310.1744	0.1563
310.386	0.1504
310.5976	0.145
310.8091	0.1493
311.0207	0.147
311.2322	0.1436
311.4437	0.1413
311.6552	0.1431
311.8667	0.1415
312.0782	0.1444
312.2897	0.1378
312.5012	0.1454
312.7126	0.1289
312.924	0.1357
313.1355	0.134
313.3469	0.126
313.5583	0.1321
313.7696	0.1294
313.981	0.1257
314.1924	0.1282
314.4037	0.1199
314.6151	0.1362
314.8264	0.1235
315.0377	0.127
315.249	0.1208
315.4603	0.1208
315.6716	0.1263
315.8828	0.1209
316.0941	0.1241
316.3053	0.1222
316.5165	0.1206
316.7277	0.1257
316.9389	0.1254
317.1501	0.1154
317.3613	0.1216
317.5724	0.1206
317.7836	0.1205
317.9947	0.1196
318.2058	0.1212
318.417	0.1189
318.6281	0.1142
318.8391	0.1241
319.0502	0.1207
319.2613	0.1146
319.4723	0.1168
319.6834	0.1221
319.8944	0.1278
320.1054	0.1162
320.3164	0.1161
320.5274	0.1111
320.7383	0.1191
320.9493	0.1175
321.1602	0.1147
321.3712	0.1215
321.5821	0.1141
321.793	0.1118
322.0039	0.118
322.2148	0.1186
322.4257	0.1131
322.6365	0.1168
322.8474	0.1133
323.0582	0.113
323.269	0.1136
323.4798	0.1162
323.6906	0.1146
323.9014	0.1129
324.1122	0.1157
324.3229	0.128
324.5337	0.1191
324.7444	0.1111
324.9551	0.119
325.1658	0.115
325.3765	0.1169
325.5872	0.1181
325.7979	0.1233
326.0085	0.1229
326.2192	0.1168
326.4298	0.1198
326.6404	0.123
326.851	0.1207
327.0616	0.1262
327.2722	0.121
327.4828	0.1154
327.6933	0.1165
327.9039	0.1204
328.1144	0.1188
328.3249	0.1241
328.5354	0.1204
328.7459	0.1234
328.9564	0.1302
329.1669	0.127
329.3773	0.1285
329.5878	0.1235
329.7982	0.1228
330.0086	0.122
330.219	0.1292
330.4294	0.1256
330.6398	0.1282
330.8502	0.123
331.0605	0.118
331.2708	0.1291
331.4812	0.1186
331.6915	0.1177
331.9018	0.1196
332.1121	0.1255
332.3224	0.129
332.5326	0.1223
332.7429	0.1201
332.9531	0.132
333.1633	0.1226
333.3735	0.1307
333.5837	0.1253
333.7939	0.1226
334.0041	0.1242
334.2143	0.1291
334.4244	0.12
334.6346	0.1217
334.8447	0.1313
335.0548	0.1249
335.2649	0.1234
335.475	0.1294
335.685	0.1294
335.8951	0.1291
336.1051	0.1328
336.3152	0.1268
336.5252	0.1251
336.7352	0.1237
336.9452	0.1336
337.1552	0.1305
337.3652	0.1258
337.5751	0.1269
337.7851	0.1257
337.995	0.1319
338.2049	0.1338
338.4148	0.1297
338.6247	0.132
338.8346	0.1293
339.0445	0.1346
339.2543	0.1355
339.4642	0.139
339.674	0.1359
339.8838	0.1317
340.0936	0.1298
340.3034	0.1393
340.5132	0.1328
340.7229	0.1406
340.9327	0.1405
341.1424	0.1382
341.3522	0.1404
341.5619	0.1334
341.7716	0.1396
341.9813	0.146
342.1909	0.1454
342.4006	0.146
342.6102	0.1375
342.8199	0.14
343.0295	0.1409
343.2391	0.1396
343.4487	0.1462
343.6583	0.1485
343.8679	0.1419
344.0774	0.1402
344.287	0.1464
344.4965	0.1441
344.706	0.1514
344.9155	0.1451
345.125	0.1472
345.3345	0.1454
345.544	0.1524
345.7534	0.1515
345.9629	0.1515
346.1723	0.1509
346.3817	0.1514
346.5911	0.1552
346.8005	0.153
347.0099	0.1515
347.2193	0.1503
347.4286	0.1616
347.638	0.1557
347.8473	0.156
348.0566	0.1575
348.2659	0.1565
348.4752	0.1616
348.6845	0.1623
348.8937	0.1604
349.103	0.1609
349.3122	0.1614
349.5214	0.1594
349.7306	0.1605
349.9398	0.1624
350.149	0.1661
350.3582	0.1655
350.5674	0.1685
350.7765	0.1656
350.9856	0.1629
351.1948	0.1596
351.4039	0.1674
351.613	0.1804
351.822	0.1697
352.0311	0.1685
352.2402	0.1665
352.4492	0.1737
352.6582	0.1734
352.8672	0.1734
353.0762	0.1679
353.2852	0.1733
353.4942	0.171
353.7032	0.1747
353.9121	0.1737
354.1211	0.1682
354.33	0.1783
354.5389	0.1847
354.7478	0.177
354.9567	0.1782
355.1655	0.183
355.3744	0.1772
355.5833	0.1817
355.7921	0.1811
356.0009	0.1876
356.2097	0.1937
356.4185	0.1839
356.6273	0.1829
356.8361	0.1893
357.0448	0.1965
357.2536	0.1858
357.4623	0.1843
357.671	0.1878
357.8797	0.1898
358.0884	0.1908
358.2971	0.1883
358.5057	0.1908
358.7144	0.1924
358.923	0.1892
359.1316	0.1978
359.3402	0.1971
359.5488	0.2034
359.7574	0.1992
359.966	0.2049
360.1746	0.1987
360.3831	0.2106
360.5916	0.2055
360.8002	0.2089
361.0087	0.2125
361.2172	0.2094
361.4256	0.2041
361.6341	0.2143
361.8426	0.2083
362.051	0.2111
362.2594	0.2181
362.4678	0.2178
362.6762	0.2221
362.8846	0.2244
363.093	0.2225
363.3014	0.2247
363.5097	0.2207
363.718	0.2287
363.9264	0.2267
364.1347	0.2285
364.343	0.2334
364.5513	0.231
364.7595	0.2302
364.9678	0.2309
365.176	0.2264
365.3842	0.231
365.5925	0.2335
365.8007	0.2404
366.0089	0.233
366.217	0.2365
366.4252	0.2375
366.6333	0.2249
366.8415	0.2407
367.0496	0.2399
367.2577	0.2471
367.4658	0.2493
367.6739	0.2477
367.882	0.2498
368.09	0.246
368.2981	0.2447
368.5061	0.2466
368.7141	0.2562
368.9221	0.2521
369.1301	0.2557
369.3381	0.262
369.5461	0.2519
369.754	0.2514
369.962	0.2562
370.1699	0.2572
370.3778	0.2563
370.5857	0.2581
370.7936	0.2606
371.0015	0.2524
371.2093	0.2641
371.4172	0.2629
371.625	0.2611
371.8328	0.2713
372.0406	0.2625
372.2484	0.2643
372.4562	0.2624
372.664	0.2716
372.8717	0.2694
373.0795	0.2662
373.2872	0.2631
373.4949	0.2736
373.7026	0.2797
373.9103	0.2687
374.118	0.2653
374.3256	0.284
374.5333	0.2741
374.7409	0.2753
374.9485	0.2703
375.1561	0.295
375.3637	0.2764
375.5713	0.2778
375.7789	0.2776
375.9864	0.2766
376.194	0.2885
376.4015	0.288
376.609	0.2873
376.8165	0.2829
377.024	0.2888
377.2315	0.2924
377.4389	0.2799
377.6464	0.286
377.8538	0.2979
378.0612	0.2788
378.2686	0.2856
378.476	0.2971
378.6834	0.2896
378.8908	0.2935
379.0981	0.2996
379.3055	0.3006
379.5128	0.2972
379.7201	0.2959
379.9274	0.2937
380.1347	0.2988
380.342	0.3055
380.5492	0.3018
380.7565	0.2941
380.9637	0.2922
381.1709	0.298
381.3781	0.3075
381.5853	0.2986
381.7925	0.3102
381.9997	0.3079
382.2068	0.2965
382.4139	0.3172
382.6211	0.3107
382.8282	0.3098
383.0353	0.307
383.2424	0.3165
383.4494	0.3165
383.6565	0.3158
383.8635	0.3124
384.0706	0.3193
384.2776	0.3187
384.4846	0.3173
384.6916	0.3137
384.8986	0.3147
385.1055	0.3163
385.3125	0.3131
385.5194	0.3081
385.7263	0.3148
385.9333	0.3147
386.1402	0.3137
386.347	0.3064
386.5539	0.3178
386.7608	0.309
386.9676	0.316
387.1744	0.3237
387.3813	0.3084
387.5881	0.3159
387.7948	0.3156
388.0016	0.3126
388.2084	0.3088
388.4151	0.3045
388.6219	0.3052
388.8286	0.3049
389.0353	0.3052
389.242	0.3083
389.4487	0.3064
389.6553	0.3026
389.862	0.3034
390.0686	0.3168
390.2753	0.3044
390.4819	0.3044
390.6885	0.3048
390.8951	0.3212
391.1016	0.3097
391.3082	0.2988
391.5147	0.3022
391.7213	0.2937
391.9278	0.3057
392.1343	0.2995
392.3408	0.2851
392.5473	0.2834
392.7537	0.2921
392.9602	0.2882
393.1666	0.2891
393.373	0.2852
393.5794	0.2893
393.7858	0.2867
393.9922	0.29
394.1986	0.285
394.4049	0.2874
394.6113	0.2913
394.8176	0.2744
395.0239	0.288
395.2302	0.2811
395.4365	0.2844
395.6428	0.2792
395.8491	0.2652
396.0553	0.2748
396.2615	0.2687
396.4678	0.2763
396.674	0.271
396.8802	0.2697
397.0863	0.2731
397.2925	0.271
397.4987	0.2766
397.7048	0.2705
397.9109	0.2833
398.117	0.269
398.3231	0.283
398.5292	0.2741
398.7353	0.2699
398.9413	0.266
399.1474	0.2697
399.3534	0.2737
399.5594	0.2772
399.7654	0.2664
399.9714	0.267
400.1774	0.2637
400.3833	0.2714
400.5893	0.2653
400.7952	0.2749
401.0011	0.2611
401.207	0.2707
401.4129	0.2719
401.6188	0.2624
401.8247	0.2741
402.0305	0.2652
402.2364	0.2695
402.4422	0.2783
402.648	0.277
402.8538	0.2748
403.0596	0.2632
403.2654	0.2635
403.4711	0.2704
403.6768	0.267
403.8826	0.2732
404.0883	0.2572
404.294	0.2815
404.4997	0.2599
404.7054	0.2717
404.911	0.2667
405.1167	0.2744
405.3223	0.2751
405.5279	0.276
405.7335	0.2601
405.9391	0.2647
406.1447	0.26
406.3502	0.2698
406.5558	0.267
406.7613	0.2682
406.9668	0.2608
407.1724	0.2735
407.3778	0.2698
407.5833	0.2696
407.7888	0.2773
407.9942	0.2734
408.1997	0.2746
408.4051	0.27
408.6105	0.2718
408.8159	0.2678
409.0213	0.2728
409.2267	0.2689
409.432	0.2741
409.6374	0.2757
409.8427	0.2755
410.048	0.2571
410.2533	0.2619
410.4586	0.2645
410.6639	0.2632
410.8691	0.2657
411.0744	0.2664
411.2796	0.2654
411.4848	0.255
411.69	0.2708
411.8952	0.2702
412.1004	0.2631
412.3056	0.261
412.5107	0.2707
412.7158	0.2728
412.921	0.2717
413.1261	0.2707
413.3312	0.2599
413.5362	0.2611
413.7413	0.2682
413.9464	0.2635
414.1514	0.256
414.3564	0.2574
414.5614	0.2633
414.7664	0.262
414.9714	0.2755
415.1764	0.2605
415.3813	0.2527
415.5863	0.2656
415.7912	0.2667
415.9961	0.256
416.201	0.2675
416.4059	0.2572
416.6108	0.2575
416.8156	0.2453
417.0205	0.2645
417.2253	0.2674
417.4301	0.2674
417.6349	0.2597
417.8397	0.2623
418.0445	0.2639
418.2492	0.2648
418.454	0.2615
418.6587	0.257
418.8634	0.265
419.0681	0.2574
419.2728	0.2511
419.4775	0.2592
419.6822	0.2466
419.8868	0.2517
420.0915	0.2557
420.2961	0.2435
420.5007	0.2467
420.7053	0.2458
420.9099	0.2441
421.1144	0.2395
421.319	0.2421
421.5235	0.2416
421.728	0.2387
421.9325	0.2431
422.137	0.2394
422.3415	0.2459
422.546	0.2359
422.7504	0.233
422.9549	0.2496
423.1593	0.2315
423.3637	0.2327
423.5681	0.2451
423.7725	0.2423
423.9769	0.2488
424.1812	0.2337
424.3856	0.2404
424.5899	0.2357
424.7942	0.2302
424.9985	0.2287
425.2028	0.2344
425.4071	0.2321
425.6113	0.2184
425.8156	0.235
426.0198	0.2307
426.224	0.2294
426.4282	0.2206
426.6324	0.2289
426.8366	0.2218
427.0407	0.228
427.2449	0.2186
427.449	0.2193
427.6531	0.2164
427.8572	0.2195
428.0613	0.2117
428.2654	0.2151
428.4694	0.2044
428.6735	0.202
428.8775	0.2149
429.0815	0.2133
429.2855	0.1984
429.4895	0.1964
429.6935	0.1905
429.8975	0.2051
430.1014	0.1957
430.3053	0.1918
430.5093	0.193
430.7132	0.193
430.9171	0.1969
431.1209	0.194
431.3248	0.1803
431.5286	0.1724
431.7325	0.1861
431.9363	0.1883
432.1401	0.184
432.3439	0.1746
432.5477	0.1929
432.7514	0.1818
432.9552	0.1667
433.1589	0.1756
433.3627	0.1784
433.5664	0.1727
433.7701	0.1693
433.9737	0.1671
434.1774	0.1748
434.3811	0.1715
434.5847	0.1558
434.7883	0.1631
434.9919	0.1487
435.1955	0.1638
435.3991	0.1572
435.6027	0.1527
435.8062	0.1595
436.0098	0.1493
436.2133	0.1472
436.4168	0.1416
436.6203	0.1398
436.8238	0.1475
437.0272	0.1323
437.2307	0.1284
437.4341	0.1288
437.6375	0.131
437.841	0.1385
438.0443	0.1291
438.2477	0.1302
438.4511	0.1317
438.6545	0.1376
438.8578	0.13
439.0611	0.123
439.2644	0.1203
439.4677	0.1192
439.671	0.117
439.8743	0.1129
440.0775	0.112
440.2808	0.1262
440.484	0.1133
440.6872	0.1042
440.8904	0.1108
441.0936	0.1137
441.2967	0.0997
441.4999	0.102
441.703	0.0978
441.9062	0.1007
442.1093	0.0977
442.3124	0.0996
442.5155	0.1033
442.7185	0.0842
442.9216	0.092
443.1246	0.0937
443.3276	0.0857
443.5307	0.0847
443.7337	0.0874
443.9366	0.0887
444.1396	0.0798
444.3426	0.0886
444.5455	0.0683
444.7484	0.0747
444.9513	0.086
445.1542	0.0702
445.3571	0.0652
445.56	0.07
445.7628	0.0736
445.9657	0.0711
446.1685	0.0766
446.3713	0.0675
446.5741	0.0634
446.7769	0.0738
446.9797	0.0593
447.1824	0.0668
447.3852	0.0606
447.5879	0.0663
447.7906	0.0575
447.9933	0.0697
448.196	0.0547
448.3986	0.051
448.6013	0.0535
448.8039	0.0576
449.0066	0.0513
449.2092	0.0465
449.4118	0.0487
449.6143	0.0524
449.8169	0.0526
450.0195	0.0514
450.222	0.0493
450.4245	0.0513
450.627	0.0425
450.8295	0.0459
451.032	0.0466
451.2345	0.0417
451.4369	0.0474
451.6394	0.0433
451.8418	0.0462
452.0442	0.055
452.2466	0.0411
452.449	0.0353
452.6513	0.0341
452.8537	0.0397
453.056	0.0332
453.2583	0.0443
453.4607	0.028
453.663	0.0418
453.8652	0.0339
454.0675	0.039
454.2697	0.0375
454.472	0.0335
454.6742	0.0292
454.8764	0.028
455.0786	0.0304
455.2808	0.0296
455.4829	0.031
455.6851	0.0292
455.8872	0.0306
456.0893	0.0252
456.2915	0.0223
456.4935	0.0174
456.6956	0.0333
456.8977	0.022
457.0997	0.0229
457.3018	0.0212
457.5038	0.0319
457.7058	0.0184
457.9078	0.0268
458.1098	0.0205
458.3117	0.0182
458.5137	0.027
458.7156	0.0326
458.9175	0.0205
459.1194	0.0263
459.3213	0.0157
459.5232	0.0103
459.725	0.0219
459.9269	0.0217
460.1287	0.0132
460.3305	0.0141
460.5323	0.0256
460.7341	0.0118
460.9359	0.0217
461.1376	0.0176
461.3394	0.012
461.5411	0.014
461.7428	0.015
461.9445	0.0105
462.1462	0.0055
462.3479	0.0167
462.5495	0.0157
462.7512	0.0161
462.9528	0.0136
463.1544	0.0087
463.356	0.0176
463.5576	0.0093
463.7592	0.0066
463.9607	0.0145
464.1623	0.0165
464.3638	0.0117
464.5653	0.0178
464.7668	0.0103
464.9683	0.0156
465.1697	0.0082
465.3712	0.0156
465.5726	0.0152
465.7741	0.0098
465.9755	0.0147
466.1769	0.006
466.3782	0.0097
466.5796	0.0092
466.7809	0.0105
466.9823	0.0076
467.1836	0.0211
467.3849	0.0068
467.5862	-0.0007
467.7875	0.0119
467.9887	0.0052
468.19	0.0076
468.3912	0.0011
468.5924	0.0129
468.7936	0.0046
468.9948	0.0144
469.196	0.0061
469.3972	0.0179
469.5983	0.0059
469.7994	0.0005
470.0006	0.0119
470.2017	0.0089
470.4027	-0.0015
470.6038	0.0008
470.8049	0.0002
471.0059	0.0125
471.2069	0.0113
471.408	-0.0017
471.6089	0.0219
471.8099	0.0088
472.0109	0.0085
472.2119	0.0117
472.4128	0.0052
472.6137	0.0047
472.8146	0.0041
473.0155	0.0017
473.2164	-0.0071
473.4173	0.0141
473.6181	0.0122
473.819	-0.0032
474.0198	0.0024
474.2206	0.011
474.4214	0.0109
474.6222	0.0063
474.8229	0.0138
475.0237	0.0101
475.2244	0.0117
475.4251	-0.001
475.6258	0.0023
475.8265	0.0014
476.0272	0.0042
476.2278	0.0046
476.4285	-0.0041
476.6291	0.0135
476.8297	-0.0003
477.0303	0.0042
477.2309	-0.0002
477.4315	0.0141
477.632	-0.001
477.8326	0.0009
478.0331	0.0009
478.2336	0.0109
478.4341	0.0041
478.6346	0.0028
478.8351	0.0116
479.0355	0.0115
479.236	0.0128
479.4364	-0.0007
479.6368	0.0025
479.8372	0.0098
480.0376	0.0041
480.2379	0.0037
480.4383	-0.001
480.6386	0.0034
480.8389	0.0092
481.0392	0.0058
481.2395	0.0084
481.4398	0.004
481.6401	0.0031
481.8403	-0
482.0405	-0.0005
482.2408	0.0057
482.441	0.0059
482.6411	-0.0018
482.8413	-0.0044
483.0415	-0.0015
483.2416	-0.0057
483.4417	-0.0001
483.6419	0.0031
483.8419	0.0031
484.042	0.0051
484.2421	0.0079
484.4422	0.0052
484.6422	0.0095
484.8422	0.0047
485.0422	-0.002
485.2422	0.002
485.4422	-0.005
485.6422	0.001
485.8421	0.0011
486.042	0.0043
486.242	0.0022
486.4419	0.0041
486.6417	0.0073
486.8416	0.0063
487.0415	-0.0026
487.2413	0.0064
487.4411	0.0072
487.641	0.0082
487.8408	0.0079
488.0405	0.0107
488.2403	-0.0069
488.4401	-0.007
488.6398	0.0075
488.8395	0.0061
489.0392	0.0016
489.2389	0.0018
489.4386	-0.0044
489.6383	-0.0014
489.8379	0.0008
490.0376	0.0048
490.2372	-0.0044
490.4368	0.018
490.6364	0.0088
490.836	-0.0037
491.0355	0.0013
491.2351	0.0011
491.4346	-0.0018
491.6341	-0.0082
491.8336	-0.0049
492.0331	-0.0046
492.2326	0.0007
492.432	0.0106
492.6315	-0.0113
492.8309	0.0049
493.0303	-0.0022
493.2297	-0.0034
493.4291	-0.0062
493.6284	0.001
493.8278	0.0033
494.0271	0.0037
494.2264	0.0086
494.4257	-0.0002
494.625	0.0009
494.8243	0.0031
495.0236	0.0059
495.2228	-0.0012
495.422	0.0016
495.6213	0.0031
495.8205	0.0039
496.0196	0.0019
496.2188	-0.002
496.418	-0.0025
496.6171	0.0023
496.8162	0.0009
497.0153	0.0083
497.2144	0.0006
497.4135	0.0048
497.6126	-0.0073
497.8116	-0.0067
498.0107	0.002
498.2097	0.009
498.4087	0.0022
498.6077	0.0032
498.8067	0.0135
499.0056	-0.0023
499.2046	0.001
499.4035	-0.003
499.6024	0.0043
499.8013	0.0022
500.0002	0.0107
500.199	-0.001
500.3979	0.0123
500.5967	-0.0086
500.7956	0.0017
500.9944	-0.0042
501.1932	0.0073
501.3919	0.0039
501.5907	0.0069
501.7895	-0.0076
501.9882	-0.0006
502.1869	0.0077
502.3856	-0.0026
502.5843	0.0088
502.783	0.0142
502.9816	-0.0053
503.1803	0.008
503.3789	0.0111
503.5775	0.0053
503.7761	0.0014
503.9747	0.0007
504.1732	-0.0021
504.3718	-0.0061
504.5703	-0.0071
504.7689	0.0006
504.9674	0.0005
505.1658	-0.0032
505.3643	-0.0013
505.5628	0.0069
505.7612	0.0078
505.9597	0.004
506.1581	-0.0006
506.3565	-0.0119
506.5549	0.0069
506.7532	-0.0011
506.9516	0.0029
507.1499	0.0041
507.3482	0.0118
507.5465	-0.0028
507.7448	0.0067
507.9431	0.0025
508.1414	-0.0011
508.3396	-0.0005
508.5379	0.0074
508.7361	0.0085
508.9343	0.0052
509.1325	0.0042
509.3306	-0.0001
509.5288	0.0037
509.7269	0.0064
509.9251	0.0004
510.1232	-0.0054
510.3213	-0.0008
510.5193	0.0061
510.7174	-0.0015
510.9154	0.0037
511.1135	-0.0001
511.3115	-0.0019
511.5095	0.0011
511.7075	0.0039
511.9055	0.0032
512.1034	0.0095
512.3014	-0.0057
512.4993	0.0109
512.6972	0.0043
512.8951	0.0083
513.093	-0.0002
513.2908	-0.001
513.4887	0.0048
513.6865	-0.0003
513.8844	0.0044
514.0822	0.0017
514.2799	-0.0024
514.4777	0.0073
514.6755	0.007
514.8732	0.0009
515.0709	0.0036
515.2687	0.001
515.4664	-0.0114
515.664	0.0022
515.8617	0.0121
516.0594	0.0034
516.257	0.0073
516.4546	-0.0024
516.6522	0
516.8498	-0.0018
517.0474	-0.0041
517.2449	-0.0034
517.4425	0.0061
517.64	0.0037
517.8375	0.0058
518.035	0.0051
518.2325	-0.0078
518.43	-0.0041
518.6274	0.0075
518.8249	-0.0002
519.0223	0.0004
519.2197	0.0028
519.4171	0.007
519.6145	-0.0048
519.8118	0.0017
520.0092	0.0003
520.2065	0.0023
520.4038	-0.0026
520.6011	0.0062
520.7984	0
520.9956	-0.0016
521.1929	0.0014
521.3901	0.0049
521.5874	0.0011
521.7846	0.0022
521.9818	-0.0023
522.1789	0.0051
522.3761	0.0097
522.5732	0.0004
522.7704	-0.0003
522.9675	-0.0061
523.1646	0.0145
523.3617	-0.006
523.5587	0.0005
523.7558	0.0046
523.9528	0.0057
524.1498	0.0041
524.3468	-0.0008
524.5438	0.0057
524.7408	-0.0127
524.9378	0.0061
525.1347	0.0096
525.3316	0.0135
525.5285	0.0032
525.7254	0.0108
525.9223	-0.0003
526.1192	-0.0062
526.316	-0.0011
526.5129	0.0051
526.7097	-0.0082
526.9065	0.0024
527.1033	-0.0088
527.3	-0.0006
527.4968	-0.0065
527.6935	-0.001
527.8903	0.0046
528.087	0.0118
528.2837	0.0034
528.4804	0.0058
528.677	0.0033
528.8737	-0.0019
529.0703	0.0067
529.2669	-0.0031
529.4635	0.0151
529.6601	0.003
529.8567	0.0026
530.0532	0.0016
530.2498	-0.0054
530.4463	0.014
530.6428	-0.0024
530.8393	0.0009
531.0358	0.0035
531.2322	0.003
531.4287	0.0051
531.6251	0.0004
531.8215	0.0028
532.0179	-0.0044
532.2143	0.0164
532.4107	0.0131
532.607	-0.0014
532.8034	0.0028
532.9997	0.0046
533.196	0.0169
533.3923	0.0051
533.5886	-0.0039
533.7848	-0.0091
533.9811	-0.0022
534.1773	-0.0012
534.3735	0.0058
534.5697	0.0035
534.7659	0.0143
534.9621	0.0058
535.1582	0.0046
535.3544	0.0083
535.5505	0.0047
535.7466	-0.0024
535.9427	-0.003
536.1387	0.0062
536.3348	0.0102
536.5308	0.0058
536.7269	0.0023
536.9229	-0.0041
537.1189	0.0005
537.3148	-0.0046
537.5108	0.0004
537.7068	0.0004
537.9027	0.0055
538.0986	-0.0002
538.2945	0.0059
538.4904	-0.001
538.6863	0.0121
538.8821	-0.0033
539.078	0.0036
539.2738	-0.0084
539.4696	0.0073
539.6654	0.005
539.8611	-0.0034
540.0569	-0.0044
540.2526	-0.0021
540.4484	-0.0108
540.6441	0.006
540.8398	0.0015
541.0355	0.0062
541.2311	0.0097
541.4268	-0.0015
541.6224	0.0011
541.818	-0.0017
542.0136	0.0005
542.2092	-0.0032
542.4048	-0.0015
542.6003	0.0018
542.7959	0.0113
542.9914	0.0119
543.1869	-0.0051
543.3824	-0.0034
543.5779	0.0015
543.7734	-0.0068
543.9688	-0.0063
544.1642	0.0102
544.3596	-0.0082
544.555	0.0029
544.7504	0.0001
544.9458	0.0027
545.1411	-0.0016
545.3365	0.0058
545.5318	-0.0026
545.7271	0.0047
545.9224	-0.0018
546.1177	0.0101
546.3129	-0.0047
546.5081	-0.0034
546.7034	0.0041
546.8986	-0.0053
547.0938	-0.0089
547.289	0.0048
547.4841	-0.0023
547.6793	-0.0012
547.8744	0.0006
548.0695	-0.0041
548.2646	-0.003
548.4597	0.0017
548.6548	0.0041
548.8498	0.0015
549.0448	0.0115
549.2399	-0.0031
549.4349	0.0088
549.6298	-0.0109
549.8248	0.0073
550.0198	0.0085
550.2147	-0.0079
550.4096	-0.0047
550.6045	-0.0009
550.7994	-0.0025
550.9943	0.0008
551.1892	-0.0015
551.384	0.0048
551.5788	0.0062
551.7737	-0.0075
551.9685	0.0036
552.1632	0.0061
552.358	0.0045
552.5528	-0.0042
552.7475	-0.0111
552.9422	0.005
553.1369	0.0057
553.3316	0.0034
553.5263	-0.006
553.7209	0.0005
553.9156	0.001
554.1102	-0.0062
554.3048	0.0133
554.4994	0.0019
554.694	0.0001
554.8885	0.0032
555.0831	0.0045
555.2776	-0.0015
555.4721	-0.0073
555.6666	-0.003
555.8611	-0.0064
556.0555	0.02
556.25	-0.009
556.4444	0.0075
556.6388	0.004
556.8332	0.0022
557.0276	0.0109
557.222	-0.0065
557.4163	0.0038
557.6107	0.0045
557.805	0.0044
557.9993	-0.0042
558.1936	0.0061
558.3879	-0.0022
558.5821	-0.0021
558.7764	0.0159
558.9706	-0.0139
559.1648	-0.0009
559.359	0.0158
559.5532	-0.0067
559.7473	0.0135
559.9415	-0.0031
560.1356	0.0065
560.3297	0.0036
560.5238	0.0008
560.7179	-0.007
560.9119	0.0058
561.106	-0.0035
561.3	-0.0035
561.494	0.0051
561.688	0.0067
561.882	0.0018
562.076	0.0128
562.2699	0.0041
562.4639	0.0103
562.6578	0.002
562.8517	0.0045
563.0456	0.0032
563.2395	-0.0003
563.4333	-0.0038
563.6272	0.0155
563.821	0.0056
564.0148	0.002
564.2086	0.0019
564.4024	-0.0024
564.5961	0.0077
564.7899	-0.0037
564.9836	0.0051
565.1773	0.0035
565.371	-0.0029
565.5647	-0.0061
565.7584	0.0015
565.952	0.0034
566.1456	0.0013
566.3393	0.0084
566.5329	-0.0087
566.7264	0.0047
566.92	-0.0013
567.1136	0.01
567.3071	0.0051
567.5006	-0.0037
567.6941	0.0043
567.8876	-0.0019
568.0811	-0.0076
568.2745	0.0004
568.468	0.0037
568.6614	-0.001
568.8548	0.0037
569.0482	0.0038
569.2416	-0.004
569.4349	0.0075
569.6283	-0.0044
569.8216	0.0014
570.0149	0.0012
570.2082	-0.0037
570.4015	0.0034
570.5947	0.0006
570.788	0.0025
570.9812	-0.0028
571.1744	-0.0041
571.3676	0.0011
571.5608	-0.0028
571.754	-0.0014
571.9471	0.0043
572.1402	-0.0007
572.3333	-0.001
572.5264	0.0081
572.7195	0.0036
572.9126	0.0025
573.1057	-0.001
573.2987	0.0015
573.4917	0.0024
573.6847	-0.0012
573.8777	0.0001
574.0707	-0.0037
574.2636	0.0034
574.4566	0.001
574.6495	0.0029
574.8424	0.0018
575.0353	-0.0015
575.2281	-0.0008
575.421	-0.004
575.6138	-0.002
575.8067	0.0001
575.9995	0.0055
576.1923	0.0024
576.385	-0.0012
576.5778	-0.0014
576.7706	0.0052
576.9633	0.0018
577.156	-0.0005
577.3487	0.0017
577.5414	0.001
577.734	0.0002
577.9267	0.0007
578.1193	-0.0022
578.3119	-0.0062
578.5045	-0.0016
578.6971	0.0009
578.8897	0.0002
579.0822	0.0032
579.2747	-0.0079
579.4673	0.0006
579.6598	0
579.8522	-0.0016
580.0447	-0.0013
580.2372	0.0024
580.4296	-0.0034
580.622	0.001
580.8144	0.0025
581.0068	0.0003
581.1992	0.0028
581.3915	0.0018
581.5839	0.0021
581.7762	0.0024
581.9685	-0.0018
582.1608	0.0003
582.353	-0.0019
582.5453	-0.0015
582.7375	0.0038
582.9298	0.0004
583.122	-0.0017
583.3142	0.0009
583.5063	-0.0054
583.6985	-0.0052
583.8906	-0.0001
584.0827	-0.0015
584.2749	-0.0008
584.4669	-0.0011
584.659	0.0025
584.8511	-0.0006
585.0431	-0.0007
585.2352	-0.0067
585.4272	-0.0027
585.6192	0.0001
585.8111	-0.0043
586.0031	-0.0013
586.195	0.0014
586.387	0.0018
586.5789	0.0028
586.7708	-0.0009
586.9627	0.0039
587.1545	-0.0017
587.3464	0.0047
587.5382	-0.0029
587.73	0.0015
587.9218	-0.0018
588.1136	-0.0015
588.3053	-0.0008
588.4971	0.0022
588.6888	0.0021
588.8805	0.0027
589.0722	0.0031
589.2639	0.0036
589.4556	-0.0099
589.6472	0.0025
589.8389	0.0011
590.0305	-0.0002
590.2221	0.0072
590.4137	-0.0026
590.6052	-0.0057
590.7968	0.0065
590.9883	0.0047
591.1798	-0.0032
591.3713	0.0036
591.5628	0.0017
591.7543	0
591.9458	0.0007
592.1372	-0.0029
592.3286	-0.0064
592.52	-0.0018
592.7114	-0.0037
592.9028	-0.0009
593.0941	-0.0037
593.2855	0.0042
593.4768	0.0039
593.6681	-0.0015
593.8594	-0.0005
594.0506	0.0055
594.2419	-0.0021
594.4331	0.0007
594.6244	0.0003
594.8156	-0.0019
595.0067	0.0034
595.1979	-0.0051
595.3891	-0.0036
595.5802	-0.0021
595.7713	-0.0006
595.9624	-0.0018
596.1535	-0.0066
596.3446	0.002
596.5357	-0.0032
596.7267	-0.0037
596.9177	-0.0036
597.1087	0.004
597.2997	0.0069
597.4907	0.0071
597.6817	0.0011
597.8726	0.0018
598.0635	0.0031
598.2544	-0.0038
598.4453	-0.0021
598.6362	-0.0039
598.827	0.0017
599.0179	0.0012
599.2087	0.0001
599.3995	0.0018
599.5903	0.0049
599.7811	-0.0003
599.9718	0.0001
600.1626	-0.0021
600.3533	-0.0024
600.544	0.0055
600.7347	-0.0002
600.9254	0.0031
601.116	0.0011
601.3067	0.0023
601.4973	0.006
601.6879	0.0033
601.8785	-0.0012
602.0691	0.0046
602.2596	-0.0071
602.4502	0.0027
602.6407	0.0094
602.8312	0.0052
603.0217	0.0024
603.2122	0.0051
603.4027	-0.0037
603.5931	0.006
603.7835	0.0003
603.9739	0.0061
604.1643	0.0001
604.3547	0.0015
604.5451	-0.0028
604.7354	-0.0009
604.9257	-0.002
605.116	-0.001
605.3063	-0.0059
605.4966	0.0065
605.6869	-0.0054
605.8771	0.0025
606.0673	-0.002
606.2575	-0.0028
606.4477	0.0096
606.6379	-0.0005
606.8281	-0.0045
607.0182	-0.0023
607.2083	-0.0002
607.3985	0.0024
607.5885	0.0049
607.7786	0.0037
607.9687	-0.0065
608.1587	-0.007
608.3488	-0.0024
608.5388	-0.0031
608.7288	-0.0016
608.9187	0.011
609.1087	0.0014
609.2986	0.0014
609.4886	0.005
609.6785	0.0036
609.8684	-0.0037
610.0582	-0.0001
610.2481	-0.0073
610.4379	0.003
610.6278	0.0006
610.8176	-0.0071
611.0074	0.002
611.1971	0.0084
611.3869	0.0009
611.5766	-0.0018
611.7664	0.0106
611.9561	0.0028
612.1458	-0.0026
612.3354	0.0022
612.5251	0.0057
612.7147	0.0007
612.9044	-0.004
613.094	-0.0035
613.2836	-0.0003
613.4731	-0.0076
613.6627	-0.0019
613.8522	-0.004
614.0417	-0.0001
614.2313	-0.0065
614.4207	0.0004
614.6102	-0.0001
614.7997	-0.0036
614.9891	-0.0017
615.1785	-0.0029
615.3679	0.0031
615.5573	-0.0025
615.7467	-0.0036
615.9361	-0.0041
616.1254	0.0009
616.3147	0.0044
616.504	-0.0012
616.6933	0.0005
616.8826	0.011
617.0718	-0.0088
617.2611	-0.001
617.4503	-0.0002
617.6395	0.0011
617.8287	0.0017
618.0179	0.0004
618.207	0.0055
618.3961	-0.0003
618.5853	0.0015
618.7744	0.0038
618.9634	-0.0041
619.1525	-0.0021
619.3416	-0.0009
619.5306	0.0025
619.7196	-0.0038
619.9086	0.0109
620.0976	0.0025
620.2866	0.0054
620.4755	0.0181
620.6645	-0.008
620.8534	-0.0047
621.0423	-0.004
621.2312	-0.0071
621.42	-0.0041
621.6089	0.0072
621.7977	-0.001
621.9865	0.0098
622.1753	0.014
622.3641	-0.0106
622.5529	-0.0035
622.7416	-0.007
622.9303	-0.0053
623.1191	-0.0055
623.3078	-0.0021
623.4964	-0.0131
623.6851	0.0081
623.8737	0.003
624.0624	-0.002
624.251	-0.0058
624.4396	0.0002
624.6282	0.0063
624.8167	0.0042
625.0053	-0.0009
625.1938	0.0014
625.3823	-0.0105
625.5708	-0.0056
625.7593	0.0029
625.9477	-0.0036
626.1362	-0.0061
626.3246	-0.0063
626.513	0.0038
626.7014	-0.0007
626.8898	0.0079
627.0781	0.0005
627.2665	0.0054
627.4548	-0.0086
627.6431	-0.009
627.8314	0.0165
628.0197	0.0004
628.2079	-0.0004
628.3962	-0.0068
628.5844	-0.0037
628.7726	-0.0023
628.9608	-0.0024
629.1489	-0.0091
629.3371	-0.004
629.5252	0.0116
629.7134	0.0104
629.9015	0.0032
630.0895	0.0034
630.2776	-0.0055
630.4657	0.0119
630.6537	-0.0094
630.8417	-0.0016
631.0297	-0.0005
631.2177	0.0007
631.4057	-0.0059
631.5936	0.0013
631.7815	-0.0096
631.9695	0.0248
632.1574	-0.0014
632.3452	-0.003
632.5331	0.0025
632.7209	-0.0041
632.9088	0.0014
633.0966	0.0108
633.2844	-0.0065
633.4722	0.0159
633.6599	-0.0247
633.8477	-0.0047
634.0354	-0.0016
634.2231	0.0141
634.4108	0.0033
634.5985	-0.0001
634.7861	-0.0171
634.9738	0.0081
635.1614	0.0184
635.349	-0.0098
635.5366	0.0058
635.7242	-0.0021
635.9117	0.0163
636.0993	-0.0211
636.2868	0.004
636.4743	0.0067
636.6618	0.0077
636.8492	-0.0063
637.0367	0.0047
637.2241	-0.0024
637.4115	0.0038
637.5989	0.015
637.7863	-0.0122
637.9737	0.0156
638.161	-0.0035
638.3484	-0.0044
638.5357	-0.0013
638.723	-0.001
638.9103	0.0068
639.0975	0.0015
639.2848	0.0183
639.472	-0.0018
639.6592	0.0141
639.8464	0.0147
640.0336	0.0073
640.2208	-0.0079
640.4079	0.0066
640.595	-0.0039
640.7821	0.0023
640.9692	0.0056
641.1563	0.007
641.3434	0.0152
641.5304	-0.0006
641.7174	0.0094
641.9044	0.005
642.0914	-0.0072
642.2784	0.0124
642.4653	-0.0065
642.6523	0.0123
642.8392	0.0196
643.0261	0.0108
643.213	0.0125
643.3999	0.0141
643.5867	0.0175
643.7735	0.009
643.9604	0.0015
644.1472	-0.0023
644.3339	-0.004
644.5207	-0.0128
644.7075	-0.0103
644.8942	0.0262
645.0809	-0.0195
645.2676	-0.0164
645.4543	-0.0034
645.6409	0.004
645.8276	-0.0153
646.0142	0.0086
646.2008	-0.0162
646.3874	0.0274
646.574	-0.0218
646.7605	0.0065
646.9471	0.021
647.1336	0.0003
647.3201	0.0107
647.5066	-0.0123
647.6931	-0.0061
647.8795	0.0166
648.0659	-0.0107
648.2524	-0.0001
648.4388	0.002
648.6252	0.0085
648.8115	0.0136
648.9979	0.0021
649.1842	-0.0087
649.3705	0.0004
649.5568	-0.0165
649.7431	-0.0094
649.9294	-0.0041
650.1156	-0.0009
650.3018	0.0148
650.488	-0.016
650.6742	0.0176
650.8604	-0.006
651.0466	0.0077
651.2327	-0.0019
651.4188	-0.0086
651.6049	-0.009
651.791	0.0157
651.9771	-0.0093
652.1632	-0.0058
652.3492	0.0096
652.5352	0.0098
652.7212	-0.014
652.9072	0.008
653.0932	-0.0056
653.2791	0.0032
653.465	-0.0182
653.651	0.0228
653.8369	0.0137
654.0227	0.0007
654.2086	-0.005
654.3944	-0.0052
654.5803	0.0143
654.7661	-0.0068
654.9519	-0.0034
655.1377	0.0001
655.3234	0.0001
655.5092	0.0001
655.6949	0.0001
655.8806	0.0001
656.0663	0.0001
656.2519	0.0001
656.4376	0.0001
656.6232	0.0001
656.8088	0.0001
656.9945	0.0001
657.18	0.0001
657.3656	0.0001
657.5511	0.0001
657.7367	0.0001
657.9222	0.0001
658.1077	0.0001
658.2932	0.0001
658.4786	0.0001
658.6641	0.0001
658.8495	0.0001
659.0349	0.0001
659.2203	0.0001
659.4057	0.0162
659.591	0.0671
659.7764	-0.0071
659.9617	-0.0039
660.147	0.0048
660.3323	-0.0022
660.5176	0.0057
660.7028	0.0007
660.888	0.0148
661.0733	-0.0002
661.2585	0.0047
661.4436	0.0043
661.6288	-0.0054
661.8139	0.0075
661.9991	0.0231
662.1842	0.0378
662.3693	0.0008
662.5544	-0.0138
662.7394	0.0365
662.9245	0.0123
663.1095	0.0135
663.2945	0.0081
663.4795	-0.0054
663.6644	0.0111
663.8494	0.0043
664.0343	-0.0029
664.2193	0.0057
664.4042	-0.0212
664.589	-0.01
664.7739	-0.0012
664.9587	-0.0031
665.1436	-0.006
665.3284	0.0075
665.5132	0.0051
665.698	0.0012
665.8827	0.0007
666.0675	-0.0075
666.2522	0.0168
666.4369	0.0062
666.6216	-0.0094
666.8063	0.0197
666.9909	-0.0013
667.1756	0.0143
667.3602	-0.0066
667.5448	0.0093
667.7294	0.0001
667.9139	-0.0121
668.0985	-0.0086
668.283	0.0004
668.4675	-0.0167
668.652	-0.001
668.8365	-0.0111
669.0209	-0.0179
669.2054	0.0306
669.3898	0.001
669.5742	0.0192
669.7586	0.0082
669.943	-0.0091
670.1273	0.0083
670.3117	0.018
670.496	0.0311
670.6803	-0.0017
670.8646	0.0136
671.0488	0.0155
671.2331	0.0102
671.4173	0.0014
671.6015	0.0008
671.7857	-0.0214
671.9699	0.0055
672.1541	0.0007
672.3382	-0.0007
672.5223	0.0008
672.7064	0.0019
672.8905	-0.0012
673.0746	0.028
673.2587	0.0063
673.4427	0.0084
673.6267	-0.0083
673.8107	-0.0059
673.9947	-0.0011
674.1787	0.0057
674.3626	-0.008
674.5465	0.0054
674.7304	-0.0304
674.9143	0.0139
675.0982	0.0191
675.2821	0.0164
675.4659	-0.0169
675.6497	0.03
675.8335	0.0081
676.0173	0.0189
676.2011	-0.0122
676.3849	-0.0002
676.5686	-0.0129
676.7523	0.0187
676.936	-0.0251
677.1197	0.0174
677.3034	0.0085
677.487	0.0055
677.6706	0.0066
677.8542	0.0069
678.0378	0.0191
678.2214	-0.0046
678.405	-0.0004
678.5885	-0.0084
678.772	-0.0085
678.9555	0.0054
679.139	-0.0069
679.3225	-0.0023
679.5059	-0.0065
679.6894	0.0001
679.8728	-0.0099
680.0562	0.0016
680.2395	-0.0118
680.4229	-0.0105
680.6062	-0.0014
680.7896	-0.004
680.9729	0.0138
681.1562	-0.0134
681.3394	0.007
681.5227	-0.0219
681.7059	-0.0118
681.8891	-0.0124
682.0723	-0.0054
682.2555	0.0315
682.4387	0.0044
682.6218	-0.0086
682.805	0.0148
682.9881	0.0063
683.1712	0.0142
683.3542	-0.0143
683.5373	0.0173
683.7203	0.01
683.9034	0.0014
684.0864	0.0009
684.2694	0.0014
684.4523	0.0087
684.6353	-0.0007
684.8182	0.0077
685.0011	0.0082
685.184	0.0041
685.3669	0.0067
685.5498	0.0155
685.7326	0.0055
685.9154	0.0102
686.0982	0.0098
686.281	0.0014
686.4638	0.0081
686.6465	0.0045
686.8293	-0.0059
687.012	-0.0112
687.1947	0.0124
687.3774	0.0039
687.56	0.016
687.7427	0.0033
687.9253	0.0046
688.1079	0.0275
688.2905	-0.0081
688.4731	0.0316
688.6556	0.0027
688.8382	0.0123
689.0207	-0.0052
689.2032	-0.0124
689.3857	-0.0061
689.5681	-0.0247
689.7506	-0.0195
689.933	-0.004
690.1154	-0.0073
690.2978	-0.0099
690.4802	0.0066
690.6626	-0.0196
690.8449	0.0019
691.0272	-0.0159
691.2095	0.0003
691.3918	0.0007
691.5741	0.0175
691.7563	0.0075
691.9386	0.0039
692.1208	-0.0124
692.303	-0.007
692.4852	0.0161
692.6673	-0.0089
692.8495	0.0041
693.0316	-0.0133
693.2137	0.0429
693.3958	0.0012
693.5778	-0.0184
693.7599	-0.0121
693.9419	0.0051
694.1239	-0.0067
694.3059	0.006
694.4879	-0.02
694.6699	0.0106
694.8518	0.005
695.0337	-0.0081
695.2157	-0.0039
695.3975	0.0218
695.5794	0.0005
695.7613	0.0244
695.9431	-0.0103
696.1249	-0.0078
696.3067	0.0077
696.4885	0.0031
696.6703	-0.0006
696.852	-0.0091
697.0337	-0.0009
697.2154	0.0081
697.3971	0.0152
697.5788	0.0199
697.7605	-0.0026
697.9421	-0.0051
698.1237	0.0052
698.3053	0.0057
698.4869	-0.0059
698.6685	-0.0055
698.85	0.0012
699.0315	-0.0104
699.213	0.0126
699.3945	0.0244
699.576	-0.0089
699.7575	-0.0198
699.9389	-0.0027
700.1203	0.0084
700.3017	-0.0278
700.4831	0.0017
700.6645	0.0082
700.8458	0.0245
701.0271	0.0064
701.2084	-0.0154
701.3897	0.0323
701.571	-0.001
701.7523	-0.0091
701.9335	0.0204
702.1147	0.0007
702.2959	0.0123
702.4771	0.0085
702.6583	-0.0267
702.8394	0.021
703.0205	0.0018
703.2016	-0.0145
703.3827	0.0356
703.5638	0.0199
703.7449	-0.0158
703.9259	-0.0077
704.1069	0.0224
704.2879	0.014
704.4689	0.0143
704.6499	-0.0348
704.8308	-0.0058
705.0117	-0.0077
705.1927	0.033
705.3735	0.0164
705.5544	-0.004
705.7353	0.0207
705.9161	0.0158
706.0969	0.0121
706.2777	-0.0129
706.4585	-0.0033
706.6393	-0.009
706.82	-0.0079
707.0007	0.006
707.1815	0.0105
707.3621	0.009
707.5428	0.0089
707.7235	0.022
707.9041	-0.0151
708.0847	0.0047
708.2653	-0.017
708.4459	0.0062
708.6265	0.007
708.807	0.02
708.9875	0.0027
709.168	-0.0035
709.3485	0.0087
709.529	0.0287
709.7095	-0.0223
709.8899	0.0039
710.0703	0.0173
710.2507	-0.0066
710.4311	0.0206
710.6115	0.0047
710.7918	0.0043
710.9721	-0.0155
711.1524	-0.0066
711.3327	-0.0102
711.513	0.0151
711.6932	-0.025
711.8735	0.0162
712.0537	0.0001
712.2339	0.0157
712.4141	0.0279
712.5942	-0.0049
712.7744	0.0074
712.9545	-0.0019
713.1346	0.0149
713.3147	0.0185
713.4947	0.0173
713.6748	0.0003
713.8548	-0.0266
714.0348	0.0186
714.2148	0.003
714.3948	0.0042
714.5748	-0.0033
714.7547	-0.0105
714.9346	0.0221
715.1145	-0.0141
715.2944	0.0222
715.4743	-0.0099
715.6541	-0.0113
715.834	0.0024
716.0138	0.0294
716.1936	-0.0239
716.3733	0.0073
716.5531	-0.0036
716.7328	-0.0325
716.9126	0.0034
717.0923	0.0127
717.2719	-0.0206
717.4516	0.017
717.6312	-0.0236
717.8109	0.005
717.9905	0.0141
718.1701	0.0139
718.3496	0.0236
718.5292	-0.0156
718.7087	0.0117
718.8882	0.0186
719.0677	-0.0119
719.2472	0.0273
719.4267	0.0146
719.6061	0.0061
719.7856	0.0253
719.965	0.0316
720.1443	-0.0054
720.3237	0.0358
720.5031	0.0341
720.6824	0.0013
720.8617	0.0189
721.041	0.0267
721.2203	0.0376
721.3995	0.0065
721.5788	-0.0007
721.758	-0.0053
721.9372	-0.0015
722.1164	0.0138
722.2956	0.008
722.4747	0.0063
722.6538	0.0125
722.8329	-0.0159
723.012	0.0014
723.1911	-0.0016
723.3702	-0.0197
723.5492	-0.0017
723.7282	0.0001
723.9072	-0.0281
724.0862	-0.0022
724.2652	-0.0247
724.4441	0.0013
724.623	-0.0266
724.8019	0.0187
724.9808	0.0073
725.1597	-0.0065
725.3385	-0.015
725.5174	0.0497
725.6962	0.0085
725.875	0.0315
726.0538	-0.0045
726.2325	-0.0049
726.4112	0.0164
726.59	-0.0048
726.7687	-0.0122
726.9474	0.0226
727.126	-0.002
727.3047	0.0163
727.4833	0.0186
727.6619	0.0275
727.8405	0.0217
728.0191	-0.0352
728.1976	-0.0446
728.3762	-0.0243
728.5547	-0.0006
728.7332	0.0135
728.9116	-0.026
729.0901	0.0146
729.2686	-0.0122
729.447	-0.014
729.6254	-0.0009
729.8038	-0.0051
729.9821	0.0096
730.1605	0.0131
730.3388	-0.0157
730.5171	0.0014
730.6954	0.0091
730.8737	0.02
731.0519	-0.0126
731.2302	-0.0062
731.4084	-0.0124
731.5866	-0.0116
731.7648	-0.0033
731.9429	-0.0069
732.1211	-0.0175
732.2992	-0.0023
732.4773	-0.0102
732.6554	-0.02
732.8335	0.0053
733.0115	-0.0145
733.1896	-0.0024
733.3676	0.0028
733.5456	-0.0013
733.7235	0.0149
733.9015	-0.0155
734.0794	-0.0013
734.2574	-0.009
734.4353	-0.0096
734.6131	0.0083
734.791	-0.0021
734.9689	0.0026
735.1467	-0.0082
735.3245	0.0276
735.5023	0.0241
735.68	0.0003
735.8578	-0.0145
736.0355	-0.0007
736.2132	0.0022
736.3909	-0.013
736.5686	0.0075
736.7463	-0.0105
736.9239	0.0009
737.1015	-0.0166
737.2791	0.0139
737.4567	0.005
737.6343	-0.0035
737.8118	-0.0144
737.9894	-0.0298
738.1669	0.0092
738.3444	-0.0067
738.5218	0.0352
738.6993	-0.0183
738.8767	0.0008
739.0541	0.0115
739.2315	-0.0013
739.4089	-0.0102
739.5863	-0.0018
739.7636	0.0197
739.9409	0.0034
740.1182	-0.0289
740.2955	-0.0314
740.4728	0.0249
740.65	-0.0097
740.8272	-0.0318
741.0044	0.0357
741.1816	0.0316
741.3588	-0.0019
741.5359	0.0121
741.7131	0.0302
741.8902	-0.0194
742.0673	0.0199
742.2444	-0.0011
742.4214	0.0206
742.5985	0.0005
742.7755	-0.0265
742.9525	0.0307
743.1295	-0.0034
743.3064	0.0193
743.4834	-0.0095
743.6603	-0.0237
743.8372	-0.0032
744.0141	0.0197
744.191	-0.0057
744.3678	0.0125
744.5446	0.0272
744.7215	0.01
744.8982	-0.0069
745.075	0.0235
745.2518	-0.0103
745.4285	0.0039
745.6052	0.0218
745.7819	-0.0042
745.9586	0.0218
746.1353	-0.0009
746.3119	-0.0251
746.4885	-0.0035
746.6651	0.0087
746.8417	-0.0401
747.0183	-0.0069
747.1948	-0.0106
747.3714	0.0259
747.5479	0.0055
747.7244	-0.0408
747.9008	0.0247
748.0773	-0.0015
748.2537	0.0439
748.4301	0.0168
748.6065	-0.0359
748.7829	-0.0099
748.9593	-0.0154
749.1356	0.0145
749.3119	-0.0125
749.4882	-0.0068
749.6645	0.0037
749.8408	-0.0018
750.017	-0.0012
750.1933	0.0105
750.3695	0.0086
750.5457	-0.0128
750.7218	0.0057
750.898	-0.0147
751.0741	0.0193
751.2502	0.0007
751.4263	-0.0306
751.6024	-0.0081
751.7784	-0.0405
751.9545	-0.0377
752.1305	-0.0352
752.3065	-0.0022
752.4825	0.0026
752.6584	-0.0233
752.8344	-0.005
753.0103	-0.0039
753.1862	0.0212
753.3621	-0.0026
753.5379	-0.0044
753.7138	-0.0412
753.8896	0.0405
754.0654	0.0219
754.2412	0.0392
754.417	0.0088
754.5927	0.0205
754.7685	-0.0151
754.9442	-0.0085
755.1199	-0.0134
755.2956	0.0331
755.4712	-0.0097
755.6469	-0.0011
755.8225	0.0331
755.9981	0.0076
756.1736	0.0079
756.3492	-0.0077
756.5248	-0.0179
756.7003	0.0016
756.8758	-0.0008
757.0513	-0.0175
757.2267	-0.0102
757.4022	0.0145
757.5776	-0.0063
757.753	-0.014
757.9284	0.0035
758.1038	-0.0254
758.2791	-0.0207
758.4545	-0.0061
758.6298	-0.0123
758.8051	0.0037
758.9803	-0.0194
759.1556	-0.0165
759.3308	-0.0004
759.506	0.0045
759.6812	-0.0019
759.8564	-0.0089
760.0316	0.0174
760.2067	-0.027
760.3819	-0.0069
760.557	-0.0025
760.732	0.0143
760.9071	-0.0049
761.0821	-0.0194
761.2572	0.0029
761.4322	-0.014
761.6072	-0.0179
761.7821	0.0042
761.9571	-0.0212
762.132	-0.0089
762.3069	-0.0119
762.4818	0.0366
762.6567	0.0078
762.8316	0.0171
763.0064	-0.0203
763.1812	-0.0128
763.356	0.0081
763.5308	-0.0157
763.7055	0.0159
763.8803	-0.0034
764.055	0.0071
764.2297	0.0123
764.4044	-0.008
764.579	-0.0065
764.7537	0.0023
764.9283	-0.0313
765.1029	0.0155
765.2775	-0.0154
765.4521	0.0099
765.6266	-0.0035
765.8011	-0.0163
765.9756	0.0242
766.1501	0.0291
766.3246	-0.013
766.4991	0.0242
766.6735	-0.0133
766.8479	0.0062
767.0223	-0.0037
767.1967	-0.0292
767.371	-0.0015
767.5454	0.0149
767.7197	0.0182
767.894	-0.0095
768.0683	-0.0199
768.2425	0.028
768.4168	0.0419
768.591	0.0087
768.7652	-0.0174
768.9394	0.0057
769.1135	-0.0077
769.2877	0.0005
769.4618	0.0101
769.6359	0.0092
769.81	-0.0072
769.984	0.0222
770.1581	0.0088
770.3321	-0.0029
770.5061	0.0011
770.6801	0.0277
770.8541	-0.0228
771.028	-0.0056
771.202	-0.0116
771.3759	0.0057
771.5498	-0.0073
771.7236	-0.0105
771.8975	-0.0111
772.0713	-0.0131
772.2451	-0.0201
772.4189	0.0335
772.5927	-0.0278
772.7665	0.048
772.9402	0.0458
773.1139	-0.0168
773.2876	0.0057
773.4613	0.0169
773.635	-0.0161
773.8086	-0.008
773.9822	0.0365
774.1558	-0.0062
774.3294	-0.0181
774.503	-0.004
774.6765	0.0401
774.8501	0.0434
775.0236	0.0367
775.1971	-0.0517
775.3705	0.0018
775.544	-0.0181
775.7174	0.0029
775.8908	0.029
776.0642	0.0523
776.2376	-0.0692
776.4109	0.0643
776.5843	-0.0122
776.7576	-0.0116
776.9309	-0.0104
777.1041	0.0435
777.2774	0.0121
777.4506	0.0211
777.6238	0.0357
777.797	0.0314
777.9702	0.0238
778.1434	0.0163
778.3165	-0.0201
778.4896	0.014
778.6627	0.0313
778.8358	0.0055
779.0089	0.0019
779.1819	0.0418
779.3549	0.007
779.5279	0.0015
779.7009	0.0082
779.8739	-0.0405
780.0468	0.0208
780.2197	-0.03
780.3926	-0.0174
780.5655	-0.0263
780.7384	0.016
780.9112	-0.0004
781.0841	-0.0102
781.2569	-0.0088
781.4297	-0.0003
781.6024	-0.0042
781.7752	-0.0041
781.9479	-0.0098
782.1206	-0.0088
782.2933	0.0276
782.466	-0.0045
782.6386	-0.0155
782.8113	0.0307
782.9839	0.0273
783.1565	-0.0197
783.329	0.0285
783.5016	-0.0216
783.6741	0.0199
783.8466	-0.0515
784.0191	-0.0175
784.1916	0.0144
784.3641	-0.0287
784.5365	0.0167
784.7089	0.0059
784.8813	-0.0086
785.0537	0.0227
785.2261	0.02
785.3984	-0.0164
785.5707	0.0548
785.743	-0.0215
785.9153	0.0354
786.0876	-0.0474
786.2598	0.0142
786.432	0.008
786.6042	0.0591
786.7764	0.0138
786.9486	0.0172
787.1207	0.0211
787.2928	-0.0252
787.4649	0.0488
787.637	0.0402
787.8091	-0.0213
787.9811	0.0095
788.1532	0.025
788.3252	-0.0084
788.4972	-0.0261
788.6691	0.0299
788.8411	0.0305
789.013	0.0645
789.1849	0.0044
789.3568	0.0025
789.5287	-0.0016
789.7005	0.0394
789.8723	-0.0493
790.0442	-0.0347
790.2159	0.069
790.3877	0.0192
790.5595	0.0479
790.7312	-0.0439
790.9029	0.0095
791.0746	0.0234
791.2463	0.0114
791.4179	-0.0317
791.5896	-0.0234
791.7612	-0.0452
791.9328	-0.001
792.1044	-0.0307
792.2759	0.0485
792.4474	-0.0405
792.619	0.1166
792.7905	0.0251
792.9619	-0.0174
793.1334	-0.0057
793.3048	0.0124
793.4762	-0.0149
793.6476	0.0551
793.819	-0.0197
793.9904	0.0266
794.1617	-0.0089
794.333	-0.0158
794.5043	-0.0091
794.6756	-0.0032
794.8469	0.0156
795.0181	0.017
795.1893	-0.0359
795.3605	-0.0101
795.5317	0.0206
795.7029	0.0018
795.874	-0.0542
796.0452	0.0172
796.2163	0.0352
796.3873	0.0624
796.5584	0.0584
796.7294	-0.0349
796.9005	-0.0268
797.0715	0.0229
797.2425	-0.0334
797.4134	-0.0065
797.5844	0.0416
797.7553	-0.0209
797.9262	0.0206
798.0971	-0.0215
798.2679	0.0027
798.4388	-0.0684
798.6096	0.0201
798.7804	-0.0185
798.9512	0.0549
799.122	0.0119
799.2927	-0.0267
799.4635	0.0969
799.6342	-0.0125
799.8049	0.0106
799.9755	0.0481
800.1462	-0.0116
800.3168	-0.0446
800.4874	0.0032
800.658	0.0969
800.8286	0.0711
800.9991	0.0309
801.1696	-0.0011
801.3402	-0.0258
801.5106	-0.1073
801.6811	0.0134
801.8516	-0.0445
802.022	0.0215
802.1924	-0.0466
802.3628	0.0198
802.5332	0.1349
802.7035	-0.0074
802.8739	0.1473
803.0442	-0.0645
803.2145	-0.0778
803.3847	0.015
803.555	-0.0293
803.7252	0.0279
803.8954	0.0327
804.0656	-0.0521
804.2358	-0.0282
804.4059	0.1334
804.5761	0.0874
804.7462	-0.0232
804.9163	-0.0867
805.0864	-0.0047
805.2564	0.0727
805.4264	-0.0453
805.5965	0.0676
805.7665	0.0307
805.9364	0.0234
806.1064	0.0133
806.2763	0.009
806.4462	-0.0017
806.6161	-0.0301
806.786	0.0506
806.9559	0.0354
807.1257	-0.0453
807.2955	0.0263
807.4653	0.0225
807.6351	-0.0396
807.8048	-0.0276
807.9746	0.0088
808.1443	0.0028
808.314	0.064
808.4837	-0.0692
808.6533	0.0793
808.8229	-0.043
808.9926	-0.037
809.1622	0.0157
809.3317	-0.0199
809.5013	0.024
809.6708	0.0673
809.8403	0.0421
810.0098	0.0539
810.1793	0.0568
810.3488	0.0924
810.5182	-0.064
810.6876	0.1447
810.857	-0.0767
811.0264	-0.1217
811.1958	0.0138
811.3651	-0.0146
811.5344	-0.0283
811.7037	0.0265
811.873	0.0901
812.0422	0.0917
812.2115	-0.022
812.3807	-0.036
812.5499	0.1538
812.7191	-0.0205
812.8882	-0.0403
813.0574	-0.0429
813.2265	0.0918
813.3956	-0.0085
813.5646	-0.0632
813.7337	-0.0084
813.9027	-0.0072
814.0718	-0.027
814.2407	-0.1354
814.4097	0.0036
814.5787	0.0033
814.7476	0.0004
814.9165	-0.0258
815.0854	-0.01
815.2543	0.0388
815.4232	-0.0173
815.592	0.0152
815.7608	0.1067
815.9296	-0.1139
816.0984	-0.0552
816.2671	-0.0939
816.4359	0.2523
816.6046	0.0035
816.7733	0.0538
816.942	0.0729
817.1106	-0.1609
817.2793	-0.0079
817.4479	0.0035
817.6165	-0.0223
817.785	0.0185
817.9536	0.0419
818.1221	0.048
818.2906	0.166
818.4591	0.0555
818.6276	0.0878
818.7961	0.0094
818.9645	0.0059
819.1329	0.2407
819.3013	0.1858
819.4697	0.2984
819.638	-0.0084
819.8064	-0.0113
819.9747	0.0632
820.143	0.0291
820.3113	0.0866
820.4795	0.1136
820.6477	-0.0327
820.816	0.0824
820.9842	-0.1516
821.1523	0.0593
821.3205	0.0212
821.4886	0.1038
821.6567	0.0111
821.8248	-0.0186
821.9929	-0.0108
822.1609	0.0171
822.329	0.0427
822.497	-0.1132
822.665	-0.0488
822.833	-0.0164
823.0009	0.0057
823.1688	-0.0908
823.3367	-0.0757
823.5046	0.1087
823.6725	0.044
823.8404	-0.0359
824.0082	0.0269
824.176	-0.0688
824.3438	-0.0221
824.5116	0.2272
824.6793	0.1788
824.847	0.2033
825.0147	0.1151
825.1824	-0.0364
825.3501	-0.0289
825.5177	0.072
825.6854	0.1933
825.853	0.1594
826.0206	0.096
826.1881	0.0388
826.3557	0.0941
826.5232	0.2988
826.6907	0.0166
826.8582	-0.1261
827.0257	0.0069
827.1931	0.0209
827.3605	-0.057
827.528	-0.0958
827.6953	0.0433
827.8627	0.0528
828.03	0.0483
828.1974	-0.0712
828.3647	0.0894
828.532	0.0608
828.6992	0.0556
828.8665	-0.051
829.0337	-0.012
829.2009	0.1944
829.3681	0.0799
829.5352	0.1447
829.7024	0.0931
829.8695	0.0838
830.0366	0.3259
830.2037	0.0592
830.3707	0.1402
830.5378	-0.0609
830.7048	-0.1745
830.8718	-0.0797
831.0388	0.1357
831.2057	1.4949
831.3727	-0.1692
831.5396	0.0932
831.7065	0.2461
831.8734	-0.2596
832.0402	-0.0475
832.2071	0.5804
832.3739	0.4439
832.5407	-0
832.7075	0.2524
832.8742	0.1144
833.041	0.5012
833.2077	0.1505
833.3744	0.0673
833.541	-0.1665
833.7077	-0.2035
833.8743	0.0546
834.0409	0.0694
834.2075	0.0872
834.3741	0.101
834.5407	-0.2341
834.7072	0.1423
834.8737	0.5278
835.0402	-0.4398
835.2067	0.0106
835.3731	0.3607
835.5395	0.1633
835.706	0.0884
835.8723	0.0836
836.0387	0.3375
836.2051	0.7457
836.3714	0.1787
836.5377	-0.1577
836.704	0.429
836.8703	-0.1148
837.0365	0.1782
837.2027	-0.295
837.3689	-0.0774
837.5351	0.6054
837.7013	0.358
837.8674	-0
838.0335	-0.0181
838.1997	0.5174
838.3657	13.9706
838.5318	0.9165
838.6978	-0
838.8639	-0.0965
839.0299	0.2938
839.1958	0.0578
839.3618	0.261
839.5277	0.0969
839.6937	-0.4011
839.8596	0.1667
840.0254	0.7416
840.1913	0.1516
840.3571	-0.2157
840.523	0.3386
840.6888	-0.0992
840.8545	0.4919
841.0203	-0.0057
841.186	0.0284
841.3517	0.3251
841.5174	0.3691
841.6831	0.5119
841.8488	0.073
842.0144	0.1494
842.18	-0.029
842.3456	-0
842.5112	0.7841
842.6767	-0.3287
842.8422	0.2352
843.0077	0.1017
843.1732	0.0526
843.3387	0.0837
843.5042	0.4207
843.6696	0.3337
843.835	-0.2041
844.0004	0.0568
844.1657	-0.227
844.3311	-0.5651
844.4964	-0.2123
844.6617	-0
844.827	1.116
844.9923	0.1903
845.1575	-0
845.3227	0.5524
845.4879	-0.0165
845.6531	-0.2548
845.8183	0.0019
845.9834	0.9165
846.1485	-0.2081
846.3136	0.2753
846.4787	0.4823
846.6438	0.4204
846.8088	-1.301
846.9738	-0
847.1388	0.3026
847.3038	0.1197
847.4687	-0
847.6337	-0.0716
847.7986	0.2417
847.9635	0.425
848.1284	-0.6856
848.2932	-0.251
848.458	0.5859
848.6228	0.3487
848.7876	0.3809
848.9524	0.2109
849.1172	-0.2241
849.2819	-0
849.4466	-0.0138
849.6113	-0
849.7759	-0.0244
849.9406	0.4207
850.1052	-0
850.2698	-1.017
850.4344	-0
850.599	0.1202
850.7635	-0
850.928	1.185
851.0925	0.0679
851.257	0.1222
851.4215	-0.0378
851.5859	0.3995
851.7503	-0
851.9147	-0
852.0791	-0.3628
852.2434	0.1736
852.4078	-0.2341
852.5721	0.0798
852.7364	0.0755
852.9007	0.1732
853.0649	0.3486
853.2291	-0
853.3934	0.4418
853.5575	-0.0549
853.7217	-0
853.8859	0.262
854.05	-0.1829
854.2141	-0
854.3782	0.8684
854.5423	0.7959
854.7063	-0.1158
854.8703	0.4069
855.0343	0.1368
855.1983	-0.309
855.3623	-0.1521
855.5262	-0
855.6901	0.5593
855.854	-0
856.0179	-0
856.1818	0.0714
856.3456	1.0536
856.5094	-0
856.6732	-0.6582
856.837	-0
857.0008	-0
857.1645	-0
857.3282	-0.0742
857.4919	0.1415
857.6556	0.1742
857.8192	-0.4159
857.9828	-0.4978
858.1465	0.282
858.31	-0
858.4736	0.0246
858.6372	-0.1627
858.8007	-0
858.9642	0.4653
859.1277	-0.2868
859.2911	-0.1327
859.4546	0.0614
859.618	0.1288
859.7814	-0.2891
859.9448	-0.3497
860.1081	-0
860.2715	0.2061
860.4348	-0
860.5981	0.1383
860.7614	-0
860.9246	0.1957
861.0879	-0.4896
861.2511	-0
861.4143	0.1492
861.5774	0.273
861.7406	0.1481
861.9037	-0
862.0668	-0.2596
862.2299	-0
862.393	-0
862.556	0.574
862.7191	0.4883
862.8821	-0.1613
863.0451	0.479
863.208	-0.4144
863.371	-0
863.5339	0.1973
863.6968	-0
863.8597	-0
864.0225	-0
864.1854	-0.3212
864.3482	-0.221
864.511	-0.1217
864.6737	-0
864.8365	0.6385
864.9992	-0
865.1619	0.4177
865.3246	0.0168
865.4873	-0
865.65	-0.6342
865.8126	-0
865.9752	-0.3137
866.1378	-0.6582
866.3004	0.2675
866.4629	0.0433
866.6254	-0
866.7879	-0
866.9504	0.0152
867.1129	-0.1219
867.2753	-0.1889
867.4377	0.8669
867.6001	0.1257
867.7625	0.0263
867.9249	0.2249
868.0872	0.2907
868.2495	-0
868.4118	-0
868.5741	-0.2596
868.7363	-0
868.8986	-0.7245
869.0608	-0
869.223	0.1938
869.3851	0.4878
869.5473	-1.3106
869.7094	-0
869.8715	0.243
870.0336	0.0177
870.1957	-0
870.3577	-0
870.5197	0.3522
870.6817	-0
870.8437	0.1747
871.0057	-0
871.1676	0.1586
871.3295	0.2617
871.4914	-0
871.6533	-0.0191
871.8151	-0.2903
871.977	0.1929
872.1388	-0
872.3006	0.2078
872.4623	-0.5902
872.6241	-2.1335
872.7858	-0.4398
872.9475	0.0263
873.1092	1.7653
873.2709	0.856
873.4325	-0
873.5941	-0
873.7557	-0
873.9173	-0
874.0789	0.6043
874.2404	-0.3364
874.4019	-0.1292
874.5634	0.0494
874.7249	-0
874.8863	-0.0122
875.0478	0.7665
875.2092	0.5119
875.3706	-0.3479
875.5319	0.0822
875.6933	0.2561
875.8546	-0
876.0159	0.7142
876.1772	-0.992
876.3385	-0.6158
876.4997	-0
876.6609	-0
876.8221	0.3577
876.9833	0.1409
877.1445	0.0825
877.3056	1.1012
877.4667	-0
877.6278	0.5202
877.7889	0.5657
877.9499	0.2771
878.111	0.0165
878.272	-0
878.433	-0
878.5939	0.1106
878.7549	-0.4082
878.9158	-0.8697
879.0767	-0
879.2376	-1.1584
879.3984	0.3917
879.5593	-0
879.7201	-0.0398
879.8809	-0.042
880.0417	0.1075
880.2024	-0
880.3632	-0.2698
880.5239	0.106
880.6846	-0.7973
880.8452	0.3118
881.0059	-0.2663
881.1665	0.1106
881.3271	0.0107
881.4877	0.3274
881.6483	-0
881.8088	0.3059
881.9693	-0.0296
882.1298	-0.0296
882.2903	-0.0296
