Data from D4ACN5uM480nmA_Absorbance_12-08-02-005.txt Node
Date: Fri Feb 21 12:08:02 GMT 2025
User: LASERRRRR
Spectrometer: FLMT03099
Trigger mode: 0
Integration Time (sec): 1.500000E-2
Scans to average: 1
Electric dark correction enabled: true
Nonlinearity correction enabled: false
Boxcar width: 0
XAxis mode: Wavelengths
Number of Pixels in Spectrum: 3648
>>>>>Begin Spectral Data<<<<<
179.3399	0.3024
179.5586	0.3024
179.7771	0.3024
179.9957	0.1456
180.2143	0.6734
180.4329	0.8081
180.6514	-0
180.8699	-0
181.0885	-0.0049
181.307	-0.0016
181.5255	0.0475
181.744	-0.414
181.9625	-0.4221
182.181	-0.1494
182.3994	-0
182.6179	-0.6368
182.8363	-0.2901
183.0547	-0
183.2732	0.0576
183.4916	0.1346
183.71	0.2426
183.9284	0.2116
184.1467	-0.0623
184.3651	0.2495
184.5835	0.0342
184.8018	0.2148
185.0201	0.3149
185.2385	0.2549
185.4568	0.1006
185.6751	0.2284
185.8934	0.1986
186.1117	0.1639
186.3299	0.3904
186.5482	0.2233
186.7664	0.2456
186.9847	0.1171
187.2029	0.3107
187.4211	0.224
187.6393	0.2294
187.8575	-0.1338
188.0757	0.2506
188.2939	0.0728
188.512	0.2211
188.7302	0.046
188.9483	0.4723
189.1665	0.5366
189.3846	-0.0183
189.6027	0.079
189.8208	0.3681
190.0389	0.5084
190.257	0.1808
190.475	0.1016
190.6931	0.4169
190.9111	0.2527
191.1292	0.1433
191.3472	0.1997
191.5652	0.4843
191.7832	0.1227
192.0012	0.1364
192.2192	0.4745
192.4371	0.3729
192.6551	0.3012
192.873	0.4324
193.091	0.249
193.3089	0.1707
193.5268	0.3852
193.7447	0.3379
193.9626	0.5185
194.1805	0.4583
194.3984	0.4872
194.6162	0.4052
194.8341	0.5636
195.0519	0.3852
195.2697	0.4857
195.4875	0.59
195.7054	0.4312
195.9231	0.4247
196.1409	0.552
196.3587	0.4346
196.5765	0.4892
196.7942	0.6535
197.012	0.5639
197.2297	0.6205
197.4474	0.7482
197.6651	0.4515
197.8828	0.7048
198.1005	0.5336
198.3182	0.5399
198.5358	0.547
198.7535	0.514
198.9711	0.7481
199.1888	0.7131
199.4064	0.5526
199.624	0.5586
199.8416	0.5357
200.0592	0.6141
200.2767	0.561
200.4943	0.6158
200.7119	0.5677
200.9294	0.5468
201.1469	0.6613
201.3645	0.5665
201.582	0.4919
201.7995	0.6379
202.017	0.5139
202.2344	0.5678
202.4519	0.5348
202.6694	0.5245
202.8868	0.5289
203.1042	0.5139
203.3217	0.557
203.5391	0.515
203.7565	0.5337
203.9739	0.5592
204.1913	0.5588
204.4086	0.5115
204.626	0.5799
204.8433	0.5065
205.0607	0.5155
205.278	0.5169
205.4953	0.5191
205.7126	0.4448
205.9299	0.4316
206.1472	0.4716
206.3644	0.4729
206.5817	0.4898
206.7989	0.5022
207.0162	0.4378
207.2334	0.4317
207.4506	0.4345
207.6678	0.4668
207.885	0.4117
208.1022	0.4975
208.3194	0.4191
208.5365	0.4444
208.7537	0.4319
208.9708	0.464
209.1879	0.4064
209.405	0.4212
209.6222	0.3954
209.8392	0.3937
210.0563	0.411
210.2734	0.3941
210.4905	0.4094
210.7075	0.4149
210.9245	0.414
211.1416	0.4418
211.3586	0.4053
211.5756	0.4282
211.7926	0.4237
212.0096	0.401
212.2265	0.4069
212.4435	0.396
212.6604	0.4081
212.8774	0.3929
213.0943	0.4171
213.3112	0.3884
213.5281	0.4195
213.745	0.4144
213.9619	0.4103
214.1788	0.4018
214.3956	0.425
214.6125	0.3984
214.8293	0.4069
215.0461	0.4113
215.2629	0.3864
215.4798	0.3772
215.6965	0.3744
215.9133	0.384
216.1301	0.3977
216.3469	0.4218
216.5636	0.4156
216.7803	0.4161
216.9971	0.4189
217.2138	0.4074
217.4305	0.4073
217.6472	0.4019
217.8639	0.3851
218.0805	0.4093
218.2972	0.4246
218.5138	0.4168
218.7305	0.4099
218.9471	0.4127
219.1637	0.4148
219.3803	0.4256
219.5969	0.4185
219.8135	0.4392
220.0301	0.4122
220.2466	0.4318
220.4632	0.4229
220.6797	0.4338
220.8962	0.4221
221.1127	0.4297
221.3292	0.4396
221.5457	0.4172
221.7622	0.4297
221.9787	0.439
222.1951	0.4389
222.4116	0.445
222.628	0.4469
222.8444	0.451
223.0608	0.444
223.2772	0.4365
223.4936	0.4492
223.71	0.4521
223.9264	0.4428
224.1427	0.4456
224.3591	0.4681
224.5754	0.4611
224.7917	0.4549
225.008	0.4591
225.2243	0.4715
225.4406	0.4583
225.6569	0.4455
225.8732	0.4637
226.0894	0.4591
226.3057	0.4707
226.5219	0.4571
226.7381	0.4493
226.9543	0.4761
227.1705	0.4812
227.3867	0.4823
227.6029	0.4659
227.8191	0.4811
228.0352	0.4965
228.2513	0.4861
228.4675	0.4877
228.6836	0.4814
228.8997	0.4952
229.1158	0.4866
229.3319	0.4896
229.548	0.4841
229.764	0.4892
229.9801	0.4975
230.1961	0.5041
230.4121	0.5126
230.6282	0.5003
230.8442	0.5101
231.0602	0.5196
231.2761	0.5115
231.4921	0.5286
231.7081	0.5151
231.924	0.5186
232.14	0.5209
232.3559	0.5229
232.5718	0.5253
232.7877	0.515
233.0036	0.51
233.2195	0.5213
233.4353	0.5231
233.6512	0.5355
233.867	0.5358
234.0829	0.5288
234.2987	0.5284
234.5145	0.539
234.7303	0.5313
234.9461	0.532
235.1619	0.532
235.3776	0.5296
235.5934	0.5281
235.8091	0.5412
236.0249	0.5425
236.2406	0.5395
236.4563	0.5314
236.672	0.5424
236.8877	0.5499
237.1034	0.5334
237.319	0.5245
237.5347	0.5267
237.7503	0.5369
237.966	0.5325
238.1816	0.5253
238.3972	0.5371
238.6128	0.5443
238.8284	0.5408
239.0439	0.5417
239.2595	0.5286
239.475	0.5274
239.6906	0.5327
239.9061	0.5376
240.1216	0.5262
240.3371	0.5226
240.5526	0.519
240.7681	0.5155
240.9836	0.5244
241.199	0.5007
241.4145	0.5
241.6299	0.4934
241.8453	0.482
242.0607	0.4905
242.2761	0.4848
242.4915	0.4746
242.7069	0.4684
242.9223	0.459
243.1376	0.4595
243.353	0.4482
243.5683	0.4372
243.7836	0.4308
243.9989	0.4143
244.2142	0.4196
244.4295	0.4054
244.6448	0.4002
244.86	0.3936
245.0753	0.383
245.2905	0.3777
245.5057	0.3722
245.721	0.3502
245.9362	0.355
246.1514	0.3412
246.3665	0.3384
246.5817	0.3262
246.7969	0.3289
247.012	0.3177
247.2271	0.3074
247.4423	0.2983
247.6574	0.3086
247.8725	0.3019
248.0876	0.2964
248.3026	0.2922
248.5177	0.2744
248.7328	0.2833
248.9478	0.2721
249.1628	0.2688
249.3779	0.2653
249.5929	0.2578
249.8079	0.2527
250.0228	0.2486
250.2378	0.2478
250.4528	0.2478
250.6677	0.2463
250.8827	0.2334
251.0976	0.2337
251.3125	0.2348
251.5274	0.2321
251.7423	0.2222
251.9572	0.2237
252.172	0.2235
252.3869	0.2195
252.6017	0.2112
252.8166	0.217
253.0314	0.2177
253.2462	0.2207
253.461	0.21
253.6758	0.212
253.8906	0.2033
254.1053	0.1981
254.3201	0.2031
254.5348	0.203
254.7496	0.2029
254.9643	0.2047
255.179	0.2016
255.3937	0.2021
255.6083	0.1993
255.823	0.2011
256.0377	0.1961
256.2523	0.1957
256.467	0.1971
256.6816	0.1946
256.8962	0.1942
257.1108	0.1924
257.3254	0.1945
257.54	0.1925
257.7545	0.1906
257.9691	0.1844
258.1836	0.1936
258.3981	0.1884
258.6127	0.1833
258.8272	0.1837
259.0417	0.1861
259.2561	0.1913
259.4706	0.1941
259.6851	0.188
259.8995	0.1852
260.114	0.1855
260.3284	0.1834
260.5428	0.1803
260.7572	0.1875
260.9716	0.1849
261.186	0.1821
261.4003	0.1866
261.6147	0.1877
261.829	0.1816
262.0433	0.181
262.2577	0.1856
262.472	0.1829
262.6863	0.1892
262.9005	0.1909
263.1148	0.1795
263.3291	0.1825
263.5433	0.1827
263.7576	0.1851
263.9718	0.1845
264.186	0.1903
264.4002	0.1807
264.6144	0.1934
264.8286	0.1912
265.0427	0.1881
265.2569	0.19
265.471	0.1835
265.6851	0.1783
265.8993	0.1856
266.1134	0.1814
266.3275	0.1884
266.5415	0.1774
266.7556	0.179
266.9697	0.1857
267.1837	0.1846
267.3978	0.1903
267.6118	0.1809
267.8258	0.1799
268.0398	0.1815
268.2538	0.1852
268.4677	0.1758
268.6817	0.1726
268.8957	0.1797
269.1096	0.1774
269.3235	0.1886
269.5374	0.1788
269.7514	0.1818
269.9652	0.1815
270.1791	0.1826
270.393	0.1844
270.6068	0.167
270.8207	0.1753
271.0345	0.1763
271.2483	0.1768
271.4622	0.1721
271.676	0.1746
271.8897	0.1712
272.1035	0.1695
272.3173	0.1685
272.531	0.1731
272.7448	0.1776
272.9585	0.1712
273.1722	0.173
273.3859	0.1639
273.5996	0.1696
273.8133	0.1653
274.0269	0.1751
274.2406	0.1726
274.4542	0.1667
274.6679	0.1719
274.8815	0.1762
275.0951	0.1755
275.3087	0.1709
275.5223	0.1692
275.7358	0.1814
275.9494	0.1763
276.1629	0.1756
276.3765	0.1684
276.59	0.1716
276.8035	0.181
277.017	0.175
277.2305	0.1709
277.444	0.1753
277.6574	0.1751
277.8709	0.1776
278.0843	0.1774
278.2978	0.1798
278.5112	0.1845
278.7246	0.1766
278.938	0.1761
279.1513	0.1762
279.3647	0.1793
279.5781	0.1782
279.7914	0.182
280.0047	0.1827
280.2181	0.1824
280.4314	0.1777
280.6447	0.1859
280.8579	0.1804
281.0712	0.1825
281.2845	0.1879
281.4977	0.1852
281.711	0.1781
281.9242	0.1847
282.1374	0.1781
282.3506	0.1875
282.5638	0.1881
282.7769	0.1908
282.9901	0.1808
283.2033	0.1847
283.4164	0.1851
283.6295	0.1834
283.8426	0.1845
284.0557	0.1842
284.2688	0.1916
284.4819	0.1941
284.695	0.1912
284.908	0.1909
285.1211	0.189
285.3341	0.1946
285.5471	0.1928
285.7601	0.1912
285.9731	0.1919
286.1861	0.1855
286.3991	0.1938
286.612	0.1938
286.825	0.1912
287.0379	0.1943
287.2508	0.1915
287.4637	0.193
287.6766	0.1956
287.8895	0.1976
288.1024	0.2035
288.3152	0.1932
288.5281	0.1961
288.7409	0.1966
288.9538	0.1909
289.1666	0.1974
289.3794	0.2023
289.5922	0.1945
289.8049	0.2058
290.0177	0.1999
290.2304	0.2033
290.4432	0.2048
290.6559	0.1894
290.8686	0.1965
291.0813	0.1995
291.294	0.2047
291.5067	0.1961
291.7194	0.1993
291.932	0.2003
292.1447	0.1986
292.3573	0.1986
292.5699	0.2038
292.7825	0.1985
292.9951	0.2003
293.2077	0.1992
293.4203	0.1932
293.6328	0.1982
293.8454	0.2007
294.0579	0.2036
294.2704	0.2057
294.4829	0.1974
294.6954	0.1998
294.9079	0.1995
295.1204	0.1984
295.3328	0.1985
295.5453	0.2031
295.7577	0.199
295.9701	0.1978
296.1825	0.1988
296.3949	0.2056
296.6073	0.2014
296.8197	0.2015
297.0321	0.1995
297.2444	0.197
297.4567	0.1985
297.6691	0.1997
297.8814	0.1988
298.0937	0.1964
298.306	0.1958
298.5182	0.2015
298.7305	0.1909
298.9428	0.1961
299.155	0.2009
299.3672	0.2
299.5794	0.1906
299.7916	0.1979
300.0038	0.1954
300.216	0.1976
300.4282	0.1921
300.6403	0.1909
300.8525	0.2009
301.0646	0.1995
301.2767	0.1978
301.4888	0.199
301.7009	0.197
301.913	0.198
302.125	0.1998
302.3371	0.1974
302.5491	0.201
302.7612	0.1997
302.9732	0.1911
303.1852	0.1915
303.3972	0.1966
303.6092	0.1929
303.8211	0.1875
304.0331	0.1888
304.245	0.1991
304.457	0.1968
304.6689	0.1939
304.8808	0.1899
305.0927	0.1891
305.3046	0.1855
305.5164	0.185
305.7283	0.1885
305.9401	0.1841
306.152	0.1792
306.3638	0.1779
306.5756	0.1862
306.7874	0.1738
306.9992	0.1752
307.2109	0.1752
307.4227	0.1689
307.6344	0.1735
307.8462	0.1749
308.0579	0.1705
308.2696	0.161
308.4813	0.1629
308.693	0.1628
308.9046	0.1634
309.1163	0.1582
309.328	0.1558
309.5396	0.1563
309.7512	0.1548
309.9628	0.1561
310.1744	0.1595
310.386	0.1476
310.5976	0.1455
310.8091	0.1432
311.0207	0.1484
311.2322	0.1469
311.4437	0.1436
311.6552	0.1405
311.8667	0.138
312.0782	0.1425
312.2897	0.1383
312.5012	0.1408
312.7126	0.1337
312.924	0.1367
313.1355	0.13
313.3469	0.1266
313.5583	0.1305
313.7696	0.126
313.981	0.1282
314.1924	0.1271
314.4037	0.124
314.6151	0.126
314.8264	0.1281
315.0377	0.131
315.249	0.1236
315.4603	0.1212
315.6716	0.1235
315.8828	0.1191
316.0941	0.1274
316.3053	0.1225
316.5165	0.1191
316.7277	0.123
316.9389	0.1199
317.1501	0.1189
317.3613	0.1207
317.5724	0.1174
317.7836	0.1211
317.9947	0.1123
318.2058	0.1149
318.417	0.1142
318.6281	0.1197
318.8391	0.121
319.0502	0.1173
319.2613	0.1141
319.4723	0.1135
319.6834	0.1125
319.8944	0.124
320.1054	0.1164
320.3164	0.1194
320.5274	0.1097
320.7383	0.1157
320.9493	0.1173
321.1602	0.1146
321.3712	0.1205
321.5821	0.1199
321.793	0.1183
322.0039	0.12
322.2148	0.1171
322.4257	0.1197
322.6365	0.1151
322.8474	0.118
323.0582	0.1111
323.269	0.1134
323.4798	0.1156
323.6906	0.1154
323.9014	0.1131
324.1122	0.1141
324.3229	0.1163
324.5337	0.116
324.7444	0.1137
324.9551	0.1166
325.1658	0.119
325.3765	0.1207
325.5872	0.1206
325.7979	0.1172
326.0085	0.1151
326.2192	0.1117
326.4298	0.1226
326.6404	0.1168
326.851	0.117
327.0616	0.1164
327.2722	0.1304
327.4828	0.12
327.6933	0.1199
327.9039	0.1242
328.1144	0.1187
328.3249	0.1249
328.5354	0.1197
328.7459	0.1183
328.9564	0.1277
329.1669	0.1245
329.3773	0.1247
329.5878	0.1268
329.7982	0.1275
330.0086	0.1157
330.219	0.1211
330.4294	0.1285
330.6398	0.1259
330.8502	0.1187
331.0605	0.1223
331.2708	0.1204
331.4812	0.1207
331.6915	0.1173
331.9018	0.1227
332.1121	0.128
332.3224	0.1306
332.5326	0.1254
332.7429	0.1233
332.9531	0.1305
333.1633	0.1251
333.3735	0.1244
333.5837	0.1257
333.7939	0.1252
334.0041	0.1219
334.2143	0.1273
334.4244	0.1232
334.6346	0.1206
334.8447	0.1319
335.0548	0.1272
335.2649	0.1326
335.475	0.1281
335.685	0.1296
335.8951	0.1332
336.1051	0.1322
336.3152	0.1326
336.5252	0.1305
336.7352	0.1228
336.9452	0.131
337.1552	0.1361
337.3652	0.1277
337.5751	0.1255
337.7851	0.1251
337.995	0.1275
338.2049	0.1355
338.4148	0.1287
338.6247	0.1293
338.8346	0.1301
339.0445	0.1243
339.2543	0.1448
339.4642	0.1326
339.674	0.1319
339.8838	0.1367
340.0936	0.1351
340.3034	0.1379
340.5132	0.1292
340.7229	0.1399
340.9327	0.1367
341.1424	0.1358
341.3522	0.1408
341.5619	0.1395
341.7716	0.1448
341.9813	0.142
342.1909	0.1454
342.4006	0.1421
342.6102	0.1382
342.8199	0.1375
343.0295	0.1367
343.2391	0.1421
343.4487	0.1423
343.6583	0.1463
343.8679	0.148
344.0774	0.1441
344.287	0.1464
344.4965	0.1491
344.706	0.144
344.9155	0.1403
345.125	0.1418
345.3345	0.1362
345.544	0.1478
345.7534	0.1504
345.9629	0.1455
346.1723	0.149
346.3817	0.1509
346.5911	0.1514
346.8005	0.1552
347.0099	0.1501
347.2193	0.1472
347.4286	0.1527
347.638	0.1546
347.8473	0.1565
348.0566	0.1595
348.2659	0.1578
348.4752	0.1543
348.6845	0.1594
348.8937	0.1582
349.103	0.1509
349.3122	0.1619
349.5214	0.1538
349.7306	0.1603
349.9398	0.1589
350.149	0.1685
350.3582	0.1547
350.5674	0.1639
350.7765	0.1663
350.9856	0.1559
351.1948	0.1613
351.4039	0.1597
351.613	0.1715
351.822	0.1621
352.0311	0.1639
352.2402	0.1733
352.4492	0.1685
352.6582	0.1704
352.8672	0.1652
353.0762	0.165
353.2852	0.1671
353.4942	0.1657
353.7032	0.1752
353.9121	0.1765
354.1211	0.1774
354.33	0.1758
354.5389	0.1815
354.7478	0.1749
354.9567	0.1795
355.1655	0.1791
355.3744	0.1807
355.5833	0.1831
355.7921	0.1805
356.0009	0.1814
356.2097	0.1868
356.4185	0.191
356.6273	0.1852
356.8361	0.1921
357.0448	0.1897
357.2536	0.187
357.4623	0.1891
357.671	0.1858
357.8797	0.1941
358.0884	0.1913
358.2971	0.1953
358.5057	0.1972
358.7144	0.1927
358.923	0.1962
359.1316	0.1934
359.3402	0.2042
359.5488	0.1985
359.7574	0.1969
359.966	0.2046
360.1746	0.1992
360.3831	0.1998
360.5916	0.1953
360.8002	0.2108
361.0087	0.2115
361.2172	0.2048
361.4256	0.2048
361.6341	0.2136
361.8426	0.2043
362.051	0.2121
362.2594	0.2157
362.4678	0.212
362.6762	0.2188
362.8846	0.2169
363.093	0.2155
363.3014	0.2253
363.5097	0.2181
363.718	0.2356
363.9264	0.223
364.1347	0.2272
364.343	0.2322
364.5513	0.2311
364.7595	0.222
364.9678	0.2324
365.176	0.2305
365.3842	0.2307
365.5925	0.23
365.8007	0.2409
366.0089	0.2251
366.217	0.2405
366.4252	0.2385
366.6333	0.2414
366.8415	0.2336
367.0496	0.2331
367.2577	0.2462
367.4658	0.2429
367.6739	0.2345
367.882	0.2464
368.09	0.2328
368.2981	0.2373
368.5061	0.2528
368.7141	0.251
368.9221	0.2481
369.1301	0.246
369.3381	0.2504
369.5461	0.2502
369.754	0.2514
369.962	0.2625
370.1699	0.2585
370.3778	0.2572
370.5857	0.2507
370.7936	0.2702
371.0015	0.2544
371.2093	0.2659
371.4172	0.2631
371.625	0.2685
371.8328	0.264
372.0406	0.266
372.2484	0.2598
372.4562	0.2687
372.664	0.2737
372.8717	0.264
373.0795	0.2776
373.2872	0.2698
373.4949	0.2725
373.7026	0.281
373.9103	0.2638
374.118	0.2688
374.3256	0.2933
374.5333	0.2777
374.7409	0.2663
374.9485	0.287
375.1561	0.2803
375.3637	0.2735
375.5713	0.2732
375.7789	0.2764
375.9864	0.2888
376.194	0.2801
376.4015	0.2845
376.609	0.2953
376.8165	0.2877
377.024	0.2806
377.2315	0.2918
377.4389	0.2738
377.6464	0.2874
377.8538	0.2876
378.0612	0.2866
378.2686	0.2935
378.476	0.288
378.6834	0.2848
378.8908	0.2892
379.0981	0.2948
379.3055	0.2983
379.5128	0.2914
379.7201	0.2995
379.9274	0.2914
380.1347	0.2986
380.342	0.3022
380.5492	0.2978
380.7565	0.303
380.9637	0.3037
381.1709	0.3011
381.3781	0.3049
381.5853	0.3013
381.7925	0.3061
381.9997	0.3066
382.2068	0.2986
382.4139	0.3108
382.6211	0.3079
382.8282	0.306
383.0353	0.3097
383.2424	0.3123
383.4494	0.3083
383.6565	0.3093
383.8635	0.314
384.0706	0.3015
384.2776	0.3163
384.4846	0.3103
384.6916	0.3063
384.8986	0.307
385.1055	0.3063
385.3125	0.3102
385.5194	0.2993
385.7263	0.3175
385.9333	0.3092
386.1402	0.3161
386.347	0.3185
386.5539	0.3195
386.7608	0.3118
386.9676	0.3094
387.1744	0.3114
387.3813	0.3108
387.5881	0.3145
387.7948	0.3112
388.0016	0.3131
388.2084	0.3093
388.4151	0.3123
388.6219	0.3077
388.8286	0.3082
389.0353	0.2993
389.242	0.3049
389.4487	0.3075
389.6553	0.3011
389.862	0.3075
390.0686	0.3049
390.2753	0.3077
390.4819	0.308
390.6885	0.3037
390.8951	0.3116
391.1016	0.3071
391.3082	0.2935
391.5147	0.3063
391.7213	0.3055
391.9278	0.2975
392.1343	0.2984
392.3408	0.293
392.5473	0.2985
392.7537	0.2959
392.9602	0.282
393.1666	0.2983
393.373	0.2918
393.5794	0.2872
393.7858	0.2884
393.9922	0.289
394.1986	0.2866
394.4049	0.2822
394.6113	0.2875
394.8176	0.2738
395.0239	0.2812
395.2302	0.2705
395.4365	0.2692
395.6428	0.2765
395.8491	0.2753
396.0553	0.2772
396.2615	0.2754
396.4678	0.2753
396.674	0.2818
396.8802	0.2705
397.0863	0.266
397.2925	0.2668
397.4987	0.2731
397.7048	0.2751
397.9109	0.2732
398.117	0.2617
398.3231	0.2737
398.5292	0.2716
398.7353	0.2639
398.9413	0.2641
399.1474	0.2672
399.3534	0.2696
399.5594	0.2768
399.7654	0.2646
399.9714	0.2627
400.1774	0.2635
400.3833	0.2738
400.5893	0.2683
400.7952	0.2716
401.0011	0.2691
401.207	0.2678
401.4129	0.2617
401.6188	0.2649
401.8247	0.2714
402.0305	0.2536
402.2364	0.2644
402.4422	0.2681
402.648	0.2784
402.8538	0.2786
403.0596	0.2555
403.2654	0.2709
403.4711	0.2696
403.6768	0.2598
403.8826	0.27
404.0883	0.2674
404.294	0.2754
404.4997	0.2697
404.7054	0.2564
404.911	0.2652
405.1167	0.2673
405.3223	0.2787
405.5279	0.2734
405.7335	0.2576
405.9391	0.2641
406.1447	0.2634
406.3502	0.2644
406.5558	0.2693
406.7613	0.2645
406.9668	0.2665
407.1724	0.2663
407.3778	0.2659
407.5833	0.2657
407.7888	0.2641
407.9942	0.2713
408.1997	0.2657
408.4051	0.2661
408.6105	0.2721
408.8159	0.2762
409.0213	0.2691
409.2267	0.26
409.432	0.2703
409.6374	0.2668
409.8427	0.2574
410.048	0.2679
410.2533	0.259
410.4586	0.2742
410.6639	0.2604
410.8691	0.2798
411.0744	0.2716
411.2796	0.2673
411.4848	0.2579
411.69	0.2625
411.8952	0.2681
412.1004	0.2649
412.3056	0.2636
412.5107	0.266
412.7158	0.264
412.921	0.2616
413.1261	0.2684
413.3312	0.2635
413.5362	0.2682
413.7413	0.2701
413.9464	0.2617
414.1514	0.2681
414.3564	0.2578
414.5614	0.2632
414.7664	0.2593
414.9714	0.2707
415.1764	0.2519
415.3813	0.2524
415.5863	0.2662
415.7912	0.2555
415.9961	0.2604
416.201	0.2681
416.4059	0.2519
416.6108	0.2585
416.8156	0.2518
417.0205	0.2567
417.2253	0.2622
417.4301	0.2644
417.6349	0.2538
417.8397	0.269
418.0445	0.2598
418.2492	0.2574
418.454	0.2594
418.6587	0.2547
418.8634	0.2519
419.0681	0.2482
419.2728	0.2559
419.4775	0.2603
419.6822	0.2436
419.8868	0.2615
420.0915	0.2616
420.2961	0.2565
420.5007	0.2471
420.7053	0.2572
420.9099	0.2408
421.1144	0.2432
421.319	0.2414
421.5235	0.2494
421.728	0.2345
421.9325	0.2526
422.137	0.2482
422.3415	0.2417
422.546	0.2416
422.7504	0.2421
422.9549	0.2357
423.1593	0.2416
423.3637	0.2394
423.5681	0.2456
423.7725	0.2354
423.9769	0.2435
424.1812	0.2436
424.3856	0.2443
424.5899	0.2382
424.7942	0.2328
424.9985	0.2286
425.2028	0.2365
425.4071	0.2283
425.6113	0.2297
425.8156	0.2233
426.0198	0.2177
426.224	0.2267
426.4282	0.2252
426.6324	0.2229
426.8366	0.2223
427.0407	0.2183
427.2449	0.2213
427.449	0.2214
427.6531	0.2156
427.8572	0.2139
428.0613	0.206
428.2654	0.2107
428.4694	0.2003
428.6735	0.2028
428.8775	0.2105
429.0815	0.2101
429.2855	0.202
429.4895	0.1962
429.6935	0.1973
429.8975	0.2052
430.1014	0.1995
430.3053	0.1957
430.5093	0.1989
430.7132	0.2
430.9171	0.1884
431.1209	0.192
431.3248	0.1875
431.5286	0.1775
431.7325	0.192
431.9363	0.189
432.1401	0.1829
432.3439	0.1795
432.5477	0.1803
432.7514	0.1767
432.9552	0.178
433.1589	0.1646
433.3627	0.1702
433.5664	0.1764
433.7701	0.182
433.9737	0.1707
434.1774	0.1703
434.3811	0.1687
434.5847	0.1631
434.7883	0.1636
434.9919	0.1526
435.1955	0.1604
435.3991	0.1591
435.6027	0.1523
435.8062	0.1541
436.0098	0.1607
436.2133	0.1514
436.4168	0.1434
436.6203	0.143
436.8238	0.1479
437.0272	0.137
437.2307	0.1357
437.4341	0.1338
437.6375	0.1284
437.841	0.1272
438.0443	0.1337
438.2477	0.1226
438.4511	0.1362
438.6545	0.13
438.8578	0.1352
439.0611	0.1224
439.2644	0.1161
439.4677	0.124
439.671	0.1116
439.8743	0.1213
440.0775	0.1044
440.2808	0.1164
440.484	0.1112
440.6872	0.1052
440.8904	0.1055
441.0936	0.1224
441.2967	0.1035
441.4999	0.1033
441.703	0.1006
441.9062	0.1051
442.1093	0.0881
442.3124	0.104
442.5155	0.0903
442.7185	0.0813
442.9216	0.0919
443.1246	0.0896
443.3276	0.0857
443.5307	0.09
443.7337	0.0824
443.9366	0.0859
444.1396	0.0755
444.3426	0.0883
444.5455	0.0778
444.7484	0.0698
444.9513	0.0841
445.1542	0.0745
445.3571	0.0713
445.56	0.0721
445.7628	0.0768
445.9657	0.0727
446.1685	0.0718
446.3713	0.0634
446.5741	0.0649
446.7769	0.0655
446.9797	0.0666
447.1824	0.0676
447.3852	0.0619
447.5879	0.069
447.7906	0.0627
447.9933	0.0575
448.196	0.0527
448.3986	0.0566
448.6013	0.0591
448.8039	0.0629
449.0066	0.0496
449.2092	0.0519
449.4118	0.0609
449.6143	0.051
449.8169	0.0568
450.0195	0.0455
450.222	0.0489
450.4245	0.0513
450.627	0.0483
450.8295	0.0403
451.032	0.0449
451.2345	0.0434
451.4369	0.0466
451.6394	0.0422
451.8418	0.0367
452.0442	0.0424
452.2466	0.0384
452.449	0.0321
452.6513	0.0366
452.8537	0.0389
453.056	0.0353
453.2583	0.0406
453.4607	0.0262
453.663	0.0321
453.8652	0.0373
454.0675	0.0397
454.2697	0.0321
454.472	0.0291
454.6742	0.0256
454.8764	0.0279
455.0786	0.0281
455.2808	0.0255
455.4829	0.0256
455.6851	0.022
455.8872	0.0256
456.0893	0.0311
456.2915	0.024
456.4935	0.0218
456.6956	0.0299
456.8977	0.0209
457.0997	0.0344
457.3018	0.0254
457.5038	0.0256
457.7058	0.02
457.9078	0.0237
458.1098	0.0309
458.3117	0.0222
458.5137	0.0295
458.7156	0.0253
458.9175	0.0113
459.1194	0.0261
459.3213	0.0212
459.5232	0.0159
459.725	0.025
459.9269	0.0209
460.1287	0.0108
460.3305	0.0127
460.5323	0.0219
460.7341	0.0195
460.9359	0.0165
461.1376	0.0253
461.3394	0.0022
461.5411	0.012
461.7428	0.0269
461.9445	0.0086
462.1462	0.0141
462.3479	0.0064
462.5495	0.0065
462.7512	0.006
462.9528	0.0105
463.1544	0.0099
463.356	0.0169
463.5576	0.0085
463.7592	-0.0003
463.9607	0.0024
464.1623	0.0166
464.3638	0.0055
464.5653	0.0188
464.7668	0.0056
464.9683	0.0134
465.1697	0.0049
465.3712	0.0116
465.5726	0.0128
465.7741	0.0097
465.9755	0.0088
466.1769	0.0014
466.3782	0.004
466.5796	0.0083
466.7809	0.0203
466.9823	0.0021
467.1836	0.0117
467.3849	0.0025
467.5862	0.0085
467.7875	0.0069
467.9887	0.0133
468.19	0.0074
468.3912	0.0157
468.5924	0.0153
468.7936	-0.0018
468.9948	0.0113
469.196	0.0035
469.3972	0.0168
469.5983	0.0041
469.7994	0.0008
470.0006	0.0115
470.2017	0.016
470.4027	-0.0009
470.6038	0.0021
470.8049	0.0014
471.0059	0.0115
471.2069	0.0177
471.408	0.0007
471.6089	0.0044
471.8099	0.0059
472.0109	-0.0047
472.2119	0.0157
472.4128	0.0057
472.6137	0.0096
472.8146	0.002
473.0155	-0.0003
473.2164	-0.0022
473.4173	0.0098
473.6181	0.0077
473.819	-0.0006
474.0198	0.0038
474.2206	0.0078
474.4214	0.0043
474.6222	0.0014
474.8229	-0.0006
475.0237	0.0034
475.2244	0.0092
475.4251	0.0041
475.6258	0.0089
475.8265	0.0032
476.0272	0.0041
476.2278	-0.0004
476.4285	0.0035
476.6291	0.006
476.8297	-0.0014
477.0303	0.0013
477.2309	-0.003
477.4315	0.0108
477.632	0.0062
477.8326	0.0036
478.0331	0.0017
478.2336	0.0093
478.4341	0.0005
478.6346	-0.0006
478.8351	0.0094
479.0355	0.0023
479.236	0.0009
479.4364	-0.0018
479.6368	0.0025
479.8372	0.0081
480.0376	0.0022
480.2379	0.0044
480.4383	0.006
480.6386	-0.0003
480.8389	0.0142
481.0392	0.0095
481.2395	0.0061
481.4398	0.0077
481.6401	0.007
481.8403	-0.002
482.0405	0.0018
482.2408	0.007
482.441	0.005
482.6411	0.0017
482.8413	-0.0037
483.0415	0.002
483.2416	-0.0035
483.4417	0.0086
483.6419	0.0019
483.8419	-0.0041
484.042	-0.0017
484.2421	0.0021
484.4422	0.0006
484.6422	0.0111
484.8422	0.0003
485.0422	0.0025
485.2422	0.0029
485.4422	-0.003
485.6422	-0.0028
485.8421	-0.0009
486.042	0.0073
486.242	0.0001
486.4419	0.0025
486.6417	0.0045
486.8416	0.0031
487.0415	-0.0027
487.2413	-0.0041
487.4411	0.0019
487.641	0.01
487.8408	0.0037
488.0405	0.0021
488.2403	-0.0002
488.4401	-0.0015
488.6398	0.0042
488.8395	0.0031
489.0392	0.0067
489.2389	0.004
489.4386	0.0008
489.6383	0.0059
489.8379	-0.0053
490.0376	0.0061
490.2372	-0.0041
490.4368	-0.0005
490.6364	0.008
490.836	-0.001
491.0355	0.0028
491.2351	0.0032
491.4346	0.0053
491.6341	0.0003
491.8336	-0.004
492.0331	-0.0007
492.2326	-0.0011
492.432	0.0032
492.6315	-0.0026
492.8309	-0.0006
493.0303	-0.004
493.2297	-0.0081
493.4291	-0.0035
493.6284	0.0037
493.8278	0.0033
494.0271	0.0031
494.2264	0.0014
494.4257	0.0021
494.625	-0.0034
494.8243	-0.0002
495.0236	0.0009
495.2228	0.0015
495.422	0.0039
495.6213	0.001
495.8205	0.0021
496.0196	0.0066
496.2188	0.0018
496.418	-0.0052
496.6171	0.0031
496.8162	0.0045
497.0153	0.0083
497.2144	-0.0018
497.4135	0.0118
497.6126	-0.0056
497.8116	-0.0003
498.0107	0.0035
498.2097	0.0094
498.4087	0.0005
498.6077	0.0018
498.8067	0.0095
499.0056	-0.0038
499.2046	-0.0003
499.4035	-0.0017
499.6024	-0.0071
499.8013	-0.0045
500.0002	0.0101
500.199	0.0051
500.3979	0.0077
500.5967	0.0006
500.7956	-0.0078
500.9944	0.0056
501.1932	0.0012
501.3919	0.0063
501.5907	0.0039
501.7895	-0.0055
501.9882	-0.0032
502.1869	0.001
502.3856	-0.0059
502.5843	0.0019
502.783	0.0024
502.9816	-0.0071
503.1803	0.0033
503.3789	0.0052
503.5775	0.0014
503.7761	-0.0023
503.9747	-0.0076
504.1732	0.0043
504.3718	-0.0015
504.5703	-0.0035
504.7689	0.0017
504.9674	0.0038
505.1658	0.0017
505.3643	0.0096
505.5628	0.004
505.7612	0.0027
505.9597	0.001
506.1581	-0.0022
506.3565	-0.0098
506.5549	0.0079
506.7532	0.0076
506.9516	0.0054
507.1499	0.0039
507.3482	0.0061
507.5465	-0.0063
507.7448	0.0063
507.9431	-0.0053
508.1414	0.0096
508.3396	0.0062
508.5379	0.001
508.7361	0.0067
508.9343	0.0019
509.1325	0.0086
509.3306	0.0021
509.5288	0.0078
509.7269	0.0066
509.9251	-0.0071
510.1232	-0.0108
510.3213	0.0003
510.5193	0.0069
510.7174	-0.0033
510.9154	0.002
511.1135	-0.0007
511.3115	0.0011
511.5095	-0.0057
511.7075	-0.0015
511.9055	0.0061
512.1034	0.0052
512.3014	0.0007
512.4993	0.0001
512.6972	-0.0061
512.8951	0.0004
513.093	0.0081
513.2908	0.0005
513.4887	0.0097
513.6865	-0.0051
513.8844	0.0054
514.0822	-0.0001
514.2799	0.004
514.4777	0.0106
514.6755	0.0098
514.8732	-0.0001
515.0709	0.0019
515.2687	-0.0015
515.4664	-0.0058
515.664	0.0113
515.8617	0.0088
516.0594	0.0076
516.257	0.0056
516.4546	-0.0015
516.6522	0.0082
516.8498	0.0056
517.0474	0.0107
517.2449	0.0008
517.4425	0.0124
517.64	0.0048
517.8375	0.006
518.035	-0.0057
518.2325	-0.0017
518.43	-0.0019
518.6274	-0.0089
518.8249	-0.0076
519.0223	-0.0029
519.2197	-0.0041
519.4171	-0.0072
519.6145	0.0025
519.8118	-0.0001
520.0092	0.0014
520.2065	0.0006
520.4038	-0.0064
520.6011	0.0056
520.7984	0.0039
520.9956	-0.0001
521.1929	-0.0079
521.3901	0.0136
521.5874	-0.003
521.7846	0.0033
521.9818	-0.0058
522.1789	0.0102
522.3761	0.0041
522.5732	0.0052
522.7704	-0.007
522.9675	0.0015
523.1646	0.0161
523.3617	0.0016
523.5587	0.0094
523.7558	0.0086
523.9528	0.0011
524.1498	-0.0051
524.3468	-0.0055
524.5438	-0.008
524.7408	-0.0033
524.9378	0.0041
525.1347	0.0051
525.3316	0.0083
525.5285	-0.0029
525.7254	-0.0004
525.9223	-0.004
526.1192	-0.004
526.316	-0.0112
526.5129	0.0111
526.7097	-0.0037
526.9065	0.0001
527.1033	-0.0055
527.3	-0.0001
527.4968	-0.0072
527.6935	0.0042
527.8903	0.0053
528.087	0.001
528.2837	0.0006
528.4804	0.0064
528.677	-0.0002
528.8737	-0.0057
529.0703	0.0004
529.2669	0.0085
529.4635	0.0196
529.6601	0.0071
529.8567	0.0062
530.0532	0.0031
530.2498	-0.0001
530.4463	0.004
530.6428	0.004
530.8393	0.0048
531.0358	-0.0001
531.2322	0.0049
531.4287	-0.0071
531.6251	-0.004
531.8215	0.0084
532.0179	-0.0134
532.2143	0.0129
532.4107	-0.0022
532.607	0.0002
532.8034	0.0044
532.9997	0.0056
533.196	0.012
533.3923	-0.0032
533.5886	0.0042
533.7848	-0.0096
533.9811	-0.0111
534.1773	0.0068
534.3735	0.0069
534.5697	0.0012
534.7659	-0.0043
534.9621	0.0046
535.1582	0.003
535.3544	0.0096
535.5505	-0.0033
535.7466	-0.0025
535.9427	0.0023
536.1387	0.0038
536.3348	0.0071
536.5308	0.0094
536.7269	-0.0078
536.9229	0.0008
537.1189	-0.0016
537.3148	-0.0109
537.5108	-0.0021
537.7068	-0.0039
537.9027	0.0069
538.0986	0.0042
538.2945	0.0048
538.4904	0.0081
538.6863	0.0134
538.8821	-0.0047
539.078	-0.0037
539.2738	-0.0059
539.4696	0.0052
539.6654	-0.0067
539.8611	0.0031
540.0569	0.0009
540.2526	-0.0085
540.4484	-0.0101
540.6441	0.0001
540.8398	-0.0045
541.0355	0.0003
541.2311	0.0049
541.4268	-0.0115
541.6224	0.0015
541.818	-0.0056
542.0136	0.0049
542.2092	0.0078
542.4048	0.0068
542.6003	-0.0023
542.7959	0.0049
542.9914	0.0125
543.1869	0.0042
543.3824	0.0015
543.5779	0.0049
543.7734	-0.0033
543.9688	0.0054
544.1642	-0.0005
544.3596	-0.0139
544.555	0.0012
544.7504	0.0018
544.9458	0.0001
545.1411	-0.0061
545.3365	-0.0015
545.5318	-0.0021
545.7271	0.0072
545.9224	-0.0046
546.1177	0.0101
546.3129	-0.0146
546.5081	-0.0048
546.7034	-0.0037
546.8986	0.0019
547.0938	-0.0047
547.289	0.0016
547.4841	-0.0039
547.6793	-0.0068
547.8744	-0.0035
548.0695	0.002
548.2646	-0.0024
548.4597	-0.0012
548.6548	0.0016
548.8498	0.0075
549.0448	0.0002
549.2399	0.005
549.4349	0.0097
549.6298	-0.0079
549.8248	0.0069
550.0198	0.0061
550.2147	-0.0061
550.4096	0.0092
550.6045	0.0014
550.7994	0.0047
550.9943	0.0002
551.1892	0.0009
551.384	0.0016
551.5788	0.0082
551.7737	-0.0045
551.9685	0.0082
552.1632	0.0005
552.358	-0.0043
552.5528	-0.0078
552.7475	0.0018
552.9422	-0.0016
553.1369	0.0021
553.3316	-0.0094
553.5263	-0.0002
553.7209	-0.0018
553.9156	0.0075
554.1102	-0.0063
554.3048	0.0113
554.4994	0.0045
554.694	-0.0001
554.8885	-0.0005
555.0831	0.0082
555.2776	-0.0095
555.4721	-0.0127
555.6666	-0.0027
555.8611	-0.009
556.0555	-0.0003
556.25	-0.0043
556.4444	0.0024
556.6388	-0.0051
556.8332	0.001
557.0276	0.0041
557.222	-0.0029
557.4163	-0.0002
557.6107	-0.0061
557.805	-0.0076
557.9993	0.0014
558.1936	0.0114
558.3879	-0.0067
558.5821	0.0014
558.7764	0.0128
558.9706	-0.0018
559.1648	0.0042
559.359	0.0057
559.5532	-0.0055
559.7473	0.0083
559.9415	0.0028
560.1356	0.0047
560.3297	0.0003
560.5238	0.0087
560.7179	-0.0058
560.9119	0.0149
561.106	0.0072
561.3	-0.0015
561.494	0.008
561.688	0.0088
561.882	-0.0047
562.076	0.0049
562.2699	0.0072
562.4639	0.0074
562.6578	0.003
562.8517	0.0009
563.0456	0.0009
563.2395	-0.0003
563.4333	-0.0016
563.6272	0.0108
563.821	0.0059
564.0148	-0.0138
564.2086	0.0054
564.4024	-0.0112
564.5961	0.004
564.7899	0.0065
564.9836	-0.0073
565.1773	-0.0069
565.371	0.0033
565.5647	0.0002
565.7584	-0.0023
565.952	-0.0107
566.1456	0.0009
566.3393	0.0084
566.5329	-0.0018
566.7264	-0.0029
566.92	-0.0022
567.1136	0.0032
567.3071	0.0018
567.5006	-0.0067
567.6941	0.0039
567.8876	0.0052
568.0811	-0.0105
568.2745	0.0027
568.468	0.0057
568.6614	0.0063
568.8548	-0.0033
569.0482	0.0042
569.2416	-0.004
569.4349	-0.0006
569.6283	0.0006
569.8216	0.0002
570.0149	0.0035
570.2082	0.0002
570.4015	0.0023
570.5947	-0.0029
570.788	0.0006
570.9812	-0.0008
571.1744	0.0018
571.3676	-0.002
571.5608	-0.0048
571.754	-0.0001
571.9471	0.0039
572.1402	0.004
572.3333	0.0025
572.5264	0.0037
572.7195	0.008
572.9126	-0.0021
573.1057	-0.0049
573.2987	0.0003
573.4917	0.0001
573.6847	-0.0008
573.8777	0.0029
574.0707	-0.0017
574.2636	-0.001
574.4566	-0.001
574.6495	0.0052
574.8424	-0.0007
575.0353	-0.0048
575.2281	-0
575.421	-0.0014
575.6138	-0.0003
575.8067	-0.0031
575.9995	-0
576.1923	0.0008
576.385	-0.0038
576.5778	-0.0024
576.7706	0.0056
576.9633	0.0031
577.156	-0.0017
577.3487	0.0028
577.5414	-0.0001
577.734	0.0005
577.9267	-0.0008
578.1193	-0.0015
578.3119	-0.002
578.5045	-0.0022
578.6971	-0.0022
578.8897	0.0026
579.0822	0.004
579.2747	-0.0039
579.4673	-0.0007
579.6598	-0.0011
579.8522	0.0045
580.0447	0.0037
580.2372	-0.0016
580.4296	-0.0006
580.622	0.0036
580.8144	0.0005
581.0068	-0.0013
581.1992	0.0011
581.3915	-0.0013
581.5839	0.0039
581.7762	0.0007
581.9685	-0.0033
582.1608	0.0008
582.353	-0.0014
582.5453	0.0035
582.7375	-0.0021
582.9298	-0.0047
583.122	-0.0002
583.3142	0.0043
583.5063	-0.0013
583.6985	-0.0023
583.8906	-0.0018
584.0827	-0.0008
584.2749	-0.0016
584.4669	-0.0023
584.659	-0.0002
584.8511	-0.0012
585.0431	0.0021
585.2352	-0.0079
585.4272	-0.0037
585.6192	0.0025
585.8111	-0.0044
586.0031	-0.0013
586.195	0.0033
586.387	0.0026
586.5789	0.0019
586.7708	0.0009
586.9627	0.001
587.1545	0.0018
587.3464	0.0003
587.5382	-0.0015
587.73	0.0046
587.9218	-0.0035
588.1136	-0.0012
588.3053	-0.0016
588.4971	0.0008
588.6888	-0.0034
588.8805	0.0072
589.0722	0.0031
589.2639	0.0001
589.4556	-0.0032
589.6472	0.0062
589.8389	0.0039
590.0305	0.0052
590.2221	-0.0005
590.4137	-0.0036
590.6052	0.003
590.7968	-0.0016
590.9883	0.0075
591.1798	-0.0089
591.3713	-0.0011
591.5628	-0.0039
591.7543	0.0044
591.9458	-0.0033
592.1372	-0.002
592.3286	-0.0056
592.52	-0.0001
592.7114	-0.0099
592.9028	-0.0049
593.0941	-0.0013
593.2855	0.0007
593.4768	-0.0025
593.6681	0.0047
593.8594	-0.0067
594.0506	0.0044
594.2419	-0.0045
594.4331	-0.0015
594.6244	0.0041
594.8156	0.0038
595.0067	0.0041
595.1979	-0.0041
595.3891	-0.0077
595.5802	-0.0061
595.7713	0.0019
595.9624	-0.0011
596.1535	0.0011
596.3446	0.0027
596.5357	-0.0007
596.7267	0.0001
596.9177	0.0046
597.1087	-0.0026
597.2997	0.0025
597.4907	-0.0019
597.6817	-0.0062
597.8726	0.0051
598.0635	0.0004
598.2544	-0.006
598.4453	-0.0045
598.6362	-0.0019
598.827	0
599.0179	0.0017
599.2087	-0.0069
599.3995	0.0033
599.5903	-0.0037
599.7811	0.0005
599.9718	0.0025
600.1626	0.0015
600.3533	-0.0029
600.544	-0.0041
600.7347	-0.0009
600.9254	0.0011
601.116	-0.0006
601.3067	0.0068
601.4973	0.0077
601.6879	0
601.8785	0.0039
602.0691	0.0004
602.2596	-0.0035
602.4502	-0.0029
602.6407	-0.0005
602.8312	0.0044
603.0217	0.0018
603.2122	0.0027
603.4027	-0.0035
603.5931	0.0028
603.7835	0.0032
603.9739	0.0055
604.1643	0.0046
604.3547	0.0089
604.5451	0.0013
604.7354	-0.0048
604.9257	-0.0032
605.116	0
605.3063	-0.0016
605.4966	-0.001
605.6869	-0.0056
605.8771	-0.0018
606.0673	-0.0066
606.2575	-0.0021
606.4477	0.0066
606.6379	-0.0056
606.8281	-0.0048
607.0182	-0.0059
607.2083	-0.0014
607.3985	0.0003
607.5885	0.0048
607.7786	0.0041
607.9687	-0.0014
608.1587	-0.0032
608.3488	-0.0022
608.5388	0.0022
608.7288	-0.0082
608.9187	0.0128
609.1087	-0.0045
609.2986	-0.005
609.4886	-0.0017
609.6785	0.0012
609.8684	-0.0029
610.0582	-0.0003
610.2481	-0.0015
610.4379	0.0032
610.6278	-0.0039
610.8176	0.0002
611.0074	-0.0062
611.1971	0.0017
611.3869	-0.0057
611.5766	-0.0046
611.7664	0.0097
611.9561	0.0031
612.1458	0.0002
612.3354	0.0036
612.5251	-0.0055
612.7147	0.0099
612.9044	-0.0042
613.094	-0.0041
613.2836	-0.0004
613.4731	0.0033
613.6627	0.006
613.8522	0.0005
614.0417	0.0025
614.2313	-0.0104
614.4207	-0.0025
614.6102	-0.0036
614.7997	-0.0029
614.9891	0.0013
615.1785	0.0018
615.3679	0.0077
615.5573	-0.008
615.7467	0.0031
615.9361	-0.0045
616.1254	-0.0081
616.3147	-0.0018
616.504	-0.0007
616.6933	-0.0059
616.8826	0.0134
617.0718	-0.0081
617.2611	0.002
617.4503	-0.0013
617.6395	0.0022
617.8287	0.0107
618.0179	-0.0003
618.207	0.0042
618.3961	-0.0042
618.5853	0.0017
618.7744	0.0046
618.9634	0.0063
619.1525	-0.0008
619.3416	-0.002
619.5306	0.0019
619.7196	-0.0051
619.9086	0.001
620.0976	0.0006
620.2866	0.013
620.4755	0.0202
620.6645	0.0009
620.8534	-0.0038
621.0423	0.0025
621.2312	-0.0078
621.42	-0.008
621.6089	0.0019
621.7977	-0.0055
621.9865	0.005
622.1753	0.0016
622.3641	-0.0081
622.5529	-0.0074
622.7416	-0.0025
622.9303	0.0028
623.1191	0.0001
623.3078	-0.0023
623.4964	-0.0081
623.6851	0.0023
623.8737	0.0096
624.0624	0.0007
624.251	0.0012
624.4396	-0.0003
624.6282	-0.0002
624.8167	0.0028
625.0053	-0.0098
625.1938	-0.0045
625.3823	-0.0031
625.5708	-0.0047
625.7593	-0.0063
625.9477	0.0003
626.1362	-0.0088
626.3246	-0.0057
626.513	0.0012
626.7014	-0.0162
626.8898	0.0032
627.0781	0.0001
627.2665	0.0086
627.4548	-0.0036
627.6431	-0.0152
627.8314	0.0018
628.0197	0.0034
628.2079	-0.0072
628.3962	-0.0061
628.5844	-0.0006
628.7726	-0.007
628.9608	-0.0118
629.1489	0.0052
629.3371	-0.0106
629.5252	0.0143
629.7134	0.0129
629.9015	-0.0018
630.0895	-0.0019
630.2776	-0.0052
630.4657	0.001
630.6537	-0.0115
630.8417	-0.0056
631.0297	0.0018
631.2177	0.0064
631.4057	-0.0079
631.5936	-0.0028
631.7815	-0.0126
631.9695	0.0192
632.1574	-0.0068
632.3452	0.0004
632.5331	-0.0015
632.7209	0.0143
632.9088	-0.0011
633.0966	0.0076
633.2844	0.0007
633.4722	0.0169
633.6599	-0.0111
633.8477	-0.0019
634.0354	0.0083
634.2231	0.018
634.4108	-0.001
634.5985	0.0019
634.7861	-0.0037
634.9738	0.0092
635.1614	0.0065
635.349	0.0014
635.5366	0.0002
635.7242	-0.0028
635.9117	-0.0018
636.0993	-0.0205
636.2868	0.0007
636.4743	0.0131
636.6618	0.0036
636.8492	-0.0029
637.0367	0.0015
637.2241	-0.0014
637.4115	0.0081
637.5989	0.0038
637.7863	-0.0117
637.9737	-0.0024
638.161	-0.0064
638.3484	0.0024
638.5357	0.0034
638.723	-0.0039
638.9103	0.0045
639.0975	0.0027
639.2848	0.0264
639.472	0.0033
639.6592	0.0015
639.8464	0.0019
640.0336	-0.0013
640.2208	-0.0056
640.4079	0.0108
640.595	-0.0051
640.7821	0.0004
640.9692	-0.0039
641.1563	0.0118
641.3434	0.0011
641.5304	-0.0032
641.7174	0.0141
641.9044	0
642.0914	-0.0086
642.2784	0.0325
642.4653	-0.0013
642.6523	-0.0035
642.8392	0.0104
643.0261	-0.0049
643.213	0.0021
643.3999	-0.0041
643.5867	-0.0035
643.7735	0.0041
643.9604	0.0005
644.1472	0
644.3339	-0.0061
644.5207	-0.0097
644.7075	-0.0177
644.8942	-0.0036
645.0809	-0.0188
645.2676	0.0045
645.4543	-0.0046
645.6409	-0.0139
645.8276	-0.0058
646.0142	0.0249
646.2008	-0.0039
646.3874	-0.0043
646.574	0.0013
646.7605	-0.0002
646.9471	0.0031
647.1336	-0.0093
647.3201	0.0043
647.5066	-0.0006
647.6931	0.0019
647.8795	0.0072
648.0659	-0.0283
648.2524	0.0053
648.4388	-0.0061
648.6252	-0.0184
648.8115	0.0142
648.9979	0.0014
649.1842	-0.0046
649.3705	0.0081
649.5568	-0.0189
649.7431	-0.0176
649.9294	-0.0218
650.1156	-0.0231
650.3018	0.0094
650.488	0.0044
650.6742	0.0162
650.8604	-0.0038
651.0466	0.0249
651.2327	-0.0145
651.4188	-0.0162
651.6049	-0.0077
651.791	0.0129
651.9771	-0.004
652.1632	0.0043
652.3492	-0.0039
652.5352	-0.0053
652.7212	-0.0167
652.9072	-0.0002
653.0932	-0.0074
653.2791	-0.0133
653.465	0.0107
653.651	-0.0006
653.8369	0.0042
654.0227	-0.0088
654.2086	-0.0234
654.3944	-0.0142
654.5803	0.0017
654.7661	-0.0019
654.9519	-0.0011
655.1377	-0.0001
655.3234	-0.0001
655.5092	-0.0001
655.6949	-0.0001
655.8806	-0.0001
656.0663	-0.0001
656.2519	-0.0001
656.4376	-0.0001
656.6232	-0.0001
656.8088	-0.0001
656.9945	-0.0001
657.18	-0.0001
657.3656	-0.0001
657.5511	-0.0001
657.7367	-0.0001
657.9222	-0.0001
658.1077	-0.0001
658.2932	-0.0001
658.4786	-0.0001
658.6641	-0.0001
658.8495	-0.0001
659.0349	-0.0001
659.2203	-0.0001
659.4057	0.0121
659.591	0.061
659.7764	0.0066
659.9617	-0.0024
660.147	-0.0139
660.3323	-0.0012
660.5176	0.0023
660.7028	0.0089
660.888	0.0079
661.0733	0.0063
661.2585	0.0113
661.4436	-0.0015
661.6288	0.0066
661.8139	0.0065
661.9991	0.0148
662.1842	0.0295
662.3693	-0.004
662.5544	0.0083
662.7394	0.0069
662.9245	0.0146
663.1095	0.0003
663.2945	-0.0075
663.4795	-0.016
663.6644	0.0049
663.8494	0.0137
664.0343	-0.0153
664.2193	-0.011
664.4042	-0.017
664.589	-0.0108
664.7739	-0.0183
664.9587	-0.0044
665.1436	0.0065
665.3284	0.0013
665.5132	-0.0057
665.698	-0.0206
665.8827	-0.0278
666.0675	-0.0081
666.2522	0.0114
666.4369	-0.0093
666.6216	-0.0242
666.8063	-0.0125
666.9909	0.0077
667.1756	0.019
667.3602	-0.0206
667.5448	-0.0073
667.7294	-0.0141
667.9139	-0.0273
668.0985	-0.0309
668.283	0.0035
668.4675	-0.0049
668.652	-0.0102
668.8365	-0.0138
669.0209	-0.0186
669.2054	0.0179
669.3898	0.0218
669.5742	0.0182
669.7586	0.0044
669.943	-0.0284
670.1273	0.0082
670.3117	0.0115
670.496	0.0118
670.6803	0.014
670.8646	-0.0005
671.0488	-0.016
671.2331	-0.012
671.4173	0.0033
671.6015	-0.0039
671.7857	-0.0129
671.9699	-0.0048
672.1541	-0.0041
672.3382	0.0023
672.5223	0.0024
672.7064	0.0037
672.8905	0.0151
673.0746	-0.0086
673.2587	0.0115
673.4427	-0.0075
673.6267	-0.0055
673.8107	-0.0135
673.9947	-0.0104
674.1787	0.0132
674.3626	0.004
674.5465	0.011
674.7304	-0.0281
674.9143	-0.0012
675.0982	-0.0018
675.2821	0.0015
675.4659	-0.0255
675.6497	0.0145
675.8335	0.0096
676.0173	0.0301
676.2011	-0.0259
676.3849	-0.0074
676.5686	0.0107
676.7523	-0.0032
676.936	-0.0264
677.1197	0.0197
677.3034	0.015
677.487	-0.0107
677.6706	0.008
677.8542	0.0161
678.0378	-0.0042
678.2214	-0.01
678.405	0.001
678.5885	0.0065
678.772	-0.0077
678.9555	-0.0087
679.139	-0.0095
679.3225	-0.0165
679.5059	-0.0113
679.6894	-0.0206
679.8728	0.0013
680.0562	-0.0015
680.2395	-0.0052
680.4229	-0.0105
680.6062	-0.0091
680.7896	0.0068
680.9729	0.0199
681.1562	-0.0024
681.3394	-0.0143
681.5227	-0.0123
681.7059	-0.0059
681.8891	0.0165
682.0723	-0.0268
682.2555	0.0097
682.4387	0.0027
682.6218	-0.0172
682.805	-0.0154
682.9881	0.0068
683.1712	0.0034
683.3542	-0.0173
683.5373	0.0132
683.7203	0.0063
683.9034	0.0109
684.0864	0
684.2694	0
684.4523	0.0067
684.6353	0.0183
684.8182	-0.026
685.0011	-0.0073
685.184	-0.0038
685.3669	-0.001
685.5498	0.002
685.7326	-0.0127
685.9154	0.0004
686.0982	0.0173
686.281	0.0036
686.4638	0.0189
686.6465	0.0017
686.8293	0.0005
687.012	-0.0088
687.1947	0.0071
687.3774	-0.0124
687.56	-0.0016
687.7427	-0.0122
687.9253	0.0063
688.1079	0.0039
688.2905	-0.0246
688.4731	0.0229
688.6556	-0.0017
688.8382	0.0106
689.0207	0.0133
689.2032	-0.0061
689.3857	-0.0096
689.5681	-0.0162
689.7506	-0.0065
689.933	-0.0118
690.1154	0.0064
690.2978	-0.006
690.4802	0.0005
690.6626	-0.0139
690.8449	-0.0265
691.0272	-0.0082
691.2095	-0.0071
691.3918	-0.0081
691.5741	-0.0002
691.7563	0.0188
691.9386	-0.0104
692.1208	-0.0176
692.303	-0.0012
692.4852	0.007
692.6673	-0.0189
692.8495	-0.0111
693.0316	-0.0114
693.2137	0.0215
693.3958	-0.0085
693.5778	-0.0248
693.7599	-0.0203
693.9419	0.0249
694.1239	-0.006
694.3059	-0.0324
694.4879	-0.0085
694.6699	0.0071
694.8518	-0.003
695.0337	-0.0017
695.2157	-0.0113
695.3975	0.0007
695.5794	-0.0359
695.7613	0.0294
695.9431	-0.0072
696.1249	0.0024
696.3067	-0.0067
696.4885	-0.0176
696.6703	-0.0071
696.852	0.0036
697.0337	0.0002
697.2154	0.0155
697.3971	-0.0036
697.5788	0.0198
697.7605	-0.0052
697.9421	-0.0087
698.1237	0.0046
698.3053	-0.011
698.4869	-0.016
698.6685	0.006
698.85	-0.0159
699.0315	0.0147
699.213	0.0136
699.3945	-0.0166
699.576	-0.016
699.7575	-0.0335
699.9389	-0.0148
700.1203	0.0042
700.3017	-0.0246
700.4831	-0.0003
700.6645	-0.0055
700.8458	0.0071
701.0271	-0.0162
701.2084	-0.0063
701.3897	-0.0183
701.571	0.0176
701.7523	-0.0065
701.9335	0.011
702.1147	-0.004
702.2959	0.0163
702.4771	-0.0024
702.6583	0.0014
702.8394	-0.0116
703.0205	-0.0124
703.2016	-0.0014
703.3827	0.0304
703.5638	0.0043
703.7449	-0.0027
703.9259	0.0095
704.1069	0.031
704.2879	0.0123
704.4689	0.0211
704.6499	-0.009
704.8308	-0.0117
705.0117	-0.0277
705.1927	-0.0145
705.3735	0.0317
705.5544	0.0019
705.7353	0.0021
705.9161	0.0165
706.0969	-0.0032
706.2777	0.006
706.4585	0.019
706.6393	-0.0042
706.82	-0.0217
707.0007	0.004
707.1815	0.0198
707.3621	0.0025
707.5428	0.0077
707.7235	0.0263
707.9041	-0.0172
708.0847	-0.008
708.2653	0.0047
708.4459	0.0001
708.6265	-0.0364
708.807	0.0053
708.9875	-0.0058
709.168	0.0156
709.3485	0.0025
709.529	0.0268
709.7095	-0.0197
709.8899	0.0023
710.0703	0.0083
710.2507	-0.036
710.4311	-0.0022
710.6115	-0.0052
710.7918	-0.0219
710.9721	-0.0039
711.1524	-0.0235
711.3327	-0.0075
711.513	-0.0188
711.6932	-0.0352
711.8735	0.0005
712.0537	-0.002
712.2339	0.0148
712.4141	0.0233
712.5942	-0.0089
712.7744	0.0159
712.9545	0.0154
713.1346	0.0247
713.3147	0.0081
713.4947	-0.0025
713.6748	-0.0315
713.8548	-0.0045
714.0348	0.0105
714.2148	-0.0113
714.3948	0.0095
714.5748	-0.013
714.7547	-0.0121
714.9346	0.0091
715.1145	-0.0148
715.2944	-0.001
715.4743	0.0183
715.6541	-0.0266
715.834	0.001
716.0138	0.0393
716.1936	0.0158
716.3733	0.015
716.5531	-0.0084
716.7328	-0.0352
716.9126	-0.0095
717.0923	0.0218
717.2719	-0.0106
717.4516	-0.0251
717.6312	-0.0352
717.8109	0.0129
717.9905	0.007
718.1701	-0.021
718.3496	-0.0039
718.5292	0.0147
718.7087	0.0166
718.8882	0.0298
719.0677	-0.0221
719.2472	0.0212
719.4267	0.0107
719.6061	0.0134
719.7856	-0.0164
719.965	0.0153
720.1443	-0.0232
720.3237	0.0239
720.5031	0.0046
720.6824	0.0055
720.8617	0.022
721.041	0.0064
721.2203	-0.0003
721.3995	-0.0066
721.5788	-0.0229
721.758	0.0039
721.9372	0.0092
722.1164	0.003
722.2956	-0.0008
722.4747	0.034
722.6538	0.0125
722.8329	-0.0385
723.012	0.0169
723.1911	0.0443
723.3702	-0.018
723.5492	-0.0083
723.7282	0.0243
723.9072	-0.0264
724.0862	0.036
724.2652	-0.0178
724.4441	0.0278
724.623	-0.0288
724.8019	-0.0093
724.9808	-0.0253
725.1597	-0.0038
725.3385	0.0001
725.5174	0.0264
725.6962	0.0164
725.875	-0.0124
726.0538	0.0105
726.2325	0.0159
726.4112	0.008
726.59	-0.0115
726.7687	0.0082
726.9474	-0.0128
727.126	-0.0137
727.3047	-0.0107
727.4833	0.0403
727.6619	0.0189
727.8405	0.0007
728.0191	-0.0338
728.1976	-0.0171
728.3762	-0.0206
728.5547	-0.018
728.7332	0.0015
728.9116	-0.0342
729.0901	-0.0015
729.2686	-0.0348
729.447	0.0106
729.6254	0.0283
729.8038	0.0043
729.9821	0.0175
730.1605	0.0048
730.3388	-0.0209
730.5171	-0.0165
730.6954	0.0226
730.8737	0.0065
731.0519	0.0018
731.2302	-0.0146
731.4084	0.01
731.5866	-0.0092
731.7648	-0.0313
731.9429	0.0075
732.1211	-0.0114
732.2992	-0.0158
732.4773	-0.0166
732.6554	-0.008
732.8335	0.0025
733.0115	-0.0212
733.1896	-0.0027
733.3676	-0.0041
733.5456	0.0005
733.7235	0.0188
733.9015	0.0032
734.0794	-0.0101
734.2574	0.001
734.4353	-0.0057
734.6131	-0.0137
734.791	0.0221
734.9689	-0.0092
735.1467	0.0105
735.3245	0.0107
735.5023	0.0112
735.68	-0.0098
735.8578	0.0146
736.0355	0.0125
736.2132	0.0164
736.3909	-0.0158
736.5686	0.0097
736.7463	-0.0189
736.9239	0.0109
737.1015	-0.0021
737.2791	-0.0013
737.4567	-0.0075
737.6343	-0.0124
737.8118	-0.004
737.9894	-0.0014
738.1669	-0.0069
738.3444	-0.0116
738.5218	0.0124
738.6993	0.0178
738.8767	-0.0007
739.0541	0.0133
739.2315	-0.0048
739.4089	-0.0102
739.5863	-0.0015
739.7636	0.0108
739.9409	-0.0061
740.1182	-0.0207
740.2955	-0.0376
740.4728	0.0201
740.65	-0.0152
740.8272	-0.0127
741.0044	-0.007
741.1816	0.0221
741.3588	-0.0223
741.5359	0.0233
741.7131	0.0083
741.8902	-0.0186
742.0673	0.0063
742.2444	-0.0044
742.4214	-0.0164
742.5985	0.0088
742.7755	-0.0067
742.9525	-0.004
743.1295	0.0164
743.3064	0.032
743.4834	0.0231
743.6603	0.0068
743.8372	0.0087
744.0141	0.0197
744.191	-0.0324
744.3678	0.0443
744.5446	-0.0049
744.7215	-0.0226
744.8982	0.0234
745.075	0.0106
745.2518	0.0201
745.4285	-0.0174
745.6052	0.0128
745.7819	0.0132
745.9586	0.028
746.1353	-0.0019
746.3119	0.004
746.4885	-0.0128
746.6651	0.002
746.8417	-0.0213
747.0183	-0.0304
747.1948	0.0005
747.3714	0.0063
747.5479	-0.0036
747.7244	-0.0357
747.9008	0.0191
748.0773	0.0114
748.2537	0.0342
748.4301	-0.0009
748.6065	-0.0346
748.7829	-0.0216
748.9593	0.0153
749.1356	0.004
749.3119	-0.0223
749.4882	0.0064
749.6645	0.0229
749.8408	-0.0213
750.017	-0.0132
750.1933	0.0334
750.3695	0.0163
750.5457	-0.0104
750.7218	0.0123
750.898	-0.0167
751.0741	-0.006
751.2502	-0.0025
751.4263	-0.0178
751.6024	0.0246
751.7784	-0.0187
751.9545	-0.0099
752.1305	-0.0072
752.3065	-0.0018
752.4825	-0.0054
752.6584	0.0033
752.8344	0.0268
753.0103	-0.0108
753.1862	-0.0029
753.3621	-0.0163
753.5379	-0.0306
753.7138	-0.0138
753.8896	0.021
754.0654	-0.001
754.2412	0.0244
754.417	-0.0297
754.5927	-0.0132
754.7685	-0.0191
754.9442	0.0075
755.1199	-0.0081
755.2956	0.0232
755.4712	-0.035
755.6469	0.0073
755.8225	0.0009
755.9981	0.0141
756.1736	0.0192
756.3492	-0.0203
756.5248	-0.0128
756.7003	-0.0053
756.8758	-0.0006
757.0513	-0.008
757.2267	-0.0144
757.4022	0.0014
757.5776	-0.0164
757.753	-0.0217
757.9284	0.001
758.1038	-0.0099
758.2791	-0.0113
758.4545	-0.0259
758.6298	-0.0153
758.8051	-0.008
758.9803	-0.0211
759.1556	-0.0202
759.3308	0.0058
759.506	0.0145
759.6812	-0.0086
759.8564	-0.0096
760.0316	0.006
760.2067	-0.025
760.3819	-0.0127
760.557	0.0003
760.732	0.0312
760.9071	0.002
761.0821	0.0164
761.2572	0.0149
761.4322	-0.0246
761.6072	-0.0236
761.7821	0.0038
761.9571	-0.0007
762.132	-0.0121
762.3069	-0.0262
762.4818	-0.0011
762.6567	0.01
762.8316	0.0074
763.0064	-0.0047
763.1812	-0.014
763.356	0.0127
763.5308	0.0114
763.7055	-0.0131
763.8803	-0.0114
764.055	-0.0051
764.2297	-0.0149
764.4044	-0.0128
764.579	-0.012
764.7537	-0.0303
764.9283	-0.0316
765.1029	0.0165
765.2775	-0.0116
765.4521	0.0102
765.6266	-0.0314
765.8011	-0.0014
765.9756	0.0157
766.1501	0.0218
766.3246	0.0053
766.4991	0.0001
766.6735	-0.0329
766.8479	-0.0117
767.0223	0.0197
767.1967	0.0062
767.371	-0.0069
767.5454	0.0224
767.7197	0.001
767.894	-0.0165
768.0683	-0.0106
768.2425	0.0132
768.4168	0.014
768.591	0.0079
768.7652	-0.0232
768.9394	-0.0166
769.1135	-0.003
769.2877	-0.0166
769.4618	-0.0059
769.6359	0.0018
769.81	-0.0166
769.984	-0.0166
770.1581	-0.0115
770.3321	-0.0208
770.5061	0.0068
770.6801	0.0224
770.8541	0.0004
771.028	0.0019
771.202	-0.0418
771.3759	0.0106
771.5498	-0.0129
771.7236	-0.0266
771.8975	-0.0445
772.0713	0.0117
772.2451	0.0141
772.4189	-0.0215
772.5927	0.0067
772.7665	-0.0105
772.9402	0.0148
773.1139	-0.0071
773.2876	-0.0048
773.4613	0.003
773.635	-0.0027
773.8086	-0.0068
773.9822	0.0084
774.1558	-0.0384
774.3294	-0.0146
774.503	0.0057
774.6765	0.0146
774.8501	0.0163
775.0236	-0.0042
775.1971	-0.013
775.3705	-0.0118
775.544	0.0779
775.7174	-0.015
775.8908	0.0203
776.0642	-0.0041
776.2376	-0.0124
776.4109	0.0559
776.5843	-0.0285
776.7576	0.0258
776.9309	-0.0015
777.1041	-0.0615
777.2774	-0.0098
777.4506	-0.0339
777.6238	0.0018
777.797	-0.0161
777.9702	0.0444
778.1434	-0.0167
778.3165	-0.009
778.4896	-0.0352
778.6627	0.0313
778.8358	-0.0275
779.0089	0.0096
779.1819	0.0159
779.3549	0.021
779.5279	-0.0189
779.7009	-0.0078
779.8739	-0.0252
780.0468	0.0171
780.2197	-0.0381
780.3926	-0.0342
780.5655	-0.0011
780.7384	-0.0025
780.9112	0.0125
781.0841	-0.016
781.2569	0.0116
781.4297	0.0137
781.6024	-0.0057
781.7752	-0.0389
781.9479	-0.0005
782.1206	0.0203
782.2933	0.013
782.466	-0.0119
782.6386	-0.0128
782.8113	0.0001
782.9839	0.0194
783.1565	0.0013
783.329	-0.0134
783.5016	-0.0245
783.6741	-0.0248
783.8466	-0.0169
784.0191	-0.0113
784.1916	-0.0068
784.3641	-0.0416
784.5365	0.0468
784.7089	0.0009
784.8813	0.0068
785.0537	-0.0248
785.2261	-0.0232
785.3984	-0.0108
785.5707	0.0323
785.743	-0.0193
785.9153	0.0022
786.0876	-0.0307
786.2598	-0.0013
786.432	-0.0326
786.6042	-0.0079
786.7764	-0.0287
786.9486	0.0062
787.1207	0.0224
787.2928	0.0045
787.4649	-0.0156
787.637	0.0296
787.8091	-0.0171
787.9811	0.0215
788.1532	0.0206
788.3252	-0.0227
788.4972	0.012
788.6691	-0.0116
788.8411	0.0019
789.013	0.0094
789.1849	-0.0299
789.3568	0.0471
789.5287	-0.052
789.7005	0.0085
789.8723	-0.0647
790.0442	-0.0859
790.2159	0.0437
790.3877	-0.0198
790.5595	0.0657
790.7312	-0.0353
790.9029	-0.0235
791.0746	-0.0032
791.2463	-0.0192
791.4179	-0.0296
791.5896	-0.0246
791.7612	-0.0102
791.9328	0.0462
792.1044	-0.0096
792.2759	-0.002
792.4474	-0.0429
792.619	0.0451
792.7905	-0.0278
792.9619	-0.0313
793.1334	-0.0278
793.3048	0.0022
793.4762	-0.0473
793.6476	-0.0369
793.819	-0.0265
793.9904	0.0077
794.1617	-0.0095
794.333	-0.0307
794.5043	-0.0061
794.6756	0.0252
794.8469	0.0123
795.0181	-0.0161
795.1893	-0.0189
795.3605	-0.0215
795.5317	-0.0288
795.7029	0.025
795.874	0.0011
796.0452	0.0287
796.2163	0.0252
796.3873	0.0462
796.5584	0.0474
796.7294	-0.1153
796.9005	-0.0664
797.0715	0.0182
797.2425	-0.0309
797.4134	0.0271
797.5844	0.0796
797.7553	0.0129
797.9262	-0.0118
798.0971	-0.0706
798.2679	0.0087
798.4388	-0.0459
798.6096	-0.0782
798.7804	-0.0087
798.9512	0.0273
799.122	0.0273
799.2927	-0.0169
799.4635	0.0542
799.6342	0.0444
799.8049	0.0573
799.9755	-0.0557
800.1462	0.0337
800.3168	-0.0843
800.4874	0.1063
800.658	0.0112
800.8286	-0.0422
800.9991	0.0686
801.1696	-0.0888
801.3402	-0.0365
801.5106	-0.1302
801.6811	0.0189
801.8516	0.0217
802.022	-0.0535
802.1924	-0.0425
802.3628	-0.0567
802.5332	-0.0515
802.7035	-0.0114
802.8739	0.0171
803.0442	0.0663
803.2145	-0.0279
803.3847	-0.0872
803.555	0.0151
803.7252	0.0121
803.8954	-0.038
804.0656	-0.016
804.2358	-0.0227
804.4059	0.0867
804.5761	0.1047
804.7462	0.0354
804.9163	-0.0868
805.0864	-0.0014
805.2564	-0.0196
805.4264	-0.0438
805.5965	-0.0339
805.7665	0.0694
805.9364	-0.0769
806.1064	-0.0515
806.2763	0.0119
806.4462	-0.0453
806.6161	-0.0008
806.786	0.0177
806.9559	0.0077
807.1257	-0.0337
807.2955	0.0363
807.4653	-0.0496
807.6351	-0.0175
807.8048	-0.0306
807.9746	-0.0433
808.1443	0.0089
808.314	-0.0067
808.4837	-0.0178
808.6533	0.0062
808.8229	-0.0625
808.9926	-0.044
809.1622	0.0183
809.3317	-0.0774
809.5013	0.0941
809.6708	-0.0388
809.8403	0.0635
810.0098	0.1266
810.1793	0.0196
810.3488	0.0963
810.5182	-0.0568
810.6876	0.1031
810.857	-0.0558
811.0264	-0.0048
811.1958	-0.0817
811.3651	0.0004
811.5344	-0.0468
811.7037	-0.0665
811.873	0.1368
812.0422	0.0075
812.2115	-0.0458
812.3807	-0.0206
812.5499	0.0716
812.7191	0.2067
812.8882	-0.0234
813.0574	-0.1817
813.2265	0.0246
813.3956	0.012
813.5646	-0.0281
813.7337	-0.1125
813.9027	-0.0206
814.0718	-0.0075
814.2407	-0.1573
814.4097	-0.0439
814.5787	-0.0171
814.7476	-0.0339
814.9165	-0.0061
815.0854	0.0146
815.2543	-0.0796
815.4232	-0.143
815.592	0.0786
815.7608	0.1029
815.9296	0.3095
816.0984	0.0276
816.2671	0.0245
816.4359	0.011
816.6046	0.032
816.7733	-0.056
816.942	-0.011
817.1106	-0.1611
817.2793	-0.0356
817.4479	-0.1403
817.6165	-0.0517
817.785	0.0562
817.9536	-0.0252
818.1221	-0.0225
818.2906	0.0653
818.4591	0.0053
818.6276	-0.0865
818.7961	0.0062
818.9645	-0.065
819.1329	0.1348
819.3013	0.0248
819.4697	0.1694
819.638	0.0525
819.8064	-0.0504
819.9747	-0.0234
820.143	0.122
820.3113	0.0863
820.4795	0.011
820.6477	-0.0982
820.816	-0.0572
820.9842	-0.0849
821.1523	0.0277
821.3205	-0.1217
821.4886	0.0245
821.6567	0.0858
821.8248	-0.0167
821.9929	-0.0042
822.1609	0.007
822.329	0.0854
822.497	-0.0461
822.665	0.1736
822.833	-0.2504
823.0009	0.0389
823.1688	-0.1028
823.3367	-0.3146
823.5046	0.0316
823.6725	-0.0131
823.8404	-0.1112
824.0082	-0.0271
824.176	-0.0588
824.3438	0.0597
824.5116	0.0961
824.6793	-0.1331
824.847	0.0179
825.0147	0.1815
825.1824	0.0707
825.3501	0.0942
825.5177	0.1292
825.6854	0.0124
825.853	-0.0749
826.0206	-0.0977
826.1881	-0.0897
826.3557	0.0147
826.5232	0.1185
826.6907	0.0606
826.8582	0.1225
827.0257	-0.0459
827.1931	-0.0079
827.3605	-0.1116
827.528	-0.0583
827.6953	0.0494
827.8627	-0.0797
828.03	-0.0134
828.1974	-0.1821
828.3647	0.0174
828.532	0.3222
828.6992	0.0038
828.8665	-0.0261
829.0337	-0.0166
829.2009	0.0587
829.3681	0.0317
829.5352	0.0641
829.7024	-0.1466
829.8695	-0.0454
830.0366	0.0436
830.2037	0.0066
830.3707	-0.0701
830.5378	0.0682
830.7048	-0.2872
830.8718	-0.1223
831.0388	0.4086
831.2057	-0.2048
831.3727	-0.2394
831.5396	-0.2174
831.7065	0.2245
831.8734	0.5003
832.0402	0.0208
832.2071	0.2318
832.3739	0.1591
832.5407	-0
832.7075	0.2611
832.8742	-0.2296
833.041	-0.2116
833.2077	0.2562
833.3744	-0.0864
833.541	-0.1709
833.7077	0.1982
833.8743	-0.1706
834.0409	0.069
834.2075	-0.0123
834.3741	-0.023
834.5407	-0.2408
834.7072	0.0255
834.8737	0.0373
835.0402	-0.4486
835.2067	0.1058
835.3731	0.2729
835.5395	-0.0392
835.706	0.3772
835.8723	-0.2137
836.0387	2.8938
836.2051	0.2808
836.3714	-0.1456
836.5377	-0.0714
836.704	-0.0485
836.8703	0.0815
837.0365	0.1067
837.2027	-0.4952
837.3689	-0.2696
837.5351	-0.3371
837.7013	0.0247
837.8674	-0.9746
838.0335	-0.1685
838.1997	0.073
838.3657	-0
838.5318	-0.6032
838.6978	-0
838.8639	0.0998
839.0299	0.2466
839.1958	0.2242
839.3618	0.5437
839.5277	-0.3392
839.6937	-0.5691
839.8596	-0.0137
840.0254	0.0008
840.1913	0.3239
840.3571	-0.3432
840.523	0.1013
840.6888	-0.0835
840.8545	0.0648
841.0203	-0.2679
841.186	-0.0179
841.3517	0.0144
841.5174	0.3481
841.6831	0.0294
841.8488	0.2292
842.0144	0.159
842.18	0.7762
842.3456	-0.0657
842.5112	-0
842.6767	-0.3796
842.8422	-0.0386
843.0077	0.2421
843.1732	-0.1854
843.3387	-0.4354
843.5042	-0.2368
843.6696	0.0881
843.835	-0.2048
844.0004	0.0347
844.1657	-0.0431
844.3311	0.4771
844.4964	0.1013
844.6617	-0
844.827	0.1985
844.9923	0.2561
845.1575	-0
845.3227	0.0131
845.4879	0.0864
845.6531	-0.5693
845.8183	0.3659
845.9834	-0.7564
846.1485	-0.1338
846.3136	0.34
846.4787	-0.2418
846.6438	0.2527
846.8088	-1.3358
846.9738	-0.1566
847.1388	0.3278
847.3038	-0.3523
847.4687	-0
847.6337	0.0909
847.7986	0.091
847.9635	-0.2218
848.1284	-0
848.2932	-0.3308
848.458	0.1455
848.6228	0.0955
848.7876	0.1316
848.9524	-0
849.1172	0.9771
849.2819	-0
849.4466	-0.2256
849.6113	-0.257
849.7759	0.3985
849.9406	0.5311
850.1052	-0.1806
850.2698	-1.4838
850.4344	-0.1486
850.599	-0.1341
850.7635	-0
850.928	0.4843
851.0925	-0.2542
851.257	-0.6492
851.4215	0.3054
851.5859	0.0826
851.7503	-0
851.9147	-0
852.0791	-0.3267
852.2434	-0.1128
852.4078	-0
852.5721	-0
852.7364	-0.0122
852.9007	-0.2076
853.0649	1.1689
853.2291	-0.0074
853.3934	0.0539
853.5575	-0.2388
853.7217	-0.4207
853.8859	-0
854.05	-1.1834
854.2141	0.3255
854.3782	0.5104
854.5423	0.4771
854.7063	-0.1164
854.8703	-0.0059
855.0343	0.104
855.1983	-0.2933
855.3623	0.0261
855.5262	-1.0658
855.6901	1.3256
855.854	-0.0772
856.0179	-0
856.1818	-0.5162
856.3456	-0.0441
856.5094	-0
856.6732	-0.8394
856.837	0.2787
857.0008	-0
857.1645	-0
857.3282	0.1599
857.4919	-0.1992
857.6556	0.5868
857.8192	-0.2813
857.9828	-0.4793
858.1465	0.443
858.31	-0
858.4736	0.0717
858.6372	0.5003
858.8007	-1.3475
858.9642	0.5042
859.1277	-0
859.2911	-0.1274
859.4546	-0.0111
859.618	-0
859.7814	-0.2402
859.9448	0.3967
860.1081	-0
860.2715	0.345
860.4348	0.1145
860.5981	0.1323
860.7614	-0
860.9246	-0.2487
861.0879	-0
861.2511	0.6275
861.4143	-0
861.5774	0.1531
861.7406	0.2009
861.9037	0.2787
862.0668	-0.2899
862.2299	-2.1083
862.393	-0
862.556	-0.3306
862.7191	0.0581
862.8821	-0.4463
863.0451	-0.0063
863.208	-0
863.371	0.2019
863.5339	-0.1522
863.6968	-0
863.8597	-0.9306
864.0225	0.6052
864.1854	-0
864.3482	-0.3466
864.511	-0.0474
864.6737	0.1
864.8365	0.295
864.9992	-0
865.1619	0.1454
865.3246	-0.2475
865.4873	0.1931
865.65	0.1931
865.8126	0.1216
865.9752	-0.3618
866.1378	-0.4425
866.3004	-0.0791
866.4629	-0
866.6254	-1.0102
866.7879	0.2305
866.9504	-0
867.1129	-0.3496
867.2753	-0.0437
867.4377	0.3575
867.6001	0.9334
867.7625	-0.0517
867.9249	0.0021
868.0872	-0
868.2495	-0.2838
868.4118	0.0828
868.5741	-0.3864
868.7363	-0
868.8986	-0
869.0608	0.1832
869.223	-0.07
869.3851	0.8949
869.5473	-1.5291
869.7094	-0.0464
869.8715	0.2704
870.0336	0.0117
870.1957	-0.9742
870.3577	-0.196
870.5197	-0.0666
870.6817	-0
870.8437	0.6664
871.0057	-0
871.1676	0.0724
871.3295	-0
871.4914	-0.1939
871.6533	0.0297
871.8151	0.0071
871.977	0.3242
872.1388	-0.9944
872.3006	-0.0302
872.4623	-0.3972
872.6241	-2.1472
872.7858	-0.4537
872.9475	-0.7533
873.1092	0.3326
873.2709	0.0982
873.4325	-0
873.5941	-0.1943
873.7557	0.2364
873.9173	-0.8201
874.0789	0.1262
874.2404	-0.1914
874.4019	-0.1038
874.5634	-0.219
874.7249	2.1303
874.8863	-0
875.0478	-0.1516
875.2092	0.3494
875.3706	-0.2475
875.5319	1.0549
875.6933	0.145
875.8546	1.0164
876.0159	-0.149
876.1772	-0.7343
876.3385	0.1976
876.4997	0.4161
876.6609	-0.8779
876.8221	0.073
876.9833	-0.0966
877.1445	-0.0474
877.3056	0.0994
877.4667	-0.2218
877.6278	-0.4914
877.7889	-0
877.9499	-0.5318
878.111	-0.0898
878.272	0.3069
878.433	-0.3658
878.5939	-0.248
878.7549	-0.0544
878.9158	-0
879.0767	-0.1444
879.2376	-0.4641
879.3984	-0.2415
879.5593	-0
879.7201	1.2265
879.8809	-0.066
880.0417	-0.0043
880.2024	-0.2729
880.3632	-0.3837
880.5239	-0
880.6846	-0.4502
880.8452	0.093
881.0059	-0.4569
881.1665	0.3137
881.3271	-0
881.4877	0.4041
881.6483	-0
881.8088	-0.0344
881.9693	0.22
882.1298	0.22
882.2903	0.22
