Data from D4ACN5uM480nmA_Absorbance_12-08-01-855.txt Node
Date: Fri Feb 21 12:08:01 GMT 2025
User: LASERRRRR
Spectrometer: FLMT03099
Trigger mode: 0
Integration Time (sec): 1.500000E-2
Scans to average: 1
Electric dark correction enabled: true
Nonlinearity correction enabled: false
Boxcar width: 0
XAxis mode: Wavelengths
Number of Pixels in Spectrum: 3648
>>>>>Begin Spectral Data<<<<<
179.3399	0.1844
179.5586	0.1844
179.7771	0.1844
179.9957	0.4753
180.2143	-0.0613
180.4329	-0
180.6514	-0
180.8699	-0.1193
181.0885	0.0279
181.307	0.2158
181.5255	-0.2093
181.744	-0
181.9625	-0.351
182.181	0.3754
182.3994	-0
182.6179	-0
182.8363	-0.2049
183.0547	-0.9423
183.2732	0.3576
183.4916	0.4273
183.71	0.4264
183.9284	0.1527
184.1467	0.2504
184.3651	0.5257
184.5835	-0.0062
184.8018	0.3623
185.0201	0.1896
185.2385	-0.0118
185.4568	0.4169
185.6751	0.3151
185.8934	0.193
186.1117	0.1275
186.3299	0.2946
186.5482	0.2976
186.7664	0.3008
186.9847	0.3092
187.2029	0.2248
187.4211	0.2769
187.6393	0.3676
187.8575	0.1736
188.0757	0.9642
188.2939	0.242
188.512	0.2148
188.7302	0.1531
188.9483	0.5329
189.1665	0.3601
189.3846	0.5674
189.6027	0.1007
189.8208	0.2631
190.0389	0.9401
190.257	0.3975
190.475	0.7499
190.6931	0.1407
190.9111	0.3821
191.1292	0.5433
191.3472	0.2868
191.5652	0.704
191.7832	0.253
192.0012	0.3597
192.2192	0.3194
192.4371	0.2252
192.6551	0.5398
192.873	0.6285
193.091	0.6475
193.3089	0.2295
193.5268	0.5629
193.7447	0.5801
193.9626	0.9571
194.1805	0.3742
194.3984	0.4957
194.6162	0.5108
194.8341	0.4368
195.0519	0.6181
195.2697	0.4672
195.4875	0.6162
195.7054	0.5864
195.9231	0.5121
196.1409	0.6645
196.3587	0.5981
196.5765	0.5558
196.7942	0.7038
197.012	0.5668
197.2297	0.4979
197.4474	0.6636
197.6651	0.7272
197.8828	0.6897
198.1005	0.6363
198.3182	0.655
198.5358	0.6437
198.7535	0.5657
198.9711	0.6088
199.1888	0.6689
199.4064	0.6364
199.624	0.5872
199.8416	0.557
200.0592	0.5352
200.2767	0.625
200.4943	0.6563
200.7119	0.655
200.9294	0.6736
201.1469	0.6318
201.3645	0.6032
201.582	0.576
201.7995	0.5982
202.017	0.5314
202.2344	0.5345
202.4519	0.6083
202.6694	0.5821
202.8868	0.5687
203.1042	0.5587
203.3217	0.5845
203.5391	0.5762
203.7565	0.5206
203.9739	0.5249
204.1913	0.5481
204.4086	0.561
204.626	0.5308
204.8433	0.5511
205.0607	0.4888
205.278	0.5545
205.4953	0.4462
205.7126	0.4841
205.9299	0.4935
206.1472	0.5091
206.3644	0.4816
206.5817	0.5208
206.7989	0.4793
207.0162	0.4632
207.2334	0.4617
207.4506	0.4983
207.6678	0.466
207.885	0.4539
208.1022	0.4595
208.3194	0.4085
208.5365	0.4659
208.7537	0.4899
208.9708	0.4463
209.1879	0.446
209.405	0.4201
209.6222	0.3933
209.8392	0.4415
210.0563	0.4219
210.2734	0.4059
210.4905	0.4103
210.7075	0.4472
210.9245	0.3898
211.1416	0.4139
211.3586	0.4189
211.5756	0.4333
211.7926	0.413
212.0096	0.4317
212.2265	0.4104
212.4435	0.4284
212.6604	0.4111
212.8774	0.4065
213.0943	0.3994
213.3112	0.4277
213.5281	0.4297
213.745	0.4005
213.9619	0.3922
214.1788	0.4182
214.3956	0.4204
214.6125	0.4035
214.8293	0.4363
215.0461	0.4258
215.2629	0.3909
215.4798	0.4295
215.6965	0.3969
215.9133	0.4256
216.1301	0.4321
216.3469	0.41
216.5636	0.4105
216.7803	0.4195
216.9971	0.4352
217.2138	0.4215
217.4305	0.4082
217.6472	0.421
217.8639	0.4205
218.0805	0.4437
218.2972	0.4067
218.5138	0.4274
218.7305	0.4175
218.9471	0.432
219.1637	0.4241
219.3803	0.4196
219.5969	0.4171
219.8135	0.4293
220.0301	0.4138
220.2466	0.4356
220.4632	0.4162
220.6797	0.4265
220.8962	0.4474
221.1127	0.4353
221.3292	0.4394
221.5457	0.4255
221.7622	0.4481
221.9787	0.4472
222.1951	0.459
222.4116	0.4357
222.628	0.4494
222.8444	0.4369
223.0608	0.4322
223.2772	0.4258
223.4936	0.4544
223.71	0.438
223.9264	0.4361
224.1427	0.44
224.3591	0.4744
224.5754	0.4588
224.7917	0.4562
225.008	0.4714
225.2243	0.4854
225.4406	0.4686
225.6569	0.4533
225.8732	0.4638
226.0894	0.4726
226.3057	0.4614
226.5219	0.4732
226.7381	0.4708
226.9543	0.4749
227.1705	0.4744
227.3867	0.4929
227.6029	0.5018
227.8191	0.4891
228.0352	0.492
228.2513	0.5034
228.4675	0.4861
228.6836	0.5091
228.8997	0.4925
229.1158	0.4906
229.3319	0.4904
229.548	0.5022
229.764	0.5177
229.9801	0.514
230.1961	0.5142
230.4121	0.5171
230.6282	0.5111
230.8442	0.5101
231.0602	0.5252
231.2761	0.5081
231.4921	0.5131
231.7081	0.5335
231.924	0.5177
232.14	0.5266
232.3559	0.5284
232.5718	0.5429
232.7877	0.5213
233.0036	0.5284
233.2195	0.5376
233.4353	0.532
233.6512	0.5383
233.867	0.5427
234.0829	0.5249
234.2987	0.5302
234.5145	0.5374
234.7303	0.5399
234.9461	0.5369
235.1619	0.5389
235.3776	0.5287
235.5934	0.5309
235.8091	0.5408
236.0249	0.5323
236.2406	0.5361
236.4563	0.5385
236.672	0.5417
236.8877	0.548
237.1034	0.52
237.319	0.5377
237.5347	0.5325
237.7503	0.5441
237.966	0.5433
238.1816	0.5314
238.3972	0.5373
238.6128	0.5401
238.8284	0.538
239.0439	0.5438
239.2595	0.5401
239.475	0.5392
239.6906	0.5241
239.9061	0.5405
240.1216	0.5397
240.3371	0.5213
240.5526	0.5181
240.7681	0.5255
240.9836	0.5201
241.199	0.5274
241.4145	0.5037
241.6299	0.4951
241.8453	0.4955
242.0607	0.4875
242.2761	0.4807
242.4915	0.469
242.7069	0.4664
242.9223	0.459
243.1376	0.4494
243.353	0.4485
243.5683	0.4409
243.7836	0.4389
243.9989	0.423
244.2142	0.4151
244.4295	0.3999
244.6448	0.3964
244.86	0.3875
245.0753	0.3784
245.2905	0.3785
245.5057	0.3744
245.721	0.363
245.9362	0.3497
246.1514	0.3407
246.3665	0.3381
246.5817	0.3379
246.7969	0.3244
247.012	0.324
247.2271	0.3115
247.4423	0.3092
247.6574	0.3119
247.8725	0.3049
248.0876	0.2938
248.3026	0.287
248.5177	0.2747
248.7328	0.2795
248.9478	0.2798
249.1628	0.2699
249.3779	0.2689
249.5929	0.2635
249.8079	0.2524
250.0228	0.2599
250.2378	0.2528
250.4528	0.2503
250.6677	0.2392
250.8827	0.2419
251.0976	0.24
251.3125	0.2352
251.5274	0.2326
251.7423	0.2278
251.9572	0.2194
252.172	0.2177
252.3869	0.2237
252.6017	0.2173
252.8166	0.2173
253.0314	0.2192
253.2462	0.2128
253.461	0.2189
253.6758	0.2084
253.8906	0.2111
254.1053	0.2046
254.3201	0.2062
254.5348	0.1975
254.7496	0.2051
254.9643	0.2032
255.179	0.2061
255.3937	0.2003
255.6083	0.2019
255.823	0.1949
256.0377	0.1948
256.2523	0.1966
256.467	0.1932
256.6816	0.2026
256.8962	0.1994
257.1108	0.2013
257.3254	0.1923
257.54	0.1998
257.7545	0.187
257.9691	0.1918
258.1836	0.193
258.3981	0.1907
258.6127	0.1839
258.8272	0.1857
259.0417	0.1867
259.2561	0.1928
259.4706	0.1918
259.6851	0.1812
259.8995	0.1861
260.114	0.1837
260.3284	0.1847
260.5428	0.1811
260.7572	0.1927
260.9716	0.18
261.186	0.1797
261.4003	0.1866
261.6147	0.187
261.829	0.1832
262.0433	0.1825
262.2577	0.1932
262.472	0.1849
262.6863	0.1896
262.9005	0.1854
263.1148	0.1837
263.3291	0.1834
263.5433	0.1867
263.7576	0.1877
263.9718	0.1897
264.186	0.186
264.4002	0.1798
264.6144	0.1855
264.8286	0.1928
265.0427	0.1842
265.2569	0.1788
265.471	0.1898
265.6851	0.1863
265.8993	0.1852
266.1134	0.1842
266.3275	0.1902
266.5415	0.1837
266.7556	0.1815
266.9697	0.1848
267.1837	0.1781
267.3978	0.1916
267.6118	0.1909
267.8258	0.1857
268.0398	0.1821
268.2538	0.1875
268.4677	0.1765
268.6817	0.1769
268.8957	0.1814
269.1096	0.1799
269.3235	0.1874
269.5374	0.178
269.7514	0.1842
269.9652	0.1832
270.1791	0.1802
270.393	0.182
270.6068	0.1753
270.8207	0.1759
271.0345	0.1703
271.2483	0.1794
271.4622	0.1789
271.676	0.1748
271.8897	0.1721
272.1035	0.1743
272.3173	0.1742
272.531	0.1764
272.7448	0.1748
272.9585	0.18
273.1722	0.1744
273.3859	0.1688
273.5996	0.1735
273.8133	0.1713
274.0269	0.1828
274.2406	0.1761
274.4542	0.166
274.6679	0.1722
274.8815	0.1744
275.0951	0.1811
275.3087	0.1783
275.5223	0.1734
275.7358	0.1761
275.9494	0.1677
276.1629	0.1802
276.3765	0.1744
276.59	0.1757
276.8035	0.1791
277.017	0.1771
277.2305	0.1791
277.444	0.174
277.6574	0.1808
277.8709	0.1771
278.0843	0.1782
278.2978	0.1787
278.5112	0.1799
278.7246	0.1762
278.938	0.1856
279.1513	0.1766
279.3647	0.1798
279.5781	0.1792
279.7914	0.1792
280.0047	0.1791
280.2181	0.1786
280.4314	0.1797
280.6447	0.1883
280.8579	0.1797
281.0712	0.1809
281.2845	0.1817
281.4977	0.1908
281.711	0.1837
281.9242	0.1848
282.1374	0.1809
282.3506	0.1818
282.5638	0.1844
282.7769	0.1866
282.9901	0.1867
283.2033	0.1851
283.4164	0.1831
283.6295	0.1868
283.8426	0.1873
284.0557	0.1888
284.2688	0.1915
284.4819	0.1873
284.695	0.1955
284.908	0.1885
285.1211	0.1897
285.3341	0.1933
285.5471	0.1899
285.7601	0.1911
285.9731	0.1872
286.1861	0.1946
286.3991	0.1936
286.612	0.1922
286.825	0.1999
287.0379	0.1964
287.2508	0.1952
287.4637	0.201
287.6766	0.19
287.8895	0.1937
288.1024	0.1967
288.3152	0.1918
288.5281	0.1971
288.7409	0.1986
288.9538	0.189
289.1666	0.2001
289.3794	0.2042
289.5922	0.1998
289.8049	0.2073
290.0177	0.1983
290.2304	0.202
290.4432	0.1993
290.6559	0.1929
290.8686	0.2015
291.0813	0.1967
291.294	0.2008
291.5067	0.2018
291.7194	0.2033
291.932	0.2072
292.1447	0.2013
292.3573	0.2012
292.5699	0.2064
292.7825	0.1996
292.9951	0.2049
293.2077	0.1977
293.4203	0.2051
293.6328	0.1941
293.8454	0.1974
294.0579	0.1986
294.2704	0.2047
294.4829	0.2001
294.6954	0.2032
294.9079	0.2052
295.1204	0.1994
295.3328	0.1985
295.5453	0.1987
295.7577	0.197
295.9701	0.2019
296.1825	0.1993
296.3949	0.2129
296.6073	0.2013
296.8197	0.1992
297.0321	0.1993
297.2444	0.1999
297.4567	0.199
297.6691	0.1983
297.8814	0.1966
298.0937	0.2003
298.306	0.1947
298.5182	0.2024
298.7305	0.1967
298.9428	0.1957
299.155	0.1965
299.3672	0.2004
299.5794	0.1937
299.7916	0.2008
300.0038	0.1993
300.216	0.197
300.4282	0.1916
300.6403	0.2009
300.8525	0.2005
301.0646	0.1972
301.2767	0.2001
301.4888	0.1968
301.7009	0.1909
301.913	0.2041
302.125	0.1973
302.3371	0.1917
302.5491	0.1966
302.7612	0.1952
302.9732	0.1899
303.1852	0.1953
303.3972	0.2011
303.6092	0.1922
303.8211	0.1877
304.0331	0.1903
304.245	0.198
304.457	0.1969
304.6689	0.1886
304.8808	0.1897
305.0927	0.192
305.3046	0.1849
305.5164	0.1871
305.7283	0.1892
305.9401	0.1801
306.152	0.1798
306.3638	0.1826
306.5756	0.1861
306.7874	0.1838
306.9992	0.179
307.2109	0.1741
307.4227	0.1734
307.6344	0.1735
307.8462	0.1754
308.0579	0.1679
308.2696	0.1647
308.4813	0.159
308.693	0.1649
308.9046	0.1625
309.1163	0.1589
309.328	0.1548
309.5396	0.1595
309.7512	0.1567
309.9628	0.1612
310.1744	0.1566
310.386	0.1541
310.5976	0.1473
310.8091	0.1488
311.0207	0.1486
311.2322	0.1476
311.4437	0.1442
311.6552	0.141
311.8667	0.137
312.0782	0.1395
312.2897	0.1371
312.5012	0.137
312.7126	0.1307
312.924	0.1374
313.1355	0.1303
313.3469	0.1301
313.5583	0.1268
313.7696	0.1346
313.981	0.1298
314.1924	0.1253
314.4037	0.1236
314.6151	0.1229
314.8264	0.1245
315.0377	0.1263
315.249	0.1222
315.4603	0.12
315.6716	0.125
315.8828	0.1207
316.0941	0.1283
316.3053	0.1237
316.5165	0.1201
316.7277	0.1188
316.9389	0.1182
317.1501	0.1185
317.3613	0.1176
317.5724	0.1243
317.7836	0.1152
317.9947	0.1173
318.2058	0.1186
318.417	0.1221
318.6281	0.1246
318.8391	0.1208
319.0502	0.1163
319.2613	0.1147
319.4723	0.1209
319.6834	0.1196
319.8944	0.1197
320.1054	0.1156
320.3164	0.1207
320.5274	0.1135
320.7383	0.113
320.9493	0.1182
321.1602	0.114
321.3712	0.1183
321.5821	0.1238
321.793	0.1135
322.0039	0.1163
322.2148	0.1161
322.4257	0.1195
322.6365	0.1179
322.8474	0.1175
323.0582	0.1141
323.269	0.1135
323.4798	0.1164
323.6906	0.1162
323.9014	0.118
324.1122	0.1121
324.3229	0.1219
324.5337	0.1204
324.7444	0.1159
324.9551	0.117
325.1658	0.1198
325.3765	0.1208
325.5872	0.1176
325.7979	0.1222
326.0085	0.1184
326.2192	0.1164
326.4298	0.1206
326.6404	0.1221
326.851	0.1255
327.0616	0.1277
327.2722	0.1269
327.4828	0.1178
327.6933	0.1206
327.9039	0.1183
328.1144	0.1223
328.3249	0.1226
328.5354	0.1223
328.7459	0.1231
328.9564	0.1251
329.1669	0.1257
329.3773	0.1222
329.5878	0.1254
329.7982	0.1205
330.0086	0.1228
330.219	0.1231
330.4294	0.1276
330.6398	0.1255
330.8502	0.1222
331.0605	0.1247
331.2708	0.1235
331.4812	0.1298
331.6915	0.1181
331.9018	0.1238
332.1121	0.1298
332.3224	0.1281
332.5326	0.1246
332.7429	0.1257
332.9531	0.1258
333.1633	0.1228
333.3735	0.1242
333.5837	0.1247
333.7939	0.1232
334.0041	0.122
334.2143	0.1269
334.4244	0.1225
334.6346	0.1241
334.8447	0.1312
335.0548	0.1273
335.2649	0.1259
335.475	0.1265
335.685	0.125
335.8951	0.1331
336.1051	0.132
336.3152	0.1218
336.5252	0.1308
336.7352	0.1225
336.9452	0.1366
337.1552	0.1297
337.3652	0.1268
337.5751	0.1243
337.7851	0.1317
337.995	0.1272
338.2049	0.1365
338.4148	0.1304
338.6247	0.1308
338.8346	0.131
339.0445	0.1308
339.2543	0.1376
339.4642	0.1344
339.674	0.1322
339.8838	0.134
340.0936	0.1414
340.3034	0.1347
340.5132	0.1357
340.7229	0.1353
340.9327	0.1395
341.1424	0.1423
341.3522	0.1393
341.5619	0.136
341.7716	0.1371
341.9813	0.1424
342.1909	0.1414
342.4006	0.1394
342.6102	0.1422
342.8199	0.1387
343.0295	0.1406
343.2391	0.1346
343.4487	0.1504
343.6583	0.1494
343.8679	0.1431
344.0774	0.1445
344.287	0.1444
344.4965	0.1477
344.706	0.1471
344.9155	0.1406
345.125	0.1487
345.3345	0.1443
345.544	0.151
345.7534	0.1503
345.9629	0.1507
346.1723	0.1496
346.3817	0.1523
346.5911	0.1484
346.8005	0.1528
347.0099	0.1591
347.2193	0.1516
347.4286	0.1561
347.638	0.1567
347.8473	0.1566
348.0566	0.1552
348.2659	0.1523
348.4752	0.1522
348.6845	0.1603
348.8937	0.1677
349.103	0.1555
349.3122	0.1603
349.5214	0.1624
349.7306	0.1616
349.9398	0.1601
350.149	0.1702
350.3582	0.1614
350.5674	0.1674
350.7765	0.1635
350.9856	0.1703
351.1948	0.1631
351.4039	0.1697
351.613	0.1808
351.822	0.1716
352.0311	0.1637
352.2402	0.1746
352.4492	0.169
352.6582	0.1695
352.8672	0.1711
353.0762	0.1707
353.2852	0.1711
353.4942	0.1751
353.7032	0.1726
353.9121	0.1685
354.1211	0.1745
354.33	0.1804
354.5389	0.1818
354.7478	0.1807
354.9567	0.1757
355.1655	0.1754
355.3744	0.1778
355.5833	0.1867
355.7921	0.1749
356.0009	0.1789
356.2097	0.1874
356.4185	0.1922
356.6273	0.1817
356.8361	0.1938
357.0448	0.1848
357.2536	0.1867
357.4623	0.1839
357.671	0.1826
357.8797	0.1926
358.0884	0.1904
358.2971	0.2044
358.5057	0.186
358.7144	0.2054
358.923	0.1979
359.1316	0.1945
359.3402	0.2017
359.5488	0.1981
359.7574	0.2021
359.966	0.2039
360.1746	0.1973
360.3831	0.2014
360.5916	0.2035
360.8002	0.2138
361.0087	0.2125
361.2172	0.21
361.4256	0.2023
361.6341	0.2132
361.8426	0.2101
362.051	0.2103
362.2594	0.219
362.4678	0.2159
362.6762	0.2272
362.8846	0.2278
363.093	0.215
363.3014	0.222
363.5097	0.2195
363.718	0.2284
363.9264	0.2161
364.1347	0.2248
364.343	0.226
364.5513	0.2222
364.7595	0.2343
364.9678	0.233
365.176	0.2314
365.3842	0.2333
365.5925	0.2336
365.8007	0.2311
366.0089	0.2321
366.217	0.2459
366.4252	0.2385
366.6333	0.2424
366.8415	0.2357
367.0496	0.2315
367.2577	0.2416
367.4658	0.248
367.6739	0.2414
367.882	0.2463
368.09	0.246
368.2981	0.2499
368.5061	0.251
368.7141	0.2475
368.9221	0.2456
369.1301	0.254
369.3381	0.2585
369.5461	0.2469
369.754	0.2429
369.962	0.2536
370.1699	0.2622
370.3778	0.2645
370.5857	0.2607
370.7936	0.2677
371.0015	0.2637
371.2093	0.2585
371.4172	0.2645
371.625	0.2689
371.8328	0.2621
372.0406	0.2651
372.2484	0.2629
372.4562	0.266
372.664	0.273
372.8717	0.2704
373.0795	0.2728
373.2872	0.2723
373.4949	0.2713
373.7026	0.2823
373.9103	0.2612
374.118	0.2666
374.3256	0.2784
374.5333	0.2675
374.7409	0.2729
374.9485	0.2712
375.1561	0.279
375.3637	0.2638
375.5713	0.2789
375.7789	0.2776
375.9864	0.277
376.194	0.283
376.4015	0.2871
376.609	0.2851
376.8165	0.2888
377.024	0.2856
377.2315	0.2979
377.4389	0.2725
377.6464	0.2857
377.8538	0.2946
378.0612	0.2805
378.2686	0.2912
378.476	0.2881
378.6834	0.2906
378.8908	0.2908
379.0981	0.298
379.3055	0.3004
379.5128	0.3031
379.7201	0.2939
379.9274	0.2938
380.1347	0.3068
380.342	0.3037
380.5492	0.2978
380.7565	0.2998
380.9637	0.2921
381.1709	0.3031
381.3781	0.3016
381.5853	0.308
381.7925	0.3137
381.9997	0.3159
382.2068	0.3013
382.4139	0.3114
382.6211	0.3177
382.8282	0.3135
383.0353	0.3118
383.2424	0.3118
383.4494	0.3157
383.6565	0.3218
383.8635	0.3167
384.0706	0.308
384.2776	0.3159
384.4846	0.3131
384.6916	0.313
384.8986	0.3154
385.1055	0.3173
385.3125	0.3126
385.5194	0.3129
385.7263	0.3028
385.9333	0.3128
386.1402	0.3254
386.347	0.3155
386.5539	0.3287
386.7608	0.3157
386.9676	0.314
387.1744	0.3084
387.3813	0.3166
387.5881	0.314
387.7948	0.3108
388.0016	0.3146
388.2084	0.3141
388.4151	0.3112
388.6219	0.3078
388.8286	0.3149
389.0353	0.3036
389.242	0.3051
389.4487	0.3106
389.6553	0.3057
389.862	0.3117
390.0686	0.314
390.2753	0.3019
390.4819	0.3115
390.6885	0.3011
390.8951	0.3073
391.1016	0.3093
391.3082	0.303
391.5147	0.2995
391.7213	0.2968
391.9278	0.3055
392.1343	0.2994
392.3408	0.2908
392.5473	0.2953
392.7537	0.2868
392.9602	0.2859
393.1666	0.2906
393.373	0.2981
393.5794	0.2935
393.7858	0.2943
393.9922	0.2908
394.1986	0.2817
394.4049	0.2835
394.6113	0.2814
394.8176	0.2741
395.0239	0.2762
395.2302	0.2724
395.4365	0.2785
395.6428	0.278
395.8491	0.2741
396.0553	0.2731
396.2615	0.2747
396.4678	0.273
396.674	0.2707
396.8802	0.2746
397.0863	0.2717
397.2925	0.2831
397.4987	0.2753
397.7048	0.2791
397.9109	0.2716
398.117	0.274
398.3231	0.2707
398.5292	0.28
398.7353	0.2715
398.9413	0.264
399.1474	0.2706
399.3534	0.2707
399.5594	0.2793
399.7654	0.2696
399.9714	0.2572
400.1774	0.2601
400.3833	0.2763
400.5893	0.2612
400.7952	0.2777
401.0011	0.2581
401.207	0.2666
401.4129	0.2676
401.6188	0.2679
401.8247	0.2613
402.0305	0.2572
402.2364	0.2639
402.4422	0.2654
402.648	0.2707
402.8538	0.2784
403.0596	0.2701
403.2654	0.265
403.4711	0.2688
403.6768	0.2742
403.8826	0.2744
404.0883	0.2635
404.294	0.2658
404.4997	0.2627
404.7054	0.2706
404.911	0.2627
405.1167	0.2619
405.3223	0.2754
405.5279	0.2648
405.7335	0.264
405.9391	0.2717
406.1447	0.2645
406.3502	0.2722
406.5558	0.2694
406.7613	0.2765
406.9668	0.2655
407.1724	0.2742
407.3778	0.2704
407.5833	0.2701
407.7888	0.2744
407.9942	0.2682
408.1997	0.2648
408.4051	0.2637
408.6105	0.2643
408.8159	0.2727
409.0213	0.2706
409.2267	0.2634
409.432	0.2661
409.6374	0.2705
409.8427	0.2632
410.048	0.2643
410.2533	0.2668
410.4586	0.2698
410.6639	0.2707
410.8691	0.2757
411.0744	0.266
411.2796	0.2743
411.4848	0.2664
411.69	0.2671
411.8952	0.26
412.1004	0.2669
412.3056	0.2644
412.5107	0.2663
412.7158	0.2622
412.921	0.2568
413.1261	0.2705
413.3312	0.2604
413.5362	0.2646
413.7413	0.259
413.9464	0.2518
414.1514	0.2603
414.3564	0.2684
414.5614	0.2663
414.7664	0.2633
414.9714	0.2732
415.1764	0.2589
415.3813	0.2515
415.5863	0.2554
415.7912	0.2601
415.9961	0.2603
416.201	0.258
416.4059	0.2587
416.6108	0.2594
416.8156	0.2634
417.0205	0.263
417.2253	0.2676
417.4301	0.2615
417.6349	0.2547
417.8397	0.2691
418.0445	0.2719
418.2492	0.2666
418.454	0.2616
418.6587	0.2642
418.8634	0.2487
419.0681	0.255
419.2728	0.2522
419.4775	0.2592
419.6822	0.2486
419.8868	0.252
420.0915	0.2519
420.2961	0.2326
420.5007	0.2534
420.7053	0.2547
420.9099	0.2464
421.1144	0.2444
421.319	0.2511
421.5235	0.2397
421.728	0.2454
421.9325	0.249
422.137	0.2388
422.3415	0.2369
422.546	0.2381
422.7504	0.2421
422.9549	0.2413
423.1593	0.2442
423.3637	0.2316
423.5681	0.2399
423.7725	0.2376
423.9769	0.2427
424.1812	0.2426
424.3856	0.2355
424.5899	0.2431
424.7942	0.2324
424.9985	0.2427
425.2028	0.2295
425.4071	0.2196
425.6113	0.2317
425.8156	0.228
426.0198	0.2271
426.224	0.235
426.4282	0.2349
426.6324	0.2295
426.8366	0.2322
427.0407	0.2119
427.2449	0.2227
427.449	0.2059
427.6531	0.2237
427.8572	0.2228
428.0613	0.2146
428.2654	0.2139
428.4694	0.2028
428.6735	0.2042
428.8775	0.2158
429.0815	0.2095
429.2855	0.2082
429.4895	0.2001
429.6935	0.1927
429.8975	0.2099
430.1014	0.1998
430.3053	0.1905
430.5093	0.1971
430.7132	0.1998
430.9171	0.1843
431.1209	0.1968
431.3248	0.1916
431.5286	0.1761
431.7325	0.19
431.9363	0.1905
432.1401	0.1842
432.3439	0.1816
432.5477	0.1833
432.7514	0.1831
432.9552	0.1685
433.1589	0.1757
433.3627	0.1674
433.5664	0.1762
433.7701	0.1763
433.9737	0.1683
434.1774	0.1768
434.3811	0.1684
434.5847	0.1611
434.7883	0.1644
434.9919	0.1541
435.1955	0.164
435.3991	0.148
435.6027	0.1512
435.8062	0.1554
436.0098	0.1535
436.2133	0.1496
436.4168	0.1406
436.6203	0.1457
436.8238	0.1454
437.0272	0.1447
437.2307	0.1344
437.4341	0.1356
437.6375	0.1253
437.841	0.1404
438.0443	0.1341
438.2477	0.126
438.4511	0.1352
438.6545	0.1253
438.8578	0.1308
439.0611	0.1247
439.2644	0.1179
439.4677	0.1132
439.671	0.1137
439.8743	0.1143
440.0775	0.119
440.2808	0.1284
440.484	0.1017
440.6872	0.1038
440.8904	0.1038
441.0936	0.1196
441.2967	0.0975
441.4999	0.1115
441.703	0.104
441.9062	0.0965
442.1093	0.0988
442.3124	0.1077
442.5155	0.0931
442.7185	0.0831
442.9216	0.0904
443.1246	0.0933
443.3276	0.08
443.5307	0.0863
443.7337	0.0883
443.9366	0.0822
444.1396	0.0748
444.3426	0.0817
444.5455	0.0795
444.7484	0.0702
444.9513	0.0893
445.1542	0.084
445.3571	0.0675
445.56	0.0744
445.7628	0.0621
445.9657	0.0738
446.1685	0.0769
446.3713	0.0654
446.5741	0.0534
446.7769	0.0702
446.9797	0.0655
447.1824	0.0654
447.3852	0.0665
447.5879	0.0619
447.7906	0.0594
447.9933	0.067
448.196	0.0545
448.3986	0.0495
448.6013	0.0574
448.8039	0.0543
449.0066	0.0508
449.2092	0.0488
449.4118	0.054
449.6143	0.0521
449.8169	0.0516
450.0195	0.0523
450.222	0.0568
450.4245	0.0544
450.627	0.043
450.8295	0.0378
451.032	0.0412
451.2345	0.0414
451.4369	0.0444
451.6394	0.0411
451.8418	0.0439
452.0442	0.0404
452.2466	0.0474
452.449	0.0346
452.6513	0.0436
452.8537	0.0399
453.056	0.0463
453.2583	0.031
453.4607	0.0361
453.663	0.0358
453.8652	0.0359
454.0675	0.0437
454.2697	0.0297
454.472	0.0271
454.6742	0.0279
454.8764	0.035
455.0786	0.0325
455.2808	0.0361
455.4829	0.0315
455.6851	0.0261
455.8872	0.0307
456.0893	0.0387
456.2915	0.0341
456.4935	0.0221
456.6956	0.0266
456.8977	0.0174
457.0997	0.0236
457.3018	0.0229
457.5038	0.0176
457.7058	0.022
457.9078	0.03
458.1098	0.0207
458.3117	0.0288
458.5137	0.0348
458.7156	0.0319
458.9175	0.0208
459.1194	0.0249
459.3213	0.0212
459.5232	0.0138
459.725	0.0205
459.9269	0.0172
460.1287	0.0121
460.3305	0.0157
460.5323	0.016
460.7341	0.0183
460.9359	0.0148
461.1376	0.0223
461.3394	0.012
461.5411	0.0158
461.7428	0.0121
461.9445	0.0064
462.1462	0.0132
462.3479	0.0073
462.5495	0.0149
462.7512	0.0018
462.9528	0.0231
463.1544	0.0109
463.356	0.0166
463.5576	0.0118
463.7592	-0.0013
463.9607	0.0064
464.1623	0.0173
464.3638	0.0112
464.5653	0.0267
464.7668	0.0134
464.9683	0.0118
465.1697	0.0101
465.3712	0.0157
465.5726	0.0181
465.7741	0.0062
465.9755	0.0075
466.1769	0.0113
466.3782	0.0145
466.5796	0.0095
466.7809	0.0121
466.9823	0.0101
467.1836	0.0163
467.3849	0.0085
467.5862	0.002
467.7875	0.0044
467.9887	0.0097
468.19	0.0024
468.3912	0.0126
468.5924	0.0193
468.7936	0.0053
468.9948	0.0206
469.196	0.0118
469.3972	0.0222
469.5983	0.0043
469.7994	0.0077
470.0006	0.0046
470.2017	0.0131
470.4027	-0.0003
470.6038	0.006
470.8049	-0.001
471.0059	0.0111
471.2069	0.014
471.408	0.0136
471.6089	0.0117
471.8099	0.0031
472.0109	0.0093
472.2119	0.0169
472.4128	0.0132
472.6137	-0.0003
472.8146	0.0056
473.0155	-0.0047
473.2164	-0.0045
473.4173	0.0117
473.6181	0.0143
473.819	0.0006
474.0198	0.0062
474.2206	0.01
474.4214	0.0159
474.6222	0.0091
474.8229	0.0049
475.0237	0.002
475.2244	0.0108
475.4251	-0.0045
475.6258	0.0077
475.8265	0.0032
476.0272	0.0085
476.2278	0.0078
476.4285	-0.0006
476.6291	0.017
476.8297	-0.0018
477.0303	0.0055
477.2309	-0.002
477.4315	0.0154
477.632	0.0055
477.8326	0.0045
478.0331	0.0022
478.2336	0.0131
478.4341	0.0012
478.6346	0.0053
478.8351	0.0062
479.0355	0.0018
479.236	0.0084
479.4364	-0.002
479.6368	0.0024
479.8372	0.0088
480.0376	0.0056
480.2379	0.0012
480.4383	0.0051
480.6386	-0.004
480.8389	0.0089
481.0392	0.0099
481.2395	0.0048
481.4398	0.004
481.6401	0.0076
481.8403	-0.0072
482.0405	-0.0015
482.2408	0.0057
482.441	0.0087
482.6411	0.0049
482.8413	-0.0067
483.0415	-0.0004
483.2416	0.0057
483.4417	0.0031
483.6419	-0.0015
483.8419	0.0032
484.042	0.0005
484.2421	-0.0054
484.4422	0.0049
484.6422	0.01
484.8422	-0.0028
485.0422	-0.0001
485.2422	0.0035
485.4422	-0.0035
485.6422	-0.0053
485.8421	-0.001
486.042	0.0096
486.242	0.0015
486.4419	0.0037
486.6417	0.0001
486.8416	-0.001
487.0415	-0.0015
487.2413	0.0015
487.4411	-0.0011
487.641	0.0084
487.8408	0.0045
488.0405	0.0032
488.2403	-0.004
488.4401	-0.0051
488.6398	0.0062
488.8395	0.0029
489.0392	0.0052
489.2389	0.0059
489.4386	0.0034
489.6383	0.001
489.8379	0.0076
490.0376	0.0139
490.2372	0.0037
490.4368	0.0006
490.6364	0.0088
490.836	-0.0046
491.0355	0.005
491.2351	0.0003
491.4346	0.0137
491.6341	0.0031
491.8336	0.0003
492.0331	0.0024
492.2326	0.0009
492.432	0.0054
492.6315	-0.0034
492.8309	0.014
493.0303	0.0003
493.2297	-0.0033
493.4291	-0.0056
493.6284	0
493.8278	0.0048
494.0271	0.0026
494.2264	0.003
494.4257	0.0021
494.625	0.0048
494.8243	0.0118
495.0236	0.0004
495.2228	-0.0017
495.422	0.0069
495.6213	0.0024
495.8205	0.0007
496.0196	-0.001
496.2188	0.0079
496.418	-0.0068
496.6171	-0.0033
496.8162	0.0083
497.0153	0.0086
497.2144	0.0049
497.4135	0.0006
497.6126	-0.0001
497.8116	0.0044
498.0107	-0.0014
498.2097	0.0123
498.4087	0.0019
498.6077	0.0041
498.8067	0.0038
499.0056	0.0001
499.2046	-0.0017
499.4035	-0.0051
499.6024	-0.0054
499.8013	-0.0013
500.0002	0.0083
500.199	0.0014
500.3979	0.0045
500.5967	-0.0053
500.7956	0.0102
500.9944	-0.0013
501.1932	0.0031
501.3919	0.0073
501.5907	0.0082
501.7895	0.0015
501.9882	-0.0003
502.1869	-0.0002
502.3856	-0.0052
502.5843	-0.0061
502.783	0.0061
502.9816	0.0015
503.1803	0.0088
503.3789	0.0067
503.5775	0.0063
503.7761	0.0068
503.9747	-0.0033
504.1732	-0.0007
504.3718	-0.0068
504.5703	-0.001
504.7689	-0.0024
504.9674	-0.0032
505.1658	0.0026
505.3643	0.0034
505.5628	0.011
505.7612	0.0044
505.9597	-0.0036
506.1581	-0.0021
506.3565	-0.0066
506.5549	0.0083
506.7532	0.0041
506.9516	0.0062
507.1499	0.0073
507.3482	0.0067
507.5465	0.0023
507.7448	0.0079
507.9431	-0.0076
508.1414	0.0022
508.3396	0.0088
508.5379	0.0019
508.7361	0.0138
508.9343	0.005
509.1325	-0.0009
509.3306	-0.0104
509.5288	0.004
509.7269	0.0025
509.9251	-0.007
510.1232	-0.0102
510.3213	0.0035
510.5193	0.0085
510.7174	-0.0067
510.9154	0.0134
511.1135	0.001
511.3115	0.0005
511.5095	-0.0003
511.7075	-0.0004
511.9055	0.0058
512.1034	0.0019
512.3014	-0.0025
512.4993	0.003
512.6972	-0.0016
512.8951	-0.0001
513.093	0.0004
513.2908	0.0035
513.4887	0.014
513.6865	0.0007
513.8844	0.006
514.0822	0.0013
514.2799	-0.0001
514.4777	0.0058
514.6755	-0.0024
514.8732	-0.0058
515.0709	0.0046
515.2687	-0.0061
515.4664	-0.0093
515.664	0.001
515.8617	0.0074
516.0594	0.0013
516.257	0.0099
516.4546	0.0037
516.6522	-0.0049
516.8498	0.0025
517.0474	-0.0043
517.2449	-0.0116
517.4425	-0.0135
517.64	0.0014
517.8375	0.0052
518.035	0.0003
518.2325	-0.0048
518.43	-0.0022
518.6274	-0.0095
518.8249	0.0031
519.0223	-0.0056
519.2197	-0.0031
519.4171	0.0003
519.6145	-0.0005
519.8118	-0.0004
520.0092	-0.0042
520.2065	0.0074
520.4038	0.0092
520.6011	0.0079
520.7984	0.0031
520.9956	0.0022
521.1929	0.0064
521.3901	0.0052
521.5874	0.0069
521.7846	-0.0084
521.9818	-0.0012
522.1789	0.0104
522.3761	0.0059
522.5732	-0.0073
522.7704	0.0023
522.9675	-0.0054
523.1646	0.0217
523.3617	0.003
523.5587	0.0047
523.7558	-0.0009
523.9528	0.0042
524.1498	-0.0012
524.3468	-0.003
524.5438	0.0021
524.7408	-0.0033
524.9378	0.0023
525.1347	-0.0049
525.3316	0.0189
525.5285	0.0074
525.7254	-0.0004
525.9223	-0.0021
526.1192	-0.0024
526.316	-0.0023
526.5129	0.0047
526.7097	0.0037
526.9065	-0.0003
527.1033	0.0054
527.3	-0.0029
527.4968	-0.0057
527.6935	-0.0004
527.8903	0.0023
528.087	0.0037
528.2837	0.0029
528.4804	0.0101
528.677	0.0057
528.8737	-0.004
529.0703	0.0063
529.2669	0.0185
529.4635	0.0201
529.6601	0.0045
529.8567	0.0031
530.0532	0.003
530.2498	0.0048
530.4463	0.0166
530.6428	0.0011
530.8393	0.0065
531.0358	0.0106
531.2322	0.0028
531.4287	-0.0024
531.6251	-0.011
531.8215	0.0038
532.0179	-0.0057
532.2143	0.0077
532.4107	-0.0025
532.607	0.0075
532.8034	0.0105
532.9997	0.0114
533.196	0.015
533.3923	-0.0054
533.5886	0.0023
533.7848	-0.0114
533.9811	-0.0014
534.1773	0.0084
534.3735	0.0134
534.5697	0.0048
534.7659	-0.0003
534.9621	0.002
535.1582	0.0041
535.3544	0.0097
535.5505	-0.0033
535.7466	0.0035
535.9427	0.0034
536.1387	0.005
536.3348	0.0153
536.5308	0.0129
536.7269	0.0012
536.9229	-0.0016
537.1189	-0.0027
537.3148	-0.0042
537.5108	-0.0012
537.7068	0.0021
537.9027	0.0119
538.0986	-0.0091
538.2945	-0.007
538.4904	-0.0037
538.6863	0.0179
538.8821	0.0002
539.078	-0.0089
539.2738	-0.0105
539.4696	0.0155
539.6654	0.0038
539.8611	0.0009
540.0569	0.0061
540.2526	0.0049
540.4484	-0.0067
540.6441	-0.0045
540.8398	-0.0115
541.0355	0.0052
541.2311	0.0056
541.4268	0.0044
541.6224	0.0008
541.818	-0.0098
542.0136	-0.0025
542.2092	0.0049
542.4048	0.0027
542.6003	0.0062
542.7959	0.0042
542.9914	0.0002
543.1869	0.0008
543.3824	0.0119
543.5779	0.001
543.7734	-0.0012
543.9688	0.005
544.1642	0.004
544.3596	-0.0086
544.555	-0.0034
544.7504	0.0044
544.9458	0.0099
545.1411	-0.004
545.3365	0.005
545.5318	-0.0012
545.7271	0.01
545.9224	0
546.1177	0.0091
546.3129	-0.008
546.5081	-0.0064
546.7034	0.0041
546.8986	-0.0022
547.0938	0.0063
547.289	0.0029
547.4841	0.0053
547.6793	-0.0013
547.8744	-0.004
548.0695	0.0031
548.2646	0.0002
548.4597	-0.0104
548.6548	0.001
548.8498	-0.0015
549.0448	0.0061
549.2399	-0.0029
549.4349	0.0085
549.6298	-0.0028
549.8248	0.0046
550.0198	0.0074
550.2147	-0.0048
550.4096	0.0022
550.6045	-0.0037
550.7994	0.0048
550.9943	-0.0047
551.1892	-0.0054
551.384	0.009
551.5788	0.0055
551.7737	0.01
551.9685	0.0039
552.1632	0.0045
552.358	-0.0011
552.5528	-0.0044
552.7475	-0.0052
552.9422	0.0011
553.1369	0.0076
553.3316	-0.0012
553.5263	-0.0032
553.7209	-0.0071
553.9156	0.0172
554.1102	0.0064
554.3048	-0.0019
554.4994	0.0096
554.694	0.0137
554.8885	-0.0059
555.0831	0.0081
555.2776	-0.0022
555.4721	-0.0059
555.6666	0.0027
555.8611	-0.0135
556.0555	0.0051
556.25	-0.0009
556.4444	0.0018
556.6388	0.0022
556.8332	-0.0036
557.0276	0.0148
557.222	-0.0085
557.4163	0.0019
557.6107	-0.0085
557.805	-0.0094
557.9993	0.0028
558.1936	0.0121
558.3879	-0.0049
558.5821	-0.0011
558.7764	0.0086
558.9706	0.0022
559.1648	0.0006
559.359	0.0009
559.5532	-0.0008
559.7473	0.0053
559.9415	0.0064
560.1356	0.0045
560.3297	0.0121
560.5238	0.0099
560.7179	0.0015
560.9119	0.0092
561.106	-0.0021
561.3	0.0061
561.494	0.0107
561.688	-0.0014
561.882	-0.0021
562.076	0.0101
562.2699	0.0056
562.4639	-0.0037
562.6578	0.0091
562.8517	0.0015
563.0456	-0.0029
563.2395	0.0059
563.4333	-0.0029
563.6272	0.0154
563.821	0.0079
564.0148	-0.0063
564.2086	0.0003
564.4024	-0.0029
564.5961	0.0031
564.7899	0.0044
564.9836	0.0019
565.1773	0.0062
565.371	0.0028
565.5647	-0.0057
565.7584	0.0056
565.952	-0.0011
566.1456	0.0036
566.3393	0.0051
566.5329	0.0019
566.7264	0.0026
566.92	0.0064
567.1136	-0.0034
567.3071	0.0003
567.5006	-0.008
567.6941	0.0036
567.8876	-0.001
568.0811	-0.0046
568.2745	-0.001
568.468	0.0036
568.6614	0.0027
568.8548	-0.002
569.0482	0.0036
569.2416	-0.0025
569.4349	0.0028
569.6283	-0.0011
569.8216	0.0006
570.0149	0.0038
570.2082	-0.0016
570.4015	0.0005
570.5947	-0.004
570.788	0.0013
570.9812	-0.0004
571.1744	-0.0025
571.3676	-0.0033
571.5608	-0.0021
571.754	-0.0033
571.9471	0.0069
572.1402	0.0027
572.3333	0.0009
572.5264	0.0031
572.7195	0.0062
572.9126	-0.0026
573.1057	0.0008
573.2987	0.0073
573.4917	-0.0011
573.6847	-0.0022
573.8777	0.003
574.0707	-0.0022
574.2636	0.0002
574.4566	0.0032
574.6495	0.0014
574.8424	0.0018
575.0353	-0.0007
575.2281	0.0014
575.421	0.0021
575.6138	-0.001
575.8067	0.0007
575.9995	0.0005
576.1923	0.0032
576.385	-0.0033
576.5778	-0.0033
576.7706	0.001
576.9633	0.0013
577.156	0.0005
577.3487	0.0003
577.5414	-0.0012
577.734	-0.0015
577.9267	0.0009
578.1193	0.0004
578.3119	-0.0045
578.5045	-0.0006
578.6971	-0.0014
578.8897	-0.0012
579.0822	0.0019
579.2747	-0.0009
579.4673	-0.0013
579.6598	-0.0003
579.8522	0.0043
580.0447	-0.0028
580.2372	0.0031
580.4296	-0.0041
580.622	0.0038
580.8144	0.001
581.0068	0.0012
581.1992	0.0007
581.3915	-0.0011
581.5839	0.0019
581.7762	0.0035
581.9685	-0.0038
582.1608	-0.0024
582.353	-0.0003
582.5453	-0.0002
582.7375	0.0018
582.9298	0.002
583.122	-0.006
583.3142	0.0026
583.5063	-0.0022
583.6985	-0.0001
583.8906	-0.0011
584.0827	0.0029
584.2749	0.0006
584.4669	-0.0012
584.659	-0.0024
584.8511	0.0004
585.0431	0.0008
585.2352	-0.0025
585.4272	0.0005
585.6192	-0.0017
585.8111	-0.0061
586.0031	-0.0008
586.195	0.0008
586.387	0.0038
586.5789	-0.0015
586.7708	-0.0029
586.9627	0.0011
587.1545	0.0017
587.3464	0.0036
587.5382	-0.0029
587.73	0.0018
587.9218	0.0005
588.1136	-0.0031
588.3053	0.0007
588.4971	-0.0018
588.6888	0.0029
588.8805	0.002
589.0722	0.0054
589.2639	-0.0033
589.4556	-0.0024
589.6472	-0.0006
589.8389	0.0014
590.0305	0.0044
590.2221	0.0047
590.4137	0.001
590.6052	0.0021
590.7968	0.0069
590.9883	0.003
591.1798	-0.0073
591.3713	-0.0007
591.5628	-0.0027
591.7543	0.0007
591.9458	-0.002
592.1372	0.003
592.3286	-0.0008
592.52	0.0041
592.7114	-0.0009
592.9028	-0.0028
593.0941	0.0001
593.2855	0.0043
593.4768	0.0011
593.6681	0.0018
593.8594	-0.0007
594.0506	0.0028
594.2419	-0.0084
594.4331	-0.0014
594.6244	0
594.8156	0.0018
595.0067	0.0103
595.1979	-0.0046
595.3891	-0.0035
595.5802	-0.0015
595.7713	0.001
595.9624	0.0021
596.1535	0.0013
596.3446	0.0019
596.5357	0.0029
596.7267	-0.0003
596.9177	-0.0014
597.1087	0.0059
597.2997	0.0039
597.4907	0.0009
597.6817	0.001
597.8726	0.0068
598.0635	0.0004
598.2544	-0.0061
598.4453	-0.0002
598.6362	-0.0028
598.827	0.0035
599.0179	0.0001
599.2087	0.0017
599.3995	0.0013
599.5903	0.0007
599.7811	0.0029
599.9718	0.0008
600.1626	-0.0017
600.3533	-0.0003
600.544	0.0009
600.7347	0.0009
600.9254	0.0069
601.116	-0.0009
601.3067	0.0022
601.4973	0.012
601.6879	-0.0018
601.8785	-0.0006
602.0691	0.0032
602.2596	0.0007
602.4502	-0.0031
602.6407	0.0023
602.8312	-0.0005
603.0217	0.0041
603.2122	0.0079
603.4027	-0.0039
603.5931	0.0013
603.7835	0.001
603.9739	0.0037
604.1643	0.0056
604.3547	0.0112
604.5451	-0.0002
604.7354	-0.003
604.9257	-0.0058
605.116	-0.0025
605.3063	0.0076
605.4966	0.0018
605.6869	-0.0041
605.8771	0.0038
606.0673	-0.0053
606.2575	-0.0024
606.4477	0.0049
606.6379	-0.0026
606.8281	-0.0078
607.0182	-0.0012
607.2083	-0.0001
607.3985	0.0069
607.5885	0.0007
607.7786	0.0058
607.9687	-0.0032
608.1587	-0.001
608.3488	-0.0033
608.5388	-0.0034
608.7288	-0.0096
608.9187	0.0137
609.1087	-0.0033
609.2986	-0.0013
609.4886	0.0036
609.6785	0.0013
609.8684	-0.0013
610.0582	0.0025
610.2481	-0.002
610.4379	0.0013
610.6278	0.0004
610.8176	0.0016
611.0074	-0.0077
611.1971	0.0054
611.3869	0.0017
611.5766	-0.0061
611.7664	-0.0011
611.9561	-0.0002
612.1458	-0.0001
612.3354	0.0031
612.5251	0.0014
612.7147	0.0044
612.9044	0.003
613.094	0.0024
613.2836	0.0002
613.4731	-0.0056
613.6627	0.0041
613.8522	-0.0028
614.0417	-0.005
614.2313	-0.0063
614.4207	0.0034
614.6102	-0.0031
614.7997	-0.0036
614.9891	-0.0018
615.1785	-0.0041
615.3679	0.0061
615.5573	-0.0121
615.7467	-0.0045
615.9361	-0.0014
616.1254	-0.0014
616.3147	-0.0035
616.504	0.001
616.6933	0.002
616.8826	0.0021
617.0718	-0.01
617.2611	0.0026
617.4503	-0.0015
617.6395	-0.0018
617.8287	0.0066
618.0179	-0.0105
618.207	-0.0011
618.3961	-0.0014
618.5853	-0.0012
618.7744	0.01
618.9634	0.0025
619.1525	-0.0035
619.3416	-0.006
619.5306	-0.0012
619.7196	0.0017
619.9086	0.0101
620.0976	0.0075
620.2866	0.0057
620.4755	0.011
620.6645	0.0008
620.8534	-0.0109
621.0423	-0.0066
621.2312	-0.0119
621.42	-0.0034
621.6089	0.005
621.7977	-0.0003
621.9865	0.0152
622.1753	0.0089
622.3641	-0.0123
622.5529	-0.0087
622.7416	-0.0049
622.9303	0.0015
623.1191	-0.0077
623.3078	-0.0029
623.4964	-0.0072
623.6851	0.0023
623.8737	0.007
624.0624	0.0035
624.251	0.0032
624.4396	0.0083
624.6282	0.0065
624.8167	0.0026
625.0053	-0.004
625.1938	0.0001
625.3823	0.0004
625.5708	0.0091
625.7593	-0.0006
625.9477	-0.011
626.1362	0.0003
626.3246	-0.0159
626.513	0.005
626.7014	-0.0035
626.8898	-0.0029
627.0781	0.0113
627.2665	0.0084
627.4548	0.0026
627.6431	-0.0125
627.8314	0.0056
628.0197	0.0064
628.2079	-0.0107
628.3962	-0.0017
628.5844	0.0082
628.7726	-0.0073
628.9608	-0.0067
629.1489	0.0062
629.3371	-0.0016
629.5252	0.01
629.7134	0.0101
629.9015	-0.0071
630.0895	0.014
630.2776	-0.0024
630.4657	0.0003
630.6537	-0.0036
630.8417	0.0016
631.0297	-0.0009
631.2177	0.0052
631.4057	0.0002
631.5936	0.0007
631.7815	0.0043
631.9695	0.0087
632.1574	-0.0016
632.3452	0.0103
632.5331	0.0086
632.7209	0.0048
632.9088	-0.0002
633.0966	0.0086
633.2844	-0.0132
633.4722	-0.0028
633.6599	-0.014
633.8477	0.0039
634.0354	0.0024
634.2231	0.0355
634.4108	0.0056
634.5985	-0.0022
634.7861	-0.0105
634.9738	0.0165
635.1614	0.0087
635.349	0.0007
635.5366	0.0197
635.7242	0.0069
635.9117	0.0335
636.0993	-0.0174
636.2868	-0.0006
636.4743	0.0184
636.6618	-0.0038
636.8492	-0.0003
637.0367	0.0103
637.2241	0.0052
637.4115	0.0043
637.5989	0.0119
637.7863	-0.0038
637.9737	0.0061
638.161	-0.0012
638.3484	0.0113
638.5357	-0.0003
638.723	0.0032
638.9103	0.0049
639.0975	0.0104
639.2848	0.011
639.472	-0.0091
639.6592	0.0191
639.8464	0.0069
640.0336	0.0112
640.2208	0.0077
640.4079	0.0267
640.595	0.0042
640.7821	0.0031
640.9692	0.0044
641.1563	0.0105
641.3434	0.0133
641.5304	-0.0032
641.7174	0
641.9044	-0.0002
642.0914	-0.0185
642.2784	0.0271
642.4653	-0.0034
642.6523	0.0244
642.8392	0.0274
643.0261	0.0106
643.213	0.0183
643.3999	-0.0025
643.5867	0.0165
643.7735	0.0122
643.9604	-0.0022
644.1472	-0.0021
644.3339	-0.017
644.5207	-0.0085
644.7075	0.0049
644.8942	0.0084
645.0809	-0.013
645.2676	-0.0131
645.4543	0.0072
645.6409	0.0055
645.8276	-0.0056
646.0142	0.0047
646.2008	-0.0017
646.3874	0.0202
646.574	-0.025
646.7605	-0.0008
646.9471	0.0253
647.1336	0.0067
647.3201	0.0058
647.5066	-0.0072
647.6931	0.0086
647.8795	0.0043
648.0659	-0.0085
648.2524	0.0015
648.4388	-0.0007
648.6252	-0.0112
648.8115	0.0101
648.9979	0.0088
649.1842	-0.0198
649.3705	0.0177
649.5568	-0.0167
649.7431	0.0022
649.9294	0.0072
650.1156	0.0023
650.3018	0.0054
650.488	-0.0061
650.6742	0.0008
650.8604	0.0125
651.0466	0.0111
651.2327	-0.0064
651.4188	-0.0068
651.6049	-0.0026
651.791	0.0111
651.9771	-0.0108
652.1632	0.0103
652.3492	0.0044
652.5352	0.0165
652.7212	-0.0174
652.9072	-0.0039
653.0932	-0.0006
653.2791	0.0013
653.465	-0.0108
653.651	0.014
653.8369	0.0223
654.0227	0.0029
654.2086	-0.0017
654.3944	-0.0054
654.5803	0.0111
654.7661	0.0018
654.9519	0.0002
655.1377	0.0001
655.3234	0.0001
655.5092	0.0001
655.6949	0.0001
655.8806	0.0001
656.0663	0.0001
656.2519	0.0001
656.4376	0.0001
656.6232	0.0001
656.8088	0.0001
656.9945	0.0001
657.18	0.0001
657.3656	0.0001
657.5511	0.0001
657.7367	0.0001
657.9222	0.0001
658.1077	0.0001
658.2932	0.0001
658.4786	0.0001
658.6641	0.0001
658.8495	0.0001
659.0349	0.0001
659.2203	0.0001
659.4057	0.0017
659.591	0.0645
659.7764	0.0097
659.9617	0.0007
660.147	-0.0105
660.3323	-0.0041
660.5176	0.0157
660.7028	0.0095
660.888	0.0164
661.0733	0.0082
661.2585	0.0032
661.4436	0.0028
661.6288	0.0038
661.8139	0.0196
661.9991	-0.0017
662.1842	0.0243
662.3693	0.014
662.5544	0.0049
662.7394	0.0115
662.9245	0.0171
663.1095	0.0092
663.2945	-0.0078
663.4795	-0.0067
663.6644	0.0064
663.8494	0.0164
664.0343	-0.0177
664.2193	0.0008
664.4042	0.0067
664.589	-0.0041
664.7739	-0.0033
664.9587	-0.0002
665.1436	-0.0053
665.3284	0.0031
665.5132	0.0344
665.698	-0.0017
665.8827	-0.0296
666.0675	-0.0078
666.2522	0.0085
666.4369	-0.0149
666.6216	-0.0222
666.8063	-0.006
666.9909	0.0233
667.1756	0.0053
667.3602	-0.0047
667.5448	-0.0096
667.7294	0.0129
667.9139	0.0166
668.0985	-0.0258
668.283	0.0021
668.4675	-0.0133
668.652	-0.0055
668.8365	-0.0065
669.0209	-0.0089
669.2054	-0.0029
669.3898	-0.0032
669.5742	0.024
669.7586	-0.0232
669.943	-0.0376
670.1273	0.005
670.3117	0.0219
670.496	0.0171
670.6803	0.0054
670.8646	-0.0175
671.0488	0.0024
671.2331	-0.0049
671.4173	0.0035
671.6015	0.0177
671.7857	-0.0093
671.9699	0.0039
672.1541	0.0086
672.3382	0.0083
672.5223	-0.0025
672.7064	-0.0099
672.8905	-0.0065
673.0746	-0.0013
673.2587	0.017
673.4427	0.004
673.6267	-0.022
673.8107	-0.0056
673.9947	-0.016
674.1787	0.0016
674.3626	-0.0077
674.5465	0.0271
674.7304	-0.0298
674.9143	0.0187
675.0982	-0.0041
675.2821	0.0052
675.4659	0.0152
675.6497	0.0184
675.8335	0.0071
676.0173	0.0188
676.2011	-0.0094
676.3849	0.0056
676.5686	-0.0064
676.7523	0.0149
676.936	-0.0081
677.1197	0.0124
677.3034	0.0142
677.487	0.0074
677.6706	-0.0153
677.8542	0.0222
678.0378	0.007
678.2214	0.0161
678.405	0.0165
678.5885	0.0077
678.772	0.0012
678.9555	0.0007
679.139	0.0029
679.3225	-0.0071
679.5059	0.0088
679.6894	-0.0154
679.8728	-0.0059
680.0562	0.0042
680.2395	-0.0043
680.4229	-0.0002
680.6062	-0.0014
680.7896	-0.0026
680.9729	0.0104
681.1562	-0.0055
681.3394	0.0154
681.5227	-0.0104
681.7059	-0.0131
681.8891	-0.0048
682.0723	-0.016
682.2555	0.0147
682.4387	0.0239
682.6218	-0.0271
682.805	0.0081
682.9881	0.0079
683.1712	0.0178
683.3542	-0.0202
683.5373	0.0099
683.7203	0.0102
683.9034	0.0086
684.0864	-0.0035
684.2694	0.0121
684.4523	0.0127
684.6353	-0.0015
684.8182	0
685.0011	-0.0068
685.184	0.0017
685.3669	-0.0123
685.5498	0.0056
685.7326	-0.0059
685.9154	0.0026
686.0982	0.0037
686.281	0.006
686.4638	0.0131
686.6465	0.01
686.8293	-0.0014
687.012	0.0055
687.1947	0.0188
687.3774	0.0014
687.56	0.0049
687.7427	-0.0024
687.9253	0.0273
688.1079	0.0146
688.2905	-0.0129
688.4731	0.0177
688.6556	-0.0023
688.8382	0.0177
689.0207	-0.03
689.2032	-0.0056
689.3857	0.009
689.5681	-0.0096
689.7506	0.0171
689.933	-0.0012
690.1154	0.0085
690.2978	0.0091
690.4802	0.0091
690.6626	-0.0056
690.8449	-0.0083
691.0272	-0.0041
691.2095	0.0018
691.3918	-0.0122
691.5741	0.0153
691.7563	0.008
691.9386	0.0022
692.1208	0.0062
692.303	0.0079
692.4852	0.0119
692.6673	0.003
692.8495	-0.0052
693.0316	-0.003
693.2137	0.0288
693.3958	-0.0013
693.5778	-0.0298
693.7599	-0.0267
693.9419	0.0364
694.1239	-0.0214
694.3059	-0.0041
694.4879	-0.0095
694.6699	0.0211
694.8518	0.0125
695.0337	0.0109
695.2157	-0.0125
695.3975	0.0118
695.5794	-0.0188
695.7613	0.0247
695.9431	-0.0496
696.1249	0.006
696.3067	-0.0015
696.4885	0.005
696.6703	-0.0006
696.852	0.005
697.0337	-0.008
697.2154	0.0192
697.3971	0.0279
697.5788	0.0428
697.7605	0.0051
697.9421	-0.0122
698.1237	0.0156
698.3053	-0.005
698.4869	0.0156
698.6685	0.0033
698.85	-0.0006
699.0315	-0.0129
699.213	0.0035
699.3945	0.0212
699.576	0.0008
699.7575	-0.0097
699.9389	-0.0221
700.1203	0.0025
700.3017	-0.005
700.4831	-0.0095
700.6645	-0.0055
700.8458	0.0216
701.0271	0.005
701.2084	-0.0236
701.3897	-0.0011
701.571	0.0262
701.7523	-0.0163
701.9335	0.0242
702.1147	0.0045
702.2959	0.0196
702.4771	-0.0119
702.6583	-0.0058
702.8394	-0.0026
703.0205	-0.0003
703.2016	-0.0025
703.3827	0.0384
703.5638	0.0027
703.7449	0.0053
703.9259	0.0183
704.1069	0.0195
704.2879	0.0282
704.4689	0.0206
704.6499	-0.0096
704.8308	-0.0034
705.0117	-0.0094
705.1927	0.0104
705.3735	0.0189
705.5544	0.0014
705.7353	0.0224
705.9161	0.0172
706.0969	0.0136
706.2777	0.0052
706.4585	0.0138
706.6393	-0.0007
706.82	-0.0066
707.0007	-0.0098
707.1815	0.0087
707.3621	0.0074
707.5428	0.0077
707.7235	0.0263
707.9041	-0.0141
708.0847	0.0008
708.2653	0.0035
708.4459	-0.0087
708.6265	-0.0051
708.807	0.017
708.9875	-0.0065
709.168	0.0219
709.3485	0.0057
709.529	0.0343
709.7095	-0.0164
709.8899	0.0219
710.0703	0.001
710.2507	0.0128
710.4311	0.0094
710.6115	0.0124
710.7918	0.0078
710.9721	0.0066
711.1524	0.003
711.3327	0.0029
711.513	0.0163
711.6932	-0.0247
711.8735	0.0443
712.0537	-0.0196
712.2339	-0.0098
712.4141	0.0168
712.5942	0.0011
712.7744	0.0144
712.9545	0.008
713.1346	0.0066
713.3147	0.0067
713.4947	0.004
713.6748	-0.0019
713.8548	-0.0073
714.0348	0.013
714.2148	0.0156
714.3948	0.0226
714.5748	0.0097
714.7547	-0.0033
714.9346	0.0191
715.1145	0.0089
715.2944	0.0072
715.4743	-0.0056
715.6541	-0.0013
715.834	0.0125
716.0138	0.0242
716.1936	0.0267
716.3733	-0.0129
716.5531	0.0225
716.7328	-0.0245
716.9126	-0.0133
717.0923	0.0233
717.2719	0.0149
717.4516	0.003
717.6312	-0.0162
717.8109	0.0129
717.9905	0.0118
718.1701	-0.0233
718.3496	0.0112
718.5292	0.0147
718.7087	0.0147
718.8882	0.0254
719.0677	-0.0023
719.2472	0.0134
719.4267	0.0103
719.6061	0.0043
719.7856	0.0061
719.965	0.0311
720.1443	0.0061
720.3237	0.0155
720.5031	0.0126
720.6824	0.0157
720.8617	0.0076
721.041	0.0507
721.2203	-0.0109
721.3995	0.0068
721.5788	0.0078
721.758	-0.0058
721.9372	0.0297
722.1164	0.031
722.2956	0.0147
722.4747	0.0009
722.6538	-0.0043
722.8329	-0.0024
723.012	-0.0017
723.1911	0.0133
723.3702	0.0071
723.5492	0.0104
723.7282	0.0104
723.9072	-0.0597
724.0862	-0.0082
724.2652	-0.0329
724.4441	0.0049
724.623	-0.0215
724.8019	0.0107
724.9808	0.0007
725.1597	0.019
725.3385	0.0114
725.5174	0.0385
725.6962	-0.0003
725.875	0.0188
726.0538	-0.0039
726.2325	0
726.4112	0.0291
726.59	0.0008
726.7687	0.0261
726.9474	0.0073
727.126	0.0009
727.3047	0.0175
727.4833	0.0193
727.6619	0.0307
727.8405	0.0031
728.0191	-0.0286
728.1976	-0.0264
728.3762	-0.0127
728.5547	0.0211
728.7332	0.0018
728.9116	-0.0249
729.0901	0.0076
729.2686	-0.0053
729.447	-0.0081
729.6254	0.0269
729.8038	-0.023
729.9821	0.0031
730.1605	0.0006
730.3388	0.0039
730.5171	-0.0068
730.6954	0.0278
730.8737	0.0133
731.0519	0.0188
731.2302	-0.006
731.4084	0.0143
731.5866	-0.0284
731.7648	-0.0025
731.9429	0.004
732.1211	-0.0123
732.2992	-0.0167
732.4773	-0.0232
732.6554	0.0034
732.8335	0.0098
733.0115	-0.0083
733.1896	-0.0165
733.3676	0.0008
733.5456	-0.0113
733.7235	0.0085
733.9015	0.006
734.0794	-0.02
734.2574	0.0137
734.4353	-0.0065
734.6131	-0.0008
734.791	0.0333
734.9689	0.0168
735.1467	-0.0063
735.3245	0.0252
735.5023	0.02
735.68	0.011
735.8578	0
736.0355	0.0047
736.2132	0.0076
736.3909	-0.0061
736.5686	0.0183
736.7463	-0.0042
736.9239	0.0186
737.1015	-0.0202
737.2791	0.003
737.4567	0.0067
737.6343	-0.0018
737.8118	0.006
737.9894	0.0156
738.1669	-0.0206
738.3444	0.0006
738.5218	0.0406
738.6993	0.0096
738.8767	-0.0026
739.0541	0.0052
739.2315	0.0096
739.4089	-0.0129
739.5863	0.0062
739.7636	0.0038
739.9409	0.0056
740.1182	0.012
740.2955	-0.0372
740.4728	0.042
740.65	-0.0247
740.8272	0.0022
741.0044	0.0474
741.1816	0.0112
741.3588	0.0258
741.5359	0.0115
741.7131	0.0264
741.8902	-0.0282
742.0673	0.017
742.2444	-0.0076
742.4214	0.0057
742.5985	0.026
742.7755	0.0079
742.9525	0.036
743.1295	-0.0181
743.3064	-0.0052
743.4834	0.0119
743.6603	0.0067
743.8372	0.001
744.0141	0.0351
744.191	-0.0082
744.3678	0.03
744.5446	0.0162
744.7215	0.0162
744.8982	0.0179
745.075	-0.0149
745.2518	-0.0009
745.4285	0.0066
745.6052	0.0288
745.7819	-0.0256
745.9586	0.0133
746.1353	0.0092
746.3119	0.01
746.4885	0.0014
746.6651	-0.0359
746.8417	0.0068
747.0183	0.0072
747.1948	0.0133
747.3714	-0.0102
747.5479	-0.0005
747.7244	-0.0667
747.9008	0.0274
748.0773	-0.0049
748.2537	0.0281
748.4301	0.0125
748.6065	-0.017
748.7829	0.0057
748.9593	0.0016
749.1356	-0.0136
749.3119	-0.004
749.4882	-0.0072
749.6645	0.0141
749.8408	-0.0133
750.017	-0.0147
750.1933	0.0218
750.3695	0.0238
750.5457	-0.0153
750.7218	0.0171
750.898	-0.0275
751.0741	0.012
751.2502	0.0193
751.4263	0.0136
751.6024	0.0202
751.7784	-0.0328
751.9545	-0.0123
752.1305	-0.0023
752.3065	0.0355
752.4825	-0.0042
752.6584	0.0066
752.8344	0.0063
753.0103	-0.0158
753.1862	0.018
753.3621	-0.0034
753.5379	-0.0316
753.7138	-0.0142
753.8896	0.0059
754.0654	-0.0076
754.2412	0.041
754.417	-0.0014
754.5927	0.0068
754.7685	0.0108
754.9442	0.0092
755.1199	0.0028
755.2956	0.0185
755.4712	0.0081
755.6469	0.0109
755.8225	-0.0152
755.9981	0.0024
756.1736	0.0176
756.3492	-0.003
756.5248	-0.0104
756.7003	0.0083
756.8758	-0.0184
757.0513	-0.0054
757.2267	-0.0085
757.4022	-0.001
757.5776	-0.0131
757.753	-0.0009
757.9284	0.003
758.1038	0.0099
758.2791	0.0041
758.4545	-0.027
758.6298	-0.0088
758.8051	-0.0212
758.9803	-0.0188
759.1556	-0.0225
759.3308	-0.0029
759.506	0.0129
759.6812	-0.0232
759.8564	-0.0117
760.0316	-0.0085
760.2067	-0.0117
760.3819	0.0035
760.557	0.0093
760.732	0.0166
760.9071	0.002
761.0821	0.0148
761.2572	0.0129
761.4322	-0.0106
761.6072	0.0104
761.7821	0.0131
761.9571	0.0153
762.132	-0.0129
762.3069	0.014
762.4818	0.0222
762.6567	0.0141
762.8316	0.0129
763.0064	-0.0079
763.1812	-0.0223
763.356	0.0176
763.5308	0.0117
763.7055	0.0152
763.8803	-0.0128
764.055	-0.0041
764.2297	-0.0048
764.4044	-0.0004
764.579	-0.0058
764.7537	0.0025
764.9283	-0.0192
765.1029	0.0047
765.2775	-0.0108
765.4521	0.0169
765.6266	-0.0311
765.8011	-0.0146
765.9756	0.0071
766.1501	0.0317
766.3246	0.0315
766.4991	-0.0222
766.6735	0.0156
766.8479	-0.0284
767.0223	0.0438
767.1967	0.0037
767.371	0.0576
767.5454	0.001
767.7197	-0.0078
767.894	0.0026
768.0683	0.009
768.2425	0.0095
768.4168	0.0153
768.591	0.0018
768.7652	-0.0101
768.9394	0.008
769.1135	-0.0104
769.2877	-0.0071
769.4618	0.0118
769.6359	0.0188
769.81	-0.0077
769.984	0.0185
770.1581	0.0386
770.3321	-0.0237
770.5061	0.0036
770.6801	0.0168
770.8541	-0.0186
771.028	0.0158
771.202	-0.0507
771.3759	-0.0059
771.5498	-0.0048
771.7236	0.0147
771.8975	-0.0171
772.0713	0.0073
772.2451	-0.0054
772.4189	0.0076
772.5927	-0.01
772.7665	0.0167
772.9402	-0.0074
773.1139	-0.0005
773.2876	0.018
773.4613	-0.0295
773.635	0.0069
773.8086	0.0001
773.9822	0.0357
774.1558	0.0243
774.3294	-0.0365
774.503	0.017
774.6765	0.037
774.8501	0.0597
775.0236	0.0406
775.1971	-0.0146
775.3705	-0.0257
775.544	-0.0079
775.7174	-0.0313
775.8908	0.0587
776.0642	0.0095
776.2376	-0.0265
776.4109	0.0586
776.5843	-0.0419
776.7576	0.0035
776.9309	0.0563
777.1041	0.0019
777.2774	-0.0107
777.4506	0.0488
777.6238	-0.0042
777.797	0.0023
777.9702	0.0416
778.1434	0.0468
778.3165	0.0219
778.4896	-0.0058
778.6627	0.0335
778.8358	-0.0094
779.0089	-0.0149
779.1819	0.0153
779.3549	0.0299
779.5279	0.0172
779.7009	-0.0106
779.8739	-0.0178
780.0468	0.0461
780.2197	-0.0362
780.3926	-0.0275
780.5655	-0.0104
780.7384	0.0218
780.9112	0
781.0841	0.003
781.2569	0.0005
781.4297	0.0502
781.6024	-0.0072
781.7752	0.0082
781.9479	-0.0394
782.1206	0.0225
782.2933	-0.0051
782.466	0.0076
782.6386	-0.0253
782.8113	0.0007
782.9839	0.023
783.1565	0.0122
783.329	-0.0151
783.5016	-0.0165
783.6741	-0.0153
783.8466	-0.0554
784.0191	0.0316
784.1916	-0.0023
784.3641	-0.0107
784.5365	0.0402
784.7089	0.0098
784.8813	0.0166
785.0537	-0.0165
785.2261	-0.0084
785.3984	-0.0242
785.5707	0.0509
785.743	-0.0386
785.9153	0.0568
786.0876	-0.027
786.2598	0.0379
786.432	0.0142
786.6042	0.0329
786.7764	0.0318
786.9486	0.0199
787.1207	0.0669
787.2928	-0.0098
787.4649	0.0332
787.637	0.0128
787.8091	-0.0389
787.9811	-0.0028
788.1532	0.0012
788.3252	-0.0042
788.4972	-0.0104
788.6691	0.0316
788.8411	0.0122
789.013	0.0202
789.1849	0.005
789.3568	0.0316
789.5287	-0.0166
789.7005	0.0664
789.8723	0.023
790.0442	-0.0187
790.2159	0.0341
790.3877	0.0181
790.5595	0.0107
790.7312	-0.0124
790.9029	0.0284
791.0746	0.0845
791.2463	-0.0378
791.4179	-0.0162
791.5896	-0.0278
791.7612	0.0266
791.9328	0.0171
792.1044	-0.0434
792.2759	0.07
792.4474	-0.0407
792.619	0.07
792.7905	-0.0035
792.9619	0.0024
793.1334	-0.0118
793.3048	-0.0078
793.4762	-0.0526
793.6476	-0.0052
793.819	-0.011
793.9904	0.0173
794.1617	-0.0114
794.333	0.0252
794.5043	-0.0188
794.6756	0.0258
794.8469	0.0201
795.0181	0.0156
795.1893	-0.0123
795.3605	0.0035
795.5317	0.0213
795.7029	0.0354
795.874	-0.0239
796.0452	-0.0162
796.2163	0.0636
796.3873	0.0802
796.5584	0.0509
796.7294	-0.1506
796.9005	-0.0665
797.0715	0.012
797.2425	-0.0013
797.4134	0.0047
797.5844	0.0765
797.7553	-0.0243
797.9262	0.0147
798.0971	-0.0287
798.2679	-0.0267
798.4388	-0.0098
798.6096	0.0454
798.7804	0.0307
798.9512	0.0097
799.122	0.0843
799.2927	-0.051
799.4635	0.0634
799.6342	0.069
799.8049	0.0888
799.9755	-0.0031
800.1462	0.0264
800.3168	0.0537
800.4874	0.0202
800.658	0.0661
800.8286	-0.065
800.9991	0.0533
801.1696	-0.0288
801.3402	-0.0966
801.5106	0.0542
801.6811	-0.0479
801.8516	-0.022
802.022	0.0002
802.1924	-0.0757
802.3628	-0.0886
802.5332	-0.0218
802.7035	-0.023
802.8739	-0.0017
803.0442	0.0424
803.2145	0.015
803.3847	-0.0276
803.555	0.0545
803.7252	-0.0032
803.8954	0.0061
804.0656	-0.029
804.2358	-0.0394
804.4059	0.0902
804.5761	0.0849
804.7462	-0.0127
804.9163	-0.0421
805.0864	0.0628
805.2564	0.1306
805.4264	-0.0292
805.5965	0.0421
805.7665	0.1136
805.9364	-0.0067
806.1064	-0.0137
806.2763	0.028
806.4462	-0.0038
806.6161	0.0484
806.786	0.0261
806.9559	0.0593
807.1257	-0.0063
807.2955	0.014
807.4653	-0.0545
807.6351	-0.0256
807.8048	-0.0178
807.9746	-0.0294
808.1443	0.0534
808.314	0.0252
808.4837	-0.0014
808.6533	0.1216
808.8229	-0.0463
808.9926	-0.0441
809.1622	-0.0111
809.3317	-0.0033
809.5013	0.1094
809.6708	0.038
809.8403	0.067
810.0098	0.0537
810.1793	0.0175
810.3488	0.1003
810.5182	0.0353
810.6876	0.1362
810.857	-0.0725
811.0264	0.0135
811.1958	-0.0776
811.3651	-0.0798
811.5344	-0.047
811.7037	0.0231
811.873	0.0532
812.0422	0.0293
812.2115	0.0761
812.3807	0.0899
812.5499	0.0369
812.7191	-0.0175
812.8882	0.104
813.0574	-0.1078
813.2265	-0.0774
813.3956	-0.0044
813.5646	0.0203
813.7337	-0.0966
813.9027	-0.0512
814.0718	0.0982
814.2407	-0.063
814.4097	-0.0761
814.5787	0.0306
814.7476	0.0481
814.9165	0.0297
815.0854	0.0072
815.2543	0.0305
815.4232	-0.0538
815.592	0.1597
815.7608	0.1467
815.9296	0.1223
816.0984	0.1836
816.2671	-0.1598
816.4359	0.3872
816.6046	-0.0639
816.7733	0.0222
816.942	-0.0329
817.1106	-0.3024
817.2793	-0.0195
817.4479	-0.0163
817.6165	-0.0722
817.785	0.0793
817.9536	0.0354
818.1221	0.0985
818.2906	0.1797
818.4591	-0.0418
818.6276	0.0282
818.7961	0.0714
818.9645	-0.0561
819.1329	0.461
819.3013	-0.0143
819.4697	0.1335
819.638	0.0004
819.8064	-0.0507
819.9747	0.0087
820.143	0.0003
820.3113	0.0646
820.4795	0.071
820.6477	0.04
820.816	-0.0729
820.9842	0.0066
821.1523	0.1218
821.3205	0.0811
821.4886	0.0888
821.6567	-0.0379
821.8248	-0.0431
821.9929	0.1986
822.1609	0.0582
822.329	0.0714
822.497	-0.0026
822.665	0.0695
822.833	0.0049
823.0009	-0.1081
823.1688	0.0412
823.3367	-0.191
823.5046	0.0876
823.6725	0.095
823.8404	0.093
824.0082	0.0131
824.176	0.0981
824.3438	0.3687
824.5116	0.1203
824.6793	0.0532
824.847	0.3728
825.0147	0.1956
825.1824	0.1272
825.3501	0.057
825.5177	0.0714
825.6854	0.2306
825.853	0.1797
826.0206	0.0822
826.1881	-0.0193
826.3557	0.1529
826.5232	-0.0143
826.6907	0.1457
826.8582	-0.0042
827.0257	0.0116
827.1931	0.0264
827.3605	0.0437
827.528	-0.0964
827.6953	0.0364
827.8627	0.0559
828.03	0.4017
828.1974	-0.0923
828.3647	-0.0291
828.532	0.0403
828.6992	0.1436
828.8665	0.0869
829.0337	0.0184
829.2009	0.2096
829.3681	-0.0057
829.5352	0.3403
829.7024	0.0613
829.8695	-0.1255
830.0366	0.3249
830.2037	0.1731
830.3707	0.0042
830.5378	0.1059
830.7048	-0.1541
830.8718	-0.0902
831.0388	0.4521
831.2057	-0.109
831.3727	0.101
831.5396	-0.0619
831.7065	0.1761
831.8734	-0.6559
832.0402	0.3781
832.2071	0.1006
832.3739	0.0653
832.5407	-0
832.7075	0.0945
832.8742	0.042
833.041	0.155
833.2077	0.0105
833.3744	-0.0453
833.541	0.3793
833.7077	0.2523
833.8743	0.0642
834.0409	-0.1797
834.2075	-0.0281
834.3741	-0.0077
834.5407	-0.2595
834.7072	0.0941
834.8737	0.0865
835.0402	0.1035
835.2067	-0.0604
835.3731	0.2274
835.5395	-0.0032
835.706	0.1428
835.8723	0.0584
836.0387	0.0808
836.2051	0.1323
836.3714	0.2081
836.5377	-0.1745
836.704	0.1632
836.8703	-0.0497
837.0365	0.3089
837.2027	-0.3317
837.3689	0.2338
837.5351	0.3276
837.7013	0.3064
837.8674	-1.0264
838.0335	0.181
838.1997	-0.0209
838.3657	-0.1859
838.5318	-0.7572
838.6978	0.1035
838.8639	0.8105
839.0299	0.4719
839.1958	0.069
839.3618	1.0726
839.5277	-0.0673
839.6937	-0.1873
839.8596	-0.0069
840.0254	0.1317
840.1913	-0
840.3571	-0.278
840.523	0.3852
840.6888	-0.0497
840.8545	0.2063
841.0203	0.5769
841.186	0.0005
841.3517	-0.0256
841.5174	0.2507
841.6831	0.4948
841.8488	0.3138
842.0144	0.3549
842.18	0.1094
842.3456	0.3967
842.5112	0.11
842.6767	-0.3297
842.8422	-0.2663
843.0077	-0
843.1732	0.1879
843.3387	0.5947
843.5042	-0.1005
843.6696	0.901
843.835	0.8751
844.0004	-0.087
844.1657	0.1761
844.3311	-0
844.4964	0.3113
844.6617	0.6261
844.827	0.2244
844.9923	0.3336
845.1575	-0.7319
845.3227	0.5087
845.4879	0.0739
845.6531	2.2135
845.8183	0.1105
845.9834	-0
846.1485	-0.1792
846.3136	0.1536
846.4787	1.2604
846.6438	-0
846.8088	-0
846.9738	-0
847.1388	0.3844
847.3038	-0
847.4687	-0
847.6337	-0
847.7986	0.2899
847.9635	0.025
848.1284	-0
848.2932	-0.3698
848.458	0.0401
848.6228	0.4469
848.7876	-0
848.9524	-0
849.1172	0.2069
849.2819	-0
849.4466	-0
849.6113	-0
849.7759	-0
849.9406	0.3834
850.1052	-0
850.2698	-1.4238
850.4344	-0
850.599	-0.3676
850.7635	2.3608
850.928	0.7799
851.0925	-0.0955
851.257	-0.3118
851.4215	0.4159
851.5859	0.105
851.7503	0.4897
851.9147	-1.4437
852.0791	-0.2062
852.2434	-0.0977
852.4078	0.4808
852.5721	0.001
852.7364	0.7227
852.9007	-0.256
853.0649	0.9246
853.2291	-0
853.3934	-0
853.5575	-0.28
853.7217	-0
853.8859	-0
854.05	-0.8381
854.2141	-0
854.3782	0.1924
854.5423	-0.5088
854.7063	0.564
854.8703	0.142
855.0343	0.3454
855.1983	1.1042
855.3623	1.2338
855.5262	-0.2421
855.6901	0.2563
855.854	0.0712
856.0179	-0.5534
856.1818	-0
856.3456	0.33
856.5094	-0
856.6732	-0
856.837	0.4875
857.0008	-0
857.1645	-0.2055
857.3282	0.3
857.4919	0.0269
857.6556	0.1403
857.8192	-0.072
857.9828	0.1126
858.1465	-0.0652
858.31	-0.0458
858.4736	-0.0645
858.6372	0.4291
858.8007	-0.8287
858.9642	0.2473
859.1277	0.1234
859.2911	0.0086
859.4546	0.1628
859.618	0.2424
859.7814	-0
859.9448	-0.5458
860.1081	-0
860.2715	-0.1575
860.4348	0.2879
860.5981	0.5807
860.7614	-0
860.9246	0.1685
861.0879	-0.6397
861.2511	0.7025
861.4143	0.5849
861.5774	0.6442
861.7406	0.2611
861.9037	-0
862.0668	0.4159
862.2299	-2.1228
862.393	0.5223
862.556	-0.3986
862.7191	0.1107
862.8821	-0.0538
863.0451	-0
863.208	-0
863.371	0.8224
863.5339	-0.0977
863.6968	-0.3914
863.8597	-0
864.0225	1.1492
864.1854	-0.4445
864.3482	-0
864.511	-0.1956
864.6737	-0
864.8365	0.2563
864.9992	-0.2874
865.1619	-0.0798
865.3246	-0.459
865.4873	-0
865.65	-0.1079
865.8126	0.251
865.9752	2.1804
866.1378	-0.8224
866.3004	0.7655
866.4629	0.0011
866.6254	-1.2317
866.7879	0.2892
866.9504	-0
867.1129	1.4924
867.2753	-0.248
867.4377	0.3871
867.6001	-0
867.7625	-0.1264
867.9249	-0
868.0872	-0.1301
868.2495	-0
868.4118	-0.3317
868.5741	-0
868.7363	0.8806
868.8986	-0.7736
869.0608	-0
869.223	1.4143
869.3851	-0
869.5473	-1.218
869.7094	-0
869.8715	-0
870.0336	0.0004
870.1957	-0.013
870.3577	0.2652
870.5197	0.5892
870.6817	-0
870.8437	0.6165
871.0057	-0
871.1676	0.2073
871.3295	-0
871.4914	0.7838
871.6533	-0
871.8151	0.6749
871.977	0.9174
872.1388	-0
872.3006	0.3806
872.4623	-0.6155
872.6241	-1.783
872.7858	2.1446
872.9475	0.5614
873.1092	1.1455
873.2709	0.2216
873.4325	-0
873.5941	-0
873.7557	-0
873.9173	0.1278
874.0789	-0
874.2404	-0.3855
874.4019	-0.2103
874.5634	0.1761
874.7249	0.7154
874.8863	-0.0507
875.0478	1.0947
875.2092	0.4589
875.3706	-0.1935
875.5319	-0.0912
875.6933	-0
875.8546	0.1958
876.0159	0.6473
876.1772	-0.669
876.3385	-0
876.4997	0.5024
876.6609	-0
876.8221	0.2266
876.9833	-0.0602
877.1445	0.4681
877.3056	-0
877.4667	-0
877.6278	0.115
877.7889	-0.1671
877.9499	0.16
878.111	0.732
878.272	-0.7248
878.433	0.2418
878.5939	0.5014
878.7549	-0
878.9158	-0
879.0767	-0
879.2376	0.1217
879.3984	-0
879.5593	0.6866
879.7201	0.0526
879.8809	-0.164
880.0417	0.2114
880.2024	0.6288
880.3632	0.2828
880.5239	-0
880.6846	-0
880.8452	0.8631
881.0059	-0.2372
881.1665	0.3651
881.3271	0.0928
881.4877	2.3608
881.6483	-0.7085
881.8088	0.4353
881.9693	1.1065
882.1298	1.1065
882.2903	1.1065
