Data from MonoPyChalIsomerACN10uM450nmA_Absorbance_13-11-15-692.txt Node
Date: Tue Jul 09 13:11:15 BST 2024
User: LASERRRRR
Spectrometer: FLMT03099
Trigger mode: 0
Integration Time (sec): 2.000000E-1
Scans to average: 1
Electric dark correction enabled: true
Nonlinearity correction enabled: false
Boxcar width: 0
XAxis mode: Wavelengths
Number of Pixels in Spectrum: 3648
>>>>>Begin Spectral Data<<<<<
179.3399	-0.2108
179.5586	-0.2108
179.7771	-0.2108
179.9957	0.0066
180.2143	-0.4482
180.4329	-0
180.6514	0.5246
180.8699	-0
181.0885	-0.1838
181.307	-0
181.5255	-0
181.744	-0
181.9625	0.1765
182.181	-0
182.3994	0.8016
182.6179	-0.5492
182.8363	-0
183.0547	0.1121
183.2732	0.1573
183.4916	0.0092
183.71	0.1519
183.9284	0.0236
184.1467	-0.0121
184.3651	0.0859
184.5835	0.0551
184.8018	0.1836
185.0201	0.0995
185.2385	-0.0363
185.4568	-0.0181
185.6751	0.1121
185.8934	0.0661
186.1117	0.038
186.3299	-0.1
186.5482	0.0458
186.7664	-0.0453
186.9847	0.1788
187.2029	0.1655
187.4211	0.1065
187.6393	-0.074
187.8575	0.1487
188.0757	0.0504
188.2939	0.0605
188.512	0.0791
188.7302	-0.1145
188.9483	0.1327
189.1665	0.094
189.3846	0.0843
189.6027	0.0639
189.8208	0.0289
190.0389	0.2005
190.257	0.3088
190.475	0.2345
190.6931	0.0839
190.9111	0.2292
191.1292	0.2187
191.3472	0.2937
191.5652	0.2494
191.7832	0.3297
192.0012	0.315
192.2192	0.372
192.4371	0.5349
192.6551	0.4351
192.873	0.4066
193.091	0.5241
193.3089	0.4534
193.5268	0.4979
193.7447	0.5546
193.9626	0.4317
194.1805	0.4733
194.3984	0.5655
194.6162	0.5638
194.8341	0.5114
195.0519	0.51
195.2697	0.6307
195.4875	0.5204
195.7054	0.5572
195.9231	0.6061
196.1409	0.5551
196.3587	0.6324
196.5765	0.6522
196.7942	0.861
197.012	0.6505
197.2297	0.6828
197.4474	0.7497
197.6651	0.6683
197.8828	0.7257
198.1005	0.864
198.3182	0.7093
198.5358	0.6806
198.7535	0.7492
198.9711	0.8505
199.1888	0.7018
199.4064	0.7649
199.624	0.7153
199.8416	0.8211
200.0592	0.8048
200.2767	0.7711
200.4943	0.813
200.7119	0.9152
200.9294	0.882
201.1469	0.7978
201.3645	0.7641
201.582	0.8436
201.7995	0.7439
202.017	0.8722
202.2344	0.7786
202.4519	0.877
202.6694	0.7745
202.8868	0.8758
203.1042	1.0046
203.3217	0.9605
203.5391	0.8716
203.7565	0.8732
203.9739	0.919
204.1913	0.7847
204.4086	0.872
204.626	0.991
204.8433	0.913
205.0607	0.9169
205.278	0.98
205.4953	0.9728
205.7126	0.9175
205.9299	1.0576
206.1472	0.9791
206.3644	0.9748
206.5817	1.0288
206.7989	1.0674
207.0162	0.9743
207.2334	0.935
207.4506	1.0234
207.6678	1.0396
207.885	1.0465
208.1022	1.0885
208.3194	0.999
208.5365	1.0562
208.7537	1.0445
208.9708	1.0745
209.1879	1.0462
209.405	1.0086
209.6222	1.1008
209.8392	1.1233
210.0563	1.0053
210.2734	1.024
210.4905	1.0418
210.7075	1.0318
210.9245	0.9933
211.1416	1.064
211.3586	1.0221
211.5756	1.0685
211.7926	1.0247
212.0096	0.9876
212.2265	1.0288
212.4435	1.003
212.6604	0.9965
212.8774	0.9943
213.0943	1.001
213.3112	1.0017
213.5281	1.0472
213.745	0.9605
213.9619	0.9432
214.1788	0.9533
214.3956	1.0039
214.6125	0.9007
214.8293	0.8785
215.0461	0.8996
215.2629	0.9153
215.4798	0.8336
215.6965	0.8508
215.9133	0.8892
216.1301	0.8225
216.3469	0.7909
216.5636	0.7904
216.7803	0.7525
216.9971	0.761
217.2138	0.7265
217.4305	0.7125
217.6472	0.6618
217.8639	0.6503
218.0805	0.6302
218.2972	0.5565
218.5138	0.5679
218.7305	0.5325
218.9471	0.4782
219.1637	0.4501
219.3803	0.419
219.5969	0.382
219.8135	0.3709
220.0301	0.3506
220.2466	0.3633
220.4632	0.3311
220.6797	0.3334
220.8962	0.3045
221.1127	0.3062
221.3292	0.3121
221.5457	0.2862
221.7622	0.2995
221.9787	0.2857
222.1951	0.3008
222.4116	0.2785
222.628	0.2679
222.8444	0.2701
223.0608	0.2797
223.2772	0.2686
223.4936	0.2693
223.71	0.2736
223.9264	0.285
224.1427	0.2697
224.3591	0.2703
224.5754	0.275
224.7917	0.2773
225.008	0.2796
225.2243	0.2779
225.4406	0.2927
225.6569	0.283
225.8732	0.3001
226.0894	0.2753
226.3057	0.2723
226.5219	0.2838
226.7381	0.2909
226.9543	0.2962
227.1705	0.298
227.3867	0.308
227.6029	0.2945
227.8191	0.2961
228.0352	0.3054
228.2513	0.3062
228.4675	0.3017
228.6836	0.3216
228.8997	0.3192
229.1158	0.3272
229.3319	0.319
229.548	0.3343
229.764	0.32
229.9801	0.3259
230.1961	0.339
230.4121	0.3392
230.6282	0.3476
230.8442	0.3408
231.0602	0.3537
231.2761	0.3444
231.4921	0.3516
231.7081	0.3552
231.924	0.3588
232.14	0.3541
232.3559	0.3638
232.5718	0.3624
232.7877	0.3515
233.0036	0.366
233.2195	0.3768
233.4353	0.3697
233.6512	0.3734
233.867	0.384
234.0829	0.3801
234.2987	0.3875
234.5145	0.374
234.7303	0.3995
234.9461	0.3949
235.1619	0.3933
235.3776	0.378
235.5934	0.3948
235.8091	0.3884
236.0249	0.385
236.2406	0.4007
236.4563	0.3989
236.672	0.4142
236.8877	0.4031
237.1034	0.4071
237.319	0.4167
237.5347	0.4168
237.7503	0.4105
237.966	0.4247
238.1816	0.4023
238.3972	0.4241
238.6128	0.4216
238.8284	0.4208
239.0439	0.4123
239.2595	0.4394
239.475	0.4287
239.6906	0.416
239.9061	0.4119
240.1216	0.4244
240.3371	0.418
240.5526	0.4235
240.7681	0.4098
240.9836	0.4068
241.199	0.4199
241.4145	0.3923
241.6299	0.3972
241.8453	0.3864
242.0607	0.388
242.2761	0.394
242.4915	0.3876
242.7069	0.3807
242.9223	0.3646
243.1376	0.3646
243.353	0.3582
243.5683	0.3436
243.7836	0.3436
243.9989	0.337
244.2142	0.3286
244.4295	0.3201
244.6448	0.3242
244.86	0.3277
245.0753	0.2989
245.2905	0.2893
245.5057	0.2952
245.721	0.2894
245.9362	0.2818
246.1514	0.2761
246.3665	0.2731
246.5817	0.265
246.7969	0.2706
247.012	0.2617
247.2271	0.2593
247.4423	0.2555
247.6574	0.2546
247.8725	0.2529
248.0876	0.2412
248.3026	0.2466
248.5177	0.2412
248.7328	0.2255
248.9478	0.241
249.1628	0.2402
249.3779	0.2369
249.5929	0.2213
249.8079	0.2211
250.0228	0.2245
250.2378	0.2248
250.4528	0.2172
250.6677	0.209
250.8827	0.2067
251.0976	0.2107
251.3125	0.2146
251.5274	0.2003
251.7423	0.2109
251.9572	0.2056
252.172	0.2062
252.3869	0.1978
252.6017	0.2123
252.8166	0.2051
253.0314	0.2083
253.2462	0.2088
253.461	0.1969
253.6758	0.1988
253.8906	0.1969
254.1053	0.2028
254.3201	0.1973
254.5348	0.207
254.7496	0.2023
254.9643	0.1936
255.179	0.2036
255.3937	0.2089
255.6083	0.1975
255.823	0.1897
256.0377	0.1901
256.2523	0.1987
256.467	0.1949
256.6816	0.1965
256.8962	0.1947
257.1108	0.1985
257.3254	0.1995
257.54	0.1913
257.7545	0.1908
257.9691	0.1977
258.1836	0.1936
258.3981	0.1986
258.6127	0.2001
258.8272	0.1991
259.0417	0.1839
259.2561	0.201
259.4706	0.1898
259.6851	0.1943
259.8995	0.1958
260.114	0.1909
260.3284	0.195
260.5428	0.2004
260.7572	0.2022
260.9716	0.1932
261.186	0.1896
261.4003	0.2058
261.6147	0.1928
261.829	0.2064
262.0433	0.1934
262.2577	0.197
262.472	0.1966
262.6863	0.192
262.9005	0.1949
263.1148	0.1962
263.3291	0.1852
263.5433	0.1967
263.7576	0.1905
263.9718	0.1895
264.186	0.1841
264.4002	0.182
264.6144	0.1856
264.8286	0.1796
265.0427	0.1727
265.2569	0.1853
265.471	0.1732
265.6851	0.1764
265.8993	0.1722
266.1134	0.1733
266.3275	0.1818
266.5415	0.1739
266.7556	0.1853
266.9697	0.1789
267.1837	0.1782
267.3978	0.1853
267.6118	0.1873
267.8258	0.1875
268.0398	0.1905
268.2538	0.191
268.4677	0.192
268.6817	0.1913
268.8957	0.1877
269.1096	0.178
269.3235	0.1779
269.5374	0.1758
269.7514	0.1635
269.9652	0.1591
270.1791	0.1541
270.393	0.1572
270.6068	0.1449
270.8207	0.1446
271.0345	0.1499
271.2483	0.1467
271.4622	0.1484
271.676	0.141
271.8897	0.1372
272.1035	0.137
272.3173	0.1393
272.531	0.1385
272.7448	0.1368
272.9585	0.1366
273.1722	0.1365
273.3859	0.1347
273.5996	0.1311
273.8133	0.1379
274.0269	0.1351
274.2406	0.1381
274.4542	0.1365
274.6679	0.132
274.8815	0.1354
275.0951	0.1427
275.3087	0.1292
275.5223	0.1398
275.7358	0.1309
275.9494	0.1429
276.1629	0.1366
276.3765	0.133
276.59	0.1347
276.8035	0.1441
277.017	0.1368
277.2305	0.1413
277.444	0.1379
277.6574	0.1369
277.8709	0.1442
278.0843	0.1453
278.2978	0.1376
278.5112	0.1369
278.7246	0.1346
278.938	0.1387
279.1513	0.1472
279.3647	0.1417
279.5781	0.1353
279.7914	0.1453
280.0047	0.1409
280.2181	0.1427
280.4314	0.1427
280.6447	0.1375
280.8579	0.1441
281.0712	0.1435
281.2845	0.1427
281.4977	0.1438
281.711	0.1468
281.9242	0.1478
282.1374	0.1425
282.3506	0.1381
282.5638	0.1421
282.7769	0.1585
282.9901	0.146
283.2033	0.1522
283.4164	0.157
283.6295	0.1573
283.8426	0.1538
284.0557	0.1489
284.2688	0.1527
284.4819	0.147
284.695	0.1536
284.908	0.1525
285.1211	0.1522
285.3341	0.1486
285.5471	0.1586
285.7601	0.1568
285.9731	0.156
286.1861	0.1573
286.3991	0.1518
286.612	0.1573
286.825	0.1629
287.0379	0.1655
287.2508	0.1552
287.4637	0.1557
287.6766	0.1552
287.8895	0.1612
288.1024	0.1584
288.3152	0.1643
288.5281	0.1588
288.7409	0.1634
288.9538	0.1626
289.1666	0.1671
289.3794	0.1683
289.5922	0.1654
289.8049	0.165
290.0177	0.164
290.2304	0.1604
290.4432	0.1654
290.6559	0.1649
290.8686	0.1524
291.0813	0.1635
291.294	0.1642
291.5067	0.1693
291.7194	0.1635
291.932	0.1664
292.1447	0.1657
292.3573	0.1693
292.5699	0.167
292.7825	0.1658
292.9951	0.1684
293.2077	0.1568
293.4203	0.1608
293.6328	0.1745
293.8454	0.1594
294.0579	0.1624
294.2704	0.1647
294.4829	0.1684
294.6954	0.1659
294.9079	0.1749
295.1204	0.1681
295.3328	0.1625
295.5453	0.16
295.7577	0.1602
295.9701	0.1683
296.1825	0.1738
296.3949	0.1549
296.6073	0.1686
296.8197	0.1633
297.0321	0.1757
297.2444	0.1576
297.4567	0.1593
297.6691	0.1604
297.8814	0.1677
298.0937	0.1668
298.306	0.1557
298.5182	0.1578
298.7305	0.1701
298.9428	0.1602
299.155	0.1579
299.3672	0.1626
299.5794	0.161
299.7916	0.162
300.0038	0.1612
300.216	0.1698
300.4282	0.1621
300.6403	0.1636
300.8525	0.1649
301.0646	0.165
301.2767	0.1632
301.4888	0.1594
301.7009	0.1711
301.913	0.1714
302.125	0.1619
302.3371	0.1625
302.5491	0.1585
302.7612	0.1594
302.9732	0.1717
303.1852	0.1661
303.3972	0.1665
303.6092	0.1634
303.8211	0.1618
304.0331	0.1567
304.245	0.1581
304.457	0.1567
304.6689	0.1577
304.8808	0.1519
305.0927	0.1581
305.3046	0.1535
305.5164	0.1551
305.7283	0.1551
305.9401	0.1537
306.152	0.1555
306.3638	0.1553
306.5756	0.1512
306.7874	0.1461
306.9992	0.1378
307.2109	0.1367
307.4227	0.1434
307.6344	0.1364
307.8462	0.1339
308.0579	0.1307
308.2696	0.1292
308.4813	0.1342
308.693	0.1287
308.9046	0.126
309.1163	0.122
309.328	0.1195
309.5396	0.1179
309.7512	0.1248
309.9628	0.1177
310.1744	0.1245
310.386	0.1118
310.5976	0.1158
310.8091	0.1141
311.0207	0.1114
311.2322	0.114
311.4437	0.1197
311.6552	0.1059
311.8667	0.1092
312.0782	0.1126
312.2897	0.0981
312.5012	0.1044
312.7126	0.0944
312.924	0.0977
313.1355	0.1065
313.3469	0.1048
313.5583	0.1094
313.7696	0.0979
313.981	0.0984
314.1924	0.091
314.4037	0.0965
314.6151	0.0898
314.8264	0.0955
315.0377	0.0951
315.249	0.0963
315.4603	0.095
315.6716	0.0981
315.8828	0.1
316.0941	0.0936
316.3053	0.0927
316.5165	0.0857
316.7277	0.0866
316.9389	0.0973
317.1501	0.0918
317.3613	0.0934
317.5724	0.0889
317.7836	0.0901
317.9947	0.0901
318.2058	0.0898
318.417	0.0861
318.6281	0.095
318.8391	0.089
319.0502	0.0885
319.2613	0.098
319.4723	0.0817
319.6834	0.092
319.8944	0.0979
320.1054	0.0904
320.3164	0.0964
320.5274	0.0971
320.7383	0.0882
320.9493	0.0853
321.1602	0.0935
321.3712	0.0959
321.5821	0.0899
321.793	0.0907
322.0039	0.1007
322.2148	0.0898
322.4257	0.0838
322.6365	0.0929
322.8474	0.0933
323.0582	0.1043
323.269	0.0944
323.4798	0.1007
323.6906	0.0906
323.9014	0.0893
324.1122	0.0923
324.3229	0.0998
324.5337	0.079
324.7444	0.0944
324.9551	0.085
325.1658	0.0939
325.3765	0.0929
325.5872	0.0903
325.7979	0.0961
326.0085	0.1023
326.2192	0.0963
326.4298	0.0975
326.6404	0.0946
326.851	0.0893
327.0616	0.0981
327.2722	0.092
327.4828	0.0947
327.6933	0.1006
327.9039	0.1012
328.1144	0.0958
328.3249	0.0986
328.5354	0.1024
328.7459	0.0947
328.9564	0.1022
329.1669	0.093
329.3773	0.0969
329.5878	0.104
329.7982	0.0982
330.0086	0.1015
330.219	0.0981
330.4294	0.0994
330.6398	0.1008
330.8502	0.095
331.0605	0.1003
331.2708	0.0962
331.4812	0.0999
331.6915	0.0955
331.9018	0.0972
332.1121	0.1045
332.3224	0.0947
332.5326	0.0917
332.7429	0.1018
332.9531	0.0999
333.1633	0.1069
333.3735	0.1028
333.5837	0.0947
333.7939	0.0906
334.0041	0.1003
334.2143	0.1013
334.4244	0.0986
334.6346	0.0965
334.8447	0.0998
335.0548	0.1084
335.2649	0.0872
335.475	0.0922
335.685	0.1066
335.8951	0.1012
336.1051	0.0953
336.3152	0.0982
336.5252	0.0985
336.7352	0.1035
336.9452	0.1022
337.1552	0.1036
337.3652	0.1048
337.5751	0.1059
337.7851	0.1001
337.995	0.1071
338.2049	0.0931
338.4148	0.1036
338.6247	0.108
338.8346	0.1049
339.0445	0.1047
339.2543	0.1046
339.4642	0.1
339.674	0.1038
339.8838	0.1
340.0936	0.1123
340.3034	0.1122
340.5132	0.1104
340.7229	0.1209
340.9327	0.1133
341.1424	0.1177
341.3522	0.1097
341.5619	0.1089
341.7716	0.1145
341.9813	0.1179
342.1909	0.119
342.4006	0.1122
342.6102	0.1122
342.8199	0.1113
343.0295	0.1108
343.2391	0.112
343.4487	0.1142
343.6583	0.1152
343.8679	0.114
344.0774	0.1218
344.287	0.1192
344.4965	0.1114
344.706	0.1221
344.9155	0.123
345.125	0.1273
345.3345	0.1222
345.544	0.1138
345.7534	0.1153
345.9629	0.1239
346.1723	0.1223
346.3817	0.1301
346.5911	0.1316
346.8005	0.1175
347.0099	0.1152
347.2193	0.1351
347.4286	0.1279
347.638	0.1324
347.8473	0.1222
348.0566	0.1354
348.2659	0.1202
348.4752	0.1332
348.6845	0.1266
348.8937	0.1334
349.103	0.1301
349.3122	0.132
349.5214	0.1327
349.7306	0.1329
349.9398	0.1312
350.149	0.136
350.3582	0.1262
350.5674	0.137
350.7765	0.1356
350.9856	0.1303
351.1948	0.1369
351.4039	0.13
351.613	0.1318
351.822	0.1386
352.0311	0.1367
352.2402	0.1449
352.4492	0.1345
352.6582	0.1374
352.8672	0.1408
353.0762	0.1443
353.2852	0.1495
353.4942	0.151
353.7032	0.1398
353.9121	0.1428
354.1211	0.1418
354.33	0.1351
354.5389	0.1491
354.7478	0.1489
354.9567	0.1437
355.1655	0.1476
355.3744	0.1454
355.5833	0.1438
355.7921	0.153
356.0009	0.1441
356.2097	0.1479
356.4185	0.1472
356.6273	0.1626
356.8361	0.1477
357.0448	0.1506
357.2536	0.1557
357.4623	0.1546
357.671	0.1612
357.8797	0.1701
358.0884	0.1623
358.2971	0.1688
358.5057	0.1637
358.7144	0.1601
358.923	0.1694
359.1316	0.1667
359.3402	0.1709
359.5488	0.1738
359.7574	0.1683
359.966	0.171
360.1746	0.1746
360.3831	0.175
360.5916	0.1822
360.8002	0.183
361.0087	0.1827
361.2172	0.1833
361.4256	0.1812
361.6341	0.196
361.8426	0.1866
362.051	0.167
362.2594	0.1819
362.4678	0.1786
362.6762	0.1869
362.8846	0.1855
363.093	0.1832
363.3014	0.1811
363.5097	0.1813
363.718	0.1985
363.9264	0.1947
364.1347	0.1972
364.343	0.1875
364.5513	0.1923
364.7595	0.1943
364.9678	0.1962
365.176	0.1929
365.3842	0.1925
365.5925	0.1937
365.8007	0.1883
366.0089	0.2084
366.217	0.1947
366.4252	0.204
366.6333	0.2002
366.8415	0.2021
367.0496	0.212
367.2577	0.2088
367.4658	0.209
367.6739	0.2126
367.882	0.2066
368.09	0.207
368.2981	0.2131
368.5061	0.2071
368.7141	0.2142
368.9221	0.2038
369.1301	0.2182
369.3381	0.22
369.5461	0.2262
369.754	0.2151
369.962	0.2106
370.1699	0.2124
370.3778	0.2241
370.5857	0.2222
370.7936	0.2125
371.0015	0.2129
371.2093	0.211
371.4172	0.225
371.625	0.2242
371.8328	0.2273
372.0406	0.228
372.2484	0.234
372.4562	0.2291
372.664	0.2303
372.8717	0.2285
373.0795	0.2296
373.2872	0.2282
373.4949	0.2189
373.7026	0.2307
373.9103	0.225
374.118	0.2469
374.3256	0.2287
374.5333	0.2308
374.7409	0.2333
374.9485	0.2335
375.1561	0.244
375.3637	0.2341
375.5713	0.2422
375.7789	0.2341
375.9864	0.2353
376.194	0.2365
376.4015	0.2432
376.609	0.2465
376.8165	0.2409
377.024	0.239
377.2315	0.2424
377.4389	0.2484
377.6464	0.2407
377.8538	0.2468
378.0612	0.2508
378.2686	0.248
378.476	0.2455
378.6834	0.2581
378.8908	0.2586
379.0981	0.2551
379.3055	0.2453
379.5128	0.2521
379.7201	0.2563
379.9274	0.2463
380.1347	0.2451
380.342	0.2635
380.5492	0.2672
380.7565	0.2569
380.9637	0.2537
381.1709	0.2654
381.3781	0.246
381.5853	0.2606
381.7925	0.2657
381.9997	0.2715
382.2068	0.2543
382.4139	0.2568
382.6211	0.2676
382.8282	0.262
383.0353	0.2598
383.2424	0.2552
383.4494	0.2714
383.6565	0.2692
383.8635	0.2769
384.0706	0.2602
384.2776	0.2811
384.4846	0.2623
384.6916	0.2618
384.8986	0.2628
385.1055	0.2632
385.3125	0.2817
385.5194	0.2699
385.7263	0.2743
385.9333	0.2624
386.1402	0.2665
386.347	0.2611
386.5539	0.2605
386.7608	0.2626
386.9676	0.257
387.1744	0.264
387.3813	0.2672
387.5881	0.2708
387.7948	0.2596
388.0016	0.2686
388.2084	0.2758
388.4151	0.263
388.6219	0.2656
388.8286	0.2601
389.0353	0.2583
389.242	0.2549
389.4487	0.2466
389.6553	0.2652
389.862	0.2602
390.0686	0.2636
390.2753	0.2617
390.4819	0.2484
390.6885	0.2543
390.8951	0.2578
391.1016	0.2632
391.3082	0.2551
391.5147	0.2531
391.7213	0.249
391.9278	0.2462
392.1343	0.2498
392.3408	0.2381
392.5473	0.2504
392.7537	0.2509
392.9602	0.2375
393.1666	0.2572
393.373	0.2553
393.5794	0.2466
393.7858	0.2317
393.9922	0.2309
394.1986	0.2382
394.4049	0.2492
394.6113	0.227
394.8176	0.2265
395.0239	0.237
395.2302	0.2286
395.4365	0.2392
395.6428	0.2326
395.8491	0.2251
396.0553	0.2209
396.2615	0.231
396.4678	0.2365
396.674	0.2271
396.8802	0.2203
397.0863	0.2291
397.2925	0.2348
397.4987	0.2189
397.7048	0.223
397.9109	0.2356
398.117	0.2234
398.3231	0.2328
398.5292	0.2133
398.7353	0.2256
398.9413	0.2291
399.1474	0.2189
399.3534	0.2246
399.5594	0.2189
399.7654	0.2149
399.9714	0.2285
400.1774	0.2298
400.3833	0.2291
400.5893	0.2186
400.7952	0.2122
401.0011	0.2193
401.207	0.2289
401.4129	0.2189
401.6188	0.2104
401.8247	0.2173
402.0305	0.2222
402.2364	0.233
402.4422	0.2249
402.648	0.2386
402.8538	0.2112
403.0596	0.2201
403.2654	0.2153
403.4711	0.2192
403.6768	0.2246
403.8826	0.222
404.0883	0.2191
404.294	0.2233
404.4997	0.2213
404.7054	0.2208
404.911	0.2329
405.1167	0.2304
405.3223	0.2253
405.5279	0.2255
405.7335	0.2162
405.9391	0.2338
406.1447	0.2267
406.3502	0.2208
406.5558	0.2196
406.7613	0.2203
406.9668	0.2167
407.1724	0.2309
407.3778	0.229
407.5833	0.2136
407.7888	0.2348
407.9942	0.2183
408.1997	0.2246
408.4051	0.2114
408.6105	0.2308
408.8159	0.2373
409.0213	0.2164
409.2267	0.2074
409.432	0.2281
409.6374	0.226
409.8427	0.23
410.048	0.2256
410.2533	0.2206
410.4586	0.2225
410.6639	0.2109
410.8691	0.2323
411.0744	0.2242
411.2796	0.2301
411.4848	0.2137
411.69	0.2199
411.8952	0.2116
412.1004	0.2171
412.3056	0.2211
412.5107	0.225
412.7158	0.2281
412.921	0.2222
413.1261	0.2017
413.3312	0.2254
413.5362	0.2261
413.7413	0.2104
413.9464	0.2183
414.1514	0.2076
414.3564	0.219
414.5614	0.2203
414.7664	0.2277
414.9714	0.2115
415.1764	0.2195
415.3813	0.2299
415.5863	0.2221
415.7912	0.2247
415.9961	0.2287
416.201	0.2085
416.4059	0.2153
416.6108	0.2178
416.8156	0.2068
417.0205	0.2259
417.2253	0.2269
417.4301	0.2176
417.6349	0.2206
417.8397	0.1996
418.0445	0.2164
418.2492	0.2115
418.454	0.2166
418.6587	0.2097
418.8634	0.2062
419.0681	0.2117
419.2728	0.2217
419.4775	0.2075
419.6822	0.2178
419.8868	0.2157
420.0915	0.2069
420.2961	0.2081
420.5007	0.2048
420.7053	0.2048
420.9099	0.2022
421.1144	0.2018
421.319	0.1942
421.5235	0.2136
421.728	0.1952
421.9325	0.2017
422.137	0.1964
422.3415	0.2113
422.546	0.2058
422.7504	0.1951
422.9549	0.2033
423.1593	0.1913
423.3637	0.1974
423.5681	0.2023
423.7725	0.1973
423.9769	0.1842
424.1812	0.1939
424.3856	0.1864
424.5899	0.2028
424.7942	0.1889
424.9985	0.1873
425.2028	0.1709
425.4071	0.1934
425.6113	0.1936
425.8156	0.1741
426.0198	0.1947
426.224	0.1805
426.4282	0.1656
426.6324	0.1899
426.8366	0.1854
427.0407	0.1764
427.2449	0.1852
427.449	0.1827
427.6531	0.1761
427.8572	0.1688
428.0613	0.1653
428.2654	0.1636
428.4694	0.1841
428.6735	0.1805
428.8775	0.1567
429.0815	0.1646
429.2855	0.1647
429.4895	0.1523
429.6935	0.1462
429.8975	0.1606
430.1014	0.1499
430.3053	0.1536
430.5093	0.1598
430.7132	0.1556
430.9171	0.1481
431.1209	0.1566
431.3248	0.1492
431.5286	0.1518
431.7325	0.1412
431.9363	0.1508
432.1401	0.1525
432.3439	0.1439
432.5477	0.1413
432.7514	0.1349
432.9552	0.1309
433.1589	0.1291
433.3627	0.1299
433.5664	0.1301
433.7701	0.1144
433.9737	0.1111
434.1774	0.122
434.3811	0.1184
434.5847	0.1233
434.7883	0.1234
434.9919	0.12
435.1955	0.1109
435.3991	0.1165
435.6027	0.1123
435.8062	0.1021
436.0098	0.114
436.2133	0.1094
436.4168	0.1166
436.6203	0.1069
436.8238	0.0988
437.0272	0.1006
437.2307	0.0964
437.4341	0.0962
437.6375	0.108
437.841	0.1032
438.0443	0.0945
438.2477	0.0889
438.4511	0.0988
438.6545	0.0894
438.8578	0.0931
439.0611	0.0763
439.2644	0.0964
439.4677	0.0926
439.671	0.0919
439.8743	0.0826
440.0775	0.0797
440.2808	0.0691
440.484	0.0866
440.6872	0.0701
440.8904	0.068
441.0936	0.0754
441.2967	0.0691
441.4999	0.0726
441.703	0.0603
441.9062	0.0735
442.1093	0.0696
442.3124	0.0643
442.5155	0.0695
442.7185	0.0504
442.9216	0.0657
443.1246	0.0613
443.3276	0.0644
443.5307	0.0502
443.7337	0.0573
443.9366	0.0661
444.1396	0.052
444.3426	0.0574
444.5455	0.0526
444.7484	0.0568
444.9513	0.0514
445.1542	0.0546
445.3571	0.0527
445.56	0.0449
445.7628	0.0376
445.9657	0.0534
446.1685	0.0371
446.3713	0.0423
446.5741	0.0455
446.7769	0.0463
446.9797	0.0358
447.1824	0.0381
447.3852	0.039
447.5879	0.049
447.7906	0.0397
447.9933	0.0312
448.196	0.0434
448.3986	0.0286
448.6013	0.0359
448.8039	0.0261
449.0066	0.0441
449.2092	0.0268
449.4118	0.0245
449.6143	0.0299
449.8169	0.0216
450.0195	0.0279
450.222	0.0096
450.4245	0.0281
450.627	0.0226
450.8295	0.026
451.032	0.0352
451.2345	0.0179
451.4369	0.0356
451.6394	0.0171
451.8418	0.0236
452.0442	0.015
452.2466	0.0196
452.449	0.0174
452.6513	0.0276
452.8537	0.0193
453.056	0.019
453.2583	0.007
453.4607	0.0243
453.663	0.015
453.8652	0.0186
454.0675	0.0148
454.2697	0.0191
454.472	0.0143
454.6742	0.0096
454.8764	0.0141
455.0786	0.025
455.2808	0.0164
455.4829	0.0105
455.6851	0.0083
455.8872	0.0061
456.0893	0.0125
456.2915	0.004
456.4935	0.0035
456.6956	0.0099
456.8977	0.0105
457.0997	0.0067
457.3018	0.0087
457.5038	0.0081
457.7058	0.0089
457.9078	0.0037
458.1098	0.0063
458.3117	0.0014
458.5137	0.0075
458.7156	0.0158
458.9175	0.0043
459.1194	0.0013
459.3213	-0.0004
459.5232	-0.0027
459.725	0.013
459.9269	0.0096
460.1287	-0.0015
460.3305	0.0065
460.5323	0.0089
460.7341	0.0026
460.9359	0.007
461.1376	0.0086
461.3394	-0.0045
461.5411	0.0109
461.7428	-0.0097
461.9445	0.004
462.1462	-0.0067
462.3479	-0.0037
462.5495	0.0019
462.7512	0.0006
462.9528	-0.0045
463.1544	-0.0008
463.356	-0.0032
463.5576	-0.0029
463.7592	-0.0018
463.9607	0.0058
464.1623	-0.0028
464.3638	0.0004
464.5653	0.0079
464.7668	0.0014
464.9683	0.0032
465.1697	-0.0032
465.3712	0.007
465.5726	0.0006
465.7741	-0.0009
465.9755	-0.0015
466.1769	-0.0139
466.3782	-0.004
466.5796	-0.0067
466.7809	-0.0106
466.9823	-0.0113
467.1836	-0.0088
467.3849	0.0094
467.5862	-0.0059
467.7875	-0.0134
467.9887	-0.0039
468.19	-0.0065
468.3912	-0.0017
468.5924	-0.001
468.7936	-0.0164
468.9948	0.0089
469.196	-0.0007
469.3972	-0.0098
469.5983	0.0122
469.7994	-0.0091
470.0006	-0.0127
470.2017	0.0053
470.4027	0.0025
470.6038	-0.0032
470.8049	-0.0075
471.0059	-0.004
471.2069	0.0077
471.408	-0.0084
471.6089	-0.0094
471.8099	-0.0101
472.0109	-0.0039
472.2119	-0.0124
472.4128	-0.0031
472.6137	-0.0068
472.8146	-0.0156
473.0155	-0.0045
473.2164	-0.0116
473.4173	-0.0102
473.6181	-0.0065
473.819	-0.0052
474.0198	0.0011
474.2206	-0.0077
474.4214	-0.0034
474.6222	-0.0092
474.8229	-0.0059
475.0237	-0.0073
475.2244	-0.0024
475.4251	-0.0067
475.6258	0.0024
475.8265	0.0042
476.0272	-0.0085
476.2278	-0.0039
476.4285	-0.0037
476.6291	-0.0098
476.8297	-0.004
477.0303	-0.0088
477.2309	0.0006
477.4315	-0.0002
477.632	-0.0051
477.8326	-0.0057
478.0331	-0.0071
478.2336	-0.0072
478.4341	-0.012
478.6346	-0.0036
478.8351	-0.0093
479.0355	-0.0124
479.236	-0.0102
479.4364	-0.0113
479.6368	0.0031
479.8372	-0.0069
480.0376	-0.0061
480.2379	-0.0013
480.4383	-0.0082
480.6386	-0.0075
480.8389	-0.0122
481.0392	-0.0085
481.2395	-0.0106
481.4398	0.0034
481.6401	-0.0119
481.8403	-0.0001
482.0405	-0.0154
482.2408	-0.001
482.441	-0.0017
482.6411	0.0102
482.8413	-0.0033
483.0415	-0.005
483.2416	-0.0053
483.4417	-0.0019
483.6419	-0.0038
483.8419	-0.007
484.042	-0.0043
484.2421	-0.0028
484.4422	-0.0103
484.6422	-0.0157
484.8422	-0.0144
485.0422	-0.0072
485.2422	-0.003
485.4422	-0.0098
485.6422	-0.0002
485.8421	-0.0064
486.042	-0.0068
486.242	-0.0028
486.4419	-0.0071
486.6417	-0.0064
486.8416	-0.0036
487.0415	-0.0071
487.2413	-0.0069
487.4411	-0.0065
487.641	-0.0096
487.8408	-0.0061
488.0405	-0.0045
488.2403	-0.0008
488.4401	-0.0129
488.6398	-0.0099
488.8395	-0.0106
489.0392	-0.0074
489.2389	-0.0054
489.4386	-0.0085
489.6383	-0.0013
489.8379	-0.0032
490.0376	-0.0087
490.2372	-0.0071
490.4368	-0.0174
490.6364	-0.0044
490.836	-0.0114
491.0355	-0.0023
491.2351	-0.006
491.4346	-0.0072
491.6341	-0.0071
491.8336	-0.0111
492.0331	-0.0151
492.2326	-0.0106
492.432	-0.0059
492.6315	0.0001
492.8309	-0.0056
493.0303	-0.0057
493.2297	-0.0075
493.4291	-0.0095
493.6284	0.0038
493.8278	-0.0111
494.0271	0.0064
494.2264	-0.0091
494.4257	-0.0031
494.625	-0.0041
494.8243	-0.0055
495.0236	-0.0187
495.2228	-0.0079
495.422	-0.0039
495.6213	-0.0092
495.8205	-0.007
496.0196	-0.006
496.2188	-0.0017
496.418	-0.0068
496.6171	0.0057
496.8162	-0.0049
497.0153	-0.0058
497.2144	-0.0062
497.4135	-0.0072
497.6126	0.0005
497.8116	0.0018
498.0107	-0.0026
498.2097	-0.0057
498.4087	-0.0043
498.6077	-0.0064
498.8067	-0.0039
499.0056	-0.0004
499.2046	0.0029
499.4035	-0.0166
499.6024	-0.0073
499.8013	0.0025
500.0002	-0.0101
500.199	-0.0056
500.3979	-0.0047
500.5967	-0.0096
500.7956	-0.0097
500.9944	-0.0072
501.1932	-0.0044
501.3919	-0.0102
501.5907	-0.0036
501.7895	-0.0035
501.9882	-0.0147
502.1869	-0.0049
502.3856	-0.0019
502.5843	-0.0141
502.783	-0.0076
502.9816	-0.0086
503.1803	-0.0052
503.3789	0.0029
503.5775	-0.0047
503.7761	-0.0069
503.9747	-0.0108
504.1732	-0.004
504.3718	-0.0064
504.5703	-0.0047
504.7689	-0.0037
504.9674	0.0002
505.1658	-0.0069
505.3643	-0.0029
505.5628	-0.0006
505.7612	-0.0054
505.9597	-0.0073
506.1581	-0.001
506.3565	-0.0052
506.5549	-0.0094
506.7532	-0.0054
506.9516	0.0008
507.1499	-0.0054
507.3482	-0.003
507.5465	0.0011
507.7448	-0.0033
507.9431	-0.0036
508.1414	-0.0014
508.3396	-0.0015
508.5379	-0.008
508.7361	0.0048
508.9343	-0.0079
509.1325	-0.0063
509.3306	0.0025
509.5288	0.0018
509.7269	-0.0093
509.9251	-0.0036
510.1232	-0.0022
510.3213	-0.016
510.5193	-0.0002
510.7174	-0.0107
510.9154	-0.0039
511.1135	-0.0077
511.3115	-0.0108
511.5095	-0.0087
511.7075	-0.0016
511.9055	-0.0058
512.1034	-0.0027
512.3014	-0.0095
512.4993	-0.0097
512.6972	0.0002
512.8951	-0.0061
513.093	-0.0118
513.2908	-0.0017
513.4887	-0.0042
513.6865	-0.0063
513.8844	-0.0006
514.0822	-0.0017
514.2799	-0.0089
514.4777	-0.0023
514.6755	-0.0017
514.8732	-0.0071
515.0709	-0.0084
515.2687	-0.0012
515.4664	-0.0039
515.664	-0.0053
515.8617	-0.0076
516.0594	-0.0097
516.257	-0.0059
516.4546	-0.0125
516.6522	-0.0091
516.8498	-0.0118
517.0474	0.0015
517.2449	-0.008
517.4425	-0.0094
517.64	0.0007
517.8375	-0.0084
518.035	0.001
518.2325	-0.0068
518.43	-0.0005
518.6274	-0.0041
518.8249	-0.0005
519.0223	-0.0115
519.2197	0.001
519.4171	-0.0072
519.6145	-0.0022
519.8118	-0.0131
520.0092	0.0034
520.2065	-0.0183
520.4038	-0.0041
520.6011	-0.0108
520.7984	-0.0055
520.9956	-0.0112
521.1929	-0.008
521.3901	-0.0092
521.5874	-0.0106
521.7846	0.0006
521.9818	-0.0046
522.1789	-0.0055
522.3761	-0.0046
522.5732	-0.0075
522.7704	-0.0035
522.9675	-0.0012
523.1646	-0.0104
523.3617	-0.0006
523.5587	-0.0084
523.7558	0.0043
523.9528	-0.0123
524.1498	-0.0119
524.3468	-0.0086
524.5438	-0.0038
524.7408	-0.0174
524.9378	-0.0088
525.1347	0.0003
525.3316	-0.006
525.5285	-0.0095
525.7254	-0.0049
525.9223	0.0042
526.1192	-0.0002
526.316	0.004
526.5129	-0.0049
526.7097	-0.0125
526.9065	-0.0057
527.1033	0.0032
527.3	-0.0102
527.4968	-0.0088
527.6935	-0.0052
527.8903	-0.0096
528.087	-0.0155
528.2837	-0.0012
528.4804	-0.0032
528.677	-0.0043
528.8737	-0.0114
529.0703	-0.0056
529.2669	0.0038
529.4635	-0.0029
529.6601	-0.0047
529.8567	-0.0045
530.0532	0.0032
530.2498	-0.0029
530.4463	-0.0028
530.6428	0.0065
530.8393	-0.0021
531.0358	-0.0056
531.2322	-0.0069
531.4287	-0.015
531.6251	-0.0069
531.8215	0.0044
532.0179	-0.0103
532.2143	-0.0019
532.4107	-0.0055
532.607	-0.0084
532.8034	-0.0028
532.9997	-0.0047
533.196	-0.0136
533.3923	0.0005
533.5886	-0.0005
533.7848	-0.0017
533.9811	-0.0087
534.1773	-0.003
534.3735	-0.0006
534.5697	-0.0023
534.7659	-0.0006
534.9621	-0.0004
535.1582	-0.0077
535.3544	-0.008
535.5505	-0.0082
535.7466	-0.0034
535.9427	-0.0011
536.1387	0.0005
536.3348	0.0024
536.5308	-0.0051
536.7269	-0.0014
536.9229	-0.0043
537.1189	-0.0066
537.3148	0.0011
537.5108	0.0024
537.7068	-0.0046
537.9027	-0.0046
538.0986	-0.0035
538.2945	-0.0084
538.4904	-0.0137
538.6863	-0.0075
538.8821	-0.0061
539.078	-0.0109
539.2738	-0.0117
539.4696	-0.003
539.6654	-0.002
539.8611	-0.0016
540.0569	-0.0043
540.2526	-0.0083
540.4484	0.0046
540.6441	-0.0074
540.8398	-0.0069
541.0355	-0.0061
541.2311	-0.0009
541.4268	0.002
541.6224	-0.0034
541.818	-0.0073
542.0136	-0.0044
542.2092	-0.0079
542.4048	-0.0057
542.6003	-0.0066
542.7959	-0.0002
542.9914	-0.0083
543.1869	-0.0076
543.3824	-0.005
543.5779	-0.01
543.7734	-0.008
543.9688	-0.0102
544.1642	-0.0082
544.3596	-0.0041
544.555	-0.0065
544.7504	-0.0012
544.9458	0.0004
545.1411	0.002
545.3365	-0.0026
545.5318	0.0031
545.7271	0.0011
545.9224	-0.0024
546.1177	-0.0087
546.3129	-0.0018
546.5081	0.0019
546.7034	-0.0056
546.8986	-0.0066
547.0938	-0.004
547.289	0.0025
547.4841	-0.0094
547.6793	-0.0036
547.8744	-0.0017
548.0695	-0.0073
548.2646	-0.0118
548.4597	0.004
548.6548	-0.0033
548.8498	-0.0035
549.0448	-0.0017
549.2399	-0.0006
549.4349	0.0023
549.6298	-0.0064
549.8248	-0.0013
550.0198	-0.0028
550.2147	-0.0033
550.4096	-0.0055
550.6045	-0.0022
550.7994	0.003
550.9943	-0.001
551.1892	-0.0083
551.384	-0.0142
551.5788	-0.0133
551.7737	-0.0022
551.9685	-0.005
552.1632	-0.0062
552.358	-0.0087
552.5528	-0.0083
552.7475	-0.007
552.9422	-0.006
553.1369	-0.005
553.3316	-0.0031
553.5263	-0.0058
553.7209	-0.0036
553.9156	-0.0015
554.1102	-0.0038
554.3048	-0.0051
554.4994	-0.0037
554.694	-0.0026
554.8885	-0.006
555.0831	-0.0091
555.2776	-0.0015
555.4721	-0.0064
555.6666	-0.0052
555.8611	-0.0093
556.0555	-0.0077
556.25	0.0005
556.4444	-0.0077
556.6388	-0.0089
556.8332	-0.0034
557.0276	-0.0027
557.222	-0.0023
557.4163	-0.0002
557.6107	-0.008
557.805	-0.003
557.9993	-0.0034
558.1936	-0.0072
558.3879	0.0027
558.5821	-0.0057
558.7764	-0.0101
558.9706	-0.0086
559.1648	-0.0071
559.359	-0.0173
559.5532	-0.0021
559.7473	-0.0077
559.9415	-0.0071
560.1356	-0.0113
560.3297	-0.0134
560.5238	-0.0033
560.7179	-0.0057
560.9119	0.0014
561.106	-0.0043
561.3	0.0004
561.494	-0.0118
561.688	-0.0053
561.882	-0.0035
562.076	0.0006
562.2699	-0.0061
562.4639	-0.0014
562.6578	-0.0068
562.8517	-0.0032
563.0456	-0.0008
563.2395	-0.0048
563.4333	-0.0019
563.6272	-0.0004
563.821	-0.0041
564.0148	0.0004
564.2086	-0.004
564.4024	-0.003
564.5961	-0.0009
564.7899	0.0049
564.9836	0.0062
565.1773	-0.0052
565.371	-0.0014
565.5647	-0.0037
565.7584	0.0011
565.952	0.0042
566.1456	-0.0035
566.3393	-0.0025
566.5329	-0.0071
566.7264	-0.0004
566.92	-0.0032
567.1136	-0.0025
567.3071	0.0037
567.5006	-0.0038
567.6941	-0.0014
567.8876	-0.0029
568.0811	-0.0056
568.2745	-0.0082
568.468	-0.0054
568.6614	-0.0071
568.8548	-0.0106
569.0482	-0.005
569.2416	-0.0037
569.4349	-0.0029
569.6283	-0.0123
569.8216	-0.0062
570.0149	-0.0063
570.2082	-0.001
570.4015	-0.0032
570.5947	-0.0028
570.788	-0.0053
570.9812	-0.0049
571.1744	-0.0082
571.3676	-0.0023
571.5608	0.0006
571.754	-0.0104
571.9471	-0.0052
572.1402	-0.006
572.3333	-0.0031
572.5264	0.0005
572.7195	0.0021
572.9126	0.0013
573.1057	-0.0055
573.2987	0.0011
573.4917	-0.0058
573.6847	0.0004
573.8777	-0.0088
574.0707	-0.0019
574.2636	-0.0001
574.4566	-0.0035
574.6495	0.0007
574.8424	-0.0034
575.0353	-0.0062
575.2281	0
575.421	-0.0057
575.6138	-0.0035
575.8067	-0.0027
575.9995	0.0012
576.1923	-0.0026
576.385	-0.0065
576.5778	-0.0014
576.7706	0
576.9633	-0.0045
577.156	0.0024
577.3487	0.0017
577.5414	0.0024
577.734	0.0004
577.9267	0.0046
578.1193	-0.0027
578.3119	-0.0007
578.5045	-0.0044
578.6971	0.0028
578.8897	-0.0001
579.0822	-0.0037
579.2747	0.0062
579.4673	0.0016
579.6598	0.0025
579.8522	-0.0064
580.0447	-0.0051
580.2372	0.0041
580.4296	0.0055
580.622	0.002
580.8144	-0.0069
581.0068	-0.0008
581.1992	0.0023
581.3915	-0.002
581.5839	-0.0062
581.7762	-0.0016
581.9685	-0.0006
582.1608	-0.0039
582.353	0.0017
582.5453	-0.0048
582.7375	0.0002
582.9298	0.0001
583.122	0.0004
583.3142	-0.0047
583.5063	-0.0001
583.6985	-0.0055
583.8906	-0.0041
584.0827	-0.0043
584.2749	-0.0063
584.4669	-0.0047
584.659	-0.0061
584.8511	-0.0021
585.0431	-0.002
585.2352	-0.0053
585.4272	-0.0058
585.6192	-0.0077
585.8111	-0.0049
586.0031	-0.0065
586.195	-0.0027
586.387	0.0003
586.5789	-0.005
586.7708	-0.0102
586.9627	-0.006
587.1545	-0.003
587.3464	-0.0103
587.5382	-0.0046
587.73	-0.0021
587.9218	-0.0056
588.1136	-0.0003
588.3053	-0.0031
588.4971	-0.007
588.6888	-0.0033
588.8805	-0.0053
589.0722	-0.0039
589.2639	-0.0003
589.4556	-0.0044
589.6472	-0.0055
589.8389	-0.0023
590.0305	-0.0008
590.2221	-0.0007
590.4137	-0.0017
590.6052	0.0008
590.7968	-0.0021
590.9883	-0.0017
591.1798	-0.0077
591.3713	0.0031
591.5628	-0.0102
591.7543	-0
591.9458	-0.0026
592.1372	-0.0012
592.3286	0.0006
592.52	-0.0027
592.7114	0.0071
592.9028	-0.0044
593.0941	-0.0043
593.2855	-0.0056
593.4768	-0.0039
593.6681	0.0006
593.8594	-0.0012
594.0506	-0.0014
594.2419	0.0023
594.4331	-0.0014
594.6244	-0.003
594.8156	-0.0043
595.0067	-0.0046
595.1979	-0.0056
595.3891	-0.0002
595.5802	-0.0068
595.7713	-0.002
595.9624	0.0012
596.1535	0.0019
596.3446	-0.0043
596.5357	-0.003
596.7267	-0.0018
596.9177	0.0004
597.1087	-0.0032
597.2997	0.0014
597.4907	-0.0005
597.6817	-0.0027
597.8726	-0.0059
598.0635	-0.0063
598.2544	-0.0026
598.4453	-0.0069
598.6362	-0.0051
598.827	-0.0016
599.0179	0.0006
599.2087	-0.0092
599.3995	-0.0085
599.5903	-0.0011
599.7811	-0.0051
599.9718	-0.0014
600.1626	-0.0011
600.3533	-0.0033
600.544	-0.0005
600.7347	0.0036
600.9254	-0.0015
601.116	-0.0029
601.3067	-0.0024
601.4973	-0.0071
601.6879	0.0008
601.8785	-0.0032
602.0691	-0.0028
602.2596	-0.0024
602.4502	-0.0049
602.6407	0.0013
602.8312	-0.0048
603.0217	-0.0044
603.2122	-0.0085
603.4027	-0.0004
603.5931	-0.0021
603.7835	-0.0011
603.9739	-0.0016
604.1643	-0.0008
604.3547	-0.0017
604.5451	-0.0029
604.7354	0.0006
604.9257	-0.004
605.116	-0.0042
605.3063	-0.0003
605.4966	-0.0028
605.6869	-0.0046
605.8771	0
606.0673	-0.007
606.2575	-0.0049
606.4477	-0.0055
606.6379	-0.0065
606.8281	-0.0094
607.0182	-0.0084
607.2083	-0.0037
607.3985	-0.0073
607.5885	-0.0003
607.7786	-0.0042
607.9687	-0.004
608.1587	-0.0052
608.3488	-0.0045
608.5388	0.0029
608.7288	-0.006
608.9187	-0.0017
609.1087	-0.0014
609.2986	-0.0058
609.4886	-0.003
609.6785	0.0014
609.8684	-0.0068
610.0582	-0.0039
610.2481	-0.0007
610.4379	-0.0028
610.6278	0.0006
610.8176	0.0009
611.0074	-0.0037
611.1971	0.0009
611.3869	-0.0033
611.5766	-0.0033
611.7664	0.0001
611.9561	-0.0046
612.1458	0.0044
612.3354	-0.0049
612.5251	-0.0062
612.7147	-0.003
612.9044	-0.006
613.094	-0.0024
613.2836	0.0008
613.4731	-0.006
613.6627	-0.0012
613.8522	0.002
614.0417	-0.0035
614.2313	-0.0061
614.4207	-0.0018
614.6102	-0.0016
614.7997	-0.0018
614.9891	-0.0007
615.1785	0.0002
615.3679	-0.0028
615.5573	-0.0007
615.7467	0.0001
615.9361	-0.0007
616.1254	-0.0019
616.3147	-0.0027
616.504	-0.0044
616.6933	-0.0019
616.8826	-0.006
617.0718	-0.0041
617.2611	-0.0018
617.4503	0.0012
617.6395	0.0002
617.8287	-0.0025
618.0179	0.004
618.207	-0.002
618.3961	-0.0003
618.5853	-0.0001
618.7744	-0.0039
618.9634	0.0014
619.1525	-0.0031
619.3416	-0.0067
619.5306	0.0009
619.7196	-0.0037
619.9086	0.0018
620.0976	0.0038
620.2866	0.0013
620.4755	-0.0035
620.6645	0.0008
620.8534	0.002
621.0423	-0.0086
621.2312	-0.0086
621.42	-0.0003
621.6089	-0.003
621.7977	-0.0037
621.9865	-0.0004
622.1753	0.0008
622.3641	-0.0043
622.5529	-0.0061
622.7416	-0.0001
622.9303	0.0024
623.1191	-0.0044
623.3078	-0.0002
623.4964	0.0005
623.6851	0.0066
623.8737	-0.0009
624.0624	0.0013
624.251	0.0021
624.4396	-0.0038
624.6282	-0.001
624.8167	0.0039
625.0053	-0.0015
625.1938	0.0058
625.3823	0.0021
625.5708	0.001
625.7593	-0.0017
625.9477	-0.0074
626.1362	0.0016
626.3246	-0.0041
626.513	-0.0042
626.7014	-0.0021
626.8898	-0.0044
627.0781	-0.0032
627.2665	-0.0049
627.4548	-0.0068
627.6431	-0.0045
627.8314	-0.0034
628.0197	-0.0022
628.2079	-0.0058
628.3962	-0.002
628.5844	0.0013
628.7726	-0.0016
628.9608	0.0048
629.1489	0.0038
629.3371	0.0015
629.5252	0.0003
629.7134	0.0005
629.9015	-0.0028
630.0895	0.0001
630.2776	-0.0004
630.4657	-0.0009
630.6537	-0.002
630.8417	-0.0014
631.0297	0.0003
631.2177	0.0008
631.4057	0.0008
631.5936	0.0013
631.7815	-0.0054
631.9695	-0.0036
632.1574	-0.0059
632.3452	-0.0051
632.5331	-0.0038
632.7209	-0.0083
632.9088	-0.0078
633.0966	-0.0044
633.2844	-0.0041
633.4722	-0.0015
633.6599	0.0004
633.8477	-0.0009
634.0354	-0.0043
634.2231	-0.0071
634.4108	-0.0021
634.5985	-0.0035
634.7861	-0.0001
634.9738	-0.0063
635.1614	-0.0064
635.349	-0.0053
635.5366	-0.0061
635.7242	0.0042
635.9117	0.0018
636.0993	-0.0054
636.2868	0.0001
636.4743	-0.0019
636.6618	-0.0092
636.8492	0.0019
637.0367	-0.0013
637.2241	-0.0023
637.4115	-0.002
637.5989	0.001
637.7863	0.0001
637.9737	-0.0097
638.161	-0.005
638.3484	0.0005
638.5357	0.0007
638.723	-0.0009
638.9103	-0.0013
639.0975	0.0015
639.2848	-0.0019
639.472	0.0085
639.6592	0.0091
639.8464	0.0005
640.0336	-0.0037
640.2208	0.0024
640.4079	-0.0036
640.595	0.0037
640.7821	0.001
640.9692	0.0014
641.1563	0.0021
641.3434	0.0032
641.5304	-0.0012
641.7174	0.0044
641.9044	0.0043
642.0914	0.0008
642.2784	0.0031
642.4653	0.0043
642.6523	0.0001
642.8392	0.0054
643.0261	0.0085
643.213	0.0034
643.3999	-0.0024
643.5867	-0.0003
643.7735	0.0011
643.9604	0.0001
644.1472	-0.0022
644.3339	0.001
644.5207	-0.0041
644.7075	-0.0055
644.8942	-0.0011
645.0809	-0.0009
645.2676	-0.0025
645.4543	0.0052
645.6409	-0.0019
645.8276	0.0003
646.0142	-0.0014
646.2008	-0.0021
646.3874	0.0001
646.574	-0.0051
646.7605	-0.0012
646.9471	-0.008
647.1336	-0.0044
647.3201	-0.004
647.5066	0.0004
647.6931	0.0041
647.8795	-0.0037
648.0659	-0.0029
648.2524	-0.0038
648.4388	0.0023
648.6252	-0.0036
648.8115	-0.0098
648.9979	-0.0077
649.1842	-0.0103
649.3705	-0.0006
649.5568	-0.0028
649.7431	-0.0033
649.9294	-0.0046
650.1156	-0.0064
650.3018	-0.006
650.488	-0.011
650.6742	-0.0025
650.8604	-0.0006
651.0466	0.004
651.2327	-0.0004
651.4188	-0.0029
651.6049	-0.001
651.791	0.0013
651.9771	-0.002
652.1632	0.0031
652.3492	0.0033
652.5352	-0.0059
652.7212	-0.002
652.9072	0.0048
653.0932	0.0034
653.2791	0.004
653.465	-0.0041
653.651	-0.0066
653.8369	-0.0039
654.0227	-0.0007
654.2086	0.0005
654.3944	-0.0043
654.5803	-0.0085
654.7661	-0.0046
654.9519	-0.0056
655.1377	-0.0017
655.3234	-0.0001
655.5092	-0.0001
655.6949	-0.0001
655.8806	-0.0001
656.0663	-0.0001
656.2519	-0.0001
656.4376	-0.0047
656.6232	-0.0069
656.8088	-0.0006
656.9945	-0.0002
657.18	0.0023
657.3656	-0.0012
657.5511	-0.0028
657.7367	-0.0048
657.9222	0.0021
658.1077	0.0024
658.2932	-0.0072
658.4786	0.0009
658.6641	-0.0014
658.8495	-0.0012
659.0349	-0.0039
659.2203	-0.0087
659.4057	-0.0033
659.591	-0.0026
659.7764	-0.0066
659.9617	-0.0029
660.147	0.0026
660.3323	-0.0005
660.5176	-0.0092
660.7028	-0.0083
660.888	-0.0049
661.0733	-0.0028
661.2585	-0.0011
661.4436	-0.0032
661.6288	-0.0101
661.8139	0.0012
661.9991	0.0015
662.1842	-0.0023
662.3693	0.0018
662.5544	0.0023
662.7394	-0.0008
662.9245	0.0002
663.1095	0.0049
663.2945	-0.0017
663.4795	-0.0063
663.6644	-0.0049
663.8494	-0.006
664.0343	-0.004
664.2193	-0.0056
664.4042	-0.0071
664.589	-0.0044
664.7739	-0.0081
664.9587	-0.0002
665.1436	-0.001
665.3284	-0.0019
665.5132	-0.0002
665.698	0.0024
665.8827	0.0026
666.0675	-0.01
666.2522	-0.008
666.4369	-0.0067
666.6216	-0.0058
666.8063	-0.0068
666.9909	-0.009
667.1756	-0.0042
667.3602	-0.009
667.5448	-0.007
667.7294	-0.0025
667.9139	-0.0068
668.0985	-0.0117
668.283	-0.0073
668.4675	-0.0154
668.652	-0.0103
668.8365	-0.0113
669.0209	-0.0105
669.2054	-0.0039
669.3898	-0.005
669.5742	-0.0123
669.7586	-0.0036
669.943	-0.0049
670.1273	-0.0095
670.3117	-0.0006
670.496	-0.0027
670.6803	0.0003
670.8646	-0.0064
671.0488	-0.0013
671.2331	-0.0028
671.4173	0.0008
671.6015	-0.0075
671.7857	-0.0051
671.9699	-0.004
672.1541	-0.007
672.3382	-0.0057
672.5223	-0.0063
672.7064	-0.0052
672.8905	-0.0138
673.0746	-0.0101
673.2587	-0.0092
673.4427	-0.0121
673.6267	-0.0144
673.8107	-0.011
673.9947	-0.01
674.1787	-0.0081
674.3626	-0.0095
674.5465	-0.0051
674.7304	0.0005
674.9143	-0.0038
675.0982	-0.0019
675.2821	-0.0073
675.4659	-0.0005
675.6497	0.0037
675.8335	0.0009
676.0173	-0.0117
676.2011	-0.005
676.3849	-0.003
676.5686	-0.0036
676.7523	-0.0053
676.936	0.0007
677.1197	-0.0077
677.3034	-0.0075
677.487	-0.0081
677.6706	-0.0012
677.8542	-0.0045
678.0378	-0.0037
678.2214	-0.0073
678.405	-0.005
678.5885	-0.005
678.772	-0.0088
678.9555	0.0009
679.139	-0.0071
679.3225	-0.0112
679.5059	-0.0081
679.6894	-0.0044
679.8728	-0.0048
680.0562	0.0031
680.2395	-0.0058
680.4229	0.0005
680.6062	0.0016
680.7896	0.0014
680.9729	-0.0038
681.1562	0.0002
681.3394	-0.0007
681.5227	-0.0033
681.7059	-0.006
681.8891	-0.0059
682.0723	-0.0097
682.2555	-0.0029
682.4387	-0.0033
682.6218	-0.0074
682.805	-0.0007
682.9881	-0.0062
683.1712	0.002
683.3542	-0.0022
683.5373	-0.0044
683.7203	-0.0029
683.9034	-0.0032
684.0864	-0.0098
684.2694	-0.0064
684.4523	-0.0059
684.6353	-0.001
684.8182	0.0002
685.0011	-0.0022
685.184	0.0016
685.3669	-0.007
685.5498	0.0015
685.7326	-0.0032
685.9154	-0.0025
686.0982	-0.0055
686.281	-0.0076
686.4638	-0.0066
686.6465	-0.0049
686.8293	-0.0095
687.012	-0.0031
687.1947	-0.0071
687.3774	0.0005
687.56	-0.0061
687.7427	-0.0002
687.9253	0.0008
688.1079	0.0038
688.2905	0.0019
688.4731	-0.0009
688.6556	-0.005
688.8382	-0.0018
689.0207	-0.0045
689.2032	-0.002
689.3857	0.0033
689.5681	0.0007
689.7506	-0.0015
689.933	0.0013
690.1154	0.0011
690.2978	0.0016
690.4802	-0.0013
690.6626	0.0038
690.8449	0.0014
691.0272	0.007
691.2095	0.0035
691.3918	-0.0013
691.5741	-0.0016
691.7563	-0.0045
691.9386	-0.0037
692.1208	-0.0111
692.303	-0.0037
692.4852	-0.006
692.6673	-0.0014
692.8495	-0.0077
693.0316	-0.0023
693.2137	-0.0076
693.3958	-0.0048
693.5778	0.0008
693.7599	-0.0014
693.9419	-0.0087
694.1239	-0.0011
694.3059	-0.0101
694.4879	-0.0047
694.6699	-0.0077
694.8518	-0.0066
695.0337	-0.0052
695.2157	-0.0022
695.3975	-0.0052
695.5794	-0.0067
695.7613	-0.0088
695.9431	-0.0037
696.1249	-0.0047
696.3067	-0.0023
696.4885	0.0021
696.6703	-0.0008
696.852	-0.004
697.0337	0.0012
697.2154	-0.0013
697.3971	-0.0043
697.5788	-0.0018
697.7605	-0.0007
697.9421	-0.0032
698.1237	-0.0039
698.3053	-0.0033
698.4869	0.0028
698.6685	-0.0073
698.85	-0.004
699.0315	0.0027
699.213	-0.0003
699.3945	0.0027
699.576	0.0046
699.7575	-0.0014
699.9389	-0.0035
700.1203	-0.0031
700.3017	-0.0059
700.4831	-0.001
700.6645	-0.0093
700.8458	-0.0072
701.0271	0.0014
701.2084	-0.0097
701.3897	-0.0067
701.571	-0.0008
701.7523	-0.0014
701.9335	0.0075
702.1147	0.0055
702.2959	-0.0039
702.4771	-0.0014
702.6583	0.0007
702.8394	-0.0025
703.0205	0.0024
703.2016	-0.0004
703.3827	0.0032
703.5638	-0.0045
703.7449	-0.0085
703.9259	0.0013
704.1069	-0.0018
704.2879	-0.0007
704.4689	-0.0035
704.6499	-0.0054
704.8308	-0.0028
705.0117	-0.0002
705.1927	-0.0008
705.3735	0.0025
705.5544	-0.0037
705.7353	0.0007
705.9161	0.0008
706.0969	0.0057
706.2777	-0.0023
706.4585	-0.0006
706.6393	-0.0018
706.82	-0.0072
707.0007	-0.0053
707.1815	-0.001
707.3621	-0.0085
707.5428	-0.0068
707.7235	-0.001
707.9041	-0.0021
708.0847	-0.003
708.2653	-0.0057
708.4459	-0.0035
708.6265	-0.0063
708.807	0.0001
708.9875	-0.002
709.168	-0.002
709.3485	-0
709.529	-0.0031
709.7095	-0.004
709.8899	-0.0094
710.0703	-0.0001
710.2507	-0.0033
710.4311	-0.0014
710.6115	-0.0002
710.7918	-0.0042
710.9721	0.0032
711.1524	0.0033
711.3327	0.0039
711.513	-0.0033
711.6932	-0.0028
711.8735	0
712.0537	0.0031
712.2339	-0.0047
712.4141	-0.0036
712.5942	0.0025
712.7744	0.0014
712.9545	0.0029
713.1346	-0.0055
713.3147	0.0058
713.4947	0.0018
713.6748	-0.0004
713.8548	-0.0066
714.0348	-0.0013
714.2148	-0.0037
714.3948	-0.0093
714.5748	-0.0159
714.7547	-0.0081
714.9346	-0.0043
715.1145	-0.0056
715.2944	0.0027
715.4743	0.0014
715.6541	-0.0019
715.834	-0.0012
716.0138	0.0026
716.1936	0.0008
716.3733	-0.01
716.5531	-0.0081
716.7328	-0.0046
716.9126	-0.0013
717.0923	-0.0035
717.2719	-0.0057
717.4516	-0.0023
717.6312	0.001
717.8109	-0.0015
717.9905	-0.0095
718.1701	-0.0071
718.3496	0.003
718.5292	-0.0018
718.7087	-0.0069
718.8882	-0.0015
719.0677	-0.0052
719.2472	-0.0016
719.4267	-0.009
719.6061	-0.0057
719.7856	0.0008
719.965	-0.0023
720.1443	-0.0015
720.3237	-0.0004
720.5031	-0.0073
720.6824	-0.0068
720.8617	-0.0058
721.041	-0.0021
721.2203	-0.0045
721.3995	0.0017
721.5788	-0.0061
721.758	-0.0021
721.9372	-0.003
722.1164	-0.0055
722.2956	-0.0094
722.4747	-0.0064
722.6538	-0.0067
722.8329	-0.0052
723.012	-0.0044
723.1911	-0.0009
723.3702	-0.0029
723.5492	-0.0006
723.7282	-0.0054
723.9072	-0.0016
724.0862	-0.0017
724.2652	-0.0012
724.4441	-0.0071
724.623	-0.0008
724.8019	-0.0004
724.9808	-0.0023
725.1597	-0.0039
725.3385	0.0069
725.5174	-0.0006
725.6962	-0.0062
725.875	0.0007
726.0538	0.0069
726.2325	-0.0026
726.4112	-0.0007
726.59	0.0006
726.7687	-0.0042
726.9474	-0.0051
727.126	-0.005
727.3047	-0.0054
727.4833	-0.0026
727.6619	-0.0102
727.8405	-0.0018
728.0191	0.0039
728.1976	-0.007
728.3762	-0.0058
728.5547	-0.0123
728.7332	-0.0108
728.9116	-0.0125
729.0901	-0.0087
729.2686	-0.0082
729.447	0
729.6254	-0.0075
729.8038	-0.0086
729.9821	-0.002
730.1605	-0.0001
730.3388	0.0011
730.5171	-0.001
730.6954	-0.0061
730.8737	-0.0077
731.0519	0.0022
731.2302	0.0014
731.4084	0.0061
731.5866	-0.0001
731.7648	-0.0027
731.9429	-0.0026
732.1211	0.0025
732.2992	-0.0013
732.4773	0.0016
732.6554	-0.0064
732.8335	-0.0096
733.0115	-0.0055
733.1896	-0.0043
733.3676	-0.0044
733.5456	0.0019
733.7235	0.002
733.9015	0.0021
734.0794	0.0007
734.2574	-0.001
734.4353	0.0018
734.6131	-0.0048
734.791	0.0011
734.9689	-0.0069
735.1467	0.0029
735.3245	-0.0055
735.5023	-0.0061
735.68	-0.0011
735.8578	-0.0026
736.0355	0.01
736.2132	0.0031
736.3909	-0.004
736.5686	-0.0075
736.7463	-0.0056
736.9239	-0.0047
737.1015	-0.0016
737.2791	-0.0098
737.4567	-0.0075
737.6343	-0.0051
737.8118	-0.0045
737.9894	0.0013
738.1669	-0.0025
738.3444	0.0017
738.5218	0.0004
738.6993	0.0019
738.8767	-0.0043
739.0541	-0.0043
739.2315	-0.0083
739.4089	-0.0015
739.5863	-0.0041
739.7636	-0.0058
739.9409	-0.0024
740.1182	0.0038
740.2955	-0.0044
740.4728	-0.0018
740.65	-0.0006
740.8272	-0.0016
741.0044	0.0011
741.1816	-0.0036
741.3588	0.004
741.5359	0.0013
741.7131	0.0068
741.8902	0.0031
742.0673	0.0024
742.2444	-0.0055
742.4214	-0.0003
742.5985	-0.0053
742.7755	0.001
742.9525	0.0007
743.1295	-0.0059
743.3064	-0.0092
743.4834	-0.005
743.6603	-0.0038
743.8372	0.0005
744.0141	-0.0008
744.191	-0.0061
744.3678	-0.0015
744.5446	-0.0037
744.7215	-0.0079
744.8982	-0.0025
745.075	-0.0016
745.2518	0.0045
745.4285	0.0008
745.6052	0.0021
745.7819	-0.0042
745.9586	-0.0002
746.1353	-0.0055
746.3119	-0.0009
746.4885	-0.0035
746.6651	-0.0035
746.8417	-0.0072
747.0183	0.0014
747.1948	-0.0055
747.3714	-0.0014
747.5479	-0.0011
747.7244	-0.0039
747.9008	0.0049
748.0773	0.0026
748.2537	-0.0019
748.4301	0.0067
748.6065	0.001
748.7829	0.0089
748.9593	-0.001
749.1356	-0.0041
749.3119	-0.0017
749.4882	0.0054
749.6645	0.0025
749.8408	-0.001
750.017	-0.0124
750.1933	-0.0008
750.3695	-0.0054
750.5457	-0.0067
750.7218	-0.0081
750.898	-0.0065
751.0741	-0.0065
751.2502	-0.0068
751.4263	-0.0033
751.6024	-0.0016
751.7784	-0.0028
751.9545	-0.0063
752.1305	0.0039
752.3065	-0.002
752.4825	-0.001
752.6584	0.001
752.8344	0.0002
753.0103	-0.0045
753.1862	0.0017
753.3621	-0.0019
753.5379	-0.0104
753.7138	0
753.8896	-0.0091
754.0654	-0.0032
754.2412	-0.0086
754.417	-0.004
754.5927	-0.0032
754.7685	-0.0089
754.9442	-0.0119
755.1199	-0.0083
755.2956	-0.0026
755.4712	-0.0071
755.6469	-0.0116
755.8225	-0.0148
755.9981	-0.0068
756.1736	-0.003
756.3492	-0.0126
756.5248	0.0025
756.7003	-0.0106
756.8758	-0.0076
757.0513	-0.0086
757.2267	-0.009
757.4022	-0.0095
757.5776	-0.0127
757.753	-0.0138
757.9284	-0.0095
758.1038	-0.0071
758.2791	-0.013
758.4545	-0.0114
758.6298	-0.0069
758.8051	-0.0077
758.9803	-0.0078
759.1556	-0.0058
759.3308	-0.0016
759.506	-0.0062
759.6812	-0.0101
759.8564	-0.0081
760.0316	-0.0116
760.2067	-0.0058
760.3819	-0.0042
760.557	-0.0128
760.732	-0.0088
760.9071	-0.0175
761.0821	-0.0142
761.2572	-0.0098
761.4322	-0.0045
761.6072	-0.0181
761.7821	-0.0129
761.9571	-0.0116
762.132	-0.0083
762.3069	0.0011
762.4818	-0.0033
762.6567	-0.0154
762.8316	-0.0053
763.0064	0.0011
763.1812	0.0019
763.356	0.0034
763.5308	0.0048
763.7055	0.0023
763.8803	-0.0023
764.055	-0.0029
764.2297	0.0062
764.4044	-0.0004
764.579	0.0011
764.7537	0.0033
764.9283	-0.0022
765.1029	0.0041
765.2775	0.0047
765.4521	0.0101
765.6266	-0.0016
765.8011	0.0007
765.9756	0.002
766.1501	0.0011
766.3246	-0.0038
766.4991	0.0044
766.6735	-0.0041
766.8479	-0.0072
767.0223	0.0032
767.1967	-0.0048
767.371	-0.0016
767.5454	0.0001
767.7197	-0.0047
767.894	-0.0007
768.0683	0.0021
768.2425	-0.005
768.4168	-0.0072
768.591	0.0006
768.7652	0.0025
768.9394	0.0066
769.1135	0.0058
769.2877	-0.0011
769.4618	0.0015
769.6359	-0.001
769.81	0.0015
769.984	-0.0027
770.1581	0.0065
770.3321	-0.0024
770.5061	0.0025
770.6801	0.002
770.8541	-0.0043
771.028	0.0081
771.202	0.0036
771.3759	-0.0032
771.5498	0.0039
771.7236	-0.0009
771.8975	0.0044
772.0713	0.003
772.2451	0.0046
772.4189	0.005
772.5927	-0.0038
772.7665	-0.0037
772.9402	0.0009
773.1139	0.0007
773.2876	-0.0015
773.4613	-0.0089
773.635	0.0094
773.8086	0.0049
773.9822	-0.0025
774.1558	-0.0006
774.3294	0.0036
774.503	0.0012
774.6765	-0.008
774.8501	0.0077
775.0236	-0.0094
775.1971	-0.0053
775.3705	-0.0011
775.544	0.004
775.7174	0.0085
775.8908	0.0003
776.0642	0.0008
776.2376	-0.0011
776.4109	-0.0098
776.5843	0.0064
776.7576	0.0019
776.9309	-0.0008
777.1041	-0.0014
777.2774	0.0055
777.4506	0.0005
777.6238	0.005
777.797	0.0009
777.9702	-0.0051
778.1434	0.0013
778.3165	-0.0003
778.4896	-0.0165
778.6627	-0.006
778.8358	-0.0065
779.0089	-0.001
779.1819	0.0012
779.3549	-0.0062
779.5279	-0.0027
779.7009	-0.004
779.8739	-0.0008
780.0468	-0.0054
780.2197	0.0014
780.3926	-0.0067
780.5655	-0.003
780.7384	0.0004
780.9112	-0.003
781.0841	-0.0004
781.2569	-0.0042
781.4297	-0.007
781.6024	0.0026
781.7752	-0.004
781.9479	-0.0009
782.1206	-0.0023
782.2933	-0.0021
782.466	0.0031
782.6386	-0.0057
782.8113	-0.0077
782.9839	-0.0123
783.1565	-0.0091
783.329	-0.0134
783.5016	0.0011
783.6741	-0.01
783.8466	-0.0106
784.0191	0.0008
784.1916	-0.0015
784.3641	-0.0034
784.5365	-0.0003
784.7089	0.0004
784.8813	0.0108
785.0537	0.0093
785.2261	0.011
785.3984	0.0027
785.5707	0.0023
785.743	0.003
785.9153	0.0014
786.0876	0.0004
786.2598	-0.0016
786.432	0.003
786.6042	0.0112
786.7764	0.0049
786.9486	0.0023
787.1207	-0.0009
787.2928	0.0034
787.4649	-0.0093
787.637	-0.0054
787.8091	0.0023
787.9811	0.0046
788.1532	-0.0013
788.3252	-0.012
788.4972	-0.0062
788.6691	-0.0052
788.8411	0.0072
789.013	-0.0058
789.1849	0.0041
789.3568	-0.0083
789.5287	-0.0004
789.7005	0.0024
789.8723	-0.0012
790.0442	-0.0075
790.2159	-0.003
790.3877	-0.0077
790.5595	-0.0043
790.7312	0.0089
790.9029	-0.0078
791.0746	-0.0031
791.2463	-0.0029
791.4179	-0.0035
791.5896	0.006
791.7612	0.0008
791.9328	0.0045
792.1044	-0.0061
792.2759	0.0026
792.4474	-0.0085
792.619	-0.0044
792.7905	-0.0051
792.9619	-0.002
793.1334	-0.0088
793.3048	0.0008
793.4762	0.0009
793.6476	-0.0148
793.819	-0.0061
793.9904	-0.0086
794.1617	-0.015
794.333	-0.0095
794.5043	0
794.6756	0.0009
794.8469	0.0045
795.0181	-0.0087
795.1893	-0.005
795.3605	-0.0055
795.5317	-0.008
795.7029	-0.0077
795.874	-0.0143
796.0452	-0.0101
796.2163	-0.0033
796.3873	-0.0107
796.5584	-0.0145
796.7294	-0.0091
796.9005	-0.0124
797.0715	-0.016
797.2425	-0.0132
797.4134	-0.0088
797.5844	-0.0136
797.7553	-0.0192
797.9262	-0.0169
798.0971	-0.0096
798.2679	-0.0095
798.4388	-0.0172
798.6096	-0.0168
798.7804	-0.0159
798.9512	-0.0139
799.122	-0.0099
799.2927	-0.0122
799.4635	-0.0026
799.6342	-0.0157
799.8049	-0.012
799.9755	-0.0087
800.1462	-0.0177
800.3168	-0.0062
800.4874	-0.0032
800.658	-0.0106
800.8286	-0.0153
800.9991	-0.0195
801.1696	-0.0219
801.3402	-0.0175
801.5106	-0.0174
801.6811	-0.0211
801.8516	-0.0138
802.022	-0.028
802.1924	-0.0156
802.3628	-0.0129
802.5332	-0.0128
802.7035	-0.0209
802.8739	-0.0095
803.0442	-0.0093
803.2145	-0.016
803.3847	-0.0198
803.555	-0.013
803.7252	-0.0097
803.8954	-0.011
804.0656	-0.0042
804.2358	-0.0152
804.4059	-0.0089
804.5761	-0.0063
804.7462	-0.0007
804.9163	-0.0114
805.0864	-0.0053
805.2564	-0.0095
805.4264	-0.008
805.5965	-0.0108
805.7665	-0.002
805.9364	-0.019
806.1064	-0.009
806.2763	-0.0114
806.4462	-0.0031
806.6161	-0.0064
806.786	-0.0104
806.9559	-0.0035
807.1257	-0.0004
807.2955	-0.0195
807.4653	0.0007
807.6351	-0.0082
807.8048	0.0037
807.9746	-0.004
808.1443	-0.0031
808.314	0.0029
808.4837	0.0058
808.6533	0.0038
808.8229	-0.0024
808.9926	0.0047
809.1622	-0.0102
809.3317	0.0184
809.5013	0.0053
809.6708	-0.0042
809.8403	-0.0016
810.0098	0.0139
810.1793	-0.0046
810.3488	0.0102
810.5182	-0.0173
810.6876	0.0031
810.857	-0.016
811.0264	-0.0056
811.1958	0.0025
811.3651	-0.0167
811.5344	-0.001
811.7037	-0.0125
811.873	-0.0005
812.0422	-0.0054
812.2115	-0.0031
812.3807	-0.0033
812.5499	-0.0093
812.7191	-0.0133
812.8882	-0.0001
813.0574	-0.0062
813.2265	0.0027
813.3956	-0.0006
813.5646	0.0028
813.7337	-0.0057
813.9027	-0.0051
814.0718	-0.0038
814.2407	0.008
814.4097	0.0042
814.5787	-0.0029
814.7476	-0.0041
814.9165	-0.0029
815.0854	-0.01
815.2543	0.005
815.4232	-0.0059
815.592	0.0003
815.7608	0.0033
815.9296	0.0039
816.0984	0.0109
816.2671	0.0016
816.4359	0.0005
816.6046	0.0032
816.7733	-0.0017
816.942	0.0027
817.1106	-0.0041
817.2793	-0.0034
817.4479	-0.0093
817.6165	-0.0048
817.785	-0.0062
817.9536	-0.005
818.1221	0.0048
818.2906	0.0054
818.4591	-0.0197
818.6276	-0.002
818.7961	-0.0116
818.9645	0.0009
819.1329	-0.0015
819.3013	-0.0167
819.4697	-0.0181
819.638	-0.0061
819.8064	-0.0067
819.9747	0.0031
820.143	0.0073
820.3113	-0.009
820.4795	0.0139
820.6477	0.0012
820.816	-0.0037
820.9842	-0.0032
821.1523	-0.022
821.3205	-0.0078
821.4886	-0.006
821.6567	-0.002
821.8248	-0.0197
821.9929	-0.0108
822.1609	0.0034
822.329	-0.0171
822.497	-0.0113
822.665	-0.0131
822.833	-0.0198
823.0009	-0.0111
823.1688	-0.0075
823.3367	0.0011
823.5046	-0.0144
823.6725	-0.0336
823.8404	-0.0173
824.0082	-0.0144
824.176	-0.0049
824.3438	-0.009
824.5116	0.0101
824.6793	-0.0202
824.847	-0.0018
825.0147	-0.0119
825.1824	-0.0213
825.3501	-0.0085
825.5177	-0.0167
825.6854	0.0024
825.853	-0.0023
826.0206	0.0166
826.1881	-0.0083
826.3557	0.0042
826.5232	0.0081
826.6907	-0.0012
826.8582	-0.0081
827.0257	-0.011
827.1931	0.0107
827.3605	0.0001
827.528	-0.0106
827.6953	-0.0022
827.8627	-0.0006
828.03	-0.0167
828.1974	-0.0054
828.3647	0.0053
828.532	-0.0199
828.6992	-0.0031
828.8665	-0.0042
829.0337	-0.0017
829.2009	-0.014
829.3681	-0.0083
829.5352	-0.0012
829.7024	-0.0069
829.8695	-0.0303
830.0366	-0.0261
830.2037	-0.0014
830.3707	-0.0031
830.5378	-0.008
830.7048	-0.0174
830.8718	0.0032
831.0388	-0.0189
831.2057	-0.023
831.3727	-0.0241
831.5396	-0.0003
831.7065	-0.0044
831.8734	0.0141
832.0402	-0.0149
832.2071	0.0001
832.3739	0.0009
832.5407	0.0022
832.7075	-0.0179
832.8742	-0.0012
833.041	0.0148
833.2077	-0.0267
833.3744	-0.0054
833.541	-0.0016
833.7077	-0.0043
833.8743	0.0059
834.0409	0.0258
834.2075	0.004
834.3741	0.0012
834.5407	-0.0108
834.7072	-0.0162
834.8737	-0.0157
835.0402	-0.0255
835.2067	-0.0101
835.3731	-0.0126
835.5395	-0.007
835.706	-0.0321
835.8723	-0.0314
836.0387	-0.0198
836.2051	-0.0163
836.3714	0.0116
836.5377	-0.0083
836.704	-0.0088
836.8703	-0.0273
837.0365	-0.0024
837.2027	-0.0141
837.3689	0.0014
837.5351	-0.0082
837.7013	-0.0301
837.8674	-0.0089
838.0335	0.0139
838.1997	0.0038
838.3657	0.0159
838.5318	-0.0018
838.6978	0.0004
838.8639	0.0226
839.0299	0.0155
839.1958	0.0025
839.3618	0.0249
839.5277	-0.0252
839.6937	-0.0142
839.8596	-0.0214
840.0254	0.0102
840.1913	0.01
840.3571	0.0331
840.523	0.0138
840.6888	0.006
840.8545	-0.0276
841.0203	-0.007
841.186	0.001
841.3517	-0.0109
841.5174	-0.0128
841.6831	-0.0106
841.8488	0.0111
842.0144	0.0106
842.18	-0.0076
842.3456	-0.0106
842.5112	-0.0172
842.6767	-0.0079
842.8422	-0.0081
843.0077	-0.033
843.1732	-0.029
843.3387	-0.0091
843.5042	0.0042
843.6696	0.0008
843.835	-0.0017
844.0004	0.0042
844.1657	0.0064
844.3311	-0.0009
844.4964	-0.0139
844.6617	0.0078
844.827	0.0035
844.9923	-0.0021
845.1575	0.0116
845.3227	-0.0261
845.4879	-0.0207
845.6531	0.0037
845.8183	-0.0219
845.9834	-0.0122
846.1485	0.0288
846.3136	-0.0455
846.4787	-0.0003
846.6438	0.0128
846.8088	-0.0039
846.9738	-0.0028
847.1388	-0.0204
847.3038	0.0196
847.4687	0.0036
847.6337	0.0064
847.7986	0.0305
847.9635	0.003
848.1284	-0.0222
848.2932	-0.0013
848.458	0.0107
848.6228	0.0259
848.7876	-0.0561
848.9524	0.0421
849.1172	-0.0165
849.2819	0.0241
849.4466	0.0022
849.6113	0.0087
849.7759	-0.0136
849.9406	-0.0208
850.1052	0.0141
850.2698	-0.0014
850.4344	0.0109
850.599	-0.0432
850.7635	-0.0057
850.928	0.0008
851.0925	0.0107
851.257	-0.0049
851.4215	-0.0004
851.5859	0.0642
851.7503	0.0158
851.9147	0.0131
852.0791	0.0176
852.2434	-0.0405
852.4078	0.0291
852.5721	0.0053
852.7364	-0.0672
852.9007	0.018
853.0649	-0.0086
853.2291	-0.0247
853.3934	-0.0025
853.5575	0.0135
853.7217	-0.0061
853.8859	-0.0005
854.05	-0.0074
854.2141	-0.0087
854.3782	0.006
854.5423	-0.0525
854.7063	0.0175
854.8703	-0.0454
855.0343	0.0151
855.1983	0.0118
855.3623	-0.0005
855.5262	0.035
855.6901	-0.0178
855.854	-0.0171
856.0179	0.0067
856.1818	-0.0025
856.3456	-0.0308
856.5094	-0.0089
856.6732	-0.0824
856.837	0.0058
857.0008	0.0084
857.1645	-0.0334
857.3282	-0.0164
857.4919	-0.04
857.6556	0.0704
857.8192	-0.0301
857.9828	0.0142
858.1465	0.004
858.31	0.0031
858.4736	-0.1332
858.6372	0.0274
858.8007	-0.0021
858.9642	-0.116
859.1277	0.0139
859.2911	0.0568
859.4546	0.0719
859.618	-0.0359
859.7814	0.0042
859.9448	-0.064
860.1081	-0.0496
860.2715	0.0988
860.4348	-0.0319
860.5981	-0.0512
860.7614	-0.1056
860.9246	0.0468
861.0879	-0.0822
861.2511	-0.0401
861.4143	-0.1436
861.5774	0.0196
861.7406	0.0138
861.9037	-0.0978
862.0668	-0.02
862.2299	-0.0179
862.393	-0.0276
862.556	0.0754
862.7191	-0.0062
862.8821	0.0248
863.0451	0.0661
863.208	0.031
863.371	0.1421
863.5339	-0.1113
863.6968	-0.1256
863.8597	0.0244
864.0225	-0.2742
864.1854	0.15
864.3482	-0.2732
864.511	0.0115
864.6737	-0.0035
864.8365	-0.008
864.9992	-0.0726
865.1619	-0.0454
865.3246	-0.1669
865.4873	0.0646
865.65	0.1
865.8126	-0.0899
865.9752	-0.0982
866.1378	-0.0528
866.3004	-0.0304
866.4629	-0.2603
866.6254	0.0036
866.7879	-0.2174
866.9504	-0.1913
867.1129	-0.0209
867.2753	0.0162
867.4377	0.0483
867.6001	-0.3117
867.7625	0.1208
867.9249	0.0013
868.0872	-0.0235
868.2495	-0.1751
868.4118	0.0401
868.5741	-0.1292
868.7363	0.0114
868.8986	0.0488
869.0608	-0.0829
869.223	-0.0661
869.3851	-0.1829
869.5473	-0.1552
869.7094	-0.1526
869.8715	-0.0168
870.0336	-0.11
870.1957	-0.2265
870.3577	0.0891
870.5197	-0.5005
870.6817	-0.0731
870.8437	-0.2403
871.0057	-0.1769
871.1676	-0.2217
871.3295	-0.3258
871.4914	-0.0134
871.6533	-0.0373
871.8151	-0.0831
871.977	0.1292
872.1388	-0.1063
872.3006	0.1305
872.4623	0.0018
872.6241	-0.0892
872.7858	0.0073
872.9475	-0.1911
873.1092	-0.0487
873.2709	0.1344
873.4325	-0.269
873.5941	-0.1824
873.7557	0.5082
873.9173	-0.1015
874.0789	-0.3385
874.2404	-0.2079
874.4019	-0.1553
874.5634	-0.2897
874.7249	-0.2455
874.8863	-0.2992
875.0478	0.5148
875.2092	-0.3809
875.3706	-0.0523
875.5319	0.0195
875.6933	0.2781
875.8546	-0.2751
876.0159	0.0137
876.1772	-0.2553
876.3385	-0.0732
876.4997	-0.3329
876.6609	-0.3955
876.8221	-0.1529
876.9833	-0.5095
877.1445	-0.0234
877.3056	-0.0183
877.4667	-0.8637
877.6278	0.016
877.7889	-0.0816
877.9499	-0.3286
878.111	-0.1621
878.272	0.0998
878.433	0.0127
878.5939	-0.0508
878.7549	-0.2661
878.9158	-0.1052
879.0767	-0.1106
879.2376	-0.03
879.3984	-0.166
879.5593	-0.4275
879.7201	-0
879.8809	0.0948
880.0417	0.1031
880.2024	-0.0253
880.3632	-0.3177
880.5239	-0
880.6846	0.0861
880.8452	0.064
881.0059	-0.0129
881.1665	-0
881.3271	-0.5493
881.4877	-0.0341
881.6483	-0
881.8088	-0
881.9693	-0.0274
882.1298	-0.0274
882.2903	-0.0274
