Data from MonoPyChalIsomerACN10uM450nmA_Absorbance_13-11-13-692.txt Node
Date: Tue Jul 09 13:11:13 BST 2024
User: LASERRRRR
Spectrometer: FLMT03099
Trigger mode: 0
Integration Time (sec): 2.000000E-1
Scans to average: 1
Electric dark correction enabled: true
Nonlinearity correction enabled: false
Boxcar width: 0
XAxis mode: Wavelengths
Number of Pixels in Spectrum: 3648
>>>>>Begin Spectral Data<<<<<
179.3399	0.2114
179.5586	0.2114
179.7771	0.2114
179.9957	-0.3656
180.2143	0.3515
180.4329	0.2863
180.6514	-0
180.8699	-0
181.0885	0.4668
181.307	0.6161
181.5255	-0
181.744	-0.4434
181.9625	1.3689
182.181	0.4156
182.3994	0.3902
182.6179	-0.3018
182.8363	-0
183.0547	0.1783
183.2732	0.1703
183.4916	0.006
183.71	0.0927
183.9284	0.012
184.1467	-0.0236
184.3651	0.2346
184.5835	0.1095
184.8018	0.0647
185.0201	0.0185
185.2385	0.0158
185.4568	0.1018
185.6751	0.1162
185.8934	0.071
186.1117	-0.0324
186.3299	-0.0645
186.5482	0.0822
186.7664	0.097
186.9847	0.1043
187.2029	0.153
187.4211	0.2173
187.6393	-0.0574
187.8575	0.1474
188.0757	0.0742
188.2939	0.0837
188.512	-0.0267
188.7302	0.0263
188.9483	0.1765
189.1665	0.2237
189.3846	0.0645
189.6027	0.1251
189.8208	0.1306
190.0389	0.2853
190.257	0.2621
190.475	0.3172
190.6931	0.2214
190.9111	0.2398
191.1292	0.2908
191.3472	0.3882
191.5652	0.371
191.7832	0.415
192.0012	0.4226
192.2192	0.4286
192.4371	0.4206
192.6551	0.5425
192.873	0.3649
193.091	0.5175
193.3089	0.5431
193.5268	0.4967
193.7447	0.392
193.9626	0.5006
194.1805	0.625
194.3984	0.6059
194.6162	0.5873
194.8341	0.5262
195.0519	0.5772
195.2697	0.6405
195.4875	0.619
195.7054	0.6498
195.9231	0.6545
196.1409	0.6186
196.3587	0.6144
196.5765	0.7211
196.7942	0.8294
197.012	0.665
197.2297	0.726
197.4474	0.7486
197.6651	0.7464
197.8828	0.7968
198.1005	0.7663
198.3182	0.7526
198.5358	0.7231
198.7535	0.8116
198.9711	0.7989
199.1888	0.7425
199.4064	0.7639
199.624	0.7652
199.8416	0.8659
200.0592	0.7332
200.2767	0.7922
200.4943	1.0314
200.7119	0.9328
200.9294	0.8904
201.1469	0.8098
201.3645	0.8351
201.582	0.9176
201.7995	0.7559
202.017	1.047
202.2344	0.8093
202.4519	0.9733
202.6694	0.7985
202.8868	0.8672
203.1042	1.04
203.3217	0.9092
203.5391	0.9271
203.7565	1.0126
203.9739	0.8713
204.1913	0.8296
204.4086	0.9789
204.626	1.0487
204.8433	0.9425
205.0607	0.8761
205.278	0.9274
205.4953	1.0323
205.7126	0.9492
205.9299	1.0588
206.1472	0.9707
206.3644	1.0219
206.5817	1.0637
206.7989	1.0532
207.0162	1.0505
207.2334	0.9657
207.4506	0.9726
207.6678	1.0067
207.885	1.0759
208.1022	1.1305
208.3194	1.0877
208.5365	1.1611
208.7537	1.0191
208.9708	1.0656
209.1879	1.0313
209.405	1.0601
209.6222	1.132
209.8392	1.11
210.0563	0.982
210.2734	1.0139
210.4905	1.2301
210.7075	0.9911
210.9245	1.0393
211.1416	1.0682
211.3586	1.1638
211.5756	1.0895
211.7926	1.0815
212.0096	1.021
212.2265	1.0371
212.4435	1.0444
212.6604	1.0363
212.8774	1.0584
213.0943	1.0108
213.3112	1.0285
213.5281	1.0805
213.745	0.9874
213.9619	0.9764
214.1788	0.9244
214.3956	0.9352
214.6125	0.9431
214.8293	0.9287
215.0461	0.8759
215.2629	0.8824
215.4798	0.8898
215.6965	0.8331
215.9133	0.856
216.1301	0.7901
216.3469	0.8241
216.5636	0.8081
216.7803	0.7612
216.9971	0.7347
217.2138	0.7326
217.4305	0.709
217.6472	0.6764
217.8639	0.6368
218.0805	0.6338
218.2972	0.5628
218.5138	0.5513
218.7305	0.5148
218.9471	0.4699
219.1637	0.4497
219.3803	0.4563
219.5969	0.3972
219.8135	0.3593
220.0301	0.3715
220.2466	0.3786
220.4632	0.3341
220.6797	0.3186
220.8962	0.3167
221.1127	0.304
221.3292	0.3134
221.5457	0.2848
221.7622	0.2875
221.9787	0.2923
222.1951	0.2858
222.4116	0.2735
222.628	0.2663
222.8444	0.2736
223.0608	0.2821
223.2772	0.2669
223.4936	0.2647
223.71	0.2851
223.9264	0.2849
224.1427	0.2758
224.3591	0.2696
224.5754	0.2806
224.7917	0.2672
225.008	0.2894
225.2243	0.2803
225.4406	0.2837
225.6569	0.2839
225.8732	0.3029
226.0894	0.2782
226.3057	0.2889
226.5219	0.2869
226.7381	0.2929
226.9543	0.2844
227.1705	0.2842
227.3867	0.3072
227.6029	0.2842
227.8191	0.303
228.0352	0.3016
228.2513	0.3137
228.4675	0.3174
228.6836	0.3236
228.8997	0.3245
229.1158	0.3167
229.3319	0.3225
229.548	0.324
229.764	0.3123
229.9801	0.3342
230.1961	0.3355
230.4121	0.3274
230.6282	0.3457
230.8442	0.3295
231.0602	0.359
231.2761	0.3497
231.4921	0.3622
231.7081	0.3608
231.924	0.3603
232.14	0.3595
232.3559	0.3705
232.5718	0.3654
232.7877	0.3525
233.0036	0.3705
233.2195	0.3651
233.4353	0.3783
233.6512	0.3849
233.867	0.3833
234.0829	0.3846
234.2987	0.3801
234.5145	0.3738
234.7303	0.3935
234.9461	0.3949
235.1619	0.3788
235.3776	0.385
235.5934	0.394
235.8091	0.3922
236.0249	0.395
236.2406	0.4003
236.4563	0.3935
236.672	0.4078
236.8877	0.4148
237.1034	0.4121
237.319	0.4095
237.5347	0.4017
237.7503	0.4176
237.966	0.4254
238.1816	0.4082
238.3972	0.4158
238.6128	0.418
238.8284	0.413
239.0439	0.4185
239.2595	0.437
239.475	0.4168
239.6906	0.4222
239.9061	0.4202
240.1216	0.4211
240.3371	0.4316
240.5526	0.4281
240.7681	0.4167
240.9836	0.4128
241.199	0.4169
241.4145	0.4157
241.6299	0.4012
241.8453	0.395
242.0607	0.3904
242.2761	0.3931
242.4915	0.385
242.7069	0.3719
242.9223	0.3622
243.1376	0.3684
243.353	0.3574
243.5683	0.3482
243.7836	0.3349
243.9989	0.3358
244.2142	0.3358
244.4295	0.3239
244.6448	0.3218
244.86	0.3177
245.0753	0.3002
245.2905	0.2942
245.5057	0.2934
245.721	0.2911
245.9362	0.2815
246.1514	0.2775
246.3665	0.2817
246.5817	0.2561
246.7969	0.2699
247.012	0.2692
247.2271	0.2627
247.4423	0.2578
247.6574	0.2513
247.8725	0.24
248.0876	0.2506
248.3026	0.2384
248.5177	0.2431
248.7328	0.2306
248.9478	0.2454
249.1628	0.2427
249.3779	0.2297
249.5929	0.2219
249.8079	0.2319
250.0228	0.2247
250.2378	0.2263
250.4528	0.2114
250.6677	0.2278
250.8827	0.2054
251.0976	0.2131
251.3125	0.2153
251.5274	0.2012
251.7423	0.208
251.9572	0.209
252.172	0.2059
252.3869	0.1996
252.6017	0.1955
252.8166	0.2126
253.0314	0.2016
253.2462	0.2039
253.461	0.1964
253.6758	0.2007
253.8906	0.203
254.1053	0.2021
254.3201	0.2001
254.5348	0.1973
254.7496	0.1989
254.9643	0.1997
255.179	0.2002
255.3937	0.202
255.6083	0.2057
255.823	0.1973
256.0377	0.1869
256.2523	0.1992
256.467	0.1976
256.6816	0.1903
256.8962	0.1948
257.1108	0.1957
257.3254	0.205
257.54	0.2046
257.7545	0.1944
257.9691	0.1958
258.1836	0.1938
258.3981	0.1968
258.6127	0.1983
258.8272	0.1983
259.0417	0.1961
259.2561	0.2003
259.4706	0.1914
259.6851	0.1995
259.8995	0.1908
260.114	0.1925
260.3284	0.2004
260.5428	0.2032
260.7572	0.1981
260.9716	0.1916
261.186	0.2037
261.4003	0.1998
261.6147	0.1951
261.829	0.2017
262.0433	0.201
262.2577	0.2002
262.472	0.194
262.6863	0.1811
262.9005	0.1963
263.1148	0.1916
263.3291	0.1828
263.5433	0.1867
263.7576	0.1915
263.9718	0.1894
264.186	0.1825
264.4002	0.1878
264.6144	0.1848
264.8286	0.186
265.0427	0.1808
265.2569	0.1843
265.471	0.1715
265.6851	0.1827
265.8993	0.175
266.1134	0.1764
266.3275	0.1794
266.5415	0.1757
266.7556	0.185
266.9697	0.1806
267.1837	0.1817
267.3978	0.1861
267.6118	0.1829
267.8258	0.1871
268.0398	0.1952
268.2538	0.1893
268.4677	0.1954
268.6817	0.1826
268.8957	0.19
269.1096	0.1789
269.3235	0.1763
269.5374	0.1787
269.7514	0.1672
269.9652	0.1633
270.1791	0.1537
270.393	0.1531
270.6068	0.1455
270.8207	0.1431
271.0345	0.1612
271.2483	0.1505
271.4622	0.1429
271.676	0.1412
271.8897	0.1395
272.1035	0.1256
272.3173	0.1405
272.531	0.1368
272.7448	0.1412
272.9585	0.1352
273.1722	0.137
273.3859	0.1384
273.5996	0.1286
273.8133	0.1351
274.0269	0.1378
274.2406	0.1285
274.4542	0.1325
274.6679	0.1353
274.8815	0.1407
275.0951	0.1373
275.3087	0.1301
275.5223	0.1286
275.7358	0.1314
275.9494	0.1396
276.1629	0.1403
276.3765	0.1363
276.59	0.1382
276.8035	0.1409
277.017	0.1399
277.2305	0.1415
277.444	0.1327
277.6574	0.135
277.8709	0.1434
278.0843	0.1434
278.2978	0.1324
278.5112	0.1406
278.7246	0.1332
278.938	0.1459
279.1513	0.1418
279.3647	0.1472
279.5781	0.1425
279.7914	0.1379
280.0047	0.1421
280.2181	0.1415
280.4314	0.1409
280.6447	0.138
280.8579	0.1415
281.0712	0.1423
281.2845	0.1392
281.4977	0.145
281.711	0.1442
281.9242	0.1435
282.1374	0.1422
282.3506	0.1329
282.5638	0.1448
282.7769	0.1476
282.9901	0.143
283.2033	0.1526
283.4164	0.1519
283.6295	0.1518
283.8426	0.1496
284.0557	0.1437
284.2688	0.1531
284.4819	0.1588
284.695	0.1479
284.908	0.152
285.1211	0.1532
285.3341	0.1475
285.5471	0.1557
285.7601	0.1508
285.9731	0.154
286.1861	0.1622
286.3991	0.1592
286.612	0.1583
286.825	0.1606
287.0379	0.158
287.2508	0.1575
287.4637	0.162
287.6766	0.1475
287.8895	0.1669
288.1024	0.1586
288.3152	0.1569
288.5281	0.1674
288.7409	0.1567
288.9538	0.1561
289.1666	0.1694
289.3794	0.1617
289.5922	0.1654
289.8049	0.1696
290.0177	0.1672
290.2304	0.159
290.4432	0.1686
290.6559	0.1652
290.8686	0.1622
291.0813	0.1717
291.294	0.1634
291.5067	0.16
291.7194	0.169
291.932	0.165
292.1447	0.168
292.3573	0.1641
292.5699	0.1699
292.7825	0.1616
292.9951	0.1706
293.2077	0.1607
293.4203	0.1615
293.6328	0.1701
293.8454	0.161
294.0579	0.1618
294.2704	0.1663
294.4829	0.1679
294.6954	0.1673
294.9079	0.1701
295.1204	0.1734
295.3328	0.1647
295.5453	0.1708
295.7577	0.1563
295.9701	0.1583
296.1825	0.1674
296.3949	0.1635
296.6073	0.1711
296.8197	0.1658
297.0321	0.1738
297.2444	0.1605
297.4567	0.1635
297.6691	0.1656
297.8814	0.1631
298.0937	0.1593
298.306	0.1667
298.5182	0.1552
298.7305	0.1667
298.9428	0.1641
299.155	0.1623
299.3672	0.1707
299.5794	0.1632
299.7916	0.1606
300.0038	0.1655
300.216	0.1669
300.4282	0.167
300.6403	0.1617
300.8525	0.1649
301.0646	0.1583
301.2767	0.167
301.4888	0.164
301.7009	0.1639
301.913	0.1753
302.125	0.164
302.3371	0.1726
302.5491	0.1659
302.7612	0.1693
302.9732	0.1758
303.1852	0.1599
303.3972	0.1656
303.6092	0.1674
303.8211	0.167
304.0331	0.1549
304.245	0.1652
304.457	0.1602
304.6689	0.1677
304.8808	0.1628
305.0927	0.1589
305.3046	0.1525
305.5164	0.1636
305.7283	0.1581
305.9401	0.153
306.152	0.1586
306.3638	0.156
306.5756	0.1478
306.7874	0.1523
306.9992	0.1479
307.2109	0.1462
307.4227	0.1417
307.6344	0.1387
307.8462	0.1431
308.0579	0.1369
308.2696	0.1363
308.4813	0.1343
308.693	0.1356
308.9046	0.1238
309.1163	0.1298
309.328	0.1225
309.5396	0.1251
309.7512	0.1266
309.9628	0.1213
310.1744	0.1186
310.386	0.1068
310.5976	0.12
310.8091	0.1163
311.0207	0.1122
311.2322	0.1138
311.4437	0.1137
311.6552	0.1195
311.8667	0.1047
312.0782	0.1054
312.2897	0.0989
312.5012	0.1094
312.7126	0.0983
312.924	0.0917
313.1355	0.0966
313.3469	0.0963
313.5583	0.1063
313.7696	0.105
313.981	0.0933
314.1924	0.098
314.4037	0.0997
314.6151	0.0935
314.8264	0.0966
315.0377	0.0969
315.249	0.104
315.4603	0.0985
315.6716	0.0916
315.8828	0.1011
316.0941	0.0885
316.3053	0.0856
316.5165	0.092
316.7277	0.0894
316.9389	0.0922
317.1501	0.0931
317.3613	0.0868
317.5724	0.0917
317.7836	0.0867
317.9947	0.0904
318.2058	0.0871
318.417	0.0865
318.6281	0.0954
318.8391	0.0928
319.0502	0.0833
319.2613	0.0924
319.4723	0.0913
319.6834	0.0877
319.8944	0.0929
320.1054	0.0904
320.3164	0.0916
320.5274	0.0944
320.7383	0.0921
320.9493	0.0901
321.1602	0.091
321.3712	0.1029
321.5821	0.0925
321.793	0.0838
322.0039	0.0866
322.2148	0.0902
322.4257	0.0919
322.6365	0.086
322.8474	0.0934
323.0582	0.0971
323.269	0.0947
323.4798	0.0926
323.6906	0.0834
323.9014	0.0943
324.1122	0.0933
324.3229	0.0929
324.5337	0.08
324.7444	0.0902
324.9551	0.0939
325.1658	0.0929
325.3765	0.0925
325.5872	0.0878
325.7979	0.0968
326.0085	0.0981
326.2192	0.0974
326.4298	0.0987
326.6404	0.0962
326.851	0.0865
327.0616	0.0869
327.2722	0.093
327.4828	0.0905
327.6933	0.1001
327.9039	0.0992
328.1144	0.0879
328.3249	0.0906
328.5354	0.0968
328.7459	0.0861
328.9564	0.096
329.1669	0.1002
329.3773	0.0911
329.5878	0.0989
329.7982	0.0969
330.0086	0.0966
330.219	0.1023
330.4294	0.0888
330.6398	0.1047
330.8502	0.1008
331.0605	0.0953
331.2708	0.0991
331.4812	0.0989
331.6915	0.0908
331.9018	0.0949
332.1121	0.0933
332.3224	0.0984
332.5326	0.0973
332.7429	0.0999
332.9531	0.0977
333.1633	0.1121
333.3735	0.1008
333.5837	0.099
333.7939	0.0995
334.0041	0.0982
334.2143	0.0974
334.4244	0.0924
334.6346	0.1038
334.8447	0.1063
335.0548	0.1026
335.2649	0.0873
335.475	0.092
335.685	0.1069
335.8951	0.0977
336.1051	0.0945
336.3152	0.1054
336.5252	0.0966
336.7352	0.101
336.9452	0.0975
337.1552	0.1022
337.3652	0.1052
337.5751	0.1095
337.7851	0.1018
337.995	0.1005
338.2049	0.0923
338.4148	0.1072
338.6247	0.1107
338.8346	0.0965
339.0445	0.1065
339.2543	0.1036
339.4642	0.1044
339.674	0.1011
339.8838	0.104
340.0936	0.107
340.3034	0.1171
340.5132	0.1035
340.7229	0.116
340.9327	0.1078
341.1424	0.1048
341.3522	0.1123
341.5619	0.1183
341.7716	0.11
341.9813	0.1146
342.1909	0.1152
342.4006	0.1082
342.6102	0.1197
342.8199	0.1204
343.0295	0.1148
343.2391	0.1178
343.4487	0.12
343.6583	0.1134
343.8679	0.1123
344.0774	0.1201
344.287	0.1253
344.4965	0.1111
344.706	0.1199
344.9155	0.1209
345.125	0.1187
345.3345	0.1192
345.544	0.1092
345.7534	0.1241
345.9629	0.1213
346.1723	0.1232
346.3817	0.125
346.5911	0.1254
346.8005	0.1214
347.0099	0.1165
347.2193	0.134
347.4286	0.1361
347.638	0.127
347.8473	0.1259
348.0566	0.1308
348.2659	0.1208
348.4752	0.129
348.6845	0.1287
348.8937	0.1321
349.103	0.131
349.3122	0.1276
349.5214	0.1373
349.7306	0.1318
349.9398	0.1311
350.149	0.1295
350.3582	0.1371
350.5674	0.138
350.7765	0.1324
350.9856	0.1341
351.1948	0.1363
351.4039	0.1354
351.613	0.1329
351.822	0.1387
352.0311	0.1372
352.2402	0.1382
352.4492	0.1312
352.6582	0.1412
352.8672	0.1453
353.0762	0.1513
353.2852	0.148
353.4942	0.1431
353.7032	0.1454
353.9121	0.1459
354.1211	0.1481
354.33	0.138
354.5389	0.1489
354.7478	0.1484
354.9567	0.1433
355.1655	0.1562
355.3744	0.1573
355.5833	0.1476
355.7921	0.1557
356.0009	0.1458
356.2097	0.153
356.4185	0.1505
356.6273	0.1524
356.8361	0.1474
357.0448	0.1669
357.2536	0.1517
357.4623	0.1552
357.671	0.1625
357.8797	0.168
358.0884	0.1612
358.2971	0.1645
358.5057	0.1624
358.7144	0.162
358.923	0.1711
359.1316	0.1565
359.3402	0.1685
359.5488	0.1635
359.7574	0.1743
359.966	0.1761
360.1746	0.1729
360.3831	0.1837
360.5916	0.1774
360.8002	0.1803
361.0087	0.1739
361.2172	0.1785
361.4256	0.1757
361.6341	0.1802
361.8426	0.1937
362.051	0.1751
362.2594	0.1866
362.4678	0.1862
362.6762	0.1904
362.8846	0.1823
363.093	0.1814
363.3014	0.1933
363.5097	0.1839
363.718	0.2064
363.9264	0.191
364.1347	0.1945
364.343	0.1896
364.5513	0.1836
364.7595	0.1942
364.9678	0.1945
365.176	0.1954
365.3842	0.1902
365.5925	0.1955
365.8007	0.1888
366.0089	0.2092
366.217	0.1969
366.4252	0.2121
366.6333	0.2022
366.8415	0.2049
367.0496	0.2049
367.2577	0.2184
367.4658	0.2116
367.6739	0.2092
367.882	0.2117
368.09	0.213
368.2981	0.2215
368.5061	0.2028
368.7141	0.2124
368.9221	0.2171
369.1301	0.2262
369.3381	0.2127
369.5461	0.2225
369.754	0.2201
369.962	0.2134
370.1699	0.2268
370.3778	0.2194
370.5857	0.225
370.7936	0.2172
371.0015	0.2241
371.2093	0.2113
371.4172	0.2303
371.625	0.2213
371.8328	0.2441
372.0406	0.2329
372.2484	0.2331
372.4562	0.2326
372.664	0.2366
372.8717	0.228
373.0795	0.227
373.2872	0.2214
373.4949	0.2362
373.7026	0.2378
373.9103	0.2222
374.118	0.2374
374.3256	0.2361
374.5333	0.2363
374.7409	0.2424
374.9485	0.2381
375.1561	0.2492
375.3637	0.2316
375.5713	0.2341
375.7789	0.2332
375.9864	0.2518
376.194	0.2429
376.4015	0.2448
376.609	0.2461
376.8165	0.2505
377.024	0.2344
377.2315	0.2442
377.4389	0.2449
377.6464	0.244
377.8538	0.2551
378.0612	0.2459
378.2686	0.2532
378.476	0.258
378.6834	0.2569
378.8908	0.2568
379.0981	0.2631
379.3055	0.2636
379.5128	0.2529
379.7201	0.256
379.9274	0.2516
380.1347	0.2583
380.342	0.2566
380.5492	0.2595
380.7565	0.2675
380.9637	0.2627
381.1709	0.2658
381.3781	0.2534
381.5853	0.2704
381.7925	0.2753
381.9997	0.273
382.2068	0.2645
382.4139	0.2764
382.6211	0.2658
382.8282	0.2676
383.0353	0.2603
383.2424	0.2671
383.4494	0.2737
383.6565	0.2624
383.8635	0.2805
384.0706	0.2634
384.2776	0.2696
384.4846	0.2655
384.6916	0.2699
384.8986	0.273
385.1055	0.2788
385.3125	0.2885
385.5194	0.2693
385.7263	0.2828
385.9333	0.2864
386.1402	0.2793
386.347	0.2828
386.5539	0.2834
386.7608	0.2736
386.9676	0.2725
387.1744	0.2739
387.3813	0.2657
387.5881	0.2718
387.7948	0.2782
388.0016	0.2708
388.2084	0.2779
388.4151	0.2651
388.6219	0.2776
388.8286	0.2874
389.0353	0.2556
389.242	0.2604
389.4487	0.2651
389.6553	0.273
389.862	0.2571
390.0686	0.2605
390.2753	0.262
390.4819	0.2642
390.6885	0.2657
390.8951	0.2651
391.1016	0.2626
391.3082	0.2539
391.5147	0.2548
391.7213	0.2608
391.9278	0.2496
392.1343	0.2597
392.3408	0.2494
392.5473	0.2458
392.7537	0.2569
392.9602	0.2442
393.1666	0.2476
393.373	0.2467
393.5794	0.2548
393.7858	0.2465
393.9922	0.2468
394.1986	0.2491
394.4049	0.2535
394.6113	0.2491
394.8176	0.2335
395.0239	0.2351
395.2302	0.2386
395.4365	0.2364
395.6428	0.2296
395.8491	0.2326
396.0553	0.2217
396.2615	0.2408
396.4678	0.247
396.674	0.2336
396.8802	0.2213
397.0863	0.231
397.2925	0.2443
397.4987	0.227
397.7048	0.2298
397.9109	0.2378
398.117	0.2371
398.3231	0.236
398.5292	0.228
398.7353	0.2176
398.9413	0.231
399.1474	0.2311
399.3534	0.2218
399.5594	0.2269
399.7654	0.2354
399.9714	0.2307
400.1774	0.2397
400.3833	0.234
400.5893	0.2311
400.7952	0.2165
401.0011	0.2312
401.207	0.2311
401.4129	0.2282
401.6188	0.2159
401.8247	0.2204
402.0305	0.2219
402.2364	0.2303
402.4422	0.2323
402.648	0.2341
402.8538	0.2297
403.0596	0.2066
403.2654	0.2203
403.4711	0.2258
403.6768	0.2332
403.8826	0.2266
404.0883	0.2364
404.294	0.2342
404.4997	0.234
404.7054	0.227
404.911	0.2311
405.1167	0.2308
405.3223	0.2347
405.5279	0.2277
405.7335	0.2316
405.9391	0.2244
406.1447	0.2348
406.3502	0.2281
406.5558	0.2174
406.7613	0.2251
406.9668	0.2155
407.1724	0.2268
407.3778	0.2407
407.5833	0.2246
407.7888	0.237
407.9942	0.2324
408.1997	0.2344
408.4051	0.2332
408.6105	0.2248
408.8159	0.2403
409.0213	0.2202
409.2267	0.2267
409.432	0.235
409.6374	0.2405
409.8427	0.2479
410.048	0.2297
410.2533	0.2353
410.4586	0.2381
410.6639	0.2125
410.8691	0.2248
411.0744	0.2316
411.2796	0.2246
411.4848	0.214
411.69	0.2349
411.8952	0.2261
412.1004	0.2185
412.3056	0.2353
412.5107	0.2275
412.7158	0.2216
412.921	0.2257
413.1261	0.2193
413.3312	0.2287
413.5362	0.2198
413.7413	0.2249
413.9464	0.2227
414.1514	0.2207
414.3564	0.2302
414.5614	0.2292
414.7664	0.2284
414.9714	0.2225
415.1764	0.215
415.3813	0.2254
415.5863	0.2219
415.7912	0.2242
415.9961	0.2223
416.201	0.2284
416.4059	0.2198
416.6108	0.2174
416.8156	0.2227
417.0205	0.2274
417.2253	0.2272
417.4301	0.2115
417.6349	0.2333
417.8397	0.2298
418.0445	0.2155
418.2492	0.2165
418.454	0.2113
418.6587	0.2174
418.8634	0.2195
419.0681	0.2256
419.2728	0.2132
419.4775	0.214
419.6822	0.218
419.8868	0.2029
420.0915	0.2197
420.2961	0.2182
420.5007	0.2238
420.7053	0.2138
420.9099	0.2083
421.1144	0.2052
421.319	0.2086
421.5235	0.2149
421.728	0.2046
421.9325	0.1981
422.137	0.2055
422.3415	0.215
422.546	0.2086
422.7504	0.2004
422.9549	0.2048
423.1593	0.2141
423.3637	0.1987
423.5681	0.2135
423.7725	0.2032
423.9769	0.2063
424.1812	0.1964
424.3856	0.1896
424.5899	0.1997
424.7942	0.1904
424.9985	0.1942
425.2028	0.1902
425.4071	0.1833
425.6113	0.1924
425.8156	0.185
426.0198	0.1929
426.224	0.1791
426.4282	0.1951
426.6324	0.1898
426.8366	0.1831
427.0407	0.179
427.2449	0.1811
427.449	0.1729
427.6531	0.1801
427.8572	0.1656
428.0613	0.1756
428.2654	0.1676
428.4694	0.1776
428.6735	0.1828
428.8775	0.1609
429.0815	0.1645
429.2855	0.172
429.4895	0.1563
429.6935	0.1716
429.8975	0.1711
430.1014	0.1613
430.3053	0.1599
430.5093	0.1629
430.7132	0.1521
430.9171	0.1475
431.1209	0.1578
431.3248	0.1535
431.5286	0.1553
431.7325	0.1418
431.9363	0.1405
432.1401	0.1582
432.3439	0.1438
432.5477	0.1442
432.7514	0.1512
432.9552	0.1387
433.1589	0.1397
433.3627	0.1388
433.5664	0.1426
433.7701	0.1284
433.9737	0.1221
434.1774	0.1252
434.3811	0.1332
434.5847	0.1333
434.7883	0.1185
434.9919	0.129
435.1955	0.1103
435.3991	0.1149
435.6027	0.1187
435.8062	0.1142
436.0098	0.1252
436.2133	0.118
436.4168	0.1205
436.6203	0.1095
436.8238	0.1003
437.0272	0.1041
437.2307	0.1009
437.4341	0.112
437.6375	0.1037
437.841	0.1029
438.0443	0.1028
438.2477	0.0991
438.4511	0.1084
438.6545	0.0884
438.8578	0.0871
439.0611	0.0917
439.2644	0.1011
439.4677	0.084
439.671	0.0854
439.8743	0.0814
440.0775	0.0796
440.2808	0.0743
440.484	0.0783
440.6872	0.0723
440.8904	0.0771
441.0936	0.0732
441.2967	0.0802
441.4999	0.0773
441.703	0.0623
441.9062	0.0752
442.1093	0.0726
442.3124	0.0738
442.5155	0.0617
442.7185	0.0616
442.9216	0.0699
443.1246	0.0619
443.3276	0.0696
443.5307	0.053
443.7337	0.0634
443.9366	0.0636
444.1396	0.0567
444.3426	0.0573
444.5455	0.0494
444.7484	0.0489
444.9513	0.054
445.1542	0.0607
445.3571	0.0532
445.56	0.0469
445.7628	0.0403
445.9657	0.0589
446.1685	0.0519
446.3713	0.0402
446.5741	0.0529
446.7769	0.0466
446.9797	0.0332
447.1824	0.0401
447.3852	0.0358
447.5879	0.0479
447.7906	0.0465
447.9933	0.0369
448.196	0.0484
448.3986	0.0326
448.6013	0.0353
448.8039	0.0275
449.0066	0.0377
449.2092	0.0331
449.4118	0.0294
449.6143	0.035
449.8169	0.0171
450.0195	0.018
450.222	0.0175
450.4245	0.0277
450.627	0.0203
450.8295	0.0243
451.032	0.0343
451.2345	0.0221
451.4369	0.0454
451.6394	0.0173
451.8418	0.019
452.0442	0.0189
452.2466	0.0179
452.449	0.0228
452.6513	0.0333
452.8537	0.0183
453.056	0.0238
453.2583	0.0205
453.4607	0.0281
453.663	0.0294
453.8652	0.0148
454.0675	0.0141
454.2697	0.0168
454.472	0.0229
454.6742	0.0052
454.8764	0.0188
455.0786	0.0174
455.2808	0.0197
455.4829	0.0147
455.6851	0.0112
455.8872	0.004
456.0893	0.0104
456.2915	0.0123
456.4935	0.0125
456.6956	0.0115
456.8977	0.0103
457.0997	0.0119
457.3018	0.0096
457.5038	0.0004
457.7058	0.0064
457.9078	0.0019
458.1098	0.0019
458.3117	0.005
458.5137	0.007
458.7156	0.0128
458.9175	0.0102
459.1194	0.0068
459.3213	0.01
459.5232	0.0004
459.725	0.0051
459.9269	0.0021
460.1287	0.0154
460.3305	0.0001
460.5323	0.0104
460.7341	0.0048
460.9359	0.0056
461.1376	0.0089
461.3394	-0.0018
461.5411	0.01
461.7428	-0.0013
461.9445	0.0057
462.1462	-0.0041
462.3479	-0.002
462.5495	0.0094
462.7512	-0.0033
462.9528	-0.0013
463.1544	-0.0052
463.356	0.0022
463.5576	0.0055
463.7592	-0.0034
463.9607	0.0042
464.1623	0.0039
464.3638	0.0036
464.5653	0.0045
464.7668	-0
464.9683	0.013
465.1697	0.0054
465.3712	0.003
465.5726	0.0011
465.7741	-0.0025
465.9755	-0.0015
466.1769	-0.0131
466.3782	-0.0057
466.5796	-0.0073
466.7809	0.0014
466.9823	-0.0034
467.1836	-0.0019
467.3849	-0.001
467.5862	-0.0048
467.7875	-0.0043
467.9887	0.0026
468.19	-0.0044
468.3912	-0.0034
468.5924	0.0003
468.7936	-0.0039
468.9948	-0.0029
469.196	0.0003
469.3972	0.0122
469.5983	0.021
469.7994	-0.0001
470.0006	-0.0033
470.2017	-0.0092
470.4027	0.0076
470.6038	-0.0065
470.8049	-0.0001
471.0059	-0.0083
471.2069	0.0075
471.408	0.0085
471.6089	-0.001
471.8099	-0.0054
472.0109	-0.0078
472.2119	-0.0115
472.4128	-0.0039
472.6137	-0.0106
472.8146	-0.0046
473.0155	-0.0081
473.2164	-0.0147
473.4173	-0.0108
473.6181	0.0017
473.819	-0.0078
474.0198	-0.0117
474.2206	0.0007
474.4214	-0.0069
474.6222	-0.013
474.8229	-0.0055
475.0237	-0.0029
475.2244	-0.0087
475.4251	-0.0133
475.6258	0.0053
475.8265	-0.0057
476.0272	0.0002
476.2278	-0.0001
476.4285	-0.0005
476.6291	-0.0064
476.8297	-0.005
477.0303	-0.0147
477.2309	-0.0008
477.4315	0.0025
477.632	-0.0085
477.8326	0.0004
478.0331	-0.0059
478.2336	-0.005
478.4341	-0.0056
478.6346	-0.0031
478.8351	-0.0101
479.0355	-0.0051
479.236	-0.0062
479.4364	0.0013
479.6368	0.0034
479.8372	-0.0068
480.0376	0.0051
480.2379	-0.0067
480.4383	-0.0019
480.6386	-0.0117
480.8389	-0.0097
481.0392	-0.0058
481.2395	-0.0081
481.4398	0.0063
481.6401	-0.007
481.8403	-0.0044
482.0405	-0.0104
482.2408	0.0023
482.441	0.0003
482.6411	0.0042
482.8413	-0.0037
483.0415	-0.0043
483.2416	-0.002
483.4417	-0.0075
483.6419	0.0008
483.8419	-0.015
484.042	-0.0015
484.2421	-0.0072
484.4422	-0.0041
484.6422	-0.0078
484.8422	-0.0076
485.0422	-0.0045
485.2422	-0.0056
485.4422	-0.0026
485.6422	-0.0043
485.8421	-0.004
486.042	0.0041
486.242	-0.0063
486.4419	-0.0042
486.6417	-0.0033
486.8416	-0.005
487.0415	-0.0074
487.2413	-0.0018
487.4411	0.0034
487.641	0.0013
487.8408	-0.0038
488.0405	-0.0035
488.2403	-0.0068
488.4401	-0.0058
488.6398	-0.0067
488.8395	-0.0042
489.0392	-0.0062
489.2389	-0.0112
489.4386	-0.0025
489.6383	-0.0011
489.8379	-0.0041
490.0376	-0.0031
490.2372	-0.0034
490.4368	-0.0102
490.6364	-0.0067
490.836	-0.0063
491.0355	-0.0061
491.2351	-0.0076
491.4346	-0.0075
491.6341	-0.0049
491.8336	-0.0142
492.0331	-0.0078
492.2326	-0.0091
492.432	-0.009
492.6315	-0.0024
492.8309	-0.0142
493.0303	-0.0041
493.2297	-0.0026
493.4291	-0.0074
493.6284	0
493.8278	-0.0013
494.0271	-0.0069
494.2264	-0.0058
494.4257	0.0029
494.625	-0.0032
494.8243	-0.0073
495.0236	-0.0134
495.2228	-0.0058
495.422	-0.0066
495.6213	-0.0152
495.8205	-0.0007
496.0196	-0.0092
496.2188	-0.0012
496.418	0.0007
496.6171	0.0004
496.8162	-0.0084
497.0153	-0.0015
497.2144	-0.0018
497.4135	-0.0063
497.6126	-0.006
497.8116	-0.0016
498.0107	-0.0015
498.2097	-0.0138
498.4087	-0.0041
498.6077	-0.005
498.8067	-0.0062
499.0056	-0.0027
499.2046	0.0035
499.4035	-0.0043
499.6024	-0.0039
499.8013	-0.0015
500.0002	-0.0083
500.199	-0.0097
500.3979	-0
500.5967	-0.0085
500.7956	-0.0147
500.9944	-0.0101
501.1932	-0.0025
501.3919	-0.0148
501.5907	-0.0027
501.7895	0.0036
501.9882	-0.0124
502.1869	-0.0058
502.3856	-0.0077
502.5843	-0.0168
502.783	-0.0047
502.9816	-0.0073
503.1803	-0.008
503.3789	-0.0041
503.5775	-0.0008
503.7761	-0.0053
503.9747	-0.0082
504.1732	-0.0018
504.3718	-0.0057
504.5703	0.0023
504.7689	0.0038
504.9674	-0.0017
505.1658	-0.009
505.3643	-0.0036
505.5628	0.0098
505.7612	-0.0084
505.9597	-0.0047
506.1581	-0.0058
506.3565	-0.0072
506.5549	0.0003
506.7532	-0.0041
506.9516	0.0012
507.1499	-0.0064
507.3482	-0.0093
507.5465	0.0011
507.7448	-0.0066
507.9431	-0.0048
508.1414	-0.0023
508.3396	-0.0073
508.5379	-0.0061
508.7361	-0.003
508.9343	-0.0098
509.1325	-0.0042
509.3306	0.002
509.5288	0.0005
509.7269	-0.0062
509.9251	-0.0033
510.1232	-0.0064
510.3213	-0.0102
510.5193	-0.0038
510.7174	-0.0047
510.9154	-0.0048
511.1135	-0.005
511.3115	-0.0079
511.5095	-0.0084
511.7075	-0.0037
511.9055	-0.0062
512.1034	-0.0134
512.3014	-0.0026
512.4993	-0.0045
512.6972	-0.0027
512.8951	-0.0092
513.093	-0.0103
513.2908	0.0016
513.4887	-0.0062
513.6865	-0.0065
513.8844	-0.0014
514.0822	-0.0044
514.2799	-0.0127
514.4777	-0.0043
514.6755	-0.0044
514.8732	-0.0067
515.0709	-0.0118
515.2687	-0.0062
515.4664	-0.0069
515.664	-0.0066
515.8617	-0.0088
516.0594	-0.0048
516.257	-0.0063
516.4546	-0.0062
516.6522	-0.0049
516.8498	-0.0121
517.0474	0.0005
517.2449	-0.0079
517.4425	-0.006
517.64	-0.0009
517.8375	-0.0009
518.035	-0.0045
518.2325	-0.0091
518.43	-0.0028
518.6274	-0.0154
518.8249	-0.0105
519.0223	-0.0076
519.2197	-0.0063
519.4171	-0.001
519.6145	-0.006
519.8118	-0.0083
520.0092	0.0016
520.2065	-0.0141
520.4038	-0.0038
520.6011	-0.0062
520.7984	-0.0079
520.9956	-0.0069
521.1929	-0.0116
521.3901	-0.0094
521.5874	-0.0022
521.7846	0.0002
521.9818	-0.0061
522.1789	-0.0044
522.3761	-0.0092
522.5732	-0.0011
522.7704	-0.0081
522.9675	-0.0066
523.1646	-0.0012
523.3617	-0.0027
523.5587	-0.0126
523.7558	0.003
523.9528	-0.004
524.1498	-0.0057
524.3468	-0.0055
524.5438	-0.0031
524.7408	-0.0097
524.9378	-0.0091
525.1347	0.0011
525.3316	-0.0006
525.5285	-0.0102
525.7254	-0.0126
525.9223	0.0019
526.1192	-0.0013
526.316	-0.0033
526.5129	-0.0045
526.7097	-0.013
526.9065	-0.0022
527.1033	-0.001
527.3	-0.0019
527.4968	-0.0132
527.6935	-0.0058
527.8903	-0.0024
528.087	-0.0093
528.2837	0.0004
528.4804	-0.0036
528.677	-0.0037
528.8737	-0.011
529.0703	-0.0022
529.2669	-0.0018
529.4635	-0.0074
529.6601	-0.0013
529.8567	-0.0036
530.0532	-0.0034
530.2498	-0.0055
530.4463	-0.0042
530.6428	-0.0019
530.8393	0.002
531.0358	-0.0099
531.2322	-0.0057
531.4287	-0.0167
531.6251	-0.0074
531.8215	0.0007
532.0179	-0.0072
532.2143	-0.0059
532.4107	-0.0058
532.607	-0.0052
532.8034	-0.0097
532.9997	-0.0026
533.196	-0.0067
533.3923	-0.0017
533.5886	-0.0027
533.7848	-0.0037
533.9811	-0.0062
534.1773	-0.0051
534.3735	-0.0026
534.5697	-0.0059
534.7659	-0.0056
534.9621	0.0009
535.1582	-0.002
535.3544	-0.0049
535.5505	-0.0058
535.7466	-0.0034
535.9427	-0.0015
536.1387	0.0037
536.3348	0.0024
536.5308	-0.0046
536.7269	0.0024
536.9229	-0.0016
537.1189	-0.006
537.3148	0.0006
537.5108	0.0022
537.7068	-0.0056
537.9027	-0.0062
538.0986	-0.0005
538.2945	-0.0035
538.4904	-0.0084
538.6863	-0.0072
538.8821	-0.0017
539.078	-0.0093
539.2738	-0.0116
539.4696	-0.0125
539.6654	-0.0077
539.8611	-0.0041
540.0569	-0.0011
540.2526	-0.0093
540.4484	0.0034
540.6441	-0.0039
540.8398	-0.0059
541.0355	-0.0043
541.2311	0.0016
541.4268	-0.0019
541.6224	0.0024
541.818	-0.0024
542.0136	-0.0085
542.2092	-0.0078
542.4048	-0.0044
542.6003	-0.0043
542.7959	-0.0031
542.9914	-0.0067
543.1869	-0.0071
543.3824	-0.0101
543.5779	-0.0068
543.7734	-0.0082
543.9688	-0.0098
544.1642	-0.0077
544.3596	-0.0059
544.555	-0.0008
544.7504	-0.0079
544.9458	-0.0038
545.1411	0.0082
545.3365	-0.006
545.5318	0.006
545.7271	0.0036
545.9224	0.0036
546.1177	-0.0088
546.3129	0.0019
546.5081	-0.0054
546.7034	-0.0066
546.8986	-0.0015
547.0938	-0.0055
547.289	0.0008
547.4841	-0.0013
547.6793	-0.0078
547.8744	-0.0027
548.0695	-0.0035
548.2646	-0.0073
548.4597	0.003
548.6548	-0.0017
548.8498	-0.0045
549.0448	0.0038
549.2399	-0.0002
549.4349	-0.0005
549.6298	-0.0107
549.8248	0.0006
550.0198	-0.0015
550.2147	-0.0005
550.4096	-0.0073
550.6045	-0.0095
550.7994	0.0008
550.9943	-0.0017
551.1892	-0.0035
551.384	-0.0109
551.5788	-0.0114
551.7737	-0.0068
551.9685	-0.0073
552.1632	-0.0049
552.358	-0.0083
552.5528	-0.0106
552.7475	-0.0104
552.9422	-0.0052
553.1369	-0.0098
553.3316	-0.0025
553.5263	-0.0056
553.7209	-0.0077
553.9156	0.0024
554.1102	-0.0076
554.3048	-0.0081
554.4994	0.0005
554.694	-0.0003
554.8885	-0.0071
555.0831	-0.0021
555.2776	-0.0055
555.4721	-0.0114
555.6666	-0.0047
555.8611	-0.002
556.0555	-0.0082
556.25	-0.0027
556.4444	-0.0033
556.6388	-0.0027
556.8332	-0.0077
557.0276	-0.0055
557.222	-0.0066
557.4163	0.0014
557.6107	-0.0055
557.805	-0.0018
557.9993	0.0007
558.1936	-0.0043
558.3879	-0.0005
558.5821	-0.0036
558.7764	-0.0115
558.9706	-0.0015
559.1648	-0.0047
559.359	-0.0156
559.5532	-0.0111
559.7473	-0.0096
559.9415	-0.003
560.1356	-0.0059
560.3297	-0.0089
560.5238	-0.004
560.7179	-0.0057
560.9119	-0.0004
561.106	-0.0023
561.3	-0.0024
561.494	-0.0035
561.688	-0.006
561.882	-0.0068
562.076	-0.0078
562.2699	-0.0055
562.4639	-0.007
562.6578	-0.0049
562.8517	-0.0037
563.0456	0.0008
563.2395	-0.0038
563.4333	-0.001
563.6272	-0.0059
563.821	-0.0013
564.0148	0.0004
564.2086	-0.0107
564.4024	-0.0063
564.5961	-0.0039
564.7899	-0.0002
564.9836	0.0007
565.1773	-0.0025
565.371	0.0008
565.5647	-0.008
565.7584	-0.0001
565.952	-0.0008
566.1456	-0.0007
566.3393	-0.0062
566.5329	-0.0016
566.7264	0.0018
566.92	-0.0002
567.1136	0.001
567.3071	-0.0026
567.5006	0.0025
567.6941	-0.0028
567.8876	-0.0038
568.0811	-0.0041
568.2745	-0.0068
568.468	-0.0077
568.6614	-0.0076
568.8548	-0.0076
569.0482	-0.0029
569.2416	-0.0038
569.4349	-0.0025
569.6283	-0.0072
569.8216	-0.0048
570.0149	-0.005
570.2082	0.0016
570.4015	0.0002
570.5947	-0.0036
570.788	-0.0044
570.9812	-0.004
571.1744	-0.0053
571.3676	-0.0015
571.5608	0.0011
571.754	-0.0039
571.9471	-0.0075
572.1402	-0.0041
572.3333	-0.0023
572.5264	-0.0007
572.7195	-0.0017
572.9126	0
573.1057	-0.0015
573.2987	-0.0006
573.4917	-0.0022
573.6847	-0.0016
573.8777	-0.0045
574.0707	0.0007
574.2636	-0.0051
574.4566	-0.004
574.6495	-0.0037
574.8424	-0.0017
575.0353	-0.0043
575.2281	0.0018
575.421	-0.0055
575.6138	-0.0019
575.8067	-0.0011
575.9995	0.0015
576.1923	-0.006
576.385	-0.0066
576.5778	-0.0008
576.7706	0.0013
576.9633	-0.0017
577.156	0.0017
577.3487	0.0018
577.5414	-0.0015
577.734	0.0006
577.9267	0.0004
578.1193	-0.0026
578.3119	0.0009
578.5045	-0.0052
578.6971	0.0048
578.8897	-0.0051
579.0822	-0.0066
579.2747	0.0008
579.4673	-0.0042
579.6598	0.0003
579.8522	0.0041
580.0447	-0.0019
580.2372	0.0044
580.4296	0.0027
580.622	0.0025
580.8144	-0.0018
581.0068	0.0002
581.1992	0.0044
581.3915	0.0012
581.5839	-0.0019
581.7762	-0.0027
581.9685	-0.0024
582.1608	-0.0026
582.353	0.0059
582.5453	-0.0034
582.7375	-0.0001
582.9298	-0.0061
583.122	0.0017
583.3142	-0.0046
583.5063	-0.0024
583.6985	-0.004
583.8906	-0.0043
584.0827	-0.0029
584.2749	-0.0027
584.4669	-0.0019
584.659	-0.009
584.8511	-0.0029
585.0431	-0.0023
585.2352	-0.007
585.4272	-0.0099
585.6192	-0.0058
585.8111	-0.0033
586.0031	-0.0016
586.195	-0.0039
586.387	0.0011
586.5789	-0.0026
586.7708	-0.0063
586.9627	-0.004
587.1545	-0.0005
587.3464	-0.0068
587.5382	-0.0054
587.73	-0.0084
587.9218	-0.0029
588.1136	0.0017
588.3053	-0.0024
588.4971	-0.003
588.6888	-0.0021
588.8805	-0.001
589.0722	0.0019
589.2639	-0.0039
589.4556	0.0026
589.6472	-0.0029
589.8389	-0.0006
590.0305	-0.0034
590.2221	-0.0015
590.4137	-0.0031
590.6052	-0.005
590.7968	0.0007
590.9883	-0.0028
591.1798	-0.0091
591.3713	0.0011
591.5628	-0.0043
591.7543	-0.0012
591.9458	0.0002
592.1372	-0.0023
592.3286	-0.0042
592.52	-0.003
592.7114	0.0037
592.9028	-0.0029
593.0941	-0.0001
593.2855	0
593.4768	0.0008
593.6681	-0.0009
593.8594	0.0025
594.0506	-0.0002
594.2419	0.0024
594.4331	-0.0021
594.6244	-0.0025
594.8156	-0.0031
595.0067	-0.0009
595.1979	-0.0015
595.3891	-0.0036
595.5802	-0.007
595.7713	-0.003
595.9624	-0.0001
596.1535	0.002
596.3446	-0.0008
596.5357	0.003
596.7267	-0.0016
596.9177	-0.0009
597.1087	-0.0008
597.2997	0.0031
597.4907	-0.0015
597.6817	-0.0034
597.8726	-0.0021
598.0635	-0.004
598.2544	-0.0026
598.4453	-0.0074
598.6362	-0.0089
598.827	-0.006
599.0179	-0.0028
599.2087	-0.0088
599.3995	-0.0063
599.5903	0.0002
599.7811	-0.002
599.9718	-0.002
600.1626	0.0002
600.3533	0.0001
600.544	-0.0044
600.7347	0.0026
600.9254	-0.0007
601.116	-0.003
601.3067	-0.0063
601.4973	-0.0047
601.6879	-0.0009
601.8785	-0.0063
602.0691	-0.0023
602.2596	-0.0016
602.4502	-0.0052
602.6407	-0.003
602.8312	-0.0053
603.0217	-0.0011
603.2122	-0.0034
603.4027	0.0009
603.5931	-0.0031
603.7835	-0
603.9739	-0.0009
604.1643	0.0004
604.3547	-0.003
604.5451	0.0009
604.7354	-0.0032
604.9257	-0.0038
605.116	-0.0018
605.3063	-0.002
605.4966	-0.0031
605.6869	-0.0022
605.8771	0.0004
606.0673	-0.0031
606.2575	-0.0062
606.4477	-0.0012
606.6379	-0.0069
606.8281	-0.0061
607.0182	-0.01
607.2083	-0.006
607.3985	-0.0081
607.5885	-0.0002
607.7786	-0.0052
607.9687	-0.0013
608.1587	-0.0036
608.3488	-0.0027
608.5388	-0.0002
608.7288	0.0001
608.9187	0.0003
609.1087	-0.0037
609.2986	-0.0015
609.4886	-0.002
609.6785	-0.0035
609.8684	-0.0006
610.0582	0.0013
610.2481	-0.003
610.4379	0.0012
610.6278	0.0017
610.8176	0.0017
611.0074	-0.0041
611.1971	0.0036
611.3869	-0.0059
611.5766	0.0028
611.7664	0.0049
611.9561	-0.0033
612.1458	0.0029
612.3354	-0.0046
612.5251	-0.0047
612.7147	0.001
612.9044	-0.0013
613.094	0.003
613.2836	0.0008
613.4731	-0.0054
613.6627	-0.0052
613.8522	-0.0002
614.0417	-0.0067
614.2313	-0.0032
614.4207	-0.0038
614.6102	-0.0001
614.7997	-0.0039
614.9891	0.0004
615.1785	-0.0045
615.3679	0.0006
615.5573	-0.0027
615.7467	-0.0019
615.9361	-0.0032
616.1254	-0.0053
616.3147	-0.0021
616.504	-0.0017
616.6933	-0.0008
616.8826	-0.003
617.0718	-0.0024
617.2611	0.0009
617.4503	0.0044
617.6395	-0.0017
617.8287	0.0037
618.0179	0.0042
618.207	-0.0038
618.3961	-0.0021
618.5853	-0.0011
618.7744	-0.003
618.9634	0.0024
619.1525	-0.0023
619.3416	-0.0049
619.5306	0.0023
619.7196	-0.0012
619.9086	0.0015
620.0976	-0.0044
620.2866	-0.0025
620.4755	-0.0059
620.6645	-0.0023
620.8534	0.0042
621.0423	-0.0058
621.2312	-0.0029
621.42	-0.0008
621.6089	-0.0043
621.7977	-0.002
621.9865	-0.0006
622.1753	0.0029
622.3641	0.0034
622.5529	-0.004
622.7416	-0.0024
622.9303	0.0034
623.1191	-0.002
623.3078	-0.0005
623.4964	0
623.6851	0.0035
623.8737	-0.0019
624.0624	0.0022
624.251	0.0006
624.4396	-0.0009
624.6282	-0.0019
624.8167	0.0046
625.0053	0.0006
625.1938	0.0035
625.3823	0.0004
625.5708	0.0033
625.7593	-0.001
625.9477	-0.0044
626.1362	-0.0012
626.3246	-0.0014
626.513	-0.008
626.7014	0.0002
626.8898	0.0001
627.0781	-0
627.2665	-0.0019
627.4548	-0.0078
627.6431	-0.0051
627.8314	-0.0029
628.0197	0.0018
628.2079	0.0049
628.3962	0.0013
628.5844	0.001
628.7726	0.0017
628.9608	0.0001
629.1489	0.0026
629.3371	0.0008
629.5252	0.0019
629.7134	0.0042
629.9015	-0.0007
630.0895	-0.0011
630.2776	-0.0031
630.4657	-0.0034
630.6537	-0.0037
630.8417	0.0003
631.0297	-0.0085
631.2177	0.0003
631.4057	0.0021
631.5936	-0.0013
631.7815	-0.0048
631.9695	0.0013
632.1574	-0.0068
632.3452	-0.0068
632.5331	-0.0031
632.7209	-0.0052
632.9088	-0.0053
633.0966	-0.0032
633.2844	-0.0034
633.4722	0.0056
633.6599	-0.0018
633.8477	0
634.0354	-0.0039
634.2231	-0.0037
634.4108	-0.0043
634.5985	-0.0031
634.7861	-0.004
634.9738	-0.0045
635.1614	-0.0037
635.349	-0.0012
635.5366	-0.0059
635.7242	0.0046
635.9117	0.0016
636.0993	-0.0025
636.2868	0.0017
636.4743	0.0061
636.6618	-0.0045
636.8492	0.0012
637.0367	-0.0011
637.2241	-0.0033
637.4115	-0.0018
637.5989	-0.0034
637.7863	0.0027
637.9737	-0.0047
638.161	0.0012
638.3484	-0.0011
638.5357	-0.0026
638.723	0.0001
638.9103	0.0056
639.0975	0.0064
639.2848	0.0019
639.472	0.0082
639.6592	0.0055
639.8464	0.0004
640.0336	-0.0065
640.2208	0.0065
640.4079	-0.0059
640.595	0.0021
640.7821	-0.0032
640.9692	0.003
641.1563	0.002
641.3434	0.0045
641.5304	-0.001
641.7174	0.0003
641.9044	0.0041
642.0914	0.0009
642.2784	0.005
642.4653	0.005
642.6523	-0.0003
642.8392	0.0076
643.0261	0.0041
643.213	0.0027
643.3999	-0.0001
643.5867	-0.0004
643.7735	0.004
643.9604	-0.0011
644.1472	-0.0052
644.3339	-0.0012
644.5207	-0.0028
644.7075	-0.0033
644.8942	0.0003
645.0809	-0.0042
645.2676	-0.0089
645.4543	0.0054
645.6409	0.0004
645.8276	-0.0014
646.0142	-0.0044
646.2008	-0.0069
646.3874	-0.0023
646.574	-0.0064
646.7605	-0.0021
646.9471	-0.0057
647.1336	-0.004
647.3201	-0.0031
647.5066	0.0001
647.6931	0.0008
647.8795	-0.0036
648.0659	-0.0052
648.2524	-0.0044
648.4388	-0.0007
648.6252	-0.0023
648.8115	-0.0086
648.9979	-0.0026
649.1842	-0.0115
649.3705	-0.0024
649.5568	-0.0064
649.7431	-0.0016
649.9294	-0.0017
650.1156	-0.0029
650.3018	-0.0059
650.488	-0.0061
650.6742	-0.0036
650.8604	0.0025
651.0466	0.0007
651.2327	-0.0011
651.4188	0.0018
651.6049	-0.0004
651.791	-0
651.9771	-0.0034
652.1632	-0.0003
652.3492	0.001
652.5352	-0.0001
652.7212	-0.0032
652.9072	0.004
653.0932	0.0028
653.2791	-0.0022
653.465	-0.0018
653.651	-0.0012
653.8369	-0.0038
654.0227	0.0032
654.2086	-0.0013
654.3944	-0.0073
654.5803	-0.0069
654.7661	-0.0066
654.9519	-0.0026
655.1377	0.0008
655.3234	0.0001
655.5092	0.0001
655.6949	0.0001
655.8806	0.0001
656.0663	0.0001
656.2519	0.0001
656.4376	-0.0038
656.6232	-0.004
656.8088	-0.003
656.9945	-0.0029
657.18	0.0038
657.3656	-0.0013
657.5511	-0.0059
657.7367	-0.0011
657.9222	0.0025
658.1077	-0.0005
658.2932	-0.0035
658.4786	-0.0026
658.6641	0.0039
658.8495	-0.0033
659.0349	-0.0031
659.2203	-0.0053
659.4057	-0.0076
659.591	0.0003
659.7764	-0.0014
659.9617	-0.0054
660.147	-0.0017
660.3323	-0.001
660.5176	-0.0058
660.7028	-0.0022
660.888	-0.0058
661.0733	-0.0009
661.2585	-0.0041
661.4436	0.0003
661.6288	-0.0015
661.8139	0.0018
661.9991	0.0002
662.1842	0.0048
662.3693	-0.0011
662.5544	-0.0033
662.7394	-0.0008
662.9245	0.0029
663.1095	0.0032
663.2945	-0.0037
663.4795	-0.0011
663.6644	-0.005
663.8494	-0.0018
664.0343	-0.0055
664.2193	-0.0047
664.4042	-0.0084
664.589	-0.0003
664.7739	-0.0043
664.9587	0.0017
665.1436	0.0036
665.3284	0.0017
665.5132	-0.0009
665.698	0.0068
665.8827	0.0017
666.0675	-0.0061
666.2522	-0.0065
666.4369	-0.0049
666.6216	-0.0059
666.8063	-0.0064
666.9909	-0.0053
667.1756	-0.0047
667.3602	-0.0103
667.5448	-0.0101
667.7294	-0.0004
667.9139	-0.0056
668.0985	-0.0082
668.283	-0.0011
668.4675	-0.0107
668.652	-0.0089
668.8365	-0.0079
669.0209	-0.0093
669.2054	-0.005
669.3898	-0.0078
669.5742	-0.0056
669.7586	-0.0037
669.943	-0.0055
670.1273	-0.011
670.3117	-0.0034
670.496	-0.0069
670.6803	-0.0006
670.8646	-0.0061
671.0488	0.001
671.2331	-0.0028
671.4173	0.0004
671.6015	0.0002
671.7857	-0.0102
671.9699	-0.0045
672.1541	-0.0054
672.3382	-0.0029
672.5223	-0.0043
672.7064	-0.0081
672.8905	-0.0083
673.0746	-0.0119
673.2587	-0.0133
673.4427	-0.0111
673.6267	-0.0165
673.8107	-0.0136
673.9947	-0.0102
674.1787	-0.0054
674.3626	-0.01
674.5465	-0.0063
674.7304	0.002
674.9143	-0.0029
675.0982	-0.0003
675.2821	-0.0048
675.4659	-0.0005
675.6497	0.0015
675.8335	-0.0007
676.0173	-0.0078
676.2011	-0.0065
676.3849	-0.0064
676.5686	-0.0049
676.7523	-0.0028
676.936	0.0015
677.1197	0.0013
677.3034	-0.0076
677.487	-0.0043
677.6706	-0.003
677.8542	0
678.0378	-0.0028
678.2214	-0.0041
678.405	-0.0036
678.5885	-0.0089
678.772	-0.0021
678.9555	-0.0016
679.139	-0.0061
679.3225	-0.0088
679.5059	-0.0079
679.6894	0.0004
679.8728	-0.0024
680.0562	-0.0009
680.2395	-0.0021
680.4229	0.0052
680.6062	0.003
680.7896	0.0019
680.9729	0.002
681.1562	0.0015
681.3394	-0.005
681.5227	-0.0068
681.7059	-0.0044
681.8891	-0.0019
682.0723	-0.0085
682.2555	-0.0053
682.4387	-0.0046
682.6218	-0.0047
682.805	-0.0066
682.9881	-0.0064
683.1712	0.0038
683.3542	0.0013
683.5373	-0.0068
683.7203	-0.0049
683.9034	-0.0075
684.0864	-0.007
684.2694	-0.0048
684.4523	-0.0052
684.6353	0.0008
684.8182	-0.0013
685.0011	-0.0036
685.184	-0.0002
685.3669	-0.0057
685.5498	-0.0024
685.7326	0.0006
685.9154	-0.0069
686.0982	-0.0025
686.281	-0.0056
686.4638	-0.0036
686.6465	-0.0052
686.8293	-0.0035
687.012	-0.0043
687.1947	-0.0066
687.3774	-0.0013
687.56	-0.0029
687.7427	-0.0015
687.9253	0.0001
688.1079	-0.0031
688.2905	0.0003
688.4731	-0.0007
688.6556	-0.0028
688.8382	-0.0011
689.0207	0.0027
689.2032	0.001
689.3857	-0.0006
689.5681	0.0004
689.7506	0.0035
689.933	0.0032
690.1154	0.0012
690.2978	0.0001
690.4802	-0.0041
690.6626	0.0032
690.8449	-0.0009
691.0272	0.0041
691.2095	0.0081
691.3918	-0.0013
691.5741	-0.0024
691.7563	0.0011
691.9386	-0.0017
692.1208	-0.0059
692.303	-0.0013
692.4852	0.0023
692.6673	-0.0005
692.8495	-0.0029
693.0316	0.0004
693.2137	-0.0071
693.3958	-0.0019
693.5778	0.0017
693.7599	-0.0097
693.9419	-0.0127
694.1239	-0.0028
694.3059	-0.0068
694.4879	-0.0085
694.6699	-0.0096
694.8518	-0.0086
695.0337	-0.0043
695.2157	-0.0063
695.3975	-0.0066
695.5794	-0.0011
695.7613	-0.0043
695.9431	-0.009
696.1249	-0.0074
696.3067	-0.0027
696.4885	-0.0026
696.6703	-0.0012
696.852	-0.0028
697.0337	0.0008
697.2154	0.0029
697.3971	-0.0015
697.5788	-0.0024
697.7605	-0.0034
697.9421	-0.0034
698.1237	-0.0009
698.3053	-0.0069
698.4869	-0.002
698.6685	-0.004
698.85	-0.0022
699.0315	-0.0036
699.213	0.002
699.3945	-0.0016
699.576	0.0094
699.7575	-0.0049
699.9389	-0.0017
700.1203	-0.0038
700.3017	-0.0062
700.4831	0.0008
700.6645	-0.0032
700.8458	-0.002
701.0271	-0
701.2084	-0.0096
701.3897	-0.0038
701.571	0.001
701.7523	0.0008
701.9335	0.0024
702.1147	0.0052
702.2959	-0.0043
702.4771	0.0001
702.6583	-0.0007
702.8394	-0.0032
703.0205	0.0037
703.2016	-0.0041
703.3827	0.0052
703.5638	-0.0087
703.7449	-0.0044
703.9259	-0.004
704.1069	-0.0012
704.2879	-0.0004
704.4689	-0.0027
704.6499	-0.0062
704.8308	0.0005
705.0117	-0.0022
705.1927	0.0008
705.3735	0.0009
705.5544	0.0044
705.7353	0.0011
705.9161	0.0041
706.0969	0.0031
706.2777	-0.0053
706.4585	-0.0025
706.6393	-0.0014
706.82	-0.0045
707.0007	-0.0018
707.1815	0.001
707.3621	-0.0072
707.5428	-0.0015
707.7235	0.0021
707.9041	0.0024
708.0847	0.0005
708.2653	-0.001
708.4459	-0.0005
708.6265	-0.0032
708.807	-0.0006
708.9875	-0.0039
709.168	-0.0042
709.3485	-0.0015
709.529	-0.0052
709.7095	-0.0018
709.8899	-0.0099
710.0703	-0.0012
710.2507	-0.001
710.4311	-0.0005
710.6115	0.0047
710.7918	-0.0029
710.9721	0.0022
711.1524	0.0031
711.3327	0.0092
711.513	-0.0021
711.6932	-0.0053
711.8735	0.0083
712.0537	-0.0046
712.2339	-0.0001
712.4141	0.0002
712.5942	-0.0009
712.7744	0.0011
712.9545	0.0027
713.1346	0.0007
713.3147	0.0098
713.4947	0.0013
713.6748	-0.0032
713.8548	-0.0065
714.0348	-0.0039
714.2148	-0.0039
714.3948	-0.0034
714.5748	-0.0093
714.7547	-0.0072
714.9346	-0.0034
715.1145	-0.0021
715.2944	-0.0026
715.4743	-0.0014
715.6541	-0.002
715.834	-0.0035
716.0138	-0.0006
716.1936	0.0001
716.3733	-0.0076
716.5531	-0.0045
716.7328	-0.0046
716.9126	-0.0027
717.0923	0.0016
717.2719	-0.0042
717.4516	-0.0009
717.6312	0.0007
717.8109	0.0025
717.9905	-0.0043
718.1701	-0.0036
718.3496	-0.0037
718.5292	-0.0043
718.7087	-0.0033
718.8882	-0.0032
719.0677	0.0019
719.2472	-0.0006
719.4267	-0.01
719.6061	-0.0033
719.7856	0.0034
719.965	-0.0124
720.1443	-0.0033
720.3237	-0.0057
720.5031	-0.0069
720.6824	-0.0033
720.8617	-0.0061
721.041	-0.0025
721.2203	-0.004
721.3995	-0.003
721.5788	-0.0107
721.758	-0.0047
721.9372	-0.0052
722.1164	-0.0034
722.2956	-0.0126
722.4747	-0.0041
722.6538	-0.0061
722.8329	-0.0038
723.012	-0.0058
723.1911	-0.0009
723.3702	-0.0011
723.5492	-0.0021
723.7282	-0.0015
723.9072	-0.0016
724.0862	0.0005
724.2652	-0.0068
724.4441	-0.0055
724.623	0.0004
724.8019	-0.0026
724.9808	0.0021
725.1597	0.0061
725.3385	0.0088
725.5174	0.0028
725.6962	-0.01
725.875	0.004
726.0538	0.0065
726.2325	-0.0025
726.4112	-0.0042
726.59	-0.0009
726.7687	-0.0018
726.9474	-0.0045
727.126	-0.0066
727.3047	-0.0028
727.4833	0.0018
727.6619	-0.0113
727.8405	-0.0019
728.0191	0.0053
728.1976	-0.0059
728.3762	-0.0039
728.5547	-0.0005
728.7332	-0.0019
728.9116	-0.0117
729.0901	-0.0083
729.2686	-0.0068
729.447	-0.0029
729.6254	-0.0056
729.8038	-0.0034
729.9821	0.0005
730.1605	-0
730.3388	-0.0004
730.5171	-0.0014
730.6954	0.0033
730.8737	-0.002
731.0519	0.0012
731.2302	0.0071
731.4084	0.0043
731.5866	0.0015
731.7648	0.0051
731.9429	0.0087
732.1211	0.0029
732.2992	-0.0005
732.4773	0.0037
732.6554	-0.0068
732.8335	-0.0092
733.0115	-0.0003
733.1896	-0.0142
733.3676	-0.0044
733.5456	-0.0022
733.7235	0.0001
733.9015	0.0012
734.0794	0.0007
734.2574	-0.0014
734.4353	-0.0021
734.6131	-0.0001
734.791	-0.0012
734.9689	-0.0016
735.1467	0.004
735.3245	0.0005
735.5023	-0.0018
735.68	0.0014
735.8578	-0.001
736.0355	0.0118
736.2132	0.0047
736.3909	-0.0027
736.5686	-0.0052
736.7463	-0.0072
736.9239	-0.0001
737.1015	-0.0051
737.2791	-0.0068
737.4567	-0.0078
737.6343	-0.0014
737.8118	-0.0057
737.9894	0.0043
738.1669	-0.0063
738.3444	-0.0031
738.5218	0.0051
738.6993	-0.0013
738.8767	-0.0035
739.0541	-0.0025
739.2315	-0.0054
739.4089	-0.0002
739.5863	-0.0006
739.7636	-0.0039
739.9409	-0.0065
740.1182	-0.002
740.2955	-0.0006
740.4728	0.003
740.65	-0.0023
740.8272	0.0061
741.0044	-0.0036
741.1816	0.0001
741.3588	0.0071
741.5359	0.0006
741.7131	0.0019
741.8902	0.0016
742.0673	0.0004
742.2444	-0.0041
742.4214	-0.0089
742.5985	-0.0033
742.7755	-0.0043
742.9525	0.0027
743.1295	-0.0031
743.3064	-0.0028
743.4834	0.0003
743.6603	-0.0028
743.8372	0.0007
744.0141	-0.0002
744.191	0.0007
744.3678	-0.0063
744.5446	0.0006
744.7215	-0.0087
744.8982	0.0007
745.075	0.0036
745.2518	0.003
745.4285	0.0006
745.6052	0.0034
745.7819	0.0015
745.9586	0.0028
746.1353	-0.004
746.3119	0.0031
746.4885	0.0016
746.6651	-0.0043
746.8417	-0.0065
747.0183	-0.0082
747.1948	-0.0047
747.3714	-0.0033
747.5479	-0.0035
747.7244	0.0038
747.9008	-0.0009
748.0773	0.0028
748.2537	-0.0015
748.4301	0.0041
748.6065	0.0011
748.7829	0.0046
748.9593	0.0014
749.1356	-0.0072
749.3119	0.0047
749.4882	0.0062
749.6645	0.0011
749.8408	0.0074
750.017	-0.0062
750.1933	0.0023
750.3695	-0.0011
750.5457	-0.0104
750.7218	-0.0076
750.898	-0.0019
751.0741	-0.0087
751.2502	-0.005
751.4263	0.0001
751.6024	-0.0028
751.7784	0.0039
751.9545	-0.0008
752.1305	0.0018
752.3065	-0.0055
752.4825	0.0049
752.6584	0.0002
752.8344	-0.0033
753.0103	-0.0013
753.1862	0.007
753.3621	-0.0033
753.5379	-0.006
753.7138	0.0033
753.8896	-0.0039
754.0654	-0.0049
754.2412	-0.0073
754.417	-0.0052
754.5927	-0.0033
754.7685	-0.0122
754.9442	-0.0065
755.1199	-0.0106
755.2956	-0.0076
755.4712	-0.0024
755.6469	-0.0096
755.8225	-0.0104
755.9981	-0.0044
756.1736	-0.0004
756.3492	-0.0061
756.5248	-0.0044
756.7003	-0.0086
756.8758	-0.0083
757.0513	-0.0109
757.2267	-0.0147
757.4022	-0.0066
757.5776	-0.0105
757.753	-0.0105
757.9284	-0.0097
758.1038	-0.0044
758.2791	-0.0083
758.4545	-0.0099
758.6298	-0.0037
758.8051	-0.005
758.9803	-0.0096
759.1556	-0.0068
759.3308	0.0015
759.506	-0.0092
759.6812	-0.0097
759.8564	-0.0076
760.0316	-0.0164
760.2067	-0.0098
760.3819	-0.0043
760.557	-0.0119
760.732	-0.0086
760.9071	-0.0131
761.0821	-0.0092
761.2572	-0.0094
761.4322	-0.0094
761.6072	-0.0161
761.7821	-0.013
761.9571	-0.0076
762.132	-0.0143
762.3069	-0.0051
762.4818	-0.0029
762.6567	-0.0078
762.8316	-0.0014
763.0064	0.0043
763.1812	-0.0024
763.356	0.0052
763.5308	0
763.7055	0.0057
763.8803	-0
764.055	-0.0007
764.2297	0.0024
764.4044	-0.0017
764.579	-0
764.7537	-0.0003
764.9283	-0.0091
765.1029	0.0002
765.2775	0.0028
765.4521	0.0083
765.6266	0.0006
765.8011	0.0042
765.9756	-0.0049
766.1501	0.0048
766.3246	-0.0033
766.4991	-0.0023
766.6735	-0.0071
766.8479	-0.0116
767.0223	0.0011
767.1967	-0.0073
767.371	-0.0019
767.5454	-0.0027
767.7197	-0.0001
767.894	0.0034
768.0683	-0.0017
768.2425	-0.0026
768.4168	-0.0044
768.591	0.0036
768.7652	0.0055
768.9394	0.008
769.1135	0.0061
769.2877	-0.0022
769.4618	0.0032
769.6359	0.004
769.81	0.0022
769.984	-0.0053
770.1581	0.0057
770.3321	0.0012
770.5061	0.0025
770.6801	0.0047
770.8541	0.0035
771.028	0.0008
771.202	0.0069
771.3759	-0.0015
771.5498	0.0002
771.7236	-0.0011
771.8975	-0
772.0713	0.0015
772.2451	0.0026
772.4189	-0.0003
772.5927	-0.0015
772.7665	-0.0053
772.9402	-0.0044
773.1139	0.0012
773.2876	0.005
773.4613	0.0008
773.635	0.0022
773.8086	0.0048
773.9822	0.0035
774.1558	0.0035
774.3294	0.008
774.503	0.0038
774.6765	-0.004
774.8501	0.0102
775.0236	-0.0076
775.1971	-0.0038
775.3705	0.0039
775.544	-0.0031
775.7174	0.0014
775.8908	-0.0058
776.0642	-0.0035
776.2376	0.0002
776.4109	-0.0033
776.5843	0.006
776.7576	-0.0016
776.9309	-0.0004
777.1041	0.0011
777.2774	0.0013
777.4506	-0.0007
777.6238	0.0005
777.797	0.0052
777.9702	-0.0073
778.1434	-0.0061
778.3165	-0.0026
778.4896	-0.0102
778.6627	-0.0033
778.8358	0.0057
779.0089	-0.0009
779.1819	-0.0007
779.3549	-0.0036
779.5279	-0.0012
779.7009	-0.007
779.8739	0.0028
780.0468	-0.0115
780.2197	0.0012
780.3926	0.0003
780.5655	-0.0043
780.7384	-0.0011
780.9112	-0.0098
781.0841	0.0071
781.2569	-0.0002
781.4297	-0.0034
781.6024	-0.0026
781.7752	0.0025
781.9479	-0.0041
782.1206	0.0049
782.2933	-0.0084
782.466	-0.0041
782.6386	-0.0051
782.8113	-0.0194
782.9839	-0.0104
783.1565	-0.0045
783.329	-0.0028
783.5016	-0.0003
783.6741	-0.0074
783.8466	-0.007
784.0191	0.0003
784.1916	0.0006
784.3641	-0.002
784.5365	-0.0024
784.7089	0.0052
784.8813	0.0124
785.0537	0.0128
785.2261	0.0013
785.3984	-0.0123
785.5707	0.0019
785.743	0.0064
785.9153	0.0039
786.0876	-0.0021
786.2598	0.0063
786.432	0.0033
786.6042	0.0016
786.7764	0.006
786.9486	-0.0018
787.1207	-0.0027
787.2928	0.0007
787.4649	-0.0022
787.637	-0.0045
787.8091	-0.0016
787.9811	0.0064
788.1532	0.0025
788.3252	-0.0089
788.4972	-0.0067
788.6691	-0.0106
788.8411	-0.0008
789.013	-0.0051
789.1849	0.0045
789.3568	-0.0004
789.5287	-0.0067
789.7005	0.0034
789.8723	0.0047
790.0442	-0.0136
790.2159	0.0026
790.3877	-0.0081
790.5595	-0.004
790.7312	0.0061
790.9029	-0.0029
791.0746	-0.0119
791.2463	0.006
791.4179	-0.0008
791.5896	0.0046
791.7612	-0.0025
791.9328	0.0042
792.1044	0.0005
792.2759	0.0044
792.4474	0.0021
792.619	-0.0033
792.7905	-0.0043
792.9619	0.0032
793.1334	-0.0039
793.3048	-0.0079
793.4762	-0.0007
793.6476	-0.0168
793.819	-0.011
793.9904	-0.0163
794.1617	-0.0108
794.333	-0.0063
794.5043	-0.0098
794.6756	0.0096
794.8469	0.0128
795.0181	-0.0072
795.1893	0.0012
795.3605	-0.0067
795.5317	-0.01
795.7029	-0.0106
795.874	-0.0054
796.0452	-0.009
796.2163	-0.0059
796.3873	-0.0099
796.5584	-0.0143
796.7294	-0.014
796.9005	-0.0073
797.0715	-0.0134
797.2425	-0.0086
797.4134	-0.016
797.5844	-0.0108
797.7553	-0.0068
797.9262	-0.0037
798.0971	-0.0134
798.2679	-0.0091
798.4388	-0.0205
798.6096	-0.0082
798.7804	-0.0122
798.9512	-0.0142
799.122	-0.0051
799.2927	-0.0157
799.4635	-0.0064
799.6342	-0.0108
799.8049	-0.0034
799.9755	-0.0123
800.1462	-0.0172
800.3168	-0.0006
800.4874	-0.0166
800.658	-0.0179
800.8286	-0.0169
800.9991	-0.0159
801.1696	-0.0063
801.3402	-0.0119
801.5106	-0.0227
801.6811	-0.0208
801.8516	-0.0121
802.022	-0.0218
802.1924	-0.0213
802.3628	-0.0131
802.5332	-0.016
802.7035	-0.0118
802.8739	-0.0019
803.0442	-0.0192
803.2145	-0.015
803.3847	-0.0112
803.555	-0.0166
803.7252	-0.0084
803.8954	-0.0144
804.0656	0.0009
804.2358	-0.0033
804.4059	-0.0016
804.5761	-0.0081
804.7462	-0.0018
804.9163	-0.0096
805.0864	-0.0137
805.2564	-0.0077
805.4264	-0.002
805.5965	-0.0103
805.7665	-0.0089
805.9364	-0.0123
806.1064	-0.0031
806.2763	-0.0104
806.4462	-0.0061
806.6161	-0.0107
806.786	-0.0091
806.9559	-0.003
807.1257	-0.0079
807.2955	-0.0125
807.4653	0.0019
807.6351	-0.0166
807.8048	0.0066
807.9746	0.0074
808.1443	0.0018
808.314	-0.0028
808.4837	0.0012
808.6533	0.0009
808.8229	-0.0021
808.9926	0.008
809.1622	0.0013
809.3317	0.0071
809.5013	0.0117
809.6708	0.0013
809.8403	-0.001
810.0098	0.01
810.1793	-0.0082
810.3488	0.0108
810.5182	-0.0021
810.6876	-0.0064
810.857	-0.0175
811.0264	-0.0132
811.1958	0.0072
811.3651	-0.0086
811.5344	0.0035
811.7037	-0.0111
811.873	0.0003
812.0422	-0.015
812.2115	-0.0005
812.3807	-0.0047
812.5499	-0.0018
812.7191	-0.0062
812.8882	0.0079
813.0574	-0.0078
813.2265	-0.0025
813.3956	-0.0034
813.5646	-0.0137
813.7337	-0.0047
813.9027	0.0051
814.0718	-0.0101
814.2407	0.0093
814.4097	-0.0007
814.5787	0.0031
814.7476	-0.0064
814.9165	0.0055
815.0854	-0.0067
815.2543	0.0044
815.4232	-0.0073
815.592	0.0003
815.7608	0.0014
815.9296	-0.0009
816.0984	-0.0062
816.2671	0.0009
816.4359	-0.002
816.6046	-0.0036
816.7733	0.0051
816.942	0.0043
817.1106	-0.0114
817.2793	-0.0042
817.4479	-0.0117
817.6165	-0.0062
817.785	-0.0087
817.9536	-0.005
818.1221	0.0037
818.2906	-0.0059
818.4591	-0.0165
818.6276	-0.0047
818.7961	-0.0072
818.9645	-0.0027
819.1329	0.0062
819.3013	-0.0087
819.4697	-0.0055
819.638	-0.0119
819.8064	0.0014
819.9747	0.0046
820.143	-0.0063
820.3113	-0.0015
820.4795	0.0174
820.6477	0.0071
820.816	-0.0099
820.9842	-0.0136
821.1523	-0.0158
821.3205	-0.0036
821.4886	-0.0011
821.6567	-0.0069
821.8248	0.0014
821.9929	-0.0058
822.1609	-0.0165
822.329	0.0007
822.497	-0.0055
822.665	-0.0115
822.833	-0.0221
823.0009	-0.0176
823.1688	-0.0018
823.3367	-0.014
823.5046	-0.0012
823.6725	-0.0155
823.8404	-0.0066
824.0082	-0.0054
824.176	-0.0087
824.3438	-0.0046
824.5116	0.012
824.6793	-0.0043
824.847	-0.007
825.0147	-0.007
825.1824	-0.0231
825.3501	-0.0115
825.5177	-0.0048
825.6854	0.0055
825.853	0.0033
826.0206	-0.0066
826.1881	-0.0111
826.3557	-0.0071
826.5232	-0.0066
826.6907	-0.0147
826.8582	0.0066
827.0257	-0.0077
827.1931	0.0213
827.3605	-0.0097
827.528	0.0005
827.6953	-0.002
827.8627	0.0045
828.03	-0.0061
828.1974	-0.0045
828.3647	0.0157
828.532	-0.0058
828.6992	-0.0002
828.8665	-0.0185
829.0337	0.0003
829.2009	-0.0156
829.3681	-0.0187
829.5352	-0.0016
829.7024	0.0012
829.8695	-0.0104
830.0366	-0.0413
830.2037	-0.0147
830.3707	-0.0262
830.5378	-0.0081
830.7048	-0.0257
830.8718	-0
831.0388	-0.0115
831.2057	-0.012
831.3727	-0.0303
831.5396	0.0111
831.7065	0.0093
831.8734	0.0114
832.0402	-0.0203
832.2071	0.0107
832.3739	-0.0023
832.5407	0.0062
832.7075	-0.0081
832.8742	0.0235
833.041	0.0131
833.2077	-0.0275
833.3744	0.0043
833.541	0.004
833.7077	-0.0059
833.8743	0.0087
834.0409	0.0093
834.2075	0.0058
834.3741	0.0086
834.5407	0.0052
834.7072	-0.0123
834.8737	-0.01
835.0402	-0.0132
835.2067	-0.0205
835.3731	-0.0189
835.5395	-0.0072
835.706	-0.0223
835.8723	-0.0148
836.0387	-0.0059
836.2051	0.0007
836.3714	0.0274
836.5377	-0.0033
836.704	-0.0005
836.8703	-0.006
837.0365	0.0146
837.2027	-0.0184
837.3689	-0.0036
837.5351	-0.0094
837.7013	-0.0175
837.8674	0.0094
838.0335	-0.0103
838.1997	-0.0152
838.3657	-0.0054
838.5318	-0.0091
838.6978	-0.0016
838.8639	0.0275
839.0299	0.0062
839.1958	0.0153
839.3618	0.0189
839.5277	0.0163
839.6937	-0.0056
839.8596	0.0071
840.0254	-0.0069
840.1913	0.0105
840.3571	0.0173
840.523	0.0046
840.6888	-0.0111
840.8545	-0.0059
841.0203	-0.0181
841.186	0.0021
841.3517	0.0102
841.5174	-0.0055
841.6831	0.0099
841.8488	0.0151
842.0144	0.0268
842.18	0.0221
842.3456	0.0046
842.5112	-0.0034
842.6767	-0.0013
842.8422	0.0195
843.0077	0.0111
843.1732	-0.017
843.3387	-0.0035
843.5042	0.0153
843.6696	0.027
843.835	-0.0174
844.0004	0.0157
844.1657	0.0193
844.3311	0.0042
844.4964	-0.0205
844.6617	-0.0069
844.827	0.0037
844.9923	0.0129
845.1575	0.0329
845.3227	-0.0172
845.4879	-0.007
845.6531	0.0208
845.8183	-0.0265
845.9834	0.0173
846.1485	-0.0112
846.3136	-0.0509
846.4787	-0.0038
846.6438	0.0028
846.8088	0.0343
846.9738	0.0165
847.1388	-0.0022
847.3038	0.015
847.4687	0.0259
847.6337	0.0426
847.7986	0.0192
847.9635	-0.0025
848.1284	-0.0081
848.2932	-0.0034
848.458	0.0139
848.6228	0.0152
848.7876	-0.0346
848.9524	0.0181
849.1172	-0.0163
849.2819	0.028
849.4466	0.0009
849.6113	-0.006
849.7759	-0.0138
849.9406	0.0214
850.1052	0.0256
850.2698	-0.0027
850.4344	0.0173
850.599	-0.025
850.7635	0.0103
850.928	-0.0024
851.0925	0.0195
851.257	0.0114
851.4215	0.0202
851.5859	0.0279
851.7503	0.0142
851.9147	-0.034
852.0791	0.0305
852.2434	0.0052
852.4078	0.0288
852.5721	-0.0148
852.7364	-0.0689
852.9007	0.0494
853.0649	-0.0028
853.2291	0.0129
853.3934	0.0019
853.5575	-0.0101
853.7217	-0.0159
853.8859	0.0283
854.05	0.0125
854.2141	-0.0123
854.3782	0.0286
854.5423	-0.0331
854.7063	0.0575
854.8703	-0.0018
855.0343	0.0146
855.1983	0.0177
855.3623	-0.0107
855.5262	0.004
855.6901	-0.0029
855.854	0.0039
856.0179	0.0221
856.1818	0.0158
856.3456	-0.0136
856.5094	-0.0455
856.6732	-0.0002
856.837	0.1232
857.0008	0.0459
857.1645	0.0148
857.3282	-0.0086
857.4919	-0.031
857.6556	0.042
857.8192	0.0175
857.9828	0.0412
858.1465	-0.0191
858.31	-0.0147
858.4736	-0.1163
858.6372	-0.0025
858.8007	0.0356
858.9642	0.0059
859.1277	0.0491
859.2911	0.068
859.4546	0.0746
859.618	-0.0638
859.7814	0.0139
859.9448	-0.0392
860.1081	-0.0147
860.2715	0.083
860.4348	0.0347
860.5981	-0.015
860.7614	-0.0784
860.9246	-0.0241
861.0879	-0.1542
861.2511	-0.0095
861.4143	-0.055
861.5774	0.07
861.7406	-0.0458
861.9037	-0.1861
862.0668	-0.0855
862.2299	-0.0418
862.393	-0.0066
862.556	0.1107
862.7191	-0.0073
862.8821	0.0374
863.0451	-0.0074
863.208	-0.1401
863.371	0.2402
863.5339	0.0538
863.6968	-0.1014
863.8597	-0.0563
864.0225	-0.0551
864.1854	0.0542
864.3482	0.0905
864.511	0.0459
864.6737	-0.069
864.8365	0.0041
864.9992	-0.0796
865.1619	-0.062
865.3246	-0.0719
865.4873	0.2369
865.65	-0.0031
865.8126	-0.0126
865.9752	-0.0831
866.1378	0.0103
866.3004	0.0595
866.4629	-0.2448
866.6254	0.1834
866.7879	-0.079
866.9504	-0.0488
867.1129	-0.0797
867.2753	0.0208
867.4377	-0.0738
867.6001	-0.0334
867.7625	0.1652
867.9249	-0.0163
868.0872	-0.0049
868.2495	-0.2221
868.4118	-0.0562
868.5741	-0.065
868.7363	0.1366
868.8986	0.0594
869.0608	-0.1399
869.223	-0.1817
869.3851	0.0676
869.5473	-0.1377
869.7094	0.2718
869.8715	0.0699
870.0336	-0.0104
870.1957	0.0791
870.3577	-0.0106
870.5197	-0.3412
870.6817	-0.0913
870.8437	-0.1164
871.0057	-0.0204
871.1676	0.0704
871.3295	-0.2547
871.4914	0.0183
871.6533	0.0156
871.8151	-0.1784
871.977	0.101
872.1388	-0.0679
872.3006	0.156
872.4623	0.1558
872.6241	-0.1241
872.7858	0.3097
872.9475	0.0703
873.1092	0.0426
873.2709	0.5775
873.4325	-0.3935
873.5941	-0.2015
873.7557	0.2198
873.9173	0.0467
874.0789	0.1731
874.2404	0.0716
874.4019	-0.233
874.5634	0.0122
874.7249	-0.2904
874.8863	-0.2746
875.0478	-0.3571
875.2092	-0.1663
875.3706	0.236
875.5319	0.0069
875.6933	-0.1548
875.8546	-0.2338
876.0159	-0.2806
876.1772	-0.3958
876.3385	-0
876.4997	-0
876.6609	0.0553
876.8221	-0.1819
876.9833	-0.5139
877.1445	-0
877.3056	0.0277
877.4667	-0.0101
877.6278	0.1412
877.7889	0.401
877.9499	-0.8684
878.111	-0.073
878.272	1.2669
878.433	-0.0965
878.5939	0.4517
878.7549	-0
878.9158	-0.0318
879.0767	0.1022
879.2376	0.3116
879.3984	0.2183
879.5593	-0.1163
879.7201	-0
879.8809	-0.0964
880.0417	-0.0936
880.2024	0.2388
880.3632	0.3363
880.5239	-0
880.6846	-0.446
880.8452	-0.0377
881.0059	-0.443
881.1665	-0.1167
881.3271	-0.344
881.4877	-0.2489
881.6483	-0
881.8088	0.1726
881.9693	0.0196
882.1298	0.0196
882.2903	0.0196
