Data from MonoPyChalIsomerACN10uM450nmA_Absorbance_13-11-21-091.txt Node
Date: Tue Jul 09 13:11:21 BST 2024
User: LASERRRRR
Spectrometer: FLMT03099
Trigger mode: 0
Integration Time (sec): 2.000000E-1
Scans to average: 1
Electric dark correction enabled: true
Nonlinearity correction enabled: false
Boxcar width: 0
XAxis mode: Wavelengths
Number of Pixels in Spectrum: 3648
>>>>>Begin Spectral Data<<<<<
179.3399	0.0035
179.5586	0.0035
179.7771	0.0035
179.9957	-0.4604
180.2143	-0
180.4329	-0.0477
180.6514	-0
180.8699	-0
181.0885	0.5151
181.307	0.1951
181.5255	-0
181.744	-0.2331
181.9625	0.3506
182.181	-0
182.3994	0.1213
182.6179	-0.202
182.8363	-0
183.0547	0.0779
183.2732	0.1921
183.4916	0.0667
183.71	-0.0032
183.9284	-0.0133
184.1467	0.0814
184.3651	0.0884
184.5835	0.0777
184.8018	-0.0245
185.0201	0.1779
185.2385	-0.0193
185.4568	-0.1022
185.6751	0.0962
185.8934	-0.0335
186.1117	0.1204
186.3299	-0.0337
186.5482	-0.0422
186.7664	0.0284
186.9847	0.0634
187.2029	0.0929
187.4211	0.143
187.6393	-0.114
187.8575	0.0612
188.0757	0.1028
188.2939	0.075
188.512	-0.0347
188.7302	-0.0163
188.9483	0.0277
189.1665	0.1031
189.3846	0.0599
189.6027	0.0591
189.8208	0.176
190.0389	0.2936
190.257	0.1509
190.475	0.1495
190.6931	0.0659
190.9111	0.1688
191.1292	0.1484
191.3472	0.3029
191.5652	0.2898
191.7832	0.3115
192.0012	0.3286
192.2192	0.4071
192.4371	0.3735
192.6551	0.447
192.873	0.3325
193.091	0.5136
193.3089	0.5336
193.5268	0.5198
193.7447	0.4762
193.9626	0.4531
194.1805	0.4921
194.3984	0.5472
194.6162	0.5736
194.8341	0.4298
195.0519	0.6592
195.2697	0.5193
195.4875	0.5601
195.7054	0.5461
195.9231	0.5805
196.1409	0.6307
196.3587	0.6172
196.5765	0.6402
196.7942	0.6579
197.012	0.672
197.2297	0.6387
197.4474	0.6264
197.6651	0.629
197.8828	0.6674
198.1005	0.8285
198.3182	0.7732
198.5358	0.7368
198.7535	0.7898
198.9711	0.8001
199.1888	0.6499
199.4064	0.7731
199.624	0.7356
199.8416	0.8165
200.0592	0.7909
200.2767	0.7139
200.4943	0.7809
200.7119	0.7914
200.9294	0.8525
201.1469	0.9102
201.3645	0.8638
201.582	0.7974
201.7995	0.7649
202.017	0.8484
202.2344	0.8157
202.4519	0.8891
202.6694	0.8516
202.8868	0.8836
203.1042	0.9351
203.3217	0.9379
203.5391	0.8698
203.7565	0.8696
203.9739	0.8506
204.1913	0.8418
204.4086	0.8808
204.626	0.9866
204.8433	0.8976
205.0607	0.9207
205.278	0.8757
205.4953	0.9956
205.7126	0.9683
205.9299	1.0917
206.1472	0.9239
206.3644	0.9803
206.5817	0.959
206.7989	1.0786
207.0162	1.0609
207.2334	0.9842
207.4506	0.8954
207.6678	0.983
207.885	1.079
208.1022	1.0842
208.3194	1.0451
208.5365	0.9377
208.7537	0.9685
208.9708	0.9942
209.1879	1.007
209.405	1.0186
209.6222	1.0228
209.8392	1.042
210.0563	0.9931
210.2734	1.0086
210.4905	1.018
210.7075	1.0077
210.9245	0.971
211.1416	1.0541
211.3586	1.1311
211.5756	1.0279
211.7926	1.019
212.0096	0.9987
212.2265	0.9846
212.4435	1.003
212.6604	1.0142
212.8774	1.0289
213.0943	1.001
213.3112	0.936
213.5281	1.0527
213.745	0.9617
213.9619	0.9666
214.1788	0.9118
214.3956	1.0141
214.6125	0.9045
214.8293	0.8875
215.0461	0.8977
215.2629	0.8645
215.4798	0.8068
215.6965	0.8397
215.9133	0.8107
216.1301	0.7898
216.3469	0.8149
216.5636	0.8161
216.7803	0.7627
216.9971	0.7764
217.2138	0.722
217.4305	0.7046
217.6472	0.665
217.8639	0.6594
218.0805	0.6239
218.2972	0.5775
218.5138	0.5463
218.7305	0.5147
218.9471	0.4735
219.1637	0.4788
219.3803	0.4293
219.5969	0.3945
219.8135	0.3757
220.0301	0.3644
220.2466	0.3596
220.4632	0.335
220.6797	0.3207
220.8962	0.3159
221.1127	0.2938
221.3292	0.3105
221.5457	0.2915
221.7622	0.2884
221.9787	0.2853
222.1951	0.2789
222.4116	0.2755
222.628	0.2839
222.8444	0.2797
223.0608	0.2617
223.2772	0.267
223.4936	0.2565
223.71	0.2585
223.9264	0.2907
224.1427	0.2714
224.3591	0.2624
224.5754	0.277
224.7917	0.2758
225.008	0.269
225.2243	0.288
225.4406	0.2732
225.6569	0.2778
225.8732	0.2975
226.0894	0.2813
226.3057	0.2881
226.5219	0.2847
226.7381	0.2864
226.9543	0.2927
227.1705	0.2935
227.3867	0.299
227.6029	0.2973
227.8191	0.2998
228.0352	0.2981
228.2513	0.31
228.4675	0.3072
228.6836	0.3195
228.8997	0.3044
229.1158	0.3192
229.3319	0.3137
229.548	0.3242
229.764	0.3258
229.9801	0.321
230.1961	0.3341
230.4121	0.3282
230.6282	0.3389
230.8442	0.3407
231.0602	0.3433
231.2761	0.3372
231.4921	0.3487
231.7081	0.3484
231.924	0.3562
232.14	0.353
232.3559	0.3573
232.5718	0.3676
232.7877	0.3593
233.0036	0.371
233.2195	0.3663
233.4353	0.3549
233.6512	0.3699
233.867	0.3737
234.0829	0.3783
234.2987	0.3846
234.5145	0.3718
234.7303	0.3907
234.9461	0.3899
235.1619	0.3816
235.3776	0.3799
235.5934	0.4125
235.8091	0.392
236.0249	0.3957
236.2406	0.3978
236.4563	0.3896
236.672	0.4057
236.8877	0.3937
237.1034	0.3964
237.319	0.4024
237.5347	0.4014
237.7503	0.411
237.966	0.4137
238.1816	0.416
238.3972	0.403
238.6128	0.4119
238.8284	0.4141
239.0439	0.4077
239.2595	0.4257
239.475	0.4277
239.6906	0.4141
239.9061	0.4224
240.1216	0.4103
240.3371	0.4267
240.5526	0.4235
240.7681	0.4051
240.9836	0.4165
241.199	0.4105
241.4145	0.3979
241.6299	0.404
241.8453	0.396
242.0607	0.3914
242.2761	0.3968
242.4915	0.3782
242.7069	0.383
242.9223	0.3719
243.1376	0.3747
243.353	0.348
243.5683	0.3573
243.7836	0.3468
243.9989	0.3416
244.2142	0.336
244.4295	0.3311
244.6448	0.3203
244.86	0.3192
245.0753	0.3017
245.2905	0.2934
245.5057	0.2976
245.721	0.2996
245.9362	0.2798
246.1514	0.2846
246.3665	0.2759
246.5817	0.2737
246.7969	0.273
247.012	0.2662
247.2271	0.2662
247.4423	0.2686
247.6574	0.2624
247.8725	0.253
248.0876	0.2487
248.3026	0.2495
248.5177	0.2504
248.7328	0.245
248.9478	0.2371
249.1628	0.2391
249.3779	0.2284
249.5929	0.2269
249.8079	0.2262
250.0228	0.2185
250.2378	0.2248
250.4528	0.2162
250.6677	0.2086
250.8827	0.2066
251.0976	0.2254
251.3125	0.2106
251.5274	0.2053
251.7423	0.2091
251.9572	0.2086
252.172	0.208
252.3869	0.2069
252.6017	0.2078
252.8166	0.2089
253.0314	0.1987
253.2462	0.2049
253.461	0.1983
253.6758	0.1957
253.8906	0.1999
254.1053	0.1955
254.3201	0.1975
254.5348	0.1975
254.7496	0.2042
254.9643	0.1909
255.179	0.1982
255.3937	0.1976
255.6083	0.1998
255.823	0.1912
256.0377	0.1895
256.2523	0.1939
256.467	0.1969
256.6816	0.1964
256.8962	0.1954
257.1108	0.197
257.3254	0.1973
257.54	0.1917
257.7545	0.1845
257.9691	0.197
258.1836	0.1882
258.3981	0.1991
258.6127	0.1906
258.8272	0.19
259.0417	0.1899
259.2561	0.2005
259.4706	0.1964
259.6851	0.1924
259.8995	0.1934
260.114	0.1928
260.3284	0.204
260.5428	0.1992
260.7572	0.1977
260.9716	0.1932
261.186	0.1929
261.4003	0.2042
261.6147	0.1914
261.829	0.204
262.0433	0.196
262.2577	0.199
262.472	0.1962
262.6863	0.1843
262.9005	0.1958
263.1148	0.1858
263.3291	0.1869
263.5433	0.1827
263.7576	0.191
263.9718	0.1858
264.186	0.1885
264.4002	0.1772
264.6144	0.1893
264.8286	0.1836
265.0427	0.1779
265.2569	0.1817
265.471	0.1869
265.6851	0.1739
265.8993	0.1737
266.1134	0.1745
266.3275	0.1806
266.5415	0.1713
266.7556	0.1851
266.9697	0.1834
267.1837	0.1732
267.3978	0.1768
267.6118	0.1883
267.8258	0.1899
268.0398	0.2011
268.2538	0.1922
268.4677	0.1897
268.6817	0.1917
268.8957	0.1886
269.1096	0.1875
269.3235	0.1784
269.5374	0.1766
269.7514	0.1644
269.9652	0.1662
270.1791	0.1569
270.393	0.1578
270.6068	0.1542
270.8207	0.155
271.0345	0.1544
271.2483	0.1535
271.4622	0.1571
271.676	0.1503
271.8897	0.1406
272.1035	0.1345
272.3173	0.1422
272.531	0.141
272.7448	0.1421
272.9585	0.1357
273.1722	0.1419
273.3859	0.1363
273.5996	0.139
273.8133	0.1491
274.0269	0.1397
274.2406	0.1399
274.4542	0.1394
274.6679	0.1351
274.8815	0.1386
275.0951	0.144
275.3087	0.1359
275.5223	0.1363
275.7358	0.1345
275.9494	0.1379
276.1629	0.1426
276.3765	0.1418
276.59	0.1421
276.8035	0.1421
277.017	0.1438
277.2305	0.1392
277.444	0.1376
277.6574	0.1363
277.8709	0.1493
278.0843	0.1476
278.2978	0.1429
278.5112	0.1393
278.7246	0.141
278.938	0.1478
279.1513	0.1524
279.3647	0.1517
279.5781	0.1406
279.7914	0.1436
280.0047	0.1454
280.2181	0.1484
280.4314	0.147
280.6447	0.1493
280.8579	0.1511
281.0712	0.1495
281.2845	0.1525
281.4977	0.1494
281.711	0.1444
281.9242	0.1553
282.1374	0.148
282.3506	0.1534
282.5638	0.1513
282.7769	0.1504
282.9901	0.153
283.2033	0.1562
283.4164	0.1574
283.6295	0.1599
283.8426	0.1569
284.0557	0.151
284.2688	0.1547
284.4819	0.1569
284.695	0.1494
284.908	0.1542
285.1211	0.1675
285.3341	0.155
285.5471	0.1599
285.7601	0.1491
285.9731	0.1539
286.1861	0.162
286.3991	0.1587
286.612	0.1583
286.825	0.1608
287.0379	0.1582
287.2508	0.1516
287.4637	0.1585
287.6766	0.1567
287.8895	0.1583
288.1024	0.1601
288.3152	0.155
288.5281	0.156
288.7409	0.157
288.9538	0.1649
289.1666	0.1585
289.3794	0.1648
289.5922	0.1563
289.8049	0.155
290.0177	0.1617
290.2304	0.1599
290.4432	0.1684
290.6559	0.1599
290.8686	0.1607
291.0813	0.1667
291.294	0.1638
291.5067	0.1582
291.7194	0.1592
291.932	0.1622
292.1447	0.1627
292.3573	0.1561
292.5699	0.1686
292.7825	0.1633
292.9951	0.1689
293.2077	0.1544
293.4203	0.1658
293.6328	0.1677
293.8454	0.1539
294.0579	0.163
294.2704	0.1653
294.4829	0.1672
294.6954	0.1606
294.9079	0.1683
295.1204	0.1618
295.3328	0.1565
295.5453	0.1528
295.7577	0.1561
295.9701	0.1542
296.1825	0.1652
296.3949	0.1549
296.6073	0.1714
296.8197	0.155
297.0321	0.1646
297.2444	0.1592
297.4567	0.1506
297.6691	0.1589
297.8814	0.1531
298.0937	0.158
298.306	0.1603
298.5182	0.1545
298.7305	0.1604
298.9428	0.1547
299.155	0.1523
299.3672	0.1628
299.5794	0.162
299.7916	0.1605
300.0038	0.1523
300.216	0.1765
300.4282	0.1581
300.6403	0.1608
300.8525	0.1574
301.0646	0.1568
301.2767	0.161
301.4888	0.1594
301.7009	0.1584
301.913	0.1567
302.125	0.1613
302.3371	0.1605
302.5491	0.1545
302.7612	0.161
302.9732	0.1555
303.1852	0.157
303.3972	0.1572
303.6092	0.157
303.8211	0.1589
304.0331	0.1479
304.245	0.1569
304.457	0.1535
304.6689	0.1614
304.8808	0.1562
305.0927	0.1527
305.3046	0.147
305.5164	0.1501
305.7283	0.1506
305.9401	0.1541
306.152	0.1539
306.3638	0.1524
306.5756	0.1445
306.7874	0.1453
306.9992	0.139
307.2109	0.1399
307.4227	0.1434
307.6344	0.1309
307.8462	0.1304
308.0579	0.1289
308.2696	0.1296
308.4813	0.1272
308.693	0.1258
308.9046	0.1245
309.1163	0.1213
309.328	0.1152
309.5396	0.1176
309.7512	0.125
309.9628	0.1183
310.1744	0.1232
310.386	0.1112
310.5976	0.1154
310.8091	0.1088
311.0207	0.1156
311.2322	0.1105
311.4437	0.1166
311.6552	0.1105
311.8667	0.1092
312.0782	0.1108
312.2897	0.1065
312.5012	0.1106
312.7126	0.0984
312.924	0.0976
313.1355	0.0992
313.3469	0.1076
313.5583	0.0971
313.7696	0.1087
313.981	0.1016
314.1924	0.0972
314.4037	0.0924
314.6151	0.0968
314.8264	0.1011
315.0377	0.0987
315.249	0.1034
315.4603	0.1004
315.6716	0.0997
315.8828	0.0979
316.0941	0.091
316.3053	0.0905
316.5165	0.0946
316.7277	0.0967
316.9389	0.0988
317.1501	0.0965
317.3613	0.0918
317.5724	0.0882
317.7836	0.0883
317.9947	0.1027
318.2058	0.0881
318.417	0.089
318.6281	0.0962
318.8391	0.0903
319.0502	0.0893
319.2613	0.0958
319.4723	0.0978
319.6834	0.0899
319.8944	0.0998
320.1054	0.0906
320.3164	0.1015
320.5274	0.0903
320.7383	0.0928
320.9493	0.0877
321.1602	0.0929
321.3712	0.0957
321.5821	0.0893
321.793	0.0863
322.0039	0.0864
322.2148	0.0961
322.4257	0.0926
322.6365	0.0824
322.8474	0.092
323.0582	0.1117
323.269	0.0953
323.4798	0.1015
323.6906	0.1015
323.9014	0.0929
324.1122	0.0982
324.3229	0.0948
324.5337	0.0878
324.7444	0.0924
324.9551	0.0987
325.1658	0.1023
325.3765	0.0982
325.5872	0.093
325.7979	0.1021
326.0085	0.1011
326.2192	0.0962
326.4298	0.1047
326.6404	0.0964
326.851	0.0938
327.0616	0.0965
327.2722	0.1046
327.4828	0.0947
327.6933	0.101
327.9039	0.0923
328.1144	0.098
328.3249	0.1011
328.5354	0.0909
328.7459	0.098
328.9564	0.0993
329.1669	0.0988
329.3773	0.102
329.5878	0.1003
329.7982	0.1039
330.0086	0.0995
330.219	0.1072
330.4294	0.0914
330.6398	0.0999
330.8502	0.0998
331.0605	0.1016
331.2708	0.1016
331.4812	0.1028
331.6915	0.1033
331.9018	0.0992
332.1121	0.0945
332.3224	0.1037
332.5326	0.0967
332.7429	0.1065
332.9531	0.0993
333.1633	0.1057
333.3735	0.107
333.5837	0.1007
333.7939	0.1026
334.0041	0.1046
334.2143	0.0981
334.4244	0.0976
334.6346	0.0933
334.8447	0.1093
335.0548	0.11
335.2649	0.0982
335.475	0.0938
335.685	0.1085
335.8951	0.1068
336.1051	0.0969
336.3152	0.1117
336.5252	0.1061
336.7352	0.1011
336.9452	0.0999
337.1552	0.1116
337.3652	0.1058
337.5751	0.1015
337.7851	0.1008
337.995	0.1045
338.2049	0.1055
338.4148	0.1076
338.6247	0.1085
338.8346	0.1099
339.0445	0.1014
339.2543	0.1153
339.4642	0.1092
339.674	0.11
339.8838	0.1088
340.0936	0.1121
340.3034	0.1172
340.5132	0.1091
340.7229	0.1214
340.9327	0.1166
341.1424	0.1136
341.3522	0.1175
341.5619	0.1243
341.7716	0.1168
341.9813	0.1166
342.1909	0.1231
342.4006	0.1138
342.6102	0.1073
342.8199	0.1132
343.0295	0.1155
343.2391	0.119
343.4487	0.1186
343.6583	0.1171
343.8679	0.1193
344.0774	0.1179
344.287	0.1285
344.4965	0.1154
344.706	0.1322
344.9155	0.1279
345.125	0.1262
345.3345	0.1284
345.544	0.1108
345.7534	0.1277
345.9629	0.1302
346.1723	0.1292
346.3817	0.1253
346.5911	0.1307
346.8005	0.1248
347.0099	0.1217
347.2193	0.1332
347.4286	0.1317
347.638	0.1349
347.8473	0.1348
348.0566	0.1382
348.2659	0.1231
348.4752	0.1286
348.6845	0.1242
348.8937	0.1377
349.103	0.1336
349.3122	0.1299
349.5214	0.1315
349.7306	0.1323
349.9398	0.127
350.149	0.138
350.3582	0.1276
350.5674	0.1347
350.7765	0.1355
350.9856	0.1352
351.1948	0.1387
351.4039	0.13
351.613	0.1467
351.822	0.1442
352.0311	0.1304
352.2402	0.1415
352.4492	0.1382
352.6582	0.1424
352.8672	0.1401
353.0762	0.1456
353.2852	0.1536
353.4942	0.1445
353.7032	0.1402
353.9121	0.1513
354.1211	0.1576
354.33	0.1395
354.5389	0.1558
354.7478	0.1465
354.9567	0.1442
355.1655	0.1475
355.3744	0.1475
355.5833	0.1529
355.7921	0.1509
356.0009	0.1446
356.2097	0.1568
356.4185	0.1552
356.6273	0.1558
356.8361	0.1522
357.0448	0.1524
357.2536	0.1542
357.4623	0.1442
357.671	0.1589
357.8797	0.1662
358.0884	0.1529
358.2971	0.1606
358.5057	0.1675
358.7144	0.1686
358.923	0.1712
359.1316	0.1572
359.3402	0.1698
359.5488	0.1574
359.7574	0.1717
359.966	0.1741
360.1746	0.1679
360.3831	0.1742
360.5916	0.1766
360.8002	0.1737
361.0087	0.1757
361.2172	0.1739
361.4256	0.179
361.6341	0.1847
361.8426	0.177
362.051	0.1699
362.2594	0.1707
362.4678	0.1794
362.6762	0.1795
362.8846	0.1792
363.093	0.1807
363.3014	0.1866
363.5097	0.1843
363.718	0.1882
363.9264	0.1863
364.1347	0.1946
364.343	0.1871
364.5513	0.1809
364.7595	0.1922
364.9678	0.1906
365.176	0.1912
365.3842	0.1881
365.5925	0.1913
365.8007	0.1852
366.0089	0.2047
366.217	0.1934
366.4252	0.2014
366.6333	0.2035
366.8415	0.1918
367.0496	0.2034
367.2577	0.2056
367.4658	0.2019
367.6739	0.2021
367.882	0.2079
368.09	0.2108
368.2981	0.2054
368.5061	0.2032
368.7141	0.2044
368.9221	0.1925
369.1301	0.2087
369.3381	0.212
369.5461	0.2126
369.754	0.216
369.962	0.1996
370.1699	0.2127
370.3778	0.2109
370.5857	0.2125
370.7936	0.2178
371.0015	0.2143
371.2093	0.2053
371.4172	0.2187
371.625	0.2137
371.8328	0.2238
372.0406	0.2328
372.2484	0.2234
372.4562	0.2342
372.664	0.2184
372.8717	0.2147
373.0795	0.22
373.2872	0.23
373.4949	0.2211
373.7026	0.2155
373.9103	0.221
374.118	0.2252
374.3256	0.2179
374.5333	0.2167
374.7409	0.2188
374.9485	0.2293
375.1561	0.226
375.3637	0.2234
375.5713	0.2321
375.7789	0.236
375.9864	0.228
376.194	0.237
376.4015	0.2319
376.609	0.2297
376.8165	0.2342
377.024	0.2237
377.2315	0.2366
377.4389	0.2322
377.6464	0.2203
377.8538	0.2405
378.0612	0.2337
378.2686	0.2346
378.476	0.2294
378.6834	0.234
378.8908	0.2475
379.0981	0.2452
379.3055	0.2399
379.5128	0.2364
379.7201	0.2439
379.9274	0.2434
380.1347	0.2493
380.342	0.245
380.5492	0.2443
380.7565	0.2359
380.9637	0.2489
381.1709	0.2537
381.3781	0.2436
381.5853	0.2427
381.7925	0.2417
381.9997	0.2477
382.2068	0.2469
382.4139	0.2504
382.6211	0.253
382.8282	0.249
383.0353	0.2551
383.2424	0.2542
383.4494	0.2637
383.6565	0.2401
383.8635	0.2628
384.0706	0.2561
384.2776	0.2424
384.4846	0.2468
384.6916	0.2617
384.8986	0.2564
385.1055	0.2557
385.3125	0.2686
385.5194	0.2566
385.7263	0.256
385.9333	0.2554
386.1402	0.252
386.347	0.2798
386.5539	0.2629
386.7608	0.2582
386.9676	0.2556
387.1744	0.254
387.3813	0.2553
387.5881	0.2532
387.7948	0.2518
388.0016	0.2593
388.2084	0.2644
388.4151	0.2508
388.6219	0.2427
388.8286	0.2628
389.0353	0.2532
389.242	0.2439
389.4487	0.2346
389.6553	0.2472
389.862	0.2414
390.0686	0.2432
390.2753	0.2325
390.4819	0.2433
390.6885	0.2417
390.8951	0.2439
391.1016	0.2414
391.3082	0.2364
391.5147	0.2451
391.7213	0.2321
391.9278	0.2381
392.1343	0.2452
392.3408	0.2273
392.5473	0.2297
392.7537	0.241
392.9602	0.2242
393.1666	0.2373
393.373	0.2386
393.5794	0.228
393.7858	0.2251
393.9922	0.2249
394.1986	0.2153
394.4049	0.231
394.6113	0.2195
394.8176	0.2099
395.0239	0.2204
395.2302	0.2187
395.4365	0.2242
395.6428	0.2155
395.8491	0.2264
396.0553	0.2096
396.2615	0.2145
396.4678	0.2235
396.674	0.2124
396.8802	0.2188
397.0863	0.2165
397.2925	0.2185
397.4987	0.2039
397.7048	0.2031
397.9109	0.2188
398.117	0.2074
398.3231	0.2227
398.5292	0.2037
398.7353	0.2099
398.9413	0.2112
399.1474	0.214
399.3534	0.2107
399.5594	0.2043
399.7654	0.2093
399.9714	0.2034
400.1774	0.2034
400.3833	0.2098
400.5893	0.2081
400.7952	0.2107
401.0011	0.2068
401.207	0.2126
401.4129	0.2049
401.6188	0.1933
401.8247	0.2145
402.0305	0.1986
402.2364	0.2199
402.4422	0.2095
402.648	0.2193
402.8538	0.2084
403.0596	0.2067
403.2654	0.2039
403.4711	0.2143
403.6768	0.2214
403.8826	0.2258
404.0883	0.208
404.294	0.2057
404.4997	0.2055
404.7054	0.2013
404.911	0.2241
405.1167	0.2212
405.3223	0.2093
405.5279	0.2079
405.7335	0.2088
405.9391	0.2125
406.1447	0.2044
406.3502	0.2117
406.5558	0.1985
406.7613	0.203
406.9668	0.2069
407.1724	0.2147
407.3778	0.2157
407.5833	0.2016
407.7888	0.219
407.9942	0.2091
408.1997	0.2074
408.4051	0.2028
408.6105	0.2154
408.8159	0.2308
409.0213	0.2018
409.2267	0.2021
409.432	0.2103
409.6374	0.2135
409.8427	0.2103
410.048	0.2116
410.2533	0.1962
410.4586	0.2065
410.6639	0.2005
410.8691	0.2072
411.0744	0.2032
411.2796	0.2035
411.4848	0.2051
411.69	0.2203
411.8952	0.207
412.1004	0.202
412.3056	0.2164
412.5107	0.2155
412.7158	0.2032
412.921	0.2037
413.1261	0.1958
413.3312	0.2182
413.5362	0.2147
413.7413	0.2034
413.9464	0.2119
414.1514	0.2054
414.3564	0.2051
414.5614	0.1956
414.7664	0.2062
414.9714	0.1963
415.1764	0.2117
415.3813	0.2037
415.5863	0.1977
415.7912	0.2118
415.9961	0.2026
416.201	0.2109
416.4059	0.1947
416.6108	0.2051
416.8156	0.1977
417.0205	0.2072
417.2253	0.2025
417.4301	0.201
417.6349	0.1996
417.8397	0.2021
418.0445	0.1965
418.2492	0.1935
418.454	0.1998
418.6587	0.1945
418.8634	0.1908
419.0681	0.1947
419.2728	0.1975
419.4775	0.1771
419.6822	0.1994
419.8868	0.191
420.0915	0.1918
420.2961	0.189
420.5007	0.1996
420.7053	0.1957
420.9099	0.1932
421.1144	0.198
421.319	0.1866
421.5235	0.2048
421.728	0.1783
421.9325	0.1898
422.137	0.1795
422.3415	0.1945
422.546	0.1861
422.7504	0.1847
422.9549	0.1912
423.1593	0.1774
423.3637	0.1904
423.5681	0.1881
423.7725	0.1773
423.9769	0.184
424.1812	0.1842
424.3856	0.187
424.5899	0.1826
424.7942	0.1759
424.9985	0.1836
425.2028	0.156
425.4071	0.1806
425.6113	0.1812
425.8156	0.1701
426.0198	0.1786
426.224	0.1618
426.4282	0.1645
426.6324	0.1617
426.8366	0.165
427.0407	0.1642
427.2449	0.1683
427.449	0.1593
427.6531	0.1705
427.8572	0.1506
428.0613	0.1567
428.2654	0.1507
428.4694	0.1621
428.6735	0.1637
428.8775	0.1534
429.0815	0.1594
429.2855	0.1534
429.4895	0.1408
429.6935	0.1466
429.8975	0.1462
430.1014	0.1428
430.3053	0.1314
430.5093	0.1582
430.7132	0.1461
430.9171	0.1403
431.1209	0.1508
431.3248	0.1488
431.5286	0.1373
431.7325	0.1325
431.9363	0.1334
432.1401	0.1355
432.3439	0.1243
432.5477	0.1248
432.7514	0.1311
432.9552	0.1306
433.1589	0.1277
433.3627	0.1316
433.5664	0.1161
433.7701	0.1181
433.9737	0.1046
434.1774	0.1174
434.3811	0.1112
434.5847	0.1153
434.7883	0.1092
434.9919	0.1114
435.1955	0.0988
435.3991	0.114
435.6027	0.0979
435.8062	0.0955
436.0098	0.1105
436.2133	0.102
436.4168	0.1006
436.6203	0.0884
436.8238	0.0976
437.0272	0.0864
437.2307	0.0854
437.4341	0.0988
437.6375	0.098
437.841	0.0848
438.0443	0.0882
438.2477	0.0941
438.4511	0.0948
438.6545	0.0831
438.8578	0.0809
439.0611	0.0819
439.2644	0.0893
439.4677	0.0855
439.671	0.0718
439.8743	0.0822
440.0775	0.0747
440.2808	0.0708
440.484	0.0774
440.6872	0.059
440.8904	0.0678
441.0936	0.066
441.2967	0.0621
441.4999	0.0585
441.703	0.0651
441.9062	0.0645
442.1093	0.0677
442.3124	0.0519
442.5155	0.0641
442.7185	0.0495
442.9216	0.0615
443.1246	0.0603
443.3276	0.0542
443.5307	0.054
443.7337	0.0576
443.9366	0.0576
444.1396	0.0524
444.3426	0.0479
444.5455	0.0391
444.7484	0.0388
444.9513	0.0458
445.1542	0.0518
445.3571	0.0424
445.56	0.0369
445.7628	0.0411
445.9657	0.0436
446.1685	0.0405
446.3713	0.0355
446.5741	0.042
446.7769	0.0344
446.9797	0.0342
447.1824	0.0425
447.3852	0.0379
447.5879	0.0382
447.7906	0.0281
447.9933	0.0344
448.196	0.0444
448.3986	0.0208
448.6013	0.034
448.8039	0.0371
449.0066	0.022
449.2092	0.024
449.4118	0.0283
449.6143	0.0133
449.8169	0.0132
450.0195	0.0165
450.222	0.008
450.4245	0.0111
450.627	0.0241
450.8295	0.0238
451.032	0.0274
451.2345	0.0107
451.4369	0.0195
451.6394	0.014
451.8418	0.0224
452.0442	0.0091
452.2466	0.0139
452.449	0.0168
452.6513	0.0183
452.8537	0.0211
453.056	0.0083
453.2583	0.0134
453.4607	0.0244
453.663	0.0295
453.8652	0.0203
454.0675	0.0185
454.2697	0.014
454.472	0.0137
454.6742	0.0145
454.8764	0.0119
455.0786	0.021
455.2808	0.007
455.4829	0.0041
455.6851	0.007
455.8872	0.0021
456.0893	0.0055
456.2915	0.0164
456.4935	0.0082
456.6956	0.0072
456.8977	0.0092
457.0997	0.0036
457.3018	0.0115
457.5038	0.0001
457.7058	-0.0009
457.9078	0.0075
458.1098	0.0047
458.3117	0.0038
458.5137	0.0046
458.7156	0.009
458.9175	0.0003
459.1194	-0.0051
459.3213	0.0036
459.5232	0.0039
459.725	0.001
459.9269	-0.0002
460.1287	0.009
460.3305	-0.0048
460.5323	0.0019
460.7341	0.0022
460.9359	0.0041
461.1376	-0.0023
461.3394	0.0019
461.5411	0.0124
461.7428	-0.0026
461.9445	0.0003
462.1462	-0.0024
462.3479	-0.0016
462.5495	0.0005
462.7512	0.0074
462.9528	-0.0089
463.1544	0.0007
463.356	-0.0001
463.5576	-0.0057
463.7592	-0.0082
463.9607	0.0136
464.1623	0.0015
464.3638	0.0067
464.5653	0.0044
464.7668	0.0045
464.9683	0.0077
465.1697	0.0014
465.3712	0.0013
465.5726	0.0024
465.7741	-0.0107
465.9755	-0.0082
466.1769	-0.0144
466.3782	-0.0047
466.5796	-0.0095
466.7809	0.0017
466.9823	-0.0018
467.1836	0.0012
467.3849	0.0031
467.5862	-0.0054
467.7875	-0.0097
467.9887	-0.0029
468.19	-0.0138
468.3912	-0.0032
468.5924	-0.0041
468.7936	-0.0094
468.9948	0.0046
469.196	-0.0002
469.3972	0.0053
469.5983	-0.0015
469.7994	-0.0026
470.0006	-0.0069
470.2017	-0.0009
470.4027	-0.0051
470.6038	0.0003
470.8049	-0.0097
471.0059	-0.0057
471.2069	0.0051
471.408	-0.0001
471.6089	-0.0096
471.8099	-0.0055
472.0109	0.0002
472.2119	-0.0159
472.4128	-0.0043
472.6137	-0.0141
472.8146	-0.0123
473.0155	-0.0133
473.2164	-0.0206
473.4173	-0.0059
473.6181	0.0033
473.819	-0.0118
474.0198	-0.0029
474.2206	-0.0034
474.4214	-0.0097
474.6222	-0.0062
474.8229	-0.0115
475.0237	-0.0072
475.2244	-0.0086
475.4251	-0.0078
475.6258	-0.003
475.8265	-0.0033
476.0272	-0.0065
476.2278	-0.0068
476.4285	-0.0017
476.6291	-0.0017
476.8297	-0.0139
477.0303	-0.0104
477.2309	-0.002
477.4315	0.0007
477.632	-0.0128
477.8326	-0.0086
478.0331	-0.0104
478.2336	-0.0031
478.4341	-0.0077
478.6346	-0.0039
478.8351	-0.0107
479.0355	-0.016
479.236	-0.0093
479.4364	-0.0104
479.6368	-0.0023
479.8372	-0.011
480.0376	-0.0093
480.2379	-0.0023
480.4383	0.0047
480.6386	-0.0185
480.8389	-0.0129
481.0392	-0.0102
481.2395	-0.0104
481.4398	-0.0007
481.6401	-0.0131
481.8403	-0.0006
482.0405	-0.0077
482.2408	0.0017
482.441	-0.0017
482.6411	0.0075
482.8413	-0.0078
483.0415	-0.0074
483.2416	-0.004
483.4417	-0.0058
483.6419	-0.002
483.8419	-0.0143
484.042	-0.0055
484.2421	-0.0125
484.4422	-0.0037
484.6422	-0.0067
484.8422	-0.0038
485.0422	-0.0112
485.2422	-0.0071
485.4422	-0.0045
485.6422	-0.0054
485.8421	-0.0032
486.042	-0.0045
486.242	-0.007
486.4419	-0.0053
486.6417	-0.0077
486.8416	-0.0036
487.0415	-0.0105
487.2413	-0.0096
487.4411	-0.0041
487.641	-0.0071
487.8408	-0.0119
488.0405	-0.0105
488.2403	-0.0114
488.4401	-0.0066
488.6398	-0.0103
488.8395	-0.0129
489.0392	-0.0071
489.2389	-0.004
489.4386	-0.0018
489.6383	-0.0076
489.8379	-0.0036
490.0376	-0.0082
490.2372	-0.0014
490.4368	-0.0047
490.6364	-0.0078
490.836	-0.006
491.0355	-0.0095
491.2351	-0.0155
491.4346	-0.0073
491.6341	-0.0086
491.8336	-0.0093
492.0331	-0.0125
492.2326	-0.0113
492.432	-0.0083
492.6315	-0.0086
492.8309	-0.0033
493.0303	-0.0014
493.2297	-0.0018
493.4291	-0.0095
493.6284	-0.0037
493.8278	-0.0031
494.0271	-0.0063
494.2264	-0.0106
494.4257	-0.0041
494.625	-0.0045
494.8243	-0.006
495.0236	-0.0121
495.2228	-0.0092
495.422	-0.0057
495.6213	-0.0051
495.8205	-0.0073
496.0196	-0.0103
496.2188	-0.006
496.418	-0.0041
496.6171	-0.0061
496.8162	-0.0102
497.0153	-0.0028
497.2144	0.0043
497.4135	0.0006
497.6126	-0.0065
497.8116	-0.0034
498.0107	-0.0032
498.2097	-0.0075
498.4087	-0.0074
498.6077	-0.0091
498.8067	-0.0107
499.0056	-0.0002
499.2046	0.0046
499.4035	-0.0127
499.6024	-0.0056
499.8013	0.0027
500.0002	-0.0071
500.199	-0.0047
500.3979	-0.0033
500.5967	-0.0114
500.7956	-0.0141
500.9944	-0.0014
501.1932	-0.0072
501.3919	-0.0111
501.5907	-0.0093
501.7895	0.0002
501.9882	-0.0116
502.1869	-0.0058
502.3856	-0.006
502.5843	-0.012
502.783	-0.0134
502.9816	-0.0079
503.1803	-0.0057
503.3789	-0.0014
503.5775	-0.004
503.7761	-0.0051
503.9747	-0.0113
504.1732	-0.0071
504.3718	-0.0033
504.5703	-0.0079
504.7689	-0.0063
504.9674	-0.0025
505.1658	-0.0062
505.3643	-0.0026
505.5628	0.0056
505.7612	-0.0093
505.9597	-0.0107
506.1581	-0.0083
506.3565	-0.0098
506.5549	-0.0061
506.7532	-0.0121
506.9516	0.0018
507.1499	-0.0015
507.3482	-0.0109
507.5465	-0.006
507.7448	-0.0032
507.9431	-0.0006
508.1414	-0.0082
508.3396	-0.0053
508.5379	-0.0071
508.7361	-0.0029
508.9343	-0.0093
509.1325	-0.011
509.3306	-0.0085
509.5288	-0.0016
509.7269	-0.01
509.9251	-0.0076
510.1232	-0.0037
510.3213	-0.006
510.5193	-0.0029
510.7174	-0.003
510.9154	-0.0042
511.1135	-0.0104
511.3115	-0.0137
511.5095	-0.0119
511.7075	-0.0005
511.9055	-0.0123
512.1034	-0.0087
512.3014	-0.0027
512.4993	-0.0057
512.6972	-0.0059
512.8951	-0.0077
513.093	-0.0088
513.2908	-0.0063
513.4887	-0.0048
513.6865	-0.0027
513.8844	-0.0065
514.0822	0.0004
514.2799	-0.0104
514.4777	-0.0068
514.6755	-0.0007
514.8732	-0.0104
515.0709	-0.0085
515.2687	-0.0069
515.4664	-0.0104
515.664	-0.0108
515.8617	-0.0069
516.0594	-0.0069
516.257	-0.0061
516.4546	-0.0113
516.6522	-0.0098
516.8498	-0.0159
517.0474	-0.0051
517.2449	-0.0132
517.4425	-0.0022
517.64	-0.004
517.8375	-0.0046
518.035	-0.0024
518.2325	-0.0106
518.43	-0.0002
518.6274	-0.0117
518.8249	-0.0054
519.0223	-0.0096
519.2197	-0.0109
519.4171	-0.0031
519.6145	-0.0012
519.8118	-0.0068
520.0092	-0.0006
520.2065	-0.0139
520.4038	-0.0036
520.6011	-0.0084
520.7984	-0.0064
520.9956	-0.0138
521.1929	-0.0059
521.3901	-0.0033
521.5874	-0.0069
521.7846	0.0054
521.9818	-0.0072
522.1789	-0.0074
522.3761	-0.0062
522.5732	-0.0023
522.7704	-0.0066
522.9675	-0.0037
523.1646	-0.0017
523.3617	-0.0012
523.5587	-0.0103
523.7558	-0.0014
523.9528	-0.0091
524.1498	-0.0062
524.3468	-0.0028
524.5438	-0.0065
524.7408	-0.0095
524.9378	-0.0054
525.1347	0.0013
525.3316	-0.0104
525.5285	-0.0064
525.7254	-0.0127
525.9223	-0.0011
526.1192	-0.0071
526.316	-0.001
526.5129	-0.0093
526.7097	-0.012
526.9065	-0.0078
527.1033	-0.0044
527.3	-0.0083
527.4968	-0.0062
527.6935	-0.0058
527.8903	-0.0055
528.087	-0.0081
528.2837	-0.0051
528.4804	-0.0006
528.677	-0.0053
528.8737	-0.0106
529.0703	-0.0054
529.2669	-0.0011
529.4635	-0.0007
529.6601	-0.0004
529.8567	-0.0054
530.0532	-0.0061
530.2498	-0.0089
530.4463	-0.0041
530.6428	0.0016
530.8393	-0.0015
531.0358	-0.0115
531.2322	-0.0082
531.4287	-0.0084
531.6251	0.0013
531.8215	0.0001
532.0179	-0.0119
532.2143	-0.0011
532.4107	-0.002
532.607	-0.0092
532.8034	-0.0052
532.9997	-0.0026
533.196	-0.0137
533.3923	-0.0051
533.5886	-0.0064
533.7848	-0.0016
533.9811	-0.0009
534.1773	-0.0082
534.3735	-0.0048
534.5697	-0.0107
534.7659	-0.006
534.9621	-0.006
535.1582	-0.0098
535.3544	-0.0102
535.5505	0.0012
535.7466	-0.0044
535.9427	-0.0026
536.1387	-0.0033
536.3348	-0.0003
536.5308	-0.0053
536.7269	-0.0019
536.9229	-0.0054
537.1189	-0.0033
537.3148	-0.0041
537.5108	-0.0004
537.7068	-0.0082
537.9027	-0.0039
538.0986	0.0002
538.2945	-0.0086
538.4904	-0.0141
538.6863	-0.0078
538.8821	-0.0055
539.078	-0.006
539.2738	-0.0026
539.4696	-0.0091
539.6654	-0.0061
539.8611	-0.0101
540.0569	-0.0064
540.2526	-0.0086
540.4484	0.0012
540.6441	-0.0031
540.8398	-0.0082
541.0355	-0.0065
541.2311	-0.0007
541.4268	0.0004
541.6224	-0.0056
541.818	-0.0073
542.0136	-0.0036
542.2092	-0.0096
542.4048	-0.0062
542.6003	-0.0064
542.7959	-0.0024
542.9914	-0.0066
543.1869	-0.0089
543.3824	-0.0014
543.5779	-0.0141
543.7734	-0.0141
543.9688	-0.0132
544.1642	-0.0041
544.3596	-0.0061
544.555	-0.0107
544.7504	-0.0063
544.9458	-0.0052
545.1411	0.0034
545.3365	-0.0066
545.5318	0.0036
545.7271	0.0043
545.9224	0.0007
546.1177	-0.0092
546.3129	0.0009
546.5081	-0.0034
546.7034	-0.0122
546.8986	-0.0036
547.0938	-0.0113
547.289	-0.0065
547.4841	-0.0061
547.6793	-0.0063
547.8744	-0.0005
548.0695	-0.0097
548.2646	-0.0091
548.4597	-0.0019
548.6548	-0.0057
548.8498	-0.008
549.0448	-0.0048
549.2399	-0.0066
549.4349	-0.0045
549.6298	-0.0047
549.8248	0.0015
550.0198	-0.0024
550.2147	0.0014
550.4096	-0.0046
550.6045	-0.0061
550.7994	-0.0018
550.9943	-0.0031
551.1892	-0.0093
551.384	-0.0128
551.5788	-0.0091
551.7737	-0.0046
551.9685	-0.0153
552.1632	-0.0053
552.358	-0.0058
552.5528	-0.0069
552.7475	-0.008
552.9422	-0.0067
553.1369	-0.0085
553.3316	0.0013
553.5263	-0.0075
553.7209	-0.008
553.9156	-0.0085
554.1102	-0.0074
554.3048	-0.0133
554.4994	-0.0056
554.694	0.0018
554.8885	-0.0081
555.0831	-0.0072
555.2776	-0.0005
555.4721	-0.0071
555.6666	-0.0081
555.8611	-0.0042
556.0555	-0.0074
556.25	-0.0034
556.4444	-0.0049
556.6388	-0.0137
556.8332	-0.0074
557.0276	-0.0088
557.222	-0.0047
557.4163	-0.0015
557.6107	-0.0095
557.805	-0.0115
557.9993	-0.0066
558.1936	-0.0084
558.3879	0.0025
558.5821	-0.005
558.7764	-0.0106
558.9706	-0.0075
559.1648	0.0005
559.359	-0.0111
559.5532	-0.0053
559.7473	-0.0084
559.9415	-0.0055
560.1356	-0.011
560.3297	-0.0116
560.5238	-0.0102
560.7179	-0.0055
560.9119	-0.0029
561.106	-0.0066
561.3	-0.0031
561.494	-0.0061
561.688	-0.0024
561.882	-0.0039
562.076	-0.0115
562.2699	-0.0065
562.4639	-0.0041
562.6578	-0.0065
562.8517	-0.0037
563.0456	-0.0009
563.2395	-0.0045
563.4333	-0.0043
563.6272	-0.0082
563.821	-0.0047
564.0148	0.0059
564.2086	-0.0073
564.4024	-0.0062
564.5961	-0.0011
564.7899	-0.0021
564.9836	0.003
565.1773	-0.0042
565.371	-0.0002
565.5647	0.0008
565.7584	0.0022
565.952	-0.0017
566.1456	0.0005
566.3393	-0.0048
566.5329	-0.0003
566.7264	0.0025
566.92	-0.0031
567.1136	-0.0053
567.3071	0.0022
567.5006	-0.0041
567.6941	0.0016
567.8876	-0.0046
568.0811	-0.0018
568.2745	-0.0037
568.468	-0.006
568.6614	-0.009
568.8548	-0.0099
569.0482	-0.0079
569.2416	-0.0055
569.4349	-0.002
569.6283	-0.0081
569.8216	-0.0085
570.0149	-0.0086
570.2082	-0.003
570.4015	-0.0071
570.5947	-0.0053
570.788	-0.005
570.9812	-0.0043
571.1744	-0.0118
571.3676	-0.0057
571.5608	-0.0079
571.754	-0.0084
571.9471	-0.0053
572.1402	-0.006
572.3333	-0.0053
572.5264	0.0002
572.7195	-0.0004
572.9126	-0.004
573.1057	-0.0028
573.2987	-0.0022
573.4917	-0.0088
573.6847	-0.0024
573.8777	-0.0069
574.0707	-0.0041
574.2636	-0.0041
574.4566	-0.0006
574.6495	-0.006
574.8424	-0.0002
575.0353	-0.0081
575.2281	-0.0019
575.421	-0.0077
575.6138	-0.0009
575.8067	0.0012
575.9995	-0.0017
576.1923	-0.006
576.385	-0.0071
576.5778	-0.003
576.7706	-0.0032
576.9633	-0.0019
577.156	-0.0022
577.3487	0.0015
577.5414	-0.0002
577.734	0.0007
577.9267	0.0041
578.1193	-0.0041
578.3119	0.0027
578.5045	-0.0029
578.6971	-0.0002
578.8897	-0.0053
579.0822	-0.0032
579.2747	0.0025
579.4673	-0.0033
579.6598	-0.0004
579.8522	-0.0005
580.0447	-0.0046
580.2372	0.0044
580.4296	0.0024
580.622	-0.0011
580.8144	-0.0025
581.0068	-0.0021
581.1992	0.0038
581.3915	-0.0013
581.5839	-0.0025
581.7762	-0.0045
581.9685	-0.0032
582.1608	-0.0071
582.353	-0.0014
582.5453	-0.004
582.7375	-0.0004
582.9298	-0.0055
583.122	-0.0049
583.3142	-0.0029
583.5063	-0.0008
583.6985	-0.0033
583.8906	0.0001
584.0827	-0.0071
584.2749	-0.0054
584.4669	-0.0041
584.659	-0.0044
584.8511	-0.0029
585.0431	-0.0033
585.2352	-0.0078
585.4272	-0.0066
585.6192	-0.0047
585.8111	-0.0053
586.0031	-0.0011
586.195	-0.0001
586.387	0.0008
586.5789	-0.0052
586.7708	-0.0101
586.9627	-0.0051
587.1545	-0.0063
587.3464	-0.0044
587.5382	-0.0073
587.73	-0.0066
587.9218	-0.0059
588.1136	-0.0042
588.3053	-0.0031
588.4971	-0.0088
588.6888	-0.0096
588.8805	-0.0044
589.0722	0.0003
589.2639	-0.003
589.4556	-0.0059
589.6472	-0.0001
589.8389	-0.0009
590.0305	-0.0064
590.2221	-0.0061
590.4137	-0.0085
590.6052	-0.0064
590.7968	-0.0016
590.9883	-0.007
591.1798	-0.007
591.3713	0.0006
591.5628	-0.0042
591.7543	-0.0043
591.9458	0.0007
592.1372	0.001
592.3286	-0.0001
592.52	-0.0061
592.7114	0.0029
592.9028	-0.0044
593.0941	-0.002
593.2855	-0.0029
593.4768	0.0002
593.6681	0.0021
593.8594	0.002
594.0506	-0.0027
594.2419	0.0038
594.4331	-0.0042
594.6244	0.0013
594.8156	-0.0065
595.0067	-0.0008
595.1979	-0.0017
595.3891	-0.0037
595.5802	-0.0054
595.7713	-0.002
595.9624	0.0006
596.1535	0.0052
596.3446	-0.0023
596.5357	0
596.7267	-0.0004
596.9177	0.0026
597.1087	-0.0023
597.2997	-0.0006
597.4907	-0.0015
597.6817	-0.0019
597.8726	-0.0043
598.0635	-0.0049
598.2544	-0.0039
598.4453	-0.0035
598.6362	-0.0055
598.827	-0.0108
599.0179	-0.0021
599.2087	-0.0089
599.3995	-0.0046
599.5903	0.0024
599.7811	-0.0047
599.9718	0.0018
600.1626	0.001
600.3533	-0.0013
600.544	-0.0052
600.7347	0.0014
600.9254	0.0009
601.116	-0.0083
601.3067	-0.0044
601.4973	-0.0063
601.6879	0.0008
601.8785	-0.0041
602.0691	-0.0032
602.2596	-0.0026
602.4502	-0.0058
602.6407	0.0044
602.8312	-0.0023
603.0217	-0.0067
603.2122	-0.0034
603.4027	-0.0039
603.5931	-0.0037
603.7835	0.0012
603.9739	-0.0022
604.1643	-0.0018
604.3547	-0.0019
604.5451	-0.0017
604.7354	-0.0039
604.9257	-0.0091
605.116	-0.008
605.3063	-0.003
605.4966	-0.0003
605.6869	-0.0025
605.8771	-0.0038
606.0673	-0.0032
606.2575	-0.0021
606.4477	-0.0039
606.6379	-0.0095
606.8281	-0.0067
607.0182	-0.0106
607.2083	-0.0084
607.3985	-0.0065
607.5885	-0.0036
607.7786	0.0002
607.9687	0.003
608.1587	-0.0072
608.3488	-0.0064
608.5388	0.0001
608.7288	-0.0001
608.9187	-0.0019
609.1087	-0.0084
609.2986	-0.002
609.4886	-0.002
609.6785	-0.0004
609.8684	-0.0037
610.0582	-0.0022
610.2481	-0.0033
610.4379	0.0004
610.6278	-0.0006
610.8176	0.0008
611.0074	-0.0047
611.1971	-0.0016
611.3869	-0.0042
611.5766	0.0017
611.7664	-0.0002
611.9561	-0.0011
612.1458	0.0037
612.3354	-0.0073
612.5251	-0.0056
612.7147	-0.003
612.9044	-0.006
613.094	-0.0044
613.2836	-0.0024
613.4731	-0.0087
613.6627	-0.0025
613.8522	-0.0012
614.0417	-0.0069
614.2313	-0.0057
614.4207	0.0003
614.6102	0.0011
614.7997	-0.0013
614.9891	-0.0022
615.1785	-0.0055
615.3679	-0.0007
615.5573	-0.0035
615.7467	-0.0026
615.9361	-0.0003
616.1254	-0.0065
616.3147	-0.0075
616.504	-0.0033
616.6933	-0.0053
616.8826	-0.0028
617.0718	-0.0069
617.2611	-0.0016
617.4503	0.0016
617.6395	-0.0044
617.8287	-0.0023
618.0179	0.0019
618.207	-0.004
618.3961	-0.0045
618.5853	-0.0003
618.7744	-0.0003
618.9634	0.0001
619.1525	-0.0062
619.3416	-0.0096
619.5306	-0.0025
619.7196	-0.0012
619.9086	0.0015
620.0976	-0.0025
620.2866	-0.0014
620.4755	-0.0044
620.6645	-0.0025
620.8534	-0.0004
621.0423	-0.0086
621.2312	-0.0082
621.42	-0.003
621.6089	-0.0048
621.7977	-0.0023
621.9865	-0.0008
622.1753	-0.0029
622.3641	-0.0009
622.5529	-0.0017
622.7416	-0.0037
622.9303	0.0017
623.1191	-0.0026
623.3078	0.0021
623.4964	-0.0066
623.6851	-0.001
623.8737	0.0003
624.0624	0.0011
624.251	0.0017
624.4396	-0.0009
624.6282	-0.0019
624.8167	0.0021
625.0053	-0.0022
625.1938	0.0015
625.3823	-0.0012
625.5708	0.0007
625.7593	-0.0033
625.9477	-0.0043
626.1362	-0.0006
626.3246	-0.0008
626.513	-0.0077
626.7014	-0.0033
626.8898	-0.0031
627.0781	-0.0015
627.2665	-0.0032
627.4548	-0.0064
627.6431	-0.0064
627.8314	-0.0046
628.0197	-0.0007
628.2079	-0.0031
628.3962	0.0008
628.5844	0.0044
628.7726	0.0012
628.9608	-0.002
629.1489	0.0006
629.3371	0.0021
629.5252	0.0015
629.7134	-0.0016
629.9015	-0.0043
630.0895	-0.0055
630.2776	-0.0007
630.4657	-0.0015
630.6537	-0.0029
630.8417	-0.0005
631.0297	-0.0003
631.2177	0.0005
631.4057	0.001
631.5936	0.0024
631.7815	-0.0026
631.9695	-0.0032
632.1574	-0.0104
632.3452	-0.0093
632.5331	-0.0026
632.7209	-0.0077
632.9088	-0.0038
633.0966	-0.0041
633.2844	-0.0052
633.4722	-0.0039
633.6599	-0.0004
633.8477	-0.0015
634.0354	-0.0038
634.2231	-0.0065
634.4108	-0.0028
634.5985	-0.002
634.7861	-0.0067
634.9738	-0.0067
635.1614	-0.0074
635.349	-0.0042
635.5366	-0.0023
635.7242	-0.0013
635.9117	0.0025
636.0993	0.0001
636.2868	-0.0043
636.4743	-0.001
636.6618	-0.0053
636.8492	-0.0043
637.0367	-0.0053
637.2241	-0.0034
637.4115	-0.0033
637.5989	-0.0043
637.7863	-0.0012
637.9737	-0.0048
638.161	-0.0018
638.3484	-0.0064
638.5357	-0.004
638.723	-0.0007
638.9103	0.0016
639.0975	0.0001
639.2848	-0.0025
639.472	0.0024
639.6592	0.0047
639.8464	-0.0012
640.0336	-0.008
640.2208	0.0032
640.4079	-0.0044
640.595	0.0021
640.7821	-0.0026
640.9692	-0.0018
641.1563	0.0018
641.3434	-0.0003
641.5304	-0.0002
641.7174	-0.0001
641.9044	0.0045
642.0914	-0.0023
642.2784	0.0008
642.4653	0.0004
642.6523	-0.0037
642.8392	-0.0002
643.0261	0.0026
643.213	0.0009
643.3999	-0.0004
643.5867	-0.0017
643.7735	-0.0029
643.9604	-0.0034
644.1472	-0.003
644.3339	-0.0032
644.5207	-0.0016
644.7075	-0.0088
644.8942	-0.0019
645.0809	0.0012
645.2676	-0.0074
645.4543	0.0042
645.6409	-0.0026
645.8276	0.0002
646.0142	-0.004
646.2008	-0.0055
646.3874	-0.0039
646.574	-0.0075
646.7605	-0.001
646.9471	-0.008
647.1336	-0.0014
647.3201	-0.0058
647.5066	-0.0024
647.6931	0.002
647.8795	-0.003
648.0659	-0.004
648.2524	-0.0035
648.4388	-0.0026
648.6252	-0.006
648.8115	-0.0044
648.9979	-0.0051
649.1842	-0.0099
649.3705	-0.0035
649.5568	-0.0001
649.7431	-0.0045
649.9294	-0.0028
650.1156	-0.0049
650.3018	-0.0062
650.488	-0.0094
650.6742	-0.0011
650.8604	-0.0051
651.0466	0.0002
651.2327	-0.0024
651.4188	-0.0018
651.6049	0.0012
651.791	0.0008
651.9771	0.0002
652.1632	-0.0004
652.3492	0.001
652.5352	-0.0011
652.7212	-0.0037
652.9072	0.002
653.0932	-0.002
653.2791	-0.0032
653.465	0.0016
653.651	-0.0048
653.8369	-0.0035
654.0227	-0.0006
654.2086	-0.0003
654.3944	-0.0053
654.5803	-0.0041
654.7661	-0.0042
654.9519	-0.0038
655.1377	-0.0028
655.3234	-0.0002
655.5092	-0.0002
655.6949	-0.0002
655.8806	-0.0002
656.0663	-0.0002
656.2519	-0.0002
656.4376	-0.0049
656.6232	-0.0053
656.8088	-0.0032
656.9945	-0.0042
657.18	0.001
657.3656	-0.0029
657.5511	-0.0007
657.7367	-0.0032
657.9222	0.0031
658.1077	-0.0011
658.2932	-0.0079
658.4786	0.001
658.6641	-0.0004
658.8495	-0.0026
659.0349	-0.0044
659.2203	-0.0033
659.4057	-0.009
659.591	-0.0023
659.7764	-0.0085
659.9617	-0.0096
660.147	-0.0026
660.3323	-0.0068
660.5176	-0.0094
660.7028	-0.006
660.888	-0.0058
661.0733	0.0026
661.2585	-0.0033
661.4436	-0.0037
661.6288	-0.0086
661.8139	0.0031
661.9991	0.0013
662.1842	-0.002
662.3693	0.0002
662.5544	-0.0036
662.7394	-0.0001
662.9245	0.001
663.1095	0.0009
663.2945	-0.0028
663.4795	-0.0012
663.6644	-0.0073
663.8494	-0.0077
664.0343	-0.0096
664.2193	-0.0035
664.4042	-0.0081
664.589	-0.0062
664.7739	-0.0078
664.9587	-0.0022
665.1436	0.0007
665.3284	-0.0008
665.5132	-0.0017
665.698	0.0051
665.8827	0
666.0675	-0.0051
666.2522	-0.0077
666.4369	-0.0089
666.6216	-0.0076
666.8063	-0.0024
666.9909	-0.0097
667.1756	-0.0072
667.3602	-0.0079
667.5448	-0.0118
667.7294	-0.0002
667.9139	-0.0042
668.0985	-0.0143
668.283	-0.0067
668.4675	-0.0176
668.652	-0.0082
668.8365	-0.0101
669.0209	-0.0104
669.2054	-0.0105
669.3898	-0.0059
669.5742	-0.0073
669.7586	-0.0055
669.943	-0.0056
670.1273	-0.0143
670.3117	-0.0037
670.496	-0.0051
670.6803	-0.0005
670.8646	-0.0044
671.0488	-0.0032
671.2331	-0.0013
671.4173	-0.0023
671.6015	-0.0026
671.7857	-0.0077
671.9699	-0.006
672.1541	-0.0051
672.3382	-0.0062
672.5223	-0.0045
672.7064	-0.0101
672.8905	-0.014
673.0746	-0.0116
673.2587	-0.0184
673.4427	-0.015
673.6267	-0.0118
673.8107	-0.0121
673.9947	-0.0107
674.1787	-0.0102
674.3626	-0.0077
674.5465	-0.0072
674.7304	-0.0001
674.9143	-0.0025
675.0982	-0.0045
675.2821	-0.0071
675.4659	-0.0085
675.6497	0.0002
675.8335	-0.0016
676.0173	-0.0055
676.2011	-0.0039
676.3849	-0.0068
676.5686	-0.0041
676.7523	-0.0055
676.936	-0.001
677.1197	-0.0049
677.3034	-0.0079
677.487	-0.0061
677.6706	-0.0061
677.8542	-0.0041
678.0378	0.0016
678.2214	-0.0087
678.405	-0.0054
678.5885	-0.0059
678.772	-0.0022
678.9555	-0.0038
679.139	-0.0066
679.3225	-0.0099
679.5059	-0.0085
679.6894	-0.0035
679.8728	-0.0026
680.0562	0.0019
680.2395	-0.0104
680.4229	-0.0012
680.6062	-0.0007
680.7896	0.0003
680.9729	-0.0009
681.1562	-0.0028
681.3394	-0.0011
681.5227	-0.0017
681.7059	-0.0027
681.8891	-0.0071
682.0723	-0.0046
682.2555	-0.0042
682.4387	-0.0024
682.6218	-0.0064
682.805	-0.0044
682.9881	-0.0049
683.1712	0.0025
683.3542	-0.0043
683.5373	-0.0049
683.7203	-0.0027
683.9034	0.0016
684.0864	-0.0045
684.2694	-0.0056
684.4523	-0.0017
684.6353	-0.0039
684.8182	-0.0012
685.0011	-0.007
685.184	-0.0004
685.3669	-0.007
685.5498	-0.0035
685.7326	-0.0032
685.9154	-0.0039
686.0982	-0.0062
686.281	-0.0076
686.4638	-0.0067
686.6465	-0.003
686.8293	-0.003
687.012	-0.0051
687.1947	-0.004
687.3774	-0.0047
687.56	-0.0041
687.7427	-0.0046
687.9253	-0.0022
688.1079	0.0012
688.2905	-0.004
688.4731	0.0015
688.6556	-0.007
688.8382	-0.0002
689.0207	-0.0035
689.2032	0.001
689.3857	0.0011
689.5681	-0.0009
689.7506	-0.0024
689.933	0.0037
690.1154	0.0033
690.2978	-0.0017
690.4802	0.0006
690.6626	0.0063
690.8449	0.003
691.0272	0.0032
691.2095	0.0037
691.3918	-0.0067
691.5741	-0.0053
691.7563	-0.0007
691.9386	-0.0071
692.1208	-0.0071
692.303	-0.0074
692.4852	-0.0028
692.6673	-0.0074
692.8495	-0.0092
693.0316	-0.0029
693.2137	-0.0029
693.3958	-0.0052
693.5778	-0.0034
693.7599	-0.0085
693.9419	-0.009
694.1239	-0.004
694.3059	-0.0095
694.4879	-0.0041
694.6699	-0.0064
694.8518	-0.0096
695.0337	-0.0063
695.2157	-0.009
695.3975	-0.0059
695.5794	-0.0053
695.7613	-0.0077
695.9431	-0.0052
696.1249	-0.0067
696.3067	-0.0049
696.4885	-0.0006
696.6703	-0.0035
696.852	-0.0046
697.0337	0.0001
697.2154	-0.0053
697.3971	-0.0056
697.5788	-0.009
697.7605	-0.0048
697.9421	-0.0043
698.1237	-0.0045
698.3053	-0.0038
698.4869	-0.0046
698.6685	-0.006
698.85	-0.0072
699.0315	-0.0059
699.213	0.0013
699.3945	0.0002
699.576	0.0062
699.7575	0.0012
699.9389	-0.0024
700.1203	-0.0065
700.3017	-0.0052
700.4831	-0.0041
700.6645	-0.0049
700.8458	-0.0055
701.0271	-0.0057
701.2084	-0.0073
701.3897	-0.0064
701.571	0.0002
701.7523	-0.0022
701.9335	-0.001
702.1147	0.0027
702.2959	-0.0052
702.4771	-0.0067
702.6583	0.0001
702.8394	-0.0072
703.0205	0.002
703.2016	-0.0031
703.3827	0.0027
703.5638	-0.0064
703.7449	-0.0039
703.9259	-0.0007
704.1069	-0.0065
704.2879	-0.003
704.4689	-0.0053
704.6499	-0.0022
704.8308	-0.0016
705.0117	-0.0056
705.1927	-0.0005
705.3735	0.0029
705.5544	0.0037
705.7353	0.0008
705.9161	-0.0011
706.0969	0.0036
706.2777	-0.0034
706.4585	-0.0007
706.6393	-0.0079
706.82	-0.0042
707.0007	-0.0046
707.1815	0.0032
707.3621	-0.0038
707.5428	-0.0058
707.7235	0.0014
707.9041	0.0005
708.0847	-0.0018
708.2653	-0.0025
708.4459	-0.0073
708.6265	-0.0077
708.807	0.0007
708.9875	-0.0048
709.168	-0.0011
709.3485	-0.0013
709.529	-0.0077
709.7095	-0.0063
709.8899	-0.0086
710.0703	-0.003
710.2507	-0.0003
710.4311	0.0022
710.6115	0.0022
710.7918	-0.0035
710.9721	-0.0002
711.1524	-0.0019
711.3327	0.0024
711.513	-0.0049
711.6932	-0.0089
711.8735	0.0048
712.0537	-0.0035
712.2339	-0.0033
712.4141	-0.0074
712.5942	-0.0012
712.7744	-0.0022
712.9545	0.0026
713.1346	-0.0026
713.3147	0.0028
713.4947	0.0067
713.6748	-0.0027
713.8548	-0.0031
714.0348	-0.0043
714.2148	-0.0081
714.3948	-0.0037
714.5748	-0.0094
714.7547	-0.0084
714.9346	-0.0064
715.1145	-0.0079
715.2944	-0.0013
715.4743	-0.0077
715.6541	-0.0019
715.834	0.0008
716.0138	-0.0014
716.1936	-0.0001
716.3733	-0.0059
716.5531	-0.0062
716.7328	-0.0022
716.9126	0.0005
717.0923	-0.0037
717.2719	-0.0098
717.4516	-0.008
717.6312	0.0018
717.8109	-0.0052
717.9905	-0.0035
718.1701	-0.0007
718.3496	-0.0056
718.5292	-0.0028
718.7087	-0.0054
718.8882	-0.0076
719.0677	-0.0067
719.2472	-0.0002
719.4267	-0.0117
719.6061	-0.0113
719.7856	-0.0057
719.965	-0.0124
720.1443	-0.0039
720.3237	-0.0058
720.5031	-0.0083
720.6824	-0.0045
720.8617	-0.0077
721.041	0.003
721.2203	-0.0069
721.3995	0.0002
721.5788	-0.0043
721.758	0.001
721.9372	-0.01
722.1164	-0.0045
722.2956	-0.0093
722.4747	-0.0018
722.6538	-0.012
722.8329	-0.0028
723.012	-0.0052
723.1911	0.0013
723.3702	0.0018
723.5492	-0.0052
723.7282	-0.0002
723.9072	-0.0008
724.0862	-0.0041
724.2652	-0.0006
724.4441	-0.0073
724.623	-0.007
724.8019	0.0026
724.9808	-0.0074
725.1597	0.0021
725.3385	0.0027
725.5174	-0.0001
725.6962	-0.0061
725.875	0.0011
726.0538	0.0008
726.2325	-0.0021
726.4112	-0.0046
726.59	-0.0077
726.7687	-0.0004
726.9474	-0.0039
727.126	-0.0099
727.3047	-0.0067
727.4833	0.0012
727.6619	-0.007
727.8405	-0.0039
728.0191	-0.0022
728.1976	-0.006
728.3762	-0.0054
728.5547	-0.0087
728.7332	-0.0027
728.9116	-0.0136
729.0901	-0.0177
729.2686	-0.0108
729.447	-0.006
729.6254	-0.0092
729.8038	-0.0075
729.9821	-0.0038
730.1605	-0.0046
730.3388	-0.0009
730.5171	0.0034
730.6954	0.0012
730.8737	-0.0026
731.0519	0.0038
731.2302	-0.0012
731.4084	0.0093
731.5866	0.0023
731.7648	0.0016
731.9429	-0.0005
732.1211	0.0025
732.2992	0.0012
732.4773	0.0017
732.6554	-0.0009
732.8335	-0.007
733.0115	-0.005
733.1896	-0.0098
733.3676	-0.0053
733.5456	-0.0026
733.7235	-0.0041
733.9015	0.0004
734.0794	-0.0045
734.2574	-0.0029
734.4353	-0.006
734.6131	0.0047
734.791	-0.0028
734.9689	-0.0054
735.1467	0.004
735.3245	0.0005
735.5023	-0.0048
735.68	-0.0054
735.8578	-0.003
736.0355	0.0109
736.2132	-0.002
736.3909	-0.004
736.5686	-0.0007
736.7463	-0.0051
736.9239	-0.0032
737.1015	0.0013
737.2791	-0.0042
737.4567	-0.0085
737.6343	-0.0074
737.8118	-0.0097
737.9894	-0.0004
738.1669	0.0002
738.3444	-0.0083
738.5218	0.0024
738.6993	-0.0011
738.8767	0.0005
739.0541	-0.007
739.2315	-0.0073
739.4089	-0.0043
739.5863	-0.0115
739.7636	-0.0015
739.9409	-0.0014
740.1182	0.0013
740.2955	-0.0001
740.4728	-0.0067
740.65	-0.0057
740.8272	0.003
741.0044	-0.0022
741.1816	0.0023
741.3588	0.0048
741.5359	-0.0038
741.7131	0.0084
741.8902	0.0005
742.0673	0.0058
742.2444	-0.0036
742.4214	-0.0029
742.5985	-0.0031
742.7755	-0.0023
742.9525	0.0003
743.1295	-0.004
743.3064	-0.0037
743.4834	0.0006
743.6603	-0.0061
743.8372	-0.0029
744.0141	0.0017
744.191	-0.0046
744.3678	-0.0046
744.5446	-0.0007
744.7215	-0.009
744.8982	-0.0051
745.075	0.0006
745.2518	-0.0081
745.4285	-0.002
745.6052	0.0035
745.7819	-0.0035
745.9586	0
746.1353	-0.0045
746.3119	-0.0032
746.4885	-0.0025
746.6651	-0.0019
746.8417	-0.0049
747.0183	-0.0059
747.1948	-0.0025
747.3714	-0.0053
747.5479	-0.0025
747.7244	0.0003
747.9008	0.0033
748.0773	0.0045
748.2537	0.0061
748.4301	0.0054
748.6065	-0.0003
748.7829	0.0035
748.9593	0.0045
749.1356	-0.0061
749.3119	-0.0033
749.4882	0.0046
749.6645	0.0023
749.8408	-0.0026
750.017	-0.0034
750.1933	-0.0061
750.3695	-0.007
750.5457	-0.0068
750.7218	-0.0096
750.898	-0.0043
751.0741	-0.0079
751.2502	-0.0024
751.4263	-0.0071
751.6024	-0.0061
751.7784	-0.0019
751.9545	-0.0044
752.1305	-0.0023
752.3065	-0.002
752.4825	0.0017
752.6584	-0.005
752.8344	-0.0052
753.0103	-0.0044
753.1862	0.0038
753.3621	0.002
753.5379	-0.0069
753.7138	0.0065
753.8896	-0.0127
754.0654	-0.0046
754.2412	-0.0122
754.417	-0.0123
754.5927	-0.0028
754.7685	-0.0101
754.9442	-0.0105
755.1199	-0.0113
755.2956	-0.0113
755.4712	-0.0063
755.6469	-0.0112
755.8225	-0.0106
755.9981	-0.0037
756.1736	-0.0017
756.3492	-0.0088
756.5248	0.0014
756.7003	-0.0085
756.8758	-0.0108
757.0513	-0.0099
757.2267	-0.0149
757.4022	-0.0095
757.5776	-0.0088
757.753	-0.0164
757.9284	-0.007
758.1038	-0.0098
758.2791	-0.0171
758.4545	-0.0083
758.6298	-0.0069
758.8051	-0.0113
758.9803	-0.0134
759.1556	-0.0097
759.3308	-0.0078
759.506	-0.008
759.6812	-0.0143
759.8564	-0.0048
760.0316	-0.0129
760.2067	-0.0105
760.3819	-0.0101
760.557	-0.0096
760.732	-0.0125
760.9071	-0.0145
761.0821	-0.0111
761.2572	-0.0149
761.4322	-0.0087
761.6072	-0.0151
761.7821	-0.0094
761.9571	-0.0119
762.132	-0.0105
762.3069	-0.0029
762.4818	-0.006
762.6567	-0.0103
762.8316	-0.0025
763.0064	-0.0012
763.1812	-0.0011
763.356	0.0001
763.5308	-0.0013
763.7055	0.0041
763.8803	-0.0039
764.055	-0.0045
764.2297	-0.0004
764.4044	0.0036
764.579	-0.0056
764.7537	-0.0029
764.9283	-0.0107
765.1029	0.0041
765.2775	0.0048
765.4521	0.006
765.6266	0.003
765.8011	0.0092
765.9756	-0.0025
766.1501	0.0002
766.3246	-0.0029
766.4991	-0.0079
766.6735	0.0006
766.8479	-0.0107
767.0223	-0.003
767.1967	-0.0078
767.371	0.0004
767.5454	0.0015
767.7197	-0.007
767.894	-0.0022
768.0683	-0.0016
768.2425	0.0003
768.4168	-0.0126
768.591	0.0001
768.7652	0.0035
768.9394	0.0027
769.1135	0.0004
769.2877	0.0008
769.4618	0.0038
769.6359	-0.0016
769.81	0.0002
769.984	-0.0069
770.1581	0.0041
770.3321	0.0019
770.5061	0.0023
770.6801	0.0022
770.8541	0.0036
771.028	0.009
771.202	0.0051
771.3759	0.0028
771.5498	-0.0019
771.7236	0.0015
771.8975	-0.0021
772.0713	0.0044
772.2451	0.0012
772.4189	0.0008
772.5927	-0.002
772.7665	-0.0075
772.9402	0.0005
773.1139	-0.0011
773.2876	0.0076
773.4613	-0.0022
773.635	-0.0024
773.8086	0.0043
773.9822	0.0082
774.1558	-0.0104
774.3294	0.0039
774.503	0.0036
774.6765	-0.0079
774.8501	0.0085
775.0236	-0.0093
775.1971	-0.0071
775.3705	0.0017
775.544	-0.0032
775.7174	0.0074
775.8908	-0.0096
776.0642	-0.0002
776.2376	-0.0029
776.4109	-0.0047
776.5843	0.0014
776.7576	0.0026
776.9309	0.004
777.1041	-0.0031
777.2774	0.0097
777.4506	-0.0003
777.6238	-0.0009
777.797	-0.0003
777.9702	-0.0105
778.1434	-0.0106
778.3165	0.0042
778.4896	-0.0077
778.6627	-0.009
778.8358	-0.0035
779.0089	-0.0033
779.1819	-0.0095
779.3549	-0.0135
779.5279	-0.0041
779.7009	-0.0085
779.8739	-0.0011
780.0468	-0.0103
780.2197	0.0025
780.3926	-0.0035
780.5655	-0.0051
780.7384	-0.0153
780.9112	-0.0105
781.0841	0.0026
781.2569	0.0035
781.4297	-0.0065
781.6024	-0.005
781.7752	-0.0083
781.9479	-0.0064
782.1206	-0.0002
782.2933	-0.0024
782.466	-0.0033
782.6386	0.0022
782.8113	-0.0177
782.9839	-0.0118
783.1565	-0.0098
783.329	-0.0086
783.5016	0.0033
783.6741	-0.0112
783.8466	-0.0139
784.0191	-0.0108
784.1916	-0.0049
784.3641	-0.0085
784.5365	-0.0042
784.7089	0.0045
784.8813	-0.0004
785.0537	0.0073
785.2261	-0.0031
785.3984	-0.0014
785.5707	0.0017
785.743	-0
785.9153	0.0045
786.0876	0.0028
786.2598	-0.0012
786.432	-0.0016
786.6042	0.0055
786.7764	0.0025
786.9486	-0.0044
787.1207	-0.0104
787.2928	0.0052
787.4649	-0.0081
787.637	-0.0056
787.8091	0.0036
787.9811	-0.0008
788.1532	0.0047
788.3252	-0.0011
788.4972	0.0009
788.6691	0.0008
788.8411	0.0071
789.013	-0.0068
789.1849	0.0016
789.3568	-0.0034
789.5287	-0.0027
789.7005	-0.0042
789.8723	-0.0056
790.0442	-0.0094
790.2159	0.0041
790.3877	-0.0158
790.5595	-0.0081
790.7312	0.0017
790.9029	-0.003
791.0746	-0.0091
791.2463	-0.0022
791.4179	-0.008
791.5896	0.0022
791.7612	-0.0021
791.9328	-0.0011
792.1044	-0.0085
792.2759	0.0084
792.4474	0.0041
792.619	-0.0109
792.7905	-0.0139
792.9619	-0.0068
793.1334	-0.0103
793.3048	-0.0107
793.4762	-0.0066
793.6476	-0.0219
793.819	-0.0078
793.9904	-0.0086
794.1617	-0.0124
794.333	-0.0124
794.5043	-0.0008
794.6756	0.0037
794.8469	-0.0028
795.0181	-0.0069
795.1893	-0.0108
795.3605	-0.0084
795.5317	-0.0082
795.7029	-0.0079
795.874	-0.0079
796.0452	-0.0164
796.2163	-0.0077
796.3873	-0.0156
796.5584	-0.0148
796.7294	-0.0078
796.9005	-0.0154
797.0715	-0.0136
797.2425	-0.0132
797.4134	-0.0191
797.5844	-0.0157
797.7553	-0.0172
797.9262	-0.0138
798.0971	-0.0101
798.2679	-0.0084
798.4388	-0.0063
798.6096	-0.0039
798.7804	-0.015
798.9512	-0.0152
799.122	-0.0121
799.2927	-0.0153
799.4635	-0.0046
799.6342	-0.0148
799.8049	-0.0143
799.9755	-0.0087
800.1462	-0.0185
800.3168	-0.0154
800.4874	-0.0076
800.658	-0.0177
800.8286	-0.013
800.9991	-0.0193
801.1696	-0.0139
801.3402	-0.0204
801.5106	-0.0186
801.6811	-0.0213
801.8516	-0.0179
802.022	-0.0286
802.1924	-0.0259
802.3628	-0.0199
802.5332	-0.0125
802.7035	-0.0156
802.8739	-0.0138
803.0442	-0.0125
803.2145	-0.0157
803.3847	-0.022
803.555	-0.0095
803.7252	-0.0088
803.8954	-0.0151
804.0656	0.0026
804.2358	-0.0159
804.4059	-0.0123
804.5761	-0.0127
804.7462	-0.0034
804.9163	-0.0136
805.0864	-0.0171
805.2564	-0.0169
805.4264	-0.0176
805.5965	-0.0204
805.7665	-0.0119
805.9364	-0.0182
806.1064	-0.0111
806.2763	-0.0161
806.4462	-0.0091
806.6161	-0.0069
806.786	-0.0172
806.9559	-0.0083
807.1257	-0.0139
807.2955	-0.0141
807.4653	-0.0117
807.6351	-0.003
807.8048	-0.0001
807.9746	-0.0063
808.1443	0.0022
808.314	-0.0026
808.4837	-0.0014
808.6533	-0.0009
808.8229	-0.005
808.9926	0.0062
809.1622	-0.0049
809.3317	0.011
809.5013	0.0051
809.6708	0.0016
809.8403	-0.003
810.0098	0.0022
810.1793	-0.0078
810.3488	0.0083
810.5182	-0.006
810.6876	0.0024
810.857	-0.0152
811.0264	-0.0086
811.1958	-0.0007
811.3651	-0.0108
811.5344	-0.0149
811.7037	-0.0101
811.873	-0.0118
812.0422	-0.0139
812.2115	0.0055
812.3807	0.0005
812.5499	-0.0043
812.7191	-0.0189
812.8882	-0.0025
813.0574	-0.0138
813.2265	-0.0044
813.3956	-0.0087
813.5646	-0.0157
813.7337	-0.0012
813.9027	0.0031
814.0718	-0.0034
814.2407	0.0195
814.4097	-0.007
814.5787	-0.0028
814.7476	-0.0184
814.9165	0.0081
815.0854	-0.0158
815.2543	0.0024
815.4232	-0.0041
815.592	-0.0001
815.7608	0.0027
815.9296	0.0084
816.0984	-0.0002
816.2671	0.0004
816.4359	-0.0055
816.6046	0.0055
816.7733	-0.0053
816.942	-0.003
817.1106	-0.0038
817.2793	-0.0008
817.4479	-0.0074
817.6165	-0.0133
817.785	-0.0072
817.9536	-0.0033
818.1221	-0.0203
818.2906	0.0046
818.4591	-0.0259
818.6276	0.0099
818.7961	-0.0222
818.9645	-0.0071
819.1329	-0.0077
819.3013	-0.0126
819.4697	-0.0115
819.638	-0.0053
819.8064	-0.0082
819.9747	0.0098
820.143	-0.0031
820.3113	-0.0135
820.4795	0.0055
820.6477	-0.0035
820.816	-0.0063
820.9842	-0.0102
821.1523	-0.0256
821.3205	-0.0159
821.4886	-0.0052
821.6567	-0.0075
821.8248	-0.0146
821.9929	-0.0073
822.1609	-0.011
822.329	-0.0186
822.497	-0.0153
822.665	-0.0016
822.833	-0.0287
823.0009	-0.008
823.1688	-0.01
823.3367	-0.0099
823.5046	0.0018
823.6725	-0.0172
823.8404	0.0008
824.0082	0.003
824.176	0.005
824.3438	-0.0109
824.5116	0.011
824.6793	-0.0088
824.847	-0.0019
825.0147	0.0019
825.1824	-0.0177
825.3501	0.0002
825.5177	-0.0139
825.6854	0.0024
825.853	0.0069
826.0206	-0.0001
826.1881	-0.0066
826.3557	-0.008
826.5232	0.0041
826.6907	0.007
826.8582	0.0104
827.0257	-0.0159
827.1931	0.0092
827.3605	-0.0107
827.528	-0.0062
827.6953	0.017
827.8627	-0.0014
828.03	-0.0233
828.1974	-0.0073
828.3647	0.0109
828.532	-0.0086
828.6992	-0.0083
828.8665	-0.0162
829.0337	-0.0061
829.2009	-0.0262
829.3681	-0.0302
829.5352	-0.0035
829.7024	-0.0065
829.8695	-0.0277
830.0366	-0.0389
830.2037	-0.0073
830.3707	-0.0258
830.5378	-0.0018
830.7048	-0.0417
830.8718	-0.0084
831.0388	-0.0148
831.2057	-0.0189
831.3727	-0.0187
831.5396	0.0087
831.7065	0.0102
831.8734	0.0099
832.0402	-0.0333
832.2071	0.0065
832.3739	0.0091
832.5407	-0.011
832.7075	0.0117
832.8742	0.0048
833.041	0.0079
833.2077	-0.0324
833.3744	-0.0001
833.541	0.0086
833.7077	-0.0103
833.8743	-0.0049
834.0409	0.0047
834.2075	0.0092
834.3741	-0.0019
834.5407	-0.0082
834.7072	-0.0143
834.8737	0.011
835.0402	-0.0369
835.2067	-0.0214
835.3731	-0.0196
835.5395	-0.0158
835.706	-0.029
835.8723	-0.0256
836.0387	-0.0385
836.2051	-0.0257
836.3714	-0.0221
836.5377	0.0112
836.704	-0.0091
836.8703	-0.0323
837.0365	0.0057
837.2027	-0.017
837.3689	-0.0091
837.5351	0.0042
837.7013	-0.0051
837.8674	-0.0019
838.0335	-0.002
838.1997	0.011
838.3657	-0.0139
838.5318	0.0088
838.6978	-0.0235
838.8639	0.0035
839.0299	-0.0072
839.1958	0.0043
839.3618	0.0051
839.5277	-0.007
839.6937	-0.0128
839.8596	-0.0171
840.0254	-0.0087
840.1913	-0.0027
840.3571	0.0189
840.523	-0.0123
840.6888	-0.0133
840.8545	-0.007
841.0203	-0.0116
841.186	-0.0254
841.3517	-0.0142
841.5174	-0.0065
841.6831	-0.0103
841.8488	0.0085
842.0144	0.0066
842.18	0.0054
842.3456	-0.009
842.5112	-0.0061
842.6767	-0.0098
842.8422	0.0075
843.0077	-0.0156
843.1732	-0.0116
843.3387	-0.0243
843.5042	-0.0016
843.6696	-0.014
843.835	-0.0376
844.0004	-0.0036
844.1657	-0.0178
844.3311	-0.0103
844.4964	0.0153
844.6617	0.0186
844.827	-0.007
844.9923	0.0001
845.1575	0.0045
845.3227	-0.0242
845.4879	-0.0113
845.6531	-0.001
845.8183	-0.0271
845.9834	-0.0036
846.1485	0.0052
846.3136	-0.0644
846.4787	-0.0182
846.6438	-0.0185
846.8088	0.014
846.9738	0.0035
847.1388	-0.0147
847.3038	-0.0037
847.4687	-0.0067
847.6337	0.0164
847.7986	0.0229
847.9635	-0.02
848.1284	-0.0199
848.2932	0.029
848.458	0.0064
848.6228	0.0092
848.7876	-0.0446
848.9524	0.0437
849.1172	-0.043
849.2819	0.0298
849.4466	-0.0369
849.6113	-0.0149
849.7759	0.0111
849.9406	0.005
850.1052	0.0002
850.2698	0.0124
850.4344	-0.0226
850.599	-0.0478
850.7635	0.0262
850.928	-0.0255
851.0925	0.0057
851.257	-0.0049
851.4215	0.0026
851.5859	0.0061
851.7503	-0.0155
851.9147	-0.0167
852.0791	-0.0253
852.2434	-0.007
852.4078	0.0153
852.5721	-0.0159
852.7364	-0.083
852.9007	0.0229
853.0649	-0.0106
853.2291	0.0117
853.3934	-0.0112
853.5575	0.0157
853.7217	-0.027
853.8859	0.0024
854.05	-0.0173
854.2141	-0.0411
854.3782	0.0177
854.5423	-0.0389
854.7063	-0.021
854.8703	-0.0255
855.0343	-0.0593
855.1983	-0.0256
855.3623	-0.0435
855.5262	0.0649
855.6901	-0.0006
855.854	-0.0156
856.0179	0.0259
856.1818	0.0201
856.3456	-0.0522
856.5094	0.0024
856.6732	-0.0172
856.837	-0.0852
857.0008	0.027
857.1645	-0.003
857.3282	-0.0266
857.4919	-0.0845
857.6556	0.035
857.8192	-0.0146
857.9828	0.0861
858.1465	0.0126
858.31	0.0058
858.4736	-0.0763
858.6372	-0.0326
858.8007	-0.0613
858.9642	-0.0263
859.1277	0.0485
859.2911	0.0216
859.4546	-0.0647
859.618	-0.0606
859.7814	0.0346
859.9448	-0.0896
860.1081	-0.1105
860.2715	0.0032
860.4348	-0.0717
860.5981	-0.0346
860.7614	-0.0308
860.9246	-0.0537
861.0879	-0.0913
861.2511	-0.0469
861.4143	-0.0963
861.5774	-0.0941
861.7406	-0.0175
861.9037	-0.1817
862.0668	-0.0013
862.2299	-0.0975
862.393	0.0134
862.556	0.0949
862.7191	-0.0934
862.8821	0.0316
863.0451	0.0042
863.208	-0.1392
863.371	0.0353
863.5339	0.0299
863.6968	-0.0758
863.8597	0.0148
864.0225	-0.1111
864.1854	-0.0742
864.3482	-0.1921
864.511	-0.0347
864.6737	-0.1014
864.8365	-0.0312
864.9992	-0.064
865.1619	-0.0296
865.3246	-0.1022
865.4873	0.0511
865.65	0.1172
865.8126	-0.0286
865.9752	0.1144
866.1378	-0.1467
866.3004	-0.0466
866.4629	-0.0811
866.6254	0.09
866.7879	0.0295
866.9504	-0.1949
867.1129	-0.0905
867.2753	-0.0803
867.4377	-0.0794
867.6001	-0.1142
867.7625	-0.0926
867.9249	-0.0144
868.0872	-0.1606
868.2495	-0.1208
868.4118	-0.0769
868.5741	-0.1572
868.7363	0.0949
868.8986	-0.068
869.0608	-0.0794
869.223	-0.1364
869.3851	-0.0826
869.5473	-0.2059
869.7094	-0.1526
869.8715	-0.1094
870.0336	-0.0359
870.1957	-0.0389
870.3577	0.0016
870.5197	-0.5133
870.6817	-0.1137
870.8437	-0.1911
871.0057	-0.1436
871.1676	-0.1423
871.3295	-0.3706
871.4914	-0.0061
871.6533	0.215
871.8151	0.0736
871.977	0.0651
872.1388	-0.1006
872.3006	-0.1864
872.4623	-0.1802
872.6241	-0.0592
872.7858	-0.196
872.9475	-0.033
873.1092	-0.1686
873.2709	-0.2629
873.4325	-0.1956
873.5941	0.2204
873.7557	-0.1704
873.9173	-0.0292
874.0789	-0.2317
874.2404	0.0178
874.4019	-0.2422
874.5634	-0.2042
874.7249	-0.4247
874.8863	-0.1561
875.0478	-0.3349
875.2092	-0.2988
875.3706	-0.2114
875.5319	-0.3154
875.6933	-0.183
875.8546	-0.2986
876.0159	0.1876
876.1772	-0.412
876.3385	0.0162
876.4997	-0.2679
876.6609	-0.3731
876.8221	0.0884
876.9833	-0.5677
877.1445	0.1613
877.3056	-0.1696
877.4667	-1.0291
877.6278	0.0785
877.7889	0.1062
877.9499	-0.5172
878.111	0.2262
878.272	-0.0771
878.433	0.23
878.5939	0.2431
878.7549	-0.1153
878.9158	0.2678
879.0767	0.2331
879.2376	0.0767
879.3984	-0.085
879.5593	-0.2124
879.7201	-0
879.8809	-0.0844
880.0417	-0.0113
880.2024	-0.1767
880.3632	-0.2344
880.5239	-0
880.6846	-0.5566
880.8452	-0.0577
881.0059	-0.5992
881.1665	-0
881.3271	-0.3904
881.4877	-0.1452
881.6483	-0
881.8088	-0.2472
881.9693	-0.059
882.1298	-0.059
882.2903	-0.059
